##NAMES=Mangani-obertiite
##RRUFFID=R141096
##IDEAL CHEMISTRY=NaNa_2_(Mg_3_Mn^3+^Ti^4+^)Si_8_O_22_O_2_
##LOCALITY=Caspar quarry, Bellerberg volcano, Mayen, Eifel, Germany
##OWNER=RRUFF
##SOURCE=Ch. and H. Sch√§fer
##DESCRIPTION=Acicular salmon-colored crystals, orthoclase, quartz, and allanite
##STATUS=The identification of this mineral has been confirmed only by single crystal X-ray diffraction.
##URL=rruff.info/R141096
8.806445e+001, 2.402355e+003
8.854657e+001, 2.342232e+003
8.902869e+001, 2.321454e+003
8.951080e+001, 2.359384e+003
8.999292e+001, 2.427876e+003
9.047504e+001, 2.501195e+003
9.095715e+001, 2.574184e+003
9.143927e+001, 2.646122e+003
9.192139e+001, 2.716394e+003
9.240350e+001, 2.784847e+003
9.288562e+001, 2.852655e+003
9.336774e+001, 2.901595e+003
9.384985e+001, 2.912565e+003
9.433197e+001, 2.884487e+003
9.481409e+001, 2.855984e+003
9.529620e+001, 2.820319e+003
9.577832e+001, 2.788706e+003
9.626044e+001, 2.762971e+003
9.674255e+001, 2.742180e+003
9.722467e+001, 2.725297e+003
9.770679e+001, 2.712943e+003
9.818890e+001, 2.700361e+003
9.867102e+001, 2.685491e+003
9.915314e+001, 2.670258e+003
9.963525e+001, 2.655736e+003
1.001174e+002, 2.642229e+003
1.005995e+002, 2.629748e+003
1.010816e+002, 2.618704e+003
1.015637e+002, 2.607390e+003
1.020458e+002, 2.599044e+003
1.025280e+002, 2.594184e+003
1.030101e+002, 2.591769e+003
1.034922e+002, 2.590394e+003
1.039743e+002, 2.589108e+003
1.044564e+002, 2.587799e+003
1.049385e+002, 2.587247e+003
1.054207e+002, 2.589431e+003
1.059028e+002, 2.590231e+003
1.063849e+002, 2.587112e+003
1.068670e+002, 2.580062e+003
1.073491e+002, 2.571005e+003
1.078312e+002, 2.560775e+003
1.083134e+002, 2.549524e+003
1.087955e+002, 2.540508e+003
1.092776e+002, 2.534944e+003
1.097597e+002, 2.531567e+003
1.102418e+002, 2.528937e+003
1.107239e+002, 2.527340e+003
1.112061e+002, 2.525271e+003
1.116882e+002, 2.520396e+003
1.121703e+002, 2.513434e+003
1.126524e+002, 2.507973e+003
1.131345e+002, 2.507688e+003
1.136166e+002, 2.512115e+003
1.140988e+002, 2.513353e+003
1.145809e+002, 2.507451e+003
1.150630e+002, 2.500341e+003
1.155451e+002, 2.494961e+003
1.160272e+002, 2.491536e+003
1.165093e+002, 2.489015e+003
1.169915e+002, 2.486175e+003
1.174736e+002, 2.482906e+003
1.179557e+002, 2.479492e+003
1.184378e+002, 2.474910e+003
1.189199e+002, 2.470766e+003
1.194020e+002, 2.468227e+003
1.198842e+002, 2.467654e+003
1.203663e+002, 2.468516e+003
1.208484e+002, 2.469646e+003
1.213305e+002, 2.472421e+003
1.218126e+002, 2.473738e+003
1.222947e+002, 2.473009e+003
1.227769e+002, 2.470877e+003
1.232590e+002, 2.467805e+003
1.237411e+002, 2.463809e+003
1.242232e+002, 2.459457e+003
1.247053e+002, 2.457459e+003
1.251874e+002, 2.459243e+003
1.256696e+002, 2.461243e+003
1.261517e+002, 2.462208e+003
1.266338e+002, 2.462309e+003
1.271159e+002, 2.462319e+003
1.275980e+002, 2.462876e+003
1.280801e+002, 2.463634e+003
1.285623e+002, 2.463555e+003
1.290444e+002, 2.461979e+003
1.295265e+002, 2.460001e+003
1.300086e+002, 2.458796e+003
1.304907e+002, 2.458541e+003
1.309728e+002, 2.458203e+003
1.314550e+002, 2.456867e+003
1.319371e+002, 2.455067e+003
1.324192e+002, 2.453490e+003
1.329013e+002, 2.452230e+003
1.333834e+002, 2.451414e+003
1.338655e+002, 2.451534e+003
1.343477e+002, 2.453259e+003
1.348298e+002, 2.454990e+003
1.353119e+002, 2.455949e+003
1.357940e+002, 2.456424e+003
1.362761e+002, 2.456953e+003
1.367582e+002, 2.457938e+003
1.372404e+002, 2.459386e+003
1.377225e+002, 2.460898e+003
1.382046e+002, 2.463149e+003
1.386867e+002, 2.464872e+003
1.391688e+002, 2.464983e+003
1.396509e+002, 2.463978e+003
1.401331e+002, 2.463476e+003
1.406152e+002, 2.465430e+003
1.410973e+002, 2.471255e+003
1.415794e+002, 2.474244e+003
1.420615e+002, 2.472266e+003
1.425436e+002, 2.469663e+003
1.430258e+002, 2.469054e+003
1.435079e+002, 2.470896e+003
1.439900e+002, 2.473965e+003
1.444721e+002, 2.476689e+003
1.449542e+002, 2.478932e+003
1.454363e+002, 2.481067e+003
1.459185e+002, 2.482953e+003
1.464006e+002, 2.484770e+003
1.468827e+002, 2.486710e+003
1.473648e+002, 2.488809e+003
1.478469e+002, 2.491041e+003
1.483290e+002, 2.493267e+003
1.488112e+002, 2.495335e+003
1.492933e+002, 2.497958e+003
1.497754e+002, 2.501720e+003
1.502575e+002, 2.506265e+003
1.507396e+002, 2.510569e+003
1.512217e+002, 2.514097e+003
1.517039e+002, 2.517524e+003
1.521860e+002, 2.521938e+003
1.526681e+002, 2.527569e+003
1.531502e+002, 2.532612e+003
1.536323e+002, 2.535150e+003
1.541144e+002, 2.535075e+003
1.545966e+002, 2.535841e+003
1.550787e+002, 2.539875e+003
1.555608e+002, 2.544250e+003
1.560429e+002, 2.546865e+003
1.565250e+002, 2.547282e+003
1.570071e+002, 2.546636e+003
1.574893e+002, 2.546513e+003
1.579714e+002, 2.547234e+003
1.584535e+002, 2.547597e+003
1.589356e+002, 2.546859e+003
1.594177e+002, 2.545999e+003
1.598998e+002, 2.545977e+003
1.603820e+002, 2.547141e+003
1.608641e+002, 2.548782e+003
1.613462e+002, 2.549236e+003
1.618283e+002, 2.548128e+003
1.623104e+002, 2.546112e+003
1.627925e+002, 2.542619e+003
1.632747e+002, 2.538567e+003
1.637568e+002, 2.534744e+003
1.642389e+002, 2.531549e+003
1.647210e+002, 2.529058e+003
1.652031e+002, 2.527665e+003
1.656852e+002, 2.529264e+003
1.661674e+002, 2.529854e+003
1.666495e+002, 2.527664e+003
1.671316e+002, 2.524121e+003
1.676137e+002, 2.521655e+003
1.680958e+002, 2.521644e+003
1.685779e+002, 2.523892e+003
1.690601e+002, 2.527021e+003
1.695422e+002, 2.531925e+003
1.700243e+002, 2.536601e+003
1.705064e+002, 2.540304e+003
1.709885e+002, 2.543108e+003
1.714706e+002, 2.545365e+003
1.719528e+002, 2.547165e+003
1.724349e+002, 2.548560e+003
1.729170e+002, 2.549974e+003
1.733991e+002, 2.551153e+003
1.738812e+002, 2.552535e+003
1.743633e+002, 2.554814e+003
1.748455e+002, 2.558024e+003
1.753276e+002, 2.560695e+003
1.758097e+002, 2.561754e+003
1.762918e+002, 2.561644e+003
1.767739e+002, 2.561064e+003
1.772560e+002, 2.559731e+003
1.777382e+002, 2.558296e+003
1.782203e+002, 2.557891e+003
1.787024e+002, 2.558929e+003
1.791845e+002, 2.559668e+003
1.796666e+002, 2.558885e+003
1.801487e+002, 2.557347e+003
1.806309e+002, 2.555934e+003
1.811130e+002, 2.554875e+003
1.815951e+002, 2.554259e+003
1.820772e+002, 2.554471e+003
1.825593e+002, 2.556266e+003
1.830414e+002, 2.557621e+003
1.835236e+002, 2.557386e+003
1.840057e+002, 2.556410e+003
1.844878e+002, 2.555893e+003
1.849699e+002, 2.556589e+003
1.854520e+002, 2.558310e+003
1.859341e+002, 2.559911e+003
1.864163e+002, 2.561394e+003
1.868984e+002, 2.562708e+003
1.873805e+002, 2.563759e+003
1.878626e+002, 2.564652e+003
1.883447e+002, 2.565575e+003
1.888268e+002, 2.566685e+003
1.893090e+002, 2.567971e+003
1.897911e+002, 2.569035e+003
1.902732e+002, 2.569803e+003
1.907553e+002, 2.570453e+003
1.912374e+002, 2.570491e+003
1.917195e+002, 2.570418e+003
1.922017e+002, 2.571407e+003
1.926838e+002, 2.574542e+003
1.931659e+002, 2.580012e+003
1.936480e+002, 2.583528e+003
1.941301e+002, 2.584012e+003
1.946122e+002, 2.584090e+003
1.950944e+002, 2.584662e+003
1.955765e+002, 2.585778e+003
1.960586e+002, 2.587207e+003
1.965407e+002, 2.588754e+003
1.970228e+002, 2.590433e+003
1.975049e+002, 2.592437e+003
1.979871e+002, 2.594842e+003
1.984692e+002, 2.597441e+003
1.989513e+002, 2.600019e+003
1.994334e+002, 2.602582e+003
1.999155e+002, 2.605505e+003
2.003976e+002, 2.609450e+003
2.008798e+002, 2.614192e+003
2.013619e+002, 2.617423e+003
2.018440e+002, 2.617187e+003
2.023261e+002, 2.616583e+003
2.028082e+002, 2.618931e+003
2.032903e+002, 2.624525e+003
2.037725e+002, 2.629966e+003
2.042546e+002, 2.631792e+003
2.047367e+002, 2.631304e+003
2.052188e+002, 2.632200e+003
2.057009e+002, 2.636380e+003
2.061830e+002, 2.641826e+003
2.066652e+002, 2.645682e+003
2.071473e+002, 2.647545e+003
2.076294e+002, 2.649320e+003
2.081115e+002, 2.652343e+003
2.085936e+002, 2.656132e+003
2.090757e+002, 2.660070e+003
2.095579e+002, 2.664000e+003
2.100400e+002, 2.667888e+003
2.105221e+002, 2.671816e+003
2.110042e+002, 2.676015e+003
2.114863e+002, 2.679651e+003
2.119685e+002, 2.681851e+003
2.124506e+002, 2.683363e+003
2.129327e+002, 2.685270e+003
2.134148e+002, 2.688220e+003
2.138969e+002, 2.691864e+003
2.143790e+002, 2.694989e+003
2.148612e+002, 2.696874e+003
2.153433e+002, 2.699505e+003
2.158254e+002, 2.704198e+003
2.163075e+002, 2.709786e+003
2.167896e+002, 2.714615e+003
2.172717e+002, 2.717573e+003
2.177539e+002, 2.719194e+003
2.182360e+002, 2.721846e+003
2.187181e+002, 2.726626e+003
2.192002e+002, 2.731045e+003
2.196823e+002, 2.733849e+003
2.201644e+002, 2.736074e+003
2.206466e+002, 2.739266e+003
2.211287e+002, 2.744448e+003
2.216108e+002, 2.751171e+003
2.220929e+002, 2.756822e+003
2.225750e+002, 2.760967e+003
2.230571e+002, 2.764349e+003
2.235393e+002, 2.766153e+003
2.240214e+002, 2.767424e+003
2.245035e+002, 2.769759e+003
2.249856e+002, 2.774188e+003
2.254677e+002, 2.780251e+003
2.259498e+002, 2.784974e+003
2.264320e+002, 2.787689e+003
2.269141e+002, 2.789740e+003
2.273962e+002, 2.791298e+003
2.278783e+002, 2.792340e+003
2.283604e+002, 2.792768e+003
2.288425e+002, 2.792498e+003
2.293247e+002, 2.791612e+003
2.298068e+002, 2.790551e+003
2.302889e+002, 2.789480e+003
2.307710e+002, 2.788060e+003
2.312531e+002, 2.786081e+003
2.317352e+002, 2.783704e+003
2.322174e+002, 2.781052e+003
2.326995e+002, 2.778083e+003
2.331816e+002, 2.775076e+003
2.336637e+002, 2.773401e+003
2.341458e+002, 2.774427e+003
2.346279e+002, 2.774921e+003
2.351101e+002, 2.773517e+003
2.355922e+002, 2.771026e+003
2.360743e+002, 2.769174e+003
2.365564e+002, 2.768944e+003
2.370385e+002, 2.769662e+003
2.375206e+002, 2.768998e+003
2.380028e+002, 2.765387e+003
2.384849e+002, 2.763077e+003
2.389670e+002, 2.764806e+003
2.394491e+002, 2.768929e+003
2.399312e+002, 2.771545e+003
2.404133e+002, 2.770629e+003
2.408955e+002, 2.767834e+003
2.413776e+002, 2.766944e+003
2.418597e+002, 2.768564e+003
2.423418e+002, 2.770187e+003
2.428239e+002, 2.770325e+003
2.433060e+002, 2.769608e+003
2.437882e+002, 2.769973e+003
2.442703e+002, 2.772551e+003
2.447524e+002, 2.775855e+003
2.452345e+002, 2.777293e+003
2.457166e+002, 2.776529e+003
2.461987e+002, 2.775865e+003
2.466809e+002, 2.776696e+003
2.471630e+002, 2.778573e+003
2.476451e+002, 2.779944e+003
2.481272e+002, 2.780130e+003
2.486093e+002, 2.779999e+003
2.490914e+002, 2.780662e+003
2.495736e+002, 2.782124e+003
2.500557e+002, 2.783577e+003
2.505378e+002, 2.784415e+003
2.510199e+002, 2.784825e+003
2.515020e+002, 2.785666e+003
2.519841e+002, 2.787449e+003
2.524663e+002, 2.789204e+003
2.529484e+002, 2.789825e+003
2.534305e+002, 2.789465e+003
2.539126e+002, 2.789481e+003
2.543947e+002, 2.791058e+003
2.548768e+002, 2.793817e+003
2.553590e+002, 2.795856e+003
2.558411e+002, 2.796524e+003
2.563232e+002, 2.797075e+003
2.568053e+002, 2.798562e+003
2.572874e+002, 2.800738e+003
2.577695e+002, 2.802702e+003
2.582516e+002, 2.803776e+003
2.587338e+002, 2.804132e+003
2.592159e+002, 2.804576e+003
2.596980e+002, 2.804792e+003
2.601801e+002, 2.805677e+003
2.606622e+002, 2.808104e+003
2.611443e+002, 2.811468e+003
2.616265e+002, 2.814414e+003
2.621086e+002, 2.815916e+003
2.625907e+002, 2.816315e+003
2.630728e+002, 2.817166e+003
2.635549e+002, 2.818687e+003
2.640370e+002, 2.820347e+003
2.645192e+002, 2.821646e+003
2.650013e+002, 2.822939e+003
2.654834e+002, 2.824883e+003
2.659655e+002, 2.828060e+003
2.664476e+002, 2.832005e+003
2.669297e+002, 2.835054e+003
2.674119e+002, 2.836601e+003
2.678940e+002, 2.838190e+003
2.683761e+002, 2.840431e+003
2.688582e+002, 2.842954e+003
2.693403e+002, 2.845268e+003
2.698224e+002, 2.847092e+003
2.703046e+002, 2.848687e+003
2.707867e+002, 2.850902e+003
2.712688e+002, 2.854670e+003
2.717509e+002, 2.857346e+003
2.722330e+002, 2.857359e+003
2.727151e+002, 2.856672e+003
2.731973e+002, 2.857332e+003
2.736794e+002, 2.860179e+003
2.741615e+002, 2.864304e+003
2.746436e+002, 2.867826e+003
2.751257e+002, 2.870346e+003
2.756078e+002, 2.872991e+003
2.760900e+002, 2.876147e+003
2.765721e+002, 2.879292e+003
2.770542e+002, 2.881688e+003
2.775363e+002, 2.883199e+003
2.780184e+002, 2.884719e+003
2.785005e+002, 2.888035e+003
2.789827e+002, 2.894757e+003
2.794648e+002, 2.899597e+003
2.799469e+002, 2.901533e+003
2.804290e+002, 2.902396e+003
2.809111e+002, 2.903081e+003
2.813932e+002, 2.903894e+003
2.818754e+002, 2.904946e+003
2.823575e+002, 2.906457e+003
2.828396e+002, 2.908707e+003
2.833217e+002, 2.910621e+003
2.838038e+002, 2.911741e+003
2.842859e+002, 2.912963e+003
2.847681e+002, 2.914712e+003
2.852502e+002, 2.917041e+003
2.857323e+002, 2.919848e+003
2.862144e+002, 2.923183e+003
2.866965e+002, 2.927337e+003
2.871786e+002, 2.930316e+003
2.876608e+002, 2.931238e+003
2.881429e+002, 2.931938e+003
2.886250e+002, 2.933049e+003
2.891071e+002, 2.934576e+003
2.895892e+002, 2.936307e+003
2.900714e+002, 2.938131e+003
2.905535e+002, 2.940052e+003
2.910356e+002, 2.941546e+003
2.915177e+002, 2.941569e+003
2.919998e+002, 2.942274e+003
2.924819e+002, 2.944389e+003
2.929641e+002, 2.947632e+003
2.934462e+002, 2.951558e+003
2.939283e+002, 2.956017e+003
2.944104e+002, 2.960774e+003
2.948925e+002, 2.964364e+003
2.953746e+002, 2.966017e+003
2.958568e+002, 2.967254e+003
2.963389e+002, 2.967687e+003
2.968210e+002, 2.967970e+003
2.973031e+002, 2.969049e+003
2.977852e+002, 2.971393e+003
2.982673e+002, 2.974528e+003
2.987495e+002, 2.977012e+003
2.992316e+002, 2.977199e+003
2.997137e+002, 2.978848e+003
3.001958e+002, 2.983531e+003
3.006779e+002, 2.989038e+003
3.011600e+002, 2.993039e+003
3.016422e+002, 2.994812e+003
3.021243e+002, 2.995427e+003
3.026064e+002, 2.996835e+003
3.030885e+002, 2.999833e+003
3.035706e+002, 3.002215e+003
3.040527e+002, 3.003693e+003
3.045349e+002, 3.004802e+003
3.050170e+002, 3.005739e+003
3.054991e+002, 3.006636e+003
3.059812e+002, 3.007806e+003
3.064633e+002, 3.009707e+003
3.069454e+002, 3.012704e+003
3.074276e+002, 3.015177e+003
3.079097e+002, 3.017056e+003
3.083918e+002, 3.018581e+003
3.088739e+002, 3.019207e+003
3.093560e+002, 3.019405e+003
3.098381e+002, 3.020772e+003
3.103203e+002, 3.025023e+003
3.108024e+002, 3.032473e+003
3.112845e+002, 3.037574e+003
3.117666e+002, 3.039062e+003
3.122487e+002, 3.039902e+003
3.127308e+002, 3.041143e+003
3.132130e+002, 3.042547e+003
3.136951e+002, 3.043005e+003
3.141772e+002, 3.041537e+003
3.146593e+002, 3.038864e+003
3.151414e+002, 3.040147e+003
3.156235e+002, 3.051021e+003
3.161057e+002, 3.059332e+003
3.165878e+002, 3.061434e+003
3.170699e+002, 3.060265e+003
3.175520e+002, 3.059640e+003
3.180341e+002, 3.061266e+003
3.185162e+002, 3.064647e+003
3.189984e+002, 3.068546e+003
3.194805e+002, 3.074481e+003
3.199626e+002, 3.078872e+003
3.204447e+002, 3.080938e+003
3.209268e+002, 3.081896e+003
3.214089e+002, 3.082464e+003
3.218911e+002, 3.082979e+003
3.223732e+002, 3.083999e+003
3.228553e+002, 3.086429e+003
3.233374e+002, 3.090992e+003
3.238195e+002, 3.095270e+003
3.243016e+002, 3.099415e+003
3.247838e+002, 3.103184e+003
3.252659e+002, 3.106294e+003
3.257480e+002, 3.108805e+003
3.262301e+002, 3.111016e+003
3.267122e+002, 3.113222e+003
3.271943e+002, 3.115417e+003
3.276765e+002, 3.117462e+003
3.281586e+002, 3.118340e+003
3.286407e+002, 3.120030e+003
3.291228e+002, 3.123635e+003
3.296049e+002, 3.128646e+003
3.300870e+002, 3.133961e+003
3.305692e+002, 3.138899e+003
3.310513e+002, 3.143436e+003
3.315334e+002, 3.147341e+003
3.320155e+002, 3.148822e+003
3.324976e+002, 3.151763e+003
3.329797e+002, 3.158464e+003
3.334619e+002, 3.166424e+003
3.339440e+002, 3.172184e+003
3.344261e+002, 3.174208e+003
3.349082e+002, 3.174149e+003
3.353904e+002, 3.176062e+003
3.358725e+002, 3.182332e+003
3.363546e+002, 3.186901e+003
3.368367e+002, 3.187805e+003
3.373188e+002, 3.188207e+003
3.378009e+002, 3.191030e+003
3.382831e+002, 3.196712e+003
3.387652e+002, 3.203217e+003
3.392473e+002, 3.207740e+003
3.397294e+002, 3.209582e+003
3.402115e+002, 3.211630e+003
3.406936e+002, 3.213441e+003
3.411758e+002, 3.215785e+003
3.416579e+002, 3.219496e+003
3.421400e+002, 3.224192e+003
3.426221e+002, 3.228549e+003
3.431042e+002, 3.231277e+003
3.435863e+002, 3.232370e+003
3.440685e+002, 3.234656e+003
3.445506e+002, 3.238918e+003
3.450327e+002, 3.243660e+003
3.455148e+002, 3.249334e+003
3.459969e+002, 3.255132e+003
3.464790e+002, 3.259855e+003
3.469612e+002, 3.262864e+003
3.474433e+002, 3.264454e+003
3.479254e+002, 3.265542e+003
3.484075e+002, 3.265552e+003
3.488896e+002, 3.265991e+003
3.493717e+002, 3.266679e+003
3.498539e+002, 3.268029e+003
3.503360e+002, 3.270961e+003
3.508181e+002, 3.275599e+003
3.513002e+002, 3.280302e+003
3.517823e+002, 3.282163e+003
3.522644e+002, 3.279701e+003
3.527466e+002, 3.279292e+003
3.532287e+002, 3.283185e+003
3.537108e+002, 3.287641e+003
3.541929e+002, 3.290834e+003
3.546750e+002, 3.292735e+003
3.551571e+002, 3.294303e+003
3.556393e+002, 3.296271e+003
3.561214e+002, 3.298651e+003
3.566035e+002, 3.301482e+003
3.570856e+002, 3.305442e+003
3.575677e+002, 3.309036e+003
3.580498e+002, 3.311569e+003
3.585320e+002, 3.313422e+003
3.590141e+002, 3.315237e+003
3.594962e+002, 3.317311e+003
3.599783e+002, 3.319614e+003
3.604604e+002, 3.321978e+003
3.609425e+002, 3.324232e+003
3.614247e+002, 3.326964e+003
3.619068e+002, 3.330698e+003
3.623889e+002, 3.334738e+003
3.628710e+002, 3.338563e+003
3.633531e+002, 3.342042e+003
3.638352e+002, 3.345013e+003
3.643174e+002, 3.346471e+003
3.647995e+002, 3.345999e+003
3.652816e+002, 3.348507e+003
3.657637e+002, 3.358832e+003
3.662458e+002, 3.368817e+003
3.667279e+002, 3.372532e+003
3.672101e+002, 3.370532e+003
3.676922e+002, 3.367906e+003
3.681743e+002, 3.368647e+003
3.686564e+002, 3.371838e+003
3.691385e+002, 3.373155e+003
3.696206e+002, 3.371821e+003
3.701028e+002, 3.369811e+003
3.705849e+002, 3.367626e+003
3.710670e+002, 3.365709e+003
3.715491e+002, 3.365082e+003
3.720312e+002, 3.366898e+003
3.725133e+002, 3.369357e+003
3.729955e+002, 3.369656e+003
3.734776e+002, 3.367552e+003
3.739597e+002, 3.365577e+003
3.744418e+002, 3.364661e+003
3.749239e+002, 3.364533e+003
3.754060e+002, 3.364769e+003
3.758882e+002, 3.365276e+003
3.763703e+002, 3.366395e+003
3.768524e+002, 3.369057e+003
3.773345e+002, 3.372710e+003
3.778166e+002, 3.374965e+003
3.782987e+002, 3.374918e+003
3.787809e+002, 3.373989e+003
3.792630e+002, 3.373340e+003
3.797451e+002, 3.372979e+003
3.802272e+002, 3.373614e+003
3.807093e+002, 3.376249e+003
3.811914e+002, 3.379652e+003
3.816736e+002, 3.382371e+003
3.821557e+002, 3.384290e+003
3.826378e+002, 3.385341e+003
3.831199e+002, 3.384938e+003
3.836020e+002, 3.383577e+003
3.840841e+002, 3.383458e+003
3.845663e+002, 3.385108e+003
3.850484e+002, 3.387519e+003
3.855305e+002, 3.390472e+003
3.860126e+002, 3.393769e+003
3.864947e+002, 3.396688e+003
3.869768e+002, 3.398765e+003
3.874590e+002, 3.400623e+003
3.879411e+002, 3.403817e+003
3.884232e+002, 3.408956e+003
3.889053e+002, 3.413321e+003
3.893874e+002, 3.415705e+003
3.898695e+002, 3.417348e+003
3.903517e+002, 3.419716e+003
3.908338e+002, 3.423081e+003
3.913159e+002, 3.426733e+003
3.917980e+002, 3.430184e+003
3.922801e+002, 3.433521e+003
3.927622e+002, 3.435066e+003
3.932444e+002, 3.431944e+003
3.937265e+002, 3.429908e+003
3.942086e+002, 3.433289e+003
3.946907e+002, 3.440290e+003
3.951728e+002, 3.445777e+003
3.956549e+002, 3.446550e+003
3.961371e+002, 3.444059e+003
3.966192e+002, 3.444071e+003
3.971013e+002, 3.448526e+003
3.975834e+002, 3.453182e+003
3.980655e+002, 3.458700e+003
3.985476e+002, 3.463783e+003
3.990298e+002, 3.466698e+003
3.995119e+002, 3.467163e+003
3.999940e+002, 3.466892e+003
4.004761e+002, 3.468204e+003
4.009582e+002, 3.471542e+003
4.014403e+002, 3.474951e+003
4.019225e+002, 3.479120e+003
4.024046e+002, 3.482700e+003
4.028867e+002, 3.484748e+003
4.033688e+002, 3.485650e+003
4.038509e+002, 3.486386e+003
4.043330e+002, 3.487544e+003
4.048152e+002, 3.489173e+003
4.052973e+002, 3.491588e+003
4.057794e+002, 3.495328e+003
4.062615e+002, 3.499079e+003
4.067436e+002, 3.502801e+003
4.072257e+002, 3.506310e+003
4.077079e+002, 3.509196e+003
4.081900e+002, 3.511384e+003
4.086721e+002, 3.513599e+003
4.091542e+002, 3.516988e+003
4.096363e+002, 3.521839e+003
4.101184e+002, 3.526372e+003
4.106006e+002, 3.530398e+003
4.110827e+002, 3.534062e+003
4.115648e+002, 3.537514e+003
4.120469e+002, 3.540703e+003
4.125290e+002, 3.543387e+003
4.130111e+002, 3.545248e+003
4.134933e+002, 3.546531e+003
4.139754e+002, 3.547888e+003
4.144575e+002, 3.549139e+003
4.149396e+002, 3.551000e+003
4.154217e+002, 3.554225e+003
4.159038e+002, 3.558112e+003
4.163860e+002, 3.561953e+003
4.168681e+002, 3.565669e+003
4.173502e+002, 3.569089e+003
4.178323e+002, 3.571561e+003
4.183144e+002, 3.573294e+003
4.187965e+002, 3.576217e+003
4.192787e+002, 3.581411e+003
4.197608e+002, 3.587073e+003
4.202429e+002, 3.591213e+003
4.207250e+002, 3.593937e+003
4.212071e+002, 3.596380e+003
4.216892e+002, 3.598589e+003
4.221714e+002, 3.600897e+003
4.226535e+002, 3.603531e+003
4.231356e+002, 3.606502e+003
4.236177e+002, 3.610702e+003
4.240998e+002, 3.617915e+003
4.245819e+002, 3.626631e+003
4.250641e+002, 3.630645e+003
4.255462e+002, 3.625586e+003
4.260283e+002, 3.621455e+003
4.265104e+002, 3.623076e+003
4.269925e+002, 3.628581e+003
4.274746e+002, 3.634960e+003
4.279568e+002, 3.641446e+003
4.284389e+002, 3.646904e+003
4.289210e+002, 3.649452e+003
4.294031e+002, 3.647585e+003
4.298852e+002, 3.646944e+003
4.303673e+002, 3.647445e+003
4.308495e+002, 3.649258e+003
4.313316e+002, 3.652962e+003
4.318137e+002, 3.658220e+003
4.322958e+002, 3.664054e+003
4.327779e+002, 3.669980e+003
4.332600e+002, 3.675760e+003
4.337422e+002, 3.679413e+003
4.342243e+002, 3.678372e+003
4.347064e+002, 3.678160e+003
4.351885e+002, 3.679181e+003
4.356706e+002, 3.681452e+003
4.361527e+002, 3.685643e+003
4.366349e+002, 3.691696e+003
4.371170e+002, 3.697673e+003
4.375991e+002, 3.700284e+003
4.380812e+002, 3.697829e+003
4.385633e+002, 3.698234e+003
4.390454e+002, 3.704284e+003
4.395276e+002, 3.710602e+003
4.400097e+002, 3.715518e+003
4.404918e+002, 3.718989e+003
4.409739e+002, 3.721402e+003
4.414560e+002, 3.722796e+003
4.419381e+002, 3.723515e+003
4.424203e+002, 3.724363e+003
4.429024e+002, 3.724932e+003
4.433845e+002, 3.726782e+003
4.438666e+002, 3.732442e+003
4.443487e+002, 3.738374e+003
4.448308e+002, 3.741022e+003
4.453130e+002, 3.739798e+003
4.457951e+002, 3.738860e+003
4.462772e+002, 3.742578e+003
4.467593e+002, 3.749891e+003
4.472414e+002, 3.754887e+003
4.477235e+002, 3.755816e+003
4.482057e+002, 3.756650e+003
4.486878e+002, 3.761149e+003
4.491699e+002, 3.767909e+003
4.496520e+002, 3.773591e+003
4.501341e+002, 3.776581e+003
4.506162e+002, 3.778892e+003
4.510984e+002, 3.782504e+003
4.515805e+002, 3.787185e+003
4.520626e+002, 3.791390e+003
4.525447e+002, 3.794188e+003
4.530268e+002, 3.796607e+003
4.535089e+002, 3.800944e+003
4.539911e+002, 3.807724e+003
4.544732e+002, 3.813490e+003
4.549553e+002, 3.816597e+003
4.554374e+002, 3.818808e+003
4.559195e+002, 3.821710e+003
4.564016e+002, 3.825566e+003
4.568838e+002, 3.830500e+003
4.573659e+002, 3.837102e+003
4.578480e+002, 3.845105e+003
4.583301e+002, 3.849741e+003
4.588122e+002, 3.848148e+003
4.592943e+002, 3.847172e+003
4.597765e+002, 3.848407e+003
4.602586e+002, 3.851262e+003
4.607407e+002, 3.855274e+003
4.612228e+002, 3.860171e+003
4.617049e+002, 3.865094e+003
4.621870e+002, 3.868523e+003
4.626692e+002, 3.869336e+003
4.631513e+002, 3.872348e+003
4.636334e+002, 3.881124e+003
4.641155e+002, 3.888530e+003
4.645976e+002, 3.890058e+003
4.650797e+002, 3.887858e+003
4.655619e+002, 3.887263e+003
4.660440e+002, 3.891796e+003
4.665261e+002, 3.899329e+003
4.670082e+002, 3.903391e+003
4.674903e+002, 3.901923e+003
4.679724e+002, 3.902644e+003
4.684546e+002, 3.909917e+003
4.689367e+002, 3.918406e+003
4.694188e+002, 3.924198e+003
4.699009e+002, 3.926974e+003
4.703830e+002, 3.929062e+003
4.708651e+002, 3.932427e+003
4.713473e+002, 3.936539e+003
4.718294e+002, 3.939396e+003
4.723115e+002, 3.940567e+003
4.727936e+002, 3.941342e+003
4.732757e+002, 3.941915e+003
4.737578e+002, 3.942752e+003
4.742400e+002, 3.944930e+003
4.747221e+002, 3.949385e+003
4.752042e+002, 3.953919e+003
4.756863e+002, 3.956978e+003
4.761684e+002, 3.958927e+003
4.766505e+002, 3.960547e+003
4.771327e+002, 3.961893e+003
4.776148e+002, 3.963811e+003
4.780969e+002, 3.967774e+003
4.785790e+002, 3.974220e+003
4.790611e+002, 3.979443e+003
4.795432e+002, 3.983213e+003
4.800254e+002, 3.985780e+003
4.805075e+002, 3.986878e+003
4.809896e+002, 3.986903e+003
4.814717e+002, 3.986470e+003
4.819538e+002, 3.985735e+003
4.824359e+002, 3.985563e+003
4.829181e+002, 3.988500e+003
4.834002e+002, 3.998278e+003
4.838823e+002, 4.005806e+003
4.843644e+002, 4.009696e+003
4.848465e+002, 4.012383e+003
4.853286e+002, 4.015440e+003
4.858108e+002, 4.019048e+003
4.862929e+002, 4.022593e+003
4.867750e+002, 4.025358e+003
4.872571e+002, 4.027551e+003
4.877392e+002, 4.031379e+003
4.882213e+002, 4.038223e+003
4.887035e+002, 4.044385e+003
4.891856e+002, 4.048571e+003
4.896677e+002, 4.051813e+003
4.901498e+002, 4.054927e+003
4.906319e+002, 4.058118e+003
4.911140e+002, 4.061828e+003
4.915962e+002, 4.067001e+003
4.920783e+002, 4.073364e+003
4.925604e+002, 4.078391e+003
4.930425e+002, 4.081361e+003
4.935246e+002, 4.083891e+003
4.940067e+002, 4.087118e+003
4.944889e+002, 4.090826e+003
4.949710e+002, 4.094584e+003
4.954531e+002, 4.098392e+003
4.959352e+002, 4.102123e+003
4.964173e+002, 4.105287e+003
4.968994e+002, 4.108227e+003
4.973816e+002, 4.112581e+003
4.978637e+002, 4.119280e+003
4.983458e+002, 4.126271e+003
4.988279e+002, 4.130221e+003
4.993100e+002, 4.130212e+003
4.997921e+002, 4.131866e+003
5.002743e+002, 4.136911e+003
5.007564e+002, 4.142506e+003
5.012385e+002, 4.146510e+003
5.017206e+002, 4.149398e+003
5.022027e+002, 4.152902e+003
5.026848e+002, 4.158042e+003
5.031670e+002, 4.164258e+003
5.036491e+002, 4.169846e+003
5.041312e+002, 4.174473e+003
5.046133e+002, 4.179006e+003
5.050954e+002, 4.182791e+003
5.055775e+002, 4.187033e+003
5.060597e+002, 4.192736e+003
5.065418e+002, 4.199771e+003
5.070239e+002, 4.207324e+003
5.075060e+002, 4.215252e+003
5.079881e+002, 4.223004e+003
5.084702e+002, 4.227631e+003
5.089524e+002, 4.227791e+003
5.094345e+002, 4.227860e+003
5.099166e+002, 4.228739e+003
5.103987e+002, 4.230484e+003
5.108808e+002, 4.233607e+003
5.113629e+002, 4.238197e+003
5.118451e+002, 4.242515e+003
5.123271e+002, 4.244786e+003
5.128093e+002, 4.245792e+003
5.132914e+002, 4.248208e+003
5.137735e+002, 4.252751e+003
5.142556e+002, 4.256110e+003
5.147377e+002, 4.255039e+003
5.152198e+002, 4.250985e+003
5.157020e+002, 4.249192e+003
5.161841e+002, 4.250703e+003
5.166662e+002, 4.253136e+003
5.171483e+002, 4.255786e+003
5.176304e+002, 4.258564e+003
5.181125e+002, 4.261502e+003
5.185947e+002, 4.264584e+003
5.190768e+002, 4.267288e+003
5.195589e+002, 4.269103e+003
5.200410e+002, 4.270026e+003
5.205231e+002, 4.269985e+003
5.210052e+002, 4.266896e+003
5.214874e+002, 4.265329e+003
5.219695e+002, 4.266972e+003
5.224516e+002, 4.270957e+003
5.229337e+002, 4.276497e+003
5.234158e+002, 4.283217e+003
5.238979e+002, 4.289818e+003
5.243801e+002, 4.294167e+003
5.248622e+002, 4.295742e+003
5.253443e+002, 4.297813e+003
5.258264e+002, 4.300843e+003
5.263085e+002, 4.304014e+003
5.267906e+002, 4.307003e+003
5.272728e+002, 4.309866e+003
5.277549e+002, 4.312803e+003
5.282370e+002, 4.316014e+003
5.287191e+002, 4.319046e+003
5.292012e+002, 4.320490e+003
5.296833e+002, 4.320588e+003
5.301655e+002, 4.323632e+003
5.306476e+002, 4.332206e+003
5.311297e+002, 4.341509e+003
5.316118e+002, 4.345816e+003
5.320939e+002, 4.345814e+003
5.325760e+002, 4.345537e+003
5.330582e+002, 4.344131e+003
5.335403e+002, 4.344142e+003
5.340224e+002, 4.348585e+003
5.345045e+002, 4.356209e+003
5.349866e+002, 4.363277e+003
5.354688e+002, 4.368192e+003
5.359509e+002, 4.371456e+003
5.364330e+002, 4.373786e+003
5.369151e+002, 4.374080e+003
5.373972e+002, 4.376225e+003
5.378793e+002, 4.381317e+003
5.383615e+002, 4.387102e+003
5.388436e+002, 4.392756e+003
5.393257e+002, 4.398045e+003
5.398078e+002, 4.402621e+003
5.402899e+002, 4.406183e+003
5.407720e+002, 4.409431e+003
5.412542e+002, 4.414419e+003
5.417363e+002, 4.422148e+003
5.422184e+002, 4.428054e+003
5.427005e+002, 4.428857e+003
5.431826e+002, 4.429793e+003
5.436647e+002, 4.434690e+003
5.441469e+002, 4.442612e+003
5.446290e+002, 4.449467e+003
5.451111e+002, 4.452269e+003
5.455932e+002, 4.453508e+003
5.460753e+002, 4.457537e+003
5.465574e+002, 4.464200e+003
5.470396e+002, 4.469014e+003
5.475217e+002, 4.469229e+003
5.480038e+002, 4.468229e+003
5.484859e+002, 4.472195e+003
5.489680e+002, 4.481645e+003
5.494501e+002, 4.489236e+003
5.499323e+002, 4.492859e+003
5.504144e+002, 4.494811e+003
5.508965e+002, 4.496060e+003
5.513786e+002, 4.497148e+003
5.518607e+002, 4.499454e+003
5.523428e+002, 4.503852e+003
5.528250e+002, 4.509209e+003
5.533071e+002, 4.512570e+003
5.537892e+002, 4.511878e+003
5.542713e+002, 4.513001e+003
5.547534e+002, 4.516981e+003
5.552355e+002, 4.521618e+003
5.557177e+002, 4.525919e+003
5.561998e+002, 4.529820e+003
5.566819e+002, 4.533534e+003
5.571640e+002, 4.537135e+003
5.576461e+002, 4.540708e+003
5.581282e+002, 4.544337e+003
5.586104e+002, 4.548001e+003
5.590925e+002, 4.551944e+003
5.595746e+002, 4.556346e+003
5.600567e+002, 4.560940e+003
5.605388e+002, 4.565799e+003
5.610209e+002, 4.570760e+003
5.615031e+002, 4.574843e+003
5.619852e+002, 4.576039e+003
5.624673e+002, 4.577315e+003
5.629494e+002, 4.582609e+003
5.634315e+002, 4.591060e+003
5.639136e+002, 4.598140e+003
5.643958e+002, 4.601753e+003
5.648779e+002, 4.603948e+003
5.653600e+002, 4.608328e+003
5.658421e+002, 4.615995e+003
5.663242e+002, 4.622658e+003
5.668063e+002, 4.627992e+003
5.672885e+002, 4.632666e+003
5.677706e+002, 4.637228e+003
5.682527e+002, 4.641392e+003
5.687348e+002, 4.644197e+003
5.692169e+002, 4.645141e+003
5.696990e+002, 4.645404e+003
5.701812e+002, 4.647079e+003
5.706633e+002, 4.650042e+003
5.711454e+002, 4.655024e+003
5.716275e+002, 4.664546e+003
5.721096e+002, 4.673630e+003
5.725917e+002, 4.679333e+003
5.730739e+002, 4.682715e+003
5.735560e+002, 4.686385e+003
5.740381e+002, 4.691573e+003
5.745202e+002, 4.697069e+003
5.750023e+002, 4.701336e+003
5.754844e+002, 4.704627e+003
5.759666e+002, 4.708528e+003
5.764487e+002, 4.713784e+003
5.769308e+002, 4.718555e+003
5.774129e+002, 4.720132e+003
5.778950e+002, 4.718470e+003
5.783771e+002, 4.720014e+003
5.788593e+002, 4.727393e+003
5.793414e+002, 4.735288e+003
5.798235e+002, 4.741444e+003
5.803056e+002, 4.746482e+003
5.807877e+002, 4.751352e+003
5.812698e+002, 4.756410e+003
5.817520e+002, 4.761766e+003
5.822341e+002, 4.767984e+003
5.827162e+002, 4.775556e+003
5.831984e+002, 4.779482e+003
5.836805e+002, 4.775544e+003
5.841626e+002, 4.773157e+003
5.846447e+002, 4.775998e+003
5.851268e+002, 4.781286e+003
5.856089e+002, 4.785518e+003
5.860911e+002, 4.787750e+003
5.865732e+002, 4.789875e+003
5.870553e+002, 4.794329e+003
5.875374e+002, 4.800234e+003
5.880195e+002, 4.803597e+003
5.885016e+002, 4.803548e+003
5.889838e+002, 4.803922e+003
5.894659e+002, 4.807665e+003
5.899480e+002, 4.813485e+003
5.904301e+002, 4.817293e+003
5.909122e+002, 4.817788e+003
5.913943e+002, 4.818941e+003
5.918765e+002, 4.822502e+003
5.923586e+002, 4.827025e+003
5.928407e+002, 4.830475e+003
5.933228e+002, 4.833011e+003
5.938049e+002, 4.837140e+003
5.942870e+002, 4.845117e+003
5.947692e+002, 4.855606e+003
5.952513e+002, 4.862372e+003
5.957334e+002, 4.863376e+003
5.962155e+002, 4.864101e+003
5.966976e+002, 4.864017e+003
5.971797e+002, 4.864755e+003
5.976619e+002, 4.867952e+003
5.981440e+002, 4.873149e+003
5.986261e+002, 4.878110e+003
5.991082e+002, 4.880808e+003
5.995903e+002, 4.883046e+003
6.000724e+002, 4.888825e+003
6.005546e+002, 4.898141e+003
6.010367e+002, 4.906195e+003
6.015188e+002, 4.911219e+003
6.020009e+002, 4.914703e+003
6.024830e+002, 4.918303e+003
6.029651e+002, 4.921991e+003
6.034473e+002, 4.925751e+003
6.039294e+002, 4.929566e+003
6.044115e+002, 4.933429e+003
6.048936e+002, 4.937315e+003
6.053757e+002, 4.941241e+003
6.058578e+002, 4.945557e+003
6.063400e+002, 4.950349e+003
6.068221e+002, 4.954508e+003
6.073042e+002, 4.956026e+003
6.077863e+002, 4.954094e+003
6.082684e+002, 4.955098e+003
6.087505e+002, 4.962746e+003
6.092327e+002, 4.969112e+003
6.097148e+002, 4.970732e+003
6.101969e+002, 4.970377e+003
6.106790e+002, 4.971468e+003
6.111611e+002, 4.974950e+003
6.116432e+002, 4.979666e+003
6.121254e+002, 4.985039e+003
6.126075e+002, 4.990841e+003
6.130896e+002, 4.996381e+003
6.135717e+002, 5.001653e+003
6.140538e+002, 5.006352e+003
6.145359e+002, 5.010008e+003
6.150181e+002, 5.013033e+003
6.155002e+002, 5.016670e+003
6.159823e+002, 5.021282e+003
6.164644e+002, 5.025514e+003
6.169465e+002, 5.028204e+003
6.174286e+002, 5.031003e+003
6.179108e+002, 5.034954e+003
6.183929e+002, 5.040305e+003
6.188750e+002, 5.047596e+003
6.193571e+002, 5.057366e+003
6.198392e+002, 5.068241e+003
6.203214e+002, 5.076596e+003
6.208035e+002, 5.082040e+003
6.212856e+002, 5.086225e+003
6.217677e+002, 5.088511e+003
6.222498e+002, 5.090351e+003
6.227319e+002, 5.091810e+003
6.232141e+002, 5.093461e+003
6.236962e+002, 5.096729e+003
6.241783e+002, 5.102781e+003
6.246604e+002, 5.109543e+003
6.251425e+002, 5.115509e+003
6.256246e+002, 5.120585e+003
6.261068e+002, 5.123815e+003
6.265889e+002, 5.124740e+003
6.270710e+002, 5.126266e+003
6.275531e+002, 5.131477e+003
6.280352e+002, 5.140122e+003
6.285173e+002, 5.146867e+003
6.289995e+002, 5.148629e+003
6.294816e+002, 5.152614e+003
6.299637e+002, 5.162727e+003
6.304458e+002, 5.174167e+003
6.309279e+002, 5.182019e+003
6.314100e+002, 5.185905e+003
6.318922e+002, 5.188901e+003
6.323743e+002, 5.193333e+003
6.328564e+002, 5.198952e+003
6.333385e+002, 5.204966e+003
6.338206e+002, 5.211397e+003
6.343027e+002, 5.218064e+003
6.347849e+002, 5.225873e+003
6.352670e+002, 5.232908e+003
6.357491e+002, 5.236799e+003
6.362312e+002, 5.237925e+003
6.367133e+002, 5.240060e+003
6.371954e+002, 5.245042e+003
6.376776e+002, 5.250904e+003
6.381597e+002, 5.257036e+003
6.386418e+002, 5.262767e+003
6.391239e+002, 5.266162e+003
6.396060e+002, 5.266597e+003
6.400881e+002, 5.265891e+003
6.405703e+002, 5.266133e+003
6.410524e+002, 5.267323e+003
6.415345e+002, 5.269869e+003
6.420166e+002, 5.274440e+003
6.424987e+002, 5.279766e+003
6.429808e+002, 5.286969e+003
6.434630e+002, 5.294047e+003
6.439451e+002, 5.298135e+003
6.444272e+002, 5.299093e+003
6.449093e+002, 5.301060e+003
6.453914e+002, 5.308959e+003
6.458735e+002, 5.319885e+003
6.463557e+002, 5.325956e+003
6.468378e+002, 5.326942e+003
6.473199e+002, 5.328672e+003
6.478020e+002, 5.333807e+003
6.482841e+002, 5.340545e+003
6.487662e+002, 5.345943e+003
6.492484e+002, 5.349602e+003
6.497305e+002, 5.354130e+003
6.502126e+002, 5.360720e+003
6.506947e+002, 5.367178e+003
6.511768e+002, 5.371714e+003
6.516589e+002, 5.375428e+003
6.521411e+002, 5.380234e+003
6.526232e+002, 5.386809e+003
6.531053e+002, 5.394379e+003
6.535874e+002, 5.402232e+003
6.540695e+002, 5.410361e+003
6.545516e+002, 5.417474e+003
6.550338e+002, 5.422712e+003
6.555159e+002, 5.428536e+003
6.559980e+002, 5.437719e+003
6.564801e+002, 5.447167e+003
6.569622e+002, 5.452678e+003
6.574443e+002, 5.453390e+003
6.579265e+002, 5.455404e+003
6.584086e+002, 5.463049e+003
6.588907e+002, 5.472224e+003
6.593728e+002, 5.478231e+003
6.598549e+002, 5.481495e+003
6.603370e+002, 5.484856e+003
6.608192e+002, 5.489611e+003
6.613013e+002, 5.495061e+003
6.617834e+002, 5.499889e+003
6.622655e+002, 5.503748e+003
6.627476e+002, 5.508357e+003
6.632297e+002, 5.512556e+003
6.637119e+002, 5.518912e+003
6.641940e+002, 5.531178e+003
6.646761e+002, 5.544856e+003
6.651582e+002, 5.553494e+003
6.656403e+002, 5.555411e+003
6.661224e+002, 5.555750e+003
6.666046e+002, 5.557735e+003
6.670867e+002, 5.561557e+003
6.675688e+002, 5.568370e+003
6.680509e+002, 5.578229e+003
6.685330e+002, 5.587990e+003
6.690151e+002, 5.596077e+003
6.694973e+002, 5.603190e+003
6.699794e+002, 5.610688e+003
6.704615e+002, 5.618612e+003
6.709436e+002, 5.626796e+003
6.714257e+002, 5.634846e+003
6.719078e+002, 5.643480e+003
6.723900e+002, 5.653795e+003
6.728721e+002, 5.664704e+003
6.733542e+002, 5.673859e+003
6.738363e+002, 5.680530e+003
6.743184e+002, 5.687599e+003
6.748005e+002, 5.698794e+003
6.752827e+002, 5.713779e+003
6.757648e+002, 5.729467e+003
6.762469e+002, 5.746251e+003
6.767290e+002, 5.761679e+003
6.772111e+002, 5.773825e+003
6.776932e+002, 5.784402e+003
6.781754e+002, 5.796429e+003
6.786575e+002, 5.810087e+003
6.791396e+002, 5.824275e+003
6.796217e+002, 5.838606e+003
6.801038e+002, 5.853720e+003
6.805859e+002, 5.872146e+003
6.810681e+002, 5.891533e+003
6.815502e+002, 5.906034e+003
6.820323e+002, 5.913433e+003
6.825144e+002, 5.917654e+003
6.829965e+002, 5.924127e+003
6.834786e+002, 5.933046e+003
6.839608e+002, 5.941084e+003
6.844429e+002, 5.949117e+003
6.849250e+002, 5.954561e+003
6.854071e+002, 5.956593e+003
6.858892e+002, 5.955294e+003
6.863713e+002, 5.949385e+003
6.868535e+002, 5.938489e+003
6.873356e+002, 5.928659e+003
6.878177e+002, 5.923595e+003
6.882998e+002, 5.920032e+003
6.887819e+002, 5.914110e+003
6.892640e+002, 5.906683e+003
6.897462e+002, 5.901651e+003
6.902283e+002, 5.900557e+003
6.907104e+002, 5.899934e+003
6.911925e+002, 5.894228e+003
6.916746e+002, 5.882328e+003
6.921567e+002, 5.875483e+003
6.926389e+002, 5.877608e+003
6.931210e+002, 5.879561e+003
6.936031e+002, 5.879124e+003
6.940852e+002, 5.877333e+003
6.945673e+002, 5.874148e+003
6.950494e+002, 5.869942e+003
6.955316e+002, 5.868538e+003
6.960137e+002, 5.874545e+003
6.964958e+002, 5.883116e+003
6.969779e+002, 5.887704e+003
6.974600e+002, 5.888958e+003
6.979421e+002, 5.890604e+003
6.984243e+002, 5.894058e+003
6.989064e+002, 5.897173e+003
6.993885e+002, 5.896729e+003
6.998706e+002, 5.892134e+003
7.003527e+002, 5.891803e+003
7.008348e+002, 5.900703e+003
7.013170e+002, 5.907853e+003
7.017991e+002, 5.908495e+003
7.022812e+002, 5.908446e+003
7.027633e+002, 5.913782e+003
7.032454e+002, 5.924525e+003
7.037275e+002, 5.935389e+003
7.042097e+002, 5.942855e+003
7.046918e+002, 5.948733e+003
7.051739e+002, 5.957007e+003
7.056560e+002, 5.966823e+003
7.061381e+002, 5.971207e+003
7.066202e+002, 5.967313e+003
7.071024e+002, 5.962669e+003
7.075845e+002, 5.965202e+003
7.080666e+002, 5.974765e+003
7.085487e+002, 5.982655e+003
7.090308e+002, 5.987725e+003
7.095129e+002, 5.992662e+003
7.099951e+002, 5.996823e+003
7.104772e+002, 6.001758e+003
7.109593e+002, 6.009413e+003
7.114414e+002, 6.019195e+003
7.119235e+002, 6.028511e+003
7.124056e+002, 6.036225e+003
7.128878e+002, 6.042167e+003
7.133699e+002, 6.044940e+003
7.138520e+002, 6.045215e+003
7.143341e+002, 6.047947e+003
7.148162e+002, 6.054411e+003
7.152983e+002, 6.061873e+003
7.157805e+002, 6.068480e+003
7.162626e+002, 6.074249e+003
7.167447e+002, 6.079193e+003
7.172268e+002, 6.082387e+003
7.177089e+002, 6.086219e+003
7.181910e+002, 6.091802e+003
7.186732e+002, 6.097350e+003
7.191553e+002, 6.100421e+003
7.196374e+002, 6.102471e+003
7.201195e+002, 6.107760e+003
7.206016e+002, 6.118762e+003
7.210837e+002, 6.130751e+003
7.215659e+002, 6.136414e+003
7.220480e+002, 6.137125e+003
7.225301e+002, 6.140976e+003
7.230122e+002, 6.149333e+003
7.234943e+002, 6.157295e+003
7.239764e+002, 6.161762e+003
7.244586e+002, 6.164020e+003
7.249407e+002, 6.167393e+003
7.254228e+002, 6.172226e+003
7.259049e+002, 6.177231e+003
7.263870e+002, 6.182036e+003
7.268691e+002, 6.187267e+003
7.273513e+002, 6.193375e+003
7.278334e+002, 6.200109e+003
7.283155e+002, 6.207460e+003
7.287976e+002, 6.215323e+003
7.292797e+002, 6.222095e+003
7.297618e+002, 6.224490e+003
7.302440e+002, 6.224361e+003
7.307261e+002, 6.229410e+003
7.312082e+002, 6.240229e+003
7.316903e+002, 6.249815e+003
7.321724e+002, 6.254775e+003
7.326545e+002, 6.258042e+003
7.331367e+002, 6.264235e+003
7.336188e+002, 6.274354e+003
7.341009e+002, 6.281526e+003
7.345830e+002, 6.282938e+003
7.350651e+002, 6.284815e+003
7.355472e+002, 6.289766e+003
7.360294e+002, 6.296019e+003
7.365115e+002, 6.301201e+003
7.369936e+002, 6.305136e+003
7.374757e+002, 6.309698e+003
7.379578e+002, 6.316483e+003
7.384399e+002, 6.324569e+003
7.389221e+002, 6.332563e+003
7.394042e+002, 6.340376e+003
7.398863e+002, 6.346504e+003
7.403684e+002, 6.349904e+003
7.408505e+002, 6.354228e+003
7.413326e+002, 6.363759e+003
7.418148e+002, 6.377732e+003
7.422969e+002, 6.387263e+003
7.427790e+002, 6.388098e+003
7.432611e+002, 6.390760e+003
7.437432e+002, 6.397896e+003
7.442253e+002, 6.406053e+003
7.447075e+002, 6.412899e+003
7.451896e+002, 6.418536e+003
7.456717e+002, 6.424042e+003
7.461538e+002, 6.429986e+003
7.466359e+002, 6.435826e+003
7.471180e+002, 6.440479e+003
7.476002e+002, 6.444485e+003
7.480823e+002, 6.450261e+003
7.485644e+002, 6.458189e+003
7.490465e+002, 6.465501e+003
7.495286e+002, 6.470448e+003
7.500107e+002, 6.473973e+003
7.504929e+002, 6.478173e+003
7.509750e+002, 6.482536e+003
7.514571e+002, 6.489010e+003
7.519392e+002, 6.499572e+003
7.524213e+002, 6.509841e+003
7.529034e+002, 6.518697e+003
7.533856e+002, 6.525951e+003
7.538677e+002, 6.530877e+003
7.543498e+002, 6.533483e+003
7.548319e+002, 6.536566e+003
7.553140e+002, 6.542216e+003
7.557961e+002, 6.549647e+003
7.562783e+002, 6.557638e+003
7.567604e+002, 6.566193e+003
7.572425e+002, 6.576011e+003
7.577246e+002, 6.587385e+003
7.582067e+002, 6.598757e+003
7.586888e+002, 6.608104e+003
7.591710e+002, 6.615453e+003
7.596531e+002, 6.622914e+003
7.601352e+002, 6.630414e+003
7.606173e+002, 6.638058e+003
7.610994e+002, 6.647339e+003
7.615815e+002, 6.655493e+003
7.620637e+002, 6.659103e+003
7.625458e+002, 6.659594e+003
7.630279e+002, 6.662415e+003
7.635100e+002, 6.670712e+003
7.639921e+002, 6.680032e+003
7.644742e+002, 6.687138e+003
7.649564e+002, 6.692597e+003
7.654385e+002, 6.697106e+003
7.659206e+002, 6.700944e+003
7.664027e+002, 6.704488e+003
7.668848e+002, 6.707788e+003
7.673669e+002, 6.711795e+003
7.678491e+002, 6.719254e+003
7.683312e+002, 6.731752e+003
7.688133e+002, 6.741893e+003
7.692954e+002, 6.749352e+003
7.697775e+002, 6.754603e+003
7.702596e+002, 6.756521e+003
7.707418e+002, 6.757110e+003
7.712239e+002, 6.758591e+003
7.717060e+002, 6.761100e+003
7.721881e+002, 6.765513e+003
7.726702e+002, 6.772995e+003
7.731523e+002, 6.781728e+003
7.736345e+002, 6.791743e+003
7.741166e+002, 6.801472e+003
7.745987e+002, 6.806791e+003
7.750808e+002, 6.807142e+003
7.755629e+002, 6.808310e+003
7.760450e+002, 6.816778e+003
7.765272e+002, 6.830557e+003
7.770093e+002, 6.839738e+003
7.774914e+002, 6.843407e+003
7.779735e+002, 6.847642e+003
7.784556e+002, 6.854384e+003
7.789377e+002, 6.861346e+003
7.794199e+002, 6.866614e+003
7.799020e+002, 6.870384e+003
7.803841e+002, 6.873776e+003
7.808662e+002, 6.877080e+003
7.813483e+002, 6.879591e+003
7.818304e+002, 6.879332e+003
7.823126e+002, 6.879657e+003
7.827947e+002, 6.883514e+003
7.832768e+002, 6.890315e+003
7.837589e+002, 6.898171e+003
7.842410e+002, 6.906279e+003
7.847231e+002, 6.914229e+003
7.852053e+002, 6.921812e+003
7.856874e+002, 6.928819e+003
7.861695e+002, 6.934313e+003
7.866516e+002, 6.938190e+003
7.871337e+002, 6.941610e+003
7.876158e+002, 6.944841e+003
7.880980e+002, 6.948497e+003
7.885801e+002, 6.953968e+003
7.890622e+002, 6.962047e+003
7.895443e+002, 6.966792e+003
7.900264e+002, 6.963135e+003
7.905085e+002, 6.962806e+003
7.909907e+002, 6.970928e+003
7.914728e+002, 6.981636e+003
7.919549e+002, 6.989941e+003
7.924370e+002, 6.995483e+003
7.929191e+002, 7.000093e+003
7.934012e+002, 7.004226e+003
7.938834e+002, 7.008275e+003
7.943655e+002, 7.011390e+003
7.948476e+002, 7.014962e+003
7.953297e+002, 7.023510e+003
7.958118e+002, 7.036885e+003
7.962939e+002, 7.047967e+003
7.967761e+002, 7.051868e+003
7.972582e+002, 7.051583e+003
7.977403e+002, 7.054371e+003
7.982224e+002, 7.061098e+003
7.987045e+002, 7.067400e+003
7.991866e+002, 7.074336e+003
7.996688e+002, 7.079119e+003
8.001509e+002, 7.076825e+003
8.006330e+002, 7.073648e+003
8.011151e+002, 7.077717e+003
8.015972e+002, 7.089989e+003
8.020793e+002, 7.103177e+003
8.025615e+002, 7.116536e+003
8.030436e+002, 7.128999e+003
8.035257e+002, 7.139835e+003
8.040078e+002, 7.149400e+003
8.044899e+002, 7.158174e+003
8.049720e+002, 7.166214e+003
8.054542e+002, 7.173193e+003
8.059363e+002, 7.178664e+003
8.064184e+002, 7.183092e+003
8.069005e+002, 7.187231e+003
8.073826e+002, 7.191087e+003
8.078647e+002, 7.195891e+003
8.083469e+002, 7.202066e+003
8.088290e+002, 7.207741e+003
8.093111e+002, 7.210902e+003
8.097932e+002, 7.213046e+003
8.102753e+002, 7.219021e+003
8.107574e+002, 7.233016e+003
8.112396e+002, 7.242286e+003
8.117217e+002, 7.240091e+003
8.122038e+002, 7.240866e+003
8.126859e+002, 7.255109e+003
8.131680e+002, 7.274004e+003
8.136501e+002, 7.284877e+003
8.141323e+002, 7.285625e+003
8.146144e+002, 7.285071e+003
8.150965e+002, 7.288122e+003
8.155786e+002, 7.293170e+003
8.160607e+002, 7.298060e+003
8.165428e+002, 7.303425e+003
8.170250e+002, 7.311852e+003
8.175071e+002, 7.323585e+003
8.179892e+002, 7.334516e+003
8.184713e+002, 7.341024e+003
8.189534e+002, 7.344370e+003
8.194355e+002, 7.348943e+003
8.199177e+002, 7.354643e+003
8.203998e+002, 7.362088e+003
8.208819e+002, 7.372660e+003
8.213640e+002, 7.382750e+003
8.218461e+002, 7.390117e+003
8.223282e+002, 7.395540e+003
8.228104e+002, 7.400295e+003
8.232925e+002, 7.403856e+003
8.237746e+002, 7.409151e+003
8.242567e+002, 7.417248e+003
8.247388e+002, 7.426879e+003
8.252209e+002, 7.439914e+003
8.257031e+002, 7.452914e+003
8.261852e+002, 7.460018e+003
8.266673e+002, 7.460823e+003
8.271494e+002, 7.461610e+003
8.276315e+002, 7.467756e+003
8.281136e+002, 7.476024e+003
8.285958e+002, 7.480268e+003
8.290779e+002, 7.481522e+003
8.295600e+002, 7.485143e+003
8.300421e+002, 7.492179e+003
8.305242e+002, 7.500023e+003
8.310063e+002, 7.506621e+003
8.314885e+002, 7.512791e+003
8.319706e+002, 7.521315e+003
8.324527e+002, 7.533786e+003
8.329348e+002, 7.544203e+003
8.334169e+002, 7.549629e+003
8.338990e+002, 7.556636e+003
8.343812e+002, 7.569856e+003
8.348633e+002, 7.584888e+003
8.353454e+002, 7.596592e+003
8.358275e+002, 7.604420e+003
8.363096e+002, 7.610078e+003
8.367917e+002, 7.612250e+003
8.372739e+002, 7.614400e+003
8.377560e+002, 7.617918e+003
8.382381e+002, 7.623179e+003
8.387202e+002, 7.631102e+003
8.392023e+002, 7.641389e+003
8.396844e+002, 7.652688e+003
8.401666e+002, 7.664580e+003
8.406487e+002, 7.675089e+003
8.411308e+002, 7.679038e+003
8.416129e+002, 7.677695e+003
8.420950e+002, 7.680333e+003
8.425771e+002, 7.688189e+003
8.430593e+002, 7.696716e+003
8.435414e+002, 7.703500e+003
8.440235e+002, 7.709529e+003
8.445056e+002, 7.716956e+003
8.449877e+002, 7.726597e+003
8.454698e+002, 7.733459e+003
8.459520e+002, 7.734499e+003
8.464341e+002, 7.736850e+003
8.469162e+002, 7.742534e+003
8.473983e+002, 7.749876e+003
8.478804e+002, 7.757514e+003
8.483625e+002, 7.765453e+003
8.488447e+002, 7.774440e+003
8.493268e+002, 7.786101e+003
8.498089e+002, 7.796659e+003
8.502910e+002, 7.803446e+003
8.507731e+002, 7.808364e+003
8.512552e+002, 7.812688e+003
8.517374e+002, 7.817226e+003
8.522195e+002, 7.824065e+003
8.527016e+002, 7.834147e+003
8.531837e+002, 7.844258e+003
8.536658e+002, 7.849400e+003
8.541479e+002, 7.850820e+003
8.546301e+002, 7.854722e+003
8.551122e+002, 7.861183e+003
8.555943e+002, 7.868584e+003
8.560764e+002, 7.876678e+003
8.565585e+002, 7.884289e+003
8.570406e+002, 7.889982e+003
8.575228e+002, 7.893966e+003
8.580049e+002, 7.898697e+003
8.584870e+002, 7.903171e+003
8.589691e+002, 7.910231e+003
8.594512e+002, 7.923932e+003
8.599333e+002, 7.936437e+003
8.604155e+002, 7.943182e+003
8.608976e+002, 7.946042e+003
8.613797e+002, 7.948692e+003
8.618618e+002, 7.951778e+003
8.623439e+002, 7.954790e+003
8.628260e+002, 7.955597e+003
8.633082e+002, 7.958089e+003
8.637903e+002, 7.967153e+003
8.642724e+002, 7.979396e+003
8.647545e+002, 7.988280e+003
8.652366e+002, 7.992937e+003
8.657188e+002, 7.998597e+003
8.662009e+002, 8.009993e+003
8.666830e+002, 8.023688e+003
8.671651e+002, 8.032623e+003
8.676472e+002, 8.037580e+003
8.681293e+002, 8.043661e+003
8.686115e+002, 8.051587e+003
8.690936e+002, 8.059594e+003
8.695757e+002, 8.066498e+003
8.700578e+002, 8.073089e+003
8.705399e+002, 8.081225e+003
8.710220e+002, 8.091375e+003
8.715042e+002, 8.100658e+003
8.719863e+002, 8.109452e+003
8.724684e+002, 8.116748e+003
8.729505e+002, 8.121325e+003
8.734326e+002, 8.124991e+003
8.739147e+002, 8.129493e+003
8.743969e+002, 8.134664e+003
8.748790e+002, 8.138826e+003
8.753611e+002, 8.140281e+003
8.758432e+002, 8.142827e+003
8.763253e+002, 8.147710e+003
8.768074e+002, 8.154412e+003
8.772896e+002, 8.163272e+003
8.777717e+002, 8.173470e+003
8.782538e+002, 8.182834e+003
8.787359e+002, 8.190596e+003
8.792180e+002, 8.199751e+003
8.797001e+002, 8.215466e+003
8.801823e+002, 8.233231e+003
8.806644e+002, 8.243946e+003
8.811465e+002, 8.248912e+003
8.816286e+002, 8.254079e+003
8.821107e+002, 8.261013e+003
8.825928e+002, 8.269669e+003
8.830750e+002, 8.280602e+003
8.835571e+002, 8.291827e+003
8.840392e+002, 8.295311e+003
8.845213e+002, 8.288841e+003
8.850034e+002, 8.287470e+003
8.854855e+002, 8.294005e+003
8.859677e+002, 8.302191e+003
8.864498e+002, 8.309193e+003
8.869319e+002, 8.315747e+003
8.874140e+002, 8.323335e+003
8.878961e+002, 8.332358e+003
8.883782e+002, 8.339963e+003
8.888604e+002, 8.345290e+003
8.893425e+002, 8.350329e+003
8.898246e+002, 8.354841e+003
8.903067e+002, 8.360068e+003
8.907888e+002, 8.368421e+003
8.912709e+002, 8.378524e+003
8.917531e+002, 8.385710e+003
8.922352e+002, 8.387670e+003
8.927173e+002, 8.388819e+003
8.931994e+002, 8.391707e+003
8.936815e+002, 8.395727e+003
8.941636e+002, 8.399188e+003
8.946458e+002, 8.403265e+003
8.951279e+002, 8.411777e+003
8.956100e+002, 8.425576e+003
8.960921e+002, 8.440176e+003
8.965742e+002, 8.451774e+003
8.970563e+002, 8.460519e+003
8.975385e+002, 8.465589e+003
8.980206e+002, 8.467455e+003
8.985027e+002, 8.472957e+003
8.989848e+002, 8.483488e+003
8.994669e+002, 8.495316e+003
8.999490e+002, 8.506545e+003
9.004312e+002, 8.516583e+003
9.009133e+002, 8.523680e+003
9.013954e+002, 8.526310e+003
9.018775e+002, 8.533357e+003
9.023596e+002, 8.549097e+003
9.028417e+002, 8.562037e+003
9.033239e+002, 8.566259e+003
9.038060e+002, 8.568174e+003
9.042881e+002, 8.574629e+003
9.047702e+002, 8.584629e+003
9.052523e+002, 8.591465e+003
9.057344e+002, 8.591232e+003
9.062166e+002, 8.592436e+003
9.066987e+002, 8.597452e+003
9.071808e+002, 8.604307e+003
9.076629e+002, 8.611701e+003
9.081450e+002, 8.619864e+003
9.086271e+002, 8.630384e+003
9.091093e+002, 8.643425e+003
9.095914e+002, 8.654426e+003
9.100735e+002, 8.658117e+003
9.105556e+002, 8.659839e+003
9.110377e+002, 8.665899e+003
9.115198e+002, 8.674375e+003
9.120020e+002, 8.680829e+003
9.124841e+002, 8.684901e+003
9.129662e+002, 8.689652e+003
9.134483e+002, 8.697096e+003
9.139304e+002, 8.705732e+003
9.144125e+002, 8.712687e+003
9.148947e+002, 8.718397e+003
9.153768e+002, 8.727373e+003
9.158589e+002, 8.740050e+003
9.163410e+002, 8.749433e+003
9.168231e+002, 8.752192e+003
9.173052e+002, 8.754274e+003
9.177874e+002, 8.763239e+003
9.182695e+002, 8.777768e+003
9.187516e+002, 8.783573e+003
9.192337e+002, 8.774110e+003
9.197158e+002, 8.771937e+003
9.201979e+002, 8.783243e+003
9.206801e+002, 8.797014e+003
9.211622e+002, 8.808405e+003
9.216443e+002, 8.817913e+003
9.221264e+002, 8.825907e+003
9.226085e+002, 8.832163e+003
9.230906e+002, 8.838402e+003
9.235728e+002, 8.841509e+003
9.240549e+002, 8.848712e+003
9.245370e+002, 8.867466e+003
9.250191e+002, 8.887703e+003
9.255012e+002, 8.898943e+003
9.259833e+002, 8.902793e+003
9.264655e+002, 8.907591e+003
9.269476e+002, 8.916322e+003
9.274297e+002, 8.926659e+003
9.279118e+002, 8.939098e+003
9.283939e+002, 8.950587e+003
9.288760e+002, 8.955685e+003
9.293582e+002, 8.957448e+003
9.298403e+002, 8.964441e+003
9.303224e+002, 8.977893e+003
9.308045e+002, 8.988818e+003
9.312866e+002, 8.988607e+003
9.317687e+002, 8.984531e+003
9.322509e+002, 8.991771e+003
9.327330e+002, 9.007501e+003
9.332151e+002, 9.018112e+003
9.336972e+002, 9.022356e+003
9.341793e+002, 9.027606e+003
9.346614e+002, 9.037809e+003
9.351436e+002, 9.048471e+003
9.356257e+002, 9.052105e+003
9.361078e+002, 9.049355e+003
9.365899e+002, 9.053750e+003
9.370720e+002, 9.067735e+003
9.375541e+002, 9.078284e+003
9.380363e+002, 9.080528e+003
9.385184e+002, 9.083230e+003
9.390005e+002, 9.093647e+003
9.394826e+002, 9.108706e+003
9.399647e+002, 9.119763e+003
9.404468e+002, 9.124447e+003
9.409290e+002, 9.131271e+003
9.414111e+002, 9.142226e+003
9.418932e+002, 9.152646e+003
9.423753e+002, 9.160005e+003
9.428574e+002, 9.167155e+003
9.433395e+002, 9.177543e+003
9.438217e+002, 9.190432e+003
9.443038e+002, 9.201315e+003
9.447859e+002, 9.207724e+003
9.452680e+002, 9.214994e+003
9.457501e+002, 9.226881e+003
9.462322e+002, 9.238642e+003
9.467144e+002, 9.245426e+003
9.471965e+002, 9.250090e+003
9.476786e+002, 9.258629e+003
9.481607e+002, 9.271725e+003
9.486428e+002, 9.282979e+003
9.491249e+002, 9.286366e+003
9.496071e+002, 9.288608e+003
9.500892e+002, 9.296475e+003
9.505713e+002, 9.307854e+003
9.510534e+002, 9.320098e+003
9.515355e+002, 9.332363e+003
9.520176e+002, 9.343787e+003
9.524998e+002, 9.353966e+003
9.529819e+002, 9.362302e+003
9.534640e+002, 9.367097e+003
9.539461e+002, 9.369872e+003
9.544282e+002, 9.375208e+003
9.549103e+002, 9.382943e+003
9.553925e+002, 9.391922e+003
9.558746e+002, 9.401937e+003
9.563567e+002, 9.412830e+003
9.568388e+002, 9.424842e+003
9.573209e+002, 9.436452e+003
9.578030e+002, 9.444354e+003
9.582852e+002, 9.448313e+003
9.587673e+002, 9.450520e+003
9.592494e+002, 9.449851e+003
9.597315e+002, 9.452005e+003
9.602136e+002, 9.459321e+003
9.606957e+002, 9.468850e+003
9.611779e+002, 9.477491e+003
9.616600e+002, 9.485981e+003
9.621421e+002, 9.498262e+003
9.626242e+002, 9.519038e+003
9.631063e+002, 9.534334e+003
9.635884e+002, 9.540676e+003
9.640706e+002, 9.545740e+003
9.645527e+002, 9.551524e+003
9.650348e+002, 9.558063e+003
9.655169e+002, 9.564581e+003
9.659990e+002, 9.571337e+003
9.664811e+002, 9.582049e+003
9.669633e+002, 9.603038e+003
9.674454e+002, 9.619619e+003
9.679275e+002, 9.625079e+003
9.684096e+002, 9.628500e+003
9.688917e+002, 9.636787e+003
9.693738e+002, 9.647024e+003
9.698560e+002, 9.652643e+003
9.703381e+002, 9.652635e+003
9.708202e+002, 9.655338e+003
9.713023e+002, 9.666807e+003
9.717844e+002, 9.679921e+003
9.722665e+002, 9.690436e+003
9.727487e+002, 9.699643e+003
9.732308e+002, 9.710083e+003
9.737129e+002, 9.720565e+003
9.741950e+002, 9.726203e+003
9.746771e+002, 9.725138e+003
9.751592e+002, 9.725170e+003
9.756414e+002, 9.733927e+003
9.761235e+002, 9.747394e+003
9.766056e+002, 9.760848e+003
9.770877e+002, 9.774203e+003
9.775698e+002, 9.788766e+003
9.780519e+002, 9.803793e+003
9.785341e+002, 9.813303e+003
9.790162e+002, 9.813174e+003
9.794983e+002, 9.812225e+003
9.799804e+002, 9.826411e+003
9.804625e+002, 9.850582e+003
9.809446e+002, 9.863556e+003
9.814268e+002, 9.866116e+003
9.819089e+002, 9.871012e+003
9.823910e+002, 9.881638e+003
9.828731e+002, 9.891509e+003
9.833552e+002, 9.895082e+003
9.838373e+002, 9.895237e+003
9.843195e+002, 9.898439e+003
9.848016e+002, 9.904610e+003
9.852837e+002, 9.916621e+003
9.857658e+002, 9.935941e+003
9.862479e+002, 9.953498e+003
9.867300e+002, 9.966778e+003
9.872122e+002, 9.975017e+003
9.876943e+002, 9.975978e+003
9.881764e+002, 9.971826e+003
9.886585e+002, 9.974848e+003
9.891406e+002, 9.988087e+003
9.896227e+002, 9.999415e+003
9.901049e+002, 1.000609e+004
9.905870e+002, 1.001519e+004
9.910691e+002, 1.003210e+004
9.915512e+002, 1.005039e+004
9.920333e+002, 1.006191e+004
9.925154e+002, 1.006685e+004
9.929976e+002, 1.007335e+004
9.934797e+002, 1.008468e+004
9.939618e+002, 1.009263e+004
9.944439e+002, 1.009172e+004
9.949260e+002, 1.009309e+004
9.954081e+002, 1.010404e+004
9.958903e+002, 1.011932e+004
9.963724e+002, 1.013230e+004
9.968545e+002, 1.014245e+004
9.973366e+002, 1.015117e+004
9.978187e+002, 1.015700e+004
9.983008e+002, 1.016370e+004
9.987830e+002, 1.017262e+004
9.992651e+002, 1.018247e+004
9.997472e+002, 1.019376e+004
1.000229e+003, 1.020472e+004
1.000711e+003, 1.021197e+004
1.001194e+003, 1.021497e+004
1.001676e+003, 1.021885e+004
1.002158e+003, 1.022570e+004
1.002640e+003, 1.023425e+004
1.003122e+003, 1.024524e+004
1.003604e+003, 1.025642e+004
1.004086e+003, 1.026519e+004
1.004568e+003, 1.027229e+004
1.005050e+003, 1.028023e+004
1.005533e+003, 1.028980e+004
1.006015e+003, 1.029894e+004
1.006497e+003, 1.030599e+004
1.006979e+003, 1.031223e+004
1.007461e+003, 1.031784e+004
1.007943e+003, 1.032405e+004
1.008425e+003, 1.033223e+004
1.008907e+003, 1.034283e+004
1.009390e+003, 1.035740e+004
1.009872e+003, 1.037659e+004
1.010354e+003, 1.039368e+004
1.010836e+003, 1.039945e+004
1.011318e+003, 1.040081e+004
1.011800e+003, 1.040935e+004
1.012282e+003, 1.042250e+004
1.012764e+003, 1.043414e+004
1.013246e+003, 1.044338e+004
1.013729e+003, 1.045224e+004
1.014211e+003, 1.046183e+004
1.014693e+003, 1.047084e+004
1.015175e+003, 1.047739e+004
1.015657e+003, 1.048211e+004
1.016139e+003, 1.048596e+004
1.016621e+003, 1.048952e+004
1.017103e+003, 1.049575e+004
1.017586e+003, 1.050515e+004
1.018068e+003, 1.051624e+004
1.018550e+003, 1.052833e+004
1.019032e+003, 1.053897e+004
1.019514e+003, 1.054112e+004
1.019996e+003, 1.053727e+004
1.020478e+003, 1.054703e+004
1.020960e+003, 1.056999e+004
1.021442e+003, 1.058933e+004
1.021925e+003, 1.060107e+004
1.022407e+003, 1.061065e+004
1.022889e+003, 1.062167e+004
1.023371e+003, 1.063319e+004
1.023853e+003, 1.064366e+004
1.024335e+003, 1.065299e+004
1.024817e+003, 1.066027e+004
1.025299e+003, 1.066514e+004
1.025781e+003, 1.066927e+004
1.026264e+003, 1.067194e+004
1.026746e+003, 1.067915e+004
1.027228e+003, 1.069672e+004
1.027710e+003, 1.071924e+004
1.028192e+003, 1.073326e+004
1.028674e+003, 1.073708e+004
1.029156e+003, 1.074554e+004
1.029638e+003, 1.076079e+004
1.030120e+003, 1.077283e+004
1.030603e+003, 1.077772e+004
1.031085e+003, 1.078195e+004
1.031567e+003, 1.079052e+004
1.032049e+003, 1.080215e+004
1.032531e+003, 1.081358e+004
1.033013e+003, 1.082480e+004
1.033495e+003, 1.083647e+004
1.033977e+003, 1.085097e+004
1.034460e+003, 1.086076e+004
1.034942e+003, 1.086138e+004
1.035424e+003, 1.086054e+004
1.035906e+003, 1.086392e+004
1.036388e+003, 1.087058e+004
1.036870e+003, 1.087765e+004
1.037352e+003, 1.088439e+004
1.037834e+003, 1.089427e+004
1.038317e+003, 1.091269e+004
1.038799e+003, 1.092580e+004
1.039281e+003, 1.092285e+004
1.039763e+003, 1.092118e+004
1.040245e+003, 1.093830e+004
1.040727e+003, 1.096641e+004
1.041209e+003, 1.098296e+004
1.041691e+003, 1.098300e+004
1.042173e+003, 1.098692e+004
1.042656e+003, 1.099895e+004
1.043138e+003, 1.100965e+004
1.043620e+003, 1.101404e+004
1.044102e+003, 1.101872e+004
1.044584e+003, 1.103006e+004
1.045066e+003, 1.104533e+004
1.045548e+003, 1.105702e+004
1.046030e+003, 1.106330e+004
1.046512e+003, 1.107126e+004
1.046995e+003, 1.108266e+004
1.047477e+003, 1.109446e+004
1.047959e+003, 1.110576e+004
1.048441e+003, 1.111715e+004
1.048923e+003, 1.113044e+004
1.049405e+003, 1.114389e+004
1.049887e+003, 1.115213e+004
1.050369e+003, 1.115252e+004
1.050852e+003, 1.115873e+004
1.051334e+003, 1.118143e+004
1.051816e+003, 1.119981e+004
1.052298e+003, 1.120185e+004
1.052780e+003, 1.120122e+004
1.053262e+003, 1.120991e+004
1.053744e+003, 1.122455e+004
1.054226e+003, 1.123569e+004
1.054708e+003, 1.124126e+004
1.055191e+003, 1.124823e+004
1.055673e+003, 1.125904e+004
1.056155e+003, 1.127078e+004
1.056637e+003, 1.128125e+004
1.057119e+003, 1.129314e+004
1.057601e+003, 1.131207e+004
1.058083e+003, 1.133315e+004
1.058565e+003, 1.134519e+004
1.059047e+003, 1.134547e+004
1.059530e+003, 1.134756e+004
1.060012e+003, 1.135701e+004
1.060494e+003, 1.136766e+004
1.060976e+003, 1.137660e+004
1.061458e+003, 1.138592e+004
1.061940e+003, 1.139935e+004
1.062422e+003, 1.141394e+004
1.062904e+003, 1.142294e+004
1.063387e+003, 1.142514e+004
1.063869e+003, 1.142992e+004
1.064351e+003, 1.144488e+004
1.064833e+003, 1.145784e+004
1.065315e+003, 1.146094e+004
1.065797e+003, 1.146215e+004
1.066279e+003, 1.146875e+004
1.066761e+003, 1.147816e+004
1.067244e+003, 1.148317e+004
1.067726e+003, 1.148320e+004
1.068208e+003, 1.148939e+004
1.068690e+003, 1.151321e+004
1.069172e+003, 1.153476e+004
1.069654e+003, 1.154161e+004
1.070136e+003, 1.154572e+004
1.070618e+003, 1.155617e+004
1.071100e+003, 1.157086e+004
1.071583e+003, 1.158594e+004
1.072065e+003, 1.160038e+004
1.072547e+003, 1.161329e+004
1.073029e+003, 1.162436e+004
1.073511e+003, 1.163356e+004
1.073993e+003, 1.163850e+004
1.074475e+003, 1.164388e+004
1.074957e+003, 1.165453e+004
1.075439e+003, 1.166736e+004
1.075922e+003, 1.167664e+004
1.076404e+003, 1.168265e+004
1.076886e+003, 1.169248e+004
1.077368e+003, 1.171127e+004
1.077850e+003, 1.172845e+004
1.078332e+003, 1.173830e+004
1.078814e+003, 1.174572e+004
1.079297e+003, 1.175310e+004
1.079779e+003, 1.176096e+004
1.080261e+003, 1.176928e+004
1.080743e+003, 1.177835e+004
1.081225e+003, 1.178925e+004
1.081707e+003, 1.180330e+004
1.082189e+003, 1.181585e+004
1.082671e+003, 1.182247e+004
1.083153e+003, 1.182941e+004
1.083635e+003, 1.184144e+004
1.084118e+003, 1.185544e+004
1.084600e+003, 1.186896e+004
1.085082e+003, 1.188086e+004
1.085564e+003, 1.188829e+004
1.086046e+003, 1.188933e+004
1.086528e+003, 1.189254e+004
1.087010e+003, 1.190398e+004
1.087492e+003, 1.191573e+004
1.087975e+003, 1.192274e+004
1.088457e+003, 1.192851e+004
1.088939e+003, 1.193672e+004
1.089421e+003, 1.194691e+004
1.089903e+003, 1.195741e+004
1.090385e+003, 1.196795e+004
1.090867e+003, 1.197737e+004
1.091349e+003, 1.198467e+004
1.091832e+003, 1.199142e+004
1.092314e+003, 1.199551e+004
1.092796e+003, 1.200185e+004
1.093278e+003, 1.201661e+004
1.093760e+003, 1.203589e+004
1.094242e+003, 1.205331e+004
1.094724e+003, 1.206760e+004
1.095206e+003, 1.207616e+004
1.095688e+003, 1.206948e+004
1.096171e+003, 1.206882e+004
1.096653e+003, 1.208800e+004
1.097135e+003, 1.210898e+004
1.097617e+003, 1.211854e+004
1.098099e+003, 1.212221e+004
1.098581e+003, 1.212907e+004
1.099063e+003, 1.213994e+004
1.099545e+003, 1.215044e+004
1.100027e+003, 1.215796e+004
1.100510e+003, 1.216781e+004
1.100992e+003, 1.218613e+004
1.101474e+003, 1.220171e+004
1.101956e+003, 1.220441e+004
1.102438e+003, 1.220396e+004
1.102920e+003, 1.221256e+004
1.103402e+003, 1.222902e+004
1.103884e+003, 1.224304e+004
1.104367e+003, 1.225099e+004
1.104849e+003, 1.226141e+004
1.105331e+003, 1.227904e+004
1.105813e+003, 1.229516e+004
1.106295e+003, 1.230472e+004
1.106777e+003, 1.231280e+004
1.107259e+003, 1.232524e+004
1.107741e+003, 1.233980e+004
1.108224e+003, 1.234920e+004
1.108706e+003, 1.235138e+004
1.109188e+003, 1.235424e+004
1.109670e+003, 1.235640e+004
1.110152e+003, 1.236212e+004
1.110634e+003, 1.237504e+004
1.111116e+003, 1.238920e+004
1.111598e+003, 1.240182e+004
1.112080e+003, 1.241260e+004
1.112563e+003, 1.242040e+004
1.113045e+003, 1.242473e+004
1.113527e+003, 1.243058e+004
1.114009e+003, 1.244093e+004
1.114491e+003, 1.244799e+004
1.114973e+003, 1.244811e+004
1.115455e+003, 1.244878e+004
1.115937e+003, 1.245191e+004
1.116419e+003, 1.245909e+004
1.116902e+003, 1.247508e+004
1.117384e+003, 1.249841e+004
1.117866e+003, 1.251080e+004
1.118348e+003, 1.250272e+004
1.118830e+003, 1.250657e+004
1.119312e+003, 1.253006e+004
1.119794e+003, 1.255217e+004
1.120276e+003, 1.256519e+004
1.120759e+003, 1.257430e+004
1.121241e+003, 1.258395e+004
1.121723e+003, 1.259386e+004
1.122205e+003, 1.260329e+004
1.122687e+003, 1.261232e+004
1.123169e+003, 1.261979e+004
1.123651e+003, 1.262419e+004
1.124133e+003, 1.263233e+004
1.124615e+003, 1.264709e+004
1.125098e+003, 1.266229e+004
1.125580e+003, 1.267373e+004
1.126062e+003, 1.268275e+004
1.126544e+003, 1.269146e+004
1.127026e+003, 1.269992e+004
1.127508e+003, 1.271168e+004
1.127990e+003, 1.272739e+004
1.128472e+003, 1.274070e+004
1.128954e+003, 1.275023e+004
1.129437e+003, 1.276125e+004
1.129919e+003, 1.277692e+004
1.130401e+003, 1.279235e+004
1.130883e+003, 1.280119e+004
1.131365e+003, 1.280536e+004
1.131847e+003, 1.281257e+004
1.132329e+003, 1.282274e+004
1.132811e+003, 1.283522e+004
1.133294e+003, 1.284982e+004
1.133776e+003, 1.286020e+004
1.134258e+003, 1.286424e+004
1.134740e+003, 1.286882e+004
1.135222e+003, 1.287991e+004
1.135704e+003, 1.289437e+004
1.136186e+003, 1.290575e+004
1.136668e+003, 1.291522e+004
1.137151e+003, 1.292829e+004
1.137633e+003, 1.294383e+004
1.138115e+003, 1.295481e+004
1.138597e+003, 1.296033e+004
1.139079e+003, 1.296583e+004
1.139561e+003, 1.297432e+004
1.140043e+003, 1.298354e+004
1.140525e+003, 1.299051e+004
1.141007e+003, 1.299646e+004
1.141490e+003, 1.300281e+004
1.141972e+003, 1.301020e+004
1.142454e+003, 1.302004e+004
1.142936e+003, 1.303238e+004
1.143418e+003, 1.304801e+004
1.143900e+003, 1.306645e+004
1.144382e+003, 1.308147e+004
1.144864e+003, 1.308583e+004
1.145346e+003, 1.308936e+004
1.145829e+003, 1.310442e+004
1.146311e+003, 1.312327e+004
1.146793e+003, 1.313747e+004
1.147275e+003, 1.314717e+004
1.147757e+003, 1.315259e+004
1.148239e+003, 1.315529e+004
1.148721e+003, 1.316060e+004
1.149203e+003, 1.317133e+004
1.149686e+003, 1.318336e+004
1.150168e+003, 1.319595e+004
1.150650e+003, 1.320692e+004
1.151132e+003, 1.321113e+004
1.151614e+003, 1.321578e+004
1.152096e+003, 1.323192e+004
1.152578e+003, 1.325472e+004
1.153060e+003, 1.326971e+004
1.153542e+003, 1.327327e+004
1.154025e+003, 1.328047e+004
1.154507e+003, 1.330110e+004
1.154989e+003, 1.331957e+004
1.155471e+003, 1.332513e+004
1.155953e+003, 1.333221e+004
1.156435e+003, 1.335625e+004
1.156917e+003, 1.338392e+004
1.157399e+003, 1.339296e+004
1.157881e+003, 1.338498e+004
1.158364e+003, 1.338776e+004
1.158846e+003, 1.341069e+004
1.159328e+003, 1.343161e+004
1.159810e+003, 1.345060e+004
1.160292e+003, 1.346540e+004
1.160774e+003, 1.347391e+004
1.161256e+003, 1.347962e+004
1.161738e+003, 1.348349e+004
1.162221e+003, 1.348756e+004
1.162703e+003, 1.349761e+004
1.163185e+003, 1.351509e+004
1.163667e+003, 1.352612e+004
1.164149e+003, 1.352661e+004
1.164631e+003, 1.353330e+004
1.165113e+003, 1.355098e+004
1.165595e+003, 1.356810e+004
1.166078e+003, 1.357832e+004
1.166560e+003, 1.358707e+004
1.167042e+003, 1.360191e+004
1.167524e+003, 1.362063e+004
1.168006e+003, 1.363083e+004
1.168488e+003, 1.363196e+004
1.168970e+003, 1.364477e+004
1.169452e+003, 1.367087e+004
1.169934e+003, 1.368984e+004
1.170417e+003, 1.369563e+004
1.170899e+003, 1.370026e+004
1.171381e+003, 1.371249e+004
1.171863e+003, 1.372830e+004
1.172345e+003, 1.374111e+004
1.172827e+003, 1.375181e+004
1.173309e+003, 1.376508e+004
1.173791e+003, 1.377894e+004
1.174273e+003, 1.378213e+004
1.174756e+003, 1.377667e+004
1.175238e+003, 1.378195e+004
1.175720e+003, 1.380489e+004
1.176202e+003, 1.382919e+004
1.176684e+003, 1.383977e+004
1.177166e+003, 1.384677e+004
1.177648e+003, 1.386717e+004
1.178130e+003, 1.388932e+004
1.178613e+003, 1.389176e+004
1.179095e+003, 1.388409e+004
1.179577e+003, 1.388881e+004
1.180059e+003, 1.390701e+004
1.180541e+003, 1.392249e+004
1.181023e+003, 1.392747e+004
1.181505e+003, 1.393411e+004
1.181987e+003, 1.395572e+004
1.182469e+003, 1.397454e+004
1.182952e+003, 1.397310e+004
1.183434e+003, 1.396813e+004
1.183916e+003, 1.397796e+004
1.184398e+003, 1.399656e+004
1.184880e+003, 1.400814e+004
1.185362e+003, 1.401079e+004
1.185844e+003, 1.402004e+004
1.186326e+003, 1.404606e+004
1.186808e+003, 1.406856e+004
1.187291e+003, 1.408283e+004
1.187773e+003, 1.409426e+004
1.188255e+003, 1.410551e+004
1.188737e+003, 1.411471e+004
1.189219e+003, 1.411824e+004
1.189701e+003, 1.411878e+004
1.190183e+003, 1.412478e+004
1.190665e+003, 1.413743e+004
1.191148e+003, 1.414935e+004
1.191630e+003, 1.415933e+004
1.192112e+003, 1.417277e+004
1.192594e+003, 1.419239e+004
1.193076e+003, 1.421007e+004
1.193558e+003, 1.422108e+004
1.194040e+003, 1.422982e+004
1.194522e+003, 1.424222e+004
1.195005e+003, 1.425655e+004
1.195487e+003, 1.426442e+004
1.195969e+003, 1.426614e+004
1.196451e+003, 1.427224e+004
1.196933e+003, 1.428303e+004
1.197415e+003, 1.429233e+004
1.197897e+003, 1.429885e+004
1.198379e+003, 1.431170e+004
1.198861e+003, 1.433755e+004
1.199344e+003, 1.436333e+004
1.199826e+003, 1.436810e+004
1.200308e+003, 1.436270e+004
1.200790e+003, 1.437000e+004
1.201272e+003, 1.438462e+004
1.201754e+003, 1.439357e+004
1.202236e+003, 1.439847e+004
1.202718e+003, 1.441068e+004
1.203200e+003, 1.443196e+004
1.203683e+003, 1.444826e+004
1.204165e+003, 1.444763e+004
1.204647e+003, 1.444972e+004
1.205129e+003, 1.447575e+004
1.205611e+003, 1.450403e+004
1.206093e+003, 1.451456e+004
1.206575e+003, 1.451740e+004
1.207057e+003, 1.452481e+004
1.207540e+003, 1.453653e+004
1.208022e+003, 1.454724e+004
1.208504e+003, 1.455558e+004
1.208986e+003, 1.456631e+004
1.209468e+003, 1.458660e+004
1.209950e+003, 1.460030e+004
1.210432e+003, 1.459641e+004
1.210914e+003, 1.459389e+004
1.211396e+003, 1.460367e+004
1.211879e+003, 1.461844e+004
1.212361e+003, 1.463090e+004
1.212843e+003, 1.464201e+004
1.213325e+003, 1.465586e+004
1.213807e+003, 1.467384e+004
1.214289e+003, 1.468747e+004
1.214771e+003, 1.469570e+004
1.215253e+003, 1.470367e+004
1.215735e+003, 1.471198e+004
1.216218e+003, 1.472235e+004
1.216700e+003, 1.473618e+004
1.217182e+003, 1.475021e+004
1.217664e+003, 1.476067e+004
1.218146e+003, 1.476786e+004
1.218628e+003, 1.477019e+004
1.219110e+003, 1.477007e+004
1.219592e+003, 1.478258e+004
1.220075e+003, 1.480549e+004
1.220557e+003, 1.482308e+004
1.221039e+003, 1.483234e+004
1.221521e+003, 1.484132e+004
1.222003e+003, 1.485445e+004
1.222485e+003, 1.486852e+004
1.222967e+003, 1.487923e+004
1.223449e+003, 1.489025e+004
1.223932e+003, 1.490956e+004
1.224414e+003, 1.492886e+004
1.224896e+003, 1.493384e+004
1.225378e+003, 1.493149e+004
1.225860e+003, 1.493906e+004
1.226342e+003, 1.495727e+004
1.226824e+003, 1.496845e+004
1.227306e+003, 1.496117e+004
1.227788e+003, 1.496194e+004
1.228271e+003, 1.498801e+004
1.228753e+003, 1.501312e+004
1.229235e+003, 1.502455e+004
1.229717e+003, 1.503192e+004
1.230199e+003, 1.504038e+004
1.230681e+003, 1.505126e+004
1.231163e+003, 1.506742e+004
1.231645e+003, 1.508863e+004
1.232127e+003, 1.510704e+004
1.232610e+003, 1.512363e+004
1.233092e+003, 1.513339e+004
1.233574e+003, 1.513352e+004
1.234056e+003, 1.513629e+004
1.234538e+003, 1.514593e+004
1.235020e+003, 1.515699e+004
1.235502e+003, 1.516564e+004
1.235984e+003, 1.517258e+004
1.236467e+003, 1.517795e+004
1.236949e+003, 1.518307e+004
1.237431e+003, 1.519323e+004
1.237913e+003, 1.520797e+004
1.238395e+003, 1.522798e+004
1.238877e+003, 1.525075e+004
1.239359e+003, 1.526454e+004
1.239841e+003, 1.526697e+004
1.240323e+003, 1.526825e+004
1.240806e+003, 1.527384e+004
1.241288e+003, 1.528564e+004
1.241770e+003, 1.531056e+004
1.242252e+003, 1.533703e+004
1.242734e+003, 1.535380e+004
1.243216e+003, 1.536525e+004
1.243698e+003, 1.537635e+004
1.244180e+003, 1.538728e+004
1.244662e+003, 1.539637e+004
1.245145e+003, 1.540363e+004
1.245627e+003, 1.541283e+004
1.246109e+003, 1.542879e+004
1.246591e+003, 1.543984e+004
1.247073e+003, 1.543773e+004
1.247555e+003, 1.543922e+004
1.248037e+003, 1.545296e+004
1.248519e+003, 1.546863e+004
1.249002e+003, 1.547945e+004
1.249484e+003, 1.548708e+004
1.249966e+003, 1.549363e+004
1.250448e+003, 1.549952e+004
1.250930e+003, 1.551317e+004
1.251412e+003, 1.553540e+004
1.251894e+003, 1.555618e+004
1.252376e+003, 1.557478e+004
1.252859e+003, 1.559221e+004
1.253341e+003, 1.560867e+004
1.253823e+003, 1.562230e+004
1.254305e+003, 1.563156e+004
1.254787e+003, 1.563957e+004
1.255269e+003, 1.564825e+004
1.255751e+003, 1.566040e+004
1.256233e+003, 1.568661e+004
1.256715e+003, 1.571735e+004
1.257198e+003, 1.573255e+004
1.257680e+003, 1.573742e+004
1.258162e+003, 1.575120e+004
1.258644e+003, 1.577529e+004
1.259126e+003, 1.579049e+004
1.259608e+003, 1.578475e+004
1.260090e+003, 1.578493e+004
1.260572e+003, 1.581085e+004
1.261054e+003, 1.583614e+004
1.261537e+003, 1.584674e+004
1.262019e+003, 1.585358e+004
1.262501e+003, 1.586489e+004
1.262983e+003, 1.587838e+004
1.263465e+003, 1.588844e+004
1.263947e+003, 1.589622e+004
1.264429e+003, 1.591204e+004
1.264911e+003, 1.594058e+004
1.265394e+003, 1.595992e+004
1.265876e+003, 1.596750e+004
1.266358e+003, 1.597661e+004
1.266840e+003, 1.599012e+004
1.267322e+003, 1.600480e+004
1.267804e+003, 1.601863e+004
1.268286e+003, 1.603545e+004
1.268768e+003, 1.606141e+004
1.269250e+003, 1.609048e+004
1.269733e+003, 1.610841e+004
1.270215e+003, 1.611887e+004
1.270697e+003, 1.613224e+004
1.271179e+003, 1.614618e+004
1.271661e+003, 1.614931e+004
1.272143e+003, 1.614462e+004
1.272625e+003, 1.615111e+004
1.273107e+003, 1.617592e+004
1.273589e+003, 1.620215e+004
1.274072e+003, 1.622066e+004
1.274554e+003, 1.623665e+004
1.275036e+003, 1.625473e+004
1.275518e+003, 1.626877e+004
1.276000e+003, 1.626991e+004
1.276482e+003, 1.626818e+004
1.276964e+003, 1.627569e+004
1.277446e+003, 1.629197e+004
1.277929e+003, 1.630806e+004
1.278411e+003, 1.632457e+004
1.278893e+003, 1.633498e+004
1.279375e+003, 1.633703e+004
1.279857e+003, 1.634234e+004
1.280339e+003, 1.635191e+004
1.280821e+003, 1.636781e+004
1.281303e+003, 1.639246e+004
1.281786e+003, 1.642243e+004
1.282268e+003, 1.645343e+004
##END=



