##NAMES=Manganoneptunite
##RRUFFID=R130094
##IDEAL CHEMISTRY=KNa_2_LiMn^2+^_2_Ti^4+^_2_Si_8_O_24_
##LOCALITY=Mount Kurnasurt, Lovozero Massif, Kola Peninsula, USSR
##OWNER=RRUFF
##SOURCE=Michael Scott
##DESCRIPTION=Deep red massive, good cleavage, associated with raite R060854, and orthoclase
##STATUS=The identification of this mineral has been confirmed only by single crystal X-ray diffraction.
##URL=rruff.info/R130094
8.936163e+001, 0.000000e+000
8.984375e+001, 1.439285e+002
9.032587e+001, 1.452750e+002
9.080798e+001, 1.455260e+002
9.129010e+001, 1.442223e+002
9.177222e+001, 1.423567e+002
9.225433e+001, 1.412537e+002
9.273645e+001, 1.408339e+002
9.321857e+001, 1.402864e+002
9.370068e+001, 1.387060e+002
9.418280e+001, 1.363955e+002
9.466492e+001, 1.343688e+002
9.514703e+001, 1.331366e+002
9.562915e+001, 1.323905e+002
9.611127e+001, 1.311415e+002
9.659338e+001, 1.293173e+002
9.707550e+001, 1.273899e+002
9.755762e+001, 1.259711e+002
9.803973e+001, 1.250656e+002
9.852185e+001, 1.241280e+002
9.900397e+001, 1.227781e+002
9.948608e+001, 1.209916e+002
9.996820e+001, 1.198427e+002
1.004503e+002, 1.196013e+002
1.009324e+002, 1.196753e+002
1.014146e+002, 1.187435e+002
1.018967e+002, 1.165109e+002
1.023788e+002, 1.140917e+002
1.028609e+002, 1.119624e+002
1.033430e+002, 1.100862e+002
1.038251e+002, 1.087260e+002
1.043073e+002, 1.081452e+002
1.047894e+002, 1.081392e+002
1.052715e+002, 1.076053e+002
1.057536e+002, 1.061774e+002
1.062357e+002, 1.046199e+002
1.067178e+002, 1.034480e+002
1.072000e+002, 1.029024e+002
1.076821e+002, 1.024138e+002
1.081642e+002, 1.020107e+002
1.086463e+002, 1.017229e+002
1.091284e+002, 1.011055e+002
1.096105e+002, 9.990222e+001
1.100927e+002, 9.847742e+001
1.105748e+002, 9.718308e+001
1.110569e+002, 9.601066e+001
1.115390e+002, 9.498184e+001
1.120211e+002, 9.420689e+001
1.125032e+002, 9.383932e+001
1.129854e+002, 9.315702e+001
1.134675e+002, 9.169909e+001
1.139496e+002, 8.994071e+001
1.144317e+002, 8.854967e+001
1.149138e+002, 8.799254e+001
1.153959e+002, 8.761919e+001
1.158781e+002, 8.717760e+001
1.163602e+002, 8.669865e+001
1.168423e+002, 8.598962e+001
1.173244e+002, 8.469785e+001
1.178065e+002, 8.308286e+001
1.182886e+002, 8.180510e+001
1.187708e+002, 8.140974e+001
1.192529e+002, 8.132542e+001
1.197350e+002, 8.110423e+001
1.202171e+002, 8.048935e+001
1.206992e+002, 7.987896e+001
1.211813e+002, 7.967514e+001
1.216635e+002, 7.978078e+001
1.221456e+002, 7.966120e+001
1.226277e+002, 7.884685e+001
1.231098e+002, 7.763950e+001
1.235919e+002, 7.643605e+001
1.240740e+002, 7.537292e+001
1.245562e+002, 7.437410e+001
1.250383e+002, 7.331456e+001
1.255204e+002, 7.219034e+001
1.260025e+002, 7.122086e+001
1.264846e+002, 7.070722e+001
1.269667e+002, 7.051031e+001
1.274489e+002, 7.028240e+001
1.279310e+002, 6.982954e+001
1.284131e+002, 6.925130e+001
1.288952e+002, 6.877203e+001
1.293773e+002, 6.842113e+001
1.298594e+002, 6.804599e+001
1.303416e+002, 6.733817e+001
1.308237e+002, 6.636193e+001
1.313058e+002, 6.553809e+001
1.317879e+002, 6.529075e+001
1.322700e+002, 6.545618e+001
1.327521e+002, 6.517024e+001
1.332343e+002, 6.424484e+001
1.337164e+002, 6.305836e+001
1.341985e+002, 6.229012e+001
1.346806e+002, 6.196403e+001
1.351627e+002, 6.173885e+001
1.356448e+002, 6.140606e+001
1.361270e+002, 6.096249e+001
1.366091e+002, 6.054935e+001
1.370912e+002, 6.020908e+001
1.375733e+002, 5.990030e+001
1.380554e+002, 5.939806e+001
1.385375e+002, 5.860675e+001
1.390197e+002, 5.789777e+001
1.395018e+002, 5.769125e+001
1.399839e+002, 5.820623e+001
1.404660e+002, 5.823761e+001
1.409481e+002, 5.738356e+001
1.414302e+002, 5.574857e+001
1.419124e+002, 5.471715e+001
1.423945e+002, 5.453559e+001
1.428766e+002, 5.461946e+001
1.433587e+002, 5.435933e+001
1.438408e+002, 5.349940e+001
1.443229e+002, 5.283481e+001
1.448051e+002, 5.264848e+001
1.452872e+002, 5.305782e+001
1.457693e+002, 5.300179e+001
1.462514e+002, 5.214623e+001
1.467335e+002, 5.103492e+001
1.472156e+002, 5.036446e+001
1.476978e+002, 5.051591e+001
1.481799e+002, 5.064705e+001
1.486620e+002, 5.053283e+001
1.491441e+002, 5.006377e+001
1.496262e+002, 4.964796e+001
1.501083e+002, 4.933032e+001
1.505905e+002, 4.906443e+001
1.510726e+002, 4.876707e+001
1.515547e+002, 4.843176e+001
1.520368e+002, 4.807441e+001
1.525189e+002, 4.770189e+001
1.530010e+002, 4.735429e+001
1.534832e+002, 4.692481e+001
1.539653e+002, 4.625586e+001
1.544474e+002, 4.549145e+001
1.549295e+002, 4.497734e+001
1.554116e+002, 4.514745e+001
1.558937e+002, 4.529383e+001
1.563759e+002, 4.507109e+001
1.568580e+002, 4.396233e+001
1.573401e+002, 4.311565e+001
1.578222e+002, 4.280065e+001
1.583043e+002, 4.293463e+001
1.587864e+002, 4.321239e+001
1.592686e+002, 4.389551e+001
1.597507e+002, 4.449620e+001
1.602328e+002, 4.470123e+001
1.607149e+002, 4.416414e+001
1.611970e+002, 4.349628e+001
1.616791e+002, 4.279736e+001
1.621613e+002, 4.209756e+001
1.626434e+002, 4.152995e+001
1.631255e+002, 4.111926e+001
1.636076e+002, 4.088478e+001
1.640897e+002, 4.084370e+001
1.645718e+002, 4.124817e+001
1.650540e+002, 4.164360e+001
1.655361e+002, 4.175470e+001
1.660182e+002, 4.159203e+001
1.665003e+002, 4.145604e+001
1.669824e+002, 4.161933e+001
1.674645e+002, 4.187307e+001
1.679467e+002, 4.195801e+001
1.684288e+002, 4.149291e+001
1.689109e+002, 4.101860e+001
1.693930e+002, 4.098023e+001
1.698751e+002, 4.140882e+001
1.703572e+002, 4.187558e+001
1.708394e+002, 4.201249e+001
1.713215e+002, 4.199798e+001
1.718036e+002, 4.213053e+001
1.722857e+002, 4.266658e+001
1.727678e+002, 4.334777e+001
1.732499e+002, 4.388066e+001
1.737321e+002, 4.422442e+001
1.742142e+002, 4.462842e+001
1.746963e+002, 4.525605e+001
1.751784e+002, 4.610804e+001
1.756605e+002, 4.719109e+001
1.761426e+002, 4.849921e+001
1.766248e+002, 5.003315e+001
1.771069e+002, 5.181936e+001
1.775890e+002, 5.389413e+001
1.780711e+002, 5.611377e+001
1.785532e+002, 5.826949e+001
1.790353e+002, 6.043752e+001
1.795175e+002, 6.280494e+001
1.799996e+002, 6.568826e+001
1.804817e+002, 6.882453e+001
1.809638e+002, 7.174705e+001
1.814459e+002, 7.437563e+001
1.819280e+002, 7.686679e+001
1.824102e+002, 7.956054e+001
1.828923e+002, 8.236311e+001
1.833744e+002, 8.500436e+001
1.838565e+002, 8.703024e+001
1.843386e+002, 8.871936e+001
1.848207e+002, 9.089616e+001
1.853029e+002, 9.387012e+001
1.857850e+002, 9.704520e+001
1.862671e+002, 9.943332e+001
1.867492e+002, 1.010526e+002
1.872313e+002, 1.025368e+002
1.877134e+002, 1.042476e+002
1.881956e+002, 1.061842e+002
1.886777e+002, 1.083097e+002
1.891598e+002, 1.107567e+002
1.896419e+002, 1.132598e+002
1.901240e+002, 1.151040e+002
1.906061e+002, 1.162777e+002
1.910883e+002, 1.175464e+002
1.915704e+002, 1.194958e+002
1.920525e+002, 1.221051e+002
1.925346e+002, 1.249718e+002
1.930167e+002, 1.279634e+002
1.934988e+002, 1.311185e+002
1.939810e+002, 1.344436e+002
1.944631e+002, 1.378680e+002
1.949452e+002, 1.412907e+002
1.954273e+002, 1.440524e+002
1.959094e+002, 1.461740e+002
1.963915e+002, 1.482549e+002
1.968737e+002, 1.502998e+002
1.973558e+002, 1.524143e+002
1.978379e+002, 1.551028e+002
1.983200e+002, 1.584128e+002
1.988021e+002, 1.620007e+002
1.992842e+002, 1.656743e+002
1.997664e+002, 1.694853e+002
2.002485e+002, 1.728797e+002
2.007306e+002, 1.757346e+002
2.012127e+002, 1.781174e+002
2.016948e+002, 1.805175e+002
2.021769e+002, 1.830708e+002
2.026591e+002, 1.852803e+002
2.031412e+002, 1.866521e+002
2.036233e+002, 1.871738e+002
2.041054e+002, 1.871571e+002
2.045875e+002, 1.865953e+002
2.050696e+002, 1.855362e+002
2.055518e+002, 1.842477e+002
2.060339e+002, 1.825233e+002
2.065160e+002, 1.810126e+002
2.069981e+002, 1.806375e+002
2.074802e+002, 1.817601e+002
2.079623e+002, 1.822919e+002
2.084445e+002, 1.815588e+002
2.089266e+002, 1.796241e+002
2.094087e+002, 1.781340e+002
2.098908e+002, 1.771254e+002
2.103729e+002, 1.764480e+002
2.108550e+002, 1.760027e+002
2.113372e+002, 1.758784e+002
2.118193e+002, 1.756538e+002
2.123014e+002, 1.750413e+002
2.127835e+002, 1.740391e+002
2.132656e+002, 1.739712e+002
2.137477e+002, 1.750497e+002
2.142299e+002, 1.767487e+002
2.147120e+002, 1.785388e+002
2.151941e+002, 1.805877e+002
2.156762e+002, 1.822922e+002
2.161583e+002, 1.834290e+002
2.166404e+002, 1.839508e+002
2.171226e+002, 1.846587e+002
2.176047e+002, 1.857038e+002
2.180868e+002, 1.867549e+002
2.185689e+002, 1.873226e+002
2.190510e+002, 1.870393e+002
2.195331e+002, 1.871641e+002
2.200153e+002, 1.881657e+002
2.204974e+002, 1.901729e+002
2.209795e+002, 1.917156e+002
2.214616e+002, 1.928327e+002
2.219437e+002, 1.934798e+002
2.224258e+002, 1.934975e+002
2.229080e+002, 1.924808e+002
2.233901e+002, 1.917239e+002
2.238722e+002, 1.917106e+002
2.243543e+002, 1.925845e+002
2.248364e+002, 1.928986e+002
2.253185e+002, 1.924103e+002
2.258007e+002, 1.915837e+002
2.262828e+002, 1.909774e+002
2.267649e+002, 1.906301e+002
2.272470e+002, 1.904276e+002
2.277291e+002, 1.904111e+002
2.282112e+002, 1.906375e+002
2.286934e+002, 1.905448e+002
2.291755e+002, 1.899012e+002
2.296576e+002, 1.891385e+002
2.301397e+002, 1.888432e+002
2.306218e+002, 1.892106e+002
2.311039e+002, 1.896853e+002
2.315861e+002, 1.901255e+002
2.320682e+002, 1.905251e+002
2.325503e+002, 1.910418e+002
2.330324e+002, 1.918990e+002
2.335145e+002, 1.926962e+002
2.339966e+002, 1.928560e+002
2.344788e+002, 1.918962e+002
2.349609e+002, 1.911790e+002
2.354430e+002, 1.911876e+002
2.359251e+002, 1.921032e+002
2.364072e+002, 1.924191e+002
2.368893e+002, 1.917139e+002
2.373715e+002, 1.907539e+002
2.378536e+002, 1.905320e+002
2.383357e+002, 1.914668e+002
2.388178e+002, 1.923944e+002
2.392999e+002, 1.930046e+002
2.397820e+002, 1.932374e+002
2.402642e+002, 1.935538e+002
2.407463e+002, 1.940138e+002
2.412284e+002, 1.944988e+002
2.417105e+002, 1.948471e+002
2.421926e+002, 1.949365e+002
2.426747e+002, 1.951015e+002
2.431569e+002, 1.954318e+002
2.436390e+002, 1.959470e+002
2.441211e+002, 1.964947e+002
2.446032e+002, 1.972231e+002
2.450853e+002, 1.978583e+002
2.455674e+002, 1.980490e+002
2.460496e+002, 1.975608e+002
2.465317e+002, 1.970779e+002
2.470138e+002, 1.968532e+002
2.474959e+002, 1.969572e+002
2.479780e+002, 1.964905e+002
2.484601e+002, 1.952317e+002
2.489423e+002, 1.936312e+002
2.494244e+002, 1.922003e+002
2.499065e+002, 1.911223e+002
2.503886e+002, 1.898452e+002
2.508707e+002, 1.880920e+002
2.513528e+002, 1.858310e+002
2.518350e+002, 1.842179e+002
2.523171e+002, 1.835784e+002
2.527992e+002, 1.832490e+002
2.532813e+002, 1.825014e+002
2.537634e+002, 1.810046e+002
2.542455e+002, 1.798236e+002
2.547277e+002, 1.792443e+002
2.552098e+002, 1.792741e+002
2.556919e+002, 1.791953e+002
2.561740e+002, 1.789288e+002
2.566561e+002, 1.786453e+002
2.571382e+002, 1.785014e+002
2.576204e+002, 1.784985e+002
2.581025e+002, 1.786445e+002
2.585846e+002, 1.790741e+002
2.590667e+002, 1.797543e+002
2.595488e+002, 1.797869e+002
2.600309e+002, 1.787512e+002
2.605131e+002, 1.776845e+002
2.609952e+002, 1.775920e+002
2.614773e+002, 1.788549e+002
2.619594e+002, 1.800320e+002
2.624415e+002, 1.808985e+002
2.629236e+002, 1.814790e+002
2.634058e+002, 1.818715e+002
2.638879e+002, 1.819230e+002
2.643700e+002, 1.820570e+002
2.648521e+002, 1.827426e+002
2.653342e+002, 1.842805e+002
2.658163e+002, 1.853045e+002
2.662985e+002, 1.854320e+002
2.667806e+002, 1.848592e+002
2.672627e+002, 1.847006e+002
2.677448e+002, 1.850055e+002
2.682269e+002, 1.856223e+002
2.687090e+002, 1.864927e+002
2.691912e+002, 1.876897e+002
2.696733e+002, 1.888446e+002
2.701554e+002, 1.898685e+002
2.706375e+002, 1.908288e+002
2.711196e+002, 1.919869e+002
2.716017e+002, 1.933973e+002
2.720839e+002, 1.948447e+002
2.725660e+002, 1.961418e+002
2.730481e+002, 1.972660e+002
2.735302e+002, 1.984456e+002
2.740123e+002, 1.997711e+002
2.744944e+002, 2.011366e+002
2.749766e+002, 2.023256e+002
2.754587e+002, 2.034037e+002
2.759408e+002, 2.040588e+002
2.764229e+002, 2.039531e+002
2.769050e+002, 2.030212e+002
2.773871e+002, 2.021928e+002
2.778693e+002, 2.015529e+002
2.783514e+002, 2.010311e+002
2.788335e+002, 2.004120e+002
2.793156e+002, 1.996393e+002
2.797977e+002, 1.990711e+002
2.802798e+002, 1.990372e+002
2.807620e+002, 1.995419e+002
2.812441e+002, 1.997020e+002
2.817262e+002, 1.993656e+002
2.822083e+002, 1.988634e+002
2.826904e+002, 1.988948e+002
2.831725e+002, 1.995073e+002
2.836547e+002, 1.999480e+002
2.841368e+002, 1.996975e+002
2.846189e+002, 1.988341e+002
2.851010e+002, 1.983140e+002
2.855831e+002, 1.982202e+002
2.860652e+002, 1.982934e+002
2.865474e+002, 1.982266e+002
2.870295e+002, 1.980188e+002
2.875116e+002, 1.976056e+002
2.879937e+002, 1.966898e+002
2.884758e+002, 1.954438e+002
2.889579e+002, 1.950343e+002
2.894401e+002, 1.955640e+002
2.899222e+002, 1.963609e+002
2.904043e+002, 1.965677e+002
2.908864e+002, 1.962592e+002
2.913685e+002, 1.960345e+002
2.918506e+002, 1.961816e+002
2.923328e+002, 1.965750e+002
2.928149e+002, 1.968633e+002
2.932970e+002, 1.970470e+002
2.937791e+002, 1.971391e+002
2.942612e+002, 1.969876e+002
2.947433e+002, 1.967042e+002
2.952255e+002, 1.967609e+002
2.957076e+002, 1.974814e+002
2.961897e+002, 1.985439e+002
2.966718e+002, 1.994127e+002
2.971539e+002, 2.000828e+002
2.976360e+002, 2.004290e+002
2.981182e+002, 2.001513e+002
2.986003e+002, 1.994557e+002
2.990824e+002, 1.988226e+002
2.995645e+002, 1.982734e+002
3.000466e+002, 1.979671e+002
3.005287e+002, 1.983693e+002
3.010109e+002, 1.993672e+002
3.014930e+002, 2.001673e+002
3.019751e+002, 1.998925e+002
3.024572e+002, 1.990848e+002
3.029393e+002, 1.986617e+002
3.034214e+002, 1.988471e+002
3.039036e+002, 1.994176e+002
3.043857e+002, 2.001793e+002
3.048678e+002, 2.011302e+002
3.053499e+002, 2.022843e+002
3.058320e+002, 2.037395e+002
3.063141e+002, 2.053634e+002
3.067963e+002, 2.069990e+002
3.072784e+002, 2.086737e+002
3.077605e+002, 2.102549e+002
3.082426e+002, 2.116343e+002
3.087247e+002, 2.128374e+002
3.092068e+002, 2.139260e+002
3.096890e+002, 2.150302e+002
3.101711e+002, 2.159733e+002
3.106532e+002, 2.166260e+002
3.111353e+002, 2.169910e+002
3.116174e+002, 2.169500e+002
3.120995e+002, 2.161906e+002
3.125817e+002, 2.150015e+002
3.130638e+002, 2.138435e+002
3.135459e+002, 2.130847e+002
3.140280e+002, 2.122685e+002
3.145101e+002, 2.109627e+002
3.149922e+002, 2.091025e+002
3.154744e+002, 2.075249e+002
3.159565e+002, 2.066178e+002
3.164386e+002, 2.062307e+002
3.169207e+002, 2.061988e+002
3.174028e+002, 2.065824e+002
3.178849e+002, 2.072077e+002
3.183671e+002, 2.080756e+002
3.188492e+002, 2.091811e+002
3.193313e+002, 2.103027e+002
3.198134e+002, 2.112980e+002
3.202955e+002, 2.123215e+002
3.207776e+002, 2.134828e+002
3.212598e+002, 2.151084e+002
3.217419e+002, 2.165599e+002
3.222240e+002, 2.177917e+002
3.227061e+002, 2.187629e+002
3.231882e+002, 2.192771e+002
3.236703e+002, 2.189717e+002
3.241525e+002, 2.184176e+002
3.246346e+002, 2.179389e+002
3.251167e+002, 2.178726e+002
3.255988e+002, 2.174658e+002
3.260809e+002, 2.164870e+002
3.265630e+002, 2.151074e+002
3.270452e+002, 2.137893e+002
3.275273e+002, 2.121357e+002
3.280094e+002, 2.109346e+002
3.284915e+002, 2.105671e+002
3.289736e+002, 2.116527e+002
3.294557e+002, 2.121995e+002
3.299379e+002, 2.118752e+002
3.304200e+002, 2.111154e+002
3.309021e+002, 2.106230e+002
3.313842e+002, 2.105683e+002
3.318663e+002, 2.105450e+002
3.323484e+002, 2.104468e+002
3.328306e+002, 2.102624e+002
3.333127e+002, 2.100870e+002
3.337948e+002, 2.099974e+002
3.342769e+002, 2.098440e+002
3.347590e+002, 2.094088e+002
3.352411e+002, 2.084449e+002
3.357233e+002, 2.077406e+002
3.362054e+002, 2.074344e+002
3.366875e+002, 2.075254e+002
3.371696e+002, 2.080745e+002
3.376517e+002, 2.092689e+002
3.381339e+002, 2.105660e+002
3.386160e+002, 2.115676e+002
3.390981e+002, 2.123027e+002
3.395802e+002, 2.125910e+002
3.400623e+002, 2.122449e+002
3.405444e+002, 2.115030e+002
3.410266e+002, 2.112554e+002
3.415087e+002, 2.115970e+002
3.419908e+002, 2.119410e+002
3.424729e+002, 2.120011e+002
3.429550e+002, 2.117736e+002
3.434371e+002, 2.110443e+002
3.439193e+002, 2.096608e+002
3.444014e+002, 2.080278e+002
3.448835e+002, 2.070132e+002
3.453656e+002, 2.066112e+002
3.458477e+002, 2.060425e+002
3.463298e+002, 2.046568e+002
3.468120e+002, 2.027170e+002
3.472941e+002, 2.014763e+002
3.477762e+002, 2.010184e+002
3.482583e+002, 2.009152e+002
3.487404e+002, 2.006393e+002
3.492225e+002, 2.002676e+002
3.497047e+002, 2.001295e+002
3.501868e+002, 2.005343e+002
3.506689e+002, 2.011683e+002
3.511510e+002, 2.013968e+002
3.516331e+002, 2.012270e+002
3.521152e+002, 2.011207e+002
3.525974e+002, 2.016028e+002
3.530795e+002, 2.024015e+002
3.535616e+002, 2.030156e+002
3.540437e+002, 2.032857e+002
3.545258e+002, 2.033424e+002
3.550079e+002, 2.032911e+002
3.554901e+002, 2.031340e+002
3.559722e+002, 2.028821e+002
3.564543e+002, 2.024934e+002
3.569364e+002, 2.020393e+002
3.574185e+002, 2.015863e+002
3.579006e+002, 2.011489e+002
3.583828e+002, 2.007149e+002
3.588649e+002, 2.003515e+002
3.593470e+002, 1.999819e+002
3.598291e+002, 1.994489e+002
3.603112e+002, 1.985690e+002
3.607933e+002, 1.975910e+002
3.612755e+002, 1.966141e+002
3.617576e+002, 1.956316e+002
3.622397e+002, 1.947658e+002
3.627218e+002, 1.939973e+002
3.632039e+002, 1.933909e+002
3.636860e+002, 1.930196e+002
3.641682e+002, 1.935166e+002
3.646503e+002, 1.936494e+002
3.651324e+002, 1.928955e+002
3.656145e+002, 1.912807e+002
3.660966e+002, 1.896763e+002
3.665787e+002, 1.880097e+002
3.670609e+002, 1.865339e+002
3.675430e+002, 1.854113e+002
3.680251e+002, 1.851120e+002
3.685072e+002, 1.846223e+002
3.689893e+002, 1.838475e+002
3.694714e+002, 1.828353e+002
3.699536e+002, 1.817416e+002
3.704357e+002, 1.804123e+002
3.709178e+002, 1.791584e+002
3.713999e+002, 1.780652e+002
3.718820e+002, 1.769647e+002
3.723641e+002, 1.764763e+002
3.728463e+002, 1.769038e+002
3.733284e+002, 1.777462e+002
3.738105e+002, 1.782376e+002
3.742926e+002, 1.782817e+002
3.747747e+002, 1.781801e+002
3.752568e+002, 1.779626e+002
3.757390e+002, 1.776249e+002
3.762211e+002, 1.774728e+002
3.767032e+002, 1.775668e+002
3.771853e+002, 1.777120e+002
3.776674e+002, 1.777087e+002
3.781495e+002, 1.775376e+002
3.786317e+002, 1.773802e+002
3.791138e+002, 1.772613e+002
3.795959e+002, 1.771842e+002
3.800780e+002, 1.771185e+002
3.805601e+002, 1.770535e+002
3.810422e+002, 1.771405e+002
3.815244e+002, 1.775910e+002
3.820065e+002, 1.783289e+002
3.824886e+002, 1.789157e+002
3.829707e+002, 1.793217e+002
3.834528e+002, 1.795491e+002
3.839349e+002, 1.794993e+002
3.844171e+002, 1.792306e+002
3.848992e+002, 1.790539e+002
3.853813e+002, 1.792328e+002
3.858634e+002, 1.795659e+002
3.863455e+002, 1.796911e+002
3.868276e+002, 1.795899e+002
3.873098e+002, 1.794376e+002
3.877919e+002, 1.794473e+002
3.882740e+002, 1.794986e+002
3.887561e+002, 1.793716e+002
3.892382e+002, 1.788425e+002
3.897203e+002, 1.782497e+002
3.902025e+002, 1.778020e+002
3.906846e+002, 1.775118e+002
3.911667e+002, 1.774374e+002
3.916488e+002, 1.778305e+002
3.921309e+002, 1.783349e+002
3.926130e+002, 1.786665e+002
3.930952e+002, 1.787751e+002
3.935773e+002, 1.786857e+002
3.940594e+002, 1.782121e+002
3.945415e+002, 1.775650e+002
3.950236e+002, 1.771347e+002
3.955057e+002, 1.771509e+002
3.959879e+002, 1.773124e+002
3.964700e+002, 1.775482e+002
3.969521e+002, 1.778802e+002
3.974342e+002, 1.781110e+002
3.979163e+002, 1.781177e+002
3.983984e+002, 1.780561e+002
3.988806e+002, 1.780681e+002
3.993627e+002, 1.780896e+002
3.998448e+002, 1.782750e+002
4.003269e+002, 1.787743e+002
4.008090e+002, 1.795175e+002
4.012911e+002, 1.799427e+002
4.017733e+002, 1.797797e+002
4.022554e+002, 1.796216e+002
4.027375e+002, 1.797749e+002
4.032196e+002, 1.803186e+002
4.037017e+002, 1.810128e+002
4.041838e+002, 1.819795e+002
4.046660e+002, 1.829954e+002
4.051481e+002, 1.835640e+002
4.056302e+002, 1.835674e+002
4.061123e+002, 1.835752e+002
4.065944e+002, 1.838161e+002
4.070765e+002, 1.842755e+002
4.075587e+002, 1.845680e+002
4.080408e+002, 1.846420e+002
4.085229e+002, 1.847462e+002
4.090050e+002, 1.851812e+002
4.094871e+002, 1.859218e+002
4.099692e+002, 1.866802e+002
4.104514e+002, 1.875008e+002
4.109335e+002, 1.881863e+002
4.114156e+002, 1.881371e+002
4.118977e+002, 1.874201e+002
4.123798e+002, 1.868200e+002
4.128619e+002, 1.870838e+002
4.133441e+002, 1.877959e+002
4.138262e+002, 1.880807e+002
4.143083e+002, 1.877631e+002
4.147904e+002, 1.874180e+002
4.152725e+002, 1.877221e+002
4.157546e+002, 1.884121e+002
4.162368e+002, 1.889484e+002
4.167189e+002, 1.890385e+002
4.172010e+002, 1.889112e+002
4.176831e+002, 1.886983e+002
4.181652e+002, 1.884111e+002
4.186473e+002, 1.881251e+002
4.191295e+002, 1.879111e+002
4.196116e+002, 1.877030e+002
4.200937e+002, 1.874391e+002
4.205758e+002, 1.870201e+002
4.210579e+002, 1.866609e+002
4.215400e+002, 1.862641e+002
4.220222e+002, 1.859683e+002
4.225043e+002, 1.861041e+002
4.229864e+002, 1.875457e+002
4.234685e+002, 1.887395e+002
4.239506e+002, 1.889416e+002
4.244327e+002, 1.876494e+002
4.249149e+002, 1.869350e+002
4.253970e+002, 1.874045e+002
4.258791e+002, 1.881889e+002
4.263612e+002, 1.884411e+002
4.268433e+002, 1.880011e+002
4.273254e+002, 1.872427e+002
4.278076e+002, 1.859969e+002
4.282897e+002, 1.843943e+002
4.287718e+002, 1.835236e+002
4.292539e+002, 1.836833e+002
4.297360e+002, 1.839780e+002
4.302181e+002, 1.838582e+002
4.307003e+002, 1.832535e+002
4.311824e+002, 1.826834e+002
4.316645e+002, 1.821699e+002
4.321466e+002, 1.816982e+002
4.326287e+002, 1.812483e+002
4.331108e+002, 1.808248e+002
4.335930e+002, 1.804549e+002
4.340751e+002, 1.802146e+002
4.345572e+002, 1.800316e+002
4.350393e+002, 1.795978e+002
4.355214e+002, 1.789095e+002
4.360035e+002, 1.782562e+002
4.364857e+002, 1.779198e+002
4.369678e+002, 1.778229e+002
4.374499e+002, 1.777813e+002
4.379320e+002, 1.777800e+002
4.384141e+002, 1.777681e+002
4.388962e+002, 1.777115e+002
4.393784e+002, 1.776002e+002
4.398605e+002, 1.774067e+002
4.403426e+002, 1.771088e+002
4.408247e+002, 1.767239e+002
4.413068e+002, 1.761436e+002
4.417889e+002, 1.753243e+002
4.422711e+002, 1.748136e+002
4.427532e+002, 1.752525e+002
4.432353e+002, 1.759931e+002
4.437174e+002, 1.763629e+002
4.441995e+002, 1.756322e+002
4.446816e+002, 1.750748e+002
4.451638e+002, 1.752398e+002
4.456459e+002, 1.759398e+002
4.461280e+002, 1.763103e+002
4.466101e+002, 1.757925e+002
4.470922e+002, 1.752783e+002
4.475743e+002, 1.752121e+002
4.480565e+002, 1.759397e+002
4.485386e+002, 1.762457e+002
4.490207e+002, 1.759405e+002
4.495028e+002, 1.753314e+002
4.499849e+002, 1.747836e+002
4.504670e+002, 1.742201e+002
4.509492e+002, 1.738918e+002
4.514313e+002, 1.739040e+002
4.519134e+002, 1.742138e+002
4.523955e+002, 1.745378e+002
4.528776e+002, 1.749023e+002
4.533597e+002, 1.751801e+002
4.538419e+002, 1.752507e+002
4.543240e+002, 1.751194e+002
4.548061e+002, 1.749514e+002
4.552882e+002, 1.747074e+002
4.557703e+002, 1.745727e+002
4.562524e+002, 1.750513e+002
4.567346e+002, 1.760191e+002
4.572167e+002, 1.766075e+002
4.576988e+002, 1.760843e+002
4.581809e+002, 1.751179e+002
4.586630e+002, 1.749424e+002
4.591451e+002, 1.755147e+002
4.596273e+002, 1.761486e+002
4.601094e+002, 1.764782e+002
4.605915e+002, 1.764975e+002
4.610736e+002, 1.760945e+002
4.615557e+002, 1.749332e+002
4.620378e+002, 1.740329e+002
4.625200e+002, 1.743146e+002
4.630021e+002, 1.753130e+002
4.634842e+002, 1.761173e+002
4.639663e+002, 1.763867e+002
4.644484e+002, 1.763783e+002
4.649305e+002, 1.760998e+002
4.654127e+002, 1.755369e+002
4.658948e+002, 1.751335e+002
4.663769e+002, 1.749438e+002
4.668590e+002, 1.749728e+002
4.673411e+002, 1.752286e+002
4.678232e+002, 1.761778e+002
4.683054e+002, 1.767348e+002
4.687875e+002, 1.766460e+002
4.692696e+002, 1.761787e+002
4.697517e+002, 1.759799e+002
4.702338e+002, 1.760885e+002
4.707159e+002, 1.764033e+002
4.711981e+002, 1.769675e+002
4.716802e+002, 1.777993e+002
4.721623e+002, 1.783522e+002
4.726444e+002, 1.785482e+002
4.731265e+002, 1.786590e+002
4.736086e+002, 1.789741e+002
4.740908e+002, 1.794883e+002
4.745729e+002, 1.799008e+002
4.750550e+002, 1.801119e+002
4.755371e+002, 1.802632e+002
4.760192e+002, 1.806496e+002
4.765013e+002, 1.812447e+002
4.769835e+002, 1.818329e+002
4.774656e+002, 1.822523e+002
4.779477e+002, 1.826065e+002
4.784298e+002, 1.831410e+002
4.789119e+002, 1.838738e+002
4.793940e+002, 1.844495e+002
4.798762e+002, 1.842466e+002
4.803583e+002, 1.838270e+002
4.808404e+002, 1.839813e+002
4.813225e+002, 1.855271e+002
4.818046e+002, 1.868955e+002
4.822867e+002, 1.870210e+002
4.827689e+002, 1.863308e+002
4.832510e+002, 1.859193e+002
4.837331e+002, 1.864385e+002
4.842152e+002, 1.870694e+002
4.846973e+002, 1.874526e+002
4.851794e+002, 1.875221e+002
4.856616e+002, 1.875794e+002
4.861437e+002, 1.876841e+002
4.866258e+002, 1.877657e+002
4.871079e+002, 1.877711e+002
4.875900e+002, 1.876967e+002
4.880721e+002, 1.875275e+002
4.885543e+002, 1.871507e+002
4.890364e+002, 1.867089e+002
4.895185e+002, 1.867085e+002
4.900006e+002, 1.873346e+002
4.904827e+002, 1.877990e+002
4.909648e+002, 1.876643e+002
4.914470e+002, 1.869670e+002
4.919291e+002, 1.865149e+002
4.924112e+002, 1.863469e+002
4.928933e+002, 1.862494e+002
4.933754e+002, 1.861167e+002
4.938575e+002, 1.859017e+002
4.943397e+002, 1.853032e+002
4.948218e+002, 1.840757e+002
4.953039e+002, 1.827989e+002
4.957860e+002, 1.823053e+002
4.962681e+002, 1.824611e+002
4.967502e+002, 1.828044e+002
4.972324e+002, 1.832311e+002
4.977145e+002, 1.836441e+002
4.981966e+002, 1.840342e+002
4.986787e+002, 1.844021e+002
4.991608e+002, 1.844560e+002
4.996429e+002, 1.835438e+002
5.001251e+002, 1.825086e+002
5.006072e+002, 1.820988e+002
5.010893e+002, 1.830544e+002
5.015714e+002, 1.838571e+002
5.020535e+002, 1.839086e+002
5.025356e+002, 1.835891e+002
5.030178e+002, 1.837722e+002
5.034999e+002, 1.851650e+002
5.039820e+002, 1.863764e+002
5.044641e+002, 1.870084e+002
5.049462e+002, 1.870414e+002
5.054283e+002, 1.871344e+002
5.059105e+002, 1.873089e+002
5.063926e+002, 1.875168e+002
5.068747e+002, 1.877238e+002
5.073568e+002, 1.879288e+002
5.078389e+002, 1.881501e+002
5.083210e+002, 1.883861e+002
5.088032e+002, 1.886397e+002
5.092853e+002, 1.889551e+002
5.097674e+002, 1.893217e+002
5.102495e+002, 1.895771e+002
5.107316e+002, 1.895801e+002
5.112137e+002, 1.894574e+002
5.116959e+002, 1.895760e+002
5.121780e+002, 1.899023e+002
5.126601e+002, 1.900405e+002
5.131422e+002, 1.894304e+002
5.136243e+002, 1.885658e+002
5.141064e+002, 1.881423e+002
5.145886e+002, 1.884059e+002
5.150707e+002, 1.886567e+002
5.155528e+002, 1.881948e+002
5.160349e+002, 1.875168e+002
5.165170e+002, 1.873318e+002
5.169991e+002, 1.883707e+002
5.174813e+002, 1.894309e+002
5.179634e+002, 1.900788e+002
5.184455e+002, 1.903655e+002
5.189276e+002, 1.907646e+002
5.194097e+002, 1.913989e+002
5.198918e+002, 1.920974e+002
5.203740e+002, 1.927992e+002
5.208561e+002, 1.935322e+002
5.213382e+002, 1.941606e+002
5.218203e+002, 1.945623e+002
5.223024e+002, 1.949950e+002
5.227845e+002, 1.958146e+002
5.232667e+002, 1.970985e+002
5.237488e+002, 1.983436e+002
5.242309e+002, 1.995067e+002
5.247130e+002, 2.005015e+002
5.251951e+002, 2.009799e+002
5.256772e+002, 2.009574e+002
5.261594e+002, 2.010634e+002
5.266415e+002, 2.018653e+002
5.271236e+002, 2.030193e+002
5.276057e+002, 2.037561e+002
5.280878e+002, 2.040502e+002
5.285699e+002, 2.040947e+002
5.290521e+002, 2.037907e+002
5.295342e+002, 2.034203e+002
5.300163e+002, 2.033897e+002
5.304984e+002, 2.039871e+002
5.309805e+002, 2.046106e+002
5.314626e+002, 2.048496e+002
5.319448e+002, 2.048839e+002
5.324269e+002, 2.050610e+002
5.329090e+002, 2.058055e+002
5.333911e+002, 2.063912e+002
5.338732e+002, 2.064073e+002
5.343553e+002, 2.058111e+002
5.348375e+002, 2.056883e+002
5.353196e+002, 2.064770e+002
5.358017e+002, 2.073223e+002
5.362838e+002, 2.076994e+002
5.367659e+002, 2.072959e+002
5.372480e+002, 2.073529e+002
5.377302e+002, 2.080696e+002
5.382123e+002, 2.089836e+002
5.386944e+002, 2.093713e+002
5.391765e+002, 2.092016e+002
5.396586e+002, 2.089969e+002
5.401407e+002, 2.088733e+002
5.406229e+002, 2.088334e+002
5.411050e+002, 2.090104e+002
5.415871e+002, 2.093668e+002
5.420692e+002, 2.094965e+002
5.425513e+002, 2.089278e+002
5.430334e+002, 2.080586e+002
5.435156e+002, 2.074384e+002
5.439977e+002, 2.071019e+002
5.444798e+002, 2.070733e+002
5.449619e+002, 2.075022e+002
5.454440e+002, 2.081965e+002
5.459261e+002, 2.089659e+002
5.464083e+002, 2.099581e+002
5.468904e+002, 2.107246e+002
5.473725e+002, 2.108722e+002
5.478546e+002, 2.106895e+002
5.483367e+002, 2.108008e+002
5.488188e+002, 2.114137e+002
5.493010e+002, 2.122078e+002
5.497831e+002, 2.131951e+002
5.502652e+002, 2.143683e+002
5.507473e+002, 2.153102e+002
5.512294e+002, 2.160571e+002
5.517115e+002, 2.165127e+002
5.521937e+002, 2.165658e+002
5.526758e+002, 2.161769e+002
5.531579e+002, 2.158055e+002
5.536400e+002, 2.155005e+002
5.541221e+002, 2.151461e+002
5.546042e+002, 2.144800e+002
5.550864e+002, 2.135748e+002
5.555685e+002, 2.128763e+002
5.560506e+002, 2.125458e+002
5.565327e+002, 2.124593e+002
5.570148e+002, 2.125635e+002
5.574969e+002, 2.127935e+002
5.579791e+002, 2.129108e+002
5.584612e+002, 2.127218e+002
5.589433e+002, 2.123973e+002
5.594254e+002, 2.120902e+002
5.599075e+002, 2.118106e+002
5.603896e+002, 2.114256e+002
5.608718e+002, 2.108413e+002
5.613539e+002, 2.101598e+002
5.618360e+002, 2.094561e+002
5.623181e+002, 2.087229e+002
5.628002e+002, 2.079930e+002
5.632823e+002, 2.071638e+002
5.637645e+002, 2.063879e+002
5.642466e+002, 2.059436e+002
5.647287e+002, 2.060541e+002
5.652108e+002, 2.060081e+002
5.656929e+002, 2.056109e+002
5.661750e+002, 2.049398e+002
5.666572e+002, 2.042631e+002
5.671393e+002, 2.035579e+002
5.676214e+002, 2.030328e+002
5.681035e+002, 2.029365e+002
5.685856e+002, 2.031331e+002
5.690677e+002, 2.030838e+002
5.695499e+002, 2.027599e+002
5.700320e+002, 2.023352e+002
5.705141e+002, 2.019769e+002
5.709962e+002, 2.016268e+002
5.714783e+002, 2.011639e+002
5.719604e+002, 2.004479e+002
5.724426e+002, 1.998350e+002
5.729247e+002, 1.995780e+002
5.734068e+002, 1.995759e+002
5.738889e+002, 1.996426e+002
5.743710e+002, 1.997256e+002
5.748531e+002, 1.998654e+002
5.753353e+002, 2.002309e+002
5.758174e+002, 2.007739e+002
5.762995e+002, 2.008303e+002
5.767816e+002, 1.999390e+002
5.772637e+002, 1.990905e+002
5.777458e+002, 1.987135e+002
5.782280e+002, 1.988786e+002
5.787101e+002, 1.992032e+002
5.791922e+002, 1.997717e+002
5.796743e+002, 2.003130e+002
5.801564e+002, 2.005476e+002
5.806385e+002, 2.004832e+002
5.811207e+002, 2.002437e+002
5.816028e+002, 1.998252e+002
5.820849e+002, 1.992971e+002
5.825670e+002, 1.987322e+002
5.830491e+002, 1.981448e+002
5.835313e+002, 1.975534e+002
5.840134e+002, 1.969278e+002
5.844955e+002, 1.963375e+002
5.849776e+002, 1.959222e+002
5.854597e+002, 1.956342e+002
5.859418e+002, 1.952054e+002
5.864240e+002, 1.944786e+002
5.869061e+002, 1.936000e+002
5.873882e+002, 1.925934e+002
5.878703e+002, 1.913985e+002
5.883524e+002, 1.903492e+002
5.888345e+002, 1.897619e+002
5.893167e+002, 1.891511e+002
5.897988e+002, 1.880794e+002
5.902809e+002, 1.861435e+002
5.907630e+002, 1.846995e+002
5.912451e+002, 1.839920e+002
5.917272e+002, 1.836598e+002
5.922094e+002, 1.829767e+002
5.926915e+002, 1.819185e+002
5.931736e+002, 1.810066e+002
5.936557e+002, 1.804903e+002
5.941378e+002, 1.801893e+002
5.946199e+002, 1.797261e+002
5.951021e+002, 1.791021e+002
5.955842e+002, 1.782918e+002
5.960663e+002, 1.769875e+002
5.965484e+002, 1.756441e+002
5.970305e+002, 1.747710e+002
5.975126e+002, 1.744148e+002
5.979948e+002, 1.743497e+002
5.984769e+002, 1.747831e+002
5.989590e+002, 1.752661e+002
5.994411e+002, 1.754004e+002
5.999232e+002, 1.748600e+002
6.004053e+002, 1.743810e+002
6.008875e+002, 1.742507e+002
6.013696e+002, 1.741807e+002
6.018517e+002, 1.737053e+002
6.023338e+002, 1.723726e+002
6.028159e+002, 1.715718e+002
6.032980e+002, 1.717453e+002
6.037802e+002, 1.725709e+002
6.042623e+002, 1.728391e+002
6.047444e+002, 1.724853e+002
6.052265e+002, 1.721003e+002
6.057086e+002, 1.719849e+002
6.061907e+002, 1.720784e+002
6.066729e+002, 1.721587e+002
6.071550e+002, 1.722252e+002
6.076371e+002, 1.723708e+002
6.081192e+002, 1.728194e+002
6.086013e+002, 1.733280e+002
6.090834e+002, 1.735759e+002
6.095656e+002, 1.734974e+002
6.100477e+002, 1.732231e+002
6.105298e+002, 1.725897e+002
6.110119e+002, 1.719013e+002
6.114940e+002, 1.714932e+002
6.119761e+002, 1.716588e+002
6.124583e+002, 1.718667e+002
6.129404e+002, 1.721102e+002
6.134225e+002, 1.723407e+002
6.139046e+002, 1.724284e+002
6.143867e+002, 1.722602e+002
6.148688e+002, 1.721963e+002
6.153510e+002, 1.723931e+002
6.158331e+002, 1.727869e+002
6.163152e+002, 1.729445e+002
6.167973e+002, 1.728380e+002
6.172794e+002, 1.727359e+002
6.177615e+002, 1.728453e+002
6.182437e+002, 1.730909e+002
6.187258e+002, 1.732689e+002
6.192079e+002, 1.733654e+002
6.196900e+002, 1.734323e+002
6.201721e+002, 1.734837e+002
6.206542e+002, 1.735408e+002
6.211364e+002, 1.736258e+002
6.216185e+002, 1.737305e+002
6.221006e+002, 1.738984e+002
6.225827e+002, 1.743022e+002
6.230648e+002, 1.747396e+002
6.235469e+002, 1.749277e+002
6.240291e+002, 1.743859e+002
6.245112e+002, 1.741340e+002
6.249933e+002, 1.745000e+002
6.254754e+002, 1.752529e+002
6.259575e+002, 1.755360e+002
6.264396e+002, 1.751461e+002
6.269218e+002, 1.749097e+002
6.274039e+002, 1.752686e+002
6.278860e+002, 1.760706e+002
6.283681e+002, 1.762444e+002
6.288502e+002, 1.757611e+002
6.293323e+002, 1.754069e+002
6.298145e+002, 1.758960e+002
6.302966e+002, 1.768941e+002
6.307787e+002, 1.778628e+002
6.312608e+002, 1.787684e+002
6.317429e+002, 1.793837e+002
6.322250e+002, 1.792393e+002
6.327072e+002, 1.788482e+002
6.331893e+002, 1.787677e+002
6.336714e+002, 1.792489e+002
6.341535e+002, 1.798507e+002
6.346356e+002, 1.804910e+002
6.351177e+002, 1.811722e+002
6.355999e+002, 1.819219e+002
6.360820e+002, 1.829023e+002
6.365641e+002, 1.836710e+002
6.370462e+002, 1.840505e+002
6.375283e+002, 1.841992e+002
6.380104e+002, 1.846778e+002
6.384926e+002, 1.855390e+002
6.389747e+002, 1.864332e+002
6.394568e+002, 1.872973e+002
6.399389e+002, 1.880714e+002
6.404210e+002, 1.884283e+002
6.409031e+002, 1.883989e+002
6.413853e+002, 1.884268e+002
6.418674e+002, 1.888283e+002
6.423495e+002, 1.894753e+002
6.428316e+002, 1.902472e+002
6.433137e+002, 1.911499e+002
6.437958e+002, 1.920377e+002
6.442780e+002, 1.928528e+002
6.447601e+002, 1.936219e+002
6.452422e+002, 1.943631e+002
6.457243e+002, 1.951018e+002
6.462064e+002, 1.957613e+002
6.466885e+002, 1.961411e+002
6.471707e+002, 1.965564e+002
6.476528e+002, 1.975211e+002
6.481349e+002, 1.993554e+002
6.486170e+002, 2.006869e+002
6.490991e+002, 2.011527e+002
6.495812e+002, 2.010988e+002
6.500634e+002, 2.013645e+002
6.505455e+002, 2.019278e+002
6.510276e+002, 2.024349e+002
6.515097e+002, 2.026253e+002
6.519918e+002, 2.027268e+002
6.524739e+002, 2.032165e+002
6.529561e+002, 2.039933e+002
6.534382e+002, 2.045570e+002
6.539203e+002, 2.045286e+002
6.544024e+002, 2.042417e+002
6.548845e+002, 2.039146e+002
6.553666e+002, 2.035755e+002
6.558488e+002, 2.031149e+002
6.563309e+002, 2.024778e+002
6.568130e+002, 2.017322e+002
6.572951e+002, 2.009103e+002
6.577772e+002, 1.999621e+002
6.582593e+002, 1.990459e+002
6.587415e+002, 1.980842e+002
6.592236e+002, 1.972809e+002
6.597057e+002, 1.970227e+002
6.601878e+002, 1.972930e+002
6.606699e+002, 1.972016e+002
6.611520e+002, 1.965244e+002
6.616342e+002, 1.955985e+002
6.621163e+002, 1.946975e+002
6.625984e+002, 1.939218e+002
6.630805e+002, 1.935489e+002
6.635626e+002, 1.940256e+002
6.640447e+002, 1.945960e+002
6.645269e+002, 1.947113e+002
6.650090e+002, 1.944889e+002
6.654911e+002, 1.942776e+002
6.659732e+002, 1.941287e+002
6.664553e+002, 1.940653e+002
6.669374e+002, 1.941393e+002
6.674196e+002, 1.943386e+002
6.679017e+002, 1.944398e+002
6.683838e+002, 1.942600e+002
6.688659e+002, 1.943386e+002
6.693480e+002, 1.951391e+002
6.698301e+002, 1.966447e+002
6.703123e+002, 1.973232e+002
6.707944e+002, 1.970657e+002
6.712765e+002, 1.968336e+002
6.717586e+002, 1.976954e+002
6.722407e+002, 1.991861e+002
6.727228e+002, 2.001953e+002
6.732050e+002, 2.005122e+002
6.736871e+002, 2.007817e+002
6.741692e+002, 2.016768e+002
6.746513e+002, 2.027208e+002
6.751334e+002, 2.033213e+002
6.756155e+002, 2.028387e+002
6.760977e+002, 2.026500e+002
6.765798e+002, 2.032476e+002
6.770619e+002, 2.042592e+002
6.775440e+002, 2.051314e+002
6.780261e+002, 2.057768e+002
6.785082e+002, 2.064451e+002
6.789904e+002, 2.071518e+002
6.794725e+002, 2.079292e+002
6.799546e+002, 2.089299e+002
6.804367e+002, 2.101419e+002
6.809188e+002, 2.113447e+002
6.814009e+002, 2.124439e+002
6.818831e+002, 2.134666e+002
6.823652e+002, 2.143880e+002
6.828473e+002, 2.152436e+002
6.833294e+002, 2.161591e+002
6.838115e+002, 2.171794e+002
6.842936e+002, 2.183198e+002
6.847758e+002, 2.197100e+002
6.852579e+002, 2.213390e+002
6.857400e+002, 2.227856e+002
6.862221e+002, 2.235060e+002
6.867042e+002, 2.243694e+002
6.871863e+002, 2.259223e+002
6.876685e+002, 2.284390e+002
6.881506e+002, 2.303828e+002
6.886327e+002, 2.315935e+002
6.891148e+002, 2.326145e+002
6.895969e+002, 2.339886e+002
6.900790e+002, 2.356872e+002
6.905612e+002, 2.371283e+002
6.910433e+002, 2.382374e+002
6.915254e+002, 2.391338e+002
6.920075e+002, 2.399147e+002
6.924896e+002, 2.405625e+002
6.929717e+002, 2.410328e+002
6.934539e+002, 2.412806e+002
6.939360e+002, 2.414106e+002
6.944181e+002, 2.415876e+002
6.949002e+002, 2.416575e+002
6.953823e+002, 2.413805e+002
6.958644e+002, 2.409539e+002
6.963466e+002, 2.398498e+002
6.968287e+002, 2.378534e+002
6.973108e+002, 2.351944e+002
6.977929e+002, 2.325061e+002
6.982750e+002, 2.298282e+002
6.987571e+002, 2.269793e+002
6.992393e+002, 2.238185e+002
6.997214e+002, 2.204853e+002
7.002035e+002, 2.172859e+002
7.006856e+002, 2.142546e+002
7.011677e+002, 2.118319e+002
7.016498e+002, 2.106493e+002
7.021320e+002, 2.099796e+002
7.026141e+002, 2.090541e+002
7.030962e+002, 2.078620e+002
7.035783e+002, 2.066006e+002
7.040604e+002, 2.049534e+002
7.045425e+002, 2.035690e+002
7.050247e+002, 2.029412e+002
7.055068e+002, 2.032820e+002
7.059889e+002, 2.033454e+002
7.064710e+002, 2.029674e+002
7.069531e+002, 2.025091e+002
7.074352e+002, 2.021200e+002
7.079174e+002, 2.017666e+002
7.083995e+002, 2.019670e+002
7.088816e+002, 2.028262e+002
7.093637e+002, 2.037815e+002
7.098458e+002, 2.041749e+002
7.103279e+002, 2.042132e+002
7.108101e+002, 2.044736e+002
7.112922e+002, 2.051290e+002
7.117743e+002, 2.056947e+002
7.122564e+002, 2.056862e+002
7.127385e+002, 2.054324e+002
7.132206e+002, 2.053259e+002
7.137028e+002, 2.055648e+002
7.141849e+002, 2.058320e+002
7.146670e+002, 2.061263e+002
7.151491e+002, 2.063944e+002
7.156312e+002, 2.065844e+002
7.161133e+002, 2.067527e+002
7.165955e+002, 2.066602e+002
7.170776e+002, 2.062109e+002
7.175597e+002, 2.055415e+002
7.180418e+002, 2.049801e+002
7.185239e+002, 2.044977e+002
7.190060e+002, 2.038723e+002
7.194882e+002, 2.029555e+002
7.199703e+002, 2.019146e+002
7.204524e+002, 2.009128e+002
7.209345e+002, 1.999504e+002
7.214166e+002, 1.990007e+002
7.218987e+002, 1.979779e+002
7.223809e+002, 1.970412e+002
7.228630e+002, 1.962735e+002
7.233451e+002, 1.956759e+002
7.238272e+002, 1.952275e+002
7.243093e+002, 1.950046e+002
7.247914e+002, 1.948176e+002
7.252736e+002, 1.945911e+002
7.257557e+002, 1.943374e+002
7.262378e+002, 1.941990e+002
7.267199e+002, 1.941874e+002
7.272020e+002, 1.942060e+002
7.276841e+002, 1.941571e+002
7.281663e+002, 1.941024e+002
7.286484e+002, 1.942367e+002
7.291305e+002, 1.945559e+002
7.296126e+002, 1.947888e+002
7.300947e+002, 1.946435e+002
7.305768e+002, 1.944074e+002
7.310590e+002, 1.943423e+002
7.315411e+002, 1.945352e+002
7.320232e+002, 1.945996e+002
7.325053e+002, 1.942907e+002
7.329874e+002, 1.939703e+002
7.334695e+002, 1.938614e+002
7.339517e+002, 1.940261e+002
7.344338e+002, 1.941640e+002
7.349159e+002, 1.942446e+002
7.353980e+002, 1.943801e+002
7.358801e+002, 1.947951e+002
7.363622e+002, 1.953899e+002
7.368444e+002, 1.957337e+002
7.373265e+002, 1.957415e+002
7.378086e+002, 1.955968e+002
7.382907e+002, 1.954096e+002
7.387728e+002, 1.952027e+002
7.392549e+002, 1.949965e+002
7.397371e+002, 1.947247e+002
7.402192e+002, 1.945852e+002
7.407013e+002, 1.946490e+002
7.411834e+002, 1.948767e+002
7.416655e+002, 1.952416e+002
7.421476e+002, 1.959114e+002
7.426298e+002, 1.962709e+002
7.431119e+002, 1.961284e+002
7.435940e+002, 1.957940e+002
7.440761e+002, 1.958384e+002
7.445582e+002, 1.962297e+002
7.450403e+002, 1.966641e+002
7.455225e+002, 1.970188e+002
7.460046e+002, 1.974285e+002
7.464867e+002, 1.982709e+002
7.469688e+002, 1.992825e+002
7.474509e+002, 1.998893e+002
7.479330e+002, 1.994078e+002
7.484152e+002, 1.989469e+002
7.488973e+002, 1.990527e+002
7.493794e+002, 1.995323e+002
7.498615e+002, 1.997112e+002
7.503436e+002, 1.993395e+002
7.508257e+002, 1.991128e+002
7.513079e+002, 1.992690e+002
7.517900e+002, 1.996746e+002
7.522721e+002, 1.998853e+002
7.527542e+002, 1.999055e+002
7.532363e+002, 1.996915e+002
7.537184e+002, 1.989795e+002
7.542006e+002, 1.981821e+002
7.546827e+002, 1.980138e+002
7.551648e+002, 1.983613e+002
7.556469e+002, 1.987573e+002
7.561290e+002, 1.990884e+002
7.566111e+002, 1.992898e+002
7.570933e+002, 1.992146e+002
7.575754e+002, 1.988914e+002
7.580575e+002, 1.988606e+002
7.585396e+002, 1.993787e+002
7.590217e+002, 1.998401e+002
7.595038e+002, 2.000221e+002
7.599860e+002, 1.999370e+002
7.604681e+002, 1.996660e+002
7.609502e+002, 1.991804e+002
7.614323e+002, 1.988584e+002
7.619144e+002, 1.991023e+002
7.623965e+002, 1.996239e+002
7.628787e+002, 1.998641e+002
7.633608e+002, 1.998302e+002
7.638429e+002, 1.998351e+002
7.643250e+002, 2.000787e+002
7.648071e+002, 2.004162e+002
7.652892e+002, 2.008203e+002
7.657714e+002, 2.013360e+002
7.662535e+002, 2.015106e+002
7.667356e+002, 2.010719e+002
7.672177e+002, 2.006269e+002
7.676998e+002, 2.005494e+002
7.681819e+002, 2.008708e+002
7.686641e+002, 2.010670e+002
7.691462e+002, 2.011528e+002
7.696283e+002, 2.009981e+002
7.701104e+002, 2.001745e+002
7.705925e+002, 1.991217e+002
7.710746e+002, 1.987308e+002
7.715568e+002, 1.991004e+002
7.720389e+002, 1.997046e+002
7.725210e+002, 2.002928e+002
7.730031e+002, 2.009287e+002
7.734852e+002, 2.018436e+002
7.739673e+002, 2.035405e+002
7.744495e+002, 2.038157e+002
7.749316e+002, 2.016707e+002
7.754137e+002, 1.992388e+002
7.758958e+002, 1.982348e+002
7.763779e+002, 1.987992e+002
7.768600e+002, 1.988813e+002
7.773422e+002, 1.983571e+002
7.778243e+002, 1.976880e+002
7.783064e+002, 1.973686e+002
7.787885e+002, 1.972301e+002
7.792706e+002, 1.969247e+002
7.797527e+002, 1.963713e+002
7.802349e+002, 1.958494e+002
7.807170e+002, 1.955578e+002
7.811991e+002, 1.953621e+002
7.816812e+002, 1.951410e+002
7.821633e+002, 1.948206e+002
7.826454e+002, 1.946053e+002
7.831276e+002, 1.945475e+002
7.836097e+002, 1.945335e+002
7.840918e+002, 1.944402e+002
7.845739e+002, 1.942652e+002
7.850560e+002, 1.940981e+002
7.855381e+002, 1.939179e+002
7.860203e+002, 1.939069e+002
7.865024e+002, 1.944468e+002
7.869845e+002, 1.952479e+002
7.874666e+002, 1.958120e+002
7.879487e+002, 1.959930e+002
7.884308e+002, 1.960510e+002
7.889130e+002, 1.958241e+002
7.893951e+002, 1.956918e+002
7.898772e+002, 1.960776e+002
7.903593e+002, 1.974824e+002
7.908414e+002, 1.985122e+002
7.913235e+002, 1.990288e+002
7.918057e+002, 1.993316e+002
7.922878e+002, 1.997415e+002
7.927699e+002, 2.002554e+002
7.932520e+002, 2.008068e+002
7.937341e+002, 2.014246e+002
7.942162e+002, 2.019125e+002
7.946984e+002, 2.019193e+002
7.951805e+002, 2.017038e+002
7.956626e+002, 2.016589e+002
7.961447e+002, 2.018637e+002
7.966268e+002, 2.022897e+002
7.971089e+002, 2.031308e+002
7.975911e+002, 2.040911e+002
7.980732e+002, 2.048260e+002
7.985553e+002, 2.051750e+002
7.990374e+002, 2.056735e+002
7.995195e+002, 2.063208e+002
8.000016e+002, 2.071813e+002
8.004838e+002, 2.085726e+002
8.009659e+002, 2.103456e+002
8.014480e+002, 2.115637e+002
8.019301e+002, 2.119196e+002
8.024122e+002, 2.122629e+002
8.028943e+002, 2.133344e+002
8.033765e+002, 2.149145e+002
8.038586e+002, 2.167463e+002
8.043407e+002, 2.188774e+002
8.048228e+002, 2.210402e+002
8.053049e+002, 2.229474e+002
8.057870e+002, 2.250239e+002
8.062692e+002, 2.277137e+002
8.067513e+002, 2.310969e+002
8.072334e+002, 2.347990e+002
8.077155e+002, 2.387727e+002
8.081976e+002, 2.429876e+002
8.086797e+002, 2.474058e+002
8.091619e+002, 2.520152e+002
8.096440e+002, 2.567192e+002
8.101261e+002, 2.614019e+002
8.106082e+002, 2.665650e+002
8.110903e+002, 2.723651e+002
8.115724e+002, 2.788900e+002
8.120546e+002, 2.862355e+002
8.125367e+002, 2.948062e+002
8.130188e+002, 3.035724e+002
8.135009e+002, 3.121476e+002
8.139830e+002, 3.212533e+002
8.144651e+002, 3.316150e+002
8.149473e+002, 3.433692e+002
8.154294e+002, 3.554709e+002
8.159115e+002, 3.677773e+002
8.163936e+002, 3.809223e+002
8.168757e+002, 3.959502e+002
8.173578e+002, 4.122057e+002
8.178400e+002, 4.287918e+002
8.183221e+002, 4.455000e+002
8.188042e+002, 4.627907e+002
8.192863e+002, 4.809266e+002
8.197684e+002, 4.996962e+002
8.202505e+002, 5.191042e+002
8.207327e+002, 5.401637e+002
8.212148e+002, 5.591281e+002
8.216969e+002, 5.759312e+002
8.221790e+002, 5.908195e+002
8.226611e+002, 6.038152e+002
8.231432e+002, 6.149900e+002
8.236254e+002, 6.236850e+002
8.241075e+002, 6.298546e+002
8.245896e+002, 6.338248e+002
8.250717e+002, 6.355900e+002
8.255538e+002, 6.354354e+002
8.260359e+002, 6.335350e+002
8.265181e+002, 6.297141e+002
8.270002e+002, 6.249801e+002
8.274823e+002, 6.186173e+002
8.279644e+002, 6.121643e+002
8.284465e+002, 6.066595e+002
8.289286e+002, 6.024860e+002
8.294108e+002, 5.974066e+002
8.298929e+002, 5.911254e+002
8.303750e+002, 5.854098e+002
8.308571e+002, 5.821464e+002
8.313392e+002, 5.806210e+002
8.318214e+002, 5.793817e+002
8.323035e+002, 5.782982e+002
8.327856e+002, 5.773311e+002
8.332677e+002, 5.762073e+002
8.337498e+002, 5.753683e+002
8.342319e+002, 5.754542e+002
8.347141e+002, 5.771195e+002
8.351962e+002, 5.770775e+002
8.356783e+002, 5.754698e+002
8.361604e+002, 5.718915e+002
8.366425e+002, 5.658436e+002
8.371246e+002, 5.574171e+002
8.376068e+002, 5.481739e+002
8.380889e+002, 5.381240e+002
8.385710e+002, 5.266596e+002
8.390531e+002, 5.127756e+002
8.395352e+002, 4.975688e+002
8.400173e+002, 4.822293e+002
8.404995e+002, 4.667216e+002
8.409816e+002, 4.507290e+002
8.414637e+002, 4.333616e+002
8.419458e+002, 4.162235e+002
8.424279e+002, 3.997837e+002
8.429100e+002, 3.840445e+002
8.433922e+002, 3.689903e+002
8.438743e+002, 3.544488e+002
8.443564e+002, 3.415251e+002
8.448385e+002, 3.316468e+002
8.453206e+002, 3.236074e+002
8.458027e+002, 3.144355e+002
8.462849e+002, 3.044442e+002
8.467670e+002, 2.956148e+002
8.472491e+002, 2.894655e+002
8.477312e+002, 2.844252e+002
8.482133e+002, 2.797427e+002
8.486954e+002, 2.753985e+002
8.491776e+002, 2.715549e+002
8.496597e+002, 2.681751e+002
8.501418e+002, 2.652965e+002
8.506239e+002, 2.629181e+002
8.511060e+002, 2.610864e+002
8.515881e+002, 2.600916e+002
8.520703e+002, 2.598853e+002
8.525524e+002, 2.600621e+002
8.530345e+002, 2.608306e+002
8.535166e+002, 2.615085e+002
8.539987e+002, 2.613683e+002
8.544808e+002, 2.606423e+002
8.549630e+002, 2.599214e+002
8.554451e+002, 2.590342e+002
8.559272e+002, 2.586251e+002
8.564093e+002, 2.590699e+002
8.568914e+002, 2.599283e+002
8.573735e+002, 2.601434e+002
8.578557e+002, 2.596490e+002
8.583378e+002, 2.593074e+002
8.588199e+002, 2.594099e+002
8.593020e+002, 2.596363e+002
8.597841e+002, 2.595467e+002
8.602662e+002, 2.592194e+002
8.607484e+002, 2.588206e+002
8.612305e+002, 2.584984e+002
8.617126e+002, 2.579859e+002
8.621947e+002, 2.569398e+002
8.626768e+002, 2.557564e+002
8.631589e+002, 2.550368e+002
8.636411e+002, 2.550259e+002
8.641232e+002, 2.547359e+002
8.646053e+002, 2.540023e+002
8.650874e+002, 2.531537e+002
8.655695e+002, 2.526611e+002
8.660516e+002, 2.524079e+002
8.665338e+002, 2.519774e+002
8.670159e+002, 2.512331e+002
8.674980e+002, 2.505899e+002
8.679801e+002, 2.505728e+002
8.684622e+002, 2.506607e+002
8.689443e+002, 2.503168e+002
8.694265e+002, 2.491985e+002
8.699086e+002, 2.482370e+002
8.703907e+002, 2.473354e+002
8.708728e+002, 2.467559e+002
8.713549e+002, 2.470479e+002
8.718370e+002, 2.480648e+002
8.723192e+002, 2.480240e+002
8.728013e+002, 2.468519e+002
8.732834e+002, 2.450603e+002
8.737655e+002, 2.425435e+002
8.742476e+002, 2.399546e+002
8.747297e+002, 2.380253e+002
8.752119e+002, 2.368195e+002
8.756940e+002, 2.355965e+002
8.761761e+002, 2.340816e+002
8.766582e+002, 2.326288e+002
8.771403e+002, 2.313931e+002
8.776224e+002, 2.303586e+002
8.781046e+002, 2.293447e+002
8.785867e+002, 2.283620e+002
8.790688e+002, 2.272824e+002
8.795509e+002, 2.259341e+002
8.800330e+002, 2.245286e+002
8.805151e+002, 2.232435e+002
8.809973e+002, 2.221470e+002
8.814794e+002, 2.214873e+002
8.819615e+002, 2.218824e+002
8.824436e+002, 2.221841e+002
8.829257e+002, 2.217979e+002
8.834078e+002, 2.210178e+002
8.838900e+002, 2.206531e+002
8.843721e+002, 2.207431e+002
8.848542e+002, 2.210698e+002
8.853363e+002, 2.216539e+002
8.858184e+002, 2.223015e+002
8.863005e+002, 2.225443e+002
8.867827e+002, 2.225776e+002
8.872648e+002, 2.229255e+002
8.877469e+002, 2.241358e+002
8.882290e+002, 2.251487e+002
8.887111e+002, 2.253935e+002
8.891932e+002, 2.251946e+002
8.896754e+002, 2.250254e+002
8.901575e+002, 2.248978e+002
8.906396e+002, 2.248028e+002
8.911217e+002, 2.247350e+002
8.916038e+002, 2.247157e+002
8.920859e+002, 2.248553e+002
8.925681e+002, 2.250661e+002
8.930502e+002, 2.251043e+002
8.935323e+002, 2.249428e+002
8.940144e+002, 2.245160e+002
8.944965e+002, 2.233593e+002
8.949786e+002, 2.221990e+002
8.954608e+002, 2.217074e+002
8.959429e+002, 2.221863e+002
8.964250e+002, 2.225080e+002
8.969071e+002, 2.226575e+002
8.973892e+002, 2.226700e+002
8.978713e+002, 2.224771e+002
8.983535e+002, 2.221414e+002
8.988356e+002, 2.220876e+002
8.993177e+002, 2.223005e+002
8.997998e+002, 2.225174e+002
9.002819e+002, 2.226697e+002
9.007640e+002, 2.226710e+002
9.012462e+002, 2.223369e+002
9.017283e+002, 2.217219e+002
9.022104e+002, 2.213776e+002
9.026925e+002, 2.216695e+002
9.031746e+002, 2.217073e+002
9.036567e+002, 2.211160e+002
9.041389e+002, 2.201520e+002
9.046210e+002, 2.196684e+002
9.051031e+002, 2.196142e+002
9.055852e+002, 2.195249e+002
9.060673e+002, 2.193138e+002
9.065494e+002, 2.188450e+002
9.070316e+002, 2.176130e+002
9.075137e+002, 2.161207e+002
9.079958e+002, 2.152429e+002
9.084779e+002, 2.161425e+002
9.089600e+002, 2.163615e+002
9.094421e+002, 2.154518e+002
9.099243e+002, 2.140387e+002
9.104064e+002, 2.128973e+002
9.108885e+002, 2.120218e+002
9.113706e+002, 2.112439e+002
9.118527e+002, 2.105628e+002
9.123348e+002, 2.098285e+002
9.128170e+002, 2.086283e+002
9.132991e+002, 2.074399e+002
9.137812e+002, 2.069083e+002
9.142633e+002, 2.073632e+002
9.147454e+002, 2.075063e+002
9.152275e+002, 2.068841e+002
9.157097e+002, 2.062144e+002
9.161918e+002, 2.059053e+002
9.166739e+002, 2.059523e+002
9.171560e+002, 2.060340e+002
9.176381e+002, 2.061483e+002
9.181202e+002, 2.064182e+002
9.186024e+002, 2.072462e+002
9.190845e+002, 2.080511e+002
9.195666e+002, 2.080155e+002
9.200487e+002, 2.072948e+002
9.205308e+002, 2.068742e+002
9.210129e+002, 2.069275e+002
9.214951e+002, 2.074991e+002
9.219772e+002, 2.088109e+002
9.224593e+002, 2.105474e+002
9.229414e+002, 2.117536e+002
9.234235e+002, 2.124258e+002
9.239056e+002, 2.129715e+002
9.243878e+002, 2.135264e+002
9.248699e+002, 2.139967e+002
9.253520e+002, 2.141470e+002
9.258341e+002, 2.141836e+002
9.263162e+002, 2.144346e+002
9.267983e+002, 2.149620e+002
9.272805e+002, 2.157957e+002
9.277626e+002, 2.172100e+002
9.282447e+002, 2.186519e+002
9.287268e+002, 2.193577e+002
9.292089e+002, 2.193180e+002
9.296910e+002, 2.202082e+002
9.301732e+002, 2.222185e+002
9.306553e+002, 2.242587e+002
9.311374e+002, 2.252823e+002
9.316195e+002, 2.258194e+002
9.321016e+002, 2.263950e+002
9.325837e+002, 2.270528e+002
9.330659e+002, 2.279457e+002
9.335480e+002, 2.294525e+002
9.340301e+002, 2.307772e+002
9.345122e+002, 2.315587e+002
9.349943e+002, 2.318717e+002
9.354764e+002, 2.321778e+002
9.359586e+002, 2.324754e+002
9.364407e+002, 2.327482e+002
9.369228e+002, 2.330704e+002
9.374049e+002, 2.332876e+002
9.378870e+002, 2.332030e+002
9.383691e+002, 2.328939e+002
9.388513e+002, 2.325421e+002
9.393334e+002, 2.322812e+002
9.398155e+002, 2.318574e+002
9.402976e+002, 2.312183e+002
9.407797e+002, 2.304462e+002
9.412618e+002, 2.296595e+002
9.417440e+002, 2.288644e+002
9.422261e+002, 2.281163e+002
9.427082e+002, 2.274355e+002
9.431903e+002, 2.267138e+002
9.436724e+002, 2.257154e+002
9.441545e+002, 2.247058e+002
9.446367e+002, 2.239349e+002
9.451188e+002, 2.234404e+002
9.456009e+002, 2.232674e+002
9.460830e+002, 2.237211e+002
9.465651e+002, 2.239801e+002
9.470472e+002, 2.234560e+002
9.475294e+002, 2.222539e+002
9.480115e+002, 2.212523e+002
9.484936e+002, 2.204563e+002
9.489757e+002, 2.200127e+002
9.494578e+002, 2.202400e+002
9.499399e+002, 2.206600e+002
9.504221e+002, 2.208811e+002
9.509042e+002, 2.209810e+002
9.513863e+002, 2.213225e+002
9.518684e+002, 2.224273e+002
9.523505e+002, 2.228222e+002
9.528326e+002, 2.219836e+002
9.533148e+002, 2.206753e+002
9.537969e+002, 2.203910e+002
9.542790e+002, 2.209239e+002
9.547611e+002, 2.213908e+002
9.552432e+002, 2.215791e+002
9.557253e+002, 2.216326e+002
9.562075e+002, 2.215801e+002
9.566896e+002, 2.214814e+002
9.571717e+002, 2.213863e+002
9.576538e+002, 2.212753e+002
9.581359e+002, 2.212738e+002
9.586180e+002, 2.214989e+002
9.591002e+002, 2.215158e+002
9.595823e+002, 2.207709e+002
9.600644e+002, 2.195895e+002
9.605465e+002, 2.190480e+002
9.610286e+002, 2.190901e+002
9.615107e+002, 2.191545e+002
9.619929e+002, 2.188923e+002
9.624750e+002, 2.185972e+002
9.629571e+002, 2.183527e+002
9.634392e+002, 2.182041e+002
9.639213e+002, 2.183002e+002
9.644034e+002, 2.187030e+002
9.648856e+002, 2.190994e+002
9.653677e+002, 2.194011e+002
9.658498e+002, 2.196941e+002
9.663319e+002, 2.200363e+002
9.668140e+002, 2.204912e+002
9.672961e+002, 2.212256e+002
9.677783e+002, 2.224385e+002
9.682604e+002, 2.235290e+002
9.687425e+002, 2.243679e+002
9.692246e+002, 2.249158e+002
9.697067e+002, 2.250721e+002
9.701888e+002, 2.247256e+002
9.706710e+002, 2.248323e+002
9.711531e+002, 2.254329e+002
9.716352e+002, 2.260729e+002
9.721173e+002, 2.262704e+002
9.725994e+002, 2.263722e+002
9.730815e+002, 2.269827e+002
9.735637e+002, 2.279872e+002
9.740458e+002, 2.286628e+002
9.745279e+002, 2.282751e+002
9.750100e+002, 2.281496e+002
9.754921e+002, 2.287986e+002
9.759742e+002, 2.298077e+002
9.764564e+002, 2.301137e+002
9.769385e+002, 2.297550e+002
9.774206e+002, 2.293566e+002
9.779027e+002, 2.290930e+002
9.783848e+002, 2.288316e+002
9.788669e+002, 2.283056e+002
9.793491e+002, 2.277799e+002
9.798312e+002, 2.275932e+002
9.803133e+002, 2.279747e+002
9.807954e+002, 2.282820e+002
9.812775e+002, 2.284697e+002
9.817596e+002, 2.286246e+002
9.822418e+002, 2.287510e+002
9.827239e+002, 2.288853e+002
9.832060e+002, 2.291580e+002
9.836881e+002, 2.295918e+002
9.841702e+002, 2.304008e+002
9.846523e+002, 2.322189e+002
9.851345e+002, 2.339573e+002
9.856166e+002, 2.346631e+002
9.860987e+002, 2.347368e+002
9.865808e+002, 2.357602e+002
9.870629e+002, 2.381739e+002
9.875450e+002, 2.400932e+002
9.880272e+002, 2.410332e+002
9.885093e+002, 2.416316e+002
9.889914e+002, 2.429140e+002
9.894735e+002, 2.445581e+002
9.899556e+002, 2.458727e+002
9.904377e+002, 2.466499e+002
9.909199e+002, 2.473599e+002
9.914020e+002, 2.480165e+002
9.918841e+002, 2.488479e+002
9.923662e+002, 2.501752e+002
9.928483e+002, 2.520196e+002
9.933304e+002, 2.527809e+002
9.938126e+002, 2.523962e+002
9.942947e+002, 2.520179e+002
9.947768e+002, 2.527377e+002
9.952589e+002, 2.535890e+002
9.957410e+002, 2.531618e+002
9.962231e+002, 2.518907e+002
9.967053e+002, 2.510371e+002
9.971874e+002, 2.514553e+002
9.976695e+002, 2.516565e+002
9.981516e+002, 2.513488e+002
9.986337e+002, 2.508423e+002
9.991158e+002, 2.505368e+002
9.995980e+002, 2.504391e+002
1.000080e+003, 2.507084e+002
1.000562e+003, 2.514272e+002
1.001044e+003, 2.519763e+002
1.001526e+003, 2.515615e+002
1.002009e+003, 2.510157e+002
1.002491e+003, 2.511945e+002
1.002973e+003, 2.522846e+002
1.003455e+003, 2.525691e+002
1.003937e+003, 2.517844e+002
1.004419e+003, 2.510349e+002
1.004901e+003, 2.508270e+002
1.005383e+003, 2.509763e+002
1.005865e+003, 2.511734e+002
1.006348e+003, 2.513855e+002
1.006830e+003, 2.515239e+002
1.007312e+003, 2.513598e+002
1.007794e+003, 2.513451e+002
1.008276e+003, 2.516326e+002
1.008758e+003, 2.521295e+002
1.009240e+003, 2.527886e+002
1.009722e+003, 2.536240e+002
1.010205e+003, 2.545077e+002
1.010687e+003, 2.554789e+002
1.011169e+003, 2.561161e+002
1.011651e+003, 2.555842e+002
1.012133e+003, 2.548480e+002
1.012615e+003, 2.550241e+002
1.013097e+003, 2.561452e+002
1.013579e+003, 2.572126e+002
1.014061e+003, 2.582849e+002
1.014544e+003, 2.589225e+002
1.015026e+003, 2.589472e+002
1.015508e+003, 2.584946e+002
1.015990e+003, 2.577648e+002
1.016472e+003, 2.568290e+002
1.016954e+003, 2.560297e+002
1.017436e+003, 2.556256e+002
1.017918e+003, 2.549644e+002
1.018401e+003, 2.533713e+002
1.018883e+003, 2.514875e+002
1.019365e+003, 2.499670e+002
1.019847e+003, 2.489455e+002
1.020329e+003, 2.476612e+002
1.020811e+003, 2.460539e+002
1.021293e+003, 2.445207e+002
1.021775e+003, 2.436376e+002
1.022257e+003, 2.428485e+002
1.022740e+003, 2.409339e+002
1.023222e+003, 2.382493e+002
1.023704e+003, 2.361863e+002
1.024186e+003, 2.357334e+002
1.024668e+003, 2.353308e+002
1.025150e+003, 2.345423e+002
1.025632e+003, 2.337151e+002
1.026114e+003, 2.335923e+002
1.026596e+003, 2.340628e+002
1.027079e+003, 2.340769e+002
1.027561e+003, 2.334364e+002
1.028043e+003, 2.325885e+002
1.028525e+003, 2.317846e+002
1.029007e+003, 2.310116e+002
1.029489e+003, 2.302167e+002
1.029971e+003, 2.293917e+002
1.030453e+003, 2.288945e+002
1.030936e+003, 2.288287e+002
1.031418e+003, 2.287521e+002
1.031900e+003, 2.284838e+002
1.032382e+003, 2.280786e+002
1.032864e+003, 2.275565e+002
1.033346e+003, 2.269926e+002
1.033828e+003, 2.265713e+002
1.034310e+003, 2.262655e+002
1.034792e+003, 2.262651e+002
1.035275e+003, 2.270057e+002
1.035757e+003, 2.277242e+002
1.036239e+003, 2.276187e+002
1.036721e+003, 2.266916e+002
1.037203e+003, 2.262887e+002
1.037685e+003, 2.264567e+002
1.038167e+003, 2.267470e+002
1.038649e+003, 2.269148e+002
1.039132e+003, 2.270045e+002
1.039614e+003, 2.270054e+002
1.040096e+003, 2.269512e+002
1.040578e+003, 2.269945e+002
1.041060e+003, 2.271672e+002
1.041542e+003, 2.273084e+002
1.042024e+003, 2.272710e+002
1.042506e+003, 2.274509e+002
1.042989e+003, 2.288639e+002
1.043471e+003, 2.308470e+002
1.043953e+003, 2.318692e+002
1.044435e+003, 2.314443e+002
1.044917e+003, 2.313058e+002
1.045399e+003, 2.326188e+002
1.045881e+003, 2.338843e+002
1.046363e+003, 2.343033e+002
1.046845e+003, 2.339907e+002
1.047328e+003, 2.338175e+002
1.047810e+003, 2.337815e+002
1.048292e+003, 2.338388e+002
1.048774e+003, 2.340181e+002
1.049256e+003, 2.342202e+002
1.049738e+003, 2.344364e+002
1.050220e+003, 2.346030e+002
1.050702e+003, 2.346070e+002
1.051184e+003, 2.344071e+002
1.051667e+003, 2.341432e+002
1.052149e+003, 2.338146e+002
1.052631e+003, 2.334257e+002
1.053113e+003, 2.328181e+002
1.053595e+003, 2.322056e+002
1.054077e+003, 2.320834e+002
1.054559e+003, 2.324006e+002
1.055041e+003, 2.326933e+002
1.055523e+003, 2.326607e+002
1.056006e+003, 2.327230e+002
1.056488e+003, 2.330184e+002
1.056970e+003, 2.334555e+002
1.057452e+003, 2.338546e+002
1.057934e+003, 2.342238e+002
1.058416e+003, 2.345323e+002
1.058898e+003, 2.347089e+002
1.059380e+003, 2.352759e+002
1.059863e+003, 2.373575e+002
1.060345e+003, 2.394725e+002
1.060827e+003, 2.401985e+002
1.061309e+003, 2.394348e+002
1.061791e+003, 2.389212e+002
1.062273e+003, 2.386965e+002
1.062755e+003, 2.385365e+002
1.063237e+003, 2.383952e+002
1.063719e+003, 2.381931e+002
1.064202e+003, 2.376514e+002
1.064684e+003, 2.369872e+002
1.065166e+003, 2.366492e+002
1.065648e+003, 2.373720e+002
1.066130e+003, 2.373205e+002
1.066612e+003, 2.360633e+002
1.067094e+003, 2.344184e+002
1.067576e+003, 2.328470e+002
1.068059e+003, 2.314253e+002
1.068541e+003, 2.309403e+002
1.069023e+003, 2.312557e+002
1.069505e+003, 2.312354e+002
1.069987e+003, 2.298555e+002
1.070469e+003, 2.283336e+002
1.070951e+003, 2.273062e+002
1.071433e+003, 2.265897e+002
1.071916e+003, 2.258262e+002
1.072398e+003, 2.249890e+002
1.072880e+003, 2.243942e+002
1.073362e+003, 2.240940e+002
1.073844e+003, 2.240125e+002
1.074326e+003, 2.244547e+002
1.074808e+003, 2.248297e+002
1.075290e+003, 2.242504e+002
1.075772e+003, 2.226527e+002
1.076255e+003, 2.218980e+002
1.076737e+003, 2.223421e+002
1.077219e+003, 2.231099e+002
1.077701e+003, 2.241351e+002
1.078183e+003, 2.250019e+002
1.078665e+003, 2.245928e+002
1.079147e+003, 2.234218e+002
1.079629e+003, 2.226880e+002
1.080111e+003, 2.227861e+002
1.080594e+003, 2.230902e+002
1.081076e+003, 2.237715e+002
1.081558e+003, 2.242057e+002
1.082040e+003, 2.239084e+002
1.082522e+003, 2.229725e+002
1.083004e+003, 2.223864e+002
1.083486e+003, 2.221208e+002
1.083968e+003, 2.219546e+002
1.084450e+003, 2.219479e+002
1.084933e+003, 2.218017e+002
1.085415e+003, 2.212706e+002
1.085897e+003, 2.204967e+002
1.086379e+003, 2.197251e+002
1.086861e+003, 2.190308e+002
1.087343e+003, 2.179165e+002
1.087825e+003, 2.162310e+002
1.088307e+003, 2.150006e+002
1.088790e+003, 2.158390e+002
1.089272e+003, 2.171615e+002
1.089754e+003, 2.168729e+002
1.090236e+003, 2.151914e+002
1.090718e+003, 2.138210e+002
1.091200e+003, 2.132991e+002
1.091682e+003, 2.126726e+002
1.092164e+003, 2.117006e+002
1.092646e+003, 2.107053e+002
1.093129e+003, 2.102508e+002
1.093611e+003, 2.101523e+002
1.094093e+003, 2.100283e+002
1.094575e+003, 2.098389e+002
1.095057e+003, 2.092896e+002
1.095539e+003, 2.076935e+002
1.096021e+003, 2.063353e+002
1.096503e+003, 2.058901e+002
1.096986e+003, 2.060655e+002
1.097468e+003, 2.055832e+002
1.097950e+003, 2.045614e+002
1.098432e+003, 2.040932e+002
1.098914e+003, 2.047626e+002
1.099396e+003, 2.054224e+002
1.099878e+003, 2.051460e+002
1.100360e+003, 2.045135e+002
1.100843e+003, 2.040970e+002
1.101325e+003, 2.039364e+002
1.101807e+003, 2.037322e+002
1.102289e+003, 2.034762e+002
1.102771e+003, 2.032533e+002
1.103253e+003, 2.031075e+002
1.103735e+003, 2.030266e+002
1.104217e+003, 2.030343e+002
1.104699e+003, 2.030900e+002
1.105182e+003, 2.031186e+002
1.105664e+003, 2.031513e+002
1.106146e+003, 2.030642e+002
1.106628e+003, 2.028365e+002
1.107110e+003, 2.025354e+002
1.107592e+003, 2.020478e+002
1.108074e+003, 2.015967e+002
1.108556e+003, 2.017007e+002
1.109038e+003, 2.022966e+002
1.109521e+003, 2.029478e+002
1.110003e+003, 2.034235e+002
1.110485e+003, 2.040596e+002
1.110967e+003, 2.050951e+002
1.111449e+003, 2.061208e+002
1.111931e+003, 2.063653e+002
1.112413e+003, 2.060344e+002
1.112895e+003, 2.061172e+002
1.113377e+003, 2.067378e+002
1.113860e+003, 2.073441e+002
1.114342e+003, 2.078528e+002
1.114824e+003, 2.079809e+002
1.115306e+003, 2.073445e+002
1.115788e+003, 2.062666e+002
1.116270e+003, 2.057404e+002
1.116752e+003, 2.057605e+002
1.117234e+003, 2.063156e+002
1.117717e+003, 2.075774e+002
1.118199e+003, 2.086467e+002
1.118681e+003, 2.084137e+002
1.119163e+003, 2.078228e+002
1.119645e+003, 2.077948e+002
1.120127e+003, 2.084007e+002
1.120609e+003, 2.089480e+002
1.121091e+003, 2.094522e+002
1.121573e+003, 2.097876e+002
1.122056e+003, 2.099042e+002
1.122538e+003, 2.098178e+002
1.123020e+003, 2.092691e+002
1.123502e+003, 2.086355e+002
1.123984e+003, 2.085582e+002
1.124466e+003, 2.096637e+002
1.124948e+003, 2.101172e+002
1.125430e+003, 2.096929e+002
1.125913e+003, 2.091552e+002
1.126395e+003, 2.090141e+002
1.126877e+003, 2.091236e+002
1.127359e+003, 2.091812e+002
1.127841e+003, 2.092055e+002
1.128323e+003, 2.092431e+002
1.128805e+003, 2.092903e+002
1.129287e+003, 2.093888e+002
1.129770e+003, 2.095544e+002
1.130252e+003, 2.097488e+002
1.130734e+003, 2.099150e+002
1.131216e+003, 2.100756e+002
1.131698e+003, 2.104248e+002
1.132180e+003, 2.109167e+002
1.132662e+003, 2.111812e+002
1.133144e+003, 2.108678e+002
1.133626e+003, 2.104566e+002
1.134109e+003, 2.100790e+002
1.134591e+003, 2.097327e+002
1.135073e+003, 2.093364e+002
1.135555e+003, 2.089239e+002
1.136037e+003, 2.089881e+002
1.136519e+003, 2.095997e+002
1.137001e+003, 2.101200e+002
1.137483e+003, 2.099777e+002
1.137965e+003, 2.097085e+002
1.138448e+003, 2.096723e+002
1.138930e+003, 2.097910e+002
1.139412e+003, 2.097754e+002
1.139894e+003, 2.096171e+002
1.140376e+003, 2.096099e+002
1.140858e+003, 2.098622e+002
1.141340e+003, 2.100408e+002
1.141822e+003, 2.095844e+002
1.142304e+003, 2.090944e+002
1.142787e+003, 2.092910e+002
1.143269e+003, 2.101934e+002
1.143751e+003, 2.103898e+002
1.144233e+003, 2.097198e+002
1.144715e+003, 2.092350e+002
1.145197e+003, 2.093945e+002
1.145679e+003, 2.096564e+002
1.146161e+003, 2.092733e+002
1.146644e+003, 2.085893e+002
1.147126e+003, 2.080185e+002
1.147608e+003, 2.076181e+002
1.148090e+003, 2.075129e+002
1.148572e+003, 2.078498e+002
1.149054e+003, 2.080169e+002
1.149536e+003, 2.077047e+002
1.150018e+003, 2.070615e+002
1.150500e+003, 2.059719e+002
1.150983e+003, 2.048288e+002
1.151465e+003, 2.044708e+002
1.151947e+003, 2.058831e+002
1.152429e+003, 2.064591e+002
1.152911e+003, 2.058071e+002
1.153393e+003, 2.047971e+002
1.153875e+003, 2.038227e+002
1.154357e+003, 2.030185e+002
1.154840e+003, 2.029433e+002
1.155322e+003, 2.033722e+002
1.155804e+003, 2.035918e+002
1.156286e+003, 2.031054e+002
1.156768e+003, 2.026739e+002
1.157250e+003, 2.023131e+002
1.157732e+003, 2.021713e+002
1.158214e+003, 2.025991e+002
1.158697e+003, 2.033719e+002
1.159179e+003, 2.033791e+002
1.159661e+003, 2.027301e+002
1.160143e+003, 2.022220e+002
1.160625e+003, 2.024150e+002
1.161107e+003, 2.025969e+002
1.161589e+003, 2.024607e+002
1.162071e+003, 2.022913e+002
1.162553e+003, 2.026352e+002
1.163036e+003, 2.033430e+002
1.163518e+003, 2.031854e+002
1.164000e+003, 2.021345e+002
1.164482e+003, 2.012561e+002
1.164964e+003, 2.012369e+002
1.165446e+003, 2.015166e+002
1.165928e+003, 2.019686e+002
1.166410e+003, 2.024636e+002
1.166892e+003, 2.028564e+002
1.167375e+003, 2.031270e+002
1.167857e+003, 2.027612e+002
1.168339e+003, 2.016580e+002
1.168821e+003, 2.007435e+002
1.169303e+003, 2.008670e+002
1.169785e+003, 2.012264e+002
1.170267e+003, 2.012949e+002
1.170749e+003, 2.011810e+002
1.171231e+003, 2.012803e+002
1.171714e+003, 2.015884e+002
1.172196e+003, 2.015720e+002
1.172678e+003, 2.010432e+002
1.173160e+003, 2.006826e+002
1.173642e+003, 2.014933e+002
1.174124e+003, 2.023645e+002
1.174606e+003, 2.021491e+002
1.175088e+003, 2.010916e+002
1.175571e+003, 2.008282e+002
1.176053e+003, 2.014151e+002
1.176535e+003, 2.015634e+002
1.177017e+003, 2.007322e+002
1.177499e+003, 1.999774e+002
1.177981e+003, 2.007487e+002
1.178463e+003, 2.017922e+002
1.178945e+003, 2.016493e+002
1.179427e+003, 2.002680e+002
1.179910e+003, 1.998948e+002
1.180392e+003, 2.006411e+002
1.180874e+003, 2.012232e+002
1.181356e+003, 2.010824e+002
1.181838e+003, 2.007711e+002
1.182320e+003, 2.008789e+002
1.182802e+003, 2.011496e+002
1.183284e+003, 2.013045e+002
1.183767e+003, 2.013227e+002
1.184249e+003, 2.011313e+002
1.184731e+003, 2.006882e+002
1.185213e+003, 2.003201e+002
1.185695e+003, 2.002051e+002
1.186177e+003, 2.002104e+002
1.186659e+003, 2.002240e+002
1.187141e+003, 2.002426e+002
1.187624e+003, 2.002899e+002
1.188106e+003, 2.004570e+002
1.188588e+003, 2.002558e+002
1.189070e+003, 1.996176e+002
1.189552e+003, 1.990239e+002
1.190034e+003, 1.986592e+002
1.190516e+003, 1.985905e+002
1.190998e+003, 1.991457e+002
1.191480e+003, 1.999755e+002
1.191963e+003, 2.004809e+002
1.192445e+003, 2.004954e+002
1.192927e+003, 2.003130e+002
1.193409e+003, 1.998808e+002
1.193891e+003, 1.994783e+002
1.194373e+003, 1.992240e+002
1.194855e+003, 1.991554e+002
1.195337e+003, 1.994442e+002
1.195819e+003, 1.999338e+002
1.196302e+003, 2.002722e+002
1.196784e+003, 2.002979e+002
1.197266e+003, 2.004426e+002
1.197748e+003, 2.007549e+002
1.198230e+003, 2.010082e+002
1.198712e+003, 2.008423e+002
1.199194e+003, 2.006365e+002
1.199676e+003, 2.011362e+002
1.200158e+003, 2.020108e+002
1.200641e+003, 2.023060e+002
1.201123e+003, 2.016176e+002
1.201605e+003, 2.009116e+002
1.202087e+003, 2.001563e+002
1.202569e+003, 1.997275e+002
1.203051e+003, 2.003129e+002
1.203533e+003, 2.011929e+002
1.204015e+003, 2.013081e+002
1.204498e+003, 2.008669e+002
1.204980e+003, 2.007461e+002
1.205462e+003, 2.013720e+002
1.205944e+003, 2.015318e+002
1.206426e+003, 2.010262e+002
1.206908e+003, 2.004253e+002
1.207390e+003, 2.003227e+002
1.207872e+003, 2.004364e+002
1.208354e+003, 2.003618e+002
1.208837e+003, 2.001532e+002
1.209319e+003, 2.001582e+002
1.209801e+003, 2.004650e+002
1.210283e+003, 2.008608e+002
1.210765e+003, 2.013725e+002
1.211247e+003, 2.017747e+002
1.211729e+003, 2.016046e+002
1.212211e+003, 2.013477e+002
1.212694e+003, 2.018902e+002
1.213176e+003, 2.030320e+002
1.213658e+003, 2.032853e+002
1.214140e+003, 2.022490e+002
1.214622e+003, 2.012020e+002
1.215104e+003, 2.002546e+002
1.215586e+003, 1.996634e+002
1.216068e+003, 2.000327e+002
1.216551e+003, 2.006939e+002
1.217033e+003, 2.008107e+002
1.217515e+003, 2.004026e+002
1.217997e+003, 2.000573e+002
1.218479e+003, 1.997961e+002
1.218961e+003, 1.996657e+002
1.219443e+003, 1.996739e+002
1.219925e+003, 1.998073e+002
1.220407e+003, 2.001967e+002
1.220890e+003, 2.005978e+002
1.221372e+003, 2.006745e+002
1.221854e+003, 2.004430e+002
1.222336e+003, 2.003373e+002
1.222818e+003, 2.003652e+002
1.223300e+003, 2.005771e+002
1.223782e+003, 2.010325e+002
1.224264e+003, 2.014419e+002
1.224746e+003, 2.014816e+002
1.225229e+003, 2.013120e+002
1.225711e+003, 2.009805e+002
1.226193e+003, 2.005545e+002
1.226675e+003, 2.005614e+002
1.227157e+003, 2.011211e+002
1.227639e+003, 2.014783e+002
1.228121e+003, 2.014563e+002
1.228603e+003, 2.012728e+002
1.229085e+003, 2.010802e+002
1.229568e+003, 2.008982e+002
1.230050e+003, 2.006347e+002
1.230532e+003, 2.003600e+002
1.231014e+003, 2.006931e+002
1.231496e+003, 2.017409e+002
1.231978e+003, 2.024541e+002
1.232460e+003, 2.025772e+002
1.232942e+003, 2.023907e+002
1.233425e+003, 2.019565e+002
1.233907e+003, 2.015058e+002
1.234389e+003, 2.012141e+002
1.234871e+003, 2.010911e+002
1.235353e+003, 2.011964e+002
1.235835e+003, 2.015444e+002
1.236317e+003, 2.017985e+002
1.236799e+003, 2.018809e+002
1.237281e+003, 2.018398e+002
1.237764e+003, 2.015171e+002
1.238246e+003, 2.012611e+002
1.238728e+003, 2.014597e+002
1.239210e+003, 2.019736e+002
1.239692e+003, 2.022648e+002
1.240174e+003, 2.023300e+002
1.240656e+003, 2.021255e+002
1.241138e+003, 2.015751e+002
1.241621e+003, 2.011547e+002
1.242103e+003, 2.013313e+002
1.242585e+003, 2.016594e+002
1.243067e+003, 2.018394e+002
1.243549e+003, 2.019185e+002
1.244031e+003, 2.021258e+002
1.244513e+003, 2.024321e+002
1.244995e+003, 2.025424e+002
1.245478e+003, 2.023285e+002
1.245960e+003, 2.022965e+002
1.246442e+003, 2.031315e+002
1.246924e+003, 2.038202e+002
1.247406e+003, 2.037720e+002
1.247888e+003, 2.032204e+002
1.248370e+003, 2.027898e+002
1.248852e+003, 2.024883e+002
1.249334e+003, 2.024169e+002
1.249817e+003, 2.026651e+002
1.250299e+003, 2.026885e+002
1.250781e+003, 2.018173e+002
1.251263e+003, 2.011721e+002
1.251745e+003, 2.012812e+002
1.252227e+003, 2.018307e+002
1.252709e+003, 2.020525e+002
1.253191e+003, 2.020680e+002
1.253673e+003, 2.022957e+002
1.254156e+003, 2.028825e+002
1.254638e+003, 2.031620e+002
1.255120e+003, 2.025873e+002
1.255602e+003, 2.022025e+002
1.256084e+003, 2.024465e+002
1.256566e+003, 2.029382e+002
1.257048e+003, 2.028552e+002
1.257530e+003, 2.024563e+002
1.258012e+003, 2.022422e+002
1.258495e+003, 2.022934e+002
1.258977e+003, 2.026087e+002
1.259459e+003, 2.033955e+002
1.259941e+003, 2.039038e+002
1.260423e+003, 2.038220e+002
1.260905e+003, 2.034988e+002
1.261387e+003, 2.035139e+002
1.261869e+003, 2.036415e+002
1.262352e+003, 2.034433e+002
1.262834e+003, 2.028262e+002
1.263316e+003, 2.027754e+002
1.263798e+003, 2.035578e+002
1.264280e+003, 2.040675e+002
1.264762e+003, 2.039290e+002
1.265244e+003, 2.035554e+002
1.265726e+003, 2.033905e+002
1.266208e+003, 2.033088e+002
1.266691e+003, 2.031222e+002
1.267173e+003, 2.028305e+002
1.267655e+003, 2.028487e+002
1.268137e+003, 2.032290e+002
1.268619e+003, 2.034529e+002
1.269101e+003, 2.033337e+002
1.269583e+003, 2.032422e+002
1.270065e+003, 2.036347e+002
1.270548e+003, 2.041283e+002
1.271030e+003, 2.043735e+002
1.271512e+003, 2.044110e+002
1.271994e+003, 2.044291e+002
1.272476e+003, 2.044276e+002
1.272958e+003, 2.043491e+002
1.273440e+003, 2.041742e+002
1.273922e+003, 2.039919e+002
1.274405e+003, 2.039039e+002
1.274887e+003, 2.037868e+002
1.275369e+003, 2.034744e+002
1.275851e+003, 2.031283e+002
1.276333e+003, 2.033238e+002
1.276815e+003, 2.039261e+002
1.277297e+003, 2.041989e+002
1.277779e+003, 2.039803e+002
1.278261e+003, 2.038000e+002
1.278744e+003, 2.039834e+002
1.279226e+003, 2.041870e+002
1.279708e+003, 2.042661e+002
1.280190e+003, 2.043073e+002
1.280672e+003, 2.045320e+002
1.281154e+003, 2.048472e+002
1.281636e+003, 2.050191e+002
1.282118e+003, 2.050149e+002
1.282600e+003, 2.049387e+002
1.283083e+003, 2.048026e+002
1.283565e+003, 2.046036e+002
1.284047e+003, 2.042830e+002
1.284529e+003, 2.040402e+002
1.285011e+003, 2.042638e+002
1.285493e+003, 2.046998e+002
1.285975e+003, 2.050379e+002
1.286457e+003, 2.052280e+002
1.286939e+003, 2.050034e+002
1.287422e+003, 2.041128e+002
1.287904e+003, 2.037138e+002
1.288386e+003, 2.040668e+002
1.288868e+003, 2.047857e+002
1.289350e+003, 2.058865e+002
1.289832e+003, 2.068000e+002
1.290314e+003, 2.068550e+002
1.290796e+003, 2.061384e+002
1.291279e+003, 2.052943e+002
1.291761e+003, 2.042511e+002
1.292243e+003, 2.038981e+002
1.292725e+003, 2.043969e+002
1.293207e+003, 2.049509e+002
1.293689e+003, 2.048822e+002
1.294171e+003, 2.046832e+002
1.294653e+003, 2.046551e+002
1.295135e+003, 2.047344e+002
1.295618e+003, 2.048208e+002
1.296100e+003, 2.049149e+002
1.296582e+003, 2.050246e+002
1.297064e+003, 2.051716e+002
1.297546e+003, 2.053705e+002
1.298028e+003, 2.055611e+002
1.298510e+003, 2.058235e+002
1.298992e+003, 2.062800e+002
1.299475e+003, 2.067107e+002
1.299957e+003, 2.067822e+002
1.300439e+003, 2.066079e+002
1.300921e+003, 2.064563e+002
1.301403e+003, 2.063584e+002
1.301885e+003, 2.063002e+002
##END=



