##NAMES=Manganilvaite
##RRUFFID=R070334
##IDEAL CHEMISTRY=CaFe^2+^Fe^3+^Mn^2+^(Si_2_O_7_)O(OH)
##LOCALITY=First Sovetskiy mine, Dalnegorsk, Far East of Russia
##OWNER=RRUFF
##SOURCE=Michael Scott
##DESCRIPTION=Black prismatic crystal
##STATUS=The identification of this mineral has been confirmed by X-ray diffraction.
##URL=rruff.info/R070334
147.0537, 869.0429
147.5358, 895.7007
148.0179, 925.0687
148.5001, 961.7250
148.9822, 997.6597
149.4643, 1025.624
149.9464, 1045.781
150.4285, 1066.084
150.9106, 1095.010
151.3928, 1131.046
151.8749, 1159.144
152.3570, 1178.852
152.8391, 1189.982
153.3212, 1191.619
153.8033, 1183.569
154.2855, 1168.663
154.7676, 1145.310
155.2497, 1115.818
155.7318, 1090.518
156.2139, 1074.723
156.6960, 1062.067
157.1782, 1043.885
157.6603, 1018.735
158.1424, 995.2984
158.6245, 980.4291
159.1066, 972.5516
159.5887, 969.2855
160.0709, 973.8613
160.5530, 981.3428
161.0351, 983.4907
161.5172, 978.3947
161.9993, 974.4478
162.4814, 978.9941
162.9636, 988.9074
163.4457, 999.2203
163.9278, 1009.055
164.4099, 1017.985
164.8920, 1024.995
165.3741, 1029.741
165.8563, 1033.446
166.3384, 1036.415
166.8205, 1038.950
167.3026, 1041.494
167.7847, 1043.692
168.2668, 1046.193
168.7490, 1051.799
169.2311, 1063.970
169.7132, 1071.106
170.1953, 1062.475
170.6774, 1045.889
171.1595, 1033.475
171.6417, 1031.538
172.1238, 1037.000
172.6059, 1043.049
173.0880, 1051.502
173.5701, 1056.614
174.0522, 1054.865
174.5344, 1048.845
175.0165, 1041.858
175.4986, 1034.652
175.9807, 1028.008
176.4628, 1024.482
176.9449, 1026.267
177.4271, 1027.141
177.9092, 1023.621
178.3913, 1018.141
178.8734, 1014.144
179.3555, 1013.715
179.8376, 1015.432
180.3197, 1014.633
180.8019, 1008.601
181.2840, 1005.002
181.7661, 1008.017
182.2482, 1013.904
182.7303, 1017.960
183.2124, 1017.684
183.6946, 1014.501
184.1767, 1011.729
184.6588, 1006.261
185.1409, 1007.333
185.6230, 1023.027
186.1051, 1043.428
186.5873, 1056.821
187.0694, 1057.178
187.5515, 1049.076
188.0336, 1044.348
188.5157, 1043.722
188.9978, 1045.763
189.4800, 1052.592
189.9621, 1060.422
190.4442, 1065.253
190.9263, 1065.172
191.4084, 1061.810
191.8905, 1059.088
192.3727, 1057.670
192.8548, 1055.670
193.3369, 1050.533
193.8190, 1045.753
194.3011, 1045.503
194.7832, 1051.514
195.2654, 1060.437
195.7475, 1064.979
196.2296, 1063.236
196.7117, 1060.383
197.1938, 1053.793
197.6759, 1048.315
198.1581, 1049.443
198.6402, 1058.831
199.1223, 1071.602
199.6044, 1078.513
200.0865, 1076.455
200.5686, 1074.417
201.0508, 1072.264
201.5329, 1070.995
202.0150, 1071.777
202.4971, 1074.818
202.9792, 1078.855
203.4613, 1082.073
203.9435, 1084.861
204.4256, 1085.760
204.9077, 1085.939
205.3898, 1083.770
205.8719, 1076.094
206.3540, 1063.191
206.8362, 1050.379
207.3183, 1046.041
207.8004, 1055.894
208.2825, 1059.634
208.7646, 1050.872
209.2467, 1041.569
209.7289, 1039.664
210.2110, 1045.434
210.6931, 1052.861
211.1752, 1054.600
211.6573, 1048.547
212.1395, 1044.475
212.6216, 1044.342
213.1037, 1044.394
213.5858, 1041.471
214.0679, 1036.460
214.5500, 1033.465
215.0322, 1037.376
215.5143, 1049.782
215.9964, 1058.423
216.4785, 1059.941
216.9606, 1060.907
217.4427, 1065.832
217.9249, 1072.745
218.4070, 1075.248
218.8891, 1066.164
219.3712, 1044.857
219.8533, 1035.261
220.3354, 1051.367
220.8176, 1066.177
221.2997, 1071.809
221.7818, 1070.519
222.2639, 1068.168
222.7460, 1068.998
223.2281, 1072.484
223.7103, 1072.891
224.1924, 1067.663
224.6745, 1061.834
225.1566, 1055.370
225.6387, 1049.163
226.1208, 1044.199
226.6030, 1040.989
227.0851, 1039.630
227.5672, 1040.897
228.0493, 1050.022
228.5314, 1054.472
229.0135, 1049.892
229.4957, 1040.668
229.9778, 1031.212
230.4599, 1023.423
230.9420, 1017.500
231.4241, 1014.361
231.9062, 1017.343
232.3884, 1017.261
232.8705, 1012.579
233.3526, 1005.076
233.8347, 994.8800
234.3168, 982.2966
234.7989, 970.3508
235.2811, 964.6429
235.7632, 967.5606
236.2453, 971.2831
236.7274, 976.7390
237.2095, 981.6036
237.6916, 985.3254
238.1738, 987.3666
238.6559, 986.0279
239.1380, 977.4225
239.6201, 957.9494
240.1022, 944.6323
240.5843, 941.1743
241.0665, 941.4379
241.5486, 944.4332
242.0307, 949.0790
242.5128, 952.8699
242.9949, 953.0298
243.4770, 949.2022
243.9592, 945.9622
244.4413, 942.4126
244.9234, 940.4348
245.4055, 942.2563
245.8876, 946.4174
246.3697, 949.3483
246.8519, 948.5547
247.3340, 944.2512
247.8161, 938.0916
248.2982, 926.4951
248.7803, 918.0118
249.2624, 916.0214
249.7446, 918.6517
250.2267, 923.1769
250.7088, 928.8111
251.1909, 934.6831
251.6730, 938.5257
252.1551, 940.7847
252.6373, 939.8455
253.1194, 931.7440
253.6015, 921.9699
254.0836, 916.6742
254.5657, 918.4075
255.0478, 924.0914
255.5300, 929.4397
256.0121, 934.7142
256.4942, 938.5714
256.9763, 937.6238
257.4584, 936.8320
257.9406, 941.6722
258.4227, 953.5439
258.9048, 964.1281
259.3869, 962.0934
259.8690, 946.6446
260.3511, 937.2172
260.8333, 941.3137
261.3154, 949.4261
261.7975, 955.1139
262.2796, 958.1136
262.7617, 960.4024
263.2438, 964.0599
263.7260, 968.5125
264.2081, 969.7653
264.6902, 964.7860
265.1723, 960.6743
265.6544, 964.0323
266.1365, 972.7409
266.6187, 979.7388
267.1008, 979.7119
267.5829, 976.0847
268.0650, 976.1287
268.5471, 980.5283
269.0292, 986.8981
269.5114, 998.6356
269.9935, 1010.844
270.4756, 1013.622
270.9577, 997.1751
271.4398, 976.1924
271.9219, 967.4719
272.4041, 971.2894
272.8862, 978.2824
273.3683, 986.0516
273.8504, 993.0573
274.3325, 996.7800
274.8146, 996.6895
275.2968, 994.0378
275.7789, 988.6913
276.2610, 981.2137
276.7431, 973.4860
277.2252, 965.3218
277.7073, 958.4318
278.1895, 956.1431
278.6716, 959.2480
279.1537, 962.0432
279.6358, 964.3746
280.1179, 964.6381
280.6000, 959.0731
281.0822, 946.2683
281.5643, 931.1006
282.0464, 918.4822
282.5285, 908.4176
283.0106, 901.6839
283.4927, 902.5914
283.9749, 904.2214
284.4570, 899.0368
284.9391, 886.9348
285.4212, 874.8961
285.9033, 868.8978
286.3854, 868.8962
286.8676, 866.6407
287.3497, 859.6735
287.8318, 853.0456
288.3139, 849.1898
288.7960, 847.6513
289.2781, 847.7785
289.7603, 849.8799
290.2424, 852.2751
290.7245, 847.5679
291.2066, 823.1760
291.6887, 807.6321
292.1708, 812.7116
292.6530, 826.3081
293.1351, 832.9858
293.6172, 827.3807
294.0993, 815.4824
294.5814, 807.8846
295.0635, 807.4957
295.5457, 806.1525
296.0278, 802.8613
296.5099, 799.4144
296.9920, 796.7110
297.4741, 795.0522
297.9562, 794.8325
298.4384, 796.8800
298.9205, 801.9202
299.4026, 804.1078
299.8847, 799.0440
300.3668, 795.5972
300.8489, 798.6612
301.3310, 805.7412
301.8131, 811.1210
302.2953, 810.7854
302.7774, 806.0014
303.2595, 803.6254
303.7416, 808.2773
304.2237, 808.2311
304.7058, 795.5751
305.1880, 779.9023
305.6701, 772.0891
306.1522, 776.2999
306.6343, 786.6712
307.1164, 794.6272
307.5985, 800.5850
308.0807, 802.4063
308.5628, 793.8879
309.0449, 785.1013
309.5270, 783.4064
310.0091, 788.9106
310.4912, 794.3297
310.9734, 792.4069
311.4555, 783.9354
311.9376, 777.1992
312.4197, 770.8518
312.9018, 769.5207
313.3839, 780.5057
313.8661, 798.5996
314.3482, 809.8666
314.8303, 804.4924
315.3124, 790.0242
315.7945, 779.3716
316.2766, 773.0146
316.7588, 767.6746
317.2409, 760.8678
317.7230, 754.3920
318.2051, 751.3047
318.6872, 752.7628
319.1693, 756.2919
319.6515, 761.5209
320.1336, 767.7211
320.6157, 771.3485
321.0978, 770.3704
321.5799, 767.5743
322.0620, 767.7659
322.5442, 771.4713
323.0263, 774.1631
323.5084, 775.4581
323.9905, 774.6606
324.4726, 768.4580
324.9547, 756.3441
325.4369, 747.3528
325.9190, 751.7184
326.4011, 771.1691
326.8832, 782.9597
327.3653, 782.6761
327.8474, 779.1912
328.3296, 775.3768
328.8117, 772.2903
329.2938, 772.5071
329.7759, 778.1495
330.2580, 787.1892
330.7401, 790.2268
331.2223, 781.5491
331.7044, 773.9127
332.1865, 767.7308
332.6686, 763.6127
333.1507, 762.8518
333.6328, 765.6295
334.1150, 769.7963
334.5971, 771.8605
335.0792, 769.8571
335.5613, 771.1847
336.0434, 782.7755
336.5255, 791.2336
337.0077, 786.8662
337.4898, 772.4723
337.9719, 758.1876
338.4540, 751.6688
338.9361, 752.4238
339.4182, 756.4825
339.9004, 767.1882
340.3825, 776.2088
340.8646, 783.0424
341.3467, 786.3895
341.8288, 783.6869
342.3109, 773.2413
342.7931, 759.9920
343.2752, 750.9481
343.7573, 746.3918
344.2394, 744.0956
344.7215, 745.0599
345.2036, 746.9942
345.6858, 748.4404
346.1679, 749.2788
346.6500, 749.1041
347.1321, 747.0316
347.6142, 743.7629
348.0963, 741.4695
348.5785, 740.7791
349.0606, 739.6791
349.5427, 733.4553
350.0248, 725.1501
350.5069, 724.6633
350.9890, 743.0469
351.4712, 762.5071
351.9533, 767.6008
352.4354, 760.3562
352.9175, 751.2641
353.3996, 744.4722
353.8817, 739.7708
354.3639, 736.7559
354.8460, 734.8685
355.3281, 735.2343
355.8102, 740.8646
356.2923, 747.6486
356.7744, 749.8779
357.2566, 746.5809
357.7387, 742.2018
358.2208, 742.0005
358.7029, 747.2869
359.1850, 749.3497
359.6671, 747.9249
360.1493, 744.1074
360.6314, 735.8218
361.1135, 725.6190
361.5956, 718.6515
362.0777, 718.0966
362.5598, 722.4216
363.0420, 726.0424
363.5241, 728.3466
364.0062, 730.9124
364.4883, 735.4549
364.9704, 739.3792
365.4525, 739.9386
365.9347, 736.7924
366.4168, 732.6478
366.8989, 730.0346
367.3810, 728.8952
367.8631, 730.2247
368.3452, 736.7231
368.8274, 742.5285
369.3095, 744.0340
369.7916, 742.6265
370.2737, 741.6986
370.7558, 743.0285
371.2379, 745.5869
371.7201, 747.7849
372.2022, 749.6198
372.6843, 751.2278
373.1664, 753.7866
373.6485, 755.2966
374.1306, 752.1346
374.6128, 742.3510
375.0949, 734.5403
375.5770, 736.0073
376.0591, 742.1563
376.5412, 742.9187
377.0233, 735.7097
377.5055, 727.3428
377.9876, 725.1790
378.4697, 730.0557
378.9518, 732.3975
379.4339, 727.8439
379.9160, 724.5525
380.3982, 729.7039
380.8803, 740.3943
381.3624, 747.9070
381.8445, 747.2925
382.3266, 741.1366
382.8087, 737.2375
383.2909, 738.1020
383.7730, 738.0939
384.2551, 736.4393
384.7372, 734.3041
385.2193, 732.5704
385.7014, 731.4104
386.1836, 730.4421
386.6657, 728.8123
387.1478, 726.3204
387.6299, 727.3243
388.1120, 736.8473
388.5941, 744.0524
389.0763, 743.6328
389.5584, 739.0928
390.0405, 736.2437
390.5226, 737.9559
391.0047, 741.1807
391.4868, 740.5432
391.9690, 735.5039
392.4511, 731.8147
392.9332, 731.6923
393.4153, 732.9300
393.8974, 732.9933
394.3795, 731.8865
394.8617, 732.1407
395.3438, 736.1235
395.8259, 741.8656
396.3080, 745.9510
396.7901, 747.9995
397.2722, 749.9740
397.7544, 753.7247
398.2365, 758.5118
398.7186, 760.7669
399.2007, 760.8754
399.6828, 758.1172
400.1649, 750.5118
400.6471, 740.2471
401.1292, 729.0771
401.6113, 717.4957
402.0934, 710.5480
402.5755, 716.9624
403.0576, 744.7374
403.5398, 761.2004
404.0219, 761.1201
404.5040, 756.4382
404.9861, 751.1232
405.4682, 746.3747
405.9503, 743.3375
406.4325, 742.9470
406.9146, 744.3058
407.3967, 744.0095
407.8788, 740.4927
408.3609, 738.5809
408.8430, 739.9977
409.3252, 742.7070
409.8073, 745.9216
410.2894, 749.2816
410.7715, 751.0458
411.2536, 748.2798
411.7357, 742.1837
412.2179, 739.4819
412.7000, 741.9071
413.1821, 744.6122
413.6642, 743.2819
414.1463, 739.9028
414.6284, 738.4834
415.1106, 740.4326
415.5927, 743.7117
416.0748, 748.2976
416.5569, 753.1822
417.0390, 754.8701
417.5211, 751.8586
418.0033, 746.2690
418.4854, 740.5014
418.9675, 733.1395
419.4496, 731.2193
419.9317, 743.6850
420.4138, 754.5415
420.8960, 748.9792
421.3781, 731.4294
421.8602, 718.7084
422.3423, 722.3748
422.8244, 737.6973
423.3065, 744.0782
423.7887, 735.5873
424.2708, 726.9716
424.7529, 714.3104
425.2350, 705.7366
425.7171, 711.4584
426.1992, 730.9965
426.6814, 750.5479
427.1635, 756.0343
427.6456, 748.6906
428.1277, 742.8518
428.6098, 739.3803
429.0919, 735.7728
429.5741, 728.7929
430.0562, 721.3239
430.5383, 717.9142
431.0204, 720.1105
431.5025, 725.5212
431.9846, 735.1587
432.4668, 746.8819
432.9489, 752.5359
433.4310, 749.3935
433.9131, 741.7826
434.3952, 733.8106
434.8773, 725.3414
435.3595, 718.9330
435.8416, 711.9092
436.3237, 709.5667
436.8058, 720.4282
437.2879, 738.7250
437.7701, 749.5174
438.2522, 744.7687
438.7343, 730.3876
439.2164, 721.3895
439.6985, 721.3792
440.1806, 720.5493
440.6628, 716.1489
441.1449, 712.9943
441.6270, 716.9509
442.1091, 725.8072
442.5912, 730.3376
443.0733, 720.9984
443.5555, 702.9225
444.0376, 696.6490
444.5197, 705.2935
445.0018, 717.0970
445.4839, 734.3121
445.9660, 748.9987
446.4482, 751.2778
446.9303, 738.5503
447.4124, 724.4235
447.8945, 716.6558
448.3766, 713.4826
448.8587, 711.2528
449.3409, 709.4243
449.8230, 709.5239
450.3051, 713.7907
450.7872, 721.4634
451.2693, 725.0263
451.7514, 720.8193
452.2336, 717.0988
452.7157, 717.8818
453.1978, 720.3022
453.6799, 720.0158
454.1620, 715.8763
454.6441, 710.3341
455.1263, 706.3062
455.6084, 703.7010
456.0905, 703.1508
456.5726, 703.6722
457.0547, 707.4857
457.5368, 721.8522
458.0190, 738.4224
458.5011, 742.3724
458.9832, 725.7490
459.4653, 702.6858
459.9474, 694.3238
460.4295, 700.9379
460.9117, 705.4100
461.3938, 703.4834
461.8759, 699.9015
462.3580, 697.9261
462.8401, 697.6412
463.3222, 700.0547
463.8044, 709.8268
464.2865, 718.9844
464.7686, 717.8547
465.2507, 709.2155
465.7328, 704.9529
466.2149, 710.8225
466.6971, 721.6227
467.1792, 727.1839
467.6613, 724.6289
468.1434, 722.5386
468.6255, 720.4588
469.1076, 719.2158
469.5898, 721.1183
470.0719, 724.4438
470.5540, 724.2069
471.0361, 716.6807
471.5182, 705.0526
472.0003, 698.8992
472.4825, 700.4607
472.9646, 701.5034
473.4467, 696.8167
473.9288, 693.6686
474.4109, 699.7386
474.8930, 713.9009
475.3752, 724.0063
475.8573, 719.9338
476.3394, 708.6394
476.8215, 701.9771
477.3036, 700.2695
477.7857, 698.8038
478.2679, 694.7845
478.7500, 689.9009
479.2321, 688.3152
479.7142, 690.3928
480.1963, 694.1029
480.6784, 704.1382
481.1606, 712.2407
481.6427, 706.5496
482.1248, 689.5340
482.6069, 677.3233
483.0890, 682.7918
483.5711, 702.1976
484.0533, 715.0283
484.5354, 720.0074
485.0175, 719.9459
485.4996, 710.3507
485.9817, 700.0031
486.4638, 696.9922
486.9460, 701.5164
487.4281, 706.3917
487.9102, 705.7284
488.3923, 701.1168
488.8744, 696.1296
489.3565, 689.9162
489.8387, 689.0322
490.3208, 701.3969
490.8029, 718.8169
491.2850, 723.4758
491.7671, 710.0936
492.2492, 699.4861
492.7314, 702.0228
493.2135, 709.1485
493.6956, 711.8387
494.1777, 709.0184
494.6598, 702.5984
495.1419, 693.0585
495.6241, 681.8236
496.1062, 678.2237
496.5883, 691.6155
497.0704, 699.5875
497.5525, 695.8507
498.0346, 688.9265
498.5168, 685.7902
498.9989, 687.1732
499.4810, 689.4673
499.9631, 690.1264
500.4452, 689.3040
500.9273, 686.4877
501.4095, 680.3066
501.8916, 678.3567
502.3737, 688.6095
502.8558, 702.2310
503.3379, 704.3026
503.8200, 691.3930
504.3022, 680.3797
504.7843, 679.7419
505.2664, 683.0837
505.7485, 682.5295
506.2306, 678.0073
506.7127, 674.9509
507.1949, 677.3787
507.6770, 683.6035
508.1591, 686.1909
508.6412, 681.9793
509.1233, 678.6235
509.6054, 678.2614
510.0876, 677.5427
510.5697, 672.0785
511.0518, 663.2246
511.5339, 657.6677
512.0161, 660.9401
512.4982, 670.4776
512.9803, 680.5243
513.4624, 691.7164
513.9445, 699.0678
514.4266, 700.0528
514.9088, 696.8118
515.3909, 691.1064
515.8730, 682.4431
516.3551, 677.3969
516.8372, 682.7220
517.3193, 689.0029
517.8015, 685.0364
518.2836, 673.2809
518.7657, 665.7002
519.2478, 668.9791
519.7299, 678.7850
520.2120, 684.9127
520.6942, 686.1594
521.1763, 685.8674
521.6584, 682.6031
522.1405, 679.3405
522.6226, 679.7750
523.1047, 681.5114
523.5869, 677.6058
524.0690, 662.1930
524.5511, 644.2503
525.0332, 639.2580
525.5153, 647.1434
525.9974, 657.0735
526.4796, 669.1577
526.9617, 678.1810
527.4438, 675.1288
527.9259, 661.8004
528.4080, 654.4735
528.8901, 660.7831
529.3723, 668.3850
529.8544, 670.5493
530.3365, 668.6255
530.8186, 664.4548
531.3007, 658.8254
531.7828, 654.8452
532.2650, 658.0189
532.7471, 670.8115
533.2292, 675.3761
533.7113, 665.4086
534.1934, 654.0620
534.6755, 641.3334
535.1577, 631.1568
535.6398, 630.2884
536.1219, 641.5692
536.6040, 653.5067
537.0861, 652.9666
537.5682, 644.3853
538.0504, 644.0024
538.5325, 655.0388
539.0146, 663.6292
539.4967, 658.1080
539.9788, 642.1032
540.4609, 633.9734
540.9431, 639.2890
541.4252, 643.7906
541.9073, 643.8542
542.3894, 642.3127
542.8715, 641.8285
543.3536, 642.6328
543.8358, 643.6215
544.3179, 644.2101
544.8000, 643.9877
545.2821, 640.5200
545.7642, 631.8458
546.2463, 625.3058
546.7285, 623.2656
547.2106, 623.8083
547.6926, 626.6531
548.1747, 631.3712
548.6569, 634.5179
549.1390, 632.4513
549.6211, 629.5522
550.1032, 633.1449
550.5853, 640.9110
551.0674, 641.0057
551.5496, 627.5669
552.0317, 610.2261
552.5138, 605.0199
552.9959, 616.8267
553.4780, 624.3616
553.9601, 624.6473
554.4423, 624.5281
554.9244, 628.0410
555.4065, 632.5664
555.8886, 632.9990
556.3707, 627.3403
556.8528, 620.9167
557.3350, 621.7855
557.8171, 628.6009
558.2992, 629.6306
558.7813, 622.2662
559.2634, 614.0352
559.7455, 610.4541
560.2277, 609.6802
560.7098, 605.4258
561.1919, 593.0502
561.6740, 585.2158
562.1561, 588.8843
562.6382, 597.2206
563.1204, 604.8264
563.6025, 610.0496
564.0846, 610.6766
564.5667, 604.3278
565.0488, 593.4916
565.5309, 587.9054
566.0131, 588.7170
566.4952, 591.8973
566.9773, 601.0203
567.4594, 608.8690
567.9415, 609.6663
568.4236, 604.6517
568.9058, 600.3267
569.3879, 599.0941
569.8700, 600.0286
570.3521, 603.4583
570.8342, 608.4041
571.3163, 611.8403
571.7985, 612.9240
572.2806, 611.2944
572.7627, 605.9569
573.2448, 596.2069
573.7269, 589.2836
574.2090, 584.8437
574.6912, 583.3948
575.1733, 588.6256
575.6554, 595.0577
576.1375, 595.3621
576.6196, 588.4916
577.1017, 582.0017
577.5839, 584.8569
578.0660, 593.5516
578.5481, 594.9971
579.0302, 587.9989
579.5123, 582.7678
579.9944, 584.1970
580.4766, 589.8891
580.9587, 596.5943
581.4408, 606.2970
581.9229, 609.3454
582.4050, 597.6257
582.8871, 584.9589
583.3693, 580.0162
583.8514, 581.5323
584.3335, 586.1919
584.8156, 592.5351
585.2977, 597.8594
585.7798, 596.9955
586.2620, 589.2671
586.7441, 583.2465
587.2262, 579.5139
587.7083, 577.1685
588.1904, 575.9632
588.6725, 575.7165
589.1547, 576.2419
589.6368, 577.5682
590.1189, 579.5269
590.6010, 583.5231
591.0831, 587.3058
591.5652, 588.1729
592.0474, 585.8948
592.5295, 580.6292
593.0116, 571.9251
593.4937, 561.9404
593.9758, 557.6723
594.4579, 562.0801
594.9401, 565.2119
595.4222, 565.3698
595.9043, 564.8646
596.3864, 565.8094
596.8685, 566.9630
597.3506, 564.4231
597.8328, 553.8334
598.3149, 544.8593
598.7970, 550.9150
599.2791, 565.0012
599.7612, 567.1657
600.2433, 553.5319
600.7255, 537.8072
601.2076, 531.2659
601.6897, 533.0039
602.1718, 535.6977
602.6539, 542.3856
603.1360, 545.7559
603.6182, 542.7525
604.1003, 538.2762
604.5824, 535.7487
605.0645, 535.2369
605.5466, 535.2037
606.0287, 534.9737
606.5109, 534.4542
606.9930, 532.7759
607.4751, 530.3051
607.9572, 530.5112
608.4393, 534.9142
608.9214, 539.7372
609.4036, 541.7905
609.8857, 541.0344
610.3678, 536.0638
610.8499, 519.4327
611.3320, 508.4224
611.8141, 509.4046
612.2963, 516.4070
612.7784, 525.1515
613.2605, 534.0044
613.7426, 541.0453
614.2247, 544.9329
614.7068, 545.8920
615.1890, 543.4379
615.6711, 537.3446
616.1532, 533.1299
616.6353, 533.0314
617.1174, 534.2532
617.5995, 534.1589
618.0817, 532.7116
618.5638, 529.2733
619.0459, 518.8940
619.5280, 512.2106
620.0101, 516.2691
620.4922, 524.8867
620.9744, 531.0618
621.4565, 533.0612
621.9386, 532.0148
622.4207, 528.0927
622.9028, 522.2953
623.3849, 518.7005
623.8671, 517.5924
624.3492, 516.9092
624.8313, 515.3275
625.3134, 514.7202
625.7955, 519.1626
626.2776, 528.2962
626.7598, 532.3939
627.2419, 526.2599
627.7240, 518.9548
628.2061, 512.9997
628.6882, 509.5967
629.1703, 512.3531
629.6525, 520.9274
630.1346, 527.7033
630.6167, 524.0656
631.0988, 512.3836
631.5809, 506.0663
632.0630, 506.0614
632.5452, 507.8815
633.0273, 512.1439
633.5094, 515.7697
633.9915, 513.8085
634.4736, 506.6915
634.9557, 503.7206
635.4379, 512.0672
635.9200, 519.4228
636.4021, 517.2908
636.8842, 510.2248
637.3663, 505.2260
637.8484, 504.0774
638.3306, 504.8595
638.8127, 506.3569
639.2948, 508.0066
639.7769, 504.8256
640.2590, 493.5674
640.7411, 489.4008
641.2233, 501.6807
641.7054, 518.0526
642.1875, 526.0591
642.6696, 526.2462
643.1517, 524.5555
643.6339, 520.4893
644.1160, 516.6833
644.5981, 514.2226
645.0802, 513.0978
645.5623, 513.9820
646.0444, 516.6135
646.5266, 518.7311
647.0087, 518.2855
647.4908, 515.5477
647.9729, 511.2617
648.4550, 504.7065
648.9371, 499.6255
649.4193, 497.2514
649.9014, 496.4104
650.3835, 496.2281
650.8656, 496.6258
651.3477, 497.0782
651.8298, 497.8502
652.3120, 498.2602
652.7941, 497.2206
653.2762, 496.0041
653.7583, 495.9367
654.2404, 497.4424
654.7225, 501.1929
655.2047, 508.4964
655.6868, 517.4208
656.1689, 521.4692
656.6510, 520.2761
657.1331, 516.0084
657.6152, 507.0465
658.0974, 498.1307
658.5795, 494.4317
659.0616, 494.7133
659.5437, 493.5859
660.0258, 487.2207
660.5079, 483.5281
660.9901, 487.9200
661.4722, 494.5725
661.9543, 497.0396
662.4364, 495.2923
662.9185, 493.4301
663.4006, 494.2039
663.8828, 496.4371
664.3649, 497.9313
664.8470, 498.7060
665.3291, 497.6161
665.8112, 493.2666
666.2933, 489.9705
666.7755, 491.6917
667.2576, 497.1713
667.7397, 500.7731
668.2218, 502.9674
668.7039, 502.5616
669.1860, 495.1071
669.6682, 488.4276
670.1503, 489.9908
670.6324, 497.7639
671.1145, 505.7353
671.5966, 511.4544
672.0787, 512.4642
672.5609, 501.2256
673.0430, 480.4270
673.5251, 470.5957
674.0072, 475.0041
674.4893, 482.8233
674.9714, 489.4209
675.4536, 493.7011
675.9357, 492.1443
676.4178, 479.4612
676.8999, 472.5701
677.3820, 474.9970
677.8641, 480.1512
678.3463, 486.7683
678.8284, 493.0084
679.3105, 495.7235
679.7926, 493.9173
680.2747, 492.0725
680.7568, 496.2586
681.2390, 503.0700
681.7211, 503.2248
682.2032, 496.7534
682.6853, 491.1800
683.1674, 489.6540
683.6495, 490.9208
684.1317, 493.4598
684.6138, 497.9977
685.0959, 499.8973
685.5780, 497.5608
686.0601, 494.4748
686.5422, 489.1182
687.0244, 484.8440
687.5065, 486.0386
687.9886, 492.7617
688.4707, 499.4218
688.9528, 505.4825
689.4349, 507.8618
689.9171, 498.2639
690.3992, 482.0691
690.8813, 476.4502
691.3634, 485.8872
691.8455, 499.2607
692.3276, 505.5770
692.8098, 505.5888
693.2919, 505.6237
693.7740, 505.3527
694.2561, 505.8878
694.7382, 509.9833
695.2203, 512.6002
695.7025, 508.4805
696.1846, 499.6839
696.6667, 494.2646
697.1488, 497.5552
697.6309, 499.5968
698.1130, 490.2682
698.5952, 479.4504
699.0773, 482.8788
699.5594, 498.6093
700.0415, 510.3582
700.5236, 507.8411
701.0057, 497.0208
701.4879, 489.3155
701.9700, 484.7388
702.4521, 482.7605
702.9342, 483.8481
703.4163, 486.3017
703.8984, 489.8802
704.3806, 493.8480
704.8627, 496.8338
705.3448, 499.8530
705.8269, 499.1458
706.3090, 490.2190
706.7911, 481.3951
707.2733, 478.4536
707.7554, 478.7875
708.2375, 477.2140
708.7196, 472.2659
709.2017, 467.7073
709.6838, 467.8445
710.1660, 470.8964
710.6481, 472.2574
711.1302, 471.9714
711.6123, 472.5978
712.0944, 475.7264
712.5765, 476.7800
713.0587, 468.1832
713.5408, 448.8661
714.0229, 443.0348
714.5050, 466.9735
714.9871, 482.1830
715.4692, 474.5077
715.9514, 462.4240
716.4335, 461.5683
716.9156, 470.7140
717.3977, 478.3515
717.8798, 479.6730
718.3619, 478.2079
718.8441, 474.4117
719.3262, 470.6556
719.8083, 472.6786
720.2904, 480.0289
720.7725, 485.1497
721.2546, 482.7407
721.7368, 475.7072
722.2189, 470.3883
722.7010, 466.5417
723.1831, 467.0202
723.6652, 476.1172
724.1473, 481.3722
724.6295, 471.7668
725.1116, 455.1846
725.5937, 448.2311
726.0758, 453.9690
726.5579, 458.9418
727.0400, 460.8385
727.5222, 461.1996
728.0043, 460.8773
728.4864, 459.6802
728.9685, 455.8192
729.4506, 449.4082
729.9327, 445.7996
730.4149, 453.3989
730.8970, 465.8094
731.3791, 466.0810
731.8612, 455.8409
732.3433, 451.7496
732.8254, 459.5261
733.3076, 468.6994
733.7897, 467.8853
734.2718, 458.1588
734.7539, 453.9519
735.2360, 460.2389
735.7181, 463.7029
736.2003, 458.9132
736.6824, 454.6092
737.1645, 458.5173
737.6466, 467.1927
738.1287, 470.4445
738.6108, 463.4594
739.0930, 455.8839
739.5751, 453.6209
740.0572, 453.3421
740.5393, 449.9086
741.0214, 444.7424
741.5035, 444.4055
741.9857, 452.0197
742.4678, 461.6187
742.9499, 464.6738
743.4320, 461.5714
743.9141, 456.9875
744.3962, 450.0720
744.8784, 447.0405
745.3605, 452.0095
745.8426, 459.3973
746.3247, 461.4472
746.8068, 457.4379
747.2889, 454.7346
747.7711, 456.2256
748.2532, 455.1937
748.7353, 445.4761
749.2174, 435.9733
749.6995, 436.0171
750.1816, 444.2646
750.6638, 452.0732
751.1459, 456.2976
751.6280, 456.8668
752.1101, 450.8159
752.5922, 442.0817
753.0743, 438.7772
753.5565, 441.1853
754.0386, 444.1537
754.5207, 444.7507
755.0028, 443.5681
755.4849, 440.6755
755.9670, 435.3481
756.4492, 436.2267
756.9313, 446.7827
757.4134, 455.0845
757.8955, 454.7878
758.3776, 450.3286
758.8597, 448.8046
759.3419, 450.7105
759.8240, 450.0990
760.3061, 443.1192
760.7882, 437.5836
761.2703, 437.9727
761.7524, 440.2656
762.2346, 438.3974
762.7167, 433.3553
763.1988, 433.6230
763.6809, 447.4085
764.1630, 462.4834
764.6451, 464.2439
765.1273, 456.3828
765.6094, 445.9162
766.0915, 434.6890
766.5736, 428.1385
767.0557, 430.1027
767.5378, 436.6198
768.0200, 438.9132
768.5021, 436.0929
768.9842, 434.3849
769.4663, 434.1694
769.9484, 434.4287
770.4305, 434.5818
770.9127, 435.0837
771.3948, 437.3828
771.8769, 441.8772
772.3590, 443.0249
772.8411, 436.6822
773.3232, 431.0809
773.8054, 429.3513
774.2875, 429.9811
774.7696, 431.7253
775.2517, 434.1487
775.7338, 437.0262
776.2159, 441.1017
776.6981, 443.7292
777.1802, 440.4333
777.6623, 433.7878
778.1444, 429.5455
778.6265, 428.3301
779.1086, 428.4153
779.5908, 428.8368
780.0729, 430.0550
780.5550, 433.5958
781.0371, 440.0012
781.5192, 442.8231
782.0013, 440.6386
782.4835, 438.6315
782.9656, 438.5439
783.4477, 439.7860
783.9298, 442.1669
784.4119, 445.7475
784.8940, 447.7470
785.3762, 449.1595
785.8583, 447.5214
786.3404, 437.9787
786.8225, 428.4294
787.3046, 426.3705
787.7867, 430.5591
788.2689, 435.0175
788.7510, 437.7464
789.2331, 438.4438
789.7152, 435.8385
790.1973, 431.5768
790.6794, 428.1714
791.1616, 425.6576
791.6437, 422.7209
792.1258, 418.7687
792.6079, 415.6683
793.0900, 416.2579
793.5721, 420.1488
794.0543, 423.2990
794.5364, 425.4431
795.0185, 428.9603
795.5006, 435.6048
795.9827, 441.6253
796.4648, 443.6958
796.9470, 441.8851
797.4291, 436.9023
797.9112, 422.9852
798.3933, 414.2469
798.8754, 413.7956
799.3575, 416.2031
799.8397, 421.4552
800.3218, 426.4308
800.8039, 424.1963
801.2860, 411.5659
801.7681, 403.3110
802.2502, 410.3849
802.7324, 421.9608
803.2145, 429.3362
803.6966, 433.4300
804.1787, 437.3396
804.6608, 441.6414
805.1429, 444.1252
805.6251, 442.4304
806.1072, 438.3683
806.5893, 436.3682
807.0714, 435.8902
807.5535, 432.2237
808.0356, 424.3355
808.5178, 416.6669
808.9999, 411.6660
809.4820, 409.8457
809.9641, 413.1034
810.4462, 423.4245
810.9283, 431.7810
811.4105, 439.1700
811.8926, 442.9877
812.3747, 440.1664
812.8568, 434.5592
813.3389, 428.9010
813.8210, 423.3190
814.3032, 424.0128
814.7853, 439.2307
815.2674, 451.5259
815.7495, 456.1561
816.2316, 454.3619
816.7137, 442.3936
817.1959, 425.2751
817.6780, 416.9173
818.1601, 424.7058
818.6422, 434.9649
819.1243, 434.5925
819.6064, 430.0950
820.0886, 433.6482
820.5707, 442.6596
821.0528, 444.5775
821.5349, 435.2125
822.0170, 423.4189
822.4991, 418.5698
822.9813, 419.5860
823.4634, 422.8557
823.9455, 428.6393
824.4276, 431.6374
824.9097, 430.5977
825.3918, 426.9771
825.8740, 420.8994
826.3561, 413.8051
826.8382, 410.8395
827.3203, 414.5772
827.8024, 416.4540
828.2845, 413.2159
828.7667, 412.1437
829.2488, 419.1165
829.7309, 427.6923
830.2130, 429.2292
830.6951, 423.2987
831.1772, 419.2595
831.6594, 420.4168
832.1415, 422.5845
832.6236, 425.1968
833.1057, 427.0259
833.5878, 425.6997
834.0699, 422.4654
834.5521, 421.4449
835.0342, 424.6363
835.5163, 429.5247
835.9984, 434.8241
836.4805, 439.7608
836.9626, 444.5894
837.4448, 448.0069
837.9269, 444.1365
838.4090, 431.4690
838.8911, 418.4251
839.3732, 414.1427
839.8553, 416.4185
840.3375, 417.2534
840.8196, 416.6140
841.3017, 416.4413
841.7838, 417.3051
842.2659, 417.3457
842.7480, 414.8007
843.2302, 411.2373
843.7123, 411.0914
844.1944, 416.9109
844.6765, 417.2898
845.1586, 406.5513
845.6407, 398.8381
846.1229, 400.3562
846.6050, 406.0794
847.0871, 412.2969
847.5692, 418.7180
848.0513, 423.2084
848.5334, 425.9805
849.0156, 426.1370
849.4977, 420.8401
849.9798, 415.1538
850.4619, 411.7770
850.9440, 411.4088
851.4261, 415.9132
851.9083, 426.3196
852.3904, 434.5887
852.8725, 434.6845
853.3546, 430.7202
853.8367, 425.0085
854.3188, 419.2627
854.8010, 416.4753
855.2831, 417.1579
855.7652, 420.3372
856.2473, 426.0272
856.7294, 431.6708
857.2115, 432.4106
857.6937, 429.0911
858.1758, 424.6910
858.6579, 419.6306
859.1400, 416.4201
859.6221, 416.2739
860.1042, 418.1078
860.5864, 420.6411
861.0685, 423.8124
861.5506, 426.5429
862.0327, 429.3251
862.5148, 429.3857
862.9969, 424.6010
863.4791, 419.9267
863.9612, 419.7664
864.4433, 422.6617
864.9254, 423.3220
865.4075, 420.6664
865.8896, 418.0169
866.3718, 412.4651
866.8539, 410.3647
867.3360, 419.4712
867.8181, 429.6633
868.3002, 426.7085
868.7823, 411.1395
869.2645, 402.3094
869.7466, 410.5210
870.2287, 419.3663
870.7108, 423.2597
871.1929, 424.5745
871.6750, 423.6761
872.1572, 422.3504
872.6393, 424.9576
873.1214, 433.2116
873.6035, 438.9830
874.0856, 434.4451
874.5677, 426.0025
875.0499, 419.2481
875.5320, 414.6759
876.0141, 413.9132
876.4962, 416.4296
876.9783, 417.7519
877.4604, 414.4421
877.9426, 410.0822
878.4247, 411.6080
878.9068, 417.0211
879.3889, 417.6319
879.8710, 413.4706
880.3531, 413.4067
880.8353, 421.3687
881.3174, 428.7980
881.7995, 424.4359
882.2816, 410.9149
882.7637, 405.7674
883.2458, 410.3841
883.7280, 412.8653
884.2101, 410.5623
884.6922, 408.2920
885.1743, 409.0831
885.6564, 412.0294
886.1385, 415.4182
886.6207, 419.7502
887.1028, 422.2312
887.5849, 422.9019
888.0670, 421.5701
888.5491, 415.0529
889.0313, 409.2730
889.5134, 411.0336
889.9955, 418.2536
890.4776, 421.3212
890.9597, 417.5442
891.4418, 413.3204
891.9240, 406.2830
892.4061, 402.5023
892.8882, 408.9378
893.3703, 418.5370
893.8524, 420.8856
894.3345, 415.1507
894.8167, 410.4518
895.2988, 412.1544
895.7809, 413.7123
896.2630, 410.8604
896.7451, 406.6983
897.2272, 404.2281
897.7094, 403.3642
898.1915, 403.2644
898.6736, 403.6455
899.1557, 403.0961
899.6378, 397.5349
900.1199, 392.7741
900.6021, 398.4607
901.0842, 409.8041
901.5663, 416.9471
902.0484, 418.1968
902.5305, 416.4171
903.0126, 413.2215
903.4948, 408.9265
903.9769, 402.2918
904.4590, 395.1909
904.9411, 395.1951
905.4232, 401.4540
905.9053, 405.3359
906.3875, 404.0377
906.8696, 401.2518
907.3517, 400.6269
907.8338, 401.0598
908.3159, 397.7834
908.7980, 390.7373
909.2802, 389.6349
909.7623, 396.2805
910.2444, 403.1532
910.7265, 407.0866
911.2086, 407.7589
911.6907, 403.6436
912.1729, 394.8881
912.6550, 393.4421
913.1371, 402.9589
913.6192, 407.7487
914.1013, 402.4266
914.5834, 397.1099
915.0656, 399.2381
915.5477, 405.4604
916.0298, 407.9693
916.5119, 405.5842
916.9940, 403.8539
917.4761, 400.7938
917.9583, 401.2136
918.4404, 412.0329
918.9225, 421.7432
919.4046, 419.5682
919.8867, 408.5335
920.3688, 400.2066
920.8510, 396.5930
921.3331, 393.0926
921.8152, 385.3766
922.2973, 381.8830
922.7794, 392.7670
923.2615, 405.9126
923.7437, 403.7990
924.2258, 388.0845
924.7079, 380.8005
925.1900, 395.7708
925.6721, 408.2291
926.1542, 406.3894
926.6364, 399.6902
927.1185, 392.2520
927.6006, 386.7923
928.0827, 388.6236
928.5648, 397.9491
929.0469, 403.8420
929.5291, 394.9570
930.0112, 386.5111
930.4933, 393.5063
930.9754, 405.0302
931.4575, 406.6259
931.9396, 400.2328
932.4218, 395.3865
932.9039, 395.5525
933.3860, 397.6360
933.8681, 399.1725
934.3502, 400.9668
934.8323, 405.4789
935.3145, 410.5485
935.7966, 411.1999
936.2787, 407.4202
936.7608, 402.7211
937.2429, 398.9129
937.7250, 395.7575
938.2072, 392.5162
938.6893, 389.8758
939.1714, 389.6242
939.6535, 391.4247
940.1356, 394.4162
940.6177, 398.1568
941.0999, 400.3918
941.5820, 399.1853
942.0641, 397.4419
942.5462, 403.0817
943.0283, 413.2673
943.5104, 410.9096
943.9926, 396.4511
944.4747, 384.2395
944.9568, 378.6201
945.4389, 379.4711
945.9210, 387.6976
946.4031, 399.9459
946.8853, 407.3704
947.3674, 409.9754
947.8495, 407.6893
948.3316, 399.9653
948.8137, 394.1435
949.2958, 393.5222
949.7780, 393.3613
950.2601, 387.9185
950.7422, 378.6818
951.2243, 373.7134
951.7064, 373.5180
952.1885, 374.4053
952.6707, 376.1048
953.1528, 378.9424
953.6349, 383.9504
954.1170, 388.1104
954.5991, 386.2454
955.0812, 378.9530
955.5634, 380.3661
956.0455, 395.5591
956.5276, 403.4658
957.0097, 399.1588
957.4918, 392.0026
957.9739, 384.9420
958.4561, 380.4141
958.9382, 384.0902
959.4203, 397.2505
959.9024, 399.6462
960.3845, 381.6650
960.8666, 372.5443
961.3488, 383.0299
961.8309, 394.3083
962.3130, 392.7916
962.7951, 385.4997
963.2772, 387.4692
963.7593, 401.9688
964.2415, 408.1664
964.7236, 397.9388
965.2057, 391.2218
965.6878, 396.5399
966.1699, 401.2894
966.6520, 393.0332
967.1342, 379.2643
967.6163, 378.9283
968.0984, 398.0880
968.5805, 407.9177
969.0626, 400.1134
969.5447, 392.1458
970.0269, 387.0060
970.5090, 384.5132
970.9911, 386.4361
971.4732, 390.5659
971.9553, 390.7528
972.4374, 384.6036
972.9196, 381.0961
973.4017, 382.2736
973.8838, 385.2079
974.3659, 391.7156
974.8480, 397.1666
975.3301, 394.9822
975.8123, 388.4230
976.2944, 388.9304
976.7765, 402.1704
977.2586, 409.4910
977.7407, 402.0410
978.2228, 393.5380
978.7050, 388.8507
979.1871, 386.8574
979.6692, 385.8709
980.1513, 386.3217
980.6334, 391.3720
981.1155, 405.9052
981.5977, 411.7253
982.0798, 394.3189
982.5619, 377.5638
983.0440, 373.4341
983.5261, 376.4361
984.0082, 383.3000
984.4904, 391.2576
984.9725, 392.5171
985.4546, 381.4802
985.9367, 374.2968
986.4188, 380.5623
986.9009, 388.0272
987.3831, 389.1048
987.8652, 387.6806
988.3473, 388.3468
988.8294, 391.2751
989.3115, 394.8867
989.7936, 399.9902
990.2758, 401.9188
990.7579, 397.1200
991.2400, 390.2996
991.7221, 381.4453
992.2042, 374.3366
992.6863, 375.3067
993.1685, 382.5522
993.6506, 385.8453
994.1327, 379.7872
994.6148, 375.4034
995.0969, 379.1541
995.5790, 384.5613
996.0612, 388.7206
996.5433, 390.9425
997.0254, 389.3071
997.5075, 385.0215
997.9896, 383.9627
998.4717, 390.5382
998.9539, 393.2231
999.4360, 380.5015
999.9181, 368.6571
1000.400, 372.1722
1000.882, 381.3729
1001.364, 382.7173
1001.847, 376.7382
1002.329, 373.4766
1002.811, 377.0547
1003.293, 381.5759
1003.775, 387.4492
1004.257, 389.9049
1004.739, 381.5323
1005.221, 370.4557
1005.703, 367.7609
1006.186, 372.6040
1006.668, 376.0568
1007.150, 374.7382
1007.632, 373.1730
1008.114, 373.4003
1008.596, 374.0854
1009.078, 375.2253
1009.560, 375.7367
1010.043, 373.9654
1010.525, 370.3614
1011.007, 366.3615
1011.489, 360.8333
1011.971, 360.7929
1012.453, 377.6461
1012.935, 391.3200
1013.417, 384.2238
1013.899, 371.1818
1014.382, 370.3703
1014.864, 379.5430
1015.346, 384.2932
1015.828, 379.3713
1016.310, 375.6142
1016.792, 378.7396
1017.274, 382.2597
1017.756, 382.5017
1018.239, 381.4792
1018.721, 381.7305
1019.203, 382.6489
1019.685, 381.4103
1020.167, 376.5911
1020.649, 373.5966
1021.131, 374.6313
1021.613, 377.3162
1022.095, 384.9722
1022.578, 390.0265
1023.060, 381.2054
1023.542, 364.9115
1024.024, 358.9826
1024.506, 368.6060
1024.988, 375.8735
1025.470, 373.0713
1025.952, 371.1664
1026.435, 379.1279
1026.917, 385.0474
1027.399, 373.8865
1027.881, 354.8790
1028.363, 350.3488
1028.845, 365.6012
1029.327, 373.8712
1029.809, 364.4719
1030.292, 355.6390
1030.774, 351.0729
1031.256, 349.7846
1031.738, 351.8912
1032.220, 356.3890
1032.702, 363.1878
1033.184, 372.8982
1033.666, 375.5337
1034.148, 362.5736
1034.630, 353.4722
1035.113, 353.7680
1035.595, 356.0707
1036.077, 358.0865
1036.559, 358.6662
1037.041, 354.0637
1037.523, 343.8890
1038.005, 342.6512
1038.487, 359.3783
1038.970, 370.5716
1039.452, 373.5863
1039.934, 372.4617
1040.416, 364.9307
1040.898, 357.5972
1041.380, 360.4222
1041.862, 371.9343
1042.344, 375.2203
1042.826, 363.2501
1043.309, 359.1977
1043.791, 371.5813
1044.273, 376.7908
1044.755, 360.4395
1045.237, 341.5173
1045.719, 339.9085
1046.201, 351.9767
1046.683, 360.9196
1047.166, 366.0335
1047.648, 370.8214
1048.130, 376.1025
1048.612, 378.3115
1049.094, 375.1794
1049.576, 371.8483
1050.058, 373.1161
1050.540, 376.7935
1051.022, 376.9708
1051.505, 373.4277
1051.987, 368.2720
1052.469, 361.1700
1052.951, 354.6281
1053.433, 349.1340
1053.915, 344.7319
1054.397, 341.3140
1054.879, 339.3225
1055.361, 339.8461
1055.844, 342.6476
1056.326, 345.0466
1056.808, 347.0575
1057.290, 348.0656
1057.772, 347.9444
1058.254, 349.5242
1058.736, 354.5648
1059.218, 358.5983
1059.701, 354.5451
1060.183, 345.6997
1060.665, 343.1098
1061.147, 346.0153
1061.629, 352.2725
1062.111, 360.5635
1062.593, 362.6073
1063.075, 355.4620
1063.557, 347.3670
1064.040, 346.7733
1064.522, 333.9761
1065.004, 348.8223
1065.486, 357.1115
1065.968, 359.1959
1066.450, 336.4916
1066.932, 345.7967
1067.414, 342.2740
1067.896, 338.2251
1068.379, 352.0352
1068.861, 332.9364
1069.343, 346.4634
1069.825, 346.9669
1070.307, 353.4309
1070.789, 346.9878
1071.271, 344.5312
1071.753, 354.9860
1072.236, 355.2859
1072.718, 358.1495
1073.200, 358.0208
1073.682, 354.4375
1074.164, 350.6945
1074.646, 349.7608
1075.128, 350.1111
1075.610, 349.7527
1076.093, 348.9287
1076.575, 349.6259
1077.057, 352.5052
1077.539, 352.3736
1078.021, 344.1021
1078.503, 336.1303
1078.985, 330.5663
1079.467, 328.4562
1079.949, 333.6014
1080.432, 341.2268
1080.914, 341.7716
1081.396, 334.8878
1081.878, 334.9520
1082.360, 354.5490
1082.842, 365.8949
1083.324, 358.5933
1083.806, 349.6397
1084.288, 345.8517
1084.771, 344.8318
1085.253, 344.2232
1085.735, 344.0515
1086.217, 344.8666
1086.699, 348.8817
1087.181, 347.5212
1087.663, 335.9409
1088.145, 329.0871
1088.628, 332.7945
1089.110, 338.5222
1089.592, 340.0314
1090.074, 339.3863
1090.556, 341.5829
1091.038, 346.8885
1091.520, 346.4863
1092.002, 339.0144
1092.484, 334.9501
1092.967, 336.4417
1093.449, 338.4160
1093.931, 338.4494
1094.413, 336.8137
1094.895, 333.2785
1095.377, 329.0554
1095.859, 329.0298
1096.341, 332.7044
1096.823, 337.4077
1097.306, 342.3701
1097.788, 342.5154
1098.270, 336.5281
1098.752, 330.1344
1099.234, 327.7469
1099.716, 328.0374
1100.198, 330.1243
1100.680, 332.7860
1101.163, 332.5449
1101.645, 330.9971
1102.127, 333.3299
1102.609, 339.1981
1103.091, 342.6206
1103.573, 340.5969
1104.055, 339.0203
1104.537, 345.2004
1105.020, 351.4056
1105.502, 349.9692
1105.984, 344.8274
1106.466, 339.8467
1106.948, 335.6404
1107.430, 331.3436
1107.912, 327.0721
1108.394, 327.3011
1108.876, 339.3219
1109.359, 347.8700
1109.841, 344.0467
1110.323, 338.6342
1110.805, 338.8168
1111.287, 340.7131
1111.769, 339.3383
1112.251, 334.9012
1112.733, 329.7762
1113.215, 321.3040
1113.698, 319.4874
1114.180, 330.5670
1114.662, 338.8395
1115.144, 341.2710
1115.626, 338.9390
1116.108, 329.1312
1116.590, 318.6732
1117.072, 322.0476
1117.555, 339.3699
1118.037, 344.7217
1118.519, 335.6576
1119.001, 327.7301
1119.483, 322.2776
1119.965, 321.3656
1120.447, 326.1689
1120.929, 334.0291
1121.411, 342.6751
1121.894, 351.1277
1122.376, 358.5003
1122.858, 363.4012
1123.340, 354.4614
1123.822, 335.1325
1124.304, 327.9064
1124.786, 336.0298
1125.268, 340.5706
1125.750, 330.4045
1126.233, 318.9380
1126.715, 323.6143
1127.197, 333.9803
1127.679, 336.5424
1128.161, 334.1303
1128.643, 329.5593
1129.125, 324.7575
1129.607, 323.3729
1130.090, 325.9839
1130.572, 328.1858
1131.054, 327.4889
1131.536, 326.3626
1132.018, 325.3827
1132.500, 325.1953
1132.982, 328.1437
1133.464, 330.7543
1133.947, 326.3409
1134.429, 317.6794
1134.911, 317.6010
1135.393, 332.0393
1135.875, 339.8832
1136.357, 334.4618
1136.839, 329.6182
1137.321, 326.7891
1137.803, 326.5433
1138.286, 331.0168
1138.768, 336.0635
1139.250, 335.1944
1139.732, 329.1249
1140.214, 324.3315
1140.696, 320.6853
1141.178, 319.8210
1141.660, 322.2357
1142.142, 322.8287
1142.625, 319.9123
1143.107, 315.3774
1143.589, 310.1648
1144.071, 306.9383
1144.553, 311.8038
1145.035, 321.9088
1145.517, 329.6771
1145.999, 334.9164
1146.482, 337.1602
1146.964, 336.6244
1147.446, 333.1024
1147.928, 326.9517
1148.410, 323.9631
1148.892, 331.0182
1149.374, 338.5051
1149.856, 337.9345
1150.339, 333.5887
1150.821, 327.9737
1151.303, 322.5554
1151.785, 317.9877
1152.267, 315.0894
1152.749, 316.9679
1153.231, 326.7589
1153.713, 331.7325
1154.195, 323.8566
1154.677, 317.9607
1155.160, 320.9566
1155.642, 324.5124
1156.124, 323.0246
1156.606, 319.3815
1157.088, 317.8302
1157.570, 318.1317
1158.052, 317.1738
1158.534, 314.1212
1159.017, 313.8451
1159.499, 316.9604
1159.981, 320.8594
1160.463, 324.9542
1160.945, 328.1354
1161.427, 329.5882
1161.909, 329.8539
1162.391, 329.2211
1162.874, 328.4114
1163.356, 331.2425
1163.838, 335.7641
1164.320, 334.5130
1164.802, 328.3956
1165.284, 324.4763
1165.766, 324.8539
1166.248, 326.2668
1166.730, 327.7970
1167.213, 326.3983
1167.695, 315.0328
1168.177, 304.3234
1168.659, 303.8306
1169.141, 309.6932
1169.623, 318.0319
1170.105, 327.5692
1170.587, 338.6874
1171.069, 353.0375
1171.552, 355.3774
1172.034, 327.3303
1172.516, 311.6985
1172.998, 324.4775
1173.480, 336.9278
1173.962, 336.4911
1174.444, 330.8261
1174.926, 326.5251
1175.409, 324.5404
1175.891, 330.5027
1176.373, 345.9229
1176.855, 345.4665
1177.337, 328.6965
1177.819, 314.4828
1178.301, 306.4691
1178.783, 306.8488
1179.266, 316.7047
1179.748, 326.4595
1180.230, 324.9819
1180.712, 319.1158
1181.194, 320.3053
1181.676, 324.6046
1182.158, 325.3297
1182.640, 323.6366
1183.122, 322.8700
1183.604, 323.3215
1184.087, 323.1275
1184.569, 321.3773
1185.051, 320.7910
1185.533, 323.1064
1186.015, 326.1672
1186.497, 331.4789
1186.979, 334.6601
1187.461, 330.4444
1187.944, 323.7221
1188.426, 322.2592
1188.908, 324.8275
1189.390, 323.2043
1189.872, 314.4837
1190.354, 312.7384
1190.836, 320.3466
1191.318, 323.9868
1191.801, 320.2439
1192.283, 315.5006
1192.765, 313.1852
1193.247, 313.1718
1193.729, 315.6647
1194.211, 319.7763
1194.693, 324.6900
1195.175, 328.9919
1195.657, 328.0151
1196.140, 323.2214
1196.622, 318.8638
1197.104, 316.0507
1197.586, 314.7010
1198.068, 314.8430
1198.550, 315.7645
1199.032, 317.0021
1199.514, 318.9167
1199.996, 322.1151
1200.479, 325.6653
1200.961, 330.6017
1201.443, 334.3451
1201.925, 332.2161
1202.407, 324.9719
1202.889, 320.0856
1203.371, 318.9049
1203.853, 315.1481
1204.336, 305.7779
1204.818, 305.0652
1205.300, 318.4114
1205.782, 328.9031
1206.264, 327.3404
1206.746, 319.6972
1207.228, 312.2646
1207.710, 305.5004
1208.193, 299.1010
1208.675, 294.7878
1209.157, 301.0151
1209.639, 313.1194
1210.121, 315.2726
1210.603, 307.7633
1211.085, 305.6961
1211.567, 315.2447
1212.049, 321.0624
1212.531, 306.2210
1213.014, 295.3323
1213.496, 308.3323
1213.978, 322.1740
1214.460, 317.3243
1214.942, 306.6069
1215.424, 307.1725
1215.906, 316.3949
1216.388, 322.2703
1216.871, 324.1593
1217.353, 327.0438
1217.835, 332.2878
1218.317, 331.7373
1218.799, 323.0742
1219.281, 317.5081
1219.763, 319.9340
1220.245, 323.0685
1220.728, 319.8683
1221.210, 315.0373
1221.692, 317.7296
1222.174, 324.3114
1222.656, 329.1280
1223.138, 331.0087
1223.620, 326.3586
1224.102, 317.2780
1224.584, 309.1889
1225.067, 303.8687
1225.549, 303.0135
1226.031, 310.2952
1226.513, 316.3745
1226.995, 315.8566
1227.477, 316.4353
1227.959, 326.8842
1228.441, 333.7201
1228.923, 323.0735
1229.406, 306.0550
1229.888, 302.1452
##END=



