##NAMES=Mannardite
##RRUFFID=R080136
##IDEAL CHEMISTRY=Ba(Ti^4+^_6_V^3+^_2_)O_16_
##LOCALITY=Corinto area, Minas Gerais, Brazil
##OWNER=RRUFF
##SOURCE=Luiz Menezes
##DESCRIPTION=Black prismatic inclusion in quartz
##STATUS=The identification of this mineral is confirmed by single-crystal X-ray diffraction and chemical analysis.
##URL=rruff.info/R080136
##MEASURED CHEMISTRY=Ba_1.02_(Ti^4+^_5.97_V^3+^_1.82_Cr^3+^_0.20_)O_16_
93.78320, 283.8214
94.26532, 283.4869
94.74744, 284.6424
95.22955, 286.5837
95.71167, 289.0682
96.19379, 290.1615
96.67590, 290.4516
97.15802, 289.9012
97.64014, 287.8111
98.12225, 284.9839
98.60437, 282.9741
99.08649, 282.6949
99.56860, 283.0575
100.0507, 282.3241
100.5328, 279.9221
101.0150, 277.0751
101.4971, 274.4699
101.9792, 272.0706
102.4613, 270.3617
102.9434, 270.0654
103.4255, 270.2191
103.9077, 270.1971
104.3898, 269.8177
104.8719, 269.1637
105.3540, 268.3462
105.8361, 267.0931
106.3182, 266.1127
106.8004, 265.6547
107.2825, 265.4653
107.7646, 265.2518
108.2467, 264.8433
108.7288, 264.2309
109.2109, 263.3505
109.6931, 261.4067
110.1752, 259.9622
110.6573, 259.6021
111.1394, 260.1331
111.6215, 260.9944
112.1036, 261.7271
112.5858, 262.3172
113.0679, 262.7793
113.5500, 263.4182
114.0321, 263.7434
114.5142, 263.0585
114.9964, 261.2585
115.4785, 259.5270
115.9606, 259.6057
116.4427, 261.3771
116.9248, 262.6098
117.4069, 262.2982
117.8891, 261.1262
118.3712, 260.5901
118.8533, 261.3024
119.3354, 262.2026
119.8175, 262.1418
120.2996, 261.2108
120.7818, 260.3735
121.2639, 260.4615
121.7460, 261.5141
122.2281, 262.3854
122.7102, 262.8031
123.1923, 263.0124
123.6745, 263.0984
124.1566, 263.0810
124.6387, 262.9622
125.1208, 262.7179
125.6029, 262.2354
126.0850, 261.8654
126.5672, 261.8625
127.0493, 261.8432
127.5314, 261.2986
128.0135, 260.0512
128.4956, 258.5797
128.9777, 258.2263
129.4599, 260.5341
129.9420, 262.3236
130.4241, 263.1711
130.9062, 263.3973
131.3883, 263.5528
131.8705, 263.9877
132.3526, 264.5257
132.8347, 264.1648
133.3168, 261.8586
133.7989, 259.9007
134.2810, 259.4574
134.7632, 260.3192
135.2453, 261.3100
135.7274, 261.5909
136.2095, 261.4413
136.6916, 261.8561
137.1737, 263.4735
137.6559, 265.3210
138.1380, 266.3621
138.6201, 266.4728
139.1022, 266.3578
139.5843, 266.3363
140.0664, 266.4064
140.5486, 266.5971
141.0307, 266.9750
141.5128, 267.4748
141.9949, 267.9305
142.4770, 268.4724
142.9591, 268.7403
143.4413, 268.4207
143.9234, 267.7625
144.4055, 267.2058
144.8876, 267.0527
145.3697, 267.3036
145.8518, 267.7580
146.3340, 268.6096
146.8161, 269.5091
147.2982, 270.4518
147.7803, 271.3722
148.2624, 272.1667
148.7445, 272.7729
149.2267, 273.2742
149.7088, 273.1245
150.1909, 271.6067
150.6730, 270.1499
151.1551, 269.6674
151.6372, 270.2231
152.1194, 271.1525
152.6015, 271.6532
153.0836, 271.5284
153.5657, 271.4075
154.0478, 271.1373
154.5299, 270.9417
155.0121, 271.1515
155.4942, 271.8778
155.9763, 272.7083
156.4584, 273.0309
156.9405, 272.8841
157.4227, 272.3967
157.9048, 271.3726
158.3869, 270.0377
158.8690, 268.9113
159.3511, 268.2352
159.8332, 267.6239
160.3154, 266.5170
160.7975, 264.8957
161.2796, 263.4004
161.7617, 262.6446
162.2438, 262.5422
162.7259, 262.0146
163.2081, 260.5183
163.6902, 258.7106
164.1723, 256.9711
164.6544, 255.3307
165.1365, 253.9642
165.6186, 253.1644
166.1008, 253.1044
166.5829, 252.8481
167.0650, 252.2412
167.5471, 251.4006
168.0292, 250.2413
168.5113, 248.7778
168.9935, 247.3262
169.4756, 246.5150
169.9577, 247.0318
170.4398, 246.8361
170.9219, 245.1930
171.4040, 243.2139
171.8862, 241.8568
172.3683, 241.4680
172.8504, 241.6583
173.3325, 241.5027
173.8146, 240.6958
174.2967, 239.8631
174.7789, 238.9501
175.2610, 238.0416
175.7431, 237.2280
176.2252, 236.5408
176.7073, 235.9823
177.1894, 235.5769
177.6716, 235.4846
178.1537, 235.3293
178.6358, 235.0479
179.1179, 234.6542
179.6000, 234.1597
180.0821, 233.5592
180.5643, 232.8765
181.0464, 232.1883
181.5285, 231.4684
182.0106, 230.7719
182.4927, 230.0517
182.9749, 229.3474
183.4570, 228.8741
183.9391, 228.8921
184.4212, 229.1098
184.9033, 228.8645
185.3854, 227.8222
185.8676, 226.8526
186.3497, 226.7634
186.8318, 227.5779
187.3139, 228.4657
187.7960, 229.3821
188.2781, 230.0047
188.7603, 229.8403
189.2424, 228.5683
189.7245, 226.9912
190.2066, 226.2196
190.6887, 226.4926
191.1708, 226.7026
191.6530, 226.3514
192.1351, 225.8092
192.6172, 225.3656
193.0993, 225.1198
193.5814, 225.0326
194.0635, 225.0835
194.5457, 225.4812
195.0278, 225.5761
195.5099, 224.9692
195.9920, 224.1629
196.4741, 223.6462
196.9562, 223.6407
197.4384, 224.0123
197.9205, 224.3881
198.4026, 224.8301
198.8847, 225.1797
199.3668, 225.6468
199.8489, 225.9449
200.3311, 225.5707
200.8132, 224.2410
201.2953, 222.3716
201.7774, 221.6237
202.2595, 223.4460
202.7416, 224.8477
203.2238, 225.4220
203.7059, 225.4261
204.1880, 225.1658
204.6701, 224.7706
205.1522, 224.3466
205.6344, 224.3980
206.1165, 225.7549
206.5986, 226.5942
207.0807, 226.1040
207.5628, 224.8487
208.0449, 223.9001
208.5271, 223.8479
209.0092, 224.4648
209.4913, 224.8176
209.9734, 224.7136
210.4555, 224.6377
210.9376, 224.9894
211.4198, 225.5410
211.9019, 225.5756
212.3840, 224.5447
212.8661, 222.9251
213.3482, 222.0749
213.8303, 222.3360
214.3125, 222.7446
214.7946, 222.7247
215.2767, 222.3642
215.7588, 222.1509
216.2409, 222.3598
216.7230, 222.8118
217.2052, 223.1411
217.6873, 223.2977
218.1694, 223.4270
218.6515, 223.7160
219.1336, 224.1525
219.6157, 224.3748
220.0979, 224.1768
220.5800, 223.7174
221.0621, 223.0905
221.5442, 222.2260
222.0263, 221.5221
222.5084, 221.4884
222.9906, 222.1958
223.4727, 222.7902
223.9548, 222.8466
224.4369, 222.7800
224.9190, 222.9428
225.4011, 223.4134
225.8833, 223.8717
226.3654, 223.8759
226.8475, 223.3073
227.3296, 222.8545
227.8117, 222.7621
228.2938, 222.7657
228.7760, 222.7708
229.2581, 222.7439
229.7402, 222.5953
230.2223, 222.0927
230.7044, 220.9739
231.1866, 220.3538
231.6687, 220.9022
232.1508, 221.5602
232.6329, 221.5710
233.1150, 220.8412
233.5971, 219.9388
234.0793, 219.6851
234.5614, 220.3774
235.0435, 221.0117
235.5256, 221.8165
236.0077, 222.3920
236.4898, 222.2974
236.9720, 221.5527
237.4541, 220.7003
237.9362, 220.5478
238.4183, 221.6398
238.9004, 222.0877
239.3825, 221.3050
239.8647, 220.4339
240.3468, 220.3030
240.8289, 220.9669
241.3110, 221.8075
241.7931, 222.0227
242.2752, 221.2202
242.7574, 220.9299
243.2395, 221.6569
243.7216, 222.4375
244.2037, 222.6424
244.6858, 222.2097
245.1679, 221.4806
245.6501, 220.7900
246.1322, 220.0856
246.6143, 219.7297
247.0964, 219.9706
247.5785, 220.3320
248.0606, 220.4773
248.5428, 220.3922
249.0249, 220.3139
249.5070, 220.5042
249.9891, 221.0307
250.4712, 221.2780
250.9533, 221.2608
251.4355, 220.9799
251.9176, 220.2716
252.3997, 219.1971
252.8818, 218.1800
253.3639, 217.5331
253.8460, 217.3063
254.3282, 217.4387
254.8103, 218.4679
255.2924, 219.4264
255.7745, 219.4786
256.2566, 218.6870
256.7387, 217.9054
257.2209, 217.7355
257.7030, 218.1292
258.1851, 218.4677
258.6672, 218.6676
259.1493, 218.8767
259.6314, 219.3753
260.1136, 220.0951
260.5957, 220.3851
261.0778, 219.6380
261.5599, 218.2205
262.0420, 217.3505
262.5241, 217.3040
263.0063, 217.4888
263.4884, 217.5508
263.9705, 217.4969
264.4526, 217.3642
264.9347, 217.0556
265.4168, 216.7646
265.8990, 216.8526
266.3811, 217.4952
266.8632, 218.1483
267.3453, 218.4497
267.8275, 218.4229
268.3096, 218.2434
268.7917, 217.9782
269.2738, 217.5630
269.7559, 216.8395
270.2380, 215.7056
270.7202, 214.8145
271.2023, 214.7463
271.6844, 215.3906
272.1665, 216.0313
272.6486, 216.6503
273.1307, 216.9990
273.6129, 216.8302
274.0950, 216.1478
274.5771, 215.3761
275.0592, 214.6140
275.5413, 213.9276
276.0234, 213.7769
276.5056, 214.5871
276.9877, 215.4858
277.4698, 215.8506
277.9519, 215.7291
278.4340, 215.3725
278.9161, 214.6550
279.3983, 213.7520
279.8804, 213.4976
280.3625, 214.2286
280.8446, 215.1914
281.3267, 216.1351
281.8088, 216.9466
282.2910, 217.3422
282.7731, 216.9872
283.2552, 216.1033
283.7373, 215.4404
284.2194, 215.1252
284.7015, 214.7956
285.1837, 214.2285
285.6658, 213.5449
286.1479, 212.8918
286.6300, 212.2604
287.1121, 211.7771
287.5942, 211.7836
288.0764, 212.4553
288.5585, 213.2201
289.0406, 214.2400
289.5227, 215.0930
290.0048, 215.1582
290.4869, 214.0801
290.9691, 212.6288
291.4512, 212.2652
291.9333, 213.4563
292.4154, 214.2488
292.8975, 213.6483
293.3796, 212.7436
293.8618, 212.4323
294.3439, 212.9419
294.8260, 213.6501
295.3081, 213.6906
295.7902, 212.8919
296.2723, 212.2420
296.7545, 212.0974
297.2366, 212.0075
297.7187, 211.6203
298.2008, 210.9490
298.6829, 210.3919
299.1650, 210.4660
299.6472, 211.2598
300.1293, 211.8300
300.6114, 211.8310
301.0935, 211.8506
301.5756, 212.4062
302.0577, 213.2761
302.5399, 213.7079
303.0220, 212.8446
303.5041, 210.7740
303.9862, 209.4675
304.4683, 209.3663
304.9504, 209.6023
305.4326, 210.1393
305.9147, 210.7452
306.3968, 210.9975
306.8789, 210.5356
307.3610, 209.5873
307.8431, 209.1476
308.3253, 209.4383
308.8074, 209.9394
309.2895, 210.7197
309.7716, 211.5225
310.2537, 212.0114
310.7358, 212.0240
311.2180, 211.7380
311.7001, 211.6214
312.1822, 212.0078
312.6643, 211.7772
313.1464, 209.8520
313.6285, 207.8018
314.1107, 206.9719
314.5928, 207.7112
315.0749, 209.2247
315.5570, 210.5623
316.0392, 211.8824
316.5213, 212.4178
317.0034, 210.9648
317.4855, 209.5725
317.9676, 209.5696
318.4497, 210.9342
318.9319, 212.5483
319.4140, 213.3569
319.8961, 213.3121
320.3782, 212.9352
320.8603, 211.6710
321.3424, 210.5970
321.8246, 210.1774
322.3067, 210.2903
322.7888, 210.5842
323.2709, 210.8596
323.7530, 211.1041
324.2351, 211.2183
324.7173, 211.1884
325.1994, 211.0280
325.6815, 210.4519
326.1636, 209.8363
326.6457, 209.7299
327.1278, 210.4500
327.6100, 211.7030
328.0921, 212.9037
328.5742, 214.3814
329.0563, 215.0321
329.5384, 213.8047
330.0205, 212.1826
330.5027, 211.6169
330.9848, 212.5144
331.4669, 213.7771
331.9490, 213.6947
332.4311, 211.8264
332.9132, 210.5565
333.3954, 210.7588
333.8775, 211.2803
334.3596, 211.5276
334.8417, 211.4679
335.3238, 211.4249
335.8059, 211.8093
336.2881, 212.6337
336.7702, 213.0697
337.2523, 212.7896
337.7344, 212.4469
338.2165, 212.3572
338.6986, 212.4424
339.1808, 212.4708
339.6629, 212.1834
340.1450, 211.7613
340.6271, 211.9410
341.1092, 213.0250
341.5913, 214.1387
342.0735, 215.2467
342.5556, 216.0922
343.0377, 216.2568
343.5198, 215.4745
344.0019, 214.2894
344.4840, 213.4878
344.9662, 213.0457
345.4483, 213.0648
345.9304, 214.4152
346.4125, 215.7540
346.8946, 215.8805
347.3767, 214.6199
347.8589, 213.2705
348.3410, 213.2323
348.8231, 214.4647
349.3052, 215.3506
349.7873, 215.5941
350.2694, 215.4928
350.7516, 215.0578
351.2337, 214.4172
351.7158, 214.0787
352.1979, 214.5782
352.6800, 215.6291
353.1621, 216.2842
353.6443, 216.4587
354.1264, 216.3877
354.6085, 215.9194
355.0906, 215.3568
355.5727, 215.2464
356.0548, 215.9957
356.5370, 217.0005
357.0191, 217.3853
357.5012, 217.0872
357.9833, 216.8704
358.4654, 217.2011
358.9475, 217.6836
359.4297, 217.7499
359.9118, 217.2287
360.3939, 216.8782
360.8760, 217.3997
361.3581, 218.6284
361.8402, 219.7779
362.3224, 220.7649
362.8045, 221.4474
363.2866, 221.5888
363.7687, 221.2453
364.2508, 220.9055
364.7329, 220.9000
365.2151, 220.9746
365.6972, 220.5571
366.1793, 219.4870
366.6614, 218.6108
367.1436, 218.7455
367.6257, 219.5991
368.1078, 220.2569
368.5899, 220.5020
369.0720, 220.6010
369.5541, 220.7407
370.0363, 220.9180
370.5184, 221.0826
371.0005, 221.1445
371.4826, 221.2501
371.9647, 221.8066
372.4468, 223.1511
372.9290, 224.0603
373.4111, 223.5957
373.8932, 222.4572
374.3753, 222.0279
374.8574, 222.7346
375.3395, 223.7760
375.8217, 224.1588
376.3038, 223.8226
376.7859, 223.3286
377.2680, 222.1890
377.7501, 221.2756
378.2322, 221.5740
378.7144, 223.0085
379.1965, 224.5187
379.6786, 225.3854
380.1607, 225.6131
380.6428, 225.4843
381.1249, 224.6631
381.6071, 223.9129
382.0892, 223.4666
382.5713, 223.2844
383.0534, 223.2824
383.5355, 223.4268
384.0176, 223.7183
384.4998, 224.1756
384.9819, 225.0896
385.4640, 225.6835
385.9461, 225.8993
386.4282, 225.8139
386.9103, 225.2746
387.3925, 224.3744
387.8746, 223.6554
388.3567, 223.7658
388.8388, 224.8789
389.3209, 225.5642
389.8030, 225.4712
390.2852, 225.3862
390.7673, 225.7005
391.2494, 226.2464
391.7315, 226.6821
392.2136, 226.8162
392.6957, 226.6529
393.1779, 226.1676
393.6600, 224.6877
394.1421, 223.8704
394.6242, 224.4911
395.1063, 225.4300
395.5884, 225.4382
396.0706, 224.3103
396.5527, 223.1342
397.0348, 223.5948
397.5169, 226.3778
397.9990, 228.0430
398.4811, 227.8225
398.9633, 227.1270
399.4454, 226.1454
399.9275, 225.1213
400.4096, 224.4785
400.8917, 224.5965
401.3738, 225.2814
401.8560, 225.7220
402.3381, 225.9359
402.8202, 225.8487
403.3023, 225.0786
403.7844, 224.2065
404.2665, 223.9401
404.7487, 224.5265
405.2308, 225.2744
405.7129, 225.2134
406.1950, 224.2819
406.6771, 223.7150
407.1592, 223.9545
407.6414, 224.4064
408.1235, 224.7434
408.6056, 224.9346
409.0877, 224.8923
409.5698, 224.3529
410.0519, 223.5739
410.5341, 223.2378
411.0162, 223.4879
411.4983, 223.6852
411.9804, 223.2799
412.4625, 222.6026
412.9446, 222.2332
413.4268, 222.4294
413.9089, 222.6669
414.3910, 222.4057
414.8731, 221.7774
415.3553, 221.4823
415.8374, 221.8898
416.3195, 222.4783
416.8016, 222.4084
417.2837, 221.6644
417.7658, 220.9813
418.2480, 220.5550
418.7301, 220.2902
419.2122, 220.1153
419.6943, 220.0146
420.1764, 219.9197
420.6585, 219.8350
421.1407, 219.7168
421.6228, 219.2190
422.1049, 217.4524
422.5870, 216.2996
423.0691, 217.1291
423.5512, 218.9817
424.0334, 220.0390
424.5155, 219.5508
424.9976, 218.2658
425.4797, 217.5732
425.9618, 217.8396
426.4439, 218.0156
426.9261, 218.3052
427.4082, 218.3580
427.8903, 217.7470
428.3724, 216.5919
428.8545, 215.4810
429.3366, 214.9090
429.8188, 214.8477
430.3009, 214.7145
430.7830, 214.5012
431.2651, 214.2171
431.7472, 213.7306
432.2293, 213.2250
432.7115, 213.0208
433.1936, 213.2206
433.6757, 213.4436
434.1578, 212.9110
434.6399, 211.2126
435.1220, 210.2107
435.6042, 210.7878
436.0863, 211.4694
436.5684, 211.6214
437.0505, 211.2599
437.5326, 210.6537
438.0147, 209.8994
438.4969, 209.0657
438.9790, 208.4061
439.4611, 207.9638
439.9432, 207.5898
440.4253, 207.1379
440.9074, 206.7587
441.3896, 206.6668
441.8717, 206.9455
442.3538, 207.2898
442.8359, 207.5171
443.3180, 207.6078
443.8001, 207.3589
444.2823, 206.5500
444.7644, 205.7295
445.2465, 205.6331
445.7286, 206.0658
446.2107, 206.1096
446.6928, 205.0602
447.1750, 203.8141
447.6571, 203.4292
448.1392, 203.8245
448.6213, 204.0359
449.1034, 203.4808
449.5855, 202.4727
450.0677, 201.9095
450.5498, 201.9766
451.0319, 202.0016
451.5140, 201.7019
451.9961, 201.3202
452.4782, 201.2096
452.9604, 201.4179
453.4425, 201.6578
453.9246, 201.6530
454.4067, 201.3984
454.8888, 200.9195
455.3709, 199.9348
455.8531, 199.0752
456.3352, 198.6130
456.8173, 198.4245
457.2994, 198.2553
457.7815, 197.9882
458.2636, 197.7543
458.7458, 197.8977
459.2279, 198.8749
459.7100, 199.2542
460.1921, 198.5959
460.6742, 197.7490
461.1563, 197.1165
461.6385, 196.7437
462.1206, 196.5699
462.6027, 196.6379
463.0848, 196.8463
463.5669, 196.5805
464.0491, 195.4316
464.5312, 194.6485
465.0133, 195.0167
465.4954, 195.7487
465.9775, 196.0050
466.4597, 195.5665
466.9418, 195.0451
467.4239, 195.0145
467.9060, 195.4177
468.3881, 195.9746
468.8702, 196.9183
469.3524, 197.4751
469.8345, 196.5820
470.3166, 194.7271
470.7987, 193.3184
471.2808, 193.0186
471.7629, 193.0669
472.2451, 192.7871
472.7272, 192.2514
473.2093, 191.7864
473.6914, 191.4695
474.1735, 191.4043
474.6556, 191.9459
475.1378, 193.4079
475.6199, 194.3327
476.1020, 194.1395
476.5841, 193.5702
477.0662, 193.3378
477.5483, 193.4378
478.0305, 193.2986
478.5126, 192.3983
478.9947, 190.8940
479.4768, 190.2149
479.9589, 191.1362
480.4410, 191.9411
480.9232, 192.4660
481.4053, 192.7419
481.8874, 192.7862
482.3695, 192.6150
482.8516, 192.2730
483.3337, 191.7605
483.8159, 191.0324
484.2980, 190.5264
484.7801, 190.5077
485.2622, 190.4159
485.7443, 189.6842
486.2264, 188.8420
486.7086, 188.9097
487.1907, 190.5216
487.6728, 192.4405
488.1549, 192.6570
488.6370, 191.0424
489.1191, 189.8116
489.6013, 189.5042
490.0834, 189.6952
490.5655, 190.1773
491.0476, 190.8685
491.5297, 191.1868
492.0118, 190.5267
492.4940, 189.5777
492.9761, 189.3351
493.4582, 189.7761
493.9403, 190.0193
494.4224, 189.4764
494.9045, 188.5758
495.3867, 188.4537
495.8688, 189.3280
496.3509, 190.2546
496.8330, 191.3332
497.3151, 192.1769
497.7972, 192.2463
498.2794, 191.5529
498.7615, 190.6148
499.2436, 189.8291
499.7257, 189.2044
500.2078, 188.8653
500.6899, 189.1693
501.1721, 189.3250
501.6542, 188.8834
502.1363, 188.3915
502.6184, 188.5854
503.1005, 189.5932
503.5826, 190.7366
504.0648, 191.2069
504.5469, 190.9705
505.0290, 190.3921
505.5111, 189.1961
505.9932, 187.9864
506.4753, 186.7329
506.9575, 185.6916
507.4396, 185.3354
507.9217, 185.9568
508.4038, 186.9114
508.8859, 187.4317
509.3680, 187.5383
509.8502, 187.5643
510.3323, 187.4744
510.8144, 187.4953
511.2965, 188.0206
511.7786, 188.9280
512.2607, 189.5232
512.7429, 189.4753
513.2250, 189.1724
513.7071, 188.7874
514.1892, 188.4011
514.6713, 188.3864
515.1534, 189.0051
515.6356, 189.8022
516.1177, 189.8528
516.5998, 188.7331
517.0819, 187.7885
517.5640, 186.8396
518.0461, 186.2525
518.5283, 186.5774
519.0104, 187.5362
519.4925, 188.2324
519.9746, 188.0419
520.4567, 187.2407
520.9388, 186.8802
521.4210, 187.3042
521.9031, 187.5264
522.3852, 187.3856
522.8673, 187.0642
523.3494, 186.5733
523.8315, 185.9868
524.3137, 185.5557
524.7958, 185.6064
525.2779, 185.9491
525.7600, 185.8028
526.2421, 184.9533
526.7242, 184.4303
527.2064, 185.0136
527.6885, 186.0036
528.1706, 186.4608
528.6527, 186.2139
529.1348, 186.0358
529.6169, 186.6198
530.0991, 187.4220
530.5812, 187.3616
531.0633, 186.3254
531.5454, 185.4259
532.0275, 185.6071
532.5096, 186.6312
532.9918, 186.8247
533.4739, 185.2185
533.9560, 184.1597
534.4381, 184.5402
534.9202, 185.4857
535.4023, 186.1760
535.8845, 186.3925
536.3666, 186.1711
536.8487, 185.4552
537.3308, 184.2456
537.8129, 183.5072
538.2951, 183.5011
538.7772, 183.6574
539.2593, 183.8450
539.7415, 184.1164
540.2236, 184.6142
540.7057, 185.3599
541.1878, 186.0301
541.6699, 186.1837
542.1520, 185.9171
542.6342, 186.0020
543.1163, 186.7268
543.5984, 187.2175
544.0805, 186.4535
544.5626, 185.1535
545.0447, 184.7434
545.5269, 185.8834
546.0090, 187.0288
546.4911, 187.2879
546.9732, 186.9294
547.4553, 186.3655
547.9374, 185.6796
548.4196, 185.0995
548.9017, 184.8631
549.3838, 184.9780
549.8659, 185.0523
550.3480, 185.2899
550.8301, 185.2563
551.3123, 184.3326
551.7944, 183.2951
552.2765, 183.3209
552.7586, 184.6126
553.2407, 186.0525
553.7228, 186.1397
554.2050, 184.7584
554.6871, 184.1892
555.1692, 185.0007
555.6513, 185.8426
556.1334, 186.3678
556.6155, 186.5795
557.0977, 186.3206
557.5798, 185.4546
558.0619, 184.8488
558.5440, 185.7279
559.0261, 187.5747
559.5082, 188.3132
559.9904, 187.4534
560.4725, 186.4229
560.9546, 186.3646
561.4367, 187.0756
561.9188, 187.3955
562.4009, 186.9197
562.8831, 186.5482
563.3652, 186.8256
563.8473, 187.3204
564.3294, 187.3494
564.8115, 186.8084
565.2936, 186.2213
565.7758, 186.1284
566.2579, 186.5317
566.7400, 186.8049
567.2221, 186.8797
567.7042, 186.8968
568.1863, 186.8781
568.6685, 186.8134
569.1506, 186.5851
569.6327, 186.2131
570.1148, 186.0410
570.5969, 186.6077
571.0790, 187.7447
571.5612, 188.3795
572.0433, 188.4377
572.5254, 188.1498
573.0075, 187.2527
573.4896, 186.2468
573.9717, 185.9748
574.4539, 186.7521
574.9360, 187.3625
575.4181, 187.0507
575.9002, 186.3140
576.3823, 185.7109
576.8644, 185.3456
577.3466, 185.4424
577.8287, 186.2554
578.3108, 187.5886
578.7929, 188.4747
579.2750, 188.6479
579.7571, 188.7010
580.2393, 188.4134
580.7214, 188.1962
581.2035, 188.6028
581.6856, 189.4677
582.1677, 189.9622
582.6498, 189.3511
583.1320, 188.0102
583.6141, 187.2566
584.0962, 187.2101
584.5783, 187.3301
585.0604, 187.4999
585.5425, 187.7665
586.0247, 188.2902
586.5068, 189.0314
586.9889, 189.5032
587.4710, 189.2533
587.9531, 188.7855
588.4352, 188.6526
588.9174, 188.8403
589.3995, 189.2414
589.8816, 189.8843
590.3637, 190.4902
590.8458, 190.5169
591.3279, 189.5677
591.8101, 189.1849
592.2922, 189.8526
592.7743, 190.5963
593.2564, 190.8667
593.7385, 190.8295
594.2206, 190.9503
594.7028, 191.4448
595.1849, 191.9124
595.6670, 191.5481
596.1491, 190.1887
596.6312, 189.2241
597.1133, 188.9290
597.5955, 188.8024
598.0776, 188.4440
598.5597, 188.0648
599.0418, 188.1120
599.5239, 188.8524
600.0060, 189.7028
600.4882, 190.2395
600.9703, 190.5305
601.4524, 190.8018
601.9345, 191.1067
602.4166, 191.1202
602.8987, 190.4192
603.3809, 189.0919
603.8630, 188.5089
604.3451, 189.2344
604.8272, 189.8645
605.3093, 189.8187
605.7914, 189.7556
606.2736, 190.6425
606.7557, 192.3752
607.2378, 193.6803
607.7199, 193.3136
608.2020, 191.6905
608.6841, 190.9951
609.1663, 191.7021
609.6484, 191.9575
610.1305, 190.5137
610.6126, 188.8979
611.0947, 188.5682
611.5768, 189.5179
612.0590, 190.3833
612.5411, 190.7789
613.0232, 190.6684
613.5053, 189.6443
613.9874, 187.9670
614.4695, 186.8349
614.9517, 186.7750
615.4338, 187.3395
615.9159, 187.8244
616.3980, 188.2176
616.8801, 188.5566
617.3622, 188.7181
617.8444, 188.9637
618.3265, 189.6964
618.8086, 190.4945
619.2907, 190.5539
619.7728, 189.5995
620.2549, 188.4771
620.7371, 188.4357
621.2192, 189.4144
621.7013, 189.8144
622.1834, 189.3695
622.6655, 188.7704
623.1476, 188.2551
623.6298, 187.8940
624.1119, 187.8646
624.5940, 188.3083
625.0761, 188.6929
625.5582, 188.7761
626.0403, 188.6672
626.5225, 188.3918
627.0046, 188.0158
627.4867, 187.8736
627.9688, 188.2306
628.4509, 188.8549
628.9330, 188.9725
629.4152, 188.2434
629.8973, 187.6183
630.3794, 186.9351
630.8615, 186.5219
631.3436, 186.7056
631.8257, 187.3060
632.3079, 187.8918
632.7900, 188.2879
633.2721, 188.4969
633.7542, 188.4723
634.2363, 188.2368
634.7184, 187.9726
635.2006, 187.6818
635.6827, 187.4695
636.1648, 187.4939
636.6469, 187.7058
637.1291, 187.7234
637.6112, 187.1890
638.0933, 186.8907
638.5754, 187.4305
639.0576, 188.1482
639.5397, 188.1856
640.0218, 187.5029
640.5039, 186.7639
640.9860, 186.5071
641.4681, 186.6453
641.9503, 186.7674
642.4324, 186.9248
642.9145, 186.9322
643.3966, 186.4959
643.8787, 186.0972
644.3608, 186.1509
644.8430, 186.5726
645.3251, 186.8786
645.8072, 186.7352
646.2893, 186.5103
646.7714, 186.6638
647.2535, 187.0574
647.7357, 187.2290
648.2178, 187.0399
648.6999, 186.6752
649.1820, 186.3443
649.6641, 186.0550
650.1462, 185.6302
650.6284, 184.7599
651.1105, 184.1469
651.5926, 183.9679
652.0747, 184.0940
652.5568, 184.5403
653.0389, 185.2187
653.5211, 185.7457
654.0032, 185.7733
654.4853, 185.4373
654.9674, 185.0778
655.4495, 184.6854
655.9316, 184.3816
656.4138, 184.2619
656.8959, 184.1804
657.3780, 183.8303
657.8601, 183.2147
658.3422, 183.0154
658.8243, 183.6379
659.3065, 184.3760
659.7886, 184.8202
660.2707, 185.1242
660.7528, 185.6729
661.2349, 186.5321
661.7170, 187.2554
662.1992, 187.2971
662.6813, 186.6859
663.1634, 186.0961
663.6455, 185.4761
664.1276, 184.9693
664.6097, 184.6116
665.0919, 184.3932
665.5740, 184.3479
666.0561, 184.4684
666.5382, 184.6130
667.0203, 184.6444
667.5024, 184.7222
667.9846, 185.2671
668.4667, 186.0382
668.9488, 185.9863
669.4309, 184.6619
669.9130, 183.3135
670.3951, 183.7905
670.8773, 186.4972
671.3594, 187.7375
671.8415, 185.9782
672.3236, 184.5288
672.8057, 184.3212
673.2878, 184.6291
673.7700, 184.5748
674.2521, 184.0674
674.7342, 183.8567
675.2163, 184.9940
675.6984, 186.6445
676.1805, 187.0128
676.6627, 186.1316
677.1448, 184.8797
677.6269, 183.3650
678.1090, 182.1287
678.5911, 182.0064
679.0732, 183.2414
679.5554, 184.3092
680.0375, 185.5539
680.5196, 186.2497
681.0017, 185.5732
681.4838, 184.4559
681.9659, 184.1535
682.4481, 184.8887
682.9302, 185.8030
683.4123, 186.1298
683.8944, 185.9747
684.3765, 185.7244
684.8586, 185.3551
685.3408, 185.0495
685.8229, 184.9406
686.3050, 184.8431
686.7871, 184.4017
687.2692, 183.6283
687.7513, 183.2372
688.2335, 183.6788
688.7156, 184.1628
689.1977, 184.1985
689.6798, 184.0239
690.1619, 184.0258
690.6440, 184.2952
691.1262, 184.6764
691.6083, 185.0520
692.0904, 185.3978
692.5725, 185.5493
693.0546, 185.5315
693.5367, 185.2183
694.0189, 183.9784
694.5010, 182.9581
694.9831, 183.5816
695.4652, 185.5816
695.9473, 186.7695
696.4294, 185.8768
696.9116, 184.6022
697.3937, 184.0735
697.8758, 183.9991
698.3579, 183.7837
698.8400, 183.3096
699.3221, 182.9256
699.8043, 182.9710
700.2864, 183.4016
700.7685, 183.9225
701.2506, 184.6970
701.7327, 185.2085
702.2148, 185.0077
702.6970, 184.7917
703.1791, 185.1688
703.6612, 185.9585
704.1433, 186.3848
704.6254, 185.9342
705.1075, 185.3248
705.5897, 185.0833
706.0718, 185.1280
706.5539, 185.3790
707.0360, 185.7959
707.5181, 186.0956
708.0002, 186.0112
708.4824, 185.6573
708.9645, 185.6365
709.4466, 186.2837
709.9287, 186.6245
710.4108, 186.2371
710.8929, 185.8513
711.3751, 186.0417
711.8572, 186.5541
712.3393, 186.6780
712.8214, 186.0486
713.3035, 185.2583
713.7856, 184.6535
714.2678, 184.3042
714.7499, 184.5397
715.2320, 185.3491
715.7141, 185.9038
716.1962, 185.5802
716.6783, 184.7571
717.1605, 184.6036
717.6426, 185.7220
718.1247, 186.3322
718.6068, 186.2481
719.0889, 185.8771
719.5710, 185.0841
720.0532, 184.2211
720.5353, 183.8954
721.0174, 184.3305
721.4995, 184.9462
721.9816, 185.4097
722.4637, 185.6829
722.9459, 185.5388
723.4280, 185.0222
723.9101, 184.7952
724.3922, 185.2241
724.8743, 185.9907
725.3564, 186.5102
725.8386, 186.7532
726.3207, 186.8537
726.8028, 186.5676
727.2849, 186.4261
727.7670, 186.9040
728.2491, 187.4535
728.7313, 187.2506
729.2134, 186.1934
729.6955, 185.3035
730.1776, 185.4642
730.6597, 186.1403
731.1418, 186.6767
731.6240, 187.0062
732.1061, 186.7010
732.5882, 185.5347
733.0703, 184.2573
733.5524, 183.7630
734.0345, 184.0734
734.5167, 184.6679
734.9988, 186.3191
735.4809, 187.2275
735.9631, 186.3557
736.4452, 185.2197
736.9273, 185.1767
737.4094, 186.1414
737.8915, 187.0351
738.3737, 187.3251
738.8558, 187.2677
739.3379, 187.0339
739.8200, 186.6892
740.3021, 186.4056
740.7842, 186.2188
741.2664, 186.1885
741.7485, 186.4028
742.2306, 186.7791
742.7127, 186.9087
743.1948, 186.6501
743.6769, 186.3967
744.1591, 186.0285
744.6412, 185.8072
745.1233, 185.9341
745.6054, 186.3002
746.0875, 186.7312
746.5696, 187.2377
747.0518, 187.5057
747.5339, 186.8806
748.0160, 186.0311
748.4981, 186.4185
748.9802, 187.9123
749.4623, 188.8030
749.9445, 188.1647
750.4266, 186.7984
750.9087, 186.1968
751.3908, 186.5485
751.8729, 186.7825
752.3550, 186.9829
752.8372, 186.9438
753.3193, 186.1692
753.8014, 185.3891
754.2835, 185.5503
754.7656, 186.7345
755.2477, 187.8338
755.7299, 188.3845
756.2120, 188.5726
756.6941, 188.3225
757.1762, 187.8836
757.6583, 187.9993
758.1404, 188.8207
758.6226, 189.4663
759.1047, 188.9802
759.5868, 187.5842
760.0689, 186.8432
760.5510, 187.1215
761.0331, 187.0774
761.5153, 185.9261
761.9974, 184.9317
762.4795, 185.1514
762.9616, 186.2659
763.4437, 187.2355
763.9258, 187.8055
764.4080, 188.2801
764.8901, 188.9251
765.3722, 189.4705
765.8543, 189.4876
766.3364, 189.0785
766.8185, 188.7398
767.3007, 188.7438
767.7828, 188.9127
768.2649, 188.8921
768.7470, 188.6647
769.2291, 188.7419
769.7112, 189.3295
770.1934, 189.7154
770.6755, 189.4116
771.1576, 188.7971
771.6397, 188.5435
772.1218, 188.7100
772.6039, 188.7633
773.0861, 188.4347
773.5682, 188.1721
774.0503, 188.2371
774.5324, 188.5064
775.0145, 188.9071
775.4966, 189.3559
775.9788, 189.5495
776.4609, 189.1238
776.9430, 188.3777
777.4251, 188.0081
777.9072, 188.0121
778.3893, 188.2049
778.8715, 188.5881
779.3536, 189.0085
779.8357, 189.3906
780.3178, 189.6997
780.7999, 189.6914
781.2820, 189.0880
781.7642, 188.5715
782.2463, 187.9720
782.7284, 187.6533
783.2105, 187.9853
783.6926, 188.7441
784.1747, 189.5599
784.6569, 190.3547
785.1390, 190.7497
785.6211, 189.9492
786.1032, 188.6902
786.5853, 188.5991
787.0674, 189.5926
787.5496, 190.3648
788.0317, 190.3355
788.5138, 189.9635
788.9959, 189.9068
789.4780, 190.1988
789.9601, 190.3283
790.4423, 190.1153
790.9244, 190.0333
791.4065, 190.4148
791.8886, 190.7955
792.3707, 190.7098
792.8528, 190.2417
793.3350, 189.9558
793.8171, 190.0932
794.2992, 190.3816
794.7813, 190.8833
795.2634, 191.3149
795.7455, 191.1266
796.2277, 190.4057
796.7098, 189.8094
797.1919, 189.7325
797.6740, 190.0191
798.1561, 190.4587
798.6382, 191.0660
799.1204, 191.4060
799.6025, 191.4366
800.0846, 191.2298
800.5667, 190.6872
801.0488, 190.0171
801.5309, 189.5648
802.0131, 189.2970
802.4952, 189.3369
802.9773, 190.0477
803.4594, 190.6608
803.9415, 191.0583
804.4236, 191.0573
804.9058, 190.0342
805.3879, 188.2168
805.8700, 187.1560
806.3521, 188.2706
806.8342, 190.1647
807.3163, 190.6762
807.7985, 190.0876
808.2806, 189.4489
808.7627, 188.9443
809.2448, 188.8868
809.7269, 189.6061
810.2090, 190.7685
810.6912, 191.3286
811.1733, 191.0326
811.6554, 190.7445
812.1375, 190.4824
812.6196, 190.2079
813.1017, 189.8998
813.5839, 189.5736
814.0660, 189.1924
814.5481, 188.7415
815.0302, 188.5323
815.5123, 188.9024
815.9944, 189.3692
816.4766, 189.4951
816.9587, 189.4548
817.4408, 189.7343
817.9229, 190.3427
818.4050, 190.5258
818.8871, 189.4656
819.3693, 187.8892
819.8514, 188.0757
820.3335, 190.1375
820.8156, 191.1369
821.2977, 190.3569
821.7798, 189.2698
822.2620, 188.7464
822.7441, 188.6828
823.2262, 188.8089
823.7083, 189.3307
824.1904, 189.5620
824.6725, 189.0838
825.1547, 188.7542
825.6368, 189.0902
826.1189, 189.7428
826.6010, 190.3673
827.0831, 190.8463
827.5652, 190.9024
828.0474, 189.9702
828.5295, 188.8231
829.0116, 188.3995
829.4937, 188.5101
829.9758, 188.7596
830.4579, 189.0324
830.9401, 189.1148
831.4222, 188.8083
831.9043, 188.2814
832.3864, 188.0543
832.8685, 188.1924
833.3506, 188.2900
833.8328, 188.1974
834.3149, 188.2944
834.7971, 189.0260
835.2792, 189.9621
835.7613, 190.3275
836.2434, 190.0492
836.7255, 189.6030
837.2076, 188.6170
837.6898, 187.9803
838.1719, 188.3842
838.6540, 189.2297
839.1361, 189.7152
839.6182, 189.7975
840.1003, 190.1374
840.5825, 191.4361
841.0646, 192.7146
841.5467, 192.3050
842.0288, 190.7656
842.5109, 190.0335
842.9930, 190.3316
843.4752, 190.3725
843.9573, 189.3085
844.4394, 187.7638
844.9215, 187.0829
845.4036, 187.3893
845.8857, 187.9501
846.3679, 188.9391
846.8500, 189.8828
847.3321, 190.8322
847.8142, 191.4846
848.2963, 191.3410
848.7784, 190.4521
849.2606, 189.8757
849.7427, 190.1079
850.2248, 190.3149
850.7069, 190.0906
851.1890, 189.7404
851.6711, 189.5405
852.1533, 189.5119
852.6354, 189.5897
853.1175, 189.7531
853.5996, 189.9399
854.0817, 190.0060
854.5638, 190.0570
855.0460, 190.5987
855.5281, 191.5490
856.0102, 191.6962
856.4923, 190.4754
856.9744, 189.0083
857.4565, 188.7892
857.9387, 189.7608
858.4208, 190.3326
858.9029, 190.3503
859.3850, 190.3301
859.8671, 190.2961
860.3492, 190.3299
860.8314, 190.5796
861.3135, 190.9367
861.7956, 191.1042
862.2777, 191.0218
862.7598, 190.8260
863.2419, 190.3957
863.7241, 190.0195
864.2062, 189.9873
864.6883, 190.1128
865.1704, 189.9452
865.6525, 189.4304
866.1346, 189.2319
866.6168, 190.2961
867.0989, 191.6485
867.5810, 191.5488
868.0631, 190.4050
868.5452, 189.5072
869.0273, 189.1315
869.5095, 189.3094
869.9916, 190.1335
870.4737, 191.2991
870.9558, 191.9947
871.4379, 192.1365
871.9200, 192.2929
872.4022, 192.5072
872.8843, 192.6817
873.3664, 192.8097
873.8485, 192.8463
874.3306, 192.6753
874.8127, 192.2871
875.2949, 192.0022
875.7770, 191.8023
876.2591, 191.7593
876.7412, 191.9970
877.2233, 192.3199
877.7054, 192.5350
878.1876, 192.6834
878.6697, 192.9314
879.1518, 193.3463
879.6339, 193.8595
880.1160, 194.6926
880.5981, 195.4178
881.0803, 195.3158
881.5624, 194.5501
882.0445, 193.6712
882.5266, 192.9016
883.0087, 192.4629
883.4908, 192.6525
883.9730, 193.3111
884.4551, 193.8140
884.9372, 194.1508
885.4193, 194.5361
885.9014, 195.1042
886.3835, 195.3424
886.8657, 194.7257
887.3478, 193.6531
887.8299, 193.2303
888.3120, 193.6990
888.7941, 194.1761
889.2762, 194.8666
889.7584, 195.3170
890.2405, 195.3054
890.7226, 195.0492
891.2047, 194.6693
891.6868, 194.2243
892.1689, 193.9846
892.6511, 194.2211
893.1332, 194.4383
893.6153, 194.4506
894.0974, 194.2712
894.5795, 193.7959
895.0616, 193.1502
895.5438, 192.6108
896.0259, 192.2883
896.5080, 192.2207
896.9901, 192.6904
897.4722, 193.3572
897.9543, 193.3589
898.4365, 192.7821
898.9186, 192.2195
899.4007, 191.8377
899.8828, 191.2710
900.3649, 190.1024
900.8470, 188.6511
901.3292, 188.1005
901.8113, 188.5935
902.2934, 189.3435
902.7755, 190.4855
903.2576, 191.4651
903.7397, 192.0715
904.2219, 192.3003
904.7040, 192.0638
905.1861, 191.2884
905.6682, 190.6204
906.1503, 190.0327
906.6324, 189.6063
907.1146, 189.5470
907.5967, 189.4995
908.0788, 189.1620
908.5609, 188.5891
909.0430, 187.9537
909.5251, 187.2288
910.0073, 186.7693
910.4894, 186.9794
910.9715, 187.3870
911.4536, 187.5077
911.9357, 187.4511
912.4178, 187.5492
912.9000, 187.8545
913.3821, 188.0765
913.8642, 187.9823
914.3463, 187.6534
914.8284, 186.9969
915.3105, 186.2046
915.7927, 186.3861
916.2748, 187.6490
916.7569, 188.6077
917.2390, 188.4899
917.7211, 187.7307
918.2032, 186.9763
918.6854, 186.2209
919.1675, 185.7958
919.6496, 185.7804
920.1317, 185.8859
920.6138, 186.2131
921.0959, 186.3664
921.5781, 185.7761
922.0602, 184.6966
922.5423, 184.4103
923.0244, 185.5403
923.5065, 186.2626
923.9886, 186.1460
924.4708, 186.0174
924.9529, 186.3415
925.4350, 186.8032
925.9171, 186.9840
926.3992, 186.8492
926.8813, 186.6699
927.3635, 186.4168
927.8456, 186.3094
928.3277, 186.7001
928.8098, 187.1419
929.2919, 187.1201
929.7740, 186.6919
930.2562, 186.0889
930.7383, 185.4094
931.2204, 184.9270
931.7025, 184.8813
932.1846, 185.2303
932.6667, 186.0417
933.1489, 187.1890
933.6310, 188.3775
934.1132, 189.4810
934.5953, 189.8253
935.0774, 188.7778
935.5595, 187.1567
936.0416, 187.1393
936.5237, 188.7458
937.0059, 189.1269
937.4880, 187.8949
937.9701, 186.9435
938.4522, 187.0024
938.9343, 187.7413
939.4164, 189.0158
939.8986, 190.7273
940.3807, 191.0336
940.8628, 188.7941
941.3449, 187.3984
941.8270, 187.3712
942.3091, 188.0041
942.7913, 189.7306
943.2734, 191.5230
943.7555, 191.5358
944.2376, 189.4461
944.7197, 187.5972
945.2018, 185.9501
945.6840, 185.1367
946.1661, 186.1049
946.6482, 187.4441
947.1303, 187.9002
947.6124, 187.5710
948.0945, 187.1543
948.5767, 186.8819
949.0588, 186.5557
949.5409, 185.7483
950.0230, 185.0875
950.5051, 185.3076
950.9872, 186.1066
951.4694, 187.0488
951.9515, 187.9292
952.4336, 188.3377
952.9157, 187.8980
953.3978, 187.1328
953.8799, 186.6641
954.3621, 186.4994
954.8442, 186.8732
955.3263, 187.6626
955.8084, 187.9149
956.2905, 187.2516
956.7726, 186.4964
957.2548, 186.6676
957.7369, 186.2489
958.2190, 186.0195
958.7011, 186.3692
959.1832, 185.9818
959.6653, 186.5451
960.1475, 187.3207
960.6296, 187.9635
961.1117, 188.4034
961.5938, 188.4834
962.0759, 188.1593
962.5580, 187.8959
963.0402, 187.7066
963.5223, 187.5528
964.0044, 187.4792
964.4865, 187.3731
964.9686, 187.1210
965.4507, 186.7706
965.9329, 186.3947
966.4150, 185.6504
966.8971, 185.8072
967.3792, 188.2545
967.8613, 190.0211
968.3434, 189.5482
968.8256, 188.2390
969.3077, 187.3142
969.7898, 186.8808
970.2719, 186.7970
970.7540, 187.2256
971.2361, 187.5535
971.7183, 187.3503
972.2004, 187.1204
972.6825, 187.2135
973.1646, 187.5763
973.6467, 188.3150
974.1288, 189.2957
974.6110, 189.6234
975.0931, 188.2901
975.5752, 186.9098
976.0573, 187.4094
976.5394, 188.5682
977.0215, 188.4808
977.5037, 187.3261
977.9858, 186.1472
978.4679, 185.3593
978.9500, 185.0899
979.4321, 185.6803
979.9142, 186.6595
980.3964, 187.0981
980.8785, 187.1015
981.3606, 186.9572
981.8427, 186.7438
982.3248, 186.7549
982.8069, 187.1656
983.2891, 187.6017
983.7712, 187.3854
984.2533, 187.6982
984.7354, 187.9722
985.2175, 187.8015
985.6996, 188.4662
986.1818, 188.5146
986.6639, 188.4502
987.1460, 188.6785
987.6281, 188.9056
988.1102, 188.2879
988.5923, 188.5174
989.0745, 188.9287
989.5566, 188.2534
990.0387, 189.6179
990.5208, 189.3992
991.0029, 188.6965
991.4850, 188.4292
991.9672, 188.4613
992.4493, 188.2176
992.9314, 188.4011
993.4135, 188.9828
993.8956, 188.7758
994.3777, 190.1169
994.8599, 190.3446
995.3420, 190.0735
995.8241, 189.7348
996.3062, 189.3743
996.7883, 189.1851
997.2704, 189.2404
997.7526, 189.3626
998.2347, 189.6987
998.7168, 189.9040
999.1989, 189.5936
999.6810, 189.1885
1000.163, 189.2690
1000.645, 189.8231
1001.127, 190.2921
1001.609, 190.5020
1002.092, 190.6126
1002.574, 190.8700
1003.056, 190.8790
1003.538, 189.8406
1004.020, 188.5445
1004.502, 188.4738
1004.984, 189.7806
1005.466, 190.9841
1005.949, 191.1817
1006.431, 191.1832
1006.913, 191.7681
1007.395, 192.3485
1007.877, 192.0447
1008.359, 191.1672
1008.841, 190.6433
1009.323, 190.7255
1009.805, 190.8098
1010.288, 190.2907
1010.770, 189.7006
1011.252, 189.7693
1011.734, 190.1962
1012.216, 190.4107
1012.698, 190.4287
1013.180, 190.6342
1013.662, 191.1725
1014.145, 191.7005
1014.627, 191.9131
1015.109, 191.8401
1015.591, 191.2958
1016.073, 190.5314
1016.555, 190.4998
1017.037, 191.2190
1017.519, 191.8343
1018.001, 191.9134
1018.484, 191.7866
1018.966, 191.8780
1019.448, 192.1180
1019.930, 192.2397
1020.412, 192.2602
1020.894, 192.3182
1021.376, 192.4390
1021.858, 192.8086
1022.341, 193.5773
1022.823, 194.3561
1023.305, 194.5467
1023.787, 194.1758
1024.269, 193.2153
1024.751, 191.5699
1025.233, 191.4388
1025.715, 193.4907
1026.198, 195.3737
1026.680, 195.5533
1027.162, 194.8011
1027.644, 194.5594
1028.126, 194.8446
1028.608, 194.9818
1029.090, 195.0546
1029.572, 194.4222
1030.054, 192.5361
1030.536, 191.2112
1031.019, 191.9340
1031.501, 193.6887
1031.983, 194.2283
1032.465, 193.3132
1032.947, 193.0597
1033.429, 193.7133
1033.911, 194.4112
1034.393, 195.1190
1034.876, 195.5543
1035.358, 195.4341
1035.840, 194.9480
1036.322, 194.4856
1036.804, 193.9226
1037.286, 194.0152
1037.768, 195.3438
1038.250, 196.2707
1038.733, 196.1859
1039.215, 195.9223
1039.697, 196.2516
1040.179, 196.7901
1040.661, 196.4216
1041.143, 194.6164
1041.625, 193.8704
1042.107, 195.1387
1042.589, 196.1550
1043.072, 196.2933
1043.554, 196.2209
1044.036, 196.4438
1044.518, 196.7936
1045.000, 196.8525
1045.482, 196.5690
1045.964, 196.1502
1046.446, 195.2613
1046.928, 194.7111
1047.411, 195.0556
1047.893, 195.4832
1048.375, 195.1594
1048.857, 194.5072
1049.339, 194.6762
1049.821, 196.0149
1050.303, 196.9151
1050.785, 196.7113
1051.268, 196.5896
1051.750, 197.1865
1052.232, 197.7672
1052.714, 197.5351
1053.196, 196.8800
1053.678, 196.7634
1054.160, 197.4018
1054.642, 198.0281
1055.125, 198.7493
1055.607, 199.0557
1056.089, 198.4160
1056.571, 197.5931
1057.053, 197.1947
1057.535, 197.1093
1058.017, 196.9822
1058.499, 196.7373
1058.981, 196.6255
1059.464, 196.7319
1059.946, 196.9763
1060.428, 197.4469
1060.910, 197.9361
1061.392, 198.3203
1061.874, 198.5750
1062.356, 198.6227
1062.838, 198.4358
1063.320, 198.4331
1063.803, 199.0161
1064.285, 199.4875
1064.767, 199.4176
1065.249, 199.2131
1065.731, 199.2041
1066.213, 199.3368
1066.695, 199.5242
1067.177, 199.7399
1067.660, 199.6505
1068.142, 198.5733
1068.624, 197.8762
1069.106, 198.5688
1069.588, 199.5632
1070.070, 199.9924
1070.552, 200.0235
1071.034, 200.1422
1071.516, 200.4204
1071.999, 200.4613
1072.481, 200.0354
1072.963, 199.4184
1073.445, 198.1740
1073.927, 197.3228
1074.409, 198.1483
1074.891, 199.7519
1075.373, 200.5461
1075.855, 200.3434
1076.338, 200.2853
1076.820, 201.0870
1077.302, 201.7003
1077.784, 201.5325
1078.266, 201.0678
1078.748, 200.4391
1079.230, 199.8982
1079.712, 199.8673
1080.195, 200.3123
1080.677, 200.6587
1081.159, 200.6120
1081.641, 200.6009
1082.123, 200.6368
1082.605, 200.9781
1083.087, 202.3163
1083.569, 203.7646
1084.052, 203.9786
1084.534, 203.0710
1085.016, 202.3904
1085.498, 202.4809
1085.980, 202.5723
1086.462, 202.2396
1086.944, 201.8909
1087.426, 201.7760
1087.908, 201.8071
1088.391, 201.7647
1088.873, 201.7530
1089.355, 202.3297
1089.837, 203.9725
1090.319, 204.7992
1090.801, 203.1592
1091.283, 201.5710
1091.765, 201.5607
1092.248, 202.2064
1092.730, 202.7090
1093.212, 202.9669
1093.694, 203.0442
1094.176, 202.9643
1094.658, 202.6190
1095.140, 201.4229
1095.622, 200.6492
1096.104, 201.0594
1096.587, 201.9657
1097.069, 203.0207
1097.551, 204.0099
1098.033, 204.7051
1098.515, 205.0745
1098.997, 204.8520
1099.479, 203.2106
1099.961, 201.9951
1100.443, 202.1914
1100.926, 202.6568
1101.408, 202.4576
1101.890, 202.0446
1102.372, 202.2215
1102.854, 203.0565
1103.336, 203.9988
1103.818, 205.5332
1104.300, 206.2648
1104.783, 205.0984
1105.265, 203.9480
1105.747, 203.9221
1106.229, 204.4511
1106.711, 204.8662
1107.193, 205.1208
1107.675, 205.2839
1108.157, 205.2579
1108.640, 205.3446
1109.122, 205.6235
1109.604, 205.9673
1110.086, 206.6652
1110.568, 207.1310
1111.050, 206.5085
1111.532, 205.1597
1112.014, 204.5027
1112.496, 204.8038
1112.979, 205.2391
1113.461, 206.2427
1113.943, 206.7422
1114.425, 205.9939
1114.907, 205.1538
1115.389, 205.0602
1115.871, 205.4547
1116.353, 205.7748
1116.835, 206.0129
1117.318, 206.2231
1117.800, 206.3715
1118.282, 206.5518
1118.764, 206.7250
1119.246, 207.0254
1119.728, 207.6537
1120.210, 208.3313
1120.692, 208.6037
1121.175, 208.4815
1121.657, 208.4464
1122.139, 208.5574
1122.621, 208.5793
1123.103, 208.4227
1123.585, 208.3574
1124.067, 208.5365
1124.549, 208.7776
1125.031, 208.8838
1125.514, 208.8733
1125.996, 208.8226
1126.478, 208.7070
1126.960, 208.6533
1127.442, 208.6341
1127.924, 208.8533
1128.406, 209.4481
1128.888, 209.9799
1129.370, 210.0843
1129.853, 210.2731
1130.335, 209.8953
1130.817, 209.9962
1131.299, 209.7695
1131.781, 209.1664
1132.263, 209.5832
1132.745, 211.4026
1133.227, 212.4147
1133.710, 211.2419
1134.192, 209.4283
1134.674, 209.2727
1135.156, 210.3185
1135.638, 210.6719
1136.120, 210.4255
1136.602, 210.2324
1137.084, 210.1862
1137.567, 210.4695
1138.049, 211.1388
1138.531, 211.6075
1139.013, 211.2633
1139.495, 210.4914
1139.977, 209.6983
1140.459, 209.1862
1140.941, 210.1992
1141.423, 212.3198
1141.906, 213.8250
1142.388, 214.2917
1142.870, 214.2352
1143.352, 213.9456
1143.834, 213.4945
1144.316, 212.8334
1144.798, 212.1653
1145.280, 211.6712
1145.762, 211.4637
1146.245, 211.9914
1146.727, 213.0156
1147.209, 213.5002
1147.691, 213.0541
1148.173, 212.7136
1148.655, 213.7383
1149.137, 214.6790
1149.619, 213.6765
1150.102, 212.3632
1150.584, 213.0300
1151.066, 214.7638
1151.548, 215.2741
1152.030, 214.2679
1152.512, 213.5702
1152.994, 214.1799
1153.476, 214.8285
1153.958, 214.8266
1154.441, 214.7319
1154.923, 214.8752
1155.405, 215.1718
1155.887, 215.6768
1156.369, 216.2173
1156.851, 216.1477
1157.333, 215.0491
1157.815, 214.5189
1158.297, 215.5390
1158.780, 216.3102
1159.262, 215.8575
1159.744, 215.3663
1160.226, 215.8377
1160.708, 216.8067
1161.190, 217.3951
1161.672, 217.5694
1162.154, 217.6057
1162.637, 217.2175
1163.119, 217.2611
1163.601, 218.2015
1164.083, 218.8480
1164.565, 218.5195
1165.047, 217.9856
1165.529, 218.1011
1166.011, 218.6628
1166.494, 218.8004
1166.976, 218.3584
1167.458, 218.2852
1167.940, 218.6245
1168.422, 219.1972
1168.904, 220.0528
1169.386, 220.6034
1169.868, 220.3993
1170.350, 219.8901
1170.833, 219.8158
1171.315, 220.1064
1171.797, 220.4774
1172.279, 220.8804
1172.761, 220.5186
1173.243, 219.4127
1173.725, 219.2142
1174.207, 220.5234
1174.689, 221.6017
1175.172, 220.6878
1175.654, 219.1657
1176.136, 219.6431
1176.618, 221.2250
1177.100, 221.8535
1177.582, 221.7677
1178.064, 222.1763
1178.546, 223.0681
1179.029, 222.9386
1179.511, 220.9629
1179.993, 219.3432
1180.475, 220.3945
1180.957, 222.2522
1181.439, 223.6920
1181.921, 224.3780
1182.403, 223.2338
1182.885, 221.2637
1183.368, 220.7302
1183.850, 221.9923
1184.332, 223.1651
1184.814, 223.6237
1185.296, 223.5818
1185.778, 222.3586
1186.260, 221.5393
1186.742, 222.6218
1187.225, 224.1875
1187.707, 224.5884
1188.189, 224.0836
1188.671, 224.0170
1189.153, 224.7894
1189.635, 224.9319
1190.117, 223.6744
1190.599, 222.8188
1191.082, 222.8485
1191.564, 223.0299
1192.046, 222.9558
1192.528, 222.8358
1193.010, 222.9338
1193.492, 223.2502
1193.974, 223.8628
1194.456, 224.9374
1194.938, 225.3837
1195.421, 225.0550
1195.903, 224.5986
1196.385, 224.1636
1196.867, 223.9520
1197.349, 224.1204
1197.831, 224.5829
1198.313, 225.2939
1198.795, 226.1421
1199.277, 226.5260
1199.760, 226.5314
1200.242, 226.5385
1200.724, 226.6234
1201.206, 226.9681
1201.688, 227.5969
1202.170, 227.9180
1202.652, 227.3005
1203.134, 226.5079
1203.617, 226.5480
1204.099, 226.9850
1204.581, 227.4579
1205.063, 227.7233
1205.545, 227.0318
1206.027, 225.7537
1206.509, 225.5972
1206.991, 227.2899
1207.474, 228.6419
1207.956, 228.0433
1208.438, 227.3919
1208.920, 227.8153
1209.402, 228.4249
1209.884, 228.5213
1210.366, 228.3178
1210.848, 228.0696
1211.330, 227.8544
1211.813, 228.1111
1212.295, 229.4476
1212.777, 230.1093
1213.259, 229.6389
1213.741, 229.1767
1214.223, 228.9988
1214.705, 228.9282
1215.187, 228.8866
1215.669, 228.8105
1216.152, 228.5180
1216.634, 228.0515
1217.116, 228.3025
1217.598, 229.3907
1218.080, 229.4396
1218.562, 228.1763
1219.044, 228.0527
1219.526, 229.9632
1220.009, 231.9382
1220.491, 232.4080
1220.973, 231.8759
1221.455, 230.6458
1221.937, 229.3396
1222.419, 229.9925
1222.901, 231.8079
1223.383, 232.6698
1223.865, 232.4348
1224.348, 231.6972
1224.830, 230.7484
1225.312, 230.3259
1225.794, 231.2131
1226.276, 232.2540
1226.758, 232.7844
1227.240, 232.8531
1227.722, 231.9516
1228.204, 230.9905
1228.687, 231.3209
1229.169, 232.6571
1229.651, 233.8089
1230.133, 234.6887
1230.615, 234.5589
1231.097, 231.9197
1231.579, 230.2997
1232.061, 231.0086
1232.544, 232.0929
1233.026, 232.7611
1233.508, 233.3074
1233.990, 234.1833
1234.472, 235.1656
1234.954, 235.2235
1235.436, 234.1891
1235.918, 233.2883
1236.401, 232.4710
1236.883, 232.4390
1237.365, 233.3716
1237.847, 234.2823
1238.329, 234.6503
1238.811, 234.7302
1239.293, 234.7507
1239.775, 234.7971
1240.257, 235.2152
1240.740, 235.7234
1241.222, 235.5935
1241.704, 234.9865
1242.186, 234.1922
1242.668, 233.4878
1243.150, 233.8032
1243.632, 235.6560
1244.114, 236.9942
1244.596, 235.6284
1245.079, 234.3595
1245.561, 235.3576
1246.043, 236.8159
1246.525, 237.1742
1247.007, 236.9599
1247.489, 237.1643
1247.971, 237.7631
1248.453, 237.9767
1248.936, 237.5470
1249.418, 237.1444
1249.900, 236.4046
1250.382, 236.4834
1250.864, 238.0965
1251.346, 239.4933
1251.828, 239.5861
1252.310, 239.2192
1252.792, 239.5437
1253.275, 240.3328
1253.757, 240.5982
1254.239, 240.3918
1254.721, 240.4202
1255.203, 240.6545
1255.685, 240.4243
1256.167, 239.6795
1256.649, 239.3699
1257.131, 239.9932
1257.614, 240.6485
1258.096, 240.1730
1258.578, 239.6015
1259.060, 240.1284
1259.542, 241.2767
1260.024, 243.0236
1260.506, 244.6405
1260.988, 244.7172
1261.471, 243.4992
1261.953, 242.8551
1262.435, 243.5253
1262.917, 243.5888
1263.399, 241.6945
1263.881, 240.3950
1264.363, 240.2845
1264.845, 241.1175
1265.328, 243.7643
1265.810, 246.1092
1266.292, 245.4019
1266.774, 242.5601
1267.256, 241.3116
1267.738, 241.8232
1268.220, 242.1734
1268.702, 242.3403
1269.184, 243.2228
1269.667, 244.9406
1270.149, 245.9864
1270.631, 245.6739
1271.113, 244.6461
1271.595, 243.2480
1272.077, 242.1638
1272.559, 242.9143
1273.041, 244.2449
1273.523, 244.0794
1274.006, 243.1869
1274.488, 243.0217
1274.970, 243.6042
1275.452, 244.3922
1275.934, 245.2390
1276.416, 245.6399
1276.898, 245.0222
1277.380, 244.5187
1277.863, 244.3883
1278.345, 244.4963
1278.827, 245.0567
1279.309, 245.5374
1279.791, 245.2549
1280.273, 244.7915
1280.755, 245.5838
1281.237, 247.6066
1281.719, 248.6209
1282.202, 248.5485
1282.684, 248.5245
1283.166, 248.6611
1283.648, 248.6058
1284.130, 248.2504
1284.612, 247.9211
1285.094, 247.8542
1285.576, 247.7702
1286.059, 247.1219
1286.541, 246.3921
1287.023, 246.1905
1287.505, 246.5712
##END=



