##NAMES=Marcasite
##RRUFFID=R060882
##IDEAL CHEMISTRY=FeS_2_
##LOCALITY=Ive's Quarry, Racine, Wisconsin, USA
##OWNER=RRUFF
##SOURCE=Bob Jenkins
##DESCRIPTION=Brassy yellow prismatic crystals
##STATUS=The identification of this mineral is confirmed by single-crystal X-ray diffraction and chemical analysis.
##URL=rruff.info/R060882
##MEASURED CHEMISTRY=Fe_1.00_S_2.00_
187.0959, 1228.358
187.5780, 1209.509
188.0601, 1194.873
188.5423, 1177.389
189.0244, 1155.337
189.5065, 1138.446
189.9886, 1139.346
190.4707, 1142.966
190.9528, 1135.101
191.4350, 1109.935
191.9171, 1079.569
192.3992, 1058.740
192.8813, 1047.821
193.3634, 1044.741
193.8455, 1056.306
194.3277, 1072.053
194.8098, 1084.668
195.2919, 1092.567
195.7740, 1095.762
196.2561, 1093.779
196.7382, 1086.195
197.2204, 1075.758
197.7025, 1058.572
198.1846, 1041.258
198.6667, 1030.089
199.1488, 1027.158
199.6309, 1025.932
200.1131, 1017.331
200.5952, 999.5606
201.0773, 984.2955
201.5594, 975.4023
202.0415, 970.1292
202.5236, 968.0765
203.0058, 969.5380
203.4879, 970.5532
203.9700, 966.9733
204.4521, 958.6541
204.9342, 946.5710
205.4163, 924.1371
205.8985, 902.0886
206.3806, 888.2245
206.8627, 883.9478
207.3448, 884.6646
207.8269, 887.1163
208.3090, 891.7214
208.7912, 893.5607
209.2733, 890.0126
209.7554, 884.1946
210.2375, 878.0068
210.7196, 871.6922
211.2017, 864.8818
211.6839, 855.7905
212.1660, 844.2126
212.6481, 837.1166
213.1302, 837.5696
213.6123, 841.8829
214.0944, 848.2527
214.5765, 856.4338
215.0587, 864.9611
215.5408, 874.1190
216.0229, 883.7395
216.5050, 888.3795
216.9871, 884.8663
217.4692, 878.0362
217.9514, 870.1770
218.4335, 861.7138
218.9156, 854.6101
219.3977, 851.5858
219.8798, 852.0477
220.3619, 850.0724
220.8441, 843.4901
221.3262, 836.0410
221.8083, 829.2672
222.2904, 823.4996
222.7725, 820.2333
223.2546, 823.7994
223.7368, 831.7449
224.2189, 831.7385
224.7010, 819.8063
225.1831, 803.8456
225.6652, 786.5710
226.1473, 769.3573
226.6295, 757.6310
227.1116, 756.1766
227.5937, 762.4613
228.0758, 769.9020
228.5579, 780.6197
229.0400, 787.4012
229.5222, 782.9689
230.0043, 771.0123
230.4864, 760.1136
230.9685, 754.0156
231.4506, 751.3733
231.9327, 749.9536
232.4149, 750.2609
232.8970, 750.2407
233.3791, 748.9558
233.8612, 746.4048
234.3433, 742.2127
234.8254, 734.8430
235.3076, 726.4949
235.7897, 720.8903
236.2718, 718.5891
236.7539, 715.5966
237.2360, 708.1823
237.7181, 698.7568
238.2003, 691.6780
238.6824, 688.7720
239.1645, 687.5021
239.6466, 685.7192
240.1287, 683.4331
240.6108, 680.0746
241.0930, 674.3948
241.5751, 667.8553
242.0572, 663.1695
242.5393, 661.0594
243.0214, 660.0532
243.5035, 658.7380
243.9857, 657.3458
244.4678, 657.6940
244.9499, 660.9688
245.4320, 666.2077
245.9141, 672.0639
246.3962, 680.5729
246.8784, 685.1165
247.3605, 678.2016
247.8426, 663.7794
248.3247, 654.7147
248.8068, 656.2239
249.2889, 663.5278
249.7710, 669.0438
250.2532, 673.3935
250.7353, 674.7023
251.2174, 669.3849
251.6995, 661.0458
252.1816, 656.2729
252.6637, 656.8863
253.1459, 661.0007
253.6280, 667.0426
254.1101, 675.6369
254.5922, 682.2560
255.0743, 685.3343
255.5564, 686.3346
256.0386, 687.4393
256.5207, 689.0630
257.0028, 688.6928
257.4849, 681.9850
257.9670, 666.7590
258.4492, 660.3252
258.9313, 669.3941
259.4134, 683.0765
259.8955, 695.3526
260.3776, 704.8967
260.8597, 708.7793
261.3419, 703.6096
261.8240, 688.7025
262.3061, 676.3163
262.7882, 664.4271
263.2703, 656.5844
263.7524, 657.4858
264.2346, 664.5910
264.7167, 670.5613
265.1988, 670.5640
265.6809, 664.9825
266.1630, 657.8099
266.6451, 643.7271
267.1272, 634.1476
267.6093, 635.0511
268.0915, 642.0273
268.5736, 647.6164
269.0557, 647.9905
269.5378, 644.6699
270.0199, 642.6826
270.5020, 645.6432
270.9842, 645.6472
271.4663, 641.3897
271.9484, 634.3530
272.4305, 624.4675
272.9126, 611.9760
273.3947, 600.5338
273.8769, 597.4421
274.3590, 609.4856
274.8411, 617.9686
275.3232, 621.1845
275.8053, 622.2470
276.2874, 622.3595
276.7696, 622.2308
277.2517, 623.2769
277.7338, 627.8728
278.2159, 637.7233
278.6980, 644.4816
279.1801, 648.6724
279.6623, 649.3378
280.1444, 643.2007
280.6265, 632.2907
281.1086, 623.1221
281.5907, 622.1738
282.0728, 629.1063
282.5550, 631.6212
283.0371, 625.0966
283.5192, 619.4561
284.0013, 617.9614
284.4834, 619.8044
284.9655, 623.7439
285.4477, 630.4893
285.9298, 637.7598
286.4119, 637.8909
286.8940, 626.7730
287.3761, 617.4763
287.8582, 614.3004
288.3404, 615.5093
288.8225, 620.1099
289.3046, 628.6863
289.7867, 638.0672
290.2688, 644.1147
290.7509, 646.5817
291.2331, 647.5620
291.7152, 644.9023
292.1973, 642.9563
292.6794, 646.7309
293.1615, 657.4526
293.6436, 668.8040
294.1258, 676.3801
294.6079, 680.6130
295.0900, 683.7503
295.5721, 686.6125
296.0542, 687.8688
296.5363, 683.7679
297.0185, 674.5328
297.5006, 670.8397
297.9827, 682.9836
298.4648, 701.5150
298.9469, 708.8295
299.4290, 701.0715
299.9112, 693.1478
300.3933, 701.3960
300.8754, 723.8145
301.3575, 737.2970
301.8396, 734.8531
302.3217, 726.1583
302.8039, 717.7512
303.2860, 709.8734
303.7681, 700.8594
304.2502, 687.8818
304.7323, 673.2208
305.2144, 670.3265
305.6966, 691.0314
306.1787, 708.6839
306.6608, 713.3679
307.1429, 708.7067
307.6250, 700.9662
308.1071, 692.5639
308.5893, 683.9575
309.0714, 676.0143
309.5535, 664.5871
310.0356, 659.9882
310.5177, 666.8628
310.9998, 678.2903
311.4820, 687.4808
311.9641, 693.1194
312.4462, 699.0258
312.9283, 709.5172
313.4104, 722.9885
313.8925, 747.1299
314.3747, 774.0806
314.8568, 816.5710
315.3389, 883.4966
315.8210, 972.4452
316.3031, 1075.770
316.7852, 1190.210
317.2674, 1314.808
317.7495, 1428.474
318.2316, 1520.025
318.7137, 1615.295
319.1958, 1719.489
319.6779, 1831.717
320.1601, 1946.770
320.6422, 2058.250
321.1243, 2183.361
321.6064, 2368.537
322.0885, 2642.852
322.5706, 2890.614
323.0528, 3157.149
323.5349, 3340.335
324.0170, 3340.713
324.4991, 3136.851
324.9812, 2812.356
325.4633, 2390.154
325.9455, 1884.848
326.4276, 1461.085
326.9097, 1150.485
327.3918, 935.3245
327.8739, 805.0371
328.3560, 752.2603
328.8382, 725.9371
329.3203, 717.0113
329.8024, 716.9371
330.2845, 711.4880
330.7666, 699.2408
331.2487, 684.3751
331.7309, 667.8022
332.2130, 650.7502
332.6951, 638.6067
333.1772, 634.9954
333.6593, 633.4418
334.1414, 628.7116
334.6236, 622.2160
335.1057, 619.5475
335.5878, 623.9877
336.0699, 633.1049
336.5520, 640.1228
337.0341, 647.8475
337.5162, 649.6796
337.9984, 638.1868
338.4805, 622.9786
338.9626, 616.5527
339.4447, 621.7429
339.9268, 630.3537
340.4089, 630.9008
340.8911, 618.9594
341.3732, 613.2393
341.8553, 614.7092
342.3374, 620.4251
342.8195, 634.5919
343.3016, 652.5569
343.7838, 661.2621
344.2659, 648.6422
344.7480, 617.9636
345.2301, 602.4489
345.7122, 616.8572
346.1943, 628.0184
346.6765, 627.4958
347.1586, 620.2009
347.6407, 611.0158
348.1228, 601.5015
348.6049, 594.0992
349.0870, 594.0947
349.5692, 603.4734
350.0513, 610.8070
350.5334, 610.7415
351.0155, 609.9959
351.4976, 615.3255
351.9797, 626.5514
352.4619, 633.6957
352.9440, 626.1805
353.4261, 608.3981
353.9082, 596.3032
354.3903, 592.4093
354.8724, 591.7089
355.3546, 592.0817
355.8367, 592.8071
356.3188, 591.6193
356.8009, 585.5121
357.2830, 579.1039
357.7651, 576.8264
358.2473, 578.3051
358.7294, 580.8171
359.2115, 583.3218
359.6936, 585.6609
360.1757, 587.2406
360.6578, 586.8437
361.1400, 587.8321
361.6221, 592.8276
362.1042, 599.0223
362.5863, 602.4918
363.0684, 602.2786
363.5505, 600.5903
364.0327, 600.3289
364.5148, 602.2457
364.9969, 602.9081
365.4790, 600.1499
365.9611, 598.2968
366.4432, 599.3498
366.9254, 603.2108
367.4075, 609.1707
367.8896, 616.9216
368.3717, 626.1270
368.8538, 635.1223
369.3359, 646.1038
369.8181, 653.2521
370.3002, 652.1326
370.7823, 648.7509
371.2644, 649.3947
371.7465, 656.0041
372.2286, 664.8751
372.7108, 671.3059
373.1929, 675.0511
373.6750, 680.0651
374.1571, 688.7817
374.6392, 696.8603
375.1213, 696.8043
375.6035, 691.5062
376.0856, 696.3351
376.5677, 723.0437
377.0498, 763.2328
377.5319, 798.9821
378.0140, 827.8122
378.4962, 870.8226
378.9783, 946.4326
379.4604, 1045.997
379.9425, 1137.242
380.4246, 1216.479
380.9067, 1291.263
381.3889, 1361.345
381.8710, 1429.667
382.3531, 1500.080
382.8352, 1573.049
383.3173, 1653.493
383.7994, 1747.585
384.2816, 1852.764
384.7637, 1984.479
385.2458, 2186.344
385.7279, 2378.761
386.2100, 2549.509
386.6921, 2670.848
387.1743, 2668.247
387.6564, 2471.286
388.1385, 2102.423
388.6206, 1768.132
389.1027, 1449.997
389.5848, 1197.588
390.0670, 1033.348
390.5491, 928.9734
391.0312, 861.1180
391.5133, 821.6351
391.9954, 799.7013
392.4775, 782.2343
392.9597, 769.3190
393.4418, 761.7272
393.9239, 766.1955
394.4060, 768.7382
394.8881, 757.4973
395.3702, 735.2764
395.8524, 715.4257
396.3345, 705.0881
396.8166, 700.7401
397.2987, 697.4566
397.7808, 695.1696
398.2629, 693.0496
398.7451, 690.1299
399.2272, 687.3098
399.7093, 686.8168
400.1914, 688.4709
400.6735, 692.5386
401.1556, 703.8908
401.6378, 716.3364
402.1199, 718.9709
402.6020, 708.9966
403.0841, 693.9183
403.5662, 682.8646
404.0483, 676.3305
404.5305, 672.2205
405.0126, 671.2431
405.4947, 671.6237
405.9768, 672.6579
406.4589, 674.3832
406.9410, 677.8252
407.4231, 684.1146
407.9052, 690.8660
408.3874, 689.4775
408.8695, 673.4340
409.3516, 662.8346
409.8337, 667.9953
410.3158, 674.8277
410.7979, 671.3358
411.2801, 656.2151
411.7622, 639.8648
412.2443, 629.5129
412.7264, 625.0193
413.2085, 627.1577
413.6906, 639.1877
414.1728, 650.2909
414.6549, 651.0420
415.1370, 645.1658
415.6191, 640.4182
416.1012, 640.3594
416.5833, 639.5583
417.0655, 632.7947
417.5476, 621.7683
418.0297, 612.1061
418.5118, 605.9653
418.9939, 601.7719
419.4760, 596.5820
419.9582, 588.1447
420.4403, 584.7831
420.9224, 589.3653
421.4045, 597.0711
421.8866, 607.1456
422.3687, 617.6796
422.8509, 623.7338
423.3330, 621.0403
423.8151, 611.1578
424.2972, 604.1345
424.7793, 601.3346
425.2614, 599.6579
425.7436, 598.9849
426.2257, 598.8138
426.7078, 599.4673
427.1899, 600.8605
427.6720, 600.5643
428.1541, 594.1962
428.6363, 582.4549
429.1184, 575.5516
429.6005, 576.2480
430.0826, 578.7314
430.5647, 579.0748
431.0468, 578.0137
431.5290, 577.3404
432.0111, 578.2942
432.4932, 579.1268
432.9753, 577.5272
433.4574, 574.2809
433.9395, 572.8182
434.4217, 574.7994
434.9038, 578.3502
435.3859, 580.0018
435.8680, 578.5607
436.3501, 578.2058
436.8322, 580.7949
437.3144, 583.2742
437.7965, 583.5285
438.2786, 581.5162
438.7607, 578.0853
439.2428, 573.7560
439.7249, 568.6541
440.2071, 563.1470
440.6892, 553.2204
441.1713, 549.6784
441.6534, 560.8499
442.1355, 574.5707
442.6176, 579.4619
443.0998, 573.2813
443.5819, 562.9052
444.0640, 552.0934
444.5461, 541.7821
445.0282, 538.9124
445.5103, 546.6114
445.9925, 555.7537
446.4746, 559.6351
446.9567, 560.1897
447.4388, 561.9155
447.9209, 569.4150
448.4030, 573.8464
448.8852, 564.9273
449.3673, 548.5231
449.8494, 539.8633
450.3315, 544.2658
450.8136, 555.2726
451.2957, 564.1986
451.7779, 571.6677
452.2600, 574.3667
452.7421, 568.1079
453.2242, 561.4642
453.7063, 559.6015
454.1884, 560.9578
454.6706, 561.8640
455.1527, 560.6218
455.6348, 556.0270
456.1169, 542.0340
456.5990, 510.1073
457.0811, 492.3895
457.5633, 508.5092
458.0454, 530.9963
458.5275, 543.2883
459.0096, 544.7396
459.4917, 544.2391
459.9738, 548.0237
460.4560, 553.1834
460.9381, 553.0703
461.4202, 547.0782
461.9023, 541.7665
462.3844, 540.5226
462.8665, 542.6629
463.3487, 546.3967
463.8308, 554.5782
464.3129, 559.0145
464.7950, 552.5460
465.2771, 543.6760
465.7592, 543.8989
466.2414, 554.1161
466.7235, 564.6598
467.2056, 565.6826
467.6877, 557.2465
468.1698, 554.3672
468.6519, 564.5073
469.1341, 571.5211
469.6162, 573.4227
470.0983, 570.0647
470.5804, 558.1413
471.0625, 536.7578
471.5446, 518.5042
472.0268, 521.8063
472.5089, 544.3290
472.9910, 556.4750
473.4731, 551.2266
473.9552, 543.2434
474.4373, 544.8444
474.9195, 552.3001
475.4016, 556.2653
475.8837, 550.1880
476.3658, 545.3745
476.8479, 552.5235
477.3300, 566.2913
477.8121, 574.1909
478.2943, 572.1276
478.7764, 564.2188
479.2585, 555.6954
479.7406, 545.8911
480.2227, 538.1765
480.7048, 525.7017
481.1870, 521.9152
481.6691, 542.7095
482.1512, 574.6472
482.6333, 592.9211
483.1154, 584.9731
483.5975, 562.5638
484.0797, 544.2870
484.5618, 529.8710
485.0439, 522.5660
485.5260, 526.7368
486.0081, 534.2605
486.4902, 539.5464
486.9724, 542.7975
487.4545, 545.0858
487.9366, 548.3261
488.4187, 549.6688
488.9008, 543.1525
489.3829, 531.0536
489.8651, 525.2778
490.3472, 531.8300
490.8293, 544.1872
491.3114, 550.3670
491.7935, 547.3145
492.2756, 544.2425
492.7578, 540.1826
493.2399, 536.9418
493.7220, 536.8276
494.2041, 538.5208
494.6862, 538.2505
495.1683, 533.3687
495.6505, 526.3197
496.1326, 523.2614
496.6147, 524.8309
497.0968, 528.2505
497.5789, 537.1407
498.0610, 544.0773
498.5432, 540.5107
499.0253, 528.1313
499.5074, 521.1060
499.9895, 533.1134
500.4716, 549.6948
500.9537, 551.4077
501.4359, 539.5481
501.9180, 526.6029
502.4001, 517.6132
502.8822, 512.7836
503.3643, 512.9990
503.8464, 522.1369
504.3286, 528.8704
504.8107, 531.5965
505.2928, 532.9440
505.7749, 535.3871
506.2570, 538.0998
506.7391, 538.1985
507.2213, 533.6625
507.7034, 525.6975
508.1855, 516.3844
508.6676, 503.7215
509.1497, 497.0864
509.6318, 504.4081
510.1140, 513.7014
510.5961, 514.1227
511.0782, 506.4884
511.5603, 502.1941
512.0424, 511.4931
512.5245, 523.3447
513.0067, 521.9611
513.4888, 509.4315
513.9709, 501.6904
514.4530, 507.0697
514.9351, 518.9002
515.4172, 523.1362
515.8994, 513.8555
516.3815, 508.5686
516.8636, 512.7694
517.3457, 516.0018
517.8278, 506.7758
518.3099, 491.1439
518.7921, 486.4522
519.2742, 504.8241
519.7563, 533.8166
520.2384, 546.1517
520.7205, 539.1780
521.2026, 530.0840
521.6848, 519.5505
522.1669, 511.0650
522.6490, 508.4054
523.1311, 510.7836
523.6132, 512.3837
524.0953, 510.2595
524.5775, 507.5394
525.0596, 506.9247
525.5417, 508.0247
526.0238, 509.5156
526.5059, 510.9304
526.9880, 512.0935
527.4702, 512.8224
527.9523, 513.5494
528.4344, 512.4812
528.9165, 506.8214
529.3986, 502.4482
529.8807, 503.7378
530.3629, 507.7734
530.8450, 508.6140
531.3271, 503.1803
531.8092, 496.1966
532.2913, 495.1772
532.7734, 499.7408
533.2556, 501.7583
533.7377, 498.9749
534.2198, 495.2303
534.7019, 493.7565
535.1840, 494.1907
535.6661, 494.7429
536.1483, 492.4615
536.6304, 493.2224
537.1125, 504.9542
537.5946, 520.1172
538.0767, 524.6182
538.5588, 515.2737
539.0410, 502.8029
539.5231, 500.5710
540.0052, 509.5202
540.4873, 513.1370
540.9694, 505.5085
541.4515, 500.3721
541.9337, 504.4219
542.4158, 511.6508
542.8979, 514.6140
543.3800, 511.3066
543.8621, 507.1240
544.3442, 506.2800
544.8264, 507.6957
545.3085, 509.0641
545.7906, 510.1957
546.2727, 510.8117
546.7548, 511.4854
547.2369, 511.2370
547.7191, 505.6404
548.2012, 483.4452
548.6833, 471.7623
549.1654, 482.6154
549.6475, 498.5315
550.1296, 504.9402
550.6118, 501.4880
551.0939, 495.5722
551.5760, 491.3888
552.0581, 490.1985
552.5402, 498.4734
553.0223, 519.9874
553.5045, 533.7723
553.9866, 530.1391
554.4687, 519.7267
554.9508, 512.9371
555.4329, 509.7232
555.9150, 508.3064
556.3972, 512.2379
556.8793, 514.3983
557.3614, 505.1995
557.8435, 489.0541
558.3256, 479.4735
558.8077, 482.1999
559.2899, 490.7024
559.7720, 494.0751
560.2541, 490.7957
560.7362, 487.8496
561.2183, 482.5259
561.7004, 480.4361
562.1826, 484.1538
562.6647, 492.1998
563.1468, 503.5295
563.6289, 519.0762
564.1110, 531.4359
564.5931, 531.4518
565.0753, 522.2941
565.5574, 513.8891
566.0395, 507.6002
566.5216, 502.3859
567.0037, 497.6597
567.4858, 493.3594
567.9680, 489.0410
568.4501, 484.6608
568.9322, 480.3288
569.4143, 472.7722
569.8964, 467.5051
570.3785, 472.0145
570.8607, 484.9030
571.3428, 496.6275
571.8249, 499.4648
572.3070, 495.8932
572.7891, 492.5835
573.2712, 488.8864
573.7534, 489.7159
574.2355, 500.4840
574.7176, 512.4486
575.1997, 513.9500
575.6818, 505.1761
576.1639, 499.9115
576.6461, 504.5561
577.1282, 510.5395
577.6103, 511.5451
578.0924, 509.3065
578.5745, 508.2996
579.0566, 510.2050
579.5388, 513.1334
580.0209, 513.9514
580.5030, 511.9865
580.9851, 513.1090
581.4672, 523.6183
581.9493, 528.2801
582.4314, 514.6588
582.9135, 494.8087
583.3956, 486.4387
583.8777, 494.9201
584.3599, 505.3562
584.8420, 507.8684
585.3241, 506.3383
585.8062, 507.5369
586.2883, 511.8108
586.7704, 514.8074
587.2526, 513.2999
587.7347, 509.0691
588.2168, 508.3741
588.6989, 516.3168
589.1810, 519.0463
589.6631, 511.1844
590.1453, 502.9874
590.6274, 499.9465
591.1095, 501.7500
591.5916, 506.6635
592.0737, 515.8230
592.5558, 523.8057
593.0380, 521.4648
593.5201, 510.9451
594.0022, 504.0789
594.4843, 503.6792
594.9664, 506.3258
595.4485, 509.0823
595.9307, 511.9709
596.4128, 515.7185
596.8949, 521.7366
597.3770, 526.7617
597.8591, 532.1041
598.3412, 534.8727
598.8234, 529.5182
599.3055, 517.1063
599.7876, 507.2518
600.2697, 508.9420
600.7518, 518.3442
601.2339, 524.2134
601.7161, 526.2289
602.1982, 528.1499
602.6803, 531.4418
603.1624, 534.8831
603.6445, 535.4246
604.1266, 532.3417
604.6088, 535.6738
605.0909, 559.4216
605.5730, 576.4538
606.0551, 566.2880
606.5372, 541.6982
607.0193, 523.4407
607.5015, 518.3956
607.9836, 519.2592
608.4657, 517.5397
608.9478, 513.4858
609.4299, 512.3403
609.9120, 515.4052
610.3942, 517.7302
610.8763, 515.1255
611.3584, 511.6427
611.8405, 515.2247
612.3226, 528.8901
612.8047, 535.4205
613.2869, 522.2209
613.7690, 506.2174
614.2511, 501.2330
614.7332, 505.6238
615.2153, 513.0137
615.6974, 520.5510
616.1796, 526.1816
616.6617, 525.3812
617.1438, 516.8827
617.6259, 511.5246
618.1080, 512.1309
618.5901, 512.0013
619.0723, 503.6650
619.5544, 493.4687
620.0365, 493.5092
620.5186, 510.4429
621.0007, 522.3408
621.4828, 513.4927
621.9650, 497.8229
622.4471, 490.2132
622.9292, 491.6471
623.4113, 498.9458
623.8934, 510.9468
624.3755, 523.8629
624.8577, 527.7690
625.3398, 519.5408
625.8219, 513.4993
626.3040, 512.2247
626.7861, 511.5469
627.2682, 509.4696
627.7504, 506.2563
628.2325, 502.3257
628.7146, 497.2014
629.1967, 492.6215
629.6788, 489.6436
630.1609, 487.7775
630.6431, 485.8882
631.1252, 484.0930
631.6073, 484.0193
632.0894, 486.8396
632.5715, 492.0796
633.0536, 498.8439
633.5358, 509.6279
634.0179, 515.1132
634.5000, 508.5991
634.9821, 502.1195
635.4642, 504.7289
635.9464, 512.8403
636.4285, 515.9083
636.9106, 507.7542
637.3927, 499.4003
637.8748, 499.3362
638.3569, 503.5915
638.8391, 506.1107
639.3212, 505.7942
639.8033, 503.5162
640.2854, 499.7786
640.7675, 494.8543
641.2496, 489.5170
641.7318, 482.0942
642.2139, 478.3867
642.6960, 481.5464
643.1781, 486.5438
643.6602, 491.4411
644.1423, 495.7659
644.6245, 498.4743
645.1066, 499.7515
645.5887, 498.6398
646.0708, 491.8831
646.5529, 483.2462
647.0350, 479.6824
647.5172, 481.9099
647.9993, 485.0742
648.4814, 485.2051
648.9635, 483.3364
649.4456, 484.4641
649.9277, 491.0125
650.4099, 493.9653
650.8920, 488.2904
651.3741, 482.0759
651.8562, 479.7017
652.3383, 481.0991
652.8204, 485.9928
653.3026, 498.5918
653.7847, 508.6871
654.2668, 507.9907
654.7489, 501.6804
655.2310, 496.7271
655.7131, 494.5913
656.1953, 495.0598
656.6774, 498.4440
657.1595, 503.4258
657.6416, 504.5121
658.1237, 499.5556
658.6058, 498.4951
659.0880, 508.9417
659.5701, 516.7139
660.0522, 506.6119
660.5343, 485.2512
661.0164, 474.5150
661.4985, 484.2738
661.9807, 497.4732
662.4628, 510.0123
662.9449, 519.2295
663.4270, 519.9180
663.9091, 512.9881
664.3912, 505.3241
664.8734, 501.7621
665.3555, 500.8549
665.8376, 498.2905
666.3197, 493.3590
666.8018, 492.0428
667.2839, 498.0231
667.7661, 503.3392
668.2482, 498.9263
668.7303, 488.8609
669.2124, 486.1059
669.6945, 495.9164
670.1766, 506.4898
670.6588, 518.2358
671.1409, 526.0869
671.6230, 522.8691
672.1051, 510.6940
672.5872, 497.1240
673.0693, 486.0233
673.5515, 479.1652
674.0336, 482.0501
674.5157, 494.3968
674.9978, 502.9474
675.4799, 505.2400
675.9620, 506.1308
676.4442, 509.3452
676.9263, 513.6477
677.4084, 514.2182
677.8905, 507.3953
678.3726, 503.7958
678.8547, 507.5765
679.3369, 512.4683
679.8190, 514.9119
680.3011, 514.8226
680.7832, 512.7194
681.2653, 508.6630
681.7474, 504.1508
682.2296, 501.2366
682.7117, 499.4187
683.1938, 495.9252
683.6759, 490.3107
684.1580, 487.3134
684.6401, 490.5115
685.1223, 496.8354
685.6044, 498.8706
686.0865, 494.1599
686.5686, 490.7055
687.0507, 488.6129
687.5328, 487.5782
688.0150, 487.4756
688.4971, 488.3450
688.9792, 491.1140
689.4613, 496.1984
689.9434, 499.2383
690.4255, 493.8491
690.9077, 485.8718
691.3898, 486.4591
691.8719, 494.3134
692.3540, 499.0125
692.8361, 495.8350
693.3182, 489.6188
693.8004, 487.4182
694.2825, 489.3262
694.7646, 495.1663
695.2467, 511.9090
695.7288, 521.8585
696.2109, 514.9023
696.6931, 501.4802
697.1752, 491.6277
697.6573, 486.1365
698.1394, 481.5206
698.6215, 475.6998
699.1036, 470.9750
699.5858, 467.9973
700.0679, 467.7213
700.5500, 473.3538
701.0321, 485.0433
701.5142, 496.8857
701.9963, 503.1170
702.4785, 504.4623
702.9606, 505.4648
703.4427, 507.3358
703.9248, 500.8731
704.4069, 475.4022
704.8890, 452.7112
705.3712, 460.2308
705.8533, 494.7495
706.3354, 513.9067
706.8175, 503.4612
707.2996, 493.4450
707.7817, 492.7506
708.2639, 495.8312
708.7460, 497.9713
709.2281, 498.5656
709.7102, 498.8391
710.1923, 499.8029
710.6744, 500.0533
711.1566, 494.4845
711.6387, 485.7347
712.1208, 489.2167
712.6029, 508.2345
713.0850, 523.7448
713.5671, 521.3239
714.0493, 506.2106
714.5314, 496.1176
715.0135, 493.3235
715.4956, 491.3757
715.9777, 488.8647
716.4598, 488.5509
716.9420, 493.8512
717.4241, 501.5740
717.9062, 506.2392
718.3883, 506.3000
718.8704, 504.4834
719.3525, 501.7352
719.8347, 498.4200
720.3168, 493.9689
720.7989, 489.2618
721.2810, 486.8394
721.7631, 487.7655
722.2452, 491.3961
722.7274, 497.8043
723.2095, 506.9548
723.6915, 512.3259
724.1736, 513.1634
724.6558, 512.3549
725.1379, 509.5176
725.6200, 506.8164
726.1021, 508.5493
726.5842, 514.9705
727.0663, 516.5889
727.5485, 506.9599
728.0306, 499.0553
728.5127, 500.7589
728.9948, 505.0712
729.4769, 502.2822
729.9590, 492.8299
730.4412, 487.2258
730.9233, 495.3203
731.4054, 506.9258
731.8875, 503.4361
732.3696, 489.1559
732.8517, 484.1654
733.3339, 492.6879
733.8160, 501.6462
734.2981, 500.6489
734.7802, 492.2397
735.2623, 486.4822
735.7444, 484.0442
736.2266, 482.8163
736.7087, 482.2183
737.1908, 483.3549
737.6729, 489.1941
738.1550, 496.4932
738.6371, 498.2498
739.1193, 490.8711
739.6014, 486.7146
740.0835, 495.9908
740.5656, 506.8212
741.0477, 506.7724
741.5298, 499.1917
742.0120, 494.0115
742.4941, 494.8796
742.9762, 497.2330
743.4583, 496.0559
743.9404, 491.6737
744.4225, 484.5642
744.9047, 474.2285
745.3868, 467.7320
745.8689, 467.7792
746.3510, 472.3068
746.8331, 479.8922
747.3152, 490.8052
747.7974, 497.9986
748.2795, 499.8446
748.7616, 500.0624
749.2437, 497.3905
749.7258, 494.7343
750.2079, 495.7163
750.6901, 499.0313
751.1722, 498.7440
751.6543, 489.6733
752.1364, 481.4839
752.6185, 481.9581
753.1006, 487.8623
753.5828, 497.8839
754.0649, 509.2302
754.5470, 510.0756
755.0291, 492.5867
755.5112, 469.8736
755.9933, 470.0221
756.4755, 493.7945
756.9576, 502.2920
757.4397, 489.2885
757.9218, 476.8250
758.4039, 474.6128
758.8860, 479.8598
759.3682, 488.9642
759.8503, 504.0100
760.3324, 514.1919
760.8145, 518.1890
761.2966, 518.7379
761.7787, 513.4910
762.2609, 507.2952
762.7430, 507.4456
763.2251, 513.3170
763.7072, 514.2159
764.1893, 497.5814
764.6714, 480.5169
765.1536, 485.3076
765.6357, 501.4349
766.1178, 506.5864
766.5999, 497.4612
767.0820, 483.1747
767.5641, 469.4043
768.0463, 457.5021
768.5284, 450.4345
769.0105, 448.1790
769.4926, 452.2331
769.9747, 465.8941
770.4568, 477.5435
770.9390, 479.9570
771.4211, 476.2680
771.9032, 472.8831
772.3853, 468.5647
772.8674, 468.2316
773.3495, 477.5822
773.8317, 484.6919
774.3138, 481.8844
774.7959, 475.5285
775.2780, 474.7635
775.7601, 480.4798
776.2422, 484.0838
776.7244, 477.1294
777.2065, 468.6302
777.6886, 467.1945
778.1707, 471.5178
778.6528, 481.1560
779.1349, 494.6935
779.6171, 504.5703
780.0992, 504.6749
780.5813, 497.8542
781.0634, 490.3482
781.5455, 481.8507
782.0276, 478.0847
782.5098, 480.7514
782.9919, 484.9862
783.4740, 488.8428
783.9561, 491.5869
784.4382, 490.9143
784.9203, 483.0016
785.4025, 481.5853
785.8846, 496.5392
786.3667, 506.3589
786.8488, 495.8859
787.3309, 479.9968
787.8130, 478.7499
788.2952, 493.8693
788.7773, 506.0969
789.2594, 503.9718
789.7415, 497.4692
790.2236, 494.4012
790.7057, 492.5724
791.1879, 487.2130
791.6700, 478.4154
792.1521, 471.4228
792.6342, 470.0804
793.1163, 471.8089
793.5984, 471.2847
794.0806, 468.8641
794.5627, 469.0426
795.0448, 472.8064
795.5269, 474.3630
796.0090, 469.5688
796.4911, 462.3451
796.9733, 460.9017
797.4554, 467.3119
797.9375, 470.9733
798.4196, 469.2269
798.9017, 468.3357
799.3839, 472.9101
799.8660, 477.1738
800.3481, 473.5503
800.8302, 462.5975
801.3123, 455.9602
801.7944, 462.3110
802.2766, 466.8497
802.7587, 458.4460
803.2408, 447.5865
803.7229, 446.3419
804.2050, 453.8255
804.6871, 462.5810
805.1693, 469.6428
805.6514, 472.2250
806.1335, 461.7530
806.6156, 445.6317
807.0977, 443.2517
807.5798, 454.6518
808.0620, 469.1174
808.5441, 482.3911
809.0262, 492.0047
809.5083, 494.3583
809.9904, 489.5378
810.4725, 481.3306
810.9547, 466.7092
811.4368, 459.6714
811.9189, 468.3820
812.4010, 479.3828
812.8831, 478.9295
813.3652, 468.8086
813.8474, 464.6721
814.3295, 469.9560
814.8116, 475.8714
815.2937, 486.9261
815.7758, 493.1187
816.2579, 483.9889
816.7401, 466.8828
817.2222, 454.8798
817.7043, 451.1590
818.1864, 453.7976
818.6685, 466.9106
819.1506, 481.4297
819.6328, 487.6004
820.1149, 488.6372
820.5970, 493.7563
821.0791, 503.7595
821.5612, 506.4117
822.0433, 486.5762
822.5255, 460.2877
823.0076, 469.5827
823.4897, 507.4786
823.9718, 523.1902
824.4539, 508.0502
824.9360, 485.3827
825.4182, 468.5439
825.9003, 457.8115
826.3824, 454.5209
826.8645, 460.6000
827.3466, 465.8464
827.8287, 470.8943
828.3109, 473.7260
828.7930, 470.8994
829.2751, 467.5262
829.7572, 471.4325
830.2393, 482.5576
830.7214, 489.4667
831.2036, 492.8506
831.6857, 489.9433
832.1678, 471.3650
832.6499, 453.4010
833.1320, 451.8944
833.6141, 462.4040
834.0963, 469.9620
834.5784, 468.8231
835.0605, 466.0411
835.5426, 463.2010
836.0247, 463.5118
836.5068, 475.6359
836.9890, 493.3251
837.4711, 500.3416
837.9532, 492.0695
838.4353, 478.7248
838.9174, 469.2942
839.3995, 462.4720
839.8817, 453.6266
840.3638, 443.7439
840.8459, 440.6522
841.3280, 446.0933
841.8101, 453.6100
842.2922, 458.8181
842.7744, 462.2501
843.2565, 465.2457
843.7386, 467.6505
844.2207, 470.5194
844.7028, 474.5672
845.1849, 477.4788
845.6671, 478.0169
846.1492, 477.1521
846.6313, 476.4834
847.1134, 476.2110
847.5955, 473.6419
848.0776, 460.7004
848.5598, 456.3566
849.0419, 475.9048
849.5240, 495.4479
850.0061, 494.6832
850.4882, 478.5636
850.9703, 463.3159
851.4525, 451.5776
851.9346, 446.6277
852.4167, 458.0750
852.8988, 469.8524
853.3809, 463.2057
853.8630, 447.8688
854.3452, 445.8060
854.8273, 461.0981
855.3094, 475.0196
855.7915, 471.1416
856.2736, 459.1532
856.7557, 451.2283
857.2379, 447.5220
857.7200, 449.8047
858.2021, 457.6664
858.6842, 467.4848
859.1663, 477.7231
859.6484, 483.7463
860.1306, 471.9866
860.6127, 443.8634
861.0948, 436.0747
861.5769, 452.3597
862.0590, 467.3958
862.5411, 472.5984
863.0233, 471.0374
863.5054, 464.8659
863.9875, 454.7020
864.4696, 450.5285
864.9517, 456.8653
865.4338, 459.1827
865.9159, 452.3743
866.3980, 445.2431
866.8801, 444.0096
867.3622, 445.9960
867.8444, 445.1064
868.3265, 438.8094
868.8086, 438.2999
869.2907, 451.2016
869.7728, 462.7029
870.2549, 464.0019
870.7371, 462.6218
871.2192, 469.2735
871.7013, 482.5587
872.1834, 488.6668
872.6655, 477.0675
873.1476, 465.9994
873.6298, 469.0940
874.1119, 476.4157
874.5940, 476.3673
875.0761, 471.3171
875.5582, 470.3475
876.0403, 476.5353
876.5225, 482.7882
877.0046, 483.0827
877.4867, 479.0562
877.9688, 472.4513
878.4509, 463.9201
878.9330, 452.4891
879.4152, 439.3950
879.8973, 436.8829
880.3794, 455.5256
880.8615, 481.3949
881.3436, 483.2744
881.8257, 463.9859
882.3079, 454.3067
882.7900, 456.3553
883.2721, 461.8019
883.7542, 467.7238
884.2363, 474.2176
884.7184, 482.4467
885.2006, 491.7120
885.6827, 491.5434
886.1648, 479.4228
886.6469, 465.1343
887.1290, 446.0219
887.6111, 432.6403
888.0933, 433.9151
888.5754, 444.9753
889.0575, 454.7896
889.5396, 464.8195
890.0217, 469.0165
890.5038, 461.4161
890.9860, 455.7341
891.4681, 458.2350
891.9502, 462.3248
892.4323, 459.6410
892.9144, 452.1664
893.3965, 452.6601
893.8787, 473.5271
894.3608, 485.8055
894.8429, 472.1972
895.3250, 456.0736
895.8071, 458.1713
896.2892, 467.6852
896.7714, 460.3189
897.2535, 432.0203
897.7356, 414.5242
898.2177, 435.3479
898.6998, 463.3577
899.1819, 477.8029
899.6641, 482.0514
900.1462, 476.9747
900.6283, 466.3380
901.1104, 460.3193
901.5925, 464.1660
902.0746, 469.8092
902.5568, 466.9985
903.0389, 461.1770
903.5210, 463.0855
904.0031, 470.7874
904.4852, 478.2668
904.9673, 483.2836
905.4495, 481.4921
905.9316, 467.5363
906.4137, 449.2290
906.8958, 444.1249
907.3779, 450.2245
907.8600, 454.4989
908.3422, 455.7356
908.8243, 454.2012
909.3064, 449.3404
909.7885, 447.1588
910.2706, 457.7040
910.7527, 478.4044
911.2349, 483.1365
911.7170, 468.9184
912.1991, 459.9425
912.6812, 461.9346
913.1633, 465.3322
913.6454, 464.7470
914.1276, 460.0296
914.6097, 449.0380
915.0918, 426.7170
915.5739, 423.5958
916.0560, 454.7309
916.5381, 474.3981
917.0203, 459.3596
917.5024, 439.8063
917.9845, 447.2305
918.4666, 475.7528
918.9487, 489.7069
919.4308, 480.4920
919.9130, 470.8307
920.3951, 456.3752
920.8772, 446.8553
921.3593, 448.9813
921.8414, 456.6108
922.3235, 462.9596
922.8057, 467.5049
923.2878, 470.4331
923.7699, 472.0127
924.2520, 471.7119
924.7341, 465.0614
925.2162, 460.5172
925.6984, 470.8556
926.1805, 486.0097
926.6626, 483.3067
927.1447, 456.3783
927.6268, 434.9434
928.1089, 434.8496
928.5911, 441.0347
929.0732, 447.6327
929.5553, 452.6641
930.0374, 451.9866
930.5195, 447.8518
931.0016, 448.4081
931.4838, 457.7487
931.9659, 468.2686
932.4480, 476.6700
932.9301, 481.2487
933.4122, 477.9855
933.8943, 470.3116
934.3765, 464.8069
934.8586, 462.5525
935.3407, 460.6114
935.8228, 457.2328
936.3049, 452.9574
936.7870, 445.8102
937.2692, 439.4517
937.7513, 443.1701
938.2334, 454.2679
938.7155, 460.9526
939.1976, 459.6338
939.6797, 457.2459
940.1619, 459.7723
940.6440, 466.0026
941.1261, 477.1280
941.6082, 489.8807
942.0903, 490.7808
942.5724, 479.3290
943.0546, 464.3602
943.5367, 449.8629
944.0188, 439.2525
944.5009, 437.7783
944.9830, 443.6907
945.4651, 451.4124
945.9473, 460.5251
946.4294, 464.2077
946.9115, 461.0837
947.3936, 457.4209
947.8757, 457.0594
948.3578, 458.7871
948.8400, 460.4242
949.3221, 461.9820
949.8042, 464.5842
950.2863, 468.5947
950.7684, 469.8091
951.2505, 466.7101
951.7327, 462.6489
952.2148, 460.2307
952.6969, 458.9552
953.1790, 457.9773
953.6611, 458.0627
954.1432, 452.3825
954.6254, 437.4271
955.1075, 429.7404
955.5896, 436.9911
956.0717, 449.0595
956.5538, 456.1433
957.0359, 459.2431
957.5181, 463.9084
958.0002, 471.6304
958.4823, 476.5162
958.9644, 478.5768
959.4465, 476.7061
959.9286, 466.2851
960.4108, 456.7974
960.8929, 461.7407
961.3750, 480.1976
961.8571, 491.3902
962.3392, 494.6830
962.8214, 491.5761
963.3035, 475.1382
963.7856, 462.0392
964.2677, 460.4139
964.7498, 466.9145
965.2319, 479.4549
965.7141, 499.4376
966.1962, 507.7133
966.6783, 496.2887
967.1604, 484.9142
967.6425, 472.2220
968.1246, 463.8157
968.6068, 467.7361
969.0889, 476.1657
969.5710, 473.0000
970.0531, 454.5314
970.5352, 445.6930
971.0173, 456.9273
971.4995, 465.8679
971.9816, 465.4267
972.4637, 463.2383
972.9458, 463.3195
973.4279, 466.1074
973.9100, 473.4199
974.3922, 487.9796
974.8743, 495.1004
975.3564, 485.4007
975.8385, 477.2030
976.3206, 477.4628
976.8027, 480.9416
977.2849, 485.0937
977.7670, 488.4064
978.2491, 487.0303
978.7312, 478.2141
979.2133, 472.6974
979.6954, 475.1605
980.1776, 478.8442
980.6597, 482.9162
981.1418, 485.1382
981.6239, 481.8935
982.1060, 474.8874
982.5881, 469.5834
983.0703, 465.0282
983.5524, 468.9210
984.0345, 497.0331
984.5166, 518.8058
984.9987, 511.9888
985.4808, 494.0074
985.9630, 483.3578
986.4451, 480.8516
986.9272, 479.4780
987.4093, 477.2528
987.8914, 476.0273
988.3735, 478.7587
988.8557, 480.1933
989.3378, 476.1986
989.8199, 469.5485
990.3020, 465.3510
990.7841, 462.6023
991.2662, 452.7505
991.7484, 425.6056
992.2305, 407.8144
992.7126, 418.6045
993.1947, 434.2498
993.6768, 436.6736
994.1589, 434.7553
994.6411, 444.2403
995.1232, 464.4024
995.6053, 478.5090
996.0874, 478.9331
996.5695, 475.0951
997.0516, 467.0378
997.5338, 460.5585
998.0159, 461.5213
998.4980, 465.9573
998.9801, 467.5756
999.4622, 465.9042
999.9443, 465.0651
1000.426, 466.1411
1000.909, 469.2451
1001.391, 476.0903
1001.873, 483.3333
1002.355, 488.5690
1002.837, 492.3864
1003.319, 496.9284
1003.801, 501.7992
1004.283, 502.0570
1004.766, 492.1957
1005.248, 483.6144
1005.730, 484.7421
1006.212, 486.2677
1006.694, 477.7577
1007.176, 466.3583
1007.658, 465.0746
1008.140, 474.4448
1008.622, 480.7155
1009.104, 475.7809
1009.587, 471.3919
1010.069, 473.0551
1010.551, 477.0769
1011.033, 483.5258
1011.515, 488.8753
1011.997, 485.2738
1012.479, 473.5588
1012.961, 469.8169
1013.444, 489.3660
1013.926, 502.6146
1014.408, 488.3740
1014.890, 471.8991
1015.372, 475.8494
1015.854, 487.7536
1016.336, 484.6451
1016.818, 465.8784
1017.300, 455.6817
1017.783, 472.3998
1018.265, 482.1363
1018.747, 462.1056
1019.229, 441.1891
1019.711, 441.5453
1020.193, 452.2738
1020.675, 456.8268
1021.157, 453.7977
1021.640, 451.9997
1022.122, 457.1830
1022.604, 458.5895
1023.086, 449.8735
1023.568, 439.6114
1024.050, 430.0326
1024.532, 423.8996
1025.014, 425.3538
1025.496, 433.8813
1025.979, 442.9043
1026.461, 451.3599
1026.943, 459.3975
1027.425, 469.9917
1027.907, 476.7940
1028.389, 472.2746
1028.871, 464.8082
1029.353, 464.9328
1029.836, 472.3632
1030.318, 479.2961
1030.800, 483.9599
1031.282, 488.9933
1031.764, 502.1644
1032.246, 507.0198
1032.728, 486.8168
1033.210, 461.3138
1033.693, 451.1707
1034.175, 455.6400
1034.657, 464.6167
1035.139, 483.8674
1035.621, 494.3307
1036.103, 487.5324
1036.585, 480.5627
1037.067, 477.5041
1037.549, 478.5489
1038.031, 488.7191
1038.514, 504.0059
1038.996, 504.1242
1039.478, 474.9601
1039.960, 463.0036
1040.442, 486.0041
1040.924, 499.7503
1041.406, 481.2294
1041.888, 460.9792
1042.371, 469.9044
1042.853, 496.1171
1043.335, 498.9933
1043.817, 466.5830
1044.299, 452.5050
1044.781, 466.7430
1045.263, 478.8241
1045.745, 479.0334
1046.228, 479.3952
1046.710, 491.5338
1047.192, 508.1451
1047.674, 510.1903
1048.156, 494.4045
1048.638, 487.9313
1049.120, 495.3877
1049.602, 496.4046
1050.084, 483.5719
1050.567, 472.6712
1051.049, 474.9504
1051.531, 484.1297
1052.013, 490.4951
1052.495, 494.0595
1052.977, 471.9795
1053.459, 416.2393
1053.941, 396.2158
1054.423, 428.6614
1054.906, 467.3383
1055.388, 488.0744
1055.870, 495.8840
1056.352, 497.3401
1056.834, 492.8937
1057.316, 483.4263
1057.798, 469.1089
1058.280, 461.1649
1058.763, 461.0224
1059.245, 468.7631
1059.727, 485.0357
1060.209, 500.2818
1060.691, 504.2565
1061.173, 498.0004
1061.655, 478.1781
1062.137, 449.9567
1062.620, 441.6503
1063.102, 453.7788
1063.584, 472.8168
1064.066, 493.2852
1064.548, 506.4577
1065.030, 503.1252
1065.512, 492.1735
1065.994, 487.3201
1066.476, 487.3430
1066.958, 492.9952
1067.441, 500.6462
1067.923, 496.2773
1068.405, 478.9646
1068.887, 467.2241
1069.369, 474.6467
1069.851, 485.6984
1070.333, 481.9007
1070.815, 472.2370
1071.298, 468.8663
1071.780, 469.3128
1072.262, 467.0753
1072.744, 462.1059
1073.226, 459.4190
1073.708, 461.4849
1074.190, 464.4534
1074.672, 463.9769
1075.155, 464.9146
1075.637, 475.0288
1076.119, 486.3069
1076.601, 488.5085
1077.083, 482.8848
1077.565, 474.2460
1078.047, 463.3051
1078.529, 459.9687
1079.011, 479.5578
1079.494, 493.4803
1079.976, 483.3312
1080.458, 466.9408
1080.940, 453.6972
1081.422, 446.9685
1081.904, 453.3960
1082.386, 473.6190
1082.868, 488.0069
1083.350, 490.0069
1083.833, 490.3520
1084.315, 492.2885
1084.797, 491.4584
1085.279, 481.4424
1085.761, 470.2999
1086.243, 468.0795
1086.725, 474.0704
1087.207, 482.4898
1087.689, 502.6973
1088.172, 504.3801
1088.654, 473.2287
1089.136, 451.4841
1089.618, 455.5190
1090.100, 468.7502
1090.582, 478.4128
1091.064, 484.5502
1091.546, 486.8148
1092.029, 484.5435
1092.511, 484.3384
1092.993, 487.3519
1093.475, 484.2070
1093.957, 471.5086
1094.439, 461.5329
1094.921, 462.7780
1095.403, 467.7470
1095.885, 462.6330
1096.368, 450.7245
1096.850, 451.9610
1097.332, 464.7947
1097.814, 476.7674
1098.296, 485.8219
1098.778, 488.9242
1099.260, 484.9060
1099.742, 479.3778
1100.224, 478.2392
1100.707, 478.7326
1101.189, 475.8782
1101.671, 470.8238
1102.153, 464.0015
1102.635, 457.6171
1103.117, 458.7296
1103.599, 467.8568
1104.081, 477.2356
1104.564, 482.7858
1105.046, 484.4436
1105.528, 480.0878
1106.010, 473.7292
1106.492, 467.9243
1106.974, 463.8067
1107.456, 463.3165
1107.938, 465.7215
1108.421, 468.0403
1108.903, 469.2708
1109.385, 471.0402
1109.867, 472.9012
1110.349, 476.9541
1110.831, 489.3154
1111.313, 499.3906
1111.795, 495.7896
1112.277, 484.6506
1112.760, 477.1752
1113.242, 474.3811
1113.724, 476.1349
1114.206, 491.2318
1114.688, 496.8269
1115.170, 482.8547
1115.652, 471.0206
1116.134, 470.9631
1116.616, 475.8673
1117.099, 479.0399
1117.581, 480.8662
1118.063, 483.5750
1118.545, 488.6372
1119.027, 487.3027
1119.509, 477.8164
1119.991, 470.2274
1120.473, 467.3143
1120.956, 464.7856
1121.438, 459.1083
1121.920, 454.5286
1122.402, 461.1248
1122.884, 475.0568
1123.366, 471.5339
1123.848, 454.2113
1124.330, 448.2463
1124.813, 455.6872
1125.295, 463.0873
1125.777, 465.0104
1126.259, 467.9965
1126.741, 480.6527
1127.223, 492.4862
1127.705, 483.5822
1128.187, 466.7653
1128.669, 465.6198
1129.151, 473.3809
1129.634, 469.1758
1130.116, 452.5844
1130.598, 444.8479
1131.080, 458.1844
1131.562, 470.8437
1132.044, 466.2685
1132.526, 460.5856
1133.008, 465.3756
1133.491, 473.8466
1133.973, 481.8633
1134.455, 486.6718
1134.937, 481.3383
1135.419, 463.4093
1135.901, 453.7924
1136.383, 463.0162
1136.865, 469.6021
1137.348, 467.2844
1137.830, 465.5188
1138.312, 470.9986
1138.794, 475.9013
1139.276, 469.1260
1139.758, 454.3718
1140.240, 451.3974
1140.722, 462.7050
1141.204, 474.5324
1141.687, 488.2453
1142.169, 492.7017
1142.651, 484.1879
1143.133, 472.2623
1143.615, 462.4600
1144.097, 457.2086
1144.579, 462.1866
1145.061, 474.0483
1145.543, 480.8941
1146.026, 483.7040
1146.508, 486.3283
1146.990, 488.8270
1147.472, 488.6121
1147.954, 485.0812
1148.436, 481.6797
1148.918, 481.9458
1149.400, 480.9976
1149.883, 472.0009
1150.365, 460.7562
1150.847, 450.0016
1151.329, 443.7635
1151.811, 450.3190
1152.293, 466.6504
1152.775, 480.3694
1153.257, 487.9529
1153.740, 492.2998
1154.222, 498.8016
1154.704, 496.1417
1155.186, 466.1305
1155.668, 440.6811
1156.150, 446.1570
1156.632, 466.9816
1157.114, 480.6617
1157.596, 487.4440
1158.078, 490.4643
1158.561, 491.6328
1159.043, 480.8616
1159.525, 451.3258
1160.007, 433.6727
1160.489, 438.2307
1160.971, 451.9984
1161.453, 466.3912
1161.935, 479.8128
1162.418, 490.6787
1162.900, 497.9174
1163.382, 493.1897
1163.864, 479.8262
1164.346, 473.9684
1164.828, 476.7140
1165.310, 483.2563
1165.792, 491.0883
1166.275, 493.7523
1166.757, 484.3466
1167.239, 472.5436
1167.721, 467.3803
1168.203, 466.0573
1168.685, 466.4539
1169.167, 467.9657
1169.649, 471.0187
1170.131, 474.6008
1170.614, 476.0038
1171.096, 474.6314
1171.578, 470.4853
1172.060, 458.4752
1172.542, 451.0016
1173.024, 451.6891
1173.506, 457.7769
1173.988, 472.7874
1174.470, 487.6212
1174.953, 490.0489
1175.435, 482.5976
1175.917, 480.8712
1176.399, 487.4811
1176.881, 484.9639
1177.363, 471.3865
1177.845, 459.9783
1178.327, 453.5302
1178.810, 456.8600
1179.292, 474.0647
1179.774, 491.5868
1180.256, 489.8901
1180.738, 476.1250
1181.220, 464.1810
1181.702, 454.7484
1182.184, 449.1276
1182.667, 447.4411
1183.149, 449.7397
1183.631, 455.8613
1184.113, 466.0318
1184.595, 482.9721
1185.077, 493.9414
1185.559, 482.7934
1186.041, 472.7167
1186.523, 483.6589
1187.005, 498.2815
1187.488, 500.6280
1187.970, 493.3943
1188.452, 482.8777
1188.934, 469.2491
1189.416, 461.6810
1189.898, 459.3600
1190.380, 466.4602
1190.862, 491.1163
1191.345, 504.1346
1191.827, 493.1589
1192.309, 476.7413
1192.791, 469.1721
1193.273, 467.6769
1193.755, 467.9709
1194.237, 469.3273
1194.719, 466.3311
1195.202, 460.6511
1195.684, 461.6062
1196.166, 468.4853
1196.648, 472.4335
1197.130, 470.6494
1197.612, 466.9323
1198.094, 462.7065
1198.576, 460.9272
1199.058, 465.4508
1199.541, 472.2336
1200.023, 481.2979
1200.505, 487.6573
1200.987, 483.9411
1201.469, 473.1704
1201.951, 462.0820
1202.433, 450.8763
1202.915, 450.3004
1203.397, 479.0355
1203.880, 488.0976
1204.362, 459.6518
1204.844, 441.5226
1205.326, 457.3722
1205.808, 472.6591
1206.290, 454.7142
1206.772, 422.1748
1207.254, 416.2867
1207.737, 434.1199
1208.219, 456.4572
1208.701, 481.0967
1209.183, 494.1309
1209.665, 494.7344
1210.147, 486.9080
1210.629, 473.2715
1211.111, 463.7641
1211.594, 466.3108
1212.076, 472.2484
1212.558, 473.2961
1213.040, 474.6751
1213.522, 482.3209
1214.004, 491.9737
1214.486, 502.6763
1214.968, 509.8462
1215.450, 500.3579
1215.932, 471.0532
1216.415, 457.6627
1216.897, 474.4567
1217.379, 487.0549
1217.861, 496.9554
1218.343, 493.6850
1218.825, 466.7282
1219.307, 447.7472
1219.789, 464.5737
1220.271, 494.0631
1220.754, 489.8351
1221.236, 462.3647
1221.718, 461.7390
1222.200, 480.6935
1222.682, 491.1834
1223.164, 491.8286
1223.646, 491.5318
1224.128, 492.1776
1224.611, 486.5941
1225.093, 468.1752
1225.575, 454.4641
1226.057, 462.5342
1226.539, 473.6359
1227.021, 477.4816
1227.503, 476.5392
1227.985, 470.3441
1228.468, 462.7268
1228.950, 460.8567
1229.432, 464.4367
1229.914, 464.7949
1230.396, 461.8467
1230.878, 453.8846
1231.360, 436.0871
1231.842, 439.1017
1232.324, 474.7396
1232.807, 489.4731
1233.289, 449.9561
1233.771, 405.0023
1234.253, 419.7989
1234.735, 461.6856
1235.217, 465.7678
1235.699, 447.8062
1236.181, 434.2751
1236.663, 426.1569
1237.146, 420.9037
1237.628, 417.5713
1238.110, 413.4852
1238.592, 406.6965
1239.074, 410.9541
1239.556, 449.1909
1240.038, 472.9868
1240.520, 452.2386
1241.003, 433.6761
1241.485, 442.2330
1241.967, 459.4926
1242.449, 468.6915
1242.931, 473.1770
1243.413, 483.1477
1243.895, 498.1240
1244.377, 498.9039
1244.859, 486.7169
1245.342, 477.9175
1245.824, 474.7445
1246.306, 478.2207
1246.788, 487.6688
1247.270, 494.3912
1247.752, 491.8556
1248.234, 487.4201
1248.716, 488.8481
1249.198, 490.0792
1249.681, 481.4979
1250.163, 474.1616
1250.645, 483.8898
1251.127, 501.1727
1251.609, 505.7016
1252.091, 497.0670
1252.573, 496.6913
1253.055, 509.7333
1253.538, 517.8508
1254.020, 521.5006
1254.502, 517.4631
1254.984, 504.0204
1255.466, 489.5092
1255.948, 477.7525
1256.430, 474.0381
1256.912, 486.8708
1257.395, 505.0433
1257.877, 507.0309
1258.359, 501.6462
1258.841, 504.8877
1259.323, 512.0891
1259.805, 513.4399
1260.287, 509.2037
1260.769, 503.7826
1261.251, 498.2310
1261.734, 495.5341
1262.216, 497.2290
1262.698, 500.8856
##END=



