##NAMES=Marialite
##RRUFFID=R100112
##IDEAL CHEMISTRY=Na_4_Al_3_Si_9_O_24_Cl
##LOCALITY=Sar-e-Sang District,  Koksha Valley,  Badakhshan Province,  Afghanistan
##OWNER=RRUFF
##SOURCE=Robert Woodside
##DESCRIPTION=Colorless crystal fragment
##STATUS=The identification of this mineral has been confirmed only by single crystal X-ray diffraction.
##URL=rruff.info/R100112
90.01007, 0.0000000E+00
90.49219, 32.16740
90.97430, 33.47208
91.45642, 33.93711
91.93854, 32.97988
92.42065, 31.34999
92.90277, 30.10359
93.38489, 29.30948
93.86700, 28.83365
94.34912, 28.69578
94.83124, 28.82867
95.31335, 28.84761
95.79547, 28.35327
96.27759, 27.50452
96.75970, 26.90927
97.24182, 26.61504
97.72394, 26.66131
98.20605, 27.35412
98.68817, 28.79129
99.17029, 30.09758
99.65240, 30.67465
100.1345, 30.51214
100.6166, 29.64885
101.0988, 27.71662
101.5809, 24.96060
102.0630, 23.49215
102.5451, 23.63663
103.0272, 24.46547
103.5093, 24.94143
103.9915, 24.86131
104.4736, 24.96377
104.9557, 25.63627
105.4378, 27.15411
105.9199, 27.61667
106.4020, 26.39568
106.8842, 24.43039
107.3663, 23.36163
107.8484, 23.88931
108.3305, 24.51505
108.8126, 24.70715
109.2947, 23.99515
109.7769, 23.63260
110.2590, 23.85425
110.7411, 24.46706
111.2232, 24.86502
111.7053, 25.40571
112.1874, 25.47306
112.6696, 24.78342
113.1517, 21.34040
113.6338, 19.25900
114.1159, 19.95772
114.5980, 22.98822
115.0801, 25.15003
115.5623, 25.39936
116.0444, 24.62445
116.5265, 23.51708
117.0086, 21.28445
117.4907, 19.58774
117.9728, 19.21574
118.4550, 20.21953
118.9371, 21.47437
119.4192, 23.08839
119.9013, 24.53576
120.3834, 25.11777
120.8655, 23.59916
121.3477, 21.71496
121.8298, 20.76737
122.3119, 20.97284
122.7940, 21.45196
123.2761, 21.62201
123.7582, 21.60207
124.2404, 21.65732
124.7225, 21.94355
125.2046, 22.38031
125.6867, 22.93726
126.1688, 23.72569
126.6509, 24.35766
127.1331, 24.15229
127.6152, 23.28683
128.0973, 22.64215
128.5794, 22.97949
129.0615, 23.98997
129.5436, 24.91910
130.0258, 25.52315
130.5079, 26.06063
130.9900, 26.96653
131.4721, 28.23294
131.9542, 29.81491
132.4363, 31.72970
132.9185, 33.95406
133.4006, 36.33521
133.8827, 38.89403
134.3648, 41.55137
134.8469, 43.95736
135.3290, 45.93208
135.8112, 48.46055
136.2933, 52.57798
136.7754, 58.32495
137.2575, 65.22074
137.7396, 73.36397
138.2217, 82.59151
138.7039, 92.11667
139.1860, 101.8914
139.6681, 112.0678
140.1502, 123.2801
140.6323, 135.7397
141.1144, 148.1545
141.5966, 159.8153
142.0787, 170.2048
142.5608, 182.1098
143.0429, 196.3573
143.5250, 211.6243
144.0071, 224.6785
144.4893, 234.4209
144.9714, 243.5502
145.4535, 253.1322
145.9356, 263.5916
146.4177, 273.8128
146.8998, 283.4460
147.3820, 292.8087
147.8641, 303.6473
148.3462, 315.9820
148.8283, 329.6322
149.3104, 344.6211
149.7925, 359.8872
150.2747, 377.8247
150.7568, 399.4014
151.2389, 424.2711
151.7210, 448.3339
152.2031, 469.3742
152.6852, 490.6976
153.1674, 514.6014
153.6495, 543.6966
154.1316, 572.5403
154.6137, 601.1680
155.0958, 629.6014
155.5779, 655.1790
156.0601, 676.4418
156.5422, 695.2960
157.0243, 713.1092
157.5064, 731.7680
157.9885, 747.8998
158.4706, 759.9261
158.9528, 767.3874
159.4349, 774.2812
159.9170, 782.2532
160.3991, 790.0149
160.8812, 796.0765
161.3633, 799.8025
161.8455, 801.9037
162.3276, 802.3101
162.8097, 800.6898
163.2918, 799.0248
163.7739, 797.9742
164.2560, 796.5472
164.7382, 789.6849
165.2203, 783.0030
165.7024, 775.9073
166.1845, 766.6807
166.6666, 754.5469
167.1487, 742.1623
167.6309, 730.5920
168.1130, 719.6647
168.5951, 709.2382
169.0772, 699.2864
169.5593, 689.6305
170.0414, 680.2451
170.5236, 671.3503
171.0057, 662.1109
171.4878, 651.6116
171.9699, 640.0867
172.4520, 628.4861
172.9341, 616.3145
173.4163, 604.5908
173.8984, 594.6871
174.3805, 587.4484
174.8626, 581.0742
175.3447, 573.2736
175.8268, 564.4431
176.3090, 556.4521
176.7911, 550.9216
177.2732, 547.0318
177.7553, 543.5911
178.2374, 540.5187
178.7195, 537.4814
179.2017, 533.6538
179.6838, 529.1364
180.1659, 525.3089
180.6480, 523.6297
181.1301, 523.4208
181.6122, 522.9816
182.0944, 521.2525
182.5765, 519.4476
183.0586, 519.9625
183.5407, 522.7585
184.0228, 526.0070
184.5049, 528.5123
184.9871, 530.2217
185.4692, 530.7758
185.9513, 529.5909
186.4334, 527.3762
186.9155, 525.5303
187.3976, 524.0302
187.8798, 523.2407
188.3619, 524.3807
188.8440, 527.0190
189.3261, 528.2625
189.8082, 526.7509
190.2903, 523.1174
190.7725, 519.5724
191.2546, 516.0990
191.7367, 512.5561
192.2188, 508.5161
192.7009, 503.9886
193.1830, 499.9037
193.6652, 496.9465
194.1473, 494.8218
194.6294, 491.7289
195.1115, 487.4958
195.5936, 482.8735
196.0757, 478.6570
196.5579, 474.8341
197.0400, 471.6694
197.5221, 469.6753
198.0042, 468.7347
198.4863, 466.6399
198.9684, 463.0668
199.4506, 459.0824
199.9327, 456.4372
200.4148, 455.2539
200.8969, 454.1299
201.3790, 452.3464
201.8611, 449.8677
202.3433, 447.9172
202.8254, 446.4947
203.3075, 445.5754
203.7896, 445.2665
204.2717, 445.6764
204.7538, 446.0892
205.2360, 446.4494
205.7181, 446.8842
206.2002, 445.9682
206.6823, 443.4040
207.1644, 439.8526
207.6465, 436.5874
208.1287, 433.8447
208.6108, 430.6934
209.0929, 426.4547
209.5750, 420.7310
210.0571, 416.1575
210.5392, 413.1502
211.0214, 410.9024
211.5035, 407.5085
211.9856, 402.4306
212.4677, 397.8074
212.9498, 394.6946
213.4319, 393.4476
213.9140, 392.3229
214.3962, 391.2680
214.8783, 390.3411
215.3604, 389.7573
215.8425, 389.6861
216.3246, 389.5462
216.8067, 389.0006
217.2889, 387.8530
217.7710, 387.0169
218.2531, 386.7272
218.7352, 386.6322
219.2173, 385.7762
219.6994, 383.6979
220.1816, 381.7208
220.6637, 380.5818
221.1458, 380.9087
221.6279, 380.2287
222.1100, 378.2719
222.5921, 375.3956
223.0743, 372.3612
223.5564, 368.9625
224.0385, 365.8217
224.5206, 363.3535
225.0027, 361.8140
225.4848, 360.2509
225.9670, 358.9782
226.4491, 357.5929
226.9312, 354.8519
227.4133, 350.0777
227.8954, 345.0640
228.3775, 340.6999
228.8597, 337.0157
229.3418, 333.7649
229.8239, 331.2761
230.3060, 329.1076
230.7881, 326.0408
231.2702, 321.4192
231.7524, 316.8037
232.2345, 312.9814
232.7166, 310.2648
233.1987, 307.4359
233.6808, 304.3572
234.1629, 301.2100
234.6451, 298.4301
235.1272, 296.1510
235.6093, 294.0864
236.0914, 292.0833
236.5735, 289.9644
237.0556, 288.3553
237.5378, 287.4255
238.0199, 286.9665
238.5020, 286.4507
238.9841, 285.8192
239.4662, 285.2191
239.9483, 284.6743
240.4305, 284.0509
240.9126, 283.7635
241.3947, 283.5960
241.8768, 283.8221
242.3589, 285.2603
242.8410, 288.7054
243.3232, 292.1224
243.8053, 294.5031
244.2874, 295.0273
244.7695, 296.5455
245.2516, 299.4352
245.7337, 303.1735
246.2159, 306.4789
246.6980, 308.5871
247.1801, 311.4814
247.6622, 316.1334
248.1443, 323.3885
248.6264, 330.0630
249.1086, 335.9625
249.5907, 341.4270
250.0728, 347.1487
250.5549, 353.2152
251.0370, 359.3931
251.5191, 365.6631
252.0013, 372.0581
252.4834, 378.1420
252.9655, 383.3353
253.4476, 388.4950
253.9297, 395.3275
254.4118, 404.4978
254.8940, 413.9563
255.3761, 423.2026
255.8582, 432.5814
256.3403, 440.4128
256.8224, 446.2813
257.3046, 450.9389
257.7867, 455.4416
258.2688, 459.7615
258.7509, 464.1075
259.2330, 468.8015
259.7151, 474.2426
260.1973, 477.9317
260.6794, 479.7437
261.1615, 479.8765
261.6436, 478.5277
262.1257, 475.6102
262.6078, 471.4097
263.0900, 466.0014
263.5721, 459.3053
264.0542, 451.7422
264.5363, 443.3696
265.0184, 433.9663
265.5005, 422.6223
265.9827, 408.7056
266.4648, 394.9594
266.9469, 382.3496
267.4290, 370.9589
267.9111, 358.9150
268.3932, 345.7623
268.8754, 332.7964
269.3575, 321.6742
269.8396, 312.7193
270.3217, 304.0197
270.8038, 294.9971
271.2859, 285.6448
271.7681, 277.2932
272.2502, 269.9445
272.7323, 263.5913
273.2144, 258.5361
273.6965, 254.9009
274.1786, 251.7894
274.6608, 249.1613
275.1429, 246.9200
275.6250, 244.1338
276.1071, 240.5769
276.5892, 237.1326
277.0714, 234.6480
277.5535, 233.1462
278.0356, 232.2829
278.5177, 232.1491
278.9998, 232.5689
279.4819, 232.7244
279.9641, 232.4999
280.4462, 232.5113
280.9283, 233.4681
281.4104, 235.4062
281.8925, 236.9044
282.3746, 237.6209
282.8568, 237.8558
283.3389, 238.4637
283.8210, 239.4787
284.3031, 240.5930
284.7852, 241.5314
285.2673, 242.3060
285.7495, 243.3816
286.2316, 244.9138
286.7137, 246.6192
287.1958, 248.1604
287.6779, 249.5557
288.1600, 250.1054
288.6422, 248.9420
289.1243, 246.3141
289.6064, 244.1113
290.0885, 242.4660
290.5706, 241.2725
291.0527, 240.4730
291.5349, 240.0500
292.0170, 239.7159
292.4991, 239.5323
292.9812, 239.3492
293.4633, 238.4025
293.9454, 236.4633
294.4276, 234.5491
294.9097, 234.1117
295.3918, 234.9553
295.8739, 236.0792
296.3560, 237.4019
296.8381, 238.6154
297.3203, 238.9648
297.8024, 238.4196
298.2845, 237.1708
298.7666, 235.4155
299.2487, 233.1269
299.7308, 230.1717
300.2130, 226.4674
300.6951, 222.0663
301.1772, 216.8736
301.6593, 210.9176
302.1414, 204.6781
302.6235, 198.1532
303.1057, 191.7018
303.5878, 186.2394
304.0699, 182.5038
304.5520, 179.4802
305.0341, 175.7202
305.5162, 171.3856
305.9984, 167.7126
306.4805, 165.9619
306.9626, 165.3581
307.4447, 164.8904
307.9268, 164.3842
308.4089, 163.7764
308.8911, 162.7614
309.3732, 161.5022
309.8553, 160.6755
310.3374, 161.3479
310.8195, 162.3394
311.3016, 162.3434
311.7838, 160.6306
312.2659, 158.8785
312.7480, 158.2485
313.2301, 158.4409
313.7122, 158.6912
314.1943, 158.3822
314.6765, 158.1759
315.1586, 158.6057
315.6407, 159.8889
316.1228, 161.2995
316.6049, 162.6504
317.0870, 163.8791
317.5692, 164.8649
318.0513, 165.4923
318.5334, 165.9355
319.0155, 166.1773
319.4976, 166.1614
319.9797, 166.3643
320.4619, 166.9509
320.9440, 167.8339
321.4261, 168.9060
321.9082, 170.3878
322.3903, 171.8216
322.8724, 173.1393
323.3546, 174.3387
323.8367, 175.2247
324.3188, 175.0696
324.8009, 174.9678
325.2830, 175.7538
325.7651, 178.5323
326.2473, 181.0977
326.7294, 183.2254
327.2115, 184.9151
327.6936, 186.1814
328.1757, 186.4109
328.6578, 186.6552
329.1400, 187.4436
329.6221, 189.3673
330.1042, 191.0233
330.5863, 192.3868
331.0684, 193.4781
331.5505, 194.3088
332.0327, 194.5113
332.5148, 194.8880
332.9969, 195.8495
333.4790, 197.7914
333.9611, 199.1562
334.4432, 199.7766
334.9254, 199.9147
335.4075, 199.9221
335.8896, 199.5181
336.3717, 199.5806
336.8538, 200.6729
337.3359, 203.0157
337.8180, 203.9989
338.3001, 203.2351
338.7823, 201.7135
339.2644, 200.4464
339.7465, 199.3870
340.2286, 198.7393
340.7107, 198.5158
341.1928, 198.7421
341.6750, 199.8294
342.1571, 202.0691
342.6392, 204.1374
343.1213, 204.5010
343.6034, 203.1135
344.0855, 202.9349
344.5677, 204.7367
345.0498, 207.7265
345.5319, 209.9808
346.0140, 211.4809
346.4961, 212.7737
346.9782, 214.0815
347.4604, 215.4549
347.9425, 217.0465
348.4246, 218.8677
348.9067, 220.9795
349.3888, 223.4400
349.8709, 226.2621
350.3531, 229.5075
350.8352, 233.7232
351.3173, 238.2586
351.7994, 241.6376
352.2815, 243.6955
352.7636, 245.8259
353.2458, 249.3337
353.7279, 253.9158
354.2100, 258.9338
354.6921, 264.7067
355.1742, 270.3913
355.6563, 274.9613
356.1385, 278.4908
356.6206, 281.9899
357.1027, 286.5009
357.5848, 291.2274
358.0669, 295.3461
358.5490, 298.8434
359.0312, 301.3549
359.5133, 302.4508
359.9954, 302.3379
360.4775, 301.6932
360.9596, 301.5031
361.4417, 300.4557
361.9239, 297.3197
362.4060, 291.0903
362.8881, 285.1831
363.3702, 281.7889
363.8523, 279.3498
364.3344, 275.4778
364.8166, 267.4582
365.2987, 259.6685
365.7808, 254.2762
366.2629, 251.6776
366.7450, 248.3839
367.2271, 242.5654
367.7093, 236.4532
368.1914, 232.0087
368.6735, 230.8221
369.1556, 229.7288
369.6377, 228.3087
370.1198, 226.6066
370.6020, 225.1197
371.0841, 223.7808
371.5662, 222.7155
372.0483, 222.0025
372.5304, 221.6841
373.0125, 221.6638
373.4947, 222.2134
373.9768, 222.9621
374.4589, 223.0077
374.9410, 222.1188
375.4231, 220.9873
375.9052, 219.7399
376.3874, 218.2879
376.8695, 217.4963
377.3516, 217.5967
377.8337, 217.9562
378.3158, 217.8740
378.7979, 217.3590
379.2801, 216.2640
379.7622, 214.2913
380.2443, 211.7333
380.7264, 209.8028
381.2085, 208.5363
381.6906, 207.7149
382.1728, 207.5309
382.6549, 207.7942
383.1370, 207.2279
383.6191, 205.4172
384.1012, 203.0298
384.5833, 201.0728
385.0655, 199.5103
385.5476, 198.0766
386.0297, 196.6456
386.5118, 195.2104
386.9939, 193.7251
387.4760, 192.1934
387.9582, 190.6264
388.4403, 188.7488
388.9224, 186.8338
389.4045, 185.4540
389.8866, 185.3176
390.3687, 185.4706
390.8509, 185.1591
391.3330, 184.3981
391.8151, 183.4118
392.2972, 182.1680
392.7793, 180.8445
393.2614, 179.5916
393.7436, 178.3496
394.2257, 177.3485
394.7078, 176.7308
395.1899, 176.4422
395.6720, 176.3403
396.1541, 176.9801
396.6363, 177.3212
397.1184, 176.6749
397.6005, 174.4555
398.0826, 172.8862
398.5647, 172.8548
399.0468, 173.4616
399.5290, 173.6159
400.0111, 172.3272
400.4932, 171.5767
400.9753, 171.8132
401.4574, 173.0374
401.9395, 174.3292
402.4217, 175.7995
402.9038, 177.2296
403.3859, 178.4370
403.8680, 179.2304
404.3501, 180.2606
404.8322, 181.5943
405.3144, 183.1748
405.7965, 184.8882
406.2786, 186.8522
406.7607, 188.5852
407.2428, 189.6681
407.7249, 190.0662
408.2071, 191.2610
408.6892, 193.4184
409.1713, 195.8956
409.6534, 197.7755
410.1355, 199.0970
410.6176, 200.7999
411.0998, 203.2668
411.5819, 206.2382
412.0640, 209.1826
412.5461, 212.0735
413.0282, 214.8837
413.5103, 217.5992
413.9925, 220.1785
414.4746, 222.5366
414.9567, 224.6184
415.4388, 226.6120
415.9209, 228.7259
416.4030, 230.9180
416.8852, 233.1452
417.3673, 235.5748
417.8494, 237.8721
418.3315, 239.7861
418.8136, 241.2833
419.2957, 242.5051
419.7779, 243.3884
420.2600, 244.0822
420.7421, 244.7228
421.2242, 245.8001
421.7063, 246.3713
422.1884, 245.9843
422.6706, 244.8193
423.1527, 243.5383
423.6348, 242.1421
424.1169, 240.8022
424.5990, 239.5532
425.0811, 238.2981
425.5633, 237.4006
426.0454, 237.1531
426.5275, 237.1496
427.0096, 236.8040
427.4917, 235.3035
427.9738, 234.7202
428.4560, 235.6658
428.9381, 238.0813
429.4202, 240.3788
429.9023, 242.3111
430.3844, 244.5204
430.8665, 247.4648
431.3487, 251.2103
431.8308, 255.2910
432.3129, 259.6700
432.7950, 264.3484
433.2771, 268.9781
433.7592, 273.4712
434.2414, 279.0750
434.7235, 286.6443
435.2056, 295.8222
435.6877, 305.0901
436.1698, 314.3575
436.6519, 324.3089
437.1341, 335.7393
437.6162, 348.2484
438.0983, 361.0959
438.5804, 374.0664
439.0625, 387.2876
439.5446, 400.8814
440.0268, 414.8463
440.5089, 429.1756
440.9910, 443.8056
441.4731, 458.8141
441.9552, 474.3561
442.4373, 490.1991
442.9195, 507.1617
443.4016, 525.7143
443.8837, 545.5780
444.3658, 566.4141
444.8479, 587.6589
445.3300, 610.3358
445.8122, 635.2587
446.2943, 662.0967
446.7764, 689.7645
447.2585, 717.0724
447.7406, 745.9365
448.2227, 777.5587
448.7049, 812.3709
449.1870, 848.4890
449.6691, 885.4008
450.1512, 923.7332
450.6333, 964.0042
451.1154, 1007.846
451.5976, 1050.853
452.0797, 1091.614
452.5618, 1130.336
453.0439, 1168.027
453.5260, 1204.483
454.0081, 1238.340
454.4903, 1268.898
454.9724, 1295.893
455.4545, 1318.000
455.9366, 1334.842
456.4187, 1346.741
456.9008, 1353.994
457.3830, 1356.610
457.8651, 1354.161
458.3472, 1346.114
458.8293, 1333.054
459.3114, 1315.669
459.7935, 1294.119
460.2757, 1268.449
460.7578, 1238.419
461.2399, 1204.611
461.7220, 1167.822
462.2041, 1127.220
462.6862, 1084.709
463.1684, 1040.154
463.6505, 994.3161
464.1326, 950.0175
464.6147, 909.5768
465.0968, 869.6861
465.5789, 829.1375
466.0611, 787.4952
466.5432, 747.2679
467.0253, 708.3170
467.5074, 671.6582
467.9895, 638.3275
468.4716, 609.7390
468.9538, 582.0777
469.4359, 555.3096
469.9180, 529.5292
470.4001, 504.7436
470.8822, 480.5760
471.3643, 458.4100
471.8465, 439.0352
472.3286, 422.6493
472.8107, 406.9834
473.2928, 392.2372
473.7749, 378.1916
474.2570, 364.9442
474.7392, 352.4927
475.2213, 340.4244
475.7034, 328.3462
476.1855, 316.9623
476.6676, 308.2129
477.1497, 301.8350
477.6319, 295.7346
478.1140, 288.2863
478.5961, 280.3359
479.0782, 273.3934
479.5603, 267.6059
480.0424, 262.1030
480.5246, 255.8374
481.0067, 249.4986
481.4888, 244.0625
481.9709, 240.2736
482.4530, 236.8993
482.9352, 233.3307
483.4173, 229.6682
483.8994, 226.2298
484.3815, 223.4475
484.8636, 220.6371
485.3457, 217.3404
485.8279, 213.2197
486.3100, 209.7187
486.7921, 207.2776
487.2742, 205.3428
487.7563, 203.4311
488.2384, 201.5673
488.7206, 199.6551
489.2027, 197.5789
489.6848, 195.4638
490.1669, 193.8561
490.6490, 192.9411
491.1311, 192.0159
491.6133, 190.7600
492.0954, 189.1747
492.5775, 187.3883
493.0596, 185.2946
493.5417, 183.5008
494.0238, 183.0088
494.5060, 183.5053
494.9881, 183.5169
495.4702, 182.5591
495.9523, 181.1377
496.4344, 179.7648
496.9165, 178.5002
497.3987, 177.5725
497.8808, 177.3746
498.3629, 177.4038
498.8450, 177.0572
499.3271, 176.2576
499.8092, 175.7784
500.2914, 176.9152
500.7735, 178.1355
501.2556, 177.9833
501.7377, 174.1644
502.2198, 171.2731
502.7019, 170.8125
503.1841, 172.0221
503.6662, 172.8104
504.1483, 173.0006
504.6304, 172.7610
505.1125, 171.9213
505.5946, 170.3747
506.0768, 169.6374
506.5589, 170.0084
507.0410, 170.7596
507.5231, 171.3831
508.0052, 171.9044
508.4873, 172.0328
508.9695, 171.5145
509.4516, 170.9350
509.9337, 171.7429
510.4158, 173.8418
510.8979, 175.3898
511.3800, 175.0475
511.8622, 173.7779
512.3443, 173.7543
512.8264, 174.9380
513.3085, 176.6232
513.7906, 178.7163
514.2728, 180.8235
514.7549, 182.2887
515.2370, 182.6971
515.7191, 183.3490
516.2012, 185.0740
516.6833, 187.5631
517.1655, 190.3672
517.6476, 193.1939
518.1297, 196.4586
518.6118, 200.3476
519.0939, 204.8408
519.5760, 209.6825
520.0582, 214.8391
520.5403, 220.3203
521.0224, 226.0784
521.5045, 232.1798
521.9866, 238.3939
522.4688, 244.4775
522.9509, 250.9429
523.4330, 258.7130
523.9151, 268.0615
524.3972, 277.1577
524.8793, 285.3090
525.3615, 293.1010
525.8436, 302.2411
526.3257, 312.7596
526.8078, 323.8299
527.2899, 335.0581
527.7720, 346.6182
528.2542, 358.6325
528.7363, 371.0446
529.2184, 384.3324
529.7005, 398.4739
530.1826, 413.7019
530.6647, 430.4344
531.1469, 449.2231
531.6290, 468.5544
532.1111, 488.1698
532.5932, 507.5450
533.0753, 525.5361
533.5574, 541.0620
534.0396, 556.0399
534.5217, 572.1234
535.0038, 589.4105
535.4859, 603.1268
535.9680, 613.2255
536.4501, 619.5893
536.9323, 622.3107
537.4144, 621.9611
537.8965, 616.2871
538.3786, 604.9069
538.8607, 588.7156
539.3428, 568.5468
539.8250, 544.0046
540.3071, 518.3625
540.7892, 492.4023
541.2713, 466.3203
541.7534, 441.2128
542.2355, 417.1214
542.7177, 394.5742
543.1998, 373.4327
543.6819, 353.9277
544.1640, 336.7926
544.6461, 322.0981
545.1282, 308.5092
545.6104, 294.9179
546.0925, 282.1587
546.5746, 271.2294
547.0567, 263.4127
547.5388, 256.0553
548.0209, 247.9910
548.5031, 239.8595
548.9852, 232.8876
549.4673, 228.3893
549.9494, 223.8854
550.4315, 218.5605
550.9136, 212.4219
551.3958, 207.2488
551.8779, 203.2950
552.3600, 199.8707
552.8421, 196.4856
553.3242, 193.0971
553.8063, 190.1451
554.2885, 187.6430
554.7706, 185.5909
555.2527, 184.1782
555.7348, 183.3019
556.2169, 182.2877
556.6990, 180.8182
557.1812, 179.2804
557.6633, 178.3849
558.1454, 177.9513
558.6275, 177.2970
559.1096, 175.6391
559.5917, 173.8764
560.0739, 172.7915
560.5560, 172.4393
561.0381, 172.2615
561.5202, 172.3799
562.0023, 172.3748
562.4844, 171.9136
562.9666, 170.4468
563.4487, 169.2776
563.9308, 168.5764
564.4129, 168.1611
564.8950, 167.7743
565.3771, 167.4311
565.8593, 167.0882
566.3414, 166.7420
566.8235, 166.3876
567.3056, 165.8987
567.7877, 165.2208
568.2698, 164.8228
568.7520, 165.3247
569.2341, 166.3742
569.7162, 166.4455
570.1983, 165.4353
570.6804, 164.3953
571.1625, 164.5587
571.6447, 165.2921
572.1268, 165.5045
572.6089, 164.6484
573.0910, 163.8516
573.5731, 164.2376
574.0552, 165.1160
574.5374, 165.2860
575.0195, 163.3501
575.5016, 161.6644
575.9837, 160.9849
576.4658, 161.2955
576.9479, 162.0634
577.4301, 164.1613
577.9122, 165.6452
578.3943, 165.4397
578.8764, 163.0743
579.3585, 161.6634
579.8406, 161.3163
580.3228, 161.6781
580.8049, 162.6593
581.2870, 164.2004
581.7691, 165.2427
582.2512, 165.4717
582.7333, 165.4256
583.2155, 166.0669
583.6975, 167.1292
584.1796, 167.8075
584.6617, 167.5019
585.1439, 166.7973
585.6260, 165.9082
586.1081, 164.9684
586.5902, 164.6459
587.0723, 166.1595
587.5544, 167.6686
588.0366, 167.9675
588.5187, 166.5475
589.0008, 165.5969
589.4829, 165.6958
589.9650, 166.1485
590.4471, 166.4661
590.9293, 166.6282
591.4114, 166.7138
591.8935, 166.7522
592.3756, 166.6959
592.8577, 166.4524
593.3398, 166.0211
593.8220, 165.4194
594.3041, 164.4437
594.7862, 163.4583
595.2683, 163.5699
595.7504, 164.6225
596.2325, 165.4808
596.7147, 165.1426
597.1968, 164.3779
597.6789, 164.0511
598.1610, 164.2294
598.6431, 164.5913
599.1252, 165.1612
599.6074, 165.7181
600.0895, 166.0914
600.5716, 166.2735
601.0537, 166.2323
601.5358, 165.6564
602.0179, 164.9744
602.5001, 164.7776
602.9822, 165.3935
603.4643, 165.8376
603.9464, 165.9149
604.4285, 165.7189
604.9106, 165.6219
605.3928, 165.6638
605.8749, 165.4232
606.3570, 164.3373
606.8391, 162.8316
607.3212, 162.4004
607.8033, 163.0102
608.2855, 163.8818
608.7676, 164.8775
609.2497, 165.5804
609.7318, 165.2511
610.2139, 163.5530
610.6960, 161.9659
611.1782, 161.3762
611.6603, 161.2878
612.1424, 161.1679
612.6245, 160.7055
613.1066, 160.4443
613.5887, 160.5769
614.0709, 160.9307
614.5530, 161.1658
615.0351, 161.2178
615.5172, 161.2808
615.9993, 161.4043
616.4814, 161.5828
616.9636, 161.8622
617.4457, 162.2708
617.9278, 162.4707
618.4099, 162.1239
618.8920, 161.4145
619.3741, 160.7387
619.8563, 160.1019
620.3384, 159.7631
620.8205, 160.2079
621.3026, 160.9515
621.7847, 161.3798
622.2668, 161.2561
622.7490, 161.1174
623.2311, 161.2156
623.7132, 161.4288
624.1953, 161.6017
624.6774, 161.8535
625.1595, 161.8700
625.6417, 161.4444
626.1238, 160.7883
626.6059, 160.5316
627.0880, 160.7961
627.5701, 161.0791
628.0522, 161.1291
628.5344, 161.0550
629.0165, 161.5111
629.4986, 162.5109
629.9807, 163.4681
630.4628, 164.0925
630.9449, 164.3474
631.4271, 163.9458
631.9092, 162.8318
632.3913, 162.0124
632.8734, 162.6883
633.3555, 163.8004
633.8376, 164.1972
634.3198, 163.1177
634.8019, 162.3064
635.2840, 162.3444
635.7661, 162.8695
636.2482, 163.3783
636.7303, 163.9184
637.2125, 164.3357
637.6946, 164.5926
638.1767, 164.7211
638.6588, 164.7605
639.1409, 164.6766
639.6230, 164.7671
640.1052, 165.2568
640.5873, 165.9767
641.0694, 166.4369
641.5515, 166.6501
642.0336, 166.6852
642.5157, 166.2816
642.9979, 165.8957
643.4800, 166.1984
643.9621, 167.2814
644.4442, 168.2288
644.9263, 168.5458
645.4084, 168.5713
645.8906, 168.5696
646.3727, 168.6141
646.8548, 168.5472
647.3369, 168.0845
647.8190, 167.6877
648.3011, 167.9593
648.7833, 169.1076
649.2654, 170.2956
649.7475, 171.5926
650.2296, 172.6324
650.7117, 172.3513
651.1938, 170.8816
651.6760, 169.8511
652.1581, 170.1328
652.6402, 171.0698
653.1223, 171.8649
653.6044, 172.4861
654.0865, 172.8373
654.5687, 172.6501
655.0508, 172.3391
655.5329, 172.0347
656.0150, 171.7419
656.4971, 171.9453
656.9792, 173.3228
657.4614, 174.7620
657.9435, 175.6016
658.4256, 175.5502
658.9077, 175.9727
659.3898, 177.1030
659.8719, 178.2918
660.3541, 178.8269
660.8362, 178.7249
661.3183, 178.5748
661.8004, 178.4531
662.2825, 178.3347
662.7646, 178.1206
663.2468, 177.8852
663.7289, 177.8376
664.2110, 178.3544
664.6931, 178.7045
665.1752, 178.0220
665.6573, 176.7888
666.1395, 176.1281
666.6216, 176.9225
667.1037, 177.7824
667.5858, 178.3434
668.0679, 178.6143
668.5500, 178.6004
669.0322, 178.1978
669.5143, 177.7097
669.9964, 177.2228
670.4785, 176.7444
670.9606, 176.4347
671.4427, 176.3032
671.9249, 176.2205
672.4070, 175.9483
672.8891, 175.6707
673.3712, 175.8726
673.8533, 176.6421
674.3354, 177.4165
674.8176, 177.8844
675.2997, 178.1055
675.7818, 178.1180
676.2639, 177.8023
676.7460, 177.5265
677.2281, 177.2512
677.7103, 177.1247
678.1924, 177.3578
678.6745, 178.1686
679.1566, 178.8821
679.6387, 179.4792
680.1208, 179.8698
680.6030, 179.6618
681.0851, 178.8630
681.5672, 178.4773
682.0493, 179.0128
682.5314, 180.0367
683.0135, 181.0425
683.4957, 181.9433
683.9778, 182.3620
684.4599, 181.5408
684.9420, 180.6216
685.4241, 180.3992
685.9063, 180.8685
686.3884, 181.4511
686.8705, 182.3810
687.3526, 183.0333
687.8347, 183.0074
688.3168, 182.1266
688.7990, 181.8863
689.2811, 182.4650
689.7632, 183.2828
690.2453, 183.9648
690.7274, 184.5121
691.2095, 184.8220
691.6917, 184.8668
692.1738, 184.8271
692.6559, 184.9206
693.1380, 185.0496
693.6201, 184.9680
694.1022, 184.4245
694.5844, 184.2078
695.0665, 185.0591
695.5486, 186.4006
696.0307, 187.4965
696.5128, 188.1970
696.9949, 188.6015
697.4771, 188.6172
697.9592, 188.3985
698.4413, 188.2256
698.9234, 188.0855
699.4055, 188.0462
699.8876, 188.1181
700.3698, 188.3123
700.8519, 188.6359
701.3340, 189.0966
701.8161, 189.7361
702.2982, 190.8501
702.7803, 191.9744
703.2625, 192.6343
703.7446, 192.8589
704.2267, 192.8006
704.7088, 191.8357
705.1909, 191.2168
705.6730, 191.8512
706.1552, 193.9214
706.6373, 195.2446
707.1194, 195.3072
707.6015, 195.3304
708.0836, 196.1576
708.5657, 197.8683
709.0479, 198.4782
709.5300, 197.8307
710.0121, 197.0189
710.4942, 197.2313
710.9763, 198.0041
711.4584, 198.1717
711.9406, 197.5090
712.4227, 196.8294
712.9048, 196.7256
713.3869, 196.9150
713.8690, 197.1097
714.3511, 197.2483
714.8333, 197.3889
715.3154, 197.5439
715.7975, 197.7122
716.2796, 198.0223
716.7617, 198.8851
717.2438, 198.4729
717.7260, 196.0015
718.2081, 193.0663
718.6902, 193.0392
719.1723, 195.4896
719.6544, 196.9694
720.1365, 195.9239
720.6187, 194.1778
721.1008, 193.8525
721.5829, 194.5061
722.0650, 195.0969
722.5471, 195.5009
723.0292, 195.4107
723.5114, 194.0997
723.9935, 192.0346
724.4756, 191.2797
724.9577, 192.8105
725.4398, 194.2234
725.9219, 194.8585
726.4041, 194.7984
726.8862, 194.3839
727.3683, 193.5667
727.8504, 192.9168
728.3325, 192.8090
728.8146, 193.0715
729.2968, 193.4223
729.7789, 193.8445
730.2610, 194.2021
730.7431, 194.6727
731.2252, 194.8510
731.7073, 194.1635
732.1895, 192.4504
732.6716, 191.4633
733.1537, 191.9176
733.6358, 192.8231
734.1179, 193.8632
734.6000, 195.1805
735.0822, 195.5981
735.5643, 194.8733
736.0464, 194.0816
736.5285, 194.4103
737.0106, 195.5145
737.4927, 195.9491
737.9749, 195.4978
738.4570, 195.1310
738.9391, 195.9335
739.4212, 197.1879
739.9033, 198.0414
740.3854, 198.1034
740.8676, 198.2988
741.3497, 199.0653
741.8318, 199.9937
742.3139, 200.6350
742.7960, 200.7184
743.2781, 201.1892
743.7603, 202.1530
744.2424, 203.4371
744.7245, 204.8785
745.2066, 206.4404
745.6887, 207.9550
746.1708, 209.4046
746.6530, 210.7318
747.1351, 211.6744
747.6172, 212.4862
748.0993, 213.6152
748.5814, 215.7886
749.0635, 217.6512
749.5457, 218.2522
750.0278, 218.3206
750.5099, 219.3722
750.9920, 221.7506
751.4741, 224.5901
751.9562, 227.9534
752.4384, 231.5094
752.9205, 234.2534
753.4026, 236.2185
753.8847, 238.0235
754.3668, 239.5303
754.8489, 241.4112
755.3311, 245.1121
755.8132, 250.0718
756.2953, 254.5298
756.7774, 257.2768
757.2595, 259.7593
757.7416, 262.5279
758.2238, 265.5858
758.7059, 269.0948
759.1880, 272.9930
759.6701, 277.3820
760.1522, 282.5166
760.6343, 288.1678
761.1165, 293.3603
761.5986, 298.0568
762.0807, 302.5787
762.5628, 307.0756
763.0449, 311.5215
763.5270, 315.8365
764.0092, 320.0258
764.4913, 324.2482
764.9734, 328.3961
765.4555, 332.7359
765.9376, 337.4255
766.4197, 342.5271
766.9019, 347.6285
767.3840, 352.9269
767.8661, 357.9141
768.3482, 362.3862
768.8303, 366.3798
769.3124, 369.9277
769.7946, 373.0164
770.2767, 375.4903
770.7588, 376.7222
771.2409, 377.4421
771.7230, 379.2831
772.2051, 382.2172
772.6873, 384.4683
773.1694, 385.0540
773.6515, 384.5362
774.1336, 383.1581
774.6157, 380.8224
775.0978, 378.3163
775.5800, 375.8416
776.0621, 372.9857
776.5442, 369.6680
777.0263, 365.9055
777.5084, 360.4446
777.9905, 353.0833
778.4727, 345.7577
778.9548, 340.7378
779.4369, 336.6779
779.9190, 331.0147
780.4011, 323.4767
780.8832, 315.9182
781.3654, 309.8015
781.8475, 303.8972
782.3296, 297.1322
782.8117, 288.8470
783.2938, 281.7480
783.7759, 276.3346
784.2581, 271.4035
784.7402, 265.9634
785.2223, 260.0339
785.7044, 254.9607
786.1865, 250.8911
786.6686, 247.1927
787.1508, 243.3605
787.6329, 239.4979
788.1150, 235.4406
788.5971, 230.9448
789.0792, 227.6278
789.5613, 227.3051
790.0435, 227.7217
790.5256, 226.9877
791.0077, 224.4880
791.4898, 222.1809
791.9719, 220.0177
792.4540, 218.1530
792.9362, 216.8244
793.4183, 215.9880
793.9004, 215.3239
794.3825, 214.7980
794.8646, 214.4914
795.3467, 214.7368
795.8289, 215.1386
796.3110, 215.0679
796.7931, 214.2534
797.2752, 213.6967
797.7573, 214.0991
798.2394, 214.6806
798.7216, 214.6972
799.2037, 213.5138
799.6858, 213.6019
800.1679, 215.4064
800.6500, 217.4733
801.1321, 218.1212
801.6143, 217.7088
802.0964, 218.1229
802.5785, 219.6326
803.0606, 221.3595
803.5427, 222.6164
804.0248, 223.6040
804.5070, 224.5997
804.9891, 225.7750
805.4712, 226.5759
805.9533, 226.3146
806.4354, 226.0719
806.9175, 226.7165
807.3997, 228.5483
807.8818, 230.0250
808.3639, 231.1152
808.8460, 231.8031
809.3281, 232.1779
809.8102, 232.1233
810.2924, 231.1799
810.7745, 229.2044
811.2566, 227.1243
811.7387, 225.4307
812.2208, 224.0502
812.7029, 223.0940
813.1851, 223.1858
813.6672, 221.8686
814.1493, 217.9685
814.6314, 213.9408
815.1135, 211.9849
815.5956, 212.1960
816.0778, 211.7099
816.5599, 210.3510
817.0420, 208.7560
817.5241, 207.2223
818.0062, 205.9775
818.4883, 205.5058
818.9705, 205.9683
819.4526, 206.3172
819.9347, 206.0598
820.4168, 205.5039
820.8989, 204.7979
821.3810, 203.8492
821.8632, 203.2787
822.3453, 203.2828
822.8274, 203.2312
823.3095, 202.4290
823.7916, 201.0709
824.2737, 200.3113
824.7559, 200.2018
825.2380, 200.3462
825.7201, 200.4643
826.2022, 200.6538
826.6843, 201.1049
827.1664, 201.8945
827.6486, 202.3862
828.1307, 202.1057
828.6128, 201.8015
829.0949, 201.8620
829.5770, 202.3206
830.0591, 202.6647
830.5413, 202.9104
831.0234, 202.9252
831.5055, 202.3746
831.9876, 201.6011
832.4697, 201.3613
832.9518, 201.6470
833.4340, 201.8791
833.9161, 201.2227
834.3982, 200.8150
834.8803, 201.8054
835.3624, 204.3967
835.8445, 205.2146
836.3267, 203.2669
836.8088, 201.5044
837.2909, 201.6547
837.7730, 203.2495
838.2551, 203.3106
838.7372, 201.9344
839.2194, 200.6289
839.7015, 200.4786
840.1836, 200.7891
840.6657, 200.8702
841.1478, 200.7683
841.6299, 200.8850
842.1121, 201.6046
842.5942, 202.2869
843.0763, 202.7063
843.5584, 202.9077
844.0405, 203.1819
844.5226, 203.5581
845.0048, 203.7667
845.4869, 203.6269
845.9690, 203.2907
846.4511, 202.9727
846.9332, 202.7031
847.4153, 202.5915
847.8975, 202.8033
848.3796, 203.0697
848.8617, 203.2790
849.3438, 203.4410
849.8259, 203.5969
850.3080, 203.7479
850.7902, 203.9089
851.2723, 204.1008
851.7544, 204.2896
852.2365, 204.3205
852.7186, 204.2459
853.2007, 204.4101
853.6829, 205.1900
854.1650, 205.8345
854.6471, 205.5699
855.1292, 204.7466
855.6113, 203.9509
856.0934, 203.1816
856.5756, 202.6661
857.0577, 202.3253
857.5398, 202.3130
858.0219, 203.1307
858.5040, 204.8739
858.9861, 205.5164
859.4683, 204.4781
859.9504, 203.1645
860.4325, 203.5745
860.9146, 204.8500
861.3967, 205.4807
861.8788, 204.8128
862.3610, 204.2458
862.8431, 204.4819
863.3252, 204.9445
863.8073, 205.0476
864.2894, 204.5329
864.7715, 204.5544
865.2537, 205.2950
865.7358, 206.0471
866.2179, 205.8087
866.7000, 205.0584
867.1821, 205.3979
867.6642, 207.0537
868.1464, 208.1784
868.6285, 206.9063
869.1106, 205.0991
869.5927, 204.1136
870.0748, 204.1924
870.5569, 204.7355
871.0391, 206.0344
871.5212, 207.2375
872.0033, 207.7914
872.4854, 207.7765
872.9675, 207.8114
873.4496, 207.8836
873.9318, 207.8333
874.4139, 207.3623
874.8960, 206.8602
875.3781, 206.6753
875.8602, 206.7907
876.3423, 206.9859
876.8245, 207.1210
877.3066, 207.4662
877.7887, 208.2844
878.2708, 209.3401
878.7529, 209.5622
879.2350, 208.9535
879.7172, 208.2363
880.1993, 207.7658
880.6814, 207.3128
881.1635, 206.3091
881.6456, 205.1032
882.1277, 204.5062
882.6099, 205.1679
883.0920, 206.0784
883.5741, 207.3432
884.0562, 208.5275
884.5383, 208.8573
885.0204, 208.1802
885.5026, 207.5783
885.9847, 207.1992
886.4668, 207.0842
886.9489, 207.5201
887.4310, 208.2204
887.9131, 208.5566
888.3953, 208.2247
888.8774, 207.9382
889.3595, 207.7050
889.8416, 207.8629
890.3237, 208.8574
890.8058, 211.3735
891.2880, 212.5635
891.7701, 212.1446
892.2522, 211.2467
892.7343, 210.6891
893.2164, 210.4848
893.6985, 210.9550
894.1807, 212.1043
894.6628, 212.6981
895.1449, 211.0613
895.6270, 209.3064
896.1091, 208.8872
896.5912, 209.9980
897.0734, 211.3212
897.5555, 213.1476
898.0376, 214.4409
898.5197, 214.4616
899.0018, 213.6335
899.4839, 213.5840
899.9661, 214.1516
900.4482, 214.3943
900.9303, 213.2405
901.4124, 212.1101
901.8945, 212.0774
902.3766, 212.8435
902.8588, 213.3631
903.3409, 213.2855
903.8230, 213.4193
904.3051, 213.9840
904.7872, 214.7491
905.2693, 215.3248
905.7515, 215.7068
906.2336, 215.8797
906.7157, 215.8184
907.1978, 215.5990
907.6799, 214.9112
908.1620, 214.2690
908.6442, 214.3393
909.1263, 216.1144
909.6084, 217.0722
910.0905, 216.9798
910.5726, 216.2983
911.0547, 215.2359
911.5369, 213.8596
912.0190, 212.7821
912.5011, 212.0297
912.9832, 211.9436
913.4653, 213.7536
913.9474, 215.7217
914.4296, 215.7908
914.9117, 213.6734
915.3938, 212.7236
915.8759, 214.1857
916.3580, 215.8269
916.8401, 216.7805
917.3223, 217.1644
917.8044, 217.6842
918.2865, 218.3205
918.7686, 218.8580
919.2507, 219.3960
919.7328, 219.5945
920.2150, 218.9877
920.6971, 217.7840
921.1792, 216.4895
921.6613, 214.3088
922.1434, 213.3913
922.6255, 214.5410
923.1077, 216.6094
923.5898, 217.5707
924.0719, 217.4833
924.5540, 217.5216
925.0361, 217.9539
925.5182, 218.4166
926.0004, 218.4659
926.4825, 218.3720
926.9646, 218.5149
927.4467, 219.1733
927.9288, 219.4199
928.4109, 218.7596
928.8931, 218.1733
929.3752, 218.5696
929.8573, 219.9130
930.3394, 220.1185
930.8215, 219.1869
931.3036, 218.1076
931.7858, 217.2274
932.2679, 216.8344
932.7500, 217.5340
933.2321, 219.1440
933.7142, 220.2921
934.1964, 220.3873
934.6785, 220.3621
935.1606, 220.4374
935.6427, 220.5492
936.1248, 220.3388
936.6069, 219.8656
937.0891, 219.9599
937.5712, 221.1752
938.0533, 222.5256
938.5354, 222.8850
939.0175, 222.8140
939.4996, 223.1288
939.9818, 224.6161
940.4639, 225.6168
940.9460, 225.9858
941.4281, 225.9619
941.9102, 225.6623
942.3923, 225.1299
942.8745, 224.7487
943.3566, 224.5437
943.8387, 224.5036
944.3208, 224.4073
944.8029, 224.6258
945.2850, 225.8266
945.7672, 228.0972
946.2493, 229.2328
946.7314, 228.4903
947.2135, 227.7261
947.6956, 227.6567
948.1777, 228.1031
948.6599, 228.4187
949.1420, 228.6431
949.6241, 228.9927
950.1062, 229.5193
950.5883, 230.2643
951.0704, 231.6306
951.5526, 233.1582
952.0347, 233.8836
952.5168, 233.1027
952.9989, 232.8940
953.4810, 233.5520
953.9631, 234.5388
954.4453, 235.2862
954.9274, 235.8019
955.4095, 235.9702
955.8916, 235.7290
956.3737, 235.8147
956.8558, 237.1339
957.3380, 238.6402
957.8201, 239.6225
958.3022, 240.0328
958.7843, 239.8751
959.2664, 238.8614
959.7485, 238.2043
960.2307, 238.7611
960.7128, 239.9072
961.1949, 240.0458
961.6770, 239.4525
962.1591, 239.0954
962.6412, 239.7296
963.1234, 240.3514
963.6055, 240.3883
964.0876, 240.2282
964.5697, 240.5849
965.0518, 241.6299
965.5339, 242.4034
966.0161, 242.7927
966.4982, 242.8873
966.9803, 242.4638
967.4624, 241.9416
967.9445, 242.1736
968.4266, 243.4035
968.9088, 244.3703
969.3909, 244.1871
969.8730, 244.0171
970.3551, 244.4667
970.8372, 245.4970
971.3193, 246.7016
971.8015, 248.0809
972.2836, 249.2454
972.7657, 249.5112
973.2478, 249.8330
973.7299, 251.6775
974.2120, 254.4788
974.6942, 256.8475
975.1763, 257.8938
975.6584, 259.1120
976.1405, 260.7838
976.6226, 262.6351
977.1047, 264.1585
977.5869, 265.4350
978.0690, 267.1954
978.5511, 269.5292
979.0332, 272.3124
979.5153, 275.9142
979.9974, 279.6269
980.4796, 282.7559
980.9617, 285.1337
981.4438, 287.6078
981.9259, 290.1219
982.4080, 292.9942
982.8901, 296.5526
983.3723, 300.5194
983.8544, 304.0443
984.3365, 307.1914
984.8186, 310.2289
985.3007, 313.2941
985.7828, 316.2711
986.2650, 318.9759
986.7471, 321.6281
987.2292, 324.6018
987.7113, 327.9808
988.1934, 331.3745
988.6755, 334.7616
989.1577, 338.1115
989.6398, 341.4673
990.1219, 344.6936
990.6040, 347.6128
991.0861, 350.2073
991.5682, 352.2217
992.0504, 353.8804
992.5325, 354.5344
993.0146, 353.8073
993.4967, 351.8947
993.9788, 349.7639
994.4609, 347.4197
994.9431, 344.6945
995.4252, 341.7242
995.9073, 338.0353
996.3894, 332.7183
996.8715, 326.4144
997.3536, 320.0638
997.8358, 313.7045
998.3179, 307.6974
998.8000, 301.9291
999.2821, 296.6803
999.7642, 292.2162
1000.246, 288.4331
1000.728, 284.9317
1001.211, 281.6570
1001.693, 279.0401
1002.175, 277.8664
1002.657, 276.9420
1003.139, 275.2046
1003.621, 272.8870
1004.103, 271.9285
1004.585, 272.7013
1005.068, 273.4642
1005.550, 273.8116
1006.032, 273.7789
1006.514, 273.2818
1006.996, 272.4861
1007.478, 271.6877
1007.960, 270.9092
1008.442, 270.3070
1008.924, 269.8393
1009.407, 269.6456
1009.889, 269.8785
1010.371, 270.5532
1010.853, 271.2723
1011.335, 272.0459
1011.817, 272.5755
1012.299, 272.4870
1012.781, 272.2204
1013.263, 272.2987
1013.746, 271.9093
1014.228, 272.3541
1014.710, 271.2082
1015.192, 270.3294
1015.674, 269.8730
1016.156, 269.8008
1016.638, 270.3051
1017.120, 271.1368
1017.603, 271.3681
1018.085, 270.7408
1018.567, 270.4250
1019.049, 271.5894
1019.531, 272.8986
1020.013, 273.5047
1020.495, 273.4147
1020.977, 272.6847
1021.459, 271.1979
1021.942, 270.0842
1022.424, 269.8705
1022.906, 270.3195
1023.388, 271.7226
1023.870, 273.4283
1024.352, 274.1607
1024.834, 272.4845
1025.316, 271.2763
1025.799, 270.7452
1026.281, 270.7932
1026.763, 271.5127
1027.245, 272.7787
1027.727, 273.8421
1028.209, 274.6658
1028.691, 275.4138
1029.173, 276.1681
1029.656, 276.9116
1030.138, 277.7256
1030.620, 278.5239
1031.102, 278.8717
1031.584, 278.6018
1032.066, 278.5730
1032.548, 279.0758
1033.030, 279.7111
1033.512, 279.7432
1033.995, 279.5333
1034.477, 279.7155
1034.959, 280.4974
1035.441, 281.4140
1035.923, 282.7560
1036.405, 283.7323
1036.887, 283.7231
1037.369, 282.8967
1037.851, 282.8334
1038.334, 283.4664
1038.816, 284.1356
1039.298, 284.7019
1039.780, 284.9526
1040.262, 284.3277
1040.744, 283.4034
1041.226, 283.3840
1041.708, 284.7632
1042.191, 285.6312
1042.673, 285.7562
1043.155, 285.7735
1043.637, 286.6028
1044.119, 287.6714
1044.601, 287.7390
1045.083, 286.7887
1045.565, 286.4228
1046.047, 287.6824
1046.530, 289.1065
1047.012, 290.4171
1047.494, 291.4557
1047.976, 291.5388
1048.458, 290.8143
1048.940, 290.4390
1049.422, 290.6930
1049.904, 291.4868
1050.386, 293.0893
1050.869, 294.9975
1051.351, 296.7448
1051.833, 298.3213
1052.315, 299.6185
1052.797, 300.5986
1053.279, 301.4767
1053.761, 302.3733
1054.243, 303.2723
1054.726, 303.8930
1055.208, 304.4996
1055.690, 305.7935
1056.172, 309.2272
1056.654, 311.6442
1057.136, 312.2648
1057.618, 312.2553
1058.100, 312.9804
1058.583, 314.3182
1059.065, 315.3861
1059.547, 316.1292
1060.029, 317.1066
1060.511, 318.7442
1060.993, 320.6719
1061.475, 322.9291
1061.957, 325.3098
1062.439, 326.8346
1062.922, 327.2874
1063.404, 328.3058
1063.886, 330.4178
1064.368, 332.8576
1064.850, 334.7793
1065.332, 336.4106
1065.814, 338.1110
1066.296, 340.0301
1066.778, 341.5028
1067.261, 342.2234
1067.743, 342.9789
1068.225, 344.1751
1068.707, 345.7108
1069.189, 347.3366
1069.671, 348.9922
1070.153, 350.4444
1070.635, 351.7331
1071.118, 352.5905
1071.600, 351.9791
1072.082, 351.4990
1072.564, 353.1796
1073.046, 357.3275
1073.528, 359.2963
1074.010, 358.8660
1074.492, 358.2705
1074.974, 359.0031
1075.457, 360.5059
1075.939, 362.6855
1076.421, 365.2482
1076.903, 367.2265
1077.385, 368.7319
1077.867, 368.9882
1078.349, 367.3978
1078.831, 365.7990
1079.313, 366.9265
1079.796, 369.6580
1080.278, 372.2355
1080.760, 374.4645
1081.242, 375.8414
1081.724, 375.0587
1082.206, 374.7325
1082.688, 375.9201
1083.170, 378.1405
1083.652, 379.9896
1084.135, 381.4972
1084.617, 382.6910
1085.099, 383.4523
1085.581, 384.2556
1086.063, 384.9350
1086.545, 386.1566
1087.027, 388.6722
1087.509, 392.6438
1087.992, 396.1419
1088.474, 399.1605
1088.956, 401.8846
1089.438, 404.2748
1089.920, 406.5571
1090.402, 409.1972
1090.884, 411.8932
1091.366, 413.9388
1091.849, 414.3121
1092.331, 415.9213
1092.813, 419.1366
1093.295, 422.9336
1093.777, 426.5942
1094.259, 429.9688
1094.741, 433.0736
1095.223, 435.7828
1095.705, 437.3059
1096.188, 435.9551
1096.670, 435.1326
1097.152, 436.0815
1097.634, 437.6467
1098.116, 437.8220
1098.598, 436.7287
1099.080, 434.8694
1099.562, 432.2690
1100.044, 429.6206
1100.527, 428.1354
1101.009, 426.0429
1101.491, 421.7069
1101.973, 415.6019
1102.455, 410.7059
1102.937, 407.0184
1103.419, 403.7397
1103.901, 400.6808
1104.384, 397.7954
1104.866, 394.9872
1105.348, 392.4020
1105.830, 390.3281
1106.312, 389.1329
1106.794, 386.6335
1107.276, 381.9684
1107.758, 379.0752
1108.240, 381.1278
1108.723, 385.5661
1109.205, 388.3717
1109.687, 389.9449
1110.169, 391.2358
1110.651, 391.8693
1111.133, 393.3982
1111.615, 396.5382
1112.097, 399.5901
1112.579, 401.1835
1113.062, 401.4023
1113.544, 400.6078
1114.026, 398.7614
1114.508, 395.5711
1114.990, 391.4151
1115.472, 385.1345
1115.954, 375.6437
1116.436, 364.4914
1116.919, 353.4054
1117.401, 342.4131
1117.883, 333.5201
1118.365, 326.9676
1118.847, 321.7422
1119.329, 317.5870
1119.811, 314.0340
1120.293, 310.7402
1120.776, 308.1014
1121.258, 305.5415
1121.740, 304.1014
1122.222, 302.9591
1122.704, 302.0197
1123.186, 301.2660
1123.668, 300.7984
1124.150, 300.4094
1124.632, 299.8495
1125.115, 299.0644
1125.597, 298.3123
1126.079, 297.4604
1126.561, 297.1712
1127.043, 297.9734
1127.525, 299.0499
1128.007, 299.2933
1128.489, 298.7773
1128.971, 297.4778
1129.454, 294.8341
1129.936, 293.0224
1130.418, 292.4247
1130.900, 292.2633
1131.382, 292.1595
1131.864, 292.0966
1132.346, 292.1128
1132.828, 292.1320
1133.311, 291.9114
1133.793, 290.8968
1134.275, 290.2930
1134.757, 290.6981
1135.239, 291.2008
1135.721, 290.9765
1136.203, 290.1128
1136.685, 289.2372
1137.167, 288.3722
1137.650, 287.6309
1138.132, 286.9994
1138.614, 286.5966
1139.096, 286.7065
1139.578, 286.9543
1140.060, 286.7639
1140.542, 286.1254
1141.024, 285.9140
1141.506, 286.2134
1141.989, 286.1417
1142.471, 284.5221
1142.953, 282.7715
1143.435, 281.7481
1143.917, 281.4484
1144.399, 281.7401
1144.881, 282.7318
1145.363, 283.5521
1145.846, 284.0822
1146.328, 284.1708
1146.810, 283.2751
1147.292, 282.1383
1147.774, 281.4965
1148.256, 281.4093
1148.738, 281.2368
1149.220, 280.9399
1149.703, 280.6580
1150.185, 280.4113
1150.667, 280.2391
1151.149, 280.2049
1151.631, 280.2687
1152.113, 280.4834
1152.595, 280.9391
1153.077, 280.6635
1153.559, 279.0793
1154.042, 278.2381
1154.524, 279.3365
1155.006, 281.0902
1155.488, 280.8163
1155.970, 279.5056
1156.452, 279.2444
1156.934, 281.2318
1157.416, 282.0554
1157.898, 280.8463
1158.381, 279.4077
1158.863, 278.5468
1159.345, 278.2916
1159.827, 279.2362
1160.309, 280.8452
1160.791, 281.6061
1161.273, 280.4221
1161.755, 279.3116
1162.238, 278.3395
1162.720, 278.0241
1163.202, 279.3505
1163.684, 281.7402
1164.166, 281.6866
1164.648, 279.7488
1165.130, 278.3997
1165.612, 279.5373
1166.094, 280.5443
1166.577, 280.4078
1167.059, 279.9722
1167.541, 280.0645
1168.023, 280.6150
1168.505, 281.0201
1168.987, 281.2766
1169.469, 281.5581
1169.951, 281.9800
1170.433, 282.4266
1170.916, 282.9618
1171.398, 283.4207
1171.880, 283.5224
1172.362, 283.2936
1172.844, 283.3666
1173.326, 283.7731
1173.808, 283.7095
1174.290, 281.6600
1174.773, 279.9698
1175.255, 280.2933
1175.737, 281.8492
1176.219, 283.4805
1176.701, 285.2066
1177.183, 285.8247
1177.665, 285.1374
1178.147, 284.2599
1178.630, 283.8023
1179.112, 283.7225
1179.594, 284.1672
1180.076, 284.9573
1180.558, 285.5716
1181.040, 286.0067
1181.522, 286.3990
1182.004, 286.7867
1182.486, 287.0334
1182.969, 286.6454
1183.451, 286.3635
1183.933, 286.9616
1184.415, 288.3006
1184.897, 289.3666
1185.379, 290.1732
1185.861, 290.5760
1186.343, 290.4725
1186.825, 290.2234
1187.308, 290.0183
1187.790, 289.9596
1188.272, 290.3459
1188.754, 291.1412
1189.236, 291.0002
1189.718, 289.7585
1190.200, 289.2130
1190.682, 290.0653
1191.165, 291.4681
1191.647, 292.8579
1192.129, 294.0957
1192.611, 295.1239
1193.093, 295.9465
1193.575, 295.8527
1194.057, 294.6847
1194.539, 293.6750
1195.021, 293.2153
1195.504, 293.2886
1195.986, 294.2318
1196.468, 295.5068
1196.950, 296.3806
1197.432, 296.7016
1197.914, 297.2416
1198.396, 298.0475
1198.878, 298.7343
1199.360, 299.0327
1199.843, 299.2492
1200.325, 299.9254
1200.807, 299.8823
1201.289, 300.8046
1201.771, 300.0697
1202.253, 299.7735
1202.735, 299.9512
1203.217, 300.4021
1203.700, 301.4035
1204.182, 302.1482
1204.664, 301.1674
1205.146, 299.5049
1205.628, 298.9366
1206.110, 300.1196
1206.592, 300.6434
1207.074, 300.4012
1207.557, 300.1861
1208.039, 300.7274
1208.521, 301.3387
1209.003, 301.3387
1209.485, 300.8342
1209.967, 299.9134
1210.449, 298.0705
1210.931, 297.4745
1211.413, 298.2787
1211.896, 299.3391
1212.378, 300.0763
1212.860, 300.4777
1213.342, 300.4791
1213.824, 300.1383
1214.306, 299.4904
1214.788, 298.2989
1215.270, 297.7857
1215.752, 298.0596
1216.235, 298.3451
1216.717, 297.9051
1217.199, 297.3371
1217.681, 297.4084
1218.163, 296.9822
1218.645, 296.6024
1219.127, 296.5799
1219.609, 295.9580
1220.092, 295.7778
1220.574, 295.8417
1221.056, 296.2647
1221.538, 296.6142
1222.020, 296.4189
1222.502, 295.8476
1222.984, 295.2332
1223.466, 294.4207
1223.948, 294.4990
1224.431, 295.5853
1224.913, 296.8482
1225.395, 297.8994
1225.877, 298.5850
1226.359, 298.6367
1226.841, 298.2484
1227.323, 297.9563
1227.805, 297.8055
1228.287, 297.3168
1228.770, 296.4193
1229.252, 295.9666
1229.734, 297.5336
1230.216, 298.9328
1230.698, 297.9637
1231.180, 295.7629
1231.662, 295.0847
1232.144, 296.0562
1232.627, 296.7556
1233.109, 297.0254
1233.591, 296.9184
1234.073, 295.8189
1234.555, 295.0274
1235.037, 295.9157
1235.519, 297.5029
1236.001, 297.8918
1236.484, 297.0831
1236.966, 296.2809
1237.448, 295.6029
1237.930, 295.3628
1238.412, 296.3937
1238.894, 297.2568
1239.376, 296.8255
1239.858, 295.8617
1240.340, 295.5441
1240.823, 295.8368
1241.305, 296.3438
1241.787, 297.0177
1242.269, 297.7380
1242.751, 298.6465
1243.233, 299.3050
1243.715, 299.4199
1244.197, 299.2832
1244.679, 299.3666
1245.162, 299.6045
1245.644, 299.5709
1246.126, 299.2520
1246.608, 299.0571
1247.090, 299.5440
1247.572, 299.6837
1248.054, 298.8387
1248.536, 297.9311
1249.019, 298.7470
1249.501, 300.6340
1249.983, 301.4090
1250.465, 300.9677
1250.947, 300.6091
1251.429, 301.1580
1251.911, 301.4324
1252.393, 301.0865
1252.875, 300.5570
1253.358, 300.1980
1253.840, 300.1842
1254.322, 301.4461
1254.804, 303.7667
1255.286, 304.6281
1255.768, 301.6913
1256.250, 300.1587
1256.732, 301.0613
1257.214, 302.9803
1257.697, 304.6487
1258.179, 305.9260
1258.661, 306.4569
1259.143, 306.3184
1259.625, 306.0420
1260.107, 305.5421
1260.589, 305.3993
1261.071, 305.7535
1261.554, 306.2387
1262.036, 306.4710
1262.518, 306.6079
1263.000, 306.9479
1263.482, 306.8040
1263.964, 307.2910
1264.446, 306.5101
1264.928, 305.9445
1265.411, 305.7142
1265.893, 305.6606
1266.375, 305.4963
1266.857, 305.5695
1267.339, 306.5678
1267.821, 306.3876
1268.303, 308.2185
1268.785, 307.0819
1269.267, 306.8310
1269.750, 307.7294
1270.232, 308.7041
1270.714, 309.0446
1271.196, 309.1176
1271.678, 309.0275
1272.160, 308.8857
1272.642, 308.7145
1273.124, 308.5640
1273.606, 309.3779
1274.089, 311.1502
1274.571, 312.5115
1275.053, 312.3444
1275.535, 311.9725
1276.017, 311.9931
1276.499, 311.9821
1276.981, 311.1377
1277.463, 309.7755
1277.946, 309.0760
1278.428, 309.0790
1278.910, 309.4268
1279.392, 310.2201
1279.874, 310.9991
1280.356, 311.7224
1280.838, 312.3329
1281.320, 312.8840
1281.802, 313.2437
1282.285, 312.9325
1282.767, 312.1324
1283.249, 311.7105
1283.731, 312.1605
1284.213, 312.4475
1284.695, 312.4457
1285.177, 312.4634
1285.659, 312.8015
1286.141, 313.3124
1286.624, 313.8423
1287.106, 314.3845
1287.588, 314.9839
1288.070, 315.7842
1288.552, 315.9366
1289.034, 315.3283
1289.516, 314.9116
1289.998, 315.6567
1290.481, 316.6447
1290.963, 317.0058
1291.445, 317.1796
1291.927, 318.1789
1292.409, 320.1398
1292.891, 319.9747
1293.373, 317.7871
1293.855, 316.1207
1294.338, 316.8038
1294.820, 318.0116
1295.302, 319.3961
1295.784, 320.4756
1296.266, 320.6729
1296.748, 320.1314
1297.230, 319.5016
1297.712, 318.9794
1298.194, 319.3112
1298.677, 322.1430
1299.159, 323.6195
1299.641, 322.6248
1300.123, 321.3560
1300.605, 321.3591
1301.087, 322.3239
1301.569, 324.2425
1302.051, 326.3167
1302.533, 326.8337
1303.016, 325.0644
##END=



