##NAMES=Maricopaite
##RRUFFID=R120147
##IDEAL CHEMISTRY=Ca_2_Pb^2+^_7_(Si_36_Al_12_)O_99_&#183;n(H_2_O,OH)
##LOCALITY=Moon Anchor mine, Hummingbird Spring,  Big Horn Mts, Maricopa County, Arizona, USA
##OWNER=RRUFF
##SOURCE=Bob Jenkins and Ron Gibbs
##DESCRIPTION=Spherical radial aggregates of white bladed crystals associated with yellow mimetite
##STATUS=The identification of this mineral has been confirmed by single-crystal X-ray diffraction.
##URL=rruff.info/R120147
8.975323e+001, 0.000000e+000
9.023535e+001, 8.210192e+002
9.071747e+001, 8.349687e+002
9.119958e+001, 8.368134e+002
9.168170e+001, 8.316110e+002
9.216382e+001, 8.177042e+002
9.264594e+001, 7.984304e+002
9.312805e+001, 7.783420e+002
9.361017e+001, 7.600847e+002
9.409229e+001, 7.432054e+002
9.457440e+001, 7.275026e+002
9.505651e+001, 7.133398e+002
9.553863e+001, 7.006900e+002
9.602074e+001, 6.898156e+002
9.650286e+001, 6.813355e+002
9.698498e+001, 6.750736e+002
9.746709e+001, 6.689818e+002
9.794921e+001, 6.621318e+002
9.843133e+001, 6.531884e+002
9.891344e+001, 6.453353e+002
9.939556e+001, 6.392704e+002
9.987768e+001, 6.346714e+002
1.003598e+002, 6.310930e+002
1.008419e+002, 6.286486e+002
1.013240e+002, 6.268834e+002
1.018061e+002, 6.241014e+002
1.022883e+002, 6.205096e+002
1.027704e+002, 6.157193e+002
1.032525e+002, 6.088395e+002
1.037346e+002, 5.993865e+002
1.042167e+002, 5.900466e+002
1.046988e+002, 5.824977e+002
1.051810e+002, 5.760889e+002
1.056631e+002, 5.700953e+002
1.061452e+002, 5.643460e+002
1.066273e+002, 5.587493e+002
1.071094e+002, 5.528417e+002
1.075915e+002, 5.458852e+002
1.080737e+002, 5.395256e+002
1.085558e+002, 5.336920e+002
1.090379e+002, 5.287884e+002
1.095200e+002, 5.257613e+002
1.100021e+002, 5.258230e+002
1.104842e+002, 5.296477e+002
1.109664e+002, 5.330681e+002
1.114485e+002, 5.365869e+002
1.119306e+002, 5.393818e+002
1.124127e+002, 5.406536e+002
1.128948e+002, 5.404877e+002
1.133769e+002, 5.398786e+002
1.138591e+002, 5.403195e+002
1.143412e+002, 5.432399e+002
1.148233e+002, 5.445446e+002
1.153054e+002, 5.431909e+002
1.157875e+002, 5.407828e+002
1.162696e+002, 5.389134e+002
1.167517e+002, 5.381644e+002
1.172339e+002, 5.379636e+002
1.177160e+002, 5.370079e+002
1.181981e+002, 5.354385e+002
1.186802e+002, 5.331160e+002
1.191623e+002, 5.298235e+002
1.196444e+002, 5.257136e+002
1.201266e+002, 5.211741e+002
1.206087e+002, 5.163915e+002
1.210908e+002, 5.112026e+002
1.215729e+002, 5.054855e+002
1.220550e+002, 4.991685e+002
1.225371e+002, 4.924505e+002
1.230193e+002, 4.853239e+002
1.235014e+002, 4.776710e+002
1.239835e+002, 4.704630e+002
1.244656e+002, 4.646060e+002
1.249477e+002, 4.593310e+002
1.254298e+002, 4.539852e+002
1.259120e+002, 4.483945e+002
1.263941e+002, 4.426286e+002
1.268762e+002, 4.368591e+002
1.273583e+002, 4.308524e+002
1.278404e+002, 4.252567e+002
1.283225e+002, 4.202176e+002
1.288047e+002, 4.156124e+002
1.292868e+002, 4.113387e+002
1.297689e+002, 4.073727e+002
1.302510e+002, 4.036857e+002
1.307331e+002, 3.998548e+002
1.312152e+002, 3.953530e+002
1.316974e+002, 3.911866e+002
1.321795e+002, 3.877189e+002
1.326616e+002, 3.848230e+002
1.331437e+002, 3.821744e+002
1.336258e+002, 3.794806e+002
1.341079e+002, 3.766988e+002
1.345901e+002, 3.741220e+002
1.350722e+002, 3.713874e+002
1.355543e+002, 3.690777e+002
1.360364e+002, 3.678095e+002
1.365185e+002, 3.675311e+002
1.370006e+002, 3.674159e+002
1.374828e+002, 3.665281e+002
1.379649e+002, 3.646841e+002
1.384470e+002, 3.628384e+002
1.389291e+002, 3.611035e+002
1.394112e+002, 3.593644e+002
1.398933e+002, 3.574474e+002
1.403755e+002, 3.552921e+002
1.408576e+002, 3.530807e+002
1.413397e+002, 3.509808e+002
1.418218e+002, 3.489713e+002
1.423039e+002, 3.472506e+002
1.427860e+002, 3.461275e+002
1.432681e+002, 3.454142e+002
1.437503e+002, 3.443652e+002
1.442324e+002, 3.424986e+002
1.447145e+002, 3.406256e+002
1.451966e+002, 3.394743e+002
1.456787e+002, 3.390521e+002
1.461608e+002, 3.388400e+002
1.466430e+002, 3.385098e+002
1.471251e+002, 3.380800e+002
1.476072e+002, 3.373267e+002
1.480893e+002, 3.359289e+002
1.485714e+002, 3.343407e+002
1.490535e+002, 3.327512e+002
1.495357e+002, 3.312151e+002
1.500178e+002, 3.297132e+002
1.504999e+002, 3.282288e+002
1.509820e+002, 3.267203e+002
1.514641e+002, 3.253035e+002
1.519462e+002, 3.239829e+002
1.524284e+002, 3.227358e+002
1.529105e+002, 3.215448e+002
1.533926e+002, 3.204084e+002
1.538747e+002, 3.193117e+002
1.543568e+002, 3.182202e+002
1.548389e+002, 3.171045e+002
1.553211e+002, 3.160395e+002
1.558032e+002, 3.149775e+002
1.562853e+002, 3.139793e+002
1.567674e+002, 3.131728e+002
1.572495e+002, 3.126357e+002
1.577316e+002, 3.122613e+002
1.582138e+002, 3.115826e+002
1.586959e+002, 3.102994e+002
1.591780e+002, 3.090934e+002
1.596601e+002, 3.080745e+002
1.601422e+002, 3.072519e+002
1.606243e+002, 3.066828e+002
1.611065e+002, 3.064809e+002
1.615886e+002, 3.065160e+002
1.620707e+002, 3.062202e+002
1.625528e+002, 3.053914e+002
1.630349e+002, 3.044623e+002
1.635170e+002, 3.037118e+002
1.639991e+002, 3.031155e+002
1.644813e+002, 3.024230e+002
1.649634e+002, 3.013296e+002
1.654455e+002, 3.000740e+002
1.659276e+002, 2.992148e+002
1.664097e+002, 2.991635e+002
1.668918e+002, 2.992483e+002
1.673740e+002, 2.985809e+002
1.678561e+002, 2.969796e+002
1.683382e+002, 2.954947e+002
1.688203e+002, 2.949481e+002
1.693024e+002, 2.948416e+002
1.697845e+002, 2.945888e+002
1.702667e+002, 2.939375e+002
1.707488e+002, 2.930286e+002
1.712309e+002, 2.921985e+002
1.717130e+002, 2.915421e+002
1.721951e+002, 2.907825e+002
1.726772e+002, 2.896479e+002
1.731594e+002, 2.883842e+002
1.736415e+002, 2.873517e+002
1.741236e+002, 2.868115e+002
1.746057e+002, 2.866737e+002
1.750878e+002, 2.863969e+002
1.755699e+002, 2.859180e+002
1.760521e+002, 2.853522e+002
1.765342e+002, 2.845928e+002
1.770163e+002, 2.837789e+002
1.774984e+002, 2.831747e+002
1.779805e+002, 2.830194e+002
1.784626e+002, 2.833186e+002
1.789448e+002, 2.832351e+002
1.794269e+002, 2.825957e+002
1.799090e+002, 2.817498e+002
1.803911e+002, 2.806016e+002
1.808732e+002, 2.792972e+002
1.813553e+002, 2.781661e+002
1.818375e+002, 2.775203e+002
1.823196e+002, 2.774372e+002
1.828017e+002, 2.770641e+002
1.832838e+002, 2.760450e+002
1.837659e+002, 2.751114e+002
1.842480e+002, 2.747705e+002
1.847301e+002, 2.749399e+002
1.852123e+002, 2.750729e+002
1.856944e+002, 2.746591e+002
1.861765e+002, 2.736046e+002
1.866586e+002, 2.725681e+002
1.871407e+002, 2.713839e+002
1.876228e+002, 2.703374e+002
1.881050e+002, 2.697054e+002
1.885871e+002, 2.695073e+002
1.890692e+002, 2.694525e+002
1.895513e+002, 2.693430e+002
1.900334e+002, 2.691642e+002
1.905155e+002, 2.687143e+002
1.909977e+002, 2.676857e+002
1.914798e+002, 2.665086e+002
1.919619e+002, 2.657370e+002
1.924440e+002, 2.655005e+002
1.929261e+002, 2.653100e+002
1.934082e+002, 2.644884e+002
1.938904e+002, 2.632634e+002
1.943725e+002, 2.624025e+002
1.948546e+002, 2.623730e+002
1.953367e+002, 2.628257e+002
1.958188e+002, 2.631185e+002
1.963009e+002, 2.632487e+002
1.967831e+002, 2.630950e+002
1.972652e+002, 2.624389e+002
1.977473e+002, 2.614357e+002
1.982294e+002, 2.604821e+002
1.987115e+002, 2.597090e+002
1.991936e+002, 2.591301e+002
1.996758e+002, 2.588586e+002
2.001579e+002, 2.591589e+002
2.006400e+002, 2.594018e+002
2.011221e+002, 2.592879e+002
2.016042e+002, 2.588658e+002
2.020863e+002, 2.582568e+002
2.025685e+002, 2.573952e+002
2.030506e+002, 2.563165e+002
2.035327e+002, 2.557092e+002
2.040148e+002, 2.562243e+002
2.044969e+002, 2.565494e+002
2.049790e+002, 2.560550e+002
2.054612e+002, 2.549532e+002
2.059433e+002, 2.537996e+002
2.064254e+002, 2.530510e+002
2.069075e+002, 2.527283e+002
2.073896e+002, 2.523991e+002
2.078717e+002, 2.522421e+002
2.083539e+002, 2.519089e+002
2.088360e+002, 2.511762e+002
2.093181e+002, 2.501467e+002
2.098002e+002, 2.490907e+002
2.102823e+002, 2.482376e+002
2.107644e+002, 2.476042e+002
2.112466e+002, 2.470833e+002
2.117287e+002, 2.468184e+002
2.122108e+002, 2.465256e+002
2.126929e+002, 2.460255e+002
2.131750e+002, 2.453766e+002
2.136571e+002, 2.447779e+002
2.141393e+002, 2.444159e+002
2.146214e+002, 2.443224e+002
2.151035e+002, 2.442678e+002
2.155856e+002, 2.444337e+002
2.160677e+002, 2.444755e+002
2.165498e+002, 2.441976e+002
2.170320e+002, 2.436200e+002
2.175141e+002, 2.428799e+002
2.179962e+002, 2.420688e+002
2.184783e+002, 2.411642e+002
2.189604e+002, 2.404917e+002
2.194425e+002, 2.399958e+002
2.199247e+002, 2.397362e+002
2.204068e+002, 2.399413e+002
2.208889e+002, 2.405314e+002
2.213710e+002, 2.409696e+002
2.218531e+002, 2.407124e+002
2.223352e+002, 2.397083e+002
2.228174e+002, 2.391432e+002
2.232995e+002, 2.393995e+002
2.237816e+002, 2.398068e+002
2.242637e+002, 2.399304e+002
2.247458e+002, 2.397375e+002
2.252279e+002, 2.392756e+002
2.257100e+002, 2.383951e+002
2.261922e+002, 2.372137e+002
2.266743e+002, 2.365512e+002
2.271564e+002, 2.367366e+002
2.276385e+002, 2.372904e+002
2.281206e+002, 2.379539e+002
2.286027e+002, 2.387286e+002
2.290849e+002, 2.391709e+002
2.295670e+002, 2.386660e+002
2.300491e+002, 2.375670e+002
2.305312e+002, 2.368612e+002
2.310133e+002, 2.369317e+002
2.314954e+002, 2.373456e+002
2.319776e+002, 2.377205e+002
2.324597e+002, 2.380864e+002
2.329418e+002, 2.381983e+002
2.334239e+002, 2.375024e+002
2.339060e+002, 2.365179e+002
2.343881e+002, 2.360866e+002
2.348703e+002, 2.366832e+002
2.353524e+002, 2.377000e+002
2.358345e+002, 2.382768e+002
2.363166e+002, 2.382994e+002
2.367987e+002, 2.383663e+002
2.372808e+002, 2.391110e+002
2.377630e+002, 2.399731e+002
2.382451e+002, 2.402512e+002
2.387272e+002, 2.395453e+002
2.392093e+002, 2.384309e+002
2.396914e+002, 2.378430e+002
2.401735e+002, 2.379207e+002
2.406557e+002, 2.380795e+002
2.411378e+002, 2.382488e+002
2.416199e+002, 2.383215e+002
2.421020e+002, 2.381052e+002
2.425841e+002, 2.374618e+002
2.430662e+002, 2.367353e+002
2.435484e+002, 2.366029e+002
2.440305e+002, 2.373595e+002
2.445126e+002, 2.379056e+002
2.449947e+002, 2.380485e+002
2.454768e+002, 2.378222e+002
2.459589e+002, 2.370806e+002
2.464410e+002, 2.357391e+002
2.469232e+002, 2.342732e+002
2.474053e+002, 2.336013e+002
2.478874e+002, 2.342363e+002
2.483695e+002, 2.344340e+002
2.488516e+002, 2.335298e+002
2.493337e+002, 2.323381e+002
2.498159e+002, 2.314936e+002
2.502980e+002, 2.311848e+002
2.507801e+002, 2.311252e+002
2.512622e+002, 2.308526e+002
2.517443e+002, 2.303416e+002
2.522264e+002, 2.296522e+002
2.527086e+002, 2.286293e+002
2.531907e+002, 2.275657e+002
2.536728e+002, 2.266280e+002
2.541549e+002, 2.258733e+002
2.546370e+002, 2.252951e+002
2.551191e+002, 2.249408e+002
2.556013e+002, 2.250960e+002
2.560834e+002, 2.248372e+002
2.565655e+002, 2.237983e+002
2.570476e+002, 2.226752e+002
2.575297e+002, 2.219190e+002
2.580118e+002, 2.216114e+002
2.584940e+002, 2.215296e+002
2.589761e+002, 2.213756e+002
2.594582e+002, 2.210842e+002
2.599403e+002, 2.208910e+002
2.604224e+002, 2.208861e+002
2.609045e+002, 2.208877e+002
2.613867e+002, 2.208261e+002
2.618688e+002, 2.206711e+002
2.623509e+002, 2.203777e+002
2.628330e+002, 2.198540e+002
2.633151e+002, 2.189450e+002
2.637972e+002, 2.183961e+002
2.642794e+002, 2.185017e+002
2.647615e+002, 2.186486e+002
2.652436e+002, 2.184419e+002
2.657257e+002, 2.179129e+002
2.662078e+002, 2.173981e+002
2.666899e+002, 2.172599e+002
2.671721e+002, 2.176089e+002
2.676542e+002, 2.176022e+002
2.681363e+002, 2.169377e+002
2.686184e+002, 2.162690e+002
2.691005e+002, 2.158990e+002
2.695826e+002, 2.158188e+002
2.700648e+002, 2.158872e+002
2.705469e+002, 2.160112e+002
2.710290e+002, 2.161953e+002
2.715111e+002, 2.162527e+002
2.719932e+002, 2.160923e+002
2.724753e+002, 2.159230e+002
2.729575e+002, 2.158333e+002
2.734396e+002, 2.158089e+002
2.739217e+002, 2.158182e+002
2.744038e+002, 2.158676e+002
2.748859e+002, 2.159328e+002
2.753680e+002, 2.156870e+002
2.758501e+002, 2.146137e+002
2.763322e+002, 2.138561e+002
2.768144e+002, 2.140222e+002
2.772965e+002, 2.147987e+002
2.777786e+002, 2.154820e+002
2.782607e+002, 2.156890e+002
2.787428e+002, 2.155162e+002
2.792249e+002, 2.153601e+002
2.797071e+002, 2.152496e+002
2.801892e+002, 2.151186e+002
2.806713e+002, 2.148339e+002
2.811534e+002, 2.145312e+002
2.816355e+002, 2.144278e+002
2.821176e+002, 2.146042e+002
2.825998e+002, 2.150733e+002
2.830819e+002, 2.159487e+002
2.835640e+002, 2.176402e+002
2.840461e+002, 2.189238e+002
2.845282e+002, 2.193682e+002
2.850103e+002, 2.193049e+002
2.854925e+002, 2.191096e+002
2.859746e+002, 2.188651e+002
2.864567e+002, 2.187763e+002
2.869388e+002, 2.192955e+002
2.874209e+002, 2.206558e+002
2.879030e+002, 2.217666e+002
2.883852e+002, 2.221440e+002
2.888673e+002, 2.223051e+002
2.893494e+002, 2.229814e+002
2.898315e+002, 2.243578e+002
2.903136e+002, 2.258292e+002
2.907957e+002, 2.266443e+002
2.912779e+002, 2.267163e+002
2.917600e+002, 2.267297e+002
2.922421e+002, 2.266315e+002
2.927242e+002, 2.265684e+002
2.932063e+002, 2.266867e+002
2.936884e+002, 2.270048e+002
2.941706e+002, 2.274401e+002
2.946527e+002, 2.279005e+002
2.951348e+002, 2.284014e+002
2.956169e+002, 2.291114e+002
2.960990e+002, 2.303796e+002
2.965811e+002, 2.316117e+002
2.970633e+002, 2.321525e+002
2.975454e+002, 2.320564e+002
2.980275e+002, 2.321899e+002
2.985096e+002, 2.332787e+002
2.989917e+002, 2.351494e+002
2.994738e+002, 2.365292e+002
2.999560e+002, 2.370980e+002
3.004381e+002, 2.374707e+002
3.009202e+002, 2.379382e+002
3.014023e+002, 2.384986e+002
3.018844e+002, 2.391470e+002
3.023665e+002, 2.399233e+002
3.028487e+002, 2.407578e+002
3.033308e+002, 2.414543e+002
3.038129e+002, 2.419936e+002
3.042950e+002, 2.424507e+002
3.047771e+002, 2.426995e+002
3.052592e+002, 2.428796e+002
3.057414e+002, 2.434446e+002
3.062235e+002, 2.446994e+002
3.067056e+002, 2.461672e+002
3.071877e+002, 2.468449e+002
3.076698e+002, 2.465993e+002
3.081519e+002, 2.463444e+002
3.086341e+002, 2.463374e+002
3.091162e+002, 2.465187e+002
3.095983e+002, 2.467702e+002
3.100804e+002, 2.470465e+002
3.105625e+002, 2.474573e+002
3.110446e+002, 2.483122e+002
3.115268e+002, 2.496555e+002
3.120089e+002, 2.505487e+002
3.124910e+002, 2.504272e+002
3.129731e+002, 2.499340e+002
3.134552e+002, 2.497988e+002
3.139373e+002, 2.501279e+002
3.144195e+002, 2.507397e+002
3.149016e+002, 2.516540e+002
3.153837e+002, 2.528115e+002
3.158658e+002, 2.534426e+002
3.163479e+002, 2.530227e+002
3.168300e+002, 2.523795e+002
3.173121e+002, 2.522535e+002
3.177943e+002, 2.526323e+002
3.182764e+002, 2.529574e+002
3.187585e+002, 2.527942e+002
3.192406e+002, 2.522792e+002
3.197227e+002, 2.520934e+002
3.202048e+002, 2.525150e+002
3.206870e+002, 2.529783e+002
3.211691e+002, 2.531585e+002
3.216512e+002, 2.531189e+002
3.221333e+002, 2.531200e+002
3.226154e+002, 2.533503e+002
3.230975e+002, 2.536103e+002
3.235797e+002, 2.533448e+002
3.240618e+002, 2.522840e+002
3.245439e+002, 2.513794e+002
3.250260e+002, 2.509685e+002
3.255081e+002, 2.509397e+002
3.259902e+002, 2.511416e+002
3.264724e+002, 2.515732e+002
3.269545e+002, 2.520567e+002
3.274366e+002, 2.523735e+002
3.279187e+002, 2.525932e+002
3.284008e+002, 2.523786e+002
3.288829e+002, 2.511378e+002
3.293651e+002, 2.496717e+002
3.298472e+002, 2.489971e+002
3.303293e+002, 2.492892e+002
3.308114e+002, 2.498645e+002
3.312935e+002, 2.500362e+002
3.317756e+002, 2.497638e+002
3.322578e+002, 2.497295e+002
3.327399e+002, 2.502149e+002
3.332220e+002, 2.507455e+002
3.337041e+002, 2.509870e+002
3.341862e+002, 2.509362e+002
3.346683e+002, 2.507225e+002
3.351505e+002, 2.503569e+002
3.356326e+002, 2.499096e+002
3.361147e+002, 2.498402e+002
3.365968e+002, 2.504842e+002
3.370789e+002, 2.511068e+002
3.375610e+002, 2.514109e+002
3.380432e+002, 2.514608e+002
3.385253e+002, 2.514101e+002
3.390074e+002, 2.513281e+002
3.394895e+002, 2.511967e+002
3.399716e+002, 2.509500e+002
3.404537e+002, 2.505373e+002
3.409359e+002, 2.501264e+002
3.414180e+002, 2.496175e+002
3.419001e+002, 2.491746e+002
3.423822e+002, 2.491507e+002
3.428643e+002, 2.496483e+002
3.433464e+002, 2.501552e+002
3.438286e+002, 2.498967e+002
3.443107e+002, 2.484194e+002
3.447928e+002, 2.474971e+002
3.452749e+002, 2.476578e+002
3.457570e+002, 2.480228e+002
3.462391e+002, 2.478723e+002
3.467213e+002, 2.471852e+002
3.472034e+002, 2.464609e+002
3.476855e+002, 2.462171e+002
3.481676e+002, 2.464985e+002
3.486497e+002, 2.460667e+002
3.491318e+002, 2.441733e+002
3.496140e+002, 2.424465e+002
3.500961e+002, 2.417227e+002
3.505782e+002, 2.417287e+002
3.510603e+002, 2.417425e+002
3.515424e+002, 2.413370e+002
3.520245e+002, 2.406397e+002
3.525067e+002, 2.401967e+002
3.529888e+002, 2.406554e+002
3.534709e+002, 2.405680e+002
3.539530e+002, 2.391954e+002
3.544351e+002, 2.374065e+002
3.549172e+002, 2.363027e+002
3.553994e+002, 2.362527e+002
3.558815e+002, 2.366469e+002
3.563636e+002, 2.364316e+002
3.568457e+002, 2.351277e+002
3.573278e+002, 2.341684e+002
3.578099e+002, 2.336190e+002
3.582920e+002, 2.333249e+002
3.587741e+002, 2.333895e+002
3.592563e+002, 2.336915e+002
3.597384e+002, 2.337682e+002
3.602205e+002, 2.330942e+002
3.607026e+002, 2.315383e+002
3.611847e+002, 2.305117e+002
3.616668e+002, 2.306273e+002
3.621490e+002, 2.306032e+002
3.626311e+002, 2.298495e+002
3.631132e+002, 2.286506e+002
3.635953e+002, 2.276100e+002
3.640774e+002, 2.271016e+002
3.645595e+002, 2.270002e+002
3.650417e+002, 2.267672e+002
3.655238e+002, 2.261961e+002
3.660059e+002, 2.257807e+002
3.664880e+002, 2.257996e+002
3.669701e+002, 2.258828e+002
3.674522e+002, 2.255760e+002
3.679344e+002, 2.247631e+002
3.684165e+002, 2.238353e+002
3.688986e+002, 2.234807e+002
3.693807e+002, 2.240740e+002
3.698628e+002, 2.242124e+002
3.703449e+002, 2.234611e+002
3.708271e+002, 2.226029e+002
3.713092e+002, 2.220374e+002
3.717913e+002, 2.217668e+002
3.722734e+002, 2.215555e+002
3.727555e+002, 2.212013e+002
3.732376e+002, 2.207107e+002
3.737198e+002, 2.202353e+002
3.742019e+002, 2.196195e+002
3.746840e+002, 2.192350e+002
3.751661e+002, 2.194726e+002
3.756482e+002, 2.199472e+002
3.761303e+002, 2.200024e+002
3.766125e+002, 2.192229e+002
3.770946e+002, 2.180764e+002
3.775767e+002, 2.176997e+002
3.780588e+002, 2.184537e+002
3.785409e+002, 2.189502e+002
3.790230e+002, 2.186404e+002
3.795052e+002, 2.180284e+002
3.799873e+002, 2.174127e+002
3.804694e+002, 2.168578e+002
3.809515e+002, 2.164401e+002
3.814336e+002, 2.163382e+002
3.819157e+002, 2.165415e+002
3.823979e+002, 2.165101e+002
3.828800e+002, 2.159235e+002
3.833621e+002, 2.153892e+002
3.838442e+002, 2.154059e+002
3.843263e+002, 2.158348e+002
3.848084e+002, 2.161650e+002
3.852906e+002, 2.159160e+002
3.857727e+002, 2.154124e+002
3.862548e+002, 2.155568e+002
3.867369e+002, 2.166129e+002
3.872190e+002, 2.173597e+002
3.877011e+002, 2.167437e+002
3.881833e+002, 2.154694e+002
3.886654e+002, 2.144874e+002
3.891475e+002, 2.139795e+002
3.896296e+002, 2.137918e+002
3.901117e+002, 2.139238e+002
3.905938e+002, 2.143275e+002
3.910760e+002, 2.145737e+002
3.915581e+002, 2.143613e+002
3.920402e+002, 2.141432e+002
3.925223e+002, 2.147131e+002
3.930044e+002, 2.161614e+002
3.934865e+002, 2.171895e+002
3.939687e+002, 2.169815e+002
3.944508e+002, 2.161373e+002
3.949329e+002, 2.156596e+002
3.954150e+002, 2.157217e+002
3.958971e+002, 2.157591e+002
3.963792e+002, 2.152035e+002
3.968614e+002, 2.141094e+002
3.973435e+002, 2.132529e+002
3.978256e+002, 2.126882e+002
3.983077e+002, 2.123408e+002
3.987898e+002, 2.122672e+002
3.992719e+002, 2.123915e+002
3.997540e+002, 2.124439e+002
4.002361e+002, 2.122665e+002
4.007183e+002, 2.119656e+002
4.012004e+002, 2.118653e+002
4.016825e+002, 2.120836e+002
4.021646e+002, 2.122595e+002
4.026467e+002, 2.123185e+002
4.031288e+002, 2.123091e+002
4.036110e+002, 2.122801e+002
4.040931e+002, 2.122446e+002
4.045752e+002, 2.122041e+002
4.050573e+002, 2.121760e+002
4.055394e+002, 2.121961e+002
4.060215e+002, 2.120252e+002
4.065037e+002, 2.114422e+002
4.069858e+002, 2.109057e+002
4.074679e+002, 2.106938e+002
4.079500e+002, 2.107178e+002
4.084321e+002, 2.107277e+002
4.089142e+002, 2.105695e+002
4.093964e+002, 2.102657e+002
4.098785e+002, 2.099138e+002
4.103606e+002, 2.092923e+002
4.108427e+002, 2.089238e+002
4.113248e+002, 2.090215e+002
4.118069e+002, 2.092905e+002
4.122891e+002, 2.095188e+002
4.127712e+002, 2.096232e+002
4.132533e+002, 2.095352e+002
4.137354e+002, 2.090649e+002
4.142175e+002, 2.079983e+002
4.146996e+002, 2.074048e+002
4.151818e+002, 2.078368e+002
4.156639e+002, 2.082417e+002
4.161460e+002, 2.082077e+002
4.166281e+002, 2.078132e+002
4.171102e+002, 2.073149e+002
4.175923e+002, 2.068455e+002
4.180745e+002, 2.064194e+002
4.185566e+002, 2.060940e+002
4.190387e+002, 2.059306e+002
4.195208e+002, 2.057364e+002
4.200029e+002, 2.054512e+002
4.204850e+002, 2.051133e+002
4.209672e+002, 2.047083e+002
4.214493e+002, 2.042271e+002
4.219314e+002, 2.038428e+002
4.224135e+002, 2.038705e+002
4.228956e+002, 2.042755e+002
4.233777e+002, 2.042945e+002
4.238599e+002, 2.035467e+002
4.243420e+002, 2.027595e+002
4.248241e+002, 2.025457e+002
4.253062e+002, 2.027707e+002
4.257883e+002, 2.029475e+002
4.262704e+002, 2.027383e+002
4.267526e+002, 2.024261e+002
4.272347e+002, 2.025337e+002
4.277168e+002, 2.030977e+002
4.281989e+002, 2.034711e+002
4.286810e+002, 2.031522e+002
4.291631e+002, 2.024998e+002
4.296453e+002, 2.023364e+002
4.301274e+002, 2.028672e+002
4.306095e+002, 2.034253e+002
4.310916e+002, 2.036780e+002
4.315737e+002, 2.037240e+002
4.320558e+002, 2.037111e+002
4.325380e+002, 2.036537e+002
4.330201e+002, 2.036986e+002
4.335022e+002, 2.040771e+002
4.339843e+002, 2.048532e+002
4.344664e+002, 2.054031e+002
4.349485e+002, 2.054719e+002
4.354307e+002, 2.055057e+002
4.359128e+002, 2.057504e+002
4.363949e+002, 2.062107e+002
4.368770e+002, 2.068398e+002
4.373591e+002, 2.076200e+002
4.378412e+002, 2.085279e+002
4.383234e+002, 2.094637e+002
4.388055e+002, 2.104999e+002
4.392876e+002, 2.114751e+002
4.397697e+002, 2.122161e+002
4.402518e+002, 2.129820e+002
4.407339e+002, 2.140921e+002
4.412160e+002, 2.155645e+002
4.416982e+002, 2.170799e+002
4.421803e+002, 2.182348e+002
4.426624e+002, 2.189537e+002
4.431445e+002, 2.198927e+002
4.436266e+002, 2.213324e+002
4.441087e+002, 2.227021e+002
4.445909e+002, 2.237875e+002
4.450730e+002, 2.246841e+002
4.455551e+002, 2.255241e+002
4.460372e+002, 2.263404e+002
4.465193e+002, 2.272751e+002
4.470014e+002, 2.287434e+002
4.474836e+002, 2.310287e+002
4.479657e+002, 2.329966e+002
4.484478e+002, 2.340795e+002
4.489299e+002, 2.350516e+002
4.494120e+002, 2.363998e+002
4.498941e+002, 2.381450e+002
4.503763e+002, 2.400007e+002
4.508584e+002, 2.418320e+002
4.513405e+002, 2.436092e+002
4.518226e+002, 2.451647e+002
4.523047e+002, 2.464904e+002
4.527868e+002, 2.475859e+002
4.532690e+002, 2.483759e+002
4.537511e+002, 2.489483e+002
4.542332e+002, 2.494111e+002
4.547153e+002, 2.498187e+002
4.551974e+002, 2.500511e+002
4.556795e+002, 2.498948e+002
4.561617e+002, 2.494456e+002
4.566438e+002, 2.491939e+002
4.571259e+002, 2.494134e+002
4.576080e+002, 2.495866e+002
4.580901e+002, 2.489716e+002
4.585722e+002, 2.476021e+002
4.590544e+002, 2.460514e+002
4.595365e+002, 2.442805e+002
4.600186e+002, 2.424758e+002
4.605007e+002, 2.409480e+002
4.609828e+002, 2.396068e+002
4.614649e+002, 2.379346e+002
4.619471e+002, 2.355761e+002
4.624292e+002, 2.326679e+002
4.629113e+002, 2.297035e+002
4.633934e+002, 2.263294e+002
4.638755e+002, 2.233609e+002
4.643576e+002, 2.211432e+002
4.648398e+002, 2.192096e+002
4.653219e+002, 2.171558e+002
4.658040e+002, 2.148633e+002
4.662861e+002, 2.123465e+002
4.667682e+002, 2.095466e+002
4.672503e+002, 2.063474e+002
4.677325e+002, 2.037800e+002
4.682146e+002, 2.024816e+002
4.686967e+002, 2.011408e+002
4.691788e+002, 1.993399e+002
4.696609e+002, 1.972983e+002
4.701430e+002, 1.953689e+002
4.706252e+002, 1.937046e+002
4.711073e+002, 1.922280e+002
4.715894e+002, 1.907815e+002
4.720715e+002, 1.893216e+002
4.725536e+002, 1.880948e+002
4.730357e+002, 1.872393e+002
4.735179e+002, 1.865634e+002
4.740000e+002, 1.860523e+002
4.744821e+002, 1.856527e+002
4.749642e+002, 1.851775e+002
4.754463e+002, 1.844363e+002
4.759284e+002, 1.835771e+002
4.764106e+002, 1.829551e+002
4.768927e+002, 1.826191e+002
4.773748e+002, 1.822183e+002
4.778569e+002, 1.814572e+002
4.783390e+002, 1.806108e+002
4.788211e+002, 1.801199e+002
4.793033e+002, 1.800703e+002
4.797854e+002, 1.801241e+002
4.802675e+002, 1.801697e+002
4.807496e+002, 1.801900e+002
4.812317e+002, 1.801514e+002
4.817138e+002, 1.800469e+002
4.821959e+002, 1.798914e+002
4.826780e+002, 1.796611e+002
4.831602e+002, 1.793661e+002
4.836423e+002, 1.792507e+002
4.841244e+002, 1.795211e+002
4.846065e+002, 1.797358e+002
4.850886e+002, 1.795602e+002
4.855707e+002, 1.792397e+002
4.860529e+002, 1.792788e+002
4.865350e+002, 1.798612e+002
4.870171e+002, 1.806095e+002
4.874992e+002, 1.808639e+002
4.879813e+002, 1.802983e+002
4.884634e+002, 1.801448e+002
4.889456e+002, 1.805623e+002
4.894277e+002, 1.811653e+002
4.899098e+002, 1.819764e+002
4.903919e+002, 1.828140e+002
4.908740e+002, 1.833060e+002
4.913561e+002, 1.831810e+002
4.918383e+002, 1.826954e+002
4.923204e+002, 1.825403e+002
4.928025e+002, 1.827649e+002
4.932846e+002, 1.831861e+002
4.937667e+002, 1.840450e+002
4.942488e+002, 1.848851e+002
4.947310e+002, 1.853634e+002
4.952131e+002, 1.854824e+002
4.956952e+002, 1.855359e+002
4.961773e+002, 1.857568e+002
4.966594e+002, 1.860617e+002
4.971415e+002, 1.862097e+002
4.976237e+002, 1.861726e+002
4.981058e+002, 1.860749e+002
4.985879e+002, 1.858373e+002
4.990700e+002, 1.856461e+002
4.995521e+002, 1.859541e+002
5.000342e+002, 1.871905e+002
5.005164e+002, 1.879298e+002
5.009985e+002, 1.870629e+002
5.014806e+002, 1.853325e+002
5.019627e+002, 1.840493e+002
5.024448e+002, 1.834857e+002
5.029269e+002, 1.831846e+002
5.034091e+002, 1.827711e+002
5.038912e+002, 1.822378e+002
5.043733e+002, 1.814735e+002
5.048554e+002, 1.803233e+002
5.053375e+002, 1.791451e+002
5.058196e+002, 1.780322e+002
5.063018e+002, 1.769818e+002
5.067839e+002, 1.759743e+002
5.072660e+002, 1.750046e+002
5.077481e+002, 1.741114e+002
5.082302e+002, 1.733647e+002
5.087123e+002, 1.727888e+002
5.091945e+002, 1.722690e+002
5.096766e+002, 1.718303e+002
5.101587e+002, 1.714239e+002
5.106408e+002, 1.710715e+002
5.111229e+002, 1.707310e+002
5.116050e+002, 1.703456e+002
5.120872e+002, 1.698997e+002
5.125693e+002, 1.693492e+002
5.130514e+002, 1.685528e+002
5.135335e+002, 1.674585e+002
5.140156e+002, 1.665003e+002
5.144977e+002, 1.658182e+002
5.149799e+002, 1.652584e+002
5.154620e+002, 1.645921e+002
5.159441e+002, 1.638757e+002
5.164262e+002, 1.634850e+002
5.169083e+002, 1.639561e+002
5.173904e+002, 1.646195e+002
5.178726e+002, 1.645223e+002
5.183547e+002, 1.637064e+002
5.188368e+002, 1.629143e+002
5.193189e+002, 1.624923e+002
5.198010e+002, 1.623066e+002
5.202831e+002, 1.620969e+002
5.207653e+002, 1.619155e+002
5.212474e+002, 1.615727e+002
5.217295e+002, 1.609962e+002
5.222116e+002, 1.602753e+002
5.226937e+002, 1.594266e+002
5.231758e+002, 1.584962e+002
5.236580e+002, 1.575628e+002
5.241401e+002, 1.566459e+002
5.246222e+002, 1.558332e+002
5.251043e+002, 1.555989e+002
5.255864e+002, 1.566311e+002
5.260685e+002, 1.572670e+002
5.265507e+002, 1.572625e+002
5.270328e+002, 1.569019e+002
5.275149e+002, 1.561943e+002
5.279970e+002, 1.552818e+002
5.284791e+002, 1.546763e+002
5.289612e+002, 1.550447e+002
5.294434e+002, 1.561465e+002
5.299255e+002, 1.564398e+002
5.304076e+002, 1.556150e+002
5.308897e+002, 1.546984e+002
5.313718e+002, 1.540023e+002
5.318539e+002, 1.535029e+002
5.323361e+002, 1.532287e+002
5.328182e+002, 1.532137e+002
5.333003e+002, 1.532266e+002
5.337824e+002, 1.531265e+002
5.342645e+002, 1.529447e+002
5.347466e+002, 1.526493e+002
5.352288e+002, 1.522076e+002
5.357109e+002, 1.520816e+002
5.361930e+002, 1.528367e+002
5.366751e+002, 1.542247e+002
5.371572e+002, 1.547167e+002
5.376393e+002, 1.535322e+002
5.381215e+002, 1.524935e+002
5.386036e+002, 1.521890e+002
5.390857e+002, 1.522762e+002
5.395678e+002, 1.524077e+002
5.400499e+002, 1.524758e+002
5.405320e+002, 1.524034e+002
5.410142e+002, 1.520511e+002
5.414963e+002, 1.513975e+002
5.419784e+002, 1.511944e+002
5.424604e+002, 1.519793e+002
5.429426e+002, 1.525873e+002
5.434247e+002, 1.525989e+002
5.439068e+002, 1.524031e+002
5.443889e+002, 1.524956e+002
5.448710e+002, 1.529948e+002
5.453531e+002, 1.535208e+002
5.458353e+002, 1.536127e+002
5.463174e+002, 1.533108e+002
5.467995e+002, 1.530372e+002
5.472816e+002, 1.526741e+002
5.477637e+002, 1.526359e+002
5.482458e+002, 1.535674e+002
5.487280e+002, 1.549160e+002
5.492101e+002, 1.557493e+002
5.496922e+002, 1.556750e+002
5.501743e+002, 1.555756e+002
5.506564e+002, 1.561100e+002
5.511385e+002, 1.570006e+002
5.516207e+002, 1.577197e+002
5.521028e+002, 1.581607e+002
5.525849e+002, 1.583082e+002
5.530670e+002, 1.580760e+002
5.535491e+002, 1.574621e+002
5.540313e+002, 1.571268e+002
5.545134e+002, 1.574219e+002
5.549955e+002, 1.575340e+002
5.554776e+002, 1.571257e+002
5.559597e+002, 1.564630e+002
5.564418e+002, 1.558494e+002
5.569240e+002, 1.553742e+002
5.574061e+002, 1.549919e+002
5.578882e+002, 1.546359e+002
5.583703e+002, 1.543029e+002
5.588524e+002, 1.541389e+002
5.593345e+002, 1.543728e+002
5.598167e+002, 1.544395e+002
5.602988e+002, 1.539502e+002
5.607809e+002, 1.532959e+002
5.612630e+002, 1.530493e+002
5.617451e+002, 1.534013e+002
5.622272e+002, 1.536370e+002
5.627094e+002, 1.529560e+002
5.631915e+002, 1.516434e+002
5.636736e+002, 1.506403e+002
5.641557e+002, 1.500606e+002
5.646378e+002, 1.497574e+002
5.651199e+002, 1.497419e+002
5.656021e+002, 1.499219e+002
5.660842e+002, 1.498882e+002
5.665663e+002, 1.496038e+002
5.670484e+002, 1.491654e+002
5.675305e+002, 1.483466e+002
5.680126e+002, 1.475166e+002
5.684948e+002, 1.473009e+002
5.689769e+002, 1.477208e+002
5.694590e+002, 1.480655e+002
5.699411e+002, 1.476473e+002
5.704232e+002, 1.465094e+002
5.709053e+002, 1.454958e+002
5.713875e+002, 1.445038e+002
5.718696e+002, 1.437930e+002
5.723517e+002, 1.435288e+002
5.728338e+002, 1.434668e+002
5.733159e+002, 1.433966e+002
5.737980e+002, 1.432785e+002
5.742802e+002, 1.431808e+002
5.747623e+002, 1.432404e+002
5.752444e+002, 1.433797e+002
5.757265e+002, 1.432645e+002
5.762086e+002, 1.428665e+002
5.766907e+002, 1.423210e+002
5.771729e+002, 1.415489e+002
5.776550e+002, 1.407543e+002
5.781371e+002, 1.402571e+002
5.786192e+002, 1.400987e+002
5.791013e+002, 1.400753e+002
5.795834e+002, 1.402700e+002
5.800656e+002, 1.404651e+002
5.805477e+002, 1.403614e+002
5.810298e+002, 1.399779e+002
5.815119e+002, 1.395881e+002
5.819940e+002, 1.393671e+002
5.824761e+002, 1.392614e+002
5.829583e+002, 1.390843e+002
5.834404e+002, 1.386952e+002
5.839225e+002, 1.384508e+002
5.844046e+002, 1.384290e+002
5.848867e+002, 1.384816e+002
5.853688e+002, 1.385628e+002
5.858510e+002, 1.386327e+002
5.863331e+002, 1.386245e+002
5.868152e+002, 1.384953e+002
5.872973e+002, 1.382638e+002
5.877794e+002, 1.379258e+002
5.882615e+002, 1.374416e+002
5.887437e+002, 1.371270e+002
5.892258e+002, 1.371385e+002
5.897079e+002, 1.372586e+002
5.901900e+002, 1.373133e+002
5.906721e+002, 1.373034e+002
5.911542e+002, 1.372239e+002
5.916364e+002, 1.370372e+002
5.921185e+002, 1.368125e+002
5.926006e+002, 1.366007e+002
5.930827e+002, 1.364018e+002
5.935648e+002, 1.361845e+002
5.940469e+002, 1.359307e+002
5.945291e+002, 1.357441e+002
5.950112e+002, 1.357915e+002
5.954933e+002, 1.361576e+002
5.959754e+002, 1.363769e+002
5.964575e+002, 1.365432e+002
5.969396e+002, 1.364864e+002
5.974218e+002, 1.359331e+002
5.979039e+002, 1.351967e+002
5.983860e+002, 1.347432e+002
5.988681e+002, 1.347237e+002
5.993502e+002, 1.348414e+002
5.998323e+002, 1.346261e+002
6.003145e+002, 1.341047e+002
6.007966e+002, 1.341524e+002
6.012787e+002, 1.351301e+002
6.017608e+002, 1.359844e+002
6.022429e+002, 1.359746e+002
6.027250e+002, 1.354938e+002
6.032072e+002, 1.350779e+002
6.036893e+002, 1.347458e+002
6.041714e+002, 1.346031e+002
6.046535e+002, 1.349214e+002
6.051356e+002, 1.353641e+002
6.056177e+002, 1.353501e+002
6.060999e+002, 1.348582e+002
6.065820e+002, 1.344060e+002
6.070641e+002, 1.343820e+002
6.075462e+002, 1.346799e+002
6.080283e+002, 1.348170e+002
6.085104e+002, 1.346428e+002
6.089926e+002, 1.345173e+002
6.094747e+002, 1.344808e+002
6.099568e+002, 1.344754e+002
6.104389e+002, 1.344689e+002
6.109210e+002, 1.344567e+002
6.114031e+002, 1.344370e+002
6.118853e+002, 1.343951e+002
6.123674e+002, 1.343685e+002
6.128495e+002, 1.345173e+002
6.133316e+002, 1.348820e+002
6.138137e+002, 1.349052e+002
6.142958e+002, 1.342233e+002
6.147780e+002, 1.334569e+002
6.152601e+002, 1.332643e+002
6.157422e+002, 1.335570e+002
6.162243e+002, 1.338559e+002
6.167064e+002, 1.341765e+002
6.171885e+002, 1.343629e+002
6.176707e+002, 1.341684e+002
6.181528e+002, 1.337926e+002
6.186349e+002, 1.337040e+002
6.191170e+002, 1.340292e+002
6.195991e+002, 1.343786e+002
6.200812e+002, 1.342697e+002
6.205634e+002, 1.336626e+002
6.210455e+002, 1.331921e+002
6.215276e+002, 1.329336e+002
6.220097e+002, 1.327274e+002
6.224918e+002, 1.325949e+002
6.229739e+002, 1.324685e+002
6.234561e+002, 1.322655e+002
6.239382e+002, 1.319775e+002
6.244203e+002, 1.316945e+002
6.249023e+002, 1.314080e+002
6.253845e+002, 1.311943e+002
6.258666e+002, 1.313613e+002
6.263487e+002, 1.319590e+002
6.268308e+002, 1.324019e+002
6.273129e+002, 1.323969e+002
6.277950e+002, 1.321105e+002
6.282772e+002, 1.318070e+002
6.287593e+002, 1.314490e+002
6.292414e+002, 1.312374e+002
6.297235e+002, 1.313783e+002
6.302056e+002, 1.315157e+002
6.306877e+002, 1.313696e+002
6.311699e+002, 1.310196e+002
6.316520e+002, 1.306804e+002
6.321341e+002, 1.304520e+002
6.326162e+002, 1.302974e+002
6.330983e+002, 1.301185e+002
6.335804e+002, 1.298549e+002
6.340626e+002, 1.299115e+002
6.345447e+002, 1.307425e+002
6.350268e+002, 1.312958e+002
6.355089e+002, 1.308759e+002
6.359910e+002, 1.299951e+002
6.364731e+002, 1.294805e+002
6.369553e+002, 1.296139e+002
6.374374e+002, 1.297314e+002
6.379195e+002, 1.291990e+002
6.384016e+002, 1.283764e+002
6.388837e+002, 1.279729e+002
6.393658e+002, 1.280614e+002
6.398480e+002, 1.282608e+002
6.403301e+002, 1.283537e+002
6.408122e+002, 1.283402e+002
6.412943e+002, 1.282178e+002
6.417764e+002, 1.277722e+002
6.422585e+002, 1.275385e+002
6.427407e+002, 1.277465e+002
6.432228e+002, 1.279606e+002
6.437049e+002, 1.278211e+002
6.441870e+002, 1.274562e+002
6.446691e+002, 1.272754e+002
6.451512e+002, 1.275296e+002
6.456334e+002, 1.278956e+002
6.461155e+002, 1.277774e+002
6.465976e+002, 1.271810e+002
6.470797e+002, 1.267684e+002
6.475618e+002, 1.266462e+002
6.480439e+002, 1.267108e+002
6.485261e+002, 1.270165e+002
6.490082e+002, 1.274518e+002
6.494903e+002, 1.276504e+002
6.499724e+002, 1.274471e+002
6.504545e+002, 1.272185e+002
6.509366e+002, 1.271203e+002
6.514188e+002, 1.270713e+002
6.519009e+002, 1.269467e+002
6.523830e+002, 1.267539e+002
6.528651e+002, 1.266575e+002
6.533472e+002, 1.268152e+002
6.538293e+002, 1.270857e+002
6.543115e+002, 1.268864e+002
6.547936e+002, 1.259243e+002
6.552757e+002, 1.252031e+002
6.557578e+002, 1.248361e+002
6.562399e+002, 1.247773e+002
6.567220e+002, 1.252266e+002
6.572042e+002, 1.259895e+002
6.576863e+002, 1.265060e+002
6.581684e+002, 1.265159e+002
6.586505e+002, 1.262864e+002
6.591326e+002, 1.259964e+002
6.596147e+002, 1.256713e+002
6.600969e+002, 1.253230e+002
6.605790e+002, 1.249486e+002
6.610611e+002, 1.247994e+002
6.615432e+002, 1.251976e+002
6.620253e+002, 1.260461e+002
6.625074e+002, 1.262868e+002
6.629896e+002, 1.254016e+002
6.634717e+002, 1.245842e+002
6.639538e+002, 1.237146e+002
6.644359e+002, 1.231161e+002
6.649180e+002, 1.232740e+002
6.654001e+002, 1.239869e+002
6.658823e+002, 1.244446e+002
6.663644e+002, 1.240396e+002
6.668465e+002, 1.232793e+002
6.673286e+002, 1.231027e+002
6.678107e+002, 1.234942e+002
6.682928e+002, 1.239242e+002
6.687750e+002, 1.243035e+002
6.692571e+002, 1.246227e+002
6.697392e+002, 1.248563e+002
6.702213e+002, 1.250089e+002
6.707034e+002, 1.251471e+002
6.711855e+002, 1.254352e+002
6.716677e+002, 1.255068e+002
6.721498e+002, 1.250893e+002
6.726319e+002, 1.244877e+002
6.731140e+002, 1.239939e+002
6.735961e+002, 1.236639e+002
6.740782e+002, 1.234438e+002
6.745604e+002, 1.233004e+002
6.750425e+002, 1.232213e+002
6.755246e+002, 1.231842e+002
6.760067e+002, 1.232158e+002
6.764888e+002, 1.231707e+002
6.769709e+002, 1.229869e+002
6.774531e+002, 1.227551e+002
6.779352e+002, 1.225312e+002
6.784173e+002, 1.223200e+002
6.788994e+002, 1.221359e+002
6.793815e+002, 1.218861e+002
6.798636e+002, 1.217885e+002
6.803458e+002, 1.221366e+002
6.808279e+002, 1.226566e+002
6.813100e+002, 1.229386e+002
6.817921e+002, 1.229067e+002
6.822742e+002, 1.226513e+002
6.827563e+002, 1.222043e+002
6.832385e+002, 1.216447e+002
6.837206e+002, 1.213707e+002
6.842027e+002, 1.214916e+002
6.846848e+002, 1.216582e+002
6.851669e+002, 1.219715e+002
6.856490e+002, 1.221858e+002
6.861312e+002, 1.221233e+002
6.866133e+002, 1.218387e+002
6.870954e+002, 1.214929e+002
6.875775e+002, 1.210683e+002
6.880596e+002, 1.207414e+002
6.885417e+002, 1.207601e+002
6.890239e+002, 1.209827e+002
6.895060e+002, 1.210963e+002
6.899881e+002, 1.210433e+002
6.904702e+002, 1.208541e+002
6.909523e+002, 1.205142e+002
6.914344e+002, 1.200868e+002
6.919166e+002, 1.198867e+002
6.923987e+002, 1.200216e+002
6.928808e+002, 1.202232e+002
6.933629e+002, 1.206127e+002
6.938450e+002, 1.209372e+002
6.943271e+002, 1.210644e+002
6.948093e+002, 1.209984e+002
6.952914e+002, 1.207598e+002
6.957735e+002, 1.203113e+002
6.962556e+002, 1.198380e+002
6.967377e+002, 1.195082e+002
6.972198e+002, 1.193219e+002
6.977020e+002, 1.193442e+002
6.981841e+002, 1.196060e+002
6.986662e+002, 1.197604e+002
6.991483e+002, 1.195282e+002
6.996304e+002, 1.190237e+002
7.001125e+002, 1.186847e+002
7.005947e+002, 1.186000e+002
7.010768e+002, 1.185556e+002
7.015589e+002, 1.184910e+002
7.020410e+002, 1.185212e+002
7.025231e+002, 1.188432e+002
7.030052e+002, 1.192963e+002
7.034874e+002, 1.194621e+002
7.039695e+002, 1.191167e+002
7.044516e+002, 1.188406e+002
7.049337e+002, 1.196727e+002
7.054158e+002, 1.212735e+002
7.058979e+002, 1.219090e+002
7.063801e+002, 1.213330e+002
7.068622e+002, 1.203201e+002
7.073442e+002, 1.190797e+002
7.078264e+002, 1.178745e+002
7.083085e+002, 1.174408e+002
7.087906e+002, 1.181578e+002
7.092727e+002, 1.186279e+002
7.097548e+002, 1.185785e+002
7.102369e+002, 1.184347e+002
7.107191e+002, 1.184593e+002
7.112012e+002, 1.185663e+002
7.116833e+002, 1.185391e+002
7.121654e+002, 1.183035e+002
7.126475e+002, 1.180624e+002
7.131296e+002, 1.180799e+002
7.136118e+002, 1.183070e+002
7.140939e+002, 1.184724e+002
7.145760e+002, 1.185637e+002
7.150581e+002, 1.186383e+002
7.155402e+002, 1.187724e+002
7.160223e+002, 1.188530e+002
7.165045e+002, 1.186269e+002
7.169866e+002, 1.180199e+002
7.174687e+002, 1.175938e+002
7.179508e+002, 1.174770e+002
7.184329e+002, 1.174655e+002
7.189150e+002, 1.174751e+002
7.193972e+002, 1.175179e+002
7.198793e+002, 1.176672e+002
7.203614e+002, 1.179180e+002
7.208435e+002, 1.180985e+002
7.213256e+002, 1.179893e+002
7.218077e+002, 1.176843e+002
7.222899e+002, 1.175985e+002
7.227720e+002, 1.177713e+002
7.232541e+002, 1.178141e+002
7.237362e+002, 1.175446e+002
7.242183e+002, 1.171852e+002
7.247004e+002, 1.170070e+002
7.251826e+002, 1.170047e+002
7.256647e+002, 1.169546e+002
7.261468e+002, 1.168529e+002
7.266289e+002, 1.166928e+002
7.271110e+002, 1.162879e+002
7.275931e+002, 1.159322e+002
7.280753e+002, 1.160302e+002
7.285574e+002, 1.165664e+002
7.290395e+002, 1.171806e+002
7.295216e+002, 1.176573e+002
7.300037e+002, 1.179529e+002
7.304858e+002, 1.178894e+002
7.309680e+002, 1.174506e+002
7.314501e+002, 1.171261e+002
7.319322e+002, 1.170300e+002
7.324143e+002, 1.170184e+002
7.328964e+002, 1.169903e+002
7.333785e+002, 1.169494e+002
7.338607e+002, 1.169169e+002
7.343428e+002, 1.168864e+002
7.348249e+002, 1.168734e+002
7.353070e+002, 1.169429e+002
7.357891e+002, 1.169809e+002
7.362712e+002, 1.168693e+002
7.367534e+002, 1.166423e+002
7.372355e+002, 1.163900e+002
7.377176e+002, 1.161453e+002
7.381997e+002, 1.159911e+002
7.386818e+002, 1.160584e+002
7.391639e+002, 1.163346e+002
7.396461e+002, 1.167847e+002
7.401282e+002, 1.175045e+002
7.406103e+002, 1.179155e+002
7.410924e+002, 1.175399e+002
7.415745e+002, 1.167595e+002
7.420566e+002, 1.164457e+002
7.425388e+002, 1.167478e+002
7.430209e+002, 1.169527e+002
7.435030e+002, 1.168711e+002
7.439851e+002, 1.168174e+002
7.444672e+002, 1.170054e+002
7.449493e+002, 1.173127e+002
7.454315e+002, 1.175604e+002
7.459136e+002, 1.176907e+002
7.463957e+002, 1.177235e+002
7.468778e+002, 1.175962e+002
7.473599e+002, 1.173992e+002
7.478420e+002, 1.174427e+002
7.483242e+002, 1.177327e+002
7.488063e+002, 1.180287e+002
7.492884e+002, 1.182632e+002
7.497705e+002, 1.184400e+002
7.502526e+002, 1.185428e+002
7.507347e+002, 1.185626e+002
7.512169e+002, 1.186789e+002
7.516990e+002, 1.191171e+002
7.521811e+002, 1.193507e+002
7.526632e+002, 1.190227e+002
7.531453e+002, 1.186173e+002
7.536274e+002, 1.185496e+002
7.541096e+002, 1.188381e+002
7.545917e+002, 1.193438e+002
7.550738e+002, 1.201306e+002
7.555559e+002, 1.207989e+002
7.560380e+002, 1.205415e+002
7.565201e+002, 1.196309e+002
7.570023e+002, 1.193094e+002
7.574844e+002, 1.197995e+002
7.579665e+002, 1.205300e+002
7.584486e+002, 1.211284e+002
7.589307e+002, 1.216352e+002
7.594128e+002, 1.221927e+002
7.598950e+002, 1.228947e+002
7.603771e+002, 1.234770e+002
7.608592e+002, 1.240281e+002
7.613413e+002, 1.243733e+002
7.618234e+002, 1.240393e+002
7.623055e+002, 1.235833e+002
7.627877e+002, 1.240794e+002
7.632698e+002, 1.258696e+002
7.637519e+002, 1.274271e+002
7.642340e+002, 1.273345e+002
7.647161e+002, 1.264448e+002
7.651982e+002, 1.260454e+002
7.656804e+002, 1.261286e+002
7.661625e+002, 1.263180e+002
7.666446e+002, 1.264716e+002
7.671267e+002, 1.266500e+002
7.676088e+002, 1.269568e+002
7.680909e+002, 1.274074e+002
7.685731e+002, 1.276199e+002
7.690552e+002, 1.273061e+002
7.695373e+002, 1.272294e+002
7.700194e+002, 1.279204e+002
7.705015e+002, 1.286126e+002
7.709836e+002, 1.285585e+002
7.714658e+002, 1.278978e+002
7.719479e+002, 1.275005e+002
7.724300e+002, 1.278860e+002
7.729121e+002, 1.283305e+002
7.733942e+002, 1.282685e+002
7.738763e+002, 1.279676e+002
7.743585e+002, 1.278431e+002
7.748406e+002, 1.279378e+002
7.753227e+002, 1.280748e+002
7.758048e+002, 1.281417e+002
7.762869e+002, 1.281601e+002
7.767690e+002, 1.281446e+002
7.772512e+002, 1.280598e+002
7.777333e+002, 1.282126e+002
7.782154e+002, 1.287945e+002
7.786975e+002, 1.293017e+002
7.791796e+002, 1.294771e+002
7.796617e+002, 1.293951e+002
7.801439e+002, 1.291292e+002
7.806260e+002, 1.286127e+002
7.811081e+002, 1.282467e+002
7.815902e+002, 1.281775e+002
7.820723e+002, 1.282369e+002
7.825544e+002, 1.283473e+002
7.830366e+002, 1.284991e+002
7.835187e+002, 1.287352e+002
7.840008e+002, 1.290418e+002
7.844829e+002, 1.292500e+002
7.849650e+002, 1.291302e+002
7.854471e+002, 1.288389e+002
7.859293e+002, 1.288962e+002
7.864114e+002, 1.293078e+002
7.868935e+002, 1.296616e+002
7.873756e+002, 1.298789e+002
7.878577e+002, 1.299370e+002
7.883398e+002, 1.297703e+002
7.888220e+002, 1.294120e+002
7.893040e+002, 1.291482e+002
7.897861e+002, 1.289949e+002
7.902682e+002, 1.289086e+002
7.907504e+002, 1.289834e+002
7.912325e+002, 1.290357e+002
7.917146e+002, 1.288862e+002
7.921967e+002, 1.286336e+002
7.926788e+002, 1.285128e+002
7.931609e+002, 1.286217e+002
7.936431e+002, 1.287558e+002
7.941252e+002, 1.286763e+002
7.946073e+002, 1.285241e+002
7.950894e+002, 1.285466e+002
7.955715e+002, 1.287540e+002
7.960536e+002, 1.291233e+002
7.965358e+002, 1.296561e+002
7.970179e+002, 1.302299e+002
7.975000e+002, 1.306443e+002
7.979821e+002, 1.308828e+002
7.984642e+002, 1.314384e+002
7.989464e+002, 1.325178e+002
7.994285e+002, 1.335424e+002
7.999106e+002, 1.342413e+002
8.003927e+002, 1.349355e+002
8.008748e+002, 1.359168e+002
8.013569e+002, 1.371219e+002
8.018391e+002, 1.381805e+002
8.023212e+002, 1.387239e+002
8.028033e+002, 1.395000e+002
8.032854e+002, 1.410834e+002
8.037675e+002, 1.429866e+002
8.042496e+002, 1.447657e+002
8.047318e+002, 1.463033e+002
8.052139e+002, 1.474758e+002
8.056960e+002, 1.481886e+002
8.061781e+002, 1.487409e+002
8.066602e+002, 1.495365e+002
8.071423e+002, 1.505808e+002
8.076245e+002, 1.519913e+002
8.081066e+002, 1.538444e+002
8.085887e+002, 1.557454e+002
8.090708e+002, 1.575784e+002
8.095529e+002, 1.592791e+002
8.100350e+002, 1.607163e+002
8.105172e+002, 1.618394e+002
8.109993e+002, 1.630158e+002
8.114814e+002, 1.643359e+002
8.119635e+002, 1.655880e+002
8.124456e+002, 1.666533e+002
8.129277e+002, 1.676655e+002
8.134099e+002, 1.688174e+002
8.138920e+002, 1.700457e+002
8.143741e+002, 1.710498e+002
8.148562e+002, 1.716669e+002
8.153383e+002, 1.720290e+002
8.158204e+002, 1.722098e+002
8.163026e+002, 1.722464e+002
8.167847e+002, 1.722686e+002
8.172668e+002, 1.722652e+002
8.177489e+002, 1.720193e+002
8.182310e+002, 1.714015e+002
8.187131e+002, 1.705014e+002
8.191953e+002, 1.695411e+002
8.196774e+002, 1.686001e+002
8.201595e+002, 1.670261e+002
8.206416e+002, 1.644655e+002
8.211237e+002, 1.619113e+002
8.216058e+002, 1.598089e+002
8.220880e+002, 1.578450e+002
8.225701e+002, 1.556703e+002
8.230522e+002, 1.532871e+002
8.235343e+002, 1.509913e+002
8.240164e+002, 1.489023e+002
8.244985e+002, 1.468529e+002
8.249807e+002, 1.447789e+002
8.254628e+002, 1.426899e+002
8.259449e+002, 1.405665e+002
8.264270e+002, 1.384435e+002
8.269091e+002, 1.364174e+002
8.273912e+002, 1.345245e+002
8.278734e+002, 1.327915e+002
8.283555e+002, 1.312374e+002
8.288376e+002, 1.298698e+002
8.293197e+002, 1.287694e+002
8.298018e+002, 1.279501e+002
8.302839e+002, 1.271444e+002
8.307661e+002, 1.262211e+002
8.312482e+002, 1.252489e+002
8.317303e+002, 1.243206e+002
8.322124e+002, 1.234313e+002
8.326945e+002, 1.226523e+002
8.331766e+002, 1.219551e+002
8.336588e+002, 1.214234e+002
8.341409e+002, 1.212418e+002
8.346230e+002, 1.210937e+002
8.351051e+002, 1.207080e+002
8.355872e+002, 1.201095e+002
8.360693e+002, 1.194818e+002
8.365515e+002, 1.187528e+002
8.370336e+002, 1.182086e+002
8.375157e+002, 1.181703e+002
8.379978e+002, 1.182886e+002
8.384799e+002, 1.181178e+002
8.389620e+002, 1.177121e+002
8.394442e+002, 1.174067e+002
8.399263e+002, 1.173608e+002
8.404084e+002, 1.174087e+002
8.408905e+002, 1.173640e+002
8.413726e+002, 1.172223e+002
8.418547e+002, 1.168896e+002
8.423369e+002, 1.163442e+002
8.428190e+002, 1.160086e+002
8.433011e+002, 1.161021e+002
8.437832e+002, 1.162766e+002
8.442653e+002, 1.161223e+002
8.447474e+002, 1.156473e+002
8.452296e+002, 1.152187e+002
8.457117e+002, 1.147001e+002
8.461938e+002, 1.144377e+002
8.466759e+002, 1.146002e+002
8.471580e+002, 1.148861e+002
8.476401e+002, 1.152661e+002
8.481223e+002, 1.155950e+002
8.486044e+002, 1.155470e+002
8.490865e+002, 1.149570e+002
8.495686e+002, 1.143612e+002
8.500507e+002, 1.140291e+002
8.505328e+002, 1.138465e+002
8.510150e+002, 1.137638e+002
8.514971e+002, 1.137192e+002
8.519792e+002, 1.136218e+002
8.524613e+002, 1.134347e+002
8.529434e+002, 1.130968e+002
8.534255e+002, 1.124708e+002
8.539077e+002, 1.117193e+002
8.543898e+002, 1.113937e+002
8.548719e+002, 1.114923e+002
8.553540e+002, 1.116857e+002
8.558361e+002, 1.119611e+002
8.563182e+002, 1.120695e+002
8.568004e+002, 1.117513e+002
8.572825e+002, 1.111776e+002
8.577646e+002, 1.109175e+002
8.582467e+002, 1.112513e+002
8.587288e+002, 1.112881e+002
8.592109e+002, 1.107964e+002
8.596931e+002, 1.102868e+002
8.601752e+002, 1.099103e+002
8.606573e+002, 1.096278e+002
8.611394e+002, 1.093247e+002
8.616215e+002, 1.090075e+002
8.621036e+002, 1.089671e+002
8.625858e+002, 1.096844e+002
8.630679e+002, 1.103261e+002
8.635500e+002, 1.101639e+002
8.640321e+002, 1.096569e+002
8.645142e+002, 1.094655e+002
8.649963e+002, 1.096188e+002
8.654785e+002, 1.097820e+002
8.659606e+002, 1.097710e+002
8.664427e+002, 1.095951e+002
8.669248e+002, 1.091302e+002
8.674069e+002, 1.084840e+002
8.678890e+002, 1.083069e+002
8.683712e+002, 1.086515e+002
8.688533e+002, 1.089410e+002
8.693354e+002, 1.089299e+002
8.698175e+002, 1.087853e+002
8.702996e+002, 1.087272e+002
8.707817e+002, 1.087564e+002
8.712639e+002, 1.087432e+002
8.717459e+002, 1.086338e+002
8.722280e+002, 1.085768e+002
8.727101e+002, 1.086692e+002
8.731923e+002, 1.087536e+002
8.736744e+002, 1.087274e+002
8.741565e+002, 1.086215e+002
8.746386e+002, 1.085214e+002
8.751207e+002, 1.084652e+002
8.756028e+002, 1.083420e+002
8.760850e+002, 1.080153e+002
8.765671e+002, 1.077030e+002
8.770492e+002, 1.075546e+002
8.775313e+002, 1.075399e+002
8.780134e+002, 1.076378e+002
8.784955e+002, 1.078141e+002
8.789777e+002, 1.079093e+002
8.794598e+002, 1.076917e+002
8.799419e+002, 1.074499e+002
8.804240e+002, 1.077896e+002
8.809061e+002, 1.085230e+002
8.813882e+002, 1.089362e+002
8.818704e+002, 1.089265e+002
8.823525e+002, 1.088042e+002
8.828346e+002, 1.087479e+002
8.833167e+002, 1.087705e+002
8.837988e+002, 1.089371e+002
8.842809e+002, 1.092948e+002
8.847631e+002, 1.094516e+002
8.852452e+002, 1.094110e+002
8.857273e+002, 1.091289e+002
8.862094e+002, 1.083090e+002
8.866915e+002, 1.075304e+002
8.871736e+002, 1.075811e+002
8.876558e+002, 1.083915e+002
8.881379e+002, 1.088558e+002
8.886200e+002, 1.085590e+002
8.891021e+002, 1.084568e+002
8.895842e+002, 1.090617e+002
8.900663e+002, 1.095846e+002
8.905485e+002, 1.093087e+002
8.910306e+002, 1.085853e+002
8.915127e+002, 1.081719e+002
8.919948e+002, 1.082821e+002
8.924769e+002, 1.084979e+002
8.929590e+002, 1.085777e+002
8.934412e+002, 1.086101e+002
8.939233e+002, 1.086552e+002
8.944054e+002, 1.087363e+002
8.948875e+002, 1.089094e+002
8.953696e+002, 1.091739e+002
8.958517e+002, 1.094692e+002
8.963339e+002, 1.097670e+002
8.968160e+002, 1.100036e+002
8.972981e+002, 1.099493e+002
8.977802e+002, 1.096583e+002
8.982623e+002, 1.097642e+002
8.987444e+002, 1.103667e+002
8.992266e+002, 1.107885e+002
8.997087e+002, 1.106512e+002
9.001908e+002, 1.103517e+002
9.006729e+002, 1.105332e+002
9.011550e+002, 1.112368e+002
9.016371e+002, 1.114499e+002
9.021193e+002, 1.107631e+002
9.026014e+002, 1.103501e+002
9.030835e+002, 1.106906e+002
9.035656e+002, 1.111128e+002
9.040477e+002, 1.111011e+002
9.045298e+002, 1.108264e+002
9.050120e+002, 1.107323e+002
9.054941e+002, 1.109025e+002
9.059762e+002, 1.111490e+002
9.064583e+002, 1.115746e+002
9.069404e+002, 1.119082e+002
9.074225e+002, 1.119238e+002
9.079047e+002, 1.117777e+002
9.083868e+002, 1.115849e+002
9.088689e+002, 1.114337e+002
9.093510e+002, 1.116169e+002
9.098331e+002, 1.125469e+002
9.103152e+002, 1.134996e+002
9.107974e+002, 1.137315e+002
9.112795e+002, 1.134632e+002
9.117616e+002, 1.128903e+002
9.122437e+002, 1.121875e+002
9.127258e+002, 1.119269e+002
9.132079e+002, 1.123809e+002
9.136901e+002, 1.130696e+002
9.141722e+002, 1.133402e+002
9.146543e+002, 1.132743e+002
9.151364e+002, 1.133749e+002
9.156185e+002, 1.136493e+002
9.161006e+002, 1.138827e+002
9.165828e+002, 1.140351e+002
9.170649e+002, 1.140477e+002
9.175470e+002, 1.137902e+002
9.180291e+002, 1.134259e+002
9.185112e+002, 1.136124e+002
9.189933e+002, 1.148212e+002
9.194755e+002, 1.153601e+002
9.199576e+002, 1.147366e+002
9.204397e+002, 1.141482e+002
9.209218e+002, 1.141119e+002
9.214039e+002, 1.143169e+002
9.218860e+002, 1.144591e+002
9.223682e+002, 1.145340e+002
9.228503e+002, 1.145972e+002
9.233324e+002, 1.147930e+002
9.238145e+002, 1.147930e+002
9.242966e+002, 1.143382e+002
9.247787e+002, 1.138013e+002
9.252609e+002, 1.134201e+002
9.257430e+002, 1.132045e+002
9.262251e+002, 1.131141e+002
9.267072e+002, 1.131368e+002
9.271893e+002, 1.132805e+002
9.276714e+002, 1.136492e+002
9.281536e+002, 1.140513e+002
9.286357e+002, 1.144016e+002
9.291178e+002, 1.146019e+002
9.295999e+002, 1.143622e+002
9.300820e+002, 1.137346e+002
9.305641e+002, 1.132304e+002
9.310463e+002, 1.131934e+002
9.315284e+002, 1.133393e+002
9.320105e+002, 1.132043e+002
9.324926e+002, 1.128660e+002
9.329747e+002, 1.126731e+002
9.334568e+002, 1.126326e+002
9.339390e+002, 1.124870e+002
9.344211e+002, 1.121292e+002
9.349032e+002, 1.117880e+002
9.353853e+002, 1.117405e+002
9.358674e+002, 1.119114e+002
9.363495e+002, 1.118511e+002
9.368317e+002, 1.115267e+002
9.373138e+002, 1.110756e+002
9.377959e+002, 1.103616e+002
9.382780e+002, 1.098684e+002
9.387601e+002, 1.099749e+002
9.392422e+002, 1.103699e+002
9.397244e+002, 1.105137e+002
9.402065e+002, 1.103829e+002
9.406886e+002, 1.101335e+002
9.411707e+002, 1.096250e+002
9.416528e+002, 1.091915e+002
9.421349e+002, 1.090002e+002
9.426171e+002, 1.088098e+002
9.430992e+002, 1.083740e+002
9.435813e+002, 1.078043e+002
9.440634e+002, 1.074049e+002
9.445455e+002, 1.072489e+002
9.450276e+002, 1.072086e+002
9.455098e+002, 1.073613e+002
9.459919e+002, 1.074861e+002
9.464740e+002, 1.074656e+002
9.469561e+002, 1.073118e+002
9.474382e+002, 1.069478e+002
9.479203e+002, 1.064516e+002
9.484025e+002, 1.061789e+002
9.488846e+002, 1.064100e+002
9.493667e+002, 1.066945e+002
9.498488e+002, 1.065845e+002
9.503309e+002, 1.062598e+002
9.508130e+002, 1.059335e+002
9.512952e+002, 1.056533e+002
9.517773e+002, 1.055283e+002
9.522594e+002, 1.055752e+002
9.527415e+002, 1.055540e+002
9.532236e+002, 1.051617e+002
9.537057e+002, 1.046278e+002
9.541878e+002, 1.046481e+002
9.546699e+002, 1.050944e+002
9.551520e+002, 1.050244e+002
9.556342e+002, 1.043078e+002
9.561163e+002, 1.036970e+002
9.565984e+002, 1.036119e+002
9.570805e+002, 1.037503e+002
9.575626e+002, 1.036152e+002
9.580447e+002, 1.032140e+002
9.585269e+002, 1.030010e+002
9.590090e+002, 1.030107e+002
9.594911e+002, 1.030617e+002
9.599732e+002, 1.031126e+002
9.604553e+002, 1.032198e+002
9.609374e+002, 1.035276e+002
9.614196e+002, 1.038582e+002
9.619017e+002, 1.036668e+002
9.623838e+002, 1.026710e+002
9.628659e+002, 1.020246e+002
9.633480e+002, 1.019559e+002
9.638301e+002, 1.019308e+002
9.643123e+002, 1.018223e+002
9.647944e+002, 1.016847e+002
9.652765e+002, 1.015330e+002
9.657586e+002, 1.013867e+002
9.662407e+002, 1.013258e+002
9.667228e+002, 1.013631e+002
9.672050e+002, 1.014778e+002
9.676871e+002, 1.018339e+002
9.681692e+002, 1.020849e+002
9.686513e+002, 1.019486e+002
9.691334e+002, 1.016350e+002
9.696155e+002, 1.014311e+002
9.700977e+002, 1.013635e+002
9.705798e+002, 1.012713e+002
9.710619e+002, 1.010678e+002
9.715440e+002, 1.008515e+002
9.720261e+002, 1.007723e+002
9.725082e+002, 1.006439e+002
9.729904e+002, 1.001827e+002
9.734725e+002, 9.952477e+001
9.739546e+002, 9.896415e+001
9.744367e+002, 9.860242e+001
9.749188e+002, 9.844006e+001
9.754009e+002, 9.851308e+001
9.758831e+002, 9.874844e+001
9.763652e+002, 9.911553e+001
9.768473e+002, 9.954720e+001
9.773294e+002, 9.993783e+001
9.778115e+002, 1.002545e+002
9.782936e+002, 1.004070e+002
9.787758e+002, 1.003545e+002
9.792579e+002, 1.002500e+002
9.797400e+002, 1.002825e+002
9.802221e+002, 1.004171e+002
9.807042e+002, 1.005626e+002
9.811863e+002, 1.007103e+002
9.816685e+002, 1.007803e+002
9.821506e+002, 1.007573e+002
9.826327e+002, 1.006926e+002
9.831148e+002, 1.006122e+002
9.835969e+002, 1.005427e+002
9.840790e+002, 1.004992e+002
9.845612e+002, 1.004801e+002
9.850433e+002, 1.008993e+002
9.855254e+002, 1.019609e+002
9.860075e+002, 1.020851e+002
9.864896e+002, 1.005414e+002
9.869717e+002, 9.898557e+001
9.874539e+002, 9.881084e+001
9.879360e+002, 9.960741e+001
9.884181e+002, 1.001250e+002
9.889002e+002, 1.003821e+002
9.893823e+002, 1.002521e+002
9.898644e+002, 9.946709e+001
9.903466e+002, 9.879412e+001
9.908287e+002, 9.828847e+001
9.913108e+002, 9.819888e+001
9.917929e+002, 9.906116e+001
9.922750e+002, 1.006259e+002
9.927571e+002, 1.013800e+002
9.932393e+002, 1.007330e+002
9.937214e+002, 1.003430e+002
9.942035e+002, 1.004124e+002
9.946856e+002, 1.005276e+002
9.951677e+002, 1.005531e+002
9.956498e+002, 1.005299e+002
9.961320e+002, 1.004924e+002
9.966141e+002, 1.004476e+002
9.970962e+002, 1.004198e+002
9.975783e+002, 1.003779e+002
9.980604e+002, 1.004116e+002
9.985425e+002, 1.006731e+002
9.990247e+002, 1.008798e+002
9.995068e+002, 1.006947e+002
9.999889e+002, 1.004242e+002
1.000471e+003, 1.005950e+002
1.000953e+003, 1.012151e+002
1.001435e+003, 1.016752e+002
1.001917e+003, 1.016590e+002
1.002399e+003, 1.015222e+002
1.002882e+003, 1.012710e+002
1.003364e+003, 1.011497e+002
1.003846e+003, 1.016867e+002
1.004328e+003, 1.024320e+002
1.004810e+003, 1.023482e+002
1.005292e+003, 1.012841e+002
1.005774e+003, 1.004180e+002
1.006256e+003, 1.006639e+002
1.006739e+003, 1.011830e+002
1.007221e+003, 1.011247e+002
1.007703e+003, 1.008861e+002
1.008185e+003, 1.010926e+002
1.008667e+003, 1.016390e+002
1.009149e+003, 1.020940e+002
1.009631e+003, 1.022924e+002
1.010113e+003, 1.022412e+002
1.010595e+003, 1.017386e+002
1.011078e+003, 1.012182e+002
1.011560e+003, 1.015196e+002
1.012042e+003, 1.022626e+002
1.012524e+003, 1.025289e+002
1.013006e+003, 1.022959e+002
1.013488e+003, 1.020208e+002
1.013970e+003, 1.019088e+002
1.014452e+003, 1.019746e+002
1.014935e+003, 1.022956e+002
1.015417e+003, 1.027575e+002
1.015899e+003, 1.030922e+002
1.016381e+003, 1.033099e+002
1.016863e+003, 1.034720e+002
1.017345e+003, 1.035782e+002
1.017827e+003, 1.034512e+002
1.018309e+003, 1.029810e+002
1.018791e+003, 1.025874e+002
1.019274e+003, 1.029726e+002
1.019756e+003, 1.038991e+002
1.020238e+003, 1.040965e+002
1.020720e+003, 1.036007e+002
1.021202e+003, 1.034698e+002
1.021684e+003, 1.039150e+002
1.022166e+003, 1.041344e+002
1.022648e+003, 1.036132e+002
1.023130e+003, 1.028696e+002
1.023613e+003, 1.027331e+002
1.024095e+003, 1.031766e+002
1.024577e+003, 1.038160e+002
1.025059e+003, 1.047036e+002
1.025541e+003, 1.053075e+002
1.026023e+003, 1.055061e+002
1.026505e+003, 1.054806e+002
1.026987e+003, 1.052535e+002
1.027469e+003, 1.050716e+002
1.027952e+003, 1.054394e+002
1.028434e+003, 1.063909e+002
1.028916e+003, 1.071358e+002
1.029398e+003, 1.077245e+002
1.029880e+003, 1.078899e+002
1.030362e+003, 1.074041e+002
1.030844e+003, 1.069228e+002
1.031326e+003, 1.069487e+002
1.031809e+003, 1.071679e+002
1.032291e+003, 1.068607e+002
1.032773e+003, 1.058820e+002
1.033255e+003, 1.056562e+002
1.033737e+003, 1.066179e+002
1.034219e+003, 1.073870e+002
1.034701e+003, 1.076678e+002
1.035183e+003, 1.077518e+002
1.035666e+003, 1.077172e+002
1.036148e+003, 1.076826e+002
1.036630e+003, 1.079577e+002
1.037112e+003, 1.086701e+002
1.037594e+003, 1.089607e+002
1.038076e+003, 1.084343e+002
1.038558e+003, 1.081174e+002
1.039040e+003, 1.083754e+002
1.039522e+003, 1.086803e+002
1.040005e+003, 1.085045e+002
1.040487e+003, 1.081952e+002
1.040969e+003, 1.085987e+002
1.041451e+003, 1.099535e+002
1.041933e+003, 1.107591e+002
1.042415e+003, 1.104879e+002
1.042897e+003, 1.103723e+002
1.043379e+003, 1.108840e+002
1.043861e+003, 1.113758e+002
1.044344e+003, 1.113719e+002
1.044826e+003, 1.110720e+002
1.045308e+003, 1.108623e+002
1.045790e+003, 1.107753e+002
1.046272e+003, 1.107330e+002
1.046754e+003, 1.107139e+002
1.047236e+003, 1.107594e+002
1.047718e+003, 1.110758e+002
1.048201e+003, 1.112690e+002
1.048683e+003, 1.108292e+002
1.049165e+003, 1.101613e+002
1.049647e+003, 1.100795e+002
1.050129e+003, 1.107269e+002
1.050611e+003, 1.113080e+002
1.051093e+003, 1.117203e+002
1.051575e+003, 1.119727e+002
1.052057e+003, 1.118305e+002
1.052540e+003, 1.117560e+002
1.053022e+003, 1.123215e+002
1.053504e+003, 1.131011e+002
1.053986e+003, 1.132222e+002
1.054468e+003, 1.125450e+002
1.054950e+003, 1.120106e+002
1.055432e+003, 1.117495e+002
1.055914e+003, 1.118294e+002
1.056396e+003, 1.125332e+002
1.056879e+003, 1.133353e+002
1.057361e+003, 1.139185e+002
1.057843e+003, 1.142865e+002
1.058325e+003, 1.144887e+002
1.058807e+003, 1.145361e+002
1.059289e+003, 1.144922e+002
1.059771e+003, 1.142253e+002
1.060253e+003, 1.140776e+002
1.060736e+003, 1.143967e+002
1.061218e+003, 1.146710e+002
1.061700e+003, 1.143646e+002
1.062182e+003, 1.138079e+002
1.062664e+003, 1.136501e+002
1.063146e+003, 1.139520e+002
1.063628e+003, 1.140538e+002
1.064110e+003, 1.134052e+002
1.064593e+003, 1.129560e+002
1.065075e+003, 1.132686e+002
1.065557e+003, 1.137577e+002
1.066039e+003, 1.140423e+002
1.066521e+003, 1.141668e+002
1.067003e+003, 1.141591e+002
1.067485e+003, 1.140771e+002
1.067967e+003, 1.142741e+002
1.068449e+003, 1.152512e+002
1.068932e+003, 1.158823e+002
1.069414e+003, 1.151605e+002
1.069896e+003, 1.144137e+002
1.070378e+003, 1.147955e+002
1.070860e+003, 1.157048e+002
1.071342e+003, 1.163256e+002
1.071824e+003, 1.165075e+002
1.072306e+003, 1.162878e+002
1.072788e+003, 1.153501e+002
1.073271e+003, 1.147744e+002
1.073753e+003, 1.153891e+002
1.074235e+003, 1.162077e+002
1.074717e+003, 1.166896e+002
1.075199e+003, 1.168280e+002
1.075681e+003, 1.164132e+002
1.076163e+003, 1.156675e+002
1.076645e+003, 1.155487e+002
1.077127e+003, 1.166060e+002
1.077610e+003, 1.175932e+002
1.078092e+003, 1.178970e+002
1.078574e+003, 1.179758e+002
1.079056e+003, 1.180250e+002
1.079538e+003, 1.181107e+002
1.080020e+003, 1.182762e+002
1.080502e+003, 1.185319e+002
1.080984e+003, 1.189129e+002
1.081467e+003, 1.194707e+002
1.081949e+003, 1.199420e+002
1.082431e+003, 1.202097e+002
1.082913e+003, 1.203564e+002
1.083395e+003, 1.202705e+002
1.083877e+003, 1.202135e+002
1.084359e+003, 1.204997e+002
1.084841e+003, 1.210491e+002
1.085323e+003, 1.215934e+002
1.085806e+003, 1.220633e+002
1.086288e+003, 1.225092e+002
1.086770e+003, 1.230697e+002
1.087252e+003, 1.234645e+002
1.087734e+003, 1.234474e+002
1.088216e+003, 1.232887e+002
1.088698e+003, 1.231270e+002
1.089180e+003, 1.230642e+002
1.089662e+003, 1.232768e+002
1.090145e+003, 1.238030e+002
1.090627e+003, 1.243783e+002
1.091109e+003, 1.251212e+002
1.091591e+003, 1.256085e+002
1.092073e+003, 1.253605e+002
1.092555e+003, 1.250767e+002
1.093037e+003, 1.254217e+002
1.093519e+003, 1.260688e+002
1.094002e+003, 1.263796e+002
1.094484e+003, 1.262891e+002
1.094966e+003, 1.263133e+002
1.095448e+003, 1.266991e+002
1.095930e+003, 1.270959e+002
1.096412e+003, 1.272310e+002
1.096894e+003, 1.275110e+002
1.097376e+003, 1.284370e+002
1.097859e+003, 1.295204e+002
1.098341e+003, 1.299987e+002
1.098823e+003, 1.299224e+002
1.099305e+003, 1.301437e+002
1.099787e+003, 1.310922e+002
1.100269e+003, 1.318559e+002
1.100751e+003, 1.320530e+002
1.101233e+003, 1.321846e+002
1.101715e+003, 1.325194e+002
1.102198e+003, 1.328974e+002
1.102680e+003, 1.330345e+002
1.103162e+003, 1.330483e+002
1.103644e+003, 1.334747e+002
1.104126e+003, 1.346687e+002
1.104608e+003, 1.353875e+002
1.105090e+003, 1.347738e+002
1.105572e+003, 1.344833e+002
1.106054e+003, 1.353161e+002
1.106537e+003, 1.364881e+002
1.107019e+003, 1.374931e+002
1.107501e+003, 1.383092e+002
1.107983e+003, 1.389987e+002
1.108465e+003, 1.396196e+002
1.108947e+003, 1.398120e+002
1.109429e+003, 1.388057e+002
1.109911e+003, 1.384195e+002
1.110394e+003, 1.395132e+002
1.110876e+003, 1.408013e+002
1.111358e+003, 1.415218e+002
1.111840e+003, 1.419372e+002
1.112322e+003, 1.424648e+002
1.112804e+003, 1.431109e+002
1.113286e+003, 1.438082e+002
1.113768e+003, 1.446143e+002
1.114250e+003, 1.453730e+002
1.114733e+003, 1.461140e+002
1.115215e+003, 1.467379e+002
1.115697e+003, 1.469542e+002
1.116179e+003, 1.472747e+002
1.116661e+003, 1.485274e+002
1.117143e+003, 1.504905e+002
1.117625e+003, 1.514612e+002
1.118107e+003, 1.507672e+002
1.118589e+003, 1.506921e+002
1.119072e+003, 1.515090e+002
1.119554e+003, 1.524535e+002
1.120036e+003, 1.533968e+002
1.120518e+003, 1.542057e+002
1.121000e+003, 1.546921e+002
1.121482e+003, 1.550166e+002
1.121964e+003, 1.556845e+002
1.122446e+003, 1.567999e+002
1.122929e+003, 1.575713e+002
1.123411e+003, 1.578165e+002
1.123893e+003, 1.583851e+002
1.124375e+003, 1.595769e+002
1.124857e+003, 1.607541e+002
1.125339e+003, 1.615007e+002
1.125821e+003, 1.620150e+002
1.126303e+003, 1.626381e+002
1.126786e+003, 1.633560e+002
1.127268e+003, 1.638713e+002
1.127750e+003, 1.641335e+002
1.128232e+003, 1.646451e+002
1.128714e+003, 1.654966e+002
1.129196e+003, 1.663848e+002
1.129678e+003, 1.671754e+002
1.130160e+003, 1.679185e+002
1.130642e+003, 1.686858e+002
1.131125e+003, 1.694273e+002
1.131607e+003, 1.698990e+002
1.132089e+003, 1.701264e+002
1.132571e+003, 1.705771e+002
1.133053e+003, 1.712755e+002
1.133535e+003, 1.718930e+002
1.134017e+003, 1.723308e+002
1.134499e+003, 1.729880e+002
1.134981e+003, 1.742312e+002
1.135464e+003, 1.755782e+002
1.135946e+003, 1.759500e+002
1.136428e+003, 1.756990e+002
1.136910e+003, 1.763236e+002
1.137392e+003, 1.776286e+002
1.137874e+003, 1.785106e+002
1.138356e+003, 1.788347e+002
1.138838e+003, 1.793624e+002
1.139321e+003, 1.804893e+002
1.139803e+003, 1.814189e+002
1.140285e+003, 1.810693e+002
1.140767e+003, 1.801154e+002
1.141249e+003, 1.795601e+002
1.141731e+003, 1.794612e+002
1.142213e+003, 1.802515e+002
1.142695e+003, 1.816220e+002
1.143177e+003, 1.824397e+002
1.143660e+003, 1.824166e+002
1.144142e+003, 1.824053e+002
1.144624e+003, 1.830552e+002
1.145106e+003, 1.838597e+002
1.145588e+003, 1.842140e+002
1.146070e+003, 1.844785e+002
1.146552e+003, 1.851523e+002
1.147034e+003, 1.860655e+002
1.147516e+003, 1.869327e+002
1.147999e+003, 1.876632e+002
1.148481e+003, 1.881628e+002
1.148963e+003, 1.883623e+002
1.149445e+003, 1.885242e+002
1.149927e+003, 1.886864e+002
1.150409e+003, 1.890137e+002
1.150891e+003, 1.898427e+002
1.151373e+003, 1.907208e+002
1.151856e+003, 1.909488e+002
1.152338e+003, 1.908745e+002
1.152820e+003, 1.915388e+002
1.153302e+003, 1.931516e+002
1.153784e+003, 1.942492e+002
1.154266e+003, 1.935907e+002
1.154748e+003, 1.934136e+002
1.155230e+003, 1.949789e+002
1.155713e+003, 1.966734e+002
1.156195e+003, 1.974307e+002
1.156677e+003, 1.977710e+002
1.157159e+003, 1.984565e+002
1.157641e+003, 1.994636e+002
1.158123e+003, 2.002310e+002
1.158605e+003, 2.003925e+002
1.159087e+003, 2.010043e+002
1.159569e+003, 2.025619e+002
1.160052e+003, 2.039932e+002
1.160534e+003, 2.049913e+002
1.161016e+003, 2.058002e+002
1.161498e+003, 2.064709e+002
1.161980e+003, 2.071528e+002
1.162462e+003, 2.082611e+002
1.162944e+003, 2.098992e+002
1.163426e+003, 2.107956e+002
1.163908e+003, 2.105094e+002
1.164391e+003, 2.108083e+002
1.164873e+003, 2.121068e+002
1.165355e+003, 2.134431e+002
1.165837e+003, 2.143401e+002
1.166319e+003, 2.151513e+002
1.166801e+003, 2.163117e+002
1.167283e+003, 2.177218e+002
1.167765e+003, 2.190062e+002
1.168247e+003, 2.201642e+002
1.168730e+003, 2.211974e+002
1.169212e+003, 2.220992e+002
1.169694e+003, 2.229458e+002
1.170176e+003, 2.237474e+002
1.170658e+003, 2.248204e+002
1.171140e+003, 2.264093e+002
1.171622e+003, 2.282119e+002
1.172104e+003, 2.297755e+002
1.172587e+003, 2.311458e+002
1.173069e+003, 2.325359e+002
1.173551e+003, 2.338765e+002
1.174033e+003, 2.347873e+002
1.174515e+003, 2.353464e+002
1.174997e+003, 2.362233e+002
1.175479e+003, 2.376443e+002
1.175961e+003, 2.390134e+002
1.176443e+003, 2.397885e+002
1.176926e+003, 2.404011e+002
1.177408e+003, 2.412951e+002
1.177890e+003, 2.424358e+002
1.178372e+003, 2.437814e+002
1.178854e+003, 2.453316e+002
1.179336e+003, 2.473801e+002
1.179818e+003, 2.496917e+002
1.180300e+003, 2.511476e+002
1.180782e+003, 2.511990e+002
1.181265e+003, 2.511086e+002
1.181747e+003, 2.513643e+002
1.182229e+003, 2.520656e+002
1.182711e+003, 2.535370e+002
1.183193e+003, 2.552541e+002
1.183675e+003, 2.567245e+002
1.184157e+003, 2.580576e+002
1.184639e+003, 2.596349e+002
1.185122e+003, 2.614765e+002
1.185604e+003, 2.629566e+002
1.186086e+003, 2.638863e+002
1.186568e+003, 2.645327e+002
1.187050e+003, 2.642385e+002
1.187532e+003, 2.645438e+002
1.188014e+003, 2.667530e+002
1.188496e+003, 2.692696e+002
1.188979e+003, 2.703923e+002
1.189461e+003, 2.707135e+002
1.189943e+003, 2.719745e+002
1.190425e+003, 2.744022e+002
1.190907e+003, 2.764478e+002
1.191389e+003, 2.781859e+002
1.191871e+003, 2.792435e+002
1.192353e+003, 2.793353e+002
1.192835e+003, 2.793604e+002
1.193318e+003, 2.797003e+002
1.193800e+003, 2.803999e+002
1.194282e+003, 2.815878e+002
1.194764e+003, 2.830902e+002
1.195246e+003, 2.842097e+002
1.195728e+003, 2.849577e+002
1.196210e+003, 2.855322e+002
1.196692e+003, 2.859589e+002
1.197174e+003, 2.866907e+002
1.197657e+003, 2.878141e+002
1.198139e+003, 2.888102e+002
1.198621e+003, 2.893508e+002
1.199103e+003, 2.896767e+002
1.199585e+003, 2.900257e+002
1.200067e+003, 2.904416e+002
1.200549e+003, 2.910824e+002
1.201031e+003, 2.918371e+002
1.201514e+003, 2.923325e+002
1.201996e+003, 2.927291e+002
1.202478e+003, 2.936045e+002
1.202960e+003, 2.950840e+002
1.203442e+003, 2.968885e+002
1.203924e+003, 2.992211e+002
1.204406e+003, 3.007216e+002
1.204888e+003, 2.995206e+002
1.205370e+003, 2.979614e+002
1.205853e+003, 2.979432e+002
1.206335e+003, 2.987483e+002
1.206817e+003, 2.995675e+002
1.207299e+003, 3.003156e+002
1.207781e+003, 3.011710e+002
1.208263e+003, 3.021949e+002
1.208745e+003, 3.028046e+002
1.209227e+003, 3.024130e+002
1.209709e+003, 3.022598e+002
1.210192e+003, 3.026577e+002
1.210674e+003, 3.032846e+002
1.211156e+003, 3.040338e+002
1.211638e+003, 3.048885e+002
1.212120e+003, 3.058963e+002
1.212602e+003, 3.069864e+002
1.213084e+003, 3.078708e+002
1.213566e+003, 3.084969e+002
1.214049e+003, 3.092047e+002
1.214531e+003, 3.100892e+002
1.215013e+003, 3.106268e+002
1.215495e+003, 3.106408e+002
1.215977e+003, 3.106712e+002
1.216459e+003, 3.109919e+002
1.216941e+003, 3.115494e+002
1.217423e+003, 3.123620e+002
1.217906e+003, 3.132201e+002
1.218388e+003, 3.132673e+002
1.218870e+003, 3.127497e+002
1.219352e+003, 3.129491e+002
1.219834e+003, 3.138249e+002
1.220316e+003, 3.149230e+002
1.220798e+003, 3.160348e+002
1.221280e+003, 3.166071e+002
1.221762e+003, 3.163224e+002
1.222245e+003, 3.159491e+002
1.222727e+003, 3.161648e+002
1.223209e+003, 3.167943e+002
1.223691e+003, 3.178730e+002
1.224173e+003, 3.190629e+002
1.224655e+003, 3.200430e+002
1.225137e+003, 3.207160e+002
1.225619e+003, 3.209814e+002
1.226101e+003, 3.208361e+002
1.226584e+003, 3.203151e+002
1.227066e+003, 3.191895e+002
1.227548e+003, 3.184203e+002
1.228030e+003, 3.185225e+002
1.228512e+003, 3.188105e+002
1.228994e+003, 3.189189e+002
1.229476e+003, 3.191846e+002
1.229958e+003, 3.199949e+002
1.230441e+003, 3.210911e+002
1.230923e+003, 3.219607e+002
1.231405e+003, 3.226212e+002
1.231887e+003, 3.236300e+002
1.232369e+003, 3.252765e+002
1.232851e+003, 3.262686e+002
1.233333e+003, 3.262081e+002
1.233815e+003, 3.267967e+002
1.234297e+003, 3.286873e+002
1.234780e+003, 3.307206e+002
1.235262e+003, 3.320764e+002
1.235744e+003, 3.330197e+002
1.236226e+003, 3.339565e+002
1.236708e+003, 3.348947e+002
1.237190e+003, 3.358109e+002
1.237672e+003, 3.367724e+002
1.238154e+003, 3.382654e+002
1.238636e+003, 3.401727e+002
1.239119e+003, 3.417969e+002
1.239601e+003, 3.429279e+002
1.240083e+003, 3.436595e+002
1.240565e+003, 3.439306e+002
1.241047e+003, 3.444679e+002
1.241529e+003, 3.461854e+002
1.242011e+003, 3.482829e+002
1.242493e+003, 3.500564e+002
1.242975e+003, 3.517027e+002
1.243458e+003, 3.536423e+002
1.243940e+003, 3.556346e+002
1.244422e+003, 3.570068e+002
1.244904e+003, 3.577208e+002
1.245386e+003, 3.586850e+002
1.245868e+003, 3.607389e+002
1.246350e+003, 3.619348e+002
1.246832e+003, 3.611141e+002
1.247315e+003, 3.605068e+002
1.247797e+003, 3.605510e+002
1.248279e+003, 3.614558e+002
1.248761e+003, 3.637511e+002
1.249243e+003, 3.666382e+002
1.249725e+003, 3.687424e+002
1.250207e+003, 3.700685e+002
1.250689e+003, 3.706878e+002
1.251172e+003, 3.704637e+002
1.251654e+003, 3.710406e+002
1.252136e+003, 3.725668e+002
1.252618e+003, 3.742116e+002
1.253100e+003, 3.757241e+002
1.253582e+003, 3.772051e+002
1.254064e+003, 3.787389e+002
1.254546e+003, 3.800377e+002
1.255028e+003, 3.803159e+002
1.255510e+003, 3.803550e+002
1.255993e+003, 3.818401e+002
1.256475e+003, 3.840554e+002
1.256957e+003, 3.857054e+002
1.257439e+003, 3.868568e+002
1.257921e+003, 3.881306e+002
1.258403e+003, 3.895624e+002
1.258885e+003, 3.905106e+002
1.259367e+003, 3.905782e+002
1.259850e+003, 3.906085e+002
1.260332e+003, 3.908233e+002
1.260814e+003, 3.913166e+002
1.261296e+003, 3.922706e+002
1.261778e+003, 3.933826e+002
1.262260e+003, 3.944718e+002
1.262742e+003, 3.955436e+002
1.263224e+003, 3.967373e+002
1.263707e+003, 3.979803e+002
1.264189e+003, 3.985904e+002
1.264671e+003, 3.984814e+002
1.265153e+003, 3.979690e+002
1.265635e+003, 3.969288e+002
1.266117e+003, 3.960615e+002
1.266599e+003, 3.955350e+002
1.267081e+003, 3.950926e+002
1.267563e+003, 3.945846e+002
1.268046e+003, 3.941615e+002
1.268528e+003, 3.940647e+002
1.269010e+003, 3.940525e+002
1.269492e+003, 3.934974e+002
1.269974e+003, 3.926088e+002
1.270456e+003, 3.917791e+002
1.270938e+003, 3.911193e+002
1.271420e+003, 3.909625e+002
1.271902e+003, 3.911927e+002
1.272385e+003, 3.912114e+002
1.272867e+003, 3.907903e+002
1.273349e+003, 3.902216e+002
1.273831e+003, 3.897446e+002
1.274313e+003, 3.890737e+002
1.274795e+003, 3.878750e+002
1.275277e+003, 3.866456e+002
1.275759e+003, 3.856385e+002
1.276242e+003, 3.848358e+002
1.276724e+003, 3.844253e+002
1.277206e+003, 3.841454e+002
1.277688e+003, 3.831199e+002
1.278170e+003, 3.812038e+002
1.278652e+003, 3.798490e+002
1.279134e+003, 3.790529e+002
1.279616e+003, 3.789567e+002
1.280099e+003, 3.797668e+002
1.280581e+003, 3.803210e+002
1.281063e+003, 3.802345e+002
1.281545e+003, 3.793372e+002
1.282027e+003, 3.773908e+002
1.282509e+003, 3.751024e+002
1.282991e+003, 3.733566e+002
1.283473e+003, 3.723387e+002
1.283955e+003, 3.725348e+002
##END=



