##NAMES=Marokite
##RRUFFID=R060829
##IDEAL CHEMISTRY=CaMn^3+^_2_O_4_
##LOCALITY=Tachguagalt, Morocco
##OWNER=RRUFF
##SOURCE=Michael Scott
##DESCRIPTION=Black with carmine-red internal reflections, massive
##STATUS=The identification of this mineral has been confirmed by X-ray diffraction and chemical analysis
##URL=rruff.info/R060829
##MEASURED CHEMISTRY=Ca_1.00_Mn^3+^_2.00_O_4_
114.2913, 372.9358
114.7734, 391.9235
115.2555, 410.4722
115.7376, 427.5767
116.2198, 441.8028
116.7019, 449.0839
117.1840, 456.1633
117.6661, 465.6074
118.1482, 477.2347
118.6303, 493.1116
119.1124, 515.1277
119.5946, 542.0297
120.0767, 571.2376
120.5588, 604.8450
121.0409, 638.4216
121.5230, 669.4976
122.0051, 699.6248
122.4873, 722.8710
122.9694, 735.8048
123.4515, 738.1990
123.9336, 728.5480
124.4157, 698.1741
124.8979, 656.3145
125.3800, 617.1443
125.8621, 582.4673
126.3442, 554.2755
126.8263, 535.9113
127.3084, 527.5075
127.7905, 525.6978
128.2727, 532.6693
128.7548, 545.1049
129.2369, 552.0219
129.7190, 545.6968
130.2011, 530.6164
130.6832, 518.9775
131.1654, 510.9266
131.6475, 505.5886
132.1296, 502.6366
132.6117, 501.9310
133.0938, 501.1739
133.5759, 499.7762
134.0581, 497.6058
134.5402, 492.6982
135.0223, 483.7889
135.5044, 473.6633
135.9865, 469.1956
136.4686, 471.3152
136.9508, 473.8294
137.4329, 469.3823
137.9150, 455.5193
138.3971, 456.7812
138.8792, 482.1832
139.3613, 524.3813
139.8434, 548.1112
140.3256, 548.8179
140.8077, 540.6088
141.2898, 533.6137
141.7719, 527.1697
142.2540, 524.0768
142.7361, 525.4125
143.2183, 531.2466
143.7004, 537.5608
144.1825, 544.3726
144.6646, 551.6309
145.1467, 558.7714
145.6288, 563.2254
146.1110, 571.6286
146.5931, 586.8444
147.0752, 612.2169
147.5573, 632.3588
148.0394, 645.0821
148.5215, 653.1615
149.0037, 660.9632
149.4858, 661.1594
149.9679, 667.8716
150.4500, 687.2499
150.9321, 734.4776
151.4142, 767.8069
151.8964, 775.9208
152.3785, 769.2767
152.8606, 773.8370
153.3427, 798.9440
153.8248, 829.8256
154.3069, 860.1100
154.7890, 894.2976
155.2712, 922.3840
155.7533, 945.3557
156.2354, 962.0009
156.7175, 967.3658
157.1996, 959.1227
157.6817, 940.0632
158.1639, 912.0361
158.6460, 869.5190
159.1281, 823.6050
159.6102, 772.4265
160.0923, 716.8445
160.5744, 671.7003
161.0566, 647.6069
161.5387, 634.2795
162.0208, 621.8079
162.5029, 605.3553
162.9850, 590.3948
163.4671, 580.2983
163.9493, 575.6482
164.4314, 571.0397
164.9135, 563.5142
165.3956, 554.5624
165.8777, 546.2553
166.3598, 540.4039
166.8420, 534.9021
167.3241, 527.8236
167.8062, 518.4589
168.2883, 510.2196
168.7704, 501.9799
169.2525, 496.2850
169.7346, 498.3675
170.2168, 519.8475
170.6989, 546.0795
171.1810, 562.4704
171.6631, 565.0637
172.1452, 562.4797
172.6273, 553.1290
173.1095, 542.2715
173.5916, 546.6034
174.0737, 568.7292
174.5558, 614.3451
175.0379, 698.2343
175.5201, 845.6315
176.0022, 997.3509
176.4843, 1102.751
176.9664, 1159.307
177.4485, 1153.577
177.9306, 1029.296
178.4128, 838.2379
178.8949, 681.0960
179.3770, 587.7321
179.8591, 537.7616
180.3412, 508.0388
180.8233, 497.7893
181.3055, 494.0694
181.7876, 485.9790
182.2697, 475.4033
182.7518, 467.8916
183.2339, 465.6021
183.7160, 467.4062
184.1982, 471.9319
184.6803, 479.3416
185.1624, 486.9956
185.6445, 493.6754
186.1266, 498.8746
186.6087, 500.0423
187.0908, 490.9713
187.5730, 476.8073
188.0551, 477.7225
188.5372, 495.9265
189.0193, 519.0858
189.5014, 531.3774
189.9835, 533.6779
190.4657, 537.2036
190.9478, 548.8083
191.4299, 566.8774
191.9120, 579.9755
192.3941, 587.7987
192.8762, 591.2952
193.3584, 590.9125
193.8405, 586.6062
194.3226, 581.3689
194.8047, 576.3046
195.2868, 571.4427
195.7689, 566.7427
196.2511, 561.2872
196.7332, 557.4495
197.2153, 562.0505
197.6974, 576.4434
198.1795, 588.1921
198.6616, 588.1190
199.1438, 575.5709
199.6259, 568.5799
200.1080, 568.9164
200.5901, 574.8700
201.0722, 582.2552
201.5543, 590.8456
202.0364, 601.9893
202.5186, 617.4998
203.0007, 638.0217
203.4828, 657.0072
203.9649, 673.3647
204.4470, 688.0390
204.9291, 706.4008
205.4113, 732.3356
205.8934, 750.3123
206.3755, 749.1494
206.8576, 726.9523
207.3397, 694.0212
207.8218, 646.7405
208.3040, 589.9774
208.7861, 547.3918
209.2682, 522.2612
209.7503, 504.9801
210.2324, 488.1342
210.7145, 470.4757
211.1967, 458.9555
211.6788, 455.9716
212.1609, 460.4787
212.6430, 464.6532
213.1251, 469.2899
213.6072, 472.1931
214.0894, 470.9927
214.5715, 464.1275
215.0536, 457.6418
215.5357, 452.1229
216.0178, 447.6155
216.4999, 446.4659
216.9820, 450.9135
217.4642, 455.5909
217.9463, 454.5128
218.4284, 444.1264
218.9105, 437.0396
219.3926, 436.6595
219.8747, 443.0533
220.3569, 448.1937
220.8390, 452.8531
221.3211, 455.3707
221.8032, 453.8817
222.2853, 447.2877
222.7674, 439.0093
223.2496, 428.7465
223.7317, 415.9748
224.2138, 408.1287
224.6959, 407.0381
225.1780, 409.0253
225.6601, 409.8276
226.1423, 408.4846
226.6244, 407.8660
227.1065, 408.7919
227.5886, 411.4500
228.0707, 413.9961
228.5528, 415.8022
229.0350, 418.0426
229.5171, 421.9696
229.9992, 427.1230
230.4813, 434.9939
230.9634, 446.8472
231.4455, 463.9103
231.9276, 477.9558
232.4098, 487.8628
232.8919, 495.6276
233.3740, 503.2873
233.8561, 509.2101
234.3382, 517.9801
234.8203, 531.8381
235.3025, 552.2583
235.7846, 570.0313
236.2667, 583.5531
236.7488, 595.5295
237.2309, 610.2810
237.7130, 630.8792
238.1952, 648.7748
238.6773, 660.2583
239.1594, 662.6434
239.6415, 670.7538
240.1236, 689.0380
240.6057, 710.4594
241.0879, 724.9869
241.5700, 734.8703
242.0521, 733.8690
242.5342, 718.7468
243.0163, 686.4125
243.4984, 651.1535
243.9806, 608.8181
244.4627, 565.9701
244.9448, 533.8412
245.4269, 517.1845
245.9090, 503.4388
246.3911, 487.9239
246.8732, 468.5008
247.3554, 455.9722
247.8375, 453.0858
248.3196, 455.4438
248.8017, 456.1052
249.2838, 455.4346
249.7659, 452.3690
250.2481, 445.6154
250.7302, 433.2466
251.2123, 425.3386
251.6944, 424.0552
252.1765, 425.8571
252.6586, 424.6499
253.1408, 418.3516
253.6229, 412.8186
254.1050, 409.7075
254.5871, 409.0401
255.0692, 410.9238
255.5513, 415.9576
256.0334, 423.1265
256.5156, 430.9946
256.9977, 439.8796
257.4798, 448.9237
257.9619, 457.7078
258.4440, 466.0844
258.9261, 475.3159
259.4083, 485.9703
259.8904, 497.1125
260.3725, 506.9017
260.8546, 514.7896
261.3367, 522.6477
261.8188, 530.6436
262.3010, 538.3893
262.7831, 549.4146
263.2652, 566.1640
263.7473, 583.9119
264.2294, 594.0791
264.7115, 591.9086
265.1937, 594.0224
265.6758, 608.2067
266.1579, 636.6172
266.6400, 657.4152
267.1221, 667.2711
267.6042, 673.2206
268.0864, 687.8296
268.5685, 716.7385
269.0506, 737.3913
269.5327, 740.0552
270.0148, 723.0887
270.4969, 710.8990
270.9791, 706.2442
271.4612, 702.3055
271.9433, 688.1488
272.4254, 661.0895
272.9075, 635.0015
273.3896, 613.9475
273.8718, 598.0980
274.3539, 587.5142
274.8360, 583.3076
275.3181, 582.0825
275.8002, 579.3068
276.2823, 574.5992
276.7645, 570.5878
277.2466, 568.3865
277.7287, 567.8826
278.2108, 565.6488
278.6929, 560.4753
279.1750, 556.6049
279.6572, 561.2859
280.1393, 575.6168
280.6214, 586.0612
281.1035, 587.3683
281.5856, 580.7031
282.0677, 574.3556
282.5499, 567.8528
283.0320, 563.3671
283.5141, 566.2642
283.9962, 576.7119
284.4783, 579.9168
284.9604, 567.0282
285.4425, 543.4286
285.9247, 537.4769
286.4068, 551.8187
286.8889, 567.4208
287.3710, 561.0972
287.8531, 534.9952
288.3352, 516.0972
288.8174, 514.1006
289.2995, 523.6627
289.7816, 528.3870
290.2637, 527.8297
290.7458, 527.3513
291.2279, 533.4766
291.7101, 544.6779
292.1922, 552.0757
292.6743, 550.8102
293.1564, 546.3149
293.6385, 552.4872
294.1206, 569.2442
294.6028, 584.9792
295.0849, 589.0802
295.5670, 584.4218
296.0491, 580.0486
296.5312, 577.7080
297.0133, 577.1520
297.4955, 580.6638
297.9776, 587.4508
298.4597, 589.8405
298.9418, 577.0593
299.4239, 556.0251
299.9060, 541.8723
300.3882, 539.4240
300.8703, 542.2910
301.3524, 543.4838
301.8345, 543.1580
302.3166, 542.1805
302.7987, 540.9288
303.2809, 539.3945
303.7630, 536.5077
304.2451, 530.2136
304.7272, 527.1006
305.2093, 533.9468
305.6914, 549.6793
306.1736, 570.1494
306.6557, 595.2236
307.1378, 623.1442
307.6199, 652.2306
308.1020, 682.7976
308.5841, 713.6185
309.0663, 742.8826
309.5484, 771.9757
310.0305, 802.7703
310.5126, 835.0370
310.9947, 870.5142
311.4768, 912.6651
311.9590, 963.7347
312.4411, 1010.535
312.9232, 1036.861
313.4053, 1054.450
313.8874, 1081.933
314.3695, 1135.413
314.8517, 1195.098
315.3337, 1250.852
315.8159, 1301.919
316.2980, 1348.428
316.7801, 1391.368
317.2622, 1429.917
317.7443, 1463.474
318.2264, 1506.949
318.7086, 1531.541
319.1907, 1523.335
319.6728, 1481.357
320.1549, 1424.616
320.6370, 1357.707
321.1191, 1278.960
321.6013, 1186.472
322.0834, 1052.843
322.5655, 934.0818
323.0476, 846.2950
323.5297, 788.5535
324.0118, 739.0001
324.4940, 697.0381
324.9761, 660.4526
325.4582, 627.7799
325.9403, 600.8492
326.4224, 575.5907
326.9045, 550.1733
327.3867, 525.3027
327.8688, 505.6703
328.3509, 493.6482
328.8330, 485.1382
329.3151, 478.1685
329.7972, 472.5224
330.2794, 468.9376
330.7615, 470.7958
331.2436, 474.7443
331.7257, 469.9227
332.2078, 448.4746
332.6899, 428.0756
333.1721, 415.9706
333.6542, 414.5202
334.1363, 415.9345
334.6184, 421.7894
335.1005, 429.6226
335.5826, 434.4669
336.0648, 434.4662
336.5469, 435.4371
337.0290, 439.5548
337.5111, 447.2103
337.9932, 455.8597
338.4753, 466.5233
338.9575, 476.6502
339.4396, 483.1404
339.9217, 485.9306
340.4038, 484.9598
340.8859, 477.6914
341.3680, 465.3556
341.8502, 462.7930
342.3323, 471.7832
342.8144, 484.6692
343.2965, 494.1621
343.7786, 500.3502
344.2607, 504.4088
344.7429, 506.0894
345.2250, 506.1627
345.7071, 505.8584
346.1892, 504.9483
346.6713, 507.2075
347.1534, 520.4028
347.6355, 540.9483
348.1176, 551.9193
348.5998, 548.4315
349.0819, 536.5842
349.5640, 525.2600
350.0461, 514.2874
350.5282, 503.6740
351.0103, 493.0678
351.4925, 482.7729
351.9746, 473.2731
352.4567, 464.7739
352.9388, 456.8501
353.4209, 449.5789
353.9030, 442.6136
354.3852, 434.9507
354.8673, 425.2639
355.3494, 415.0321
355.8315, 404.3141
356.3136, 392.5058
356.7957, 385.7964
357.2779, 394.5139
357.7600, 410.5762
358.2421, 420.9988
358.7242, 415.4673
359.2063, 406.7459
359.6884, 401.8907
360.1706, 401.1563
360.6527, 403.1598
361.1348, 412.0012
361.6169, 421.2149
362.0990, 424.6018
362.5811, 409.2625
363.0633, 399.1103
363.5454, 403.9877
364.0275, 421.8515
364.5096, 440.2383
364.9917, 459.6039
365.4738, 476.1159
365.9560, 487.4207
366.4381, 488.8954
366.9202, 490.9052
367.4023, 493.8008
367.8844, 497.9669
368.3665, 504.4271
368.8487, 515.2050
369.3308, 526.6003
369.8129, 537.3176
370.2950, 546.8845
370.7771, 556.9946
371.2592, 568.6113
371.7414, 580.2656
372.2235, 589.2939
372.7056, 591.1284
373.1877, 598.4148
373.6698, 616.3937
374.1519, 645.7363
374.6341, 670.6459
375.1162, 692.5162
375.5983, 707.3690
376.0804, 709.1230
376.5625, 694.7694
377.0446, 681.0355
377.5267, 672.0973
378.0089, 666.1873
378.4910, 654.5668
378.9731, 636.0817
379.4552, 618.1946
379.9373, 608.5551
380.4194, 606.4122
380.9016, 599.3837
381.3837, 584.6802
381.8658, 566.5065
382.3479, 551.3877
382.8300, 539.3890
383.3121, 530.6439
383.7943, 528.7061
384.2764, 529.9958
384.7585, 524.1922
385.2406, 509.7233
385.7227, 493.9605
386.2048, 485.0989
386.6870, 481.5151
387.1691, 479.2337
387.6512, 473.9021
388.1333, 470.4556
388.6154, 476.4888
389.0975, 491.7086
389.5797, 506.2874
390.0618, 510.6028
390.5439, 511.2598
391.0260, 516.2082
391.5081, 532.6533
391.9902, 548.2601
392.4724, 557.4203
392.9545, 560.4039
393.4366, 558.5099
393.9187, 549.6509
394.4008, 537.9599
394.8829, 526.1666
395.3651, 516.5094
395.8472, 503.0879
396.3293, 478.6032
396.8114, 450.1770
397.2935, 430.2870
397.7756, 430.2067
398.2578, 430.3506
398.7399, 423.1210
399.2220, 405.0179
399.7041, 394.6319
400.1862, 397.6019
400.6683, 404.9755
401.1505, 408.7179
401.6326, 409.1440
402.1147, 405.0064
402.5968, 392.9516
403.0789, 374.8118
403.5610, 367.2065
404.0432, 375.0619
404.5253, 384.8449
405.0074, 386.9769
405.4895, 379.1239
405.9716, 374.9111
406.4537, 376.3735
406.9359, 380.7953
407.4180, 383.2556
407.9001, 383.9244
408.3822, 381.0305
408.8643, 369.1677
409.3464, 350.7570
409.8285, 347.1867
410.3106, 360.8124
410.7928, 378.7164
411.2749, 386.5705
411.7570, 385.9729
412.2391, 383.8509
412.7212, 381.5220
413.2033, 379.7350
413.6855, 380.6095
414.1676, 383.8271
414.6497, 386.2134
415.1318, 385.3256
415.6139, 382.1469
416.0960, 377.6797
416.5782, 371.0785
417.0603, 365.3462
417.5424, 363.9628
418.0245, 365.3499
418.5066, 365.6970
418.9887, 358.9232
419.4709, 353.7303
419.9530, 357.4403
420.4351, 372.8974
420.9172, 384.7782
421.3993, 385.2749
421.8814, 380.2161
422.3636, 376.0443
422.8457, 373.4161
423.3278, 372.5159
423.8099, 374.1403
424.2920, 378.1539
424.7741, 381.5175
425.2563, 383.5396
425.7384, 385.3368
426.2205, 387.9760
426.7026, 396.6767
427.1847, 396.2307
427.6668, 380.2759
428.1490, 357.1473
428.6311, 347.1077
429.1132, 355.4709
429.5953, 364.6068
430.0774, 367.2856
430.5595, 363.1730
431.0417, 361.3439
431.5238, 361.9552
432.0059, 364.5246
432.4880, 370.5427
432.9701, 379.9637
433.4522, 383.6190
433.9344, 377.1224
434.4165, 364.9346
434.8986, 356.6766
435.3807, 352.3597
435.8628, 352.2165
436.3449, 360.8280
436.8271, 373.3253
437.3092, 378.0728
437.7913, 372.0262
438.2734, 362.8023
438.7555, 356.1616
439.2376, 352.2006
439.7197, 351.1422
440.2018, 354.9216
440.6840, 360.3877
441.1661, 365.1087
441.6482, 368.9321
442.1303, 372.9788
442.6124, 379.9582
443.0945, 386.4250
443.5767, 389.1221
444.0588, 384.1353
444.5409, 378.7900
445.0230, 373.9832
445.5051, 370.0880
445.9872, 368.4610
446.4694, 372.4294
446.9515, 376.0443
447.4336, 376.4764
447.9157, 371.5439
448.3978, 369.2943
448.8799, 369.7356
449.3621, 372.8842
449.8442, 379.5498
450.3263, 392.8701
450.8084, 402.6332
451.2905, 406.3989
451.7726, 404.5876
452.2548, 399.0236
452.7369, 387.1916
453.2190, 379.2398
453.7011, 386.3441
454.1832, 408.2956
454.6653, 420.7130
455.1475, 419.7473
455.6296, 411.7564
456.1117, 405.7954
456.5938, 401.7971
457.0759, 398.8370
457.5580, 396.7959
458.0402, 395.4481
458.5223, 394.2202
459.0044, 393.0935
459.4865, 392.7674
459.9686, 393.2097
460.4507, 394.9646
460.9329, 399.2381
461.4150, 408.9645
461.8971, 417.4884
462.3792, 419.5759
462.8613, 416.9072
463.3434, 414.3769
463.8256, 413.1212
464.3077, 413.2921
464.7898, 414.7657
465.2719, 417.2439
465.7540, 422.2394
466.2361, 434.2753
466.7183, 447.3088
467.2004, 454.4771
467.6825, 443.9371
468.1646, 441.3792
468.6467, 455.1469
469.1288, 482.1110
469.6110, 496.4205
470.0930, 492.0620
470.5752, 484.7441
471.0573, 484.0372
471.5394, 492.9227
472.0215, 493.8492
472.5036, 483.4707
472.9857, 469.7070
473.4679, 466.4754
473.9500, 474.1302
474.4321, 480.3132
474.9142, 480.6191
475.3963, 476.3922
475.8784, 470.7664
476.3606, 463.7679
476.8427, 457.0792
477.3248, 451.5654
477.8069, 447.4704
478.2890, 446.2002
478.7711, 449.6373
479.2533, 451.5772
479.7354, 442.6166
480.2175, 427.8499
480.6996, 418.3262
481.1817, 426.0646
481.6638, 435.3503
482.1460, 435.2225
482.6281, 425.0133
483.1102, 416.4930
483.5923, 412.0788
484.0744, 411.8993
484.5565, 416.0705
485.0387, 432.8124
485.5208, 444.0390
486.0029, 446.8719
486.4850, 443.1805
486.9671, 436.6498
487.4492, 422.8060
487.9314, 412.5662
488.4135, 410.0708
488.8956, 416.0625
489.3777, 423.4012
489.8598, 433.7367
490.3419, 442.4358
490.8241, 443.7203
491.3062, 436.9612
491.7883, 432.8700
492.2704, 434.9573
492.7525, 438.6006
493.2346, 431.8847
493.7168, 415.8266
494.1989, 401.3986
494.6810, 394.7446
495.1631, 394.0867
495.6452, 397.5144
496.1273, 405.2100
496.6095, 411.7331
497.0916, 411.0353
497.5737, 406.5297
498.0558, 402.8308
498.5379, 400.9394
499.0201, 400.8441
499.5022, 404.7258
499.9843, 410.8303
500.4664, 413.5427
500.9485, 406.2098
501.4306, 398.9066
501.9127, 397.0988
502.3948, 403.4462
502.8770, 407.1484
503.3591, 404.9849
503.8412, 401.1708
504.3233, 399.2192
504.8054, 398.3659
505.2875, 401.0599
505.7697, 408.9263
506.2518, 420.3639
506.7339, 429.7108
507.2160, 437.4707
507.6981, 441.3407
508.1802, 437.8315
508.6624, 427.4938
509.1445, 422.5250
509.6266, 423.3564
510.1087, 427.9749
510.5908, 436.9552
511.0729, 448.4044
511.5551, 454.8262
512.0372, 450.8340
512.5193, 445.2860
513.0014, 451.3148
513.4835, 465.8209
513.9656, 477.7933
514.4478, 480.5331
514.9299, 478.5736
515.4120, 474.5990
515.8941, 468.5286
516.3762, 463.2072
516.8583, 462.0595
517.3405, 461.2150
517.8226, 456.9396
518.3047, 440.7035
518.7868, 429.9799
519.2689, 429.9814
519.7510, 437.7548
520.2332, 444.1974
520.7153, 450.5859
521.1974, 453.4735
521.6795, 449.9546
522.1616, 438.6767
522.6437, 434.8720
523.1259, 441.5151
523.6080, 449.0779
524.0901, 444.3393
524.5722, 427.3197
525.0543, 421.1705
525.5364, 432.8998
526.0186, 452.7554
526.5007, 465.0147
526.9828, 470.0507
527.4649, 470.6422
527.9470, 462.4652
528.4291, 453.4932
528.9113, 456.7209
529.3934, 472.5686
529.8755, 486.0213
530.3576, 483.4256
530.8397, 475.2236
531.3218, 472.5223
531.8040, 484.5331
532.2861, 492.6111
532.7682, 483.1174
533.2503, 465.8128
533.7324, 461.4761
534.2145, 492.8687
534.6967, 516.9245
535.1788, 520.3972
535.6609, 502.4153
536.1430, 488.3528
536.6251, 479.9025
537.1072, 473.2403
537.5894, 465.5659
538.0715, 456.4888
538.5536, 449.0103
539.0357, 443.2333
539.5178, 439.4890
539.9999, 439.7946
540.4821, 443.6693
540.9642, 445.2411
541.4463, 440.6347
541.9284, 433.1943
542.4105, 428.8644
542.8926, 427.4630
543.3748, 427.4019
543.8569, 429.1524
544.3390, 430.8957
544.8211, 430.3887
545.3032, 426.7111
545.7853, 423.0093
546.2675, 421.0495
546.7495, 419.9145
547.2316, 418.4486
547.7137, 413.1436
548.1959, 411.0247
548.6780, 415.5211
549.1601, 425.2735
549.6422, 432.3244
550.1243, 436.0777
550.6064, 437.9320
551.0886, 438.3712
551.5707, 437.3705
552.0528, 434.3107
552.5349, 427.7098
553.0170, 422.5198
553.4991, 426.2925
553.9813, 438.4595
554.4634, 445.8788
554.9455, 444.8614
555.4276, 439.7763
555.9097, 435.8127
556.3918, 433.5727
556.8740, 435.5215
557.3561, 448.5158
557.8382, 463.0338
558.3203, 467.4189
558.8024, 461.7273
559.2845, 457.0468
559.7667, 461.1764
560.2488, 467.7639
560.7309, 471.5050
561.2130, 469.0847
561.6951, 468.0638
562.1772, 468.0557
562.6594, 470.7874
563.1415, 479.5515
563.6236, 503.0588
564.1057, 518.9020
564.5878, 519.7378
565.0699, 508.5773
565.5521, 505.5128
566.0342, 512.4153
566.5163, 521.4589
566.9984, 527.4550
567.4805, 530.8685
567.9626, 539.2033
568.4448, 553.8152
568.9269, 567.1094
569.4090, 566.3513
569.8911, 557.9089
570.3732, 558.5500
570.8553, 577.1370
571.3375, 599.9447
571.8196, 615.7085
572.3017, 625.6877
572.7838, 632.3030
573.2659, 632.8190
573.7480, 633.6470
574.2302, 639.0344
574.7123, 649.4432
575.1944, 657.5883
575.6765, 660.5339
576.1586, 662.1170
576.6407, 664.9686
577.1229, 673.1538
577.6050, 674.0202
578.0871, 665.5914
578.5692, 651.9125
579.0513, 638.4611
579.5334, 625.0438
580.0156, 613.2797
580.4977, 603.3058
580.9798, 595.4884
581.4619, 591.7113
581.9440, 591.6589
582.4261, 591.8423
582.9083, 591.2422
583.3904, 589.0254
583.8725, 582.9814
584.3546, 572.8094
584.8367, 563.2562
585.3188, 554.9216
585.8010, 549.8718
586.2831, 550.8218
586.7652, 566.3162
587.2473, 575.8242
587.7294, 567.6633
588.2115, 550.9585
588.6937, 544.1277
589.1758, 553.8392
589.6579, 565.0142
590.1400, 574.1376
590.6221, 581.7623
591.1042, 593.7028
591.5864, 611.5142
592.0685, 628.4326
592.5506, 638.8041
593.0327, 643.4448
593.5148, 652.5640
593.9969, 667.0433
594.4791, 683.0835
594.9612, 696.1284
595.4433, 707.7043
595.9254, 720.7379
596.4075, 734.8733
596.8896, 752.8863
597.3718, 777.9621
597.8539, 808.4710
598.3360, 840.7817
598.8181, 874.2956
599.3002, 908.7023
599.7823, 945.2728
600.2645, 984.0089
600.7466, 1018.168
601.2287, 1039.026
601.7108, 1063.126
602.1929, 1099.185
602.6750, 1150.382
603.1572, 1200.542
603.6393, 1249.140
604.1214, 1298.450
604.6035, 1353.333
605.0856, 1413.806
605.5677, 1470.439
606.0499, 1521.413
606.5320, 1568.694
607.0141, 1616.926
607.4962, 1664.598
607.9783, 1707.421
608.4604, 1739.932
608.9425, 1768.440
609.4246, 1799.871
609.9067, 1833.575
610.3889, 1859.900
610.8710, 1878.245
611.3531, 1885.256
611.8352, 1877.125
612.3173, 1846.915
612.7994, 1819.708
613.2816, 1806.633
613.7637, 1789.384
614.2458, 1747.872
614.7279, 1673.508
615.2100, 1602.300
615.6921, 1539.685
616.1743, 1481.360
616.6564, 1417.483
617.1385, 1348.387
617.6206, 1286.010
618.1027, 1238.787
618.5848, 1199.145
619.0670, 1148.386
619.5491, 1088.707
620.0312, 1036.072
620.5133, 999.4155
620.9954, 974.6954
621.4775, 961.0652
621.9597, 960.5795
622.4418, 956.8890
622.9239, 940.0668
623.4060, 919.8669
623.8881, 904.5931
624.3702, 897.7995
624.8524, 892.2584
625.3345, 888.4993
625.8166, 885.4889
626.2987, 880.3851
626.7808, 871.6705
627.2629, 868.0965
627.7451, 874.7316
628.2272, 886.8582
628.7093, 888.1481
629.1914, 879.2535
629.6735, 871.5369
630.1556, 877.3967
630.6378, 886.7148
631.1199, 884.9969
631.6020, 871.4664
632.0841, 852.1855
632.5662, 827.6233
633.0483, 800.9091
633.5305, 774.1336
634.0126, 746.1532
634.4947, 722.4368
634.9768, 705.5919
635.4589, 692.9570
635.9410, 681.5408
636.4232, 672.5267
636.9053, 662.0033
637.3874, 648.4235
637.8695, 633.3977
638.3516, 621.1454
638.8337, 611.5748
639.3159, 604.7057
639.7980, 602.7236
640.2801, 602.7919
640.7622, 597.1116
641.2443, 585.9559
641.7264, 573.2283
642.2086, 559.4215
642.6907, 546.6857
643.1728, 537.2085
643.6549, 531.1070
644.1370, 528.7858
644.6191, 534.1129
645.1013, 541.3455
645.5834, 545.1764
646.0655, 542.3687
646.5476, 539.5469
647.0297, 537.2450
647.5118, 534.7765
647.9940, 529.9809
648.4761, 521.1521
648.9582, 517.4886
649.4403, 523.8093
649.9224, 535.1820
650.4045, 537.2565
650.8867, 530.6846
651.3688, 523.0621
651.8509, 517.3054
652.3330, 513.8809
652.8151, 514.6454
653.2972, 519.3919
653.7794, 523.6465
654.2615, 525.6045
654.7436, 525.5507
655.2257, 523.4884
655.7078, 518.7599
656.1899, 513.8184
656.6721, 508.4045
657.1542, 503.2767
657.6363, 499.1449
658.1184, 495.9949
658.6005, 493.5580
659.0826, 491.1348
659.5648, 490.2674
660.0469, 497.4924
660.5290, 512.0803
661.0111, 517.1180
661.4932, 500.2589
661.9753, 476.3069
662.4575, 469.1122
662.9396, 475.8134
663.4217, 484.5332
663.9038, 489.3508
664.3859, 493.2797
664.8680, 499.7942
665.3502, 509.1733
665.8323, 513.5079
666.3144, 505.4489
666.7965, 496.0279
667.2786, 490.9573
667.7607, 490.1716
668.2429, 494.6403
668.7250, 506.7968
669.2071, 520.4066
669.6892, 529.3803
670.1713, 533.7623
670.6534, 533.3622
671.1355, 526.5606
671.6176, 519.2138
672.0997, 520.7663
672.5818, 528.4818
673.0640, 535.5130
673.5461, 539.6649
674.0282, 541.7139
674.5103, 541.7433
674.9924, 540.1189
675.4745, 537.8516
675.9567, 532.8961
676.4388, 529.7638
676.9209, 531.4672
677.4030, 537.6188
677.8851, 540.7316
678.3672, 541.0541
678.8494, 537.8225
679.3315, 528.1666
679.8136, 512.1643
680.2957, 505.0400
680.7778, 507.9194
681.2599, 511.9333
681.7421, 507.1514
682.2242, 497.5990
682.7063, 491.7328
683.1884, 491.5071
683.6705, 492.9065
684.1526, 494.7759
684.6348, 495.9556
685.1169, 495.0378
685.5990, 492.5834
686.0811, 486.9048
686.5632, 471.2253
687.0453, 453.5362
687.5275, 450.6364
688.0096, 471.4515
688.4917, 485.7462
688.9738, 484.8253
689.4559, 472.6512
689.9380, 461.2066
690.4202, 450.6016
690.9023, 444.4509
691.3844, 446.3815
691.8665, 453.4814
692.3486, 463.4828
692.8307, 475.7354
693.3129, 483.7388
693.7950, 479.1293
694.2771, 471.9684
694.7592, 469.3135
695.2413, 472.4679
695.7234, 477.9527
696.2056, 488.2180
696.6877, 498.2051
697.1698, 504.7032
697.6519, 507.6704
698.1340, 506.2883
698.6161, 498.4342
699.0983, 490.6549
699.5804, 492.6471
700.0625, 503.0969
700.5446, 514.6044
701.0267, 526.6602
701.5089, 536.3907
701.9910, 535.8679
702.4731, 530.9017
702.9552, 533.4108
703.4373, 556.3399
703.9194, 579.5778
704.4016, 592.3887
704.8837, 598.0438
705.3658, 610.2625
705.8479, 637.4703
706.3300, 661.0489
706.8121, 674.2416
707.2943, 678.5930
707.7764, 689.0978
708.2585, 706.2585
708.7406, 726.6768
709.2227, 750.0886
709.7048, 774.8521
710.1870, 793.1820
710.6691, 805.2198
711.1512, 822.8544
711.6333, 862.1147
712.1154, 907.6888
712.5975, 944.3997
713.0797, 969.3849
713.5618, 989.2426
714.0439, 1003.999
714.5260, 1015.211
715.0081, 1024.220
715.4902, 1029.903
715.9724, 1036.279
716.4545, 1045.698
716.9366, 1052.504
717.4187, 1049.458
717.9008, 1036.546
718.3829, 1013.773
718.8651, 979.0750
719.3472, 938.3509
719.8293, 895.4449
720.3114, 852.0436
720.7935, 810.9005
721.2756, 769.7282
721.7578, 735.0794
722.2399, 715.0426
722.7220, 705.0965
723.2041, 690.4941
723.6862, 660.6155
724.1683, 636.3047
724.6505, 625.3151
725.1326, 625.2457
725.6147, 617.7867
726.0968, 601.9000
726.5789, 584.0927
727.0610, 564.4449
727.5432, 545.9424
728.0253, 541.8431
728.5074, 551.1667
728.9895, 557.0505
729.4716, 543.8751
729.9537, 523.4685
730.4359, 505.3080
730.9180, 489.7992
731.4001, 481.4710
731.8822, 490.7236
732.3643, 500.9046
732.8464, 499.5979
733.3285, 479.1886
733.8106, 468.3556
734.2927, 470.4984
734.7748, 475.7601
735.2570, 471.4414
735.7391, 459.1361
736.2212, 453.3570
736.7033, 458.0634
737.1854, 463.6419
737.6675, 455.8637
738.1497, 442.3589
738.6318, 436.3752
739.1139, 450.7721
739.5960, 461.6937
740.0781, 456.5366
740.5602, 442.3219
741.0424, 432.5436
741.5245, 427.5926
742.0066, 427.9507
742.4887, 436.0453
742.9708, 448.1754
743.4529, 454.6764
743.9351, 455.4444
744.4172, 452.7186
744.8993, 443.9829
745.3814, 435.0016
745.8635, 439.8470
746.3456, 454.5693
746.8278, 463.4650
747.3099, 451.3565
747.7920, 436.4766
748.2741, 429.9963
748.7562, 431.8489
749.2383, 433.2169
749.7205, 422.4635
750.2026, 436.7922
750.6847, 445.0075
751.1668, 447.4378
751.6489, 426.7567
752.1310, 435.9192
752.6132, 433.1218
753.0953, 429.8339
753.5774, 443.1968
754.0595, 425.8772
754.5416, 435.6264
755.0237, 429.5145
755.5059, 430.3198
755.9880, 433.3181
756.4701, 434.3723
756.9522, 432.4278
757.4343, 429.8270
757.9164, 424.7227
758.3986, 420.8885
758.8807, 422.3005
759.3628, 432.0277
759.8449, 432.7381
760.3270, 420.7831
760.8091, 407.9308
761.2913, 411.1882
761.7734, 425.7596
762.2555, 434.1834
762.7376, 431.7485
763.2197, 426.8469
763.7018, 414.6676
764.1840, 427.8153
764.6661, 434.8499
765.1482, 436.0994
765.6303, 414.2374
766.1124, 422.2192
766.5945, 418.2410
767.0767, 413.7721
767.5588, 425.9543
768.0409, 407.4539
768.5230, 419.3719
769.0051, 419.1475
769.4872, 424.4804
769.9694, 417.7792
770.4515, 414.7952
770.9336, 423.8488
771.4157, 426.2371
771.8978, 408.7634
772.3799, 406.2821
772.8621, 407.2723
773.3442, 419.5338
773.8263, 427.3183
774.3084, 423.0006
774.7905, 410.5359
775.2726, 404.4491
775.7548, 406.1729
776.2369, 409.8725
776.7190, 414.8326
777.2011, 419.5347
777.6832, 417.0135
778.1653, 408.5648
778.6475, 403.2058
779.1296, 410.0895
779.6117, 419.5882
780.0938, 423.8387
780.5759, 422.7369
781.0580, 418.4253
781.5402, 406.5518
782.0223, 396.5208
782.5044, 392.2428
782.9865, 393.6165
783.4686, 395.3134
783.9507, 396.5227
784.4329, 400.8453
784.9150, 416.0391
785.3971, 436.5442
785.8792, 436.4527
786.3613, 416.7736
786.8434, 397.1826
787.3256, 392.7317
787.8077, 394.4636
788.2898, 394.0677
788.7719, 390.3287
789.2540, 390.4422
789.7361, 399.8031
790.2183, 410.4092
790.7004, 419.0432
791.1825, 426.3484
791.6646, 425.4416
792.1467, 413.7224
792.6288, 403.8800
793.1110, 411.3674
793.5930, 428.9146
794.0751, 433.5285
794.5573, 422.6421
795.0394, 412.1586
795.5215, 416.1768
796.0036, 424.9399
796.4857, 430.5418
796.9678, 432.2692
797.4500, 428.4806
797.9321, 412.0458
798.4142, 396.9525
798.8963, 395.2704
799.3784, 410.0118
799.8605, 417.5349
800.3427, 416.0421
800.8248, 411.9540
801.3069, 413.1923
801.7890, 416.7188
802.2711, 414.3447
802.7532, 402.8121
803.2354, 394.6815
803.7175, 403.4993
804.1996, 416.2227
804.6817, 419.5887
805.1638, 400.6033
805.6459, 391.6962
806.1281, 397.3172
806.6102, 408.0593
807.0923, 414.2181
807.5744, 415.8298
808.0565, 416.2762
808.5386, 415.9253
809.0208, 414.6616
809.5029, 410.3174
809.9850, 405.4927
810.4671, 405.2974
810.9492, 413.3961
811.4313, 420.2608
811.9135, 421.1743
812.3956, 419.1196
812.8777, 417.6953
813.3598, 418.7085
813.8419, 416.2661
814.3240, 408.3539
814.8062, 399.6541
815.2883, 397.0267
815.7704, 399.6168
816.2525, 401.6007
816.7346, 401.5719
817.2167, 401.5767
817.6989, 404.7329
818.1810, 408.8733
818.6631, 410.7526
819.1452, 406.5617
819.6273, 404.6409
820.1094, 410.5657
820.5916, 417.5381
821.0737, 417.4342
821.5558, 408.4286
822.0379, 399.5666
822.5200, 391.2979
823.0021, 385.3436
823.4843, 384.6667
823.9664, 388.2910
824.4485, 393.9385
824.9306, 402.4099
825.4127, 409.3869
825.8948, 410.0159
826.3770, 408.0703
826.8591, 408.4731
827.3412, 417.9613
827.8233, 421.2709
828.3054, 414.3456
828.7875, 404.3030
829.2697, 402.0960
829.7518, 407.8432
830.2339, 412.8373
830.7160, 415.9048
831.1981, 416.6894
831.6802, 413.1481
832.1624, 407.4254
832.6445, 403.2183
833.1266, 401.5059
833.6087, 401.6721
834.0908, 406.7159
834.5729, 412.0305
835.0551, 410.9107
835.5372, 398.3215
836.0193, 393.3124
836.5014, 399.4975
836.9835, 409.8832
837.4656, 414.7570
837.9478, 414.9424
838.4299, 413.4314
838.9120, 410.0476
839.3941, 407.8125
839.8762, 411.4490
840.3583, 416.8575
840.8405, 418.7879
841.3226, 412.2604
841.8047, 407.6621
842.2868, 406.3166
842.7689, 406.4808
843.2510, 406.3998
843.7332, 406.1077
844.2153, 404.7054
844.6974, 401.7484
845.1795, 398.9274
845.6616, 398.5889
846.1437, 399.7603
846.6259, 400.7701
847.1080, 401.0506
847.5901, 401.5548
848.0722, 402.7198
848.5543, 404.3034
849.0364, 406.4171
849.5186, 411.0967
850.0007, 410.3841
850.4828, 402.2593
850.9649, 392.7740
851.4470, 387.7180
851.9291, 387.1802
852.4113, 393.1251
852.8934, 407.1392
853.3755, 418.9687
853.8576, 420.1253
854.3397, 415.1370
854.8218, 407.6878
855.3040, 394.5678
855.7860, 388.9170
856.2681, 396.0646
856.7502, 405.3446
857.2324, 407.1308
857.7145, 401.1526
858.1966, 398.9998
858.6787, 401.6852
859.1608, 405.0526
859.6429, 404.6393
860.1251, 402.6453
860.6072, 402.1335
861.0893, 403.7111
861.5714, 405.5173
862.0535, 409.0008
862.5356, 410.6673
863.0178, 407.7760
863.4999, 399.1271
863.9820, 392.4649
864.4641, 387.6356
864.9462, 385.8138
865.4283, 389.6595
865.9105, 396.9908
866.3926, 403.0701
866.8747, 407.5263
867.3568, 409.6708
867.8389, 407.1927
868.3210, 403.6531
868.8032, 401.1262
869.2853, 399.8551
869.7674, 400.1434
870.2495, 402.7144
870.7316, 405.5095
871.2137, 407.3769
871.6959, 408.5054
872.1780, 410.0934
872.6601, 412.1248
873.1422, 414.3121
873.6243, 419.0569
874.1064, 421.9544
874.5886, 415.7649
875.0707, 401.8338
875.5528, 395.1207
876.0349, 409.2815
876.5170, 419.1782
876.9991, 415.1401
877.4813, 400.1878
877.9634, 392.8197
878.4455, 393.2634
878.9276, 394.5033
879.4097, 392.1981
879.8918, 389.3155
880.3740, 389.1802
880.8561, 391.8443
881.3382, 397.4609
881.8203, 416.2261
882.3024, 426.7175
882.7845, 415.4105
883.2667, 391.4408
883.7488, 376.7788
884.2309, 371.1727
884.7130, 377.9410
885.1951, 403.4080
885.6772, 433.2881
886.1594, 443.9620
886.6415, 438.8703
887.1236, 426.7922
887.6057, 399.9079
888.0878, 381.1106
888.5699, 386.7560
889.0521, 405.6930
889.5342, 418.5448
890.0163, 423.0462
890.4984, 425.9775
890.9805, 428.1729
891.4626, 429.0244
891.9448, 426.5136
892.4269, 421.7665
892.9090, 418.7110
893.3911, 418.4810
893.8732, 419.1801
894.3553, 419.8488
894.8375, 420.4814
895.3196, 421.1480
895.8017, 422.9028
896.2838, 422.2018
896.7659, 417.2441
897.2480, 412.7399
897.7302, 415.7448
898.2123, 424.2379
898.6944, 421.9237
899.1765, 406.9468
899.6586, 393.7399
900.1407, 396.5476
900.6229, 405.4836
901.1050, 411.5684
901.5871, 413.3648
902.0692, 414.9583
902.5513, 418.2947
903.0334, 419.6487
903.5156, 415.7729
903.9977, 407.2152
904.4798, 404.1057
904.9619, 406.4059
905.4440, 410.1205
905.9261, 413.2317
906.4083, 415.8583
906.8904, 418.4270
907.3725, 420.7735
907.8546, 421.8643
908.3367, 421.5753
908.8188, 419.4932
909.3010, 413.9931
909.7831, 406.8570
910.2652, 406.4668
910.7473, 412.9348
911.2294, 419.7672
911.7115, 426.5197
912.1937, 429.7218
912.6758, 419.8167
913.1579, 403.2173
913.6400, 394.1551
914.1221, 406.6252
914.6042, 416.0014
915.0864, 414.7127
915.5685, 408.6892
916.0506, 407.5209
916.5327, 411.6648
917.0148, 416.1944
917.4969, 420.4198
917.9790, 424.2358
918.4611, 429.4423
918.9432, 433.5646
919.4254, 431.5259
919.9075, 418.3477
920.3896, 408.7768
920.8717, 410.8981
921.3538, 416.2065
921.8359, 417.5651
922.3181, 413.6253
922.8002, 414.1208
923.2823, 419.8964
923.7644, 425.9714
924.2465, 427.8557
924.7286, 426.8637
925.2108, 423.5046
925.6929, 417.9006
926.1750, 415.8380
926.6571, 429.4048
927.1392, 437.4484
927.6213, 423.7321
928.1035, 390.7366
928.5856, 384.4038
929.0677, 408.6279
929.5498, 432.3355
930.0319, 440.0418
930.5140, 436.6846
930.9962, 426.4549
931.4783, 411.7776
931.9604, 401.7648
932.4425, 402.4238
932.9246, 405.7917
933.4067, 410.7574
933.8889, 416.0360
934.3710, 419.1182
934.8531, 419.9276
935.3352, 418.3941
935.8173, 413.6002
936.2994, 408.6740
936.7816, 409.5760
937.2637, 413.4143
937.7458, 414.2313
938.2279, 407.2891
938.7100, 403.5204
939.1921, 412.4022
939.6743, 422.1314
940.1564, 420.8481
940.6385, 405.2845
941.1206, 396.6514
941.6027, 396.0226
942.0848, 400.0340
942.5670, 407.4072
943.0491, 416.3634
943.5312, 426.5038
944.0133, 437.7759
944.4954, 441.3690
944.9775, 423.2978
945.4597, 407.0638
945.9418, 404.8312
946.4239, 415.6461
946.9060, 425.8857
947.3881, 435.9573
947.8702, 440.9232
948.3524, 434.4763
948.8345, 424.2617
949.3166, 420.5937
949.7987, 422.2623
950.2808, 425.8382
950.7629, 432.7986
951.2451, 438.1952
951.7272, 443.1453
952.2093, 444.6619
952.6914, 433.7184
953.1735, 409.2969
953.6556, 394.4218
954.1378, 395.3443
954.6199, 402.6939
955.1020, 408.7926
955.5841, 413.3457
956.0662, 415.9609
956.5483, 416.5757
957.0305, 414.9828
957.5126, 408.1668
957.9947, 402.3327
958.4768, 403.5178
958.9589, 411.8652
959.4410, 412.5723
959.9232, 405.1602
960.4053, 398.5699
960.8874, 401.0600
961.3695, 406.7852
961.8516, 409.0622
962.3337, 408.0419
962.8159, 410.7287
963.2980, 423.7424
963.7801, 432.9403
964.2622, 433.4808
964.7443, 427.6516
965.2264, 421.0886
965.7086, 414.5052
966.1907, 414.0296
966.6728, 427.0361
967.1549, 439.4498
967.6370, 438.2148
968.1191, 428.9038
968.6013, 420.4970
969.0834, 412.5278
969.5655, 409.5252
970.0476, 414.2806
970.5297, 419.2989
971.0118, 412.2496
971.4940, 397.4824
971.9761, 394.0784
972.4582, 404.8599
972.9403, 417.5727
973.4224, 428.0546
973.9045, 434.1730
974.3867, 432.9426
974.8688, 423.5994
975.3509, 415.6495
975.8330, 408.5167
976.3151, 404.8581
976.7972, 409.1983
977.2794, 416.2315
977.7615, 409.6330
978.2436, 393.6138
978.7257, 384.1931
979.2078, 395.3655
979.6899, 407.6937
980.1720, 414.9018
980.6541, 417.4888
981.1362, 415.4651
981.6183, 407.1306
982.1005, 404.3237
982.5826, 410.0549
983.0647, 417.7472
983.5468, 418.3205
984.0289, 415.4045
984.5110, 415.6037
984.9932, 421.5152
985.4753, 424.4658
985.9574, 417.2088
986.4395, 410.5953
986.9216, 412.0858
987.4037, 421.6031
987.8859, 421.7883
988.3680, 412.5646
988.8501, 405.1247
989.3322, 407.2523
989.8143, 414.3728
990.2964, 425.6240
990.7786, 438.4779
991.2607, 443.8525
991.7428, 432.3451
992.2249, 424.5963
992.7070, 425.4554
993.1891, 430.3908
993.6713, 430.7364
994.1534, 427.1587
994.6355, 422.1059
995.1176, 414.9104
995.5997, 410.9458
996.0818, 417.3498
996.5640, 427.0302
997.0461, 433.1903
997.5282, 435.3931
998.0103, 432.6931
998.4924, 422.9950
998.9745, 414.6248
999.4567, 415.4337
999.9388, 421.5060
1000.421, 423.9577
1000.903, 422.8770
1001.385, 419.8110
1001.867, 412.3713
1002.349, 406.4993
1002.831, 404.4705
1003.314, 405.9263
1003.796, 411.7204
1004.278, 422.6762
1004.760, 429.2983
1005.242, 428.7470
1005.724, 424.7554
1006.206, 421.6512
1006.688, 418.1924
1007.171, 411.6477
1007.653, 397.3394
1008.135, 391.0534
1008.617, 398.6638
1009.099, 408.7059
1009.581, 414.1906
1010.063, 415.1877
1010.545, 409.7663
1011.027, 398.5852
1011.510, 390.5153
1011.992, 392.0214
1012.474, 398.3566
1012.956, 408.5073
1013.438, 421.0620
1013.920, 430.3784
1014.402, 436.3705
1014.884, 438.4108
1015.367, 435.3488
1015.849, 430.3291
1016.331, 427.8372
1016.813, 427.5333
1017.295, 428.6198
1017.777, 430.7977
1018.259, 434.6863
1018.741, 449.2298
1019.223, 457.9750
1019.706, 446.5829
1020.188, 412.6418
1020.670, 391.6261
1021.152, 383.8051
1021.634, 383.7359
1022.116, 391.8405
1022.598, 402.6916
1023.080, 412.0505
1023.563, 419.3189
1024.045, 422.3822
1024.527, 413.2596
1025.009, 412.4840
1025.491, 426.7178
1025.973, 446.0429
1026.455, 453.2426
1026.937, 450.4779
1027.419, 445.5260
1027.901, 439.2950
1028.384, 435.0117
1028.866, 438.8558
1029.348, 442.5241
1029.830, 437.4512
1030.312, 422.3953
1030.794, 414.9757
1031.276, 416.0053
1031.758, 419.9914
1032.241, 426.6054
1032.723, 432.2502
1033.205, 428.9545
1033.687, 419.8911
1034.169, 414.2111
1034.651, 415.7485
1035.133, 420.9581
1035.615, 433.0690
1036.098, 444.3124
1036.580, 440.5925
1037.062, 424.2773
1037.544, 413.7869
1038.026, 411.9423
1038.508, 412.9303
1038.990, 412.0681
1039.472, 412.1762
1039.954, 417.9277
1040.437, 429.9790
1040.919, 430.2791
1041.401, 414.7238
1041.883, 403.0763
1042.365, 405.9071
1042.847, 415.9660
1043.329, 421.0889
1043.811, 422.3033
1044.293, 422.0321
1044.776, 417.3161
1045.258, 416.6549
1045.740, 424.3524
1046.222, 433.9105
1046.704, 438.9162
1047.186, 439.4746
1047.668, 439.0585
1048.150, 437.8816
1048.633, 436.0800
1049.115, 432.7386
1049.597, 429.6653
1050.079, 427.7345
1050.561, 427.2807
1051.043, 430.9230
1051.525, 442.5984
1052.007, 444.5496
1052.490, 427.3762
1052.972, 405.5786
1053.454, 404.4825
1053.936, 417.2532
1054.418, 430.6286
1054.900, 442.3461
1055.382, 450.5160
1055.864, 455.1600
1056.346, 455.4049
1056.828, 448.6036
1057.311, 435.1420
1057.793, 426.8120
1058.275, 423.6038
1058.757, 425.3910
1059.239, 439.8064
1059.721, 451.8712
1060.203, 448.7863
1060.685, 434.6500
1061.168, 422.4919
1061.650, 411.6814
1062.132, 406.8809
1062.614, 409.3602
1063.096, 416.3035
1063.578, 427.9272
1064.060, 427.0058
1064.542, 441.6653
1065.025, 450.2129
1065.507, 452.9740
1065.989, 432.6237
1066.471, 442.1171
1066.953, 439.6506
1067.435, 436.6936
1067.917, 450.3873
1068.399, 433.3987
1068.881, 446.8283
1069.364, 448.1171
1069.846, 454.9615
1070.328, 449.7723
1070.810, 443.5305
1071.292, 445.2867
1071.774, 455.9596
1072.256, 458.6061
1072.738, 451.7140
1073.220, 442.8170
1073.703, 437.0793
1074.185, 434.2929
1074.667, 435.0055
1075.149, 438.8449
1075.631, 443.4916
1076.113, 451.9764
1076.595, 455.3484
1077.077, 449.9569
1077.559, 440.7394
1078.042, 437.7423
1078.524, 439.0560
1079.006, 437.4206
1079.488, 429.8406
1079.970, 425.8711
1080.452, 435.2457
1080.934, 446.0786
1081.416, 449.9452
1081.899, 447.0255
1082.381, 445.6108
1082.863, 445.7436
1083.345, 444.8911
1083.827, 440.6790
1084.309, 435.9698
1084.791, 431.3677
1085.273, 428.6117
1085.755, 431.8593
1086.238, 448.6109
1086.720, 454.6353
1087.202, 446.3467
1087.684, 434.6652
1088.166, 427.8712
1088.648, 426.3517
1089.130, 434.3604
1089.612, 450.6446
1090.094, 459.9286
1090.577, 450.7302
1091.059, 439.8416
1091.541, 431.0938
1092.023, 424.7948
1092.505, 421.4514
1092.987, 421.0573
1093.469, 424.3254
1093.951, 432.7037
1094.434, 439.2344
1094.916, 437.9782
1095.398, 433.6782
1095.880, 429.5881
1096.362, 425.6792
1096.844, 425.9796
1097.326, 430.8593
1097.808, 435.1763
1098.291, 435.9170
1098.773, 435.0400
1099.255, 435.7968
1099.737, 436.4128
1100.219, 433.3005
1100.701, 420.4756
1101.183, 413.0917
1101.665, 411.2426
1102.147, 415.6604
1102.630, 432.9303
1103.112, 455.0104
1103.594, 462.5181
1104.076, 456.1156
1104.558, 450.9218
1105.040, 457.2070
1105.522, 460.5731
1106.004, 456.2377
1106.486, 447.3423
1106.969, 440.1257
1107.451, 434.3855
1107.933, 428.2963
1108.415, 421.1182
1108.897, 416.2421
1109.379, 418.5213
1109.861, 421.9979
1110.343, 421.3091
1110.826, 416.8357
1111.308, 418.0438
1111.790, 425.3386
1112.272, 430.8975
1112.754, 430.5391
1113.236, 428.1985
1113.718, 428.2483
1114.200, 429.0536
1114.682, 427.9275
1115.165, 422.4700
1115.647, 420.2242
1116.129, 422.4709
1116.611, 423.8071
1117.093, 417.1971
1117.575, 408.0651
1118.057, 408.0440
1118.539, 414.9663
1119.021, 418.6950
1119.504, 411.8573
1119.986, 406.6175
1120.468, 404.2269
1120.950, 405.1640
1121.432, 412.1178
1121.914, 422.9945
1122.396, 431.3108
1122.878, 436.3063
1123.361, 436.5722
1123.843, 425.8702
1124.325, 415.9725
1124.807, 412.3421
1125.289, 413.9306
1125.771, 418.8026
1126.253, 426.3905
1126.735, 428.2613
1127.218, 419.7523
1127.700, 411.2224
1128.182, 412.2491
1128.664, 416.4327
1129.146, 417.2992
1129.628, 414.3481
1130.110, 411.2252
1130.592, 407.7453
1131.074, 405.8790
1131.557, 408.8110
1132.039, 411.8527
1132.521, 406.0540
1133.003, 397.1116
1133.485, 396.7198
1133.967, 416.2322
1134.449, 423.3198
1134.931, 413.8691
1135.413, 402.5744
1135.896, 406.3062
1136.378, 415.6242
1136.860, 411.9232
1137.342, 397.2796
1137.824, 386.9859
1138.306, 390.0499
1138.788, 392.4915
1139.270, 391.6173
1139.752, 389.7209
1140.235, 389.0597
1140.717, 390.4318
1141.199, 398.9754
1141.681, 415.9454
1142.163, 425.3822
1142.645, 410.4090
1143.127, 396.2796
1143.609, 393.7343
1144.092, 400.1150
1144.574, 409.7810
1145.056, 421.4433
1145.538, 426.1211
1146.020, 419.7554
1146.502, 410.5055
1146.984, 398.3436
1147.466, 390.1215
1147.948, 392.7703
1148.431, 406.2483
1148.913, 410.5792
1149.395, 405.9179
1149.877, 402.3314
1150.359, 408.2687
1150.841, 413.3914
1151.323, 406.8422
1151.805, 395.3631
1152.287, 389.3890
1152.770, 390.4361
1153.252, 392.7431
1153.734, 396.3806
1154.216, 400.1091
1154.698, 403.2639
1155.180, 405.7153
1155.662, 406.3510
1156.144, 406.0658
1156.627, 408.5106
1157.109, 416.4296
1157.591, 420.0642
1158.073, 417.5144
1158.555, 412.9658
1159.037, 410.8808
1159.519, 409.9167
1160.001, 407.1128
1160.484, 402.5324
1160.966, 402.5811
1161.448, 414.4874
1161.930, 418.4176
1162.412, 406.7215
1162.894, 389.9487
1163.376, 384.7192
1163.858, 388.7257
1164.340, 399.6622
1164.823, 419.4333
1165.305, 430.2967
1165.787, 420.6166
1166.269, 411.7315
1166.751, 413.6450
1167.233, 421.5038
1167.715, 420.5238
1168.197, 413.1385
1168.679, 407.3969
1169.162, 407.5379
1169.644, 405.9455
1170.126, 395.8325
1170.608, 387.5618
1171.090, 389.4533
1171.572, 399.4948
1172.054, 402.8181
1172.536, 400.2225
1173.019, 396.6252
1173.501, 391.8316
1173.983, 389.7280
1174.465, 395.0097
1174.947, 401.5380
1175.429, 402.8914
1175.911, 399.2033
1176.393, 395.7982
1176.875, 392.9825
1177.358, 391.8633
1177.840, 396.0273
1178.322, 399.1541
1178.804, 395.4260
1179.286, 389.0681
1179.768, 388.1624
1180.250, 392.8425
1180.732, 396.5836
1181.214, 398.6340
1181.697, 400.0951
1182.179, 401.3756
1182.661, 402.8274
1183.143, 406.4786
1183.625, 410.5244
1184.107, 407.7619
1184.589, 397.7480
1185.071, 385.2960
1185.554, 369.8057
1186.036, 360.7388
1186.518, 374.4663
1187.000, 393.7559
1187.482, 401.0272
1187.964, 396.3218
1188.446, 398.0857
1188.928, 407.5753
1189.411, 412.7111
1189.893, 408.4244
1190.375, 400.9449
1190.857, 394.2453
1191.339, 389.9766
1191.821, 391.1522
1192.303, 399.0247
1192.785, 405.0662
1193.267, 409.8126
1193.750, 409.0732
1194.232, 398.3051
1194.714, 384.4402
1195.196, 371.4674
1195.678, 362.5851
1196.160, 364.4345
1196.642, 385.1719
1197.124, 392.6270
1197.606, 383.8584
1198.089, 376.7354
1198.571, 385.2594
1199.053, 400.9820
1199.535, 420.0983
1200.017, 436.7930
1200.499, 436.4514
1200.981, 402.5728
1201.463, 387.5637
1201.945, 397.3342
1202.428, 410.1412
1202.910, 404.5121
1203.392, 392.4968
1203.874, 391.2574
1204.356, 398.1607
1204.838, 400.6992
1205.320, 394.2643
1205.802, 390.1076
1206.285, 389.5056
1206.767, 391.0567
1207.249, 396.8379
1207.731, 401.6978
1208.213, 393.5779
1208.695, 374.8244
1209.177, 371.5413
1209.659, 395.6045
1210.141, 411.1513
1210.624, 409.9072
1211.106, 402.7149
1211.588, 403.2508
1212.070, 406.7722
1212.552, 405.8285
1213.034, 399.6379
1213.516, 395.1081
1213.998, 391.1752
1214.480, 394.5140
1214.963, 410.4771
1215.445, 426.3213
1215.927, 419.7991
1216.409, 401.9651
1216.891, 388.5818
1217.373, 382.3719
1217.855, 379.5849
1218.337, 379.5250
1218.820, 383.7271
1219.302, 395.0515
1219.784, 406.9449
1220.266, 407.4058
1220.748, 401.4084
1221.230, 396.1476
1221.712, 392.5082
1222.194, 392.9605
1222.677, 399.1193
1223.159, 404.3723
1223.641, 404.7469
1224.123, 403.3295
1224.605, 406.5891
1225.087, 411.3117
1225.569, 411.4605
1226.051, 402.3106
1226.533, 397.2698
1227.016, 397.7326
1227.498, 398.1556
1227.980, 393.0388
1228.462, 387.8218
1228.944, 394.0333
1229.426, 405.8602
1229.908, 411.5633
1230.390, 403.5014
1230.872, 399.2921
1231.355, 399.2718
1231.837, 401.9466
1232.319, 408.4417
1232.801, 415.3623
1233.283, 418.1469
1233.765, 417.5727
1234.247, 415.3886
1234.729, 411.2780
1235.212, 406.5330
1235.694, 400.3029
1236.176, 397.7585
1236.658, 408.7483
1237.140, 421.6924
1237.622, 420.8000
1238.104, 410.0163
1238.586, 402.8456
1239.068, 400.4491
1239.551, 401.9966
1240.033, 408.1561
1240.515, 414.0331
1240.997, 412.9531
1241.479, 411.1602
1241.961, 417.7133
1242.443, 429.4127
1242.925, 433.1937
1243.407, 427.1233
1243.890, 420.1985
1244.372, 413.4019
1244.854, 407.1049
1245.336, 399.1877
1245.818, 394.1565
1246.300, 398.6517
1246.782, 410.4341
1247.264, 416.8437
1247.747, 417.0855
1248.229, 418.4877
1248.711, 422.6515
1249.193, 425.1454
1249.675, 418.1838
1250.157, 411.1995
1250.639, 415.0567
1251.121, 425.9709
1251.604, 427.5750
1252.086, 419.5764
1252.568, 408.8073
1253.050, 395.7782
1253.532, 387.4679
1254.014, 396.5292
1254.496, 406.3800
1254.978, 402.0427
1255.460, 388.4137
1255.943, 385.0179
1256.425, 391.1015
1256.907, 393.8959
1257.389, 389.3976
1257.871, 387.7166
1258.353, 399.9349
1258.835, 413.2151
1259.317, 419.5063
1259.799, 420.3237
1260.281, 422.7482
1260.764, 425.6495
1261.246, 420.7695
1261.728, 403.3435
1262.210, 389.9141
1262.692, 391.8278
1263.174, 397.3419
1263.656, 399.8390
1264.138, 401.4027
1264.621, 411.9756
1265.103, 427.9459
1265.585, 436.2800
1266.067, 431.7416
1266.549, 424.8779
1267.031, 416.8051
1267.513, 410.4376
1267.995, 407.1059
1268.478, 406.3572
1268.960, 407.8221
1269.442, 410.6754
1269.924, 412.4539
1270.406, 411.1531
1270.888, 413.5019
1271.370, 422.0530
1271.852, 430.6257
1272.334, 437.5701
1272.817, 440.9134
1273.299, 433.6703
1273.781, 420.7673
1274.263, 411.2084
1274.745, 407.1220
1275.227, 408.5059
1275.709, 417.1072
1276.191, 425.0272
1276.673, 428.9153
1277.156, 428.8882
1277.638, 420.6640
1278.120, 410.4534
1278.602, 409.4615
1279.084, 423.6197
1279.566, 428.9442
1280.048, 424.1974
1280.530, 419.8730
1281.013, 422.5068
1281.495, 427.2375
1281.977, 431.7116
1282.459, 433.7504
1282.941, 429.3494
1283.423, 417.4468
1283.905, 408.0608
1284.387, 401.1145
1284.870, 398.9496
1285.352, 406.8716
1285.834, 414.6187
1286.316, 415.7782
1286.798, 412.6571
1287.280, 407.9869
1287.762, 401.7715
1288.244, 392.4909
1288.726, 381.2345
##END=



