##NAMES=Mascagnite
##RRUFFID=R141117
##IDEAL CHEMISTRY=(N^3-^H_4_)_2_S^6+^O_4_
##LOCALITY=Ravat Saravanan, Tajikistan
##OWNER=RRUFF
##SOURCE=Kenny Lloyd and Dirk Andrews
##DESCRIPTION=Colorless prismatic crystals
##STATUS=The identification of this mineral has been confirmed by single-crystal X-ray diffraction.
##URL=rruff.info/R141117
8.930109e+001, 0.000000e+000
8.978320e+001, 1.805406e+003
9.026532e+001, 1.799924e+003
9.074744e+001, 1.801090e+003
9.122955e+001, 1.811898e+003
9.171167e+001, 1.827287e+003
9.219379e+001, 1.841177e+003
9.267590e+001, 1.854325e+003
9.315802e+001, 1.863466e+003
9.364014e+001, 1.864861e+003
9.412225e+001, 1.860596e+003
9.460437e+001, 1.855261e+003
9.508649e+001, 1.849293e+003
9.556860e+001, 1.842934e+003
9.605072e+001, 1.839221e+003
9.653284e+001, 1.840060e+003
9.701495e+001, 1.841062e+003
9.749707e+001, 1.836713e+003
9.797919e+001, 1.827098e+003
9.846130e+001, 1.817974e+003
9.894342e+001, 1.810586e+003
9.942554e+001, 1.804883e+003
9.990765e+001, 1.801683e+003
1.003898e+002, 1.801430e+003
1.008719e+002, 1.802510e+003
1.013540e+002, 1.802313e+003
1.018361e+002, 1.800190e+003
1.023182e+002, 1.799108e+003
1.028004e+002, 1.800431e+003
1.032825e+002, 1.804786e+003
1.037646e+002, 1.808933e+003
1.042467e+002, 1.812770e+003
1.047288e+002, 1.816590e+003
1.052109e+002, 1.820628e+003
1.056931e+002, 1.823061e+003
1.061752e+002, 1.828390e+003
1.066573e+002, 1.839072e+003
1.071394e+002, 1.860038e+003
1.076215e+002, 1.877947e+003
1.081036e+002, 1.891969e+003
1.085858e+002, 1.902704e+003
1.090679e+002, 1.912708e+003
1.095500e+002, 1.922867e+003
1.100321e+002, 1.931918e+003
1.105142e+002, 1.939151e+003
1.109963e+002, 1.941734e+003
1.114785e+002, 1.945798e+003
1.119606e+002, 1.952640e+003
1.124427e+002, 1.962151e+003
1.129248e+002, 1.971092e+003
1.134069e+002, 1.977601e+003
1.138890e+002, 1.984051e+003
1.143712e+002, 1.992430e+003
1.148533e+002, 2.005328e+003
1.153354e+002, 2.018127e+003
1.158175e+002, 2.029583e+003
1.162996e+002, 2.039810e+003
1.167817e+002, 2.048568e+003
1.172639e+002, 2.054655e+003
1.177460e+002, 2.059625e+003
1.182281e+002, 2.065447e+003
1.187102e+002, 2.074688e+003
1.191923e+002, 2.083707e+003
1.196744e+002, 2.090108e+003
1.201566e+002, 2.093335e+003
1.206387e+002, 2.095293e+003
1.211208e+002, 2.095601e+003
1.216029e+002, 2.095364e+003
1.220850e+002, 2.096873e+003
1.225671e+002, 2.102270e+003
1.230493e+002, 2.109464e+003
1.235314e+002, 2.116275e+003
1.240135e+002, 2.122088e+003
1.244956e+002, 2.127958e+003
1.249777e+002, 2.136149e+003
1.254598e+002, 2.145663e+003
1.259420e+002, 2.152676e+003
1.264241e+002, 2.152830e+003
1.269062e+002, 2.148947e+003
1.273883e+002, 2.146182e+003
1.278704e+002, 2.145685e+003
1.283525e+002, 2.146608e+003
1.288347e+002, 2.147643e+003
1.293168e+002, 2.148829e+003
1.297989e+002, 2.150819e+003
1.302810e+002, 2.154756e+003
1.307631e+002, 2.160125e+003
1.312452e+002, 2.164934e+003
1.317274e+002, 2.168501e+003
1.322095e+002, 2.171296e+003
1.326916e+002, 2.174818e+003
1.331737e+002, 2.179275e+003
1.336558e+002, 2.183331e+003
1.341379e+002, 2.185385e+003
1.346201e+002, 2.185487e+003
1.351022e+002, 2.185958e+003
1.355843e+002, 2.187514e+003
1.360664e+002, 2.190053e+003
1.365485e+002, 2.192826e+003
1.370306e+002, 2.195955e+003
1.375128e+002, 2.199064e+003
1.379949e+002, 2.201470e+003
1.384770e+002, 2.202847e+003
1.389591e+002, 2.205127e+003
1.394412e+002, 2.208827e+003
1.399233e+002, 2.213876e+003
1.404055e+002, 2.221001e+003
1.408876e+002, 2.231611e+003
1.413697e+002, 2.242796e+003
1.418518e+002, 2.249490e+003
1.423339e+002, 2.249959e+003
1.428160e+002, 2.249728e+003
1.432982e+002, 2.250774e+003
1.437803e+002, 2.253566e+003
1.442624e+002, 2.256071e+003
1.447445e+002, 2.258067e+003
1.452266e+002, 2.259861e+003
1.457087e+002, 2.262029e+003
1.461909e+002, 2.264559e+003
1.466730e+002, 2.267564e+003
1.471551e+002, 2.271122e+003
1.476372e+002, 2.275144e+003
1.481193e+002, 2.279920e+003
1.486014e+002, 2.286270e+003
1.490836e+002, 2.293515e+003
1.495657e+002, 2.299513e+003
1.500478e+002, 2.303749e+003
1.505299e+002, 2.307043e+003
1.510120e+002, 2.309750e+003
1.514941e+002, 2.309648e+003
1.519763e+002, 2.311497e+003
1.524584e+002, 2.316267e+003
1.529405e+002, 2.323387e+003
1.534226e+002, 2.330116e+003
1.539047e+002, 2.336107e+003
1.543868e+002, 2.341716e+003
1.548690e+002, 2.347130e+003
1.553511e+002, 2.351851e+003
1.558332e+002, 2.356912e+003
1.563153e+002, 2.363341e+003
1.567974e+002, 2.370761e+003
1.572795e+002, 2.376138e+003
1.577617e+002, 2.376138e+003
1.582438e+002, 2.375311e+003
1.587259e+002, 2.376950e+003
1.592080e+002, 2.385120e+003
1.596901e+002, 2.392738e+003
1.601722e+002, 2.397054e+003
1.606544e+002, 2.398247e+003
1.611365e+002, 2.400237e+003
1.616186e+002, 2.404460e+003
1.621007e+002, 2.410063e+003
1.625828e+002, 2.416357e+003
1.630649e+002, 2.424072e+003
1.635471e+002, 2.431549e+003
1.640292e+002, 2.437813e+003
1.645113e+002, 2.442808e+003
1.649934e+002, 2.447750e+003
1.654755e+002, 2.453493e+003
1.659576e+002, 2.459449e+003
1.664398e+002, 2.464824e+003
1.669219e+002, 2.469309e+003
1.674040e+002, 2.473155e+003
1.678861e+002, 2.476089e+003
1.683682e+002, 2.478038e+003
1.688503e+002, 2.480495e+003
1.693325e+002, 2.484765e+003
1.698146e+002, 2.490180e+003
1.702967e+002, 2.495581e+003
1.707788e+002, 2.500561e+003
1.712609e+002, 2.505359e+003
1.717430e+002, 2.510357e+003
1.722252e+002, 2.515714e+003
1.727073e+002, 2.520431e+003
1.731894e+002, 2.523280e+003
1.736715e+002, 2.524881e+003
1.741536e+002, 2.526527e+003
1.746357e+002, 2.528958e+003
1.751179e+002, 2.531773e+003
1.756000e+002, 2.534484e+003
1.760821e+002, 2.537004e+003
1.765642e+002, 2.539544e+003
1.770463e+002, 2.542793e+003
1.775284e+002, 2.546353e+003
1.780106e+002, 2.548969e+003
1.784927e+002, 2.548613e+003
1.789748e+002, 2.547198e+003
1.794569e+002, 2.548319e+003
1.799390e+002, 2.552783e+003
1.804211e+002, 2.558099e+003
1.809033e+002, 2.561376e+003
1.813854e+002, 2.562963e+003
1.818675e+002, 2.564376e+003
1.823496e+002, 2.566574e+003
1.828317e+002, 2.569245e+003
1.833138e+002, 2.571860e+003
1.837960e+002, 2.574442e+003
1.842781e+002, 2.576641e+003
1.847602e+002, 2.577560e+003
1.852423e+002, 2.577348e+003
1.857244e+002, 2.577290e+003
1.862065e+002, 2.577869e+003
1.866887e+002, 2.579156e+003
1.871708e+002, 2.581754e+003
1.876529e+002, 2.586126e+003
1.881350e+002, 2.590907e+003
1.886171e+002, 2.593570e+003
1.890992e+002, 2.594167e+003
1.895814e+002, 2.594189e+003
1.900635e+002, 2.594477e+003
1.905456e+002, 2.595002e+003
1.910277e+002, 2.595609e+003
1.915098e+002, 2.596451e+003
1.919919e+002, 2.597133e+003
1.924741e+002, 2.596724e+003
1.929562e+002, 2.595204e+003
1.934383e+002, 2.593251e+003
1.939204e+002, 2.591039e+003
1.944025e+002, 2.588611e+003
1.948846e+002, 2.586910e+003
1.953668e+002, 2.586238e+003
1.958489e+002, 2.586122e+003
1.963310e+002, 2.585516e+003
1.968131e+002, 2.584402e+003
1.972952e+002, 2.582888e+003
1.977773e+002, 2.581153e+003
1.982595e+002, 2.579216e+003
1.987416e+002, 2.576452e+003
1.992237e+002, 2.572872e+003
1.997058e+002, 2.568410e+003
2.001879e+002, 2.562495e+003
2.006700e+002, 2.554713e+003
2.011522e+002, 2.547198e+003
2.016343e+002, 2.541686e+003
2.021164e+002, 2.538433e+003
2.025985e+002, 2.534771e+003
2.030806e+002, 2.530557e+003
2.035627e+002, 2.525675e+003
2.040449e+002, 2.519466e+003
2.045270e+002, 2.511475e+003
2.050091e+002, 2.503591e+003
2.054912e+002, 2.497470e+003
2.059733e+002, 2.493577e+003
2.064554e+002, 2.488554e+003
2.069376e+002, 2.481833e+003
2.074197e+002, 2.473778e+003
2.079018e+002, 2.465095e+003
2.083839e+002, 2.455135e+003
2.088660e+002, 2.446214e+003
2.093481e+002, 2.440639e+003
2.098303e+002, 2.439461e+003
2.103124e+002, 2.436778e+003
2.107945e+002, 2.431404e+003
2.112766e+002, 2.424193e+003
2.117587e+002, 2.418597e+003
2.122408e+002, 2.415366e+003
2.127230e+002, 2.412177e+003
2.132051e+002, 2.406922e+003
2.136872e+002, 2.398288e+003
2.141693e+002, 2.392213e+003
2.146514e+002, 2.390305e+003
2.151335e+002, 2.391377e+003
2.156157e+002, 2.389986e+003
2.160978e+002, 2.385182e+003
2.165799e+002, 2.379505e+003
2.170620e+002, 2.374372e+003
2.175441e+002, 2.369600e+003
2.180262e+002, 2.365849e+003
2.185084e+002, 2.363464e+003
2.189905e+002, 2.362121e+003
2.194726e+002, 2.360408e+003
2.199547e+002, 2.358347e+003
2.204368e+002, 2.355895e+003
2.209189e+002, 2.353058e+003
2.214011e+002, 2.349806e+003
2.218832e+002, 2.346296e+003
2.223653e+002, 2.342414e+003
2.228474e+002, 2.338327e+003
2.233295e+002, 2.334482e+003
2.238116e+002, 2.330921e+003
2.242938e+002, 2.327702e+003
2.247759e+002, 2.324607e+003
2.252580e+002, 2.320737e+003
2.257401e+002, 2.319464e+003
2.262222e+002, 2.322581e+003
2.267043e+002, 2.328457e+003
2.271865e+002, 2.330039e+003
2.276686e+002, 2.325046e+003
2.281507e+002, 2.319070e+003
2.286328e+002, 2.315465e+003
2.291149e+002, 2.315628e+003
2.295970e+002, 2.314853e+003
2.300792e+002, 2.312536e+003
2.305613e+002, 2.309098e+003
2.310434e+002, 2.306144e+003
2.315255e+002, 2.303492e+003
2.320076e+002, 2.301716e+003
2.324897e+002, 2.301298e+003
2.329719e+002, 2.302927e+003
2.334540e+002, 2.304522e+003
2.339361e+002, 2.306397e+003
2.344182e+002, 2.308198e+003
2.349003e+002, 2.308488e+003
2.353824e+002, 2.306089e+003
2.358646e+002, 2.303864e+003
2.363467e+002, 2.303216e+003
2.368288e+002, 2.304586e+003
2.373109e+002, 2.306530e+003
2.377930e+002, 2.309226e+003
2.382751e+002, 2.312394e+003
2.387573e+002, 2.315212e+003
2.392394e+002, 2.317855e+003
2.397215e+002, 2.319796e+003
2.402036e+002, 2.320762e+003
2.406857e+002, 2.320471e+003
2.411678e+002, 2.319693e+003
2.416500e+002, 2.318111e+003
2.421321e+002, 2.316108e+003
2.426142e+002, 2.314603e+003
2.430963e+002, 2.313513e+003
2.435784e+002, 2.313068e+003
2.440605e+002, 2.313551e+003
2.445427e+002, 2.315684e+003
2.450248e+002, 2.316850e+003
2.455069e+002, 2.316483e+003
2.459890e+002, 2.315410e+003
2.464711e+002, 2.315548e+003
2.469532e+002, 2.317769e+003
2.474354e+002, 2.319843e+003
2.479175e+002, 2.321066e+003
2.483996e+002, 2.321636e+003
2.488817e+002, 2.320705e+003
2.493638e+002, 2.317275e+003
2.498459e+002, 2.312964e+003
2.503281e+002, 2.310778e+003
2.508102e+002, 2.311439e+003
2.512923e+002, 2.313071e+003
2.517744e+002, 2.315407e+003
2.522565e+002, 2.318959e+003
2.527386e+002, 2.320893e+003
2.532208e+002, 2.320264e+003
2.537029e+002, 2.318719e+003
2.541850e+002, 2.318964e+003
2.546671e+002, 2.321947e+003
2.551492e+002, 2.324808e+003
2.556313e+002, 2.326500e+003
2.561135e+002, 2.326727e+003
2.565956e+002, 2.327508e+003
2.570777e+002, 2.328911e+003
2.575598e+002, 2.330707e+003
2.580419e+002, 2.332686e+003
2.585240e+002, 2.335027e+003
2.590062e+002, 2.337000e+003
2.594883e+002, 2.338333e+003
2.599704e+002, 2.338953e+003
2.604525e+002, 2.339567e+003
2.609346e+002, 2.340195e+003
2.614167e+002, 2.340795e+003
2.618989e+002, 2.341345e+003
2.623810e+002, 2.341903e+003
2.628631e+002, 2.342362e+003
2.633452e+002, 2.342832e+003
2.638273e+002, 2.343345e+003
2.643094e+002, 2.342985e+003
2.647916e+002, 2.340988e+003
2.652737e+002, 2.339433e+003
2.657558e+002, 2.340655e+003
2.662379e+002, 2.345598e+003
2.667200e+002, 2.350315e+003
2.672021e+002, 2.354179e+003
2.676843e+002, 2.357196e+003
2.681664e+002, 2.359487e+003
2.686485e+002, 2.360802e+003
2.691306e+002, 2.361849e+003
2.696127e+002, 2.363181e+003
2.700948e+002, 2.364817e+003
2.705770e+002, 2.366444e+003
2.710591e+002, 2.367949e+003
2.715412e+002, 2.369332e+003
2.720233e+002, 2.370718e+003
2.725054e+002, 2.372013e+003
2.729875e+002, 2.373394e+003
2.734697e+002, 2.375129e+003
2.739518e+002, 2.377366e+003
2.744339e+002, 2.378906e+003
2.749160e+002, 2.379312e+003
2.753981e+002, 2.379112e+003
2.758802e+002, 2.380060e+003
2.763624e+002, 2.382395e+003
2.768445e+002, 2.384963e+003
2.773266e+002, 2.386959e+003
2.778087e+002, 2.388334e+003
2.782908e+002, 2.390127e+003
2.787729e+002, 2.392514e+003
2.792551e+002, 2.395295e+003
2.797372e+002, 2.398445e+003
2.802193e+002, 2.402274e+003
2.807014e+002, 2.404563e+003
2.811835e+002, 2.403032e+003
2.816656e+002, 2.397776e+003
2.821478e+002, 2.395247e+003
2.826299e+002, 2.396208e+003
2.831120e+002, 2.398966e+003
2.835941e+002, 2.400745e+003
2.840762e+002, 2.401497e+003
2.845583e+002, 2.402308e+003
2.850405e+002, 2.403861e+003
2.855226e+002, 2.406034e+003
2.860047e+002, 2.407690e+003
2.864868e+002, 2.408771e+003
2.869689e+002, 2.409494e+003
2.874510e+002, 2.409629e+003
2.879332e+002, 2.409253e+003
2.884153e+002, 2.410159e+003
2.888974e+002, 2.413801e+003
2.893795e+002, 2.419296e+003
2.898616e+002, 2.423317e+003
2.903438e+002, 2.425805e+003
2.908259e+002, 2.427177e+003
2.913080e+002, 2.427561e+003
2.917901e+002, 2.427077e+003
2.922722e+002, 2.426434e+003
2.927543e+002, 2.425526e+003
2.932365e+002, 2.424765e+003
2.937186e+002, 2.425344e+003
2.942007e+002, 2.427276e+003
2.946828e+002, 2.429568e+003
2.951649e+002, 2.431470e+003
2.956470e+002, 2.433025e+003
2.961292e+002, 2.434411e+003
2.966113e+002, 2.435603e+003
2.970934e+002, 2.436717e+003
2.975755e+002, 2.438331e+003
2.980576e+002, 2.440340e+003
2.985397e+002, 2.441503e+003
2.990219e+002, 2.439754e+003
2.995040e+002, 2.436603e+003
2.999861e+002, 2.435473e+003
3.004682e+002, 2.437490e+003
3.009503e+002, 2.440819e+003
3.014324e+002, 2.443806e+003
3.019146e+002, 2.446387e+003
3.023967e+002, 2.448353e+003
3.028788e+002, 2.448629e+003
3.033609e+002, 2.448498e+003
3.038430e+002, 2.449917e+003
3.043251e+002, 2.453362e+003
3.048073e+002, 2.457545e+003
3.052894e+002, 2.461774e+003
3.057715e+002, 2.465840e+003
3.062536e+002, 2.469380e+003
3.067357e+002, 2.471523e+003
3.072178e+002, 2.473300e+003
3.077000e+002, 2.476123e+003
3.081821e+002, 2.480259e+003
3.086642e+002, 2.483490e+003
3.091463e+002, 2.482863e+003
3.096284e+002, 2.480430e+003
3.101105e+002, 2.479408e+003
3.105927e+002, 2.482545e+003
3.110748e+002, 2.486566e+003
3.115569e+002, 2.489403e+003
3.120390e+002, 2.490985e+003
3.125211e+002, 2.491782e+003
3.130032e+002, 2.491160e+003
3.134854e+002, 2.490284e+003
3.139675e+002, 2.490407e+003
3.144496e+002, 2.492481e+003
3.149317e+002, 2.495224e+003
3.154138e+002, 2.498577e+003
3.158959e+002, 2.502362e+003
3.163781e+002, 2.505461e+003
3.168602e+002, 2.507718e+003
3.173423e+002, 2.508931e+003
3.178244e+002, 2.508746e+003
3.183065e+002, 2.505125e+003
3.187886e+002, 2.502922e+003
3.192708e+002, 2.504558e+003
3.197529e+002, 2.508948e+003
3.202350e+002, 2.513065e+003
3.207171e+002, 2.516356e+003
3.211992e+002, 2.518809e+003
3.216813e+002, 2.520226e+003
3.221635e+002, 2.519954e+003
3.226456e+002, 2.519990e+003
3.231277e+002, 2.520709e+003
3.236098e+002, 2.521933e+003
3.240919e+002, 2.523379e+003
3.245740e+002, 2.523700e+003
3.250562e+002, 2.525385e+003
3.255383e+002, 2.530146e+003
3.260204e+002, 2.539623e+003
3.265025e+002, 2.545725e+003
3.269846e+002, 2.545178e+003
3.274667e+002, 2.542167e+003
3.279489e+002, 2.541148e+003
3.284310e+002, 2.544934e+003
3.289131e+002, 2.547688e+003
3.293952e+002, 2.547969e+003
3.298773e+002, 2.545705e+003
3.303594e+002, 2.544966e+003
3.308416e+002, 2.546414e+003
3.313237e+002, 2.548847e+003
3.318058e+002, 2.551491e+003
3.322879e+002, 2.554791e+003
3.327700e+002, 2.557496e+003
3.332521e+002, 2.559196e+003
3.337343e+002, 2.560170e+003
3.342164e+002, 2.561898e+003
3.346985e+002, 2.564842e+003
3.351806e+002, 2.567729e+003
3.356627e+002, 2.569517e+003
3.361448e+002, 2.569042e+003
3.366270e+002, 2.571332e+003
3.371091e+002, 2.578104e+003
3.375912e+002, 2.586468e+003
3.380733e+002, 2.589994e+003
3.385554e+002, 2.587135e+003
3.390375e+002, 2.584397e+003
3.395197e+002, 2.584774e+003
3.400018e+002, 2.588511e+003
3.404839e+002, 2.590587e+003
3.409660e+002, 2.590364e+003
3.414481e+002, 2.589786e+003
3.419302e+002, 2.591802e+003
3.424124e+002, 2.596669e+003
3.428945e+002, 2.600641e+003
3.433766e+002, 2.602305e+003
3.438587e+002, 2.602190e+003
3.443408e+002, 2.602895e+003
3.448229e+002, 2.604513e+003
3.453051e+002, 2.606243e+003
3.457872e+002, 2.606970e+003
3.462693e+002, 2.606954e+003
3.467514e+002, 2.608104e+003
3.472335e+002, 2.611124e+003
3.477156e+002, 2.615125e+003
3.481978e+002, 2.618604e+003
3.486799e+002, 2.621571e+003
3.491620e+002, 2.623916e+003
3.496441e+002, 2.625542e+003
3.501262e+002, 2.626531e+003
3.506083e+002, 2.626704e+003
3.510905e+002, 2.625731e+003
3.515726e+002, 2.625174e+003
3.520547e+002, 2.627393e+003
3.525368e+002, 2.631632e+003
3.530189e+002, 2.635600e+003
3.535010e+002, 2.638076e+003
3.539832e+002, 2.639661e+003
3.544653e+002, 2.640706e+003
3.549474e+002, 2.641184e+003
3.554295e+002, 2.642257e+003
3.559116e+002, 2.645625e+003
3.563937e+002, 2.650016e+003
3.568759e+002, 2.653485e+003
3.573580e+002, 2.654751e+003
3.578401e+002, 2.655366e+003
3.583222e+002, 2.656087e+003
3.588043e+002, 2.656975e+003
3.592864e+002, 2.658334e+003
3.597686e+002, 2.660183e+003
3.602507e+002, 2.662665e+003
3.607328e+002, 2.666035e+003
3.612149e+002, 2.671316e+003
3.616970e+002, 2.675866e+003
3.621791e+002, 2.678118e+003
3.626613e+002, 2.678810e+003
3.631434e+002, 2.679672e+003
3.636255e+002, 2.680880e+003
3.641076e+002, 2.682625e+003
3.645897e+002, 2.685427e+003
3.650718e+002, 2.690048e+003
3.655540e+002, 2.692995e+003
3.660361e+002, 2.692184e+003
3.665182e+002, 2.689868e+003
3.670003e+002, 2.688757e+003
3.674824e+002, 2.690446e+003
3.679645e+002, 2.692091e+003
3.684467e+002, 2.693015e+003
3.689288e+002, 2.693184e+003
3.694109e+002, 2.693800e+003
3.698930e+002, 2.695522e+003
3.703751e+002, 2.697271e+003
3.708572e+002, 2.698323e+003
3.713394e+002, 2.698301e+003
3.718215e+002, 2.698211e+003
3.723036e+002, 2.697635e+003
3.727857e+002, 2.697052e+003
3.732678e+002, 2.698311e+003
3.737499e+002, 2.702226e+003
3.742321e+002, 2.706487e+003
3.747142e+002, 2.709955e+003
3.751963e+002, 2.712403e+003
3.756784e+002, 2.715084e+003
3.761605e+002, 2.718208e+003
3.766426e+002, 2.721214e+003
3.771248e+002, 2.722946e+003
3.776069e+002, 2.723170e+003
3.780890e+002, 2.723580e+003
3.785711e+002, 2.724810e+003
3.790532e+002, 2.726737e+003
3.795353e+002, 2.728515e+003
3.800175e+002, 2.730240e+003
3.804996e+002, 2.731458e+003
3.809817e+002, 2.731195e+003
3.814638e+002, 2.729727e+003
3.819459e+002, 2.729377e+003
3.824280e+002, 2.730794e+003
3.829102e+002, 2.733325e+003
3.833923e+002, 2.736183e+003
3.838744e+002, 2.739269e+003
3.843565e+002, 2.741522e+003
3.848386e+002, 2.741507e+003
3.853207e+002, 2.740264e+003
3.858029e+002, 2.740044e+003
3.862850e+002, 2.741198e+003
3.867671e+002, 2.742630e+003
3.872492e+002, 2.742897e+003
3.877313e+002, 2.742577e+003
3.882134e+002, 2.742994e+003
3.886956e+002, 2.745598e+003
3.891777e+002, 2.748675e+003
3.896598e+002, 2.750695e+003
3.901419e+002, 2.751688e+003
3.906240e+002, 2.752418e+003
3.911061e+002, 2.754390e+003
3.915883e+002, 2.755968e+003
3.920704e+002, 2.755169e+003
3.925525e+002, 2.748516e+003
3.930346e+002, 2.743535e+003
3.935167e+002, 2.744649e+003
3.939988e+002, 2.750218e+003
3.944810e+002, 2.755586e+003
3.949631e+002, 2.759660e+003
3.954452e+002, 2.762735e+003
3.959273e+002, 2.764797e+003
3.964094e+002, 2.765524e+003
3.968915e+002, 2.766241e+003
3.973737e+002, 2.765975e+003
3.978558e+002, 2.766185e+003
3.983379e+002, 2.768674e+003
3.988200e+002, 2.777552e+003
3.993021e+002, 2.784445e+003
3.997842e+002, 2.786802e+003
4.002664e+002, 2.784621e+003
4.007485e+002, 2.784169e+003
4.012306e+002, 2.786216e+003
4.017127e+002, 2.789175e+003
4.021948e+002, 2.792242e+003
4.026769e+002, 2.796206e+003
4.031591e+002, 2.798282e+003
4.036412e+002, 2.797105e+003
4.041233e+002, 2.794476e+003
4.046054e+002, 2.795418e+003
4.050875e+002, 2.801391e+003
4.055696e+002, 2.806626e+003
4.060518e+002, 2.808344e+003
4.065339e+002, 2.806441e+003
4.070160e+002, 2.805669e+003
4.074981e+002, 2.806124e+003
4.079802e+002, 2.807600e+003
4.084623e+002, 2.810344e+003
4.089445e+002, 2.814363e+003
4.094266e+002, 2.817740e+003
4.099087e+002, 2.819911e+003
4.103908e+002, 2.821260e+003
4.108729e+002, 2.822441e+003
4.113550e+002, 2.823495e+003
4.118372e+002, 2.824739e+003
4.123193e+002, 2.825989e+003
4.128014e+002, 2.827644e+003
4.132835e+002, 2.830881e+003
4.137656e+002, 2.836145e+003
4.142477e+002, 2.841828e+003
4.147299e+002, 2.845690e+003
4.152120e+002, 2.848524e+003
4.156941e+002, 2.852172e+003
4.161762e+002, 2.858626e+003
4.166583e+002, 2.865489e+003
4.171404e+002, 2.870388e+003
4.176226e+002, 2.873335e+003
4.181047e+002, 2.876021e+003
4.185868e+002, 2.879022e+003
4.190689e+002, 2.882386e+003
4.195510e+002, 2.886228e+003
4.200331e+002, 2.890683e+003
4.205153e+002, 2.895417e+003
4.209974e+002, 2.900989e+003
4.214795e+002, 2.906804e+003
4.219616e+002, 2.911087e+003
4.224437e+002, 2.911672e+003
4.229258e+002, 2.912246e+003
4.234080e+002, 2.914423e+003
4.238901e+002, 2.918752e+003
4.243722e+002, 2.923404e+003
4.248543e+002, 2.928473e+003
4.253364e+002, 2.933796e+003
4.258185e+002, 2.939164e+003
4.263007e+002, 2.944442e+003
4.267828e+002, 2.950078e+003
4.272649e+002, 2.955851e+003
4.277470e+002, 2.961908e+003
4.282291e+002, 2.969535e+003
4.287112e+002, 2.978941e+003
4.291934e+002, 2.989403e+003
4.296755e+002, 3.001050e+003
4.301576e+002, 3.014224e+003
4.306397e+002, 3.025968e+003
4.311218e+002, 3.035296e+003
4.316039e+002, 3.044524e+003
4.320861e+002, 3.057677e+003
4.325682e+002, 3.074945e+003
4.330503e+002, 3.093454e+003
4.335324e+002, 3.112132e+003
4.340145e+002, 3.131450e+003
4.344966e+002, 3.153230e+003
4.349788e+002, 3.177536e+003
4.354609e+002, 3.203122e+003
4.359430e+002, 3.228875e+003
4.364251e+002, 3.255399e+003
4.369072e+002, 3.284106e+003
4.373893e+002, 3.315547e+003
4.378715e+002, 3.349042e+003
4.383536e+002, 3.383623e+003
4.388357e+002, 3.419595e+003
4.393178e+002, 3.457795e+003
4.397999e+002, 3.500195e+003
4.402820e+002, 3.544176e+003
4.407642e+002, 3.586243e+003
4.412463e+002, 3.626525e+003
4.417284e+002, 3.668287e+003
4.422105e+002, 3.713035e+003
4.426926e+002, 3.760592e+003
4.431747e+002, 3.810738e+003
4.436569e+002, 3.862113e+003
4.441390e+002, 3.917769e+003
4.446211e+002, 3.978768e+003
4.451032e+002, 4.044798e+003
4.455853e+002, 4.113021e+003
4.460674e+002, 4.183885e+003
4.465496e+002, 4.256646e+003
4.470317e+002, 4.330995e+003
4.475138e+002, 4.407276e+003
4.479959e+002, 4.485498e+003
4.484780e+002, 4.568207e+003
4.489601e+002, 4.651746e+003
4.494423e+002, 4.734761e+003
4.499244e+002, 4.820372e+003
4.504065e+002, 4.897532e+003
4.508886e+002, 4.964736e+003
4.513707e+002, 5.021985e+003
4.518528e+002, 5.073960e+003
4.523350e+002, 5.124725e+003
4.528171e+002, 5.158019e+003
4.532992e+002, 5.167874e+003
4.537813e+002, 5.154104e+003
4.542634e+002, 5.111227e+003
4.547455e+002, 5.037324e+003
4.552277e+002, 4.938491e+003
4.557098e+002, 4.814165e+003
4.561919e+002, 4.668097e+003
4.566740e+002, 4.516458e+003
4.571561e+002, 4.362390e+003
4.576382e+002, 4.211232e+003
4.581204e+002, 4.076097e+003
4.586025e+002, 3.955476e+003
4.590846e+002, 3.847373e+003
4.595667e+002, 3.749140e+003
4.600488e+002, 3.661741e+003
4.605309e+002, 3.586282e+003
4.610131e+002, 3.523702e+003
4.614952e+002, 3.470428e+003
4.619773e+002, 3.427534e+003
4.624594e+002, 3.392391e+003
4.629415e+002, 3.360603e+003
4.634236e+002, 3.331721e+003
4.639058e+002, 3.305267e+003
4.643879e+002, 3.280333e+003
4.648700e+002, 3.257380e+003
4.653521e+002, 3.237639e+003
4.658342e+002, 3.221938e+003
4.663163e+002, 3.208915e+003
4.667985e+002, 3.197996e+003
4.672806e+002, 3.190761e+003
4.677627e+002, 3.182595e+003
4.682448e+002, 3.171950e+003
4.687269e+002, 3.161022e+003
4.692090e+002, 3.153063e+003
4.696912e+002, 3.150286e+003
4.701733e+002, 3.146187e+003
4.706554e+002, 3.138609e+003
4.711375e+002, 3.128090e+003
4.716196e+002, 3.119870e+003
4.721017e+002, 3.114129e+003
4.725839e+002, 3.110129e+003
4.730660e+002, 3.107893e+003
4.735481e+002, 3.107460e+003
4.740302e+002, 3.105982e+003
4.745123e+002, 3.103158e+003
4.749944e+002, 3.099565e+003
4.754766e+002, 3.095695e+003
4.759587e+002, 3.091694e+003
4.764408e+002, 3.088318e+003
4.769229e+002, 3.086372e+003
4.774050e+002, 3.085041e+003
4.778871e+002, 3.082465e+003
4.783693e+002, 3.078906e+003
4.788514e+002, 3.076519e+003
4.793335e+002, 3.077485e+003
4.798156e+002, 3.080213e+003
4.802977e+002, 3.082903e+003
4.807798e+002, 3.085270e+003
4.812620e+002, 3.087359e+003
4.817441e+002, 3.088630e+003
4.822262e+002, 3.089706e+003
4.827083e+002, 3.091515e+003
4.831904e+002, 3.095805e+003
4.836725e+002, 3.099395e+003
4.841547e+002, 3.100234e+003
4.846368e+002, 3.098572e+003
4.851189e+002, 3.098522e+003
4.856010e+002, 3.102792e+003
4.860831e+002, 3.107094e+003
4.865652e+002, 3.109184e+003
4.870474e+002, 3.107879e+003
4.875295e+002, 3.106932e+003
4.880116e+002, 3.106849e+003
4.884937e+002, 3.106754e+003
4.889758e+002, 3.105063e+003
4.894579e+002, 3.100810e+003
4.899401e+002, 3.097961e+003
4.904222e+002, 3.097729e+003
4.909043e+002, 3.099591e+003
4.913864e+002, 3.101084e+003
4.918685e+002, 3.102119e+003
4.923506e+002, 3.103453e+003
4.928328e+002, 3.106494e+003
4.933149e+002, 3.110510e+003
4.937970e+002, 3.111682e+003
4.942791e+002, 3.109334e+003
4.947612e+002, 3.106249e+003
4.952433e+002, 3.105192e+003
4.957255e+002, 3.105897e+003
4.962076e+002, 3.107722e+003
4.966897e+002, 3.111805e+003
4.971718e+002, 3.115623e+003
4.976539e+002, 3.116034e+003
4.981360e+002, 3.113857e+003
4.986182e+002, 3.112222e+003
4.991003e+002, 3.112694e+003
4.995824e+002, 3.114364e+003
5.000645e+002, 3.116856e+003
5.005466e+002, 3.120413e+003
5.010287e+002, 3.123484e+003
5.015109e+002, 3.125274e+003
5.019930e+002, 3.126485e+003
5.024751e+002, 3.127790e+003
5.029572e+002, 3.130001e+003
5.034393e+002, 3.131356e+003
5.039214e+002, 3.131003e+003
5.044036e+002, 3.129591e+003
5.048857e+002, 3.129346e+003
5.053678e+002, 3.130319e+003
5.058499e+002, 3.132453e+003
5.063320e+002, 3.136524e+003
5.068141e+002, 3.142904e+003
5.072963e+002, 3.145046e+003
5.077784e+002, 3.141442e+003
5.082605e+002, 3.137727e+003
5.087426e+002, 3.140771e+003
5.092247e+002, 3.150034e+003
5.097068e+002, 3.157106e+003
5.101890e+002, 3.159970e+003
5.106711e+002, 3.160787e+003
5.111532e+002, 3.163251e+003
5.116353e+002, 3.166910e+003
5.121174e+002, 3.169610e+003
5.125995e+002, 3.169040e+003
5.130817e+002, 3.167536e+003
5.135638e+002, 3.168533e+003
5.140459e+002, 3.171936e+003
5.145280e+002, 3.174356e+003
5.150101e+002, 3.171605e+003
5.154922e+002, 3.167938e+003
5.159744e+002, 3.167689e+003
5.164565e+002, 3.173933e+003
5.169386e+002, 3.179394e+003
5.174207e+002, 3.180798e+003
5.179028e+002, 3.180133e+003
5.183849e+002, 3.180639e+003
5.188671e+002, 3.184758e+003
5.193492e+002, 3.188010e+003
5.198313e+002, 3.188823e+003
5.203134e+002, 3.187430e+003
5.207955e+002, 3.187674e+003
5.212776e+002, 3.190043e+003
5.217598e+002, 3.193269e+003
5.222419e+002, 3.196896e+003
5.227240e+002, 3.201233e+003
5.232061e+002, 3.204105e+003
5.236882e+002, 3.205059e+003
5.241703e+002, 3.205423e+003
5.246525e+002, 3.206913e+003
5.251346e+002, 3.209492e+003
5.256167e+002, 3.212554e+003
5.260988e+002, 3.216397e+003
5.265809e+002, 3.220111e+003
5.270630e+002, 3.221974e+003
5.275452e+002, 3.222140e+003
5.280273e+002, 3.221439e+003
5.285094e+002, 3.219432e+003
5.289915e+002, 3.217339e+003
5.294736e+002, 3.216210e+003
5.299557e+002, 3.216090e+003
5.304379e+002, 3.217667e+003
5.309200e+002, 3.223016e+003
5.314021e+002, 3.229429e+003
5.318842e+002, 3.234196e+003
5.323663e+002, 3.235310e+003
5.328484e+002, 3.236570e+003
5.333306e+002, 3.239577e+003
5.338127e+002, 3.243268e+003
5.342948e+002, 3.245331e+003
5.347769e+002, 3.243754e+003
5.352590e+002, 3.242689e+003
5.357411e+002, 3.243300e+003
5.362233e+002, 3.245539e+003
5.367054e+002, 3.247314e+003
5.371875e+002, 3.248632e+003
5.376696e+002, 3.249572e+003
5.381517e+002, 3.250188e+003
5.386339e+002, 3.250499e+003
5.391160e+002, 3.250395e+003
5.395981e+002, 3.249602e+003
5.400802e+002, 3.249249e+003
5.405623e+002, 3.251191e+003
5.410444e+002, 3.255066e+003
5.415266e+002, 3.258879e+003
5.420087e+002, 3.262029e+003
5.424908e+002, 3.264737e+003
5.429729e+002, 3.267273e+003
5.434550e+002, 3.269566e+003
5.439371e+002, 3.271479e+003
5.444193e+002, 3.272429e+003
5.449014e+002, 3.273278e+003
5.453835e+002, 3.274514e+003
5.458656e+002, 3.276136e+003
5.463477e+002, 3.278788e+003
5.468298e+002, 3.283657e+003
5.473120e+002, 3.289170e+003
5.477941e+002, 3.294020e+003
5.482762e+002, 3.298513e+003
5.487583e+002, 3.301618e+003
5.492404e+002, 3.302954e+003
5.497225e+002, 3.302939e+003
5.502047e+002, 3.302102e+003
5.506868e+002, 3.299606e+003
5.511689e+002, 3.297909e+003
5.516510e+002, 3.297777e+003
5.521331e+002, 3.299010e+003
5.526152e+002, 3.300342e+003
5.530974e+002, 3.301834e+003
5.535795e+002, 3.303334e+003
5.540616e+002, 3.304942e+003
5.545437e+002, 3.306601e+003
5.550258e+002, 3.307813e+003
5.555079e+002, 3.308622e+003
5.559901e+002, 3.308882e+003
5.564722e+002, 3.307488e+003
5.569543e+002, 3.305550e+003
5.574364e+002, 3.305425e+003
5.579185e+002, 3.308324e+003
5.584006e+002, 3.312360e+003
5.588828e+002, 3.316399e+003
5.593649e+002, 3.320373e+003
5.598470e+002, 3.324258e+003
5.603291e+002, 3.328361e+003
5.608112e+002, 3.331925e+003
5.612933e+002, 3.334339e+003
5.617755e+002, 3.335523e+003
5.622576e+002, 3.336907e+003
5.627397e+002, 3.339086e+003
5.632218e+002, 3.341070e+003
5.637039e+002, 3.342460e+003
5.641860e+002, 3.343448e+003
5.646682e+002, 3.343168e+003
5.651503e+002, 3.340853e+003
5.656324e+002, 3.338325e+003
5.661145e+002, 3.337966e+003
5.665966e+002, 3.339964e+003
5.670787e+002, 3.343146e+003
5.675609e+002, 3.347869e+003
5.680430e+002, 3.353027e+003
5.685251e+002, 3.355970e+003
5.690072e+002, 3.356930e+003
5.694893e+002, 3.357308e+003
5.699714e+002, 3.357250e+003
5.704536e+002, 3.357371e+003
5.709357e+002, 3.358676e+003
5.714178e+002, 3.361108e+003
5.718999e+002, 3.363849e+003
5.723820e+002, 3.366474e+003
5.728641e+002, 3.369045e+003
5.733463e+002, 3.371594e+003
5.738284e+002, 3.374191e+003
5.743105e+002, 3.376549e+003
5.747926e+002, 3.378199e+003
5.752747e+002, 3.379654e+003
5.757568e+002, 3.381564e+003
5.762390e+002, 3.384491e+003
5.767211e+002, 3.387189e+003
5.772032e+002, 3.389670e+003
5.776853e+002, 3.391815e+003
5.781674e+002, 3.392861e+003
5.786495e+002, 3.392176e+003
5.791317e+002, 3.392337e+003
5.796138e+002, 3.394907e+003
5.800959e+002, 3.399483e+003
5.805780e+002, 3.402308e+003
5.810601e+002, 3.403268e+003
5.815422e+002, 3.404235e+003
5.820244e+002, 3.406863e+003
5.825065e+002, 3.410742e+003
5.829886e+002, 3.415088e+003
5.834707e+002, 3.420094e+003
5.839528e+002, 3.424324e+003
5.844349e+002, 3.425109e+003
5.849171e+002, 3.424651e+003
5.853992e+002, 3.426251e+003
5.858813e+002, 3.434219e+003
5.863634e+002, 3.441028e+003
5.868455e+002, 3.441933e+003
5.873276e+002, 3.439113e+003
5.878098e+002, 3.438519e+003
5.882919e+002, 3.443043e+003
5.887740e+002, 3.448121e+003
5.892561e+002, 3.452442e+003
5.897382e+002, 3.455975e+003
5.902203e+002, 3.459508e+003
5.907025e+002, 3.462579e+003
5.911846e+002, 3.466387e+003
5.916667e+002, 3.472429e+003
5.921488e+002, 3.481065e+003
5.926309e+002, 3.486407e+003
5.931130e+002, 3.487494e+003
5.935952e+002, 3.488355e+003
5.940773e+002, 3.494949e+003
5.945594e+002, 3.505800e+003
5.950415e+002, 3.514556e+003
5.955236e+002, 3.518430e+003
5.960057e+002, 3.522128e+003
5.964879e+002, 3.530356e+003
5.969700e+002, 3.542427e+003
5.974521e+002, 3.556668e+003
5.979342e+002, 3.573749e+003
5.984163e+002, 3.591577e+003
5.988984e+002, 3.608069e+003
5.993806e+002, 3.623692e+003
5.998627e+002, 3.642401e+003
6.003448e+002, 3.668841e+003
6.008269e+002, 3.695311e+003
6.013090e+002, 3.717843e+003
6.017911e+002, 3.734646e+003
6.022733e+002, 3.754611e+003
6.027554e+002, 3.777595e+003
6.032375e+002, 3.803867e+003
6.037196e+002, 3.833732e+003
6.042017e+002, 3.867708e+003
6.046838e+002, 3.902258e+003
6.051660e+002, 3.936597e+003
6.056481e+002, 3.972944e+003
6.061302e+002, 4.014381e+003
6.066123e+002, 4.060622e+003
6.070944e+002, 4.110000e+003
6.075765e+002, 4.161535e+003
6.080587e+002, 4.216739e+003
6.085408e+002, 4.278593e+003
6.090229e+002, 4.346067e+003
6.095050e+002, 4.417831e+003
6.099871e+002, 4.491924e+003
6.104692e+002, 4.570280e+003
6.109514e+002, 4.656164e+003
6.114335e+002, 4.751003e+003
6.119156e+002, 4.841081e+003
6.123977e+002, 4.930400e+003
6.128798e+002, 5.008767e+003
6.133619e+002, 5.070410e+003
6.138441e+002, 5.118198e+003
6.143262e+002, 5.143488e+003
6.148083e+002, 5.145385e+003
6.152904e+002, 5.126649e+003
6.157725e+002, 5.089271e+003
6.162546e+002, 5.032961e+003
6.167368e+002, 4.963247e+003
6.172189e+002, 4.878515e+003
6.177010e+002, 4.783839e+003
6.181831e+002, 4.684322e+003
6.186652e+002, 4.582339e+003
6.191473e+002, 4.486841e+003
6.196295e+002, 4.404422e+003
6.201116e+002, 4.330205e+003
6.205937e+002, 4.256662e+003
6.210758e+002, 4.186058e+003
6.215579e+002, 4.127779e+003
6.220400e+002, 4.096490e+003
6.225222e+002, 4.072419e+003
6.230043e+002, 4.043145e+003
6.234864e+002, 4.005060e+003
6.239685e+002, 3.976215e+003
6.244506e+002, 3.963452e+003
6.249327e+002, 3.956074e+003
6.254149e+002, 3.947886e+003
6.258970e+002, 3.940004e+003
6.263791e+002, 3.927962e+003
6.268612e+002, 3.910981e+003
6.273433e+002, 3.890874e+003
6.278254e+002, 3.869969e+003
6.283076e+002, 3.848246e+003
6.287897e+002, 3.824953e+003
6.292718e+002, 3.798952e+003
6.297539e+002, 3.772774e+003
6.302360e+002, 3.750400e+003
6.307181e+002, 3.731415e+003
6.312003e+002, 3.714837e+003
6.316824e+002, 3.700263e+003
6.321645e+002, 3.687812e+003
6.326466e+002, 3.678658e+003
6.331287e+002, 3.672228e+003
6.336108e+002, 3.665434e+003
6.340930e+002, 3.655247e+003
6.345751e+002, 3.645965e+003
6.350572e+002, 3.640178e+003
6.355393e+002, 3.638651e+003
6.360214e+002, 3.636833e+003
6.365035e+002, 3.634602e+003
6.369857e+002, 3.632188e+003
6.374678e+002, 3.629791e+003
6.379499e+002, 3.627440e+003
6.384320e+002, 3.624743e+003
6.389141e+002, 3.621516e+003
6.393962e+002, 3.618421e+003
6.398784e+002, 3.616514e+003
6.403605e+002, 3.615585e+003
6.408426e+002, 3.614551e+003
6.413247e+002, 3.612798e+003
6.418068e+002, 3.611476e+003
6.422889e+002, 3.611747e+003
6.427711e+002, 3.613429e+003
6.432532e+002, 3.616082e+003
6.437353e+002, 3.621631e+003
6.442174e+002, 3.626098e+003
6.446995e+002, 3.626519e+003
6.451816e+002, 3.623617e+003
6.456638e+002, 3.622531e+003
6.461459e+002, 3.625897e+003
6.466280e+002, 3.629283e+003
6.471101e+002, 3.631167e+003
6.475922e+002, 3.631418e+003
6.480743e+002, 3.631829e+003
6.485565e+002, 3.632232e+003
6.490386e+002, 3.633112e+003
6.495207e+002, 3.634991e+003
6.500028e+002, 3.637717e+003
6.504849e+002, 3.640235e+003
6.509670e+002, 3.642390e+003
6.514492e+002, 3.644532e+003
6.519313e+002, 3.647125e+003
6.524134e+002, 3.649934e+003
6.528955e+002, 3.652664e+003
6.533776e+002, 3.655822e+003
6.538597e+002, 3.657730e+003
6.543419e+002, 3.656157e+003
6.548240e+002, 3.652994e+003
6.553061e+002, 3.651154e+003
6.557882e+002, 3.652117e+003
6.562703e+002, 3.653809e+003
6.567524e+002, 3.656683e+003
6.572346e+002, 3.660046e+003
6.577167e+002, 3.661563e+003
6.581988e+002, 3.660441e+003
6.586809e+002, 3.659348e+003
6.591630e+002, 3.658983e+003
6.596451e+002, 3.659371e+003
6.601273e+002, 3.660890e+003
6.606094e+002, 3.663575e+003
6.610915e+002, 3.666433e+003
6.615736e+002, 3.669059e+003
6.620557e+002, 3.671273e+003
6.625378e+002, 3.672263e+003
6.630200e+002, 3.671973e+003
6.635021e+002, 3.672421e+003
6.639842e+002, 3.675840e+003
6.644663e+002, 3.680188e+003
6.649484e+002, 3.683361e+003
6.654305e+002, 3.684358e+003
6.659127e+002, 3.686140e+003
6.663948e+002, 3.690985e+003
6.668769e+002, 3.696157e+003
6.673590e+002, 3.698796e+003
6.678411e+002, 3.697189e+003
6.683232e+002, 3.696763e+003
6.688054e+002, 3.698389e+003
6.692875e+002, 3.700890e+003
6.697696e+002, 3.702371e+003
6.702517e+002, 3.702822e+003
6.707338e+002, 3.702023e+003
6.712159e+002, 3.698906e+003
6.716981e+002, 3.695782e+003
6.721802e+002, 3.697807e+003
6.726623e+002, 3.703598e+003
6.731444e+002, 3.708293e+003
6.736265e+002, 3.708066e+003
6.741086e+002, 3.706808e+003
6.745908e+002, 3.707402e+003
6.750729e+002, 3.709654e+003
6.755550e+002, 3.711768e+003
6.760371e+002, 3.713223e+003
6.765192e+002, 3.714455e+003
6.770013e+002, 3.715610e+003
6.774835e+002, 3.716677e+003
6.779656e+002, 3.718007e+003
6.784477e+002, 3.719210e+003
6.789298e+002, 3.721418e+003
6.794119e+002, 3.726141e+003
6.798940e+002, 3.733449e+003
6.803762e+002, 3.738116e+003
6.808583e+002, 3.739797e+003
6.813404e+002, 3.740158e+003
6.818225e+002, 3.740278e+003
6.823046e+002, 3.740450e+003
6.827867e+002, 3.741210e+003
6.832689e+002, 3.742510e+003
6.837510e+002, 3.744929e+003
6.842331e+002, 3.751174e+003
6.847152e+002, 3.757980e+003
6.851973e+002, 3.761045e+003
6.856794e+002, 3.753754e+003
6.861616e+002, 3.749294e+003
6.866437e+002, 3.751736e+003
6.871258e+002, 3.758044e+003
6.876079e+002, 3.762959e+003
6.880900e+002, 3.765941e+003
6.885721e+002, 3.768826e+003
6.890543e+002, 3.772200e+003
6.895364e+002, 3.775573e+003
6.900185e+002, 3.777238e+003
6.905006e+002, 3.777219e+003
6.909827e+002, 3.777321e+003
6.914648e+002, 3.778100e+003
6.919470e+002, 3.779704e+003
6.924291e+002, 3.783575e+003
6.929112e+002, 3.789026e+003
6.933933e+002, 3.792286e+003
6.938754e+002, 3.788635e+003
6.943575e+002, 3.784255e+003
6.948397e+002, 3.783745e+003
6.953218e+002, 3.787869e+003
6.958039e+002, 3.790461e+003
6.962860e+002, 3.788310e+003
6.967681e+002, 3.786843e+003
6.972502e+002, 3.789579e+003
6.977324e+002, 3.798276e+003
6.982145e+002, 3.802035e+003
6.986966e+002, 3.799635e+003
6.991787e+002, 3.795806e+003
6.996608e+002, 3.794729e+003
7.001429e+002, 3.796164e+003
7.006251e+002, 3.799392e+003
7.011072e+002, 3.804643e+003
7.015893e+002, 3.809629e+003
7.020714e+002, 3.810740e+003
7.025535e+002, 3.810484e+003
7.030356e+002, 3.812785e+003
7.035178e+002, 3.820652e+003
7.039999e+002, 3.827767e+003
7.044820e+002, 3.831429e+003
7.049641e+002, 3.832880e+003
7.054462e+002, 3.834089e+003
7.059283e+002, 3.835074e+003
7.064105e+002, 3.836058e+003
7.068926e+002, 3.837155e+003
7.073747e+002, 3.838247e+003
7.078568e+002, 3.839058e+003
7.083389e+002, 3.839609e+003
7.088210e+002, 3.839906e+003
7.093032e+002, 3.839797e+003
7.097853e+002, 3.839626e+003
7.102674e+002, 3.839945e+003
7.107495e+002, 3.840785e+003
7.112316e+002, 3.842221e+003
7.117137e+002, 3.844424e+003
7.121959e+002, 3.847116e+003
7.126780e+002, 3.850293e+003
7.131601e+002, 3.853870e+003
7.136422e+002, 3.857228e+003
7.141243e+002, 3.860973e+003
7.146064e+002, 3.863676e+003
7.150886e+002, 3.864302e+003
7.155707e+002, 3.862754e+003
7.160528e+002, 3.863045e+003
7.165349e+002, 3.865739e+003
7.170170e+002, 3.868883e+003
7.174991e+002, 3.871237e+003
7.179813e+002, 3.872916e+003
7.184634e+002, 3.875078e+003
7.189455e+002, 3.877774e+003
7.194276e+002, 3.880314e+003
7.199097e+002, 3.881948e+003
7.203918e+002, 3.883132e+003
7.208740e+002, 3.884469e+003
7.213561e+002, 3.886104e+003
7.218382e+002, 3.887540e+003
7.223203e+002, 3.888367e+003
7.228024e+002, 3.888958e+003
7.232845e+002, 3.889611e+003
7.237667e+002, 3.889874e+003
7.242488e+002, 3.890993e+003
7.247309e+002, 3.893128e+003
7.252130e+002, 3.895917e+003
7.256951e+002, 3.899301e+003
7.261772e+002, 3.903384e+003
7.266594e+002, 3.906182e+003
7.271415e+002, 3.907136e+003
7.276236e+002, 3.907363e+003
7.281057e+002, 3.908603e+003
7.285878e+002, 3.910363e+003
7.290699e+002, 3.911249e+003
7.295521e+002, 3.910094e+003
7.300342e+002, 3.909134e+003
7.305163e+002, 3.910042e+003
7.309984e+002, 3.912186e+003
7.314805e+002, 3.914425e+003
7.319626e+002, 3.916703e+003
7.324448e+002, 3.918833e+003
7.329269e+002, 3.921022e+003
7.334090e+002, 3.923018e+003
7.338911e+002, 3.923835e+003
7.343732e+002, 3.923064e+003
7.348553e+002, 3.922822e+003
7.353375e+002, 3.923913e+003
7.358196e+002, 3.925854e+003
7.363017e+002, 3.927069e+003
7.367838e+002, 3.927810e+003
7.372659e+002, 3.929622e+003
7.377480e+002, 3.934597e+003
7.382302e+002, 3.940082e+003
7.387123e+002, 3.944159e+003
7.391944e+002, 3.946706e+003
7.396765e+002, 3.947415e+003
7.401586e+002, 3.943259e+003
7.406407e+002, 3.939965e+003
7.411229e+002, 3.940662e+003
7.416050e+002, 3.945130e+003
7.420871e+002, 3.948553e+003
7.425692e+002, 3.950552e+003
7.430513e+002, 3.952476e+003
7.435334e+002, 3.955058e+003
7.440156e+002, 3.958239e+003
7.444977e+002, 3.961472e+003
7.449798e+002, 3.964779e+003
7.454619e+002, 3.967737e+003
7.459440e+002, 3.969777e+003
7.464261e+002, 3.971359e+003
7.469083e+002, 3.973468e+003
7.473904e+002, 3.976200e+003
7.478725e+002, 3.977463e+003
7.483546e+002, 3.973513e+003
7.488367e+002, 3.969690e+003
7.493188e+002, 3.969958e+003
7.498010e+002, 3.975862e+003
7.502831e+002, 3.980892e+003
7.507652e+002, 3.985265e+003
7.512473e+002, 3.988336e+003
7.517294e+002, 3.989039e+003
7.522115e+002, 3.987415e+003
7.526937e+002, 3.987340e+003
7.531758e+002, 3.989293e+003
7.536579e+002, 3.991263e+003
7.541400e+002, 3.990996e+003
7.546221e+002, 3.989484e+003
7.551042e+002, 3.988172e+003
7.555864e+002, 3.987266e+003
7.560685e+002, 3.987192e+003
7.565506e+002, 3.989437e+003
7.570327e+002, 3.992077e+003
7.575148e+002, 3.993085e+003
7.579969e+002, 3.989718e+003
7.584791e+002, 3.988827e+003
7.589612e+002, 3.991688e+003
7.594433e+002, 3.995572e+003
7.599254e+002, 3.996609e+003
7.604075e+002, 3.994578e+003
7.608896e+002, 3.994448e+003
7.613718e+002, 3.997297e+003
7.618539e+002, 4.001061e+003
7.623360e+002, 4.002923e+003
7.628181e+002, 4.003661e+003
7.633002e+002, 4.005046e+003
7.637823e+002, 4.008419e+003
7.642645e+002, 4.011096e+003
7.647466e+002, 4.010932e+003
7.652287e+002, 4.009368e+003
7.657108e+002, 4.008586e+003
7.661929e+002, 4.010445e+003
7.666750e+002, 4.010904e+003
7.671572e+002, 4.008696e+003
7.676393e+002, 4.005676e+003
7.681214e+002, 4.005513e+003
7.686035e+002, 4.008414e+003
7.690856e+002, 4.011367e+003
7.695677e+002, 4.013440e+003
7.700499e+002, 4.015508e+003
7.705320e+002, 4.019728e+003
7.710141e+002, 4.025031e+003
7.714962e+002, 4.028710e+003
7.719783e+002, 4.028057e+003
7.724604e+002, 4.027059e+003
7.729426e+002, 4.028389e+003
7.734247e+002, 4.030846e+003
7.739068e+002, 4.031578e+003
7.743889e+002, 4.028233e+003
7.748710e+002, 4.026065e+003
7.753531e+002, 4.026277e+003
7.758353e+002, 4.028129e+003
7.763174e+002, 4.029387e+003
7.767995e+002, 4.030017e+003
7.772816e+002, 4.031374e+003
7.777637e+002, 4.034241e+003
7.782458e+002, 4.037875e+003
7.787280e+002, 4.041709e+003
7.792101e+002, 4.045375e+003
7.796922e+002, 4.047578e+003
7.801743e+002, 4.046004e+003
7.806564e+002, 4.044527e+003
7.811385e+002, 4.045283e+003
7.816207e+002, 4.047869e+003
7.821028e+002, 4.050432e+003
7.825849e+002, 4.053829e+003
7.830670e+002, 4.055388e+003
7.835491e+002, 4.053055e+003
7.840313e+002, 4.048623e+003
7.845134e+002, 4.050497e+003
7.849955e+002, 4.058774e+003
7.854776e+002, 4.065372e+003
7.859597e+002, 4.065304e+003
7.864418e+002, 4.062164e+003
7.869240e+002, 4.061314e+003
7.874061e+002, 4.062308e+003
7.878882e+002, 4.063573e+003
7.883703e+002, 4.063949e+003
7.888524e+002, 4.064751e+003
7.893345e+002, 4.067330e+003
7.898167e+002, 4.071305e+003
7.902988e+002, 4.073345e+003
7.907809e+002, 4.072581e+003
7.912630e+002, 4.071515e+003
7.917451e+002, 4.070792e+003
7.922272e+002, 4.070528e+003
7.927094e+002, 4.071653e+003
7.931915e+002, 4.074082e+003
7.936736e+002, 4.075521e+003
7.941557e+002, 4.072396e+003
7.946378e+002, 4.068921e+003
7.951199e+002, 4.071969e+003
7.956021e+002, 4.079984e+003
7.960842e+002, 4.085955e+003
7.965663e+002, 4.086165e+003
7.970484e+002, 4.084241e+003
7.975305e+002, 4.080041e+003
7.980126e+002, 4.074299e+003
7.984948e+002, 4.073265e+003
7.989769e+002, 4.078772e+003
7.994590e+002, 4.084533e+003
7.999411e+002, 4.087600e+003
8.004232e+002, 4.088958e+003
8.009053e+002, 4.093290e+003
8.013875e+002, 4.100112e+003
8.018696e+002, 4.104508e+003
8.023517e+002, 4.099814e+003
8.028338e+002, 4.093982e+003
8.033159e+002, 4.095841e+003
8.037980e+002, 4.104234e+003
8.042802e+002, 4.111375e+003
8.047623e+002, 4.115309e+003
8.052444e+002, 4.116786e+003
8.057265e+002, 4.114923e+003
8.062086e+002, 4.110346e+003
8.066907e+002, 4.109078e+003
8.071729e+002, 4.111674e+003
8.076550e+002, 4.115018e+003
8.081371e+002, 4.118156e+003
8.086192e+002, 4.120735e+003
8.091013e+002, 4.121556e+003
8.095834e+002, 4.120852e+003
8.100656e+002, 4.119916e+003
8.105477e+002, 4.119232e+003
8.110298e+002, 4.118900e+003
8.115119e+002, 4.119561e+003
8.119940e+002, 4.120973e+003
8.124761e+002, 4.120954e+003
8.129583e+002, 4.115777e+003
8.134404e+002, 4.113857e+003
8.139225e+002, 4.119816e+003
8.144046e+002, 4.131447e+003
8.148867e+002, 4.133983e+003
8.153688e+002, 4.126904e+003
8.158510e+002, 4.121056e+003
8.163331e+002, 4.123380e+003
8.168152e+002, 4.129596e+003
8.172973e+002, 4.132198e+003
8.177794e+002, 4.132151e+003
8.182615e+002, 4.133422e+003
8.187437e+002, 4.140006e+003
8.192258e+002, 4.146266e+003
8.197079e+002, 4.149634e+003
8.201900e+002, 4.150168e+003
8.206721e+002, 4.149631e+003
8.211542e+002, 4.147302e+003
8.216364e+002, 4.145469e+003
8.221185e+002, 4.145322e+003
8.226006e+002, 4.146014e+003
8.230827e+002, 4.143976e+003
8.235648e+002, 4.139682e+003
8.240469e+002, 4.136639e+003
8.245291e+002, 4.137715e+003
8.250112e+002, 4.140179e+003
8.254933e+002, 4.142069e+003
8.259754e+002, 4.143298e+003
8.264575e+002, 4.143541e+003
8.269396e+002, 4.140874e+003
8.274218e+002, 4.139426e+003
8.279039e+002, 4.140711e+003
8.283860e+002, 4.143942e+003
8.288681e+002, 4.146669e+003
8.293502e+002, 4.149023e+003
8.298323e+002, 4.149972e+003
8.303145e+002, 4.148323e+003
8.307966e+002, 4.146059e+003
8.312787e+002, 4.147859e+003
8.317608e+002, 4.152388e+003
8.322429e+002, 4.155493e+003
8.327250e+002, 4.153342e+003
8.332072e+002, 4.151195e+003
8.336893e+002, 4.152088e+003
8.341714e+002, 4.155114e+003
8.346535e+002, 4.157958e+003
8.351356e+002, 4.161535e+003
8.356177e+002, 4.162790e+003
8.360999e+002, 4.159951e+003
8.365820e+002, 4.155674e+003
8.370641e+002, 4.156637e+003
8.375462e+002, 4.162357e+003
8.380283e+002, 4.167232e+003
8.385104e+002, 4.169073e+003
8.389926e+002, 4.170047e+003
8.394747e+002, 4.172346e+003
8.399568e+002, 4.175482e+003
8.404389e+002, 4.178651e+003
8.409210e+002, 4.183826e+003
8.414031e+002, 4.186084e+003
8.418853e+002, 4.180628e+003
8.423674e+002, 4.173439e+003
8.428495e+002, 4.173967e+003
8.433316e+002, 4.184371e+003
8.438137e+002, 4.191144e+003
8.442958e+002, 4.191388e+003
8.447780e+002, 4.189155e+003
8.452601e+002, 4.190752e+003
8.457422e+002, 4.194543e+003
8.462243e+002, 4.196552e+003
8.467064e+002, 4.195318e+003
8.471885e+002, 4.193125e+003
8.476707e+002, 4.189264e+003
8.481528e+002, 4.186117e+003
8.486349e+002, 4.186784e+003
8.491170e+002, 4.195633e+003
8.495991e+002, 4.200642e+003
8.500812e+002, 4.200601e+003
8.505634e+002, 4.198474e+003
8.510455e+002, 4.197331e+003
8.515276e+002, 4.197120e+003
8.520097e+002, 4.197154e+003
8.524918e+002, 4.197372e+003
8.529739e+002, 4.197849e+003
8.534561e+002, 4.198869e+003
8.539382e+002, 4.200064e+003
8.544203e+002, 4.200987e+003
8.549024e+002, 4.201439e+003
8.553845e+002, 4.201916e+003
8.558666e+002, 4.202175e+003
8.563488e+002, 4.202687e+003
8.568309e+002, 4.203590e+003
8.573130e+002, 4.204721e+003
8.577951e+002, 4.207509e+003
8.582772e+002, 4.212246e+003
8.587593e+002, 4.215964e+003
8.592415e+002, 4.214304e+003
8.597236e+002, 4.210496e+003
8.602057e+002, 4.210540e+003
8.606878e+002, 4.214913e+003
8.611699e+002, 4.218886e+003
8.616520e+002, 4.220334e+003
8.621342e+002, 4.220585e+003
8.626163e+002, 4.220408e+003
8.630984e+002, 4.219918e+003
8.635805e+002, 4.218389e+003
8.640626e+002, 4.215007e+003
8.645447e+002, 4.213326e+003
8.650269e+002, 4.216670e+003
8.655090e+002, 4.223241e+003
8.659911e+002, 4.226896e+003
8.664732e+002, 4.227799e+003
8.669553e+002, 4.226825e+003
8.674374e+002, 4.221499e+003
8.679196e+002, 4.217062e+003
8.684017e+002, 4.218126e+003
8.688838e+002, 4.223945e+003
8.693659e+002, 4.228421e+003
8.698480e+002, 4.230128e+003
8.703301e+002, 4.231764e+003
8.708123e+002, 4.234171e+003
8.712944e+002, 4.236929e+003
8.717765e+002, 4.238557e+003
8.722586e+002, 4.239100e+003
8.727407e+002, 4.239827e+003
8.732228e+002, 4.242037e+003
8.737050e+002, 4.243761e+003
8.741871e+002, 4.241912e+003
8.746692e+002, 4.238149e+003
8.751513e+002, 4.236064e+003
8.756334e+002, 4.238250e+003
8.761155e+002, 4.240611e+003
8.765977e+002, 4.242804e+003
8.770798e+002, 4.244606e+003
8.775619e+002, 4.245401e+003
8.780440e+002, 4.245129e+003
8.785261e+002, 4.245094e+003
8.790082e+002, 4.245553e+003
8.794904e+002, 4.246400e+003
8.799725e+002, 4.248185e+003
8.804546e+002, 4.250076e+003
8.809367e+002, 4.250394e+003
8.814188e+002, 4.247536e+003
8.819009e+002, 4.245549e+003
8.823831e+002, 4.246703e+003
8.828652e+002, 4.248862e+003
8.833473e+002, 4.249904e+003
8.838294e+002, 4.249696e+003
8.843115e+002, 4.248825e+003
8.847936e+002, 4.247096e+003
8.852758e+002, 4.245668e+003
8.857579e+002, 4.245596e+003
8.862400e+002, 4.246798e+003
8.867221e+002, 4.249005e+003
8.872042e+002, 4.252187e+003
8.876863e+002, 4.256683e+003
8.881685e+002, 4.265882e+003
8.886506e+002, 4.274046e+003
8.891327e+002, 4.276029e+003
8.896148e+002, 4.270516e+003
8.900969e+002, 4.267924e+003
8.905790e+002, 4.268989e+003
8.910612e+002, 4.270756e+003
8.915433e+002, 4.270756e+003
8.920254e+002, 4.269954e+003
8.925075e+002, 4.272780e+003
8.929896e+002, 4.278777e+003
8.934717e+002, 4.284520e+003
8.939539e+002, 4.288650e+003
8.944360e+002, 4.291203e+003
8.949181e+002, 4.291570e+003
8.954002e+002, 4.290177e+003
8.958823e+002, 4.289483e+003
8.963644e+002, 4.289808e+003
8.968466e+002, 4.290778e+003
8.973287e+002, 4.292710e+003
8.978108e+002, 4.295037e+003
8.982929e+002, 4.296001e+003
8.987750e+002, 4.295863e+003
8.992571e+002, 4.295963e+003
8.997393e+002, 4.296689e+003
9.002214e+002, 4.298086e+003
9.007035e+002, 4.301507e+003
9.011856e+002, 4.305269e+003
9.016677e+002, 4.306467e+003
9.021498e+002, 4.299813e+003
9.026320e+002, 4.297108e+003
9.031141e+002, 4.300169e+003
9.035962e+002, 4.305920e+003
9.040783e+002, 4.311178e+003
9.045604e+002, 4.315770e+003
9.050425e+002, 4.316575e+003
9.055247e+002, 4.312626e+003
9.060068e+002, 4.308130e+003
9.064889e+002, 4.305591e+003
9.069710e+002, 4.305553e+003
9.074531e+002, 4.309238e+003
9.079352e+002, 4.318200e+003
9.084174e+002, 4.326011e+003
9.088995e+002, 4.332710e+003
9.093816e+002, 4.337080e+003
9.098637e+002, 4.338100e+003
9.103458e+002, 4.335803e+003
9.108279e+002, 4.331550e+003
9.113101e+002, 4.325271e+003
9.117922e+002, 4.319771e+003
9.122743e+002, 4.317624e+003
9.127564e+002, 4.316918e+003
9.132385e+002, 4.315295e+003
9.137206e+002, 4.312921e+003
9.142028e+002, 4.311827e+003
9.146849e+002, 4.314282e+003
9.151670e+002, 4.316125e+003
9.156491e+002, 4.315595e+003
9.161312e+002, 4.313677e+003
9.166133e+002, 4.314911e+003
9.170955e+002, 4.319416e+003
9.175776e+002, 4.321768e+003
9.180597e+002, 4.318210e+003
9.185418e+002, 4.314331e+003
9.190239e+002, 4.319065e+003
9.195060e+002, 4.328307e+003
9.199882e+002, 4.334019e+003
9.204703e+002, 4.329763e+003
9.209524e+002, 4.326750e+003
9.214345e+002, 4.327569e+003
9.219166e+002, 4.329733e+003
9.223987e+002, 4.329915e+003
9.228809e+002, 4.327847e+003
9.233630e+002, 4.327163e+003
9.238451e+002, 4.328280e+003
9.243272e+002, 4.330428e+003
9.248093e+002, 4.334135e+003
9.252914e+002, 4.337729e+003
9.257736e+002, 4.338381e+003
9.262557e+002, 4.335079e+003
9.267378e+002, 4.333098e+003
9.272199e+002, 4.335405e+003
9.277020e+002, 4.338187e+003
9.281841e+002, 4.339217e+003
9.286663e+002, 4.338536e+003
9.291484e+002, 4.341372e+003
9.296305e+002, 4.348019e+003
9.301126e+002, 4.352559e+003
9.305947e+002, 4.349000e+003
9.310768e+002, 4.342661e+003
9.315590e+002, 4.339752e+003
9.320411e+002, 4.340008e+003
9.325232e+002, 4.341965e+003
9.330053e+002, 4.347203e+003
9.334874e+002, 4.351573e+003
9.339695e+002, 4.354260e+003
9.344517e+002, 4.355348e+003
9.349338e+002, 4.354376e+003
9.354159e+002, 4.351298e+003
9.358980e+002, 4.350046e+003
9.363801e+002, 4.352048e+003
9.368622e+002, 4.355458e+003
9.373444e+002, 4.358688e+003
9.378265e+002, 4.361673e+003
9.383086e+002, 4.364287e+003
9.387907e+002, 4.365974e+003
9.392728e+002, 4.368246e+003
9.397549e+002, 4.371053e+003
9.402371e+002, 4.374702e+003
9.407192e+002, 4.380209e+003
9.412013e+002, 4.387646e+003
9.416834e+002, 4.391324e+003
9.421655e+002, 4.390758e+003
9.426476e+002, 4.391483e+003
9.431298e+002, 4.400811e+003
9.436119e+002, 4.412083e+003
9.440940e+002, 4.417630e+003
9.445761e+002, 4.417211e+003
9.450582e+002, 4.417438e+003
9.455403e+002, 4.420156e+003
9.460225e+002, 4.423425e+003
9.465046e+002, 4.426529e+003
9.469867e+002, 4.429766e+003
9.474688e+002, 4.434781e+003
9.479509e+002, 4.441411e+003
9.484330e+002, 4.447990e+003
9.489152e+002, 4.453966e+003
9.493973e+002, 4.459357e+003
9.498794e+002, 4.463635e+003
9.503615e+002, 4.467461e+003
9.508436e+002, 4.472029e+003
9.513257e+002, 4.477047e+003
9.518079e+002, 4.483890e+003
9.522900e+002, 4.493637e+003
9.527721e+002, 4.503868e+003
9.532542e+002, 4.511156e+003
9.537363e+002, 4.516015e+003
9.542184e+002, 4.521562e+003
9.547006e+002, 4.527984e+003
9.551827e+002, 4.537883e+003
9.556648e+002, 4.556307e+003
9.561469e+002, 4.577319e+003
9.566290e+002, 4.594724e+003
9.571111e+002, 4.607218e+003
9.575933e+002, 4.624249e+003
9.580754e+002, 4.646353e+003
9.585575e+002, 4.672634e+003
9.590396e+002, 4.703298e+003
9.595217e+002, 4.737287e+003
9.600038e+002, 4.769565e+003
9.604860e+002, 4.801549e+003
9.609681e+002, 4.840767e+003
9.614502e+002, 4.887876e+003
9.619323e+002, 4.946419e+003
9.624144e+002, 5.014193e+003
9.628965e+002, 5.095865e+003
9.633787e+002, 5.199235e+003
9.638608e+002, 5.326729e+003
9.643429e+002, 5.470965e+003
9.648250e+002, 5.633975e+003
9.653071e+002, 5.809168e+003
9.657892e+002, 5.990032e+003
9.662714e+002, 6.173351e+003
9.667535e+002, 6.353992e+003
9.672356e+002, 6.529039e+003
9.677177e+002, 6.704277e+003
9.681998e+002, 6.868403e+003
9.686819e+002, 7.043479e+003
9.691641e+002, 7.238248e+003
9.696462e+002, 7.453003e+003
9.701283e+002, 7.705617e+003
9.706104e+002, 7.995593e+003
9.710925e+002, 8.342136e+003
9.715746e+002, 8.751590e+003
9.720568e+002, 9.232434e+003
9.725389e+002, 9.800439e+003
9.730210e+002, 1.045721e+004
9.735031e+002, 1.119163e+004
9.739852e+002, 1.201044e+004
9.744673e+002, 1.289767e+004
9.749495e+002, 1.389314e+004
9.754316e+002, 1.492967e+004
9.759137e+002, 1.597337e+004
9.763958e+002, 1.705039e+004
9.768779e+002, 1.763436e+004
9.773600e+002, 1.763240e+004
9.778422e+002, 1.710523e+004
9.783243e+002, 1.588311e+004
9.788064e+002, 1.429317e+004
9.792885e+002, 1.270749e+004
9.797706e+002, 1.114566e+004
9.802527e+002, 9.819191e+003
9.807349e+002, 8.781368e+003
9.812170e+002, 7.938937e+003
9.816991e+002, 7.284312e+003
9.821812e+002, 6.801787e+003
9.826633e+002, 6.409874e+003
9.831454e+002, 6.105950e+003
9.836276e+002, 5.860974e+003
9.841097e+002, 5.676180e+003
9.845918e+002, 5.526228e+003
9.850739e+002, 5.400565e+003
9.855560e+002, 5.295364e+003
9.860381e+002, 5.204096e+003
9.865203e+002, 5.126349e+003
9.870024e+002, 5.059453e+003
9.874845e+002, 5.004256e+003
9.879666e+002, 4.957620e+003
9.884487e+002, 4.915690e+003
9.889308e+002, 4.878768e+003
9.894130e+002, 4.847027e+003
9.898951e+002, 4.820894e+003
9.903772e+002, 4.797331e+003
9.908593e+002, 4.774990e+003
9.913414e+002, 4.754313e+003
9.918235e+002, 4.735591e+003
9.923057e+002, 4.718617e+003
9.927878e+002, 4.703896e+003
9.932699e+002, 4.691365e+003
9.937520e+002, 4.680493e+003
9.942341e+002, 4.671186e+003
9.947162e+002, 4.663154e+003
9.951984e+002, 4.656308e+003
9.956805e+002, 4.650383e+003
9.961626e+002, 4.644874e+003
9.966447e+002, 4.639402e+003
9.971268e+002, 4.634489e+003
9.976089e+002, 4.630093e+003
9.980911e+002, 4.626306e+003
9.985732e+002, 4.623479e+003
9.990553e+002, 4.621583e+003
9.995374e+002, 4.619947e+003
1.000020e+003, 4.618704e+003
1.000502e+003, 4.615928e+003
1.000984e+003, 4.608896e+003
1.001466e+003, 4.600117e+003
1.001948e+003, 4.591380e+003
1.002430e+003, 4.582814e+003
1.002912e+003, 4.577042e+003
1.003394e+003, 4.575352e+003
1.003876e+003, 4.574175e+003
1.004359e+003, 4.572362e+003
1.004841e+003, 4.569841e+003
1.005323e+003, 4.565688e+003
1.005805e+003, 4.560501e+003
1.006287e+003, 4.556830e+003
1.006769e+003, 4.557549e+003
1.007251e+003, 4.557765e+003
1.007733e+003, 4.553504e+003
1.008216e+003, 4.547959e+003
1.008698e+003, 4.545831e+003
1.009180e+003, 4.548454e+003
1.009662e+003, 4.549342e+003
1.010144e+003, 4.548010e+003
1.010626e+003, 4.545615e+003
1.011108e+003, 4.541818e+003
1.011590e+003, 4.538425e+003
1.012072e+003, 4.539007e+003
1.012555e+003, 4.543518e+003
1.013037e+003, 4.547115e+003
1.013519e+003, 4.548383e+003
1.014001e+003, 4.547906e+003
1.014483e+003, 4.545218e+003
1.014965e+003, 4.541194e+003
1.015447e+003, 4.538861e+003
1.015929e+003, 4.538102e+003
1.016411e+003, 4.537729e+003
1.016894e+003, 4.537269e+003
1.017376e+003, 4.537313e+003
1.017858e+003, 4.539084e+003
1.018340e+003, 4.541352e+003
1.018822e+003, 4.542614e+003
1.019304e+003, 4.542831e+003
1.019786e+003, 4.541339e+003
1.020268e+003, 4.537155e+003
1.020751e+003, 4.534020e+003
1.021233e+003, 4.535603e+003
1.021715e+003, 4.540313e+003
1.022197e+003, 4.544586e+003
1.022679e+003, 4.548173e+003
1.023161e+003, 4.550042e+003
1.023643e+003, 4.547268e+003
1.024125e+003, 4.545326e+003
1.024607e+003, 4.547206e+003
1.025090e+003, 4.551033e+003
1.025572e+003, 4.552453e+003
1.026054e+003, 4.551118e+003
1.026536e+003, 4.552846e+003
1.027018e+003, 4.559507e+003
1.027500e+003, 4.565691e+003
1.027982e+003, 4.564447e+003
1.028464e+003, 4.560115e+003
1.028947e+003, 4.557572e+003
1.029429e+003, 4.557788e+003
1.029911e+003, 4.559416e+003
1.030393e+003, 4.563956e+003
1.030875e+003, 4.566804e+003
1.031357e+003, 4.564640e+003
1.031839e+003, 4.559502e+003
1.032321e+003, 4.558298e+003
1.032803e+003, 4.560460e+003
1.033286e+003, 4.563381e+003
1.033768e+003, 4.565648e+003
1.034250e+003, 4.568563e+003
1.034732e+003, 4.571906e+003
1.035214e+003, 4.576724e+003
1.035696e+003, 4.585462e+003
1.036178e+003, 4.600153e+003
1.036660e+003, 4.606399e+003
1.037143e+003, 4.602200e+003
1.037625e+003, 4.596195e+003
1.038107e+003, 4.595556e+003
1.038589e+003, 4.598157e+003
1.039071e+003, 4.601897e+003
1.039553e+003, 4.606509e+003
1.040035e+003, 4.611058e+003
1.040517e+003, 4.615445e+003
1.041000e+003, 4.619595e+003
1.041482e+003, 4.623477e+003
1.041964e+003, 4.627078e+003
1.042446e+003, 4.630340e+003
1.042928e+003, 4.633238e+003
1.043410e+003, 4.635078e+003
1.043892e+003, 4.634814e+003
1.044374e+003, 4.636142e+003
1.044856e+003, 4.643729e+003
1.045339e+003, 4.652211e+003
1.045821e+003, 4.656360e+003
1.046303e+003, 4.655214e+003
1.046785e+003, 4.656760e+003
1.047267e+003, 4.661182e+003
1.047749e+003, 4.666639e+003
1.048231e+003, 4.672877e+003
1.048713e+003, 4.678649e+003
1.049195e+003, 4.681122e+003
1.049677e+003, 4.681699e+003
1.050160e+003, 4.684397e+003
1.050642e+003, 4.690940e+003
1.051124e+003, 4.699161e+003
1.051606e+003, 4.709656e+003
1.052088e+003, 4.720439e+003
1.052570e+003, 4.728362e+003
1.053052e+003, 4.734184e+003
1.053534e+003, 4.740596e+003
1.054017e+003, 4.747929e+003
1.054499e+003, 4.754973e+003
1.054981e+003, 4.760217e+003
1.055463e+003, 4.765658e+003
1.055945e+003, 4.773079e+003
1.056427e+003, 4.781963e+003
1.056909e+003, 4.788399e+003
1.057391e+003, 4.792056e+003
1.057874e+003, 4.797952e+003
1.058356e+003, 4.808970e+003
1.058838e+003, 4.820614e+003
1.059320e+003, 4.826307e+003
1.059802e+003, 4.829514e+003
1.060284e+003, 4.835548e+003
1.060766e+003, 4.847489e+003
1.061248e+003, 4.857598e+003
1.061730e+003, 4.864591e+003
1.062213e+003, 4.871737e+003
1.062695e+003, 4.882625e+003
1.063177e+003, 4.895411e+003
1.063659e+003, 4.902956e+003
1.064141e+003, 4.906142e+003
1.064623e+003, 4.909185e+003
1.065105e+003, 4.913680e+003
1.065587e+003, 4.918910e+003
1.066070e+003, 4.925143e+003
1.066552e+003, 4.931619e+003
1.067034e+003, 4.937252e+003
1.067516e+003, 4.941988e+003
1.067998e+003, 4.946141e+003
1.068480e+003, 4.949705e+003
1.068962e+003, 4.952674e+003
1.069444e+003, 4.955714e+003
1.069927e+003, 4.957700e+003
1.070409e+003, 4.956660e+003
1.070891e+003, 4.952649e+003
1.071373e+003, 4.951906e+003
1.071855e+003, 4.955932e+003
1.072337e+003, 4.959518e+003
1.072819e+003, 4.960666e+003
1.073301e+003, 4.961233e+003
1.073783e+003, 4.965365e+003
1.074266e+003, 4.971350e+003
1.074748e+003, 4.975529e+003
1.075230e+003, 4.976475e+003
1.075712e+003, 4.976791e+003
1.076194e+003, 4.975902e+003
1.076676e+003, 4.975961e+003
1.077158e+003, 4.978652e+003
1.077640e+003, 4.983647e+003
1.078122e+003, 4.987744e+003
1.078604e+003, 4.991031e+003
1.079087e+003, 4.994361e+003
1.079569e+003, 4.999300e+003
1.080051e+003, 5.003248e+003
1.080533e+003, 5.002838e+003
1.081015e+003, 5.000981e+003
1.081497e+003, 5.003189e+003
1.081979e+003, 5.010592e+003
1.082461e+003, 5.016792e+003
1.082944e+003, 5.021345e+003
1.083426e+003, 5.024374e+003
1.083908e+003, 5.025447e+003
1.084390e+003, 5.025362e+003
1.084872e+003, 5.025291e+003
1.085354e+003, 5.025184e+003
1.085836e+003, 5.023440e+003
1.086318e+003, 5.018642e+003
1.086801e+003, 5.014594e+003
1.087283e+003, 5.012330e+003
1.087765e+003, 5.011102e+003
1.088247e+003, 5.010439e+003
1.088729e+003, 5.009583e+003
1.089211e+003, 5.006142e+003
1.089693e+003, 4.999006e+003
1.090175e+003, 4.992393e+003
1.090657e+003, 4.987935e+003
1.091140e+003, 4.984726e+003
1.091622e+003, 4.982930e+003
1.092104e+003, 4.982052e+003
1.092586e+003, 4.977433e+003
1.093068e+003, 4.969407e+003
1.093550e+003, 4.962382e+003
1.094032e+003, 4.959069e+003
1.094514e+003, 4.956218e+003
1.094997e+003, 4.950294e+003
1.095479e+003, 4.944024e+003
1.095961e+003, 4.941629e+003
1.096443e+003, 4.946020e+003
1.096925e+003, 4.943343e+003
1.097407e+003, 4.932367e+003
1.097889e+003, 4.921916e+003
1.098371e+003, 4.919859e+003
1.098854e+003, 4.921704e+003
1.099336e+003, 4.923286e+003
1.099818e+003, 4.923938e+003
1.100300e+003, 4.921770e+003
1.100782e+003, 4.914735e+003
1.101264e+003, 4.907350e+003
1.101746e+003, 4.899539e+003
1.102228e+003, 4.892930e+003
1.102710e+003, 4.891191e+003
1.103193e+003, 4.892164e+003
1.103675e+003, 4.889875e+003
1.104157e+003, 4.883670e+003
1.104639e+003, 4.878495e+003
1.105121e+003, 4.878490e+003
1.105603e+003, 4.877563e+003
1.106085e+003, 4.872544e+003
1.106567e+003, 4.865375e+003
1.107049e+003, 4.862348e+003
1.107531e+003, 4.862980e+003
1.108014e+003, 4.864056e+003
1.108496e+003, 4.865078e+003
1.108978e+003, 4.864865e+003
1.109460e+003, 4.860449e+003
1.109942e+003, 4.855950e+003
1.110424e+003, 4.855941e+003
1.110906e+003, 4.860728e+003
1.111388e+003, 4.860185e+003
1.111871e+003, 4.853959e+003
1.112353e+003, 4.847329e+003
1.112835e+003, 4.843422e+003
1.113317e+003, 4.839843e+003
1.113799e+003, 4.832953e+003
1.114281e+003, 4.825052e+003
1.114763e+003, 4.819969e+003
1.115245e+003, 4.820071e+003
1.115728e+003, 4.819854e+003
1.116210e+003, 4.819499e+003
1.116692e+003, 4.818468e+003
1.117174e+003, 4.816444e+003
1.117656e+003, 4.813422e+003
1.118138e+003, 4.808448e+003
1.118620e+003, 4.802233e+003
1.119102e+003, 4.797653e+003
1.119584e+003, 4.796858e+003
1.120067e+003, 4.795966e+003
1.120549e+003, 4.793829e+003
1.121031e+003, 4.791982e+003
1.121513e+003, 4.794411e+003
1.121995e+003, 4.798791e+003
1.122477e+003, 4.795739e+003
1.122959e+003, 4.784521e+003
1.123441e+003, 4.775016e+003
1.123924e+003, 4.772873e+003
1.124406e+003, 4.773304e+003
1.124888e+003, 4.774966e+003
1.125370e+003, 4.777138e+003
1.125852e+003, 4.778028e+003
1.126334e+003, 4.777688e+003
1.126816e+003, 4.776001e+003
1.127298e+003, 4.772857e+003
1.127781e+003, 4.769286e+003
1.128263e+003, 4.766435e+003
1.128745e+003, 4.763276e+003
1.129227e+003, 4.758602e+003
1.129709e+003, 4.752527e+003
1.130191e+003, 4.747093e+003
1.130673e+003, 4.742110e+003
1.131155e+003, 4.740339e+003
1.131637e+003, 4.744357e+003
1.132120e+003, 4.749276e+003
1.132602e+003, 4.749431e+003
1.133084e+003, 4.747376e+003
1.133566e+003, 4.746711e+003
1.134048e+003, 4.748215e+003
1.134530e+003, 4.749663e+003
1.135012e+003, 4.751009e+003
1.135494e+003, 4.752321e+003
1.135976e+003, 4.753857e+003
1.136458e+003, 4.755264e+003
1.136941e+003, 4.755723e+003
1.137423e+003, 4.755627e+003
1.137905e+003, 4.755909e+003
1.138387e+003, 4.757835e+003
1.138869e+003, 4.758451e+003
1.139351e+003, 4.757052e+003
1.139833e+003, 4.755513e+003
1.140315e+003, 4.756459e+003
1.140798e+003, 4.758416e+003
1.141280e+003, 4.757267e+003
1.141762e+003, 4.753397e+003
1.142244e+003, 4.750386e+003
1.142726e+003, 4.751101e+003
1.143208e+003, 4.750810e+003
1.143690e+003, 4.747886e+003
1.144172e+003, 4.744193e+003
1.144655e+003, 4.742883e+003
1.145137e+003, 4.743338e+003
1.145619e+003, 4.742687e+003
1.146101e+003, 4.740607e+003
1.146583e+003, 4.738954e+003
1.147065e+003, 4.738467e+003
1.147547e+003, 4.739182e+003
1.148029e+003, 4.741603e+003
1.148511e+003, 4.744954e+003
1.148994e+003, 4.746927e+003
1.149476e+003, 4.747657e+003
1.149958e+003, 4.748233e+003
1.150440e+003, 4.748953e+003
1.150922e+003, 4.749288e+003
1.151404e+003, 4.747337e+003
1.151886e+003, 4.746103e+003
1.152368e+003, 4.748377e+003
1.152851e+003, 4.753610e+003
1.153333e+003, 4.756963e+003
1.153815e+003, 4.758357e+003
1.154297e+003, 4.760657e+003
1.154779e+003, 4.766108e+003
1.155261e+003, 4.770012e+003
1.155743e+003, 4.763790e+003
1.156225e+003, 4.755947e+003
1.156708e+003, 4.758705e+003
1.157190e+003, 4.775227e+003
1.157672e+003, 4.779057e+003
1.158154e+003, 4.768864e+003
1.158636e+003, 4.757719e+003
1.159118e+003, 4.751940e+003
1.159600e+003, 4.750234e+003
1.160082e+003, 4.753887e+003
1.160564e+003, 4.759900e+003
1.161047e+003, 4.762855e+003
1.161529e+003, 4.760761e+003
1.162011e+003, 4.758976e+003
1.162493e+003, 4.757612e+003
1.162975e+003, 4.756343e+003
1.163457e+003, 4.754375e+003
1.163939e+003, 4.752692e+003
1.164421e+003, 4.753361e+003
1.164903e+003, 4.755469e+003
1.165385e+003, 4.756210e+003
1.165868e+003, 4.753064e+003
1.166350e+003, 4.752045e+003
1.166832e+003, 4.754014e+003
1.167314e+003, 4.756780e+003
1.167796e+003, 4.757994e+003
1.168278e+003, 4.758412e+003
1.168760e+003, 4.759373e+003
1.169242e+003, 4.760878e+003
1.169725e+003, 4.762347e+003
1.170207e+003, 4.764576e+003
1.170689e+003, 4.765291e+003
1.171171e+003, 4.763861e+003
1.171653e+003, 4.761454e+003
1.172135e+003, 4.758494e+003
1.172617e+003, 4.756179e+003
1.173099e+003, 4.758380e+003
1.173582e+003, 4.765364e+003
1.174064e+003, 4.769896e+003
1.174546e+003, 4.765307e+003
1.175028e+003, 4.763349e+003
1.175510e+003, 4.768268e+003
1.175992e+003, 4.775816e+003
1.176474e+003, 4.777187e+003
1.176956e+003, 4.774070e+003
1.177438e+003, 4.771162e+003
1.177921e+003, 4.769320e+003
1.178403e+003, 4.767796e+003
1.178885e+003, 4.765255e+003
1.179367e+003, 4.764360e+003
1.179849e+003, 4.766703e+003
1.180331e+003, 4.771099e+003
1.180813e+003, 4.774450e+003
1.181295e+003, 4.776622e+003
1.181778e+003, 4.776438e+003
1.182260e+003, 4.772345e+003
1.182742e+003, 4.770499e+003
1.183224e+003, 4.776387e+003
1.183706e+003, 4.782661e+003
1.184188e+003, 4.785470e+003
1.184670e+003, 4.785183e+003
1.185152e+003, 4.781699e+003
1.185635e+003, 4.776328e+003
1.186117e+003, 4.776386e+003
1.186599e+003, 4.788405e+003
1.187081e+003, 4.798337e+003
1.187563e+003, 4.797446e+003
1.188045e+003, 4.793096e+003
1.188527e+003, 4.790377e+003
1.189009e+003, 4.789265e+003
1.189491e+003, 4.789416e+003
1.189974e+003, 4.790651e+003
1.190456e+003, 4.791575e+003
1.190938e+003, 4.791157e+003
1.191420e+003, 4.790743e+003
1.191902e+003, 4.791827e+003
1.192384e+003, 4.792606e+003
1.192866e+003, 4.790719e+003
1.193348e+003, 4.786050e+003
1.193830e+003, 4.784314e+003
1.194313e+003, 4.785410e+003
1.194795e+003, 4.788134e+003
1.195277e+003, 4.794908e+003
1.195759e+003, 4.799576e+003
1.196241e+003, 4.796118e+003
1.196723e+003, 4.790128e+003
1.197205e+003, 4.789368e+003
1.197687e+003, 4.794083e+003
1.198169e+003, 4.794660e+003
1.198652e+003, 4.790875e+003
1.199134e+003, 4.787525e+003
1.199616e+003, 4.788725e+003
1.200098e+003, 4.790517e+003
1.200580e+003, 4.790289e+003
1.201062e+003, 4.789296e+003
1.201544e+003, 4.789816e+003
1.202026e+003, 4.791923e+003
1.202509e+003, 4.792888e+003
1.202991e+003, 4.792444e+003
1.203473e+003, 4.793101e+003
1.203955e+003, 4.797483e+003
1.204437e+003, 4.802700e+003
1.204919e+003, 4.808078e+003
1.205401e+003, 4.812468e+003
1.205883e+003, 4.812733e+003
1.206365e+003, 4.808711e+003
1.206848e+003, 4.806281e+003
1.207330e+003, 4.806252e+003
1.207812e+003, 4.806625e+003
1.208294e+003, 4.805870e+003
1.208776e+003, 4.804942e+003
1.209258e+003, 4.803722e+003
1.209740e+003, 4.803022e+003
1.210222e+003, 4.806036e+003
1.210705e+003, 4.812893e+003
1.211187e+003, 4.817339e+003
1.211669e+003, 4.818299e+003
1.212151e+003, 4.817228e+003
1.212633e+003, 4.812809e+003
1.213115e+003, 4.809091e+003
1.213597e+003, 4.809986e+003
1.214079e+003, 4.814159e+003
1.214562e+003, 4.817098e+003
1.215044e+003, 4.818835e+003
1.215526e+003, 4.820068e+003
1.216008e+003, 4.821015e+003
1.216490e+003, 4.821154e+003
1.216972e+003, 4.817912e+003
1.217454e+003, 4.815556e+003
1.217936e+003, 4.818029e+003
1.218418e+003, 4.824187e+003
1.218901e+003, 4.829195e+003
1.219383e+003, 4.832997e+003
1.219865e+003, 4.834331e+003
1.220347e+003, 4.832106e+003
1.220829e+003, 4.830138e+003
1.221311e+003, 4.832183e+003
1.221793e+003, 4.834755e+003
1.222275e+003, 4.834670e+003
1.222757e+003, 4.832604e+003
1.223240e+003, 4.834617e+003
1.223722e+003, 4.840297e+003
1.224204e+003, 4.843753e+003
1.224686e+003, 4.842994e+003
1.225168e+003, 4.839886e+003
1.225650e+003, 4.832085e+003
1.226132e+003, 4.825899e+003
1.226614e+003, 4.826950e+003
1.227096e+003, 4.834142e+003
1.227579e+003, 4.837087e+003
1.228061e+003, 4.836243e+003
1.228543e+003, 4.835495e+003
1.229025e+003, 4.836159e+003
1.229507e+003, 4.837537e+003
1.229989e+003, 4.839156e+003
1.230471e+003, 4.841362e+003
1.230953e+003, 4.844688e+003
1.231436e+003, 4.848830e+003
1.231918e+003, 4.851052e+003
1.232400e+003, 4.851507e+003
1.232882e+003, 4.851354e+003
1.233364e+003, 4.850537e+003
1.233846e+003, 4.850229e+003
1.234328e+003, 4.851978e+003
1.234810e+003, 4.853589e+003
1.235292e+003, 4.853221e+003
1.235775e+003, 4.851249e+003
1.236257e+003, 4.851039e+003
1.236739e+003, 4.852099e+003
1.237221e+003, 4.851489e+003
1.237703e+003, 4.844404e+003
1.238185e+003, 4.841209e+003
1.238667e+003, 4.850114e+003
1.239149e+003, 4.860114e+003
1.239632e+003, 4.862950e+003
1.240114e+003, 4.859955e+003
1.240596e+003, 4.859116e+003
1.241078e+003, 4.860048e+003
1.241560e+003, 4.861142e+003
1.242042e+003, 4.861560e+003
1.242524e+003, 4.862165e+003
1.243006e+003, 4.863192e+003
1.243489e+003, 4.864370e+003
1.243971e+003, 4.865313e+003
1.244453e+003, 4.866234e+003
1.244935e+003, 4.868469e+003
1.245417e+003, 4.871543e+003
1.245899e+003, 4.873622e+003
1.246381e+003, 4.872725e+003
1.246863e+003, 4.872555e+003
1.247345e+003, 4.873506e+003
1.247828e+003, 4.875493e+003
1.248310e+003, 4.879948e+003
1.248792e+003, 4.884936e+003
1.249274e+003, 4.883509e+003
1.249756e+003, 4.877817e+003
1.250238e+003, 4.875284e+003
1.250720e+003, 4.882218e+003
1.251202e+003, 4.886963e+003
1.251684e+003, 4.888287e+003
1.252167e+003, 4.888097e+003
1.252649e+003, 4.887378e+003
1.253131e+003, 4.886583e+003
1.253613e+003, 4.886087e+003
1.254095e+003, 4.886239e+003
1.254577e+003, 4.888303e+003
1.255059e+003, 4.896019e+003
1.255541e+003, 4.898331e+003
1.256023e+003, 4.893240e+003
1.256506e+003, 4.887484e+003
1.256988e+003, 4.886932e+003
1.257470e+003, 4.889391e+003
1.257952e+003, 4.892978e+003
1.258434e+003, 4.896968e+003
1.258916e+003, 4.899233e+003
1.259398e+003, 4.899127e+003
1.259880e+003, 4.899019e+003
1.260363e+003, 4.899126e+003
1.260845e+003, 4.899055e+003
1.261327e+003, 4.899063e+003
1.261809e+003, 4.898234e+003
1.262291e+003, 4.894441e+003
1.262773e+003, 4.889202e+003
1.263255e+003, 4.886702e+003
1.263737e+003, 4.887825e+003
1.264219e+003, 4.887585e+003
1.264702e+003, 4.885537e+003
1.265184e+003, 4.883627e+003
1.265666e+003, 4.883441e+003
1.266148e+003, 4.883900e+003
1.266630e+003, 4.883304e+003
1.267112e+003, 4.883201e+003
1.267594e+003, 4.887177e+003
1.268076e+003, 4.895718e+003
1.268559e+003, 4.901305e+003
1.269041e+003, 4.903456e+003
1.269523e+003, 4.904178e+003
1.270005e+003, 4.904046e+003
1.270487e+003, 4.903776e+003
1.270969e+003, 4.903896e+003
1.271451e+003, 4.904013e+003
1.271933e+003, 4.903540e+003
1.272416e+003, 4.902485e+003
1.272898e+003, 4.900948e+003
1.273380e+003, 4.899024e+003
1.273862e+003, 4.897979e+003
1.274344e+003, 4.898597e+003
1.274826e+003, 4.900266e+003
1.275308e+003, 4.903525e+003
1.275790e+003, 4.906799e+003
1.276272e+003, 4.907479e+003
1.276755e+003, 4.906533e+003
1.277237e+003, 4.908484e+003
1.277719e+003, 4.912932e+003
1.278201e+003, 4.915345e+003
1.278683e+003, 4.910429e+003
1.279165e+003, 4.908192e+003
1.279647e+003, 4.911276e+003
1.280129e+003, 4.915883e+003
1.280611e+003, 4.917962e+003
1.281094e+003, 4.918356e+003
1.281576e+003, 4.918213e+003
1.282058e+003, 4.917937e+003
1.282540e+003, 4.919147e+003
1.283022e+003, 4.923875e+003
1.283504e+003, 4.926660e+003
1.283986e+003, 4.926386e+003
1.284468e+003, 4.926019e+003
1.284950e+003, 4.930195e+003
1.285433e+003, 4.934884e+003
1.285915e+003, 4.934060e+003
1.286397e+003, 4.928886e+003
1.286879e+003, 4.924488e+003
1.287361e+003, 4.921058e+003
1.287843e+003, 4.919622e+003
1.288325e+003, 4.920434e+003
1.288807e+003, 4.922240e+003
1.289290e+003, 4.922530e+003
1.289772e+003, 4.924692e+003
1.290254e+003, 4.933935e+003
1.290736e+003, 4.946735e+003
1.291218e+003, 4.955005e+003
1.291700e+003, 4.958544e+003
1.292182e+003, 4.959828e+003
1.292664e+003, 4.958983e+003
1.293146e+003, 4.956290e+003
1.293629e+003, 4.948858e+003
1.294111e+003, 4.942991e+003
1.294593e+003, 4.945380e+003
1.295075e+003, 4.949333e+003
1.295557e+003, 4.944392e+003
1.296039e+003, 4.932492e+003
1.296521e+003, 4.931113e+003
1.297003e+003, 4.939884e+003
1.297486e+003, 4.948063e+003
1.297968e+003, 4.951552e+003
1.298450e+003, 4.951898e+003
1.298932e+003, 4.948500e+003
1.299414e+003, 4.944731e+003
1.299896e+003, 4.945163e+003
1.300378e+003, 4.948091e+003
1.300860e+003, 4.948837e+003
1.301343e+003, 4.947749e+003
1.301825e+003, 4.946883e+003
##END=



