##NAMES=Matlockite
##RRUFFID=R140538
##IDEAL CHEMISTRY=Pb^2+^ClF
##LOCALITY=Mammoth mine, Tiger, Pinal County, Arizona, USA
##OWNER=RRUFF
##SOURCE=The University of Arizona Mineral Museum 5194 and 10550
##DESCRIPTION=Pale yellowish or colorless platy crystals, associated with bright orange georgerobinsonite (R110148), quartz, and cerussite.
##STATUS=The identification of this mineral has been confirmed by single-crystal X-ray diffraction.
##URL=rruff.info/R140538
8.930109e+001, 0.000000e+000
8.978320e+001, 8.330153e+002
9.026532e+001, 8.293006e+002
9.074744e+001, 8.295350e+002
9.122955e+001, 8.351251e+002
9.171167e+001, 8.436947e+002
9.219379e+001, 8.542004e+002
9.267590e+001, 8.662913e+002
9.315802e+001, 8.735043e+002
9.364014e+001, 8.674237e+002
9.412225e+001, 8.524786e+002
9.460437e+001, 8.409495e+002
9.508649e+001, 8.373008e+002
9.556860e+001, 8.378769e+002
9.605072e+001, 8.347839e+002
9.653284e+001, 8.286104e+002
9.701495e+001, 8.215096e+002
9.749707e+001, 8.147973e+002
9.797919e+001, 8.083956e+002
9.846130e+001, 8.032552e+002
9.894342e+001, 7.992401e+002
9.942554e+001, 7.963806e+002
9.990765e+001, 7.967173e+002
1.003898e+002, 8.012317e+002
1.008719e+002, 8.067957e+002
1.013540e+002, 8.086207e+002
1.018361e+002, 8.059044e+002
1.023182e+002, 8.028640e+002
1.028004e+002, 8.007346e+002
1.032825e+002, 7.992260e+002
1.037646e+002, 7.998109e+002
1.042467e+002, 8.027839e+002
1.047288e+002, 8.076091e+002
1.052109e+002, 8.129811e+002
1.056931e+002, 8.184416e+002
1.061752e+002, 8.251522e+002
1.066573e+002, 8.339089e+002
1.071394e+002, 8.469026e+002
1.076215e+002, 8.582821e+002
1.081036e+002, 8.691699e+002
1.085858e+002, 8.789617e+002
1.090679e+002, 8.836351e+002
1.095500e+002, 8.781999e+002
1.100321e+002, 8.715081e+002
1.105142e+002, 8.682956e+002
1.109963e+002, 8.697017e+002
1.114785e+002, 8.731510e+002
1.119606e+002, 8.785475e+002
1.124427e+002, 8.858331e+002
1.129248e+002, 8.943857e+002
1.134069e+002, 9.036972e+002
1.138890e+002, 9.143519e+002
1.143712e+002, 9.269462e+002
1.148533e+002, 9.427853e+002
1.153354e+002, 9.593663e+002
1.158175e+002, 9.767454e+002
1.162996e+002, 9.954146e+002
1.167817e+002, 1.011539e+003
1.172639e+002, 1.022789e+003
1.177460e+002, 1.031201e+003
1.182281e+002, 1.039342e+003
1.187102e+002, 1.048732e+003
1.191923e+002, 1.057764e+003
1.196744e+002, 1.064896e+003
1.201566e+002, 1.069431e+003
1.206387e+002, 1.074586e+003
1.211208e+002, 1.081862e+003
1.216029e+002, 1.091114e+003
1.220850e+002, 1.102034e+003
1.225671e+002, 1.113930e+003
1.230493e+002, 1.127607e+003
1.235314e+002, 1.144734e+003
1.240135e+002, 1.167058e+003
1.244956e+002, 1.189161e+003
1.249777e+002, 1.204153e+003
1.254598e+002, 1.213732e+003
1.259420e+002, 1.224125e+003
1.264241e+002, 1.237929e+003
1.269062e+002, 1.255439e+003
1.273883e+002, 1.277330e+003
1.278704e+002, 1.304080e+003
1.283525e+002, 1.334790e+003
1.288347e+002, 1.368041e+003
1.293168e+002, 1.404033e+003
1.297989e+002, 1.443232e+003
1.302810e+002, 1.487530e+003
1.307631e+002, 1.535815e+003
1.312452e+002, 1.585889e+003
1.317274e+002, 1.639652e+003
1.322095e+002, 1.693645e+003
1.326916e+002, 1.740823e+003
1.331737e+002, 1.782182e+003
1.336558e+002, 1.811310e+003
1.341379e+002, 1.823624e+003
1.346201e+002, 1.819154e+003
1.351022e+002, 1.797910e+003
1.355843e+002, 1.755888e+003
1.360664e+002, 1.695683e+003
1.365485e+002, 1.636458e+003
1.370306e+002, 1.576548e+003
1.375128e+002, 1.520971e+003
1.379949e+002, 1.473434e+003
1.384770e+002, 1.433598e+003
1.389591e+002, 1.403055e+003
1.394412e+002, 1.383267e+003
1.399233e+002, 1.374988e+003
1.404055e+002, 1.369410e+003
1.408876e+002, 1.366742e+003
1.413697e+002, 1.366532e+003
1.418518e+002, 1.367730e+003
1.423339e+002, 1.369453e+003
1.428160e+002, 1.374462e+003
1.432982e+002, 1.384090e+003
1.437803e+002, 1.399222e+003
1.442624e+002, 1.415846e+003
1.447445e+002, 1.433527e+003
1.452266e+002, 1.452904e+003
1.457087e+002, 1.474599e+003
1.461909e+002, 1.499735e+003
1.466730e+002, 1.526214e+003
1.471551e+002, 1.553706e+003
1.476372e+002, 1.583397e+003
1.481193e+002, 1.611693e+003
1.486014e+002, 1.638369e+003
1.490836e+002, 1.663617e+003
1.495657e+002, 1.689177e+003
1.500478e+002, 1.714426e+003
1.505299e+002, 1.739921e+003
1.510120e+002, 1.766100e+003
1.514941e+002, 1.793227e+003
1.519763e+002, 1.820361e+003
1.524584e+002, 1.847846e+003
1.529405e+002, 1.875471e+003
1.534226e+002, 1.902820e+003
1.539047e+002, 1.928770e+003
1.543868e+002, 1.955117e+003
1.548690e+002, 1.982834e+003
1.553511e+002, 2.014117e+003
1.558332e+002, 2.044523e+003
1.563153e+002, 2.072623e+003
1.567974e+002, 2.098715e+003
1.572795e+002, 2.125284e+003
1.577617e+002, 2.152200e+003
1.582438e+002, 2.180163e+003
1.587259e+002, 2.209685e+003
1.592080e+002, 2.242004e+003
1.596901e+002, 2.274885e+003
1.601722e+002, 2.308510e+003
1.606544e+002, 2.342751e+003
1.611365e+002, 2.375171e+003
1.616186e+002, 2.406626e+003
1.621007e+002, 2.434958e+003
1.625828e+002, 2.458925e+003
1.630649e+002, 2.482434e+003
1.635471e+002, 2.497482e+003
1.640292e+002, 2.501882e+003
1.645113e+002, 2.495510e+003
1.649934e+002, 2.474947e+003
1.654755e+002, 2.437095e+003
1.659576e+002, 2.384151e+003
1.664398e+002, 2.319541e+003
1.669219e+002, 2.239777e+003
1.674040e+002, 2.151252e+003
1.678861e+002, 2.056184e+003
1.683682e+002, 1.953800e+003
1.688503e+002, 1.853697e+003
1.693325e+002, 1.760506e+003
1.698146e+002, 1.673496e+003
1.702967e+002, 1.592814e+003
1.707788e+002, 1.516334e+003
1.712609e+002, 1.446240e+003
1.717430e+002, 1.386157e+003
1.722252e+002, 1.336365e+003
1.727073e+002, 1.292637e+003
1.731894e+002, 1.251906e+003
1.736715e+002, 1.214412e+003
1.741536e+002, 1.181993e+003
1.746357e+002, 1.156007e+003
1.751179e+002, 1.134612e+003
1.756000e+002, 1.115871e+003
1.760821e+002, 1.099949e+003
1.765642e+002, 1.085905e+003
1.770463e+002, 1.073022e+003
1.775284e+002, 1.061309e+003
1.780106e+002, 1.051001e+003
1.784927e+002, 1.042496e+003
1.789748e+002, 1.035359e+003
1.794569e+002, 1.029185e+003
1.799390e+002, 1.023989e+003
1.804211e+002, 1.019345e+003
1.809033e+002, 1.014572e+003
1.813854e+002, 1.009773e+003
1.818675e+002, 1.005554e+003
1.823496e+002, 1.002361e+003
1.828317e+002, 9.999937e+002
1.833138e+002, 9.978301e+002
1.837960e+002, 9.958468e+002
1.842781e+002, 9.939998e+002
1.847602e+002, 9.923104e+002
1.852423e+002, 9.907461e+002
1.857244e+002, 9.892029e+002
1.862065e+002, 9.872842e+002
1.866887e+002, 9.852460e+002
1.871708e+002, 9.842070e+002
1.876529e+002, 9.845497e+002
1.881350e+002, 9.853531e+002
1.886171e+002, 9.849598e+002
1.890992e+002, 9.833895e+002
1.895814e+002, 9.816661e+002
1.900635e+002, 9.803584e+002
1.905456e+002, 9.794320e+002
1.910277e+002, 9.788662e+002
1.915098e+002, 9.788355e+002
1.919919e+002, 9.788878e+002
1.924741e+002, 9.778361e+002
1.929562e+002, 9.756263e+002
1.934383e+002, 9.736061e+002
1.939204e+002, 9.728231e+002
1.944025e+002, 9.732083e+002
1.948846e+002, 9.736042e+002
1.953668e+002, 9.738821e+002
1.958489e+002, 9.740864e+002
1.963310e+002, 9.742702e+002
1.968131e+002, 9.744084e+002
1.972952e+002, 9.746937e+002
1.977773e+002, 9.752513e+002
1.982595e+002, 9.760811e+002
1.987416e+002, 9.771600e+002
1.992237e+002, 9.785363e+002
1.997058e+002, 9.801150e+002
2.001879e+002, 9.815240e+002
2.006700e+002, 9.826926e+002
2.011522e+002, 9.841124e+002
2.016343e+002, 9.862709e+002
2.021164e+002, 9.892685e+002
2.025985e+002, 9.920590e+002
2.030806e+002, 9.945137e+002
2.035627e+002, 9.966591e+002
2.040449e+002, 9.983719e+002
2.045270e+002, 9.994371e+002
2.050091e+002, 1.000754e+003
2.054912e+002, 1.003055e+003
2.059733e+002, 1.006507e+003
2.064554e+002, 1.009880e+003
2.069376e+002, 1.012951e+003
2.074197e+002, 1.015858e+003
2.079018e+002, 1.019328e+003
2.083839e+002, 1.023565e+003
2.088660e+002, 1.027885e+003
2.093481e+002, 1.031531e+003
2.098303e+002, 1.034127e+003
2.103124e+002, 1.037977e+003
2.107945e+002, 1.043809e+003
2.112766e+002, 1.051005e+003
2.117587e+002, 1.057107e+003
2.122408e+002, 1.061692e+003
2.127230e+002, 1.066120e+003
2.132051e+002, 1.071407e+003
2.136872e+002, 1.077847e+003
2.141693e+002, 1.084113e+003
2.146514e+002, 1.089938e+003
2.151335e+002, 1.095451e+003
2.156157e+002, 1.101004e+003
2.160978e+002, 1.106616e+003
2.165799e+002, 1.112256e+003
2.170620e+002, 1.118019e+003
2.175441e+002, 1.124081e+003
2.180262e+002, 1.129723e+003
2.185084e+002, 1.134794e+003
2.189905e+002, 1.139448e+003
2.194726e+002, 1.144156e+003
2.199547e+002, 1.149002e+003
2.204368e+002, 1.153916e+003
2.209189e+002, 1.158953e+003
2.214011e+002, 1.164613e+003
2.218832e+002, 1.169205e+003
2.223653e+002, 1.172340e+003
2.228474e+002, 1.174326e+003
2.233295e+002, 1.176738e+003
2.238116e+002, 1.179961e+003
2.242938e+002, 1.182939e+003
2.247759e+002, 1.184979e+003
2.252580e+002, 1.185742e+003
2.257401e+002, 1.186354e+003
2.262222e+002, 1.187032e+003
2.267043e+002, 1.187608e+003
2.271865e+002, 1.187340e+003
2.276686e+002, 1.185845e+003
2.281507e+002, 1.184067e+003
2.286328e+002, 1.182678e+003
2.291149e+002, 1.182322e+003
2.295970e+002, 1.180817e+003
2.300792e+002, 1.177730e+003
2.305613e+002, 1.173406e+003
2.310434e+002, 1.169259e+003
2.315255e+002, 1.165384e+003
2.320076e+002, 1.161659e+003
2.324897e+002, 1.158067e+003
2.329719e+002, 1.154605e+003
2.334540e+002, 1.151369e+003
2.339361e+002, 1.148473e+003
2.344182e+002, 1.145802e+003
2.349003e+002, 1.142757e+003
2.353824e+002, 1.138610e+003
2.358646e+002, 1.135134e+003
2.363467e+002, 1.133478e+003
2.368288e+002, 1.135214e+003
2.373109e+002, 1.135185e+003
2.377930e+002, 1.132759e+003
2.382751e+002, 1.128529e+003
2.387573e+002, 1.124422e+003
2.392394e+002, 1.120816e+003
2.397215e+002, 1.116730e+003
2.402036e+002, 1.111583e+003
2.406857e+002, 1.104742e+003
2.411678e+002, 1.098306e+003
2.416500e+002, 1.092850e+003
2.421321e+002, 1.087659e+003
2.426142e+002, 1.080699e+003
2.430963e+002, 1.071254e+003
2.435784e+002, 1.061123e+003
2.440605e+002, 1.051070e+003
2.445427e+002, 1.040929e+003
2.450248e+002, 1.031180e+003
2.455069e+002, 1.021949e+003
2.459890e+002, 1.013040e+003
2.464711e+002, 1.004153e+003
2.469532e+002, 9.950832e+002
2.474354e+002, 9.862661e+002
2.479175e+002, 9.779478e+002
2.483996e+002, 9.701086e+002
2.488817e+002, 9.627174e+002
2.493638e+002, 9.557761e+002
2.498459e+002, 9.493027e+002
2.503281e+002, 9.433180e+002
2.508102e+002, 9.377810e+002
2.512923e+002, 9.328213e+002
2.517744e+002, 9.285439e+002
2.522565e+002, 9.252047e+002
2.527386e+002, 9.215988e+002
2.532208e+002, 9.173430e+002
2.537029e+002, 9.131080e+002
2.541850e+002, 9.100969e+002
2.546671e+002, 9.093331e+002
2.551492e+002, 9.077203e+002
2.556313e+002, 9.038940e+002
2.561135e+002, 8.972929e+002
2.565956e+002, 8.923684e+002
2.570777e+002, 8.898333e+002
2.575598e+002, 8.883107e+002
2.580419e+002, 8.858959e+002
2.585240e+002, 8.820801e+002
2.590062e+002, 8.785548e+002
2.594883e+002, 8.758436e+002
2.599704e+002, 8.740530e+002
2.604525e+002, 8.721443e+002
2.609346e+002, 8.702634e+002
2.614167e+002, 8.681202e+002
2.618989e+002, 8.652061e+002
2.623810e+002, 8.610678e+002
2.628631e+002, 8.575001e+002
2.633452e+002, 8.551520e+002
2.638273e+002, 8.539991e+002
2.643094e+002, 8.523627e+002
2.647916e+002, 8.500339e+002
2.652737e+002, 8.475586e+002
2.657558e+002, 8.454603e+002
2.662379e+002, 8.438896e+002
2.667200e+002, 8.423072e+002
2.672021e+002, 8.407186e+002
2.676843e+002, 8.390687e+002
2.681664e+002, 8.365495e+002
2.686485e+002, 8.326744e+002
2.691306e+002, 8.289313e+002
2.696127e+002, 8.268167e+002
2.700948e+002, 8.267555e+002
2.705770e+002, 8.263840e+002
2.710591e+002, 8.253018e+002
2.715412e+002, 8.236038e+002
2.720233e+002, 8.216488e+002
2.725054e+002, 8.193439e+002
2.729875e+002, 8.170812e+002
2.734697e+002, 8.151616e+002
2.739518e+002, 8.135981e+002
2.744339e+002, 8.121978e+002
2.749160e+002, 8.110557e+002
2.753981e+002, 8.100023e+002
2.758802e+002, 8.083593e+002
2.763624e+002, 8.059877e+002
2.768445e+002, 8.036983e+002
2.773266e+002, 8.021408e+002
2.778087e+002, 8.013895e+002
2.782908e+002, 8.003438e+002
2.787729e+002, 7.989276e+002
2.792551e+002, 7.971715e+002
2.797372e+002, 7.949783e+002
2.802193e+002, 7.922243e+002
2.807014e+002, 7.898260e+002
2.811835e+002, 7.885691e+002
2.816656e+002, 7.884279e+002
2.821478e+002, 7.874105e+002
2.826299e+002, 7.852133e+002
2.831120e+002, 7.825685e+002
2.835941e+002, 7.807296e+002
2.840762e+002, 7.797230e+002
2.845583e+002, 7.788684e+002
2.850405e+002, 7.779261e+002
2.855226e+002, 7.768870e+002
2.860047e+002, 7.756473e+002
2.864868e+002, 7.741824e+002
2.869689e+002, 7.725914e+002
2.874510e+002, 7.707133e+002
2.879332e+002, 7.685947e+002
2.884153e+002, 7.672620e+002
2.888974e+002, 7.678435e+002
2.893795e+002, 7.695799e+002
2.898616e+002, 7.693048e+002
2.903438e+002, 7.668019e+002
2.908259e+002, 7.637704e+002
2.913080e+002, 7.620623e+002
2.917901e+002, 7.615106e+002
2.922722e+002, 7.610392e+002
2.927543e+002, 7.603977e+002
2.932365e+002, 7.595718e+002
2.937186e+002, 7.584648e+002
2.942007e+002, 7.570826e+002
2.946828e+002, 7.556444e+002
2.951649e+002, 7.543894e+002
2.956470e+002, 7.532563e+002
2.961292e+002, 7.519318e+002
2.966113e+002, 7.501022e+002
2.970934e+002, 7.483267e+002
2.975755e+002, 7.478615e+002
2.980576e+002, 7.485639e+002
2.985397e+002, 7.489290e+002
2.990219e+002, 7.471490e+002
2.995040e+002, 7.442750e+002
2.999861e+002, 7.427245e+002
3.004682e+002, 7.433385e+002
3.009503e+002, 7.446636e+002
3.014324e+002, 7.450312e+002
3.019146e+002, 7.446077e+002
3.023967e+002, 7.440889e+002
3.028788e+002, 7.438353e+002
3.033609e+002, 7.437800e+002
3.038430e+002, 7.438878e+002
3.043251e+002, 7.442151e+002
3.048073e+002, 7.444686e+002
3.052894e+002, 7.442569e+002
3.057715e+002, 7.437418e+002
3.062536e+002, 7.433179e+002
3.067357e+002, 7.429242e+002
3.072178e+002, 7.428445e+002
3.077000e+002, 7.437114e+002
3.081821e+002, 7.457048e+002
3.086642e+002, 7.472106e+002
3.091463e+002, 7.463426e+002
3.096284e+002, 7.443076e+002
3.101105e+002, 7.429802e+002
3.105927e+002, 7.440414e+002
3.110748e+002, 7.454622e+002
3.115569e+002, 7.456797e+002
3.120390e+002, 7.446663e+002
3.125211e+002, 7.437058e+002
3.130032e+002, 7.436876e+002
3.134854e+002, 7.440458e+002
3.139675e+002, 7.441797e+002
3.144496e+002, 7.436682e+002
3.149317e+002, 7.431072e+002
3.154138e+002, 7.426789e+002
3.158959e+002, 7.424158e+002
3.163781e+002, 7.424520e+002
3.168602e+002, 7.434932e+002
3.173423e+002, 7.444970e+002
3.178244e+002, 7.446320e+002
3.183065e+002, 7.428857e+002
3.187886e+002, 7.414439e+002
3.192708e+002, 7.411469e+002
3.197529e+002, 7.417220e+002
3.202350e+002, 7.424078e+002
3.207171e+002, 7.433566e+002
3.211992e+002, 7.440573e+002
3.216813e+002, 7.441918e+002
3.221635e+002, 7.434451e+002
3.226456e+002, 7.427317e+002
3.231277e+002, 7.420350e+002
3.236098e+002, 7.414958e+002
3.240919e+002, 7.413542e+002
3.245740e+002, 7.421306e+002
3.250562e+002, 7.428609e+002
3.255383e+002, 7.432406e+002
3.260204e+002, 7.431896e+002
3.265025e+002, 7.430662e+002
3.269846e+002, 7.428300e+002
3.274667e+002, 7.425699e+002
3.279489e+002, 7.423784e+002
3.284310e+002, 7.423499e+002
3.289131e+002, 7.423111e+002
3.293952e+002, 7.423077e+002
3.298773e+002, 7.423533e+002
3.303594e+002, 7.421078e+002
3.308416e+002, 7.410805e+002
3.313237e+002, 7.401865e+002
3.318058e+002, 7.401688e+002
3.322879e+002, 7.420716e+002
3.327700e+002, 7.430076e+002
3.332521e+002, 7.422037e+002
3.337343e+002, 7.401612e+002
3.342164e+002, 7.394047e+002
3.346985e+002, 7.405536e+002
3.351806e+002, 7.420154e+002
3.356627e+002, 7.429882e+002
3.361448e+002, 7.433832e+002
3.366270e+002, 7.434304e+002
3.371091e+002, 7.428326e+002
3.375912e+002, 7.421162e+002
3.380733e+002, 7.426813e+002
3.385554e+002, 7.451561e+002
3.390375e+002, 7.468588e+002
3.395197e+002, 7.462958e+002
3.400018e+002, 7.432910e+002
3.404839e+002, 7.414723e+002
3.409660e+002, 7.410162e+002
3.414481e+002, 7.414301e+002
3.419302e+002, 7.424287e+002
3.424124e+002, 7.441063e+002
3.428945e+002, 7.451066e+002
3.433766e+002, 7.447855e+002
3.438587e+002, 7.434742e+002
3.443408e+002, 7.426700e+002
3.448229e+002, 7.424094e+002
3.453051e+002, 7.424315e+002
3.457872e+002, 7.424980e+002
3.462693e+002, 7.426299e+002
3.467514e+002, 7.430374e+002
3.472335e+002, 7.439083e+002
3.477156e+002, 7.448948e+002
3.481978e+002, 7.452296e+002
3.486799e+002, 7.449612e+002
3.491620e+002, 7.446230e+002
3.496441e+002, 7.447194e+002
3.501262e+002, 7.450128e+002
3.506083e+002, 7.448176e+002
3.510905e+002, 7.439230e+002
3.515726e+002, 7.430195e+002
3.520547e+002, 7.428850e+002
3.525368e+002, 7.433970e+002
3.530189e+002, 7.441852e+002
3.535010e+002, 7.453947e+002
3.539832e+002, 7.466166e+002
3.544653e+002, 7.473542e+002
3.549474e+002, 7.475844e+002
3.554295e+002, 7.474838e+002
3.559116e+002, 7.467126e+002
3.563937e+002, 7.457930e+002
3.568759e+002, 7.455228e+002
3.573580e+002, 7.469944e+002
3.578401e+002, 7.485364e+002
3.583222e+002, 7.488047e+002
3.588043e+002, 7.480062e+002
3.592864e+002, 7.473568e+002
3.597686e+002, 7.475268e+002
3.602507e+002, 7.481139e+002
3.607328e+002, 7.487893e+002
3.612149e+002, 7.495432e+002
3.616970e+002, 7.502675e+002
3.621791e+002, 7.512701e+002
3.626613e+002, 7.522123e+002
3.631434e+002, 7.523229e+002
3.636255e+002, 7.500020e+002
3.641076e+002, 7.478624e+002
3.645897e+002, 7.473116e+002
3.650718e+002, 7.490640e+002
3.655540e+002, 7.504717e+002
3.660361e+002, 7.508870e+002
3.665182e+002, 7.507763e+002
3.670003e+002, 7.507005e+002
3.674824e+002, 7.510746e+002
3.679645e+002, 7.511426e+002
3.684467e+002, 7.505980e+002
3.689288e+002, 7.494210e+002
3.694109e+002, 7.485214e+002
3.698930e+002, 7.479965e+002
3.703751e+002, 7.476986e+002
3.708572e+002, 7.475507e+002
3.713394e+002, 7.477215e+002
3.718215e+002, 7.477685e+002
3.723036e+002, 7.475438e+002
3.727857e+002, 7.471752e+002
3.732678e+002, 7.471364e+002
3.737499e+002, 7.475463e+002
3.742321e+002, 7.480527e+002
3.747142e+002, 7.484248e+002
3.751963e+002, 7.485222e+002
3.756784e+002, 7.492072e+002
3.761605e+002, 7.508878e+002
3.766426e+002, 7.526088e+002
3.771248e+002, 7.524153e+002
3.776069e+002, 7.498197e+002
3.780890e+002, 7.482745e+002
3.785711e+002, 7.494420e+002
3.790532e+002, 7.528097e+002
3.795353e+002, 7.544159e+002
3.800175e+002, 7.540553e+002
3.804996e+002, 7.530459e+002
3.809817e+002, 7.525125e+002
3.814638e+002, 7.524225e+002
3.819459e+002, 7.524841e+002
3.824280e+002, 7.526225e+002
3.829102e+002, 7.528997e+002
3.833923e+002, 7.536104e+002
3.838744e+002, 7.546936e+002
3.843565e+002, 7.555180e+002
3.848386e+002, 7.553241e+002
3.853207e+002, 7.546296e+002
3.858029e+002, 7.546378e+002
3.862850e+002, 7.555898e+002
3.867671e+002, 7.565710e+002
3.872492e+002, 7.563998e+002
3.877313e+002, 7.555318e+002
3.882134e+002, 7.550084e+002
3.886956e+002, 7.557599e+002
3.891777e+002, 7.567819e+002
3.896598e+002, 7.570284e+002
3.901419e+002, 7.565439e+002
3.906240e+002, 7.562432e+002
3.911061e+002, 7.571742e+002
3.915883e+002, 7.583860e+002
3.920704e+002, 7.588232e+002
3.925525e+002, 7.574606e+002
3.930346e+002, 7.563123e+002
3.935167e+002, 7.565646e+002
3.939988e+002, 7.577806e+002
3.944810e+002, 7.587224e+002
3.949631e+002, 7.587859e+002
3.954452e+002, 7.586047e+002
3.959273e+002, 7.584729e+002
3.964094e+002, 7.584263e+002
3.968915e+002, 7.584160e+002
3.973737e+002, 7.582618e+002
3.978558e+002, 7.581842e+002
3.983379e+002, 7.584552e+002
3.988200e+002, 7.595330e+002
3.993021e+002, 7.604789e+002
3.997842e+002, 7.609950e+002
4.002664e+002, 7.610754e+002
4.007485e+002, 7.614594e+002
4.012306e+002, 7.622191e+002
4.017127e+002, 7.631865e+002
4.021948e+002, 7.643498e+002
4.026769e+002, 7.661823e+002
4.031591e+002, 7.671055e+002
4.036412e+002, 7.666785e+002
4.041233e+002, 7.654446e+002
4.046054e+002, 7.647490e+002
4.050875e+002, 7.647238e+002
4.055696e+002, 7.648834e+002
4.060518e+002, 7.651619e+002
4.065339e+002, 7.655825e+002
4.070160e+002, 7.654099e+002
4.074981e+002, 7.644763e+002
4.079802e+002, 7.634705e+002
4.084623e+002, 7.632121e+002
4.089445e+002, 7.637007e+002
4.094266e+002, 7.644706e+002
4.099087e+002, 7.656110e+002
4.103908e+002, 7.668035e+002
4.108729e+002, 7.670891e+002
4.113550e+002, 7.665041e+002
4.118372e+002, 7.659534e+002
4.123193e+002, 7.661911e+002
4.128014e+002, 7.669343e+002
4.132835e+002, 7.674934e+002
4.137656e+002, 7.677398e+002
4.142477e+002, 7.679414e+002
4.147299e+002, 7.682958e+002
4.152120e+002, 7.688105e+002
4.156941e+002, 7.695049e+002
4.161762e+002, 7.704987e+002
4.166583e+002, 7.715842e+002
4.171404e+002, 7.726804e+002
4.176226e+002, 7.737652e+002
4.181047e+002, 7.745165e+002
4.185868e+002, 7.742059e+002
4.190689e+002, 7.737167e+002
4.195510e+002, 7.738948e+002
4.200331e+002, 7.751339e+002
4.205153e+002, 7.768453e+002
4.209974e+002, 7.798172e+002
4.214795e+002, 7.831790e+002
4.219616e+002, 7.845785e+002
4.224437e+002, 7.813634e+002
4.229258e+002, 7.778589e+002
4.234080e+002, 7.760014e+002
4.238901e+002, 7.764590e+002
4.243722e+002, 7.766042e+002
4.248543e+002, 7.756716e+002
4.253364e+002, 7.746348e+002
4.258185e+002, 7.744729e+002
4.263007e+002, 7.759434e+002
4.267828e+002, 7.772023e+002
4.272649e+002, 7.779728e+002
4.277470e+002, 7.783076e+002
4.282291e+002, 7.785710e+002
4.287112e+002, 7.787937e+002
4.291934e+002, 7.788701e+002
4.296755e+002, 7.787141e+002
4.301576e+002, 7.782790e+002
4.306397e+002, 7.777864e+002
4.311218e+002, 7.771993e+002
4.316039e+002, 7.766121e+002
4.320861e+002, 7.760469e+002
4.325682e+002, 7.754756e+002
4.330503e+002, 7.754514e+002
4.335324e+002, 7.764591e+002
4.340145e+002, 7.781091e+002
4.344966e+002, 7.790452e+002
4.349788e+002, 7.792647e+002
4.354609e+002, 7.790821e+002
4.359430e+002, 7.784456e+002
4.364251e+002, 7.776067e+002
4.369072e+002, 7.772896e+002
4.373893e+002, 7.777059e+002
4.378715e+002, 7.784684e+002
4.383536e+002, 7.792645e+002
4.388357e+002, 7.800645e+002
4.393178e+002, 7.807845e+002
4.397999e+002, 7.809129e+002
4.402820e+002, 7.812262e+002
4.407642e+002, 7.829441e+002
4.412463e+002, 7.861387e+002
4.417284e+002, 7.883172e+002
4.422105e+002, 7.872692e+002
4.426926e+002, 7.849384e+002
4.431747e+002, 7.831934e+002
4.436569e+002, 7.829117e+002
4.441390e+002, 7.828078e+002
4.446211e+002, 7.823375e+002
4.451032e+002, 7.817231e+002
4.455853e+002, 7.816277e+002
4.460674e+002, 7.828879e+002
4.465496e+002, 7.840717e+002
4.470317e+002, 7.845811e+002
4.475138e+002, 7.841278e+002
4.479959e+002, 7.839604e+002
4.484780e+002, 7.843398e+002
4.489601e+002, 7.848582e+002
4.494423e+002, 7.850521e+002
4.499244e+002, 7.844923e+002
4.504065e+002, 7.846125e+002
4.508886e+002, 7.860670e+002
4.513707e+002, 7.883333e+002
4.518528e+002, 7.890339e+002
4.523350e+002, 7.876837e+002
4.528171e+002, 7.862067e+002
4.532992e+002, 7.854979e+002
4.537813e+002, 7.855505e+002
4.542634e+002, 7.864013e+002
4.547455e+002, 7.882581e+002
4.552277e+002, 7.902020e+002
4.557098e+002, 7.908326e+002
4.561919e+002, 7.903474e+002
4.566740e+002, 7.902368e+002
4.571561e+002, 7.912793e+002
4.576382e+002, 7.927256e+002
4.581204e+002, 7.930592e+002
4.586025e+002, 7.924438e+002
4.590846e+002, 7.920182e+002
4.595667e+002, 7.929203e+002
4.600488e+002, 7.943376e+002
4.605309e+002, 7.951545e+002
4.610131e+002, 7.951145e+002
4.614952e+002, 7.949691e+002
4.619773e+002, 7.951673e+002
4.624594e+002, 7.956112e+002
4.629415e+002, 7.961609e+002
4.634236e+002, 7.968772e+002
4.639058e+002, 7.975724e+002
4.643879e+002, 7.982602e+002
4.648700e+002, 7.988976e+002
4.653521e+002, 7.992366e+002
4.658342e+002, 7.985806e+002
4.663163e+002, 7.980690e+002
4.667985e+002, 7.984075e+002
4.672806e+002, 8.004772e+002
4.677627e+002, 8.018506e+002
4.682448e+002, 8.020035e+002
4.687269e+002, 8.016324e+002
4.692090e+002, 8.017590e+002
4.696912e+002, 8.027953e+002
4.701733e+002, 8.035577e+002
4.706554e+002, 8.036379e+002
4.711375e+002, 8.031426e+002
4.716196e+002, 8.032093e+002
4.721017e+002, 8.040490e+002
4.725839e+002, 8.048511e+002
4.730660e+002, 8.049954e+002
4.735481e+002, 8.044745e+002
4.740302e+002, 8.040485e+002
4.745123e+002, 8.037358e+002
4.749944e+002, 8.036643e+002
4.754766e+002, 8.042838e+002
4.759587e+002, 8.054562e+002
4.764408e+002, 8.062314e+002
4.769229e+002, 8.058741e+002
4.774050e+002, 8.051196e+002
4.778871e+002, 8.050700e+002
4.783693e+002, 8.057180e+002
4.788514e+002, 8.069393e+002
4.793335e+002, 8.089217e+002
4.798156e+002, 8.113237e+002
4.802977e+002, 8.137149e+002
4.807798e+002, 8.159764e+002
4.812620e+002, 8.183240e+002
4.817441e+002, 8.207484e+002
4.822262e+002, 8.233495e+002
4.827083e+002, 8.262773e+002
4.831904e+002, 8.291223e+002
4.836725e+002, 8.327381e+002
4.841547e+002, 8.398149e+002
4.846368e+002, 8.496033e+002
4.851189e+002, 8.527139e+002
4.856010e+002, 8.409671e+002
4.860831e+002, 8.275257e+002
4.865652e+002, 8.190499e+002
4.870474e+002, 8.174344e+002
4.875295e+002, 8.167035e+002
4.880116e+002, 8.173000e+002
4.884937e+002, 8.184598e+002
4.889758e+002, 8.191071e+002
4.894579e+002, 8.190882e+002
4.899401e+002, 8.190231e+002
4.904222e+002, 8.190328e+002
4.909043e+002, 8.191158e+002
4.913864e+002, 8.193399e+002
4.918685e+002, 8.197501e+002
4.923506e+002, 8.199938e+002
4.928328e+002, 8.195922e+002
4.933149e+002, 8.187624e+002
4.937970e+002, 8.186062e+002
4.942791e+002, 8.193117e+002
4.947612e+002, 8.201791e+002
4.952433e+002, 8.203287e+002
4.957255e+002, 8.200187e+002
4.962076e+002, 8.199176e+002
4.966897e+002, 8.205161e+002
4.971718e+002, 8.211998e+002
4.976539e+002, 8.212281e+002
4.981360e+002, 8.207874e+002
4.986182e+002, 8.205895e+002
4.991003e+002, 8.213069e+002
4.995824e+002, 8.221995e+002
5.000645e+002, 8.226390e+002
5.005466e+002, 8.223849e+002
5.010287e+002, 8.224757e+002
5.015109e+002, 8.235258e+002
5.019930e+002, 8.249163e+002
5.024751e+002, 8.260176e+002
5.029572e+002, 8.266048e+002
5.034393e+002, 8.270590e+002
5.039214e+002, 8.275234e+002
5.044036e+002, 8.278861e+002
5.048857e+002, 8.276805e+002
5.053678e+002, 8.263998e+002
5.058499e+002, 8.254312e+002
5.063320e+002, 8.254216e+002
5.068141e+002, 8.264463e+002
5.072963e+002, 8.274440e+002
5.077784e+002, 8.285297e+002
5.082605e+002, 8.293183e+002
5.087426e+002, 8.290488e+002
5.092247e+002, 8.278404e+002
5.097068e+002, 8.275934e+002
5.101890e+002, 8.288328e+002
5.106711e+002, 8.308467e+002
5.111532e+002, 8.328150e+002
5.116353e+002, 8.346234e+002
5.121174e+002, 8.357072e+002
5.125995e+002, 8.352637e+002
5.130817e+002, 8.342185e+002
5.135638e+002, 8.335385e+002
5.140459e+002, 8.332574e+002
5.145280e+002, 8.334295e+002
5.150101e+002, 8.343855e+002
5.154922e+002, 8.356686e+002
5.159744e+002, 8.369081e+002
5.164565e+002, 8.382888e+002
5.169386e+002, 8.391342e+002
5.174207e+002, 8.388220e+002
5.179028e+002, 8.379229e+002
5.183849e+002, 8.373690e+002
5.188671e+002, 8.375078e+002
5.193492e+002, 8.377982e+002
5.198313e+002, 8.381021e+002
5.203134e+002, 8.384254e+002
5.207955e+002, 8.389743e+002
5.212776e+002, 8.399498e+002
5.217598e+002, 8.408394e+002
5.222419e+002, 8.413359e+002
5.227240e+002, 8.413851e+002
5.232061e+002, 8.412643e+002
5.236882e+002, 8.408926e+002
5.241703e+002, 8.405206e+002
5.246525e+002, 8.402903e+002
5.251346e+002, 8.402371e+002
5.256167e+002, 8.411102e+002
5.260988e+002, 8.436884e+002
5.265809e+002, 8.466355e+002
5.270630e+002, 8.471896e+002
5.275452e+002, 8.456998e+002
5.280273e+002, 8.441646e+002
5.285094e+002, 8.437454e+002
5.289915e+002, 8.439391e+002
5.294736e+002, 8.442164e+002
5.299557e+002, 8.445388e+002
5.304379e+002, 8.449273e+002
5.309200e+002, 8.453605e+002
5.314021e+002, 8.458736e+002
5.318842e+002, 8.465072e+002
5.323663e+002, 8.473489e+002
5.328484e+002, 8.481723e+002
5.333306e+002, 8.489152e+002
5.338127e+002, 8.495891e+002
5.342948e+002, 8.502071e+002
5.347769e+002, 8.509217e+002
5.352590e+002, 8.514144e+002
5.357411e+002, 8.515798e+002
5.362233e+002, 8.514329e+002
5.367054e+002, 8.512175e+002
5.371875e+002, 8.508082e+002
5.376696e+002, 8.506104e+002
5.381517e+002, 8.509678e+002
5.386339e+002, 8.519310e+002
5.391160e+002, 8.528801e+002
5.395981e+002, 8.538299e+002
5.400802e+002, 8.546381e+002
5.405623e+002, 8.550837e+002
5.410444e+002, 8.552103e+002
5.415266e+002, 8.552781e+002
5.420087e+002, 8.553552e+002
5.424908e+002, 8.554172e+002
5.429729e+002, 8.552032e+002
5.434550e+002, 8.548669e+002
5.439371e+002, 8.550269e+002
5.444193e+002, 8.566853e+002
5.449014e+002, 8.585474e+002
5.453835e+002, 8.593602e+002
5.458656e+002, 8.589550e+002
5.463477e+002, 8.587793e+002
5.468298e+002, 8.598134e+002
5.473120e+002, 8.611077e+002
5.477941e+002, 8.618594e+002
5.482762e+002, 8.611288e+002
5.487583e+002, 8.609693e+002
5.492404e+002, 8.619509e+002
5.497225e+002, 8.634589e+002
5.502047e+002, 8.644655e+002
5.506868e+002, 8.648398e+002
5.511689e+002, 8.649668e+002
5.516510e+002, 8.649728e+002
5.521331e+002, 8.648240e+002
5.526152e+002, 8.641364e+002
5.530974e+002, 8.627868e+002
5.535795e+002, 8.615673e+002
5.540616e+002, 8.611614e+002
5.545437e+002, 8.614159e+002
5.550258e+002, 8.612568e+002
5.555079e+002, 8.605556e+002
5.559901e+002, 8.600465e+002
5.564722e+002, 8.607166e+002
5.569543e+002, 8.621282e+002
5.574364e+002, 8.633609e+002
5.579185e+002, 8.640925e+002
5.584006e+002, 8.646507e+002
5.588828e+002, 8.652510e+002
5.593649e+002, 8.658655e+002
5.598470e+002, 8.664558e+002
5.603291e+002, 8.669359e+002
5.608112e+002, 8.674111e+002
5.612933e+002, 8.681416e+002
5.617755e+002, 8.691211e+002
5.622576e+002, 8.692933e+002
5.627397e+002, 8.673182e+002
5.632218e+002, 8.654494e+002
5.637039e+002, 8.648633e+002
5.641860e+002, 8.662543e+002
5.646682e+002, 8.671070e+002
5.651503e+002, 8.672152e+002
5.656324e+002, 8.670786e+002
5.661145e+002, 8.675024e+002
5.665966e+002, 8.686317e+002
5.670787e+002, 8.690081e+002
5.675609e+002, 8.679998e+002
5.680430e+002, 8.665056e+002
5.685251e+002, 8.667875e+002
5.690072e+002, 8.686204e+002
5.694893e+002, 8.701191e+002
5.699714e+002, 8.699932e+002
5.704536e+002, 8.690504e+002
5.709357e+002, 8.681982e+002
5.714178e+002, 8.674916e+002
5.718999e+002, 8.673514e+002
5.723820e+002, 8.686768e+002
5.728641e+002, 8.703278e+002
5.733463e+002, 8.712449e+002
5.738284e+002, 8.710233e+002
5.743105e+002, 8.706515e+002
5.747926e+002, 8.702339e+002
5.752747e+002, 8.698856e+002
5.757568e+002, 8.697582e+002
5.762390e+002, 8.700697e+002
5.767211e+002, 8.702858e+002
5.772032e+002, 8.700909e+002
5.776853e+002, 8.697781e+002
5.781674e+002, 8.705525e+002
5.786495e+002, 8.729257e+002
5.791317e+002, 8.748922e+002
5.796138e+002, 8.755109e+002
5.800959e+002, 8.749437e+002
5.805780e+002, 8.744011e+002
5.810601e+002, 8.738626e+002
5.815422e+002, 8.735753e+002
5.820244e+002, 8.740411e+002
5.825065e+002, 8.749010e+002
5.829886e+002, 8.751113e+002
5.834707e+002, 8.744092e+002
5.839528e+002, 8.737832e+002
5.844349e+002, 8.740779e+002
5.849171e+002, 8.750302e+002
5.853992e+002, 8.762623e+002
5.858813e+002, 8.785384e+002
5.863634e+002, 8.800886e+002
5.868455e+002, 8.795861e+002
5.873276e+002, 8.777344e+002
5.878098e+002, 8.764758e+002
5.882919e+002, 8.767291e+002
5.887740e+002, 8.770504e+002
5.892561e+002, 8.768658e+002
5.897382e+002, 8.761514e+002
5.902203e+002, 8.762132e+002
5.907025e+002, 8.773959e+002
5.911846e+002, 8.787269e+002
5.916667e+002, 8.795937e+002
5.921488e+002, 8.799769e+002
5.926309e+002, 8.802411e+002
5.931130e+002, 8.804106e+002
5.935952e+002, 8.804588e+002
5.940773e+002, 8.803185e+002
5.945594e+002, 8.800293e+002
5.950415e+002, 8.797164e+002
5.955236e+002, 8.793859e+002
5.960057e+002, 8.791135e+002
5.964879e+002, 8.789495e+002
5.969700e+002, 8.789119e+002
5.974521e+002, 8.790416e+002
5.979342e+002, 8.795032e+002
5.984163e+002, 8.800088e+002
5.988984e+002, 8.803331e+002
5.993806e+002, 8.805092e+002
5.998627e+002, 8.808740e+002
6.003448e+002, 8.818801e+002
6.008269e+002, 8.827574e+002
6.013090e+002, 8.831083e+002
6.017911e+002, 8.827664e+002
6.022733e+002, 8.825093e+002
6.027554e+002, 8.823000e+002
6.032375e+002, 8.822234e+002
6.037196e+002, 8.823433e+002
6.042017e+002, 8.826580e+002
6.046838e+002, 8.832872e+002
6.051660e+002, 8.843497e+002
6.056481e+002, 8.855124e+002
6.061302e+002, 8.860769e+002
6.066123e+002, 8.862045e+002
6.070944e+002, 8.866641e+002
6.075765e+002, 8.881123e+002
6.080587e+002, 8.896589e+002
6.085408e+002, 8.902324e+002
6.090229e+002, 8.900062e+002
6.095050e+002, 8.896324e+002
6.099871e+002, 8.892248e+002
6.104692e+002, 8.889398e+002
6.109514e+002, 8.889844e+002
6.114335e+002, 8.893928e+002
6.119156e+002, 8.895026e+002
6.123977e+002, 8.882197e+002
6.128798e+002, 8.873406e+002
6.133619e+002, 8.881100e+002
6.138441e+002, 8.920185e+002
6.143262e+002, 8.938353e+002
6.148083e+002, 8.926852e+002
6.152904e+002, 8.906697e+002
6.157725e+002, 8.906881e+002
6.162546e+002, 8.929055e+002
6.167368e+002, 8.943940e+002
6.172189e+002, 8.945209e+002
6.177010e+002, 8.938138e+002
6.181831e+002, 8.928380e+002
6.186652e+002, 8.917612e+002
6.191473e+002, 8.912663e+002
6.196295e+002, 8.924904e+002
6.201116e+002, 8.939161e+002
6.205937e+002, 8.936584e+002
6.210758e+002, 8.920725e+002
6.215579e+002, 8.909434e+002
6.220400e+002, 8.917600e+002
6.225222e+002, 8.928199e+002
6.230043e+002, 8.929123e+002
6.234864e+002, 8.915790e+002
6.239685e+002, 8.913185e+002
6.244506e+002, 8.933088e+002
6.249327e+002, 8.956534e+002
6.254149e+002, 8.970764e+002
6.258970e+002, 8.971570e+002
6.263791e+002, 8.975811e+002
6.268612e+002, 8.985417e+002
6.273433e+002, 8.996237e+002
6.278254e+002, 9.003109e+002
6.283076e+002, 9.006038e+002
6.287897e+002, 9.004828e+002
6.292718e+002, 8.998250e+002
6.297539e+002, 8.989456e+002
6.302360e+002, 8.981241e+002
6.307181e+002, 8.974714e+002
6.312003e+002, 8.973533e+002
6.316824e+002, 8.985225e+002
6.321645e+002, 8.998588e+002
6.326466e+002, 9.002422e+002
6.331287e+002, 8.998718e+002
6.336108e+002, 9.000853e+002
6.340930e+002, 9.020081e+002
6.345751e+002, 9.040801e+002
6.350572e+002, 9.056473e+002
6.355393e+002, 9.067734e+002
6.360214e+002, 9.067947e+002
6.365035e+002, 9.047059e+002
6.369857e+002, 9.027291e+002
6.374678e+002, 9.028251e+002
6.379499e+002, 9.053830e+002
6.384320e+002, 9.071400e+002
6.389141e+002, 9.078021e+002
6.393962e+002, 9.078534e+002
6.398784e+002, 9.074582e+002
6.403605e+002, 9.068823e+002
6.408426e+002, 9.074412e+002
6.413247e+002, 9.100919e+002
6.418068e+002, 9.129296e+002
6.422889e+002, 9.139708e+002
6.427711e+002, 9.136225e+002
6.432532e+002, 9.128289e+002
6.437353e+002, 9.112931e+002
6.442174e+002, 9.100994e+002
6.446995e+002, 9.099440e+002
6.451816e+002, 9.106917e+002
6.456638e+002, 9.113364e+002
6.461459e+002, 9.114855e+002
6.466280e+002, 9.117572e+002
6.471101e+002, 9.124218e+002
6.475922e+002, 9.135032e+002
6.480743e+002, 9.144230e+002
6.485565e+002, 9.152441e+002
6.490386e+002, 9.156876e+002
6.495207e+002, 9.151806e+002
6.500028e+002, 9.138978e+002
6.504849e+002, 9.135449e+002
6.509670e+002, 9.143115e+002
6.514492e+002, 9.154775e+002
6.519313e+002, 9.166176e+002
6.524134e+002, 9.175430e+002
6.528955e+002, 9.177772e+002
6.533776e+002, 9.168278e+002
6.538597e+002, 9.160434e+002
6.543419e+002, 9.165672e+002
6.548240e+002, 9.177452e+002
6.553061e+002, 9.185656e+002
6.557882e+002, 9.181347e+002
6.562703e+002, 9.180734e+002
6.567524e+002, 9.193180e+002
6.572346e+002, 9.212181e+002
6.577167e+002, 9.216654e+002
6.581988e+002, 9.199296e+002
6.586809e+002, 9.184211e+002
6.591630e+002, 9.179521e+002
6.596451e+002, 9.183863e+002
6.601273e+002, 9.190569e+002
6.606094e+002, 9.199817e+002
6.610915e+002, 9.207753e+002
6.615736e+002, 9.207853e+002
6.620557e+002, 9.205833e+002
6.625378e+002, 9.216014e+002
6.630200e+002, 9.238914e+002
6.635021e+002, 9.258712e+002
6.639842e+002, 9.259232e+002
6.644663e+002, 9.254145e+002
6.649484e+002, 9.257069e+002
6.654305e+002, 9.273942e+002
6.659127e+002, 9.288284e+002
6.663948e+002, 9.298506e+002
6.668769e+002, 9.303029e+002
6.673590e+002, 9.299504e+002
6.678411e+002, 9.279021e+002
6.683232e+002, 9.269799e+002
6.688054e+002, 9.276143e+002
6.692875e+002, 9.292356e+002
6.697696e+002, 9.313338e+002
6.702517e+002, 9.339417e+002
6.707338e+002, 9.349659e+002
6.712159e+002, 9.330292e+002
6.716981e+002, 9.301584e+002
6.721802e+002, 9.303113e+002
6.726623e+002, 9.327054e+002
6.731444e+002, 9.345466e+002
6.736265e+002, 9.338072e+002
6.741086e+002, 9.324226e+002
6.745908e+002, 9.317141e+002
6.750729e+002, 9.316464e+002
6.755550e+002, 9.316746e+002
6.760371e+002, 9.315805e+002
6.765192e+002, 9.316154e+002
6.770013e+002, 9.320016e+002
6.774835e+002, 9.328133e+002
6.779656e+002, 9.331874e+002
6.784477e+002, 9.329278e+002
6.789298e+002, 9.325970e+002
6.794119e+002, 9.323971e+002
6.798940e+002, 9.323214e+002
6.803762e+002, 9.334542e+002
6.808583e+002, 9.360563e+002
6.813404e+002, 9.384481e+002
6.818225e+002, 9.384632e+002
6.823046e+002, 9.370644e+002
6.827867e+002, 9.363113e+002
6.832689e+002, 9.367761e+002
6.837510e+002, 9.374404e+002
6.842331e+002, 9.375789e+002
6.847152e+002, 9.374802e+002
6.851973e+002, 9.375078e+002
6.856794e+002, 9.375172e+002
6.861616e+002, 9.379658e+002
6.866437e+002, 9.392327e+002
6.871258e+002, 9.409254e+002
6.876079e+002, 9.423674e+002
6.880900e+002, 9.435543e+002
6.885721e+002, 9.444603e+002
6.890543e+002, 9.450745e+002
6.895364e+002, 9.453812e+002
6.900185e+002, 9.452008e+002
6.905006e+002, 9.445464e+002
6.909827e+002, 9.440016e+002
6.914648e+002, 9.439731e+002
6.919470e+002, 9.441629e+002
6.924291e+002, 9.440501e+002
6.929112e+002, 9.436996e+002
6.933933e+002, 9.434798e+002
6.938754e+002, 9.435925e+002
6.943575e+002, 9.439135e+002
6.948397e+002, 9.443270e+002
6.953218e+002, 9.448180e+002
6.958039e+002, 9.456794e+002
6.962860e+002, 9.475168e+002
6.967681e+002, 9.492207e+002
6.972502e+002, 9.502693e+002
6.977324e+002, 9.506052e+002
6.982145e+002, 9.504716e+002
6.986966e+002, 9.496998e+002
6.991787e+002, 9.489530e+002
6.996608e+002, 9.490363e+002
7.001429e+002, 9.497556e+002
7.006251e+002, 9.501125e+002
7.011072e+002, 9.499234e+002
7.015893e+002, 9.496279e+002
7.020714e+002, 9.494592e+002
7.025535e+002, 9.495140e+002
7.030356e+002, 9.499764e+002
7.035178e+002, 9.511498e+002
7.039999e+002, 9.522636e+002
7.044820e+002, 9.529301e+002
7.049641e+002, 9.533699e+002
7.054462e+002, 9.539429e+002
7.059283e+002, 9.547051e+002
7.064105e+002, 9.555707e+002
7.068926e+002, 9.566867e+002
7.073747e+002, 9.578160e+002
7.078568e+002, 9.582930e+002
7.083389e+002, 9.580691e+002
7.088210e+002, 9.579606e+002
7.093032e+002, 9.583004e+002
7.097853e+002, 9.588851e+002
7.102674e+002, 9.593840e+002
7.107495e+002, 9.597835e+002
7.112316e+002, 9.599967e+002
7.117137e+002, 9.595175e+002
7.121959e+002, 9.592098e+002
7.126780e+002, 9.601949e+002
7.131601e+002, 9.621917e+002
7.136422e+002, 9.631013e+002
7.141243e+002, 9.606152e+002
7.146064e+002, 9.586072e+002
7.150886e+002, 9.588287e+002
7.155707e+002, 9.613581e+002
7.160528e+002, 9.634848e+002
7.165349e+002, 9.653486e+002
7.170170e+002, 9.665085e+002
7.174991e+002, 9.662447e+002
7.179813e+002, 9.648339e+002
7.184634e+002, 9.646115e+002
7.189455e+002, 9.656750e+002
7.194276e+002, 9.669581e+002
7.199097e+002, 9.676287e+002
7.203918e+002, 9.679278e+002
7.208740e+002, 9.680964e+002
7.213561e+002, 9.681284e+002
7.218382e+002, 9.682959e+002
7.223203e+002, 9.686314e+002
7.228024e+002, 9.692065e+002
7.232845e+002, 9.701204e+002
7.237667e+002, 9.719342e+002
7.242488e+002, 9.730367e+002
7.247309e+002, 9.730108e+002
7.252130e+002, 9.727170e+002
7.256951e+002, 9.732691e+002
7.261772e+002, 9.747393e+002
7.266594e+002, 9.759362e+002
7.271415e+002, 9.766873e+002
7.276236e+002, 9.770473e+002
7.281057e+002, 9.768021e+002
7.285878e+002, 9.762253e+002
7.290699e+002, 9.760306e+002
7.295521e+002, 9.765749e+002
7.300342e+002, 9.773854e+002
7.305163e+002, 9.784159e+002
7.309984e+002, 9.794507e+002
7.314805e+002, 9.801028e+002
7.319626e+002, 9.802957e+002
7.324448e+002, 9.800388e+002
7.329269e+002, 9.789269e+002
7.334090e+002, 9.774735e+002
7.338911e+002, 9.772302e+002
7.343732e+002, 9.785085e+002
7.348553e+002, 9.797092e+002
7.353375e+002, 9.802316e+002
7.358196e+002, 9.804284e+002
7.363017e+002, 9.814533e+002
7.367838e+002, 9.831230e+002
7.372659e+002, 9.843180e+002
7.377480e+002, 9.839506e+002
7.382302e+002, 9.831795e+002
7.387123e+002, 9.830583e+002
7.391944e+002, 9.835004e+002
7.396765e+002, 9.840032e+002
7.401586e+002, 9.844481e+002
7.406407e+002, 9.848500e+002
7.411229e+002, 9.852219e+002
7.416050e+002, 9.855660e+002
7.420871e+002, 9.858198e+002
7.425692e+002, 9.859891e+002
7.430513e+002, 9.860585e+002
7.435334e+002, 9.857699e+002
7.440156e+002, 9.852773e+002
7.444977e+002, 9.862155e+002
7.449798e+002, 9.885879e+002
7.454619e+002, 9.906304e+002
7.459440e+002, 9.905140e+002
7.464261e+002, 9.894967e+002
7.469083e+002, 9.890927e+002
7.473904e+002, 9.894397e+002
7.478725e+002, 9.900674e+002
7.483546e+002, 9.908990e+002
7.488367e+002, 9.918068e+002
7.493188e+002, 9.927464e+002
7.498010e+002, 9.937690e+002
7.502831e+002, 9.945059e+002
7.507652e+002, 9.949544e+002
7.512473e+002, 9.950957e+002
7.517294e+002, 9.947706e+002
7.522115e+002, 9.939918e+002
7.526937e+002, 9.935381e+002
7.531758e+002, 9.934547e+002
7.536579e+002, 9.937430e+002
7.541400e+002, 9.947771e+002
7.546221e+002, 9.960784e+002
7.551042e+002, 9.968463e+002
7.555864e+002, 9.968599e+002
7.560685e+002, 9.966417e+002
7.565506e+002, 9.964648e+002
7.570327e+002, 9.962094e+002
7.575148e+002, 9.957531e+002
7.579969e+002, 9.946663e+002
7.584791e+002, 9.940237e+002
7.589612e+002, 9.938890e+002
7.594433e+002, 9.941169e+002
7.599254e+002, 9.945830e+002
7.604075e+002, 9.952913e+002
7.608896e+002, 9.960149e+002
7.613718e+002, 9.967047e+002
7.618539e+002, 9.974069e+002
7.623360e+002, 9.982552e+002
7.628181e+002, 9.991503e+002
7.633002e+002, 9.998967e+002
7.637823e+002, 1.000472e+003
7.642645e+002, 1.000836e+003
7.647466e+002, 1.000928e+003
7.652287e+002, 1.000814e+003
7.657108e+002, 1.000591e+003
7.661929e+002, 9.999891e+002
7.666750e+002, 9.997066e+002
7.671572e+002, 9.998701e+002
7.676393e+002, 1.000343e+003
7.681214e+002, 1.000994e+003
7.686035e+002, 1.001861e+003
7.690856e+002, 1.002273e+003
7.695677e+002, 1.001856e+003
7.700499e+002, 1.001293e+003
7.705320e+002, 1.001902e+003
7.710141e+002, 1.003221e+003
7.714962e+002, 1.004069e+003
7.719783e+002, 1.003339e+003
7.724604e+002, 1.002630e+003
7.729426e+002, 1.002827e+003
7.734247e+002, 1.003651e+003
7.739068e+002, 1.004485e+003
7.743889e+002, 1.005740e+003
7.748710e+002, 1.006244e+003
7.753531e+002, 1.005461e+003
7.758353e+002, 1.003954e+003
7.763174e+002, 1.003402e+003
7.767995e+002, 1.003862e+003
7.772816e+002, 1.004346e+003
7.777637e+002, 1.004419e+003
7.782458e+002, 1.004413e+003
7.787280e+002, 1.004939e+003
7.792101e+002, 1.005878e+003
7.796922e+002, 1.006809e+003
7.801743e+002, 1.007829e+003
7.806564e+002, 1.008513e+003
7.811385e+002, 1.008297e+003
7.816207e+002, 1.007475e+003
7.821028e+002, 1.007412e+003
7.825849e+002, 1.009097e+003
7.830670e+002, 1.009996e+003
7.835491e+002, 1.008881e+003
7.840313e+002, 1.006605e+003
7.845134e+002, 1.007061e+003
7.849955e+002, 1.010293e+003
7.854776e+002, 1.012910e+003
7.859597e+002, 1.012816e+003
7.864418e+002, 1.011533e+003
7.869240e+002, 1.011563e+003
7.874061e+002, 1.012547e+003
7.878882e+002, 1.013176e+003
7.883703e+002, 1.012437e+003
7.888524e+002, 1.011515e+003
7.893345e+002, 1.010806e+003
7.898167e+002, 1.010385e+003
7.902988e+002, 1.010591e+003
7.907809e+002, 1.011849e+003
7.912630e+002, 1.012981e+003
7.917451e+002, 1.013569e+003
7.922272e+002, 1.013738e+003
7.927094e+002, 1.014100e+003
7.931915e+002, 1.014645e+003
7.936736e+002, 1.015082e+003
7.941557e+002, 1.015406e+003
7.946378e+002, 1.015428e+003
7.951199e+002, 1.014451e+003
7.956021e+002, 1.012812e+003
7.960842e+002, 1.011979e+003
7.965663e+002, 1.013690e+003
7.970484e+002, 1.015299e+003
7.975305e+002, 1.015144e+003
7.980126e+002, 1.013537e+003
7.984948e+002, 1.013513e+003
7.989769e+002, 1.015821e+003
7.994590e+002, 1.017877e+003
7.999411e+002, 1.018451e+003
8.004232e+002, 1.017969e+003
8.009053e+002, 1.018109e+003
8.013875e+002, 1.018799e+003
8.018696e+002, 1.019292e+003
8.023517e+002, 1.019115e+003
8.028338e+002, 1.018544e+003
8.033159e+002, 1.017309e+003
8.037980e+002, 1.015705e+003
8.042802e+002, 1.015387e+003
8.047623e+002, 1.017932e+003
8.052444e+002, 1.020778e+003
8.057265e+002, 1.023070e+003
8.062086e+002, 1.024831e+003
8.066907e+002, 1.026371e+003
8.071729e+002, 1.027716e+003
8.076550e+002, 1.028665e+003
8.081371e+002, 1.029075e+003
8.086192e+002, 1.029039e+003
8.091013e+002, 1.028663e+003
8.095834e+002, 1.028019e+003
8.100656e+002, 1.027512e+003
8.105477e+002, 1.027519e+003
8.110298e+002, 1.027651e+003
8.115119e+002, 1.027615e+003
8.119940e+002, 1.027451e+003
8.124761e+002, 1.027467e+003
8.129583e+002, 1.028089e+003
8.134404e+002, 1.028442e+003
8.139225e+002, 1.028181e+003
8.144046e+002, 1.027433e+003
8.148867e+002, 1.026839e+003
8.153688e+002, 1.026399e+003
8.158510e+002, 1.026249e+003
8.163331e+002, 1.026567e+003
8.168152e+002, 1.027146e+003
8.172973e+002, 1.027610e+003
8.177794e+002, 1.028003e+003
8.182615e+002, 1.028536e+003
8.187437e+002, 1.029773e+003
8.192258e+002, 1.030689e+003
8.197079e+002, 1.030341e+003
8.201900e+002, 1.029025e+003
8.206721e+002, 1.029090e+003
8.211542e+002, 1.031490e+003
8.216364e+002, 1.033098e+003
8.221185e+002, 1.032548e+003
8.226006e+002, 1.030628e+003
8.230827e+002, 1.030122e+003
8.235648e+002, 1.030845e+003
8.240469e+002, 1.031210e+003
8.245291e+002, 1.029773e+003
8.250112e+002, 1.028111e+003
8.254933e+002, 1.027926e+003
8.259754e+002, 1.028810e+003
8.264575e+002, 1.029426e+003
8.269396e+002, 1.029441e+003
8.274218e+002, 1.029005e+003
8.279039e+002, 1.027748e+003
8.283860e+002, 1.026142e+003
8.288681e+002, 1.026014e+003
8.293502e+002, 1.027661e+003
8.298323e+002, 1.029001e+003
8.303145e+002, 1.029207e+003
8.307966e+002, 1.028845e+003
8.312787e+002, 1.029018e+003
8.317608e+002, 1.029543e+003
8.322429e+002, 1.029865e+003
8.327250e+002, 1.029607e+003
8.332072e+002, 1.029193e+003
8.336893e+002, 1.028758e+003
8.341714e+002, 1.028344e+003
8.346535e+002, 1.028069e+003
8.351356e+002, 1.028045e+003
8.356177e+002, 1.027962e+003
8.360999e+002, 1.027708e+003
8.365820e+002, 1.027432e+003
8.370641e+002, 1.027269e+003
8.375462e+002, 1.027276e+003
8.380283e+002, 1.028233e+003
8.385104e+002, 1.030896e+003
8.389926e+002, 1.033672e+003
8.394747e+002, 1.034695e+003
8.399568e+002, 1.034597e+003
8.404389e+002, 1.034490e+003
8.409210e+002, 1.034556e+003
8.414031e+002, 1.034876e+003
8.418853e+002, 1.035924e+003
8.423674e+002, 1.036988e+003
8.428495e+002, 1.036810e+003
8.433316e+002, 1.034944e+003
8.438137e+002, 1.034146e+003
8.442958e+002, 1.035078e+003
8.447780e+002, 1.036631e+003
8.452601e+002, 1.037281e+003
8.457422e+002, 1.037256e+003
8.462243e+002, 1.037123e+003
8.467064e+002, 1.037037e+003
8.471885e+002, 1.036865e+003
8.476707e+002, 1.036264e+003
8.481528e+002, 1.035667e+003
8.486349e+002, 1.035621e+003
8.491170e+002, 1.036687e+003
8.495991e+002, 1.037409e+003
8.500812e+002, 1.037801e+003
8.505634e+002, 1.037827e+003
8.510455e+002, 1.037152e+003
8.515276e+002, 1.035952e+003
8.520097e+002, 1.035628e+003
8.524918e+002, 1.036455e+003
8.529739e+002, 1.037526e+003
8.534561e+002, 1.037982e+003
8.539382e+002, 1.038227e+003
8.544203e+002, 1.038773e+003
8.549024e+002, 1.039900e+003
8.553845e+002, 1.040643e+003
8.558666e+002, 1.040298e+003
8.563488e+002, 1.039956e+003
8.568309e+002, 1.040506e+003
8.573130e+002, 1.042193e+003
8.577951e+002, 1.042563e+003
8.582772e+002, 1.041407e+003
8.587593e+002, 1.040173e+003
8.592415e+002, 1.040518e+003
8.597236e+002, 1.041477e+003
8.602057e+002, 1.041164e+003
8.606878e+002, 1.039435e+003
8.611699e+002, 1.038177e+003
8.616520e+002, 1.039242e+003
8.621342e+002, 1.040284e+003
8.626163e+002, 1.039647e+003
8.630984e+002, 1.037277e+003
8.635805e+002, 1.035275e+003
8.640626e+002, 1.033497e+003
8.645447e+002, 1.032637e+003
8.650269e+002, 1.033800e+003
8.655090e+002, 1.036132e+003
8.659911e+002, 1.036443e+003
8.664732e+002, 1.034957e+003
8.669553e+002, 1.033123e+003
8.674374e+002, 1.031185e+003
8.679196e+002, 1.029783e+003
8.684017e+002, 1.029600e+003
8.688838e+002, 1.030485e+003
8.693659e+002, 1.031369e+003
8.698480e+002, 1.032477e+003
8.703301e+002, 1.032942e+003
8.708123e+002, 1.032220e+003
8.712944e+002, 1.030781e+003
8.717765e+002, 1.030428e+003
8.722586e+002, 1.031041e+003
8.727407e+002, 1.031390e+003
8.732228e+002, 1.030608e+003
8.737050e+002, 1.029670e+003
8.741871e+002, 1.029686e+003
8.746692e+002, 1.030311e+003
8.751513e+002, 1.030797e+003
8.756334e+002, 1.031483e+003
8.761155e+002, 1.031230e+003
8.765977e+002, 1.029344e+003
8.770798e+002, 1.026820e+003
8.775619e+002, 1.025575e+003
8.780440e+002, 1.025719e+003
8.785261e+002, 1.025616e+003
8.790082e+002, 1.024854e+003
8.794904e+002, 1.023948e+003
8.799725e+002, 1.023631e+003
8.804546e+002, 1.023619e+003
8.809367e+002, 1.023344e+003
8.814188e+002, 1.022254e+003
8.819009e+002, 1.021743e+003
8.823831e+002, 1.022869e+003
8.828652e+002, 1.024461e+003
8.833473e+002, 1.025373e+003
8.838294e+002, 1.025592e+003
8.843115e+002, 1.025064e+003
8.847936e+002, 1.023547e+003
8.852758e+002, 1.022223e+003
8.857579e+002, 1.023005e+003
8.862400e+002, 1.024772e+003
8.867221e+002, 1.024559e+003
8.872042e+002, 1.021891e+003
8.876863e+002, 1.019780e+003
8.881685e+002, 1.020493e+003
8.886506e+002, 1.021949e+003
8.891327e+002, 1.022725e+003
8.896148e+002, 1.022675e+003
8.900969e+002, 1.022316e+003
8.905790e+002, 1.021387e+003
8.910612e+002, 1.020763e+003
8.915433e+002, 1.021294e+003
8.920254e+002, 1.022509e+003
8.925075e+002, 1.022379e+003
8.929896e+002, 1.021090e+003
8.934717e+002, 1.020221e+003
8.939539e+002, 1.021320e+003
8.944360e+002, 1.022643e+003
8.949181e+002, 1.023279e+003
8.954002e+002, 1.023166e+003
8.958823e+002, 1.022069e+003
8.963644e+002, 1.019047e+003
8.968466e+002, 1.016982e+003
8.973287e+002, 1.016941e+003
8.978108e+002, 1.018133e+003
8.982929e+002, 1.018522e+003
8.987750e+002, 1.018200e+003
8.992571e+002, 1.017664e+003
8.997393e+002, 1.016974e+003
9.002214e+002, 1.016359e+003
9.007035e+002, 1.015870e+003
9.011856e+002, 1.015619e+003
9.016677e+002, 1.015796e+003
9.021498e+002, 1.017069e+003
9.026320e+002, 1.017856e+003
9.031141e+002, 1.017919e+003
9.035962e+002, 1.017602e+003
9.040783e+002, 1.017340e+003
9.045604e+002, 1.017116e+003
9.050425e+002, 1.016852e+003
9.055247e+002, 1.016558e+003
9.060068e+002, 1.016087e+003
9.064889e+002, 1.015204e+003
9.069710e+002, 1.014128e+003
9.074531e+002, 1.013051e+003
9.079352e+002, 1.011914e+003
9.084174e+002, 1.011151e+003
9.088995e+002, 1.010734e+003
9.093816e+002, 1.010817e+003
9.098637e+002, 1.011736e+003
9.103458e+002, 1.013499e+003
9.108279e+002, 1.014310e+003
9.113101e+002, 1.014150e+003
9.117922e+002, 1.013763e+003
9.122743e+002, 1.013659e+003
9.127564e+002, 1.013620e+003
9.132385e+002, 1.013545e+003
9.137206e+002, 1.013365e+003
9.142028e+002, 1.012714e+003
9.146849e+002, 1.010582e+003
9.151670e+002, 1.009023e+003
9.156491e+002, 1.008799e+003
9.161312e+002, 1.009581e+003
9.166133e+002, 1.010220e+003
9.170955e+002, 1.010730e+003
9.175776e+002, 1.010790e+003
9.180597e+002, 1.009998e+003
9.185418e+002, 1.009156e+003
9.190239e+002, 1.009515e+003
9.195060e+002, 1.010520e+003
9.199882e+002, 1.011093e+003
9.204703e+002, 1.010240e+003
9.209524e+002, 1.009764e+003
9.214345e+002, 1.010226e+003
9.219166e+002, 1.010948e+003
9.223987e+002, 1.011041e+003
9.228809e+002, 1.010441e+003
9.233630e+002, 1.009880e+003
9.238451e+002, 1.009346e+003
9.243272e+002, 1.009330e+003
9.248093e+002, 1.011083e+003
9.252914e+002, 1.013334e+003
9.257736e+002, 1.014316e+003
9.262557e+002, 1.013625e+003
9.267378e+002, 1.012682e+003
9.272199e+002, 1.011819e+003
9.277020e+002, 1.010896e+003
9.281841e+002, 1.009695e+003
9.286663e+002, 1.008230e+003
9.291484e+002, 1.007730e+003
9.296305e+002, 1.008224e+003
9.301126e+002, 1.009037e+003
9.305947e+002, 1.010181e+003
9.310768e+002, 1.011118e+003
9.315590e+002, 1.010739e+003
9.320411e+002, 1.009419e+003
9.325232e+002, 1.008760e+003
9.330053e+002, 1.010296e+003
9.334874e+002, 1.011321e+003
9.339695e+002, 1.011050e+003
9.344517e+002, 1.009891e+003
9.349338e+002, 1.008687e+003
9.354159e+002, 1.007448e+003
9.358980e+002, 1.006473e+003
9.363801e+002, 1.005829e+003
9.368622e+002, 1.005600e+003
9.373444e+002, 1.006181e+003
9.378265e+002, 1.007156e+003
9.383086e+002, 1.007925e+003
9.387907e+002, 1.008321e+003
9.392728e+002, 1.008483e+003
9.397549e+002, 1.008156e+003
9.402371e+002, 1.007871e+003
9.407192e+002, 1.008118e+003
9.412013e+002, 1.008907e+003
9.416834e+002, 1.009628e+003
9.421655e+002, 1.010263e+003
9.426476e+002, 1.010562e+003
9.431298e+002, 1.009808e+003
9.436119e+002, 1.008918e+003
9.440940e+002, 1.009049e+003
9.445761e+002, 1.010222e+003
9.450582e+002, 1.011081e+003
9.455403e+002, 1.011176e+003
9.460225e+002, 1.011055e+003
9.465046e+002, 1.010805e+003
9.469867e+002, 1.010491e+003
9.474688e+002, 1.010292e+003
9.479509e+002, 1.010228e+003
9.484330e+002, 1.010583e+003
9.489152e+002, 1.011821e+003
9.493973e+002, 1.013054e+003
9.498794e+002, 1.013682e+003
9.503615e+002, 1.013638e+003
9.508436e+002, 1.012801e+003
9.513257e+002, 1.009450e+003
9.518079e+002, 1.007837e+003
9.522900e+002, 1.008737e+003
9.527721e+002, 1.010692e+003
9.532542e+002, 1.012114e+003
9.537363e+002, 1.013040e+003
9.542184e+002, 1.013795e+003
9.547006e+002, 1.014454e+003
9.551827e+002, 1.014533e+003
9.556648e+002, 1.012965e+003
9.561469e+002, 1.011130e+003
9.566290e+002, 1.010447e+003
9.571111e+002, 1.011259e+003
9.575933e+002, 1.011188e+003
9.580754e+002, 1.009453e+003
9.585575e+002, 1.008259e+003
9.590396e+002, 1.008933e+003
9.595217e+002, 1.010849e+003
9.600038e+002, 1.012038e+003
9.604860e+002, 1.012520e+003
9.609681e+002, 1.012407e+003
9.614502e+002, 1.010863e+003
9.619323e+002, 1.009642e+003
9.624144e+002, 1.010047e+003
9.628965e+002, 1.011477e+003
9.633787e+002, 1.012568e+003
9.638608e+002, 1.013089e+003
9.643429e+002, 1.013729e+003
9.648250e+002, 1.014630e+003
9.653071e+002, 1.015515e+003
9.657892e+002, 1.016021e+003
9.662714e+002, 1.016200e+003
9.667535e+002, 1.016047e+003
9.672356e+002, 1.015475e+003
9.677177e+002, 1.015275e+003
9.681998e+002, 1.016230e+003
9.686819e+002, 1.017445e+003
9.691641e+002, 1.018342e+003
9.696462e+002, 1.018923e+003
9.701283e+002, 1.019089e+003
9.706104e+002, 1.018799e+003
9.710925e+002, 1.018339e+003
9.715746e+002, 1.017752e+003
9.720568e+002, 1.017166e+003
9.725389e+002, 1.017023e+003
9.730210e+002, 1.017107e+003
9.735031e+002, 1.016712e+003
9.739852e+002, 1.014427e+003
9.744673e+002, 1.012985e+003
9.749495e+002, 1.013648e+003
9.754316e+002, 1.015336e+003
9.759137e+002, 1.016327e+003
9.763958e+002, 1.016614e+003
9.768779e+002, 1.016281e+003
9.773600e+002, 1.015140e+003
9.778422e+002, 1.014330e+003
9.783243e+002, 1.015700e+003
9.788064e+002, 1.017815e+003
9.792885e+002, 1.018729e+003
9.797706e+002, 1.017822e+003
9.802527e+002, 1.017249e+003
9.807349e+002, 1.017523e+003
9.812170e+002, 1.017961e+003
9.816991e+002, 1.018147e+003
9.821812e+002, 1.018150e+003
9.826633e+002, 1.018717e+003
9.831454e+002, 1.019770e+003
9.836276e+002, 1.020563e+003
9.841097e+002, 1.020398e+003
9.845918e+002, 1.020014e+003
9.850739e+002, 1.019826e+003
9.855560e+002, 1.019854e+003
9.860381e+002, 1.020192e+003
9.865203e+002, 1.021052e+003
9.870024e+002, 1.021738e+003
9.874845e+002, 1.022137e+003
9.879666e+002, 1.022402e+003
9.884487e+002, 1.022827e+003
9.889308e+002, 1.023307e+003
9.894130e+002, 1.023535e+003
9.898951e+002, 1.023466e+003
9.903772e+002, 1.023170e+003
9.908593e+002, 1.022428e+003
9.913414e+002, 1.021687e+003
9.918235e+002, 1.021228e+003
9.923057e+002, 1.021047e+003
9.927878e+002, 1.021342e+003
9.932699e+002, 1.022222e+003
9.937520e+002, 1.022901e+003
9.942341e+002, 1.022832e+003
9.947162e+002, 1.022383e+003
9.951984e+002, 1.022104e+003
9.956805e+002, 1.021967e+003
9.961626e+002, 1.021918e+003
9.966447e+002, 1.021821e+003
9.971268e+002, 1.021971e+003
9.976089e+002, 1.022608e+003
9.980911e+002, 1.023365e+003
9.985732e+002, 1.023618e+003
9.990553e+002, 1.023374e+003
9.995374e+002, 1.023622e+003
1.000020e+003, 1.024549e+003
1.000502e+003, 1.025289e+003
1.000984e+003, 1.024855e+003
1.001466e+003, 1.023949e+003
1.001948e+003, 1.023116e+003
1.002430e+003, 1.022400e+003
1.002912e+003, 1.022231e+003
1.003394e+003, 1.022782e+003
1.003876e+003, 1.023586e+003
1.004359e+003, 1.024693e+003
1.004841e+003, 1.025771e+003
1.005323e+003, 1.025251e+003
1.005805e+003, 1.023635e+003
1.006287e+003, 1.022996e+003
1.006769e+003, 1.025399e+003
1.007251e+003, 1.027501e+003
1.007733e+003, 1.027217e+003
1.008216e+003, 1.025750e+003
1.008698e+003, 1.024753e+003
1.009180e+003, 1.024236e+003
1.009662e+003, 1.024306e+003
1.010144e+003, 1.025112e+003
1.010626e+003, 1.025765e+003
1.011108e+003, 1.024975e+003
1.011590e+003, 1.023647e+003
1.012072e+003, 1.023039e+003
1.012555e+003, 1.023236e+003
1.013037e+003, 1.024033e+003
1.013519e+003, 1.025921e+003
1.014001e+003, 1.027773e+003
1.014483e+003, 1.029448e+003
1.014965e+003, 1.030746e+003
1.015447e+003, 1.030866e+003
1.015929e+003, 1.029892e+003
1.016411e+003, 1.028580e+003
1.016894e+003, 1.026903e+003
1.017376e+003, 1.025630e+003
1.017858e+003, 1.025905e+003
1.018340e+003, 1.026777e+003
1.018822e+003, 1.027019e+003
1.019304e+003, 1.026034e+003
1.019786e+003, 1.025582e+003
1.020268e+003, 1.025771e+003
1.020751e+003, 1.026236e+003
1.021233e+003, 1.026754e+003
1.021715e+003, 1.027325e+003
1.022197e+003, 1.028112e+003
1.022679e+003, 1.029012e+003
1.023161e+003, 1.029401e+003
1.023643e+003, 1.028143e+003
1.024125e+003, 1.027227e+003
1.024607e+003, 1.027720e+003
1.025090e+003, 1.028974e+003
1.025572e+003, 1.029782e+003
1.026054e+003, 1.030143e+003
1.026536e+003, 1.029759e+003
1.027018e+003, 1.028377e+003
1.027500e+003, 1.027107e+003
1.027982e+003, 1.027183e+003
1.028464e+003, 1.028005e+003
1.028947e+003, 1.029049e+003
1.029429e+003, 1.030388e+003
1.029911e+003, 1.030972e+003
1.030393e+003, 1.030418e+003
1.030875e+003, 1.029818e+003
1.031357e+003, 1.029863e+003
1.031839e+003, 1.030257e+003
1.032321e+003, 1.029517e+003
1.032803e+003, 1.028069e+003
1.033286e+003, 1.027649e+003
1.033768e+003, 1.030355e+003
1.034250e+003, 1.032879e+003
1.034732e+003, 1.033747e+003
1.035214e+003, 1.033556e+003
1.035696e+003, 1.033050e+003
1.036178e+003, 1.032023e+003
1.036660e+003, 1.031818e+003
1.037143e+003, 1.032605e+003
1.037625e+003, 1.033578e+003
1.038107e+003, 1.034119e+003
1.038589e+003, 1.034330e+003
1.039071e+003, 1.034127e+003
1.039553e+003, 1.033559e+003
1.040035e+003, 1.033525e+003
1.040517e+003, 1.034860e+003
1.041000e+003, 1.035729e+003
1.041482e+003, 1.035527e+003
1.041964e+003, 1.034649e+003
1.042446e+003, 1.033760e+003
1.042928e+003, 1.032986e+003
1.043410e+003, 1.032951e+003
1.043892e+003, 1.034108e+003
1.044374e+003, 1.035262e+003
1.044856e+003, 1.036014e+003
1.045339e+003, 1.036183e+003
1.045821e+003, 1.035510e+003
1.046303e+003, 1.033855e+003
1.046785e+003, 1.032489e+003
1.047267e+003, 1.031395e+003
1.047749e+003, 1.030773e+003
1.048231e+003, 1.030937e+003
1.048713e+003, 1.031539e+003
1.049195e+003, 1.032293e+003
1.049677e+003, 1.033115e+003
1.050160e+003, 1.033766e+003
1.050642e+003, 1.034079e+003
1.051124e+003, 1.034315e+003
1.051606e+003, 1.034470e+003
1.052088e+003, 1.034591e+003
1.052570e+003, 1.034926e+003
1.053052e+003, 1.035297e+003
1.053534e+003, 1.034722e+003
1.054017e+003, 1.033042e+003
1.054499e+003, 1.031886e+003
1.054981e+003, 1.032703e+003
1.055463e+003, 1.033986e+003
1.055945e+003, 1.035052e+003
1.056427e+003, 1.035810e+003
1.056909e+003, 1.035542e+003
1.057391e+003, 1.034168e+003
1.057874e+003, 1.032814e+003
1.058356e+003, 1.031895e+003
1.058838e+003, 1.031129e+003
1.059320e+003, 1.029798e+003
1.059802e+003, 1.028561e+003
1.060284e+003, 1.028440e+003
1.060766e+003, 1.030578e+003
1.061248e+003, 1.031534e+003
1.061730e+003, 1.030529e+003
1.062213e+003, 1.029650e+003
1.062695e+003, 1.030895e+003
1.063177e+003, 1.033419e+003
1.063659e+003, 1.034098e+003
1.064141e+003, 1.033197e+003
1.064623e+003, 1.032010e+003
1.065105e+003, 1.030751e+003
1.065587e+003, 1.029802e+003
1.066070e+003, 1.029157e+003
1.066552e+003, 1.028964e+003
1.067034e+003, 1.029733e+003
1.067516e+003, 1.031507e+003
1.067998e+003, 1.032573e+003
1.068480e+003, 1.032687e+003
1.068962e+003, 1.032486e+003
1.069444e+003, 1.032511e+003
1.069927e+003, 1.032529e+003
1.070409e+003, 1.032294e+003
1.070891e+003, 1.031801e+003
1.071373e+003, 1.031310e+003
1.071855e+003, 1.030618e+003
1.072337e+003, 1.030652e+003
1.072819e+003, 1.032075e+003
1.073301e+003, 1.033783e+003
1.073783e+003, 1.033696e+003
1.074266e+003, 1.032409e+003
1.074748e+003, 1.031055e+003
1.075230e+003, 1.029585e+003
1.075712e+003, 1.029075e+003
1.076194e+003, 1.030528e+003
1.076676e+003, 1.032213e+003
1.077158e+003, 1.033229e+003
1.077640e+003, 1.033582e+003
1.078122e+003, 1.033253e+003
1.078604e+003, 1.032306e+003
1.079087e+003, 1.031284e+003
1.079569e+003, 1.030017e+003
1.080051e+003, 1.029263e+003
1.080533e+003, 1.029837e+003
1.081015e+003, 1.031122e+003
1.081497e+003, 1.031970e+003
1.081979e+003, 1.032259e+003
1.082461e+003, 1.032593e+003
1.082944e+003, 1.033026e+003
1.083426e+003, 1.033418e+003
1.083908e+003, 1.033876e+003
1.084390e+003, 1.034060e+003
1.084872e+003, 1.033216e+003
1.085354e+003, 1.031462e+003
1.085836e+003, 1.030614e+003
1.086318e+003, 1.031426e+003
1.086801e+003, 1.032160e+003
1.087283e+003, 1.032371e+003
1.087765e+003, 1.032372e+003
1.088247e+003, 1.032860e+003
1.088729e+003, 1.033592e+003
1.089211e+003, 1.033743e+003
1.089693e+003, 1.032913e+003
1.090175e+003, 1.032721e+003
1.090657e+003, 1.034943e+003
1.091140e+003, 1.036883e+003
1.091622e+003, 1.036852e+003
1.092104e+003, 1.035175e+003
1.092586e+003, 1.034650e+003
1.093068e+003, 1.035171e+003
1.093550e+003, 1.035477e+003
1.094032e+003, 1.034867e+003
1.094514e+003, 1.034064e+003
1.094997e+003, 1.033307e+003
1.095479e+003, 1.032820e+003
1.095961e+003, 1.032997e+003
1.096443e+003, 1.034301e+003
1.096925e+003, 1.034479e+003
1.097407e+003, 1.033338e+003
1.097889e+003, 1.032283e+003
1.098371e+003, 1.032432e+003
1.098854e+003, 1.033290e+003
1.099336e+003, 1.034605e+003
1.099818e+003, 1.036133e+003
1.100300e+003, 1.037002e+003
1.100782e+003, 1.036431e+003
1.101264e+003, 1.036276e+003
1.101746e+003, 1.037028e+003
1.102228e+003, 1.037740e+003
1.102710e+003, 1.036752e+003
1.103193e+003, 1.034819e+003
1.103675e+003, 1.033834e+003
1.104157e+003, 1.034031e+003
1.104639e+003, 1.034379e+003
1.105121e+003, 1.033847e+003
1.105603e+003, 1.034160e+003
1.106085e+003, 1.036459e+003
1.106567e+003, 1.039786e+003
1.107049e+003, 1.041018e+003
1.107531e+003, 1.040387e+003
1.108014e+003, 1.039568e+003
1.108496e+003, 1.038911e+003
1.108978e+003, 1.038481e+003
1.109460e+003, 1.038234e+003
1.109942e+003, 1.038284e+003
1.110424e+003, 1.038783e+003
1.110906e+003, 1.039732e+003
1.111388e+003, 1.040690e+003
1.111871e+003, 1.041673e+003
1.112353e+003, 1.042374e+003
1.112835e+003, 1.042704e+003
1.113317e+003, 1.042611e+003
1.113799e+003, 1.041657e+003
1.114281e+003, 1.040375e+003
1.114763e+003, 1.039651e+003
1.115245e+003, 1.039775e+003
1.115728e+003, 1.040320e+003
1.116210e+003, 1.041481e+003
1.116692e+003, 1.042466e+003
1.117174e+003, 1.042305e+003
1.117656e+003, 1.041675e+003
1.118138e+003, 1.042034e+003
1.118620e+003, 1.043094e+003
1.119102e+003, 1.043557e+003
1.119584e+003, 1.042283e+003
1.120067e+003, 1.041287e+003
1.120549e+003, 1.040891e+003
1.121031e+003, 1.040819e+003
1.121513e+003, 1.040856e+003
1.121995e+003, 1.040897e+003
1.122477e+003, 1.040531e+003
1.122959e+003, 1.039721e+003
1.123441e+003, 1.038972e+003
1.123924e+003, 1.038224e+003
1.124406e+003, 1.037995e+003
1.124888e+003, 1.038635e+003
1.125370e+003, 1.039842e+003
1.125852e+003, 1.041049e+003
1.126334e+003, 1.042192e+003
1.126816e+003, 1.042211e+003
1.127298e+003, 1.040636e+003
1.127781e+003, 1.039159e+003
1.128263e+003, 1.039130e+003
1.128745e+003, 1.039684e+003
1.129227e+003, 1.040277e+003
1.129709e+003, 1.040872e+003
1.130191e+003, 1.040909e+003
1.130673e+003, 1.040361e+003
1.131155e+003, 1.039628e+003
1.131637e+003, 1.038581e+003
1.132120e+003, 1.037918e+003
1.132602e+003, 1.038812e+003
1.133084e+003, 1.040356e+003
1.133566e+003, 1.041255e+003
1.134048e+003, 1.041226e+003
1.134530e+003, 1.040902e+003
1.135012e+003, 1.040152e+003
1.135494e+003, 1.039606e+003
1.135976e+003, 1.039783e+003
1.136458e+003, 1.040345e+003
1.136941e+003, 1.040880e+003
1.137423e+003, 1.041349e+003
1.137905e+003, 1.041650e+003
1.138387e+003, 1.041410e+003
1.138869e+003, 1.041553e+003
1.139351e+003, 1.042181e+003
1.139833e+003, 1.043062e+003
1.140315e+003, 1.044266e+003
1.140798e+003, 1.045454e+003
1.141280e+003, 1.045653e+003
1.141762e+003, 1.044968e+003
1.142244e+003, 1.044298e+003
1.142726e+003, 1.044297e+003
1.143208e+003, 1.043879e+003
1.143690e+003, 1.042435e+003
1.144172e+003, 1.040927e+003
1.144655e+003, 1.041074e+003
1.145137e+003, 1.042456e+003
1.145619e+003, 1.043389e+003
1.146101e+003, 1.043665e+003
1.146583e+003, 1.043765e+003
1.147065e+003, 1.043684e+003
1.147547e+003, 1.043839e+003
1.148029e+003, 1.044550e+003
1.148511e+003, 1.045568e+003
1.148994e+003, 1.046215e+003
1.149476e+003, 1.046502e+003
1.149958e+003, 1.046419e+003
1.150440e+003, 1.045879e+003
1.150922e+003, 1.045401e+003
1.151404e+003, 1.045487e+003
1.151886e+003, 1.045651e+003
1.152368e+003, 1.045448e+003
1.152851e+003, 1.044926e+003
1.153333e+003, 1.044457e+003
1.153815e+003, 1.044022e+003
1.154297e+003, 1.044949e+003
1.154779e+003, 1.048493e+003
1.155261e+003, 1.051825e+003
1.155743e+003, 1.051921e+003
1.156225e+003, 1.050547e+003
1.156708e+003, 1.049663e+003
1.157190e+003, 1.049434e+003
1.157672e+003, 1.049269e+003
1.158154e+003, 1.049163e+003
1.158636e+003, 1.049238e+003
1.159118e+003, 1.050035e+003
1.159600e+003, 1.050554e+003
1.160082e+003, 1.048849e+003
1.160564e+003, 1.046354e+003
1.161047e+003, 1.045699e+003
1.161529e+003, 1.048501e+003
1.162011e+003, 1.050092e+003
1.162493e+003, 1.050308e+003
1.162975e+003, 1.050006e+003
1.163457e+003, 1.049531e+003
1.163939e+003, 1.049147e+003
1.164421e+003, 1.049270e+003
1.164903e+003, 1.049791e+003
1.165385e+003, 1.050407e+003
1.165868e+003, 1.051522e+003
1.166350e+003, 1.051598e+003
1.166832e+003, 1.050080e+003
1.167314e+003, 1.048674e+003
1.167796e+003, 1.049589e+003
1.168278e+003, 1.051646e+003
1.168760e+003, 1.052939e+003
1.169242e+003, 1.053395e+003
1.169725e+003, 1.053341e+003
1.170207e+003, 1.052524e+003
1.170689e+003, 1.051695e+003
1.171171e+003, 1.050910e+003
1.171653e+003, 1.050287e+003
1.172135e+003, 1.049788e+003
1.172617e+003, 1.049645e+003
1.173099e+003, 1.050701e+003
1.173582e+003, 1.053006e+003
1.174064e+003, 1.054723e+003
1.174546e+003, 1.054623e+003
1.175028e+003, 1.054572e+003
1.175510e+003, 1.055229e+003
1.175992e+003, 1.055935e+003
1.176474e+003, 1.054872e+003
1.176956e+003, 1.052783e+003
1.177438e+003, 1.052067e+003
1.177921e+003, 1.053360e+003
1.178403e+003, 1.054276e+003
1.178885e+003, 1.053204e+003
1.179367e+003, 1.052303e+003
1.179849e+003, 1.052503e+003
1.180331e+003, 1.053442e+003
1.180813e+003, 1.054240e+003
1.181295e+003, 1.054808e+003
1.181778e+003, 1.054582e+003
1.182260e+003, 1.052982e+003
1.182742e+003, 1.052177e+003
1.183224e+003, 1.054116e+003
1.183706e+003, 1.056167e+003
1.184188e+003, 1.056856e+003
1.184670e+003, 1.056418e+003
1.185152e+003, 1.055706e+003
1.185635e+003, 1.054932e+003
1.186117e+003, 1.055321e+003
1.186599e+003, 1.058166e+003
1.187081e+003, 1.060493e+003
1.187563e+003, 1.060538e+003
1.188045e+003, 1.059687e+003
1.188527e+003, 1.058910e+003
1.189009e+003, 1.058202e+003
1.189491e+003, 1.057185e+003
1.189974e+003, 1.055979e+003
1.190456e+003, 1.055454e+003
1.190938e+003, 1.056452e+003
1.191420e+003, 1.057683e+003
1.191902e+003, 1.058882e+003
1.192384e+003, 1.059736e+003
1.192866e+003, 1.059875e+003
1.193348e+003, 1.059281e+003
1.193830e+003, 1.058753e+003
1.194313e+003, 1.058306e+003
1.194795e+003, 1.058128e+003
1.195277e+003, 1.058292e+003
1.195759e+003, 1.058794e+003
1.196241e+003, 1.060155e+003
1.196723e+003, 1.061528e+003
1.197205e+003, 1.061740e+003
1.197687e+003, 1.060762e+003
1.198169e+003, 1.059973e+003
1.198652e+003, 1.059443e+003
1.199134e+003, 1.059091e+003
1.199616e+003, 1.059109e+003
1.200098e+003, 1.059047e+003
1.200580e+003, 1.058397e+003
1.201062e+003, 1.057616e+003
1.201544e+003, 1.057487e+003
1.202026e+003, 1.058030e+003
1.202509e+003, 1.058617e+003
1.202991e+003, 1.059192e+003
1.203473e+003, 1.059613e+003
1.203955e+003, 1.059599e+003
1.204437e+003, 1.059558e+003
1.204919e+003, 1.059870e+003
1.205401e+003, 1.060296e+003
1.205883e+003, 1.060090e+003
1.206365e+003, 1.059209e+003
1.206848e+003, 1.059498e+003
1.207330e+003, 1.061253e+003
1.207812e+003, 1.063120e+003
1.208294e+003, 1.064687e+003
1.208776e+003, 1.065424e+003
1.209258e+003, 1.064242e+003
1.209740e+003, 1.062031e+003
1.210222e+003, 1.061296e+003
1.210705e+003, 1.062056e+003
1.211187e+003, 1.062740e+003
1.211669e+003, 1.063095e+003
1.212151e+003, 1.063213e+003
1.212633e+003, 1.062820e+003
1.213115e+003, 1.062542e+003
1.213597e+003, 1.062967e+003
1.214079e+003, 1.063906e+003
1.214562e+003, 1.064852e+003
1.215044e+003, 1.065796e+003
1.215526e+003, 1.066072e+003
1.216008e+003, 1.065409e+003
1.216490e+003, 1.064708e+003
1.216972e+003, 1.064635e+003
1.217454e+003, 1.064823e+003
1.217936e+003, 1.064891e+003
1.218418e+003, 1.064936e+003
1.218901e+003, 1.065822e+003
1.219383e+003, 1.067482e+003
1.219865e+003, 1.068556e+003
1.220347e+003, 1.068596e+003
1.220829e+003, 1.068180e+003
1.221311e+003, 1.067461e+003
1.221793e+003, 1.066687e+003
1.222275e+003, 1.065968e+003
1.222757e+003, 1.065345e+003
1.223240e+003, 1.065144e+003
1.223722e+003, 1.065344e+003
1.224204e+003, 1.065561e+003
1.224686e+003, 1.065763e+003
1.225168e+003, 1.065721e+003
1.225650e+003, 1.064770e+003
1.226132e+003, 1.064032e+003
1.226614e+003, 1.064685e+003
1.227096e+003, 1.066423e+003
1.227579e+003, 1.065986e+003
1.228061e+003, 1.063672e+003
1.228543e+003, 1.062052e+003
1.229025e+003, 1.062210e+003
1.229507e+003, 1.063042e+003
1.229989e+003, 1.064571e+003
1.230471e+003, 1.065902e+003
1.230953e+003, 1.066144e+003
1.231436e+003, 1.065488e+003
1.231918e+003, 1.065930e+003
1.232400e+003, 1.067315e+003
1.232882e+003, 1.068677e+003
1.233364e+003, 1.070048e+003
1.233846e+003, 1.070504e+003
1.234328e+003, 1.068641e+003
1.234810e+003, 1.066550e+003
1.235292e+003, 1.065589e+003
1.235775e+003, 1.065749e+003
1.236257e+003, 1.067549e+003
1.236739e+003, 1.070537e+003
1.237221e+003, 1.072284e+003
1.237703e+003, 1.070777e+003
1.238185e+003, 1.069420e+003
1.238667e+003, 1.069780e+003
1.239149e+003, 1.070479e+003
1.239632e+003, 1.070515e+003
1.240114e+003, 1.070041e+003
1.240596e+003, 1.070077e+003
1.241078e+003, 1.070486e+003
1.241560e+003, 1.070694e+003
1.242042e+003, 1.070036e+003
1.242524e+003, 1.069742e+003
1.243006e+003, 1.070193e+003
1.243489e+003, 1.070955e+003
1.243971e+003, 1.071933e+003
1.244453e+003, 1.072936e+003
1.244935e+003, 1.072839e+003
1.245417e+003, 1.071972e+003
1.245899e+003, 1.071576e+003
1.246381e+003, 1.073312e+003
1.246863e+003, 1.073679e+003
1.247345e+003, 1.071312e+003
1.247828e+003, 1.069210e+003
1.248310e+003, 1.070508e+003
1.248792e+003, 1.073876e+003
1.249274e+003, 1.076169e+003
1.249756e+003, 1.077391e+003
1.250238e+003, 1.077746e+003
1.250720e+003, 1.076908e+003
1.251202e+003, 1.075608e+003
1.251684e+003, 1.073498e+003
1.252167e+003, 1.071936e+003
1.252649e+003, 1.072575e+003
1.253131e+003, 1.074323e+003
1.253613e+003, 1.075181e+003
1.254095e+003, 1.075270e+003
1.254577e+003, 1.075127e+003
1.255059e+003, 1.074549e+003
1.255541e+003, 1.074289e+003
1.256023e+003, 1.074304e+003
1.256506e+003, 1.074908e+003
1.256988e+003, 1.077438e+003
1.257470e+003, 1.080013e+003
1.257952e+003, 1.079157e+003
1.258434e+003, 1.076120e+003
1.258916e+003, 1.074914e+003
1.259398e+003, 1.076969e+003
1.259880e+003, 1.077826e+003
1.260363e+003, 1.077048e+003
1.260845e+003, 1.076247e+003
1.261327e+003, 1.077119e+003
1.261809e+003, 1.078377e+003
1.262291e+003, 1.078874e+003
1.262773e+003, 1.078631e+003
1.263255e+003, 1.077672e+003
1.263737e+003, 1.075549e+003
1.264219e+003, 1.075210e+003
1.264702e+003, 1.076965e+003
1.265184e+003, 1.078732e+003
1.265666e+003, 1.078590e+003
1.266148e+003, 1.078142e+003
1.266630e+003, 1.078774e+003
1.267112e+003, 1.079965e+003
1.267594e+003, 1.080677e+003
1.268076e+003, 1.080946e+003
1.268559e+003, 1.080148e+003
1.269041e+003, 1.078259e+003
1.269523e+003, 1.076457e+003
1.270005e+003, 1.074827e+003
1.270487e+003, 1.074283e+003
1.270969e+003, 1.076418e+003
1.271451e+003, 1.079360e+003
1.271933e+003, 1.080467e+003
1.272416e+003, 1.079893e+003
1.272898e+003, 1.079839e+003
1.273380e+003, 1.080382e+003
1.273862e+003, 1.080765e+003
1.274344e+003, 1.079996e+003
1.274826e+003, 1.079734e+003
1.275308e+003, 1.081041e+003
1.275790e+003, 1.082545e+003
1.276272e+003, 1.082211e+003
1.276755e+003, 1.080619e+003
1.277237e+003, 1.079946e+003
1.277719e+003, 1.080236e+003
1.278201e+003, 1.080730e+003
1.278683e+003, 1.081189e+003
1.279165e+003, 1.081726e+003
1.279647e+003, 1.082437e+003
1.280129e+003, 1.083099e+003
1.280611e+003, 1.083354e+003
1.281094e+003, 1.083438e+003
1.281576e+003, 1.084173e+003
1.282058e+003, 1.085309e+003
1.282540e+003, 1.085400e+003
1.283022e+003, 1.083080e+003
1.283504e+003, 1.081548e+003
1.283986e+003, 1.081137e+003
1.284468e+003, 1.081466e+003
1.284950e+003, 1.082657e+003
1.285433e+003, 1.084015e+003
1.285915e+003, 1.084589e+003
1.286397e+003, 1.084494e+003
1.286879e+003, 1.084249e+003
1.287361e+003, 1.083750e+003
1.287843e+003, 1.083781e+003
1.288325e+003, 1.084452e+003
1.288807e+003, 1.085370e+003
1.289290e+003, 1.086727e+003
1.289772e+003, 1.087706e+003
1.290254e+003, 1.087117e+003
1.290736e+003, 1.085717e+003
1.291218e+003, 1.085373e+003
1.291700e+003, 1.086177e+003
1.292182e+003, 1.086767e+003
1.292664e+003, 1.087042e+003
1.293146e+003, 1.087206e+003
1.293629e+003, 1.087551e+003
1.294111e+003, 1.087650e+003
1.294593e+003, 1.086920e+003
1.295075e+003, 1.086019e+003
1.295557e+003, 1.085918e+003
1.296039e+003, 1.086466e+003
1.296521e+003, 1.086021e+003
1.297003e+003, 1.084703e+003
1.297486e+003, 1.084456e+003
1.297968e+003, 1.088414e+003
1.298450e+003, 1.090828e+003
1.298932e+003, 1.089986e+003
1.299414e+003, 1.087796e+003
1.299896e+003, 1.085834e+003
1.300378e+003, 1.084359e+003
1.300860e+003, 1.084263e+003
1.301343e+003, 1.085420e+003
1.301825e+003, 1.087017e+003
##END=



