##NAMES=Matlockite
##RRUFFID=R140538
##IDEAL CHEMISTRY=Pb^2+^ClF
##LOCALITY=Mammoth mine, Tiger, Pinal County, Arizona, USA
##OWNER=RRUFF
##SOURCE=The University of Arizona Mineral Museum 5194 and 10550
##DESCRIPTION=Pale yellowish or colorless platy crystals, associated with bright orange georgerobinsonite (R110148), quartz, and cerussite.
##STATUS=The identification of this mineral has been confirmed by single-crystal X-ray diffraction.
##URL=rruff.info/R140538
9.059570e+001, 6.643253e+002
9.107782e+001, 6.613122e+002
9.155994e+001, 6.602733e+002
9.204205e+001, 6.626400e+002
9.252417e+001, 6.660107e+002
9.300629e+001, 6.698496e+002
9.348840e+001, 6.703556e+002
9.397052e+001, 6.629952e+002
9.445264e+001, 6.458837e+002
9.493475e+001, 6.263430e+002
9.541687e+001, 6.091942e+002
9.589898e+001, 5.957165e+002
9.638110e+001, 5.841512e+002
9.686321e+001, 5.728896e+002
9.734533e+001, 5.608322e+002
9.782745e+001, 5.473759e+002
9.830956e+001, 5.357365e+002
9.879168e+001, 5.261171e+002
9.927380e+001, 5.175223e+002
9.975591e+001, 5.095438e+002
1.002380e+002, 5.021630e+002
1.007201e+002, 4.957056e+002
1.012023e+002, 4.905555e+002
1.016844e+002, 4.864172e+002
1.021665e+002, 4.819041e+002
1.026486e+002, 4.762927e+002
1.031307e+002, 4.706779e+002
1.036128e+002, 4.660331e+002
1.040950e+002, 4.623344e+002
1.045771e+002, 4.593723e+002
1.050592e+002, 4.570061e+002
1.055413e+002, 4.551002e+002
1.060234e+002, 4.536207e+002
1.065055e+002, 4.526860e+002
1.069877e+002, 4.521578e+002
1.074698e+002, 4.516108e+002
1.079519e+002, 4.517350e+002
1.084340e+002, 4.508102e+002
1.089161e+002, 4.481679e+002
1.093982e+002, 4.439910e+002
1.098804e+002, 4.387549e+002
1.103625e+002, 4.323783e+002
1.108446e+002, 4.242404e+002
1.113267e+002, 4.184053e+002
1.118088e+002, 4.154975e+002
1.122909e+002, 4.140864e+002
1.127731e+002, 4.139733e+002
1.132552e+002, 4.149170e+002
1.137373e+002, 4.164120e+002
1.142194e+002, 4.177218e+002
1.147015e+002, 4.185596e+002
1.151836e+002, 4.197787e+002
1.156658e+002, 4.221748e+002
1.161479e+002, 4.245882e+002
1.166300e+002, 4.257304e+002
1.171121e+002, 4.251019e+002
1.175942e+002, 4.234543e+002
1.180763e+002, 4.225279e+002
1.185584e+002, 4.224923e+002
1.190406e+002, 4.225937e+002
1.195227e+002, 4.225063e+002
1.200048e+002, 4.223691e+002
1.204869e+002, 4.225390e+002
1.209690e+002, 4.230851e+002
1.214511e+002, 4.241848e+002
1.219333e+002, 4.258677e+002
1.224154e+002, 4.280516e+002
1.228975e+002, 4.309363e+002
1.233796e+002, 4.348761e+002
1.238617e+002, 4.399841e+002
1.243438e+002, 4.452337e+002
1.248260e+002, 4.504769e+002
1.253081e+002, 4.554596e+002
1.257902e+002, 4.597918e+002
1.262723e+002, 4.630483e+002
1.267544e+002, 4.658771e+002
1.272365e+002, 4.695977e+002
1.277187e+002, 4.740953e+002
1.282008e+002, 4.799284e+002
1.286829e+002, 4.870176e+002
1.291650e+002, 4.953360e+002
1.296471e+002, 5.048691e+002
1.301292e+002, 5.156867e+002
1.306114e+002, 5.277372e+002
1.310935e+002, 5.402411e+002
1.315756e+002, 5.537125e+002
1.320577e+002, 5.672732e+002
1.325398e+002, 5.818851e+002
1.330219e+002, 5.965850e+002
1.335041e+002, 6.095532e+002
1.339862e+002, 6.195844e+002
1.344683e+002, 6.270326e+002
1.349504e+002, 6.274267e+002
1.354325e+002, 6.198965e+002
1.359146e+002, 6.076755e+002
1.363968e+002, 5.911149e+002
1.368789e+002, 5.708554e+002
1.373610e+002, 5.493151e+002
1.378431e+002, 5.290502e+002
1.383252e+002, 5.099161e+002
1.388073e+002, 4.935892e+002
1.392895e+002, 4.803445e+002
1.397716e+002, 4.698289e+002
1.402537e+002, 4.619235e+002
1.407358e+002, 4.568484e+002
1.412179e+002, 4.536167e+002
1.417000e+002, 4.512608e+002
1.421821e+002, 4.496593e+002
1.426643e+002, 4.488387e+002
1.431464e+002, 4.487383e+002
1.436285e+002, 4.494151e+002
1.441106e+002, 4.510946e+002
1.445927e+002, 4.539977e+002
1.450748e+002, 4.578759e+002
1.455570e+002, 4.624058e+002
1.460391e+002, 4.675703e+002
1.465212e+002, 4.731591e+002
1.470033e+002, 4.791747e+002
1.474854e+002, 4.857003e+002
1.479675e+002, 4.919218e+002
1.484497e+002, 4.974574e+002
1.489318e+002, 5.028321e+002
1.494139e+002, 5.081927e+002
1.498960e+002, 5.135786e+002
1.503781e+002, 5.192419e+002
1.508602e+002, 5.255743e+002
1.513424e+002, 5.330511e+002
1.518245e+002, 5.403013e+002
1.523066e+002, 5.467781e+002
1.527887e+002, 5.532653e+002
1.532708e+002, 5.605010e+002
1.537529e+002, 5.687105e+002
1.542351e+002, 5.775561e+002
1.547172e+002, 5.861741e+002
1.551993e+002, 5.941510e+002
1.556814e+002, 6.023526e+002
1.561635e+002, 6.111917e+002
1.566456e+002, 6.201761e+002
1.571278e+002, 6.286114e+002
1.576099e+002, 6.361392e+002
1.580920e+002, 6.429770e+002
1.585741e+002, 6.500315e+002
1.590562e+002, 6.575666e+002
1.595383e+002, 6.649933e+002
1.600205e+002, 6.720191e+002
1.605026e+002, 6.787971e+002
1.609847e+002, 6.857980e+002
1.614668e+002, 6.934119e+002
1.619489e+002, 7.013149e+002
1.624310e+002, 7.080742e+002
1.629131e+002, 7.145820e+002
1.633953e+002, 7.192852e+002
1.638774e+002, 7.216182e+002
1.643595e+002, 7.215459e+002
1.648416e+002, 7.185881e+002
1.653237e+002, 7.124319e+002
1.658058e+002, 7.027394e+002
1.662880e+002, 6.895089e+002
1.667701e+002, 6.723348e+002
1.672522e+002, 6.518326e+002
1.677343e+002, 6.280869e+002
1.682164e+002, 6.006265e+002
1.686985e+002, 5.723459e+002
1.691807e+002, 5.440667e+002
1.696628e+002, 5.163087e+002
1.701449e+002, 4.895877e+002
1.706270e+002, 4.638073e+002
1.711091e+002, 4.394870e+002
1.715912e+002, 4.179203e+002
1.720734e+002, 3.996158e+002
1.725555e+002, 3.834928e+002
1.730376e+002, 3.688863e+002
1.735197e+002, 3.556513e+002
1.740018e+002, 3.435077e+002
1.744839e+002, 3.322934e+002
1.749661e+002, 3.220757e+002
1.754482e+002, 3.134796e+002
1.759303e+002, 3.076547e+002
1.764124e+002, 3.023480e+002
1.768945e+002, 2.968961e+002
1.773766e+002, 2.915141e+002
1.778588e+002, 2.867194e+002
1.783409e+002, 2.829010e+002
1.788230e+002, 2.800594e+002
1.793051e+002, 2.773758e+002
1.797872e+002, 2.747902e+002
1.802693e+002, 2.724115e+002
1.807515e+002, 2.704023e+002
1.812336e+002, 2.686533e+002
1.817157e+002, 2.669196e+002
1.821978e+002, 2.649705e+002
1.826799e+002, 2.627586e+002
1.831620e+002, 2.608173e+002
1.836441e+002, 2.591181e+002
1.841263e+002, 2.576367e+002
1.846084e+002, 2.563788e+002
1.850905e+002, 2.553382e+002
1.855726e+002, 2.545166e+002
1.860547e+002, 2.539682e+002
1.865368e+002, 2.537485e+002
1.870190e+002, 2.532922e+002
1.875011e+002, 2.524678e+002
1.879832e+002, 2.515184e+002
1.884653e+002, 2.506157e+002
1.889474e+002, 2.497826e+002
1.894296e+002, 2.489367e+002
1.899117e+002, 2.479699e+002
1.903938e+002, 2.468926e+002
1.908759e+002, 2.459124e+002
1.913580e+002, 2.449409e+002
1.918401e+002, 2.441336e+002
1.923223e+002, 2.438258e+002
1.928044e+002, 2.441661e+002
1.932865e+002, 2.444176e+002
1.937686e+002, 2.435311e+002
1.942507e+002, 2.418768e+002
1.947328e+002, 2.406166e+002
1.952150e+002, 2.403615e+002
1.956971e+002, 2.406932e+002
1.961792e+002, 2.407740e+002
1.966613e+002, 2.404518e+002
1.971434e+002, 2.400640e+002
1.976255e+002, 2.398856e+002
1.981077e+002, 2.398449e+002
1.985898e+002, 2.397674e+002
1.990719e+002, 2.394688e+002
1.995540e+002, 2.390337e+002
2.000361e+002, 2.388216e+002
2.005182e+002, 2.388463e+002
2.010004e+002, 2.391251e+002
2.014825e+002, 2.398577e+002
2.019646e+002, 2.408422e+002
2.024467e+002, 2.415740e+002
2.029288e+002, 2.415568e+002
2.034109e+002, 2.408522e+002
2.038930e+002, 2.405048e+002
2.043752e+002, 2.407472e+002
2.048573e+002, 2.411522e+002
2.053394e+002, 2.415824e+002
2.058215e+002, 2.420389e+002
2.063036e+002, 2.425690e+002
2.067857e+002, 2.432509e+002
2.072679e+002, 2.441031e+002
2.077500e+002, 2.447486e+002
2.082321e+002, 2.447520e+002
2.087142e+002, 2.449396e+002
2.091963e+002, 2.457260e+002
2.096784e+002, 2.469558e+002
2.101606e+002, 2.481710e+002
2.106427e+002, 2.489438e+002
2.111248e+002, 2.491996e+002
2.116069e+002, 2.496313e+002
2.120890e+002, 2.502734e+002
2.125711e+002, 2.510347e+002
2.130533e+002, 2.518412e+002
2.135354e+002, 2.527252e+002
2.140175e+002, 2.538325e+002
2.144996e+002, 2.553533e+002
2.149817e+002, 2.574207e+002
2.154638e+002, 2.589317e+002
2.159460e+002, 2.595067e+002
2.164281e+002, 2.600005e+002
2.169102e+002, 2.608553e+002
2.173923e+002, 2.620508e+002
2.178744e+002, 2.632894e+002
2.183565e+002, 2.642635e+002
2.188387e+002, 2.649149e+002
2.193208e+002, 2.659391e+002
2.198029e+002, 2.675143e+002
2.202850e+002, 2.692699e+002
2.207671e+002, 2.711637e+002
2.212492e+002, 2.731160e+002
2.217314e+002, 2.747789e+002
2.222135e+002, 2.758028e+002
2.226956e+002, 2.761241e+002
2.231777e+002, 2.765167e+002
2.236598e+002, 2.770161e+002
2.241419e+002, 2.775596e+002
2.246240e+002, 2.781253e+002
2.251062e+002, 2.787077e+002
2.255883e+002, 2.792558e+002
2.260704e+002, 2.797529e+002
2.265525e+002, 2.801766e+002
2.270346e+002, 2.804511e+002
2.275167e+002, 2.806240e+002
2.279989e+002, 2.806125e+002
2.284810e+002, 2.802355e+002
2.289631e+002, 2.794742e+002
2.294452e+002, 2.787354e+002
2.299273e+002, 2.783283e+002
2.304094e+002, 2.781817e+002
2.308916e+002, 2.780908e+002
2.313737e+002, 2.781450e+002
2.318558e+002, 2.781747e+002
2.323379e+002, 2.780167e+002
2.328200e+002, 2.776751e+002
2.333021e+002, 2.771103e+002
2.337843e+002, 2.759218e+002
2.342664e+002, 2.745548e+002
2.347485e+002, 2.737569e+002
2.352306e+002, 2.740410e+002
2.357127e+002, 2.746989e+002
2.361948e+002, 2.747450e+002
2.366770e+002, 2.740614e+002
2.371591e+002, 2.732480e+002
2.376412e+002, 2.725211e+002
2.381233e+002, 2.718632e+002
2.386054e+002, 2.712898e+002
2.390875e+002, 2.708796e+002
2.395697e+002, 2.704487e+002
2.400518e+002, 2.697002e+002
2.405339e+002, 2.685802e+002
2.410160e+002, 2.672942e+002
2.414981e+002, 2.660699e+002
2.419802e+002, 2.646678e+002
2.424624e+002, 2.628199e+002
2.429445e+002, 2.604223e+002
2.434266e+002, 2.575977e+002
2.439087e+002, 2.545316e+002
2.443908e+002, 2.512053e+002
2.448729e+002, 2.476808e+002
2.453550e+002, 2.437218e+002
2.458372e+002, 2.397260e+002
2.463193e+002, 2.360612e+002
2.468014e+002, 2.328537e+002
2.472835e+002, 2.299144e+002
2.477656e+002, 2.268483e+002
2.482477e+002, 2.235383e+002
2.487299e+002, 2.204073e+002
2.492120e+002, 2.175977e+002
2.496941e+002, 2.149391e+002
2.501762e+002, 2.122630e+002
2.506583e+002, 2.095215e+002
2.511404e+002, 2.068937e+002
2.516226e+002, 2.047162e+002
2.521047e+002, 2.033068e+002
2.525868e+002, 2.016539e+002
2.530689e+002, 1.993710e+002
2.535510e+002, 1.970435e+002
2.540331e+002, 1.951009e+002
2.545153e+002, 1.936450e+002
2.549974e+002, 1.924341e+002
2.554795e+002, 1.911270e+002
2.559616e+002, 1.898071e+002
2.564437e+002, 1.881878e+002
2.569258e+002, 1.857613e+002
2.574080e+002, 1.834497e+002
2.578901e+002, 1.819507e+002
2.583722e+002, 1.813404e+002
2.588543e+002, 1.810896e+002
2.593364e+002, 1.804844e+002
2.598185e+002, 1.793418e+002
2.603007e+002, 1.782929e+002
2.607828e+002, 1.773860e+002
2.612649e+002, 1.765050e+002
2.617470e+002, 1.755068e+002
2.622291e+002, 1.744158e+002
2.627112e+002, 1.734538e+002
2.631934e+002, 1.729054e+002
2.636755e+002, 1.729581e+002
2.641576e+002, 1.727383e+002
2.646397e+002, 1.723004e+002
2.651218e+002, 1.716098e+002
2.656039e+002, 1.705360e+002
2.660861e+002, 1.691494e+002
2.665682e+002, 1.676974e+002
2.670503e+002, 1.664129e+002
2.675324e+002, 1.653148e+002
2.680145e+002, 1.643134e+002
2.684966e+002, 1.634627e+002
2.689788e+002, 1.626379e+002
2.694609e+002, 1.618579e+002
2.699430e+002, 1.610718e+002
2.704251e+002, 1.601119e+002
2.709072e+002, 1.587811e+002
2.713893e+002, 1.570591e+002
2.718715e+002, 1.558714e+002
2.723536e+002, 1.554839e+002
2.728357e+002, 1.552445e+002
2.733178e+002, 1.549968e+002
2.737999e+002, 1.546849e+002
2.742820e+002, 1.542337e+002
2.747642e+002, 1.535889e+002
2.752463e+002, 1.527569e+002
2.757284e+002, 1.518152e+002
2.762105e+002, 1.505031e+002
2.766926e+002, 1.493805e+002
2.771747e+002, 1.487226e+002
2.776568e+002, 1.483942e+002
2.781389e+002, 1.481033e+002
2.786211e+002, 1.476990e+002
2.791032e+002, 1.472009e+002
2.795853e+002, 1.466812e+002
2.800674e+002, 1.461240e+002
2.805495e+002, 1.455673e+002
2.810316e+002, 1.449205e+002
2.815138e+002, 1.442919e+002
2.819959e+002, 1.439410e+002
2.824780e+002, 1.440255e+002
2.829601e+002, 1.443035e+002
2.834422e+002, 1.441306e+002
2.839243e+002, 1.433589e+002
2.844065e+002, 1.425090e+002
2.848886e+002, 1.415919e+002
2.853707e+002, 1.406827e+002
2.858528e+002, 1.399094e+002
2.863349e+002, 1.393218e+002
2.868170e+002, 1.388273e+002
2.872992e+002, 1.382625e+002
2.877813e+002, 1.376021e+002
2.882634e+002, 1.369722e+002
2.887455e+002, 1.363645e+002
2.892276e+002, 1.358121e+002
2.897097e+002, 1.353587e+002
2.901919e+002, 1.350138e+002
2.906740e+002, 1.347672e+002
2.911561e+002, 1.346497e+002
2.916382e+002, 1.346951e+002
2.921203e+002, 1.345902e+002
2.926024e+002, 1.341150e+002
2.930846e+002, 1.335823e+002
2.935667e+002, 1.334061e+002
2.940488e+002, 1.336279e+002
2.945309e+002, 1.337430e+002
2.950130e+002, 1.332089e+002
2.954951e+002, 1.320109e+002
2.959773e+002, 1.310665e+002
2.964594e+002, 1.304688e+002
2.969415e+002, 1.300896e+002
2.974236e+002, 1.298868e+002
2.979057e+002, 1.298421e+002
2.983878e+002, 1.298495e+002
2.988700e+002, 1.298827e+002
2.993521e+002, 1.299004e+002
2.998342e+002, 1.297287e+002
3.003163e+002, 1.290997e+002
3.007984e+002, 1.285289e+002
3.012805e+002, 1.284420e+002
3.017627e+002, 1.287236e+002
3.022448e+002, 1.288180e+002
3.027269e+002, 1.283779e+002
3.032090e+002, 1.275881e+002
3.036911e+002, 1.270179e+002
3.041732e+002, 1.267084e+002
3.046554e+002, 1.265155e+002
3.051375e+002, 1.264988e+002
3.056196e+002, 1.265594e+002
3.061017e+002, 1.264078e+002
3.065838e+002, 1.258857e+002
3.070659e+002, 1.251949e+002
3.075481e+002, 1.247255e+002
3.080302e+002, 1.244896e+002
3.085123e+002, 1.243365e+002
3.089944e+002, 1.243218e+002
3.094765e+002, 1.243384e+002
3.099586e+002, 1.241401e+002
3.104408e+002, 1.236177e+002
3.109229e+002, 1.230793e+002
3.114050e+002, 1.230229e+002
3.118871e+002, 1.234642e+002
3.123692e+002, 1.237499e+002
3.128513e+002, 1.236471e+002
3.133335e+002, 1.233701e+002
3.138156e+002, 1.231710e+002
3.142977e+002, 1.230879e+002
3.147798e+002, 1.230195e+002
3.152619e+002, 1.228785e+002
3.157440e+002, 1.226639e+002
3.162262e+002, 1.224193e+002
3.167083e+002, 1.220513e+002
3.171904e+002, 1.217227e+002
3.176725e+002, 1.216607e+002
3.181546e+002, 1.218402e+002
3.186367e+002, 1.218819e+002
3.191188e+002, 1.214599e+002
3.196010e+002, 1.206945e+002
3.200831e+002, 1.201975e+002
3.205652e+002, 1.201284e+002
3.210473e+002, 1.201566e+002
3.215294e+002, 1.201298e+002
3.220115e+002, 1.200570e+002
3.224937e+002, 1.199800e+002
3.229758e+002, 1.199414e+002
3.234579e+002, 1.198817e+002
3.239400e+002, 1.196329e+002
3.244221e+002, 1.190877e+002
3.249042e+002, 1.186179e+002
3.253864e+002, 1.183612e+002
3.258685e+002, 1.182672e+002
3.263506e+002, 1.182678e+002
3.268327e+002, 1.183631e+002
3.273148e+002, 1.184701e+002
3.277969e+002, 1.184544e+002
3.282791e+002, 1.183104e+002
3.287612e+002, 1.181238e+002
3.292433e+002, 1.179311e+002
3.297254e+002, 1.176945e+002
3.302075e+002, 1.173248e+002
3.306896e+002, 1.168064e+002
3.311718e+002, 1.163110e+002
3.316539e+002, 1.160128e+002
3.321360e+002, 1.159325e+002
3.326181e+002, 1.158754e+002
3.331002e+002, 1.159052e+002
3.335823e+002, 1.159042e+002
3.340645e+002, 1.157443e+002
3.345466e+002, 1.154459e+002
3.350287e+002, 1.151769e+002
3.355108e+002, 1.150659e+002
3.359929e+002, 1.150867e+002
3.364750e+002, 1.150353e+002
3.369572e+002, 1.147961e+002
3.374393e+002, 1.146119e+002
3.379214e+002, 1.146860e+002
3.384035e+002, 1.148964e+002
3.388856e+002, 1.149364e+002
3.393677e+002, 1.146463e+002
3.398499e+002, 1.141414e+002
3.403320e+002, 1.137189e+002
3.408141e+002, 1.133387e+002
3.412962e+002, 1.130919e+002
3.417783e+002, 1.131233e+002
3.422604e+002, 1.132521e+002
3.427426e+002, 1.131901e+002
3.432247e+002, 1.128545e+002
3.437068e+002, 1.125060e+002
3.441889e+002, 1.125427e+002
3.446710e+002, 1.132067e+002
3.451531e+002, 1.135396e+002
3.456353e+002, 1.133544e+002
3.461174e+002, 1.129611e+002
3.465995e+002, 1.124738e+002
3.470816e+002, 1.119637e+002
3.475637e+002, 1.116561e+002
3.480458e+002, 1.118261e+002
3.485280e+002, 1.125145e+002
3.490101e+002, 1.126958e+002
3.494922e+002, 1.119778e+002
3.499743e+002, 1.112410e+002
3.504564e+002, 1.108250e+002
3.509385e+002, 1.106893e+002
3.514207e+002, 1.107075e+002
3.519028e+002, 1.108249e+002
3.523849e+002, 1.110008e+002
3.528670e+002, 1.110556e+002
3.533491e+002, 1.108618e+002
3.538312e+002, 1.107066e+002
3.543134e+002, 1.106125e+002
3.547955e+002, 1.105795e+002
3.552776e+002, 1.106706e+002
3.557597e+002, 1.108974e+002
3.562418e+002, 1.110847e+002
3.567239e+002, 1.109181e+002
3.572061e+002, 1.101348e+002
3.576882e+002, 1.095197e+002
3.581703e+002, 1.090434e+002
3.586524e+002, 1.087362e+002
3.591345e+002, 1.086519e+002
3.596166e+002, 1.087735e+002
3.600987e+002, 1.090370e+002
3.605808e+002, 1.094247e+002
3.610630e+002, 1.099881e+002
3.615451e+002, 1.101542e+002
3.620272e+002, 1.095512e+002
3.625093e+002, 1.089643e+002
3.629914e+002, 1.086399e+002
3.634735e+002, 1.085247e+002
3.639557e+002, 1.085000e+002
3.644378e+002, 1.085025e+002
3.649199e+002, 1.085113e+002
3.654020e+002, 1.084285e+002
3.658841e+002, 1.081102e+002
3.663662e+002, 1.079023e+002
3.668484e+002, 1.079926e+002
3.673305e+002, 1.081337e+002
3.678126e+002, 1.080071e+002
3.682947e+002, 1.075345e+002
3.687768e+002, 1.070160e+002
3.692589e+002, 1.069820e+002
3.697411e+002, 1.077227e+002
3.702232e+002, 1.081538e+002
3.707053e+002, 1.081055e+002
3.711874e+002, 1.078752e+002
3.716695e+002, 1.075120e+002
3.721516e+002, 1.070842e+002
3.726338e+002, 1.067363e+002
3.731159e+002, 1.066298e+002
3.735980e+002, 1.067547e+002
3.740801e+002, 1.067722e+002
3.745622e+002, 1.065602e+002
3.750443e+002, 1.063880e+002
3.755265e+002, 1.063984e+002
3.760086e+002, 1.064921e+002
3.764907e+002, 1.065012e+002
3.769728e+002, 1.063244e+002
3.774549e+002, 1.060644e+002
3.779370e+002, 1.059591e+002
3.784192e+002, 1.060604e+002
3.789013e+002, 1.061706e+002
3.793834e+002, 1.063095e+002
3.798655e+002, 1.063919e+002
3.803476e+002, 1.062736e+002
3.808297e+002, 1.059319e+002
3.813119e+002, 1.056573e+002
3.817940e+002, 1.059032e+002
3.822761e+002, 1.066520e+002
3.827582e+002, 1.069245e+002
3.832403e+002, 1.062623e+002
3.837224e+002, 1.054784e+002
3.842046e+002, 1.051034e+002
3.846867e+002, 1.050758e+002
3.851688e+002, 1.051430e+002
3.856509e+002, 1.052771e+002
3.861330e+002, 1.053952e+002
3.866151e+002, 1.052503e+002
3.870973e+002, 1.047525e+002
3.875794e+002, 1.043150e+002
3.880615e+002, 1.042277e+002
3.885436e+002, 1.043348e+002
3.890257e+002, 1.044364e+002
3.895078e+002, 1.045060e+002
3.899900e+002, 1.045412e+002
3.904721e+002, 1.045299e+002
3.909542e+002, 1.044762e+002
3.914363e+002, 1.044018e+002
3.919184e+002, 1.042702e+002
3.924005e+002, 1.041784e+002
3.928827e+002, 1.043280e+002
3.933648e+002, 1.047533e+002
3.938469e+002, 1.049920e+002
3.943290e+002, 1.047075e+002
3.948111e+002, 1.041751e+002
3.952932e+002, 1.038515e+002
3.957754e+002, 1.038138e+002
3.962575e+002, 1.038238e+002
3.967396e+002, 1.036361e+002
3.972217e+002, 1.032839e+002
3.977038e+002, 1.031236e+002
3.981859e+002, 1.033186e+002
3.986681e+002, 1.035790e+002
3.991501e+002, 1.037806e+002
3.996323e+002, 1.038999e+002
4.001144e+002, 1.038522e+002
4.005965e+002, 1.035629e+002
4.010786e+002, 1.031301e+002
4.015607e+002, 1.028293e+002
4.020428e+002, 1.025433e+002
4.025250e+002, 1.025572e+002
4.030071e+002, 1.032668e+002
4.034892e+002, 1.041441e+002
4.039713e+002, 1.045533e+002
4.044534e+002, 1.043579e+002
4.049355e+002, 1.038821e+002
4.054177e+002, 1.034872e+002
4.058998e+002, 1.031936e+002
4.063819e+002, 1.028979e+002
4.068640e+002, 1.023894e+002
4.073461e+002, 1.020766e+002
4.078282e+002, 1.023268e+002
4.083104e+002, 1.029469e+002
4.087925e+002, 1.034511e+002
4.092746e+002, 1.035350e+002
4.097567e+002, 1.032758e+002
4.102388e+002, 1.030314e+002
4.107209e+002, 1.027770e+002
4.112031e+002, 1.025752e+002
4.116852e+002, 1.024189e+002
4.121673e+002, 1.023221e+002
4.126494e+002, 1.023491e+002
4.131315e+002, 1.024947e+002
4.136136e+002, 1.026146e+002
4.140958e+002, 1.024728e+002
4.145779e+002, 1.019502e+002
4.150600e+002, 1.016428e+002
4.155421e+002, 1.017859e+002
4.160242e+002, 1.019324e+002
4.165063e+002, 1.018549e+002
4.169885e+002, 1.016382e+002
4.174706e+002, 1.015304e+002
4.179527e+002, 1.017377e+002
4.184348e+002, 1.021249e+002
4.189169e+002, 1.021803e+002
4.193990e+002, 1.016808e+002
4.198812e+002, 1.013471e+002
4.203633e+002, 1.015360e+002
4.208454e+002, 1.019082e+002
4.213275e+002, 1.021970e+002
4.218096e+002, 1.023420e+002
4.222917e+002, 1.023279e+002
4.227739e+002, 1.019971e+002
4.232560e+002, 1.013796e+002
4.237381e+002, 1.011432e+002
4.242202e+002, 1.016541e+002
4.247023e+002, 1.021992e+002
4.251844e+002, 1.021742e+002
4.256666e+002, 1.017135e+002
4.261487e+002, 1.013020e+002
4.266308e+002, 1.011113e+002
4.271129e+002, 1.011000e+002
4.275950e+002, 1.012660e+002
4.280771e+002, 1.016225e+002
4.285593e+002, 1.019351e+002
4.290414e+002, 1.020810e+002
4.295235e+002, 1.020956e+002
4.300056e+002, 1.020902e+002
4.304877e+002, 1.020907e+002
4.309698e+002, 1.020155e+002
4.314520e+002, 1.017212e+002
4.319341e+002, 1.013392e+002
4.324162e+002, 1.011488e+002
4.328983e+002, 1.012314e+002
4.333804e+002, 1.014364e+002
4.338625e+002, 1.016336e+002
4.343447e+002, 1.018346e+002
4.348268e+002, 1.018459e+002
4.353089e+002, 1.015333e+002
4.357910e+002, 1.011373e+002
4.362731e+002, 1.007270e+002
4.367552e+002, 1.003573e+002
4.372374e+002, 1.001790e+002
4.377195e+002, 1.003014e+002
4.382016e+002, 1.006372e+002
4.386837e+002, 1.008533e+002
4.391658e+002, 1.008254e+002
4.396479e+002, 1.008354e+002
4.401301e+002, 1.009946e+002
4.406122e+002, 1.011473e+002
4.410943e+002, 1.010836e+002
4.415764e+002, 1.007951e+002
4.420585e+002, 1.005243e+002
4.425406e+002, 1.005925e+002
4.430227e+002, 1.010916e+002
4.435049e+002, 1.012597e+002
4.439870e+002, 1.006082e+002
4.444691e+002, 1.001306e+002
4.449512e+002, 1.003337e+002
4.454333e+002, 1.008796e+002
4.459154e+002, 1.011883e+002
4.463976e+002, 1.009498e+002
4.468797e+002, 1.003723e+002
4.473618e+002, 9.987132e+001
4.478439e+002, 9.939796e+001
4.483260e+002, 9.915072e+001
4.488081e+002, 9.938719e+001
4.492903e+002, 9.970042e+001
4.497724e+002, 9.981766e+001
4.502545e+002, 9.973601e+001
4.507366e+002, 9.966060e+001
4.512187e+002, 9.972122e+001
4.517008e+002, 9.991239e+001
4.521830e+002, 1.002710e+002
4.526651e+002, 1.009233e+002
4.531472e+002, 1.014220e+002
4.536293e+002, 1.014477e+002
4.541114e+002, 1.011629e+002
4.545935e+002, 1.007259e+002
4.550757e+002, 1.000615e+002
4.555578e+002, 9.946507e+001
4.560399e+002, 9.923816e+001
4.565220e+002, 9.930529e+001
4.570041e+002, 9.931312e+001
4.574862e+002, 9.912350e+001
4.579684e+002, 9.892498e+001
4.584505e+002, 9.902983e+001
4.589326e+002, 9.943795e+001
4.594147e+002, 9.970412e+001
4.598968e+002, 9.962746e+001
4.603789e+002, 9.946474e+001
4.608611e+002, 9.948602e+001
4.613432e+002, 9.965842e+001
4.618253e+002, 9.971209e+001
4.623074e+002, 9.945428e+001
4.627895e+002, 9.897909e+001
4.632716e+002, 9.867265e+001
4.637538e+002, 9.862198e+001
4.642359e+002, 9.861295e+001
4.647180e+002, 9.859846e+001
4.652001e+002, 9.862637e+001
4.656822e+002, 9.881574e+001
4.661643e+002, 9.915443e+001
4.666465e+002, 9.941424e+001
4.671286e+002, 9.930936e+001
4.676107e+002, 9.877534e+001
4.680928e+002, 9.848885e+001
4.685749e+002, 9.862743e+001
4.690570e+002, 9.882880e+001
4.695392e+002, 9.907915e+001
4.700213e+002, 9.930981e+001
4.705034e+002, 9.941296e+001
4.709855e+002, 9.933671e+001
4.714676e+002, 9.918589e+001
4.719497e+002, 9.917842e+001
4.724319e+002, 9.938292e+001
4.729140e+002, 9.943068e+001
4.733961e+002, 9.920662e+001
4.738782e+002, 9.885509e+001
4.743603e+002, 9.832478e+001
4.748424e+002, 9.770544e+001
4.753246e+002, 9.730032e+001
4.758067e+002, 9.743996e+001
4.762888e+002, 9.786527e+001
4.767709e+002, 9.795594e+001
4.772530e+002, 9.764290e+001
4.777351e+002, 9.744091e+001
4.782173e+002, 9.772757e+001
4.786994e+002, 9.819219e+001
4.791815e+002, 9.831312e+001
4.796636e+002, 9.797013e+001
4.801457e+002, 9.765062e+001
4.806278e+002, 9.766305e+001
4.811100e+002, 9.784677e+001
4.815920e+002, 9.785491e+001
4.820742e+002, 9.761546e+001
4.825563e+002, 9.746385e+001
4.830384e+002, 9.776479e+001
4.835205e+002, 9.850462e+001
4.840026e+002, 9.893303e+001
4.844847e+002, 9.896838e+001
4.849669e+002, 9.880312e+001
4.854490e+002, 9.832617e+001
4.859311e+002, 9.774039e+001
4.864132e+002, 9.740311e+001
4.868953e+002, 9.744504e+001
4.873774e+002, 9.770236e+001
4.878596e+002, 9.792944e+001
4.883417e+002, 9.820457e+001
4.888238e+002, 9.822186e+001
4.893059e+002, 9.775999e+001
4.897880e+002, 9.729724e+001
4.902701e+002, 9.704768e+001
4.907523e+002, 9.698776e+001
4.912344e+002, 9.701836e+001
4.917165e+002, 9.708528e+001
4.921986e+002, 9.718961e+001
4.926807e+002, 9.736345e+001
4.931628e+002, 9.768781e+001
4.936450e+002, 9.785683e+001
4.941271e+002, 9.766044e+001
4.946092e+002, 9.739086e+001
4.950913e+002, 9.722212e+001
4.955734e+002, 9.716944e+001
4.960555e+002, 9.717285e+001
4.965377e+002, 9.726511e+001
4.970198e+002, 9.737664e+001
4.975019e+002, 9.727825e+001
4.979840e+002, 9.691768e+001
4.984661e+002, 9.657082e+001
4.989482e+002, 9.637714e+001
4.994304e+002, 9.629951e+001
4.999125e+002, 9.624899e+001
5.003946e+002, 9.619126e+001
5.008767e+002, 9.623325e+001
5.013588e+002, 9.658039e+001
5.018409e+002, 9.702359e+001
5.023231e+002, 9.715404e+001
5.028052e+002, 9.688512e+001
5.032873e+002, 9.650462e+001
5.037694e+002, 9.628657e+001
5.042515e+002, 9.623703e+001
5.047336e+002, 9.610244e+001
5.052158e+002, 9.582026e+001
5.056979e+002, 9.553367e+001
5.061800e+002, 9.517942e+001
5.066621e+002, 9.488701e+001
5.071442e+002, 9.492085e+001
5.076263e+002, 9.535942e+001
5.081085e+002, 9.590737e+001
5.085906e+002, 9.608189e+001
5.090727e+002, 9.573441e+001
5.095548e+002, 9.555000e+001
5.100369e+002, 9.567265e+001
5.105190e+002, 9.581477e+001
5.110012e+002, 9.587498e+001
5.114833e+002, 9.587363e+001
5.119654e+002, 9.587718e+001
5.124475e+002, 9.593118e+001
5.129296e+002, 9.596407e+001
5.134117e+002, 9.575862e+001
5.138939e+002, 9.524269e+001
5.143760e+002, 9.506449e+001
5.148581e+002, 9.564921e+001
5.153402e+002, 9.633424e+001
5.158223e+002, 9.655395e+001
5.163044e+002, 9.635915e+001
5.167866e+002, 9.612766e+001
5.172687e+002, 9.605965e+001
5.177508e+002, 9.601651e+001
5.182329e+002, 9.577076e+001
5.187150e+002, 9.533994e+001
5.191971e+002, 9.498214e+001
5.196793e+002, 9.480909e+001
5.201614e+002, 9.479325e+001
5.206435e+002, 9.492042e+001
5.211256e+002, 9.528584e+001
5.216077e+002, 9.549260e+001
5.220898e+002, 9.532771e+001
5.225720e+002, 9.507898e+001
5.230541e+002, 9.503002e+001
5.235362e+002, 9.516477e+001
5.240183e+002, 9.524949e+001
5.245004e+002, 9.509772e+001
5.249825e+002, 9.478173e+001
5.254647e+002, 9.468510e+001
5.259468e+002, 9.510763e+001
5.264289e+002, 9.532051e+001
5.269110e+002, 9.513212e+001
5.273931e+002, 9.481162e+001
5.278752e+002, 9.453429e+001
5.283574e+002, 9.434579e+001
5.288395e+002, 9.425389e+001
5.293216e+002, 9.430263e+001
5.298037e+002, 9.446008e+001
5.302858e+002, 9.452937e+001
5.307679e+002, 9.449270e+001
5.312501e+002, 9.440793e+001
5.317322e+002, 9.412632e+001
5.322143e+002, 9.389316e+001
5.326964e+002, 9.405932e+001
5.331785e+002, 9.474627e+001
5.336606e+002, 9.534023e+001
5.341428e+002, 9.538438e+001
5.346249e+002, 9.506160e+001
5.351070e+002, 9.469515e+001
5.355891e+002, 9.431001e+001
5.360712e+002, 9.411578e+001
5.365533e+002, 9.439288e+001
5.370355e+002, 9.500730e+001
5.375176e+002, 9.513704e+001
5.379997e+002, 9.434563e+001
5.384818e+002, 9.365049e+001
5.389639e+002, 9.334142e+001
5.394460e+002, 9.328313e+001
5.399282e+002, 9.330924e+001
5.404103e+002, 9.338396e+001
5.408924e+002, 9.358862e+001
5.413745e+002, 9.405315e+001
5.418566e+002, 9.479443e+001
5.423387e+002, 9.520883e+001
5.428209e+002, 9.492445e+001
5.433029e+002, 9.474303e+001
5.437850e+002, 9.500583e+001
5.442672e+002, 9.536616e+001
5.447493e+002, 9.540224e+001
5.452314e+002, 9.501057e+001
5.457135e+002, 9.446725e+001
5.461956e+002, 9.406009e+001
5.466777e+002, 9.377641e+001
5.471599e+002, 9.344755e+001
5.476420e+002, 9.295285e+001
5.481241e+002, 9.265092e+001
5.486062e+002, 9.298907e+001
5.490883e+002, 9.362285e+001
5.495704e+002, 9.400121e+001
5.500526e+002, 9.397810e+001
5.505347e+002, 9.380589e+001
5.510168e+002, 9.355899e+001
5.514989e+002, 9.329130e+001
5.519810e+002, 9.312411e+001
5.524631e+002, 9.308399e+001
5.529453e+002, 9.309120e+001
5.534274e+002, 9.306623e+001
5.539095e+002, 9.300890e+001
5.543916e+002, 9.303434e+001
5.548737e+002, 9.334869e+001
5.553558e+002, 9.348759e+001
5.558380e+002, 9.317484e+001
5.563201e+002, 9.268372e+001
5.568022e+002, 9.231496e+001
5.572843e+002, 9.216032e+001
5.577664e+002, 9.219619e+001
5.582485e+002, 9.245162e+001
5.587307e+002, 9.294057e+001
5.592128e+002, 9.321073e+001
5.596949e+002, 9.314787e+001
5.601770e+002, 9.301598e+001
5.606591e+002, 9.289250e+001
5.611412e+002, 9.276522e+001
5.616234e+002, 9.259951e+001
5.621055e+002, 9.238004e+001
5.625876e+002, 9.220304e+001
5.630697e+002, 9.223177e+001
5.635518e+002, 9.237594e+001
5.640339e+002, 9.226402e+001
5.645161e+002, 9.178481e+001
5.649982e+002, 9.141300e+001
5.654803e+002, 9.159670e+001
5.659624e+002, 9.217001e+001
5.664445e+002, 9.236681e+001
5.669266e+002, 9.178418e+001
5.674088e+002, 9.140012e+001
5.678909e+002, 9.185062e+001
5.683730e+002, 9.254015e+001
5.688551e+002, 9.262640e+001
5.693372e+002, 9.201808e+001
5.698193e+002, 9.132437e+001
5.703015e+002, 9.111814e+001
5.707836e+002, 9.137321e+001
5.712657e+002, 9.160437e+001
5.717478e+002, 9.191161e+001
5.722299e+002, 9.204951e+001
5.727120e+002, 9.189269e+001
5.731942e+002, 9.161335e+001
5.736763e+002, 9.131894e+001
5.741584e+002, 9.105013e+001
5.746405e+002, 9.088635e+001
5.751226e+002, 9.099315e+001
5.756047e+002, 9.127431e+001
5.760869e+002, 9.129398e+001
5.765690e+002, 9.098827e+001
5.770511e+002, 9.068266e+001
5.775332e+002, 9.047684e+001
5.780153e+002, 9.040007e+001
5.784974e+002, 9.053096e+001
5.789796e+002, 9.094601e+001
5.794617e+002, 9.122647e+001
5.799438e+002, 9.106128e+001
5.804259e+002, 9.077029e+001
5.809080e+002, 9.080103e+001
5.813901e+002, 9.112173e+001
5.818723e+002, 9.128958e+001
5.823544e+002, 9.100035e+001
5.828365e+002, 9.039980e+001
5.833186e+002, 8.998017e+001
5.838007e+002, 8.981171e+001
5.842828e+002, 8.973125e+001
5.847650e+002, 8.982378e+001
5.852471e+002, 8.992427e+001
5.857292e+002, 8.988439e+001
5.862113e+002, 8.974932e+001
5.866934e+002, 8.970422e+001
5.871755e+002, 8.990581e+001
5.876577e+002, 9.019226e+001
5.881398e+002, 9.013955e+001
5.886219e+002, 8.968186e+001
5.891040e+002, 8.932749e+001
5.895861e+002, 8.916600e+001
5.900682e+002, 8.918974e+001
5.905504e+002, 8.953345e+001
5.910325e+002, 9.011344e+001
5.915146e+002, 9.036145e+001
5.919967e+002, 8.968166e+001
5.924788e+002, 8.895811e+001
5.929609e+002, 8.911250e+001
5.934431e+002, 8.986071e+001
5.939252e+002, 9.028276e+001
5.944073e+002, 9.002429e+001
5.948894e+002, 8.955453e+001
5.953715e+002, 8.955434e+001
5.958536e+002, 9.018791e+001
5.963358e+002, 9.054751e+001
5.968179e+002, 9.056467e+001
5.973000e+002, 9.042852e+001
5.977821e+002, 9.006628e+001
5.982642e+002, 8.964245e+001
5.987463e+002, 8.939227e+001
5.992285e+002, 8.939172e+001
5.997106e+002, 8.948229e+001
6.001927e+002, 8.947281e+001
6.006748e+002, 8.936716e+001
6.011569e+002, 8.927300e+001
6.016390e+002, 8.917277e+001
6.021212e+002, 8.913042e+001
6.026033e+002, 8.917630e+001
6.030854e+002, 8.930738e+001
6.035675e+002, 8.956512e+001
6.040496e+002, 9.004341e+001
6.045317e+002, 9.038489e+001
6.050139e+002, 9.037344e+001
6.054960e+002, 9.013184e+001
6.059781e+002, 8.974682e+001
6.064602e+002, 8.926708e+001
6.069423e+002, 8.894789e+001
6.074244e+002, 8.900877e+001
6.079066e+002, 8.934194e+001
6.083887e+002, 8.945305e+001
6.088708e+002, 8.900807e+001
6.093529e+002, 8.882191e+001
6.098350e+002, 8.891853e+001
6.103171e+002, 8.927879e+001
6.107993e+002, 9.019530e+001
6.112814e+002, 9.140393e+001
6.117635e+002, 9.210683e+001
6.122456e+002, 9.169386e+001
6.127277e+002, 9.064396e+001
6.132098e+002, 8.991208e+001
6.136920e+002, 8.950837e+001
6.141741e+002, 8.928512e+001
6.146562e+002, 8.931917e+001
6.151383e+002, 8.937196e+001
6.156204e+002, 8.914614e+001
6.161025e+002, 8.869698e+001
6.165847e+002, 8.836783e+001
6.170668e+002, 8.835168e+001
6.175489e+002, 8.835372e+001
6.180310e+002, 8.808543e+001
6.185131e+002, 8.771690e+001
6.189952e+002, 8.764376e+001
6.194774e+002, 8.797422e+001
6.199595e+002, 8.840370e+001
6.204416e+002, 8.856432e+001
6.209237e+002, 8.843330e+001
6.214058e+002, 8.839053e+001
6.218879e+002, 8.846104e+001
6.223701e+002, 8.859743e+001
6.228522e+002, 8.896243e+001
6.233343e+002, 8.929048e+001
6.238164e+002, 8.923602e+001
6.242985e+002, 8.876298e+001
6.247806e+002, 8.826907e+001
6.252628e+002, 8.810120e+001
6.257448e+002, 8.815581e+001
6.262269e+002, 8.816789e+001
6.267090e+002, 8.813053e+001
6.271912e+002, 8.805569e+001
6.276733e+002, 8.790368e+001
6.281554e+002, 8.775994e+001
6.286375e+002, 8.781447e+001
6.291196e+002, 8.810423e+001
6.296017e+002, 8.836392e+001
6.300839e+002, 8.855582e+001
6.305660e+002, 8.870499e+001
6.310481e+002, 8.884883e+001
6.315302e+002, 8.896310e+001
6.320123e+002, 8.896397e+001
6.324944e+002, 8.881251e+001
6.329766e+002, 8.862438e+001
6.334587e+002, 8.862131e+001
6.339408e+002, 8.886031e+001
6.344229e+002, 8.898787e+001
6.349050e+002, 8.893203e+001
6.353871e+002, 8.884848e+001
6.358693e+002, 8.876830e+001
6.363514e+002, 8.871891e+001
6.368335e+002, 8.875514e+001
6.373156e+002, 8.890721e+001
6.377977e+002, 8.906600e+001
6.382798e+002, 8.916321e+001
6.387620e+002, 8.921043e+001
6.392441e+002, 8.926167e+001
6.397262e+002, 8.931651e+001
6.402083e+002, 8.921582e+001
6.406904e+002, 8.880633e+001
6.411725e+002, 8.822133e+001
6.416547e+002, 8.790457e+001
6.421368e+002, 8.800863e+001
6.426189e+002, 8.817680e+001
6.431010e+002, 8.862157e+001
6.435831e+002, 8.894144e+001
6.440652e+002, 8.873195e+001
6.445474e+002, 8.818762e+001
6.450295e+002, 8.783033e+001
6.455116e+002, 8.794827e+001
6.459937e+002, 8.831084e+001
6.464758e+002, 8.859296e+001
6.469579e+002, 8.879443e+001
6.474401e+002, 8.887181e+001
6.479222e+002, 8.878299e+001
6.484043e+002, 8.864420e+001
6.488864e+002, 8.853103e+001
6.493685e+002, 8.843834e+001
6.498506e+002, 8.834506e+001
6.503328e+002, 8.815327e+001
6.508149e+002, 8.811117e+001
6.512970e+002, 8.857352e+001
6.517791e+002, 8.909844e+001
6.522612e+002, 8.900974e+001
6.527433e+002, 8.834294e+001
6.532255e+002, 8.779630e+001
6.537076e+002, 8.790862e+001
6.541897e+002, 8.849309e+001
6.546718e+002, 8.880844e+001
6.551539e+002, 8.857899e+001
6.556360e+002, 8.874767e+001
6.561182e+002, 9.026064e+001
6.566003e+002, 9.149231e+001
6.570824e+002, 9.127254e+001
6.575645e+002, 8.999157e+001
6.580466e+002, 8.894051e+001
6.585287e+002, 8.867697e+001
6.590109e+002, 8.869934e+001
6.594930e+002, 8.855118e+001
6.599751e+002, 8.830984e+001
6.604572e+002, 8.823470e+001
6.609393e+002, 8.838769e+001
6.614214e+002, 8.849525e+001
6.619036e+002, 8.827042e+001
6.623857e+002, 8.776936e+001
6.628678e+002, 8.760073e+001
6.633499e+002, 8.812034e+001
6.638320e+002, 8.850738e+001
6.643141e+002, 8.863116e+001
6.647963e+002, 8.864657e+001
6.652784e+002, 8.868443e+001
6.657605e+002, 8.873706e+001
6.662426e+002, 8.869086e+001
6.667247e+002, 8.841019e+001
6.672068e+002, 8.810208e+001
6.676890e+002, 8.816826e+001
6.681711e+002, 8.859968e+001
6.686532e+002, 8.915018e+001
6.691353e+002, 8.991503e+001
6.696174e+002, 9.041319e+001
6.700995e+002, 9.002175e+001
6.705817e+002, 8.884450e+001
6.710638e+002, 8.806088e+001
6.715459e+002, 8.787498e+001
6.720280e+002, 8.785429e+001
6.725101e+002, 8.791444e+001
6.729922e+002, 8.804343e+001
6.734744e+002, 8.831636e+001
6.739565e+002, 8.867829e+001
6.744386e+002, 8.887063e+001
6.749207e+002, 8.866006e+001
6.754028e+002, 8.819557e+001
6.758849e+002, 8.797447e+001
6.763671e+002, 8.804897e+001
6.768492e+002, 8.813536e+001
6.773313e+002, 8.816898e+001
6.778134e+002, 8.821191e+001
6.782955e+002, 8.840353e+001
6.787776e+002, 8.866057e+001
6.792598e+002, 8.866445e+001
6.797419e+002, 8.810740e+001
6.802240e+002, 8.758271e+001
6.807061e+002, 8.748598e+001
6.811882e+002, 8.762959e+001
6.816703e+002, 8.770609e+001
6.821525e+002, 8.767162e+001
6.826346e+002, 8.769897e+001
6.831167e+002, 8.794667e+001
6.835988e+002, 8.835355e+001
6.840809e+002, 8.863826e+001
6.845630e+002, 8.886776e+001
6.850452e+002, 8.882736e+001
6.855273e+002, 8.804545e+001
6.860094e+002, 8.737659e+001
6.864915e+002, 8.747746e+001
6.869736e+002, 8.811449e+001
6.874557e+002, 8.854128e+001
6.879379e+002, 8.843501e+001
6.884200e+002, 8.810566e+001
6.889021e+002, 8.765581e+001
6.893842e+002, 8.721929e+001
6.898663e+002, 8.717908e+001
6.903484e+002, 8.759518e+001
6.908306e+002, 8.809561e+001
6.913127e+002, 8.840903e+001
6.917948e+002, 8.855174e+001
6.922769e+002, 8.860718e+001
6.927590e+002, 8.850288e+001
6.932411e+002, 8.842654e+001
6.937233e+002, 8.849710e+001
6.942054e+002, 8.849870e+001
6.946875e+002, 8.820491e+001
6.951696e+002, 8.773891e+001
6.956517e+002, 8.743742e+001
6.961339e+002, 8.748775e+001
6.966160e+002, 8.762713e+001
6.970981e+002, 8.746687e+001
6.975802e+002, 8.714399e+001
6.980623e+002, 8.724753e+001
6.985444e+002, 8.790068e+001
6.990266e+002, 8.843358e+001
6.995087e+002, 8.832699e+001
6.999908e+002, 8.776700e+001
7.004729e+002, 8.746499e+001
7.009550e+002, 8.762481e+001
7.014371e+002, 8.773740e+001
7.019193e+002, 8.779575e+001
7.024014e+002, 8.780532e+001
7.028835e+002, 8.775463e+001
7.033656e+002, 8.766020e+001
7.038477e+002, 8.755230e+001
7.043298e+002, 8.744471e+001
7.048120e+002, 8.732829e+001
7.052941e+002, 8.712443e+001
7.057762e+002, 8.688792e+001
7.062583e+002, 8.693282e+001
7.067404e+002, 8.732703e+001
7.072225e+002, 8.774394e+001
7.077046e+002, 8.803401e+001
7.081867e+002, 8.819138e+001
7.086688e+002, 8.816880e+001
7.091509e+002, 8.782071e+001
7.096331e+002, 8.767272e+001
7.101152e+002, 8.801565e+001
7.105973e+002, 8.831640e+001
7.110794e+002, 8.817400e+001
7.115615e+002, 8.778571e+001
7.120436e+002, 8.750668e+001
7.125258e+002, 8.746758e+001
7.130079e+002, 8.761112e+001
7.134900e+002, 8.797519e+001
7.139721e+002, 8.848931e+001
7.144542e+002, 8.876868e+001
7.149363e+002, 8.879016e+001
7.154185e+002, 8.861497e+001
7.159006e+002, 8.811185e+001
7.163827e+002, 8.759047e+001
7.168648e+002, 8.769422e+001
7.173469e+002, 8.858778e+001
7.178290e+002, 8.905308e+001
7.183112e+002, 8.854652e+001
7.187933e+002, 8.806145e+001
7.192754e+002, 8.813977e+001
7.197575e+002, 8.853108e+001
7.202396e+002, 8.892496e+001
7.207217e+002, 8.920182e+001
7.212039e+002, 8.924721e+001
7.216860e+002, 8.880885e+001
7.221681e+002, 8.807848e+001
7.226502e+002, 8.787920e+001
7.231323e+002, 8.827821e+001
7.236144e+002, 8.864500e+001
7.240966e+002, 8.879210e+001
7.245787e+002, 8.881319e+001
7.250608e+002, 8.885784e+001
7.255429e+002, 8.892045e+001
7.260250e+002, 8.869100e+001
7.265071e+002, 8.759663e+001
7.269893e+002, 8.687478e+001
7.274714e+002, 8.727345e+001
7.279535e+002, 8.809998e+001
7.284356e+002, 8.863655e+001
7.289177e+002, 8.876131e+001
7.293998e+002, 8.865604e+001
7.298820e+002, 8.840737e+001
7.303641e+002, 8.809963e+001
7.308462e+002, 8.790677e+001
7.313283e+002, 8.782856e+001
7.318104e+002, 8.790836e+001
7.322925e+002, 8.821716e+001
7.327747e+002, 8.853931e+001
7.332568e+002, 8.869523e+001
7.337389e+002, 8.871046e+001
7.342210e+002, 8.874162e+001
7.347031e+002, 8.877238e+001
7.351852e+002, 8.884177e+001
7.356674e+002, 8.899783e+001
7.361495e+002, 8.916280e+001
7.366316e+002, 8.928533e+001
7.371137e+002, 8.935943e+001
7.375958e+002, 8.939075e+001
7.380779e+002, 8.938142e+001
7.385601e+002, 8.934058e+001
7.390422e+002, 8.919700e+001
7.395243e+002, 8.898973e+001
7.400064e+002, 8.923074e+001
7.404885e+002, 9.012928e+001
7.409706e+002, 9.066538e+001
7.414528e+002, 9.007970e+001
7.419349e+002, 8.890681e+001
7.424170e+002, 8.835826e+001
7.428991e+002, 8.862266e+001
7.433812e+002, 8.879186e+001
7.438633e+002, 8.878463e+001
7.443455e+002, 8.867599e+001
7.448276e+002, 8.840434e+001
7.453097e+002, 8.809672e+001
7.457918e+002, 8.789918e+001
7.462739e+002, 8.786633e+001
7.467560e+002, 8.804289e+001
7.472382e+002, 8.865356e+001
7.477203e+002, 8.947701e+001
7.482024e+002, 8.976881e+001
7.486845e+002, 8.951698e+001
7.491666e+002, 8.922112e+001
7.496487e+002, 8.901528e+001
7.501309e+002, 8.890703e+001
7.506130e+002, 8.892004e+001
7.510951e+002, 8.906133e+001
7.515772e+002, 8.919904e+001
7.520593e+002, 8.932202e+001
7.525414e+002, 8.945363e+001
7.530236e+002, 8.966910e+001
7.535057e+002, 8.984341e+001
7.539878e+002, 8.982254e+001
7.544699e+002, 8.964016e+001
7.549520e+002, 8.948534e+001
7.554341e+002, 8.948587e+001
7.559163e+002, 8.951660e+001
7.563984e+002, 8.935036e+001
7.568805e+002, 8.905119e+001
7.573626e+002, 8.890977e+001
7.578447e+002, 8.897672e+001
7.583268e+002, 8.916265e+001
7.588090e+002, 8.946324e+001
7.592911e+002, 8.978017e+001
7.597732e+002, 8.977048e+001
7.602553e+002, 8.911311e+001
7.607374e+002, 8.871783e+001
7.612195e+002, 8.876254e+001
7.617017e+002, 8.886662e+001
7.621838e+002, 8.873882e+001
7.626659e+002, 8.859285e+001
7.631480e+002, 8.885984e+001
7.636301e+002, 8.967701e+001
7.641122e+002, 9.043847e+001
7.645944e+002, 9.074616e+001
7.650765e+002, 9.068875e+001
7.655586e+002, 9.023240e+001
7.660407e+002, 8.948528e+001
7.665228e+002, 8.901994e+001
7.670049e+002, 8.906667e+001
7.674871e+002, 8.930555e+001
7.679692e+002, 8.929202e+001
7.684513e+002, 8.900351e+001
7.689334e+002, 8.904495e+001
7.694155e+002, 8.972404e+001
7.698976e+002, 9.022854e+001
7.703798e+002, 9.026060e+001
7.708619e+002, 9.015437e+001
7.713440e+002, 9.014917e+001
7.718261e+002, 9.024145e+001
7.723082e+002, 9.032690e+001
7.727903e+002, 9.041780e+001
7.732725e+002, 9.042629e+001
7.737546e+002, 9.014693e+001
7.742367e+002, 8.980870e+001
7.747188e+002, 8.982777e+001
7.752009e+002, 9.020644e+001
7.756830e+002, 9.059663e+001
7.761652e+002, 9.077075e+001
7.766473e+002, 9.080953e+001
7.771294e+002, 9.091345e+001
7.776115e+002, 9.110612e+001
7.780936e+002, 9.121186e+001
7.785757e+002, 9.122028e+001
7.790579e+002, 9.113701e+001
7.795400e+002, 9.085381e+001
7.800221e+002, 9.052840e+001
7.805042e+002, 9.047372e+001
7.809863e+002, 9.078690e+001
7.814684e+002, 9.092402e+001
7.819506e+002, 9.054129e+001
7.824327e+002, 9.015514e+001
7.829148e+002, 9.012589e+001
7.833969e+002, 9.031188e+001
7.838790e+002, 9.045565e+001
7.843611e+002, 9.048977e+001
7.848433e+002, 9.051409e+001
7.853254e+002, 9.062076e+001
7.858075e+002, 9.078747e+001
7.862896e+002, 9.100096e+001
7.867717e+002, 9.126415e+001
7.872538e+002, 9.124081e+001
7.877360e+002, 9.071916e+001
7.882181e+002, 9.029517e+001
7.887002e+002, 9.063255e+001
7.891823e+002, 9.159792e+001
7.896644e+002, 9.204287e+001
7.901465e+002, 9.164529e+001
7.906286e+002, 9.121862e+001
7.911107e+002, 9.060371e+001
7.915928e+002, 9.017935e+001
7.920750e+002, 9.029691e+001
7.925571e+002, 9.077400e+001
7.930392e+002, 9.123631e+001
7.935213e+002, 9.156105e+001
7.940034e+002, 9.174384e+001
7.944855e+002, 9.166807e+001
7.949677e+002, 9.149403e+001
7.954498e+002, 9.158354e+001
7.959319e+002, 9.190344e+001
7.964140e+002, 9.208847e+001
7.968961e+002, 9.198170e+001
7.973782e+002, 9.173982e+001
7.978604e+002, 9.155541e+001
7.983425e+002, 9.142309e+001
7.988246e+002, 9.149564e+001
7.993067e+002, 9.206947e+001
7.997888e+002, 9.231080e+001
8.002709e+002, 9.153846e+001
8.007531e+002, 9.073308e+001
8.012352e+002, 9.073865e+001
8.017173e+002, 9.140638e+001
8.021994e+002, 9.190031e+001
8.026815e+002, 9.184399e+001
8.031636e+002, 9.180154e+001
8.036458e+002, 9.225843e+001
8.041279e+002, 9.276620e+001
8.046100e+002, 9.264256e+001
8.050921e+002, 9.202585e+001
8.055742e+002, 9.165156e+001
8.060563e+002, 9.193160e+001
8.065385e+002, 9.247202e+001
8.070206e+002, 9.259913e+001
8.075027e+002, 9.235667e+001
8.079848e+002, 9.240591e+001
8.084669e+002, 9.286073e+001
8.089490e+002, 9.315079e+001
8.094312e+002, 9.298038e+001
8.099133e+002, 9.257380e+001
8.103954e+002, 9.224227e+001
8.108775e+002, 9.199020e+001
8.113596e+002, 9.179982e+001
8.118417e+002, 9.157954e+001
8.123239e+002, 9.153619e+001
8.128060e+002, 9.182402e+001
8.132881e+002, 9.224422e+001
8.137702e+002, 9.268968e+001
8.142523e+002, 9.309496e+001
8.147344e+002, 9.332167e+001
8.152166e+002, 9.326758e+001
8.156987e+002, 9.308050e+001
8.161808e+002, 9.288777e+001
8.166629e+002, 9.268442e+001
8.171450e+002, 9.239890e+001
8.176271e+002, 9.205363e+001
8.181093e+002, 9.191809e+001
8.185914e+002, 9.217032e+001
8.190735e+002, 9.257157e+001
8.195556e+002, 9.261454e+001
8.200377e+002, 9.219616e+001
8.205198e+002, 9.209990e+001
8.210020e+002, 9.257918e+001
8.214841e+002, 9.289479e+001
8.219662e+002, 9.259647e+001
8.224483e+002, 9.212014e+001
8.229304e+002, 9.195646e+001
8.234125e+002, 9.210045e+001
8.238947e+002, 9.223059e+001
8.243768e+002, 9.221854e+001
8.248589e+002, 9.226005e+001
8.253410e+002, 9.256935e+001
8.258231e+002, 9.289468e+001
8.263052e+002, 9.288015e+001
8.267874e+002, 9.258752e+001
8.272695e+002, 9.239950e+001
8.277516e+002, 9.254716e+001
8.282337e+002, 9.280979e+001
8.287158e+002, 9.282856e+001
8.291979e+002, 9.268720e+001
8.296801e+002, 9.280077e+001
8.301622e+002, 9.320662e+001
8.306443e+002, 9.348103e+001
8.311264e+002, 9.340223e+001
8.316085e+002, 9.310704e+001
8.320906e+002, 9.279370e+001
8.325728e+002, 9.244012e+001
8.330549e+002, 9.223025e+001
8.335370e+002, 9.211378e+001
8.340191e+002, 9.222379e+001
8.345012e+002, 9.293485e+001
8.349833e+002, 9.359431e+001
8.354655e+002, 9.352189e+001
8.359476e+002, 9.286351e+001
8.364297e+002, 9.247165e+001
8.369118e+002, 9.279430e+001
8.373939e+002, 9.312823e+001
8.378760e+002, 9.303316e+001
8.383582e+002, 9.278297e+001
8.388403e+002, 9.267982e+001
8.393224e+002, 9.272749e+001
8.398045e+002, 9.282133e+001
8.402866e+002, 9.291273e+001
8.407687e+002, 9.297234e+001
8.412509e+002, 9.292081e+001
8.417330e+002, 9.279169e+001
8.422151e+002, 9.280614e+001
8.426972e+002, 9.297847e+001
8.431793e+002, 9.309870e+001
8.436614e+002, 9.307011e+001
8.441436e+002, 9.302076e+001
8.446257e+002, 9.310899e+001
8.451078e+002, 9.332978e+001
8.455899e+002, 9.348548e+001
8.460720e+002, 9.365453e+001
8.465541e+002, 9.363309e+001
8.470363e+002, 9.316562e+001
8.475184e+002, 9.273209e+001
8.480005e+002, 9.268347e+001
8.484826e+002, 9.289091e+001
8.489647e+002, 9.304346e+001
8.494468e+002, 9.306673e+001
8.499290e+002, 9.301254e+001
8.504111e+002, 9.278883e+001
8.508932e+002, 9.259803e+001
8.513753e+002, 9.274264e+001
8.518574e+002, 9.307329e+001
8.523395e+002, 9.317664e+001
8.528217e+002, 9.295325e+001
8.533038e+002, 9.275384e+001
8.537859e+002, 9.299144e+001
8.542680e+002, 9.345791e+001
8.547501e+002, 9.341665e+001
8.552322e+002, 9.286872e+001
8.557144e+002, 9.251089e+001
8.561965e+002, 9.249838e+001
8.566786e+002, 9.263439e+001
8.571607e+002, 9.281771e+001
8.576428e+002, 9.300537e+001
8.581249e+002, 9.305431e+001
8.586071e+002, 9.288307e+001
8.590892e+002, 9.274728e+001
8.595713e+002, 9.264612e+001
8.600534e+002, 9.257883e+001
8.605355e+002, 9.257243e+001
8.610176e+002, 9.258330e+001
8.614998e+002, 9.255038e+001
8.619819e+002, 9.247007e+001
8.624640e+002, 9.241248e+001
8.629461e+002, 9.247897e+001
8.634282e+002, 9.249805e+001
8.639103e+002, 9.225526e+001
8.643925e+002, 9.194421e+001
8.648746e+002, 9.185727e+001
8.653567e+002, 9.199522e+001
8.658388e+002, 9.219443e+001
8.663209e+002, 9.237562e+001
8.668030e+002, 9.244953e+001
8.672852e+002, 9.220454e+001
8.677673e+002, 9.171378e+001
8.682494e+002, 9.134248e+001
8.687315e+002, 9.111177e+001
8.692136e+002, 9.105806e+001
8.696957e+002, 9.123621e+001
8.701779e+002, 9.145781e+001
8.706600e+002, 9.145763e+001
8.711421e+002, 9.123306e+001
8.716242e+002, 9.109927e+001
8.721063e+002, 9.106714e+001
8.725884e+002, 9.110638e+001
8.730705e+002, 9.151111e+001
8.735526e+002, 9.170426e+001
8.740347e+002, 9.107861e+001
8.745168e+002, 9.000504e+001
8.749990e+002, 8.939241e+001
8.754811e+002, 8.947095e+001
8.759632e+002, 8.976465e+001
8.764453e+002, 9.037765e+001
8.769274e+002, 9.088774e+001
8.774095e+002, 9.091346e+001
8.778917e+002, 9.063956e+001
8.783738e+002, 9.034753e+001
8.788559e+002, 9.013383e+001
8.793380e+002, 9.005970e+001
8.798201e+002, 9.027013e+001
8.803022e+002, 9.053291e+001
8.807844e+002, 9.040732e+001
8.812665e+002, 9.000073e+001
8.817486e+002, 8.968922e+001
8.822307e+002, 8.953526e+001
8.827128e+002, 8.949960e+001
8.831949e+002, 8.956982e+001
8.836771e+002, 8.969399e+001
8.841592e+002, 8.977758e+001
8.846413e+002, 8.982970e+001
8.851234e+002, 8.977220e+001
8.856055e+002, 8.960006e+001
8.860876e+002, 8.930627e+001
8.865698e+002, 8.868693e+001
8.870519e+002, 8.815260e+001
8.875340e+002, 8.833157e+001
8.880161e+002, 8.915206e+001
8.884982e+002, 8.949324e+001
8.889803e+002, 8.899155e+001
8.894625e+002, 8.847936e+001
8.899446e+002, 8.796215e+001
8.904267e+002, 8.760632e+001
8.909088e+002, 8.764633e+001
8.913909e+002, 8.790142e+001
8.918730e+002, 8.798421e+001
8.923552e+002, 8.777901e+001
8.928373e+002, 8.765132e+001
8.933194e+002, 8.802393e+001
8.938015e+002, 8.843210e+001
8.942836e+002, 8.830567e+001
8.947657e+002, 8.784870e+001
8.952479e+002, 8.746660e+001
8.957300e+002, 8.726738e+001
8.962121e+002, 8.725318e+001
8.966942e+002, 8.746931e+001
8.971763e+002, 8.772187e+001
8.976584e+002, 8.753388e+001
8.981406e+002, 8.696617e+001
8.986227e+002, 8.668353e+001
8.991048e+002, 8.677604e+001
8.995869e+002, 8.674277e+001
9.000690e+002, 8.629321e+001
9.005511e+002, 8.575378e+001
9.010333e+002, 8.564155e+001
9.015154e+002, 8.598549e+001
9.019975e+002, 8.608873e+001
9.024796e+002, 8.578436e+001
9.029617e+002, 8.554837e+001
9.034438e+002, 8.543533e+001
9.039260e+002, 8.545291e+001
9.044081e+002, 8.575215e+001
9.048902e+002, 8.616860e+001
9.053723e+002, 8.624585e+001
9.058544e+002, 8.578896e+001
9.063365e+002, 8.541465e+001
9.068187e+002, 8.536626e+001
9.073008e+002, 8.534337e+001
9.077829e+002, 8.508742e+001
9.082650e+002, 8.478819e+001
9.087471e+002, 8.476078e+001
9.092292e+002, 8.501551e+001
9.097114e+002, 8.523671e+001
9.101935e+002, 8.518880e+001
9.106756e+002, 8.510735e+001
9.111577e+002, 8.540834e+001
9.116398e+002, 8.577491e+001
9.121219e+002, 8.543941e+001
9.126041e+002, 8.451915e+001
9.130862e+002, 8.390913e+001
9.135683e+002, 8.403390e+001
9.140504e+002, 8.446606e+001
9.145325e+002, 8.464267e+001
9.150146e+002, 8.462039e+001
9.154968e+002, 8.478148e+001
9.159789e+002, 8.513928e+001
9.164610e+002, 8.526310e+001
9.169431e+002, 8.498951e+001
9.174252e+002, 8.474411e+001
9.179073e+002, 8.494750e+001
9.183895e+002, 8.539682e+001
9.188716e+002, 8.532433e+001
9.193537e+002, 8.446053e+001
9.198358e+002, 8.374281e+001
9.203179e+002, 8.303896e+001
9.208000e+002, 8.267597e+001
9.212822e+002, 8.305992e+001
9.217643e+002, 8.367126e+001
9.222464e+002, 8.393668e+001
9.227285e+002, 8.386064e+001
9.232106e+002, 8.381963e+001
9.236927e+002, 8.394431e+001
9.241749e+002, 8.400199e+001
9.246570e+002, 8.385014e+001
9.251391e+002, 8.367626e+001
9.256212e+002, 8.362498e+001
9.261033e+002, 8.367039e+001
9.265854e+002, 8.375227e+001
9.270676e+002, 8.385597e+001
9.275497e+002, 8.390636e+001
9.280318e+002, 8.380344e+001
9.285139e+002, 8.366944e+001
9.289960e+002, 8.363289e+001
9.294781e+002, 8.365700e+001
9.299603e+002, 8.365915e+001
9.304424e+002, 8.363229e+001
9.309245e+002, 8.364122e+001
9.314066e+002, 8.373656e+001
9.318887e+002, 8.383422e+001
9.323708e+002, 8.379383e+001
9.328530e+002, 8.364014e+001
9.333351e+002, 8.342931e+001
9.338172e+002, 8.317650e+001
9.342993e+002, 8.311163e+001
9.347814e+002, 8.333990e+001
9.352635e+002, 8.356660e+001
9.357457e+002, 8.344089e+001
9.362278e+002, 8.304965e+001
9.367099e+002, 8.292229e+001
9.371920e+002, 8.311843e+001
9.376741e+002, 8.333401e+001
9.381563e+002, 8.359400e+001
9.386384e+002, 8.372501e+001
9.391205e+002, 8.351221e+001
9.396026e+002, 8.321262e+001
9.400847e+002, 8.335073e+001
9.405668e+002, 8.406838e+001
9.410490e+002, 8.438332e+001
9.415311e+002, 8.408993e+001
9.420132e+002, 8.369446e+001
9.424953e+002, 8.307926e+001
9.429774e+002, 8.258568e+001
9.434595e+002, 8.250114e+001
9.439417e+002, 8.273245e+001
9.444238e+002, 8.305547e+001
9.449059e+002, 8.349919e+001
9.453880e+002, 8.375687e+001
9.458701e+002, 8.363634e+001
9.463522e+002, 8.338585e+001
9.468344e+002, 8.298409e+001
9.473165e+002, 8.265810e+001
9.477986e+002, 8.282803e+001
9.482807e+002, 8.342170e+001
9.487628e+002, 8.381149e+001
9.492449e+002, 8.357392e+001
9.497271e+002, 8.324816e+001
9.502092e+002, 8.333272e+001
9.506913e+002, 8.367126e+001
9.511734e+002, 8.425127e+001
9.516555e+002, 8.485715e+001
9.521376e+002, 8.474727e+001
9.526198e+002, 8.373780e+001
9.531019e+002, 8.273584e+001
9.535840e+002, 8.265235e+001
9.540661e+002, 8.313780e+001
9.545482e+002, 8.340317e+001
9.550303e+002, 8.346289e+001
9.555124e+002, 8.336701e+001
9.559945e+002, 8.312328e+001
9.564766e+002, 8.295358e+001
9.569587e+002, 8.299076e+001
9.574409e+002, 8.308385e+001
9.579230e+002, 8.297881e+001
9.584051e+002, 8.267955e+001
9.588872e+002, 8.242801e+001
9.593693e+002, 8.216825e+001
9.598514e+002, 8.224192e+001
9.603336e+002, 8.289011e+001
9.608157e+002, 8.350118e+001
9.612978e+002, 8.359836e+001
9.617799e+002, 8.332655e+001
9.622620e+002, 8.307344e+001
9.627441e+002, 8.278912e+001
9.632263e+002, 8.268142e+001
9.637084e+002, 8.294028e+001
9.641905e+002, 8.311903e+001
9.646726e+002, 8.300534e+001
9.651547e+002, 8.284248e+001
9.656368e+002, 8.281684e+001
9.661190e+002, 8.292348e+001
9.666011e+002, 8.312608e+001
9.670832e+002, 8.357526e+001
9.675653e+002, 8.380490e+001
9.680474e+002, 8.359477e+001
9.685295e+002, 8.326966e+001
9.690117e+002, 8.285922e+001
9.694938e+002, 8.253501e+001
9.699759e+002, 8.257918e+001
9.704580e+002, 8.296803e+001
9.709401e+002, 8.328689e+001
9.714222e+002, 8.331946e+001
9.719044e+002, 8.329173e+001
9.723865e+002, 8.338579e+001
9.728686e+002, 8.346074e+001
9.733507e+002, 8.329878e+001
9.738328e+002, 8.300576e+001
9.743149e+002, 8.285270e+001
9.747971e+002, 8.291187e+001
9.752792e+002, 8.300546e+001
9.757613e+002, 8.297452e+001
9.762434e+002, 8.292200e+001
9.767255e+002, 8.299906e+001
9.772076e+002, 8.315506e+001
9.776898e+002, 8.329786e+001
9.781719e+002, 8.340955e+001
9.786540e+002, 8.347570e+001
9.791361e+002, 8.349001e+001
9.796182e+002, 8.348434e+001
9.801003e+002, 8.353255e+001
9.805825e+002, 8.358080e+001
9.810646e+002, 8.334236e+001
9.815467e+002, 8.288342e+001
9.820288e+002, 8.282237e+001
9.825109e+002, 8.328014e+001
9.829930e+002, 8.369517e+001
9.834752e+002, 8.370457e+001
9.839573e+002, 8.343652e+001
9.844394e+002, 8.306822e+001
9.849215e+002, 8.259753e+001
9.854036e+002, 8.244889e+001
9.858857e+002, 8.267991e+001
9.863679e+002, 8.289119e+001
9.868500e+002, 8.296435e+001
9.873321e+002, 8.305476e+001
9.878142e+002, 8.333841e+001
9.882963e+002, 8.368869e+001
9.887784e+002, 8.367293e+001
9.892606e+002, 8.311938e+001
9.897427e+002, 8.282099e+001
9.902248e+002, 8.293105e+001
9.907069e+002, 8.299125e+001
9.911890e+002, 8.273570e+001
9.916711e+002, 8.251168e+001
9.921533e+002, 8.272408e+001
9.926354e+002, 8.328139e+001
9.931175e+002, 8.363258e+001
9.935996e+002, 8.360197e+001
9.940817e+002, 8.368173e+001
9.945638e+002, 8.409801e+001
9.950460e+002, 8.436440e+001
9.955281e+002, 8.419198e+001
9.960102e+002, 8.384718e+001
9.964923e+002, 8.357593e+001
9.969744e+002, 8.339648e+001
9.974565e+002, 8.331338e+001
9.979387e+002, 8.341580e+001
9.984208e+002, 8.346801e+001
9.989029e+002, 8.329498e+001
9.993850e+002, 8.317522e+001
9.998671e+002, 8.333521e+001
1.000349e+003, 8.363270e+001
1.000831e+003, 8.390076e+001
1.001313e+003, 8.409602e+001
1.001796e+003, 8.413848e+001
1.002278e+003, 8.386018e+001
1.002760e+003, 8.362630e+001
1.003242e+003, 8.367332e+001
1.003724e+003, 8.382216e+001
1.004206e+003, 8.393596e+001
1.004688e+003, 8.400948e+001
1.005170e+003, 8.411418e+001
1.005653e+003, 8.424416e+001
1.006135e+003, 8.418589e+001
1.006617e+003, 8.362576e+001
1.007099e+003, 8.306099e+001
1.007581e+003, 8.297722e+001
1.008063e+003, 8.317017e+001
1.008545e+003, 8.345292e+001
1.009027e+003, 8.373380e+001
1.009509e+003, 8.386467e+001
1.009992e+003, 8.379709e+001
1.010474e+003, 8.361869e+001
1.010956e+003, 8.332902e+001
1.011438e+003, 8.305947e+001
1.011920e+003, 8.305669e+001
1.012402e+003, 8.321633e+001
1.012884e+003, 8.328868e+001
1.013366e+003, 8.326533e+001
1.013849e+003, 8.326822e+001
1.014331e+003, 8.335157e+001
1.014813e+003, 8.349673e+001
1.015295e+003, 8.373734e+001
1.015777e+003, 8.398141e+001
1.016259e+003, 8.391605e+001
1.016741e+003, 8.363142e+001
1.017223e+003, 8.358731e+001
1.017705e+003, 8.383031e+001
1.018188e+003, 8.407146e+001
1.018670e+003, 8.416516e+001
1.019152e+003, 8.413008e+001
1.019634e+003, 8.391254e+001
1.020116e+003, 8.361154e+001
1.020598e+003, 8.386400e+001
1.021080e+003, 8.463218e+001
1.021562e+003, 8.478513e+001
1.022044e+003, 8.408475e+001
1.022527e+003, 8.362549e+001
1.023009e+003, 8.408461e+001
1.023491e+003, 8.490011e+001
1.023973e+003, 8.517423e+001
1.024455e+003, 8.493600e+001
1.024937e+003, 8.462849e+001
1.025419e+003, 8.422934e+001
1.025901e+003, 8.398035e+001
1.026384e+003, 8.395539e+001
1.026866e+003, 8.393484e+001
1.027348e+003, 8.374753e+001
1.027830e+003, 8.356202e+001
1.028312e+003, 8.373087e+001
1.028794e+003, 8.428055e+001
1.029276e+003, 8.453767e+001
1.029758e+003, 8.441419e+001
1.030240e+003, 8.431826e+001
1.030723e+003, 8.435768e+001
1.031205e+003, 8.435461e+001
1.031687e+003, 8.414681e+001
1.032169e+003, 8.386942e+001
1.032651e+003, 8.379131e+001
1.033133e+003, 8.392101e+001
1.033615e+003, 8.419508e+001
1.034097e+003, 8.477733e+001
1.034579e+003, 8.513304e+001
1.035062e+003, 8.503580e+001
1.035544e+003, 8.488319e+001
1.036026e+003, 8.498453e+001
1.036508e+003, 8.517710e+001
1.036990e+003, 8.507598e+001
1.037472e+003, 8.457514e+001
1.037954e+003, 8.437725e+001
1.038436e+003, 8.467236e+001
1.038919e+003, 8.496959e+001
1.039401e+003, 8.525380e+001
1.039883e+003, 8.544170e+001
1.040365e+003, 8.548051e+001
1.040847e+003, 8.538501e+001
1.041329e+003, 8.514160e+001
1.041811e+003, 8.468068e+001
1.042293e+003, 8.444077e+001
1.042776e+003, 8.454192e+001
1.043258e+003, 8.470740e+001
1.043740e+003, 8.498693e+001
1.044222e+003, 8.521651e+001
1.044704e+003, 8.526228e+001
1.045186e+003, 8.519273e+001
1.045668e+003, 8.514182e+001
1.046150e+003, 8.512416e+001
1.046632e+003, 8.508173e+001
1.047115e+003, 8.505457e+001
1.047597e+003, 8.493789e+001
1.048079e+003, 8.450600e+001
1.048561e+003, 8.417184e+001
1.049043e+003, 8.432107e+001
1.049525e+003, 8.473143e+001
1.050007e+003, 8.496402e+001
1.050489e+003, 8.495184e+001
1.050971e+003, 8.497659e+001
1.051454e+003, 8.516746e+001
1.051936e+003, 8.529870e+001
1.052418e+003, 8.523283e+001
1.052900e+003, 8.515228e+001
1.053382e+003, 8.531145e+001
1.053864e+003, 8.550442e+001
1.054346e+003, 8.526527e+001
1.054828e+003, 8.451379e+001
1.055311e+003, 8.399233e+001
1.055793e+003, 8.400573e+001
1.056275e+003, 8.413161e+001
1.056757e+003, 8.426139e+001
1.057239e+003, 8.441722e+001
1.057721e+003, 8.467518e+001
1.058203e+003, 8.494759e+001
1.058685e+003, 8.508276e+001
1.059167e+003, 8.505879e+001
1.059650e+003, 8.498845e+001
1.060132e+003, 8.486597e+001
1.060614e+003, 8.476070e+001
1.061096e+003, 8.470374e+001
1.061578e+003, 8.466824e+001
1.062060e+003, 8.457938e+001
1.062542e+003, 8.452151e+001
1.063024e+003, 8.469665e+001
1.063506e+003, 8.510604e+001
1.063989e+003, 8.536604e+001
1.064471e+003, 8.523377e+001
1.064953e+003, 8.507508e+001
1.065435e+003, 8.497630e+001
1.065917e+003, 8.497071e+001
1.066399e+003, 8.517773e+001
1.066881e+003, 8.544770e+001
1.067363e+003, 8.558649e+001
1.067846e+003, 8.555334e+001
1.068328e+003, 8.532799e+001
1.068810e+003, 8.467027e+001
1.069292e+003, 8.422796e+001
1.069774e+003, 8.454355e+001
1.070256e+003, 8.492734e+001
1.070738e+003, 8.487861e+001
1.071220e+003, 8.455608e+001
1.071703e+003, 8.409212e+001
1.072185e+003, 8.360206e+001
1.072667e+003, 8.349435e+001
1.073149e+003, 8.410886e+001
1.073631e+003, 8.468489e+001
1.074113e+003, 8.486118e+001
1.074595e+003, 8.487917e+001
1.075077e+003, 8.484296e+001
1.075559e+003, 8.480032e+001
1.076042e+003, 8.486354e+001
1.076524e+003, 8.497763e+001
1.077006e+003, 8.485122e+001
1.077488e+003, 8.428487e+001
1.077970e+003, 8.379409e+001
1.078452e+003, 8.353946e+001
1.078934e+003, 8.352693e+001
1.079416e+003, 8.395077e+001
1.079898e+003, 8.448437e+001
1.080380e+003, 8.474305e+001
1.080863e+003, 8.474716e+001
1.081345e+003, 8.472726e+001
1.081827e+003, 8.474615e+001
1.082309e+003, 8.478320e+001
1.082791e+003, 8.476667e+001
1.083273e+003, 8.483752e+001
1.083755e+003, 8.525166e+001
1.084237e+003, 8.566577e+001
1.084720e+003, 8.562346e+001
1.085202e+003, 8.527128e+001
1.085684e+003, 8.509923e+001
1.086166e+003, 8.525336e+001
1.086648e+003, 8.539693e+001
1.087130e+003, 8.542188e+001
1.087612e+003, 8.535749e+001
1.088094e+003, 8.515770e+001
1.088577e+003, 8.492811e+001
1.089059e+003, 8.469540e+001
1.089541e+003, 8.453347e+001
1.090023e+003, 8.466026e+001
1.090505e+003, 8.512241e+001
1.090987e+003, 8.531775e+001
1.091469e+003, 8.458337e+001
1.091951e+003, 8.412231e+001
1.092433e+003, 8.470955e+001
1.092916e+003, 8.551706e+001
1.093398e+003, 8.607689e+001
1.093880e+003, 8.630389e+001
1.094362e+003, 8.604165e+001
1.094844e+003, 8.531860e+001
1.095326e+003, 8.470971e+001
1.095808e+003, 8.433810e+001
1.096290e+003, 8.419556e+001
1.096772e+003, 8.436861e+001
1.097255e+003, 8.467408e+001
1.097737e+003, 8.507825e+001
1.098219e+003, 8.549383e+001
1.098701e+003, 8.591612e+001
1.099183e+003, 8.627928e+001
1.099665e+003, 8.622510e+001
1.100147e+003, 8.532470e+001
1.100629e+003, 8.472819e+001
1.101112e+003, 8.495018e+001
1.101594e+003, 8.528436e+001
1.102076e+003, 8.545090e+001
1.102558e+003, 8.550268e+001
1.103040e+003, 8.546960e+001
1.103522e+003, 8.538577e+001
1.104004e+003, 8.534239e+001
1.104486e+003, 8.533794e+001
1.104969e+003, 8.542041e+001
1.105451e+003, 8.570023e+001
1.105933e+003, 8.593552e+001
1.106415e+003, 8.605361e+001
1.106897e+003, 8.608511e+001
1.107379e+003, 8.596989e+001
1.107861e+003, 8.580842e+001
1.108343e+003, 8.588774e+001
1.108825e+003, 8.631812e+001
1.109307e+003, 8.646724e+001
1.109790e+003, 8.605460e+001
1.110272e+003, 8.567726e+001
1.110754e+003, 8.542379e+001
1.111236e+003, 8.527125e+001
1.111718e+003, 8.524206e+001
1.112200e+003, 8.528645e+001
1.112682e+003, 8.533011e+001
1.113164e+003, 8.537222e+001
1.113647e+003, 8.541663e+001
1.114129e+003, 8.539966e+001
1.114611e+003, 8.549486e+001
1.115093e+003, 8.582938e+001
1.115575e+003, 8.611936e+001
1.116057e+003, 8.620470e+001
1.116539e+003, 8.622523e+001
1.117021e+003, 8.637288e+001
1.117504e+003, 8.661158e+001
1.117986e+003, 8.666926e+001
1.118468e+003, 8.647803e+001
1.118950e+003, 8.624428e+001
1.119432e+003, 8.579710e+001
1.119914e+003, 8.568360e+001
1.120396e+003, 8.628500e+001
1.120878e+003, 8.693075e+001
1.121360e+003, 8.703020e+001
1.121843e+003, 8.674748e+001
1.122325e+003, 8.656492e+001
1.122807e+003, 8.650888e+001
1.123289e+003, 8.635798e+001
1.123771e+003, 8.599435e+001
1.124253e+003, 8.599715e+001
1.124735e+003, 8.665385e+001
1.125217e+003, 8.718967e+001
1.125699e+003, 8.708314e+001
1.126182e+003, 8.662078e+001
1.126664e+003, 8.624715e+001
1.127146e+003, 8.597278e+001
1.127628e+003, 8.604485e+001
1.128110e+003, 8.651326e+001
1.128592e+003, 8.690793e+001
1.129074e+003, 8.719083e+001
1.129556e+003, 8.716380e+001
1.130039e+003, 8.669151e+001
1.130521e+003, 8.611314e+001
1.131003e+003, 8.576667e+001
1.131485e+003, 8.570194e+001
1.131967e+003, 8.630371e+001
1.132449e+003, 8.749790e+001
1.132931e+003, 8.784821e+001
1.133413e+003, 8.729768e+001
1.133896e+003, 8.680077e+001
1.134378e+003, 8.665004e+001
1.134860e+003, 8.674045e+001
1.135342e+003, 8.701358e+001
1.135824e+003, 8.735836e+001
1.136306e+003, 8.763208e+001
1.136788e+003, 8.779837e+001
1.137270e+003, 8.759874e+001
1.137752e+003, 8.714260e+001
1.138234e+003, 8.699120e+001
1.138717e+003, 8.721288e+001
1.139199e+003, 8.749228e+001
1.139681e+003, 8.766922e+001
1.140163e+003, 8.773851e+001
1.140645e+003, 8.765185e+001
1.141127e+003, 8.749565e+001
1.141609e+003, 8.740553e+001
1.142091e+003, 8.737840e+001
1.142574e+003, 8.742228e+001
1.143056e+003, 8.752299e+001
1.143538e+003, 8.767582e+001
1.144020e+003, 8.785788e+001
1.144502e+003, 8.789571e+001
1.144984e+003, 8.756203e+001
1.145466e+003, 8.728679e+001
1.145948e+003, 8.770649e+001
1.146431e+003, 8.829354e+001
1.146913e+003, 8.829931e+001
1.147395e+003, 8.799850e+001
1.147877e+003, 8.796864e+001
1.148359e+003, 8.825336e+001
1.148841e+003, 8.853986e+001
1.149323e+003, 8.870513e+001
1.149805e+003, 8.880539e+001
1.150287e+003, 8.876328e+001
1.150770e+003, 8.879713e+001
1.151252e+003, 8.917365e+001
1.151734e+003, 8.962086e+001
1.152216e+003, 8.996743e+001
1.152698e+003, 9.009911e+001
1.153180e+003, 8.967589e+001
1.153662e+003, 8.863487e+001
1.154144e+003, 8.811027e+001
1.154626e+003, 8.898482e+001
1.155109e+003, 8.971822e+001
1.155591e+003, 8.971296e+001
1.156073e+003, 8.951279e+001
1.156555e+003, 8.926602e+001
1.157037e+003, 8.914983e+001
1.157519e+003, 8.952738e+001
1.158001e+003, 9.028810e+001
1.158483e+003, 9.057581e+001
1.158966e+003, 8.994151e+001
1.159448e+003, 8.963035e+001
1.159930e+003, 8.996459e+001
1.160412e+003, 9.029484e+001
1.160894e+003, 9.050259e+001
1.161376e+003, 9.058432e+001
1.161858e+003, 9.041930e+001
1.162340e+003, 9.019455e+001
1.162822e+003, 9.037341e+001
1.163305e+003, 9.102689e+001
1.163787e+003, 9.129700e+001
1.164269e+003, 9.101232e+001
1.164751e+003, 9.085389e+001
1.165233e+003, 9.096239e+001
1.165715e+003, 9.104659e+001
1.166197e+003, 9.095681e+001
1.166679e+003, 9.081405e+001
1.167161e+003, 9.076006e+001
1.167644e+003, 9.077393e+001
1.168126e+003, 9.074140e+001
1.168608e+003, 9.065479e+001
1.169090e+003, 9.084389e+001
1.169572e+003, 9.133717e+001
1.170054e+003, 9.141561e+001
1.170536e+003, 9.086880e+001
1.171018e+003, 9.055916e+001
1.171500e+003, 9.111497e+001
1.171983e+003, 9.199592e+001
1.172465e+003, 9.234243e+001
1.172947e+003, 9.230296e+001
1.173429e+003, 9.241651e+001
1.173911e+003, 9.258730e+001
1.174393e+003, 9.232519e+001
1.174875e+003, 9.170081e+001
1.175357e+003, 9.138719e+001
1.175840e+003, 9.162215e+001
1.176322e+003, 9.200756e+001
1.176804e+003, 9.221796e+001
1.177286e+003, 9.240919e+001
1.177768e+003, 9.288187e+001
1.178250e+003, 9.338004e+001
1.178732e+003, 9.350563e+001
1.179214e+003, 9.337100e+001
1.179697e+003, 9.317913e+001
1.180179e+003, 9.300831e+001
1.180661e+003, 9.295399e+001
1.181143e+003, 9.305991e+001
1.181625e+003, 9.324348e+001
1.182107e+003, 9.361217e+001
1.182589e+003, 9.385066e+001
1.183071e+003, 9.349126e+001
1.183553e+003, 9.313563e+001
1.184036e+003, 9.356921e+001
1.184518e+003, 9.435397e+001
1.185000e+003, 9.451891e+001
1.185482e+003, 9.397076e+001
1.185964e+003, 9.370091e+001
1.186446e+003, 9.417194e+001
1.186928e+003, 9.454995e+001
1.187410e+003, 9.472810e+001
1.187892e+003, 9.474951e+001
1.188375e+003, 9.442106e+001
1.188857e+003, 9.413117e+001
1.189339e+003, 9.430196e+001
1.189821e+003, 9.477244e+001
1.190303e+003, 9.508716e+001
1.190785e+003, 9.524143e+001
1.191267e+003, 9.525281e+001
1.191749e+003, 9.504035e+001
1.192232e+003, 9.491830e+001
1.192714e+003, 9.496239e+001
1.193196e+003, 9.500422e+001
1.193678e+003, 9.491724e+001
1.194160e+003, 9.492930e+001
1.194642e+003, 9.538097e+001
1.195124e+003, 9.608848e+001
1.195606e+003, 9.624771e+001
1.196089e+003, 9.588760e+001
1.196571e+003, 9.586533e+001
1.197053e+003, 9.619409e+001
1.197535e+003, 9.625542e+001
1.198017e+003, 9.591513e+001
1.198499e+003, 9.569997e+001
1.198981e+003, 9.594540e+001
1.199463e+003, 9.634583e+001
1.199945e+003, 9.644553e+001
1.200427e+003, 9.645291e+001
1.200910e+003, 9.689141e+001
1.201392e+003, 9.752437e+001
1.201874e+003, 9.787289e+001
1.202356e+003, 9.791380e+001
1.202838e+003, 9.769424e+001
1.203320e+003, 9.727953e+001
1.203802e+003, 9.695492e+001
1.204284e+003, 9.689737e+001
1.204767e+003, 9.694328e+001
1.205249e+003, 9.712533e+001
1.205731e+003, 9.719263e+001
1.206213e+003, 9.674654e+001
1.206695e+003, 9.620589e+001
1.207177e+003, 9.601761e+001
1.207659e+003, 9.619132e+001
1.208141e+003, 9.668001e+001
1.208624e+003, 9.750282e+001
1.209106e+003, 9.810863e+001
1.209588e+003, 9.819012e+001
1.210070e+003, 9.830201e+001
1.210552e+003, 9.867754e+001
1.211034e+003, 9.897224e+001
1.211516e+003, 9.909839e+001
1.211998e+003, 9.897806e+001
1.212480e+003, 9.835242e+001
1.212963e+003, 9.744437e+001
1.213445e+003, 9.714477e+001
1.213927e+003, 9.760068e+001
1.214409e+003, 9.791367e+001
1.214891e+003, 9.803537e+001
1.215373e+003, 9.821078e+001
1.215855e+003, 9.850026e+001
1.216337e+003, 9.878495e+001
1.216819e+003, 9.901019e+001
1.217302e+003, 9.915937e+001
1.217784e+003, 9.921585e+001
1.218266e+003, 9.917372e+001
1.218748e+003, 9.884893e+001
1.219230e+003, 9.839732e+001
1.219712e+003, 9.885245e+001
1.220194e+003, 1.000052e+002
1.220676e+003, 1.004346e+002
1.221159e+003, 9.992285e+001
1.221641e+003, 9.937098e+001
1.222123e+003, 9.925989e+001
1.222605e+003, 9.935591e+001
1.223087e+003, 9.945204e+001
1.223569e+003, 9.960002e+001
1.224051e+003, 1.000461e+002
1.224533e+003, 1.004351e+002
1.225016e+003, 1.000614e+002
1.225498e+003, 9.935385e+001
1.225980e+003, 9.926543e+001
1.226462e+003, 9.985870e+001
1.226944e+003, 1.003781e+002
1.227426e+003, 1.005499e+002
1.227908e+003, 1.006581e+002
1.228390e+003, 1.006672e+002
1.228872e+003, 1.008023e+002
1.229354e+003, 1.014187e+002
1.229837e+003, 1.019417e+002
1.230319e+003, 1.017329e+002
1.230801e+003, 1.012196e+002
1.231283e+003, 1.012205e+002
1.231765e+003, 1.017153e+002
1.232247e+003, 1.019750e+002
1.232729e+003, 1.019639e+002
1.233211e+003, 1.017868e+002
1.233694e+003, 1.013291e+002
1.234176e+003, 1.011819e+002
1.234658e+003, 1.016085e+002
1.235140e+003, 1.019645e+002
1.235622e+003, 1.017311e+002
1.236104e+003, 1.013842e+002
1.236586e+003, 1.018583e+002
1.237068e+003, 1.028554e+002
1.237551e+003, 1.030164e+002
1.238033e+003, 1.025597e+002
1.238515e+003, 1.024599e+002
1.238997e+003, 1.027535e+002
1.239479e+003, 1.031205e+002
1.239961e+003, 1.034304e+002
1.240443e+003, 1.035391e+002
1.240925e+003, 1.033236e+002
1.241407e+003, 1.030435e+002
1.241890e+003, 1.028726e+002
1.242372e+003, 1.028377e+002
1.242854e+003, 1.031063e+002
1.243336e+003, 1.034143e+002
1.243818e+003, 1.032865e+002
1.244300e+003, 1.029930e+002
1.244782e+003, 1.032539e+002
1.245264e+003, 1.041288e+002
1.245746e+003, 1.047317e+002
1.246229e+003, 1.047075e+002
1.246711e+003, 1.046284e+002
1.247193e+003, 1.046147e+002
1.247675e+003, 1.045225e+002
1.248157e+003, 1.040982e+002
1.248639e+003, 1.038393e+002
1.249121e+003, 1.042391e+002
1.249603e+003, 1.048773e+002
1.250085e+003, 1.049063e+002
1.250568e+003, 1.043974e+002
1.251050e+003, 1.047740e+002
1.251532e+003, 1.061950e+002
1.252014e+003, 1.066130e+002
1.252496e+003, 1.058326e+002
1.252978e+003, 1.052719e+002
1.253460e+003, 1.053558e+002
1.253942e+003, 1.056033e+002
1.254425e+003, 1.056880e+002
1.254907e+003, 1.057171e+002
1.255389e+003, 1.058415e+002
1.255871e+003, 1.060095e+002
1.256353e+003, 1.061719e+002
1.256835e+003, 1.062773e+002
1.257317e+003, 1.060917e+002
1.257799e+003, 1.058017e+002
1.258281e+003, 1.059400e+002
1.258764e+003, 1.065312e+002
1.259246e+003, 1.070247e+002
1.259728e+003, 1.071900e+002
1.260210e+003, 1.072192e+002
1.260692e+003, 1.071790e+002
1.261174e+003, 1.070535e+002
1.261656e+003, 1.065997e+002
1.262138e+003, 1.062965e+002
1.262620e+003, 1.066547e+002
1.263103e+003, 1.073208e+002
1.263585e+003, 1.077348e+002
1.264067e+003, 1.079156e+002
1.264549e+003, 1.080383e+002
1.265031e+003, 1.080939e+002
1.265513e+003, 1.081067e+002
1.265995e+003, 1.080520e+002
1.266477e+003, 1.080811e+002
1.266960e+003, 1.082492e+002
1.267442e+003, 1.083328e+002
1.267924e+003, 1.081956e+002
1.268406e+003, 1.080257e+002
1.268888e+003, 1.080532e+002
1.269370e+003, 1.081977e+002
1.269852e+003, 1.082943e+002
1.270334e+003, 1.083495e+002
1.270817e+003, 1.083032e+002
1.271299e+003, 1.082511e+002
1.271781e+003, 1.085383e+002
1.272263e+003, 1.090899e+002
1.272745e+003, 1.093672e+002
1.273227e+003, 1.091635e+002
1.273709e+003, 1.090386e+002
1.274191e+003, 1.095380e+002
1.274673e+003, 1.099070e+002
1.275156e+003, 1.095701e+002
1.275638e+003, 1.092029e+002
1.276120e+003, 1.093352e+002
1.276602e+003, 1.096181e+002
1.277084e+003, 1.095318e+002
1.277566e+003, 1.092581e+002
1.278048e+003, 1.094785e+002
1.278530e+003, 1.102826e+002
1.279012e+003, 1.107521e+002
1.279495e+003, 1.107955e+002
1.279977e+003, 1.107982e+002
1.280459e+003, 1.107862e+002
1.280941e+003, 1.108388e+002
1.281423e+003, 1.109878e+002
1.281905e+003, 1.111857e+002
1.282387e+003, 1.114094e+002
1.282869e+003, 1.115907e+002
1.283352e+003, 1.116404e+002
1.283834e+003, 1.115352e+002
1.284316e+003, 1.112158e+002
1.284798e+003, 1.106872e+002
##END=



