##NAMES=Meieranite
##RRUFFID=R140947
##IDEAL CHEMISTRY=Na_2_Sr_3_MgSi_6_O_17_
##LOCALITY=Wessels mine, Kalahari manganese field, Northern Cape Province, South Africa
##OWNER=RRUFF
##SOURCE=Jaco and Tania Janse van Nieuwenhuizen
##DESCRIPTION=Aggregates of granular blue crystals, associated with massive pale green sugilite, prismatic grey aegirine and bladed white pectolite. Type sample
##STATUS=The identification of this mineral is confirmed by single-crystal X-ray diffraction and chemical analysis.
##URL=rruff.info/R140947
##MEASURED CHEMISTRY=Na_1.96_(Sr_2.91_Ba_0.03_Ca_0.03_Pb_0.02_)_Σ2.99_(Mg_0.62_Mn_0.28_Co_0.07_Fe_0.01_)_Σ0.98_Si_6.03_O_17_ ; = bright phase. Grey phase is sugilite.
132.5398, 3899.785
133.0219, 3902.421
133.5041, 3905.684
133.9862, 3906.907
134.4683, 3905.566
134.9504, 3905.793
135.4325, 3907.011
135.9146, 3909.849
136.3968, 3915.574
136.8789, 3923.938
137.3610, 3932.641
137.8431, 3939.064
138.3252, 3942.831
138.8073, 3945.470
139.2895, 3946.570
139.7716, 3946.766
140.2537, 3947.117
140.7358, 3948.108
141.2179, 3948.208
141.7000, 3944.218
142.1821, 3936.490
142.6643, 3930.250
143.1464, 3928.086
143.6285, 3929.244
144.1106, 3931.161
144.5927, 3934.146
145.0748, 3936.722
145.5570, 3937.012
146.0391, 3935.046
146.5212, 3933.779
147.0033, 3936.464
147.4854, 3943.637
147.9675, 3949.548
148.4497, 3953.306
148.9318, 3955.287
149.4139, 3954.990
149.8960, 3952.431
150.3781, 3948.913
150.8602, 3946.560
151.3424, 3946.514
151.8245, 3945.025
152.3066, 3940.840
152.7887, 3935.894
153.2708, 3931.786
153.7529, 3929.122
154.2351, 3927.183
154.7172, 3924.126
155.1993, 3916.697
155.6814, 3912.239
156.1635, 3912.472
156.6456, 3915.399
157.1278, 3918.999
157.6099, 3922.345
158.0920, 3925.235
158.5741, 3926.699
159.0562, 3925.301
159.5383, 3924.273
160.0205, 3924.321
160.5026, 3925.297
160.9847, 3926.778
161.4668, 3928.391
161.9489, 3930.464
162.4310, 3934.059
162.9131, 3941.196
163.3953, 3947.819
163.8774, 3950.870
164.3595, 3950.716
164.8416, 3950.933
165.3237, 3954.221
165.8058, 3959.346
166.2880, 3963.340
166.7701, 3965.544
167.2522, 3966.801
167.7343, 3968.001
168.2164, 3969.185
168.6985, 3970.116
169.1807, 3970.148
169.6628, 3969.946
170.1449, 3970.403
170.6270, 3972.074
171.1091, 3974.472
171.5912, 3976.554
172.0734, 3978.419
172.5555, 3979.715
173.0376, 3979.842
173.5197, 3979.529
174.0018, 3979.873
174.4839, 3981.687
174.9661, 3984.681
175.4482, 3987.057
175.9303, 3989.142
176.4124, 3990.111
176.8945, 3988.771
177.3766, 3986.252
177.8588, 3984.466
178.3409, 3984.856
178.8230, 3987.443
179.3051, 3990.046
179.7872, 3993.491
180.2693, 3996.136
180.7515, 3996.989
181.2336, 3996.503
181.7157, 3995.861
182.1978, 3996.071
182.6799, 3997.229
183.1620, 3998.151
183.6441, 3998.613
184.1263, 3999.046
184.6084, 3999.708
185.0905, 4000.563
185.5726, 4001.315
186.0547, 4001.598
186.5368, 4001.301
187.0190, 4001.801
187.5011, 4003.345
187.9832, 4005.473
188.4653, 4007.963
188.9474, 4010.775
189.4296, 4013.853
189.9117, 4017.633
190.3938, 4021.996
190.8759, 4024.445
191.3580, 4023.259
191.8401, 4020.695
192.3223, 4019.406
192.8044, 4019.882
193.2865, 4020.625
193.7686, 4019.517
194.2507, 4017.269
194.7328, 4016.397
195.2150, 4019.094
195.6971, 4023.442
196.1792, 4025.262
196.6613, 4023.068
197.1434, 4020.854
197.6255, 4022.194
198.1077, 4025.904
198.5898, 4029.021
199.0719, 4028.980
199.5540, 4026.824
200.0361, 4027.292
200.5182, 4032.282
201.0004, 4037.516
201.4825, 4040.812
201.9646, 4042.534
202.4467, 4043.587
202.9288, 4044.386
203.4109, 4044.971
203.8930, 4045.838
204.3752, 4047.000
204.8573, 4048.531
205.3394, 4051.126
205.8215, 4054.195
206.3036, 4056.417
206.7857, 4056.570
207.2679, 4054.557
207.7500, 4052.486
208.2321, 4050.094
208.7142, 4047.875
209.1963, 4045.335
209.6784, 4042.991
210.1606, 4042.135
210.6427, 4044.276
211.1248, 4049.972
211.6069, 4053.435
212.0890, 4052.790
212.5711, 4051.871
213.0533, 4052.223
213.5354, 4053.710
214.0175, 4055.287
214.4996, 4055.917
214.9817, 4055.327
215.4638, 4055.803
215.9460, 4058.341
216.4281, 4060.823
216.9102, 4062.192
217.3923, 4062.484
217.8744, 4062.288
218.3565, 4061.940
218.8387, 4061.336
219.3208, 4062.377
219.8029, 4065.789
220.2850, 4070.025
220.7671, 4074.887
221.2492, 4080.047
221.7314, 4083.994
222.2135, 4084.911
222.6956, 4082.597
223.1777, 4082.740
223.6598, 4087.985
224.1419, 4093.722
224.6240, 4095.847
225.1062, 4094.327
225.5883, 4093.130
226.0704, 4096.314
226.5525, 4103.052
227.0346, 4106.644
227.5167, 4104.233
227.9989, 4100.041
228.4810, 4097.499
228.9631, 4096.771
229.4452, 4097.572
229.9273, 4100.603
230.4094, 4105.060
230.8916, 4108.683
231.3737, 4109.749
231.8558, 4110.560
232.3379, 4114.248
232.8200, 4121.253
233.3021, 4127.992
233.7843, 4131.600
234.2664, 4133.563
234.7485, 4136.065
235.2306, 4139.758
235.7127, 4144.127
236.1948, 4149.320
236.6770, 4156.183
237.1591, 4160.403
237.6412, 4157.769
238.1233, 4151.871
238.6054, 4146.319
239.0875, 4142.274
239.5697, 4138.967
240.0518, 4134.841
240.5339, 4129.135
241.0160, 4125.072
241.4981, 4125.081
241.9802, 4126.757
242.4624, 4127.926
242.9445, 4127.773
243.4266, 4127.018
243.9087, 4126.812
244.3908, 4127.140
244.8729, 4128.052
245.3550, 4130.046
245.8372, 4132.302
246.3193, 4134.087
246.8014, 4135.137
247.2835, 4135.801
247.7656, 4136.848
248.2477, 4138.840
248.7299, 4139.766
249.2120, 4138.068
249.6941, 4136.014
250.1762, 4135.635
250.6583, 4137.506
251.1404, 4140.172
251.6226, 4141.178
252.1047, 4139.874
252.5868, 4138.325
253.0689, 4136.889
253.5510, 4135.258
254.0331, 4132.882
254.5153, 4129.758
254.9974, 4126.763
255.4795, 4125.415
255.9616, 4127.021
256.4437, 4127.490
256.9258, 4124.637
257.4080, 4122.335
257.8901, 4124.229
258.3722, 4130.415
258.8543, 4137.100
259.3364, 4138.795
259.8185, 4132.410
260.3007, 4128.800
260.7828, 4129.310
261.2649, 4130.888
261.7470, 4131.898
262.2291, 4132.049
262.7112, 4131.770
263.1934, 4131.442
263.6755, 4130.743
264.1576, 4131.273
264.6397, 4134.312
265.1218, 4137.245
265.6039, 4138.259
266.0861, 4137.554
266.5682, 4136.782
267.0503, 4137.624
267.5324, 4140.423
268.0145, 4142.647
268.4966, 4143.905
268.9788, 4145.065
269.4609, 4146.916
269.9430, 4149.165
270.4251, 4150.707
270.9072, 4150.557
271.3893, 4148.649
271.8715, 4146.963
272.3536, 4145.646
272.8357, 4144.353
273.3178, 4142.526
273.7999, 4140.539
274.2820, 4139.417
274.7642, 4139.920
275.2463, 4141.921
275.7284, 4143.917
276.2105, 4147.653
276.6926, 4149.564
277.1747, 4146.328
277.6568, 4140.302
278.1389, 4137.249
278.6211, 4140.884
279.1032, 4149.013
279.5853, 4151.981
280.0674, 4145.643
280.5495, 4140.167
281.0316, 4137.904
281.5138, 4138.232
281.9959, 4140.734
282.4780, 4145.675
282.9601, 4151.319
283.4422, 4152.655
283.9243, 4147.026
284.4065, 4142.887
284.8886, 4142.988
285.3707, 4145.346
285.8528, 4146.766
286.3349, 4146.058
286.8170, 4145.090
287.2992, 4147.397
287.7813, 4154.031
288.2634, 4159.972
288.7455, 4163.979
289.2276, 4167.045
289.7097, 4170.541
290.1919, 4174.810
290.6740, 4178.709
291.1561, 4180.553
291.6382, 4179.970
292.1203, 4180.169
292.6024, 4182.573
293.0846, 4185.261
293.5667, 4186.006
294.0488, 4184.558
294.5309, 4182.904
295.0130, 4182.806
295.4951, 4184.356
295.9773, 4186.276
296.4594, 4188.894
296.9415, 4191.575
297.4236, 4193.857
297.9057, 4195.706
298.3878, 4197.371
298.8700, 4199.327
299.3521, 4201.152
299.8342, 4201.076
300.3163, 4197.610
300.7984, 4193.634
301.2805, 4190.681
301.7627, 4188.623
302.2448, 4186.808
302.7269, 4185.039
303.2090, 4183.170
303.6911, 4180.710
304.1732, 4176.823
304.6554, 4173.744
305.1375, 4172.847
305.6196, 4173.568
306.1017, 4174.559
306.5838, 4175.493
307.0659, 4176.186
307.5481, 4176.250
308.0302, 4175.744
308.5123, 4174.786
308.9944, 4172.667
309.4765, 4170.276
309.9586, 4169.326
310.4408, 4170.396
310.9229, 4172.322
311.4050, 4173.783
311.8871, 4174.825
312.3692, 4175.191
312.8513, 4173.838
313.3335, 4172.211
313.8156, 4172.012
314.2977, 4173.485
314.7798, 4176.032
315.2619, 4180.009
315.7440, 4185.087
316.2262, 4187.233
316.7083, 4183.187
317.1904, 4178.142
317.6725, 4176.519
318.1546, 4178.300
318.6367, 4180.835
319.1188, 4182.544
319.6010, 4183.562
320.0831, 4184.788
320.5652, 4187.525
321.0473, 4189.204
321.5294, 4187.989
322.0115, 4184.444
322.4937, 4180.438
322.9758, 4176.733
323.4579, 4173.258
323.9400, 4170.065
324.4221, 4167.861
324.9042, 4164.490
325.3864, 4158.224
325.8685, 4150.421
326.3506, 4143.533
326.8327, 4138.333
327.3148, 4134.245
327.7969, 4130.259
328.2791, 4126.070
328.7612, 4123.485
329.2433, 4124.556
329.7254, 4126.635
330.2075, 4126.177
330.6896, 4122.571
331.1718, 4118.745
331.6539, 4117.935
332.1360, 4120.437
332.6181, 4121.236
333.1002, 4117.507
333.5823, 4114.041
334.0645, 4115.114
334.5466, 4120.331
335.0287, 4125.544
335.5108, 4127.799
335.9929, 4127.508
336.4750, 4128.112
336.9572, 4132.036
337.4393, 4134.216
337.9214, 4130.898
338.4035, 4124.135
338.8856, 4118.945
339.3677, 4117.776
339.8499, 4119.259
340.3320, 4119.754
340.8141, 4118.220
341.2962, 4117.676
341.7783, 4120.268
342.2604, 4123.601
342.7426, 4124.282
343.2247, 4121.345
343.7068, 4116.767
344.1889, 4113.157
344.6710, 4110.759
345.1531, 4108.987
345.6353, 4106.794
346.1174, 4105.996
346.5995, 4109.693
347.0816, 4117.224
347.5637, 4123.350
348.0458, 4122.999
348.5280, 4115.752
349.0101, 4110.349
349.4922, 4108.402
349.9743, 4106.367
350.4564, 4102.557
350.9385, 4097.503
351.4207, 4092.434
351.9028, 4088.011
352.3849, 4084.319
352.8670, 4081.742
353.3491, 4081.969
353.8312, 4081.233
354.3134, 4077.050
354.7955, 4072.476
355.2776, 4071.841
355.7597, 4076.531
356.2418, 4083.164
356.7239, 4085.948
357.2061, 4082.341
357.6882, 4079.817
358.1703, 4078.907
358.6524, 4078.541
359.1345, 4077.272
359.6166, 4075.431
360.0987, 4075.336
360.5808, 4079.797
361.0630, 4089.694
361.5451, 4095.392
362.0272, 4093.175
362.5093, 4090.892
362.9914, 4091.469
363.4735, 4093.883
363.9557, 4095.681
364.4378, 4095.279
364.9199, 4093.428
365.4020, 4093.423
365.8841, 4097.576
366.3662, 4100.448
366.8484, 4100.526
367.3305, 4099.557
367.8126, 4099.157
368.2947, 4099.870
368.7768, 4101.315
369.2589, 4103.392
369.7411, 4107.494
370.2232, 4108.246
370.7053, 4103.428
371.1874, 4097.168
371.6695, 4090.760
372.1516, 4084.739
372.6338, 4079.582
373.1159, 4075.673
373.5980, 4073.009
374.0801, 4071.704
374.5622, 4072.895
375.0443, 4074.098
375.5265, 4074.511
376.0086, 4074.385
376.4907, 4074.076
376.9728, 4073.687
377.4549, 4073.383
377.9370, 4073.732
378.4192, 4075.233
378.9013, 4075.966
379.3834, 4075.034
379.8655, 4073.377
380.3476, 4071.351
380.8297, 4069.052
381.3119, 4067.336
381.7940, 4067.176
382.2761, 4068.555
382.7582, 4070.399
383.2403, 4072.739
383.7224, 4075.381
384.2046, 4078.598
384.6867, 4082.077
385.1688, 4084.791
385.6509, 4085.635
386.1330, 4085.390
386.6151, 4085.917
387.0973, 4087.412
387.5794, 4088.898
388.0615, 4089.710
388.5436, 4090.160
389.0257, 4090.727
389.5078, 4091.672
389.9900, 4092.386
390.4721, 4092.093
390.9542, 4090.924
391.4363, 4089.954
391.9184, 4089.291
392.4005, 4089.308
392.8827, 4090.480
393.3648, 4092.806
393.8469, 4095.801
394.3290, 4100.000
394.8111, 4104.550
395.2932, 4108.073
395.7754, 4110.396
396.2575, 4111.878
396.7396, 4112.250
397.2217, 4111.813
397.7038, 4113.265
398.1859, 4118.373
398.6681, 4123.991
399.1501, 4128.664
399.6323, 4132.222
400.1144, 4134.471
400.5965, 4135.486
401.0786, 4134.831
401.5607, 4130.769
402.0428, 4120.644
402.5250, 4112.261
403.0071, 4108.197
403.4892, 4105.976
403.9713, 4102.893
404.4534, 4098.321
404.9355, 4093.109
405.4177, 4088.279
405.8998, 4084.065
406.3819, 4079.117
406.8640, 4072.204
407.3461, 4065.849
407.8282, 4061.186
408.3104, 4058.102
408.7925, 4056.215
409.2746, 4055.400
409.7567, 4055.268
410.2388, 4054.019
410.7209, 4051.322
411.2031, 4047.804
411.6852, 4042.517
412.1673, 4036.995
412.6494, 4032.828
413.1315, 4030.357
413.6136, 4028.539
414.0958, 4025.837
414.5779, 4021.716
415.0600, 4018.839
415.5421, 4019.318
416.0242, 4019.114
416.5063, 4015.286
416.9885, 4009.439
417.4706, 4005.710
417.9527, 4007.275
418.4348, 4012.375
418.9169, 4014.739
419.3990, 4012.887
419.8812, 4011.565
420.3633, 4013.849
420.8454, 4016.438
421.3275, 4015.950
421.8096, 4011.516
422.2917, 4005.760
422.7739, 4001.055
423.2560, 3997.366
423.7381, 3993.942
424.2202, 3989.849
424.7023, 3987.206
425.1844, 3988.574
425.6666, 3992.809
426.1487, 3995.770
426.6308, 3995.442
427.1129, 3992.965
427.5950, 3989.741
428.0771, 3985.727
428.5593, 3981.562
429.0414, 3977.153
429.5235, 3973.128
430.0056, 3970.689
430.4877, 3970.387
430.9698, 3970.491
431.4520, 3971.065
431.9341, 3971.337
432.4162, 3969.208
432.8983, 3963.911
433.3804, 3958.079
433.8625, 3954.780
434.3447, 3954.395
434.8268, 3954.048
435.3089, 3954.530
435.7910, 3954.254
436.2731, 3951.203
436.7552, 3946.272
437.2374, 3942.748
437.7195, 3942.796
438.2016, 3945.154
438.6837, 3945.017
439.1658, 3939.800
439.6479, 3935.353
440.1301, 3931.872
440.6122, 3929.466
441.0943, 3928.813
441.5764, 3929.775
442.0585, 3930.816
442.5406, 3929.992
443.0227, 3926.863
443.5049, 3925.194
443.9870, 3926.572
444.4691, 3927.823
444.9512, 3928.005
445.4333, 3927.405
445.9154, 3926.575
446.3976, 3925.786
446.8797, 3924.979
447.3618, 3923.938
447.8439, 3922.411
448.3260, 3921.371
448.8081, 3921.177
449.2903, 3921.375
449.7724, 3921.609
450.2545, 3921.896
450.7366, 3922.631
451.2187, 3924.722
451.7008, 3927.621
452.1830, 3928.819
452.6651, 3927.806
453.1472, 3926.205
453.6293, 3924.407
454.1114, 3922.739
454.5935, 3921.698
455.0757, 3921.288
455.5578, 3921.702
456.0399, 3923.516
456.5220, 3926.406
457.0041, 3928.947
457.4862, 3930.639
457.9684, 3932.074
458.4505, 3934.201
458.9326, 3937.043
459.4147, 3939.305
459.8968, 3941.436
460.3789, 3942.431
460.8611, 3940.350
461.3432, 3935.858
461.8253, 3932.564
462.3074, 3932.813
462.7895, 3935.822
463.2716, 3938.323
463.7538, 3942.109
464.2359, 3943.140
464.7180, 3937.973
465.2001, 3931.441
465.6822, 3928.875
466.1643, 3931.063
466.6465, 3934.697
467.1286, 3936.152
467.6107, 3935.148
468.0928, 3934.561
468.5749, 3935.974
469.0570, 3936.032
469.5392, 3931.858
470.0213, 3926.263
470.5034, 3923.908
470.9855, 3926.962
471.4676, 3932.132
471.9497, 3933.460
472.4319, 3930.095
472.9140, 3926.701
473.3961, 3924.290
473.8782, 3921.737
474.3603, 3918.045
474.8424, 3913.562
475.3246, 3909.622
475.8067, 3906.968
476.2888, 3905.453
476.7709, 3904.986
477.2530, 3905.757
477.7351, 3906.432
478.2173, 3906.316
478.6994, 3905.772
479.1815, 3905.319
479.6636, 3904.884
480.1457, 3904.851
480.6278, 3905.538
481.1100, 3906.709
481.5920, 3908.114
482.0742, 3909.723
482.5563, 3910.999
483.0384, 3911.473
483.5205, 3911.094
484.0026, 3910.249
484.4847, 3908.046
484.9669, 3906.341
485.4490, 3906.258
485.9311, 3907.087
486.4132, 3907.578
486.8953, 3907.262
487.3774, 3906.535
487.8596, 3906.088
488.3417, 3906.203
488.8238, 3905.791
489.3059, 3904.469
489.7880, 3903.095
490.2701, 3902.119
490.7523, 3901.446
491.2344, 3900.822
491.7165, 3900.134
492.1986, 3899.320
492.6807, 3897.995
493.1628, 3895.617
493.6450, 3894.281
494.1271, 3896.041
494.6092, 3897.848
495.0913, 3897.334
495.5734, 3894.562
496.0555, 3891.739
496.5377, 3890.790
497.0198, 3890.927
497.5019, 3889.936
497.9840, 3887.602
498.4661, 3884.873
498.9482, 3881.742
499.4304, 3878.730
499.9125, 3876.858
500.3946, 3876.517
500.8767, 3876.472
501.3588, 3875.691
501.8409, 3874.904
502.3231, 3875.776
502.8052, 3878.672
503.2873, 3881.752
503.7694, 3883.377
504.2515, 3883.493
504.7336, 3882.765
505.2158, 3880.072
505.6979, 3877.891
506.1800, 3877.534
506.6621, 3878.125
507.1442, 3878.189
507.6263, 3877.222
508.1085, 3876.103
508.5906, 3876.498
509.0727, 3879.483
509.5548, 3880.025
510.0369, 3875.113
510.5190, 3870.731
511.0012, 3869.898
511.4833, 3871.148
511.9654, 3871.217
512.4475, 3868.157
512.9296, 3864.222
513.4117, 3863.976
513.8939, 3868.033
514.3760, 3871.082
514.8581, 3871.818
515.3402, 3871.295
515.8223, 3870.445
516.3044, 3869.252
516.7866, 3867.466
517.2687, 3864.616
517.7508, 3861.332
518.2329, 3857.793
518.7150, 3854.171
519.1971, 3852.671
519.6793, 3855.098
520.1614, 3859.363
520.6435, 3860.547
521.1256, 3857.967
521.6077, 3855.097
522.0898, 3852.668
522.5720, 3850.069
523.0541, 3845.746
523.5362, 3840.378
524.0183, 3837.179
524.5004, 3838.722
524.9825, 3844.018
525.4647, 3848.065
525.9468, 3850.923
526.4289, 3852.239
526.9110, 3852.154
527.3931, 3850.536
527.8752, 3845.923
528.3574, 3839.028
528.8395, 3833.721
529.3216, 3834.416
529.8037, 3839.826
530.2858, 3841.950
530.7679, 3839.906
531.2501, 3836.592
531.7322, 3831.457
532.2143, 3826.540
532.6964, 3824.108
533.1785, 3824.675
533.6606, 3826.480
534.1428, 3829.776
534.6249, 3833.210
535.1070, 3833.428
535.5891, 3829.813
536.0712, 3825.350
536.5533, 3821.739
537.0355, 3819.208
537.5176, 3818.764
537.9997, 3823.348
538.4818, 3826.237
538.9639, 3824.017
539.4460, 3819.766
539.9282, 3817.654
540.4103, 3818.366
540.8924, 3819.162
541.3745, 3816.991
541.8566, 3811.728
542.3387, 3807.816
542.8209, 3805.714
543.3029, 3804.558
543.7850, 3804.771
544.2672, 3805.562
544.7493, 3806.236
545.2314, 3806.571
545.7135, 3806.394
546.1956, 3805.246
546.6777, 3803.239
547.1599, 3801.744
547.6420, 3801.015
548.1241, 3800.435
548.6062, 3799.575
549.0883, 3798.632
549.5704, 3797.784
550.0526, 3796.602
550.5347, 3796.524
551.0168, 3799.304
551.4989, 3803.689
551.9810, 3807.241
552.4631, 3809.461
552.9453, 3810.550
553.4274, 3810.583
553.9095, 3809.542
554.3916, 3808.221
554.8737, 3806.547
555.3558, 3804.706
555.8380, 3802.062
556.3201, 3799.566
556.8022, 3798.863
557.2843, 3800.144
557.7664, 3801.496
558.2485, 3800.515
558.7307, 3797.098
559.2128, 3794.516
559.6949, 3793.370
560.1770, 3792.258
560.6591, 3790.773
561.1412, 3789.031
561.6234, 3786.803
562.1055, 3783.915
562.5876, 3782.006
563.0697, 3783.217
563.5518, 3786.612
564.0339, 3789.018
564.5161, 3789.976
564.9982, 3790.506
565.4803, 3791.550
565.9624, 3792.719
566.4445, 3792.493
566.9266, 3789.643
567.4088, 3787.152
567.8909, 3786.001
568.3730, 3785.785
568.8551, 3786.269
569.3372, 3787.268
569.8193, 3788.083
570.3015, 3787.917
570.7836, 3786.879
571.2657, 3787.191
571.7478, 3790.399
572.2299, 3792.889
572.7120, 3793.708
573.1942, 3793.839
573.6763, 3794.042
574.1584, 3794.507
574.6405, 3795.258
575.1226, 3796.929
575.6047, 3798.977
576.0869, 3799.130
576.5690, 3797.263
577.0511, 3793.867
577.5332, 3787.666
578.0153, 3780.964
578.4974, 3777.130
578.9796, 3776.261
579.4617, 3778.083
579.9438, 3786.259
580.4259, 3794.857
580.9080, 3796.398
581.3901, 3791.059
581.8723, 3783.944
582.3544, 3777.913
582.8365, 3773.191
583.3186, 3770.534
583.8007, 3771.521
584.2828, 3772.313
584.7650, 3774.121
585.2471, 3774.704
585.7292, 3771.284
586.2113, 3765.175
586.6934, 3760.521
587.1755, 3760.095
587.6577, 3762.397
588.1398, 3764.085
588.6219, 3765.027
589.1040, 3766.306
589.5861, 3768.651
590.0682, 3770.875
590.5504, 3771.643
591.0325, 3771.190
591.5146, 3771.051
591.9967, 3771.576
592.4788, 3772.684
592.9609, 3775.012
593.4431, 3777.904
593.9252, 3779.251
594.4073, 3778.207
594.8894, 3776.148
595.3715, 3774.886
595.8536, 3774.400
596.3358, 3774.889
596.8179, 3776.979
597.3000, 3779.209
597.7821, 3781.893
598.2642, 3784.099
598.7463, 3783.709
599.2285, 3780.160
599.7106, 3777.192
600.1927, 3780.665
600.6748, 3790.237
601.1569, 3796.056
601.6390, 3796.793
602.1212, 3795.636
602.6033, 3792.731
603.0854, 3789.554
603.5675, 3788.751
604.0496, 3791.457
604.5317, 3794.053
605.0139, 3794.760
605.4960, 3794.230
605.9781, 3793.350
606.4602, 3792.248
606.9423, 3790.552
607.4244, 3787.747
607.9066, 3784.440
608.3887, 3783.342
608.8708, 3786.082
609.3529, 3788.884
609.8350, 3791.786
610.3171, 3794.581
610.7993, 3797.362
611.2814, 3799.937
611.7635, 3801.798
612.2456, 3802.595
612.7277, 3802.516
613.2098, 3801.566
613.6920, 3799.567
614.1741, 3798.728
614.6562, 3800.108
615.1383, 3802.102
615.6204, 3802.960
616.1025, 3802.904
616.5847, 3803.323
617.0668, 3804.907
617.5489, 3806.630
618.0310, 3807.431
618.5131, 3807.969
618.9952, 3810.185
619.4774, 3814.551
619.9595, 3818.313
620.4416, 3817.675
620.9237, 3812.070
621.4058, 3810.772
621.8879, 3816.762
622.3701, 3823.674
622.8522, 3831.523
623.3343, 3838.894
623.8164, 3843.839
624.2985, 3846.177
624.7806, 3848.474
625.2628, 3852.559
625.7448, 3858.206
626.2269, 3864.577
626.7090, 3871.572
627.1912, 3880.715
627.6733, 3893.652
628.1554, 3908.279
628.6375, 3919.856
629.1196, 3926.732
629.6017, 3938.337
630.0839, 3957.547
630.5660, 3980.590
631.0481, 4005.271
631.5302, 4031.678
632.0123, 4060.951
632.4944, 4093.481
632.9766, 4128.208
633.4587, 4164.023
633.9408, 4202.074
634.4229, 4236.417
634.9050, 4270.369
635.3871, 4295.347
635.8693, 4308.821
636.3514, 4311.611
636.8335, 4304.491
637.3156, 4287.154
637.7977, 4262.246
638.2798, 4229.291
638.7620, 4190.998
639.2441, 4150.406
639.7262, 4108.310
640.2083, 4068.667
640.6904, 4033.709
641.1725, 4003.531
641.6547, 3978.227
642.1368, 3960.619
642.6189, 3944.185
643.1010, 3927.403
643.5831, 3913.140
644.0652, 3904.053
644.5474, 3898.950
645.0295, 3894.650
645.5116, 3889.543
645.9937, 3884.339
646.4758, 3880.336
646.9579, 3877.527
647.4401, 3874.619
647.9222, 3871.553
648.4043, 3868.141
648.8864, 3864.090
649.3685, 3859.585
649.8506, 3855.261
650.3328, 3851.017
650.8149, 3847.249
651.2970, 3844.887
651.7791, 3842.711
652.2612, 3838.187
652.7433, 3831.812
653.2255, 3827.651
653.7076, 3828.906
654.1897, 3834.263
654.6718, 3838.648
655.1539, 3840.590
655.6360, 3845.050
656.1182, 3854.437
656.6003, 3865.060
657.0824, 3874.591
657.5645, 3883.667
658.0466, 3894.637
658.5287, 3909.673
659.0109, 3924.870
659.4930, 3936.314
659.9751, 3944.937
660.4572, 3953.271
660.9393, 3961.806
661.4214, 3970.792
661.9036, 3980.593
662.3857, 3991.135
662.8678, 4001.296
663.3499, 4014.176
663.8320, 4022.525
664.3141, 4025.012
664.7963, 4023.372
665.2784, 4018.188
665.7605, 4010.121
666.2426, 4000.649
666.7247, 3990.925
667.2068, 3979.814
667.6890, 3964.515
668.1711, 3945.149
668.6532, 3925.126
669.1353, 3904.196
669.6174, 3885.437
670.0995, 3872.665
670.5817, 3865.380
671.0638, 3857.712
671.5459, 3847.973
672.0280, 3839.769
672.5101, 3835.091
672.9922, 3832.070
673.4744, 3829.129
673.9565, 3825.771
674.4386, 3821.570
674.9207, 3816.046
675.4028, 3809.645
675.8849, 3803.429
676.3671, 3796.948
676.8492, 3792.694
677.3313, 3791.681
677.8134, 3792.516
678.2955, 3795.236
678.7776, 3798.965
679.2598, 3800.414
679.7419, 3797.538
680.2240, 3793.891
680.7061, 3791.016
681.1882, 3788.942
681.6703, 3787.684
682.1525, 3787.256
682.6346, 3788.021
683.1167, 3790.746
683.5988, 3794.349
684.0809, 3792.928
684.5630, 3782.563
685.0452, 3775.780
685.5273, 3776.427
686.0094, 3779.228
686.4915, 3782.825
686.9736, 3786.131
687.4557, 3786.416
687.9379, 3781.029
688.4200, 3775.138
688.9021, 3773.472
689.3842, 3774.761
689.8663, 3776.240
690.3484, 3777.395
690.8306, 3778.932
691.3127, 3781.876
691.7948, 3785.339
692.2769, 3784.726
692.7590, 3776.197
693.2411, 3769.735
693.7233, 3766.543
694.2054, 3764.829
694.6875, 3764.177
695.1696, 3764.090
695.6517, 3763.693
696.1339, 3762.625
696.6160, 3761.126
697.0981, 3758.411
697.5802, 3755.407
698.0623, 3756.198
698.5444, 3761.671
699.0266, 3766.696
699.5087, 3767.581
699.9908, 3765.269
700.4729, 3763.391
700.9550, 3762.180
701.4371, 3760.991
701.9193, 3759.065
702.4014, 3757.821
702.8835, 3759.077
703.3656, 3761.553
703.8477, 3762.264
704.3298, 3759.780
704.8120, 3756.666
705.2941, 3756.711
705.7762, 3759.064
706.2583, 3758.961
706.7404, 3755.524
707.2225, 3752.914
707.7046, 3753.913
708.1867, 3757.093
708.6688, 3758.772
709.1509, 3758.192
709.6331, 3758.102
710.1152, 3758.699
710.5973, 3759.772
711.0794, 3761.492
711.5615, 3763.483
712.0436, 3765.148
712.5258, 3766.266
713.0079, 3767.055
713.4900, 3767.729
713.9721, 3768.285
714.4542, 3768.570
714.9363, 3768.427
715.4185, 3769.032
715.9006, 3771.181
716.3827, 3774.126
716.8648, 3777.056
717.3469, 3780.410
717.8290, 3781.302
718.3112, 3776.729
718.7933, 3772.590
719.2754, 3772.734
719.7575, 3774.786
720.2396, 3774.780
720.7217, 3771.918
721.2039, 3769.187
721.6860, 3770.058
722.1681, 3773.301
722.6502, 3773.949
723.1323, 3771.764
723.6144, 3768.906
724.0966, 3765.661
724.5787, 3762.633
725.0608, 3760.626
725.5429, 3759.626
726.0250, 3758.798
726.5071, 3757.403
726.9893, 3757.050
727.4714, 3758.525
727.9535, 3761.254
728.4356, 3764.727
728.9177, 3768.775
729.3998, 3773.427
729.8820, 3778.995
730.3641, 3784.617
730.8462, 3788.403
731.3283, 3790.309
731.8104, 3790.795
732.2925, 3789.675
732.7747, 3787.577
733.2568, 3783.489
733.7389, 3778.665
734.2210, 3779.331
734.7031, 3791.266
735.1852, 3799.642
735.6674, 3799.447
736.1495, 3796.165
736.6316, 3793.255
737.1137, 3791.359
737.5958, 3790.772
738.0779, 3791.762
738.5601, 3792.864
739.0422, 3791.376
739.5243, 3787.694
740.0064, 3785.687
740.4885, 3785.920
740.9706, 3786.766
741.4528, 3787.658
741.9349, 3788.381
742.4170, 3788.320
742.8991, 3787.181
743.3812, 3786.448
743.8633, 3786.401
744.3455, 3786.663
744.8276, 3786.891
745.3097, 3787.374
745.7918, 3788.672
746.2739, 3790.897
746.7560, 3793.461
747.2382, 3796.174
747.7203, 3798.724
748.2024, 3799.761
748.6845, 3799.245
749.1666, 3799.410
749.6487, 3801.317
750.1309, 3803.354
750.6130, 3803.300
751.0951, 3800.931
751.5772, 3800.536
752.0593, 3803.896
752.5414, 3806.654
753.0236, 3807.170
753.5057, 3807.103
753.9878, 3808.501
754.4699, 3810.898
754.9520, 3811.622
755.4341, 3808.384
755.9163, 3804.351
756.3984, 3804.491
756.8805, 3807.814
757.3626, 3810.039
757.8447, 3810.451
758.3268, 3810.159
758.8090, 3809.578
759.2911, 3809.296
759.7732, 3811.289
760.2553, 3817.281
760.7374, 3822.622
761.2195, 3828.034
761.7017, 3832.216
762.1838, 3833.856
762.6659, 3834.180
763.1480, 3835.088
763.6301, 3837.127
764.1122, 3839.425
764.5944, 3840.253
765.0765, 3841.495
765.5586, 3847.306
766.0407, 3856.802
766.5228, 3864.572
767.0049, 3868.541
767.4871, 3869.987
767.9692, 3870.534
768.4513, 3870.166
768.9334, 3868.134
769.4155, 3863.041
769.8976, 3858.435
770.3798, 3855.519
770.8619, 3852.960
771.3440, 3849.673
771.8261, 3845.771
772.3082, 3842.161
772.7903, 3839.321
773.2725, 3836.668
773.7546, 3832.688
774.2367, 3829.157
774.7188, 3830.128
775.2009, 3835.156
775.6830, 3838.743
776.1652, 3837.160
776.6473, 3832.417
777.1294, 3829.134
777.6115, 3827.475
778.0936, 3826.319
778.5757, 3826.066
779.0579, 3825.446
779.5400, 3822.701
780.0221, 3819.639
780.5042, 3819.753
780.9863, 3824.048
781.4684, 3826.936
781.9506, 3826.856
782.4327, 3825.170
782.9148, 3821.261
783.3969, 3816.872
783.8790, 3814.870
784.3611, 3815.866
784.8433, 3818.089
785.3254, 3820.380
785.8075, 3822.358
786.2896, 3822.320
786.7717, 3820.214
787.2538, 3819.581
787.7360, 3821.734
788.2181, 3824.192
788.7002, 3824.317
789.1823, 3822.583
789.6644, 3823.019
790.1465, 3827.651
790.6286, 3831.450
791.1107, 3835.039
791.5928, 3836.781
792.0750, 3833.881
792.5571, 3828.674
793.0392, 3826.233
793.5213, 3828.637
794.0034, 3831.837
794.4855, 3832.327
794.9677, 3831.176
795.4498, 3830.109
795.9319, 3829.276
796.4140, 3828.720
796.8961, 3828.422
797.3782, 3828.753
797.8604, 3830.380
798.3425, 3833.376
798.8246, 3835.670
799.3067, 3837.790
799.7888, 3838.200
800.2709, 3834.247
800.7531, 3830.200
801.2352, 3829.201
801.7173, 3830.993
802.1994, 3833.778
802.6815, 3837.254
803.1636, 3841.388
803.6458, 3847.423
804.1279, 3853.302
804.6100, 3856.104
805.0921, 3856.288
805.5742, 3856.687
806.0563, 3858.879
806.5385, 3861.266
807.0206, 3860.782
807.5027, 3857.734
807.9848, 3856.552
808.4669, 3857.930
808.9490, 3858.485
809.4312, 3856.431
809.9133, 3853.194
810.3954, 3851.011
810.8775, 3850.212
811.3596, 3848.221
811.8417, 3841.751
812.3239, 3838.297
812.8060, 3842.450
813.2881, 3848.711
813.7702, 3851.546
814.2523, 3851.249
814.7344, 3852.073
815.2166, 3856.821
815.6987, 3862.036
816.1808, 3863.161
816.6629, 3862.236
817.1450, 3864.525
817.6271, 3870.155
818.1093, 3874.418
818.5914, 3874.520
819.0735, 3872.240
819.5556, 3870.994
820.0377, 3870.961
820.5198, 3870.570
821.0020, 3869.394
821.4841, 3868.566
821.9662, 3868.726
822.4483, 3869.277
822.9304, 3870.013
823.4125, 3870.871
823.8947, 3870.132
824.3768, 3866.469
824.8589, 3862.401
825.3410, 3858.216
825.8231, 3854.770
826.3052, 3853.837
826.7874, 3854.724
827.2695, 3854.177
827.7516, 3849.984
828.2337, 3845.484
828.7158, 3846.269
829.1979, 3850.913
829.6801, 3853.182
830.1622, 3852.505
830.6443, 3851.916
831.1264, 3852.998
831.6085, 3854.651
832.0906, 3855.161
832.5728, 3854.488
833.0549, 3852.617
833.5370, 3846.442
834.0191, 3843.591
834.5012, 3849.030
834.9833, 3855.630
835.4655, 3857.177
835.9476, 3854.358
836.4297, 3852.309
836.9118, 3853.037
837.3939, 3854.131
837.8760, 3854.892
838.3582, 3854.939
838.8403, 3853.389
839.3224, 3850.703
839.8045, 3848.401
840.2866, 3847.210
840.7687, 3846.440
841.2509, 3845.171
841.7330, 3843.500
842.2151, 3841.620
842.6972, 3839.430
843.1793, 3838.995
843.6614, 3841.418
844.1436, 3844.851
844.6257, 3847.368
845.1078, 3848.938
845.5899, 3849.158
846.0720, 3845.085
846.5541, 3843.941
847.0363, 3849.534
847.5184, 3855.088
848.0005, 3855.498
848.4826, 3852.734
848.9647, 3851.797
849.4468, 3854.306
849.9290, 3857.113
850.4111, 3859.712
850.8932, 3860.861
851.3753, 3858.142
851.8574, 3853.183
852.3395, 3850.149
852.8217, 3850.123
853.3038, 3849.896
853.7859, 3845.593
854.2680, 3839.365
854.7501, 3838.753
855.2322, 3843.757
855.7144, 3847.459
856.1965, 3848.361
856.6786, 3848.269
857.1607, 3848.348
857.6428, 3848.567
858.1249, 3848.941
858.6071, 3850.448
859.0892, 3849.894
859.5713, 3845.445
860.0534, 3841.085
860.5355, 3836.675
861.0176, 3833.944
861.4998, 3836.099
861.9819, 3843.087
862.4640, 3848.322
862.9461, 3849.284
863.4282, 3847.543
863.9103, 3841.545
864.3925, 3834.918
864.8746, 3833.298
865.3567, 3836.540
865.8388, 3840.907
866.3209, 3844.474
866.8030, 3846.216
867.2852, 3843.376
867.7673, 3837.048
868.2494, 3832.829
868.7315, 3831.064
869.2136, 3831.358
869.6957, 3833.921
870.1779, 3837.241
870.6600, 3839.422
871.1421, 3840.469
871.6242, 3840.249
872.1063, 3837.205
872.5884, 3835.627
873.0705, 3837.957
873.5526, 3840.325
874.0347, 3840.356
874.5168, 3838.630
874.9990, 3836.710
875.4811, 3834.957
875.9632, 3832.670
876.4453, 3829.282
876.9274, 3825.606
877.4095, 3820.885
877.8917, 3816.842
878.3738, 3816.920
878.8559, 3821.420
879.3380, 3826.320
879.8201, 3828.642
880.3022, 3829.402
880.7844, 3830.187
881.2665, 3830.861
881.7486, 3830.557
882.2307, 3829.239
882.7128, 3828.517
883.1949, 3829.373
883.6771, 3831.598
884.1592, 3835.056
884.6413, 3840.078
885.1234, 3844.051
885.6055, 3847.880
886.0876, 3848.161
886.5698, 3841.917
887.0519, 3833.426
887.5340, 3826.426
888.0161, 3821.055
888.4982, 3819.112
888.9803, 3824.867
889.4625, 3828.084
889.9446, 3824.392
890.4267, 3820.109
890.9088, 3820.203
891.3909, 3822.871
891.8730, 3823.610
892.3552, 3821.090
892.8373, 3819.426
893.3194, 3823.387
893.8015, 3827.754
894.2836, 3826.277
894.7657, 3821.070
895.2479, 3816.358
895.7300, 3813.269
896.2121, 3811.420
896.6942, 3810.520
897.1763, 3810.739
897.6584, 3812.908
898.1406, 3816.761
898.6227, 3820.087
899.1048, 3822.742
899.5869, 3823.672
900.0690, 3822.041
900.5511, 3819.324
901.0333, 3817.690
901.5154, 3817.177
901.9975, 3816.739
902.4796, 3816.221
902.9617, 3816.059
903.4438, 3815.146
903.9260, 3815.853
904.4081, 3821.821
904.8902, 3830.413
905.3723, 3834.327
905.8544, 3830.658
906.3365, 3828.444
906.8187, 3831.327
907.3008, 3834.726
907.7829, 3836.826
908.2650, 3837.216
908.7471, 3835.037
909.2292, 3830.562
909.7114, 3825.827
910.1935, 3821.022
910.6756, 3818.065
911.1577, 3820.986
911.6398, 3826.272
912.1219, 3826.651
912.6041, 3822.489
913.0862, 3819.253
913.5683, 3819.543
914.0504, 3822.014
914.5325, 3825.706
915.0146, 3830.067
915.4968, 3831.725
915.9789, 3830.648
916.4610, 3828.127
916.9431, 3823.911
917.4252, 3821.118
917.9073, 3822.732
918.3895, 3827.426
918.8716, 3830.429
919.3537, 3831.659
919.8358, 3831.361
920.3179, 3829.282
920.8000, 3825.952
921.2822, 3819.836
921.7643, 3813.626
922.2464, 3809.750
922.7285, 3808.294
923.2106, 3810.130
923.6927, 3820.588
924.1749, 3827.263
924.6570, 3823.450
925.1391, 3817.445
925.6212, 3815.907
926.1033, 3817.359
926.5854, 3817.341
927.0676, 3814.521
927.5497, 3812.135
928.0318, 3812.340
928.5139, 3814.044
928.9960, 3816.664
929.4781, 3819.798
929.9603, 3822.633
930.4424, 3825.167
930.9245, 3828.223
931.4066, 3832.406
931.8887, 3836.880
932.3708, 3840.562
932.8530, 3843.366
933.3351, 3844.125
933.8172, 3843.004
934.2993, 3844.009
934.7814, 3848.609
935.2635, 3855.885
935.7457, 3865.419
936.2278, 3876.373
936.7099, 3883.258
937.1920, 3884.480
937.6741, 3888.698
938.1563, 3897.813
938.6384, 3908.072
939.1205, 3918.444
939.6026, 3928.000
940.0847, 3935.299
940.5668, 3940.417
941.0490, 3942.801
941.5311, 3942.797
942.0132, 3939.770
942.4953, 3932.698
942.9774, 3923.424
943.4595, 3913.238
943.9417, 3901.955
944.4238, 3888.365
944.9059, 3870.921
945.3880, 3856.229
945.8701, 3847.065
946.3522, 3840.851
946.8344, 3837.770
947.3165, 3835.635
947.7986, 3831.488
948.2807, 3825.274
948.7628, 3819.094
949.2449, 3813.654
949.7271, 3809.709
950.2092, 3809.430
950.6913, 3810.239
951.1734, 3807.329
951.6555, 3801.745
952.1376, 3798.025
952.6198, 3797.628
953.1019, 3798.249
953.5840, 3797.848
954.0661, 3796.666
954.5482, 3795.295
955.0303, 3793.685
955.5124, 3791.142
955.9945, 3787.560
956.4766, 3784.896
956.9587, 3784.123
957.4409, 3785.183
957.9230, 3788.295
958.4051, 3793.426
958.8872, 3798.135
959.3693, 3803.468
959.8514, 3803.376
960.3336, 3794.594
960.8157, 3784.542
961.2978, 3778.292
961.7799, 3775.256
962.2620, 3774.254
962.7441, 3777.423
963.2263, 3775.949
963.7084, 3763.542
964.1905, 3755.090
964.6726, 3757.137
965.1547, 3762.528
965.6368, 3766.297
966.1190, 3768.182
966.6011, 3767.715
967.0832, 3762.868
967.5653, 3759.690
968.0474, 3761.073
968.5295, 3762.713
969.0117, 3761.817
969.4938, 3759.873
969.9759, 3758.810
970.4580, 3758.932
970.9401, 3759.875
971.4222, 3762.003
971.9044, 3764.073
972.3865, 3765.771
972.8686, 3766.661
973.3507, 3764.161
973.8328, 3760.945
974.3149, 3764.326
974.7971, 3775.694
975.2792, 3785.663
975.7613, 3786.024
976.2434, 3781.754
976.7255, 3778.847
977.2076, 3776.603
977.6898, 3772.840
978.1719, 3767.913
978.6540, 3765.379
979.1361, 3766.888
979.6182, 3768.655
980.1003, 3765.369
980.5825, 3758.761
981.0646, 3754.754
981.5467, 3753.082
982.0288, 3751.441
982.5109, 3749.397
982.9930, 3748.174
983.4752, 3748.815
983.9573, 3749.663
984.4394, 3747.205
984.9215, 3741.422
985.4036, 3736.781
985.8857, 3733.324
986.3679, 3730.853
986.8500, 3729.388
987.3321, 3728.640
987.8142, 3728.479
988.2963, 3728.741
988.7784, 3728.973
989.2606, 3729.281
989.7427, 3729.059
990.2248, 3727.763
990.7069, 3726.957
991.1890, 3727.364
991.6711, 3728.155
992.1533, 3728.132
992.6354, 3727.689
993.1175, 3729.303
993.5996, 3736.194
994.0817, 3739.359
994.5638, 3734.852
995.0460, 3731.211
995.5281, 3732.204
996.0102, 3735.368
996.4923, 3738.750
996.9744, 3741.970
997.4565, 3743.470
997.9387, 3740.021
998.4208, 3739.720
998.9029, 3747.019
999.3850, 3755.527
999.8671, 3761.526
1000.349, 3765.997
1000.831, 3771.291
1001.313, 3777.328
1001.796, 3780.453
1002.278, 3777.210
1002.760, 3773.660
1003.242, 3773.392
1003.724, 3774.068
1004.206, 3774.618
1004.688, 3773.998
1005.170, 3770.704
1005.653, 3764.418
1006.135, 3755.905
1006.617, 3742.427
1007.099, 3731.174
1007.581, 3731.150
1008.063, 3736.180
1008.545, 3738.624
1009.027, 3737.858
1009.509, 3734.583
1009.992, 3729.321
1010.474, 3724.544
1010.956, 3722.569
1011.438, 3722.225
1011.920, 3722.295
1012.402, 3722.477
1012.884, 3721.785
1013.366, 3720.391
1013.849, 3719.615
1014.331, 3720.026
1014.813, 3720.873
1015.295, 3721.158
1015.777, 3721.380
1016.259, 3723.456
1016.741, 3726.704
1017.223, 3727.659
1017.705, 3725.957
1018.188, 3723.713
1018.670, 3721.989
1019.152, 3720.551
1019.634, 3719.207
1020.116, 3717.834
1020.598, 3715.378
1021.080, 3711.937
1021.562, 3710.206
1022.044, 3710.710
1022.527, 3711.938
1023.009, 3713.139
1023.491, 3713.960
1023.973, 3713.529
1024.455, 3712.030
1024.937, 3713.028
1025.419, 3717.046
1025.901, 3719.050
1026.384, 3717.860
1026.866, 3715.621
1027.348, 3713.268
1027.830, 3711.556
1028.312, 3711.879
1028.794, 3714.282
1029.276, 3718.275
1029.758, 3724.702
1030.240, 3729.773
1030.723, 3732.452
1031.205, 3734.547
1031.687, 3737.527
1032.169, 3740.328
1032.651, 3740.448
1033.133, 3737.282
1033.615, 3736.337
1034.097, 3737.790
1034.579, 3741.199
1035.062, 3748.247
1035.544, 3754.483
1036.026, 3756.569
1036.508, 3755.985
1036.990, 3755.515
1037.472, 3754.781
1037.954, 3756.286
1038.436, 3763.867
1038.919, 3767.427
1039.401, 3762.514
1039.883, 3756.090
1040.365, 3752.177
1040.847, 3750.039
1041.329, 3747.954
1041.811, 3745.562
1042.293, 3745.259
1042.776, 3749.932
1043.258, 3752.772
1043.740, 3752.009
1044.222, 3749.611
1044.704, 3745.587
1045.186, 3741.258
1045.668, 3739.120
1046.150, 3739.490
1046.632, 3740.944
1047.115, 3745.138
1047.597, 3747.880
1048.079, 3747.687
1048.561, 3746.125
1049.043, 3743.731
1049.525, 3740.948
1050.007, 3738.032
1050.489, 3734.844
1050.971, 3733.778
1051.454, 3736.984
1051.936, 3740.059
1052.418, 3740.199
1052.900, 3741.203
1053.382, 3747.057
1053.864, 3755.293
1054.346, 3761.022
1054.828, 3763.512
1055.311, 3766.545
1055.793, 3771.535
1056.275, 3776.680
1056.757, 3782.641
1057.239, 3787.324
1057.721, 3787.748
1058.203, 3786.366
1058.685, 3787.266
1059.167, 3791.103
1059.650, 3796.504
1060.132, 3805.060
1060.614, 3812.362
1061.096, 3815.501
1061.578, 3817.989
1062.060, 3821.733
1062.542, 3827.079
1063.024, 3834.459
1063.506, 3843.801
1063.989, 3853.651
1064.471, 3865.051
1064.953, 3874.655
1065.435, 3880.671
1065.917, 3884.773
1066.399, 3888.508
1066.881, 3891.058
1067.363, 3891.249
1067.846, 3888.819
1068.328, 3883.518
1068.810, 3873.740
1069.292, 3863.774
1069.774, 3854.836
1070.256, 3847.190
1070.738, 3843.316
1071.220, 3839.560
1071.703, 3829.192
1072.185, 3812.911
1072.667, 3799.801
1073.149, 3793.969
1073.631, 3789.963
1074.113, 3785.786
1074.595, 3781.948
1075.077, 3778.277
1075.559, 3775.490
1076.042, 3776.076
1076.524, 3778.710
1077.006, 3776.552
1077.488, 3765.000
1077.970, 3755.792
1078.452, 3755.538
1078.934, 3758.193
1079.416, 3760.383
1079.898, 3762.639
1080.380, 3766.568
1080.863, 3771.457
1081.345, 3774.476
1081.827, 3774.430
1082.309, 3774.118
1082.791, 3775.113
1083.273, 3775.824
1083.755, 3775.392
1084.237, 3774.038
1084.720, 3771.262
1085.202, 3767.921
1085.684, 3765.716
1086.166, 3764.947
1086.648, 3766.726
1087.130, 3774.539
1087.612, 3781.232
1088.094, 3782.693
1088.577, 3781.720
1089.059, 3780.302
1089.541, 3778.848
1090.023, 3777.407
1090.505, 3775.992
1090.987, 3775.503
1091.469, 3776.985
1091.951, 3778.594
1092.433, 3780.304
1092.916, 3781.175
1093.398, 3779.727
1093.880, 3777.281
1094.362, 3775.800
1094.844, 3775.633
1095.326, 3776.690
1095.808, 3779.985
1096.290, 3782.981
1096.772, 3784.096
1097.255, 3785.458
1097.737, 3789.290
1098.219, 3793.661
1098.701, 3795.494
1099.183, 3794.990
1099.665, 3795.710
1100.147, 3799.980
1100.629, 3802.274
1101.112, 3799.938
1101.594, 3796.713
1102.076, 3793.660
1102.558, 3791.214
1103.040, 3790.542
1103.522, 3790.828
1104.004, 3788.731
1104.486, 3782.163
1104.969, 3778.303
1105.451, 3779.123
1105.933, 3781.939
1106.415, 3787.477
1106.897, 3793.131
1107.379, 3797.437
1107.861, 3800.133
1108.343, 3800.790
1108.825, 3799.257
1109.307, 3796.400
1109.790, 3790.889
1110.272, 3786.051
1110.754, 3784.078
1111.236, 3781.380
1111.718, 3773.913
1112.200, 3765.223
1112.682, 3761.428
1113.164, 3762.845
1113.647, 3764.442
1114.129, 3767.427
1114.611, 3768.571
1115.093, 3765.271
1115.575, 3763.400
1116.057, 3765.938
1116.539, 3770.754
1117.021, 3776.426
1117.504, 3782.410
1117.986, 3784.395
1118.468, 3779.365
1118.950, 3777.629
1119.432, 3781.209
1119.914, 3784.044
1120.396, 3783.524
1120.878, 3782.730
1121.360, 3784.063
1121.843, 3787.360
1122.325, 3792.844
1122.807, 3801.927
1123.289, 3803.741
1123.771, 3795.102
1124.253, 3790.481
1124.735, 3794.135
1125.217, 3798.628
1125.699, 3798.906
1126.182, 3797.997
1126.664, 3801.289
1127.146, 3808.509
1127.628, 3815.241
1128.110, 3821.847
1128.592, 3823.730
1129.074, 3819.635
1129.556, 3815.181
1130.039, 3812.547
1130.521, 3812.944
1131.003, 3818.523
1131.485, 3827.081
1131.967, 3830.472
1132.449, 3828.995
1132.931, 3827.929
1133.413, 3827.586
1133.896, 3827.413
1134.378, 3827.240
1134.860, 3828.061
1135.342, 3830.702
1135.824, 3834.520
1136.306, 3838.734
1136.788, 3843.094
1137.270, 3846.232
1137.752, 3848.540
1138.234, 3851.922
1138.717, 3856.693
1139.199, 3862.843
1139.681, 3870.413
1140.163, 3875.788
1140.645, 3873.471
1141.127, 3867.706
1141.609, 3865.749
1142.091, 3866.622
1142.574, 3868.642
1143.056, 3871.398
1143.538, 3874.375
1144.020, 3877.481
1144.502, 3881.327
1144.984, 3886.395
1145.466, 3892.307
1145.948, 3901.046
1146.431, 3908.479
1146.913, 3907.273
1147.395, 3901.714
1147.877, 3899.803
1148.359, 3902.402
1148.841, 3906.144
1149.323, 3909.871
1149.805, 3912.929
1150.287, 3914.237
1150.770, 3915.485
1151.252, 3917.739
1151.734, 3920.707
1152.216, 3923.487
1152.698, 3926.841
1153.180, 3933.498
1153.662, 3943.995
1154.144, 3951.495
1154.626, 3951.839
1155.109, 3951.579
1155.591, 3952.856
1156.073, 3954.235
1156.555, 3954.171
1157.037, 3954.114
1157.519, 3955.727
1158.001, 3959.133
1158.483, 3964.371
1158.966, 3973.856
1159.448, 3980.051
1159.930, 3979.774
1160.412, 3979.839
1160.894, 3980.537
1161.376, 3983.942
1161.858, 3993.414
1162.340, 4005.621
1162.822, 4012.949
1163.305, 4014.766
1163.787, 4018.527
1164.269, 4024.234
1164.751, 4032.458
1165.233, 4045.101
1165.715, 4054.293
1166.197, 4054.899
1166.679, 4054.147
1167.161, 4060.594
1167.644, 4072.826
1168.126, 4086.042
1168.608, 4100.385
1169.090, 4110.437
1169.572, 4115.822
1170.054, 4120.437
1170.536, 4125.227
1171.018, 4133.378
1171.500, 4147.435
1171.983, 4163.704
1172.465, 4176.536
1172.947, 4186.657
1173.429, 4196.303
1173.911, 4205.485
1174.393, 4213.958
1174.875, 4221.991
1175.357, 4230.753
1175.840, 4240.771
1176.322, 4251.875
1176.804, 4263.963
1177.286, 4277.150
1177.768, 4292.155
1178.250, 4307.923
1178.732, 4323.820
1179.214, 4338.883
1179.697, 4351.361
1180.179, 4361.365
1180.661, 4370.319
1181.143, 4378.848
1181.625, 4386.016
1182.107, 4389.042
1182.589, 4393.102
1183.071, 4402.005
1183.553, 4413.127
1184.036, 4424.980
1184.518, 4436.593
1185.000, 4446.885
1185.482, 4455.690
1185.964, 4463.190
1186.446, 4468.259
1186.928, 4474.023
1187.410, 4479.053
1187.892, 4487.386
1188.375, 4504.193
1188.857, 4522.068
1189.339, 4534.046
1189.821, 4541.772
1190.303, 4549.547
1190.785, 4557.440
1191.267, 4565.019
1191.749, 4572.278
1192.232, 4579.138
1192.714, 4585.534
1193.196, 4591.444
1193.678, 4596.586
1194.160, 4601.948
1194.642, 4608.853
1195.124, 4616.744
1195.606, 4623.635
1196.089, 4629.492
1196.571, 4633.110
1197.053, 4634.666
1197.535, 4640.424
1198.017, 4651.596
1198.499, 4660.828
1198.981, 4663.498
1199.463, 4663.052
1199.945, 4663.958
1200.427, 4665.057
1200.910, 4663.470
1201.392, 4660.488
1201.874, 4658.890
1202.356, 4658.598
1202.838, 4658.620
1203.320, 4658.507
1203.802, 4657.541
1204.284, 4655.038
1204.767, 4652.343
1205.249, 4652.042
1205.731, 4650.313
1206.213, 4641.818
1206.695, 4631.689
1207.177, 4625.822
1207.659, 4623.856
1208.141, 4623.803
1208.624, 4625.551
1209.106, 4624.499
1209.588, 4619.281
1210.070, 4611.583
1210.552, 4597.987
1211.034, 4586.383
1211.516, 4582.998
1211.998, 4581.436
1212.480, 4575.045
1212.963, 4565.134
1213.445, 4556.747
1213.927, 4549.821
1214.409, 4544.897
1214.891, 4543.083
1215.373, 4538.235
1215.855, 4528.411
1216.337, 4519.707
1216.819, 4515.793
1217.302, 4512.236
1217.784, 4502.943
1218.266, 4490.916
1218.748, 4486.877
1219.230, 4488.689
1219.712, 4484.859
1220.194, 4475.851
1220.676, 4466.674
1221.159, 4458.906
1221.641, 4454.018
1222.123, 4452.887
1222.605, 4452.117
1223.087, 4447.542
1223.569, 4442.201
1224.051, 4439.824
1224.533, 4438.508
1225.016, 4435.170
1225.498, 4431.097
1225.980, 4429.460
1226.462, 4430.415
1226.944, 4431.575
1227.426, 4433.076
1227.908, 4431.678
1228.390, 4424.103
1228.872, 4416.188
1229.354, 4409.718
1229.837, 4404.497
1230.319, 4400.510
1230.801, 4397.583
1231.283, 4395.486
1231.765, 4394.228
1232.247, 4393.212
1232.729, 4392.477
1233.211, 4392.127
1233.694, 4392.479
1234.176, 4392.341
1234.658, 4391.516
1235.140, 4389.297
1235.622, 4384.913
1236.104, 4379.871
1236.586, 4376.680
1237.068, 4375.078
1237.551, 4375.190
1238.033, 4375.873
1238.515, 4370.224
1238.997, 4359.531
1239.479, 4353.308
1239.961, 4353.841
1240.443, 4355.159
1240.925, 4353.394
1241.407, 4351.693
1241.890, 4354.332
1242.372, 4357.209
1242.854, 4354.772
1243.336, 4351.424
1243.818, 4352.809
1244.300, 4357.773
1244.782, 4363.816
1245.264, 4370.110
1245.746, 4372.683
1246.229, 4368.667
1246.711, 4364.274
1247.193, 4359.642
1247.675, 4356.002
1248.157, 4354.616
1248.639, 4353.135
1249.121, 4348.401
1249.603, 4344.025
1250.085, 4347.361
1250.568, 4357.744
1251.050, 4363.587
1251.532, 4364.372
1252.014, 4366.204
1252.496, 4369.615
1252.978, 4371.521
1253.460, 4370.997
1253.942, 4370.023
1254.425, 4369.953
1254.907, 4370.287
1255.389, 4370.726
1255.871, 4370.829
1256.353, 4368.495
1256.835, 4365.922
1257.317, 4366.818
1257.799, 4371.295
1258.281, 4380.537
1258.764, 4393.064
1259.246, 4400.510
1259.728, 4397.856
1260.210, 4395.407
1260.692, 4398.962
1261.174, 4402.546
1261.656, 4401.360
1262.138, 4401.118
1262.620, 4408.825
1263.103, 4418.861
1263.585, 4421.573
1264.067, 4417.849
1264.549, 4415.256
1265.031, 4412.875
1265.513, 4415.121
1265.995, 4423.305
1266.477, 4430.435
1266.960, 4435.211
1267.442, 4436.292
1267.924, 4432.576
1268.406, 4428.048
1268.888, 4427.378
1269.370, 4429.485
1269.852, 4432.103
1270.334, 4435.365
1270.817, 4439.850
1271.299, 4445.235
1271.781, 4451.385
1272.263, 4457.495
1272.745, 4460.575
1273.227, 4459.475
1273.709, 4459.047
1274.191, 4461.787
1274.673, 4466.533
1275.156, 4473.283
1275.638, 4481.206
1276.120, 4491.815
1276.602, 4501.692
1277.084, 4505.101
1277.566, 4504.864
1278.048, 4511.168
1278.530, 4525.429
1279.012, 4532.719
1279.495, 4529.404
1279.977, 4532.101
1280.459, 4544.029
1280.941, 4555.316
1281.423, 4562.429
1281.905, 4566.803
1282.387, 4569.034
1282.869, 4572.783
1283.352, 4586.766
1283.834, 4605.063
1284.316, 4614.610
1284.798, 4615.632
##END=



