##NAMES=Melanovanadite
##RRUFFID=R060131
##IDEAL CHEMISTRY=CaV^4+^_2_V^5+^_2_O_10_&#183;5H_2_O
##LOCALITY=Minas Ragra, Peru
##OWNER=RRUFF
##SOURCE=University of Arizona Mineral Museum
##DESCRIPTION=Sprays of black prismatic crystals
##STATUS=The identification of this mineral has been confirmed by X-ray diffraction and chemical analysis
##URL=rruff.info/R060131
##MEASURED CHEMISTRY=(Ca_0.73_[box]_0.27_)_Σ=1_(V^5+^_2.54_V^4+^_1.46_)_Σ=4_O_10_·5H_2_O
92.02539, 39.20208
92.50751, 39.67080
92.98962, 40.17646
93.47174, 40.15215
93.95386, 39.91296
94.43597, 39.46405
94.91809, 38.93153
95.40021, 38.26982
95.88232, 37.09969
96.36444, 35.00838
96.84656, 32.99743
97.32867, 31.28923
97.81078, 29.86214
98.29290, 28.66997
98.77502, 27.68258
99.25713, 26.88541
99.73925, 26.01664
100.2214, 24.99945
100.7035, 23.99874
101.1856, 23.02865
101.6677, 22.11267
102.1498, 21.33245
102.6320, 20.80081
103.1141, 20.63427
103.5962, 20.45156
104.0783, 20.03240
104.5604, 19.67466
105.0425, 19.84350
105.5247, 20.77347
106.0068, 21.89973
106.4889, 22.20975
106.9710, 21.69235
107.4531, 20.94327
107.9352, 20.14681
108.4173, 19.31031
108.8995, 18.46099
109.3816, 17.54485
109.8637, 16.67253
110.3458, 15.91936
110.8279, 15.27070
111.3100, 14.81132
111.7922, 14.70667
112.2743, 15.08349
112.7564, 15.41076
113.2385, 15.56301
113.7206, 15.59223
114.2027, 15.50978
114.6849, 15.30874
115.1670, 15.03596
115.6491, 14.86197
116.1312, 14.88343
116.6133, 14.89916
117.0954, 14.91412
117.5776, 14.89690
118.0597, 14.78539
118.5418, 14.51852
119.0239, 14.09068
119.5060, 13.89255
119.9881, 14.09162
120.4703, 14.31216
120.9524, 14.44704
121.4345, 14.47558
121.9166, 14.38145
122.3987, 14.11728
122.8808, 13.64653
123.3630, 13.30944
123.8451, 13.18168
124.3272, 13.14785
124.8093, 13.11503
125.2914, 13.07327
125.7735, 13.00513
126.2557, 12.84484
126.7378, 12.61596
127.2199, 12.45771
127.7020, 12.46791
128.1841, 12.59781
128.6662, 12.70374
129.1483, 12.80621
129.6305, 12.81306
130.1126, 12.64398
130.5947, 12.31273
131.0768, 11.94815
131.5589, 11.62759
132.0410, 11.34161
132.5232, 11.17956
133.0053, 11.26664
133.4874, 11.40627
133.9695, 11.49693
134.4516, 11.52102
134.9337, 11.53457
135.4159, 11.65190
135.8980, 12.05514
136.3801, 12.19700
136.8622, 11.90162
137.3443, 11.45931
137.8264, 11.08562
138.3086, 10.86670
138.7907, 10.77963
139.2728, 10.76857
139.7549, 10.97869
140.2370, 11.09926
140.7191, 11.04834
141.2013, 10.90331
141.6834, 10.79727
142.1655, 10.81617
142.6476, 10.89870
143.1297, 10.77002
143.6118, 10.19675
144.0939, 9.700534
144.5761, 9.535234
145.0582, 9.648658
145.5403, 9.810888
146.0224, 9.940020
146.5045, 9.992967
146.9866, 9.890086
147.4688, 9.469008
147.9509, 9.022174
148.4330, 8.852508
148.9151, 8.995289
149.3972, 9.194615
149.8793, 9.356936
150.3615, 9.471039
150.8436, 9.501499
151.3257, 9.389003
151.8078, 9.207534
152.2899, 9.142621
152.7720, 9.282794
153.2542, 9.382453
153.7363, 9.295604
154.2184, 9.116320
154.7005, 8.988766
155.1826, 9.013436
155.6647, 9.174132
156.1469, 9.306130
156.6290, 9.457898
157.1111, 9.521453
157.5932, 9.374171
158.0753, 9.108395
158.5574, 8.927707
159.0396, 9.038349
159.5217, 9.505864
160.0038, 9.646966
160.4859, 9.196950
160.9680, 8.708037
161.4501, 8.361740
161.9323, 8.186847
162.4144, 8.157526
162.8965, 8.266671
163.3786, 8.571528
163.8607, 8.761516
164.3428, 8.779943
164.8250, 8.734387
165.3071, 8.678089
165.7892, 8.624256
166.2713, 8.601760
166.7534, 8.676228
167.2355, 8.875926
167.7177, 8.942218
168.1998, 8.726267
168.6819, 8.404186
169.1640, 8.199069
169.6461, 8.161370
170.1282, 8.224291
170.6104, 8.346313
171.0925, 8.519760
171.5746, 8.661792
172.0567, 8.790572
172.5388, 8.868668
173.0209, 8.751636
173.5031, 8.282703
173.9852, 7.794250
174.4673, 7.567890
174.9494, 7.586413
175.4315, 7.692985
175.9136, 7.803423
176.3958, 7.917251
176.8779, 8.013328
177.3600, 8.100539
177.8421, 8.154848
178.3242, 8.139895
178.8063, 8.063697
179.2885, 7.991275
179.7706, 8.022177
180.2527, 8.210456
180.7348, 8.261081
181.2169, 7.999097
181.6990, 7.712324
182.1812, 7.555968
182.6633, 7.551089
183.1454, 7.614530
183.6275, 7.628797
184.1096, 7.557986
184.5917, 7.513174
185.0738, 7.484981
185.5560, 7.483324
186.0381, 7.564351
186.5202, 7.723735
187.0023, 7.652625
187.4844, 7.863628
187.9665, 7.967824
188.4487, 7.970944
188.9308, 7.570293
189.4129, 7.691038
189.8950, 7.602831
190.3771, 7.506055
190.8592, 7.700184
191.3414, 7.358255
191.8235, 7.547770
192.3056, 7.548023
192.7877, 7.536893
193.2698, 7.300145
193.7519, 7.545190
194.2341, 7.683428
194.7162, 7.720598
195.1983, 7.353989
195.6804, 7.508776
196.1625, 7.454611
196.6446, 7.391878
197.1268, 7.620049
197.6089, 7.312169
198.0910, 7.535727
198.5731, 7.547144
199.0552, 7.655653
199.5373, 7.553920
200.0195, 7.517124
200.5016, 7.690638
200.9837, 7.747701
201.4658, 7.749242
201.9479, 7.768434
202.4300, 7.679110
202.9122, 7.604875
203.3943, 7.548331
203.8764, 7.505760
204.3585, 7.488732
204.8406, 7.496932
205.3227, 7.467586
205.8048, 7.305830
206.2870, 7.164215
206.7691, 7.186586
207.2512, 7.385643
207.7333, 7.596167
208.2154, 7.615605
208.6975, 7.400488
209.1797, 7.252924
209.6618, 7.309156
210.1439, 7.390275
210.6260, 7.389686
211.1081, 7.293085
211.5902, 7.172488
212.0724, 7.119968
212.5545, 7.152212
213.0366, 7.205835
213.5187, 7.331220
214.0008, 7.436226
214.4829, 7.441472
214.9651, 7.341469
215.4472, 7.214053
215.9293, 7.181810
216.4114, 7.323644
216.8935, 7.397043
217.3756, 7.216008
217.8578, 7.475254
218.3399, 7.627689
218.8220, 7.679056
219.3041, 7.326644
219.7862, 7.495628
220.2683, 7.455661
220.7505, 7.950504
221.2326, 7.860731
221.7147, 7.584337
222.1968, 7.352045
222.6789, 7.230891
223.1610, 7.200621
223.6432, 7.244627
224.1253, 7.472948
224.6074, 7.336959
225.0895, 7.531557
225.5716, 7.619346
226.0537, 7.606066
226.5358, 7.189008
227.0180, 7.293334
227.5001, 7.188720
227.9822, 7.190482
228.4643, 7.166606
228.9464, 7.161449
229.4285, 7.184729
229.9107, 7.274887
230.3928, 7.443898
230.8749, 7.597536
231.3570, 7.579944
231.8391, 7.367467
232.3212, 7.247271
232.8034, 7.355859
233.2855, 7.545665
233.7676, 7.639772
234.2497, 7.606279
234.7318, 7.292081
235.2139, 7.519928
235.6961, 7.640964
236.1782, 7.660936
236.6603, 7.277130
237.1424, 7.414719
237.6245, 7.343356
238.1066, 7.263426
238.5888, 7.474396
239.0709, 7.149318
239.5530, 7.673576
240.0351, 7.868753
240.5172, 7.711218
240.9993, 7.368306
241.4815, 7.150398
241.9636, 7.084332
242.4457, 7.124109
242.9278, 7.325759
243.4099, 7.607110
243.8920, 7.786886
244.3742, 7.717847
244.8563, 7.505885
245.3384, 7.406519
245.8205, 7.474580
246.3026, 7.532459
246.7847, 7.457528
247.2668, 7.310503
247.7490, 7.190862
248.2311, 7.171479
248.7132, 7.195095
249.1953, 7.095972
249.6774, 6.781036
250.1595, 6.536342
250.6417, 6.500828
251.1238, 6.590880
251.6059, 6.719928
252.0880, 6.874708
252.5701, 7.012397
253.0522, 7.008569
253.5344, 6.774889
254.0165, 6.571063
254.4986, 6.541784
254.9807, 6.353020
255.4628, 6.574646
255.9449, 6.689464
256.4271, 6.703210
256.9092, 6.313181
257.3913, 6.444550
257.8734, 6.366966
258.3555, 6.496972
258.8376, 6.417623
259.3198, 6.327632
259.8019, 6.282585
260.2840, 6.263275
260.7661, 6.219272
261.2482, 6.086225
261.7303, 6.060109
262.2125, 6.285472
262.6946, 6.538469
263.1767, 6.608889
263.6588, 6.437139
264.1409, 6.153913
264.6230, 5.979835
265.1052, 5.921607
265.5873, 5.978193
266.0694, 6.345338
266.5515, 6.680168
267.0336, 6.677568
267.5157, 6.293588
267.9979, 5.574244
268.4800, 5.840541
268.9621, 6.000028
269.4442, 6.058449
269.9263, 5.713090
270.4084, 5.889128
270.8906, 5.856219
271.3727, 5.814738
271.8548, 6.064160
272.3369, 5.777532
272.8190, 5.714661
273.3011, 5.606031
273.7833, 5.752912
274.2654, 5.918342
274.7475, 5.964873
275.2296, 5.892754
275.7117, 5.786697
276.1938, 5.729637
276.6760, 5.730536
277.1581, 5.727179
277.6402, 5.808944
278.1223, 5.618784
278.6044, 5.889565
279.0865, 6.053539
279.5686, 6.116447
280.0508, 5.775581
280.5329, 5.956104
281.0150, 5.927678
281.4971, 6.149945
281.9792, 6.254169
282.4613, 6.344074
282.9435, 6.413268
283.4256, 6.428501
283.9077, 6.364555
284.3898, 6.229410
284.8719, 6.097399
285.3540, 5.973958
285.8362, 5.846420
286.3183, 5.660777
286.8004, 5.473564
287.2825, 5.405894
287.7646, 5.533381
288.2467, 5.782967
288.7289, 5.896901
289.2110, 5.809967
289.6931, 5.681581
290.1752, 5.466613
290.6573, 5.241700
291.1394, 5.134898
291.6216, 5.200475
292.1037, 5.352778
292.5858, 5.414731
293.0679, 5.328781
293.5500, 5.263160
294.0321, 5.235837
294.5143, 5.235985
294.9964, 5.260489
295.4785, 5.308295
295.9606, 5.356678
296.4427, 5.367301
296.9248, 5.311222
297.4070, 5.311361
297.8891, 5.427549
298.3712, 5.568477
298.8533, 5.646269
299.3354, 5.649931
299.8175, 5.641133
300.2997, 5.693745
300.7818, 5.825560
301.2639, 5.857033
301.7460, 5.696531
302.2281, 5.509671
302.7102, 5.406630
303.1924, 5.389101
303.6745, 5.389396
304.1566, 5.340952
304.6387, 5.257113
305.1208, 5.312279
305.6029, 5.688452
306.0851, 6.015033
306.5672, 6.106021
307.0493, 5.991478
307.5314, 5.757117
308.0135, 5.407168
308.4956, 5.010112
308.9778, 4.875519
309.4599, 5.186346
309.9420, 5.479708
310.4241, 5.604891
310.9062, 5.610373
311.3883, 5.575477
311.8705, 5.524988
312.3526, 5.474904
312.8347, 5.473352
313.3168, 5.570893
313.7989, 5.593772
314.2810, 5.409070
314.7632, 5.164640
315.2453, 5.074834
315.7274, 5.202941
316.2095, 5.416578
316.6916, 5.548096
317.1737, 5.590254
317.6559, 5.570821
318.1380, 5.405840
318.6201, 5.230902
319.1022, 5.201093
319.5843, 5.328079
320.0664, 5.458613
320.5485, 5.431334
321.0306, 5.230399
321.5128, 5.157610
321.9949, 5.313728
322.4770, 5.508279
322.9591, 5.639863
323.4412, 5.703578
323.9233, 5.715419
324.4055, 5.675960
324.8876, 5.593800
325.3697, 5.535941
325.8518, 5.549417
326.3339, 5.532933
326.8160, 5.393807
327.2982, 5.197470
327.7803, 5.106647
328.2624, 5.216672
328.7445, 5.427619
329.2266, 5.460043
329.7087, 5.209842
330.1909, 4.997574
330.6730, 4.891294
331.1551, 4.852321
331.6372, 4.824538
332.1193, 4.791139
332.6014, 4.789114
333.0836, 4.879492
333.5657, 5.102853
334.0478, 5.305008
334.5299, 5.533684
335.0120, 5.704425
335.4941, 5.716677
335.9763, 5.572192
336.4584, 5.393245
336.9405, 5.302331
337.4226, 5.110027
337.9047, 5.353714
338.3868, 5.490593
338.8690, 5.526403
339.3511, 5.158436
339.8332, 5.311864
340.3153, 5.256341
340.7974, 5.192249
341.2795, 5.419062
341.7617, 5.529356
342.2438, 5.359413
342.7259, 5.223708
343.2080, 5.240240
343.6901, 5.343855
344.1722, 5.440983
344.6544, 5.493346
345.1365, 5.512011
345.6186, 5.520725
346.1007, 5.559547
346.5828, 5.517950
347.0649, 5.279815
347.5471, 5.028530
348.0292, 4.953896
348.5113, 5.078630
348.9934, 5.255198
349.4755, 5.304561
349.9576, 5.188365
350.4398, 5.096596
350.9219, 5.054114
351.4040, 5.009574
351.8861, 4.894869
352.3682, 4.746790
352.8503, 4.688238
353.3325, 4.830638
353.8146, 5.152504
354.2967, 5.312713
354.7788, 5.094162
355.2609, 4.962229
355.7430, 5.149117
356.2252, 5.446587
356.7073, 5.516594
357.1894, 5.194241
357.6715, 4.671175
358.1536, 4.431972
358.6357, 4.696313
359.1179, 4.930421
359.5999, 5.199867
360.0821, 5.381751
360.5642, 5.324773
361.0463, 5.025449
361.5284, 4.658909
362.0105, 4.435753
362.4926, 4.374447
362.9748, 4.392520
363.4569, 4.587604
363.9390, 4.765635
364.4211, 4.856301
364.9032, 4.858758
365.3853, 4.789046
365.8675, 4.647737
366.3496, 4.445935
366.8317, 4.286348
367.3138, 4.122566
367.7959, 4.072927
368.2780, 4.232252
368.7602, 4.489270
369.2423, 4.723051
369.7244, 4.882542
370.2065, 4.968788
370.6886, 4.969164
371.1707, 4.839797
371.6529, 4.734490
372.1350, 4.673036
372.6171, 4.641731
373.0992, 4.635243
373.5813, 4.651691
374.0634, 4.687157
374.5456, 4.762698
375.0277, 4.884193
375.5098, 4.911347
375.9919, 4.744121
376.4740, 4.586029
376.9561, 4.530889
377.4383, 4.556571
377.9204, 4.613779
378.4025, 4.708636
378.8846, 4.796373
379.3667, 4.724749
379.8488, 4.414758
380.3310, 4.150586
380.8131, 4.062177
381.2952, 4.069601
381.7773, 4.110181
382.2594, 4.175341
382.7415, 4.237628
383.2237, 4.248132
383.7058, 4.207439
384.1879, 4.219935
384.6700, 4.329426
385.1521, 4.485171
385.6342, 4.682902
386.1164, 4.910490
386.5985, 5.032431
387.0806, 4.910352
387.5627, 4.633644
388.0448, 4.386634
388.5269, 4.158091
389.0091, 4.050397
389.4912, 4.294008
389.9733, 4.715574
390.4554, 4.912532
390.9375, 4.590025
391.4196, 4.210093
391.9018, 4.269447
392.3839, 4.714625
392.8660, 5.046905
393.3481, 5.021828
393.8302, 4.779171
394.3123, 4.584615
394.7945, 4.417427
395.2766, 4.348868
395.7587, 4.500606
396.2408, 4.746418
396.7229, 4.855523
397.2050, 4.769235
397.6872, 4.619837
398.1693, 4.520916
398.6514, 4.473593
399.1335, 4.579731
399.6156, 4.965112
400.0977, 5.050158
400.5798, 5.025164
401.0620, 4.896022
401.5441, 4.350972
402.0262, 4.343019
402.5083, 4.425751
402.9904, 4.493018
403.4725, 4.461514
403.9547, 4.440972
404.4368, 4.447687
404.9189, 4.478168
405.4010, 4.529387
405.8831, 4.599874
406.3652, 4.690121
406.8474, 4.813005
407.3295, 5.027477
407.8116, 5.086751
408.2937, 4.852441
408.7758, 4.604784
409.2579, 4.499837
409.7401, 4.525411
410.2222, 4.577256
410.7043, 4.568838
411.1864, 4.523194
411.6685, 4.648392
412.1506, 5.288475
412.6328, 5.668563
413.1149, 5.494385
413.5970, 5.088573
414.0791, 4.771099
414.5612, 4.658162
415.0433, 4.716962
415.5255, 4.961942
416.0076, 5.525348
416.4897, 5.817622
416.9718, 5.534371
417.4539, 5.197155
417.9360, 5.035095
418.4182, 5.036587
418.9003, 5.083392
419.3824, 5.099048
419.8645, 5.090036
420.3466, 5.089810
420.8287, 5.115225
421.3109, 5.113072
421.7930, 5.000412
422.2751, 4.875726
422.7572, 4.875524
423.2393, 5.060575
423.7214, 5.262952
424.2036, 5.267239
424.6857, 5.083434
425.1678, 4.977242
425.6499, 5.027358
426.1320, 5.151042
426.6141, 5.314826
427.0963, 5.503331
427.5784, 5.584697
428.0605, 5.415463
428.5426, 5.141017
429.0247, 4.982559
429.5068, 4.953591
429.9890, 4.986543
430.4711, 5.077611
430.9532, 5.189825
431.4353, 5.212976
431.9174, 5.097862
432.3995, 4.966208
432.8817, 4.872378
433.3638, 4.806798
433.8459, 4.746629
434.3280, 4.683928
434.8101, 4.633008
435.2922, 4.617690
435.7744, 4.649516
436.2565, 4.671951
436.7386, 4.683137
437.2207, 4.684349
437.7028, 4.666079
438.1849, 4.635859
438.6671, 4.619500
439.1492, 4.635171
439.6313, 4.678209
440.1134, 4.721125
440.5955, 4.759401
441.0776, 4.803440
441.5598, 4.864865
442.0418, 4.927209
442.5240, 5.001175
443.0061, 5.077451
443.4882, 5.082320
443.9703, 4.873050
444.4524, 4.339071
444.9345, 4.110410
445.4167, 4.510085
445.8988, 4.900445
446.3809, 5.058487
446.8630, 5.037798
447.3451, 4.979696
447.8272, 4.966516
448.3094, 4.956822
448.7915, 4.807825
449.2736, 4.413275
449.7557, 4.185240
450.2378, 4.380603
450.7199, 4.675330
451.2021, 4.868869
451.6842, 4.932060
452.1663, 4.904603
452.6484, 4.764307
453.1305, 4.547120
453.6126, 4.420720
454.0948, 4.414460
454.5769, 4.454711
455.0590, 4.521724
455.5411, 4.597490
456.0232, 4.645925
456.5053, 4.638200
456.9875, 4.629636
457.4696, 4.698166
457.9517, 4.816588
458.4338, 4.835611
458.9159, 4.660015
459.3980, 4.455193
459.8802, 4.530373
460.3623, 4.923178
460.8444, 5.158474
461.3265, 5.059962
461.8086, 4.830667
462.2907, 4.586715
462.7729, 4.365619
463.2550, 4.289155
463.7371, 4.482051
464.2192, 4.863356
464.7013, 4.963908
465.1834, 4.383680
465.6656, 4.051373
466.1477, 4.322755
466.6298, 4.792542
467.1119, 5.015553
467.5940, 4.893860
468.0761, 4.631061
468.5583, 4.458161
469.0404, 4.377676
469.5225, 4.365111
470.0046, 4.524724
470.4867, 4.644522
470.9688, 4.608276
471.4510, 4.499599
471.9331, 4.462737
472.4152, 4.570230
472.8973, 4.753458
473.3794, 4.903008
473.8615, 5.035622
474.3437, 5.060156
474.8258, 4.810814
475.3079, 4.568062
475.7900, 4.567160
476.2721, 4.764755
476.7542, 4.880143
477.2364, 4.632950
477.7185, 4.205227
478.2006, 4.036509
478.6827, 4.168322
479.1648, 4.328820
479.6469, 4.433605
480.1291, 4.369869
480.6112, 4.571380
481.0933, 4.666085
481.5754, 4.659719
482.0575, 4.249577
482.5396, 4.360828
483.0217, 4.600665
483.5038, 4.750893
483.9860, 4.740829
484.4681, 4.573474
484.9502, 4.243064
485.4323, 4.082670
485.9144, 4.206656
486.3965, 4.367408
486.8787, 4.472603
487.3608, 4.538987
487.8429, 4.626801
488.3250, 4.760324
488.8071, 4.861810
489.2892, 4.774684
489.7714, 4.352816
490.2535, 4.102220
490.7356, 4.074564
491.2177, 4.139431
491.6998, 4.302764
492.1819, 4.503900
492.6641, 4.625879
493.1462, 4.589074
493.6283, 4.435235
494.1104, 4.262512
494.5925, 4.019131
495.0746, 3.899240
495.5568, 4.101673
496.0389, 4.338121
496.5210, 4.374457
497.0031, 4.209005
497.4852, 4.064116
497.9673, 4.123889
498.4495, 4.321092
498.9316, 4.476561
499.4137, 4.583124
499.8958, 4.655744
500.3779, 4.719534
500.8600, 4.746017
501.3422, 4.667917
501.8243, 4.411108
502.3064, 4.204392
502.7885, 4.201579
503.2706, 4.314821
503.7527, 4.397501
504.2349, 4.418270
504.7170, 4.383654
505.1991, 4.279244
505.6812, 4.097251
506.1633, 4.033885
506.6454, 4.257778
507.1276, 4.400211
507.6097, 4.209187
508.0918, 3.882398
508.5739, 3.773865
509.0560, 4.006016
509.5381, 4.330530
510.0203, 4.127921
510.5024, 4.320785
510.9845, 4.406843
511.4666, 4.391830
511.9487, 3.973041
512.4308, 4.075647
512.9130, 3.969284
513.3951, 4.187457
513.8772, 4.134840
514.3593, 3.975998
514.8414, 3.925999
515.3235, 3.999273
515.8057, 4.072910
516.2878, 4.142608
516.7699, 4.178815
517.2520, 4.132331
517.7341, 4.019005
518.2162, 3.950252
518.6984, 4.019427
519.1805, 4.131838
519.6626, 4.169607
520.1447, 4.133312
520.6268, 4.055413
521.1089, 3.929022
521.5911, 3.796199
522.0732, 3.768307
522.5553, 3.881110
523.0374, 3.971217
523.5195, 4.000355
524.0016, 4.003481
524.4838, 4.020615
524.9659, 4.045815
525.4480, 3.842290
525.9301, 4.101805
526.4122, 4.254510
526.8943, 4.306149
527.3765, 3.954015
527.8586, 4.123270
528.3407, 4.083575
528.8228, 4.035312
529.3049, 4.277951
529.7870, 3.984541
530.2692, 4.222573
530.7513, 4.248459
531.2334, 4.371439
531.7155, 4.284176
532.1976, 4.120630
532.6797, 4.014208
533.1619, 4.144180
533.6440, 4.330179
534.1261, 4.377723
534.6082, 4.244504
535.0903, 4.085015
535.5724, 3.997486
536.0546, 3.955525
536.5367, 3.897134
537.0188, 3.812643
537.5009, 3.739608
537.9830, 3.695369
538.4651, 3.687741
538.9473, 3.747399
539.4294, 4.015470
539.9115, 4.168076
540.3936, 3.998070
540.8757, 3.718460
541.3578, 3.614200
541.8400, 3.728728
542.3221, 3.876591
542.8042, 3.861164
543.2863, 3.678772
543.7684, 3.560581
544.2505, 3.494173
544.7326, 3.516262
545.2147, 3.734511
545.6968, 3.994010
546.1790, 4.114797
546.6611, 4.056117
547.1432, 3.936829
547.6253, 3.854205
548.1074, 3.812121
548.5895, 3.881750
549.0717, 4.134203
549.5538, 4.350534
550.0359, 4.358804
550.5180, 4.257008
551.0001, 4.192418
551.4822, 4.218409
551.9644, 4.210542
552.4465, 4.014639
552.9286, 3.743756
553.4107, 3.656127
553.8928, 3.804872
554.3749, 4.005096
554.8571, 4.097602
555.3392, 4.084664
555.8213, 4.062849
556.3034, 4.081137
556.7855, 4.033308
557.2676, 3.810161
557.7498, 3.544902
558.2319, 3.407835
558.7140, 3.431122
559.1961, 3.510098
559.6782, 3.525448
560.1603, 3.475644
560.6425, 3.492038
561.1246, 3.655339
561.6067, 3.764782
562.0888, 3.733569
562.5709, 3.635300
563.0530, 3.546396
563.5352, 3.484766
564.0173, 3.441436
564.4994, 3.374004
564.9815, 3.317146
565.4636, 3.428291
565.9457, 3.764006
566.4279, 4.046751
566.9100, 4.063698
567.3921, 3.881870
567.8742, 3.765068
568.3563, 3.732117
568.8384, 3.731657
569.3206, 3.781543
569.8027, 3.836769
570.2848, 3.850488
570.7669, 3.812355
571.2490, 3.706503
571.7311, 3.493618
572.2133, 3.201504
572.6954, 3.150688
573.1775, 3.613729
573.6596, 3.947701
574.1417, 4.023975
574.6238, 3.976511
575.1060, 3.874667
575.5881, 3.754364
576.0702, 3.697751
576.5523, 3.819050
577.0344, 4.054826
577.5165, 4.157099
577.9987, 4.098344
578.4808, 4.029218
578.9629, 4.045117
579.4450, 4.060537
579.9271, 3.920669
580.4092, 3.584859
580.8914, 3.369313
581.3735, 3.469546
581.8556, 3.702552
582.3377, 3.923594
582.8198, 4.097586
583.3019, 4.118412
583.7841, 3.896030
584.2662, 3.550746
584.7483, 3.418597
585.2304, 3.712605
585.7125, 3.872605
586.1946, 3.805794
586.6768, 3.696548
587.1589, 3.658730
587.6410, 3.677296
588.1231, 3.680661
588.6052, 3.626653
589.0873, 3.536545
589.5695, 3.418155
590.0516, 3.244470
590.5337, 3.262375
591.0158, 3.704183
591.4979, 4.132173
591.9800, 4.132052
592.4622, 3.802518
592.9443, 3.544405
593.4264, 3.502026
593.9085, 3.555115
594.3906, 3.658040
594.8727, 3.779407
595.3549, 3.822974
595.8370, 3.755077
596.3191, 3.637752
596.8012, 3.530634
597.2833, 3.416850
597.7654, 3.441543
598.2476, 3.761912
598.7297, 4.017690
599.2118, 4.110340
599.6939, 4.069472
600.1760, 3.887738
600.6581, 3.582341
601.1403, 3.312124
601.6224, 3.293549
602.1045, 3.513013
602.5866, 3.661675
603.0687, 3.752206
603.5508, 3.740383
604.0330, 3.450172
604.5151, 3.109262
604.9972, 3.047827
605.4793, 3.361189
605.9614, 3.653343
606.4435, 3.654986
606.9257, 3.553169
607.4078, 3.661889
607.8899, 3.976026
608.3720, 4.195449
608.8541, 4.115982
609.3362, 3.829939
609.8184, 3.628399
610.3005, 3.554160
610.7826, 3.508106
611.2647, 3.537332
611.7468, 3.552697
612.2289, 3.480490
612.7111, 3.344806
613.1932, 3.212046
613.6753, 3.110590
614.1574, 3.061622
614.6395, 3.123693
615.1216, 3.306727
615.6038, 3.482001
616.0859, 3.664101
616.5680, 3.777757
617.0501, 3.689172
617.5322, 3.469810
618.0143, 3.369817
618.4965, 3.552365
618.9786, 3.740667
619.4607, 3.782230
619.9428, 3.710442
620.4249, 3.526822
620.9070, 3.246423
621.3892, 3.071396
621.8713, 3.240509
622.3534, 3.746878
622.8355, 4.029331
623.3176, 3.917264
623.7997, 3.789685
624.2819, 3.667426
624.7640, 3.576618
625.2461, 3.549354
625.7282, 3.583346
626.2103, 3.638187
626.6924, 3.730391
627.1745, 3.804512
627.6566, 3.661026
628.1387, 3.275193
628.6208, 3.031166
629.1030, 3.133824
629.5851, 3.373204
630.0672, 3.404543
630.5493, 3.210084
631.0314, 3.153252
631.5135, 3.466466
631.9957, 3.761885
632.4778, 3.735658
632.9599, 3.514547
633.4420, 3.399080
633.9241, 3.499262
634.4063, 3.645141
634.8884, 3.570431
635.3705, 3.229166
635.8526, 3.050612
636.3347, 3.094695
636.8168, 3.227265
637.2990, 3.494704
637.7811, 3.770259
638.2632, 3.894579
638.7453, 3.830985
639.2274, 3.694920
639.7095, 3.475168
640.1917, 3.269265
640.6738, 3.301384
641.1559, 3.573520
641.6380, 3.813958
642.1201, 3.867819
642.6022, 3.815057
643.0844, 3.841042
643.5665, 4.021891
644.0486, 4.121619
644.5307, 4.083399
645.0128, 4.019547
645.4949, 3.996770
645.9771, 3.994835
646.4592, 3.964912
646.9413, 3.885643
647.4234, 3.772700
647.9055, 3.586164
648.3876, 3.332154
648.8698, 3.370540
649.3519, 3.881600
649.8340, 4.338440
650.3161, 4.382266
650.7982, 4.154077
651.2803, 3.898768
651.7625, 3.545909
652.2446, 3.391643
652.7267, 3.752323
653.2088, 4.245177
653.6909, 4.428093
654.1730, 4.307875
654.6552, 4.150646
655.1373, 4.120256
655.6194, 4.150205
656.1015, 4.040763
656.5836, 3.657092
657.0657, 3.484325
657.5479, 3.841698
658.0300, 4.133288
658.5121, 3.985312
658.9942, 3.603816
659.4763, 3.433280
659.9584, 3.667797
660.4406, 3.987473
660.9227, 4.134519
661.4048, 4.141537
661.8869, 4.058982
662.3690, 3.891860
662.8511, 3.776010
663.3333, 3.827902
663.8154, 3.993934
664.2975, 4.048818
664.7796, 3.952040
665.2617, 3.796876
665.7438, 3.424154
666.2260, 3.131822
666.7081, 3.172010
667.1902, 3.464401
667.6723, 3.776172
668.1544, 3.997790
668.6365, 4.139544
669.1187, 4.232988
669.6008, 4.275066
670.0829, 4.160354
670.5650, 3.800843
671.0471, 3.477401
671.5292, 3.393243
672.0114, 3.517831
672.4935, 3.719170
672.9756, 4.096023
673.4577, 4.372837
673.9398, 4.415912
674.4219, 4.355795
674.9041, 4.272374
675.3862, 4.203215
675.8683, 4.238942
676.3504, 4.455305
676.8325, 4.709095
677.3146, 4.607529
677.7968, 4.039462
678.2789, 3.656338
678.7610, 3.564150
679.2431, 3.619911
679.7252, 3.797065
680.2073, 4.038765
680.6895, 4.238863
681.1716, 4.399280
681.6537, 4.458632
682.1358, 4.321435
682.6179, 4.090380
683.1000, 3.879650
683.5822, 3.717032
684.0643, 3.649643
684.5464, 3.716562
685.0285, 3.874266
685.5106, 3.990001
685.9927, 3.997941
686.4749, 4.118008
686.9570, 4.621892
687.4391, 4.973159
687.9212, 4.797719
688.4033, 4.333729
688.8854, 4.037469
689.3676, 4.080091
689.8497, 4.194522
690.3318, 4.173535
690.8139, 4.057292
691.2960, 3.882207
691.7781, 3.660577
692.2603, 3.569346
692.7424, 3.728935
693.2245, 4.066745
693.7066, 4.409835
694.1887, 4.900102
694.6708, 5.094750
695.1530, 4.707162
695.6351, 4.341193
696.1172, 4.356585
696.5993, 4.575269
697.0814, 4.643637
697.5635, 4.431285
698.0457, 4.186301
698.5278, 4.179289
699.0099, 4.340533
699.4920, 4.458332
699.9741, 4.518079
700.4562, 4.505445
700.9384, 4.378223
701.4205, 4.218261
701.9026, 4.210411
702.3847, 4.444762
702.8668, 4.589533
703.3489, 4.635308
703.8311, 4.596373
704.3132, 4.407865
704.7953, 4.164649
705.2774, 3.987071
705.7595, 3.918448
706.2416, 3.965355
706.7238, 4.221052
707.2059, 4.610297
707.6880, 4.773287
708.1701, 4.676257
708.6522, 4.568715
709.1343, 4.549234
709.6164, 4.578272
710.0985, 4.593351
710.5806, 4.588547
711.0627, 4.612870
711.5449, 4.697917
712.0270, 4.782231
712.5091, 4.831876
712.9912, 4.864608
713.4733, 4.928674
713.9554, 5.023759
714.4376, 5.057900
714.9197, 4.888368
715.4018, 4.604317
715.8839, 4.589797
716.3660, 4.885900
716.8481, 5.151303
717.3303, 5.290853
717.8124, 5.344705
718.2945, 5.357995
718.7766, 5.329988
719.2587, 5.221489
719.7408, 4.904911
720.2230, 4.653987
720.7051, 4.605171
721.1872, 4.663571
721.6693, 4.727303
722.1514, 4.776547
722.6335, 4.841109
723.1157, 4.955614
723.5978, 5.079755
724.0799, 5.087855
724.5620, 4.965875
725.0441, 4.881945
725.5262, 4.904883
726.0084, 4.903951
726.4905, 4.683635
726.9726, 4.341514
727.4547, 4.271245
727.9368, 4.716681
728.4189, 5.083793
728.9011, 5.137532
729.3832, 5.078808
729.8653, 5.121651
730.3474, 5.234355
730.8295, 5.223653
731.3116, 4.973379
731.7938, 4.626121
732.2759, 4.399230
732.7580, 4.293078
733.2401, 4.383773
733.7222, 4.798332
734.2043, 5.085687
734.6865, 4.880355
735.1686, 4.416399
735.6507, 4.211912
736.1328, 4.326970
736.6149, 4.491629
737.0970, 4.742142
737.5792, 4.940867
738.0613, 4.977045
738.5434, 4.893659
739.0255, 4.767759
739.5076, 4.630239
739.9897, 4.509064
740.4719, 4.425134
740.9540, 4.383153
741.4361, 4.434984
741.9182, 4.602719
742.4003, 4.752856
742.8824, 4.844199
743.3646, 4.885637
743.8467, 4.868979
744.3288, 4.793108
744.8109, 4.754217
745.2930, 4.819578
745.7751, 4.853815
746.2573, 4.755262
746.7394, 4.622015
747.2215, 4.614405
747.7036, 4.719924
748.1857, 4.727137
748.6678, 4.419745
749.1500, 4.003415
749.6321, 4.009559
750.1142, 4.437857
750.5963, 4.707746
751.0784, 4.676407
751.5605, 4.549118
752.0427, 4.466404
752.5248, 4.426064
753.0069, 4.412596
753.4890, 4.463790
753.9711, 4.480933
754.4532, 4.382886
754.9354, 4.307381
755.4175, 4.403049
755.8996, 4.595107
756.3817, 4.684017
756.8638, 4.578839
757.3459, 4.453925
757.8281, 4.554217
758.3102, 4.810320
758.7923, 4.948981
759.2744, 4.949571
759.7565, 4.914327
760.2386, 4.877084
760.7208, 4.860238
761.2029, 4.913007
761.6850, 5.071708
762.1671, 5.149985
762.6492, 5.076288
763.1313, 5.014043
763.6135, 5.033923
764.0956, 5.079909
764.5777, 5.084956
765.0598, 5.043135
765.5419, 5.000487
766.0240, 4.965854
766.5062, 4.965979
766.9883, 5.049791
767.4704, 5.204339
767.9525, 5.405589
768.4346, 5.653126
768.9167, 5.807000
769.3989, 5.723279
769.8810, 5.447489
770.3631, 5.256793
770.8452, 5.130638
771.3273, 5.129667
771.8094, 5.390372
772.2916, 5.642065
772.7737, 5.738780
773.2558, 5.718137
773.7379, 5.660989
774.2200, 5.574885
774.7021, 5.517774
775.1843, 5.567236
775.6664, 5.645442
776.1485, 5.611398
776.6306, 5.496084
777.1127, 5.485863
777.5948, 5.667462
778.0770, 5.876185
778.5591, 5.836573
779.0412, 5.529172
779.5233, 5.403563
780.0054, 5.561754
780.4875, 5.686727
780.9697, 5.628457
781.4518, 5.527985
781.9339, 5.542418
782.4160, 5.660004
782.8981, 5.718022
783.3802, 5.594030
783.8624, 5.497089
784.3445, 5.535777
784.8266, 5.662099
785.3087, 5.848258
785.7908, 6.064184
786.2729, 6.245016
786.7551, 6.355779
787.2372, 6.374293
787.7193, 6.184436
788.2014, 5.791452
788.6835, 5.633942
789.1656, 5.823278
789.6478, 6.017258
790.1299, 5.966148
790.6120, 5.806562
791.0941, 5.896959
791.5762, 6.382594
792.0583, 6.670141
792.5404, 6.566422
793.0225, 6.434953
793.5046, 6.449745
793.9868, 6.537779
794.4689, 6.586523
794.9510, 6.574239
795.4331, 6.561531
795.9152, 6.592263
796.3973, 6.651814
796.8795, 6.719421
797.3616, 6.794890
797.8437, 6.868476
798.3258, 6.936688
798.8079, 7.035768
799.2900, 7.207161
799.7722, 7.431209
800.2543, 7.594605
800.7364, 7.696265
801.2185, 7.740572
801.7006, 7.585004
802.1827, 7.516106
802.6649, 7.774615
803.1470, 8.184918
803.6291, 8.403822
804.1112, 8.327702
804.5933, 8.253375
805.0754, 8.349518
805.5576, 8.500784
806.0397, 8.569172
806.5218, 8.598461
807.0039, 8.746793
807.4860, 9.055154
807.9681, 9.339795
808.4503, 9.376834
808.9324, 9.218866
809.4145, 9.151916
809.8966, 9.190752
810.3787, 9.225758
810.8608, 9.222062
811.3430, 9.219371
811.8251, 9.230105
812.3072, 9.268104
812.7893, 9.416387
813.2714, 9.857184
813.7535, 10.13422
814.2357, 10.04400
814.7178, 9.897650
815.1999, 9.924624
815.6820, 10.05892
816.1641, 10.12494
816.6462, 10.06067
817.1284, 9.971142
817.6105, 9.947215
818.0926, 9.966048
818.5747, 10.04679
819.0568, 10.15169
819.5389, 10.01433
820.0211, 9.527080
820.5032, 8.992270
820.9853, 8.761597
821.4674, 8.814941
821.9495, 8.844573
822.4316, 8.826183
822.9138, 8.841146
823.3959, 9.037814
823.8780, 9.134735
824.3601, 8.850596
824.8422, 8.333228
825.3243, 7.977647
825.8065, 7.898298
826.2886, 7.867067
826.7707, 7.835151
827.2528, 7.781528
827.7349, 7.614573
828.2170, 7.424782
828.6992, 7.478364
829.1813, 7.844855
829.6634, 8.144807
830.1455, 7.875712
830.6276, 7.233611
831.1097, 6.894403
831.5919, 6.854807
832.0740, 6.830874
832.5561, 6.735566
833.0382, 6.673491
833.5203, 6.770175
834.0024, 6.990464
834.4846, 7.066553
834.9667, 6.901028
835.4488, 6.747562
835.9309, 6.568279
836.4130, 6.455019
836.8951, 6.540961
837.3773, 6.698140
837.8594, 6.663815
838.3415, 6.349764
838.8236, 6.116374
839.3057, 6.239047
839.7878, 6.451365
840.2700, 6.527851
840.7521, 6.482331
841.2342, 6.341459
841.7163, 6.129652
842.1984, 5.939626
842.6805, 5.857649
843.1627, 5.862260
843.6448, 5.913393
844.1269, 6.013915
844.6090, 6.034994
845.0911, 5.924315
845.5732, 5.845715
846.0554, 5.947176
846.5375, 6.140834
847.0196, 6.165237
847.5017, 5.899184
847.9838, 5.740250
848.4659, 5.727385
848.9481, 5.771521
849.4302, 5.875245
849.9123, 5.996368
850.3944, 6.113970
850.8765, 6.213710
851.3586, 6.219600
851.8408, 5.992194
852.3229, 5.755736
852.8050, 5.750381
853.2871, 5.846317
853.7692, 5.789011
854.2513, 5.576559
854.7335, 5.412396
855.2156, 5.424627
855.6977, 5.562743
856.1798, 5.814593
856.6619, 6.167918
857.1440, 6.129266
857.6262, 5.568579
858.1083, 5.190229
858.5904, 5.358271
859.0725, 5.767058
859.5546, 6.018292
860.0367, 6.105934
860.5189, 6.096360
861.0010, 5.959023
861.4831, 5.769860
861.9652, 5.430208
862.4473, 5.137158
862.9294, 5.047628
863.4116, 5.128953
863.8937, 5.281175
864.3758, 5.514509
864.8579, 5.675078
865.3400, 5.633090
865.8221, 5.492265
866.3043, 5.299949
866.7864, 5.118127
867.2685, 5.119913
867.7506, 5.345953
868.2327, 5.575378
868.7148, 5.555908
869.1970, 5.372663
869.6791, 5.359937
870.1612, 5.517685
870.6433, 5.414904
871.1254, 4.885089
871.6075, 4.454093
872.0897, 4.573411
872.5718, 5.053808
873.0539, 5.280412
873.5360, 5.139977
874.0181, 5.005204
874.5002, 4.850446
874.9823, 4.733163
875.4644, 4.659620
875.9465, 4.641252
876.4286, 4.725965
876.9108, 4.905557
877.3929, 5.013643
877.8750, 4.909560
878.3571, 4.816974
878.8392, 4.925263
879.3214, 5.071875
879.8035, 5.011243
880.2856, 4.792861
880.7677, 4.675887
881.2498, 4.795591
881.7319, 4.995738
882.2141, 5.109709
882.6962, 5.143626
883.1783, 5.083055
883.6604, 4.940961
884.1425, 4.855302
884.6246, 4.877863
885.1068, 4.953707
885.5889, 5.043352
886.0710, 5.126543
886.5531, 5.010571
887.0352, 4.571116
887.5173, 4.294105
887.9995, 4.256256
888.4816, 4.371236
888.9637, 4.753309
889.4458, 5.201684
889.9279, 5.275686
890.4100, 4.852774
890.8922, 4.530149
891.3743, 4.388556
891.8564, 4.367059
892.3385, 4.580110
892.8206, 4.808830
893.3027, 4.774351
893.7849, 4.493731
894.2670, 4.210760
894.7491, 4.009473
895.2312, 3.930024
895.7133, 4.126292
896.1954, 4.410538
896.6776, 4.291571
897.1597, 4.519948
897.6418, 4.638300
898.1239, 4.652536
898.6060, 4.250824
899.0881, 4.386226
899.5703, 4.306369
900.0524, 4.217691
900.5345, 4.428689
901.0166, 4.087476
901.4987, 4.293718
901.9808, 4.280628
902.4630, 4.187622
902.9451, 4.026535
903.4272, 4.044632
903.9093, 4.381308
904.3914, 4.574751
904.8735, 4.622503
905.3557, 4.424376
905.8378, 4.640595
906.3199, 4.746793
906.8020, 4.748873
907.2841, 4.335005
907.7662, 4.458252
908.2484, 4.366237
908.7305, 4.265404
909.2126, 4.464248
909.6947, 4.110880
910.1768, 4.249557
910.6589, 4.299970
911.1411, 4.268732
911.6232, 4.117934
912.1053, 4.037316
912.5874, 4.280734
913.0695, 4.639578
913.5516, 4.804375
914.0338, 4.802571
914.5159, 4.756082
914.9980, 4.688669
915.4801, 4.492035
915.9622, 4.043931
916.4443, 3.528798
916.9265, 3.447498
917.4086, 3.798149
917.8907, 3.933388
918.3728, 3.758839
918.8549, 3.671720
919.3370, 3.892803
919.8192, 4.193180
920.3013, 4.240941
920.7834, 4.027339
921.2655, 3.937680
921.7476, 4.065243
922.2297, 4.155325
922.7119, 4.112092
923.1940, 4.083025
923.6761, 4.183632
924.1582, 4.350710
924.6403, 4.456298
925.1224, 4.484169
925.6046, 4.465883
926.0867, 4.371646
926.5688, 4.275092
927.0509, 4.218039
927.5330, 4.178803
928.0151, 4.121108
928.4973, 4.051024
928.9794, 4.019176
929.4615, 4.069624
929.9436, 4.111028
930.4257, 4.065306
930.9078, 3.959575
931.3900, 3.767926
931.8721, 3.554509
932.3542, 3.532432
932.8363, 3.759849
933.3184, 4.032065
933.8005, 4.153312
934.2827, 4.160560
934.7648, 4.138278
935.2469, 4.089245
935.7290, 4.039944
936.2111, 3.995079
936.6932, 3.934116
937.1754, 3.833067
937.6575, 3.751841
938.1396, 3.825049
938.6217, 4.077887
939.1038, 4.141693
939.5859, 3.897942
940.0681, 3.795316
940.5502, 4.059899
941.0323, 4.342178
941.5144, 4.327179
941.9965, 4.084726
942.4786, 3.907424
942.9608, 3.808572
943.4429, 3.742816
943.9250, 3.741703
944.4071, 3.734319
944.8892, 3.681942
945.3713, 3.614753
945.8535, 3.552787
946.3356, 3.505601
946.8177, 3.514329
947.2998, 3.649987
947.7819, 3.755572
948.2640, 3.749686
948.7462, 3.684092
949.2283, 3.550863
949.7104, 3.412107
950.1925, 3.388844
950.6746, 3.512030
951.1567, 3.677472
951.6389, 3.839123
952.1210, 3.968829
952.6031, 4.017566
953.0852, 4.011215
953.5673, 4.027890
954.0494, 4.059519
954.5316, 3.983380
955.0137, 3.728136
955.4958, 3.444077
955.9779, 3.323483
956.4600, 3.361112
956.9421, 3.657902
957.4242, 4.191433
957.9063, 3.945855
958.3884, 4.098147
958.8705, 4.140423
959.3527, 4.078545
959.8348, 3.600754
960.3169, 3.660058
960.7990, 3.504111
961.2811, 3.571503
961.7632, 3.662195
962.2454, 3.709525
962.7275, 3.617764
963.2096, 3.499729
963.6917, 3.492928
964.1738, 3.582287
964.6559, 3.597637
965.1381, 3.466024
965.6202, 3.378473
966.1023, 3.287936
966.5844, 3.300539
967.0665, 3.549304
967.5486, 3.880755
968.0308, 4.101221
968.5129, 4.197428
968.9950, 4.232192
969.4771, 4.269107
969.9592, 4.178969
970.4413, 3.761509
970.9235, 3.340737
971.4056, 3.140866
971.8877, 3.154108
972.3698, 3.385408
972.8519, 3.837735
973.3340, 4.156955
973.8162, 4.036815
974.2983, 3.812973
974.7804, 3.728984
975.2625, 3.732246
975.7446, 3.784357
976.2267, 3.843050
976.7089, 3.795024
977.1910, 3.580367
977.6731, 3.376114
978.1552, 3.393777
978.6373, 3.526978
979.1194, 3.592993
979.6016, 3.611938
980.0837, 3.657298
980.5658, 3.745261
981.0479, 3.868716
981.5300, 4.031371
982.0121, 4.170568
982.4943, 4.148773
982.9764, 3.996964
983.4585, 3.896857
983.9406, 3.852199
984.4227, 3.738846
984.9048, 3.503648
985.3870, 3.399146
985.8691, 3.698229
986.3512, 4.226775
986.8333, 4.375771
987.3154, 4.080952
987.7975, 3.939451
988.2797, 4.006158
988.7618, 4.135512
989.2439, 4.303895
989.7260, 4.438462
990.2081, 4.437491
990.6902, 4.320921
991.1724, 4.280189
991.6545, 4.342551
992.1366, 4.422329
992.6187, 4.567795
993.1008, 4.650289
993.5829, 4.614214
994.0651, 4.480716
994.5472, 4.212055
995.0293, 3.802481
995.5114, 3.628829
995.9935, 3.876251
996.4756, 4.095919
996.9578, 4.238179
997.4399, 4.330371
997.9220, 4.424798
998.4041, 4.462527
998.8862, 4.305677
999.3683, 3.935931
999.8505, 3.665492
1000.333, 3.576554
1000.815, 3.593728
1001.297, 3.829581
1001.779, 4.036631
1002.261, 3.982242
1002.743, 3.748645
1003.225, 3.501377
1003.707, 3.280230
1004.190, 3.151135
1004.672, 3.129093
1005.154, 3.229791
1005.636, 3.658141
1006.118, 4.080159
1006.600, 4.009782
1007.082, 3.580567
1007.564, 3.267441
1008.046, 3.242834
1008.529, 3.345383
1009.011, 3.568715
1009.493, 3.747254
1009.975, 3.603616
1010.457, 3.323743
1010.939, 3.296710
1011.421, 3.493158
1011.903, 3.529609
1012.385, 3.213429
1012.868, 2.877481
1013.350, 2.959184
1013.832, 3.227769
1014.314, 3.241096
1014.796, 3.070191
1015.278, 2.927673
1015.760, 2.856068
1016.242, 2.819413
1016.725, 2.795074
1017.207, 2.812763
1017.689, 2.964320
1018.171, 3.188063
1018.653, 3.234696
1019.135, 3.129379
1019.617, 3.074012
1020.099, 3.110414
1020.581, 3.099741
1021.064, 2.934186
1021.546, 2.739303
1022.028, 2.802776
1022.510, 3.087956
1022.992, 3.098994
1023.474, 2.825736
1023.956, 2.784257
1024.438, 3.136388
1024.921, 3.411719
1025.403, 3.234181
1025.885, 2.804053
1026.367, 2.572254
1026.849, 2.543520
1027.331, 2.696090
1027.813, 3.090921
1028.295, 3.292776
1028.777, 3.122718
1029.260, 2.957242
1029.742, 3.137891
1030.224, 3.498782
1030.706, 3.555023
1031.188, 3.243016
1031.670, 2.943013
1032.152, 2.583457
1032.634, 2.455648
1033.116, 2.711437
1033.599, 3.104895
1034.081, 3.521544
1034.563, 3.864693
1035.045, 3.784671
1035.527, 3.046275
1036.009, 2.721644
1036.491, 3.062382
1036.973, 3.337450
1037.456, 3.346559
1037.938, 3.217379
1038.420, 2.971439
1038.902, 2.686799
1039.384, 2.654245
1039.866, 3.054044
1040.348, 3.192548
1040.830, 2.692300
1041.313, 2.472931
1041.795, 3.147586
1042.277, 3.849219
1042.759, 3.793266
1043.241, 3.206826
1043.723, 2.777574
1044.205, 2.486314
1044.687, 2.432986
1045.169, 2.878296
1045.651, 3.224562
1046.134, 3.265470
1046.616, 3.177098
1047.098, 3.054579
1047.580, 2.925359
1048.062, 2.851834
1048.544, 2.853181
1049.026, 2.861505
1049.508, 2.864937
1049.991, 2.878369
1050.473, 2.873449
1050.955, 2.909541
1051.437, 3.125972
1051.919, 3.410753
1052.401, 3.455616
1052.883, 3.168626
1053.365, 2.863829
1053.848, 2.457225
1054.330, 2.235122
1054.812, 2.469976
1055.294, 2.792588
1055.776, 2.841372
1056.258, 2.726944
1056.740, 2.822289
1057.222, 3.261688
1057.704, 3.447689
1058.187, 2.900639
1058.669, 2.464514
1059.151, 2.647574
1059.633, 2.963027
1060.115, 2.944469
1060.597, 2.718096
1061.079, 2.642990
1061.561, 2.800697
1062.043, 2.991003
1062.526, 3.282547
1063.008, 3.417643
1063.490, 3.143254
1063.972, 2.785331
1064.454, 2.634273
1064.936, 2.625395
1065.418, 2.543034
1065.900, 2.340245
1066.383, 2.297563
1066.865, 2.701667
1067.347, 3.060169
1067.829, 3.122748
1068.311, 3.061733
1068.793, 2.971015
1069.275, 2.892740
1069.757, 2.903785
1070.240, 3.010197
1070.722, 3.028899
1071.204, 2.746634
1071.686, 2.539933
1072.168, 2.635136
1072.650, 2.829184
1073.132, 3.000504
1073.614, 3.128080
1074.096, 3.213363
1074.578, 3.252955
1075.061, 3.214578
1075.543, 2.979842
1076.025, 2.830906
1076.507, 3.067634
1076.989, 3.281224
1077.471, 3.035369
1077.953, 2.606220
1078.435, 2.467595
1078.918, 2.646225
1079.400, 2.791087
1079.882, 2.748024
1080.364, 2.697101
1080.846, 2.730690
1081.328, 2.781194
1081.810, 2.802984
1082.292, 2.808689
1082.774, 2.805027
1083.257, 2.804444
1083.739, 2.853006
1084.221, 2.992462
1084.703, 3.102637
1085.185, 3.111065
1085.667, 3.091059
1086.149, 3.135024
1086.631, 3.146481
1087.114, 2.943906
1087.596, 2.601327
1088.078, 2.403620
1088.560, 2.450290
1089.042, 2.557012
1089.524, 2.680810
1090.006, 2.803746
1090.488, 2.972139
1090.970, 3.088654
1091.453, 2.991437
1091.935, 2.771037
1092.417, 2.684788
1092.899, 2.807139
1093.381, 2.892433
1093.863, 2.777892
1094.345, 2.698668
1094.827, 2.783885
1095.309, 2.931250
1095.792, 3.127630
1096.274, 3.289980
1096.756, 3.241399
1097.238, 2.953757
1097.720, 2.743112
1098.202, 2.780010
1098.684, 2.808474
1099.166, 2.722166
1099.649, 2.618062
1100.131, 2.521481
1100.613, 2.474107
1101.095, 2.585850
1101.577, 2.838184
1102.059, 2.930805
1102.541, 2.615855
1103.023, 2.423830
1103.505, 2.620098
1103.988, 2.807755
1104.470, 2.765338
1104.952, 2.604871
1105.434, 2.415752
1105.916, 2.230977
1106.398, 2.157967
1106.880, 2.248693
1107.362, 2.366727
1107.844, 2.480148
1108.327, 2.630963
1108.809, 2.902156
1109.291, 3.160903
1109.773, 3.343265
1110.255, 3.410810
1110.737, 3.017563
1111.219, 3.235440
1111.701, 3.343282
1112.184, 3.346951
1112.666, 2.934731
1113.148, 3.059631
1113.630, 2.969273
1114.112, 2.870088
1114.594, 3.070584
1115.076, 2.718864
1115.558, 2.914608
1116.041, 2.891742
1116.523, 2.968969
1117.005, 2.829610
1117.487, 2.757145
1117.969, 2.901337
1118.451, 2.925561
1118.933, 3.104148
1119.415, 2.983238
1119.897, 2.415792
1120.380, 2.302356
1120.862, 2.921469
1121.344, 3.308659
1121.826, 3.395072
1122.308, 3.313490
1122.790, 3.029145
1123.272, 2.731267
1123.754, 2.590853
1124.236, 2.585994
1124.719, 2.652924
1125.201, 2.812293
1125.683, 2.938099
1126.165, 3.030361
1126.647, 3.080301
1127.129, 3.066988
1127.611, 3.085579
1128.093, 3.225372
1128.576, 3.381325
1129.058, 3.347852
1129.540, 3.134208
1130.022, 2.898057
1130.504, 2.621968
1130.986, 2.588424
1131.468, 2.867420
1131.950, 3.108020
1132.432, 3.145771
1132.915, 3.032341
1133.397, 2.801497
1133.879, 2.509735
1134.361, 2.359469
1134.843, 2.342696
1135.325, 2.396541
1135.807, 2.510594
1136.289, 2.601517
1136.771, 2.642575
1137.254, 2.665218
1137.736, 2.696434
1138.218, 2.716945
1138.700, 2.641122
1139.182, 2.535505
1139.664, 2.699526
1140.146, 3.048313
1140.628, 3.169017
1141.111, 3.015126
1141.593, 2.874112
1142.075, 2.898381
1142.557, 2.650007
1143.039, 2.908102
1143.521, 3.056172
1144.003, 3.100128
1144.485, 2.728134
1144.968, 2.893266
1145.450, 2.843134
1145.932, 2.784176
1146.414, 3.024889
1146.896, 2.713396
1147.378, 2.949358
1147.860, 3.143574
1148.342, 2.997637
1148.824, 2.755460
1149.307, 2.596969
1149.789, 2.567398
1150.271, 2.827379
1150.753, 3.281107
1151.235, 3.447190
1151.717, 3.060316
1152.199, 2.703198
1152.681, 2.799014
1153.163, 2.928518
1153.646, 2.710788
1154.128, 2.469358
1154.610, 2.621023
1155.092, 3.016985
1155.574, 3.291158
1156.056, 3.376588
1156.538, 3.246826
1157.020, 2.528157
1157.503, 2.120592
1157.985, 2.625290
1158.467, 3.134307
1158.949, 3.052108
1159.431, 2.690531
1159.913, 2.448938
1160.395, 2.334020
1160.877, 2.231120
1161.359, 2.083745
1161.842, 2.050572
1162.324, 2.194575
1162.806, 2.362226
1163.288, 2.583308
1163.770, 2.721623
1164.252, 2.318187
1164.734, 2.565709
1165.216, 2.703205
1165.698, 2.736587
1166.181, 2.354012
1166.663, 2.508557
1167.145, 2.447852
1167.627, 2.761886
1168.109, 2.758569
1168.591, 2.618769
1169.073, 2.459667
1169.555, 2.408037
1170.037, 2.459532
1170.520, 2.663532
1171.002, 3.009093
1171.484, 2.994751
1171.966, 2.612311
1172.448, 2.435549
1172.930, 2.614200
1173.412, 2.840180
1173.894, 2.905768
1174.377, 2.921982
1174.859, 3.107304
1175.341, 3.350253
1175.823, 3.307400
1176.305, 3.065709
1176.787, 2.818189
1177.269, 2.635328
1177.751, 2.784177
1178.234, 3.296046
1178.716, 3.462095
1179.198, 2.238452
1179.680, 2.536497
1180.162, 2.724508
1180.644, 2.808419
1181.126, 2.476374
1181.608, 2.681454
1182.090, 2.671276
1182.573, 2.748170
1183.055, 2.635346
1183.537, 2.625784
1184.019, 2.673886
1184.501, 2.786195
1184.983, 2.911719
1185.465, 3.076344
1185.947, 3.190566
1186.429, 3.134414
1186.912, 2.992959
1187.394, 2.939384
1187.876, 2.985049
1188.358, 2.955740
1188.840, 2.723590
1189.322, 2.575162
1189.804, 2.594326
1190.286, 2.629330
1190.769, 2.595157
1191.251, 2.593767
1191.733, 2.766105
1192.215, 3.007471
1192.697, 3.021913
1193.179, 2.765213
1193.661, 2.677462
1194.143, 2.823735
1194.625, 2.878844
1195.108, 2.757827
1195.590, 2.720416
1196.072, 2.923802
1196.554, 3.111980
1197.036, 2.957855
1197.518, 2.619483
1198.000, 2.663727
1198.482, 3.020229
1198.964, 2.993003
1199.447, 2.610230
1199.929, 2.353913
1200.411, 2.331410
1200.893, 2.414244
1201.375, 2.531939
1201.857, 2.630200
1202.339, 2.637452
1202.821, 2.593853
1203.304, 2.548196
1203.786, 2.509380
1204.268, 2.472921
1204.750, 2.462506
1205.232, 2.540624
1205.714, 2.712377
1206.196, 2.929149
1206.678, 3.224923
1207.161, 3.370765
1207.643, 3.096482
1208.125, 2.767688
1208.607, 2.557145
1209.089, 2.491307
1209.571, 2.686037
1210.053, 3.007768
1210.535, 3.180406
1211.017, 3.164803
1211.500, 2.986545
1211.982, 2.393645
1212.464, 2.034062
1212.946, 2.123443
1213.428, 2.294561
1213.910, 2.491830
1214.392, 2.616279
1214.874, 2.534733
1215.356, 2.328017
1215.839, 2.228226
1216.321, 2.227251
1216.803, 2.471338
1217.285, 3.038493
1217.767, 3.285391
1218.249, 3.068452
1218.731, 2.887806
1219.213, 2.990834
1219.696, 3.131080
1220.178, 3.030128
1220.660, 2.792583
1221.142, 2.627524
1221.624, 2.538152
1222.106, 2.554147
1222.588, 2.655074
1223.070, 2.814703
1223.552, 2.990922
1224.035, 2.996708
1224.517, 2.743453
1224.999, 2.553097
1225.481, 2.881171
1225.963, 3.184072
1226.445, 2.767083
1226.927, 2.244197
1227.409, 2.333339
1227.891, 2.758628
1228.374, 3.038827
1228.856, 3.105371
1229.338, 3.066553
1229.820, 2.924054
1230.302, 2.761779
1230.784, 2.478962
1231.266, 2.345020
1231.748, 2.614395
1232.231, 2.868892
1232.713, 2.829918
1233.195, 2.639567
1233.677, 2.464422
1234.159, 2.318104
1234.641, 2.335844
1235.123, 2.557326
1235.605, 2.768562
1236.088, 2.974528
1236.570, 3.106505
1237.052, 3.151098
1237.534, 3.045790
1238.016, 2.724329
1238.498, 2.439593
1238.980, 2.606727
1239.462, 3.019991
1239.944, 3.136370
1240.427, 3.029395
1240.909, 2.857932
1241.391, 2.680434
1241.873, 2.644599
1242.355, 2.750853
1242.837, 2.780731
1243.319, 2.599317
1243.801, 2.462818
1244.283, 2.655489
1244.766, 2.860275
1245.248, 2.766490
1245.730, 2.628001
1246.212, 2.750322
1246.694, 2.991302
1247.176, 3.086923
1247.658, 3.012065
1248.140, 2.869388
1248.622, 2.600303
1249.105, 2.418804
1249.587, 2.310226
1250.069, 2.346992
1250.551, 2.680474
1251.033, 2.913742
1251.515, 2.733388
1251.997, 2.433045
1252.479, 2.471244
1252.962, 2.772130
1253.444, 2.905936
1253.926, 2.875796
1254.408, 2.819678
1254.890, 2.746982
1255.372, 2.643281
1255.854, 2.517768
1256.336, 2.514414
1256.818, 2.719137
1257.301, 2.964152
1257.783, 3.085671
1258.265, 3.117827
1258.747, 3.044529
1259.229, 2.956420
1259.711, 3.048098
1260.193, 3.190940
1260.675, 3.089211
1261.157, 2.764042
1261.640, 2.523085
1262.122, 2.468510
1262.604, 2.458133
1263.086, 2.454051
1263.568, 2.477324
1264.050, 2.508790
1264.532, 2.601686
1265.014, 2.853496
1265.497, 3.121416
1265.979, 3.255097
1266.461, 3.259171
1266.943, 3.115943
1267.425, 2.773966
1267.907, 2.738164
1268.389, 3.059613
1268.871, 3.047542
1269.354, 2.571731
1269.836, 2.312481
1270.318, 2.582268
1270.800, 2.966808
1271.282, 3.059285
1271.764, 3.040516
1272.246, 3.265938
1272.728, 3.538834
1273.210, 3.459993
1273.693, 3.190371
1274.175, 3.014192
1274.657, 2.969329
1275.139, 3.062406
1275.621, 3.279256
1276.103, 3.317768
1276.585, 2.848755
1277.067, 2.519665
1277.549, 2.608390
1278.032, 2.801867
1278.514, 3.080890
1278.996, 3.270475
1279.478, 3.182546
1279.960, 2.935512
1280.442, 2.730113
1280.924, 2.570765
1281.406, 2.638766
1281.889, 2.978010
1282.371, 3.237593
1282.853, 3.400719
1283.335, 3.237226
1283.817, 2.687082
1284.299, 2.330078
1284.781, 2.551019
1285.263, 2.922695
1285.745, 3.008678
1286.228, 2.808028
##END=



