##NAMES=Melanovanadite
##RRUFFID=R050555
##IDEAL CHEMISTRY=CaV^4+^_2_V^5+^_2_O_10_&#183;5H_2_O
##LOCALITY=Ragra mine, Cerro de Pasco Province, Pasco Department, Peru
##OWNER=RRUFF
##SOURCE=Dave Bunk Minerals
##DESCRIPTION=Radiating aggregates of black prismatic crystals
##STATUS=The identification of this mineral has been confirmed by X-ray diffraction and chemical analysis
##URL=rruff.info/R050555
##MEASURED CHEMISTRY=(Ca_0.87_[box]_0.13_)_Σ=1_(V^5+^_2.26_V^4+^_1.74_)_Σ=4_O_10_·5H_2_O
92.06543, 1772.714
92.54755, 1761.170
93.02966, 1766.901
93.51178, 1784.659
93.99390, 1792.283
94.47601, 1790.563
94.95813, 1782.043
95.44025, 1769.119
95.92236, 1753.455
96.40448, 1734.341
96.88660, 1714.927
97.36871, 1693.648
97.85082, 1674.555
98.33294, 1660.682
98.81506, 1651.359
99.29717, 1641.538
99.77929, 1633.209
100.2614, 1626.644
100.7435, 1622.769
101.2256, 1621.592
101.7078, 1622.748
102.1899, 1625.823
102.6720, 1630.440
103.1541, 1637.422
103.6362, 1646.891
104.1183, 1658.710
104.6005, 1671.816
105.0826, 1685.354
105.5647, 1699.298
106.0468, 1713.740
106.5289, 1728.011
107.0110, 1742.581
107.4931, 1757.166
107.9753, 1771.788
108.4574, 1787.661
108.9395, 1807.411
109.4216, 1833.106
109.9037, 1859.797
110.3858, 1886.776
110.8680, 1914.337
111.3501, 1942.283
111.8322, 1970.499
112.3143, 1999.322
112.7964, 2032.079
113.2785, 2068.925
113.7607, 2109.034
114.2428, 2152.589
114.7249, 2199.241
115.2070, 2248.970
115.6891, 2301.671
116.1712, 2357.881
116.6534, 2414.265
117.1355, 2470.781
117.6176, 2527.706
118.0997, 2585.184
118.5818, 2643.347
119.0639, 2702.304
119.5461, 2762.114
120.0282, 2822.660
120.5103, 2883.640
120.9924, 2945.625
121.4745, 3007.842
121.9566, 3069.266
122.4388, 3130.386
122.9209, 3189.076
123.4030, 3244.034
123.8851, 3295.686
124.3672, 3346.268
124.8493, 3396.631
125.3315, 3446.846
125.8136, 3497.215
126.2957, 3546.281
126.7778, 3596.312
127.2599, 3649.462
127.7420, 3705.191
128.2242, 3761.465
128.7063, 3815.104
129.1884, 3865.502
129.6705, 3914.499
130.1526, 3962.029
130.6347, 4008.727
131.1169, 4055.868
131.5990, 4103.674
132.0811, 4150.049
132.5632, 4190.182
133.0453, 4222.522
133.5274, 4250.146
134.0096, 4271.919
134.4917, 4289.260
134.9738, 4304.865
135.4559, 4320.705
135.9380, 4334.231
136.4201, 4336.352
136.9023, 4325.354
137.3844, 4308.624
137.8665, 4290.577
138.3486, 4270.167
138.8307, 4241.993
139.3128, 4202.368
139.7950, 4152.275
140.2771, 4097.341
140.7592, 4035.713
141.2413, 3971.269
141.7234, 3908.207
142.2055, 3847.448
142.6877, 3784.500
143.1698, 3712.141
143.6519, 3637.651
144.1340, 3569.597
144.6161, 3512.496
145.0982, 3463.186
145.5803, 3413.267
146.0625, 3362.173
146.5446, 3311.428
147.0267, 3260.435
147.5088, 3210.083
147.9909, 3161.714
148.4730, 3116.620
148.9552, 3074.496
149.4373, 3031.222
149.9194, 2986.464
150.4015, 2940.194
150.8836, 2892.075
151.3657, 2842.429
151.8479, 2791.385
152.3300, 2739.564
152.8121, 2686.646
153.2942, 2631.987
153.7763, 2576.798
154.2584, 2519.189
154.7406, 2457.848
155.2227, 2392.959
155.7048, 2324.923
156.1869, 2253.931
156.6690, 2179.255
157.1511, 2104.124
157.6333, 2026.964
158.1154, 1950.195
158.5975, 1876.234
159.0796, 1805.558
159.5617, 1737.595
160.0438, 1671.908
160.5260, 1608.348
161.0081, 1547.284
161.4902, 1488.283
161.9723, 1432.122
162.4544, 1380.113
162.9365, 1332.908
163.4187, 1290.272
163.9008, 1252.494
164.3829, 1219.430
164.8650, 1187.967
165.3471, 1155.760
165.8292, 1123.325
166.3113, 1094.757
166.7935, 1072.806
167.2756, 1053.535
167.7577, 1033.622
168.2398, 1012.916
168.7219, 993.1397
169.2040, 976.0681
169.6862, 961.9371
170.1683, 949.0660
170.6504, 937.8907
171.1325, 927.5378
171.6146, 917.5158
172.0967, 907.7665
172.5789, 898.5494
173.0610, 890.3699
173.5431, 883.7899
174.0252, 877.0000
174.5073, 868.8507
174.9894, 861.0219
175.4716, 854.9248
175.9537, 850.9772
176.4358, 848.2808
176.9179, 845.0387
177.4000, 840.5980
177.8821, 836.4926
178.3643, 833.1271
178.8464, 829.9620
179.3285, 826.2182
179.8106, 821.5661
180.2927, 816.7136
180.7748, 813.6788
181.2570, 815.0183
181.7391, 815.0057
182.2212, 811.6891
182.7033, 806.8719
183.1854, 803.4978
183.6675, 803.1014
184.1497, 804.5547
184.6318, 804.2891
185.1139, 802.3995
185.5960, 799.2662
186.0781, 794.2037
186.5602, 787.8489
187.0423, 781.9636
187.5245, 777.2999
188.0066, 773.8078
188.4887, 771.2148
188.9708, 770.3940
189.4529, 769.0016
189.9350, 764.9156
190.4172, 758.4245
190.8993, 752.6434
191.3814, 750.0167
191.8635, 748.2834
192.3456, 744.0125
192.8277, 736.0236
193.3099, 727.1894
193.7920, 720.4481
194.2741, 716.0646
194.7562, 711.7209
195.2383, 706.3339
195.7204, 700.5944
196.2026, 694.8764
196.6847, 689.0867
197.1668, 683.8626
197.6489, 680.3729
198.1310, 679.2332
198.6131, 678.1230
199.0953, 676.2062
199.5774, 674.0891
200.0595, 672.2232
200.5416, 670.7420
201.0237, 669.7550
201.5058, 669.5457
201.9880, 670.3761
202.4701, 671.6030
202.9522, 673.0768
203.4343, 674.8096
203.9164, 676.8890
204.3985, 679.3607
204.8807, 682.0445
205.3628, 684.3168
205.8449, 684.7883
206.3270, 686.7661
206.8091, 691.4536
207.2912, 697.4450
207.7733, 703.1749
208.2555, 707.8343
208.7376, 711.7835
209.2197, 716.3618
209.7018, 721.4698
210.1839, 727.4070
210.6660, 734.0726
211.1482, 741.6126
211.6303, 750.2430
212.1124, 760.1061
212.5945, 771.0557
213.0766, 782.9100
213.5587, 795.6886
214.0409, 809.1926
214.5230, 823.6710
215.0051, 838.8402
215.4872, 854.1549
215.9693, 869.1676
216.4514, 884.4171
216.9336, 902.0056
217.4157, 923.1572
217.8978, 944.4885
218.3799, 964.9686
218.8620, 984.8051
219.3441, 1004.799
219.8263, 1025.263
220.3084, 1046.053
220.7905, 1066.673
221.2726, 1086.703
221.7547, 1107.393
222.2368, 1130.373
222.7190, 1154.886
223.2011, 1177.712
223.6832, 1196.967
224.1653, 1214.044
224.6474, 1231.955
225.1295, 1250.935
225.6117, 1270.172
226.0938, 1289.106
226.5759, 1307.790
227.0580, 1326.439
227.5401, 1345.814
228.0222, 1364.538
228.5043, 1380.956
228.9865, 1394.435
229.4686, 1407.444
229.9507, 1421.780
230.4328, 1437.404
230.9149, 1453.716
231.3970, 1473.988
231.8792, 1491.986
232.3613, 1501.724
232.8434, 1502.088
233.3255, 1499.220
233.8076, 1499.445
234.2897, 1503.243
234.7719, 1504.525
235.2540, 1499.378
235.7361, 1492.853
236.2182, 1489.002
236.7003, 1488.196
237.1824, 1486.092
237.6646, 1477.902
238.1467, 1462.917
238.6288, 1445.405
239.1109, 1425.256
239.5930, 1402.973
240.0751, 1377.267
240.5573, 1348.540
241.0394, 1319.895
241.5215, 1296.004
242.0036, 1278.788
242.4857, 1257.983
242.9678, 1229.090
243.4500, 1199.658
243.9321, 1173.730
244.4142, 1151.500
244.8963, 1130.159
245.3784, 1106.087
245.8605, 1077.833
246.3427, 1052.417
246.8248, 1031.482
247.3069, 1011.847
247.7890, 991.7828
248.2711, 971.3450
248.7532, 952.0184
249.2354, 935.2262
249.7175, 921.4627
250.1996, 908.4606
250.6817, 896.1326
251.1638, 884.5637
251.6459, 873.6995
252.1281, 863.5986
252.6102, 854.5159
253.0923, 846.6498
253.5744, 840.1030
254.0565, 834.4417
254.5386, 829.1013
255.0208, 824.9293
255.5029, 822.3265
255.9850, 821.2477
256.4671, 821.3752
256.9492, 822.4343
257.4313, 824.3983
257.9135, 827.7554
258.3956, 832.9944
258.8777, 838.7891
259.3598, 844.7079
259.8419, 850.7239
260.3240, 856.9800
260.8062, 863.5970
261.2883, 870.5872
261.7704, 877.6695
262.2525, 884.9266
262.7346, 892.2475
263.2167, 899.3856
263.6989, 906.5311
264.1810, 914.2313
264.6631, 923.0748
265.1452, 932.7659
265.6273, 940.6494
266.1094, 944.5601
266.5916, 949.3350
267.0737, 957.2833
267.5558, 967.4275
268.0379, 977.4291
268.5200, 985.9935
269.0021, 993.4964
269.4843, 1001.627
269.9664, 1011.304
270.4485, 1020.362
270.9306, 1027.743
271.4127, 1033.991
271.8948, 1040.353
272.3770, 1047.510
272.8591, 1054.840
273.3412, 1060.792
273.8233, 1065.262
274.3054, 1069.012
274.7875, 1071.890
275.2697, 1074.228
275.7518, 1076.831
276.2339, 1080.171
276.7160, 1083.387
277.1981, 1084.729
277.6802, 1084.349
278.1623, 1082.773
278.6444, 1080.247
279.1266, 1076.601
279.6087, 1071.266
280.0908, 1063.859
280.5729, 1055.677
281.0550, 1048.635
281.5371, 1042.754
282.0193, 1036.181
282.5014, 1028.289
282.9835, 1019.486
283.4656, 1010.274
283.9477, 1000.726
284.4298, 990.8935
284.9120, 980.6516
285.3941, 970.0760
285.8762, 960.2188
286.3583, 951.9797
286.8404, 944.2504
287.3225, 935.4962
287.8047, 925.4504
288.2868, 915.4368
288.7689, 906.2566
289.2510, 897.9641
289.7331, 890.5711
290.2152, 884.9566
290.6974, 879.7809
291.1795, 873.5871
291.6616, 866.3183
292.1437, 859.1532
292.6258, 853.0232
293.1079, 847.4122
293.5901, 840.9813
294.0722, 832.7049
294.5543, 824.5746
295.0364, 818.2421
295.5185, 813.6350
296.0006, 810.0125
296.4828, 807.6854
296.9649, 805.7623
297.4470, 802.7337
297.9291, 798.3475
298.4112, 793.3299
298.8933, 787.9942
299.3755, 782.3993
299.8576, 776.7068
300.3397, 770.7010
300.8218, 764.9498
301.3039, 760.1058
301.7860, 756.2267
302.2682, 752.8453
302.7503, 749.5500
303.2324, 746.5048
303.7145, 744.5602
304.1966, 744.7579
304.6787, 744.5909
305.1609, 740.6278
305.6430, 733.3564
306.1251, 727.2297
306.6072, 724.8386
307.0893, 724.8609
307.5714, 724.6299
308.0536, 723.9949
308.5357, 722.7158
309.0178, 720.0554
309.4999, 716.5162
309.9820, 713.4524
310.4641, 712.1712
310.9463, 711.2811
311.4284, 708.3047
311.9105, 702.7723
312.3926, 697.5654
312.8747, 694.8730
313.3568, 693.7714
313.8390, 692.7418
314.3211, 691.5377
314.8032, 690.2607
315.2853, 689.0537
315.7674, 687.9229
316.2495, 686.6104
316.7317, 684.8665
317.2138, 682.9250
317.6959, 681.2595
318.1780, 680.1328
318.6601, 678.6719
319.1422, 675.8045
319.6243, 671.7839
320.1064, 668.5790
320.5886, 667.3128
321.0707, 666.5286
321.5528, 664.4600
322.0349, 661.0717
322.5170, 657.1123
322.9991, 652.3585
323.4813, 647.3102
323.9634, 643.5324
324.4455, 641.7728
324.9276, 640.3744
325.4097, 637.6728
325.8918, 633.8935
326.3740, 630.0002
326.8561, 626.1693
327.3382, 622.4808
327.8203, 619.1295
328.3024, 616.2076
328.7845, 613.2070
329.2667, 609.6428
329.7488, 605.7054
330.2309, 601.8232
330.7130, 597.9545
331.1951, 594.2740
331.6772, 591.0198
332.1594, 588.1848
332.6415, 585.5228
333.1236, 583.4031
333.6057, 581.0554
334.0878, 576.8453
334.5699, 569.5239
335.0521, 562.5794
335.5342, 558.5192
336.0163, 556.8318
336.4984, 555.2984
336.9805, 553.3787
337.4626, 550.9816
337.9448, 547.7578
338.4269, 543.4764
338.9090, 539.8361
339.3911, 538.4670
339.8732, 538.0214
340.3553, 535.6687
340.8375, 530.5460
341.3196, 524.7616
341.8017, 520.6345
342.2838, 518.0100
342.7659, 515.6492
343.2480, 513.1249
343.7302, 510.8600
344.2123, 508.9993
344.6944, 507.5822
345.1765, 507.8114
345.6586, 512.1717
346.1407, 519.1254
346.6229, 520.2261
347.1050, 509.8221
347.5871, 498.5468
348.0692, 492.8378
348.5513, 491.7630
349.0334, 491.6383
349.5156, 490.9909
349.9977, 489.8159
350.4798, 488.0737
350.9619, 485.6260
351.4440, 483.0422
351.9261, 480.1920
352.4083, 477.4097
352.8904, 475.3492
353.3725, 474.2687
353.8546, 473.5690
354.3367, 472.3294
354.8188, 470.3345
355.3010, 468.7475
355.7831, 467.9087
356.2652, 467.3754
356.7473, 466.8442
357.2294, 466.2493
357.7115, 465.4893
358.1937, 464.4303
358.6758, 463.0555
359.1579, 461.8484
359.6400, 460.3310
360.1221, 459.4100
360.6042, 460.4707
361.0863, 462.5828
361.5685, 463.0230
362.0506, 459.9642
362.5327, 454.6194
363.0148, 452.0445
363.4969, 454.5443
363.9790, 456.7232
364.4612, 457.5338
364.9433, 457.7395
365.4254, 458.3419
365.9075, 459.6580
366.3896, 461.1477
366.8717, 461.9611
367.3539, 461.9311
367.8360, 461.4824
368.3181, 459.8958
368.8002, 458.4712
369.2823, 458.2081
369.7644, 459.0645
370.2466, 460.2419
370.7287, 460.9880
371.2108, 461.2464
371.6929, 462.0854
372.1750, 462.4563
372.6571, 464.4658
373.1393, 471.2876
373.6214, 479.8170
374.1035, 484.5612
374.5856, 482.2897
375.0677, 475.2759
375.5498, 470.8473
376.0320, 470.3199
376.5141, 470.7002
376.9962, 472.0042
377.4783, 473.8389
377.9604, 476.0742
378.4425, 478.6031
378.9247, 481.0292
379.4068, 482.6625
379.8889, 483.0629
380.3710, 484.2226
380.8531, 486.5531
381.3352, 489.2782
381.8174, 492.3682
382.2995, 495.6111
382.7816, 498.5548
383.2637, 500.7456
383.7458, 502.3326
384.2279, 504.3315
384.7101, 506.9891
385.1922, 509.7095
385.6743, 512.1747
386.1564, 514.6354
386.6385, 517.4490
387.1206, 520.7537
387.6028, 524.3544
388.0849, 528.0253
388.5670, 531.7991
389.0491, 535.4393
389.5312, 539.0182
390.0133, 542.3541
390.4955, 544.3845
390.9776, 545.3478
391.4597, 548.2560
391.9418, 557.9402
392.4239, 572.5978
392.9060, 580.8145
393.3882, 579.2870
393.8703, 575.5851
394.3524, 573.7538
394.8345, 573.5486
395.3166, 574.6833
395.7987, 577.6878
396.2809, 581.4756
396.7630, 584.5824
397.2451, 587.0031
397.7272, 589.1722
398.2093, 591.1057
398.6914, 593.0218
399.1736, 595.1448
399.6557, 597.3845
400.1378, 600.2198
400.6199, 604.7715
401.1020, 610.1624
401.5841, 613.8283
402.0662, 614.8958
402.5483, 614.9781
403.0305, 615.7430
403.5126, 617.1412
403.9947, 618.9155
404.4768, 621.1647
404.9589, 623.6757
405.4410, 626.2255
405.9232, 628.8060
406.4053, 631.5784
406.8874, 634.6519
407.3695, 637.9944
407.8516, 641.5254
408.3337, 646.0311
408.8159, 649.7861
409.2980, 652.3305
409.7801, 653.7785
410.2622, 653.9694
410.7443, 652.8113
411.2264, 651.3730
411.7086, 651.4146
412.1907, 653.7864
412.6728, 655.6164
413.1549, 656.2240
413.6370, 656.8469
414.1191, 658.6758
414.6013, 661.4510
415.0834, 663.7881
415.5655, 664.5008
416.0476, 663.7130
416.5297, 663.5576
417.0118, 664.7853
417.4940, 665.8018
417.9761, 666.7814
418.4582, 667.2412
418.9403, 666.4421
419.4224, 664.1286
419.9045, 661.0127
420.3867, 658.2113
420.8688, 655.6179
421.3509, 653.6981
421.8330, 653.7477
422.3151, 653.3730
422.7972, 651.2431
423.2794, 647.4683
423.7615, 642.9460
424.2436, 638.3419
424.7257, 633.5964
425.2078, 628.2354
425.6899, 622.1259
426.1721, 615.6018
426.6542, 608.3175
427.1363, 600.8932
427.6184, 594.0892
428.1005, 588.1901
428.5826, 582.7070
429.0648, 577.1940
429.5469, 571.6205
430.0290, 565.8228
430.5111, 559.4027
430.9932, 553.2123
431.4753, 547.9993
431.9575, 543.6899
432.4396, 539.6608
432.9217, 536.0041
433.4038, 532.3348
433.8859, 527.5637
434.3680, 521.4692
434.8502, 516.1836
435.3323, 513.5443
435.8144, 512.6420
436.2965, 510.7263
436.7786, 507.0727
437.2607, 503.3652
437.7429, 500.4628
438.2250, 498.1882
438.7071, 496.1962
439.1892, 494.4161
439.6713, 492.7075
440.1534, 490.7798
440.6356, 488.4230
441.1177, 486.9189
441.5998, 487.0111
442.0819, 487.4505
442.5640, 487.3264
443.0461, 486.6962
443.5282, 486.1419
444.0103, 486.0834
444.4925, 486.3970
444.9746, 486.3814
445.4567, 485.9370
445.9388, 485.2765
446.4209, 483.7235
446.9030, 482.3268
447.3852, 482.5570
447.8673, 484.6019
448.3494, 486.8047
448.8315, 486.7863
449.3136, 483.7715
449.7957, 482.4334
450.2779, 484.5258
450.7600, 486.5896
451.2421, 487.4268
451.7242, 487.3685
452.2063, 487.3152
452.6884, 487.8687
453.1706, 488.4103
453.6527, 487.0585
454.1348, 482.7874
454.6169, 479.8954
455.0990, 480.5219
455.5811, 482.2452
456.0633, 483.6892
456.5454, 484.6668
457.0275, 485.3725
457.5096, 486.1391
457.9917, 486.7729
458.4738, 486.3740
458.9560, 484.4819
459.4381, 482.7055
459.9202, 482.1359
460.4023, 482.4408
460.8844, 483.1525
461.3665, 484.5755
461.8487, 485.8315
462.3308, 486.1252
462.8129, 485.6755
463.2950, 485.3960
463.7771, 485.7544
464.2592, 485.8734
464.7414, 484.0365
465.2235, 479.7491
465.7056, 477.0880
466.1877, 477.5838
466.6698, 479.0320
467.1519, 479.9132
467.6341, 480.1392
468.1162, 480.0438
468.5983, 479.8234
469.0804, 479.4832
469.5625, 479.0459
470.0446, 478.5200
470.5268, 477.8888
471.0089, 476.8859
471.4910, 475.9351
471.9731, 475.6214
472.4552, 475.9496
472.9373, 476.2056
473.4195, 475.4592
473.9016, 473.5648
474.3837, 472.6481
474.8658, 473.7333
475.3479, 474.7076
475.8300, 474.7334
476.3122, 474.3546
476.7943, 474.5899
477.2764, 475.9720
477.7585, 477.3224
478.2406, 476.4608
478.7227, 473.0568
479.2049, 470.4687
479.6870, 469.6680
480.1691, 469.5099
480.6512, 469.3149
481.1333, 469.0441
481.6154, 468.6075
482.0976, 467.9744
482.5797, 467.1478
483.0618, 465.8608
483.5439, 464.0848
484.0260, 463.0883
484.5081, 463.9930
484.9902, 465.7160
485.4724, 465.8473
485.9545, 463.8242
486.4366, 461.9946
486.9187, 461.3822
487.4008, 461.3166
487.8829, 460.8594
488.3651, 459.8800
488.8472, 458.8732
489.3293, 458.2055
489.8114, 457.8736
490.2935, 458.2411
490.7756, 460.7250
491.2578, 462.1292
491.7399, 460.8391
492.2220, 458.2113
492.7041, 455.8535
493.1862, 454.3662
493.6683, 453.6845
494.1505, 453.8725
494.6326, 455.2921
495.1147, 456.1469
495.5968, 455.2530
496.0789, 454.9533
496.5610, 457.2296
497.0432, 460.5951
497.5253, 461.9510
498.0074, 459.3096
498.4895, 455.0136
498.9716, 453.5591
499.4537, 455.3818
499.9359, 457.3437
500.4180, 459.2961
500.9001, 460.5874
501.3822, 460.2990
501.8643, 458.6258
502.3464, 457.4222
502.8286, 457.9419
503.3107, 459.2781
503.7928, 459.9359
504.2749, 459.8685
504.7570, 460.2336
505.2391, 461.9732
505.7213, 464.3188
506.2034, 465.0552
506.6855, 463.1893
507.1676, 462.2240
507.6497, 463.9237
508.1318, 466.5529
508.6140, 468.1866
509.0961, 468.5686
509.5782, 468.4648
510.0603, 468.4756
510.5424, 468.6052
511.0245, 468.9865
511.5067, 470.1785
511.9888, 470.9417
512.4709, 470.4823
512.9530, 469.7877
513.4351, 470.0277
513.9172, 471.4598
514.3994, 473.3052
514.8815, 474.6896
515.3636, 475.6005
515.8457, 476.3049
516.3278, 476.7822
516.8099, 477.0689
517.2921, 477.4110
517.7742, 477.5349
518.2563, 476.6990
518.7384, 474.2031
519.2205, 472.2213
519.7026, 473.7596
520.1848, 478.3261
520.6669, 482.2155
521.1490, 484.8566
521.6311, 486.2285
522.1132, 485.4941
522.5953, 483.1119
523.0775, 481.6338
523.5596, 482.4759
524.0417, 483.4771
524.5238, 482.7429
525.0059, 480.9029
525.4880, 479.7928
525.9702, 480.1766
526.4523, 481.5485
526.9344, 483.1534
527.4165, 485.3325
527.8986, 486.7690
528.3807, 487.1495
528.8629, 487.1567
529.3450, 487.0342
529.8271, 486.8521
530.3092, 486.6676
530.7913, 486.5188
531.2734, 486.3600
531.7556, 486.1184
532.2377, 485.9029
532.7198, 485.2941
533.2019, 483.0865
533.6840, 481.4154
534.1661, 481.6156
534.6483, 483.5046
535.1304, 486.0265
535.6125, 489.5908
536.0946, 492.7907
536.5767, 492.8029
537.0588, 489.5138
537.5410, 485.1953
538.0231, 479.8649
538.5052, 474.8308
538.9873, 472.3590
539.4694, 472.6883
539.9515, 473.0844
540.4337, 473.0796
540.9158, 472.5918
541.3979, 471.3421
541.8800, 469.4581
542.3621, 467.5216
542.8442, 465.8727
543.3264, 464.4818
543.8085, 463.2535
544.2906, 462.6936
544.7726, 461.5807
545.2548, 459.2411
545.7369, 456.8603
546.2190, 455.2272
546.7011, 454.4008
547.1832, 454.1552
547.6653, 454.4443
548.1475, 455.0777
548.6296, 455.4473
549.1117, 455.9164
549.5938, 455.1680
550.0759, 451.3780
550.5580, 447.1431
551.0402, 444.4235
551.5223, 443.3473
552.0044, 442.6811
552.4865, 441.9381
552.9686, 441.0519
553.4507, 439.8701
553.9329, 438.3859
554.4150, 436.7455
554.8971, 434.9110
555.3792, 433.0606
555.8613, 431.6713
556.3434, 430.7420
556.8256, 430.1492
557.3077, 430.4858
557.7898, 430.7184
558.2719, 429.5969
558.7540, 427.3229
559.2361, 425.2123
559.7183, 424.1635
560.2004, 424.0158
560.6825, 424.1529
561.1646, 425.2740
561.6467, 425.4356
562.1288, 423.9993
562.6110, 422.0354
563.0931, 419.9861
563.5752, 418.0679
564.0573, 416.6866
564.5394, 416.3886
565.0215, 416.6877
565.5037, 416.1522
565.9858, 414.5762
566.4679, 413.5395
566.9500, 413.9534
567.4321, 414.9298
567.9142, 415.3657
568.3964, 415.2595
568.8785, 414.7013
569.3606, 413.2368
569.8427, 411.6619
570.3248, 410.7466
570.8069, 410.4886
571.2891, 410.6883
571.7712, 411.3338
572.2533, 412.0805
572.7354, 412.0365
573.2175, 410.4045
573.6996, 409.3780
574.1818, 409.1506
574.6639, 409.3098
575.1460, 410.1556
575.6281, 411.1747
576.1102, 411.0557
576.5923, 408.8280
577.0745, 405.7022
577.5566, 404.5402
578.0387, 405.7645
578.5208, 406.6280
579.0029, 406.1559
579.4850, 405.6521
579.9672, 406.3712
580.4493, 407.9825
580.9314, 409.0405
581.4135, 408.7263
581.8956, 407.8768
582.3777, 407.2675
582.8599, 406.8175
583.3420, 406.1587
583.8241, 405.1268
584.3062, 404.0052
584.7883, 403.0644
585.2704, 402.1647
585.7526, 402.3411
586.2347, 404.9601
586.7168, 407.1269
587.1989, 407.3861
587.6810, 406.4297
588.1631, 405.3401
588.6453, 404.5387
589.1274, 403.9341
589.6095, 403.3968
590.0916, 402.9136
590.5737, 402.6093
591.0558, 402.4986
591.5380, 402.5552
592.0201, 402.9448
592.5022, 403.4189
592.9843, 403.5064
593.4664, 402.9404
593.9485, 402.5580
594.4307, 403.4990
594.9128, 405.0327
595.3949, 405.1521
595.8770, 403.4828
596.3591, 401.8944
596.8412, 401.8113
597.3234, 403.0581
597.8055, 404.3783
598.2876, 406.5758
598.7697, 407.7873
599.2518, 406.6727
599.7339, 405.1124
600.2161, 403.6005
600.6982, 403.0861
601.1803, 407.0266
601.6624, 419.9727
602.1445, 438.1080
602.6266, 442.0381
603.1088, 425.1364
603.5909, 411.2541
604.0730, 408.5626
604.5551, 409.7039
605.0372, 410.0355
605.5193, 409.3231
606.0015, 408.7432
606.4836, 408.8688
606.9657, 409.4158
607.4478, 410.3723
607.9299, 411.5631
608.4120, 411.9342
608.8942, 410.9814
609.3763, 409.2850
609.8584, 407.5306
610.3405, 405.3417
610.8226, 404.7549
611.3047, 407.2318
611.7869, 409.7231
612.2690, 410.9005
612.7511, 411.1133
613.2332, 410.7924
613.7153, 410.1493
614.1974, 409.9443
614.6796, 411.7638
615.1617, 415.8052
615.6438, 417.8043
616.1259, 416.6228
616.6080, 415.1699
617.0901, 415.0349
617.5723, 415.5215
618.0544, 415.4183
618.5365, 414.0875
619.0186, 413.7913
619.5007, 416.7538
619.9828, 421.2184
620.4650, 424.7994
620.9471, 427.1181
621.4292, 427.6689
621.9113, 425.7893
622.3934, 422.2740
622.8755, 420.2049
623.3577, 420.4659
623.8398, 421.0025
624.3219, 421.7330
624.8040, 422.7668
625.2861, 424.3449
625.7682, 426.2968
626.2504, 428.2570
626.7325, 430.1006
627.2145, 431.5831
627.6967, 432.1389
628.1788, 431.7366
628.6609, 431.1079
629.1430, 430.1140
629.6251, 429.3748
630.1072, 429.3536
630.5894, 430.0184
631.0715, 431.4684
631.5536, 434.9505
632.0357, 437.8756
632.5178, 438.4364
632.9999, 437.7679
633.4821, 437.5611
633.9642, 438.2190
634.4463, 439.4160
634.9284, 440.9357
635.4105, 442.7283
635.8926, 443.9487
636.3748, 444.1388
636.8569, 444.4702
637.3390, 445.1365
637.8211, 446.0127
638.3032, 447.1269
638.7853, 448.4029
639.2675, 449.5033
639.7496, 449.9929
640.2317, 450.3097
640.7138, 451.3497
641.1959, 453.0311
641.6780, 454.2446
642.1602, 454.4605
642.6423, 454.4420
643.1244, 455.2441
643.6065, 457.0553
644.0886, 458.5288
644.5707, 458.6357
645.0529, 459.5393
645.5350, 462.8898
646.0171, 467.2860
646.4992, 471.0081
646.9813, 473.4673
647.4634, 474.6767
647.9456, 474.0242
648.4277, 471.8202
648.9098, 472.0045
649.3919, 475.3705
649.8740, 479.0811
650.3561, 482.3195
650.8383, 485.1718
651.3204, 487.4630
651.8025, 489.1285
652.2846, 491.3578
652.7667, 495.9191
653.2488, 500.2410
653.7310, 501.2018
654.2131, 499.6120
654.6952, 498.3292
655.1773, 498.5298
655.6594, 499.8807
656.1415, 502.0299
656.6237, 505.3184
657.1058, 507.7956
657.5879, 508.0766
658.0700, 509.0778
658.5521, 512.2164
659.0342, 516.2292
659.5164, 519.4816
659.9985, 521.5965
660.4806, 523.4531
660.9627, 525.8689
661.4448, 528.5217
661.9269, 530.5737
662.4091, 531.9757
662.8912, 533.4674
663.3733, 535.3652
663.8554, 537.6311
664.3375, 540.2073
664.8196, 543.1907
665.3018, 546.2240
665.7839, 549.4063
666.2660, 552.5501
666.7481, 555.5027
667.2302, 558.3672
667.7123, 561.4125
668.1945, 564.7428
668.6766, 567.9328
669.1587, 570.5525
669.6408, 572.6005
670.1229, 573.7103
670.6050, 573.1644
671.0872, 573.8115
671.5693, 577.8684
672.0514, 583.5795
672.5335, 587.9376
673.0156, 590.7285
673.4977, 592.9890
673.9799, 594.4552
674.4620, 595.9294
674.9441, 598.5208
675.4262, 601.7040
675.9083, 603.9607
676.3904, 604.6231
676.8726, 604.3450
677.3547, 603.9636
677.8368, 603.2931
678.3189, 603.7981
678.8010, 606.0755
679.2831, 608.7091
679.7653, 610.9285
680.2474, 613.2609
680.7295, 616.9982
681.2116, 622.6035
681.6937, 626.2482
682.1758, 623.1225
682.6580, 618.4619
683.1401, 620.3707
683.6222, 627.7532
684.1043, 632.9725
684.5864, 632.3601
685.0685, 628.7244
685.5507, 626.7742
686.0328, 626.6498
686.5149, 627.6384
686.9970, 633.0082
687.4791, 635.7611
687.9612, 631.7396
688.4434, 624.9446
688.9255, 620.5155
689.4076, 619.6107
689.8897, 618.9852
690.3718, 615.3596
690.8539, 610.5735
691.3361, 608.9044
691.8182, 610.2501
692.3003, 610.3621
692.7824, 607.1240
693.2645, 602.5374
693.7466, 599.9044
694.2288, 600.0685
694.7109, 598.6628
695.1930, 593.7656
695.6751, 589.6510
696.1572, 588.7338
696.6393, 589.0020
697.1215, 587.8053
697.6036, 584.5808
698.0857, 580.8105
698.5678, 577.6448
699.0499, 574.9636
699.5320, 572.4833
700.0142, 570.2356
700.4963, 567.7410
700.9784, 564.8209
701.4605, 561.5729
701.9426, 557.9120
702.4247, 553.6788
702.9069, 550.6482
703.3890, 550.3477
703.8711, 549.5266
704.3532, 546.5347
704.8353, 542.5333
705.3174, 539.0275
705.7996, 536.2772
706.2817, 533.3494
706.7638, 529.1716
707.2459, 524.3932
707.7280, 520.6913
708.2101, 517.9297
708.6923, 518.3638
709.1743, 525.4498
709.6564, 531.6701
710.1385, 527.1657
710.6207, 512.9603
711.1028, 501.9532
711.5849, 496.3038
712.0670, 492.3623
712.5491, 489.4794
713.0313, 487.1657
713.5134, 485.1812
713.9955, 483.2947
714.4776, 480.9085
714.9597, 477.3917
715.4418, 473.3591
715.9240, 470.6179
716.4061, 469.3797
716.8882, 467.6306
717.3703, 464.6344
717.8524, 461.6364
718.3345, 459.2441
718.8167, 457.6547
719.2988, 457.7832
719.7809, 462.3255
720.2630, 464.5901
720.7451, 460.9218
721.2272, 454.8704
721.7094, 449.2623
722.1915, 444.7025
722.6736, 441.3536
723.1557, 439.3751
723.6378, 438.2609
724.1199, 437.3076
724.6021, 436.6178
725.0842, 434.5164
725.5663, 430.0235
726.0484, 425.7584
726.5305, 423.4286
727.0126, 422.4072
727.4948, 421.5665
727.9769, 421.0247
728.4590, 420.1316
728.9411, 418.0049
729.4232, 416.0207
729.9053, 415.7612
730.3875, 416.6019
730.8696, 416.9157
731.3517, 416.0077
731.8338, 414.2633
732.3159, 411.6875
732.7980, 408.2938
733.2802, 407.3271
733.7623, 410.1254
734.2444, 411.4816
734.7265, 407.9853
735.2086, 402.7557
735.6907, 400.5184
736.1729, 401.5622
736.6550, 401.5503
737.1371, 397.8697
737.6192, 394.6691
738.1013, 395.4391
738.5834, 397.9727
739.0656, 398.3390
739.5477, 395.7871
740.0298, 392.9495
740.5119, 392.4610
740.9940, 393.6873
741.4761, 393.7865
741.9583, 392.4448
742.4404, 391.8859
742.9225, 393.3560
743.4046, 394.8590
743.8867, 394.0096
744.3688, 391.2889
744.8510, 389.4459
745.3331, 390.2491
745.8152, 390.0209
746.2973, 386.1325
746.7794, 381.5998
747.2615, 379.7124
747.7437, 380.3395
748.2258, 381.2256
748.7079, 380.9772
749.1900, 380.3661
749.6721, 381.1292
750.1542, 383.2278
750.6364, 384.0239
751.1185, 382.9305
751.6006, 381.4229
752.0827, 380.2372
752.5648, 379.3515
753.0469, 378.7186
753.5291, 378.4434
754.0112, 378.1064
754.4933, 377.5367
754.9754, 376.9973
755.4575, 376.5873
755.9396, 376.3411
756.4218, 376.5399
756.9039, 377.2107
757.3860, 377.3710
757.8681, 375.1790
758.3502, 371.6484
758.8323, 370.9336
759.3145, 373.1967
759.7966, 374.6281
760.2787, 373.6919
760.7608, 371.6203
761.2429, 369.7545
761.7250, 368.0376
762.2072, 367.3019
762.6893, 368.8249
763.1714, 369.6149
763.6535, 367.6465
764.1356, 365.5993
764.6177, 366.6319
765.0999, 370.2109
765.5820, 372.7516
766.0641, 371.8862
766.5462, 369.6691
767.0283, 368.3892
767.5104, 368.0182
767.9926, 368.8894
768.4747, 371.0958
768.9568, 372.7101
769.4389, 372.2958
769.9210, 370.3628
770.4031, 368.5216
770.8853, 366.0755
771.3674, 365.1028
771.8495, 367.4262
772.3316, 369.1988
772.8137, 368.1103
773.2958, 365.6938
773.7780, 364.4350
774.2601, 364.9525
774.7422, 365.6053
775.2243, 365.1949
775.7064, 364.4560
776.1885, 363.8640
776.6707, 363.7470
777.1528, 365.6614
777.6349, 370.1414
778.1170, 374.2940
778.5991, 374.4237
779.0812, 370.7674
779.5634, 368.1643
780.0455, 366.7001
780.5276, 366.1257
781.0097, 367.5307
781.4918, 368.7751
781.9739, 367.6293
782.4561, 364.7832
782.9382, 363.2690
783.4203, 364.9840
783.9024, 366.3377
784.3845, 365.2030
784.8666, 363.0492
785.3488, 361.2705
785.8309, 360.1346
786.3130, 359.4355
786.7951, 358.9978
787.2772, 359.6797
787.7593, 364.3669
788.2415, 372.8428
788.7236, 375.5907
789.2057, 370.5649
789.6878, 365.7845
790.1699, 365.2146
790.6520, 367.0128
791.1342, 368.2298
791.6162, 368.8282
792.0983, 369.1430
792.5804, 369.9589
793.0626, 369.5949
793.5447, 365.9680
794.0268, 361.6452
794.5089, 359.6833
794.9910, 360.3134
795.4731, 361.5121
795.9553, 362.0580
796.4374, 362.2705
796.9195, 362.5157
797.4016, 362.8334
797.8837, 363.6066
798.3658, 364.9374
798.8480, 365.3623
799.3301, 363.0995
799.8122, 360.1010
800.2943, 363.6653
800.7764, 381.3627
801.2585, 389.3866
801.7407, 378.6004
802.2228, 367.6431
802.7049, 363.5039
803.1870, 363.4360
803.6691, 363.6426
804.1512, 363.4888
804.6334, 363.3062
805.1155, 363.0119
805.5976, 362.9751
806.0797, 363.9059
806.5618, 365.2847
807.0439, 366.0528
807.5261, 365.9111
808.0082, 365.1153
808.4903, 363.7906
808.9724, 362.1403
809.4545, 360.8676
809.9366, 359.9236
810.4188, 359.7183
810.9009, 360.5790
811.3830, 361.7027
811.8651, 362.7100
812.3472, 363.4837
812.8293, 363.6075
813.3115, 362.6315
813.7936, 361.9732
814.2757, 361.9825
814.7578, 362.2158
815.2399, 362.3891
815.7220, 362.6026
816.2042, 363.0923
816.6863, 363.9108
817.1684, 364.8227
817.6505, 365.9274
818.1326, 366.8380
818.6147, 366.7591
819.0969, 365.7917
819.5790, 364.2447
820.0611, 362.1526
820.5432, 360.6503
821.0253, 360.9818
821.5074, 362.8001
821.9896, 363.7107
822.4717, 362.9454
822.9538, 363.0618
823.4359, 365.4124
823.9180, 367.5313
824.4001, 367.9887
824.8823, 367.3041
825.3644, 366.4282
825.8465, 365.4541
826.3286, 364.5008
826.8107, 363.1874
827.2928, 362.2946
827.7750, 362.8344
828.2571, 364.1879
828.7392, 365.2669
829.2213, 365.7022
829.7034, 365.4238
830.1855, 363.8819
830.6677, 361.9276
831.1498, 362.4379
831.6319, 365.3199
832.1140, 367.4329
832.5961, 368.0258
833.0782, 367.8340
833.5604, 367.2073
834.0425, 366.3883
834.5246, 366.4575
835.0067, 368.4931
835.4888, 369.5616
835.9709, 369.1032
836.4531, 368.3488
836.9352, 367.2437
837.4173, 366.4390
837.8994, 367.0621
838.3815, 369.3412
838.8636, 371.5058
839.3458, 372.5318
839.8279, 373.1845
840.3100, 374.4168
840.7921, 375.7316
841.2742, 375.6870
841.7563, 374.2684
842.2385, 373.5082
842.7206, 375.1822
843.2027, 378.2942
843.6848, 380.4868
844.1669, 381.7494
844.6490, 382.1212
845.1312, 381.4049
845.6133, 380.4318
846.0954, 379.3140
846.5775, 378.6003
847.0596, 379.6628
847.5417, 383.3659
848.0239, 386.1465
848.5060, 387.6188
848.9881, 388.6805
849.4702, 389.1270
849.9523, 389.6379
850.4344, 390.6714
850.9166, 392.3993
851.3987, 395.3123
851.8808, 400.8787
852.3629, 405.9905
852.8450, 407.0973
853.3271, 406.5170
853.8093, 408.1019
854.2914, 411.9618
854.7735, 416.0551
855.2556, 419.2325
855.7377, 422.0605
856.2198, 425.5702
856.7020, 429.7174
857.1841, 432.7063
857.6662, 433.9005
858.1483, 437.4193
858.6304, 445.5536
859.1125, 455.2787
859.5947, 463.4113
860.0768, 469.9315
860.5589, 474.7709
861.0410, 475.7442
861.5231, 478.1673
862.0052, 482.8960
862.4874, 489.0333
862.9695, 497.1523
863.4516, 505.9851
863.9337, 512.7298
864.4158, 516.3620
864.8979, 519.6467
865.3801, 524.5770
865.8622, 529.7700
866.3443, 532.0023
866.8264, 533.5200
867.3085, 541.3251
867.7906, 556.5334
868.2728, 570.8123
868.7549, 576.5002
869.2370, 575.2130
869.7191, 570.0862
870.2012, 561.1794
870.6833, 555.2350
871.1655, 553.8384
871.6476, 553.1747
872.1297, 550.8532
872.6118, 547.3391
873.0939, 543.7957
873.5760, 540.3431
874.0581, 536.5058
874.5402, 532.4158
875.0223, 527.7917
875.5045, 522.5723
875.9866, 516.7794
876.4687, 510.3574
876.9508, 503.3445
877.4329, 495.7603
877.9150, 487.3550
878.3972, 478.7738
878.8793, 469.9537
879.3614, 461.4168
879.8435, 453.5794
880.3256, 446.5776
880.8077, 440.6129
881.2899, 435.7823
881.7720, 431.5351
882.2541, 427.4252
882.7362, 423.3307
883.2183, 418.6596
883.7004, 413.5335
884.1826, 409.3626
884.6647, 406.6588
885.1468, 404.2601
885.6289, 400.9594
886.1110, 398.5285
886.5931, 396.2420
887.0753, 393.2853
887.5574, 391.7492
888.0395, 389.4178
888.5216, 386.6850
889.0037, 383.1840
889.4858, 379.6407
889.9680, 377.4705
890.4501, 377.0258
890.9322, 375.8733
891.4143, 372.6320
891.8964, 369.8597
892.3785, 368.7330
892.8607, 368.5349
893.3428, 368.7175
893.8249, 369.0703
894.3070, 369.3774
894.7891, 369.6554
895.2712, 369.5011
895.7534, 367.9752
896.2355, 366.0982
896.7176, 365.5387
897.1997, 366.1938
897.6818, 367.3670
898.1639, 368.7413
898.6461, 369.6981
899.1282, 369.4502
899.6103, 368.2345
900.0924, 367.0574
900.5745, 365.9321
901.0566, 364.4115
901.5388, 362.1310
902.0209, 360.6352
902.5030, 361.3456
902.9851, 363.3571
903.4672, 364.0846
903.9493, 363.0392
904.4315, 362.0814
904.9136, 361.2430
905.3957, 360.4453
905.8778, 359.1617
906.3599, 358.2579
906.8420, 359.0190
907.3242, 361.2141
907.8063, 362.6357
908.2884, 361.9458
908.7705, 361.5132
909.2526, 362.5441
909.7347, 363.9486
910.2169, 365.0150
910.6990, 365.6103
911.1811, 365.6029
911.6632, 364.9613
912.1453, 364.2224
912.6274, 363.8181
913.1096, 363.5994
913.5917, 362.9792
914.0738, 362.3884
914.5559, 363.4281
915.0380, 366.2265
915.5201, 368.8523
916.0023, 369.9183
916.4844, 369.9826
916.9665, 370.0413
917.4486, 370.1010
917.9307, 371.3296
918.4128, 374.2171
918.8950, 375.3304
919.3771, 372.3432
919.8592, 369.2054
920.3413, 371.3562
920.8234, 378.6263
921.3055, 382.6384
921.7877, 380.4622
922.2698, 380.2234
922.7519, 385.4003
923.2340, 390.0042
923.7161, 389.8893
924.1982, 387.4411
924.6804, 387.0615
925.1625, 389.4922
925.6446, 391.8474
926.1267, 392.5351
926.6088, 394.0130
927.0909, 397.2084
927.5731, 402.0331
928.0552, 409.6515
928.5373, 418.8764
929.0194, 425.4828
929.5015, 426.7915
929.9836, 427.6509
930.4658, 431.5111
930.9479, 437.9430
931.4300, 447.1949
931.9121, 458.4240
932.3942, 469.9470
932.8763, 480.9691
933.3585, 489.7968
933.8406, 494.0839
934.3227, 496.1527
934.8048, 501.5777
935.2869, 510.1512
935.7690, 520.4922
936.2512, 532.4211
936.7333, 544.7662
937.2154, 557.0299
937.6975, 568.8051
938.1796, 579.3179
938.6617, 588.5224
939.1439, 597.8474
939.6260, 607.4329
940.1081, 616.8441
940.5902, 626.2324
941.0723, 635.2072
941.5544, 643.5654
942.0366, 651.2691
942.5187, 658.1859
943.0008, 664.0707
943.4829, 669.8508
943.9650, 676.5908
944.4471, 681.9996
944.9293, 685.2274
945.4114, 686.7064
945.8935, 686.8186
946.3756, 685.6239
946.8577, 683.2061
947.3398, 680.1224
947.8220, 674.8734
948.3041, 665.5882
948.7862, 654.8802
949.2683, 645.2538
949.7504, 636.0314
950.2325, 625.5094
950.7147, 613.1921
951.1968, 599.5963
951.6789, 584.1923
952.1610, 568.6107
952.6431, 554.8368
953.1252, 542.3501
953.6074, 529.8817
954.0895, 517.4145
954.5716, 505.7943
955.0537, 495.3942
955.5358, 486.0791
956.0179, 476.1194
956.5000, 467.0814
956.9821, 468.8680
957.4642, 480.8297
957.9464, 486.3672
958.4285, 481.2420
958.9106, 472.9473
959.3927, 466.9151
959.8748, 462.3980
960.3569, 457.1015
960.8391, 450.1074
961.3212, 448.4713
961.8033, 456.1626
962.2854, 457.3402
962.7675, 442.5204
963.2496, 425.2120
963.7318, 420.1468
964.2139, 425.3481
964.6960, 425.6883
965.1781, 415.6626
965.6602, 409.8221
966.1423, 410.4154
966.6245, 412.6602
967.1066, 412.8537
967.5887, 414.6809
968.0708, 426.0612
968.5529, 446.4230
969.0350, 457.0070
969.5172, 446.3513
969.9993, 435.5713
970.4814, 430.5826
970.9635, 428.7141
971.4456, 428.1948
971.9277, 429.1011
972.4099, 432.5327
972.8920, 438.6769
973.3741, 444.4854
973.8562, 446.6018
974.3383, 449.4645
974.8204, 457.5897
975.3026, 468.0440
975.7847, 477.0979
976.2668, 484.4457
976.7489, 491.1082
977.2310, 497.4966
977.7131, 503.9618
978.1953, 510.5859
978.6774, 517.6786
979.1595, 526.6725
979.6416, 536.5940
980.1237, 543.9863
980.6058, 548.4868
981.0880, 552.7073
981.5701, 558.3090
982.0522, 564.6284
982.5343, 570.6025
983.0164, 576.2293
983.4985, 581.7944
983.9807, 587.2386
984.4628, 591.2623
984.9449, 593.3858
985.4270, 595.2039
985.9091, 598.2535
986.3912, 601.7007
986.8734, 603.1862
987.3555, 602.7122
987.8376, 599.8746
988.3197, 594.1103
988.8018, 588.3403
989.2839, 584.1613
989.7661, 579.1625
990.2482, 569.9285
990.7303, 557.4847
991.2124, 549.6143
991.6945, 550.6221
992.1766, 545.8842
992.6588, 531.6701
993.1409, 516.1791
993.6230, 501.7530
994.1051, 488.7980
994.5872, 478.2972
995.0693, 470.2244
995.5515, 461.9258
996.0336, 452.5689
996.5157, 444.0862
996.9978, 435.8024
997.4799, 429.4435
997.9620, 427.8780
998.4442, 427.8631
998.9263, 424.1602
999.4084, 416.2762
999.8905, 409.6758
1000.373, 405.3790
1000.855, 403.0385
1001.337, 405.2647
1001.819, 406.9567
1002.301, 402.7206
1002.783, 395.2990
1003.265, 390.4406
1003.747, 389.4766
1004.230, 389.1374
1004.712, 388.0904
1005.194, 386.8203
1005.676, 385.4423
1006.158, 384.1470
1006.640, 382.2755
1007.122, 380.7859
1007.604, 382.8468
1008.086, 389.5326
1008.569, 394.9727
1009.051, 393.7219
1009.533, 389.7512
1010.015, 386.8918
1010.497, 384.6382
1010.979, 381.9938
1011.461, 378.9475
1011.943, 376.0004
1012.426, 373.3992
1012.908, 371.0930
1013.390, 368.7547
1013.872, 366.8419
1014.354, 366.4457
1014.836, 367.1533
1015.318, 367.9477
1015.800, 368.5638
1016.282, 368.7324
1016.765, 368.2869
1017.247, 367.5700
1017.729, 367.0355
1018.211, 366.6299
1018.693, 365.8362
1019.175, 364.8825
1019.657, 365.5942
1020.139, 368.2803
1020.622, 371.1452
1021.104, 373.1367
1021.586, 373.8221
1022.068, 371.6936
1022.550, 367.1851
1023.032, 365.3911
1023.514, 366.3657
1023.996, 366.4159
1024.478, 364.5478
1024.961, 362.7513
1025.443, 362.4928
1025.925, 361.7966
1026.407, 363.2456
1026.889, 362.7025
1027.371, 363.3734
1027.853, 365.6644
1028.335, 366.6505
1028.818, 365.2214
1029.300, 363.5678
1029.782, 363.3814
1030.264, 364.2061
1030.746, 364.9128
1031.228, 365.5363
1031.710, 365.8698
1032.192, 366.0333
1032.674, 365.4752
1033.156, 363.6716
1033.639, 361.8620
1034.121, 361.2090
1034.603, 361.1821
1035.085, 360.0396
1035.567, 356.9230
1036.049, 356.0706
1036.531, 358.9208
1037.013, 361.2513
1037.496, 361.7006
1037.978, 361.6154
1038.460, 362.2732
1038.942, 363.1890
1039.424, 362.6882
1039.906, 359.8730
1040.388, 358.3923
1040.870, 359.4804
1041.353, 360.1180
1041.835, 358.9770
1042.317, 357.6731
1042.799, 357.4654
1043.281, 358.0827
1043.763, 358.7766
1044.245, 359.6059
1044.727, 360.3038
1045.209, 361.4465
1045.692, 361.6823
1046.174, 359.4471
1046.656, 357.2487
1047.138, 357.5635
1047.620, 359.4349
1048.102, 359.9579
1048.584, 358.2682
1049.066, 357.6613
1049.548, 359.7599
1050.031, 361.4352
1050.513, 361.2155
1050.995, 360.6018
1051.477, 361.2480
1051.959, 362.4193
1052.441, 361.7757
1052.923, 358.3075
1053.405, 356.5647
1053.888, 359.1859
1054.370, 361.5128
1054.852, 361.6297
1055.334, 360.9029
1055.816, 360.0659
1056.298, 359.4447
1056.780, 359.7318
1057.262, 361.2426
1057.745, 362.1356
1058.227, 361.5241
1058.709, 360.6793
1059.191, 359.7213
1059.673, 359.1102
1060.155, 358.5060
1060.637, 358.7469
1061.119, 362.6230
1061.601, 371.1264
1062.083, 375.7008
1062.566, 370.3251
1063.048, 364.4445
1063.530, 361.7714
1064.012, 360.7427
1064.494, 360.8006
1064.976, 361.1028
1065.458, 360.0192
1065.940, 357.2327
1066.423, 355.3751
1066.905, 356.0471
1067.387, 357.1073
1067.869, 357.9652
1068.351, 358.4440
1068.833, 357.7181
1069.315, 356.7808
1069.797, 357.5216
1070.280, 360.2181
1070.762, 363.1291
1071.244, 366.9574
1071.726, 368.9677
1072.208, 366.8158
1072.690, 363.4038
1073.172, 360.3043
1073.654, 357.9820
1074.136, 356.9546
1074.619, 357.1972
1075.101, 357.8135
1075.583, 358.6538
1076.065, 359.4505
1076.547, 360.1967
1077.029, 360.7287
1077.511, 360.9222
1077.993, 360.8174
1078.475, 360.3360
1078.958, 359.5836
1079.440, 359.1404
1079.922, 359.4528
1080.404, 359.5737
1080.886, 358.9546
1081.368, 358.0858
1081.850, 356.6993
1082.332, 355.6657
1082.814, 356.4990
1083.297, 358.8558
1083.779, 360.5754
1084.261, 360.7686
1084.743, 360.8589
1085.225, 361.9171
1085.707, 362.6094
1086.189, 361.7590
1086.671, 360.2924
1087.154, 358.8888
1087.636, 357.9174
1088.118, 358.1985
1088.600, 360.2588
1089.082, 361.9386
1089.564, 362.5613
1090.046, 362.3158
1090.528, 360.6320
1091.010, 358.6835
1091.493, 357.5518
1091.975, 357.1482
1092.457, 356.8438
1092.939, 356.4203
1093.421, 357.1123
1093.903, 360.6562
1094.385, 363.7495
1094.867, 365.2776
1095.349, 365.3614
1095.832, 363.2566
1096.314, 360.1551
1096.796, 358.0674
1097.278, 357.3322
1097.760, 357.0712
1098.242, 357.1817
1098.724, 357.4924
1099.206, 357.8702
1099.689, 358.5141
1100.171, 360.2706
1100.653, 361.9883
1101.135, 361.8115
1101.617, 359.7484
1102.099, 357.7768
1102.581, 355.6917
1103.063, 354.8953
1103.546, 356.9278
1104.028, 358.9180
1104.510, 359.4004
1104.992, 359.0077
1105.474, 358.0775
1105.956, 356.9334
1106.438, 356.8682
1106.920, 358.9701
1107.402, 359.8613
1107.885, 357.2893
1108.367, 355.6463
1108.849, 357.5072
1109.331, 360.0921
1109.813, 361.2714
1110.295, 361.1579
1110.777, 360.1100
1111.259, 357.6890
1111.741, 356.2978
1112.224, 357.2496
1112.706, 357.6489
1113.188, 356.0781
1113.670, 354.6293
1114.152, 355.0620
1114.634, 356.3312
1115.116, 356.3965
1115.598, 355.0834
1116.081, 354.7183
1116.563, 355.7765
1117.045, 356.9945
1117.527, 358.7173
1118.009, 359.9044
1118.491, 359.6706
1118.973, 359.0248
1119.455, 359.1473
1119.938, 359.9958
1120.420, 361.3144
1120.902, 363.7562
1121.384, 364.9539
1121.866, 364.3322
1122.348, 363.4710
1122.830, 362.4005
1123.312, 362.2880
1123.794, 364.9023
1124.276, 368.7852
1124.759, 369.0089
1125.241, 364.6201
1125.723, 362.0936
1126.205, 361.8018
1126.687, 361.9879
1127.169, 362.3134
1127.651, 362.9152
1128.133, 364.0569
1128.616, 365.1092
1129.098, 364.8027
1129.580, 363.2497
1130.062, 362.4205
1130.544, 362.3960
1131.026, 362.0923
1131.508, 361.2984
1131.990, 360.8889
1132.473, 361.3058
1132.955, 362.0511
1133.437, 362.5492
1133.919, 362.8879
1134.401, 363.4181
1134.883, 364.1071
1135.365, 364.5353
1135.847, 364.6814
1136.329, 364.6496
1136.812, 364.4805
1137.294, 364.4800
1137.776, 364.9457
1138.258, 365.4361
1138.740, 364.6413
1139.222, 363.3320
1139.704, 364.6661
1140.186, 367.9018
1140.668, 369.5939
1141.151, 369.3057
1141.633, 368.9277
1142.115, 369.4310
1142.597, 369.6474
1143.079, 367.5294
1143.561, 364.9631
1144.043, 366.1191
1144.525, 363.8845
1145.008, 367.3587
1145.490, 363.1094
1145.972, 361.2777
1146.454, 363.2873
1146.936, 366.0329
1147.418, 367.6151
1147.900, 368.5736
1148.382, 369.6931
1148.865, 370.2465
1149.347, 368.4689
1149.829, 365.9552
1150.311, 365.8550
1150.793, 368.0099
1151.275, 369.6158
1151.757, 369.5513
1152.239, 368.8811
1152.721, 366.7500
1153.203, 365.9317
1153.686, 370.3718
1154.168, 375.2663
1154.650, 375.0403
1155.132, 371.4088
1155.614, 368.9242
1156.096, 368.4316
1156.578, 368.3813
1157.060, 369.0925
1157.543, 369.0760
1158.025, 366.4208
1158.507, 364.6022
1158.989, 366.7610
1159.471, 370.1459
1159.953, 370.9954
1160.435, 369.6153
1160.917, 369.2306
1161.400, 370.4352
1161.882, 371.7639
1162.364, 374.0532
1162.846, 375.1182
1163.328, 373.7233
1163.810, 371.8095
1164.292, 370.5983
1164.774, 369.9499
1165.256, 369.5614
1165.739, 369.4155
1166.221, 369.9295
1166.703, 371.3534
1167.185, 372.4799
1167.667, 373.1158
1168.149, 373.6467
1168.631, 374.2945
1169.113, 374.7524
1169.595, 374.6486
1170.078, 374.1310
1170.560, 373.5410
1171.042, 372.9063
1171.524, 373.3196
1172.006, 374.7878
1172.488, 376.1542
1172.970, 377.1176
1173.452, 377.7202
1173.934, 378.0410
1174.417, 377.4655
1174.899, 374.0823
1175.381, 374.6136
1175.863, 369.7709
1176.345, 372.7020
1176.827, 373.0192
1177.309, 370.9062
1177.791, 370.3225
1178.274, 372.4469
1178.756, 374.4215
1179.238, 373.8301
1179.720, 375.5998
1180.202, 374.3662
1180.684, 376.4493
1181.166, 376.4936
1181.648, 375.4906
1182.130, 375.2759
1182.613, 375.9944
1183.095, 377.0141
1183.577, 378.2087
1184.059, 378.7495
1184.541, 377.6430
1185.023, 376.4771
1185.505, 376.0275
1185.987, 375.9620
1186.469, 376.0655
1186.952, 376.3013
1187.434, 376.5810
1187.916, 376.9239
1188.398, 377.7084
1188.880, 380.1338
1189.362, 381.0498
1189.844, 378.2380
1190.326, 376.4247
1190.809, 378.3196
1191.291, 380.4615
1191.773, 379.5771
1192.255, 380.6918
1192.737, 381.0540
1193.219, 380.0275
1193.701, 380.9774
1194.183, 379.5331
1194.666, 378.1122
1195.148, 376.7591
1195.630, 376.8784
1196.112, 379.4565
1196.594, 382.2072
1197.076, 382.4861
1197.558, 383.9615
1198.040, 384.6129
1198.522, 384.2890
1199.005, 384.8157
1199.487, 383.7296
1199.969, 382.7871
1200.451, 382.3466
1200.933, 381.7260
1201.415, 380.5436
1201.897, 379.5475
1202.379, 379.5672
1202.861, 380.2859
1203.344, 381.5266
1203.826, 382.9003
1204.308, 383.9156
1204.790, 384.4115
1205.272, 383.9071
1205.754, 382.5367
1206.236, 381.5616
1206.718, 381.7153
1207.201, 381.9303
1207.683, 381.1754
1208.165, 380.7018
1208.647, 381.8745
1209.129, 383.3051
1209.611, 383.3220
1210.093, 382.5428
1210.575, 382.6664
1211.057, 383.9533
1211.540, 384.6778
1212.022, 383.9059
1212.504, 383.6493
1212.986, 384.7075
1213.468, 385.5536
1213.950, 385.5987
1214.432, 385.3114
1214.914, 385.1745
1215.396, 384.9609
1215.879, 383.8518
1216.361, 381.6507
1216.843, 381.2741
1217.325, 383.0121
1217.807, 384.6914
1218.289, 386.0327
1218.771, 386.5713
1219.253, 386.0132
1219.736, 385.5435
1220.218, 386.5093
1220.700, 388.0574
1221.182, 388.3504
1221.664, 387.6540
1222.146, 386.2984
1222.628, 384.8112
1223.110, 385.1012
1223.593, 387.1258
1224.075, 389.2075
1224.557, 390.5871
1225.039, 390.8260
1225.521, 388.4679
1226.003, 386.2617
1226.485, 387.1104
1226.967, 388.9769
1227.449, 390.1664
1227.932, 390.6518
1228.414, 390.4048
1228.896, 389.6772
1229.378, 389.4466
1229.860, 390.1641
1230.342, 390.5045
1230.824, 389.4319
1231.306, 388.9689
1231.788, 390.5416
1232.271, 391.9122
1232.753, 391.4624
1233.235, 390.3936
1233.717, 390.2998
1234.199, 391.0252
1234.681, 391.5598
1235.163, 391.9123
1235.645, 392.1218
1236.128, 392.2759
1236.610, 391.4745
1237.092, 389.3309
1237.574, 388.0914
1238.056, 389.1723
1238.538, 391.1598
1239.020, 392.3299
1239.502, 392.8463
1239.984, 393.0440
1240.467, 392.9732
1240.949, 392.7916
1241.431, 392.4843
1241.913, 391.7643
1242.395, 390.7504
1242.877, 390.2585
1243.359, 390.6908
1243.841, 391.7230
1244.323, 393.9855
1244.806, 395.7212
1245.288, 395.1232
1245.770, 393.8760
1246.252, 393.4793
1246.734, 393.6301
1247.216, 393.7035
1247.698, 393.6366
1248.180, 393.5118
1248.662, 392.9203
1249.145, 393.3497
1249.627, 396.2374
1250.109, 397.8369
1250.591, 396.7655
1251.073, 395.3557
1251.555, 394.7502
1252.037, 394.8682
1252.519, 395.7014
1253.002, 397.0704
1253.484, 398.1803
1253.966, 399.0327
1254.448, 399.7680
1254.930, 400.3723
1255.412, 400.3795
1255.894, 399.8076
1256.376, 400.1808
1256.859, 402.3105
1257.341, 403.9572
1257.823, 402.1347
1258.305, 399.5265
1258.787, 399.9309
1259.269, 401.5570
1259.751, 402.6847
1260.233, 402.8311
1260.715, 400.6269
1261.198, 396.9498
1261.680, 395.5511
1262.162, 397.8511
1262.644, 399.9562
1263.126, 400.1992
1263.608, 400.7473
1264.090, 400.9154
1264.572, 403.1879
1265.054, 411.1620
1265.537, 419.6366
1266.019, 423.7221
1266.501, 423.5520
1266.983, 418.7209
1267.465, 408.4214
1267.947, 402.8872
1268.429, 402.5276
1268.911, 401.9932
1269.394, 400.4566
1269.876, 400.1393
1270.358, 401.9619
1270.840, 403.5340
1271.322, 402.5226
1271.804, 404.0899
1272.286, 402.1255
1272.768, 404.3636
1273.250, 403.9482
1273.733, 402.3330
1274.215, 402.1813
1274.697, 403.4368
1275.179, 405.1138
1275.661, 406.8573
1276.143, 407.8680
1276.625, 407.1680
1277.107, 407.0309
1277.589, 408.2367
1278.072, 410.1124
1278.554, 414.3673
1279.036, 417.0525
1279.518, 413.8971
1280.000, 408.2265
1280.482, 405.6607
1280.964, 405.9598
1281.446, 405.8434
1281.929, 405.0890
1282.411, 405.7320
1282.893, 407.9922
1283.375, 408.9633
1283.857, 407.9508
1284.339, 407.0499
1284.821, 407.5097
1285.303, 408.4851
1285.786, 409.2242
1286.268, 409.6532
##END=



