##NAMES=Melanophlogite
##RRUFFID=R060863
##IDEAL CHEMISTRY=C_2_H_17_O_5_&#183;Si_46_O_92_
##LOCALITY=6 miles east of Mount Hamilton, Santa Clara County, California, USA
##OWNER=RRUFF
##SOURCE=Michael Scott
##DESCRIPTION=Colorless cubes
##STATUS=The identification of this mineral has been confirmed by single-crystal X-ray diffraction.
##URL=rruff.info/R060863
150.7191, 2729.065
151.2013, 2810.723
151.6834, 2872.636
152.1655, 2901.663
152.6476, 2924.681
153.1297, 2958.497
153.6118, 3003.259
154.0940, 3047.318
154.5761, 3078.364
155.0582, 3093.168
155.5403, 3104.813
156.0224, 3115.969
156.5045, 3122.518
156.9867, 3118.873
157.4688, 3105.571
157.9509, 3091.045
158.4330, 3083.782
158.9151, 3085.335
159.3972, 3090.652
159.8794, 3096.737
160.3615, 3108.361
160.8436, 3133.093
161.3257, 3170.839
161.8078, 3209.045
162.2899, 3233.177
162.7721, 3239.770
163.2542, 3255.574
163.7363, 3286.310
164.2184, 3323.657
164.7005, 3361.646
165.1826, 3399.458
165.6648, 3435.049
166.1469, 3462.722
166.6290, 3482.345
167.1111, 3516.083
167.5932, 3584.061
168.0753, 3657.781
168.5575, 3707.522
169.0396, 3729.102
169.5217, 3737.421
170.0038, 3743.439
170.4859, 3747.261
170.9680, 3749.851
171.4502, 3750.448
171.9323, 3750.300
172.4144, 3751.477
172.8965, 3754.490
173.3786, 3756.296
173.8607, 3754.977
174.3429, 3750.404
174.8250, 3740.855
175.3071, 3723.124
175.7892, 3701.419
176.2713, 3680.192
176.7534, 3659.527
177.2356, 3641.052
177.7177, 3631.063
178.1998, 3625.121
178.6819, 3610.117
179.1640, 3572.507
179.6461, 3528.151
180.1283, 3500.754
180.6104, 3493.859
181.0925, 3490.675
181.5746, 3479.610
182.0567, 3463.466
182.5388, 3446.816
183.0210, 3430.604
183.5031, 3414.724
183.9852, 3397.851
184.4673, 3378.553
184.9494, 3363.643
185.4315, 3358.701
185.9137, 3360.941
186.3958, 3367.729
186.8779, 3381.096
187.3600, 3396.818
187.8421, 3408.884
188.3242, 3416.882
188.8064, 3422.645
189.2885, 3423.300
189.7706, 3423.179
190.2527, 3428.512
190.7348, 3443.458
191.2169, 3462.342
191.6991, 3477.530
192.1812, 3489.061
192.6633, 3496.638
193.1454, 3493.961
193.6275, 3489.183
194.1096, 3491.138
194.5918, 3502.699
195.0739, 3521.221
195.5560, 3545.570
196.0381, 3577.815
196.5202, 3606.244
197.0023, 3625.361
197.4845, 3638.416
197.9666, 3645.778
198.4487, 3645.435
198.9308, 3645.597
199.4129, 3657.553
199.8950, 3682.971
200.3772, 3711.406
200.8593, 3745.541
201.3414, 3778.342
201.8235, 3802.988
202.3056, 3816.961
202.7877, 3828.179
203.2699, 3846.617
203.7520, 3873.781
204.2341, 3898.826
204.7162, 3918.065
205.1983, 3934.412
205.6804, 3947.975
206.1626, 3958.723
206.6447, 3971.691
207.1268, 3994.533
207.6089, 4028.560
208.0910, 4057.652
208.5731, 4073.750
209.0553, 4087.330
209.5374, 4106.267
210.0195, 4130.915
210.5016, 4153.965
210.9837, 4163.600
211.4658, 4158.876
211.9480, 4169.894
212.4301, 4213.163
212.9122, 4262.827
213.3943, 4304.254
213.8764, 4337.421
214.3585, 4367.450
214.8407, 4399.881
215.3228, 4434.529
215.8049, 4461.044
216.2870, 4465.709
216.7691, 4476.894
217.2512, 4515.127
217.7334, 4574.213
218.2155, 4631.832
218.6976, 4671.370
219.1797, 4694.498
219.6618, 4715.807
220.1439, 4730.999
220.6261, 4750.529
221.1082, 4781.962
221.5903, 4821.182
222.0724, 4859.009
222.5545, 4890.614
223.0366, 4916.658
223.5188, 4938.606
224.0009, 4953.344
224.4830, 4969.548
224.9651, 4995.274
225.4472, 5024.160
225.9293, 5045.417
226.4115, 5050.132
226.8936, 5046.954
227.3757, 5058.358
227.8578, 5092.444
228.3399, 5121.975
228.8220, 5132.427
229.3041, 5134.125
229.7863, 5138.171
230.2684, 5148.354
230.7505, 5162.966
231.2326, 5181.733
231.7147, 5207.965
232.1968, 5226.024
232.6790, 5214.897
233.1611, 5200.687
233.6432, 5209.324
234.1253, 5250.144
234.6074, 5299.040
235.0895, 5326.165
235.5717, 5329.247
236.0538, 5330.211
236.5359, 5327.002
237.0180, 5329.417
237.5001, 5351.120
237.9822, 5394.181
238.4644, 5432.551
238.9465, 5431.067
239.4286, 5391.155
239.9107, 5378.796
240.3928, 5422.246
240.8749, 5481.974
241.3571, 5528.984
241.8392, 5563.220
242.3213, 5596.719
242.8034, 5638.003
243.2855, 5685.781
243.7676, 5733.231
244.2498, 5780.663
244.7319, 5826.469
245.2140, 5869.162
245.6961, 5909.526
246.1782, 5949.767
246.6603, 5995.277
247.1425, 6041.601
247.6246, 6072.107
248.1067, 6075.923
248.5888, 6090.421
249.0709, 6151.490
249.5530, 6239.197
250.0352, 6318.092
250.5173, 6368.749
250.9994, 6408.267
251.4815, 6465.722
251.9636, 6545.117
252.4457, 6616.985
252.9279, 6656.638
253.4100, 6680.901
253.8921, 6713.500
254.3742, 6759.470
254.8563, 6813.697
255.3384, 6873.971
255.8206, 6940.070
256.3027, 7005.528
256.7848, 7071.058
257.2669, 7131.190
257.7490, 7175.461
258.2311, 7196.833
258.7133, 7223.805
259.1954, 7284.372
259.6775, 7368.315
260.1596, 7433.511
260.6417, 7463.009
261.1238, 7476.742
261.6060, 7498.545
262.0881, 7527.393
262.5702, 7566.310
263.0523, 7628.721
263.5344, 7699.480
264.0165, 7747.762
264.4987, 7765.146
264.9808, 7772.964
265.4629, 7795.927
265.9450, 7832.167
266.4271, 7858.817
266.9092, 7870.923
267.3914, 7871.779
267.8735, 7859.345
268.3556, 7833.768
268.8377, 7813.185
269.3198, 7814.881
269.8019, 7836.254
270.2841, 7844.633
270.7662, 7835.095
271.2483, 7816.843
271.7304, 7787.649
272.2125, 7752.026
272.6946, 7729.203
273.1768, 7732.183
273.6589, 7754.023
274.1410, 7767.403
274.6231, 7776.428
275.1052, 7773.744
275.5873, 7752.762
276.0695, 7719.120
276.5516, 7681.534
277.0337, 7642.725
277.5158, 7604.516
277.9979, 7570.271
278.4800, 7538.229
278.9622, 7513.951
279.4443, 7501.568
279.9264, 7495.416
280.4085, 7490.036
280.8906, 7484.277
281.3727, 7480.389
281.8549, 7481.943
282.3370, 7492.233
282.8191, 7494.327
283.3012, 7480.889
283.7833, 7466.355
284.2654, 7462.832
284.7476, 7467.340
285.2297, 7465.335
285.7118, 7443.869
286.1939, 7403.113
286.6760, 7372.304
287.1581, 7361.722
287.6403, 7348.950
288.1224, 7326.036
288.6045, 7297.230
289.0866, 7270.410
289.5687, 7249.941
290.0508, 7233.226
290.5330, 7211.558
291.0151, 7175.680
291.4972, 7148.340
291.9793, 7142.425
292.4614, 7139.421
292.9435, 7122.282
293.4257, 7086.143
293.9078, 7038.396
294.3899, 6989.013
294.8720, 6935.724
295.3541, 6887.139
295.8362, 6844.736
296.3184, 6805.998
296.8005, 6772.937
297.2826, 6743.552
297.7647, 6711.314
298.2468, 6667.583
298.7289, 6612.615
299.2111, 6569.329
299.6932, 6545.727
300.1753, 6524.815
300.6574, 6505.208
301.1395, 6483.190
301.6216, 6451.059
302.1038, 6400.413
302.5859, 6342.260
303.0680, 6307.033
303.5501, 6307.151
304.0322, 6297.031
304.5143, 6246.871
304.9964, 6185.476
305.4785, 6140.335
305.9607, 6120.196
306.4428, 6108.436
306.9249, 6088.398
307.4070, 6060.207
307.8891, 6030.628
308.3712, 6000.172
308.8534, 5969.832
309.3355, 5939.350
309.8176, 5908.763
310.2997, 5882.498
310.7818, 5867.336
311.2639, 5857.806
311.7461, 5840.657
312.2282, 5814.527
312.7103, 5780.533
313.1924, 5732.381
313.6745, 5675.370
314.1566, 5628.103
314.6388, 5595.765
315.1209, 5573.802
315.6030, 5561.463
316.0851, 5557.792
316.5672, 5552.905
317.0493, 5540.038
317.5315, 5522.837
318.0136, 5513.596
318.4957, 5522.479
318.9778, 5523.416
319.4599, 5501.315
319.9420, 5465.201
320.4242, 5428.599
320.9063, 5395.111
321.3884, 5370.024
321.8705, 5364.550
322.3526, 5391.947
322.8347, 5403.169
323.3169, 5383.822
323.7990, 5355.914
324.2811, 5333.781
324.7632, 5320.157
325.2453, 5315.443
325.7274, 5322.043
326.2096, 5341.182
326.6917, 5345.472
327.1738, 5323.984
327.6559, 5301.623
328.1380, 5282.976
328.6201, 5269.661
329.1023, 5264.258
329.5844, 5268.487
330.0665, 5278.604
330.5486, 5283.492
331.0307, 5281.350
331.5128, 5276.342
331.9950, 5264.950
332.4771, 5253.612
332.9592, 5249.791
333.4413, 5253.922
333.9234, 5257.699
334.4055, 5246.174
334.8877, 5213.509
335.3698, 5203.671
335.8519, 5243.127
336.3340, 5281.360
336.8161, 5299.127
337.2982, 5298.868
337.7804, 5289.146
338.2625, 5271.127
338.7446, 5249.392
339.2267, 5237.158
339.7088, 5235.760
340.1909, 5240.358
340.6731, 5259.645
341.1552, 5279.472
341.6373, 5281.492
342.1194, 5257.761
342.6015, 5230.408
343.0836, 5218.866
343.5658, 5222.232
344.0479, 5234.102
344.5300, 5256.418
345.0121, 5282.036
345.4942, 5306.616
345.9763, 5330.210
346.4585, 5342.317
346.9406, 5330.185
347.4227, 5308.524
347.9048, 5296.171
348.3869, 5294.923
348.8690, 5301.559
349.3512, 5317.060
349.8333, 5339.323
350.3154, 5351.645
350.7975, 5342.501
351.2796, 5335.733
351.7617, 5345.775
352.2439, 5366.170
352.7260, 5381.966
353.2081, 5386.355
353.6902, 5385.692
354.1723, 5393.458
354.6544, 5422.242
355.1366, 5438.362
355.6187, 5428.095
356.1008, 5414.479
356.5829, 5418.906
357.0650, 5441.332
357.5471, 5463.931
358.0293, 5469.261
358.5114, 5456.331
358.9935, 5446.439
359.4756, 5441.899
359.9577, 5438.133
360.4398, 5433.527
360.9220, 5429.163
361.4041, 5427.793
361.8862, 5431.175
362.3683, 5435.138
362.8504, 5430.084
363.3326, 5412.806
363.8147, 5395.786
364.2968, 5385.654
364.7789, 5373.063
365.2610, 5347.694
365.7431, 5310.555
366.2253, 5277.598
366.7074, 5264.019
367.1895, 5266.363
367.6716, 5267.334
368.1537, 5267.396
368.6358, 5263.311
369.1180, 5249.227
369.6001, 5229.984
370.0822, 5214.785
370.5643, 5208.770
371.0464, 5204.671
371.5285, 5198.537
372.0107, 5189.517
372.4928, 5170.169
372.9749, 5134.422
373.4570, 5090.785
373.9391, 5053.509
374.4212, 5022.164
374.9034, 4996.880
375.3855, 4986.302
375.8676, 4977.546
376.3497, 4954.092
376.8318, 4914.313
377.3139, 4870.320
377.7961, 4831.288
378.2782, 4797.478
378.7603, 4769.780
379.2424, 4753.895
379.7245, 4736.659
380.2066, 4716.638
380.6888, 4691.585
381.1709, 4655.384
381.6530, 4605.430
382.1351, 4551.625
382.6172, 4516.693
383.0993, 4516.472
383.5815, 4501.571
384.0636, 4460.902
384.5457, 4415.195
385.0278, 4374.063
385.5099, 4339.132
385.9920, 4309.072
386.4742, 4281.975
386.9563, 4258.586
387.4384, 4244.972
387.9205, 4247.294
388.4026, 4247.652
388.8847, 4239.159
389.3669, 4224.847
389.8490, 4206.789
390.3311, 4184.045
390.8132, 4162.925
391.2953, 4152.438
391.7774, 4150.734
392.2596, 4143.638
392.7417, 4126.653
393.2238, 4105.694
393.7059, 4085.248
394.1880, 4065.465
394.6701, 4051.280
395.1523, 4050.381
395.6344, 4051.277
396.1165, 4040.108
396.5986, 4018.313
397.0807, 4000.053
397.5628, 3993.941
398.0450, 3997.364
398.5271, 4000.513
399.0092, 4007.513
399.4913, 4008.865
399.9734, 4001.206
400.4555, 3988.235
400.9377, 3970.245
401.4197, 3948.857
401.9019, 3932.715
402.3840, 3933.575
402.8661, 3955.368
403.3482, 3964.211
403.8303, 3947.338
404.3124, 3930.678
404.7946, 3923.257
405.2767, 3920.795
405.7588, 3915.687
406.2409, 3904.269
406.7230, 3888.738
407.2051, 3872.082
407.6873, 3853.220
408.1694, 3838.295
408.6515, 3830.467
409.1336, 3825.594
409.6157, 3821.936
410.0978, 3819.052
410.5800, 3815.057
411.0621, 3809.258
411.5442, 3801.531
412.0263, 3791.259
412.5084, 3778.331
412.9905, 3763.882
413.4727, 3746.421
413.9548, 3728.767
414.4369, 3718.050
414.9190, 3718.957
415.4011, 3719.143
415.8832, 3713.358
416.3654, 3703.573
416.8475, 3690.490
417.3296, 3674.305
417.8117, 3663.208
418.2938, 3669.359
418.7759, 3698.952
419.2581, 3706.358
419.7402, 3673.123
420.2223, 3640.389
420.7044, 3623.486
421.1865, 3619.566
421.6686, 3622.742
422.1508, 3630.422
422.6329, 3639.498
423.1150, 3642.740
423.5971, 3637.559
424.0792, 3633.362
424.5613, 3633.380
425.0435, 3632.724
425.5256, 3626.015
426.0077, 3615.157
426.4898, 3609.287
426.9719, 3623.313
427.4540, 3644.415
427.9362, 3630.882
428.4183, 3573.037
428.9004, 3525.617
429.3825, 3517.347
429.8646, 3533.896
430.3467, 3554.030
430.8289, 3579.584
431.3110, 3599.380
431.7931, 3603.585
432.2752, 3599.583
432.7573, 3600.905
433.2394, 3610.058
433.7216, 3618.843
434.2037, 3619.033
434.6858, 3610.428
435.1679, 3606.307
435.6500, 3605.364
436.1321, 3609.726
436.6143, 3627.651
437.0964, 3649.059
437.5785, 3658.467
438.0606, 3650.326
438.5427, 3632.491
439.0248, 3616.715
439.5070, 3602.782
439.9891, 3591.464
440.4712, 3579.217
440.9533, 3573.116
441.4354, 3587.381
441.9175, 3609.590
442.3997, 3611.472
442.8818, 3572.293
443.3639, 3514.892
443.8460, 3482.127
444.3281, 3476.112
444.8102, 3469.119
445.2924, 3447.361
445.7745, 3427.239
446.2566, 3434.096
446.7387, 3468.802
447.2208, 3485.431
447.7029, 3451.542
448.1851, 3399.753
448.6672, 3365.623
449.1493, 3351.219
449.6314, 3348.817
450.1135, 3356.148
450.5956, 3369.879
451.0778, 3377.425
451.5599, 3375.820
452.0420, 3372.287
452.5241, 3368.376
453.0062, 3362.248
453.4883, 3351.050
453.9705, 3335.169
454.4526, 3318.420
454.9347, 3303.873
455.4168, 3291.640
455.8989, 3282.532
456.3810, 3274.561
456.8632, 3273.231
457.3453, 3287.667
457.8274, 3304.809
458.3095, 3308.228
458.7916, 3293.404
459.2737, 3277.231
459.7559, 3279.014
460.2380, 3293.907
460.7201, 3296.585
461.2022, 3279.682
461.6843, 3264.093
462.1664, 3269.722
462.6486, 3290.444
463.1307, 3303.262
463.6128, 3302.506
464.0949, 3297.340
464.5770, 3293.271
465.0591, 3287.906
465.5413, 3274.490
466.0234, 3251.040
466.5055, 3226.616
466.9876, 3212.281
467.4697, 3208.456
467.9518, 3213.714
468.4340, 3241.078
468.9161, 3262.519
469.3982, 3264.602
469.8803, 3254.610
470.3624, 3244.695
470.8445, 3240.029
471.3267, 3238.047
471.8088, 3235.084
472.2909, 3231.193
472.7730, 3225.916
473.2551, 3220.150
473.7372, 3211.646
474.2194, 3195.203
474.7015, 3174.539
475.1836, 3161.612
475.6657, 3161.318
476.1478, 3169.908
476.6299, 3189.623
477.1121, 3216.923
477.5942, 3233.396
478.0763, 3231.168
478.5584, 3219.055
479.0405, 3210.064
479.5226, 3205.609
480.0048, 3199.219
480.4869, 3182.112
480.9690, 3170.934
481.4511, 3180.775
481.9332, 3204.449
482.4153, 3224.580
482.8975, 3232.087
483.3796, 3230.840
483.8617, 3229.586
484.3438, 3229.236
484.8259, 3226.283
485.3080, 3216.997
485.7902, 3207.858
486.2723, 3203.221
486.7544, 3201.791
487.2365, 3198.903
487.7186, 3192.446
488.2007, 3182.953
488.6829, 3168.329
489.1650, 3149.041
489.6471, 3137.409
490.1292, 3139.551
490.6113, 3148.803
491.0934, 3156.490
491.5756, 3163.339
492.0577, 3165.031
492.5398, 3152.981
493.0219, 3142.184
493.5040, 3147.732
493.9861, 3164.441
494.4683, 3175.262
494.9504, 3170.772
495.4325, 3157.123
495.9146, 3149.319
496.3967, 3149.619
496.8788, 3150.920
497.3610, 3156.898
497.8431, 3160.197
498.3252, 3155.360
498.8073, 3144.282
499.2894, 3133.107
499.7715, 3125.558
500.2536, 3119.179
500.7357, 3106.307
501.2179, 3086.742
501.7000, 3080.603
502.1821, 3100.941
502.6642, 3127.676
503.1463, 3132.599
503.6284, 3116.100
504.1106, 3104.798
504.5927, 3108.755
505.0748, 3115.216
505.5569, 3112.670
506.0390, 3104.681
506.5211, 3103.427
507.0033, 3114.963
507.4854, 3131.696
507.9675, 3138.379
508.4496, 3129.424
508.9317, 3123.918
509.4138, 3127.549
509.8960, 3128.902
510.3781, 3119.093
510.8602, 3103.401
511.3423, 3093.391
511.8244, 3094.965
512.3066, 3103.401
512.7887, 3114.439
513.2708, 3127.801
513.7529, 3134.615
514.2350, 3131.223
514.7172, 3123.847
515.1993, 3116.715
515.6814, 3110.168
516.1635, 3108.730
516.6456, 3121.036
517.1277, 3130.633
517.6099, 3124.661
518.0920, 3109.729
518.5741, 3097.410
519.0562, 3091.858
519.5383, 3093.577
520.0204, 3105.944
520.5026, 3133.975
520.9847, 3143.829
521.4668, 3113.501
521.9489, 3088.063
522.4310, 3083.039
522.9131, 3089.661
523.3953, 3095.786
523.8774, 3097.608
524.3595, 3097.458
524.8416, 3097.172
525.3237, 3096.852
525.8058, 3096.469
526.2880, 3095.434
526.7701, 3097.092
527.2522, 3106.992
527.7343, 3121.807
528.2164, 3125.845
528.6985, 3109.478
529.1807, 3095.284
529.6628, 3086.832
530.1449, 3085.973
530.6270, 3100.811
531.1091, 3129.039
531.5912, 3151.690
532.0734, 3149.972
532.5555, 3127.121
533.0376, 3112.856
533.5197, 3109.528
534.0018, 3110.895
534.4839, 3119.738
534.9661, 3129.508
535.4482, 3134.345
535.9303, 3133.829
536.4124, 3132.368
536.8945, 3131.185
537.3766, 3131.458
537.8588, 3136.014
538.3409, 3144.717
538.8230, 3154.516
539.3051, 3165.807
539.7872, 3174.594
540.2693, 3171.469
540.7515, 3148.177
541.2336, 3133.616
541.7157, 3135.254
542.1978, 3140.160
542.6799, 3138.099
543.1620, 3132.654
543.6442, 3136.361
544.1263, 3156.699
544.6084, 3179.699
545.0905, 3172.249
545.5726, 3126.938
546.0547, 3104.451
546.5369, 3126.856
547.0190, 3153.737
547.5011, 3156.212
547.9832, 3141.993
548.4653, 3131.002
548.9474, 3129.104
549.4296, 3130.555
549.9116, 3130.675
550.3937, 3131.423
550.8759, 3140.464
551.3580, 3159.133
551.8401, 3171.685
552.3222, 3159.739
552.8043, 3123.493
553.2864, 3104.279
553.7686, 3112.951
554.2507, 3126.660
554.7328, 3152.021
555.2149, 3175.011
555.6970, 3178.733
556.1791, 3162.809
556.6613, 3146.220
557.1434, 3147.402
557.6255, 3159.478
558.1076, 3161.624
558.5897, 3152.865
559.0718, 3143.395
559.5540, 3134.310
560.0361, 3129.823
560.5182, 3142.183
561.0003, 3177.167
561.4824, 3196.511
561.9645, 3183.864
562.4467, 3163.026
562.9288, 3146.909
563.4109, 3136.586
563.8930, 3132.154
564.3751, 3133.802
564.8572, 3136.935
565.3394, 3131.962
565.8215, 3116.141
566.3036, 3107.312
566.7857, 3107.138
567.2678, 3113.167
567.7499, 3130.857
568.2321, 3151.781
568.7142, 3159.308
569.1963, 3144.970
569.6784, 3128.744
570.1605, 3123.924
570.6426, 3126.412
571.1248, 3130.528
571.6069, 3134.970
572.0890, 3135.771
572.5711, 3129.006
573.0532, 3116.644
573.5353, 3109.603
574.0175, 3106.741
574.4996, 3111.474
574.9817, 3135.284
575.4638, 3157.302
575.9459, 3160.413
576.4280, 3147.223
576.9102, 3132.441
577.3923, 3123.147
577.8744, 3118.810
578.3565, 3118.927
578.8386, 3123.394
579.3207, 3131.263
579.8029, 3143.498
580.2850, 3155.994
580.7671, 3163.927
581.2492, 3166.956
581.7313, 3171.795
582.2134, 3173.388
582.6956, 3182.551
583.1777, 3214.664
583.6598, 3251.238
584.1419, 3264.997
584.6240, 3252.405
585.1061, 3237.332
585.5883, 3244.062
586.0704, 3269.192
586.5525, 3290.063
587.0346, 3304.459
587.5167, 3321.924
587.9988, 3352.503
588.4810, 3382.663
588.9631, 3396.225
589.4452, 3392.310
589.9273, 3385.207
590.4094, 3370.449
590.8915, 3361.580
591.3737, 3374.813
591.8558, 3402.814
592.3379, 3427.719
592.8200, 3442.521
593.3021, 3448.289
593.7842, 3446.124
594.2664, 3435.245
594.7485, 3421.770
595.2306, 3407.644
595.7127, 3387.761
596.1948, 3357.500
596.6769, 3322.339
597.1591, 3287.764
597.6412, 3254.123
598.1233, 3225.777
598.6054, 3206.823
599.0875, 3194.085
599.5696, 3184.437
600.0518, 3177.010
600.5339, 3167.407
601.0160, 3152.650
601.4981, 3136.711
601.9802, 3128.682
602.4623, 3133.808
602.9445, 3134.220
603.4266, 3127.400
603.9087, 3118.895
604.3908, 3107.597
604.8729, 3097.239
605.3550, 3095.843
605.8372, 3107.544
606.3193, 3117.443
606.8014, 3108.020
607.2835, 3085.276
607.7656, 3063.743
608.2477, 3044.364
608.7299, 3038.717
609.2120, 3059.774
609.6941, 3094.919
610.1762, 3104.403
610.6583, 3058.483
611.1404, 3036.934
611.6226, 3065.717
612.1047, 3097.287
612.5868, 3099.929
613.0689, 3081.650
613.5510, 3065.402
614.0331, 3061.815
614.5153, 3064.924
614.9974, 3068.920
615.4795, 3073.158
615.9616, 3072.348
616.4437, 3065.479
616.9258, 3054.439
617.4080, 3037.343
617.8901, 3017.651
618.3722, 3009.262
618.8543, 3018.377
619.3364, 3027.020
619.8185, 3034.366
620.3007, 3038.523
620.7828, 3035.728
621.2649, 3028.327
621.7470, 3022.152
622.2291, 3019.925
622.7112, 3023.175
623.1934, 3040.695
623.6755, 3072.618
624.1576, 3081.714
624.6397, 3055.252
625.1218, 3024.022
625.6039, 3006.916
626.0861, 3002.599
626.5682, 3004.618
627.0503, 3017.761
627.5324, 3029.021
628.0145, 3034.012
628.4966, 3036.317
628.9788, 3041.313
629.4609, 3047.011
629.9430, 3043.960
630.4251, 3025.195
630.9072, 3001.526
631.3893, 2997.194
631.8715, 3014.106
632.3536, 3024.754
632.8357, 3022.685
633.3178, 3019.833
633.7999, 3028.817
634.2820, 3043.056
634.7642, 3043.314
635.2463, 3015.947
635.7284, 2997.179
636.2105, 3008.208
636.6926, 3026.874
637.1747, 3028.440
637.6569, 3015.761
638.1390, 3010.468
638.6211, 3026.898
639.1032, 3049.676
639.5853, 3041.449
640.0674, 2997.296
640.5496, 2972.172
641.0317, 2978.825
641.5138, 2992.624
641.9959, 3002.191
642.4780, 3006.254
642.9601, 2999.792
643.4423, 2972.168
643.9244, 2955.592
644.4065, 2968.667
644.8886, 2992.183
645.3707, 3011.899
645.8528, 3024.939
646.3350, 3029.543
646.8171, 3024.606
647.2992, 3012.703
647.7813, 2994.094
648.2634, 2967.020
648.7455, 2961.850
649.2277, 2995.030
649.7098, 3022.479
650.1919, 3009.023
650.6740, 2973.852
651.1561, 2957.356
651.6382, 2968.224
652.1204, 2979.685
652.6025, 2983.745
653.0846, 2985.472
653.5667, 2991.727
654.0488, 2999.398
654.5309, 2998.379
655.0131, 2983.649
655.4952, 2963.792
655.9773, 2950.952
656.4594, 2945.096
656.9415, 2947.131
657.4236, 2961.763
657.9058, 2971.127
658.3879, 2959.295
658.8700, 2939.520
659.3521, 2940.216
659.8342, 2968.922
660.3163, 2988.695
660.7985, 2987.704
661.2806, 2979.248
661.7627, 2969.652
662.2448, 2960.132
662.7269, 2951.333
663.2090, 2943.515
663.6912, 2936.309
664.1733, 2928.781
664.6554, 2921.212
665.1375, 2915.261
665.6196, 2910.438
666.1017, 2909.861
666.5839, 2915.599
667.0660, 2925.573
667.5481, 2937.718
668.0302, 2952.938
668.5123, 2964.183
668.9944, 2968.915
669.4766, 2971.795
669.9587, 2976.725
670.4408, 2980.428
670.9229, 2976.730
671.4050, 2965.038
671.8871, 2952.884
672.3693, 2946.499
672.8514, 2944.942
673.3335, 2947.170
673.8156, 2953.283
674.2977, 2954.793
674.7798, 2947.445
675.2620, 2938.147
675.7441, 2934.369
676.2262, 2936.282
676.7083, 2941.813
677.1904, 2956.910
677.6725, 2967.706
678.1547, 2969.240
678.6368, 2966.315
679.1189, 2962.216
679.6010, 2958.010
680.0831, 2954.983
680.5652, 2954.991
681.0474, 2955.132
681.5295, 2949.346
682.0116, 2939.525
682.4937, 2935.717
682.9758, 2940.559
683.4579, 2944.298
683.9401, 2937.151
684.4222, 2922.343
684.9043, 2919.636
685.3864, 2942.239
685.8685, 2955.528
686.3506, 2944.348
686.8328, 2936.535
687.3149, 2961.044
687.7970, 3000.818
688.2791, 3010.921
688.7612, 2966.483
689.2433, 2918.958
689.7255, 2910.403
690.2076, 2926.013
690.6897, 2948.450
691.1718, 2971.888
691.6539, 2974.229
692.1360, 2940.171
692.6182, 2891.601
693.1003, 2876.479
693.5824, 2904.257
694.0645, 2929.664
694.5466, 2958.094
695.0287, 2975.966
695.5109, 2972.704
695.9930, 2958.388
696.4751, 2942.791
696.9572, 2925.596
697.4393, 2919.727
697.9214, 2939.713
698.4036, 2964.537
698.8857, 2980.026
699.3678, 2986.067
699.8499, 2982.966
700.3320, 2971.510
700.8141, 2957.680
701.2963, 2946.976
701.7784, 2939.768
702.2605, 2940.694
702.7426, 2952.124
703.2247, 2959.730
703.7068, 2957.958
704.1890, 2952.489
704.6711, 2947.861
705.1532, 2944.271
705.6353, 2946.370
706.1174, 2962.740
706.5995, 2974.231
707.0817, 2971.099
707.5638, 2963.343
708.0459, 2960.360
708.5280, 2962.578
709.0101, 2966.016
709.4922, 2969.076
709.9744, 2970.353
710.4565, 2966.693
710.9386, 2959.219
711.4207, 2953.511
711.9028, 2950.527
712.3849, 2946.628
712.8671, 2938.880
713.3492, 2929.036
713.8313, 2922.015
714.3134, 2914.442
714.7955, 2916.708
715.2776, 2935.151
715.7598, 2956.198
716.2419, 2979.067
716.7240, 2999.194
717.2061, 3009.435
717.6882, 3007.814
718.1703, 3001.861
718.6525, 2990.602
719.1346, 2981.006
719.6167, 2983.420
720.0988, 2994.525
720.5809, 3001.915
721.0630, 3001.557
721.5452, 3004.103
722.0273, 3024.929
722.5094, 3061.514
722.9915, 3081.890
723.4736, 3082.153
723.9557, 3079.870
724.4379, 3081.165
724.9200, 3080.139
725.4021, 3067.051
725.8842, 3044.537
726.3663, 3030.228
726.8484, 3034.309
727.3306, 3035.966
727.8127, 3023.012
728.2948, 3009.124
728.7769, 3011.505
729.2590, 3025.633
729.7411, 3031.665
730.2233, 3018.109
730.7054, 2996.171
731.1875, 2978.663
731.6696, 2965.249
732.1517, 2955.516
732.6339, 2949.446
733.1160, 2943.841
733.5981, 2936.075
734.0802, 2929.918
734.5623, 2934.479
735.0444, 2955.416
735.5266, 2967.268
736.0087, 2963.142
736.4908, 2958.206
736.9729, 2955.337
737.4550, 2954.891
737.9371, 2958.610
738.4193, 2966.353
738.9014, 2971.355
739.3835, 2971.376
739.8656, 2967.049
740.3477, 2953.307
740.8298, 2937.577
741.3120, 2932.964
741.7941, 2941.517
742.2762, 2957.014
742.7583, 2976.827
743.2404, 2995.453
743.7225, 2994.939
744.2047, 2974.128
744.6868, 2959.229
745.1689, 2955.385
745.6510, 2954.295
746.1331, 2949.010
746.6152, 2942.425
747.0973, 2944.885
747.5794, 2963.665
748.0615, 2977.365
748.5436, 2990.355
749.0258, 2993.034
749.5079, 2967.829
749.9900, 2934.237
750.4721, 2927.036
750.9542, 2954.186
751.4363, 2974.814
751.9185, 2947.131
752.4006, 2907.553
752.8827, 2903.551
753.3648, 2927.456
753.8469, 2957.439
754.3290, 2986.184
754.8112, 3003.552
755.2933, 2997.783
755.7754, 2973.425
756.2575, 2951.984
756.7396, 2932.047
757.2217, 2922.016
757.7039, 2926.553
758.1860, 2936.343
758.6681, 2948.293
759.1502, 2959.825
759.6323, 2961.381
760.1144, 2944.735
760.5966, 2933.421
761.0787, 2930.724
761.5608, 2934.685
762.0429, 2950.359
762.5250, 2969.820
763.0071, 2977.760
763.4893, 2969.696
763.9714, 2961.922
764.4535, 2974.019
764.9356, 2991.574
765.4177, 2988.167
765.8998, 2968.112
766.3820, 2949.486
766.8641, 2937.988
767.3462, 2934.821
767.8283, 2942.836
768.3104, 2959.438
768.7925, 2968.260
769.2747, 2968.360
769.7568, 2962.859
770.2389, 2946.459
770.7210, 2932.728
771.2031, 2931.971
771.6852, 2941.780
772.1674, 2955.755
772.6495, 2980.337
773.1316, 2995.197
773.6137, 2990.173
774.0958, 2980.724
774.5779, 2971.868
775.0601, 2967.404
775.5422, 2974.189
776.0243, 2993.675
776.5064, 3013.798
776.9885, 3026.240
777.4706, 3032.422
777.9528, 3032.477
778.4349, 3027.988
778.9170, 3024.622
779.3991, 3023.883
779.8812, 3022.213
780.3633, 3015.193
780.8455, 3005.935
781.3276, 3009.636
781.8097, 3030.413
782.2918, 3045.195
782.7739, 3047.732
783.2560, 3049.714
783.7382, 3061.123
784.2203, 3076.901
784.7024, 3081.971
785.1845, 3067.967
785.6666, 3066.646
786.1487, 3085.644
786.6309, 3113.309
787.1130, 3154.163
787.5951, 3195.052
788.0772, 3217.710
788.5593, 3219.905
789.0414, 3215.951
789.5236, 3209.553
790.0057, 3206.260
790.4878, 3212.830
790.9699, 3227.124
791.4520, 3246.204
791.9341, 3268.619
792.4163, 3289.648
792.8984, 3305.631
793.3805, 3319.658
793.8626, 3339.544
794.3447, 3365.523
794.8268, 3391.571
795.3090, 3418.068
795.7911, 3441.063
796.2732, 3456.531
796.7553, 3469.503
797.2374, 3489.584
797.7195, 3519.839
798.2017, 3542.674
798.6838, 3556.069
799.1659, 3565.038
799.6480, 3564.751
800.1301, 3565.165
800.6122, 3578.093
801.0944, 3601.056
801.5765, 3619.229
802.0586, 3627.677
802.5407, 3629.114
803.0228, 3623.771
803.5049, 3613.309
803.9871, 3594.777
804.4692, 3572.951
804.9513, 3562.928
805.4334, 3571.559
805.9155, 3584.296
806.3976, 3585.182
806.8798, 3574.878
807.3619, 3552.547
807.8440, 3518.743
808.3261, 3490.195
808.8082, 3473.566
809.2903, 3456.349
809.7725, 3424.881
810.2546, 3380.720
810.7367, 3337.878
811.2188, 3293.284
811.7009, 3257.298
812.1830, 3233.055
812.6652, 3215.363
813.1473, 3207.226
813.6294, 3201.736
814.1115, 3182.889
814.5936, 3143.657
815.0757, 3111.559
815.5579, 3091.037
816.0400, 3080.188
816.5221, 3088.599
817.0042, 3100.449
817.4863, 3090.264
817.9684, 3057.351
818.4506, 3031.119
818.9327, 3036.044
819.4148, 3047.663
819.8969, 3037.283
820.3790, 3014.296
820.8611, 2994.739
821.3433, 2982.278
821.8254, 2981.677
822.3075, 2996.793
822.7896, 3015.252
823.2717, 3012.852
823.7538, 2991.158
824.2360, 2981.913
824.7181, 2987.639
825.2002, 2991.977
825.6823, 2989.032
826.1644, 2981.811
826.6465, 2973.531
827.1287, 2964.189
827.6108, 2954.225
828.0929, 2938.900
828.5750, 2930.859
829.0571, 2940.804
829.5392, 2949.397
830.0214, 2941.333
830.5035, 2924.679
830.9856, 2919.167
831.4677, 2933.079
831.9498, 2937.560
832.4319, 2908.444
832.9141, 2883.244
833.3962, 2896.000
833.8783, 2923.271
834.3604, 2926.629
834.8425, 2902.177
835.3246, 2879.716
835.8068, 2880.518
836.2889, 2889.760
836.7710, 2890.542
837.2531, 2886.446
837.7352, 2884.205
838.2173, 2885.006
838.6995, 2890.565
839.1816, 2902.273
839.6637, 2912.448
840.1458, 2904.859
840.6279, 2881.641
841.1100, 2875.636
841.5922, 2889.446
842.0743, 2893.058
842.5564, 2873.104
843.0385, 2851.792
843.5206, 2854.272
844.0027, 2876.611
844.4849, 2883.500
844.9670, 2866.779
845.4491, 2851.342
845.9312, 2834.217
846.4133, 2824.683
846.8954, 2834.309
847.3776, 2851.715
847.8597, 2855.948
848.3418, 2841.938
848.8239, 2837.423
849.3060, 2860.305
849.7881, 2878.815
850.2703, 2874.133
850.7524, 2860.894
851.2345, 2855.660
851.7166, 2858.464
852.1987, 2859.043
852.6808, 2851.431
853.1630, 2843.655
853.6451, 2842.707
854.1272, 2844.933
854.6093, 2843.644
855.0914, 2841.114
855.5735, 2848.251
856.0557, 2868.055
856.5378, 2884.148
857.0199, 2875.746
857.5020, 2853.384
857.9841, 2846.286
858.4662, 2852.024
858.9484, 2851.484
859.4305, 2840.682
859.9126, 2834.547
860.3947, 2845.402
860.8768, 2863.448
861.3589, 2862.606
861.8411, 2838.381
862.3232, 2825.584
862.8053, 2826.630
863.2874, 2833.718
863.7695, 2846.201
864.2516, 2860.644
864.7338, 2875.292
865.2159, 2889.961
865.6980, 2892.352
866.1801, 2861.725
866.6622, 2849.227
867.1443, 2878.342
867.6265, 2906.062
868.1086, 2903.874
868.5907, 2884.873
869.0728, 2873.993
869.5549, 2875.326
870.0370, 2879.488
870.5192, 2890.216
871.0013, 2895.583
871.4834, 2880.954
871.9655, 2862.437
872.4476, 2860.283
872.9297, 2874.067
873.4119, 2890.949
873.8940, 2908.302
874.3761, 2916.988
874.8582, 2904.625
875.3403, 2881.781
875.8224, 2854.291
876.3046, 2830.324
876.7867, 2836.555
877.2688, 2878.529
877.7509, 2914.273
878.2330, 2896.838
878.7151, 2852.475
879.1973, 2840.714
879.6794, 2856.426
880.1615, 2874.583
880.6436, 2890.728
881.1257, 2898.464
881.6078, 2893.087
882.0900, 2881.729
882.5721, 2878.079
883.0542, 2882.407
883.5363, 2880.866
884.0184, 2871.976
884.5005, 2864.381
884.9827, 2860.782
885.4648, 2858.666
885.9469, 2855.576
886.4290, 2852.008
886.9111, 2850.998
887.3932, 2856.407
887.8754, 2855.688
888.3575, 2839.463
888.8396, 2829.086
889.3217, 2838.867
889.8038, 2856.638
890.2859, 2870.939
890.7681, 2881.677
891.2502, 2878.748
891.7323, 2841.763
892.2144, 2817.386
892.6965, 2826.217
893.1786, 2842.687
893.6608, 2849.073
894.1429, 2848.117
894.6250, 2848.296
895.1071, 2851.441
895.5892, 2856.783
896.0714, 2871.825
896.5535, 2880.642
897.0356, 2863.572
897.5177, 2838.471
897.9998, 2831.967
898.4819, 2843.212
898.9641, 2851.507
899.4462, 2846.340
899.9283, 2835.177
900.4104, 2819.905
900.8925, 2806.237
901.3746, 2803.358
901.8568, 2809.555
902.3389, 2821.703
902.8210, 2837.261
903.3031, 2845.236
903.7852, 2832.764
904.2673, 2812.581
904.7495, 2811.831
905.2316, 2825.229
905.7137, 2831.978
906.1958, 2829.988
906.6779, 2824.920
907.1600, 2819.332
907.6422, 2814.590
908.1243, 2812.307
908.6064, 2812.570
909.0885, 2816.605
909.5706, 2824.614
910.0527, 2834.445
910.5349, 2847.396
911.0170, 2851.437
911.4991, 2835.547
911.9812, 2809.665
912.4633, 2797.504
912.9454, 2800.772
913.4276, 2808.556
913.9097, 2825.422
914.3918, 2834.441
914.8739, 2826.896
915.3560, 2815.281
915.8381, 2811.551
916.3203, 2813.921
916.8024, 2812.447
917.2845, 2805.778
917.7666, 2797.650
918.2487, 2781.672
918.7308, 2772.055
919.2130, 2775.987
919.6951, 2787.579
920.1772, 2804.134
920.6593, 2824.672
921.1414, 2833.876
921.6235, 2823.307
922.1057, 2810.889
922.5878, 2795.752
923.0699, 2784.065
923.5520, 2781.712
924.0341, 2784.724
924.5162, 2786.491
924.9984, 2785.902
925.4805, 2785.520
925.9626, 2791.104
926.4447, 2791.172
926.9268, 2769.524
927.4089, 2747.903
927.8911, 2751.620
928.3732, 2773.753
928.8553, 2791.803
929.3374, 2798.464
929.8195, 2799.949
930.3016, 2798.770
930.7838, 2795.423
931.2659, 2786.510
931.7480, 2777.745
932.2301, 2779.518
932.7122, 2790.729
933.1943, 2800.842
933.6765, 2804.498
934.1586, 2805.143
934.6407, 2804.468
935.1228, 2803.992
935.6049, 2808.194
936.0870, 2814.156
936.5692, 2813.330
937.0513, 2804.555
937.5334, 2794.823
938.0155, 2788.988
938.4976, 2785.078
938.9797, 2778.883
939.4619, 2772.508
939.9440, 2772.218
940.4261, 2777.536
940.9082, 2782.736
941.3903, 2786.109
941.8724, 2794.769
942.3546, 2819.293
942.8367, 2847.143
943.3188, 2840.908
943.8009, 2807.038
944.2830, 2786.349
944.7651, 2783.048
945.2472, 2796.044
945.7293, 2826.343
946.2114, 2852.909
946.6935, 2846.932
947.1757, 2816.109
947.6578, 2799.998
948.1399, 2798.939
948.6220, 2797.496
949.1041, 2793.625
949.5862, 2786.294
950.0684, 2772.639
950.5505, 2764.034
951.0326, 2783.277
951.5147, 2828.860
951.9968, 2837.446
952.4789, 2799.477
952.9611, 2776.520
953.4432, 2783.887
953.9253, 2794.788
954.4074, 2790.904
954.8895, 2781.005
955.3716, 2784.490
955.8538, 2803.996
956.3359, 2812.330
956.8180, 2802.544
957.3001, 2801.600
957.7822, 2823.911
958.2643, 2840.515
958.7465, 2824.018
959.2286, 2789.090
959.7107, 2776.743
960.1928, 2793.924
960.6749, 2807.775
961.1570, 2817.869
961.6392, 2825.415
962.1213, 2829.657
962.6034, 2832.776
963.0855, 2838.581
963.5676, 2844.653
964.0497, 2841.149
964.5319, 2820.885
965.0140, 2808.071
965.4961, 2807.232
965.9782, 2807.823
966.4603, 2806.845
966.9424, 2806.019
967.4246, 2807.136
967.9067, 2809.798
968.3888, 2812.023
968.8709, 2812.848
969.3530, 2815.016
969.8351, 2821.130
970.3173, 2825.614
970.7994, 2825.475
971.2815, 2823.424
971.7636, 2821.467
972.2457, 2820.015
972.7278, 2820.735
973.2100, 2827.280
973.6921, 2829.606
974.1742, 2821.365
974.6563, 2814.218
975.1384, 2812.655
975.6205, 2815.790
976.1027, 2825.310
976.5848, 2839.488
977.0669, 2846.903
977.5490, 2839.929
978.0311, 2835.446
978.5132, 2844.679
978.9954, 2849.230
979.4775, 2832.127
979.9596, 2808.305
980.4417, 2797.745
980.9238, 2801.106
981.4059, 2803.902
981.8881, 2795.219
982.3702, 2797.093
982.8523, 2827.255
983.3344, 2858.335
983.8165, 2875.305
984.2986, 2880.509
984.7808, 2875.286
985.2629, 2861.627
985.7450, 2851.820
986.2271, 2854.810
986.7092, 2854.477
987.1913, 2836.988
987.6735, 2822.210
988.1556, 2828.092
988.6377, 2844.126
989.1198, 2855.771
989.6019, 2860.315
990.0840, 2857.750
990.5662, 2837.791
991.0483, 2826.408
991.5304, 2839.746
992.0125, 2860.641
992.4946, 2883.416
992.9767, 2901.219
993.4589, 2903.086
993.9410, 2888.893
994.4231, 2873.214
994.9052, 2859.295
995.3873, 2848.948
995.8694, 2843.537
996.3516, 2841.585
996.8337, 2840.198
997.3158, 2842.293
997.7979, 2856.022
998.2800, 2880.685
998.7621, 2898.466
999.2443, 2899.360
999.7264, 2896.370
1000.208, 2893.983
1000.691, 2891.836
1001.173, 2891.977
1001.655, 2891.034
1002.137, 2881.884
1002.619, 2864.634
1003.101, 2850.486
1003.583, 2841.419
1004.065, 2840.374
1004.548, 2854.029
1005.030, 2871.242
1005.512, 2888.697
1005.994, 2900.745
1006.476, 2895.764
1006.958, 2874.883
1007.440, 2860.217
1007.922, 2861.642
1008.404, 2869.003
1008.887, 2885.520
1009.369, 2898.382
1009.851, 2896.313
1010.333, 2884.865
1010.815, 2870.278
1011.297, 2854.938
1011.779, 2845.685
1012.261, 2849.999
1012.744, 2851.495
1013.226, 2834.987
1013.708, 2821.647
1014.190, 2828.725
1014.672, 2847.315
1015.154, 2866.939
1015.636, 2884.755
1016.118, 2897.158
1016.600, 2903.295
1017.083, 2902.925
1017.565, 2886.112
1018.047, 2873.469
1018.529, 2882.663
1019.011, 2900.934
1019.493, 2912.681
1019.975, 2916.635
1020.457, 2917.517
1020.940, 2913.845
1021.422, 2913.584
1021.904, 2926.725
1022.386, 2935.453
1022.868, 2923.737
1023.350, 2906.604
1023.832, 2900.704
1024.314, 2905.987
1024.797, 2915.351
1025.279, 2931.972
1025.761, 2940.098
1026.243, 2927.784
1026.725, 2915.750
1027.207, 2910.680
1027.689, 2912.708
1028.171, 2925.878
1028.653, 2945.958
1029.135, 2958.268
1029.618, 2957.703
1030.100, 2958.586
1030.582, 2967.281
1031.064, 2972.762
1031.546, 2973.750
1032.028, 2967.572
1032.510, 2944.244
1032.992, 2912.966
1033.475, 2899.712
1033.957, 2910.828
1034.439, 2923.740
1034.921, 2943.434
1035.403, 2955.443
1035.885, 2953.372
1036.367, 2945.146
1036.849, 2929.738
1037.332, 2914.022
1037.814, 2915.726
1038.296, 2940.722
1038.778, 2953.985
1039.260, 2946.648
1039.742, 2941.394
1040.224, 2940.126
1040.706, 2943.738
1041.188, 2957.670
1041.671, 2973.661
1042.153, 2977.165
1042.635, 2967.478
1043.117, 2955.474
1043.599, 2933.196
1044.081, 2926.889
1044.563, 2949.071
1045.045, 2970.269
1045.527, 2976.081
1046.010, 2972.882
1046.492, 2967.707
1046.974, 2961.090
1047.456, 2962.285
1047.938, 2975.893
1048.420, 2979.849
1048.902, 2967.329
1049.384, 2961.842
1049.866, 2977.309
1050.349, 2992.948
1050.831, 2982.955
1051.313, 2955.684
1051.795, 2952.344
1052.277, 2977.248
1052.759, 2990.028
1053.241, 2986.412
1053.723, 2988.874
1054.206, 3006.741
1054.688, 3020.860
1055.170, 3012.595
1055.652, 2993.219
1056.134, 2992.749
1056.616, 3010.453
1057.098, 3025.557
1057.580, 3037.632
1058.063, 3036.059
1058.545, 3018.100
1059.027, 3001.344
1059.509, 2997.792
1059.991, 3002.378
1060.473, 3008.077
1060.955, 3014.405
1061.437, 3019.248
1061.919, 3022.747
1062.401, 3026.259
1062.884, 3029.696
1063.366, 3029.116
1063.848, 3022.433
1064.330, 3017.601
1064.812, 3024.877
1065.294, 3039.690
1065.776, 3054.570
1066.258, 3068.904
1066.741, 3081.553
1067.223, 3091.826
1067.705, 3097.940
1068.187, 3099.331
1068.669, 3097.670
1069.151, 3094.111
1069.633, 3088.514
1070.115, 3075.109
1070.598, 3063.337
1071.080, 3069.937
1071.562, 3089.040
1072.044, 3106.860
1072.526, 3119.897
1073.008, 3130.190
1073.490, 3139.081
1073.972, 3145.056
1074.454, 3144.418
1074.937, 3142.909
1075.419, 3144.497
1075.901, 3149.273
1076.383, 3160.346
1076.865, 3174.444
1077.347, 3179.468
1077.829, 3169.552
1078.311, 3160.045
1078.793, 3152.070
1079.276, 3152.541
1079.758, 3168.932
1080.240, 3191.902
1080.722, 3220.069
1081.204, 3245.883
1081.686, 3251.635
1082.168, 3232.362
1082.650, 3219.480
1083.133, 3224.481
1083.615, 3226.716
1084.097, 3212.035
1084.579, 3204.400
1085.061, 3224.738
1085.543, 3255.916
1086.025, 3275.417
1086.507, 3283.450
1086.990, 3284.386
1087.472, 3272.485
1087.954, 3265.968
1088.436, 3264.774
1088.918, 3271.458
1089.400, 3291.166
1089.882, 3311.454
1090.364, 3320.283
1090.846, 3320.475
1091.328, 3321.728
1091.811, 3324.837
1092.293, 3321.225
1092.775, 3308.712
1093.257, 3305.944
1093.739, 3318.148
1094.221, 3334.617
1094.703, 3348.890
1095.185, 3360.954
1095.668, 3370.973
1096.150, 3378.781
1096.632, 3384.285
1097.114, 3386.934
1097.596, 3379.944
1098.078, 3364.242
1098.560, 3355.829
1099.042, 3361.228
1099.525, 3367.708
1100.007, 3361.507
1100.489, 3351.713
1100.971, 3355.874
1101.453, 3366.413
1101.935, 3365.980
1102.417, 3358.384
1102.899, 3359.068
1103.381, 3369.506
1103.864, 3375.276
1104.346, 3367.166
1104.828, 3357.000
1105.310, 3351.331
1105.792, 3351.423
1106.274, 3367.733
1106.756, 3384.239
1107.238, 3373.947
1107.720, 3345.019
1108.203, 3327.946
1108.685, 3331.467
1109.167, 3340.025
1109.649, 3356.834
1110.131, 3365.070
1110.613, 3347.071
1111.095, 3329.359
1111.577, 3332.607
1112.060, 3347.744
1112.542, 3363.113
1113.024, 3377.284
1113.506, 3380.142
1113.988, 3360.772
1114.470, 3347.161
1114.952, 3338.060
1115.434, 3338.020
1115.917, 3355.471
1116.399, 3372.542
1116.881, 3373.655
1117.363, 3362.351
1117.845, 3345.802
1118.327, 3321.332
1118.809, 3323.215
1119.291, 3357.639
1119.773, 3374.633
1120.255, 3362.780
1120.738, 3347.898
1121.220, 3343.445
1121.702, 3347.285
1122.184, 3358.704
1122.666, 3373.885
1123.148, 3381.812
1123.630, 3382.509
1124.112, 3367.971
1124.595, 3344.437
1125.077, 3352.875
1125.559, 3400.748
1126.041, 3439.606
1126.523, 3433.912
1127.005, 3413.527
1127.487, 3414.638
1127.969, 3421.117
1128.452, 3405.463
1128.934, 3382.523
1129.416, 3379.534
1129.898, 3395.223
1130.380, 3416.128
1130.862, 3438.352
1131.344, 3445.668
1131.826, 3406.966
1132.308, 3381.312
1132.791, 3416.721
1133.273, 3457.134
1133.755, 3452.333
1134.237, 3429.001
1134.719, 3432.623
1135.201, 3463.201
1135.683, 3482.826
1136.165, 3483.576
1136.647, 3480.973
1137.130, 3466.379
1137.612, 3463.632
1138.094, 3485.474
1138.576, 3511.541
1139.058, 3528.089
1139.540, 3537.302
1140.022, 3543.787
1140.504, 3547.524
1140.987, 3542.311
1141.469, 3526.108
1141.951, 3523.934
1142.433, 3539.536
1142.915, 3560.679
1143.397, 3582.736
1143.879, 3596.778
1144.361, 3591.982
1144.844, 3579.746
1145.326, 3586.812
1145.808, 3603.810
1146.290, 3600.634
1146.772, 3584.737
1147.254, 3585.660
1147.736, 3604.297
1148.218, 3613.836
1148.700, 3601.231
1149.182, 3590.812
1149.665, 3607.304
1150.147, 3627.821
1150.629, 3634.544
1151.111, 3634.211
1151.593, 3627.740
1152.075, 3622.779
1152.557, 3637.196
1153.039, 3669.247
1153.522, 3683.140
1154.004, 3657.617
1154.486, 3639.002
1154.968, 3640.552
1155.450, 3643.826
1155.932, 3643.117
1156.414, 3640.882
1156.896, 3638.039
1157.379, 3635.549
1157.861, 3635.852
1158.343, 3639.108
1158.825, 3639.721
1159.307, 3637.906
1159.789, 3631.287
1160.271, 3618.694
1160.753, 3607.806
1161.235, 3601.390
1161.718, 3600.629
1162.200, 3607.761
1162.682, 3617.370
1163.164, 3617.874
1163.646, 3612.119
1164.128, 3606.140
1164.610, 3602.033
1165.092, 3607.463
1165.574, 3620.966
1166.057, 3630.489
1166.539, 3631.352
1167.021, 3636.233
1167.503, 3660.841
1167.985, 3684.544
1168.467, 3689.279
1168.949, 3688.298
1169.431, 3694.959
1169.914, 3703.400
1170.396, 3702.276
1170.878, 3692.935
1171.360, 3687.343
1171.842, 3687.712
1172.324, 3691.297
1172.806, 3700.010
1173.288, 3708.734
1173.771, 3717.248
1174.253, 3724.442
1174.735, 3730.061
1175.217, 3733.556
1175.699, 3734.219
1176.181, 3732.084
1176.663, 3724.385
1177.145, 3710.422
1177.627, 3720.882
1178.109, 3756.338
1178.592, 3763.237
1179.074, 3729.344
1179.556, 3697.578
1180.038, 3694.423
1180.520, 3706.597
1181.002, 3725.427
1181.484, 3742.186
1181.966, 3739.228
1182.449, 3726.604
1182.931, 3719.535
1183.413, 3717.745
1183.895, 3715.799
1184.377, 3713.141
1184.859, 3714.352
1185.341, 3721.319
1185.823, 3732.266
1186.306, 3748.682
1186.788, 3766.096
1187.270, 3790.568
1187.752, 3807.411
1188.234, 3797.196
1188.716, 3774.824
1189.198, 3768.740
1189.680, 3778.286
1190.162, 3774.131
1190.645, 3748.219
1191.127, 3743.605
1191.609, 3766.777
1192.091, 3787.940
1192.573, 3797.561
1193.055, 3809.183
1193.537, 3834.001
1194.019, 3856.894
1194.501, 3847.505
1194.984, 3821.147
1195.466, 3816.797
1195.948, 3828.120
1196.430, 3843.730
1196.912, 3859.817
1197.394, 3871.432
1197.876, 3877.337
1198.358, 3880.447
1198.841, 3884.708
1199.323, 3878.378
1199.805, 3841.272
1200.287, 3808.440
1200.769, 3799.369
1201.251, 3804.244
1201.733, 3816.506
1202.215, 3834.357
1202.698, 3859.138
1203.180, 3890.333
1203.662, 3905.287
1204.144, 3897.833
1204.626, 3892.905
1205.108, 3892.492
1205.590, 3889.790
1206.072, 3881.818
1206.554, 3877.665
1207.036, 3883.737
1207.519, 3896.287
1208.001, 3909.257
1208.483, 3924.594
1208.965, 3955.005
1209.447, 3989.309
1209.929, 3994.627
1210.411, 3977.716
1210.893, 3963.157
1211.376, 3958.182
1211.858, 3964.146
1212.340, 3985.058
1212.822, 4000.952
1213.304, 3996.513
1213.786, 3989.434
1214.268, 3987.159
1214.750, 3987.863
1215.233, 3991.273
1215.715, 3995.830
1216.197, 3999.606
1216.679, 4002.492
1217.161, 4002.588
1217.643, 3995.430
1218.125, 4006.653
1218.607, 4043.886
1219.089, 4051.356
1219.572, 4013.337
1220.054, 3985.114
1220.536, 3997.137
1221.018, 4024.254
1221.500, 4039.261
1221.982, 4047.277
1222.464, 4057.901
1222.946, 4068.439
1223.428, 4073.289
1223.911, 4074.266
1224.393, 4075.148
1224.875, 4076.751
1225.357, 4078.535
1225.839, 4080.183
1226.321, 4084.285
1226.803, 4095.538
1227.285, 4103.974
1227.768, 4106.456
1228.250, 4105.469
1228.732, 4099.468
1229.214, 4093.748
##END=



