##NAMES=Mendozavilite-NaCu
##RRUFFID=R120038
##IDEAL CHEMISTRY=[Na_2_(H_2_O)_15_Cu^2+^(H_2_O)_6_][Mo^6+^_8_P_2_Fe^3+^_3_O_34_(OH)_3_]
##LOCALITY=Lomas Bayas mine, Baquedano, Antofagasta Province, Antofagasta Region, Chile
##OWNER=RRUFF
##SOURCE=Bob Jenkins
##DESCRIPTION=Bright green massive
##STATUS=The identification of this mineral has been confirmed only by single crystal X-ray diffraction.
##URL=rruff.info/R120038
8.975323e+001, 0.000000e+000
9.023535e+001, 1.276454e+001
9.071747e+001, 1.276119e+001
9.119958e+001, 1.271126e+001
9.168170e+001, 1.276745e+001
9.216382e+001, 1.278104e+001
9.264594e+001, 1.277173e+001
9.312805e+001, 1.278833e+001
9.361017e+001, 1.284362e+001
9.409229e+001, 1.289651e+001
9.457440e+001, 1.302250e+001
9.505651e+001, 1.301152e+001
9.553863e+001, 1.274581e+001
9.602074e+001, 1.243382e+001
9.650286e+001, 1.228835e+001
9.698498e+001, 1.239370e+001
9.746709e+001, 1.262970e+001
9.794921e+001, 1.270493e+001
9.843133e+001, 1.248073e+001
9.891344e+001, 1.230620e+001
9.939556e+001, 1.232698e+001
9.987768e+001, 1.247396e+001
1.003598e+002, 1.254795e+001
1.008419e+002, 1.239855e+001
1.013240e+002, 1.208630e+001
1.018061e+002, 1.189330e+001
1.022883e+002, 1.188682e+001
1.027704e+002, 1.194989e+001
1.032525e+002, 1.199702e+001
1.037346e+002, 1.203622e+001
1.042167e+002, 1.201908e+001
1.046988e+002, 1.186079e+001
1.051810e+002, 1.162778e+001
1.056631e+002, 1.141743e+001
1.061452e+002, 1.128324e+001
1.066273e+002, 1.120594e+001
1.071094e+002, 1.110510e+001
1.075915e+002, 1.096313e+001
1.080737e+002, 1.081613e+001
1.085558e+002, 1.065577e+001
1.090379e+002, 1.049831e+001
1.095200e+002, 1.038163e+001
1.100021e+002, 1.035019e+001
1.104842e+002, 1.042532e+001
1.109664e+002, 1.047510e+001
1.114485e+002, 1.050202e+001
1.119306e+002, 1.050525e+001
1.124127e+002, 1.047586e+001
1.128948e+002, 1.041660e+001
1.133769e+002, 1.034300e+001
1.138591e+002, 1.027908e+001
1.143412e+002, 1.024530e+001
1.148233e+002, 1.017952e+001
1.153054e+002, 1.004579e+001
1.157875e+002, 9.897324e+000
1.162696e+002, 9.785215e+000
1.167517e+002, 9.727618e+000
1.172339e+002, 9.709671e+000
1.177160e+002, 9.704755e+000
1.181981e+002, 9.727595e+000
1.186802e+002, 9.731594e+000
1.191623e+002, 9.682117e+000
1.196444e+002, 9.599711e+000
1.201266e+002, 9.548321e+000
1.206087e+002, 9.582136e+000
1.210908e+002, 9.641688e+000
1.215729e+002, 9.608929e+000
1.220550e+002, 9.445379e+000
1.225371e+002, 9.255713e+000
1.230193e+002, 9.129539e+000
1.235014e+002, 9.071647e+000
1.239835e+002, 9.033114e+000
1.244656e+002, 9.013314e+000
1.249477e+002, 8.993768e+000
1.254298e+002, 8.949879e+000
1.259120e+002, 8.860340e+000
1.263941e+002, 8.758423e+000
1.268762e+002, 8.732487e+000
1.273583e+002, 8.859973e+000
1.278404e+002, 8.931196e+000
1.283225e+002, 8.865079e+000
1.288047e+002, 8.718762e+000
1.292868e+002, 8.562498e+000
1.297689e+002, 8.434647e+000
1.302510e+002, 8.336205e+000
1.307331e+002, 8.283694e+000
1.312152e+002, 8.331064e+000
1.316974e+002, 8.375052e+000
1.321795e+002, 8.375073e+000
1.326616e+002, 8.348065e+000
1.331437e+002, 8.342168e+000
1.336258e+002, 8.405107e+000
1.341079e+002, 8.556066e+000
1.345901e+002, 8.646594e+000
1.350722e+002, 8.663507e+000
1.355543e+002, 8.644770e+000
1.360364e+002, 8.587804e+000
1.365185e+002, 8.501729e+000
1.370006e+002, 8.432761e+000
1.374828e+002, 8.439962e+000
1.379649e+002, 8.542315e+000
1.384470e+002, 8.635151e+000
1.389291e+002, 8.736181e+000
1.394112e+002, 8.816311e+000
1.398933e+002, 8.832499e+000
1.403755e+002, 8.767447e+000
1.408576e+002, 8.668395e+000
1.413397e+002, 8.587786e+000
1.418218e+002, 8.523154e+000
1.423039e+002, 8.474252e+000
1.427860e+002, 8.482978e+000
1.432681e+002, 8.517498e+000
1.437503e+002, 8.446511e+000
1.442324e+002, 8.156164e+000
1.447145e+002, 7.849170e+000
1.451966e+002, 7.709655e+000
1.456787e+002, 7.739485e+000
1.461608e+002, 7.815998e+000
1.466430e+002, 7.838321e+000
1.471251e+002, 7.800464e+000
1.476072e+002, 7.766681e+000
1.480893e+002, 7.775815e+000
1.485714e+002, 7.774598e+000
1.490535e+002, 7.709712e+000
1.495357e+002, 7.575537e+000
1.500178e+002, 7.442227e+000
1.504999e+002, 7.439102e+000
1.509820e+002, 7.688329e+000
1.514641e+002, 7.794337e+000
1.519462e+002, 7.615146e+000
1.524284e+002, 7.366654e+000
1.529105e+002, 7.218268e+000
1.533926e+002, 7.233855e+000
1.538747e+002, 7.356297e+000
1.543568e+002, 7.444376e+000
1.548389e+002, 7.461457e+000
1.553211e+002, 7.483922e+000
1.558032e+002, 7.526321e+000
1.562853e+002, 7.572995e+000
1.567674e+002, 7.602286e+000
1.572495e+002, 7.602550e+000
1.577316e+002, 7.582089e+000
1.582138e+002, 7.576334e+000
1.586959e+002, 7.591420e+000
1.591780e+002, 7.611648e+000
1.596601e+002, 7.633512e+000
1.601422e+002, 7.657776e+000
1.606243e+002, 7.687533e+000
1.611065e+002, 7.726138e+000
1.615886e+002, 7.770511e+000
1.620707e+002, 7.806265e+000
1.625528e+002, 7.823487e+000
1.630349e+002, 7.842070e+000
1.635170e+002, 7.884225e+000
1.639991e+002, 7.946074e+000
1.644813e+002, 7.983940e+000
1.649634e+002, 7.939658e+000
1.654455e+002, 7.860861e+000
1.659276e+002, 7.856830e+000
1.664097e+002, 7.981918e+000
1.668918e+002, 8.152572e+000
1.673740e+002, 8.281506e+000
1.678561e+002, 8.366368e+000
1.683382e+002, 8.419481e+000
1.688203e+002, 8.418607e+000
1.693024e+002, 8.396564e+000
1.697845e+002, 8.394925e+000
1.702667e+002, 8.438355e+000
1.707488e+002, 8.506281e+000
1.712309e+002, 8.545856e+000
1.717130e+002, 8.529239e+000
1.721951e+002, 8.537030e+000
1.726772e+002, 8.636140e+000
1.731594e+002, 8.769324e+000
1.736415e+002, 8.849917e+000
1.741236e+002, 8.811917e+000
1.746057e+002, 8.681421e+000
1.750878e+002, 8.620420e+000
1.755699e+002, 8.714418e+000
1.760521e+002, 8.785367e+000
1.765342e+002, 8.771316e+000
1.770163e+002, 8.701586e+000
1.774984e+002, 8.624558e+000
1.779805e+002, 8.566987e+000
1.784626e+002, 8.528447e+000
1.789448e+002, 8.581637e+000
1.794269e+002, 8.880561e+000
1.799090e+002, 9.120146e+000
1.803911e+002, 9.147757e+000
1.808732e+002, 9.026839e+000
1.813553e+002, 8.936605e+000
1.818375e+002, 9.042507e+000
1.823196e+002, 9.378345e+000
1.828017e+002, 9.571215e+000
1.832838e+002, 9.572251e+000
1.837659e+002, 9.510679e+000
1.842480e+002, 9.410293e+000
1.847301e+002, 9.291883e+000
1.852123e+002, 9.207534e+000
1.856944e+002, 9.210788e+000
1.861765e+002, 9.317013e+000
1.866586e+002, 9.409890e+000
1.871407e+002, 9.503601e+000
1.876228e+002, 9.574591e+000
1.881050e+002, 9.587320e+000
1.885871e+002, 9.541225e+000
1.890692e+002, 9.499081e+000
1.895513e+002, 9.534473e+000
1.900334e+002, 9.644359e+000
1.905155e+002, 9.715327e+000
1.909977e+002, 9.720725e+000
1.914798e+002, 9.687944e+000
1.919619e+002, 9.636348e+000
1.924440e+002, 9.562260e+000
1.929261e+002, 9.500068e+000
1.934082e+002, 9.501940e+000
1.938904e+002, 9.547970e+000
1.943725e+002, 9.578451e+000
1.948546e+002, 9.556974e+000
1.953367e+002, 9.510715e+000
1.958188e+002, 9.496768e+000
1.963009e+002, 9.531186e+000
1.967831e+002, 9.572971e+000
1.972652e+002, 9.588447e+000
1.977473e+002, 9.586465e+000
1.982294e+002, 9.588992e+000
1.987115e+002, 9.632599e+000
1.991936e+002, 9.696624e+000
1.996758e+002, 9.679778e+000
2.001579e+002, 9.504333e+000
2.006400e+002, 9.353684e+000
2.011221e+002, 9.347948e+000
2.016042e+002, 9.443857e+000
2.020863e+002, 9.532488e+000
2.025685e+002, 9.520655e+000
2.030506e+002, 9.417308e+000
2.035327e+002, 9.378833e+000
2.040148e+002, 9.454458e+000
2.044969e+002, 9.550818e+000
2.049790e+002, 9.657830e+000
2.054612e+002, 9.758761e+000
2.059433e+002, 9.821873e+000
2.064254e+002, 9.807995e+000
2.069075e+002, 9.710863e+000
2.073896e+002, 9.659007e+000
2.078717e+002, 9.661620e+000
2.083539e+002, 9.704909e+000
2.088360e+002, 9.818873e+000
2.093181e+002, 9.977077e+000
2.098002e+002, 1.011585e+001
2.102823e+002, 1.016949e+001
2.107644e+002, 1.011993e+001
2.112466e+002, 1.014539e+001
2.117287e+002, 1.033003e+001
2.122108e+002, 1.050389e+001
2.126929e+002, 1.059249e+001
2.131750e+002, 1.060594e+001
2.136571e+002, 1.059557e+001
2.141393e+002, 1.059979e+001
2.146214e+002, 1.060884e+001
2.151035e+002, 1.071803e+001
2.155856e+002, 1.104154e+001
2.160677e+002, 1.134183e+001
2.165498e+002, 1.148003e+001
2.170320e+002, 1.147176e+001
2.175141e+002, 1.143491e+001
2.179962e+002, 1.147194e+001
2.184783e+002, 1.159200e+001
2.189604e+002, 1.173747e+001
2.194425e+002, 1.197092e+001
2.199247e+002, 1.217749e+001
2.204068e+002, 1.226554e+001
2.208889e+002, 1.224291e+001
2.213710e+002, 1.220562e+001
2.218531e+002, 1.223537e+001
2.223352e+002, 1.233860e+001
2.228174e+002, 1.243118e+001
2.232995e+002, 1.249493e+001
2.237816e+002, 1.256140e+001
2.242637e+002, 1.266835e+001
2.247458e+002, 1.281450e+001
2.252279e+002, 1.294193e+001
2.257100e+002, 1.299534e+001
2.261922e+002, 1.298164e+001
2.266743e+002, 1.298053e+001
2.271564e+002, 1.296714e+001
2.276385e+002, 1.298668e+001
2.281206e+002, 1.312015e+001
2.286027e+002, 1.337582e+001
2.290849e+002, 1.358834e+001
2.295670e+002, 1.358867e+001
2.300491e+002, 1.345018e+001
2.305312e+002, 1.337952e+001
2.310133e+002, 1.349792e+001
2.314954e+002, 1.365022e+001
2.319776e+002, 1.362063e+001
2.324597e+002, 1.337652e+001
2.329418e+002, 1.318032e+001
2.334239e+002, 1.326189e+001
2.339060e+002, 1.349048e+001
2.343881e+002, 1.367630e+001
2.348703e+002, 1.377195e+001
2.353524e+002, 1.380454e+001
2.358345e+002, 1.379916e+001
2.363166e+002, 1.374563e+001
2.367987e+002, 1.369600e+001
2.372808e+002, 1.369166e+001
2.377630e+002, 1.370156e+001
2.382451e+002, 1.368443e+001
2.387272e+002, 1.360891e+001
2.392093e+002, 1.352816e+001
2.396914e+002, 1.353237e+001
2.401735e+002, 1.364135e+001
2.406557e+002, 1.377381e+001
2.411378e+002, 1.392380e+001
2.416199e+002, 1.407027e+001
2.421020e+002, 1.419069e+001
2.425841e+002, 1.427512e+001
2.430662e+002, 1.433644e+001
2.435484e+002, 1.438711e+001
2.440305e+002, 1.440861e+001
2.445126e+002, 1.447236e+001
2.449947e+002, 1.464135e+001
2.454768e+002, 1.483497e+001
2.459589e+002, 1.498825e+001
2.464410e+002, 1.507957e+001
2.469232e+002, 1.512326e+001
2.474053e+002, 1.513615e+001
2.478874e+002, 1.509487e+001
2.483695e+002, 1.507965e+001
2.488516e+002, 1.511882e+001
2.493337e+002, 1.517729e+001
2.498159e+002, 1.523784e+001
2.502980e+002, 1.529378e+001
2.507801e+002, 1.533150e+001
2.512622e+002, 1.532045e+001
2.517443e+002, 1.522428e+001
2.522264e+002, 1.516241e+001
2.527086e+002, 1.519746e+001
2.531907e+002, 1.523192e+001
2.536728e+002, 1.518359e+001
2.541549e+002, 1.503695e+001
2.546370e+002, 1.485275e+001
2.551191e+002, 1.472007e+001
2.556013e+002, 1.465046e+001
2.560834e+002, 1.461472e+001
2.565655e+002, 1.465955e+001
2.570476e+002, 1.469773e+001
2.575297e+002, 1.470137e+001
2.580118e+002, 1.465112e+001
2.584940e+002, 1.450614e+001
2.589761e+002, 1.418377e+001
2.594582e+002, 1.353610e+001
2.599403e+002, 1.309353e+001
2.604224e+002, 1.299916e+001
2.609045e+002, 1.295058e+001
2.613867e+002, 1.275420e+001
2.618688e+002, 1.239561e+001
2.623509e+002, 1.199433e+001
2.628330e+002, 1.168420e+001
2.633151e+002, 1.148770e+001
2.637972e+002, 1.130894e+001
2.642794e+002, 1.116316e+001
2.647615e+002, 1.101933e+001
2.652436e+002, 1.086328e+001
2.657257e+002, 1.069377e+001
2.662078e+002, 1.051532e+001
2.666899e+002, 1.033249e+001
2.671721e+002, 1.014659e+001
2.676542e+002, 9.948709e+000
2.681363e+002, 9.712507e+000
2.686184e+002, 9.490337e+000
2.691005e+002, 9.316961e+000
2.695826e+002, 9.184628e+000
2.700648e+002, 9.060308e+000
2.705469e+002, 8.917818e+000
2.710290e+002, 8.757544e+000
2.715111e+002, 8.590919e+000
2.719932e+002, 8.388210e+000
2.724753e+002, 8.209354e+000
2.729575e+002, 8.102592e+000
2.734396e+002, 8.044616e+000
2.739217e+002, 7.971141e+000
2.744038e+002, 7.836965e+000
2.748859e+002, 7.647417e+000
2.753680e+002, 7.470342e+000
2.758501e+002, 7.276473e+000
2.763322e+002, 7.121321e+000
2.768144e+002, 7.035632e+000
2.772965e+002, 7.002408e+000
2.777786e+002, 6.992018e+000
2.782607e+002, 6.995236e+000
2.787428e+002, 6.999316e+000
2.792249e+002, 6.943725e+000
2.797071e+002, 6.736312e+000
2.801892e+002, 6.588308e+000
2.806713e+002, 6.613498e+000
2.811534e+002, 6.726455e+000
2.816355e+002, 6.763288e+000
2.821176e+002, 6.643937e+000
2.825998e+002, 6.440494e+000
2.830819e+002, 6.342126e+000
2.835640e+002, 6.376482e+000
2.840461e+002, 6.440370e+000
2.845282e+002, 6.532837e+000
2.850103e+002, 6.637589e+000
2.854925e+002, 6.735150e+000
2.859746e+002, 6.820873e+000
2.864567e+002, 6.887583e+000
2.869388e+002, 6.917061e+000
2.874209e+002, 6.896562e+000
2.879030e+002, 6.885772e+000
2.883852e+002, 6.905954e+000
2.888673e+002, 6.935776e+000
2.893494e+002, 6.934305e+000
2.898315e+002, 6.889929e+000
2.903136e+002, 6.863157e+000
2.907957e+002, 6.943338e+000
2.912779e+002, 7.148056e+000
2.917600e+002, 7.320815e+000
2.922421e+002, 7.463246e+000
2.927242e+002, 7.557487e+000
2.932063e+002, 7.544930e+000
2.936884e+002, 7.422043e+000
2.941706e+002, 7.333884e+000
2.946527e+002, 7.443116e+000
2.951348e+002, 7.752155e+000
2.956169e+002, 7.955470e+000
2.960990e+002, 7.943979e+000
2.965811e+002, 7.894650e+000
2.970633e+002, 7.966979e+000
2.975454e+002, 8.155124e+000
2.980275e+002, 8.315466e+000
2.985096e+002, 8.333876e+000
2.989917e+002, 8.233051e+000
2.994738e+002, 8.190830e+000
2.999560e+002, 8.240307e+000
3.004381e+002, 8.316753e+000
3.009202e+002, 8.411093e+000
3.014023e+002, 8.510374e+000
3.018844e+002, 8.552908e+000
3.023665e+002, 8.486929e+000
3.028487e+002, 8.355386e+000
3.033308e+002, 8.293720e+000
3.038129e+002, 8.355830e+000
3.042950e+002, 8.393521e+000
3.047771e+002, 8.304599e+000
3.052592e+002, 8.138229e+000
3.057414e+002, 8.037284e+000
3.062235e+002, 8.079630e+000
3.067056e+002, 8.167128e+000
3.071877e+002, 8.094145e+000
3.076698e+002, 7.831211e+000
3.081519e+002, 7.573432e+000
3.086341e+002, 7.361202e+000
3.091162e+002, 7.199368e+000
3.095983e+002, 7.113753e+000
3.100804e+002, 7.121717e+000
3.105625e+002, 7.161812e+000
3.110446e+002, 7.163614e+000
3.115268e+002, 7.131149e+000
3.120089e+002, 7.050959e+000
3.124910e+002, 6.884980e+000
3.129731e+002, 6.686039e+000
3.134552e+002, 6.513062e+000
3.139373e+002, 6.375065e+000
3.144195e+002, 6.256401e+000
3.149016e+002, 6.153774e+000
3.153837e+002, 6.063283e+000
3.158658e+002, 5.940880e+000
3.163479e+002, 5.738517e+000
3.168300e+002, 5.534379e+000
3.173121e+002, 5.398355e+000
3.177943e+002, 5.328898e+000
3.182764e+002, 5.274237e+000
3.187585e+002, 5.193696e+000
3.192406e+002, 5.102817e+000
3.197227e+002, 5.064032e+000
3.202048e+002, 5.158948e+000
3.206870e+002, 5.223643e+000
3.211691e+002, 5.133519e+000
3.216512e+002, 4.929524e+000
3.221333e+002, 4.758413e+000
3.226154e+002, 4.697163e+000
3.230975e+002, 4.701166e+000
3.235797e+002, 4.647506e+000
3.240618e+002, 4.478735e+000
3.245439e+002, 4.381359e+000
3.250260e+002, 4.503496e+000
3.255081e+002, 4.730367e+000
3.259902e+002, 4.831735e+000
3.264724e+002, 4.721099e+000
3.269545e+002, 4.518484e+000
3.274366e+002, 4.404282e+000
3.279187e+002, 4.384319e+000
3.284008e+002, 4.388392e+000
3.288829e+002, 4.439206e+000
3.293651e+002, 4.491434e+000
3.298472e+002, 4.475578e+000
3.303293e+002, 4.379593e+000
3.308114e+002, 4.283592e+000
3.312935e+002, 4.277487e+000
3.317756e+002, 4.370068e+000
3.322578e+002, 4.415514e+000
3.327399e+002, 4.344333e+000
3.332220e+002, 4.273668e+000
3.337041e+002, 4.316030e+000
3.341862e+002, 4.458106e+000
3.346683e+002, 4.575247e+000
3.351505e+002, 4.576103e+000
3.356326e+002, 4.475058e+000
3.361147e+002, 4.396966e+000
3.365968e+002, 4.323631e+000
3.370789e+002, 4.287470e+000
3.375610e+002, 4.330831e+000
3.380432e+002, 4.422715e+000
3.385253e+002, 4.486685e+000
3.390074e+002, 4.483939e+000
3.394895e+002, 4.440036e+000
3.399716e+002, 4.419817e+000
3.404537e+002, 4.400171e+000
3.409359e+002, 4.438630e+000
3.414180e+002, 4.610569e+000
3.419001e+002, 4.823759e+000
3.423822e+002, 4.950102e+000
3.428643e+002, 4.952580e+000
3.433464e+002, 4.899392e+000
3.438286e+002, 4.882023e+000
3.443107e+002, 4.914797e+000
3.447928e+002, 4.947802e+000
3.452749e+002, 4.988862e+000
3.457570e+002, 5.024287e+000
3.462391e+002, 5.030429e+000
3.467213e+002, 5.012275e+000
3.472034e+002, 5.014376e+000
3.476855e+002, 5.086602e+000
3.481676e+002, 5.235354e+000
3.486497e+002, 5.299703e+000
3.491318e+002, 5.181624e+000
3.496140e+002, 5.092256e+000
3.500961e+002, 5.160334e+000
3.505782e+002, 5.329619e+000
3.510603e+002, 5.457590e+000
3.515424e+002, 5.456028e+000
3.520245e+002, 5.360322e+000
3.525067e+002, 5.322658e+000
3.529888e+002, 5.398423e+000
3.534709e+002, 5.463274e+000
3.539530e+002, 5.498861e+000
3.544351e+002, 5.517157e+000
3.549172e+002, 5.523641e+000
3.553994e+002, 5.521629e+000
3.558815e+002, 5.530901e+000
3.563636e+002, 5.588022e+000
3.568457e+002, 5.730820e+000
3.573278e+002, 5.845604e+000
3.578099e+002, 5.941205e+000
3.582920e+002, 6.005577e+000
3.587741e+002, 5.997068e+000
3.592563e+002, 5.933383e+000
3.597384e+002, 5.901686e+000
3.602205e+002, 5.997740e+000
3.607026e+002, 6.242265e+000
3.611847e+002, 6.413252e+000
3.616668e+002, 6.472734e+000
3.621490e+002, 6.503519e+000
3.626311e+002, 6.511092e+000
3.631132e+002, 6.511774e+000
3.635953e+002, 6.532649e+000
3.640774e+002, 6.592577e+000
3.645595e+002, 6.677995e+000
3.650417e+002, 6.728548e+000
3.655238e+002, 6.687653e+000
3.660059e+002, 6.690948e+000
3.664880e+002, 6.811517e+000
3.669701e+002, 6.952437e+000
3.674522e+002, 6.995183e+000
3.679344e+002, 6.908882e+000
3.684165e+002, 6.795049e+000
3.688986e+002, 6.827933e+000
3.693807e+002, 7.089237e+000
3.698628e+002, 7.274172e+000
3.703449e+002, 7.316924e+000
3.708271e+002, 7.333453e+000
3.713092e+002, 7.371063e+000
3.717913e+002, 7.438179e+000
3.722734e+002, 7.530375e+000
3.727555e+002, 7.644944e+000
3.732376e+002, 7.781431e+000
3.737198e+002, 7.939632e+000
3.742019e+002, 8.196565e+000
3.746840e+002, 8.374355e+000
3.751661e+002, 8.339338e+000
3.756482e+002, 8.209201e+000
3.761303e+002, 8.176944e+000
3.766125e+002, 8.355918e+000
3.770946e+002, 8.638036e+000
3.775767e+002, 8.764019e+000
3.780588e+002, 8.658398e+000
3.785409e+002, 8.610955e+000
3.790230e+002, 8.788419e+000
3.795052e+002, 9.001753e+000
3.799873e+002, 9.092385e+000
3.804694e+002, 9.029920e+000
3.809515e+002, 8.930025e+000
3.814336e+002, 8.913879e+000
3.819157e+002, 8.979356e+000
3.823979e+002, 9.021066e+000
3.828800e+002, 9.010995e+000
3.833621e+002, 8.990725e+000
3.838442e+002, 9.004592e+000
3.843263e+002, 9.037343e+000
3.848084e+002, 9.033596e+000
3.852906e+002, 8.938947e+000
3.857727e+002, 8.791482e+000
3.862548e+002, 8.677435e+000
3.867369e+002, 8.603347e+000
3.872190e+002, 8.540574e+000
3.877011e+002, 8.480824e+000
3.881833e+002, 8.419966e+000
3.886654e+002, 8.348953e+000
3.891475e+002, 8.256865e+000
3.896296e+002, 8.171247e+000
3.901117e+002, 8.135808e+000
3.905938e+002, 8.139993e+000
3.910760e+002, 8.093601e+000
3.915581e+002, 7.937757e+000
3.920402e+002, 7.755516e+000
3.925223e+002, 7.672213e+000
3.930044e+002, 7.694753e+000
3.934865e+002, 7.702913e+000
3.939687e+002, 7.640961e+000
3.944508e+002, 7.538531e+000
3.949329e+002, 7.441504e+000
3.954150e+002, 7.355841e+000
3.958971e+002, 7.271671e+000
3.963792e+002, 7.176266e+000
3.968614e+002, 7.072098e+000
3.973435e+002, 6.983629e+000
3.978256e+002, 6.897927e+000
3.983077e+002, 6.839468e+000
3.987898e+002, 6.830900e+000
3.992719e+002, 6.864707e+000
3.997540e+002, 6.924420e+000
4.002361e+002, 7.015138e+000
4.007183e+002, 7.104993e+000
4.012004e+002, 7.089361e+000
4.016825e+002, 6.894759e+000
4.021646e+002, 6.741133e+000
4.026467e+002, 6.678580e+000
4.031288e+002, 6.670995e+000
4.036110e+002, 6.680196e+000
4.040931e+002, 6.696859e+000
4.045752e+002, 6.733283e+000
4.050573e+002, 6.812821e+000
4.055394e+002, 6.957523e+000
4.060215e+002, 7.024322e+000
4.065037e+002, 6.957110e+000
4.069858e+002, 6.876058e+000
4.074679e+002, 6.828670e+000
4.079500e+002, 6.816262e+000
4.084321e+002, 6.826026e+000
4.089142e+002, 6.850060e+000
4.093964e+002, 6.890108e+000
4.098785e+002, 6.956471e+000
4.103606e+002, 7.132845e+000
4.108427e+002, 7.222329e+000
4.113248e+002, 7.137946e+000
4.118069e+002, 7.000035e+000
4.122891e+002, 6.916726e+000
4.127712e+002, 6.918236e+000
4.132533e+002, 6.972924e+000
4.137354e+002, 7.055038e+000
4.142175e+002, 7.191164e+000
4.146996e+002, 7.248031e+000
4.151818e+002, 7.164213e+000
4.156639e+002, 7.055534e+000
4.161460e+002, 6.937797e+000
4.166281e+002, 6.829865e+000
4.171102e+002, 6.763124e+000
4.175923e+002, 6.757059e+000
4.180745e+002, 6.806198e+000
4.185566e+002, 6.906271e+000
4.190387e+002, 7.103383e+000
4.195208e+002, 7.246228e+000
4.200029e+002, 7.290274e+000
4.204850e+002, 7.261933e+000
4.209672e+002, 7.153032e+000
4.214493e+002, 6.958271e+000
4.219314e+002, 6.779512e+000
4.224135e+002, 6.736596e+000
4.228956e+002, 6.822935e+000
4.233777e+002, 6.895167e+000
4.238599e+002, 6.910190e+000
4.243420e+002, 6.938843e+000
4.248241e+002, 7.068628e+000
4.253062e+002, 7.264498e+000
4.257883e+002, 7.397532e+000
4.262704e+002, 7.378038e+000
4.267526e+002, 7.281049e+000
4.272347e+002, 7.207251e+000
4.277168e+002, 7.156634e+000
4.281989e+002, 7.133421e+000
4.286810e+002, 7.149861e+000
4.291631e+002, 7.192050e+000
4.296453e+002, 7.225743e+000
4.301274e+002, 7.248347e+000
4.306095e+002, 7.268156e+000
4.310916e+002, 7.282301e+000
4.315737e+002, 7.297404e+000
4.320558e+002, 7.331380e+000
4.325380e+002, 7.390700e+000
4.330201e+002, 7.453920e+000
4.335022e+002, 7.499858e+000
4.339843e+002, 7.527602e+000
4.344664e+002, 7.528867e+000
4.349485e+002, 7.483619e+000
4.354307e+002, 7.428484e+000
4.359128e+002, 7.385001e+000
4.363949e+002, 7.352635e+000
4.368770e+002, 7.318478e+000
4.373591e+002, 7.270844e+000
4.378412e+002, 7.224111e+000
4.383234e+002, 7.234845e+000
4.388055e+002, 7.344146e+000
4.392876e+002, 7.459988e+000
4.397697e+002, 7.604027e+000
4.402518e+002, 7.736176e+000
4.407339e+002, 7.833951e+000
4.412160e+002, 7.884688e+000
4.416982e+002, 7.857296e+000
4.421803e+002, 7.692093e+000
4.426624e+002, 7.349375e+000
4.431445e+002, 7.157416e+000
4.436266e+002, 7.266669e+000
4.441087e+002, 7.373344e+000
4.445909e+002, 7.379254e+000
4.450730e+002, 7.321152e+000
4.455551e+002, 7.266581e+000
4.460372e+002, 7.248988e+000
4.465193e+002, 7.259893e+000
4.470014e+002, 7.290095e+000
4.474836e+002, 7.360206e+000
4.479657e+002, 7.387562e+000
4.484478e+002, 7.336204e+000
4.489299e+002, 7.251855e+000
4.494120e+002, 7.142430e+000
4.498941e+002, 7.017478e+000
4.503763e+002, 6.916534e+000
4.508584e+002, 6.897126e+000
4.513405e+002, 6.932188e+000
4.518226e+002, 6.893914e+000
4.523047e+002, 6.745545e+000
4.527868e+002, 6.610789e+000
4.532690e+002, 6.586671e+000
4.537511e+002, 6.616651e+000
4.542332e+002, 6.625040e+000
4.547153e+002, 6.597304e+000
4.551974e+002, 6.542353e+000
4.556795e+002, 6.441819e+000
4.561617e+002, 6.313073e+000
4.566438e+002, 6.239880e+000
4.571259e+002, 6.263724e+000
4.576080e+002, 6.312766e+000
4.580901e+002, 6.276297e+000
4.585722e+002, 6.153817e+000
4.590544e+002, 6.082063e+000
4.595365e+002, 6.148449e+000
4.600186e+002, 6.230169e+000
4.605007e+002, 6.194708e+000
4.609828e+002, 6.060022e+000
4.614649e+002, 5.958487e+000
4.619471e+002, 5.974411e+000
4.624292e+002, 6.081941e+000
4.629113e+002, 6.175284e+000
4.633934e+002, 6.318756e+000
4.638755e+002, 6.366153e+000
4.643576e+002, 6.191213e+000
4.648398e+002, 5.971843e+000
4.653219e+002, 5.913114e+000
4.658040e+002, 6.041835e+000
4.662861e+002, 6.213372e+000
4.667682e+002, 6.271164e+000
4.672503e+002, 6.205570e+000
4.677325e+002, 6.120697e+000
4.682146e+002, 5.952043e+000
4.686967e+002, 5.833765e+000
4.691788e+002, 5.817892e+000
4.696609e+002, 5.871817e+000
4.701430e+002, 5.961360e+000
4.706252e+002, 6.074472e+000
4.711073e+002, 6.172564e+000
4.715894e+002, 6.172606e+000
4.720715e+002, 6.045421e+000
4.725536e+002, 5.948504e+000
4.730357e+002, 5.907554e+000
4.735179e+002, 5.902735e+000
4.740000e+002, 5.940895e+000
4.744821e+002, 6.010204e+000
4.749642e+002, 6.070002e+000
4.754463e+002, 6.083388e+000
4.759284e+002, 6.075294e+000
4.764106e+002, 6.105761e+000
4.768927e+002, 6.181341e+000
4.773748e+002, 6.253570e+000
4.778569e+002, 6.299876e+000
4.783390e+002, 6.328902e+000
4.788211e+002, 6.359891e+000
4.793033e+002, 6.401285e+000
4.797854e+002, 6.416093e+000
4.802675e+002, 6.370185e+000
4.807496e+002, 6.288936e+000
4.812317e+002, 6.213235e+000
4.817138e+002, 6.149656e+000
4.821959e+002, 6.104792e+000
4.826780e+002, 6.096195e+000
4.831602e+002, 6.120959e+000
4.836423e+002, 6.089508e+000
4.841244e+002, 5.943518e+000
4.846065e+002, 5.808363e+000
4.850886e+002, 5.739018e+000
4.855707e+002, 5.713884e+000
4.860529e+002, 5.696609e+000
4.865350e+002, 5.673294e+000
4.870171e+002, 5.645576e+000
4.874992e+002, 5.618851e+000
4.879813e+002, 5.606688e+000
4.884634e+002, 5.555377e+000
4.889456e+002, 5.446851e+000
4.894277e+002, 5.323709e+000
4.899098e+002, 5.189403e+000
4.903919e+002, 5.058162e+000
4.908740e+002, 4.959407e+000
4.913561e+002, 4.916245e+000
4.918383e+002, 4.902888e+000
4.923204e+002, 4.847476e+000
4.928025e+002, 4.738990e+000
4.932846e+002, 4.619344e+000
4.937667e+002, 4.469202e+000
4.942488e+002, 4.331945e+000
4.947310e+002, 4.239440e+000
4.952131e+002, 4.192101e+000
4.956952e+002, 4.165597e+000
4.961773e+002, 4.160120e+000
4.966594e+002, 4.161781e+000
4.971415e+002, 4.124490e+000
4.976237e+002, 4.037332e+000
4.981058e+002, 3.959766e+000
4.985879e+002, 3.941919e+000
4.990700e+002, 3.946888e+000
4.995521e+002, 3.899727e+000
5.000342e+002, 3.771895e+000
5.005164e+002, 3.652456e+000
5.009985e+002, 3.591394e+000
5.014806e+002, 3.566308e+000
5.019627e+002, 3.536883e+000
5.024448e+002, 3.494991e+000
5.029269e+002, 3.454091e+000
5.034091e+002, 3.428805e+000
5.038912e+002, 3.419684e+000
5.043733e+002, 3.398999e+000
5.048554e+002, 3.357681e+000
5.053375e+002, 3.316373e+000
5.058196e+002, 3.277028e+000
5.063018e+002, 3.243967e+000
5.067839e+002, 3.225611e+000
5.072660e+002, 3.224442e+000
5.077481e+002, 3.231246e+000
5.082302e+002, 3.232646e+000
5.087123e+002, 3.228680e+000
5.091945e+002, 3.219125e+000
5.096766e+002, 3.213742e+000
5.101587e+002, 3.192895e+000
5.106408e+002, 3.149332e+000
5.111229e+002, 3.084426e+000
5.116050e+002, 2.988061e+000
5.120872e+002, 2.840775e+000
5.125693e+002, 2.707204e+000
5.130514e+002, 2.737352e+000
5.135335e+002, 2.963018e+000
5.140156e+002, 3.105646e+000
5.144977e+002, 3.061860e+000
5.149799e+002, 2.956330e+000
5.154620e+002, 2.887737e+000
5.159441e+002, 2.853262e+000
5.164262e+002, 2.824600e+000
5.169083e+002, 2.789754e+000
5.173904e+002, 2.754169e+000
5.178726e+002, 2.727794e+000
5.183547e+002, 2.709621e+000
5.188368e+002, 2.682481e+000
5.193189e+002, 2.631887e+000
5.198010e+002, 2.575002e+000
5.202831e+002, 2.556714e+000
5.207653e+002, 2.592129e+000
5.212474e+002, 2.613111e+000
5.217295e+002, 2.601987e+000
5.222116e+002, 2.576294e+000
5.226937e+002, 2.540388e+000
5.231758e+002, 2.501829e+000
5.236580e+002, 2.484276e+000
5.241401e+002, 2.507963e+000
5.246222e+002, 2.562551e+000
5.251043e+002, 2.595206e+000
5.255864e+002, 2.597554e+000
5.260685e+002, 2.587404e+000
5.265507e+002, 2.537056e+000
5.270328e+002, 2.495635e+000
5.275149e+002, 2.519707e+000
5.279970e+002, 2.604383e+000
5.284791e+002, 2.682598e+000
5.289612e+002, 2.695286e+000
5.294434e+002, 2.650374e+000
5.299255e+002, 2.589819e+000
5.304076e+002, 2.499778e+000
5.308897e+002, 2.426839e+000
5.313718e+002, 2.392785e+000
5.318539e+002, 2.385702e+000
5.323361e+002, 2.401923e+000
5.328182e+002, 2.445079e+000
5.333003e+002, 2.482582e+000
5.337824e+002, 2.490739e+000
5.342645e+002, 2.478651e+000
5.347466e+002, 2.460579e+000
5.352288e+002, 2.436984e+000
5.357109e+002, 2.425998e+000
5.361930e+002, 2.445042e+000
5.366751e+002, 2.489244e+000
5.371572e+002, 2.524883e+000
5.376393e+002, 2.557464e+000
5.381215e+002, 2.575897e+000
5.386036e+002, 2.577006e+000
5.390857e+002, 2.562354e+000
5.395678e+002, 2.521856e+000
5.400499e+002, 2.459095e+000
5.405320e+002, 2.409333e+000
5.410142e+002, 2.412406e+000
5.414963e+002, 2.470010e+000
5.419784e+002, 2.522428e+000
5.424604e+002, 2.577683e+000
5.429426e+002, 2.616584e+000
5.434247e+002, 2.612008e+000
5.439068e+002, 2.600227e+000
5.443889e+002, 2.630272e+000
5.448710e+002, 2.712950e+000
5.453531e+002, 2.799852e+000
5.458353e+002, 2.829616e+000
5.463174e+002, 2.808377e+000
5.467995e+002, 2.809967e+000
5.472816e+002, 2.847393e+000
5.477637e+002, 2.888242e+000
5.482458e+002, 2.920370e+000
5.487280e+002, 2.940789e+000
5.492101e+002, 2.934959e+000
5.496922e+002, 2.872531e+000
5.501743e+002, 2.843524e+000
5.506564e+002, 2.951247e+000
5.511385e+002, 3.124795e+000
5.516207e+002, 3.199102e+000
5.521028e+002, 3.137616e+000
5.525849e+002, 3.061291e+000
5.530670e+002, 3.084922e+000
5.535491e+002, 3.209347e+000
5.540313e+002, 3.315990e+000
5.545134e+002, 3.428586e+000
5.549955e+002, 3.498494e+000
5.554776e+002, 3.474586e+000
5.559597e+002, 3.418202e+000
5.564418e+002, 3.414321e+000
5.569240e+002, 3.479654e+000
5.574061e+002, 3.549358e+000
5.578882e+002, 3.535248e+000
5.583703e+002, 3.431590e+000
5.588524e+002, 3.410948e+000
5.593345e+002, 3.539796e+000
5.598167e+002, 3.658277e+000
5.602988e+002, 3.707312e+000
5.607809e+002, 3.719692e+000
5.612630e+002, 3.739033e+000
5.617451e+002, 3.778071e+000
5.622272e+002, 3.802377e+000
5.627094e+002, 3.770121e+000
5.631915e+002, 3.698124e+000
5.636736e+002, 3.646068e+000
5.641557e+002, 3.624816e+000
5.646378e+002, 3.601247e+000
5.651199e+002, 3.546589e+000
5.656021e+002, 3.470029e+000
5.660842e+002, 3.412999e+000
5.665663e+002, 3.379607e+000
5.670484e+002, 3.359581e+000
5.675305e+002, 3.339249e+000
5.680126e+002, 3.335222e+000
5.684948e+002, 3.390081e+000
5.689769e+002, 3.499695e+000
5.694590e+002, 3.587762e+000
5.699411e+002, 3.576689e+000
5.704232e+002, 3.473042e+000
5.709053e+002, 3.403704e+000
5.713875e+002, 3.399679e+000
5.718696e+002, 3.389223e+000
5.723517e+002, 3.360387e+000
5.728338e+002, 3.321020e+000
5.733159e+002, 3.279892e+000
5.737980e+002, 3.237589e+000
5.742802e+002, 3.186749e+000
5.747623e+002, 3.100918e+000
5.752444e+002, 2.998574e+000
5.757265e+002, 2.972492e+000
5.762086e+002, 3.046499e+000
5.766907e+002, 3.094566e+000
5.771729e+002, 3.027785e+000
5.776550e+002, 2.916750e+000
5.781371e+002, 2.881803e+000
5.786192e+002, 2.943469e+000
5.791013e+002, 2.997030e+000
5.795834e+002, 3.004341e+000
5.800656e+002, 2.982154e+000
5.805477e+002, 2.937112e+000
5.810298e+002, 2.876731e+000
5.815119e+002, 2.827690e+000
5.819940e+002, 2.804868e+000
5.824761e+002, 2.809951e+000
5.829583e+002, 2.851417e+000
5.834404e+002, 3.013532e+000
5.839225e+002, 3.080371e+000
5.844046e+002, 2.965218e+000
5.848867e+002, 2.829535e+000
5.853688e+002, 2.774272e+000
5.858510e+002, 2.795690e+000
5.863331e+002, 2.850960e+000
5.868152e+002, 2.929381e+000
5.872973e+002, 2.994531e+000
5.877794e+002, 2.935411e+000
5.882615e+002, 2.724463e+000
5.887437e+002, 2.577724e+000
5.892258e+002, 2.556761e+000
5.897079e+002, 2.608846e+000
5.901900e+002, 2.722137e+000
5.906721e+002, 2.878084e+000
5.911542e+002, 2.949246e+000
5.916364e+002, 2.817317e+000
5.921185e+002, 2.652617e+000
5.926006e+002, 2.597096e+000
5.930827e+002, 2.629114e+000
5.935648e+002, 2.689414e+000
5.940469e+002, 2.760018e+000
5.945291e+002, 2.815398e+000
5.950112e+002, 2.813266e+000
5.954933e+002, 2.729987e+000
5.959754e+002, 2.697878e+000
5.964575e+002, 2.776515e+000
5.969396e+002, 2.832375e+000
5.974218e+002, 2.795094e+000
5.979039e+002, 2.714288e+000
5.983860e+002, 2.669844e+000
5.988681e+002, 2.687541e+000
5.993502e+002, 2.713072e+000
5.998323e+002, 2.665149e+000
6.003145e+002, 2.547885e+000
6.007966e+002, 2.484068e+000
6.012787e+002, 2.490838e+000
6.017608e+002, 2.526038e+000
6.022429e+002, 2.587405e+000
6.027250e+002, 2.655730e+000
6.032072e+002, 2.697781e+000
6.036893e+002, 2.701786e+000
6.041714e+002, 2.703518e+000
6.046535e+002, 2.715164e+000
6.051356e+002, 2.738322e+000
6.056177e+002, 2.792075e+000
6.060999e+002, 2.871205e+000
6.065820e+002, 2.914376e+000
6.070641e+002, 2.870767e+000
6.075462e+002, 2.762750e+000
6.080283e+002, 2.689981e+000
6.085104e+002, 2.632964e+000
6.089926e+002, 2.645560e+000
6.094747e+002, 2.827715e+000
6.099568e+002, 2.998163e+000
6.104389e+002, 3.006718e+000
6.109210e+002, 2.880543e+000
6.114031e+002, 2.751624e+000
6.118853e+002, 2.698161e+000
6.123674e+002, 2.701214e+000
6.128495e+002, 2.731580e+000
6.133316e+002, 2.793037e+000
6.138137e+002, 2.835629e+000
6.142958e+002, 2.829405e+000
6.147780e+002, 2.824273e+000
6.152601e+002, 2.887944e+000
6.157422e+002, 3.005865e+000
6.162243e+002, 3.085861e+000
6.167064e+002, 3.096173e+000
6.171885e+002, 3.076152e+000
6.176707e+002, 3.029361e+000
6.181528e+002, 2.974274e+000
6.186349e+002, 2.950945e+000
6.191170e+002, 2.970418e+000
6.195991e+002, 3.003385e+000
6.200812e+002, 3.014277e+000
6.205634e+002, 3.000763e+000
6.210455e+002, 3.001721e+000
6.215276e+002, 3.049533e+000
6.220097e+002, 3.071225e+000
6.224918e+002, 3.039017e+000
6.229739e+002, 2.981108e+000
6.234561e+002, 2.907932e+000
6.239382e+002, 2.828566e+000
6.244203e+002, 2.794068e+000
6.249023e+002, 2.908610e+000
6.253845e+002, 3.091194e+000
6.258666e+002, 3.099576e+000
6.263487e+002, 2.914789e+000
6.268308e+002, 2.723380e+000
6.273129e+002, 2.602494e+000
6.277950e+002, 2.530780e+000
6.282772e+002, 2.465279e+000
6.287593e+002, 2.396031e+000
6.292414e+002, 2.372336e+000
6.297235e+002, 2.458778e+000
6.302056e+002, 2.541794e+000
6.306877e+002, 2.537710e+000
6.311699e+002, 2.466075e+000
6.316520e+002, 2.378099e+000
6.321341e+002, 2.297501e+000
6.326162e+002, 2.233203e+000
6.330983e+002, 2.206913e+000
6.335804e+002, 2.229183e+000
6.340626e+002, 2.234501e+000
6.345447e+002, 2.213688e+000
6.350268e+002, 2.186119e+000
6.355089e+002, 2.136747e+000
6.359910e+002, 2.094341e+000
6.364731e+002, 2.116430e+000
6.369553e+002, 2.234302e+000
6.374374e+002, 2.335336e+000
6.379195e+002, 2.335345e+000
6.384016e+002, 2.264325e+000
6.388837e+002, 2.160135e+000
6.393658e+002, 2.030526e+000
6.398480e+002, 1.922796e+000
6.403301e+002, 1.865398e+000
6.408122e+002, 1.855158e+000
6.412943e+002, 1.882623e+000
6.417764e+002, 2.010657e+000
6.422585e+002, 2.082453e+000
6.427407e+002, 2.054378e+000
6.432228e+002, 2.009094e+000
6.437049e+002, 1.999437e+000
6.441870e+002, 2.017106e+000
6.446691e+002, 2.026439e+000
6.451512e+002, 2.007316e+000
6.456334e+002, 1.978270e+000
6.461155e+002, 1.974002e+000
6.465976e+002, 1.994187e+000
6.470797e+002, 1.999226e+000
6.475618e+002, 1.985751e+000
6.480439e+002, 1.949884e+000
6.485261e+002, 1.850862e+000
6.490082e+002, 1.726681e+000
6.494903e+002, 1.705274e+000
6.499724e+002, 1.887355e+000
6.504545e+002, 2.032074e+000
6.509366e+002, 2.016411e+000
6.514188e+002, 1.927930e+000
6.519009e+002, 1.854681e+000
6.523830e+002, 1.815427e+000
6.528651e+002, 1.813003e+000
6.533472e+002, 1.854254e+000
6.538293e+002, 1.923608e+000
6.543115e+002, 1.966100e+000
6.547936e+002, 1.986136e+000
6.552757e+002, 1.968018e+000
6.557578e+002, 1.833479e+000
6.562399e+002, 1.726084e+000
6.567220e+002, 1.761726e+000
6.572042e+002, 1.894127e+000
6.576863e+002, 1.971981e+000
6.581684e+002, 1.909567e+000
6.586505e+002, 1.818626e+000
6.591326e+002, 1.807562e+000
6.596147e+002, 1.852239e+000
6.600969e+002, 1.893429e+000
6.605790e+002, 1.919213e+000
6.610611e+002, 1.911115e+000
6.615432e+002, 1.841095e+000
6.620253e+002, 1.719636e+000
6.625074e+002, 1.661175e+000
6.629896e+002, 1.732927e+000
6.634717e+002, 1.779477e+000
6.639538e+002, 1.761372e+000
6.644359e+002, 1.733519e+000
6.649180e+002, 1.744222e+000
6.654001e+002, 1.788526e+000
6.658823e+002, 1.829621e+000
6.663644e+002, 1.849076e+000
6.668465e+002, 1.845363e+000
6.673286e+002, 1.801267e+000
6.678107e+002, 1.718811e+000
6.682928e+002, 1.672453e+000
6.687750e+002, 1.687123e+000
6.692571e+002, 1.722046e+000
6.697392e+002, 1.742537e+000
6.702213e+002, 1.749597e+000
6.707034e+002, 1.756541e+000
6.711855e+002, 1.770038e+000
6.716677e+002, 1.775467e+000
6.721498e+002, 1.768415e+000
6.726319e+002, 1.750760e+000
6.731140e+002, 1.716695e+000
6.735961e+002, 1.671356e+000
6.740782e+002, 1.635601e+000
6.745604e+002, 1.624924e+000
6.750425e+002, 1.636020e+000
6.755246e+002, 1.661282e+000
6.760067e+002, 1.705205e+000
6.764888e+002, 1.744695e+000
6.769709e+002, 1.787945e+000
6.774531e+002, 1.810469e+000
6.779352e+002, 1.782213e+000
6.784173e+002, 1.717081e+000
6.788994e+002, 1.663969e+000
6.793815e+002, 1.622625e+000
6.798636e+002, 1.610434e+000
6.803458e+002, 1.665246e+000
6.808279e+002, 1.745242e+000
6.813100e+002, 1.784037e+000
6.817921e+002, 1.771331e+000
6.822742e+002, 1.734603e+000
6.827563e+002, 1.691830e+000
6.832385e+002, 1.649007e+000
6.837206e+002, 1.639477e+000
6.842027e+002, 1.689764e+000
6.846848e+002, 1.715264e+000
6.851669e+002, 1.681498e+000
6.856490e+002, 1.640206e+000
6.861312e+002, 1.609474e+000
6.866133e+002, 1.595526e+000
6.870954e+002, 1.615457e+000
6.875775e+002, 1.702585e+000
6.880596e+002, 1.777610e+000
6.885417e+002, 1.745844e+000
6.890239e+002, 1.652033e+000
6.895060e+002, 1.604057e+000
6.899881e+002, 1.620595e+000
6.904702e+002, 1.648888e+000
6.909523e+002, 1.645207e+000
6.914344e+002, 1.620535e+000
6.919166e+002, 1.631513e+000
6.923987e+002, 1.711961e+000
6.928808e+002, 1.774550e+000
6.933629e+002, 1.833907e+000
6.938450e+002, 1.858407e+000
6.943271e+002, 1.801244e+000
6.948093e+002, 1.694806e+000
6.952914e+002, 1.619032e+000
6.957735e+002, 1.611115e+000
6.962556e+002, 1.638585e+000
6.967377e+002, 1.683343e+000
6.972198e+002, 1.734532e+000
6.977020e+002, 1.740627e+000
6.981841e+002, 1.689388e+000
6.986662e+002, 1.663860e+000
6.991483e+002, 1.737113e+000
6.996304e+002, 1.871927e+000
7.001125e+002, 1.925118e+000
7.005947e+002, 1.833311e+000
7.010768e+002, 1.754559e+000
7.015589e+002, 1.661858e+000
7.020410e+002, 1.609463e+000
7.025231e+002, 1.664865e+000
7.030052e+002, 1.781340e+000
7.034874e+002, 1.857525e+000
7.039695e+002, 1.847374e+000
7.044516e+002, 1.806117e+000
7.049337e+002, 1.797437e+000
7.054158e+002, 1.815955e+000
7.058979e+002, 1.842312e+000
7.063801e+002, 1.879051e+000
7.068622e+002, 1.891085e+000
7.073442e+002, 1.849985e+000
7.078264e+002, 1.776183e+000
7.083085e+002, 1.717930e+000
7.087906e+002, 1.664629e+000
7.092727e+002, 1.652430e+000
7.097548e+002, 1.736484e+000
7.102369e+002, 1.810824e+000
7.107191e+002, 1.792008e+000
7.112012e+002, 1.724130e+000
7.116833e+002, 1.696992e+000
7.121654e+002, 1.742175e+000
7.126475e+002, 1.801337e+000
7.131296e+002, 1.802709e+000
7.136118e+002, 1.757392e+000
7.140939e+002, 1.726176e+000
7.145760e+002, 1.711778e+000
7.150581e+002, 1.705901e+000
7.155402e+002, 1.705744e+000
7.160223e+002, 1.711353e+000
7.165045e+002, 1.726613e+000
7.169866e+002, 1.755624e+000
7.174687e+002, 1.769113e+000
7.179508e+002, 1.737787e+000
7.184329e+002, 1.719020e+000
7.189150e+002, 1.759264e+000
7.193972e+002, 1.822590e+000
7.198793e+002, 1.847919e+000
7.203614e+002, 1.824192e+000
7.208435e+002, 1.806023e+000
7.213256e+002, 1.863973e+000
7.218077e+002, 1.967017e+000
7.222899e+002, 1.979154e+000
7.227720e+002, 1.887363e+000
7.232541e+002, 1.811415e+000
7.237362e+002, 1.784697e+000
7.242183e+002, 1.795999e+000
7.247004e+002, 1.848685e+000
7.251826e+002, 1.941695e+000
7.256647e+002, 1.997051e+000
7.261468e+002, 1.979970e+000
7.266289e+002, 1.961706e+000
7.271110e+002, 1.976331e+000
7.275931e+002, 1.998386e+000
7.280753e+002, 1.993528e+000
7.285574e+002, 1.962149e+000
7.290395e+002, 1.932854e+000
7.295216e+002, 1.924381e+000
7.300037e+002, 1.935549e+000
7.304858e+002, 1.975283e+000
7.309680e+002, 2.045583e+000
7.314501e+002, 2.075731e+000
7.319322e+002, 2.032506e+000
7.324143e+002, 1.993681e+000
7.328964e+002, 2.042116e+000
7.333785e+002, 2.152047e+000
7.338607e+002, 2.186734e+000
7.343428e+002, 2.074396e+000
7.348249e+002, 1.998198e+000
7.353070e+002, 2.035917e+000
7.357891e+002, 2.090889e+000
7.362712e+002, 2.072744e+000
7.367534e+002, 2.000509e+000
7.372355e+002, 1.945165e+000
7.377176e+002, 1.940781e+000
7.381997e+002, 1.975304e+000
7.386818e+002, 2.057852e+000
7.391639e+002, 2.176662e+000
7.396461e+002, 2.200002e+000
7.401282e+002, 2.092586e+000
7.406103e+002, 2.005602e+000
7.410924e+002, 2.035755e+000
7.415745e+002, 2.130851e+000
7.420566e+002, 2.170041e+000
7.425388e+002, 2.126882e+000
7.430209e+002, 2.123866e+000
7.435030e+002, 2.214905e+000
7.439851e+002, 2.302549e+000
7.444672e+002, 2.336365e+000
7.449493e+002, 2.332503e+000
7.454315e+002, 2.309167e+000
7.459136e+002, 2.276078e+000
7.463957e+002, 2.261900e+000
7.468778e+002, 2.314674e+000
7.473599e+002, 2.404577e+000
7.478420e+002, 2.435687e+000
7.483242e+002, 2.406823e+000
7.488063e+002, 2.357190e+000
7.492884e+002, 2.281503e+000
7.497705e+002, 2.236496e+000
7.502526e+002, 2.306995e+000
7.507347e+002, 2.502630e+000
7.512169e+002, 2.622430e+000
7.516990e+002, 2.628505e+000
7.521811e+002, 2.614700e+000
7.526632e+002, 2.578308e+000
7.531453e+002, 2.547551e+000
7.536274e+002, 2.546412e+000
7.541096e+002, 2.575253e+000
7.545917e+002, 2.623124e+000
7.550738e+002, 2.689475e+000
7.555559e+002, 2.760569e+000
7.560380e+002, 2.820694e+000
7.565201e+002, 2.869420e+000
7.570023e+002, 2.902516e+000
7.574844e+002, 2.919042e+000
7.579665e+002, 2.924583e+000
7.584486e+002, 2.919970e+000
7.589307e+002, 2.910231e+000
7.594128e+002, 2.910764e+000
7.598950e+002, 2.901452e+000
7.603771e+002, 2.941083e+000
7.608592e+002, 3.062066e+000
7.613413e+002, 3.194048e+000
7.618234e+002, 3.316100e+000
7.623055e+002, 3.422540e+000
7.627877e+002, 3.508404e+000
7.632698e+002, 3.571792e+000
7.637519e+002, 3.619573e+000
7.642340e+002, 3.649154e+000
7.647161e+002, 3.670331e+000
7.651982e+002, 3.676075e+000
7.656804e+002, 3.680956e+000
7.661625e+002, 3.780575e+000
7.666446e+002, 4.019834e+000
7.671267e+002, 4.264041e+000
7.676088e+002, 4.323890e+000
7.680909e+002, 4.189910e+000
7.685731e+002, 4.124425e+000
7.690552e+002, 4.135079e+000
7.695373e+002, 4.203544e+000
7.700194e+002, 4.379651e+000
7.705015e+002, 4.566985e+000
7.709836e+002, 4.682701e+000
7.714658e+002, 4.736076e+000
7.719479e+002, 4.797205e+000
7.724300e+002, 4.898280e+000
7.729121e+002, 5.003580e+000
7.733942e+002, 5.087674e+000
7.738763e+002, 5.159778e+000
7.743585e+002, 5.235581e+000
7.748406e+002, 5.315779e+000
7.753227e+002, 5.387523e+000
7.758048e+002, 5.441302e+000
7.762869e+002, 5.488289e+000
7.767690e+002, 5.553458e+000
7.772512e+002, 5.637410e+000
7.777333e+002, 5.740605e+000
7.782154e+002, 5.883732e+000
7.786975e+002, 6.007545e+000
7.791796e+002, 6.050031e+000
7.796617e+002, 6.065668e+000
7.801439e+002, 6.153113e+000
7.806260e+002, 6.335220e+000
7.811081e+002, 6.491791e+000
7.815902e+002, 6.558362e+000
7.820723e+002, 6.625827e+000
7.825544e+002, 6.806418e+000
7.830366e+002, 7.009583e+000
7.835187e+002, 7.056643e+000
7.840008e+002, 6.917424e+000
7.844829e+002, 6.753637e+000
7.849650e+002, 6.709517e+000
7.854471e+002, 6.757283e+000
7.859293e+002, 6.831580e+000
7.864114e+002, 6.933021e+000
7.868935e+002, 6.997328e+000
7.873756e+002, 7.003774e+000
7.878577e+002, 6.981979e+000
7.883398e+002, 6.949858e+000
7.888220e+002, 6.911294e+000
7.893040e+002, 6.900384e+000
7.897861e+002, 6.926397e+000
7.902682e+002, 6.965404e+000
7.907504e+002, 7.058850e+000
7.912325e+002, 7.124893e+000
7.917146e+002, 7.077176e+000
7.921967e+002, 6.967404e+000
7.926788e+002, 6.922864e+000
7.931609e+002, 6.999329e+000
7.936431e+002, 7.056995e+000
7.941252e+002, 6.937810e+000
7.946073e+002, 6.730904e+000
7.950894e+002, 6.606986e+000
7.955715e+002, 6.564311e+000
7.960536e+002, 6.517495e+000
7.965358e+002, 6.428879e+000
7.970179e+002, 6.345511e+000
7.975000e+002, 6.344798e+000
7.979821e+002, 6.433976e+000
7.984642e+002, 6.418396e+000
7.989464e+002, 6.228871e+000
7.994285e+002, 6.059869e+000
7.999106e+002, 5.968532e+000
8.003927e+002, 5.908031e+000
8.008748e+002, 5.843771e+000
8.013569e+002, 5.780056e+000
8.018391e+002, 5.747327e+000
8.023212e+002, 5.798949e+000
8.028033e+002, 5.816856e+000
8.032854e+002, 5.700569e+000
8.037675e+002, 5.541855e+000
8.042496e+002, 5.458969e+000
8.047318e+002, 5.442876e+000
8.052139e+002, 5.399263e+000
8.056960e+002, 5.274553e+000
8.061781e+002, 5.142196e+000
8.066602e+002, 5.133269e+000
8.071423e+002, 5.237640e+000
8.076245e+002, 5.326330e+000
8.081066e+002, 5.402976e+000
8.085887e+002, 5.409953e+000
8.090708e+002, 5.284879e+000
8.095529e+002, 5.127604e+000
8.100350e+002, 5.100280e+000
8.105172e+002, 5.233343e+000
8.109993e+002, 5.296899e+000
8.114814e+002, 5.226123e+000
8.119635e+002, 5.169292e+000
8.124456e+002, 5.164609e+000
8.129277e+002, 5.193209e+000
8.134099e+002, 5.236011e+000
8.138920e+002, 5.293169e+000
8.143741e+002, 5.379205e+000
8.148562e+002, 5.511171e+000
8.153383e+002, 5.653360e+000
8.158204e+002, 5.788139e+000
8.163026e+002, 5.898656e+000
8.167847e+002, 5.915448e+000
8.172668e+002, 5.847538e+000
8.177489e+002, 5.835244e+000
8.182310e+002, 5.962836e+000
8.187131e+002, 6.167009e+000
8.191953e+002, 6.328845e+000
8.196774e+002, 6.444099e+000
8.201595e+002, 6.540147e+000
8.206416e+002, 6.594128e+000
8.211237e+002, 6.674088e+000
8.216058e+002, 6.829873e+000
8.220880e+002, 7.006889e+000
8.225701e+002, 7.121032e+000
8.230522e+002, 7.176836e+000
8.235343e+002, 7.317490e+000
8.240164e+002, 7.677162e+000
8.244985e+002, 7.999208e+000
8.249807e+002, 8.116539e+000
8.254628e+002, 8.175131e+000
8.259449e+002, 8.362124e+000
8.264270e+002, 8.659358e+000
8.269091e+002, 8.903326e+000
8.273912e+002, 8.996224e+000
8.278734e+002, 9.031168e+000
8.283555e+002, 9.097762e+000
8.288376e+002, 9.216350e+000
8.293197e+002, 9.517604e+000
8.298018e+002, 1.001227e+001
8.302839e+002, 1.045602e+001
8.307661e+002, 1.072195e+001
8.312482e+002, 1.088691e+001
8.317303e+002, 1.108610e+001
8.322124e+002, 1.133883e+001
8.326945e+002, 1.147359e+001
8.331766e+002, 1.133347e+001
8.336588e+002, 1.130203e+001
8.341409e+002, 1.154759e+001
8.346230e+002, 1.186135e+001
8.351051e+002, 1.209158e+001
8.355872e+002, 1.223596e+001
8.360693e+002, 1.234459e+001
8.365515e+002, 1.241818e+001
8.370336e+002, 1.248170e+001
8.375157e+002, 1.253077e+001
8.379978e+002, 1.258944e+001
8.384799e+002, 1.270677e+001
8.389620e+002, 1.286152e+001
8.394442e+002, 1.298033e+001
8.399263e+002, 1.302850e+001
8.404084e+002, 1.303469e+001
8.408905e+002, 1.302512e+001
8.413726e+002, 1.300495e+001
8.418547e+002, 1.300381e+001
8.423369e+002, 1.302245e+001
8.428190e+002, 1.306232e+001
8.433011e+002, 1.313657e+001
8.437832e+002, 1.319426e+001
8.442653e+002, 1.316521e+001
8.447474e+002, 1.305248e+001
8.452296e+002, 1.299188e+001
8.457117e+002, 1.301120e+001
8.461938e+002, 1.304364e+001
8.466759e+002, 1.312151e+001
8.471580e+002, 1.317433e+001
8.476401e+002, 1.314244e+001
8.481223e+002, 1.305437e+001
8.486044e+002, 1.297132e+001
8.490865e+002, 1.290196e+001
8.495686e+002, 1.286935e+001
8.500507e+002, 1.290399e+001
8.505328e+002, 1.296696e+001
8.510150e+002, 1.305593e+001
8.514971e+002, 1.313370e+001
8.519792e+002, 1.309528e+001
8.524613e+002, 1.292364e+001
8.529434e+002, 1.276195e+001
8.534255e+002, 1.276110e+001
8.539077e+002, 1.287071e+001
8.543898e+002, 1.291633e+001
8.548719e+002, 1.289808e+001
8.553540e+002, 1.298349e+001
8.558361e+002, 1.322956e+001
8.563182e+002, 1.347616e+001
8.568004e+002, 1.359622e+001
8.572825e+002, 1.363031e+001
8.577646e+002, 1.371184e+001
8.582467e+002, 1.387834e+001
8.587288e+002, 1.401002e+001
8.592109e+002, 1.408755e+001
8.596931e+002, 1.415378e+001
8.601752e+002, 1.419768e+001
8.606573e+002, 1.425361e+001
8.611394e+002, 1.441018e+001
8.616215e+002, 1.466179e+001
8.621036e+002, 1.477136e+001
8.625858e+002, 1.445934e+001
8.630679e+002, 1.417382e+001
8.635500e+002, 1.428934e+001
8.640321e+002, 1.458565e+001
8.645142e+002, 1.479136e+001
8.649963e+002, 1.485730e+001
8.654785e+002, 1.479369e+001
8.659606e+002, 1.459616e+001
8.664427e+002, 1.435772e+001
8.669248e+002, 1.423590e+001
8.674069e+002, 1.420476e+001
8.678890e+002, 1.414198e+001
8.683712e+002, 1.404223e+001
8.688533e+002, 1.382515e+001
8.693354e+002, 1.342233e+001
8.698175e+002, 1.301101e+001
8.702996e+002, 1.285515e+001
8.707817e+002, 1.295794e+001
8.712639e+002, 1.288978e+001
8.717459e+002, 1.256717e+001
8.722280e+002, 1.222043e+001
8.727101e+002, 1.186442e+001
8.731923e+002, 1.151759e+001
8.736744e+002, 1.116684e+001
8.741565e+002, 1.083843e+001
8.746386e+002, 1.060143e+001
8.751207e+002, 1.051146e+001
8.756028e+002, 1.038125e+001
8.760850e+002, 1.010572e+001
8.765671e+002, 9.806332e+000
8.770492e+002, 9.579254e+000
8.775313e+002, 9.389779e+000
8.780134e+002, 9.158855e+000
8.784955e+002, 8.875709e+000
8.789777e+002, 8.608347e+000
8.794598e+002, 8.399322e+000
8.799419e+002, 8.249251e+000
8.804240e+002, 8.194288e+000
8.809061e+002, 8.200121e+000
8.813882e+002, 8.126219e+000
8.818704e+002, 7.955264e+000
8.823525e+002, 7.799609e+000
8.828346e+002, 7.734357e+000
8.833167e+002, 7.711743e+000
8.837988e+002, 7.626716e+000
8.842809e+002, 7.465655e+000
8.847631e+002, 7.339212e+000
8.852452e+002, 7.237003e+000
8.857273e+002, 7.202231e+000
8.862094e+002, 7.316736e+000
8.866915e+002, 7.435609e+000
8.871736e+002, 7.362770e+000
8.876558e+002, 7.115229e+000
8.881379e+002, 6.960162e+000
8.886200e+002, 6.967144e+000
8.891021e+002, 6.979126e+000
8.895842e+002, 6.977374e+000
8.900663e+002, 6.964438e+000
8.905485e+002, 6.940749e+000
8.910306e+002, 6.907813e+000
8.915127e+002, 6.866173e+000
8.919948e+002, 6.815331e+000
8.924769e+002, 6.765846e+000
8.929590e+002, 6.698524e+000
8.934412e+002, 6.657598e+000
8.939233e+002, 6.712217e+000
8.944054e+002, 6.824093e+000
8.948875e+002, 6.919214e+000
8.953696e+002, 6.978370e+000
8.958517e+002, 7.008172e+000
8.963339e+002, 7.010373e+000
8.968160e+002, 6.995995e+000
8.972981e+002, 6.989692e+000
8.977802e+002, 6.989136e+000
8.982623e+002, 6.965726e+000
8.987444e+002, 6.914543e+000
8.992266e+002, 6.869266e+000
8.997087e+002, 6.844419e+000
9.001908e+002, 6.837540e+000
9.006729e+002, 6.848953e+000
9.011550e+002, 6.880436e+000
9.016371e+002, 6.885765e+000
9.021193e+002, 6.825638e+000
9.026014e+002, 6.813584e+000
9.030835e+002, 6.938225e+000
9.035656e+002, 7.050706e+000
9.040477e+002, 7.041197e+000
9.045298e+002, 6.943452e+000
9.050120e+002, 6.841250e+000
9.054941e+002, 6.738444e+000
9.059762e+002, 6.646251e+000
9.064583e+002, 6.548211e+000
9.069404e+002, 6.482413e+000
9.074225e+002, 6.496274e+000
9.079047e+002, 6.544609e+000
9.083868e+002, 6.575566e+000
9.088689e+002, 6.575376e+000
9.093510e+002, 6.538094e+000
9.098331e+002, 6.435772e+000
9.103152e+002, 6.334048e+000
9.107974e+002, 6.303798e+000
9.112795e+002, 6.319953e+000
9.117616e+002, 6.354100e+000
9.122437e+002, 6.391058e+000
9.127258e+002, 6.379869e+000
9.132079e+002, 6.296174e+000
9.136901e+002, 6.214728e+000
9.141722e+002, 6.262177e+000
9.146543e+002, 6.402567e+000
9.151364e+002, 6.387849e+000
9.156185e+002, 6.208292e+000
9.161006e+002, 6.188783e+000
9.165828e+002, 6.448569e+000
9.170649e+002, 6.707547e+000
9.175470e+002, 6.720261e+000
9.180291e+002, 6.562583e+000
9.185112e+002, 6.513772e+000
9.189933e+002, 6.617825e+000
9.194755e+002, 6.720563e+000
9.199576e+002, 6.846657e+000
9.204397e+002, 6.935069e+000
9.209218e+002, 6.933342e+000
9.214039e+002, 6.900198e+000
9.218860e+002, 6.893295e+000
9.223682e+002, 6.913590e+000
9.228503e+002, 6.950795e+000
9.233324e+002, 7.012789e+000
9.238145e+002, 7.078937e+000
9.242966e+002, 7.162936e+000
9.247787e+002, 7.231449e+000
9.252609e+002, 7.258596e+000
9.257430e+002, 7.249327e+000
9.262251e+002, 7.203229e+000
9.267072e+002, 7.118141e+000
9.271893e+002, 7.070025e+000
9.276714e+002, 7.141798e+000
9.281536e+002, 7.245539e+000
9.286357e+002, 7.290370e+000
9.291178e+002, 7.300948e+000
9.295999e+002, 7.341555e+000
9.300820e+002, 7.411896e+000
9.305641e+002, 7.431124e+000
9.310463e+002, 7.334969e+000
9.315284e+002, 7.236140e+000
9.320105e+002, 7.355836e+000
9.324926e+002, 7.628761e+000
9.329747e+002, 7.786881e+000
9.334568e+002, 7.818563e+000
9.339390e+002, 7.781932e+000
9.344211e+002, 7.693753e+000
9.349032e+002, 7.585538e+000
9.353853e+002, 7.475647e+000
9.358674e+002, 7.385759e+000
9.363495e+002, 7.470092e+000
9.368317e+002, 7.789548e+000
9.373138e+002, 8.013698e+000
9.377959e+002, 8.080161e+000
9.382780e+002, 8.102529e+000
9.387601e+002, 8.122071e+000
9.392422e+002, 8.153786e+000
9.397244e+002, 8.236999e+000
9.402065e+002, 8.392941e+000
9.406886e+002, 8.473629e+000
9.411707e+002, 8.406873e+000
9.416528e+002, 8.366536e+000
9.421349e+002, 8.393562e+000
9.426171e+002, 8.450277e+000
9.430992e+002, 8.508870e+000
9.435813e+002, 8.574492e+000
9.440634e+002, 8.672595e+000
9.445455e+002, 8.827413e+000
9.450276e+002, 8.940793e+000
9.455098e+002, 8.947305e+000
9.459919e+002, 8.934549e+000
9.464740e+002, 8.953220e+000
9.469561e+002, 8.992243e+000
9.474382e+002, 9.036928e+000
9.479203e+002, 9.082087e+000
9.484025e+002, 9.121092e+000
9.488846e+002, 9.145093e+000
9.493667e+002, 9.175647e+000
9.498488e+002, 9.269362e+000
9.503309e+002, 9.362463e+000
9.508130e+002, 9.319539e+000
9.512952e+002, 9.183667e+000
9.517773e+002, 9.107790e+000
9.522594e+002, 9.145960e+000
9.527415e+002, 9.270966e+000
9.532236e+002, 9.483542e+000
9.537057e+002, 9.731666e+000
9.541878e+002, 9.887549e+000
9.546699e+002, 9.960965e+000
9.551520e+002, 1.000240e+001
9.556342e+002, 1.001969e+001
9.561163e+002, 1.006387e+001
9.565984e+002, 1.016272e+001
9.570805e+002, 1.030380e+001
9.575626e+002, 1.047604e+001
9.580447e+002, 1.067920e+001
9.585269e+002, 1.082803e+001
9.590090e+002, 1.091805e+001
9.594911e+002, 1.097531e+001
9.599732e+002, 1.100494e+001
9.604553e+002, 1.100173e+001
9.609374e+002, 1.094623e+001
9.614196e+002, 1.086426e+001
9.619017e+002, 1.083528e+001
9.623838e+002, 1.090162e+001
9.628659e+002, 1.088962e+001
9.633480e+002, 1.075111e+001
9.638301e+002, 1.059850e+001
9.643123e+002, 1.044611e+001
9.647944e+002, 1.030505e+001
9.652765e+002, 1.021054e+001
9.657586e+002, 1.014013e+001
9.662407e+002, 9.995775e+000
9.667228e+002, 9.760858e+000
9.672050e+002, 9.460475e+000
9.676871e+002, 9.073675e+000
9.681692e+002, 8.650628e+000
9.686513e+002, 8.192136e+000
9.691334e+002, 7.731871e+000
9.696155e+002, 7.330468e+000
9.700977e+002, 6.982016e+000
9.705798e+002, 6.595473e+000
9.710619e+002, 6.107193e+000
9.715440e+002, 5.611891e+000
9.720261e+002, 5.140536e+000
9.725082e+002, 4.714513e+000
9.729904e+002, 4.377450e+000
9.734725e+002, 4.103089e+000
9.739546e+002, 3.822887e+000
9.744367e+002, 3.520908e+000
9.749188e+002, 3.257878e+000
9.754009e+002, 3.099041e+000
9.758831e+002, 2.988551e+000
9.763652e+002, 2.854743e+000
9.768473e+002, 2.711339e+000
9.773294e+002, 2.576506e+000
9.778115e+002, 2.458847e+000
9.782936e+002, 2.398023e+000
9.787758e+002, 2.411967e+000
9.792579e+002, 2.418031e+000
9.797400e+002, 2.292355e+000
9.802221e+002, 2.083343e+000
9.807042e+002, 1.940116e+000
9.811863e+002, 1.864318e+000
9.816685e+002, 1.892565e+000
9.821506e+002, 2.031564e+000
9.826327e+002, 2.154022e+000
9.831148e+002, 2.172396e+000
9.835969e+002, 2.146586e+000
9.840790e+002, 2.202964e+000
9.845612e+002, 2.342537e+000
9.850433e+002, 2.390943e+000
9.855254e+002, 2.328885e+000
9.860075e+002, 2.290915e+000
9.864896e+002, 2.316624e+000
9.869717e+002, 2.358598e+000
9.874539e+002, 2.374163e+000
9.879360e+002, 2.380554e+000
9.884181e+002, 2.436868e+000
9.889002e+002, 2.566458e+000
9.893823e+002, 2.657511e+000
9.898644e+002, 2.666545e+000
9.903466e+002, 2.723662e+000
9.908287e+002, 2.905970e+000
9.913108e+002, 3.112962e+000
9.917929e+002, 3.251596e+000
9.922750e+002, 3.330582e+000
9.927571e+002, 3.397345e+000
9.932393e+002, 3.394391e+000
9.937214e+002, 3.482295e+000
9.942035e+002, 3.750763e+000
9.946856e+002, 4.006610e+000
9.951677e+002, 4.165899e+000
9.956498e+002, 4.281709e+000
9.961320e+002, 4.409972e+000
9.966141e+002, 4.551171e+000
9.970962e+002, 4.678739e+000
9.975783e+002, 4.776148e+000
9.980604e+002, 4.878128e+000
9.985425e+002, 4.994572e+000
9.990247e+002, 5.116343e+000
9.995068e+002, 5.268033e+000
9.999889e+002, 5.404206e+000
1.000471e+003, 5.436705e+000
1.000953e+003, 5.370275e+000
1.001435e+003, 5.346471e+000
1.001917e+003, 5.456366e+000
1.002399e+003, 5.572115e+000
1.002882e+003, 5.627770e+000
1.003364e+003, 5.654378e+000
1.003846e+003, 5.689349e+000
1.004328e+003, 5.715661e+000
1.004810e+003, 5.671506e+000
1.005292e+003, 5.555268e+000
1.005774e+003, 5.497061e+000
1.006256e+003, 5.661191e+000
1.006739e+003, 5.806289e+000
1.007221e+003, 5.652595e+000
1.007703e+003, 5.371469e+000
1.008185e+003, 5.201368e+000
1.008667e+003, 5.130959e+000
1.009149e+003, 5.057492e+000
1.009631e+003, 4.941573e+000
1.010113e+003, 4.779007e+000
1.010595e+003, 4.549227e+000
1.011078e+003, 4.290726e+000
1.011560e+003, 4.047872e+000
1.012042e+003, 3.826237e+000
1.012524e+003, 3.647648e+000
1.013006e+003, 3.505218e+000
1.013488e+003, 3.363181e+000
1.013970e+003, 3.204726e+000
1.014452e+003, 3.026955e+000
1.014935e+003, 2.815977e+000
1.015417e+003, 2.591241e+000
1.015899e+003, 2.397559e+000
1.016381e+003, 2.233620e+000
1.016863e+003, 2.088638e+000
1.017345e+003, 1.964904e+000
1.017827e+003, 1.914291e+000
1.018309e+003, 1.967924e+000
1.018791e+003, 2.029836e+000
1.019274e+003, 1.959044e+000
1.019756e+003, 1.784812e+000
1.020238e+003, 1.642363e+000
1.020720e+003, 1.531783e+000
1.021202e+003, 1.442955e+000
1.021684e+003, 1.374163e+000
1.022166e+003, 1.323769e+000
1.022648e+003, 1.289094e+000
1.023130e+003, 1.282773e+000
1.023613e+003, 1.342531e+000
1.024095e+003, 1.458527e+000
1.024577e+003, 1.447835e+000
1.025059e+003, 1.291613e+000
1.025541e+003, 1.165239e+000
1.026023e+003, 1.098886e+000
1.026505e+003, 1.077948e+000
1.026987e+003, 1.104704e+000
1.027469e+003, 1.145961e+000
1.027952e+003, 1.135425e+000
1.028434e+003, 1.069530e+000
1.028916e+003, 1.043251e+000
1.029398e+003, 1.072927e+000
1.029880e+003, 1.082159e+000
1.030362e+003, 1.046692e+000
1.030844e+003, 1.014411e+000
1.031326e+003, 1.029098e+000
1.031809e+003, 1.052157e+000
1.032291e+003, 9.921508e-001
1.032773e+003, 8.270952e-001
1.033255e+003, 7.723839e-001
1.033737e+003, 8.974553e-001
1.034219e+003, 9.783863e-001
1.034701e+003, 9.420904e-001
1.035183e+003, 9.007415e-001
1.035666e+003, 9.374125e-001
1.036148e+003, 1.013619e+000
1.036630e+003, 1.048823e+000
1.037112e+003, 1.036903e+000
1.037594e+003, 1.018194e+000
1.038076e+003, 9.927686e-001
1.038558e+003, 9.600089e-001
1.039040e+003, 8.957622e-001
1.039522e+003, 8.506123e-001
1.040005e+003, 8.776308e-001
1.040487e+003, 9.403637e-001
1.040969e+003, 9.578332e-001
1.041451e+003, 9.179429e-001
1.041933e+003, 8.974106e-001
1.042415e+003, 9.010528e-001
1.042897e+003, 9.193512e-001
1.043379e+003, 9.713320e-001
1.043861e+003, 1.016757e+000
1.044344e+003, 1.021618e+000
1.044826e+003, 1.004201e+000
1.045308e+003, 1.000962e+000
1.045790e+003, 1.016437e+000
1.046272e+003, 1.029922e+000
1.046754e+003, 1.047666e+000
1.047236e+003, 1.051550e+000
1.047718e+003, 1.027251e+000
1.048201e+003, 9.972962e-001
1.048683e+003, 9.731938e-001
1.049165e+003, 9.559663e-001
1.049647e+003, 9.476593e-001
1.050129e+003, 9.496894e-001
1.050611e+003, 9.468076e-001
1.051093e+003, 9.298243e-001
1.051575e+003, 9.161040e-001
1.052057e+003, 8.978443e-001
1.052540e+003, 8.971663e-001
1.053022e+003, 9.574950e-001
1.053504e+003, 1.036057e+000
1.053986e+003, 1.044253e+000
1.054468e+003, 9.675365e-001
1.054950e+003, 9.191640e-001
1.055432e+003, 9.520987e-001
1.055914e+003, 9.866923e-001
1.056396e+003, 1.004793e+000
1.056879e+003, 1.005953e+000
1.057361e+003, 9.723989e-001
1.057843e+003, 9.293902e-001
1.058325e+003, 9.259957e-001
1.058807e+003, 9.683831e-001
1.059289e+003, 9.934776e-001
1.059771e+003, 9.603418e-001
1.060253e+003, 9.340522e-001
1.060736e+003, 9.543455e-001
1.061218e+003, 9.759662e-001
1.061700e+003, 9.511119e-001
1.062182e+003, 9.094343e-001
1.062664e+003, 9.011936e-001
1.063146e+003, 9.339267e-001
1.063628e+003, 9.855051e-001
1.064110e+003, 1.054021e+000
1.064593e+003, 1.131576e+000
1.065075e+003, 1.261771e+000
1.065557e+003, 1.353570e+000
1.066039e+003, 1.296235e+000
1.066521e+003, 1.174102e+000
1.067003e+003, 1.116149e+000
1.067485e+003, 1.140290e+000
1.067967e+003, 1.194983e+000
1.068449e+003, 1.303521e+000
1.068932e+003, 1.364887e+000
1.069414e+003, 1.300454e+000
1.069896e+003, 1.205758e+000
1.070378e+003, 1.107510e+000
1.070860e+003, 1.050659e+000
1.071342e+003, 1.125559e+000
1.071824e+003, 1.311730e+000
1.072306e+003, 1.432722e+000
1.072788e+003, 1.393986e+000
1.073271e+003, 1.350168e+000
1.073753e+003, 1.390723e+000
1.074235e+003, 1.433687e+000
1.074717e+003, 1.391908e+000
1.075199e+003, 1.333460e+000
1.075681e+003, 1.365384e+000
1.076163e+003, 1.477992e+000
1.076645e+003, 1.564909e+000
1.077127e+003, 1.583809e+000
1.077610e+003, 1.593999e+000
1.078092e+003, 1.619187e+000
1.078574e+003, 1.649460e+000
1.079056e+003, 1.690767e+000
1.079538e+003, 1.724674e+000
1.080020e+003, 1.716790e+000
1.080502e+003, 1.681557e+000
1.080984e+003, 1.678537e+000
1.081467e+003, 1.734911e+000
1.081949e+003, 1.778831e+000
1.082431e+003, 1.751843e+000
1.082913e+003, 1.733252e+000
1.083395e+003, 1.791617e+000
1.083877e+003, 1.868015e+000
1.084359e+003, 1.897704e+000
1.084841e+003, 1.888402e+000
1.085323e+003, 1.881910e+000
1.085806e+003, 1.891074e+000
1.086288e+003, 1.882164e+000
1.086770e+003, 1.842298e+000
1.087252e+003, 1.779119e+000
1.087734e+003, 1.654401e+000
1.088216e+003, 1.544044e+000
1.088698e+003, 1.529236e+000
1.089180e+003, 1.581609e+000
1.089662e+003, 1.643207e+000
1.090145e+003, 1.702425e+000
1.090627e+003, 1.722248e+000
1.091109e+003, 1.654393e+000
1.091591e+003, 1.590414e+000
1.092073e+003, 1.577066e+000
1.092555e+003, 1.575392e+000
1.093037e+003, 1.544741e+000
1.093519e+003, 1.508621e+000
1.094002e+003, 1.529166e+000
1.094484e+003, 1.606072e+000
1.094966e+003, 1.619703e+000
1.095448e+003, 1.435165e+000
1.095930e+003, 1.326005e+000
1.096412e+003, 1.479749e+000
1.096894e+003, 1.631026e+000
1.097376e+003, 1.598074e+000
1.097859e+003, 1.468015e+000
1.098341e+003, 1.352201e+000
1.098823e+003, 1.265221e+000
1.099305e+003, 1.196171e+000
1.099787e+003, 1.134992e+000
1.100269e+003, 1.107620e+000
1.100751e+003, 1.144721e+000
1.101233e+003, 1.188833e+000
1.101715e+003, 1.227792e+000
1.102198e+003, 1.247381e+000
1.102680e+003, 1.227079e+000
1.103162e+003, 1.175080e+000
1.103644e+003, 1.122187e+000
1.104126e+003, 1.068634e+000
1.104608e+003, 1.027456e+000
1.105090e+003, 1.024474e+000
1.105572e+003, 1.003714e+000
1.106054e+003, 9.203526e-001
1.106537e+003, 8.348454e-001
1.107019e+003, 7.894472e-001
1.107501e+003, 7.813462e-001
1.107983e+003, 8.126072e-001
1.108465e+003, 9.026012e-001
1.108947e+003, 9.195462e-001
1.109429e+003, 7.741355e-001
1.109911e+003, 6.655831e-001
1.110394e+003, 6.369734e-001
1.110876e+003, 6.528341e-001
1.111358e+003, 7.113286e-001
1.111840e+003, 7.911864e-001
1.112322e+003, 8.746098e-001
1.112804e+003, 9.651067e-001
1.113286e+003, 9.700564e-001
1.113768e+003, 7.893671e-001
1.114250e+003, 6.903338e-001
1.114733e+003, 7.425774e-001
1.115215e+003, 8.095618e-001
1.115697e+003, 8.565721e-001
1.116179e+003, 8.676531e-001
1.116661e+003, 8.016714e-001
1.117143e+003, 6.767029e-001
1.117625e+003, 6.301562e-001
1.118107e+003, 7.069661e-001
1.118589e+003, 7.538106e-001
1.119072e+003, 7.476880e-001
1.119554e+003, 7.596256e-001
1.120036e+003, 8.415470e-001
1.120518e+003, 8.981908e-001
1.121000e+003, 8.329765e-001
1.121482e+003, 6.904334e-001
1.121964e+003, 6.024713e-001
1.122446e+003, 5.776427e-001
1.122929e+003, 5.510232e-001
1.123411e+003, 5.063632e-001
1.123893e+003, 5.273249e-001
1.124375e+003, 6.649097e-001
1.124857e+003, 7.640823e-001
1.125339e+003, 7.091691e-001
1.125821e+003, 5.958498e-001
1.126303e+003, 5.971945e-001
1.126786e+003, 7.035808e-001
1.127268e+003, 7.331706e-001
1.127750e+003, 6.777178e-001
1.128232e+003, 6.144482e-001
1.128714e+003, 5.504782e-001
1.129196e+003, 4.962130e-001
1.129678e+003, 4.512732e-001
1.130160e+003, 4.543048e-001
1.130642e+003, 5.637779e-001
1.131125e+003, 7.350240e-001
1.131607e+003, 8.130764e-001
1.132089e+003, 8.005999e-001
1.132571e+003, 7.252378e-001
1.133053e+003, 5.912958e-001
1.133535e+003, 4.943072e-001
1.134017e+003, 4.633873e-001
1.134499e+003, 4.805306e-001
1.134981e+003, 5.364039e-001
1.135464e+003, 6.077314e-001
1.135946e+003, 6.586193e-001
1.136428e+003, 6.880985e-001
1.136910e+003, 6.789073e-001
1.137392e+003, 6.428933e-001
1.137874e+003, 6.472495e-001
1.138356e+003, 6.957885e-001
1.138838e+003, 7.164609e-001
1.139321e+003, 6.722437e-001
1.139803e+003, 6.142119e-001
1.140285e+003, 6.024654e-001
1.140767e+003, 6.118744e-001
1.141249e+003, 5.909554e-001
1.141731e+003, 5.571330e-001
1.142213e+003, 5.537627e-001
1.142695e+003, 5.750925e-001
1.143177e+003, 5.807266e-001
1.143660e+003, 5.617182e-001
1.144142e+003, 5.624092e-001
1.144624e+003, 6.335660e-001
1.145106e+003, 6.904570e-001
1.145588e+003, 6.022997e-001
1.146070e+003, 4.827749e-001
1.146552e+003, 4.911531e-001
1.147034e+003, 5.710990e-001
1.147516e+003, 6.051960e-001
1.147999e+003, 5.828715e-001
1.148481e+003, 5.685099e-001
1.148963e+003, 5.945696e-001
1.149445e+003, 5.983055e-001
1.149927e+003, 5.069967e-001
1.150409e+003, 4.168219e-001
1.150891e+003, 3.945774e-001
1.151373e+003, 4.123577e-001
1.151856e+003, 4.581437e-001
1.152338e+003, 5.109037e-001
1.152820e+003, 5.291810e-001
1.153302e+003, 5.045475e-001
1.153784e+003, 4.898430e-001
1.154266e+003, 5.167338e-001
1.154748e+003, 5.364652e-001
1.155230e+003, 5.332763e-001
1.155713e+003, 5.177657e-001
1.156195e+003, 4.765249e-001
1.156677e+003, 4.398892e-001
1.157159e+003, 4.583814e-001
1.157641e+003, 5.229868e-001
1.158123e+003, 5.532436e-001
1.158605e+003, 5.077527e-001
1.159087e+003, 5.010695e-001
1.159569e+003, 5.838713e-001
1.160052e+003, 6.461182e-001
1.160534e+003, 6.433228e-001
1.161016e+003, 6.282594e-001
1.161498e+003, 6.441037e-001
1.161980e+003, 6.723258e-001
1.162462e+003, 6.699115e-001
1.162944e+003, 6.326312e-001
1.163426e+003, 6.109618e-001
1.163908e+003, 6.108923e-001
1.164391e+003, 6.075398e-001
1.164873e+003, 5.921047e-001
1.165355e+003, 5.927338e-001
1.165837e+003, 6.313828e-001
1.166319e+003, 6.682376e-001
1.166801e+003, 6.518157e-001
1.167283e+003, 5.988306e-001
1.167765e+003, 5.846529e-001
1.168247e+003, 6.116813e-001
1.168730e+003, 5.945005e-001
1.169212e+003, 5.278478e-001
1.169694e+003, 4.840242e-001
1.170176e+003, 4.830300e-001
1.170658e+003, 4.992068e-001
1.171140e+003, 5.161401e-001
1.171622e+003, 5.320518e-001
1.172104e+003, 5.469691e-001
1.172587e+003, 5.575323e-001
1.173069e+003, 5.422820e-001
1.173551e+003, 5.130152e-001
1.174033e+003, 5.279942e-001
1.174515e+003, 5.801366e-001
1.174997e+003, 5.883481e-001
1.175479e+003, 5.263427e-001
1.175961e+003, 4.724389e-001
1.176443e+003, 5.010894e-001
1.176926e+003, 5.469479e-001
1.177408e+003, 5.224944e-001
1.177890e+003, 4.680997e-001
1.178372e+003, 4.307001e-001
1.178854e+003, 4.150868e-001
1.179336e+003, 4.320805e-001
1.179818e+003, 4.723757e-001
1.180300e+003, 4.946961e-001
1.180782e+003, 4.788994e-001
1.181265e+003, 4.696124e-001
1.181747e+003, 4.968370e-001
1.182229e+003, 5.359465e-001
1.182711e+003, 5.918151e-001
1.183193e+003, 6.330671e-001
1.183675e+003, 6.112957e-001
1.184157e+003, 5.609311e-001
1.184639e+003, 5.591408e-001
1.185122e+003, 6.121480e-001
1.185604e+003, 6.238815e-001
1.186086e+003, 5.092536e-001
1.186568e+003, 4.545284e-001
1.187050e+003, 5.456656e-001
1.187532e+003, 6.340134e-001
1.188014e+003, 6.588684e-001
1.188496e+003, 6.514232e-001
1.188979e+003, 6.430510e-001
1.189461e+003, 6.257076e-001
1.189943e+003, 5.671531e-001
1.190425e+003, 4.472478e-001
1.190907e+003, 4.123791e-001
1.191389e+003, 5.074781e-001
1.191871e+003, 5.567465e-001
1.192353e+003, 5.132418e-001
1.192835e+003, 4.833390e-001
1.193318e+003, 5.322640e-001
1.193800e+003, 5.800902e-001
1.194282e+003, 5.150729e-001
1.194764e+003, 3.844098e-001
1.195246e+003, 3.948430e-001
1.195728e+003, 5.386887e-001
1.196210e+003, 6.011102e-001
1.196692e+003, 5.764856e-001
1.197174e+003, 5.651062e-001
1.197657e+003, 5.918846e-001
1.198139e+003, 6.374779e-001
1.198621e+003, 6.928617e-001
1.199103e+003, 7.177426e-001
1.199585e+003, 6.313941e-001
1.200067e+003, 4.981066e-001
1.200549e+003, 4.368675e-001
1.201031e+003, 4.332333e-001
1.201514e+003, 4.753225e-001
1.201996e+003, 5.409650e-001
1.202478e+003, 5.777117e-001
1.202960e+003, 5.737348e-001
1.203442e+003, 5.618653e-001
1.203924e+003, 5.670354e-001
1.204406e+003, 5.521209e-001
1.204888e+003, 4.281101e-001
1.205370e+003, 3.377633e-001
1.205853e+003, 4.574654e-001
1.206335e+003, 6.374491e-001
1.206817e+003, 7.012197e-001
1.207299e+003, 6.621979e-001
1.207781e+003, 5.957015e-001
1.208263e+003, 5.126396e-001
1.208745e+003, 4.717144e-001
1.209227e+003, 5.296447e-001
1.209709e+003, 5.672477e-001
1.210192e+003, 5.446100e-001
1.210674e+003, 5.141565e-001
1.211156e+003, 5.126649e-001
1.211638e+003, 5.057504e-001
1.212120e+003, 4.413082e-001
1.212602e+003, 3.456897e-001
1.213084e+003, 3.243333e-001
1.213566e+003, 3.959948e-001
1.214049e+003, 4.469620e-001
1.214531e+003, 4.711270e-001
1.215013e+003, 4.983692e-001
1.215495e+003, 5.339331e-001
1.215977e+003, 5.824552e-001
1.216459e+003, 6.548108e-001
1.216941e+003, 6.904711e-001
1.217423e+003, 5.970315e-001
1.217906e+003, 4.383275e-001
1.218388e+003, 4.333498e-001
1.218870e+003, 5.450937e-001
1.219352e+003, 5.885526e-001
1.219834e+003, 5.633982e-001
1.220316e+003, 5.207421e-001
1.220798e+003, 4.767169e-001
1.221280e+003, 4.402579e-001
1.221762e+003, 4.155669e-001
1.222245e+003, 4.126651e-001
1.222727e+003, 4.588722e-001
1.223209e+003, 5.146521e-001
1.223691e+003, 5.551663e-001
1.224173e+003, 5.620138e-001
1.224655e+003, 4.663596e-001
1.225137e+003, 3.369130e-001
1.225619e+003, 3.147849e-001
1.226101e+003, 4.091629e-001
1.226584e+003, 5.120828e-001
1.227066e+003, 6.008843e-001
1.227548e+003, 6.510962e-001
1.228030e+003, 6.312552e-001
1.228512e+003, 6.011165e-001
1.228994e+003, 5.841644e-001
1.229476e+003, 5.680209e-001
1.229958e+003, 5.409461e-001
1.230441e+003, 5.080620e-001
1.230923e+003, 4.699983e-001
1.231405e+003, 4.282798e-001
1.231887e+003, 4.460275e-001
1.232369e+003, 5.646023e-001
1.232851e+003, 6.097573e-001
1.233333e+003, 5.511063e-001
1.233815e+003, 4.996577e-001
1.234297e+003, 4.871682e-001
1.234780e+003, 4.987456e-001
1.235262e+003, 5.268849e-001
1.235744e+003, 5.593551e-001
1.236226e+003, 5.778041e-001
1.236708e+003, 5.812451e-001
1.237190e+003, 5.501784e-001
1.237672e+003, 5.002677e-001
1.238154e+003, 5.218185e-001
1.238636e+003, 5.998982e-001
1.239119e+003, 6.177900e-001
1.239601e+003, 5.474972e-001
1.240083e+003, 4.521495e-001
1.240565e+003, 3.606025e-001
1.241047e+003, 3.160927e-001
1.241529e+003, 4.045749e-001
1.242011e+003, 5.133739e-001
1.242493e+003, 5.353390e-001
1.242975e+003, 5.097462e-001
1.243458e+003, 4.673165e-001
1.243940e+003, 4.287033e-001
1.244422e+003, 4.200786e-001
1.244904e+003, 4.457951e-001
1.245386e+003, 5.006868e-001
1.245868e+003, 6.261149e-001
1.246350e+003, 7.012554e-001
1.246832e+003, 6.838554e-001
1.247315e+003, 6.422475e-001
1.247797e+003, 5.769444e-001
1.248279e+003, 5.231893e-001
1.248761e+003, 5.130318e-001
1.249243e+003, 5.225544e-001
1.249725e+003, 5.041663e-001
1.250207e+003, 4.615279e-001
1.250689e+003, 4.644064e-001
1.251172e+003, 5.191227e-001
1.251654e+003, 5.465794e-001
1.252136e+003, 5.396435e-001
1.252618e+003, 5.425096e-001
1.253100e+003, 5.684085e-001
1.253582e+003, 6.009524e-001
1.254064e+003, 6.303140e-001
1.254546e+003, 6.439480e-001
1.255028e+003, 6.070649e-001
1.255510e+003, 5.552217e-001
1.255993e+003, 5.782708e-001
1.256475e+003, 6.234664e-001
1.256957e+003, 5.581204e-001
1.257439e+003, 4.372516e-001
1.257921e+003, 4.293872e-001
1.258403e+003, 5.500259e-001
1.258885e+003, 6.611798e-001
1.259367e+003, 7.127007e-001
1.259850e+003, 7.158344e-001
1.260332e+003, 6.544717e-001
1.260814e+003, 5.741848e-001
1.261296e+003, 4.358337e-001
1.261778e+003, 3.482811e-001
1.262260e+003, 4.556282e-001
1.262742e+003, 6.321733e-001
1.263224e+003, 6.617876e-001
1.263707e+003, 5.652058e-001
1.264189e+003, 5.266435e-001
1.264671e+003, 5.722994e-001
1.265153e+003, 5.830624e-001
1.265635e+003, 5.468999e-001
1.266117e+003, 5.269202e-001
1.266599e+003, 5.375894e-001
1.267081e+003, 5.678940e-001
1.267563e+003, 6.147585e-001
1.268046e+003, 6.493506e-001
1.268528e+003, 6.306884e-001
1.269010e+003, 5.879291e-001
1.269492e+003, 6.091906e-001
1.269974e+003, 6.517486e-001
1.270456e+003, 5.780783e-001
1.270938e+003, 4.374631e-001
1.271420e+003, 3.801461e-001
1.271902e+003, 4.152408e-001
1.272385e+003, 4.659619e-001
1.272867e+003, 5.030991e-001
1.273349e+003, 5.201415e-001
1.273831e+003, 4.992077e-001
1.274313e+003, 4.769536e-001
1.274795e+003, 4.760747e-001
1.275277e+003, 4.749838e-001
1.275759e+003, 4.407689e-001
1.276242e+003, 4.129952e-001
1.276724e+003, 4.523902e-001
1.277206e+003, 5.344483e-001
1.277688e+003, 5.733340e-001
1.278170e+003, 5.637620e-001
1.278652e+003, 5.582581e-001
1.279134e+003, 5.578629e-001
1.279616e+003, 5.594084e-001
1.280099e+003, 5.650057e-001
1.280581e+003, 5.567279e-001
1.281063e+003, 5.260696e-001
1.281545e+003, 4.967894e-001
1.282027e+003, 4.863604e-001
1.282509e+003, 4.948801e-001
1.282991e+003, 5.302759e-001
1.283473e+003, 5.803658e-001
1.283955e+003, 6.191151e-001
##END=



