##NAMES=Mendozavilite-NaCu
##RRUFFID=R120038
##IDEAL CHEMISTRY=[Na_2_(H_2_O)_15_Cu^2+^(H_2_O)_6_][Mo^6+^_8_P_2_Fe^3+^_3_O_34_(OH)_3_]
##LOCALITY=Lomas Bayas mine, Baquedano, Antofagasta Province, Antofagasta Region, Chile
##OWNER=RRUFF
##SOURCE=Bob Jenkins
##DESCRIPTION=Bright green massive
##STATUS=The identification of this mineral has been confirmed only by single crystal X-ray diffraction.
##URL=rruff.info/R120038
8.936163e+001, 0.000000e+000
8.984375e+001, 5.496339e+001
9.032587e+001, 5.537096e+001
9.080798e+001, 5.544993e+001
9.129010e+001, 5.507116e+001
9.177222e+001, 5.451366e+001
9.225433e+001, 5.411087e+001
9.273645e+001, 5.385000e+001
9.321857e+001, 5.361353e+001
9.370068e+001, 5.350484e+001
9.418280e+001, 5.338982e+001
9.466492e+001, 5.280204e+001
9.514703e+001, 5.128394e+001
9.562915e+001, 4.924388e+001
9.611127e+001, 4.779572e+001
9.659338e+001, 4.699264e+001
9.707550e+001, 4.656771e+001
9.755762e+001, 4.627394e+001
9.803973e+001, 4.611255e+001
9.852185e+001, 4.596807e+001
9.900397e+001, 4.579052e+001
9.948608e+001, 4.557808e+001
9.996820e+001, 4.543079e+001
1.004503e+002, 4.544621e+001
1.009324e+002, 4.541151e+001
1.014146e+002, 4.471758e+001
1.018967e+002, 4.303497e+001
1.023788e+002, 4.161610e+001
1.028609e+002, 4.126178e+001
1.033430e+002, 4.244086e+001
1.038251e+002, 4.318898e+001
1.043073e+002, 4.333634e+001
1.047894e+002, 4.294189e+001
1.052715e+002, 4.226560e+001
1.057536e+002, 4.104086e+001
1.062357e+002, 3.982121e+001
1.067178e+002, 3.898195e+001
1.072000e+002, 3.873470e+001
1.076821e+002, 3.857551e+001
1.081642e+002, 3.849956e+001
1.086463e+002, 3.852259e+001
1.091284e+002, 3.840928e+001
1.096105e+002, 3.802148e+001
1.100927e+002, 3.755646e+001
1.105748e+002, 3.720174e+001
1.110569e+002, 3.719055e+001
1.115390e+002, 3.707325e+001
1.120211e+002, 3.669733e+001
1.125032e+002, 3.595416e+001
1.129854e+002, 3.533775e+001
1.134675e+002, 3.498767e+001
1.139496e+002, 3.479115e+001
1.144317e+002, 3.458029e+001
1.149138e+002, 3.431482e+001
1.153959e+002, 3.403058e+001
1.158781e+002, 3.373634e+001
1.163602e+002, 3.340337e+001
1.168423e+002, 3.311557e+001
1.173244e+002, 3.297039e+001
1.178065e+002, 3.289988e+001
1.182886e+002, 3.273106e+001
1.187708e+002, 3.232153e+001
1.192529e+002, 3.181931e+001
1.197350e+002, 3.133916e+001
1.202171e+002, 3.089021e+001
1.206992e+002, 3.049249e+001
1.211813e+002, 3.017247e+001
1.216635e+002, 2.992247e+001
1.221456e+002, 2.970957e+001
1.226277e+002, 2.960353e+001
1.231098e+002, 2.950181e+001
1.235919e+002, 2.926453e+001
1.240740e+002, 2.864987e+001
1.245562e+002, 2.799237e+001
1.250383e+002, 2.769469e+001
1.255204e+002, 2.775288e+001
1.260025e+002, 2.788079e+001
1.264846e+002, 2.787848e+001
1.269667e+002, 2.775947e+001
1.274489e+002, 2.755771e+001
1.279310e+002, 2.725192e+001
1.284131e+002, 2.687901e+001
1.288952e+002, 2.650490e+001
1.293773e+002, 2.612829e+001
1.298594e+002, 2.575920e+001
1.303416e+002, 2.533068e+001
1.308237e+002, 2.487431e+001
1.313058e+002, 2.459159e+001
1.317879e+002, 2.475287e+001
1.322700e+002, 2.523594e+001
1.327521e+002, 2.539677e+001
1.332343e+002, 2.509990e+001
1.337164e+002, 2.461695e+001
1.341985e+002, 2.450101e+001
1.346806e+002, 2.478317e+001
1.351627e+002, 2.502144e+001
1.356448e+002, 2.487362e+001
1.361270e+002, 2.433286e+001
1.366091e+002, 2.387428e+001
1.370912e+002, 2.355818e+001
1.375733e+002, 2.336291e+001
1.380554e+002, 2.319275e+001
1.385375e+002, 2.303816e+001
1.390197e+002, 2.293613e+001
1.395018e+002, 2.292203e+001
1.399839e+002, 2.300998e+001
1.404660e+002, 2.314283e+001
1.409481e+002, 2.339662e+001
1.414302e+002, 2.373388e+001
1.419124e+002, 2.363678e+001
1.423945e+002, 2.292277e+001
1.428766e+002, 2.202968e+001
1.433587e+002, 2.138284e+001
1.438408e+002, 2.106279e+001
1.443229e+002, 2.083709e+001
1.448051e+002, 2.066401e+001
1.452872e+002, 2.053925e+001
1.457693e+002, 2.049328e+001
1.462514e+002, 2.056578e+001
1.467335e+002, 2.069121e+001
1.472156e+002, 2.078932e+001
1.476978e+002, 2.086081e+001
1.481799e+002, 2.090335e+001
1.486620e+002, 2.092977e+001
1.491441e+002, 2.097998e+001
1.496262e+002, 2.090381e+001
1.501083e+002, 2.066460e+001
1.505905e+002, 2.030703e+001
1.510726e+002, 1.990458e+001
1.515547e+002, 1.928382e+001
1.520368e+002, 1.877164e+001
1.525189e+002, 1.847349e+001
1.530010e+002, 1.851595e+001
1.534832e+002, 1.856147e+001
1.539653e+002, 1.860541e+001
1.544474e+002, 1.863912e+001
1.549295e+002, 1.864190e+001
1.554116e+002, 1.850800e+001
1.558937e+002, 1.841711e+001
1.563759e+002, 1.846273e+001
1.568580e+002, 1.884546e+001
1.573401e+002, 1.911182e+001
1.578222e+002, 1.908902e+001
1.583043e+002, 1.885676e+001
1.587864e+002, 1.870887e+001
1.592686e+002, 1.893096e+001
1.597507e+002, 1.914234e+001
1.602328e+002, 1.909843e+001
1.607149e+002, 1.851852e+001
1.611970e+002, 1.790041e+001
1.616791e+002, 1.733211e+001
1.621613e+002, 1.683500e+001
1.626434e+002, 1.649751e+001
1.631255e+002, 1.638932e+001
1.636076e+002, 1.644828e+001
1.640897e+002, 1.661899e+001
1.645718e+002, 1.715490e+001
1.650540e+002, 1.757437e+001
1.655361e+002, 1.756310e+001
1.660182e+002, 1.713467e+001
1.665003e+002, 1.668588e+001
1.669824e+002, 1.630689e+001
1.674645e+002, 1.605855e+001
1.679467e+002, 1.601877e+001
1.684288e+002, 1.647989e+001
1.689109e+002, 1.697814e+001
1.693930e+002, 1.710895e+001
1.698751e+002, 1.684262e+001
1.703572e+002, 1.663224e+001
1.708394e+002, 1.693955e+001
1.713215e+002, 1.750049e+001
1.718036e+002, 1.786492e+001
1.722857e+002, 1.765973e+001
1.727678e+002, 1.725927e+001
1.732499e+002, 1.696644e+001
1.737321e+002, 1.678193e+001
1.742142e+002, 1.684277e+001
1.746963e+002, 1.753405e+001
1.751784e+002, 1.858547e+001
1.756605e+002, 1.935946e+001
1.761426e+002, 1.920029e+001
1.766248e+002, 1.867692e+001
1.771069e+002, 1.855328e+001
1.775890e+002, 1.892193e+001
1.780711e+002, 1.959028e+001
1.785532e+002, 2.039091e+001
1.790353e+002, 2.133142e+001
1.795175e+002, 2.240651e+001
1.799996e+002, 2.368468e+001
1.804817e+002, 2.508961e+001
1.809638e+002, 2.657191e+001
1.814459e+002, 2.821673e+001
1.819280e+002, 2.969831e+001
1.824102e+002, 3.049816e+001
1.828923e+002, 3.068558e+001
1.833744e+002, 3.079516e+001
1.838565e+002, 3.094263e+001
1.843386e+002, 3.125080e+001
1.848207e+002, 3.218126e+001
1.853029e+002, 3.401236e+001
1.857850e+002, 3.610179e+001
1.862671e+002, 3.731431e+001
1.867492e+002, 3.768223e+001
1.872313e+002, 3.802128e+001
1.877134e+002, 3.896429e+001
1.881956e+002, 4.039449e+001
1.886777e+002, 4.170107e+001
1.891598e+002, 4.277047e+001
1.896419e+002, 4.370582e+001
1.901240e+002, 4.473088e+001
1.906061e+002, 4.586247e+001
1.910883e+002, 4.701131e+001
1.915704e+002, 4.812859e+001
1.920525e+002, 4.922466e+001
1.925346e+002, 5.028942e+001
1.930167e+002, 5.128253e+001
1.934988e+002, 5.223446e+001
1.939810e+002, 5.315862e+001
1.944631e+002, 5.401548e+001
1.949452e+002, 5.490638e+001
1.954273e+002, 5.566662e+001
1.959094e+002, 5.630070e+001
1.963915e+002, 5.703867e+001
1.968737e+002, 5.790194e+001
1.973558e+002, 5.889779e+001
1.978379e+002, 6.019870e+001
1.983200e+002, 6.189105e+001
1.988021e+002, 6.347775e+001
1.992842e+002, 6.439108e+001
1.997664e+002, 6.460105e+001
2.002485e+002, 6.497918e+001
2.007306e+002, 6.577437e+001
2.012127e+002, 6.688642e+001
2.016948e+002, 6.774667e+001
2.021769e+002, 6.830362e+001
2.026591e+002, 6.879091e+001
2.031412e+002, 6.942189e+001
2.036233e+002, 7.021420e+001
2.041054e+002, 7.104359e+001
2.045875e+002, 7.194396e+001
2.050696e+002, 7.288317e+001
2.055518e+002, 7.350577e+001
2.060339e+002, 7.372987e+001
2.065160e+002, 7.383054e+001
2.069981e+002, 7.403948e+001
2.074802e+002, 7.431987e+001
2.079623e+002, 7.486229e+001
2.084445e+002, 7.580615e+001
2.089266e+002, 7.712894e+001
2.094087e+002, 7.812489e+001
2.098908e+002, 7.864762e+001
2.103729e+002, 7.912254e+001
2.108550e+002, 8.003955e+001
2.113372e+002, 8.148534e+001
2.118193e+002, 8.302848e+001
2.123014e+002, 8.461669e+001
2.127835e+002, 8.623788e+001
2.132656e+002, 8.770662e+001
2.137477e+002, 8.900431e+001
2.142299e+002, 9.018482e+001
2.147120e+002, 9.125352e+001
2.151941e+002, 9.213211e+001
2.156762e+002, 9.314622e+001
2.161583e+002, 9.444319e+001
2.166404e+002, 9.603404e+001
2.171226e+002, 9.745333e+001
2.176047e+002, 9.866061e+001
2.180868e+002, 9.974668e+001
2.185689e+002, 1.008458e+002
2.190510e+002, 1.020080e+002
2.195331e+002, 1.030718e+002
2.200153e+002, 1.039467e+002
2.204974e+002, 1.045943e+002
2.209795e+002, 1.055626e+002
2.214616e+002, 1.070248e+002
2.219437e+002, 1.086365e+002
2.224258e+002, 1.100028e+002
2.229080e+002, 1.110648e+002
2.233901e+002, 1.119815e+002
2.238722e+002, 1.126578e+002
2.243543e+002, 1.130067e+002
2.248364e+002, 1.139531e+002
2.253185e+002, 1.157531e+002
2.258007e+002, 1.178921e+002
2.262828e+002, 1.197623e+002
2.267649e+002, 1.212872e+002
2.272470e+002, 1.226650e+002
2.277291e+002, 1.239306e+002
2.282112e+002, 1.251153e+002
2.286934e+002, 1.260442e+002
2.291755e+002, 1.265548e+002
2.296576e+002, 1.269507e+002
2.301397e+002, 1.276775e+002
2.306218e+002, 1.291205e+002
2.311039e+002, 1.301918e+002
2.315861e+002, 1.304536e+002
2.320682e+002, 1.297163e+002
2.325503e+002, 1.295985e+002
2.330324e+002, 1.304804e+002
2.335145e+002, 1.316634e+002
2.339966e+002, 1.322282e+002
2.344788e+002, 1.317492e+002
2.349609e+002, 1.314138e+002
2.354430e+002, 1.315634e+002
2.359251e+002, 1.322762e+002
2.364072e+002, 1.329195e+002
2.368893e+002, 1.334441e+002
2.373715e+002, 1.339381e+002
2.378536e+002, 1.345038e+002
2.383357e+002, 1.351432e+002
2.388178e+002, 1.358585e+002
2.392999e+002, 1.366810e+002
2.397820e+002, 1.376268e+002
2.402642e+002, 1.384644e+002
2.407463e+002, 1.390686e+002
2.412284e+002, 1.396640e+002
2.417105e+002, 1.405729e+002
2.421926e+002, 1.420856e+002
2.426747e+002, 1.433653e+002
2.431569e+002, 1.441004e+002
2.436390e+002, 1.441863e+002
2.441211e+002, 1.446221e+002
2.446032e+002, 1.455869e+002
2.450853e+002, 1.467426e+002
2.455674e+002, 1.476969e+002
2.460496e+002, 1.483655e+002
2.465317e+002, 1.489936e+002
2.470138e+002, 1.496316e+002
2.474959e+002, 1.502831e+002
2.479780e+002, 1.509780e+002
2.484601e+002, 1.518308e+002
2.489423e+002, 1.526285e+002
2.494244e+002, 1.531267e+002
2.499065e+002, 1.532331e+002
2.503886e+002, 1.532309e+002
2.508707e+002, 1.531598e+002
2.513528e+002, 1.530184e+002
2.518350e+002, 1.528953e+002
2.523171e+002, 1.528297e+002
2.527992e+002, 1.527417e+002
2.532813e+002, 1.525985e+002
2.537634e+002, 1.525698e+002
2.542455e+002, 1.521117e+002
2.547277e+002, 1.510406e+002
2.552098e+002, 1.493389e+002
2.556919e+002, 1.475448e+002
2.561740e+002, 1.454907e+002
2.566561e+002, 1.435477e+002
2.571382e+002, 1.422410e+002
2.576204e+002, 1.420926e+002
2.581025e+002, 1.412542e+002
2.585846e+002, 1.391602e+002
2.590667e+002, 1.358830e+002
2.595488e+002, 1.331988e+002
2.600309e+002, 1.314654e+002
2.605131e+002, 1.298811e+002
2.609952e+002, 1.277148e+002
2.614773e+002, 1.246607e+002
2.619594e+002, 1.218640e+002
2.624415e+002, 1.196509e+002
2.629236e+002, 1.179222e+002
2.634058e+002, 1.158041e+002
2.638879e+002, 1.130434e+002
2.643700e+002, 1.102879e+002
2.648521e+002, 1.080383e+002
2.653342e+002, 1.064988e+002
2.658163e+002, 1.048310e+002
2.662985e+002, 1.028715e+002
2.667806e+002, 1.006969e+002
2.672627e+002, 9.871125e+001
2.677448e+002, 9.701088e+001
2.682269e+002, 9.532109e+001
2.687090e+002, 9.339504e+001
2.691912e+002, 9.110866e+001
2.696733e+002, 8.905837e+001
2.701554e+002, 8.741370e+001
2.706375e+002, 8.602663e+001
2.711196e+002, 8.430152e+001
2.716017e+002, 8.209542e+001
2.720839e+002, 7.995048e+001
2.725660e+002, 7.835152e+001
2.730481e+002, 7.739832e+001
2.735302e+002, 7.625273e+001
2.740123e+002, 7.472197e+001
2.744944e+002, 7.300957e+001
2.749766e+002, 7.176450e+001
2.754587e+002, 7.111340e+001
2.759408e+002, 7.044772e+001
2.764229e+002, 6.934748e+001
2.769050e+002, 6.775958e+001
2.773871e+002, 6.636956e+001
2.778693e+002, 6.526512e+001
2.783514e+002, 6.433881e+001
2.788335e+002, 6.331660e+001
2.793156e+002, 6.214836e+001
2.797977e+002, 6.112537e+001
2.802798e+002, 6.042568e+001
2.807620e+002, 6.005572e+001
2.812441e+002, 5.980243e+001
2.817262e+002, 5.970428e+001
2.822083e+002, 5.963038e+001
2.826904e+002, 5.928136e+001
2.831725e+002, 5.863102e+001
2.836547e+002, 5.807406e+001
2.841368e+002, 5.780857e+001
2.846189e+002, 5.782127e+001
2.851010e+002, 5.796437e+001
2.855831e+002, 5.826760e+001
2.860652e+002, 5.860753e+001
2.865474e+002, 5.881441e+001
2.870295e+002, 5.888956e+001
2.875116e+002, 5.888975e+001
2.879937e+002, 5.865990e+001
2.884758e+002, 5.831309e+001
2.889579e+002, 5.863699e+001
2.894401e+002, 5.973810e+001
2.899222e+002, 6.096696e+001
2.904043e+002, 6.135696e+001
2.908864e+002, 6.103537e+001
2.913685e+002, 6.104287e+001
2.918506e+002, 6.204411e+001
2.923328e+002, 6.363721e+001
2.928149e+002, 6.448647e+001
2.932970e+002, 6.454093e+001
2.937791e+002, 6.453834e+001
2.942612e+002, 6.530318e+001
2.947433e+002, 6.667687e+001
2.952255e+002, 6.803394e+001
2.957076e+002, 6.918780e+001
2.961897e+002, 7.017842e+001
2.966718e+002, 7.106239e+001
2.971539e+002, 7.183621e+001
2.976360e+002, 7.247469e+001
2.981182e+002, 7.280392e+001
2.986003e+002, 7.296959e+001
2.990824e+002, 7.335612e+001
2.995645e+002, 7.413399e+001
3.000466e+002, 7.511121e+001
3.005287e+002, 7.610582e+001
3.010109e+002, 7.709557e+001
3.014930e+002, 7.795361e+001
3.019751e+002, 7.853317e+001
3.024572e+002, 7.892273e+001
3.029393e+002, 7.926158e+001
3.034214e+002, 7.959702e+001
3.039036e+002, 7.986864e+001
3.043857e+002, 8.006197e+001
3.048678e+002, 8.015380e+001
3.053499e+002, 8.005691e+001
3.058320e+002, 7.959398e+001
3.063141e+002, 7.895968e+001
3.067963e+002, 7.839636e+001
3.072784e+002, 7.795252e+001
3.077605e+002, 7.753852e+001
3.082426e+002, 7.710332e+001
3.087247e+002, 7.664030e+001
3.092068e+002, 7.613417e+001
3.096890e+002, 7.543284e+001
3.101711e+002, 7.476447e+001
3.106532e+002, 7.447575e+001
3.111353e+002, 7.473327e+001
3.116174e+002, 7.467603e+001
3.120995e+002, 7.341741e+001
3.125817e+002, 7.152852e+001
3.130638e+002, 6.991710e+001
3.135459e+002, 6.916773e+001
3.140280e+002, 6.863503e+001
3.145101e+002, 6.795516e+001
3.149922e+002, 6.710405e+001
3.154744e+002, 6.616373e+001
3.159565e+002, 6.510556e+001
3.164386e+002, 6.400680e+001
3.169207e+002, 6.296903e+001
3.174028e+002, 6.191717e+001
3.178849e+002, 6.102033e+001
3.183671e+002, 6.039845e+001
3.188492e+002, 6.003585e+001
3.193313e+002, 5.970744e+001
3.198134e+002, 5.943053e+001
3.202955e+002, 5.910705e+001
3.207776e+002, 5.866269e+001
3.212598e+002, 5.803782e+001
3.217419e+002, 5.733210e+001
3.222240e+002, 5.648482e+001
3.227061e+002, 5.554051e+001
3.231882e+002, 5.473216e+001
3.236703e+002, 5.407639e+001
3.241525e+002, 5.358451e+001
3.246346e+002, 5.328419e+001
3.251167e+002, 5.352741e+001
3.255988e+002, 5.347936e+001
3.260809e+002, 5.289132e+001
3.265630e+002, 5.194427e+001
3.270452e+002, 5.113077e+001
3.275273e+002, 5.059252e+001
3.280094e+002, 5.010466e+001
3.284915e+002, 4.959352e+001
3.289736e+002, 4.906747e+001
3.294557e+002, 4.850842e+001
3.299379e+002, 4.780245e+001
3.304200e+002, 4.709743e+001
3.309021e+002, 4.666376e+001
3.313842e+002, 4.687230e+001
3.318663e+002, 4.684840e+001
3.323484e+002, 4.622853e+001
3.328306e+002, 4.486074e+001
3.333127e+002, 4.398175e+001
3.337948e+002, 4.380696e+001
3.342769e+002, 4.392712e+001
3.347590e+002, 4.391141e+001
3.352411e+002, 4.374561e+001
3.357233e+002, 4.346508e+001
3.362054e+002, 4.300990e+001
3.366875e+002, 4.240104e+001
3.371696e+002, 4.205285e+001
3.376517e+002, 4.202541e+001
3.381339e+002, 4.214400e+001
3.386160e+002, 4.226843e+001
3.390981e+002, 4.238631e+001
3.395802e+002, 4.258861e+001
3.400623e+002, 4.292738e+001
3.405444e+002, 4.334153e+001
3.410266e+002, 4.356647e+001
3.415087e+002, 4.355656e+001
3.419908e+002, 4.358829e+001
3.424729e+002, 4.387626e+001
3.429550e+002, 4.441565e+001
3.434371e+002, 4.489766e+001
3.439193e+002, 4.529421e+001
3.444014e+002, 4.562127e+001
3.448835e+002, 4.592181e+001
3.453656e+002, 4.619523e+001
3.458477e+002, 4.634905e+001
3.463298e+002, 4.613486e+001
3.468120e+002, 4.571615e+001
3.472941e+002, 4.596894e+001
3.477762e+002, 4.703215e+001
3.482583e+002, 4.813647e+001
3.487404e+002, 4.817689e+001
3.492225e+002, 4.740045e+001
3.497047e+002, 4.685968e+001
3.501868e+002, 4.710819e+001
3.506689e+002, 4.777492e+001
3.511510e+002, 4.815874e+001
3.516331e+002, 4.826571e+001
3.521152e+002, 4.847966e+001
3.525974e+002, 4.931689e+001
3.530795e+002, 5.046316e+001
3.535616e+002, 5.130847e+001
3.540437e+002, 5.150862e+001
3.545258e+002, 5.156701e+001
3.550079e+002, 5.202741e+001
3.554901e+002, 5.281337e+001
3.559722e+002, 5.358809e+001
3.564543e+002, 5.416634e+001
3.569364e+002, 5.461710e+001
3.574185e+002, 5.499651e+001
3.579006e+002, 5.527528e+001
3.583828e+002, 5.559119e+001
3.588649e+002, 5.596641e+001
3.593470e+002, 5.644525e+001
3.598291e+002, 5.711835e+001
3.603112e+002, 5.824004e+001
3.607933e+002, 5.940609e+001
3.612755e+002, 6.035992e+001
3.617576e+002, 6.104484e+001
3.622397e+002, 6.175769e+001
3.627218e+002, 6.273912e+001
3.632039e+002, 6.376190e+001
3.636860e+002, 6.457249e+001
3.641682e+002, 6.481011e+001
3.646503e+002, 6.511703e+001
3.651324e+002, 6.570574e+001
3.656145e+002, 6.657449e+001
3.660966e+002, 6.747785e+001
3.665787e+002, 6.839475e+001
3.670609e+002, 6.932194e+001
3.675430e+002, 7.025742e+001
3.680251e+002, 7.103746e+001
3.685072e+002, 7.202975e+001
3.689893e+002, 7.330898e+001
3.694714e+002, 7.481905e+001
3.699536e+002, 7.636218e+001
3.704357e+002, 7.811191e+001
3.709178e+002, 7.971568e+001
3.713999e+002, 8.094751e+001
3.718820e+002, 8.147260e+001
3.723641e+002, 8.255263e+001
3.728463e+002, 8.450685e+001
3.733284e+002, 8.679243e+001
3.738105e+002, 8.851444e+001
3.742926e+002, 8.931086e+001
3.747747e+002, 9.037749e+001
3.752568e+002, 9.217596e+001
3.757390e+002, 9.472463e+001
3.762211e+002, 9.691895e+001
3.767032e+002, 9.875009e+001
3.771853e+002, 1.002888e+002
3.776674e+002, 1.015648e+002
3.781495e+002, 1.025409e+002
3.786317e+002, 1.036485e+002
3.791138e+002, 1.050642e+002
3.795959e+002, 1.066168e+002
3.800780e+002, 1.077919e+002
3.805601e+002, 1.085608e+002
3.810422e+002, 1.092073e+002
3.815244e+002, 1.099368e+002
3.820065e+002, 1.107245e+002
3.824886e+002, 1.113781e+002
3.829707e+002, 1.118712e+002
3.834528e+002, 1.122708e+002
3.839349e+002, 1.127754e+002
3.844171e+002, 1.133240e+002
3.848992e+002, 1.135896e+002
3.853813e+002, 1.132973e+002
3.858634e+002, 1.126616e+002
3.863455e+002, 1.120754e+002
3.868276e+002, 1.115595e+002
3.873098e+002, 1.108855e+002
3.877919e+002, 1.096718e+002
3.882740e+002, 1.081740e+002
3.887561e+002, 1.068650e+002
3.892382e+002, 1.060392e+002
3.897203e+002, 1.053095e+002
3.902025e+002, 1.043335e+002
3.906846e+002, 1.031676e+002
3.911667e+002, 1.020552e+002
3.916488e+002, 1.012904e+002
3.921309e+002, 1.005619e+002
3.926130e+002, 9.955734e+001
3.930952e+002, 9.804897e+001
3.935773e+002, 9.666560e+001
3.940594e+002, 9.576389e+001
3.945415e+002, 9.517363e+001
3.950236e+002, 9.457845e+001
3.955057e+002, 9.389790e+001
3.959879e+002, 9.318289e+001
3.964700e+002, 9.243977e+001
3.969521e+002, 9.166039e+001
3.974342e+002, 9.091767e+001
3.979163e+002, 9.018165e+001
3.983984e+002, 8.950759e+001
3.988806e+002, 8.894585e+001
3.993627e+002, 8.829065e+001
3.998448e+002, 8.799806e+001
4.003269e+002, 8.837546e+001
4.008090e+002, 8.928406e+001
4.012911e+002, 8.965125e+001
4.017733e+002, 8.917210e+001
4.022554e+002, 8.851767e+001
4.027375e+002, 8.799805e+001
4.032196e+002, 8.755254e+001
4.037017e+002, 8.742738e+001
4.041838e+002, 8.776883e+001
4.046660e+002, 8.832236e+001
4.051481e+002, 8.857648e+001
4.056302e+002, 8.845523e+001
4.061123e+002, 8.832217e+001
4.065944e+002, 8.831114e+001
4.070765e+002, 8.841546e+001
4.075587e+002, 8.849780e+001
4.080408e+002, 8.856419e+001
4.085229e+002, 8.858629e+001
4.090050e+002, 8.847446e+001
4.094871e+002, 8.824622e+001
4.099692e+002, 8.816423e+001
4.104514e+002, 8.832140e+001
4.109335e+002, 8.861385e+001
4.114156e+002, 8.883566e+001
4.118977e+002, 8.899020e+001
4.123798e+002, 8.914488e+001
4.128619e+002, 8.939688e+001
4.133441e+002, 8.966899e+001
4.138262e+002, 8.980312e+001
4.143083e+002, 8.976962e+001
4.147904e+002, 8.966206e+001
4.152725e+002, 8.953822e+001
4.157546e+002, 8.941000e+001
4.162368e+002, 8.929831e+001
4.167189e+002, 8.915732e+001
4.172010e+002, 8.907820e+001
4.176831e+002, 8.921561e+001
4.181652e+002, 8.954888e+001
4.186473e+002, 8.975487e+001
4.191295e+002, 8.940415e+001
4.196116e+002, 8.897209e+001
4.200937e+002, 8.890308e+001
4.205758e+002, 8.957504e+001
4.210579e+002, 9.022534e+001
4.215400e+002, 9.054801e+001
4.220222e+002, 9.066776e+001
4.225043e+002, 9.090185e+001
4.229864e+002, 9.147808e+001
4.234685e+002, 9.204336e+001
4.239506e+002, 9.239915e+001
4.244327e+002, 9.236255e+001
4.249149e+002, 9.270805e+001
4.253970e+002, 9.380980e+001
4.258791e+002, 9.510879e+001
4.263612e+002, 9.605666e+001
4.268433e+002, 9.641027e+001
4.273254e+002, 9.677952e+001
4.278076e+002, 9.720859e+001
4.282897e+002, 9.771504e+001
4.287718e+002, 9.841320e+001
4.292539e+002, 9.933031e+001
4.297360e+002, 1.003592e+002
4.302181e+002, 1.014610e+002
4.307003e+002, 1.026613e+002
4.311824e+002, 1.037473e+002
4.316645e+002, 1.046829e+002
4.321466e+002, 1.055447e+002
4.326287e+002, 1.064224e+002
4.331108e+002, 1.073085e+002
4.335930e+002, 1.082730e+002
4.340751e+002, 1.094393e+002
4.345572e+002, 1.106933e+002
4.350393e+002, 1.115501e+002
4.355214e+002, 1.119957e+002
4.360035e+002, 1.125024e+002
4.364857e+002, 1.136387e+002
4.369678e+002, 1.151451e+002
4.374499e+002, 1.164080e+002
4.379320e+002, 1.172418e+002
4.384141e+002, 1.178869e+002
4.388962e+002, 1.184379e+002
4.393784e+002, 1.189862e+002
4.398605e+002, 1.198012e+002
4.403426e+002, 1.214482e+002
4.408247e+002, 1.231529e+002
4.413068e+002, 1.242547e+002
4.417889e+002, 1.246559e+002
4.422711e+002, 1.248461e+002
4.427532e+002, 1.249984e+002
4.432353e+002, 1.250939e+002
4.437174e+002, 1.251126e+002
4.441995e+002, 1.249080e+002
4.446816e+002, 1.247737e+002
4.451638e+002, 1.248910e+002
4.456459e+002, 1.251797e+002
4.461280e+002, 1.252757e+002
4.466101e+002, 1.251443e+002
4.470922e+002, 1.247946e+002
4.475743e+002, 1.242108e+002
4.480565e+002, 1.233464e+002
4.485386e+002, 1.223806e+002
4.490207e+002, 1.212356e+002
4.495028e+002, 1.200436e+002
4.499849e+002, 1.190082e+002
4.504670e+002, 1.182074e+002
4.509492e+002, 1.173759e+002
4.514313e+002, 1.164846e+002
4.519134e+002, 1.155254e+002
4.523955e+002, 1.144597e+002
4.528776e+002, 1.133243e+002
4.533597e+002, 1.120356e+002
4.538419e+002, 1.103186e+002
4.543240e+002, 1.082125e+002
4.548061e+002, 1.068622e+002
4.552882e+002, 1.065165e+002
4.557703e+002, 1.065786e+002
4.562524e+002, 1.062705e+002
4.567346e+002, 1.055982e+002
4.572167e+002, 1.046450e+002
4.576988e+002, 1.032090e+002
4.581809e+002, 1.016064e+002
4.586630e+002, 1.003372e+002
4.591451e+002, 9.940288e+001
4.596273e+002, 9.866523e+001
4.601094e+002, 9.819132e+001
4.605915e+002, 9.780161e+001
4.610736e+002, 9.724323e+001
4.615557e+002, 9.637137e+001
4.620378e+002, 9.550741e+001
4.625200e+002, 9.489360e+001
4.630021e+002, 9.443166e+001
4.634842e+002, 9.394250e+001
4.639663e+002, 9.337196e+001
4.644484e+002, 9.274377e+001
4.649305e+002, 9.202315e+001
4.654127e+002, 9.119709e+001
4.658948e+002, 9.052912e+001
4.663769e+002, 9.008531e+001
4.668590e+002, 8.981847e+001
4.673411e+002, 8.969849e+001
4.678232e+002, 8.996590e+001
4.683054e+002, 9.005553e+001
4.687875e+002, 8.987134e+001
4.692696e+002, 8.951202e+001
4.697517e+002, 8.919234e+001
4.702338e+002, 8.882901e+001
4.707159e+002, 8.867259e+001
4.711981e+002, 8.890528e+001
4.716802e+002, 8.955396e+001
4.721623e+002, 8.984708e+001
4.726444e+002, 8.970464e+001
4.731265e+002, 8.941683e+001
4.736086e+002, 8.925332e+001
4.740908e+002, 8.921220e+001
4.745729e+002, 8.919197e+001
4.750550e+002, 8.916660e+001
4.755371e+002, 8.916362e+001
4.760192e+002, 8.927638e+001
4.765013e+002, 8.948472e+001
4.769835e+002, 8.963316e+001
4.774656e+002, 8.957896e+001
4.779477e+002, 8.943009e+001
4.784298e+002, 8.942174e+001
4.789119e+002, 8.957042e+001
4.793940e+002, 8.958509e+001
4.798762e+002, 8.911135e+001
4.803583e+002, 8.840450e+001
4.808404e+002, 8.781084e+001
4.813225e+002, 8.755005e+001
4.818046e+002, 8.725676e+001
4.822867e+002, 8.674850e+001
4.827689e+002, 8.606523e+001
4.832510e+002, 8.530749e+001
4.837331e+002, 8.455155e+001
4.842152e+002, 8.369090e+001
4.846973e+002, 8.267580e+001
4.851794e+002, 8.148611e+001
4.856616e+002, 8.021163e+001
4.861437e+002, 7.858395e+001
4.866258e+002, 7.704475e+001
4.871079e+002, 7.595048e+001
4.875900e+002, 7.567418e+001
4.880721e+002, 7.518703e+001
4.885543e+002, 7.442239e+001
4.890364e+002, 7.338139e+001
4.895185e+002, 7.198378e+001
4.900006e+002, 7.009084e+001
4.904827e+002, 6.831297e+001
4.909648e+002, 6.695309e+001
4.914470e+002, 6.598789e+001
4.919291e+002, 6.512779e+001
4.924112e+002, 6.440540e+001
4.928933e+002, 6.365150e+001
4.933754e+002, 6.269817e+001
4.938575e+002, 6.156580e+001
4.943397e+002, 6.033475e+001
4.948218e+002, 5.900022e+001
4.953039e+002, 5.764131e+001
4.957860e+002, 5.618947e+001
4.962681e+002, 5.477552e+001
4.967502e+002, 5.384927e+001
4.972324e+002, 5.427800e+001
4.977145e+002, 5.490159e+001
4.981966e+002, 5.451058e+001
4.986787e+002, 5.303486e+001
4.991608e+002, 5.155493e+001
4.996429e+002, 5.062146e+001
5.001251e+002, 4.994346e+001
5.006072e+002, 4.923257e+001
5.010893e+002, 4.829998e+001
5.015714e+002, 4.751463e+001
5.020535e+002, 4.703616e+001
5.025356e+002, 4.675330e+001
5.030178e+002, 4.640812e+001
5.034999e+002, 4.583152e+001
5.039820e+002, 4.535383e+001
5.044641e+002, 4.517384e+001
5.049462e+002, 4.532318e+001
5.054283e+002, 4.493494e+001
5.059105e+002, 4.369167e+001
5.063926e+002, 4.240831e+001
5.068747e+002, 4.174531e+001
5.073568e+002, 4.180083e+001
5.078389e+002, 4.181911e+001
5.083210e+002, 4.173302e+001
5.088032e+002, 4.158468e+001
5.092853e+002, 4.142906e+001
5.097674e+002, 4.126791e+001
5.102495e+002, 4.114065e+001
5.107316e+002, 4.113867e+001
5.112137e+002, 4.114673e+001
5.116959e+002, 4.090602e+001
5.121780e+002, 4.042710e+001
5.126601e+002, 3.982750e+001
5.131422e+002, 3.899153e+001
5.136243e+002, 3.816624e+001
5.141064e+002, 3.772388e+001
5.145886e+002, 3.782644e+001
5.150707e+002, 3.795594e+001
5.155528e+002, 3.771104e+001
5.160349e+002, 3.731171e+001
5.165170e+002, 3.707206e+001
5.169991e+002, 3.737196e+001
5.174813e+002, 3.756445e+001
5.179634e+002, 3.736673e+001
5.184455e+002, 3.682756e+001
5.189276e+002, 3.637249e+001
5.194097e+002, 3.604477e+001
5.198918e+002, 3.582233e+001
5.203740e+002, 3.572678e+001
5.208561e+002, 3.583178e+001
5.213382e+002, 3.580142e+001
5.218203e+002, 3.553621e+001
5.223024e+002, 3.524956e+001
5.227845e+002, 3.523594e+001
5.232667e+002, 3.556918e+001
5.237488e+002, 3.575330e+001
5.242309e+002, 3.567083e+001
5.247130e+002, 3.539697e+001
5.251951e+002, 3.506109e+001
5.256772e+002, 3.466532e+001
5.261594e+002, 3.435896e+001
5.266415e+002, 3.428391e+001
5.271236e+002, 3.434528e+001
5.276057e+002, 3.429061e+001
5.280878e+002, 3.410965e+001
5.285699e+002, 3.401991e+001
5.290521e+002, 3.439120e+001
5.295342e+002, 3.489912e+001
5.300163e+002, 3.509319e+001
5.304984e+002, 3.472294e+001
5.309805e+002, 3.426043e+001
5.314626e+002, 3.389293e+001
5.319448e+002, 3.362502e+001
5.324269e+002, 3.346615e+001
5.329090e+002, 3.332772e+001
5.333911e+002, 3.338408e+001
5.338732e+002, 3.382166e+001
5.343553e+002, 3.465885e+001
5.348375e+002, 3.519756e+001
5.353196e+002, 3.522813e+001
5.358017e+002, 3.514579e+001
5.362838e+002, 3.517196e+001
5.367659e+002, 3.537895e+001
5.372480e+002, 3.548318e+001
5.377302e+002, 3.545173e+001
5.382123e+002, 3.535872e+001
5.386944e+002, 3.525953e+001
5.391765e+002, 3.513857e+001
5.396586e+002, 3.526311e+001
5.401407e+002, 3.583739e+001
5.406229e+002, 3.658639e+001
5.411050e+002, 3.672201e+001
5.415871e+002, 3.630912e+001
5.420692e+002, 3.599333e+001
5.425513e+002, 3.626944e+001
5.430334e+002, 3.686548e+001
5.435156e+002, 3.738203e+001
5.439977e+002, 3.779103e+001
5.444798e+002, 3.816762e+001
5.449619e+002, 3.852019e+001
5.454440e+002, 3.888261e+001
5.459261e+002, 3.929555e+001
5.464083e+002, 3.981854e+001
5.468904e+002, 4.032125e+001
5.473725e+002, 4.077936e+001
5.478546e+002, 4.117922e+001
5.483367e+002, 4.150293e+001
5.488188e+002, 4.163769e+001
5.493010e+002, 4.180770e+001
5.497831e+002, 4.202212e+001
5.502652e+002, 4.228306e+001
5.507473e+002, 4.280236e+001
5.512294e+002, 4.371148e+001
5.517115e+002, 4.465852e+001
5.521937e+002, 4.548055e+001
5.526758e+002, 4.619371e+001
5.531579e+002, 4.656103e+001
5.536400e+002, 4.647048e+001
5.541221e+002, 4.631926e+001
5.546042e+002, 4.669677e+001
5.550864e+002, 4.752563e+001
5.555685e+002, 4.832381e+001
5.560506e+002, 4.892459e+001
5.565327e+002, 4.944081e+001
5.570148e+002, 5.003130e+001
5.574969e+002, 5.067351e+001
5.579791e+002, 5.128617e+001
5.584612e+002, 5.178593e+001
5.589433e+002, 5.225619e+001
5.594254e+002, 5.275127e+001
5.599075e+002, 5.327708e+001
5.603896e+002, 5.382467e+001
5.608718e+002, 5.440253e+001
5.613539e+002, 5.498725e+001
5.618360e+002, 5.555601e+001
5.623181e+002, 5.602781e+001
5.628002e+002, 5.661290e+001
5.632823e+002, 5.746128e+001
5.637645e+002, 5.836883e+001
5.642466e+002, 5.901007e+001
5.647287e+002, 5.927972e+001
5.652108e+002, 5.951490e+001
5.656929e+002, 5.981922e+001
5.661750e+002, 6.014375e+001
5.666572e+002, 6.024414e+001
5.671393e+002, 6.009198e+001
5.676214e+002, 5.991355e+001
5.681035e+002, 5.981593e+001
5.685856e+002, 5.979852e+001
5.690677e+002, 5.992247e+001
5.695499e+002, 6.020333e+001
5.700320e+002, 6.038362e+001
5.705141e+002, 6.008157e+001
5.709962e+002, 5.954947e+001
5.714783e+002, 5.922511e+001
5.719604e+002, 5.932833e+001
5.724426e+002, 5.941938e+001
5.729247e+002, 5.913741e+001
5.734068e+002, 5.865887e+001
5.738889e+002, 5.829316e+001
5.743710e+002, 5.828379e+001
5.748531e+002, 5.826516e+001
5.753353e+002, 5.819995e+001
5.758174e+002, 5.806574e+001
5.762995e+002, 5.759844e+001
5.767816e+002, 5.642428e+001
5.772637e+002, 5.536197e+001
5.777458e+002, 5.481880e+001
5.782280e+002, 5.493758e+001
5.787101e+002, 5.480476e+001
5.791922e+002, 5.433528e+001
5.796743e+002, 5.380073e+001
5.801564e+002, 5.352208e+001
5.806385e+002, 5.348271e+001
5.811207e+002, 5.335347e+001
5.816028e+002, 5.306105e+001
5.820849e+002, 5.269374e+001
5.825670e+002, 5.233995e+001
5.830491e+002, 5.201801e+001
5.835313e+002, 5.177089e+001
5.840134e+002, 5.167323e+001
5.844955e+002, 5.162492e+001
5.849776e+002, 5.156873e+001
5.854597e+002, 5.149358e+001
5.859418e+002, 5.134205e+001
5.864240e+002, 5.099146e+001
5.869061e+002, 5.063089e+001
5.873882e+002, 5.036795e+001
5.878703e+002, 5.023567e+001
5.883524e+002, 5.012486e+001
5.888345e+002, 5.015912e+001
5.893167e+002, 5.011913e+001
5.897988e+002, 4.980223e+001
5.902809e+002, 4.900645e+001
5.907630e+002, 4.839318e+001
5.912451e+002, 4.802036e+001
5.917272e+002, 4.783588e+001
5.922094e+002, 4.780479e+001
5.926915e+002, 4.794397e+001
5.931736e+002, 4.796349e+001
5.936557e+002, 4.769241e+001
5.941378e+002, 4.728679e+001
5.946199e+002, 4.712702e+001
5.951021e+002, 4.719477e+001
5.955842e+002, 4.732798e+001
5.960663e+002, 4.751375e+001
5.965484e+002, 4.765923e+001
5.970305e+002, 4.765867e+001
5.975126e+002, 4.750232e+001
5.979948e+002, 4.723875e+001
5.984769e+002, 4.671486e+001
5.989590e+002, 4.620012e+001
5.994411e+002, 4.593587e+001
5.999232e+002, 4.616180e+001
6.004053e+002, 4.632086e+001
6.008875e+002, 4.632201e+001
6.013696e+002, 4.621392e+001
6.018517e+002, 4.604064e+001
6.023338e+002, 4.569568e+001
6.028159e+002, 4.550824e+001
6.032980e+002, 4.558766e+001
6.037802e+002, 4.585154e+001
6.042623e+002, 4.597178e+001
6.047444e+002, 4.592064e+001
6.052265e+002, 4.595217e+001
6.057086e+002, 4.629964e+001
6.061907e+002, 4.683489e+001
6.066729e+002, 4.705796e+001
6.071550e+002, 4.697445e+001
6.076371e+002, 4.691838e+001
6.081192e+002, 4.731538e+001
6.086013e+002, 4.783433e+001
6.090834e+002, 4.799531e+001
6.095656e+002, 4.764332e+001
6.100477e+002, 4.726721e+001
6.105298e+002, 4.696824e+001
6.110119e+002, 4.685945e+001
6.114940e+002, 4.706699e+001
6.119761e+002, 4.813580e+001
6.124583e+002, 4.890791e+001
6.129404e+002, 4.907180e+001
6.134225e+002, 4.885410e+001
6.139046e+002, 4.873824e+001
6.143867e+002, 4.875705e+001
6.148688e+002, 4.882220e+001
6.153510e+002, 4.895286e+001
6.158331e+002, 4.911393e+001
6.163152e+002, 4.899847e+001
6.167973e+002, 4.856216e+001
6.172794e+002, 4.827827e+001
6.177615e+002, 4.863351e+001
6.182437e+002, 4.937838e+001
6.187258e+002, 4.983900e+001
6.192079e+002, 4.998136e+001
6.196900e+002, 4.991320e+001
6.201721e+002, 4.965316e+001
6.206542e+002, 4.926612e+001
6.211364e+002, 4.880027e+001
6.216185e+002, 4.814544e+001
6.221006e+002, 4.767957e+001
6.225827e+002, 4.779453e+001
6.230648e+002, 4.812539e+001
6.235469e+002, 4.816219e+001
6.240291e+002, 4.766980e+001
6.245112e+002, 4.705034e+001
6.249933e+002, 4.631439e+001
6.254754e+002, 4.549516e+001
6.259575e+002, 4.468354e+001
6.264396e+002, 4.380339e+001
6.269218e+002, 4.315255e+001
6.274039e+002, 4.296757e+001
6.278860e+002, 4.312794e+001
6.283681e+002, 4.286832e+001
6.288502e+002, 4.217803e+001
6.293323e+002, 4.135253e+001
6.298145e+002, 4.053369e+001
6.302966e+002, 3.975660e+001
6.307787e+002, 3.906240e+001
6.312608e+002, 3.845266e+001
6.317429e+002, 3.795644e+001
6.322250e+002, 3.768794e+001
6.327072e+002, 3.750263e+001
6.331893e+002, 3.723681e+001
6.336714e+002, 3.680750e+001
6.341535e+002, 3.637348e+001
6.346356e+002, 3.594992e+001
6.351177e+002, 3.555552e+001
6.355999e+002, 3.521299e+001
6.360820e+002, 3.495184e+001
6.365641e+002, 3.469997e+001
6.370462e+002, 3.447704e+001
6.375283e+002, 3.424651e+001
6.380104e+002, 3.382714e+001
6.384926e+002, 3.316356e+001
6.389747e+002, 3.264590e+001
6.394568e+002, 3.250185e+001
6.399389e+002, 3.262589e+001
6.404210e+002, 3.272142e+001
6.409031e+002, 3.278386e+001
6.413853e+002, 3.271273e+001
6.418674e+002, 3.231570e+001
6.423495e+002, 3.180398e+001
6.428316e+002, 3.143163e+001
6.433137e+002, 3.122941e+001
6.437958e+002, 3.110208e+001
6.442780e+002, 3.105971e+001
6.447601e+002, 3.103531e+001
6.452422e+002, 3.097110e+001
6.457243e+002, 3.084845e+001
6.462064e+002, 3.069740e+001
6.466885e+002, 3.052735e+001
6.471707e+002, 3.032621e+001
6.476528e+002, 3.005186e+001
6.481349e+002, 2.962720e+001
6.486170e+002, 2.938511e+001
6.490991e+002, 2.943484e+001
6.495812e+002, 2.965002e+001
6.500634e+002, 2.978806e+001
6.505455e+002, 2.984383e+001
6.510276e+002, 2.972176e+001
6.515097e+002, 2.917886e+001
6.519918e+002, 2.855033e+001
6.524739e+002, 2.843863e+001
6.529561e+002, 2.875644e+001
6.534382e+002, 2.903843e+001
6.539203e+002, 2.903325e+001
6.544024e+002, 2.888080e+001
6.548845e+002, 2.861895e+001
6.553666e+002, 2.823416e+001
6.558488e+002, 2.797569e+001
6.563309e+002, 2.806380e+001
6.568130e+002, 2.816947e+001
6.572951e+002, 2.808715e+001
6.577772e+002, 2.773027e+001
6.582593e+002, 2.740052e+001
6.587415e+002, 2.705531e+001
6.592236e+002, 2.680590e+001
6.597057e+002, 2.683792e+001
6.601878e+002, 2.714368e+001
6.606699e+002, 2.737198e+001
6.611520e+002, 2.744100e+001
6.616342e+002, 2.744924e+001
6.621163e+002, 2.758716e+001
6.625984e+002, 2.777860e+001
6.630805e+002, 2.781732e+001
6.635626e+002, 2.746292e+001
6.640447e+002, 2.708884e+001
6.645269e+002, 2.701645e+001
6.650090e+002, 2.714258e+001
6.654911e+002, 2.716287e+001
6.659732e+002, 2.677900e+001
6.664553e+002, 2.647521e+001
6.669374e+002, 2.649419e+001
6.674196e+002, 2.680723e+001
6.679017e+002, 2.698626e+001
6.683838e+002, 2.700691e+001
6.688659e+002, 2.694215e+001
6.693480e+002, 2.679905e+001
6.698301e+002, 2.657974e+001
6.703123e+002, 2.642510e+001
6.707944e+002, 2.633393e+001
6.712765e+002, 2.631595e+001
6.717586e+002, 2.647729e+001
6.722407e+002, 2.670308e+001
6.727228e+002, 2.668093e+001
6.732050e+002, 2.632342e+001
6.736871e+002, 2.601243e+001
6.741692e+002, 2.613578e+001
6.746513e+002, 2.642066e+001
6.751334e+002, 2.654481e+001
6.756155e+002, 2.632060e+001
6.760977e+002, 2.609130e+001
6.765798e+002, 2.590780e+001
6.770619e+002, 2.577490e+001
6.775440e+002, 2.570686e+001
6.780261e+002, 2.573943e+001
6.785082e+002, 2.575997e+001
6.789904e+002, 2.573593e+001
6.794725e+002, 2.569841e+001
6.799546e+002, 2.576859e+001
6.804367e+002, 2.594770e+001
6.809188e+002, 2.601872e+001
6.814009e+002, 2.580194e+001
6.818831e+002, 2.547700e+001
6.823652e+002, 2.539655e+001
6.828473e+002, 2.552231e+001
6.833294e+002, 2.566664e+001
6.838115e+002, 2.575342e+001
6.842936e+002, 2.579212e+001
6.847758e+002, 2.580537e+001
6.852579e+002, 2.579324e+001
6.857400e+002, 2.568942e+001
6.862221e+002, 2.530535e+001
6.867042e+002, 2.497298e+001
6.871863e+002, 2.489645e+001
6.876685e+002, 2.518280e+001
6.881506e+002, 2.523023e+001
6.886327e+002, 2.493649e+001
6.891148e+002, 2.461234e+001
6.895969e+002, 2.456369e+001
6.900790e+002, 2.477029e+001
6.905612e+002, 2.493668e+001
6.910433e+002, 2.503518e+001
6.915254e+002, 2.507830e+001
6.920075e+002, 2.500232e+001
6.924896e+002, 2.489379e+001
6.929717e+002, 2.493389e+001
6.934539e+002, 2.526769e+001
6.939360e+002, 2.556820e+001
6.944181e+002, 2.554475e+001
6.949002e+002, 2.539054e+001
6.953823e+002, 2.540578e+001
6.958644e+002, 2.592320e+001
6.963466e+002, 2.628801e+001
6.968287e+002, 2.642901e+001
6.973108e+002, 2.635757e+001
6.977929e+002, 2.603145e+001
6.982750e+002, 2.533356e+001
6.987571e+002, 2.483610e+001
6.992393e+002, 2.479765e+001
6.997214e+002, 2.504603e+001
7.002035e+002, 2.500105e+001
7.006856e+002, 2.470562e+001
7.011677e+002, 2.453674e+001
7.016498e+002, 2.488067e+001
7.021320e+002, 2.536670e+001
7.026141e+002, 2.554509e+001
7.030962e+002, 2.543796e+001
7.035783e+002, 2.534302e+001
7.040604e+002, 2.547764e+001
7.045425e+002, 2.559856e+001
7.050247e+002, 2.549464e+001
7.055068e+002, 2.505417e+001
7.059889e+002, 2.499143e+001
7.064710e+002, 2.557300e+001
7.069531e+002, 2.618982e+001
7.074352e+002, 2.642467e+001
7.079174e+002, 2.624012e+001
7.083995e+002, 2.607671e+001
7.088816e+002, 2.592888e+001
7.093637e+002, 2.586546e+001
7.098458e+002, 2.604391e+001
7.103279e+002, 2.635650e+001
7.108101e+002, 2.653302e+001
7.112922e+002, 2.651201e+001
7.117743e+002, 2.640934e+001
7.122564e+002, 2.621238e+001
7.127385e+002, 2.602544e+001
7.132206e+002, 2.597642e+001
7.137028e+002, 2.621047e+001
7.141849e+002, 2.643142e+001
7.146670e+002, 2.660645e+001
7.151491e+002, 2.672897e+001
7.156312e+002, 2.677403e+001
7.161133e+002, 2.669429e+001
7.165955e+002, 2.667020e+001
7.170776e+002, 2.674145e+001
7.175597e+002, 2.687340e+001
7.180418e+002, 2.700436e+001
7.185239e+002, 2.713305e+001
7.190060e+002, 2.723726e+001
7.194882e+002, 2.729792e+001
7.199703e+002, 2.734026e+001
7.204524e+002, 2.740968e+001
7.209345e+002, 2.748851e+001
7.214166e+002, 2.752731e+001
7.218987e+002, 2.741715e+001
7.223809e+002, 2.734230e+001
7.228630e+002, 2.740353e+001
7.233451e+002, 2.759005e+001
7.238272e+002, 2.779230e+001
7.243093e+002, 2.805310e+001
7.247914e+002, 2.825370e+001
7.252736e+002, 2.832852e+001
7.257557e+002, 2.829144e+001
7.262378e+002, 2.830025e+001
7.267199e+002, 2.835318e+001
7.272020e+002, 2.847538e+001
7.276841e+002, 2.874278e+001
7.281663e+002, 2.907924e+001
7.286484e+002, 2.932754e+001
7.291305e+002, 2.948118e+001
7.296126e+002, 2.953331e+001
7.300947e+002, 2.934733e+001
7.305768e+002, 2.914681e+001
7.310590e+002, 2.914208e+001
7.315411e+002, 2.940921e+001
7.320232e+002, 2.960333e+001
7.325053e+002, 2.957556e+001
7.329874e+002, 2.952604e+001
7.334695e+002, 2.957013e+001
7.339517e+002, 2.971795e+001
7.344338e+002, 2.995057e+001
7.349159e+002, 3.030805e+001
7.353980e+002, 3.063931e+001
7.358801e+002, 3.070837e+001
7.363622e+002, 3.059711e+001
7.368444e+002, 3.070662e+001
7.373265e+002, 3.115626e+001
7.378086e+002, 3.153658e+001
7.382907e+002, 3.121457e+001
7.387728e+002, 3.068242e+001
7.392549e+002, 3.062907e+001
7.397371e+002, 3.169935e+001
7.402192e+002, 3.246654e+001
7.407013e+002, 3.221385e+001
7.411834e+002, 3.157172e+001
7.416655e+002, 3.140039e+001
7.421476e+002, 3.194129e+001
7.426298e+002, 3.238016e+001
7.431119e+002, 3.260830e+001
7.435940e+002, 3.270810e+001
7.440761e+002, 3.278342e+001
7.445582e+002, 3.284390e+001
7.450403e+002, 3.301950e+001
7.455225e+002, 3.341853e+001
7.460046e+002, 3.382837e+001
7.464867e+002, 3.391509e+001
7.469688e+002, 3.381763e+001
7.474509e+002, 3.383482e+001
7.479330e+002, 3.417647e+001
7.484152e+002, 3.456522e+001
7.488973e+002, 3.494616e+001
7.493794e+002, 3.529643e+001
7.498615e+002, 3.552699e+001
7.503436e+002, 3.550977e+001
7.508257e+002, 3.561528e+001
7.513079e+002, 3.595621e+001
7.517900e+002, 3.647799e+001
7.522721e+002, 3.704346e+001
7.527542e+002, 3.765593e+001
7.532363e+002, 3.805662e+001
7.537184e+002, 3.786027e+001
7.542006e+002, 3.754221e+001
7.546827e+002, 3.791973e+001
7.551648e+002, 3.886943e+001
7.556469e+002, 3.986077e+001
7.561290e+002, 4.079282e+001
7.566111e+002, 4.154610e+001
7.570933e+002, 4.197109e+001
7.575754e+002, 4.208307e+001
7.580575e+002, 4.234410e+001
7.585396e+002, 4.266398e+001
7.590217e+002, 4.330648e+001
7.595038e+002, 4.455017e+001
7.599860e+002, 4.628979e+001
7.604681e+002, 4.730023e+001
7.609502e+002, 4.751298e+001
7.614323e+002, 4.775054e+001
7.619144e+002, 4.877589e+001
7.623965e+002, 5.011664e+001
7.628787e+002, 5.071393e+001
7.633608e+002, 5.062253e+001
7.638429e+002, 5.086438e+001
7.643250e+002, 5.237677e+001
7.648071e+002, 5.418553e+001
7.652892e+002, 5.558459e+001
7.657714e+002, 5.646434e+001
7.662535e+002, 5.750183e+001
7.667356e+002, 5.882054e+001
7.672177e+002, 6.019220e+001
7.676998e+002, 6.149765e+001
7.681819e+002, 6.274634e+001
7.686641e+002, 6.394717e+001
7.691462e+002, 6.508363e+001
7.696283e+002, 6.622260e+001
7.701104e+002, 6.734261e+001
7.705925e+002, 6.852282e+001
7.710746e+002, 7.000381e+001
7.715568e+002, 7.182180e+001
7.720389e+002, 7.351237e+001
7.725210e+002, 7.457524e+001
7.730031e+002, 7.553293e+001
7.734852e+002, 7.684396e+001
7.739673e+002, 7.873500e+001
7.744495e+002, 8.041924e+001
7.749316e+002, 8.170771e+001
7.754137e+002, 8.297520e+001
7.758958e+002, 8.454182e+001
7.763779e+002, 8.644789e+001
7.768600e+002, 8.823328e+001
7.773422e+002, 8.990830e+001
7.778243e+002, 9.135928e+001
7.783064e+002, 9.228270e+001
7.787885e+002, 9.294947e+001
7.792706e+002, 9.388441e+001
7.797527e+002, 9.518708e+001
7.802349e+002, 9.660979e+001
7.807170e+002, 9.821610e+001
7.811991e+002, 9.973794e+001
7.816812e+002, 1.009022e+002
7.821633e+002, 1.012677e+002
7.826454e+002, 1.020731e+002
7.831276e+002, 1.035892e+002
7.836097e+002, 1.052257e+002
7.840918e+002, 1.063607e+002
7.845739e+002, 1.069821e+002
7.850560e+002, 1.076115e+002
7.855381e+002, 1.082930e+002
7.860203e+002, 1.089803e+002
7.865024e+002, 1.096834e+002
7.869845e+002, 1.103354e+002
7.874666e+002, 1.108412e+002
7.879487e+002, 1.111922e+002
7.884308e+002, 1.113551e+002
7.889130e+002, 1.112518e+002
7.893951e+002, 1.109908e+002
7.898772e+002, 1.106743e+002
7.903593e+002, 1.102622e+002
7.908414e+002, 1.098813e+002
7.913235e+002, 1.095119e+002
7.918057e+002, 1.092036e+002
7.922878e+002, 1.091356e+002
7.927699e+002, 1.092714e+002
7.932520e+002, 1.090248e+002
7.937341e+002, 1.082728e+002
7.942162e+002, 1.072909e+002
7.946984e+002, 1.063075e+002
7.951805e+002, 1.053006e+002
7.956626e+002, 1.042715e+002
7.961447e+002, 1.032904e+002
7.966268e+002, 1.020872e+002
7.971089e+002, 1.000983e+002
7.975911e+002, 9.807487e+001
7.980732e+002, 9.690608e+001
7.985553e+002, 9.722421e+001
7.990374e+002, 9.686891e+001
7.995195e+002, 9.559776e+001
8.000016e+002, 9.388219e+001
8.004838e+002, 9.219128e+001
8.009659e+002, 9.054275e+001
8.014480e+002, 8.900374e+001
8.019301e+002, 8.760397e+001
8.024122e+002, 8.626197e+001
8.028943e+002, 8.488786e+001
8.033765e+002, 8.355055e+001
8.038586e+002, 8.231469e+001
8.043407e+002, 8.116347e+001
8.048228e+002, 8.017992e+001
8.053049e+002, 7.957545e+001
8.057870e+002, 7.902076e+001
8.062692e+002, 7.811381e+001
8.067513e+002, 7.664985e+001
8.072334e+002, 7.572068e+001
8.077155e+002, 7.556829e+001
8.081976e+002, 7.557217e+001
8.086797e+002, 7.475684e+001
8.091619e+002, 7.344241e+001
8.096440e+002, 7.263548e+001
8.101261e+002, 7.267821e+001
8.106082e+002, 7.275028e+001
8.110903e+002, 7.198988e+001
8.115724e+002, 7.105489e+001
8.120546e+002, 7.069051e+001
8.125367e+002, 7.163016e+001
8.130188e+002, 7.217153e+001
8.135009e+002, 7.206332e+001
8.139830e+002, 7.171113e+001
8.144651e+002, 7.148214e+001
8.149473e+002, 7.136459e+001
8.154294e+002, 7.159057e+001
8.159115e+002, 7.221614e+001
8.163936e+002, 7.303633e+001
8.168757e+002, 7.392834e+001
8.173578e+002, 7.481682e+001
8.178400e+002, 7.554414e+001
8.183221e+002, 7.599730e+001
8.188042e+002, 7.657625e+001
8.192863e+002, 7.738560e+001
8.197684e+002, 7.845701e+001
8.202505e+002, 7.987325e+001
8.207327e+002, 8.189896e+001
8.212148e+002, 8.357900e+001
8.216969e+002, 8.476637e+001
8.221790e+002, 8.588074e+001
8.226611e+002, 8.738523e+001
8.231432e+002, 8.922420e+001
8.236254e+002, 9.089181e+001
8.241075e+002, 9.231889e+001
8.245896e+002, 9.378312e+001
8.250717e+002, 9.551736e+001
8.255538e+002, 9.742883e+001
8.260359e+002, 9.937352e+001
8.265181e+002, 1.012816e+002
8.270002e+002, 1.033808e+002
8.274823e+002, 1.058736e+002
8.279644e+002, 1.084773e+002
8.284465e+002, 1.110629e+002
8.289286e+002, 1.136246e+002
8.294108e+002, 1.161041e+002
8.298929e+002, 1.184832e+002
8.303750e+002, 1.208200e+002
8.308571e+002, 1.230947e+002
8.313392e+002, 1.253764e+002
8.318214e+002, 1.279096e+002
8.323035e+002, 1.307069e+002
8.327856e+002, 1.334566e+002
8.332677e+002, 1.359897e+002
8.337498e+002, 1.383450e+002
8.342319e+002, 1.405143e+002
8.347141e+002, 1.424282e+002
8.351962e+002, 1.444244e+002
8.356783e+002, 1.465125e+002
8.361604e+002, 1.486516e+002
8.366425e+002, 1.509142e+002
8.371246e+002, 1.532600e+002
8.376068e+002, 1.549938e+002
8.380889e+002, 1.561082e+002
8.385710e+002, 1.571376e+002
8.390531e+002, 1.585388e+002
8.395352e+002, 1.600448e+002
8.400173e+002, 1.614418e+002
8.404995e+002, 1.627174e+002
8.409816e+002, 1.636671e+002
8.414637e+002, 1.641136e+002
8.419458e+002, 1.643127e+002
8.424279e+002, 1.643835e+002
8.429100e+002, 1.643250e+002
8.433922e+002, 1.640282e+002
8.438743e+002, 1.634159e+002
8.443564e+002, 1.629803e+002
8.448385e+002, 1.632917e+002
8.453206e+002, 1.639117e+002
8.458027e+002, 1.637556e+002
8.462849e+002, 1.629235e+002
8.467670e+002, 1.619747e+002
8.472491e+002, 1.610946e+002
8.477312e+002, 1.603069e+002
8.482133e+002, 1.596015e+002
8.486954e+002, 1.589947e+002
8.491776e+002, 1.586078e+002
8.496597e+002, 1.586096e+002
8.501418e+002, 1.584607e+002
8.506239e+002, 1.578078e+002
8.511060e+002, 1.569684e+002
8.515881e+002, 1.571373e+002
8.520703e+002, 1.582199e+002
8.525524e+002, 1.594163e+002
8.530345e+002, 1.603327e+002
8.535166e+002, 1.611682e+002
8.539987e+002, 1.620040e+002
8.544808e+002, 1.629071e+002
8.549630e+002, 1.640548e+002
8.554451e+002, 1.655935e+002
8.559272e+002, 1.672531e+002
8.564093e+002, 1.689795e+002
8.568914e+002, 1.707698e+002
8.573735e+002, 1.727081e+002
8.578557e+002, 1.748078e+002
8.583378e+002, 1.769558e+002
8.588199e+002, 1.791119e+002
8.593020e+002, 1.813679e+002
8.597841e+002, 1.838482e+002
8.602662e+002, 1.865204e+002
8.607484e+002, 1.892804e+002
8.612305e+002, 1.922573e+002
8.617126e+002, 1.950726e+002
8.621947e+002, 1.975550e+002
8.626768e+002, 1.997795e+002
8.631589e+002, 2.018507e+002
8.636411e+002, 2.038416e+002
8.641232e+002, 2.055320e+002
8.646053e+002, 2.069160e+002
8.650874e+002, 2.079604e+002
8.655695e+002, 2.086659e+002
8.660516e+002, 2.090027e+002
8.665338e+002, 2.088591e+002
8.670159e+002, 2.081747e+002
8.674980e+002, 2.072094e+002
8.679801e+002, 2.062206e+002
8.684622e+002, 2.049894e+002
8.689443e+002, 2.032800e+002
8.694265e+002, 2.008905e+002
8.699086e+002, 1.983554e+002
8.703907e+002, 1.957577e+002
8.708728e+002, 1.929030e+002
8.713549e+002, 1.897232e+002
8.718370e+002, 1.861856e+002
8.723192e+002, 1.818819e+002
8.728013e+002, 1.767231e+002
8.732834e+002, 1.718171e+002
8.737655e+002, 1.685550e+002
8.742476e+002, 1.656660e+002
8.747297e+002, 1.617398e+002
8.752119e+002, 1.565833e+002
8.756940e+002, 1.517253e+002
8.761761e+002, 1.477120e+002
8.766582e+002, 1.439475e+002
8.771403e+002, 1.402128e+002
8.776224e+002, 1.365223e+002
8.781046e+002, 1.330727e+002
8.785867e+002, 1.298794e+002
8.790688e+002, 1.268583e+002
8.795509e+002, 1.240902e+002
8.800330e+002, 1.214625e+002
8.805151e+002, 1.187803e+002
8.809973e+002, 1.161002e+002
8.814794e+002, 1.136375e+002
8.819615e+002, 1.116690e+002
8.824436e+002, 1.097349e+002
8.829257e+002, 1.074863e+002
8.834078e+002, 1.051734e+002
8.838900e+002, 1.034989e+002
8.843721e+002, 1.026030e+002
8.848542e+002, 1.015797e+002
8.853363e+002, 1.000868e+002
8.858184e+002, 9.846383e+001
8.863005e+002, 9.727078e+001
8.867827e+002, 9.642538e+001
8.872648e+002, 9.573916e+001
8.877469e+002, 9.519756e+001
8.882290e+002, 9.471654e+001
8.887111e+002, 9.427833e+001
8.891932e+002, 9.387352e+001
8.896754e+002, 9.349220e+001
8.901575e+002, 9.317142e+001
8.906396e+002, 9.279292e+001
8.911217e+002, 9.236619e+001
8.916038e+002, 9.184325e+001
8.920859e+002, 9.097140e+001
8.925681e+002, 8.994998e+001
8.930502e+002, 8.944680e+001
8.935323e+002, 8.962337e+001
8.940144e+002, 8.994476e+001
8.944965e+002, 9.025494e+001
8.949786e+002, 9.040678e+001
8.954608e+002, 9.020290e+001
8.959429e+002, 8.944450e+001
8.964250e+002, 8.903640e+001
8.969071e+002, 8.907944e+001
8.973892e+002, 8.927586e+001
8.978713e+002, 8.945016e+001
8.983535e+002, 8.960720e+001
8.988356e+002, 8.975334e+001
8.993177e+002, 8.989210e+001
8.997998e+002, 9.007328e+001
9.002819e+002, 9.041661e+001
9.007640e+002, 9.074634e+001
9.012462e+002, 9.100276e+001
9.017283e+002, 9.115698e+001
9.022104e+002, 9.099072e+001
9.026925e+002, 9.029689e+001
9.031746e+002, 8.962268e+001
9.036567e+002, 8.912499e+001
9.041389e+002, 8.875920e+001
9.046210e+002, 8.834421e+001
9.051031e+002, 8.789736e+001
9.055852e+002, 8.758720e+001
9.060673e+002, 8.774093e+001
9.065494e+002, 8.769957e+001
9.070316e+002, 8.657790e+001
9.075137e+002, 8.490388e+001
9.079958e+002, 8.359329e+001
9.084779e+002, 8.320023e+001
9.089600e+002, 8.276926e+001
9.094421e+002, 8.221761e+001
9.099243e+002, 8.159206e+001
9.104064e+002, 8.087429e+001
9.108885e+002, 8.008362e+001
9.113706e+002, 7.956487e+001
9.118527e+002, 7.941232e+001
9.123348e+002, 7.925690e+001
9.128170e+002, 7.866636e+001
9.132991e+002, 7.791697e+001
9.137812e+002, 7.733047e+001
9.142633e+002, 7.700296e+001
9.147454e+002, 7.664821e+001
9.152275e+002, 7.601266e+001
9.157097e+002, 7.558965e+001
9.161918e+002, 7.580239e+001
9.166739e+002, 7.663411e+001
9.171560e+002, 7.687498e+001
9.176381e+002, 7.651843e+001
9.181202e+002, 7.615366e+001
9.186024e+002, 7.615298e+001
9.190845e+002, 7.638313e+001
9.195666e+002, 7.680955e+001
9.200487e+002, 7.737112e+001
9.205308e+002, 7.778606e+001
9.210129e+002, 7.778120e+001
9.214951e+002, 7.783952e+001
9.219772e+002, 7.804261e+001
9.224593e+002, 7.840928e+001
9.229414e+002, 7.903972e+001
9.234235e+002, 7.992425e+001
9.239056e+002, 8.087148e+001
9.243878e+002, 8.187279e+001
9.248699e+002, 8.280303e+001
9.253520e+002, 8.347076e+001
9.258341e+002, 8.399537e+001
9.263162e+002, 8.458338e+001
9.267983e+002, 8.549415e+001
9.272805e+002, 8.614893e+001
9.277626e+002, 8.633125e+001
9.282447e+002, 8.641363e+001
9.287268e+002, 8.679104e+001
9.292089e+002, 8.746481e+001
9.296910e+002, 8.814198e+001
9.301732e+002, 8.881068e+001
9.306553e+002, 8.934165e+001
9.311374e+002, 8.942214e+001
9.316195e+002, 8.941360e+001
9.321016e+002, 8.979882e+001
9.325837e+002, 9.064488e+001
9.330659e+002, 9.132911e+001
9.335480e+002, 9.151453e+001
9.340301e+002, 9.173246e+001
9.345122e+002, 9.218542e+001
9.349943e+002, 9.284547e+001
9.354764e+002, 9.354053e+001
9.359586e+002, 9.427341e+001
9.364407e+002, 9.491844e+001
9.369228e+002, 9.539064e+001
9.374049e+002, 9.578190e+001
9.378870e+002, 9.617673e+001
9.383691e+002, 9.656954e+001
9.388513e+002, 9.693748e+001
9.393334e+002, 9.735180e+001
9.398155e+002, 9.762547e+001
9.402976e+002, 9.763052e+001
9.407797e+002, 9.759556e+001
9.412618e+002, 9.801173e+001
9.417440e+002, 9.882077e+001
9.422261e+002, 9.910436e+001
9.427082e+002, 9.861352e+001
9.431903e+002, 9.813529e+001
9.436724e+002, 9.852153e+001
9.441545e+002, 9.926119e+001
9.446367e+002, 9.980583e+001
9.451188e+002, 9.997098e+001
9.456009e+002, 1.003420e+002
9.460830e+002, 1.011189e+002
9.465651e+002, 1.018500e+002
9.470472e+002, 1.021896e+002
9.475294e+002, 1.022167e+002
9.480115e+002, 1.026379e+002
9.484936e+002, 1.034173e+002
9.489757e+002, 1.041362e+002
9.494578e+002, 1.044426e+002
9.499399e+002, 1.046647e+002
9.504221e+002, 1.050439e+002
9.509042e+002, 1.055589e+002
9.513863e+002, 1.060698e+002
9.518684e+002, 1.063154e+002
9.523505e+002, 1.070625e+002
9.528326e+002, 1.086124e+002
9.533148e+002, 1.105195e+002
9.537969e+002, 1.118663e+002
9.542790e+002, 1.128105e+002
9.547611e+002, 1.140341e+002
9.552432e+002, 1.157204e+002
9.557253e+002, 1.176178e+002
9.562075e+002, 1.196871e+002
9.566896e+002, 1.217882e+002
9.571717e+002, 1.238208e+002
9.576538e+002, 1.258258e+002
9.581359e+002, 1.275772e+002
9.586180e+002, 1.290220e+002
9.591002e+002, 1.303491e+002
9.595823e+002, 1.317066e+002
9.600644e+002, 1.330566e+002
9.605465e+002, 1.342926e+002
9.610286e+002, 1.354097e+002
9.615107e+002, 1.363594e+002
9.619929e+002, 1.372703e+002
9.624750e+002, 1.378671e+002
9.629571e+002, 1.379356e+002
9.634392e+002, 1.375602e+002
9.639213e+002, 1.371513e+002
9.644034e+002, 1.368860e+002
9.648856e+002, 1.358794e+002
9.653677e+002, 1.338493e+002
9.658498e+002, 1.311019e+002
9.663319e+002, 1.280265e+002
9.668140e+002, 1.246073e+002
9.672961e+002, 1.209235e+002
9.677783e+002, 1.170739e+002
9.682604e+002, 1.126529e+002
9.687425e+002, 1.071481e+002
9.692246e+002, 1.012239e+002
9.697067e+002, 9.526357e+001
9.701888e+002, 8.933694e+001
9.706710e+002, 8.354356e+001
9.711531e+002, 7.792202e+001
9.716352e+002, 7.249554e+001
9.721173e+002, 6.725047e+001
9.725994e+002, 6.232530e+001
9.730815e+002, 5.786309e+001
9.735637e+002, 5.386135e+001
9.740458e+002, 5.015957e+001
9.745279e+002, 4.689080e+001
9.750100e+002, 4.369206e+001
9.754921e+002, 4.025667e+001
9.759742e+002, 3.692955e+001
9.764564e+002, 3.467280e+001
9.769385e+002, 3.341670e+001
9.774206e+002, 3.215482e+001
9.779027e+002, 3.057778e+001
9.783848e+002, 2.910947e+001
9.788669e+002, 2.829488e+001
9.793491e+002, 2.774712e+001
9.798312e+002, 2.694595e+001
9.803133e+002, 2.549980e+001
9.807954e+002, 2.463988e+001
9.812775e+002, 2.462489e+001
9.817596e+002, 2.478967e+001
9.822418e+002, 2.462283e+001
9.827239e+002, 2.421572e+001
9.832060e+002, 2.405308e+001
9.836881e+002, 2.412434e+001
9.841702e+002, 2.431176e+001
9.846523e+002, 2.469003e+001
9.851345e+002, 2.501929e+001
9.856166e+002, 2.506231e+001
9.860987e+002, 2.493319e+001
9.865808e+002, 2.505068e+001
9.870629e+002, 2.546750e+001
9.875450e+002, 2.597587e+001
9.880272e+002, 2.655226e+001
9.885093e+002, 2.716700e+001
9.889914e+002, 2.775777e+001
9.894735e+002, 2.835038e+001
9.899556e+002, 2.897289e+001
9.904377e+002, 2.960387e+001
9.909199e+002, 3.038717e+001
9.914020e+002, 3.152621e+001
9.918841e+002, 3.271738e+001
9.923662e+002, 3.372563e+001
9.928483e+002, 3.452279e+001
9.933304e+002, 3.560828e+001
9.938126e+002, 3.699733e+001
9.942947e+002, 3.841148e+001
9.947768e+002, 3.973775e+001
9.952589e+002, 4.094728e+001
9.957410e+002, 4.194165e+001
9.962231e+002, 4.279807e+001
9.967053e+002, 4.376848e+001
9.971874e+002, 4.501788e+001
9.976695e+002, 4.625452e+001
9.981516e+002, 4.747897e+001
9.986337e+002, 4.862547e+001
9.991158e+002, 4.956610e+001
9.995980e+002, 5.034162e+001
1.000080e+003, 5.119156e+001
1.000562e+003, 5.217416e+001
1.001044e+003, 5.313750e+001
1.001526e+003, 5.411776e+001
1.002009e+003, 5.493429e+001
1.002491e+003, 5.534181e+001
1.002973e+003, 5.527426e+001
1.003455e+003, 5.548415e+001
1.003937e+003, 5.611328e+001
1.004419e+003, 5.657872e+001
1.004901e+003, 5.663037e+001
1.005383e+003, 5.633631e+001
1.005865e+003, 5.582911e+001
1.006348e+003, 5.510354e+001
1.006830e+003, 5.412756e+001
1.007312e+003, 5.260619e+001
1.007794e+003, 5.119080e+001
1.008276e+003, 5.024482e+001
1.008758e+003, 4.937923e+001
1.009240e+003, 4.816949e+001
1.009722e+003, 4.659905e+001
1.010205e+003, 4.484139e+001
1.010687e+003, 4.286122e+001
1.011169e+003, 4.093286e+001
1.011651e+003, 3.937066e+001
1.012133e+003, 3.791313e+001
1.012615e+003, 3.622247e+001
1.013097e+003, 3.430002e+001
1.013579e+003, 3.250273e+001
1.014061e+003, 3.096042e+001
1.014544e+003, 2.941227e+001
1.015026e+003, 2.772408e+001
1.015508e+003, 2.605896e+001
1.015990e+003, 2.486535e+001
1.016472e+003, 2.403501e+001
1.016954e+003, 2.310826e+001
1.017436e+003, 2.185601e+001
1.017918e+003, 2.067606e+001
1.018401e+003, 1.984956e+001
1.018883e+003, 1.919870e+001
1.019365e+003, 1.851268e+001
1.019847e+003, 1.772712e+001
1.020329e+003, 1.722349e+001
1.020811e+003, 1.705345e+001
1.021293e+003, 1.688331e+001
1.021775e+003, 1.637732e+001
1.022257e+003, 1.577439e+001
1.022740e+003, 1.548158e+001
1.023222e+003, 1.543004e+001
1.023704e+003, 1.533546e+001
1.024186e+003, 1.509339e+001
1.024668e+003, 1.478909e+001
1.025150e+003, 1.437941e+001
1.025632e+003, 1.397864e+001
1.026114e+003, 1.385978e+001
1.026596e+003, 1.397369e+001
1.027079e+003, 1.374878e+001
1.027561e+003, 1.302723e+001
1.028043e+003, 1.253010e+001
1.028525e+003, 1.322490e+001
1.029007e+003, 1.412419e+001
1.029489e+003, 1.427015e+001
1.029971e+003, 1.353252e+001
1.030453e+003, 1.324447e+001
1.030936e+003, 1.359034e+001
1.031418e+003, 1.374857e+001
1.031900e+003, 1.323822e+001
1.032382e+003, 1.247281e+001
1.032864e+003, 1.226395e+001
1.033346e+003, 1.246069e+001
1.033828e+003, 1.272122e+001
1.034310e+003, 1.308981e+001
1.034792e+003, 1.324644e+001
1.035275e+003, 1.301563e+001
1.035757e+003, 1.262892e+001
1.036239e+003, 1.220502e+001
1.036721e+003, 1.174703e+001
1.037203e+003, 1.167581e+001
1.037685e+003, 1.200262e+001
1.038167e+003, 1.226719e+001
1.038649e+003, 1.199428e+001
1.039132e+003, 1.163797e+001
1.039614e+003, 1.158272e+001
1.040096e+003, 1.178295e+001
1.040578e+003, 1.192278e+001
1.041060e+003, 1.200519e+001
1.041542e+003, 1.196989e+001
1.042024e+003, 1.178098e+001
1.042506e+003, 1.152566e+001
1.042989e+003, 1.126558e+001
1.043471e+003, 1.105185e+001
1.043953e+003, 1.102385e+001
1.044435e+003, 1.124649e+001
1.044917e+003, 1.141532e+001
1.045399e+003, 1.133720e+001
1.045881e+003, 1.125062e+001
1.046363e+003, 1.126026e+001
1.046845e+003, 1.136424e+001
1.047328e+003, 1.160446e+001
1.047810e+003, 1.196904e+001
1.048292e+003, 1.220393e+001
1.048774e+003, 1.211392e+001
1.049256e+003, 1.196256e+001
1.049738e+003, 1.194902e+001
1.050220e+003, 1.201848e+001
1.050702e+003, 1.209020e+001
1.051184e+003, 1.220125e+001
1.051667e+003, 1.218237e+001
1.052149e+003, 1.198407e+001
1.052631e+003, 1.180667e+001
1.053113e+003, 1.179064e+001
1.053595e+003, 1.193177e+001
1.054077e+003, 1.232152e+001
1.054559e+003, 1.290484e+001
1.055041e+003, 1.332318e+001
1.055523e+003, 1.335898e+001
1.056006e+003, 1.327947e+001
1.056488e+003, 1.310893e+001
1.056970e+003, 1.292078e+001
1.057452e+003, 1.284219e+001
1.057934e+003, 1.287614e+001
1.058416e+003, 1.309302e+001
1.058898e+003, 1.354045e+001
1.059380e+003, 1.394967e+001
1.059863e+003, 1.405058e+001
1.060345e+003, 1.405142e+001
1.060827e+003, 1.413823e+001
1.061309e+003, 1.432615e+001
1.061791e+003, 1.439028e+001
1.062273e+003, 1.429954e+001
1.062755e+003, 1.422684e+001
1.063237e+003, 1.422774e+001
1.063719e+003, 1.431531e+001
1.064202e+003, 1.459578e+001
1.064684e+003, 1.496013e+001
1.065166e+003, 1.519139e+001
1.065648e+003, 1.503821e+001
1.066130e+003, 1.508196e+001
1.066612e+003, 1.542080e+001
1.067094e+003, 1.589604e+001
1.067576e+003, 1.648965e+001
1.068059e+003, 1.713241e+001
1.068541e+003, 1.729376e+001
1.069023e+003, 1.702955e+001
1.069505e+003, 1.683301e+001
1.069987e+003, 1.699933e+001
1.070469e+003, 1.730725e+001
1.070951e+003, 1.769573e+001
1.071433e+003, 1.812855e+001
1.071916e+003, 1.855013e+001
1.072398e+003, 1.896070e+001
1.072880e+003, 1.933224e+001
1.073362e+003, 1.965994e+001
1.073844e+003, 1.993378e+001
1.074326e+003, 1.999415e+001
1.074808e+003, 2.008962e+001
1.075290e+003, 2.053456e+001
1.075772e+003, 2.135586e+001
1.076255e+003, 2.213357e+001
1.076737e+003, 2.291532e+001
1.077219e+003, 2.344330e+001
1.077701e+003, 2.356438e+001
1.078183e+003, 2.347874e+001
1.078665e+003, 2.349934e+001
1.079147e+003, 2.363566e+001
1.079629e+003, 2.395180e+001
1.080111e+003, 2.458947e+001
1.080594e+003, 2.503581e+001
1.081076e+003, 2.492138e+001
1.081558e+003, 2.473979e+001
1.082040e+003, 2.474939e+001
1.082522e+003, 2.493998e+001
1.083004e+003, 2.525859e+001
1.083486e+003, 2.569105e+001
1.083968e+003, 2.607890e+001
1.084450e+003, 2.637774e+001
1.084933e+003, 2.655918e+001
1.085415e+003, 2.665787e+001
1.085897e+003, 2.659644e+001
1.086379e+003, 2.620516e+001
1.086861e+003, 2.528771e+001
1.087343e+003, 2.492305e+001
1.087825e+003, 2.523613e+001
1.088307e+003, 2.558621e+001
1.088790e+003, 2.535687e+001
1.089272e+003, 2.488486e+001
1.089754e+003, 2.454291e+001
1.090236e+003, 2.433306e+001
1.090718e+003, 2.415723e+001
1.091200e+003, 2.404305e+001
1.091682e+003, 2.387460e+001
1.092164e+003, 2.362319e+001
1.092646e+003, 2.332575e+001
1.093129e+003, 2.310060e+001
1.093611e+003, 2.286398e+001
1.094093e+003, 2.233017e+001
1.094575e+003, 2.142937e+001
1.095057e+003, 2.066777e+001
1.095539e+003, 2.043695e+001
1.096021e+003, 2.022393e+001
1.096503e+003, 1.976088e+001
1.096986e+003, 1.915868e+001
1.097468e+003, 1.892010e+001
1.097950e+003, 1.898130e+001
1.098432e+003, 1.880306e+001
1.098914e+003, 1.817615e+001
1.099396e+003, 1.736580e+001
1.099878e+003, 1.627538e+001
1.100360e+003, 1.529128e+001
1.100843e+003, 1.484138e+001
1.101325e+003, 1.497730e+001
1.101807e+003, 1.505519e+001
1.102289e+003, 1.507661e+001
1.102771e+003, 1.503065e+001
1.103253e+003, 1.491645e+001
1.103735e+003, 1.472666e+001
1.104217e+003, 1.443355e+001
1.104699e+003, 1.406565e+001
1.105182e+003, 1.366641e+001
1.105664e+003, 1.313637e+001
1.106146e+003, 1.281639e+001
1.106628e+003, 1.279377e+001
1.107110e+003, 1.276998e+001
1.107592e+003, 1.232023e+001
1.108074e+003, 1.173787e+001
1.108556e+003, 1.178430e+001
1.109038e+003, 1.232866e+001
1.109521e+003, 1.255288e+001
1.110003e+003, 1.183084e+001
1.110485e+003, 1.115644e+001
1.110967e+003, 1.072726e+001
1.111449e+003, 1.045459e+001
1.111931e+003, 1.018570e+001
1.112413e+003, 9.949327e+000
1.112895e+003, 9.909511e+000
1.113377e+003, 1.008774e+001
1.113860e+003, 1.027925e+001
1.114342e+003, 1.041930e+001
1.114824e+003, 1.047492e+001
1.115306e+003, 1.040885e+001
1.115788e+003, 1.025117e+001
1.116270e+003, 1.009879e+001
1.116752e+003, 9.949203e+000
1.117234e+003, 9.711773e+000
1.117717e+003, 9.336421e+000
1.118199e+003, 8.980056e+000
1.118681e+003, 8.795599e+000
1.119163e+003, 8.686918e+000
1.119645e+003, 8.540009e+000
1.120127e+003, 8.341397e+000
1.120609e+003, 8.357046e+000
1.121091e+003, 8.633628e+000
1.121573e+003, 8.825140e+000
1.122056e+003, 8.754621e+000
1.122538e+003, 8.576072e+000
1.123020e+003, 8.396480e+000
1.123502e+003, 8.276740e+000
1.123984e+003, 8.327476e+000
1.124466e+003, 8.711779e+000
1.124948e+003, 8.935629e+000
1.125430e+003, 8.970664e+000
1.125913e+003, 8.902596e+000
1.126395e+003, 8.703775e+000
1.126877e+003, 8.483107e+000
1.127359e+003, 8.550429e+000
1.127841e+003, 8.803806e+000
1.128323e+003, 8.959260e+000
1.128805e+003, 8.881716e+000
1.129287e+003, 8.719397e+000
1.129770e+003, 8.401224e+000
1.130252e+003, 8.148959e+000
1.130734e+003, 8.293692e+000
1.131216e+003, 8.689831e+000
1.131698e+003, 8.639720e+000
1.132180e+003, 8.195081e+000
1.132662e+003, 7.941665e+000
1.133144e+003, 8.545115e+000
1.133626e+003, 8.965878e+000
1.134109e+003, 8.743795e+000
1.134591e+003, 8.205973e+000
1.135073e+003, 7.794875e+000
1.135555e+003, 7.513062e+000
1.136037e+003, 7.336523e+000
1.136519e+003, 7.261045e+000
1.137001e+003, 7.368154e+000
1.137483e+003, 8.089616e+000
1.137965e+003, 8.656680e+000
1.138448e+003, 8.356128e+000
1.138930e+003, 7.519439e+000
1.139412e+003, 7.198126e+000
1.139894e+003, 7.420945e+000
1.140376e+003, 7.505762e+000
1.140858e+003, 7.281683e+000
1.141340e+003, 7.045245e+000
1.141822e+003, 7.097505e+000
1.142304e+003, 7.247893e+000
1.142787e+003, 7.325566e+000
1.143269e+003, 7.317058e+000
1.143751e+003, 7.295134e+000
1.144233e+003, 7.236859e+000
1.144715e+003, 7.329094e+000
1.145197e+003, 7.731402e+000
1.145679e+003, 8.080518e+000
1.146161e+003, 7.783875e+000
1.146644e+003, 7.203056e+000
1.147126e+003, 6.797469e+000
1.147608e+003, 6.681613e+000
1.148090e+003, 6.656656e+000
1.148572e+003, 6.722383e+000
1.149054e+003, 6.873156e+000
1.149536e+003, 7.173216e+000
1.150018e+003, 7.478981e+000
1.150500e+003, 7.521862e+000
1.150983e+003, 7.384634e+000
1.151465e+003, 7.227468e+000
1.151947e+003, 7.057835e+000
1.152429e+003, 6.947439e+000
1.152911e+003, 6.890029e+000
1.153393e+003, 6.909422e+000
1.153875e+003, 7.101077e+000
1.154357e+003, 7.352492e+000
1.154840e+003, 7.272874e+000
1.155322e+003, 6.978446e+000
1.155804e+003, 6.842602e+000
1.156286e+003, 7.276632e+000
1.156768e+003, 7.487318e+000
1.157250e+003, 7.261213e+000
1.157732e+003, 6.947336e+000
1.158214e+003, 6.902641e+000
1.158697e+003, 7.048063e+000
1.159179e+003, 7.042679e+000
1.159661e+003, 6.895976e+000
1.160143e+003, 6.719595e+000
1.160625e+003, 6.416429e+000
1.161107e+003, 6.299956e+000
1.161589e+003, 6.588347e+000
1.162071e+003, 6.975438e+000
1.162553e+003, 7.071240e+000
1.163036e+003, 6.907374e+000
1.163518e+003, 6.674001e+000
1.164000e+003, 6.392866e+000
1.164482e+003, 6.187760e+000
1.164964e+003, 6.108126e+000
1.165446e+003, 6.159133e+000
1.165928e+003, 6.475709e+000
1.166410e+003, 6.846632e+000
1.166892e+003, 6.773368e+000
1.167375e+003, 6.305666e+000
1.167857e+003, 6.256751e+000
1.168339e+003, 6.751716e+000
1.168821e+003, 7.199059e+000
1.169303e+003, 7.178379e+000
1.169785e+003, 6.961385e+000
1.170267e+003, 6.567107e+000
1.170749e+003, 6.143953e+000
1.171231e+003, 6.191442e+000
1.171714e+003, 6.704575e+000
1.172196e+003, 6.983441e+000
1.172678e+003, 6.853198e+000
1.173160e+003, 6.660609e+000
1.173642e+003, 6.657403e+000
1.174124e+003, 6.746519e+000
1.174606e+003, 6.917329e+000
1.175088e+003, 7.126644e+000
1.175571e+003, 7.093096e+000
1.176053e+003, 6.802390e+000
1.176535e+003, 6.525602e+000
1.177017e+003, 6.299430e+000
1.177499e+003, 6.243577e+000
1.177981e+003, 6.683135e+000
1.178463e+003, 7.200483e+000
1.178945e+003, 7.321474e+000
1.179427e+003, 7.028794e+000
1.179910e+003, 7.011648e+000
1.180392e+003, 7.310915e+000
1.180874e+003, 7.459356e+000
1.181356e+003, 7.229057e+000
1.181838e+003, 6.903946e+000
1.182320e+003, 6.794880e+000
1.182802e+003, 6.758624e+000
1.183284e+003, 6.581030e+000
1.183767e+003, 6.194840e+000
1.184249e+003, 6.146566e+000
1.184731e+003, 6.499991e+000
1.185213e+003, 6.740751e+000
1.185695e+003, 6.524293e+000
1.186177e+003, 6.233665e+000
1.186659e+003, 6.399975e+000
1.187141e+003, 6.743205e+000
1.187624e+003, 6.836851e+000
1.188106e+003, 6.537583e+000
1.188588e+003, 6.360152e+000
1.189070e+003, 6.329455e+000
1.189552e+003, 6.282228e+000
1.190034e+003, 6.055861e+000
1.190516e+003, 5.837139e+000
1.190998e+003, 5.909708e+000
1.191480e+003, 6.139999e+000
1.191963e+003, 6.300806e+000
1.192445e+003, 6.332804e+000
1.192927e+003, 6.347898e+000
1.193409e+003, 6.344333e+000
1.193891e+003, 6.331332e+000
1.194373e+003, 6.306322e+000
1.194855e+003, 6.282051e+000
1.195337e+003, 6.320657e+000
1.195819e+003, 6.364732e+000
1.196302e+003, 6.269139e+000
1.196784e+003, 5.817869e+000
1.197266e+003, 5.729696e+000
1.197748e+003, 6.104472e+000
1.198230e+003, 6.472480e+000
1.198712e+003, 6.357246e+000
1.199194e+003, 6.082039e+000
1.199676e+003, 6.106372e+000
1.200158e+003, 6.332414e+000
1.200641e+003, 6.473803e+000
1.201123e+003, 6.436880e+000
1.201605e+003, 6.432897e+000
1.202087e+003, 6.483566e+000
1.202569e+003, 6.524141e+000
1.203051e+003, 6.503159e+000
1.203533e+003, 6.432223e+000
1.204015e+003, 6.320904e+000
1.204498e+003, 6.172811e+000
1.204980e+003, 5.977566e+000
1.205462e+003, 5.594589e+000
1.205944e+003, 5.541209e+000
1.206426e+003, 5.934085e+000
1.206908e+003, 6.372208e+000
1.207390e+003, 6.425210e+000
1.207872e+003, 6.312195e+000
1.208354e+003, 6.352173e+000
1.208837e+003, 6.497743e+000
1.209319e+003, 6.438154e+000
1.209801e+003, 5.959559e+000
1.210283e+003, 5.784966e+000
1.210765e+003, 6.056571e+000
1.211247e+003, 6.422388e+000
1.211729e+003, 6.506793e+000
1.212211e+003, 6.475995e+000
1.212694e+003, 6.534064e+000
1.213176e+003, 6.677186e+000
1.213658e+003, 6.816375e+000
1.214140e+003, 7.004686e+000
1.214622e+003, 6.985572e+000
1.215104e+003, 6.682098e+000
1.215586e+003, 6.337526e+000
1.216068e+003, 6.250455e+000
1.216551e+003, 6.246136e+000
1.217033e+003, 6.088412e+000
1.217515e+003, 5.790925e+000
1.217997e+003, 5.583621e+000
1.218479e+003, 5.475520e+000
1.218961e+003, 5.476577e+000
1.219443e+003, 5.608109e+000
1.219925e+003, 5.764272e+000
1.220407e+003, 5.757792e+000
1.220890e+003, 5.757701e+000
1.221372e+003, 6.042525e+000
1.221854e+003, 6.570178e+000
1.222336e+003, 6.822405e+000
1.222818e+003, 6.738098e+000
1.223300e+003, 6.521532e+000
1.223782e+003, 6.166163e+000
1.224264e+003, 5.897668e+000
1.224746e+003, 6.085180e+000
1.225229e+003, 6.403219e+000
1.225711e+003, 6.495512e+000
1.226193e+003, 6.356234e+000
1.226675e+003, 6.330910e+000
1.227157e+003, 6.480456e+000
1.227639e+003, 6.370382e+000
1.228121e+003, 5.840167e+000
1.228603e+003, 5.360984e+000
1.229085e+003, 5.551304e+000
1.229568e+003, 5.947487e+000
1.230050e+003, 6.068082e+000
1.230532e+003, 5.932207e+000
1.231014e+003, 6.057920e+000
1.231496e+003, 6.496919e+000
1.231978e+003, 6.744910e+000
1.232460e+003, 6.678462e+000
1.232942e+003, 6.434669e+000
1.233425e+003, 5.834365e+000
1.233907e+003, 5.365264e+000
1.234389e+003, 5.680147e+000
1.234871e+003, 6.591448e+000
1.235353e+003, 6.785224e+000
1.235835e+003, 6.218087e+000
1.236317e+003, 5.955701e+000
1.236799e+003, 6.312995e+000
1.237281e+003, 6.693848e+000
1.237764e+003, 6.509383e+000
1.238246e+003, 6.215504e+000
1.238728e+003, 6.201171e+000
1.239210e+003, 6.399310e+000
1.239692e+003, 6.572577e+000
1.240174e+003, 6.710722e+000
1.240656e+003, 6.516824e+000
1.241138e+003, 5.836967e+000
1.241621e+003, 5.330760e+000
1.242103e+003, 5.613264e+000
1.242585e+003, 6.139337e+000
1.243067e+003, 6.641589e+000
1.243549e+003, 7.054692e+000
1.244031e+003, 7.112193e+000
1.244513e+003, 6.849665e+000
1.244995e+003, 6.513856e+000
1.245478e+003, 6.131375e+000
1.245960e+003, 5.864332e+000
1.246442e+003, 5.942871e+000
1.246924e+003, 6.010754e+000
1.247406e+003, 5.787503e+000
1.247888e+003, 5.460289e+000
1.248370e+003, 5.742295e+000
1.248852e+003, 6.461578e+000
1.249334e+003, 6.880602e+000
1.249817e+003, 6.803382e+000
1.250299e+003, 6.609151e+000
1.250781e+003, 6.376585e+000
1.251263e+003, 6.182961e+000
1.251745e+003, 6.046799e+000
1.252227e+003, 5.980674e+000
1.252709e+003, 6.058691e+000
1.253191e+003, 6.228663e+000
1.253673e+003, 6.327395e+000
1.254156e+003, 6.308312e+000
1.254638e+003, 6.336131e+000
1.255120e+003, 6.590168e+000
1.255602e+003, 6.698268e+000
1.256084e+003, 6.497367e+000
1.256566e+003, 6.133981e+000
1.257048e+003, 5.805015e+000
1.257530e+003, 5.565197e+000
1.258012e+003, 5.591662e+000
1.258495e+003, 5.953476e+000
1.258977e+003, 6.128131e+000
1.259459e+003, 5.974795e+000
1.259941e+003, 5.783097e+000
1.260423e+003, 5.621249e+000
1.260905e+003, 5.516184e+000
1.261387e+003, 5.485680e+000
1.261869e+003, 5.552935e+000
1.262352e+003, 5.818052e+000
1.262834e+003, 6.313183e+000
1.263316e+003, 6.551192e+000
1.263798e+003, 6.461778e+000
1.264280e+003, 6.285891e+000
1.264762e+003, 6.060977e+000
1.265244e+003, 5.881939e+000
1.265726e+003, 5.910733e+000
1.266208e+003, 6.016549e+000
1.266691e+003, 6.041770e+000
1.267173e+003, 5.976004e+000
1.267655e+003, 6.001112e+000
1.268137e+003, 6.138412e+000
1.268619e+003, 6.171771e+000
1.269101e+003, 6.015226e+000
1.269583e+003, 5.870390e+000
1.270065e+003, 5.992210e+000
1.270548e+003, 6.159282e+000
1.271030e+003, 6.131166e+000
1.271512e+003, 5.966458e+000
1.271994e+003, 5.979147e+000
1.272476e+003, 6.162399e+000
1.272958e+003, 6.176185e+000
1.273440e+003, 5.921673e+000
1.273922e+003, 5.672286e+000
1.274405e+003, 5.643346e+000
1.274887e+003, 5.659857e+000
1.275369e+003, 5.562112e+000
1.275851e+003, 5.453450e+000
1.276333e+003, 5.752930e+000
1.276815e+003, 6.338364e+000
1.277297e+003, 6.544473e+000
1.277779e+003, 6.225806e+000
1.278261e+003, 5.861480e+000
1.278744e+003, 5.551729e+000
1.279226e+003, 5.455648e+000
1.279708e+003, 5.716301e+000
1.280190e+003, 6.097013e+000
1.280672e+003, 6.091433e+000
1.281154e+003, 5.852290e+000
1.281636e+003, 5.785577e+000
1.282118e+003, 5.946785e+000
1.282600e+003, 6.099101e+000
1.283083e+003, 6.226038e+000
1.283565e+003, 6.223078e+000
1.284047e+003, 6.011325e+000
1.284529e+003, 5.789168e+000
1.285011e+003, 5.943549e+000
1.285493e+003, 6.219650e+000
1.285975e+003, 6.154129e+000
1.286457e+003, 5.741646e+000
1.286939e+003, 5.587075e+000
1.287422e+003, 5.856273e+000
1.287904e+003, 5.942983e+000
1.288386e+003, 5.696282e+000
1.288868e+003, 5.414199e+000
1.289350e+003, 5.462450e+000
1.289832e+003, 5.603673e+000
1.290314e+003, 5.598886e+000
1.290796e+003, 5.460853e+000
1.291279e+003, 5.335229e+000
1.291761e+003, 5.216651e+000
1.292243e+003, 5.175600e+000
1.292725e+003, 5.225431e+000
1.293207e+003, 5.296278e+000
1.293689e+003, 5.327360e+000
1.294171e+003, 5.365324e+000
1.294653e+003, 5.487295e+000
1.295135e+003, 5.613699e+000
1.295618e+003, 5.573746e+000
1.296100e+003, 5.390548e+000
1.296582e+003, 5.301627e+000
1.297064e+003, 5.324449e+000
1.297546e+003, 5.338816e+000
1.298028e+003, 5.278783e+000
1.298510e+003, 5.187246e+000
1.298992e+003, 5.062257e+000
1.299475e+003, 4.942796e+000
1.299957e+003, 4.838376e+000
1.300439e+003, 4.790000e+000
1.300921e+003, 4.984426e+000
1.301403e+003, 5.377638e+000
1.301885e+003, 5.679523e+000
##END=



