##NAMES=Merlinoite
##RRUFFID=R130095
##IDEAL CHEMISTRY=K_5_Ca_2_(Si_23_Al_9_)O_64_&#183;24H_2_O
##LOCALITY=Pollena quarry, Vesuvius, Napoli, Campania, Italy
##OWNER=RRUFF
##SOURCE=Donald Doell
##DESCRIPTION=Sprays and clusters of colorless prismatic crystals associated with calcite. Merlinoite crystals are twinned with 90 deg rotations around c-axis.
##STATUS=The identification of this mineral has been confirmed by single-crystal X-ray diffraction.
##URL=rruff.info/R130095
9.023535e+001, 5.845305e+002
9.071747e+001, 5.848136e+002
9.119958e+001, 5.826830e+002
9.168170e+001, 5.869387e+002
9.216382e+001, 5.876085e+002
9.264594e+001, 5.839295e+002
9.312805e+001, 5.781307e+002
9.361017e+001, 5.720526e+002
9.409229e+001, 5.651740e+002
9.457440e+001, 5.566368e+002
9.505652e+001, 5.486821e+002
9.553863e+001, 5.409818e+002
9.602074e+001, 5.343540e+002
9.650286e+001, 5.301512e+002
9.698498e+001, 5.286558e+002
9.746709e+001, 5.275283e+002
9.794921e+001, 5.233129e+002
9.843133e+001, 5.132548e+002
9.891344e+001, 5.042875e+002
9.939556e+001, 4.981462e+002
9.987768e+001, 4.942518e+002
1.003598e+002, 4.913870e+002
1.008419e+002, 4.891385e+002
1.013240e+002, 4.872650e+002
1.018061e+002, 4.848740e+002
1.022883e+002, 4.818315e+002
1.027704e+002, 4.782980e+002
1.032525e+002, 4.742619e+002
1.037346e+002, 4.695696e+002
1.042167e+002, 4.649425e+002
1.046988e+002, 4.608394e+002
1.051810e+002, 4.569962e+002
1.056631e+002, 4.530756e+002
1.061452e+002, 4.488460e+002
1.066273e+002, 4.443821e+002
1.071094e+002, 4.400088e+002
1.075915e+002, 4.358427e+002
1.080737e+002, 4.315777e+002
1.085558e+002, 4.269942e+002
1.090379e+002, 4.221833e+002
1.095200e+002, 4.174182e+002
1.100021e+002, 4.128855e+002
1.104842e+002, 4.085793e+002
1.109664e+002, 4.046508e+002
1.114485e+002, 4.005657e+002
1.119306e+002, 3.972106e+002
1.124127e+002, 3.953439e+002
1.128948e+002, 3.949097e+002
1.133769e+002, 3.950524e+002
1.138591e+002, 3.945605e+002
1.143412e+002, 3.929882e+002
1.148233e+002, 3.914807e+002
1.153054e+002, 3.899767e+002
1.157875e+002, 3.885479e+002
1.162696e+002, 3.872888e+002
1.167517e+002, 3.862338e+002
1.172339e+002, 3.852911e+002
1.177160e+002, 3.842213e+002
1.181981e+002, 3.828015e+002
1.186802e+002, 3.816860e+002
1.191623e+002, 3.810869e+002
1.196444e+002, 3.809363e+002
1.201266e+002, 3.810866e+002
1.206087e+002, 3.815826e+002
1.210908e+002, 3.822714e+002
1.215729e+002, 3.828507e+002
1.220550e+002, 3.833722e+002
1.225371e+002, 3.836931e+002
1.230193e+002, 3.834803e+002
1.235014e+002, 3.826281e+002
1.239835e+002, 3.821313e+002
1.244656e+002, 3.830718e+002
1.249477e+002, 3.844075e+002
1.254298e+002, 3.851567e+002
1.259120e+002, 3.848318e+002
1.263941e+002, 3.839176e+002
1.268762e+002, 3.836408e+002
1.273583e+002, 3.848871e+002
1.278404e+002, 3.852142e+002
1.283225e+002, 3.842391e+002
1.288047e+002, 3.820255e+002
1.292868e+002, 3.784356e+002
1.297689e+002, 3.730793e+002
1.302510e+002, 3.661877e+002
1.307331e+002, 3.611893e+002
1.312152e+002, 3.598638e+002
1.316974e+002, 3.588161e+002
1.321795e+002, 3.572613e+002
1.326616e+002, 3.553015e+002
1.331437e+002, 3.534268e+002
1.336258e+002, 3.520497e+002
1.341079e+002, 3.512188e+002
1.345901e+002, 3.506599e+002
1.350722e+002, 3.505717e+002
1.355543e+002, 3.505399e+002
1.360364e+002, 3.504735e+002
1.365185e+002, 3.503105e+002
1.370006e+002, 3.498354e+002
1.374828e+002, 3.487880e+002
1.379649e+002, 3.470656e+002
1.384470e+002, 3.450533e+002
1.389291e+002, 3.427612e+002
1.394112e+002, 3.401889e+002
1.398933e+002, 3.371544e+002
1.403755e+002, 3.334998e+002
1.408576e+002, 3.298997e+002
1.413397e+002, 3.275356e+002
1.418218e+002, 3.263023e+002
1.423039e+002, 3.247420e+002
1.427860e+002, 3.218362e+002
1.432681e+002, 3.180241e+002
1.437503e+002, 3.149444e+002
1.442324e+002, 3.133593e+002
1.447145e+002, 3.121868e+002
1.451966e+002, 3.103977e+002
1.456787e+002, 3.079839e+002
1.461608e+002, 3.054664e+002
1.466430e+002, 3.033993e+002
1.471251e+002, 3.018617e+002
1.476072e+002, 2.999570e+002
1.480893e+002, 2.967469e+002
1.485714e+002, 2.935793e+002
1.490535e+002, 2.913282e+002
1.495357e+002, 2.901542e+002
1.500178e+002, 2.893758e+002
1.504999e+002, 2.879981e+002
1.509820e+002, 2.857414e+002
1.514641e+002, 2.834245e+002
1.519462e+002, 2.808758e+002
1.524284e+002, 2.784414e+002
1.529105e+002, 2.764637e+002
1.533926e+002, 2.750675e+002
1.538747e+002, 2.739872e+002
1.543568e+002, 2.725615e+002
1.548389e+002, 2.703234e+002
1.553211e+002, 2.682827e+002
1.558032e+002, 2.664958e+002
1.562853e+002, 2.649232e+002
1.567674e+002, 2.635801e+002
1.572495e+002, 2.624879e+002
1.577316e+002, 2.615539e+002
1.582138e+002, 2.603755e+002
1.586959e+002, 2.586847e+002
1.591780e+002, 2.570840e+002
1.596601e+002, 2.557967e+002
1.601422e+002, 2.547183e+002
1.606243e+002, 2.535916e+002
1.611065e+002, 2.522587e+002
1.615886e+002, 2.507784e+002
1.620707e+002, 2.494501e+002
1.625528e+002, 2.484217e+002
1.630349e+002, 2.473974e+002
1.635170e+002, 2.462644e+002
1.639991e+002, 2.450167e+002
1.644813e+002, 2.435817e+002
1.649634e+002, 2.417056e+002
1.654455e+002, 2.396637e+002
1.659276e+002, 2.380691e+002
1.664097e+002, 2.371120e+002
1.668918e+002, 2.365206e+002
1.673740e+002, 2.361164e+002
1.678561e+002, 2.359801e+002
1.683382e+002, 2.356495e+002
1.688203e+002, 2.346252e+002
1.693024e+002, 2.333002e+002
1.697845e+002, 2.321694e+002
1.702667e+002, 2.315989e+002
1.707488e+002, 2.312340e+002
1.712309e+002, 2.301171e+002
1.717130e+002, 2.275944e+002
1.721951e+002, 2.255449e+002
1.726772e+002, 2.250212e+002
1.731594e+002, 2.252781e+002
1.736415e+002, 2.252352e+002
1.741236e+002, 2.241789e+002
1.746057e+002, 2.223172e+002
1.750878e+002, 2.209265e+002
1.755699e+002, 2.203479e+002
1.760521e+002, 2.199144e+002
1.765342e+002, 2.196942e+002
1.770163e+002, 2.194775e+002
1.774984e+002, 2.189034e+002
1.779805e+002, 2.176396e+002
1.784626e+002, 2.156750e+002
1.789448e+002, 2.141561e+002
1.794269e+002, 2.135007e+002
1.799090e+002, 2.128730e+002
1.803911e+002, 2.119796e+002
1.808732e+002, 2.108944e+002
1.813553e+002, 2.098776e+002
1.818375e+002, 2.091576e+002
1.823196e+002, 2.087696e+002
1.828017e+002, 2.083467e+002
1.832838e+002, 2.078384e+002
1.837659e+002, 2.073447e+002
1.842480e+002, 2.069666e+002
1.847301e+002, 2.066758e+002
1.852123e+002, 2.063144e+002
1.856944e+002, 2.057095e+002
1.861765e+002, 2.048114e+002
1.866586e+002, 2.041215e+002
1.871407e+002, 2.037781e+002
1.876228e+002, 2.035395e+002
1.881050e+002, 2.032671e+002
1.885871e+002, 2.029414e+002
1.890692e+002, 2.025483e+002
1.895513e+002, 2.021103e+002
1.900334e+002, 2.016140e+002
1.905155e+002, 2.008523e+002
1.909977e+002, 1.993519e+002
1.914798e+002, 1.977855e+002
1.919619e+002, 1.970642e+002
1.924440e+002, 1.974248e+002
1.929261e+002, 1.979194e+002
1.934082e+002, 1.974948e+002
1.938904e+002, 1.964228e+002
1.943725e+002, 1.954794e+002
1.948546e+002, 1.950242e+002
1.953367e+002, 1.948341e+002
1.958188e+002, 1.943901e+002
1.963009e+002, 1.934584e+002
1.967831e+002, 1.927135e+002
1.972652e+002, 1.928823e+002
1.977473e+002, 1.936459e+002
1.982294e+002, 1.941875e+002
1.987115e+002, 1.939272e+002
1.991936e+002, 1.930592e+002
1.996758e+002, 1.924598e+002
2.001579e+002, 1.924256e+002
2.006400e+002, 1.922610e+002
2.011221e+002, 1.914611e+002
2.016042e+002, 1.902385e+002
2.020863e+002, 1.891324e+002
2.025685e+002, 1.885864e+002
2.030506e+002, 1.885591e+002
2.035327e+002, 1.883627e+002
2.040148e+002, 1.877903e+002
2.044969e+002, 1.872558e+002
2.049790e+002, 1.869684e+002
2.054612e+002, 1.868543e+002
2.059433e+002, 1.867064e+002
2.064254e+002, 1.862996e+002
2.069075e+002, 1.856030e+002
2.073896e+002, 1.852455e+002
2.078717e+002, 1.857180e+002
2.083539e+002, 1.860980e+002
2.088360e+002, 1.861327e+002
2.093181e+002, 1.858242e+002
2.098002e+002, 1.852511e+002
2.102823e+002, 1.844209e+002
2.107644e+002, 1.832660e+002
2.112466e+002, 1.825185e+002
2.117287e+002, 1.825291e+002
2.122108e+002, 1.825803e+002
2.126929e+002, 1.824631e+002
2.131750e+002, 1.821428e+002
2.136571e+002, 1.816205e+002
2.141393e+002, 1.808563e+002
2.146214e+002, 1.797695e+002
2.151035e+002, 1.790384e+002
2.155856e+002, 1.790452e+002
2.160677e+002, 1.789877e+002
2.165498e+002, 1.782677e+002
2.170320e+002, 1.770169e+002
2.175141e+002, 1.759370e+002
2.179962e+002, 1.757289e+002
2.184783e+002, 1.765386e+002
2.189604e+002, 1.769407e+002
2.194425e+002, 1.767872e+002
2.199247e+002, 1.764046e+002
2.204068e+002, 1.758731e+002
2.208889e+002, 1.752452e+002
2.213710e+002, 1.747135e+002
2.218531e+002, 1.744663e+002
2.223352e+002, 1.745296e+002
2.228174e+002, 1.745238e+002
2.232995e+002, 1.744448e+002
2.237816e+002, 1.743015e+002
2.242637e+002, 1.741394e+002
2.247458e+002, 1.739522e+002
2.252279e+002, 1.736047e+002
2.257100e+002, 1.728753e+002
2.261922e+002, 1.718422e+002
2.266743e+002, 1.711083e+002
2.271564e+002, 1.707906e+002
2.276385e+002, 1.707391e+002
2.281206e+002, 1.709839e+002
2.286027e+002, 1.715420e+002
2.290849e+002, 1.718809e+002
2.295670e+002, 1.713697e+002
2.300491e+002, 1.703330e+002
2.305312e+002, 1.696796e+002
2.310133e+002, 1.698250e+002
2.314954e+002, 1.702729e+002
2.319776e+002, 1.705047e+002
2.324597e+002, 1.705102e+002
2.329418e+002, 1.703701e+002
2.334239e+002, 1.700237e+002
2.339060e+002, 1.695795e+002
2.343881e+002, 1.692029e+002
2.348703e+002, 1.689620e+002
2.353524e+002, 1.687832e+002
2.358345e+002, 1.685324e+002
2.363166e+002, 1.681635e+002
2.367987e+002, 1.679092e+002
2.372808e+002, 1.679059e+002
2.377630e+002, 1.680785e+002
2.382451e+002, 1.684266e+002
2.387272e+002, 1.690874e+002
2.392093e+002, 1.697237e+002
2.396914e+002, 1.696608e+002
2.401735e+002, 1.686049e+002
2.406557e+002, 1.677972e+002
2.411378e+002, 1.681369e+002
2.416199e+002, 1.687743e+002
2.421020e+002, 1.687928e+002
2.425841e+002, 1.677523e+002
2.430662e+002, 1.663799e+002
2.435484e+002, 1.660745e+002
2.440305e+002, 1.673821e+002
2.445126e+002, 1.682606e+002
2.449947e+002, 1.678455e+002
2.454768e+002, 1.669558e+002
2.459589e+002, 1.662590e+002
2.464410e+002, 1.659834e+002
2.469232e+002, 1.659166e+002
2.474053e+002, 1.656771e+002
2.478874e+002, 1.651627e+002
2.483695e+002, 1.647196e+002
2.488516e+002, 1.646235e+002
2.493337e+002, 1.644920e+002
2.498159e+002, 1.639196e+002
2.502980e+002, 1.627993e+002
2.507801e+002, 1.615365e+002
2.512622e+002, 1.608195e+002
2.517443e+002, 1.608736e+002
2.522264e+002, 1.610009e+002
2.527086e+002, 1.612295e+002
2.531907e+002, 1.614344e+002
2.536728e+002, 1.615645e+002
2.541549e+002, 1.615928e+002
2.546370e+002, 1.614708e+002
2.551191e+002, 1.610569e+002
2.556013e+002, 1.600217e+002
2.560834e+002, 1.594344e+002
2.565655e+002, 1.596302e+002
2.570476e+002, 1.599636e+002
2.575297e+002, 1.599688e+002
2.580118e+002, 1.595858e+002
2.584940e+002, 1.591281e+002
2.589761e+002, 1.590771e+002
2.594582e+002, 1.598229e+002
2.599403e+002, 1.599556e+002
2.604224e+002, 1.590237e+002
2.609045e+002, 1.579627e+002
2.613867e+002, 1.572520e+002
2.618688e+002, 1.569895e+002
2.623509e+002, 1.571149e+002
2.628330e+002, 1.576499e+002
2.633151e+002, 1.589211e+002
2.637972e+002, 1.593431e+002
2.642794e+002, 1.582926e+002
2.647615e+002, 1.570917e+002
2.652436e+002, 1.563577e+002
2.657257e+002, 1.561687e+002
2.662078e+002, 1.563921e+002
2.666899e+002, 1.569830e+002
2.671721e+002, 1.580893e+002
2.676542e+002, 1.585338e+002
2.681363e+002, 1.577817e+002
2.686184e+002, 1.569976e+002
2.691005e+002, 1.567583e+002
2.695826e+002, 1.570206e+002
2.700648e+002, 1.574531e+002
2.705469e+002, 1.578310e+002
2.710290e+002, 1.581609e+002
2.715111e+002, 1.580909e+002
2.719932e+002, 1.572573e+002
2.724753e+002, 1.564708e+002
2.729575e+002, 1.560150e+002
2.734396e+002, 1.558850e+002
2.739217e+002, 1.560436e+002
2.744038e+002, 1.565232e+002
2.748859e+002, 1.572722e+002
2.753680e+002, 1.576183e+002
2.758501e+002, 1.573004e+002
2.763322e+002, 1.569696e+002
2.768144e+002, 1.567790e+002
2.772965e+002, 1.567386e+002
2.777786e+002, 1.568928e+002
2.782607e+002, 1.573082e+002
2.787428e+002, 1.578748e+002
2.792249e+002, 1.580999e+002
2.797071e+002, 1.578067e+002
2.801892e+002, 1.574602e+002
2.806713e+002, 1.571417e+002
2.811534e+002, 1.568517e+002
2.816355e+002, 1.566071e+002
2.821176e+002, 1.564265e+002
2.825998e+002, 1.562600e+002
2.830819e+002, 1.559638e+002
2.835640e+002, 1.554068e+002
2.840461e+002, 1.549818e+002
2.845282e+002, 1.547605e+002
2.850103e+002, 1.547214e+002
2.854925e+002, 1.548908e+002
2.859746e+002, 1.553020e+002
2.864567e+002, 1.557774e+002
2.869388e+002, 1.560271e+002
2.874209e+002, 1.560534e+002
2.879030e+002, 1.558844e+002
2.883852e+002, 1.553358e+002
2.888673e+002, 1.546670e+002
2.893494e+002, 1.542276e+002
2.898315e+002, 1.541029e+002
2.903136e+002, 1.540625e+002
2.907957e+002, 1.538074e+002
2.912779e+002, 1.533005e+002
2.917600e+002, 1.528703e+002
2.922421e+002, 1.525041e+002
2.927242e+002, 1.522533e+002
2.932063e+002, 1.522043e+002
2.936884e+002, 1.523640e+002
2.941706e+002, 1.526025e+002
2.946527e+002, 1.528542e+002
2.951348e+002, 1.531050e+002
2.956169e+002, 1.531336e+002
2.960990e+002, 1.527023e+002
2.965811e+002, 1.522125e+002
2.970633e+002, 1.520086e+002
2.975454e+002, 1.520842e+002
2.980275e+002, 1.521703e+002
2.985096e+002, 1.520770e+002
2.989917e+002, 1.518285e+002
2.994738e+002, 1.516313e+002
2.999560e+002, 1.515736e+002
3.004381e+002, 1.514879e+002
3.009202e+002, 1.512060e+002
3.014023e+002, 1.507829e+002
3.018844e+002, 1.504669e+002
3.023665e+002, 1.503907e+002
3.028487e+002, 1.505148e+002
3.033308e+002, 1.507135e+002
3.038129e+002, 1.511448e+002
3.042950e+002, 1.513986e+002
3.047771e+002, 1.511953e+002
3.052592e+002, 1.506680e+002
3.057414e+002, 1.501395e+002
3.062235e+002, 1.497063e+002
3.067056e+002, 1.493750e+002
3.071877e+002, 1.491838e+002
3.076698e+002, 1.491517e+002
3.081519e+002, 1.491374e+002
3.086341e+002, 1.490622e+002
3.091162e+002, 1.489827e+002
3.095983e+002, 1.490528e+002
3.100804e+002, 1.493530e+002
3.105625e+002, 1.496295e+002
3.110446e+002, 1.495137e+002
3.115268e+002, 1.490119e+002
3.120089e+002, 1.484108e+002
3.124910e+002, 1.475414e+002
3.129731e+002, 1.467046e+002
3.134552e+002, 1.463310e+002
3.139373e+002, 1.464976e+002
3.144195e+002, 1.467687e+002
3.149016e+002, 1.467429e+002
3.153837e+002, 1.464356e+002
3.158658e+002, 1.461807e+002
3.163479e+002, 1.459865e+002
3.168300e+002, 1.458666e+002
3.173121e+002, 1.458586e+002
3.177943e+002, 1.459553e+002
3.182764e+002, 1.460890e+002
3.187585e+002, 1.462941e+002
3.192406e+002, 1.464784e+002
3.197227e+002, 1.463100e+002
3.202048e+002, 1.454291e+002
3.206870e+002, 1.445645e+002
3.211691e+002, 1.441800e+002
3.216512e+002, 1.441626e+002
3.221333e+002, 1.441116e+002
3.226154e+002, 1.438520e+002
3.230975e+002, 1.434340e+002
3.235797e+002, 1.429747e+002
3.240618e+002, 1.423980e+002
3.245439e+002, 1.419388e+002
3.250260e+002, 1.417314e+002
3.255081e+002, 1.416895e+002
3.259902e+002, 1.416447e+002
3.264724e+002, 1.415391e+002
3.269545e+002, 1.414366e+002
3.274366e+002, 1.414742e+002
3.279187e+002, 1.416968e+002
3.284008e+002, 1.417845e+002
3.288829e+002, 1.416069e+002
3.293651e+002, 1.412959e+002
3.298472e+002, 1.410089e+002
3.303293e+002, 1.407729e+002
3.308114e+002, 1.404990e+002
3.312935e+002, 1.400327e+002
3.317756e+002, 1.393572e+002
3.322578e+002, 1.390021e+002
3.327399e+002, 1.392911e+002
3.332220e+002, 1.396738e+002
3.337041e+002, 1.397883e+002
3.341862e+002, 1.396198e+002
3.346683e+002, 1.392442e+002
3.351505e+002, 1.386242e+002
3.356326e+002, 1.378455e+002
3.361147e+002, 1.374966e+002
3.365968e+002, 1.380135e+002
3.370789e+002, 1.384473e+002
3.375610e+002, 1.382072e+002
3.380432e+002, 1.375730e+002
3.385253e+002, 1.372923e+002
3.390074e+002, 1.377835e+002
3.394895e+002, 1.386677e+002
3.399716e+002, 1.388804e+002
3.404537e+002, 1.381060e+002
3.409359e+002, 1.373556e+002
3.414180e+002, 1.368221e+002
3.419001e+002, 1.364151e+002
3.423822e+002, 1.360294e+002
3.428643e+002, 1.356364e+002
3.433464e+002, 1.352422e+002
3.438286e+002, 1.348165e+002
3.443107e+002, 1.342260e+002
3.447928e+002, 1.340955e+002
3.452749e+002, 1.349392e+002
3.457570e+002, 1.358916e+002
3.462391e+002, 1.361883e+002
3.467213e+002, 1.358299e+002
3.472034e+002, 1.354586e+002
3.476855e+002, 1.357193e+002
3.481676e+002, 1.366682e+002
3.486497e+002, 1.368791e+002
3.491318e+002, 1.357400e+002
3.496140e+002, 1.346131e+002
3.500961e+002, 1.340880e+002
3.505782e+002, 1.340396e+002
3.510603e+002, 1.341204e+002
3.515424e+002, 1.341452e+002
3.520245e+002, 1.341107e+002
3.525067e+002, 1.339969e+002
3.529888e+002, 1.336132e+002
3.534709e+002, 1.333863e+002
3.539530e+002, 1.334110e+002
3.544351e+002, 1.336019e+002
3.549172e+002, 1.339046e+002
3.553994e+002, 1.342931e+002
3.558815e+002, 1.346812e+002
3.563636e+002, 1.349387e+002
3.568457e+002, 1.351269e+002
3.573278e+002, 1.350095e+002
3.578099e+002, 1.343666e+002
3.582920e+002, 1.336116e+002
3.587741e+002, 1.329302e+002
3.592563e+002, 1.323933e+002
3.597384e+002, 1.320998e+002
3.602205e+002, 1.321775e+002
3.607026e+002, 1.326776e+002
3.611847e+002, 1.330550e+002
3.616668e+002, 1.333181e+002
3.621490e+002, 1.334602e+002
3.626311e+002, 1.334422e+002
3.631132e+002, 1.333028e+002
3.635953e+002, 1.330830e+002
3.640774e+002, 1.327930e+002
3.645595e+002, 1.324839e+002
3.650417e+002, 1.323860e+002
3.655238e+002, 1.327590e+002
3.660059e+002, 1.329883e+002
3.664880e+002, 1.328942e+002
3.669701e+002, 1.326844e+002
3.674522e+002, 1.325597e+002
3.679344e+002, 1.325852e+002
3.684165e+002, 1.326892e+002
3.688986e+002, 1.327673e+002
3.693807e+002, 1.328164e+002
3.698628e+002, 1.328471e+002
3.703449e+002, 1.330409e+002
3.708271e+002, 1.330703e+002
3.713092e+002, 1.325751e+002
3.717913e+002, 1.316830e+002
3.722734e+002, 1.309200e+002
3.727555e+002, 1.307787e+002
3.732376e+002, 1.312409e+002
3.737198e+002, 1.317358e+002
3.742019e+002, 1.324895e+002
3.746840e+002, 1.329754e+002
3.751661e+002, 1.328770e+002
3.756482e+002, 1.324507e+002
3.761303e+002, 1.320871e+002
3.766125e+002, 1.319787e+002
3.770946e+002, 1.320275e+002
3.775767e+002, 1.319596e+002
3.780588e+002, 1.316192e+002
3.785409e+002, 1.316116e+002
3.790230e+002, 1.326732e+002
3.795052e+002, 1.337837e+002
3.799873e+002, 1.339696e+002
3.804694e+002, 1.330514e+002
3.809515e+002, 1.320305e+002
3.814336e+002, 1.321282e+002
3.819157e+002, 1.333117e+002
3.823979e+002, 1.338417e+002
3.828800e+002, 1.330095e+002
3.833621e+002, 1.320382e+002
3.838442e+002, 1.318400e+002
3.843263e+002, 1.322332e+002
3.848084e+002, 1.325303e+002
3.852906e+002, 1.322937e+002
3.857727e+002, 1.317170e+002
3.862548e+002, 1.311760e+002
3.867369e+002, 1.306202e+002
3.872190e+002, 1.302919e+002
3.877011e+002, 1.305530e+002
3.881833e+002, 1.310737e+002
3.886654e+002, 1.313696e+002
3.891475e+002, 1.312395e+002
3.896296e+002, 1.310708e+002
3.901117e+002, 1.313447e+002
3.905938e+002, 1.319739e+002
3.910760e+002, 1.322126e+002
3.915581e+002, 1.316380e+002
3.920402e+002, 1.307888e+002
3.925223e+002, 1.304038e+002
3.930044e+002, 1.304924e+002
3.934865e+002, 1.307188e+002
3.939687e+002, 1.310172e+002
3.944508e+002, 1.313523e+002
3.949329e+002, 1.316881e+002
3.954150e+002, 1.320291e+002
3.958971e+002, 1.322966e+002
3.963792e+002, 1.324128e+002
3.968614e+002, 1.323785e+002
3.973435e+002, 1.323009e+002
3.978256e+002, 1.320992e+002
3.983077e+002, 1.319280e+002
3.987898e+002, 1.318524e+002
3.992719e+002, 1.318849e+002
3.997540e+002, 1.321125e+002
4.002361e+002, 1.326443e+002
4.007183e+002, 1.332926e+002
4.012004e+002, 1.334634e+002
4.016825e+002, 1.328026e+002
4.021646e+002, 1.323632e+002
4.026467e+002, 1.325624e+002
4.031288e+002, 1.329697e+002
4.036110e+002, 1.330397e+002
4.040931e+002, 1.326640e+002
4.045752e+002, 1.321905e+002
4.050573e+002, 1.320088e+002
4.055394e+002, 1.321478e+002
4.060215e+002, 1.325043e+002
4.065037e+002, 1.334383e+002
4.069858e+002, 1.342207e+002
4.074679e+002, 1.343016e+002
4.079500e+002, 1.339251e+002
4.084321e+002, 1.337770e+002
4.089142e+002, 1.343191e+002
4.093964e+002, 1.353470e+002
4.098785e+002, 1.359178e+002
4.103606e+002, 1.354576e+002
4.108427e+002, 1.352667e+002
4.113248e+002, 1.356094e+002
4.118069e+002, 1.361759e+002
4.122891e+002, 1.367428e+002
4.127712e+002, 1.372214e+002
4.132533e+002, 1.375356e+002
4.137354e+002, 1.375048e+002
4.142175e+002, 1.369554e+002
4.146996e+002, 1.367608e+002
4.151818e+002, 1.372431e+002
4.156639e+002, 1.377919e+002
4.161460e+002, 1.380992e+002
4.166281e+002, 1.382821e+002
4.171102e+002, 1.386885e+002
4.175923e+002, 1.396424e+002
4.180745e+002, 1.408918e+002
4.185566e+002, 1.415372e+002
4.190387e+002, 1.413152e+002
4.195208e+002, 1.410597e+002
4.200029e+002, 1.411227e+002
4.204850e+002, 1.412215e+002
4.209672e+002, 1.410034e+002
4.214493e+002, 1.403713e+002
4.219314e+002, 1.398034e+002
4.224135e+002, 1.399228e+002
4.228956e+002, 1.406852e+002
4.233777e+002, 1.411517e+002
4.238599e+002, 1.410426e+002
4.243420e+002, 1.407967e+002
4.248241e+002, 1.407907e+002
4.253062e+002, 1.409513e+002
4.257883e+002, 1.410075e+002
4.262704e+002, 1.406277e+002
4.267526e+002, 1.401778e+002
4.272347e+002, 1.404119e+002
4.277168e+002, 1.413966e+002
4.281989e+002, 1.419515e+002
4.286810e+002, 1.412569e+002
4.291631e+002, 1.398007e+002
4.296453e+002, 1.387541e+002
4.301274e+002, 1.382526e+002
4.306095e+002, 1.378580e+002
4.310916e+002, 1.373240e+002
4.315737e+002, 1.367504e+002
4.320558e+002, 1.363562e+002
4.325380e+002, 1.362095e+002
4.330201e+002, 1.361579e+002
4.335022e+002, 1.360261e+002
4.339843e+002, 1.357971e+002
4.344664e+002, 1.356248e+002
4.349485e+002, 1.355533e+002
4.354307e+002, 1.355054e+002
4.359128e+002, 1.354697e+002
4.363949e+002, 1.354202e+002
4.368770e+002, 1.352452e+002
4.373591e+002, 1.348406e+002
4.378412e+002, 1.343393e+002
4.383234e+002, 1.342607e+002
4.388055e+002, 1.353078e+002
4.392876e+002, 1.358773e+002
4.397697e+002, 1.354086e+002
4.402518e+002, 1.346738e+002
4.407339e+002, 1.343709e+002
4.412160e+002, 1.346512e+002
4.416982e+002, 1.352826e+002
4.421803e+002, 1.360713e+002
4.426624e+002, 1.371022e+002
4.431445e+002, 1.376826e+002
4.436266e+002, 1.373393e+002
4.441087e+002, 1.370296e+002
4.445909e+002, 1.369937e+002
4.450730e+002, 1.371990e+002
4.455551e+002, 1.375797e+002
4.460372e+002, 1.381154e+002
4.465193e+002, 1.387350e+002
4.470014e+002, 1.393009e+002
4.474836e+002, 1.398391e+002
4.479657e+002, 1.402426e+002
4.484478e+002, 1.404136e+002
4.489299e+002, 1.405007e+002
4.494120e+002, 1.404310e+002
4.498941e+002, 1.402798e+002
4.503763e+002, 1.404688e+002
4.508584e+002, 1.415984e+002
4.513405e+002, 1.433909e+002
4.518226e+002, 1.445581e+002
4.523047e+002, 1.448364e+002
4.527868e+002, 1.450786e+002
4.532690e+002, 1.458561e+002
4.537511e+002, 1.468977e+002
4.542332e+002, 1.478220e+002
4.547153e+002, 1.484814e+002
4.551974e+002, 1.491319e+002
4.556795e+002, 1.499585e+002
4.561617e+002, 1.509500e+002
4.566438e+002, 1.521315e+002
4.571259e+002, 1.536137e+002
4.576080e+002, 1.550702e+002
4.580901e+002, 1.559510e+002
4.585722e+002, 1.562578e+002
4.590544e+002, 1.568092e+002
4.595365e+002, 1.580120e+002
4.600186e+002, 1.593287e+002
4.605007e+002, 1.602140e+002
4.609828e+002, 1.607266e+002
4.614649e+002, 1.613443e+002
4.619471e+002, 1.623766e+002
4.624292e+002, 1.637277e+002
4.629113e+002, 1.650276e+002
4.633934e+002, 1.662152e+002
4.638755e+002, 1.674359e+002
4.643576e+002, 1.687217e+002
4.648398e+002, 1.700508e+002
4.653219e+002, 1.714783e+002
4.658040e+002, 1.729793e+002
4.662861e+002, 1.743169e+002
4.667682e+002, 1.751826e+002
4.672503e+002, 1.755032e+002
4.677325e+002, 1.761167e+002
4.682146e+002, 1.772952e+002
4.686967e+002, 1.784804e+002
4.691788e+002, 1.796188e+002
4.696609e+002, 1.806416e+002
4.701430e+002, 1.813688e+002
4.706252e+002, 1.817030e+002
4.711073e+002, 1.820008e+002
4.715894e+002, 1.830290e+002
4.720715e+002, 1.850561e+002
4.725536e+002, 1.866249e+002
4.730357e+002, 1.871339e+002
4.735179e+002, 1.874458e+002
4.740000e+002, 1.881189e+002
4.744821e+002, 1.890580e+002
4.749642e+002, 1.897794e+002
4.754463e+002, 1.898552e+002
4.759284e+002, 1.895661e+002
4.764106e+002, 1.895007e+002
4.768927e+002, 1.896700e+002
4.773748e+002, 1.900095e+002
4.778569e+002, 1.906402e+002
4.783390e+002, 1.913437e+002
4.788211e+002, 1.918015e+002
4.793033e+002, 1.919971e+002
4.797854e+002, 1.919580e+002
4.802675e+002, 1.915289e+002
4.807496e+002, 1.909142e+002
4.812317e+002, 1.904235e+002
4.817138e+002, 1.901028e+002
4.821959e+002, 1.900845e+002
4.826780e+002, 1.906052e+002
4.831602e+002, 1.916445e+002
4.836423e+002, 1.922518e+002
4.841244e+002, 1.926071e+002
4.846065e+002, 1.923719e+002
4.850886e+002, 1.910540e+002
4.855707e+002, 1.891230e+002
4.860529e+002, 1.873728e+002
4.865350e+002, 1.860950e+002
4.870171e+002, 1.850839e+002
4.874992e+002, 1.840473e+002
4.879813e+002, 1.831002e+002
4.884634e+002, 1.817654e+002
4.889456e+002, 1.798267e+002
4.894277e+002, 1.777805e+002
4.899098e+002, 1.758085e+002
4.903919e+002, 1.739332e+002
4.908740e+002, 1.721604e+002
4.913561e+002, 1.705150e+002
4.918383e+002, 1.689341e+002
4.923204e+002, 1.672469e+002
4.928025e+002, 1.654494e+002
4.932846e+002, 1.635705e+002
4.937667e+002, 1.615331e+002
4.942488e+002, 1.594893e+002
4.947310e+002, 1.574344e+002
4.952131e+002, 1.554205e+002
4.956952e+002, 1.537045e+002
4.961773e+002, 1.528759e+002
4.966594e+002, 1.524606e+002
4.971415e+002, 1.509954e+002
4.976237e+002, 1.482165e+002
4.981058e+002, 1.454877e+002
4.985879e+002, 1.435273e+002
4.990700e+002, 1.420956e+002
4.995521e+002, 1.407039e+002
5.000342e+002, 1.392841e+002
5.005164e+002, 1.379985e+002
5.009985e+002, 1.371042e+002
5.014806e+002, 1.363439e+002
5.019627e+002, 1.351198e+002
5.024448e+002, 1.333056e+002
5.029269e+002, 1.315632e+002
5.034091e+002, 1.305813e+002
5.038912e+002, 1.303878e+002
5.043733e+002, 1.298881e+002
5.048554e+002, 1.287810e+002
5.053375e+002, 1.277411e+002
5.058196e+002, 1.270186e+002
5.063018e+002, 1.265133e+002
5.067839e+002, 1.261066e+002
5.072660e+002, 1.257469e+002
5.077481e+002, 1.253626e+002
5.082302e+002, 1.248304e+002
5.087123e+002, 1.240856e+002
5.091945e+002, 1.234244e+002
5.096766e+002, 1.228929e+002
5.101587e+002, 1.224007e+002
5.106408e+002, 1.219100e+002
5.111229e+002, 1.214326e+002
5.116050e+002, 1.209802e+002
5.120872e+002, 1.205429e+002
5.125693e+002, 1.201836e+002
5.130514e+002, 1.201140e+002
5.135335e+002, 1.204122e+002
5.140156e+002, 1.203800e+002
5.144977e+002, 1.196645e+002
5.149799e+002, 1.187596e+002
5.154620e+002, 1.179849e+002
5.159441e+002, 1.173632e+002
5.164262e+002, 1.170009e+002
5.169083e+002, 1.171009e+002
5.173904e+002, 1.173920e+002
5.178726e+002, 1.175722e+002
5.183547e+002, 1.176339e+002
5.188368e+002, 1.175520e+002
5.193189e+002, 1.172747e+002
5.198010e+002, 1.168929e+002
5.202831e+002, 1.166397e+002
5.207653e+002, 1.166009e+002
5.212474e+002, 1.164145e+002
5.217295e+002, 1.158678e+002
5.222116e+002, 1.152561e+002
5.226937e+002, 1.147843e+002
5.231758e+002, 1.144953e+002
5.236580e+002, 1.144498e+002
5.241401e+002, 1.147440e+002
5.246222e+002, 1.152493e+002
5.251043e+002, 1.152783e+002
5.255864e+002, 1.142731e+002
5.260685e+002, 1.135840e+002
5.265507e+002, 1.135110e+002
5.270328e+002, 1.136527e+002
5.275149e+002, 1.137600e+002
5.279970e+002, 1.137589e+002
5.284791e+002, 1.135991e+002
5.289612e+002, 1.131168e+002
5.294434e+002, 1.124182e+002
5.299255e+002, 1.122350e+002
5.304076e+002, 1.128674e+002
5.308897e+002, 1.133185e+002
5.313718e+002, 1.128489e+002
5.318539e+002, 1.121278e+002
5.323361e+002, 1.118886e+002
5.328182e+002, 1.123012e+002
5.333003e+002, 1.127600e+002
5.337824e+002, 1.129187e+002
5.342645e+002, 1.128329e+002
5.347466e+002, 1.125528e+002
5.352288e+002, 1.120653e+002
5.357109e+002, 1.116519e+002
5.361930e+002, 1.115688e+002
5.366751e+002, 1.117484e+002
5.371572e+002, 1.117535e+002
5.376393e+002, 1.114268e+002
5.381215e+002, 1.111345e+002
5.386036e+002, 1.110521e+002
5.390857e+002, 1.110267e+002
5.395678e+002, 1.108261e+002
5.400499e+002, 1.104231e+002
5.405320e+002, 1.100207e+002
5.410142e+002, 1.098337e+002
5.414963e+002, 1.098668e+002
5.419784e+002, 1.099461e+002
5.424605e+002, 1.100377e+002
5.429426e+002, 1.102223e+002
5.434247e+002, 1.106580e+002
5.439068e+002, 1.111256e+002
5.443889e+002, 1.113225e+002
5.448710e+002, 1.111832e+002
5.453531e+002, 1.110166e+002
5.458353e+002, 1.112686e+002
5.463174e+002, 1.118796e+002
5.467995e+002, 1.120749e+002
5.472816e+002, 1.116207e+002
5.477637e+002, 1.111605e+002
5.482458e+002, 1.111326e+002
5.487280e+002, 1.113566e+002
5.492101e+002, 1.115483e+002
5.496922e+002, 1.115989e+002
5.501743e+002, 1.117451e+002
5.506564e+002, 1.122533e+002
5.511385e+002, 1.129443e+002
5.516207e+002, 1.134625e+002
5.521028e+002, 1.137346e+002
5.525849e+002, 1.138220e+002
5.530670e+002, 1.137662e+002
5.535491e+002, 1.135658e+002
5.540313e+002, 1.133079e+002
5.545134e+002, 1.129972e+002
5.549955e+002, 1.126348e+002
5.554776e+002, 1.121176e+002
5.559597e+002, 1.115937e+002
5.564418e+002, 1.112922e+002
5.569240e+002, 1.112482e+002
5.574061e+002, 1.112483e+002
5.578882e+002, 1.110401e+002
5.583703e+002, 1.106172e+002
5.588524e+002, 1.101928e+002
5.593345e+002, 1.097289e+002
5.598167e+002, 1.093252e+002
5.602988e+002, 1.090201e+002
5.607809e+002, 1.087812e+002
5.612630e+002, 1.085586e+002
5.617451e+002, 1.083367e+002
5.622272e+002, 1.081717e+002
5.627094e+002, 1.081977e+002
5.631915e+002, 1.083254e+002
5.636736e+002, 1.082133e+002
5.641557e+002, 1.077760e+002
5.646378e+002, 1.073343e+002
5.651199e+002, 1.071324e+002
5.656021e+002, 1.071182e+002
5.660842e+002, 1.070281e+002
5.665663e+002, 1.067894e+002
5.670484e+002, 1.065810e+002
5.675305e+002, 1.064857e+002
5.680126e+002, 1.064451e+002
5.684948e+002, 1.063564e+002
5.689769e+002, 1.062175e+002
5.694590e+002, 1.061618e+002
5.699411e+002, 1.063452e+002
5.704232e+002, 1.067444e+002
5.709053e+002, 1.068862e+002
5.713875e+002, 1.064571e+002
5.718696e+002, 1.061907e+002
5.723517e+002, 1.063833e+002
5.728338e+002, 1.066662e+002
5.733159e+002, 1.066568e+002
5.737980e+002, 1.063183e+002
5.742802e+002, 1.059552e+002
5.747623e+002, 1.058647e+002
5.752444e+002, 1.059736e+002
5.757265e+002, 1.059482e+002
5.762086e+002, 1.057376e+002
5.766907e+002, 1.056199e+002
5.771729e+002, 1.058884e+002
5.776550e+002, 1.062290e+002
5.781371e+002, 1.060487e+002
5.786192e+002, 1.051531e+002
5.791013e+002, 1.045748e+002
5.795834e+002, 1.050382e+002
5.800656e+002, 1.058242e+002
5.805477e+002, 1.060351e+002
5.810298e+002, 1.056835e+002
5.815119e+002, 1.054207e+002
5.819940e+002, 1.056926e+002
5.824761e+002, 1.062898e+002
5.829583e+002, 1.064919e+002
5.834404e+002, 1.058542e+002
5.839225e+002, 1.054907e+002
5.844046e+002, 1.055427e+002
5.848867e+002, 1.057517e+002
5.853688e+002, 1.060763e+002
5.858510e+002, 1.064127e+002
5.863331e+002, 1.065206e+002
5.868152e+002, 1.061906e+002
5.872973e+002, 1.056499e+002
5.877794e+002, 1.054705e+002
5.882615e+002, 1.057231e+002
5.887437e+002, 1.058347e+002
5.892258e+002, 1.055406e+002
5.897079e+002, 1.052013e+002
5.901900e+002, 1.051418e+002
5.906721e+002, 1.053343e+002
5.911542e+002, 1.056127e+002
5.916364e+002, 1.061516e+002
5.921185e+002, 1.065677e+002
5.926006e+002, 1.064394e+002
5.930827e+002, 1.059095e+002
5.935648e+002, 1.053633e+002
5.940469e+002, 1.049288e+002
5.945291e+002, 1.046624e+002
5.950112e+002, 1.046932e+002
5.954933e+002, 1.051736e+002
5.959754e+002, 1.052482e+002
5.964575e+002, 1.045509e+002
5.969396e+002, 1.039194e+002
5.974218e+002, 1.036513e+002
5.979039e+002, 1.036309e+002
5.983860e+002, 1.036570e+002
5.988681e+002, 1.036630e+002
5.993502e+002, 1.037555e+002
5.998323e+002, 1.041542e+002
6.003145e+002, 1.048409e+002
6.007966e+002, 1.052642e+002
6.012787e+002, 1.053475e+002
6.017608e+002, 1.052756e+002
6.022429e+002, 1.050201e+002
6.027250e+002, 1.047132e+002
6.032072e+002, 1.045686e+002
6.036893e+002, 1.046366e+002
6.041714e+002, 1.047870e+002
6.046535e+002, 1.051290e+002
6.051356e+002, 1.054363e+002
6.056177e+002, 1.051992e+002
6.060999e+002, 1.044417e+002
6.065820e+002, 1.039359e+002
6.070641e+002, 1.042958e+002
6.075462e+002, 1.052919e+002
6.080283e+002, 1.058899e+002
6.085104e+002, 1.058993e+002
6.089926e+002, 1.057489e+002
6.094747e+002, 1.053339e+002
6.099568e+002, 1.048702e+002
6.104389e+002, 1.043995e+002
6.109210e+002, 1.040078e+002
6.114031e+002, 1.039111e+002
6.118853e+002, 1.043306e+002
6.123674e+002, 1.049878e+002
6.128495e+002, 1.053019e+002
6.133316e+002, 1.052540e+002
6.138137e+002, 1.050822e+002
6.142958e+002, 1.047495e+002
6.147780e+002, 1.044357e+002
6.152601e+002, 1.043325e+002
6.157422e+002, 1.044111e+002
6.162243e+002, 1.045267e+002
6.167064e+002, 1.048065e+002
6.171885e+002, 1.049599e+002
6.176707e+002, 1.045821e+002
6.181528e+002, 1.039817e+002
6.186349e+002, 1.038491e+002
6.191170e+002, 1.043764e+002
6.195991e+002, 1.051055e+002
6.200812e+002, 1.055364e+002
6.205634e+002, 1.056745e+002
6.210455e+002, 1.054338e+002
6.215276e+002, 1.041676e+002
6.220097e+002, 1.033225e+002
6.224918e+002, 1.034650e+002
6.229739e+002, 1.040152e+002
6.234561e+002, 1.044052e+002
6.239382e+002, 1.045178e+002
6.244203e+002, 1.045513e+002
6.249024e+002, 1.047814e+002
6.253845e+002, 1.050385e+002
6.258666e+002, 1.047487e+002
6.263487e+002, 1.038453e+002
6.268308e+002, 1.030536e+002
6.273129e+002, 1.026808e+002
6.277950e+002, 1.026289e+002
6.282772e+002, 1.028246e+002
6.287593e+002, 1.033978e+002
6.292414e+002, 1.035882e+002
6.297235e+002, 1.027331e+002
6.302056e+002, 1.019521e+002
6.306877e+002, 1.022046e+002
6.311699e+002, 1.031528e+002
6.316520e+002, 1.039268e+002
6.321341e+002, 1.041255e+002
6.326162e+002, 1.039389e+002
6.330983e+002, 1.036056e+002
6.335804e+002, 1.030401e+002
6.340626e+002, 1.027772e+002
6.345447e+002, 1.030504e+002
6.350268e+002, 1.033382e+002
6.355089e+002, 1.034187e+002
6.359910e+002, 1.033656e+002
6.364731e+002, 1.032954e+002
6.369553e+002, 1.032436e+002
6.374374e+002, 1.031393e+002
6.379195e+002, 1.027609e+002
6.384016e+002, 1.023479e+002
6.388837e+002, 1.024825e+002
6.393658e+002, 1.032037e+002
6.398480e+002, 1.038189e+002
6.403301e+002, 1.038591e+002
6.408122e+002, 1.034809e+002
6.412943e+002, 1.032066e+002
6.417764e+002, 1.031226e+002
6.422585e+002, 1.030202e+002
6.427407e+002, 1.029185e+002
6.432228e+002, 1.027815e+002
6.437049e+002, 1.024914e+002
6.441870e+002, 1.021503e+002
6.446691e+002, 1.020143e+002
6.451512e+002, 1.022382e+002
6.456334e+002, 1.026338e+002
6.461155e+002, 1.029639e+002
6.465976e+002, 1.032274e+002
6.470797e+002, 1.032171e+002
6.475618e+002, 1.027922e+002
6.480439e+002, 1.023223e+002
6.485261e+002, 1.020785e+002
6.490082e+002, 1.020167e+002
6.494903e+002, 1.020122e+002
6.499724e+002, 1.021149e+002
6.504545e+002, 1.021829e+002
6.509366e+002, 1.021124e+002
6.514188e+002, 1.020032e+002
6.519009e+002, 1.019678e+002
6.523830e+002, 1.020204e+002
6.528651e+002, 1.021430e+002
6.533472e+002, 1.023408e+002
6.538293e+002, 1.025566e+002
6.543115e+002, 1.025536e+002
6.547936e+002, 1.022057e+002
6.552757e+002, 1.019439e+002
6.557578e+002, 1.018893e+002
6.562399e+002, 1.018829e+002
6.567220e+002, 1.017634e+002
6.572042e+002, 1.016153e+002
6.576863e+002, 1.017336e+002
6.581684e+002, 1.024443e+002
6.586505e+002, 1.031165e+002
6.591326e+002, 1.031146e+002
6.596147e+002, 1.025991e+002
6.600969e+002, 1.019507e+002
6.605790e+002, 1.012449e+002
6.610611e+002, 1.006214e+002
6.615432e+002, 1.001922e+002
6.620253e+002, 9.995415e+001
6.625074e+002, 9.987585e+001
6.629896e+002, 1.000635e+002
6.634717e+002, 1.002754e+002
6.639538e+002, 1.005933e+002
6.644359e+002, 1.008516e+002
6.649180e+002, 1.007862e+002
6.654001e+002, 1.005123e+002
6.658823e+002, 1.005251e+002
6.663644e+002, 1.012969e+002
6.668465e+002, 1.022473e+002
6.673286e+002, 1.021477e+002
6.678107e+002, 1.010373e+002
6.682928e+002, 1.003210e+002
6.687750e+002, 1.004050e+002
6.692571e+002, 1.007327e+002
6.697392e+002, 1.008110e+002
6.702213e+002, 1.006633e+002
6.707034e+002, 1.005755e+002
6.711855e+002, 1.005498e+002
6.716677e+002, 1.005857e+002
6.721498e+002, 1.007713e+002
6.726319e+002, 1.009651e+002
6.731140e+002, 1.009822e+002
6.735961e+002, 1.008278e+002
6.740782e+002, 1.006718e+002
6.745604e+002, 1.006461e+002
6.750425e+002, 1.007096e+002
6.755246e+002, 1.007100e+002
6.760067e+002, 1.006111e+002
6.764888e+002, 1.006324e+002
6.769709e+002, 1.010277e+002
6.774531e+002, 1.013128e+002
6.779352e+002, 1.009204e+002
6.784173e+002, 1.000798e+002
6.788994e+002, 9.963100e+001
6.793815e+002, 1.000652e+002
6.798636e+002, 1.005506e+002
6.803458e+002, 1.005530e+002
6.808279e+002, 1.003081e+002
6.813100e+002, 1.002312e+002
6.817921e+002, 1.003670e+002
6.822742e+002, 1.003917e+002
6.827563e+002, 1.000072e+002
6.832385e+002, 9.933088e+001
6.837206e+002, 9.893224e+001
6.842027e+002, 9.884866e+001
6.846848e+002, 9.896147e+001
6.851669e+002, 9.943306e+001
6.856490e+002, 9.994083e+001
6.861312e+002, 1.003569e+002
6.866133e+002, 1.006559e+002
6.870954e+002, 1.007896e+002
6.875775e+002, 1.006581e+002
6.880596e+002, 1.004994e+002
6.885417e+002, 1.006471e+002
6.890239e+002, 1.009102e+002
6.895060e+002, 1.007000e+002
6.899881e+002, 9.992852e+001
6.904702e+002, 9.936549e+001
6.909523e+002, 9.968613e+001
6.914344e+002, 1.006601e+002
6.919166e+002, 1.011177e+002
6.923987e+002, 1.006163e+002
6.928808e+002, 1.002959e+002
6.933629e+002, 1.003926e+002
6.938450e+002, 1.005083e+002
6.943271e+002, 1.003061e+002
6.948093e+002, 9.992595e+001
6.952914e+002, 9.978103e+001
6.957735e+002, 1.001075e+002
6.962556e+002, 1.005536e+002
6.967377e+002, 1.007726e+002
6.972198e+002, 1.007870e+002
6.977020e+002, 1.006534e+002
6.981841e+002, 1.003733e+002
6.986662e+002, 1.000384e+002
6.991483e+002, 9.967967e+001
6.996304e+002, 9.933642e+001
7.001125e+002, 9.916467e+001
7.005947e+002, 9.923861e+001
7.010768e+002, 9.938087e+001
7.015589e+002, 9.971677e+001
7.020410e+002, 1.000039e+002
7.025231e+002, 1.000445e+002
7.030052e+002, 9.992794e+001
7.034874e+002, 9.986338e+001
7.039695e+002, 9.994315e+001
7.044516e+002, 1.000784e+002
7.049337e+002, 1.001569e+002
7.054158e+002, 1.001943e+002
7.058979e+002, 1.002505e+002
7.063801e+002, 1.003208e+002
7.068622e+002, 1.004995e+002
7.073442e+002, 1.009252e+002
7.078264e+002, 1.014351e+002
7.083085e+002, 1.015955e+002
7.087906e+002, 1.012641e+002
7.092727e+002, 1.009655e+002
7.097548e+002, 1.005210e+002
7.102369e+002, 1.003229e+002
7.107191e+002, 1.009565e+002
7.112012e+002, 1.019058e+002
7.116833e+002, 1.021412e+002
7.121654e+002, 1.013081e+002
7.126475e+002, 1.002930e+002
7.131296e+002, 1.002095e+002
7.136118e+002, 1.008716e+002
7.140939e+002, 1.012531e+002
7.145760e+002, 1.013053e+002
7.150581e+002, 1.011772e+002
7.155402e+002, 1.008243e+002
7.160223e+002, 1.004425e+002
7.165045e+002, 1.004179e+002
7.169866e+002, 1.008314e+002
7.174687e+002, 1.010760e+002
7.179508e+002, 1.009938e+002
7.184329e+002, 1.008462e+002
7.189150e+002, 1.006936e+002
7.193972e+002, 1.005861e+002
7.198793e+002, 1.005913e+002
7.203614e+002, 1.007203e+002
7.208435e+002, 1.009154e+002
7.213256e+002, 1.011807e+002
7.218077e+002, 1.014530e+002
7.222899e+002, 1.013907e+002
7.227720e+002, 1.009221e+002
7.232541e+002, 1.007325e+002
7.237362e+002, 1.011445e+002
7.242183e+002, 1.017667e+002
7.247004e+002, 1.022063e+002
7.251826e+002, 1.024653e+002
7.256647e+002, 1.024850e+002
7.261468e+002, 1.019620e+002
7.266289e+002, 1.015605e+002
7.271110e+002, 1.017291e+002
7.275931e+002, 1.020221e+002
7.280753e+002, 1.018361e+002
7.285574e+002, 1.011862e+002
7.290395e+002, 1.006288e+002
7.295216e+002, 1.005887e+002
7.300037e+002, 1.008729e+002
7.304858e+002, 1.010610e+002
7.309680e+002, 1.011502e+002
7.314501e+002, 1.012104e+002
7.319322e+002, 1.012572e+002
7.324143e+002, 1.012658e+002
7.328964e+002, 1.011515e+002
7.333785e+002, 1.009738e+002
7.338607e+002, 1.010288e+002
7.343428e+002, 1.014743e+002
7.348249e+002, 1.019037e+002
7.353070e+002, 1.024292e+002
7.357891e+002, 1.027523e+002
7.362712e+002, 1.024406e+002
7.367534e+002, 1.017128e+002
7.372355e+002, 1.011896e+002
7.377176e+002, 1.011793e+002
7.381997e+002, 1.014533e+002
7.386818e+002, 1.016885e+002
7.391639e+002, 1.018968e+002
7.396461e+002, 1.022374e+002
7.401282e+002, 1.027710e+002
7.406103e+002, 1.032373e+002
7.410924e+002, 1.036168e+002
7.415745e+002, 1.037450e+002
7.420566e+002, 1.030721e+002
7.425388e+002, 1.011183e+002
7.430209e+002, 1.000701e+002
7.435030e+002, 1.008462e+002
7.439851e+002, 1.017965e+002
7.444672e+002, 1.021697e+002
7.449493e+002, 1.020973e+002
7.454315e+002, 1.017697e+002
7.459136e+002, 1.012834e+002
7.463957e+002, 1.008917e+002
7.468778e+002, 1.009118e+002
7.473599e+002, 1.012064e+002
7.478420e+002, 1.013592e+002
7.483242e+002, 1.013678e+002
7.488063e+002, 1.013406e+002
7.492884e+002, 1.013198e+002
7.497705e+002, 1.012546e+002
7.502526e+002, 1.010242e+002
7.507347e+002, 1.006058e+002
7.512169e+002, 1.005358e+002
7.516990e+002, 1.012093e+002
7.521811e+002, 1.016874e+002
7.526632e+002, 1.015308e+002
7.531453e+002, 1.012627e+002
7.536274e+002, 1.014697e+002
7.541096e+002, 1.020605e+002
7.545917e+002, 1.024300e+002
7.550738e+002, 1.021761e+002
7.555559e+002, 1.016694e+002
7.560380e+002, 1.013721e+002
7.565201e+002, 1.012659e+002
7.570023e+002, 1.013411e+002
7.574844e+002, 1.016145e+002
7.579665e+002, 1.017448e+002
7.584486e+002, 1.014007e+002
7.589307e+002, 1.008183e+002
7.594128e+002, 1.008071e+002
7.598950e+002, 1.018783e+002
7.603771e+002, 1.025951e+002
7.608592e+002, 1.028962e+002
7.613413e+002, 1.029316e+002
7.618234e+002, 1.025662e+002
7.623055e+002, 1.020556e+002
7.627877e+002, 1.018102e+002
7.632698e+002, 1.019524e+002
7.637519e+002, 1.021301e+002
7.642340e+002, 1.020600e+002
7.647161e+002, 1.018726e+002
7.651982e+002, 1.017152e+002
7.656804e+002, 1.016196e+002
7.661625e+002, 1.017696e+002
7.666446e+002, 1.022586e+002
7.671267e+002, 1.027219e+002
7.676088e+002, 1.026242e+002
7.680909e+002, 1.019275e+002
7.685731e+002, 1.016552e+002
7.690552e+002, 1.021839e+002
7.695373e+002, 1.025196e+002
7.700194e+002, 1.023891e+002
7.705015e+002, 1.020386e+002
7.709836e+002, 1.015454e+002
7.714658e+002, 1.009761e+002
7.719479e+002, 1.005865e+002
7.724300e+002, 1.007125e+002
7.729121e+002, 1.007123e+002
7.733942e+002, 9.979500e+001
7.738763e+002, 9.861507e+001
7.743585e+002, 9.831520e+001
7.748406e+002, 9.892761e+001
7.753227e+002, 9.958500e+001
7.758048e+002, 9.970598e+001
7.762869e+002, 9.956907e+001
7.767690e+002, 9.992299e+001
7.772512e+002, 1.009109e+002
7.777333e+002, 1.014013e+002
7.782154e+002, 1.010768e+002
7.786975e+002, 1.007072e+002
7.791796e+002, 1.008067e+002
7.796617e+002, 1.010773e+002
7.801439e+002, 1.009905e+002
7.806260e+002, 1.004466e+002
7.811081e+002, 9.996551e+001
7.815902e+002, 9.958454e+001
7.820723e+002, 9.939138e+001
7.825544e+002, 9.965816e+001
7.830366e+002, 1.000726e+002
7.835187e+002, 1.000395e+002
7.840008e+002, 9.945842e+001
7.844829e+002, 9.887575e+001
7.849650e+002, 9.881551e+001
7.854471e+002, 9.912421e+001
7.859293e+002, 9.937679e+001
7.864114e+002, 9.957240e+001
7.868935e+002, 9.972448e+001
7.873756e+002, 9.988060e+001
7.878577e+002, 9.982847e+001
7.883398e+002, 9.917864e+001
7.888220e+002, 9.808731e+001
7.893041e+002, 9.790664e+001
7.897861e+002, 9.957239e+001
7.902682e+002, 1.007594e+002
7.907504e+002, 1.012086e+002
7.912325e+002, 1.012121e+002
7.917146e+002, 1.007710e+002
7.921967e+002, 1.000753e+002
7.926788e+002, 9.937128e+001
7.931609e+002, 9.871080e+001
7.936431e+002, 9.839779e+001
7.941252e+002, 9.904529e+001
7.946073e+002, 1.000789e+002
7.950894e+002, 1.002814e+002
7.955715e+002, 9.972703e+001
7.960536e+002, 9.939927e+001
7.965358e+002, 9.971807e+001
7.970179e+002, 1.002822e+002
7.975000e+002, 1.005542e+002
7.979821e+002, 1.005260e+002
7.984642e+002, 1.004043e+002
7.989464e+002, 1.001847e+002
7.994285e+002, 9.987854e+001
7.999106e+002, 9.932153e+001
8.003927e+002, 9.881172e+001
8.008748e+002, 9.858301e+001
8.013569e+002, 9.860976e+001
8.018391e+002, 9.873751e+001
8.023212e+002, 9.899297e+001
8.028033e+002, 9.924400e+001
8.032854e+002, 9.944153e+001
8.037675e+002, 9.958408e+001
8.042496e+002, 9.969451e+001
8.047318e+002, 9.975172e+001
8.052139e+002, 9.962080e+001
8.056960e+002, 9.921045e+001
8.061781e+002, 9.883910e+001
8.066602e+002, 9.912031e+001
8.071423e+002, 9.999374e+001
8.076245e+002, 1.006153e+002
8.081066e+002, 1.009314e+002
8.085887e+002, 1.011144e+002
8.090708e+002, 1.012665e+002
8.095529e+002, 1.012855e+002
8.100350e+002, 1.009690e+002
8.105172e+002, 1.002398e+002
8.109993e+002, 9.967802e+001
8.114814e+002, 9.929056e+001
8.119635e+002, 9.905979e+001
8.124456e+002, 9.903985e+001
8.129277e+002, 9.913383e+001
8.134099e+002, 9.928909e+001
8.138920e+002, 9.947683e+001
8.143741e+002, 9.965482e+001
8.148562e+002, 9.983884e+001
8.153383e+002, 9.992677e+001
8.158204e+002, 9.973083e+001
8.163026e+002, 9.937716e+001
8.167847e+002, 9.909135e+001
8.172668e+002, 9.892143e+001
8.177489e+002, 9.900781e+001
8.182310e+002, 9.945962e+001
8.187131e+002, 1.000408e+002
8.191953e+002, 1.002952e+002
8.196774e+002, 1.001869e+002
8.201595e+002, 9.993880e+001
8.206416e+002, 9.935600e+001
8.211237e+002, 9.899970e+001
8.216058e+002, 9.923223e+001
8.220880e+002, 9.969071e+001
8.225701e+002, 1.000451e+002
8.230522e+002, 1.002855e+002
8.235343e+002, 1.002977e+002
8.240164e+002, 9.975871e+001
8.244985e+002, 9.934639e+001
8.249807e+002, 9.939609e+001
8.254628e+002, 9.969991e+001
8.259449e+002, 1.001011e+002
8.264270e+002, 1.005271e+002
8.269091e+002, 1.009237e+002
8.273912e+002, 1.013029e+002
8.278734e+002, 1.014441e+002
8.283555e+002, 1.007897e+002
8.288376e+002, 9.960319e+001
8.293197e+002, 9.904599e+001
8.298018e+002, 9.922411e+001
8.302839e+002, 9.956173e+001
8.307661e+002, 9.981857e+001
8.312482e+002, 9.995010e+001
8.317303e+002, 9.984172e+001
8.322124e+002, 9.942129e+001
8.326945e+002, 9.929346e+001
8.331766e+002, 9.967275e+001
8.336588e+002, 1.000402e+002
8.341409e+002, 1.003017e+002
8.346230e+002, 1.004876e+002
8.351051e+002, 1.006366e+002
8.355872e+002, 1.007372e+002
8.360693e+002, 1.007299e+002
8.365515e+002, 1.005322e+002
8.370336e+002, 1.003262e+002
8.375157e+002, 1.001877e+002
8.379978e+002, 1.001093e+002
8.384799e+002, 1.001594e+002
8.389620e+002, 1.002644e+002
8.394442e+002, 1.001767e+002
8.399263e+002, 9.977901e+001
8.404084e+002, 9.930724e+001
8.408905e+002, 9.903175e+001
8.413726e+002, 9.895853e+001
8.418547e+002, 9.922249e+001
8.423369e+002, 9.985534e+001
8.428190e+002, 1.003059e+002
8.433011e+002, 1.003597e+002
8.437832e+002, 1.001862e+002
8.442653e+002, 9.991914e+001
8.447474e+002, 9.956593e+001
8.452296e+002, 9.949490e+001
8.457117e+002, 9.998464e+001
8.461938e+002, 1.003495e+002
8.466759e+002, 1.005046e+002
8.471580e+002, 1.005453e+002
8.476401e+002, 1.004666e+002
8.481223e+002, 1.003323e+002
8.486044e+002, 1.002554e+002
8.490865e+002, 1.002519e+002
8.495686e+002, 1.003649e+002
8.500507e+002, 1.007000e+002
8.505328e+002, 1.010981e+002
8.510150e+002, 1.014898e+002
8.514971e+002, 1.017956e+002
8.519792e+002, 1.018455e+002
8.524613e+002, 1.016004e+002
8.529434e+002, 1.011837e+002
8.534255e+002, 1.006306e+002
8.539077e+002, 1.000773e+002
8.543898e+002, 1.000592e+002
8.548719e+002, 1.005756e+002
8.553540e+002, 1.008827e+002
8.558361e+002, 1.008023e+002
8.563182e+002, 1.006302e+002
8.568004e+002, 1.006083e+002
8.572825e+002, 1.006441e+002
8.577646e+002, 1.004056e+002
8.582467e+002, 9.951197e+001
8.587288e+002, 9.917848e+001
8.592109e+002, 1.000800e+002
8.596931e+002, 1.007369e+002
8.601752e+002, 1.003949e+002
8.606573e+002, 9.965929e+001
8.611394e+002, 9.920747e+001
8.616215e+002, 9.912779e+001
8.621036e+002, 9.929131e+001
8.625858e+002, 9.992814e+001
8.630679e+002, 1.004898e+002
8.635500e+002, 1.005705e+002
8.640321e+002, 1.003597e+002
8.645142e+002, 1.000012e+002
8.649963e+002, 9.960641e+001
8.654785e+002, 9.946571e+001
8.659606e+002, 9.977160e+001
8.664427e+002, 1.002180e+002
8.669248e+002, 1.003324e+002
8.674069e+002, 1.001662e+002
8.678890e+002, 9.994707e+001
8.683712e+002, 9.968301e+001
8.688533e+002, 9.956279e+001
8.693354e+002, 9.968366e+001
8.698175e+002, 9.991829e+001
8.702996e+002, 1.001104e+002
8.707817e+002, 1.002604e+002
8.712639e+002, 1.003293e+002
8.717460e+002, 1.002063e+002
8.722280e+002, 1.001975e+002
8.727101e+002, 1.005779e+002
8.731923e+002, 1.008762e+002
8.736744e+002, 1.006506e+002
8.741565e+002, 1.001448e+002
8.746386e+002, 9.999309e+001
8.751207e+002, 1.004383e+002
8.756028e+002, 1.008063e+002
8.760850e+002, 1.007581e+002
8.765671e+002, 1.006486e+002
8.770492e+002, 1.008603e+002
8.775313e+002, 1.011506e+002
8.780134e+002, 1.010278e+002
8.784955e+002, 1.004245e+002
8.789777e+002, 9.977157e+001
8.794598e+002, 9.932854e+001
8.799419e+002, 9.911905e+001
8.804240e+002, 9.930077e+001
8.809061e+002, 9.975411e+001
8.813882e+002, 1.000363e+002
8.818704e+002, 1.000806e+002
8.823525e+002, 1.000497e+002
8.828346e+002, 1.000485e+002
8.833167e+002, 1.000199e+002
8.837988e+002, 9.978458e+001
8.842809e+002, 9.926401e+001
8.847631e+002, 9.918366e+001
8.852452e+002, 9.980942e+001
8.857273e+002, 1.001951e+002
8.862094e+002, 9.976928e+001
8.866915e+002, 9.921581e+001
8.871736e+002, 9.944695e+001
8.876558e+002, 1.003855e+002
8.881379e+002, 1.008263e+002
8.886200e+002, 1.004457e+002
8.891021e+002, 9.997582e+001
8.895842e+002, 9.917631e+001
8.900663e+002, 9.866895e+001
8.905485e+002, 9.926143e+001
8.910306e+002, 1.003648e+002
8.915127e+002, 1.007142e+002
8.919948e+002, 9.993404e+001
8.924769e+002, 9.916614e+001
8.929590e+002, 9.928669e+001
8.934412e+002, 9.965854e+001
8.939233e+002, 9.952499e+001
8.944054e+002, 9.913400e+001
8.948875e+002, 9.911950e+001
8.953696e+002, 9.955341e+001
8.958517e+002, 9.990922e+001
8.963339e+002, 9.976904e+001
8.968160e+002, 9.940214e+001
8.972981e+002, 9.941981e+001
8.977802e+002, 9.976122e+001
8.982623e+002, 9.973275e+001
8.987444e+002, 9.922971e+001
8.992266e+002, 9.892442e+001
8.997087e+002, 9.920054e+001
9.001908e+002, 9.963402e+001
9.006729e+002, 9.954713e+001
9.011550e+002, 9.889924e+001
9.016371e+002, 9.866511e+001
9.021193e+002, 9.915237e+001
9.026014e+002, 9.947826e+001
9.030835e+002, 9.931979e+001
9.035656e+002, 9.910756e+001
9.040477e+002, 9.919917e+001
9.045298e+002, 9.945555e+001
9.050120e+002, 9.948418e+001
9.054941e+002, 9.910503e+001
9.059762e+002, 9.889888e+001
9.064583e+002, 9.919219e+001
9.069404e+002, 9.950249e+001
9.074225e+002, 9.961622e+001
9.079047e+002, 9.952847e+001
9.083868e+002, 9.905617e+001
9.088689e+002, 9.831437e+001
9.093510e+002, 9.805623e+001
9.098331e+002, 9.904704e+001
9.103152e+002, 1.001952e+002
9.107974e+002, 1.003195e+002
9.112795e+002, 9.983652e+001
9.117616e+002, 9.938187e+001
9.122437e+002, 9.908475e+001
9.127258e+002, 9.911020e+001
9.132079e+002, 9.953748e+001
9.136901e+002, 9.997625e+001
9.141722e+002, 9.985855e+001
9.146543e+002, 9.928442e+001
9.151364e+002, 9.876011e+001
9.156185e+002, 9.827551e+001
9.161006e+002, 9.814958e+001
9.165828e+002, 9.849914e+001
9.170649e+002, 9.907570e+001
9.175470e+002, 9.974432e+001
9.180291e+002, 1.004209e+002
9.185112e+002, 1.008085e+002
9.189933e+002, 1.009111e+002
9.194755e+002, 1.007033e+002
9.199576e+002, 9.989098e+001
9.204397e+002, 9.919499e+001
9.209218e+002, 9.887880e+001
9.214039e+002, 9.883599e+001
9.218860e+002, 9.906044e+001
9.223682e+002, 9.952970e+001
9.228503e+002, 9.981809e+001
9.233324e+002, 9.965400e+001
9.238145e+002, 9.959134e+001
9.242966e+002, 9.991391e+001
9.247787e+002, 1.002798e+002
9.252609e+002, 1.004395e+002
9.257430e+002, 1.004223e+002
9.262251e+002, 1.003080e+002
9.267072e+002, 1.001155e+002
9.271893e+002, 9.997523e+001
9.276714e+002, 1.000154e+002
9.281536e+002, 1.001112e+002
9.286357e+002, 1.001315e+002
9.291178e+002, 1.001134e+002
9.295999e+002, 1.000791e+002
9.300820e+002, 1.000733e+002
9.305641e+002, 1.002996e+002
9.310463e+002, 1.009297e+002
9.315284e+002, 1.016117e+002
9.320105e+002, 1.017391e+002
9.324926e+002, 1.014342e+002
9.329747e+002, 1.011633e+002
9.334568e+002, 1.009570e+002
9.339390e+002, 1.008783e+002
9.344211e+002, 1.009653e+002
9.349032e+002, 1.010435e+002
9.353853e+002, 1.009126e+002
9.358674e+002, 1.006130e+002
9.363495e+002, 1.003501e+002
9.368317e+002, 1.000785e+002
9.373138e+002, 1.000854e+002
9.377959e+002, 1.005800e+002
9.382780e+002, 1.009541e+002
9.387601e+002, 1.007928e+002
9.392422e+002, 1.003719e+002
9.397244e+002, 1.001681e+002
9.402065e+002, 1.002003e+002
9.406886e+002, 1.003362e+002
9.411707e+002, 1.007851e+002
9.416528e+002, 1.010469e+002
9.421349e+002, 1.008994e+002
9.426171e+002, 1.006477e+002
9.430992e+002, 1.004038e+002
9.435813e+002, 1.002509e+002
9.440634e+002, 1.003980e+002
9.445455e+002, 1.009799e+002
9.450276e+002, 1.015002e+002
9.455098e+002, 1.018664e+002
9.459919e+002, 1.020307e+002
9.464740e+002, 1.018299e+002
9.469561e+002, 1.014791e+002
9.474382e+002, 1.012912e+002
9.479203e+002, 1.012712e+002
9.484025e+002, 1.011470e+002
9.488846e+002, 1.007041e+002
9.493667e+002, 1.002880e+002
9.498488e+002, 1.002812e+002
9.503309e+002, 1.004825e+002
9.508130e+002, 1.005491e+002
9.512952e+002, 1.005305e+002
9.517773e+002, 1.007022e+002
9.522594e+002, 1.011443e+002
9.527415e+002, 1.016474e+002
9.532236e+002, 1.020526e+002
9.537057e+002, 1.023258e+002
9.541879e+002, 1.023356e+002
9.546699e+002, 1.021210e+002
9.551520e+002, 1.019305e+002
9.556342e+002, 1.017989e+002
9.561163e+002, 1.017217e+002
9.565984e+002, 1.017109e+002
9.570805e+002, 1.016633e+002
9.575626e+002, 1.013449e+002
9.580447e+002, 1.007681e+002
9.585269e+002, 1.008290e+002
9.590090e+002, 1.017791e+002
9.594911e+002, 1.022251e+002
9.599732e+002, 1.016224e+002
9.604553e+002, 1.010263e+002
9.609374e+002, 1.013035e+002
9.614196e+002, 1.021244e+002
9.619017e+002, 1.025550e+002
9.623838e+002, 1.024482e+002
9.628659e+002, 1.024006e+002
9.633480e+002, 1.024264e+002
9.638301e+002, 1.024911e+002
9.643123e+002, 1.027144e+002
9.647944e+002, 1.028652e+002
9.652765e+002, 1.026740e+002
9.657586e+002, 1.022196e+002
9.662407e+002, 1.018622e+002
9.667228e+002, 1.015255e+002
9.672050e+002, 1.015304e+002
9.676871e+002, 1.022758e+002
9.681692e+002, 1.030247e+002
9.686513e+002, 1.035445e+002
9.691334e+002, 1.037052e+002
9.696155e+002, 1.031787e+002
9.700977e+002, 1.020605e+002
9.705798e+002, 1.011818e+002
9.710619e+002, 1.009458e+002
9.715440e+002, 1.009842e+002
9.720261e+002, 1.011904e+002
9.725082e+002, 1.014564e+002
9.729904e+002, 1.016931e+002
9.734725e+002, 1.018847e+002
9.739546e+002, 1.020347e+002
9.744367e+002, 1.021400e+002
9.749188e+002, 1.021558e+002
9.754009e+002, 1.019076e+002
9.758831e+002, 1.017027e+002
9.763652e+002, 1.020884e+002
9.768473e+002, 1.027864e+002
9.773294e+002, 1.032842e+002
9.778115e+002, 1.034866e+002
9.782936e+002, 1.032866e+002
9.787758e+002, 1.026354e+002
9.792579e+002, 1.019243e+002
9.797400e+002, 1.016518e+002
9.802221e+002, 1.017057e+002
9.807042e+002, 1.017408e+002
9.811863e+002, 1.017613e+002
9.816685e+002, 1.018130e+002
9.821506e+002, 1.019050e+002
9.826327e+002, 1.019322e+002
9.831148e+002, 1.018122e+002
9.835969e+002, 1.016546e+002
9.840790e+002, 1.016467e+002
9.845612e+002, 1.017883e+002
9.850433e+002, 1.022174e+002
9.855254e+002, 1.030455e+002
9.860075e+002, 1.034600e+002
9.864896e+002, 1.031735e+002
9.869717e+002, 1.026467e+002
9.874539e+002, 1.021836e+002
9.879360e+002, 1.018302e+002
9.884181e+002, 1.017661e+002
9.889002e+002, 1.021343e+002
9.893823e+002, 1.022748e+002
9.898644e+002, 1.020832e+002
9.903466e+002, 1.018523e+002
9.908287e+002, 1.015448e+002
9.913108e+002, 1.013752e+002
9.917929e+002, 1.016039e+002
9.922750e+002, 1.021663e+002
9.927571e+002, 1.026889e+002
9.932393e+002, 1.034070e+002
9.937214e+002, 1.036625e+002
9.942035e+002, 1.029193e+002
9.946856e+002, 1.023456e+002
9.951677e+002, 1.026241e+002
9.956498e+002, 1.031350e+002
9.961320e+002, 1.031197e+002
9.966141e+002, 1.026438e+002
9.970962e+002, 1.024626e+002
9.975783e+002, 1.029378e+002
9.980604e+002, 1.033480e+002
9.985425e+002, 1.035082e+002
9.990247e+002, 1.035512e+002
9.995068e+002, 1.034945e+002
9.999889e+002, 1.034045e+002
1.000471e+003, 1.033926e+002
1.000953e+003, 1.034543e+002
1.001435e+003, 1.034165e+002
1.001917e+003, 1.030871e+002
1.002399e+003, 1.028255e+002
1.002882e+003, 1.029635e+002
1.003364e+003, 1.031398e+002
1.003846e+003, 1.028783e+002
1.004328e+003, 1.024359e+002
1.004810e+003, 1.024439e+002
1.005292e+003, 1.030002e+002
1.005774e+003, 1.034319e+002
1.006256e+003, 1.032231e+002
1.006739e+003, 1.028402e+002
1.007221e+003, 1.027233e+002
1.007703e+003, 1.027071e+002
1.008185e+003, 1.025341e+002
1.008667e+003, 1.022459e+002
1.009149e+003, 1.020229e+002
1.009631e+003, 1.019313e+002
1.010113e+003, 1.019343e+002
1.010595e+003, 1.020279e+002
1.011078e+003, 1.021653e+002
1.011560e+003, 1.022840e+002
1.012042e+003, 1.023884e+002
1.012524e+003, 1.025187e+002
1.013006e+003, 1.026532e+002
1.013488e+003, 1.026487e+002
1.013970e+003, 1.024471e+002
1.014452e+003, 1.022607e+002
1.014935e+003, 1.023915e+002
1.015417e+003, 1.026627e+002
1.015899e+003, 1.024620e+002
1.016381e+003, 1.019721e+002
1.016863e+003, 1.022427e+002
1.017345e+003, 1.033345e+002
1.017827e+003, 1.040781e+002
1.018309e+003, 1.038583e+002
1.018791e+003, 1.032773e+002
1.019274e+003, 1.031469e+002
1.019756e+003, 1.033785e+002
1.020238e+003, 1.035563e+002
1.020720e+003, 1.036806e+002
1.021202e+003, 1.037776e+002
1.021684e+003, 1.038561e+002
1.022166e+003, 1.038071e+002
1.022648e+003, 1.035494e+002
1.023130e+003, 1.032218e+002
1.023613e+003, 1.030624e+002
1.024095e+003, 1.030545e+002
1.024577e+003, 1.028669e+002
1.025059e+003, 1.024408e+002
1.025541e+003, 1.024010e+002
1.026023e+003, 1.029728e+002
1.026505e+003, 1.034176e+002
1.026987e+003, 1.032165e+002
1.027469e+003, 1.027376e+002
1.027952e+003, 1.026867e+002
1.028434e+003, 1.030878e+002
1.028916e+003, 1.032799e+002
1.029398e+003, 1.031803e+002
1.029880e+003, 1.031846e+002
1.030362e+003, 1.034509e+002
1.030844e+003, 1.036285e+002
1.031326e+003, 1.034405e+002
1.031809e+003, 1.030692e+002
1.032291e+003, 1.028906e+002
1.032773e+003, 1.029362e+002
1.033255e+003, 1.028951e+002
1.033737e+003, 1.025919e+002
1.034219e+003, 1.026158e+002
1.034701e+003, 1.033379e+002
1.035183e+003, 1.040173e+002
1.035666e+003, 1.041405e+002
1.036148e+003, 1.039009e+002
1.036630e+003, 1.036806e+002
1.037112e+003, 1.034725e+002
1.037594e+003, 1.033167e+002
1.038076e+003, 1.031244e+002
1.038558e+003, 1.031289e+002
1.039040e+003, 1.034728e+002
1.039522e+003, 1.039105e+002
1.040005e+003, 1.044280e+002
1.040487e+003, 1.048838e+002
1.040969e+003, 1.049115e+002
1.041451e+003, 1.043800e+002
1.041933e+003, 1.041154e+002
1.042415e+003, 1.042641e+002
1.042897e+003, 1.044961e+002
1.043379e+003, 1.049794e+002
1.043861e+003, 1.053019e+002
1.044344e+003, 1.050096e+002
1.044826e+003, 1.044321e+002
1.045308e+003, 1.042124e+002
1.045790e+003, 1.044266e+002
1.046272e+003, 1.047522e+002
1.046754e+003, 1.054024e+002
1.047236e+003, 1.058205e+002
1.047718e+003, 1.058435e+002
1.048201e+003, 1.056161e+002
1.048683e+003, 1.050775e+002
1.049165e+003, 1.044215e+002
1.049647e+003, 1.039701e+002
1.050129e+003, 1.037663e+002
1.050611e+003, 1.037054e+002
1.051093e+003, 1.035800e+002
1.051575e+003, 1.038492e+002
1.052057e+003, 1.052344e+002
1.052540e+003, 1.064949e+002
1.053022e+003, 1.065894e+002
1.053504e+003, 1.059684e+002
1.053986e+003, 1.054918e+002
1.054468e+003, 1.052817e+002
1.054950e+003, 1.051337e+002
1.055432e+003, 1.048650e+002
1.055914e+003, 1.048242e+002
1.056396e+003, 1.053831e+002
1.056879e+003, 1.059687e+002
1.057361e+003, 1.061163e+002
1.057843e+003, 1.059986e+002
1.058325e+003, 1.059684e+002
1.058807e+003, 1.060788e+002
1.059289e+003, 1.061212e+002
1.059771e+003, 1.059343e+002
1.060253e+003, 1.057951e+002
1.060736e+003, 1.058161e+002
1.061218e+003, 1.059167e+002
1.061700e+003, 1.061343e+002
1.062182e+003, 1.063422e+002
1.062664e+003, 1.062426e+002
1.063146e+003, 1.058371e+002
1.063628e+003, 1.057313e+002
1.064110e+003, 1.064184e+002
1.064593e+003, 1.070556e+002
1.065075e+003, 1.073977e+002
1.065557e+003, 1.074599e+002
1.066039e+003, 1.070342e+002
1.066521e+003, 1.064471e+002
1.067003e+003, 1.061905e+002
1.067485e+003, 1.063164e+002
1.067967e+003, 1.065186e+002
1.068449e+003, 1.067366e+002
1.068932e+003, 1.069178e+002
1.069414e+003, 1.071134e+002
1.069896e+003, 1.071873e+002
1.070378e+003, 1.068423e+002
1.070860e+003, 1.064206e+002
1.071342e+003, 1.065097e+002
1.071824e+003, 1.070749e+002
1.072306e+003, 1.073946e+002
1.072788e+003, 1.069993e+002
1.073271e+003, 1.067943e+002
1.073753e+003, 1.074174e+002
1.074235e+003, 1.081559e+002
1.074717e+003, 1.086973e+002
1.075199e+003, 1.089104e+002
1.075681e+003, 1.083686e+002
1.076163e+003, 1.073227e+002
1.076645e+003, 1.070020e+002
1.077128e+003, 1.081378e+002
1.077610e+003, 1.090200e+002
1.078092e+003, 1.084874e+002
1.078574e+003, 1.078365e+002
1.079056e+003, 1.081864e+002
1.079538e+003, 1.087512e+002
1.080020e+003, 1.083798e+002
1.080502e+003, 1.072841e+002
1.080984e+003, 1.065813e+002
1.081467e+003, 1.066543e+002
1.081949e+003, 1.069387e+002
1.082431e+003, 1.072691e+002
1.082913e+003, 1.076324e+002
1.083395e+003, 1.080482e+002
1.083877e+003, 1.084694e+002
1.084359e+003, 1.089348e+002
1.084841e+003, 1.093472e+002
1.085323e+003, 1.094703e+002
1.085806e+003, 1.092256e+002
1.086288e+003, 1.088517e+002
1.086770e+003, 1.081243e+002
1.087252e+003, 1.076968e+002
1.087734e+003, 1.081496e+002
1.088216e+003, 1.088452e+002
1.088698e+003, 1.092811e+002
1.089180e+003, 1.094473e+002
1.089662e+003, 1.093937e+002
1.090145e+003, 1.091307e+002
1.090627e+003, 1.089421e+002
1.091109e+003, 1.090545e+002
1.091591e+003, 1.091022e+002
1.092073e+003, 1.088686e+002
1.092555e+003, 1.085683e+002
1.093037e+003, 1.083304e+002
1.093519e+003, 1.081675e+002
1.094002e+003, 1.080797e+002
1.094484e+003, 1.080650e+002
1.094966e+003, 1.081019e+002
1.095448e+003, 1.083150e+002
1.095930e+003, 1.083839e+002
1.096412e+003, 1.080071e+002
1.096894e+003, 1.076648e+002
1.097376e+003, 1.077785e+002
1.097859e+003, 1.080401e+002
1.098341e+003, 1.079615e+002
1.098823e+003, 1.075708e+002
1.099305e+003, 1.073770e+002
1.099787e+003, 1.076037e+002
1.100269e+003, 1.078095e+002
1.100751e+003, 1.079580e+002
1.101233e+003, 1.079686e+002
1.101715e+003, 1.076075e+002
1.102198e+003, 1.072374e+002
1.102680e+003, 1.072710e+002
1.103162e+003, 1.076395e+002
1.103644e+003, 1.080139e+002
1.104126e+003, 1.084133e+002
1.104608e+003, 1.086071e+002
1.105090e+003, 1.082696e+002
1.105572e+003, 1.080911e+002
1.106054e+003, 1.087011e+002
1.106537e+003, 1.092073e+002
1.107019e+003, 1.086013e+002
1.107501e+003, 1.073924e+002
1.107983e+003, 1.069263e+002
1.108465e+003, 1.074665e+002
1.108947e+003, 1.077781e+002
1.109429e+003, 1.074855e+002
1.109911e+003, 1.073373e+002
1.110394e+003, 1.078130e+002
1.110876e+003, 1.081238e+002
1.111358e+003, 1.073929e+002
1.111840e+003, 1.063794e+002
1.112322e+003, 1.065323e+002
1.112804e+003, 1.079543e+002
1.113286e+003, 1.086291e+002
1.113768e+003, 1.081045e+002
1.114250e+003, 1.075727e+002
1.114733e+003, 1.069516e+002
1.115215e+003, 1.065583e+002
1.115697e+003, 1.066517e+002
1.116179e+003, 1.069277e+002
1.116661e+003, 1.070512e+002
1.117143e+003, 1.070414e+002
1.117625e+003, 1.070410e+002
1.118107e+003, 1.071048e+002
1.118589e+003, 1.070430e+002
1.119072e+003, 1.067855e+002
1.119554e+003, 1.065272e+002
1.120036e+003, 1.062312e+002
1.120518e+003, 1.061297e+002
1.121000e+003, 1.065274e+002
1.121482e+003, 1.071960e+002
1.121964e+003, 1.074345e+002
1.122446e+003, 1.071457e+002
1.122929e+003, 1.070181e+002
1.123411e+003, 1.070957e+002
1.123893e+003, 1.072014e+002
1.124375e+003, 1.073482e+002
1.124857e+003, 1.073277e+002
1.125339e+003, 1.069197e+002
1.125821e+003, 1.064558e+002
1.126303e+003, 1.065313e+002
1.126786e+003, 1.071162e+002
1.127268e+003, 1.077563e+002
1.127750e+003, 1.085186e+002
1.128232e+003, 1.085860e+002
1.128714e+003, 1.077375e+002
1.129196e+003, 1.070868e+002
1.129678e+003, 1.071631e+002
1.130160e+003, 1.075008e+002
1.130642e+003, 1.075681e+002
1.131125e+003, 1.074743e+002
1.131607e+003, 1.076822e+002
1.132089e+003, 1.081566e+002
1.132571e+003, 1.081606e+002
1.133053e+003, 1.076714e+002
1.133535e+003, 1.074917e+002
1.134017e+003, 1.078656e+002
1.134499e+003, 1.081494e+002
1.134981e+003, 1.078266e+002
1.135464e+003, 1.072048e+002
1.135946e+003, 1.067098e+002
1.136428e+003, 1.064078e+002
1.136910e+003, 1.067817e+002
1.137392e+003, 1.076213e+002
1.137874e+003, 1.077621e+002
1.138356e+003, 1.071136e+002
1.138838e+003, 1.067798e+002
1.139321e+003, 1.073281e+002
1.139803e+003, 1.079120e+002
1.140285e+003, 1.073931e+002
1.140767e+003, 1.064589e+002
1.141249e+003, 1.064167e+002
1.141731e+003, 1.069226e+002
1.142213e+003, 1.073224e+002
1.142695e+003, 1.075271e+002
1.143177e+003, 1.074989e+002
1.143660e+003, 1.072695e+002
1.144142e+003, 1.071497e+002
1.144624e+003, 1.073652e+002
1.145106e+003, 1.077684e+002
1.145588e+003, 1.084487e+002
1.146070e+003, 1.090311e+002
1.146552e+003, 1.089301e+002
1.147034e+003, 1.084189e+002
1.147516e+003, 1.079851e+002
1.147999e+003, 1.077193e+002
1.148481e+003, 1.075081e+002
1.148963e+003, 1.072860e+002
1.149445e+003, 1.072154e+002
1.149927e+003, 1.076162e+002
1.150409e+003, 1.079568e+002
1.150891e+003, 1.077842e+002
1.151373e+003, 1.074031e+002
1.151856e+003, 1.070463e+002
1.152338e+003, 1.067967e+002
1.152820e+003, 1.067561e+002
1.153302e+003, 1.069446e+002
1.153784e+003, 1.072066e+002
1.154266e+003, 1.077651e+002
1.154748e+003, 1.079984e+002
1.155230e+003, 1.073521e+002
1.155713e+003, 1.067041e+002
1.156195e+003, 1.065424e+002
1.156677e+003, 1.067382e+002
1.157159e+003, 1.072388e+002
1.157641e+003, 1.079495e+002
1.158123e+003, 1.083203e+002
1.158605e+003, 1.080543e+002
1.159087e+003, 1.079845e+002
1.159569e+003, 1.084168e+002
1.160052e+003, 1.087020e+002
1.160534e+003, 1.086239e+002
1.161016e+003, 1.083958e+002
1.161498e+003, 1.081773e+002
1.161980e+003, 1.079112e+002
1.162462e+003, 1.073894e+002
1.162944e+003, 1.065244e+002
1.163426e+003, 1.063923e+002
1.163908e+003, 1.073570e+002
1.164391e+003, 1.079828e+002
1.164873e+003, 1.080184e+002
1.165355e+003, 1.078696e+002
1.165837e+003, 1.076855e+002
1.166319e+003, 1.074949e+002
1.166801e+003, 1.072960e+002
1.167283e+003, 1.071558e+002
1.167765e+003, 1.074647e+002
1.168247e+003, 1.082536e+002
1.168730e+003, 1.084135e+002
1.169212e+003, 1.078736e+002
1.169694e+003, 1.076550e+002
1.170176e+003, 1.080428e+002
1.170658e+003, 1.084980e+002
1.171140e+003, 1.086636e+002
1.171622e+003, 1.085852e+002
1.172104e+003, 1.082351e+002
1.172587e+003, 1.077402e+002
1.173069e+003, 1.075643e+002
1.173551e+003, 1.076201e+002
1.174033e+003, 1.075255e+002
1.174515e+003, 1.072933e+002
1.174997e+003, 1.072829e+002
1.175479e+003, 1.076149e+002
1.175961e+003, 1.080055e+002
1.176443e+003, 1.082604e+002
1.176926e+003, 1.083698e+002
1.177408e+003, 1.082117e+002
1.177890e+003, 1.079816e+002
1.178372e+003, 1.080328e+002
1.178854e+003, 1.082084e+002
1.179336e+003, 1.081253e+002
1.179818e+003, 1.077942e+002
1.180300e+003, 1.075530e+002
1.180782e+003, 1.075474e+002
1.181265e+003, 1.075958e+002
1.181747e+003, 1.076159e+002
1.182229e+003, 1.076222e+002
1.182711e+003, 1.075819e+002
1.183193e+003, 1.075714e+002
1.183675e+003, 1.077780e+002
1.184157e+003, 1.080205e+002
1.184639e+003, 1.078587e+002
1.185122e+003, 1.072709e+002
1.185604e+003, 1.070049e+002
1.186086e+003, 1.074398e+002
1.186568e+003, 1.078655e+002
1.187050e+003, 1.083445e+002
1.187532e+003, 1.085668e+002
1.188014e+003, 1.080725e+002
1.188496e+003, 1.075524e+002
1.188979e+003, 1.077528e+002
1.189461e+003, 1.083955e+002
1.189943e+003, 1.086415e+002
1.190425e+003, 1.083734e+002
1.190907e+003, 1.084414e+002
1.191389e+003, 1.091091e+002
1.191871e+003, 1.093087e+002
1.192353e+003, 1.086554e+002
1.192835e+003, 1.081881e+002
1.193318e+003, 1.085067e+002
1.193800e+003, 1.090216e+002
1.194282e+003, 1.090144e+002
1.194764e+003, 1.086003e+002
1.195246e+003, 1.081661e+002
1.195728e+003, 1.077214e+002
1.196210e+003, 1.075816e+002
1.196692e+003, 1.077484e+002
1.197174e+003, 1.079618e+002
1.197657e+003, 1.081491e+002
1.198139e+003, 1.082206e+002
1.198621e+003, 1.081080e+002
1.199103e+003, 1.080332e+002
1.199585e+003, 1.084299e+002
1.200067e+003, 1.089631e+002
1.200549e+003, 1.088114e+002
1.201031e+003, 1.083346e+002
1.201514e+003, 1.084403e+002
1.201996e+003, 1.089661e+002
1.202478e+003, 1.091123e+002
1.202960e+003, 1.087081e+002
1.203442e+003, 1.082725e+002
1.203924e+003, 1.080558e+002
1.204406e+003, 1.080554e+002
1.204888e+003, 1.086528e+002
1.205370e+003, 1.090570e+002
1.205853e+003, 1.081048e+002
1.206335e+003, 1.069544e+002
1.206817e+003, 1.073156e+002
1.207299e+003, 1.086463e+002
1.207781e+003, 1.090703e+002
1.208263e+003, 1.081480e+002
1.208745e+003, 1.076538e+002
1.209227e+003, 1.085292e+002
1.209709e+003, 1.090952e+002
1.210192e+003, 1.088436e+002
1.210674e+003, 1.083925e+002
1.211156e+003, 1.077834e+002
1.211638e+003, 1.073538e+002
1.212120e+003, 1.075327e+002
1.212602e+003, 1.081558e+002
1.213084e+003, 1.086226e+002
1.213566e+003, 1.089627e+002
1.214049e+003, 1.089191e+002
1.214531e+003, 1.082912e+002
1.215013e+003, 1.081508e+002
1.215495e+003, 1.088265e+002
1.215977e+003, 1.093628e+002
1.216459e+003, 1.092273e+002
1.216941e+003, 1.088530e+002
1.217423e+003, 1.087551e+002
1.217906e+003, 1.088623e+002
1.218388e+003, 1.090525e+002
1.218870e+003, 1.092524e+002
1.219352e+003, 1.089074e+002
1.219834e+003, 1.081686e+002
1.220316e+003, 1.080676e+002
1.220798e+003, 1.087132e+002
1.221280e+003, 1.091013e+002
1.221762e+003, 1.086769e+002
1.222245e+003, 1.081921e+002
1.222727e+003, 1.085587e+002
1.223209e+003, 1.091068e+002
1.223691e+003, 1.091282e+002
1.224173e+003, 1.088189e+002
1.224655e+003, 1.081851e+002
1.225137e+003, 1.075384e+002
1.225619e+003, 1.074967e+002
1.226101e+003, 1.080576e+002
1.226584e+003, 1.085294e+002
1.227066e+003, 1.086259e+002
1.227548e+003, 1.087572e+002
1.228030e+003, 1.093475e+002
1.228512e+003, 1.096271e+002
1.228994e+003, 1.089352e+002
1.229476e+003, 1.081405e+002
1.229958e+003, 1.079481e+002
1.230441e+003, 1.081097e+002
1.230923e+003, 1.081477e+002
1.231405e+003, 1.080685e+002
1.231887e+003, 1.080906e+002
1.232369e+003, 1.082248e+002
1.232851e+003, 1.084423e+002
1.233333e+003, 1.087907e+002
1.233815e+003, 1.090209e+002
1.234297e+003, 1.090134e+002
1.234780e+003, 1.091135e+002
1.235262e+003, 1.096347e+002
1.235744e+003, 1.101313e+002
1.236226e+003, 1.096432e+002
1.236708e+003, 1.085753e+002
1.237190e+003, 1.088988e+002
1.237672e+003, 1.102008e+002
1.238154e+003, 1.106009e+002
1.238636e+003, 1.100712e+002
1.239119e+003, 1.094830e+002
1.239601e+003, 1.091128e+002
1.240083e+003, 1.087874e+002
1.240565e+003, 1.083571e+002
1.241047e+003, 1.081565e+002
1.241529e+003, 1.087493e+002
1.242011e+003, 1.094741e+002
1.242493e+003, 1.097282e+002
1.242975e+003, 1.096978e+002
1.243458e+003, 1.094974e+002
1.243940e+003, 1.092755e+002
1.244422e+003, 1.092995e+002
1.244904e+003, 1.095923e+002
1.245386e+003, 1.098352e+002
1.245868e+003, 1.099113e+002
1.246350e+003, 1.099966e+002
1.246832e+003, 1.103311e+002
1.247315e+003, 1.103860e+002
1.247797e+003, 1.096449e+002
1.248279e+003, 1.089825e+002
1.248761e+003, 1.091037e+002
1.249243e+003, 1.096111e+002
1.249725e+003, 1.098129e+002
1.250207e+003, 1.097150e+002
1.250689e+003, 1.093755e+002
1.251172e+003, 1.087324e+002
1.251654e+003, 1.085246e+002
1.252136e+003, 1.088140e+002
1.252618e+003, 1.094899e+002
1.253100e+003, 1.105139e+002
1.253582e+003, 1.109797e+002
1.254064e+003, 1.102036e+002
1.254546e+003, 1.091962e+002
1.255028e+003, 1.095212e+002
1.255510e+003, 1.104652e+002
1.255993e+003, 1.106916e+002
1.256475e+003, 1.105363e+002
1.256957e+003, 1.106134e+002
1.257439e+003, 1.108649e+002
1.257921e+003, 1.109534e+002
1.258403e+003, 1.108467e+002
1.258885e+003, 1.108559e+002
1.259367e+003, 1.111938e+002
1.259850e+003, 1.113496e+002
1.260332e+003, 1.108047e+002
1.260814e+003, 1.103935e+002
1.261296e+003, 1.106886e+002
1.261778e+003, 1.110869e+002
1.262260e+003, 1.110162e+002
1.262742e+003, 1.108039e+002
1.263224e+003, 1.111400e+002
1.263707e+003, 1.118996e+002
1.264189e+003, 1.119369e+002
1.264671e+003, 1.108694e+002
1.265153e+003, 1.103992e+002
1.265635e+003, 1.106372e+002
1.266117e+003, 1.110815e+002
1.266599e+003, 1.116788e+002
1.267081e+003, 1.120353e+002
1.267563e+003, 1.119092e+002
1.268046e+003, 1.116477e+002
1.268528e+003, 1.116883e+002
1.269010e+003, 1.118450e+002
1.269492e+003, 1.115675e+002
1.269974e+003, 1.111122e+002
1.270456e+003, 1.111607e+002
1.270938e+003, 1.115987e+002
1.271420e+003, 1.120728e+002
1.271902e+003, 1.124917e+002
1.272385e+003, 1.128899e+002
1.272867e+003, 1.132801e+002
1.273349e+003, 1.133903e+002
1.273831e+003, 1.127880e+002
1.274313e+003, 1.122437e+002
1.274795e+003, 1.121523e+002
1.275277e+003, 1.122348e+002
1.275759e+003, 1.123926e+002
1.276242e+003, 1.125531e+002
1.276724e+003, 1.126590e+002
1.277206e+003, 1.127068e+002
1.277688e+003, 1.126715e+002
1.278170e+003, 1.125238e+002
1.278652e+003, 1.125947e+002
1.279134e+003, 1.130076e+002
1.279616e+003, 1.131534e+002
1.280099e+003, 1.128978e+002
1.280581e+003, 1.127540e+002
1.281063e+003, 1.129122e+002
1.281545e+003, 1.131786e+002
1.282027e+003, 1.134052e+002
1.282509e+003, 1.136272e+002
1.282991e+003, 1.139740e+002
1.283473e+003, 1.143219e+002
1.283955e+003, 1.144287e+002
1.284438e+003, 1.143066e+002
##END=



