##NAMES=Metatorbernite
##RRUFFID=R120014
##IDEAL CHEMISTRY=Cu^2+^(U^6+^O_2_)_2_(PO_4_)_2_&#183;8H_2_O
##LOCALITY=Governor's Lake pegmatite, Halifax County, Nova Scotia, Canada
##OWNER=RRUFF
##SOURCE=Donald Doell
##DESCRIPTION=Green tabular crystals associated with anatase R120013
##STATUS=The identification of this mineral has been confirmed by single-crystal X-ray diffraction.
##URL=rruff.info/R120014
9.112140e+001, 0.000000e+000
9.160352e+001, 1.288553e+002
9.208563e+001, 1.260896e+002
9.256775e+001, 1.256784e+002
9.304987e+001, 1.285193e+002
9.353198e+001, 1.327134e+002
9.401410e+001, 1.366398e+002
9.449622e+001, 1.395826e+002
9.497833e+001, 1.411730e+002
9.546045e+001, 1.412141e+002
9.594257e+001, 1.397196e+002
9.642468e+001, 1.382830e+002
9.690680e+001, 1.370980e+002
9.738892e+001, 1.359422e+002
9.787103e+001, 1.347782e+002
9.835315e+001, 1.334342e+002
9.883527e+001, 1.318095e+002
9.931738e+001, 1.301380e+002
9.979950e+001, 1.283390e+002
1.002816e+002, 1.269861e+002
1.007637e+002, 1.262746e+002
1.012458e+002, 1.257915e+002
1.017280e+002, 1.250694e+002
1.022101e+002, 1.239374e+002
1.026922e+002, 1.228574e+002
1.031743e+002, 1.227529e+002
1.036564e+002, 1.236273e+002
1.041385e+002, 1.243898e+002
1.046207e+002, 1.245694e+002
1.051028e+002, 1.243087e+002
1.055849e+002, 1.240932e+002
1.060670e+002, 1.240426e+002
1.065491e+002, 1.240829e+002
1.070313e+002, 1.241536e+002
1.075134e+002, 1.242630e+002
1.079955e+002, 1.243191e+002
1.084776e+002, 1.241715e+002
1.089597e+002, 1.237411e+002
1.094418e+002, 1.234394e+002
1.099240e+002, 1.235341e+002
1.104061e+002, 1.237129e+002
1.108882e+002, 1.237234e+002
1.113703e+002, 1.234592e+002
1.118524e+002, 1.230400e+002
1.123345e+002, 1.227911e+002
1.128167e+002, 1.228565e+002
1.132988e+002, 1.229181e+002
1.137809e+002, 1.229378e+002
1.142630e+002, 1.229220e+002
1.147451e+002, 1.228864e+002
1.152272e+002, 1.228430e+002
1.157094e+002, 1.227884e+002
1.161915e+002, 1.226658e+002
1.166736e+002, 1.223803e+002
1.171557e+002, 1.221272e+002
1.176378e+002, 1.219705e+002
1.181199e+002, 1.219035e+002
1.186021e+002, 1.218906e+002
1.190842e+002, 1.219080e+002
1.195663e+002, 1.219582e+002
1.200484e+002, 1.220107e+002
1.205305e+002, 1.219429e+002
1.210126e+002, 1.219457e+002
1.214948e+002, 1.222925e+002
1.219769e+002, 1.230586e+002
1.224590e+002, 1.237860e+002
1.229411e+002, 1.238495e+002
1.234232e+002, 1.234325e+002
1.239053e+002, 1.231100e+002
1.243875e+002, 1.231344e+002
1.248696e+002, 1.234014e+002
1.253517e+002, 1.236520e+002
1.258338e+002, 1.239608e+002
1.263159e+002, 1.240781e+002
1.267980e+002, 1.236797e+002
1.272802e+002, 1.228887e+002
1.277623e+002, 1.222782e+002
1.282444e+002, 1.224583e+002
1.287265e+002, 1.235330e+002
1.292086e+002, 1.242841e+002
1.296907e+002, 1.242938e+002
1.301729e+002, 1.241812e+002
1.306550e+002, 1.242237e+002
1.311371e+002, 1.244521e+002
1.316192e+002, 1.247125e+002
1.321013e+002, 1.247508e+002
1.325834e+002, 1.242849e+002
1.330656e+002, 1.241796e+002
1.335477e+002, 1.245995e+002
1.340298e+002, 1.252247e+002
1.345119e+002, 1.258360e+002
1.349940e+002, 1.263538e+002
1.354761e+002, 1.268180e+002
1.359583e+002, 1.273129e+002
1.364404e+002, 1.278166e+002
1.369225e+002, 1.283817e+002
1.374046e+002, 1.289604e+002
1.378867e+002, 1.296148e+002
1.383688e+002, 1.304604e+002
1.388510e+002, 1.315825e+002
1.393331e+002, 1.328724e+002
1.398152e+002, 1.339911e+002
1.402973e+002, 1.351570e+002
1.407794e+002, 1.359294e+002
1.412615e+002, 1.359336e+002
1.417437e+002, 1.353067e+002
1.422258e+002, 1.346598e+002
1.427079e+002, 1.342923e+002
1.431900e+002, 1.341251e+002
1.436721e+002, 1.339928e+002
1.441542e+002, 1.340834e+002
1.446364e+002, 1.339645e+002
1.451185e+002, 1.330898e+002
1.456006e+002, 1.313412e+002
1.460827e+002, 1.295570e+002
1.465648e+002, 1.281064e+002
1.470469e+002, 1.268632e+002
1.475291e+002, 1.257241e+002
1.480112e+002, 1.246507e+002
1.484933e+002, 1.236634e+002
1.489754e+002, 1.228608e+002
1.494575e+002, 1.224812e+002
1.499396e+002, 1.218465e+002
1.504218e+002, 1.205108e+002
1.509039e+002, 1.188821e+002
1.513860e+002, 1.175046e+002
1.518681e+002, 1.167077e+002
1.523502e+002, 1.164324e+002
1.528323e+002, 1.162020e+002
1.533145e+002, 1.162211e+002
1.537966e+002, 1.160755e+002
1.542787e+002, 1.156359e+002
1.547608e+002, 1.149614e+002
1.552429e+002, 1.141608e+002
1.557250e+002, 1.132929e+002
1.562072e+002, 1.123430e+002
1.566893e+002, 1.115878e+002
1.571714e+002, 1.110353e+002
1.576535e+002, 1.106185e+002
1.581356e+002, 1.103928e+002
1.586177e+002, 1.103082e+002
1.590999e+002, 1.101863e+002
1.595820e+002, 1.098319e+002
1.600641e+002, 1.091841e+002
1.605462e+002, 1.088090e+002
1.610283e+002, 1.089154e+002
1.615104e+002, 1.091381e+002
1.619926e+002, 1.091902e+002
1.624747e+002, 1.090348e+002
1.629568e+002, 1.088477e+002
1.634389e+002, 1.088554e+002
1.639210e+002, 1.090435e+002
1.644031e+002, 1.090925e+002
1.648853e+002, 1.087932e+002
1.653674e+002, 1.083690e+002
1.658495e+002, 1.081968e+002
1.663316e+002, 1.084098e+002
1.668137e+002, 1.086506e+002
1.672958e+002, 1.085155e+002
1.677780e+002, 1.080981e+002
1.682601e+002, 1.077417e+002
1.687422e+002, 1.076899e+002
1.692243e+002, 1.078526e+002
1.697064e+002, 1.078425e+002
1.701885e+002, 1.074567e+002
1.706707e+002, 1.071031e+002
1.711528e+002, 1.070784e+002
1.716349e+002, 1.073264e+002
1.721170e+002, 1.075980e+002
1.725991e+002, 1.076881e+002
1.730812e+002, 1.075871e+002
1.735634e+002, 1.075119e+002
1.740455e+002, 1.073856e+002
1.745276e+002, 1.073667e+002
1.750097e+002, 1.075723e+002
1.754918e+002, 1.079764e+002
1.759739e+002, 1.084429e+002
1.764561e+002, 1.088231e+002
1.769382e+002, 1.090915e+002
1.774203e+002, 1.093658e+002
1.779024e+002, 1.096707e+002
1.783845e+002, 1.099611e+002
1.788666e+002, 1.102365e+002
1.793488e+002, 1.104828e+002
1.798309e+002, 1.106596e+002
1.803130e+002, 1.106960e+002
1.807951e+002, 1.104853e+002
1.812772e+002, 1.103731e+002
1.817593e+002, 1.102697e+002
1.822415e+002, 1.103035e+002
1.827236e+002, 1.106445e+002
1.832057e+002, 1.113088e+002
1.836878e+002, 1.120776e+002
1.841699e+002, 1.126062e+002
1.846520e+002, 1.126562e+002
1.851342e+002, 1.129494e+002
1.856163e+002, 1.137247e+002
1.860984e+002, 1.146532e+002
1.865805e+002, 1.153490e+002
1.870626e+002, 1.156875e+002
1.875447e+002, 1.159037e+002
1.880269e+002, 1.164265e+002
1.885090e+002, 1.173430e+002
1.889911e+002, 1.181553e+002
1.894732e+002, 1.186711e+002
1.899553e+002, 1.190234e+002
1.904374e+002, 1.194646e+002
1.909196e+002, 1.201189e+002
1.914017e+002, 1.207738e+002
1.918838e+002, 1.210897e+002
1.923659e+002, 1.210528e+002
1.928480e+002, 1.210157e+002
1.933301e+002, 1.213549e+002
1.938123e+002, 1.218760e+002
1.942944e+002, 1.218392e+002
1.947765e+002, 1.209077e+002
1.952586e+002, 1.194875e+002
1.957407e+002, 1.180381e+002
1.962228e+002, 1.165626e+002
1.967050e+002, 1.150853e+002
1.971871e+002, 1.135739e+002
1.976692e+002, 1.120368e+002
1.981513e+002, 1.106591e+002
1.986334e+002, 1.095372e+002
1.991155e+002, 1.085556e+002
1.995977e+002, 1.076150e+002
2.000798e+002, 1.067135e+002
2.005619e+002, 1.059359e+002
2.010440e+002, 1.053977e+002
2.015261e+002, 1.051333e+002
2.020082e+002, 1.048630e+002
2.024904e+002, 1.045636e+002
2.029725e+002, 1.042407e+002
2.034546e+002, 1.038245e+002
2.039367e+002, 1.033380e+002
2.044188e+002, 1.029422e+002
2.049009e+002, 1.028908e+002
2.053831e+002, 1.033523e+002
2.058652e+002, 1.036393e+002
2.063473e+002, 1.037306e+002
2.068294e+002, 1.036607e+002
2.073115e+002, 1.033474e+002
2.077936e+002, 1.028260e+002
2.082758e+002, 1.022922e+002
2.087579e+002, 1.020357e+002
2.092400e+002, 1.022104e+002
2.097221e+002, 1.023412e+002
2.102042e+002, 1.024648e+002
2.106863e+002, 1.025290e+002
2.111685e+002, 1.024600e+002
2.116506e+002, 1.022605e+002
2.121327e+002, 1.020316e+002
2.126148e+002, 1.019145e+002
2.130969e+002, 1.019307e+002
2.135790e+002, 1.020455e+002
2.140612e+002, 1.023885e+002
2.145433e+002, 1.027428e+002
2.150254e+002, 1.028871e+002
2.155075e+002, 1.027834e+002
2.159896e+002, 1.026436e+002
2.164717e+002, 1.027909e+002
2.169539e+002, 1.034582e+002
2.174360e+002, 1.038428e+002
2.179181e+002, 1.037557e+002
2.184002e+002, 1.034689e+002
2.188823e+002, 1.032235e+002
2.193644e+002, 1.030776e+002
2.198466e+002, 1.029990e+002
2.203287e+002, 1.029789e+002
2.208108e+002, 1.030523e+002
2.212929e+002, 1.029812e+002
2.217750e+002, 1.026162e+002
2.222571e+002, 1.021346e+002
2.227393e+002, 1.017358e+002
2.232214e+002, 1.014569e+002
2.237035e+002, 1.012914e+002
2.241856e+002, 1.013179e+002
2.246677e+002, 1.015218e+002
2.251498e+002, 1.016042e+002
2.256320e+002, 1.014095e+002
2.261141e+002, 1.010654e+002
2.265962e+002, 1.008095e+002
2.270783e+002, 1.007249e+002
2.275604e+002, 1.005934e+002
2.280425e+002, 1.000675e+002
2.285247e+002, 9.925661e+001
2.290068e+002, 9.862431e+001
2.294889e+002, 9.846376e+001
2.299710e+002, 9.860022e+001
2.304531e+002, 9.863549e+001
2.309352e+002, 9.848849e+001
2.314174e+002, 9.833064e+001
2.318995e+002, 9.830639e+001
2.323816e+002, 9.837717e+001
2.328637e+002, 9.844273e+001
2.333458e+002, 9.849709e+001
2.338279e+002, 9.851338e+001
2.343101e+002, 9.836033e+001
2.347922e+002, 9.786897e+001
2.352743e+002, 9.750125e+001
2.357564e+002, 9.758421e+001
2.362385e+002, 9.796175e+001
2.367206e+002, 9.832474e+001
2.372028e+002, 9.849235e+001
2.376849e+002, 9.850496e+001
2.381670e+002, 9.854830e+001
2.386491e+002, 9.869614e+001
2.391312e+002, 9.875582e+001
2.396133e+002, 9.862015e+001
2.400955e+002, 9.836149e+001
2.405776e+002, 9.809187e+001
2.410597e+002, 9.785938e+001
2.415418e+002, 9.767347e+001
2.420239e+002, 9.759380e+001
2.425060e+002, 9.771333e+001
2.429882e+002, 9.781636e+001
2.434703e+002, 9.780318e+001
2.439524e+002, 9.774153e+001
2.444345e+002, 9.775291e+001
2.449166e+002, 9.793221e+001
2.453987e+002, 9.820898e+001
2.458809e+002, 9.822373e+001
2.463630e+002, 9.757583e+001
2.468451e+002, 9.718941e+001
2.473272e+002, 9.746874e+001
2.478093e+002, 9.804366e+001
2.482914e+002, 9.845061e+001
2.487736e+002, 9.843981e+001
2.492557e+002, 9.807623e+001
2.497378e+002, 9.760806e+001
2.502199e+002, 9.665339e+001
2.507020e+002, 9.609420e+001
2.511841e+002, 9.633302e+001
2.516663e+002, 9.692448e+001
2.521484e+002, 9.735352e+001
2.526305e+002, 9.737271e+001
2.531126e+002, 9.708610e+001
2.535947e+002, 9.681421e+001
2.540768e+002, 9.643382e+001
2.545590e+002, 9.623912e+001
2.550411e+002, 9.644831e+001
2.555232e+002, 9.677233e+001
2.560053e+002, 9.688067e+001
2.564874e+002, 9.663399e+001
2.569695e+002, 9.615873e+001
2.574517e+002, 9.576002e+001
2.579338e+002, 9.536455e+001
2.584159e+002, 9.515611e+001
2.588980e+002, 9.535120e+001
2.593801e+002, 9.563986e+001
2.598622e+002, 9.562992e+001
2.603444e+002, 9.519386e+001
2.608265e+002, 9.461475e+001
2.613086e+002, 9.442819e+001
2.617907e+002, 9.491363e+001
2.622728e+002, 9.539185e+001
2.627549e+002, 9.599642e+001
2.632371e+002, 9.652274e+001
2.637192e+002, 9.672721e+001
2.642013e+002, 9.655209e+001
2.646834e+002, 9.617796e+001
2.651655e+002, 9.585312e+001
2.656476e+002, 9.555830e+001
2.661298e+002, 9.539279e+001
2.666119e+002, 9.541837e+001
2.670940e+002, 9.554078e+001
2.675761e+002, 9.569506e+001
2.680582e+002, 9.586546e+001
2.685403e+002, 9.603043e+001
2.690225e+002, 9.617980e+001
2.695046e+002, 9.632822e+001
2.699867e+002, 9.634306e+001
2.704688e+002, 9.605660e+001
2.709509e+002, 9.573823e+001
2.714330e+002, 9.566352e+001
2.719152e+002, 9.585367e+001
2.723973e+002, 9.606337e+001
2.728794e+002, 9.606110e+001
2.733615e+002, 9.582336e+001
2.738436e+002, 9.557784e+001
2.743257e+002, 9.525344e+001
2.748079e+002, 9.497305e+001
2.752900e+002, 9.480281e+001
2.757721e+002, 9.475307e+001
2.762542e+002, 9.489462e+001
2.767363e+002, 9.538451e+001
2.772184e+002, 9.614632e+001
2.777006e+002, 9.657285e+001
2.781827e+002, 9.637658e+001
2.786648e+002, 9.606822e+001
2.791469e+002, 9.605172e+001
2.796290e+002, 9.628857e+001
2.801111e+002, 9.640614e+001
2.805933e+002, 9.608725e+001
2.810754e+002, 9.551342e+001
2.815575e+002, 9.530218e+001
2.820396e+002, 9.561347e+001
2.825217e+002, 9.608517e+001
2.830038e+002, 9.666964e+001
2.834860e+002, 9.729639e+001
2.839681e+002, 9.756352e+001
2.844502e+002, 9.715353e+001
2.849323e+002, 9.637424e+001
2.854144e+002, 9.589484e+001
2.858965e+002, 9.579020e+001
2.863787e+002, 9.578068e+001
2.868608e+002, 9.574643e+001
2.873429e+002, 9.568954e+001
2.878250e+002, 9.561442e+001
2.883071e+002, 9.551594e+001
2.887892e+002, 9.540807e+001
2.892714e+002, 9.531203e+001
2.897535e+002, 9.522935e+001
2.902356e+002, 9.514499e+001
2.907177e+002, 9.501949e+001
2.911998e+002, 9.488537e+001
2.916819e+002, 9.484470e+001
2.921641e+002, 9.495661e+001
2.926462e+002, 9.509461e+001
2.931283e+002, 9.511658e+001
2.936104e+002, 9.503616e+001
2.940925e+002, 9.493281e+001
2.945746e+002, 9.491186e+001
2.950568e+002, 9.487701e+001
2.955389e+002, 9.455968e+001
2.960210e+002, 9.381615e+001
2.965031e+002, 9.312910e+001
2.969852e+002, 9.294021e+001
2.974673e+002, 9.313414e+001
2.979495e+002, 9.347862e+001
2.984316e+002, 9.408479e+001
2.989137e+002, 9.472682e+001
2.993958e+002, 9.508504e+001
2.998779e+002, 9.514681e+001
3.003600e+002, 9.494212e+001
3.008422e+002, 9.414431e+001
3.013243e+002, 9.313811e+001
3.018064e+002, 9.264434e+001
3.022885e+002, 9.309529e+001
3.027706e+002, 9.384978e+001
3.032527e+002, 9.420936e+001
3.037349e+002, 9.415992e+001
3.042170e+002, 9.392055e+001
3.046991e+002, 9.338674e+001
3.051812e+002, 9.282250e+001
3.056633e+002, 9.262477e+001
3.061454e+002, 9.296272e+001
3.066276e+002, 9.337290e+001
3.071097e+002, 9.340786e+001
3.075918e+002, 9.309216e+001
3.080739e+002, 9.286301e+001
3.085560e+002, 9.294047e+001
3.090381e+002, 9.309798e+001
3.095203e+002, 9.304407e+001
3.100024e+002, 9.274729e+001
3.104845e+002, 9.249126e+001
3.109666e+002, 9.250185e+001
3.114487e+002, 9.272937e+001
3.119308e+002, 9.293027e+001
3.124130e+002, 9.304386e+001
3.128951e+002, 9.313750e+001
3.133772e+002, 9.335721e+001
3.138593e+002, 9.366319e+001
3.143414e+002, 9.375500e+001
3.148235e+002, 9.321123e+001
3.153057e+002, 9.235304e+001
3.157878e+002, 9.211117e+001
3.162699e+002, 9.281772e+001
3.167520e+002, 9.352466e+001
3.172341e+002, 9.337858e+001
3.177162e+002, 9.270499e+001
3.181984e+002, 9.219340e+001
3.186805e+002, 9.221717e+001
3.191626e+002, 9.248725e+001
3.196447e+002, 9.253371e+001
3.201268e+002, 9.231327e+001
3.206089e+002, 9.208998e+001
3.210911e+002, 9.206819e+001
3.215732e+002, 9.211975e+001
3.220553e+002, 9.205150e+001
3.225374e+002, 9.175970e+001
3.230195e+002, 9.144493e+001
3.235016e+002, 9.134963e+001
3.239838e+002, 9.147525e+001
3.244659e+002, 9.155273e+001
3.249480e+002, 9.144886e+001
3.254301e+002, 9.126432e+001
3.259122e+002, 9.111572e+001
3.263943e+002, 9.100563e+001
3.268765e+002, 9.094338e+001
3.273586e+002, 9.096493e+001
3.278407e+002, 9.105193e+001
3.283228e+002, 9.109653e+001
3.288049e+002, 9.105061e+001
3.292870e+002, 9.098739e+001
3.297692e+002, 9.094578e+001
3.302513e+002, 9.092942e+001
3.307334e+002, 9.102540e+001
3.312155e+002, 9.145668e+001
3.316976e+002, 9.201427e+001
3.321797e+002, 9.212183e+001
3.326619e+002, 9.155964e+001
3.331440e+002, 9.099778e+001
3.336261e+002, 9.117250e+001
3.341082e+002, 9.178889e+001
3.345903e+002, 9.214336e+001
3.350724e+002, 9.171689e+001
3.355546e+002, 9.106870e+001
3.360367e+002, 9.101585e+001
3.365188e+002, 9.162331e+001
3.370009e+002, 9.215983e+001
3.374830e+002, 9.212428e+001
3.379651e+002, 9.176181e+001
3.384473e+002, 9.154086e+001
3.389294e+002, 9.156184e+001
3.394115e+002, 9.165247e+001
3.398936e+002, 9.168473e+001
3.403757e+002, 9.166637e+001
3.408578e+002, 9.165934e+001
3.413400e+002, 9.170768e+001
3.418221e+002, 9.175426e+001
3.423042e+002, 9.169039e+001
3.427863e+002, 9.148381e+001
3.432684e+002, 9.134470e+001
3.437505e+002, 9.146309e+001
3.442327e+002, 9.172180e+001
3.447148e+002, 9.181125e+001
3.451969e+002, 9.162122e+001
3.456790e+002, 9.137209e+001
3.461611e+002, 9.130306e+001
3.466432e+002, 9.138852e+001
3.471254e+002, 9.156801e+001
3.476075e+002, 9.196714e+001
3.480896e+002, 9.238352e+001
3.485717e+002, 9.250218e+001
3.490538e+002, 9.228634e+001
3.495359e+002, 9.208762e+001
3.500181e+002, 9.221107e+001
3.505002e+002, 9.257545e+001
3.509823e+002, 9.278625e+001
3.514644e+002, 9.272361e+001
3.519465e+002, 9.258554e+001
3.524286e+002, 9.244828e+001
3.529108e+002, 9.233054e+001
3.533929e+002, 9.233841e+001
3.538750e+002, 9.257109e+001
3.543571e+002, 9.291424e+001
3.548392e+002, 9.307685e+001
3.553214e+002, 9.299887e+001
3.558035e+002, 9.290883e+001
3.562856e+002, 9.292481e+001
3.567677e+002, 9.297678e+001
3.572498e+002, 9.292384e+001
3.577319e+002, 9.271554e+001
3.582141e+002, 9.245313e+001
3.586962e+002, 9.228814e+001
3.591783e+002, 9.225044e+001
3.596604e+002, 9.211996e+001
3.601425e+002, 9.170351e+001
3.606246e+002, 9.128698e+001
3.611068e+002, 9.113020e+001
3.615889e+002, 9.125706e+001
3.620710e+002, 9.159025e+001
3.625531e+002, 9.214986e+001
3.630352e+002, 9.291480e+001
3.635173e+002, 9.323962e+001
3.639995e+002, 9.289066e+001
3.644816e+002, 9.238284e+001
3.649637e+002, 9.183584e+001
3.654458e+002, 9.131748e+001
3.659279e+002, 9.095806e+001
3.664100e+002, 9.082401e+001
3.668922e+002, 9.089705e+001
3.673743e+002, 9.114014e+001
3.678564e+002, 9.183377e+001
3.683385e+002, 9.229101e+001
3.688206e+002, 9.227475e+001
3.693027e+002, 9.204017e+001
3.697849e+002, 9.187440e+001
3.702670e+002, 9.185844e+001
3.707491e+002, 9.189390e+001
3.712312e+002, 9.184566e+001
3.717133e+002, 9.168375e+001
3.721954e+002, 9.152061e+001
3.726776e+002, 9.134335e+001
3.731597e+002, 9.117630e+001
3.736418e+002, 9.107594e+001
3.741239e+002, 9.101189e+001
3.746060e+002, 9.085055e+001
3.750881e+002, 9.044707e+001
3.755703e+002, 8.982024e+001
3.760524e+002, 8.956145e+001
3.765345e+002, 9.016483e+001
3.770166e+002, 9.056255e+001
3.774987e+002, 9.026792e+001
3.779808e+002, 8.968278e+001
3.784630e+002, 8.943193e+001
3.789451e+002, 8.980520e+001
3.794272e+002, 9.054191e+001
3.799093e+002, 9.103274e+001
3.803914e+002, 9.121101e+001
3.808735e+002, 9.122610e+001
3.813557e+002, 9.086388e+001
3.818378e+002, 9.051333e+001
3.823199e+002, 9.050520e+001
3.828020e+002, 9.085671e+001
3.832841e+002, 9.131182e+001
3.837662e+002, 9.159447e+001
3.842484e+002, 9.168929e+001
3.847305e+002, 9.172253e+001
3.852126e+002, 9.173721e+001
3.856947e+002, 9.164063e+001
3.861768e+002, 9.122620e+001
3.866589e+002, 9.068560e+001
3.871411e+002, 9.041201e+001
3.876232e+002, 9.068912e+001
3.881053e+002, 9.132909e+001
3.885874e+002, 9.164602e+001
3.890695e+002, 9.148131e+001
3.895516e+002, 9.127901e+001
3.900338e+002, 9.109938e+001
3.905159e+002, 9.095711e+001
3.909980e+002, 9.085305e+001
3.914801e+002, 9.078867e+001
3.919622e+002, 9.080412e+001
3.924443e+002, 9.099770e+001
3.929265e+002, 9.139967e+001
3.934086e+002, 9.168476e+001
3.938907e+002, 9.173436e+001
3.943728e+002, 9.172520e+001
3.948549e+002, 9.174876e+001
3.953370e+002, 9.180279e+001
3.958192e+002, 9.185555e+001
3.963013e+002, 9.185371e+001
3.967834e+002, 9.183611e+001
3.972655e+002, 9.197562e+001
3.977476e+002, 9.237905e+001
3.982297e+002, 9.265998e+001
3.987119e+002, 9.251791e+001
3.991940e+002, 9.216200e+001
3.996761e+002, 9.182381e+001
4.001582e+002, 9.152361e+001
4.006403e+002, 9.133913e+001
4.011224e+002, 9.140238e+001
4.016046e+002, 9.169850e+001
4.020867e+002, 9.196581e+001
4.025688e+002, 9.210502e+001
4.030509e+002, 9.220675e+001
4.035330e+002, 9.241428e+001
4.040151e+002, 9.273305e+001
4.044973e+002, 9.295290e+001
4.049794e+002, 9.292381e+001
4.054615e+002, 9.275262e+001
4.059436e+002, 9.263136e+001
4.064257e+002, 9.259053e+001
4.069078e+002, 9.253409e+001
4.073900e+002, 9.235508e+001
4.078721e+002, 9.208763e+001
4.083542e+002, 9.190762e+001
4.088363e+002, 9.199181e+001
4.093184e+002, 9.201988e+001
4.098005e+002, 9.174743e+001
4.102827e+002, 9.123706e+001
4.107648e+002, 9.068205e+001
4.112469e+002, 9.013309e+001
4.117290e+002, 8.965622e+001
4.122111e+002, 8.945407e+001
4.126932e+002, 8.968520e+001
4.131754e+002, 8.975341e+001
4.136575e+002, 8.934940e+001
4.141396e+002, 8.884415e+001
4.146217e+002, 8.867441e+001
4.151038e+002, 8.889477e+001
4.155859e+002, 8.917956e+001
4.160681e+002, 8.918378e+001
4.165502e+002, 8.886096e+001
4.170323e+002, 8.878895e+001
4.175144e+002, 8.928678e+001
4.179965e+002, 8.966171e+001
4.184786e+002, 8.952286e+001
4.189608e+002, 8.906726e+001
4.194429e+002, 8.868172e+001
4.199250e+002, 8.856389e+001
4.204071e+002, 8.865652e+001
4.208892e+002, 8.881807e+001
4.213713e+002, 8.927566e+001
4.218535e+002, 8.943830e+001
4.223356e+002, 8.896812e+001
4.228177e+002, 8.844224e+001
4.232998e+002, 8.837191e+001
4.237819e+002, 8.877673e+001
4.242640e+002, 8.925182e+001
4.247462e+002, 8.934545e+001
4.252283e+002, 8.901667e+001
4.257104e+002, 8.892539e+001
4.261925e+002, 8.936757e+001
4.266746e+002, 8.973502e+001
4.271567e+002, 8.980167e+001
4.276389e+002, 8.969273e+001
4.281210e+002, 8.962116e+001
4.286031e+002, 8.969821e+001
4.290852e+002, 8.982431e+001
4.295673e+002, 8.973875e+001
4.300494e+002, 8.931325e+001
4.305316e+002, 8.913786e+001
4.310137e+002, 8.973048e+001
4.314958e+002, 9.036266e+001
4.319779e+002, 9.049603e+001
4.324600e+002, 9.012772e+001
4.329421e+002, 8.974878e+001
4.334243e+002, 8.982499e+001
4.339064e+002, 9.022031e+001
4.343885e+002, 9.030075e+001
4.348706e+002, 8.990731e+001
4.353527e+002, 8.950214e+001
4.358348e+002, 8.935902e+001
4.363170e+002, 8.940643e+001
4.367991e+002, 8.956652e+001
4.372812e+002, 8.991549e+001
4.377633e+002, 9.023666e+001
4.382454e+002, 9.032663e+001
4.387275e+002, 9.020309e+001
4.392097e+002, 8.994756e+001
4.396918e+002, 8.949259e+001
4.401739e+002, 8.906075e+001
4.406560e+002, 8.908630e+001
4.411381e+002, 8.961543e+001
4.416202e+002, 8.993061e+001
4.421024e+002, 8.957884e+001
4.425845e+002, 8.904925e+001
4.430666e+002, 8.902774e+001
4.435487e+002, 8.953298e+001
4.440308e+002, 8.986003e+001
4.445129e+002, 8.939548e+001
4.449951e+002, 8.825801e+001
4.454772e+002, 8.759012e+001
4.459593e+002, 8.770830e+001
4.464414e+002, 8.785545e+001
4.469235e+002, 8.778455e+001
4.474056e+002, 8.760499e+001
4.478878e+002, 8.750645e+001
4.483699e+002, 8.755135e+001
4.488520e+002, 8.762096e+001
4.493341e+002, 8.751192e+001
4.498162e+002, 8.707469e+001
4.502983e+002, 8.689725e+001
4.507805e+002, 8.721926e+001
4.512626e+002, 8.753958e+001
4.517447e+002, 8.756897e+001
4.522268e+002, 8.737073e+001
4.527089e+002, 8.715889e+001
4.531910e+002, 8.706664e+001
4.536732e+002, 8.709153e+001
4.541553e+002, 8.726719e+001
4.546374e+002, 8.791644e+001
4.551195e+002, 8.814040e+001
4.556016e+002, 8.743903e+001
4.560837e+002, 8.654436e+001
4.565659e+002, 8.606930e+001
4.570480e+002, 8.612128e+001
4.575301e+002, 8.640516e+001
4.580122e+002, 8.671954e+001
4.584943e+002, 8.705978e+001
4.589764e+002, 8.709522e+001
4.594586e+002, 8.661117e+001
4.599407e+002, 8.612371e+001
4.604228e+002, 8.587913e+001
4.609049e+002, 8.581882e+001
4.613870e+002, 8.585210e+001
4.618691e+002, 8.597592e+001
4.623513e+002, 8.613322e+001
4.628334e+002, 8.627541e+001
4.633155e+002, 8.640075e+001
4.637976e+002, 8.646175e+001
4.642797e+002, 8.644628e+001
4.647618e+002, 8.635305e+001
4.652440e+002, 8.613542e+001
4.657261e+002, 8.578667e+001
4.662082e+002, 8.555656e+001
4.666903e+002, 8.561561e+001
4.671724e+002, 8.579079e+001
4.676545e+002, 8.591177e+001
4.681367e+002, 8.595792e+001
4.686188e+002, 8.586674e+001
4.691009e+002, 8.554223e+001
4.695830e+002, 8.506094e+001
4.700651e+002, 8.480367e+001
4.705472e+002, 8.490608e+001
4.710294e+002, 8.502740e+001
4.715115e+002, 8.512330e+001
4.719936e+002, 8.517332e+001
4.724757e+002, 8.509693e+001
4.729578e+002, 8.489030e+001
4.734399e+002, 8.473846e+001
4.739221e+002, 8.490185e+001
4.744042e+002, 8.549085e+001
4.748863e+002, 8.574325e+001
4.753684e+002, 8.539506e+001
4.758505e+002, 8.503439e+001
4.763326e+002, 8.490470e+001
4.768148e+002, 8.490590e+001
4.772969e+002, 8.484492e+001
4.777790e+002, 8.462820e+001
4.782611e+002, 8.431535e+001
4.787432e+002, 8.400308e+001
4.792253e+002, 8.362222e+001
4.797075e+002, 8.344651e+001
4.801896e+002, 8.370449e+001
4.806717e+002, 8.401305e+001
4.811538e+002, 8.418245e+001
4.816359e+002, 8.421103e+001
4.821180e+002, 8.418050e+001
4.826002e+002, 8.409988e+001
4.830823e+002, 8.401452e+001
4.835644e+002, 8.406691e+001
4.840465e+002, 8.428616e+001
4.845286e+002, 8.454096e+001
4.850107e+002, 8.486726e+001
4.854929e+002, 8.514641e+001
4.859750e+002, 8.521461e+001
4.864571e+002, 8.502267e+001
4.869392e+002, 8.478451e+001
4.874213e+002, 8.454509e+001
4.879034e+002, 8.436423e+001
4.883856e+002, 8.439277e+001
4.888677e+002, 8.466551e+001
4.893498e+002, 8.507165e+001
4.898319e+002, 8.560094e+001
4.903140e+002, 8.621266e+001
4.907961e+002, 8.652043e+001
4.912783e+002, 8.631555e+001
4.917604e+002, 8.603398e+001
4.922425e+002, 8.586207e+001
4.927246e+002, 8.575511e+001
4.932067e+002, 8.561182e+001
4.936888e+002, 8.539714e+001
4.941710e+002, 8.516776e+001
4.946531e+002, 8.499755e+001
4.951352e+002, 8.483334e+001
4.956173e+002, 8.492250e+001
4.960994e+002, 8.574718e+001
4.965815e+002, 8.632310e+001
4.970637e+002, 8.594325e+001
4.975458e+002, 8.495335e+001
4.980279e+002, 8.414043e+001
4.985100e+002, 8.395421e+001
4.989921e+002, 8.417648e+001
4.994742e+002, 8.423262e+001
4.999564e+002, 8.397905e+001
5.004385e+002, 8.392686e+001
5.009206e+002, 8.442788e+001
5.014027e+002, 8.492833e+001
5.018848e+002, 8.502840e+001
5.023669e+002, 8.476933e+001
5.028491e+002, 8.451936e+001
5.033312e+002, 8.456570e+001
5.038133e+002, 8.479638e+001
5.042954e+002, 8.493446e+001
5.047775e+002, 8.499139e+001
5.052596e+002, 8.489311e+001
5.057418e+002, 8.449660e+001
5.062239e+002, 8.398067e+001
5.067060e+002, 8.360181e+001
5.071881e+002, 8.339544e+001
5.076702e+002, 8.323567e+001
5.081523e+002, 8.296957e+001
5.086345e+002, 8.273828e+001
5.091166e+002, 8.289004e+001
5.095987e+002, 8.347806e+001
5.100808e+002, 8.396912e+001
5.105629e+002, 8.389584e+001
5.110450e+002, 8.330840e+001
5.115272e+002, 8.285245e+001
5.120093e+002, 8.246601e+001
5.124914e+002, 8.226012e+001
5.129735e+002, 8.249681e+001
5.134556e+002, 8.283794e+001
5.139377e+002, 8.279102e+001
5.144199e+002, 8.224600e+001
5.149020e+002, 8.153279e+001
5.153841e+002, 8.105345e+001
5.158662e+002, 8.082352e+001
5.163483e+002, 8.072502e+001
5.168304e+002, 8.090766e+001
5.173126e+002, 8.106664e+001
5.177947e+002, 8.113616e+001
5.182768e+002, 8.112280e+001
5.187589e+002, 8.102963e+001
5.192410e+002, 8.085445e+001
5.197231e+002, 8.065257e+001
5.202053e+002, 8.050723e+001
5.206874e+002, 8.042358e+001
5.211695e+002, 8.031805e+001
5.216516e+002, 8.013744e+001
5.221337e+002, 7.998891e+001
5.226158e+002, 7.997623e+001
5.230980e+002, 8.005209e+001
5.235801e+002, 8.008351e+001
5.240622e+002, 8.005479e+001
5.245443e+002, 7.993141e+001
5.250264e+002, 7.956490e+001
5.255085e+002, 7.902074e+001
5.259907e+002, 7.875437e+001
5.264728e+002, 7.901057e+001
5.269549e+002, 7.941529e+001
5.274370e+002, 7.935831e+001
5.279191e+002, 7.873584e+001
5.284012e+002, 7.834755e+001
5.288834e+002, 7.850961e+001
5.293655e+002, 7.872660e+001
5.298476e+002, 7.861490e+001
5.303297e+002, 7.825874e+001
5.308118e+002, 7.795930e+001
5.312939e+002, 7.787831e+001
5.317761e+002, 7.795007e+001
5.322582e+002, 7.799657e+001
5.327403e+002, 7.787337e+001
5.332224e+002, 7.800253e+001
5.337045e+002, 7.884785e+001
5.341866e+002, 7.951473e+001
5.346688e+002, 7.927473e+001
5.351509e+002, 7.835654e+001
5.356330e+002, 7.756627e+001
5.361151e+002, 7.746419e+001
5.365972e+002, 7.779987e+001
5.370793e+002, 7.787521e+001
5.375615e+002, 7.760075e+001
5.380436e+002, 7.743913e+001
5.385257e+002, 7.766560e+001
5.390078e+002, 7.794996e+001
5.394899e+002, 7.797348e+001
5.399720e+002, 7.774126e+001
5.404542e+002, 7.754118e+001
5.409363e+002, 7.757781e+001
5.414184e+002, 7.769776e+001
5.419005e+002, 7.764487e+001
5.423826e+002, 7.742271e+001
5.428647e+002, 7.727771e+001
5.433469e+002, 7.736851e+001
5.438290e+002, 7.758690e+001
5.443111e+002, 7.764865e+001
5.447932e+002, 7.750429e+001
5.452753e+002, 7.734693e+001
5.457574e+002, 7.724490e+001
5.462396e+002, 7.710899e+001
5.467217e+002, 7.678609e+001
5.472038e+002, 7.633104e+001
5.476859e+002, 7.600412e+001
5.481680e+002, 7.600375e+001
5.486501e+002, 7.624310e+001
5.491323e+002, 7.632779e+001
5.496144e+002, 7.610930e+001
5.500965e+002, 7.599364e+001
5.505786e+002, 7.609180e+001
5.510607e+002, 7.624319e+001
5.515428e+002, 7.637654e+001
5.520250e+002, 7.646053e+001
5.525071e+002, 7.643161e+001
5.529892e+002, 7.615562e+001
5.534713e+002, 7.576172e+001
5.539534e+002, 7.565376e+001
5.544355e+002, 7.588499e+001
5.549177e+002, 7.614845e+001
5.553998e+002, 7.643523e+001
5.558819e+002, 7.660188e+001
5.563640e+002, 7.640434e+001
5.568461e+002, 7.577768e+001
5.573282e+002, 7.529588e+001
5.578104e+002, 7.525266e+001
5.582925e+002, 7.542770e+001
5.587746e+002, 7.563889e+001
5.592567e+002, 7.584480e+001
5.597388e+002, 7.588783e+001
5.602209e+002, 7.563570e+001
5.607031e+002, 7.521351e+001
5.611852e+002, 7.502100e+001
5.616673e+002, 7.533904e+001
5.621494e+002, 7.549265e+001
5.626315e+002, 7.533592e+001
5.631136e+002, 7.511977e+001
5.635958e+002, 7.506651e+001
5.640779e+002, 7.513680e+001
5.645600e+002, 7.510053e+001
5.650421e+002, 7.475819e+001
5.655242e+002, 7.425415e+001
5.660063e+002, 7.411817e+001
5.664885e+002, 7.451698e+001
5.669706e+002, 7.479739e+001
5.674527e+002, 7.469112e+001
5.679348e+002, 7.449819e+001
5.684169e+002, 7.437107e+001
5.688990e+002, 7.433269e+001
5.693812e+002, 7.442502e+001
5.698633e+002, 7.488653e+001
5.703454e+002, 7.537797e+001
5.708275e+002, 7.533523e+001
5.713096e+002, 7.478861e+001
5.717917e+002, 7.420875e+001
5.722739e+002, 7.374470e+001
5.727560e+002, 7.342118e+001
5.732381e+002, 7.330000e+001
5.737202e+002, 7.341154e+001
5.742023e+002, 7.358528e+001
5.746844e+002, 7.378406e+001
5.751666e+002, 7.406026e+001
5.756487e+002, 7.457164e+001
5.761308e+002, 7.519064e+001
5.766129e+002, 7.561916e+001
5.770950e+002, 7.570415e+001
5.775771e+002, 7.550115e+001
5.780593e+002, 7.507756e+001
5.785414e+002, 7.425237e+001
5.790235e+002, 7.370222e+001
5.795056e+002, 7.350191e+001
5.799877e+002, 7.355195e+001
5.804698e+002, 7.403530e+001
5.809520e+002, 7.472735e+001
5.814341e+002, 7.512902e+001
5.819162e+002, 7.493847e+001
5.823983e+002, 7.452717e+001
5.828804e+002, 7.442038e+001
5.833625e+002, 7.458116e+001
5.838447e+002, 7.460082e+001
5.843268e+002, 7.434174e+001
5.848089e+002, 7.401582e+001
5.852910e+002, 7.382796e+001
5.857731e+002, 7.377029e+001
5.862552e+002, 7.376598e+001
5.867374e+002, 7.391537e+001
5.872195e+002, 7.400549e+001
5.877016e+002, 7.386433e+001
5.881837e+002, 7.360477e+001
5.886658e+002, 7.343627e+001
5.891479e+002, 7.341843e+001
5.896301e+002, 7.343343e+001
5.901122e+002, 7.332169e+001
5.905943e+002, 7.305711e+001
5.910764e+002, 7.291757e+001
5.915585e+002, 7.293954e+001
5.920406e+002, 7.305332e+001
5.925228e+002, 7.337327e+001
5.930049e+002, 7.371358e+001
5.934870e+002, 7.382066e+001
5.939691e+002, 7.363653e+001
5.944512e+002, 7.341386e+001
5.949333e+002, 7.340738e+001
5.954155e+002, 7.356759e+001
5.958976e+002, 7.366606e+001
5.963797e+002, 7.366933e+001
5.968618e+002, 7.371206e+001
5.973439e+002, 7.393565e+001
5.978260e+002, 7.422598e+001
5.983082e+002, 7.430622e+001
5.987903e+002, 7.410194e+001
5.992724e+002, 7.387801e+001
5.997545e+002, 7.367540e+001
6.002366e+002, 7.352254e+001
6.007188e+002, 7.347108e+001
6.012009e+002, 7.351009e+001
6.016830e+002, 7.355526e+001
6.021651e+002, 7.353975e+001
6.026472e+002, 7.351059e+001
6.031293e+002, 7.366272e+001
6.036115e+002, 7.420932e+001
6.040936e+002, 7.453946e+001
6.045757e+002, 7.446095e+001
6.050578e+002, 7.431071e+001
6.055399e+002, 7.432558e+001
6.060220e+002, 7.445615e+001
6.065042e+002, 7.448650e+001
6.069863e+002, 7.426984e+001
6.074684e+002, 7.392998e+001
6.079505e+002, 7.361536e+001
6.084326e+002, 7.332913e+001
6.089147e+002, 7.323322e+001
6.093969e+002, 7.344324e+001
6.098790e+002, 7.372208e+001
6.103611e+002, 7.382384e+001
6.108432e+002, 7.376025e+001
6.113253e+002, 7.363295e+001
6.118074e+002, 7.339799e+001
6.122896e+002, 7.315860e+001
6.127717e+002, 7.289402e+001
6.132538e+002, 7.268272e+001
6.137359e+002, 7.270055e+001
6.142180e+002, 7.298403e+001
6.147001e+002, 7.333244e+001
6.151823e+002, 7.353581e+001
6.156644e+002, 7.359877e+001
6.161465e+002, 7.339204e+001
6.166286e+002, 7.249851e+001
6.171107e+002, 7.192110e+001
6.175928e+002, 7.211704e+001
6.180750e+002, 7.261501e+001
6.185571e+002, 7.296640e+001
6.190392e+002, 7.307986e+001
6.195213e+002, 7.306348e+001
6.200034e+002, 7.295939e+001
6.204855e+002, 7.279395e+001
6.209677e+002, 7.261399e+001
6.214498e+002, 7.242113e+001
6.219319e+002, 7.223490e+001
6.224140e+002, 7.203294e+001
6.228961e+002, 7.187814e+001
6.233782e+002, 7.194017e+001
6.238604e+002, 7.231414e+001
6.243425e+002, 7.257582e+001
6.248246e+002, 7.261297e+001
6.253067e+002, 7.257992e+001
6.257888e+002, 7.254595e+001
6.262709e+002, 7.253037e+001
6.267531e+002, 7.256036e+001
6.272352e+002, 7.265042e+001
6.277173e+002, 7.275570e+001
6.281994e+002, 7.279801e+001
6.286815e+002, 7.277443e+001
6.291636e+002, 7.269040e+001
6.296458e+002, 7.241027e+001
6.301279e+002, 7.225060e+001
6.306100e+002, 7.246620e+001
6.310921e+002, 7.287104e+001
6.315742e+002, 7.313930e+001
6.320563e+002, 7.318107e+001
6.325385e+002, 7.310390e+001
6.330206e+002, 7.294608e+001
6.335027e+002, 7.273483e+001
6.339848e+002, 7.250696e+001
6.344669e+002, 7.227013e+001
6.349490e+002, 7.205864e+001
6.354312e+002, 7.187888e+001
6.359133e+002, 7.175493e+001
6.363954e+002, 7.180214e+001
6.368775e+002, 7.237477e+001
6.373596e+002, 7.263664e+001
6.378417e+002, 7.232327e+001
6.383239e+002, 7.188506e+001
6.388060e+002, 7.158366e+001
6.392881e+002, 7.144863e+001
6.397702e+002, 7.144805e+001
6.402523e+002, 7.158938e+001
6.407344e+002, 7.178394e+001
6.412166e+002, 7.185416e+001
6.416987e+002, 7.179516e+001
6.421808e+002, 7.172788e+001
6.426629e+002, 7.168705e+001
6.431450e+002, 7.162420e+001
6.436271e+002, 7.146138e+001
6.441093e+002, 7.123217e+001
6.445914e+002, 7.106679e+001
6.450735e+002, 7.097986e+001
6.455556e+002, 7.096463e+001
6.460377e+002, 7.111397e+001
6.465198e+002, 7.129385e+001
6.470020e+002, 7.128247e+001
6.474841e+002, 7.105556e+001
6.479662e+002, 7.078024e+001
6.484483e+002, 7.059525e+001
6.489304e+002, 7.049875e+001
6.494125e+002, 7.048301e+001
6.498947e+002, 7.062273e+001
6.503768e+002, 7.070205e+001
6.508589e+002, 7.065710e+001
6.513410e+002, 7.056338e+001
6.518231e+002, 7.045681e+001
6.523052e+002, 7.034597e+001
6.527874e+002, 7.024334e+001
6.532695e+002, 7.014392e+001
6.537516e+002, 7.006613e+001
6.542337e+002, 7.005650e+001
6.547158e+002, 7.009555e+001
6.551979e+002, 7.010262e+001
6.556801e+002, 7.005986e+001
6.561622e+002, 6.994180e+001
6.566443e+002, 6.968569e+001
6.571264e+002, 6.927552e+001
6.576085e+002, 6.905799e+001
6.580906e+002, 6.919766e+001
6.585728e+002, 6.929607e+001
6.590549e+002, 6.922909e+001
6.595370e+002, 6.909292e+001
6.600191e+002, 6.895365e+001
6.605012e+002, 6.884406e+001
6.609833e+002, 6.883033e+001
6.614655e+002, 6.901722e+001
6.619476e+002, 6.931285e+001
6.624297e+002, 6.940001e+001
6.629118e+002, 6.924902e+001
6.633939e+002, 6.912911e+001
6.638760e+002, 6.915066e+001
6.643582e+002, 6.920393e+001
6.648403e+002, 6.915828e+001
6.653224e+002, 6.902161e+001
6.658045e+002, 6.886426e+001
6.662866e+002, 6.860514e+001
6.667687e+002, 6.842417e+001
6.672509e+002, 6.855108e+001
6.677330e+002, 6.878149e+001
6.682151e+002, 6.870753e+001
6.686972e+002, 6.825752e+001
6.691793e+002, 6.782723e+001
6.696614e+002, 6.786655e+001
6.701436e+002, 6.832821e+001
6.706257e+002, 6.851211e+001
6.711078e+002, 6.827346e+001
6.715899e+002, 6.805744e+001
6.720720e+002, 6.797842e+001
6.725541e+002, 6.797520e+001
6.730363e+002, 6.806399e+001
6.735184e+002, 6.821934e+001
6.740005e+002, 6.823988e+001
6.744826e+002, 6.789768e+001
6.749647e+002, 6.749502e+001
6.754468e+002, 6.733717e+001
6.759290e+002, 6.737019e+001
6.764111e+002, 6.743836e+001
6.768932e+002, 6.749435e+001
6.773753e+002, 6.753889e+001
6.778574e+002, 6.759902e+001
6.783395e+002, 6.768613e+001
6.788217e+002, 6.749090e+001
6.793038e+002, 6.650582e+001
6.797859e+002, 6.589400e+001
6.802680e+002, 6.610262e+001
6.807501e+002, 6.659645e+001
6.812322e+002, 6.699209e+001
6.817144e+002, 6.719882e+001
6.821965e+002, 6.716364e+001
6.826786e+002, 6.665047e+001
6.831607e+002, 6.601234e+001
6.836428e+002, 6.589983e+001
6.841249e+002, 6.625190e+001
6.846071e+002, 6.653584e+001
6.850892e+002, 6.657312e+001
6.855713e+002, 6.656395e+001
6.860534e+002, 6.676842e+001
6.865355e+002, 6.720927e+001
6.870176e+002, 6.741669e+001
6.874998e+002, 6.717970e+001
6.879819e+002, 6.699585e+001
6.884640e+002, 6.711744e+001
6.889461e+002, 6.727176e+001
6.894282e+002, 6.713642e+001
6.899103e+002, 6.670903e+001
6.903925e+002, 6.626114e+001
6.908746e+002, 6.597349e+001
6.913567e+002, 6.583411e+001
6.918388e+002, 6.586370e+001
6.923209e+002, 6.607162e+001
6.928030e+002, 6.621257e+001
6.932852e+002, 6.621132e+001
6.937673e+002, 6.614478e+001
6.942494e+002, 6.608907e+001
6.947315e+002, 6.604093e+001
6.952136e+002, 6.595580e+001
6.956957e+002, 6.582281e+001
6.961779e+002, 6.566370e+001
6.966600e+002, 6.546148e+001
6.971421e+002, 6.525147e+001
6.976242e+002, 6.504411e+001
6.981063e+002, 6.486138e+001
6.985884e+002, 6.477715e+001
6.990706e+002, 6.486963e+001
6.995527e+002, 6.506221e+001
7.000348e+002, 6.513783e+001
7.005169e+002, 6.508553e+001
7.009990e+002, 6.497092e+001
7.014811e+002, 6.474463e+001
7.019633e+002, 6.454545e+001
7.024454e+002, 6.451273e+001
7.029275e+002, 6.460594e+001
7.034096e+002, 6.469520e+001
7.038917e+002, 6.469025e+001
7.043738e+002, 6.477927e+001
7.048560e+002, 6.516972e+001
7.053381e+002, 6.562373e+001
7.058202e+002, 6.588128e+001
7.063023e+002, 6.590714e+001
7.067844e+002, 6.574812e+001
7.072665e+002, 6.541273e+001
7.077487e+002, 6.500193e+001
7.082308e+002, 6.481607e+001
7.087129e+002, 6.490614e+001
7.091950e+002, 6.498827e+001
7.096771e+002, 6.506871e+001
7.101592e+002, 6.508187e+001
7.106414e+002, 6.492042e+001
7.111235e+002, 6.467462e+001
7.116056e+002, 6.456808e+001
7.120877e+002, 6.476868e+001
7.125698e+002, 6.480101e+001
7.130519e+002, 6.418481e+001
7.135341e+002, 6.342810e+001
7.140162e+002, 6.321534e+001
7.144983e+002, 6.349137e+001
7.149804e+002, 6.368858e+001
7.154625e+002, 6.347008e+001
7.159446e+002, 6.308884e+001
7.164268e+002, 6.313064e+001
7.169089e+002, 6.374086e+001
7.173910e+002, 6.411967e+001
7.178731e+002, 6.416267e+001
7.183552e+002, 6.408204e+001
7.188373e+002, 6.390782e+001
7.193195e+002, 6.370721e+001
7.198016e+002, 6.360436e+001
7.202837e+002, 6.364709e+001
7.207658e+002, 6.360335e+001
7.212479e+002, 6.320950e+001
7.217300e+002, 6.278186e+001
7.222122e+002, 6.269410e+001
7.226943e+002, 6.289068e+001
7.231764e+002, 6.313375e+001
7.236585e+002, 6.332201e+001
7.241406e+002, 6.341167e+001
7.246227e+002, 6.330760e+001
7.251049e+002, 6.297676e+001
7.255870e+002, 6.275110e+001
7.260691e+002, 6.257905e+001
7.265512e+002, 6.260246e+001
7.270333e+002, 6.312436e+001
7.275154e+002, 6.370212e+001
7.279976e+002, 6.380829e+001
7.284797e+002, 6.341267e+001
7.289618e+002, 6.312362e+001
7.294439e+002, 6.330176e+001
7.299260e+002, 6.360469e+001
7.304081e+002, 6.378371e+001
7.308903e+002, 6.383334e+001
7.313724e+002, 6.369129e+001
7.318545e+002, 6.335900e+001
7.323366e+002, 6.312188e+001
7.328187e+002, 6.333971e+001
7.333008e+002, 6.394489e+001
7.337830e+002, 6.408236e+001
7.342651e+002, 6.346400e+001
7.347472e+002, 6.300265e+001
7.352293e+002, 6.312212e+001
7.357114e+002, 6.328240e+001
7.361935e+002, 6.299005e+001
7.366757e+002, 6.236991e+001
7.371578e+002, 6.203191e+001
7.376399e+002, 6.237297e+001
7.381220e+002, 6.277297e+001
7.386041e+002, 6.278279e+001
7.390862e+002, 6.259593e+001
7.395684e+002, 6.253628e+001
7.400505e+002, 6.263468e+001
7.405326e+002, 6.269624e+001
7.410147e+002, 6.257183e+001
7.414968e+002, 6.233104e+001
7.419789e+002, 6.219114e+001
7.424611e+002, 6.218524e+001
7.429432e+002, 6.215232e+001
7.434253e+002, 6.200393e+001
7.439074e+002, 6.192146e+001
7.443895e+002, 6.207872e+001
7.448716e+002, 6.235039e+001
7.453538e+002, 6.249566e+001
7.458359e+002, 6.244167e+001
7.463180e+002, 6.237922e+001
7.468001e+002, 6.239095e+001
7.472822e+002, 6.243859e+001
7.477643e+002, 6.253338e+001
7.482465e+002, 6.263042e+001
7.487286e+002, 6.259214e+001
7.492107e+002, 6.235575e+001
7.496928e+002, 6.204604e+001
7.501749e+002, 6.183696e+001
7.506570e+002, 6.172982e+001
7.511392e+002, 6.170979e+001
7.516213e+002, 6.182683e+001
7.521034e+002, 6.191740e+001
7.525855e+002, 6.193911e+001
7.530676e+002, 6.188352e+001
7.535497e+002, 6.170471e+001
7.540319e+002, 6.139699e+001
7.545140e+002, 6.118288e+001
7.549961e+002, 6.089335e+001
7.554782e+002, 6.094305e+001
7.559603e+002, 6.196791e+001
7.564424e+002, 6.333955e+001
7.569246e+002, 6.412925e+001
7.574067e+002, 6.414007e+001
7.578888e+002, 6.370171e+001
7.583709e+002, 6.301477e+001
7.588530e+002, 6.218793e+001
7.593351e+002, 6.157957e+001
7.598173e+002, 6.119785e+001
7.602994e+002, 6.098610e+001
7.607815e+002, 6.098055e+001
7.612636e+002, 6.106404e+001
7.617457e+002, 6.116923e+001
7.622278e+002, 6.128556e+001
7.627100e+002, 6.136184e+001
7.631921e+002, 6.134048e+001
7.636742e+002, 6.136744e+001
7.641563e+002, 6.161583e+001
7.646384e+002, 6.181187e+001
7.651205e+002, 6.163140e+001
7.656027e+002, 6.120681e+001
7.660848e+002, 6.093744e+001
7.665669e+002, 6.101284e+001
7.670490e+002, 6.122019e+001
7.675311e+002, 6.129303e+001
7.680132e+002, 6.125184e+001
7.684954e+002, 6.121012e+001
7.689775e+002, 6.117593e+001
7.694596e+002, 6.112632e+001
7.699417e+002, 6.104719e+001
7.704238e+002, 6.094752e+001
7.709059e+002, 6.081605e+001
7.713881e+002, 6.059001e+001
7.718702e+002, 6.060732e+001
7.723523e+002, 6.126920e+001
7.728344e+002, 6.168958e+001
7.733165e+002, 6.125679e+001
7.737986e+002, 6.060277e+001
7.742808e+002, 6.051061e+001
7.747629e+002, 6.103102e+001
7.752450e+002, 6.153510e+001
7.757271e+002, 6.157272e+001
7.762092e+002, 6.138551e+001
7.766913e+002, 6.126952e+001
7.771735e+002, 6.123366e+001
7.776556e+002, 6.136632e+001
7.781377e+002, 6.169663e+001
7.786198e+002, 6.197440e+001
7.791019e+002, 6.197058e+001
7.795840e+002, 6.174496e+001
7.800662e+002, 6.160854e+001
7.805483e+002, 6.166148e+001
7.810304e+002, 6.161198e+001
7.815125e+002, 6.125492e+001
7.819946e+002, 6.098354e+001
7.824767e+002, 6.108691e+001
7.829589e+002, 6.138850e+001
7.834410e+002, 6.157055e+001
7.839231e+002, 6.157073e+001
7.844052e+002, 6.137214e+001
7.848873e+002, 6.073134e+001
7.853694e+002, 6.004179e+001
7.858516e+002, 5.983620e+001
7.863337e+002, 6.003346e+001
7.868158e+002, 6.024404e+001
7.872979e+002, 6.031273e+001
7.877800e+002, 6.038995e+001
7.882621e+002, 6.070598e+001
7.887443e+002, 6.124693e+001
7.892264e+002, 6.160105e+001
7.897085e+002, 6.170381e+001
7.901906e+002, 6.180705e+001
7.906727e+002, 6.207917e+001
7.911548e+002, 6.228746e+001
7.916370e+002, 6.209931e+001
7.921191e+002, 6.159060e+001
7.926012e+002, 6.131038e+001
7.930833e+002, 6.146712e+001
7.935654e+002, 6.170314e+001
7.940475e+002, 6.194444e+001
7.945297e+002, 6.215731e+001
7.950118e+002, 6.229747e+001
7.954939e+002, 6.237584e+001
7.959760e+002, 6.241154e+001
7.964581e+002, 6.239607e+001
7.969402e+002, 6.246825e+001
7.974224e+002, 6.300166e+001
7.979045e+002, 6.387393e+001
7.983866e+002, 6.416625e+001
7.988687e+002, 6.374081e+001
7.993508e+002, 6.330066e+001
7.998329e+002, 6.320387e+001
8.003151e+002, 6.329902e+001
8.007972e+002, 6.329694e+001
8.012793e+002, 6.312544e+001
8.017614e+002, 6.314643e+001
8.022435e+002, 6.347766e+001
8.027256e+002, 6.383779e+001
8.032078e+002, 6.416248e+001
8.036899e+002, 6.446545e+001
8.041720e+002, 6.479674e+001
8.046541e+002, 6.514049e+001
8.051362e+002, 6.537910e+001
8.056183e+002, 6.531805e+001
8.061005e+002, 6.527751e+001
8.065826e+002, 6.569090e+001
8.070647e+002, 6.635817e+001
8.075468e+002, 6.679007e+001
8.080289e+002, 6.692751e+001
8.085110e+002, 6.706656e+001
8.089932e+002, 6.740590e+001
8.094753e+002, 6.792976e+001
8.099574e+002, 6.862607e+001
8.104395e+002, 6.954506e+001
8.109216e+002, 7.043443e+001
8.114037e+002, 7.133203e+001
8.118859e+002, 7.210938e+001
8.123680e+002, 7.264427e+001
8.128501e+002, 7.304372e+001
8.133322e+002, 7.340056e+001
8.138143e+002, 7.367638e+001
8.142964e+002, 7.421632e+001
8.147786e+002, 7.529099e+001
8.152607e+002, 7.645020e+001
8.157428e+002, 7.744505e+001
8.162249e+002, 7.835127e+001
8.167070e+002, 7.923632e+001
8.171891e+002, 8.014432e+001
8.176713e+002, 8.118748e+001
8.181534e+002, 8.246371e+001
8.186355e+002, 8.389853e+001
8.191176e+002, 8.522346e+001
8.195997e+002, 8.651375e+001
8.200818e+002, 8.846233e+001
8.205640e+002, 9.124850e+001
8.210461e+002, 9.416822e+001
8.215282e+002, 9.670731e+001
8.220103e+002, 9.904406e+001
8.224924e+002, 1.017376e+002
8.229745e+002, 1.053059e+002
8.234567e+002, 1.081143e+002
8.239388e+002, 1.100485e+002
8.244209e+002, 1.113753e+002
8.249030e+002, 1.126827e+002
8.253851e+002, 1.131866e+002
8.258672e+002, 1.117388e+002
8.263494e+002, 1.081986e+002
8.268315e+002, 1.038663e+002
8.273136e+002, 9.877036e+001
8.277957e+002, 9.367664e+001
8.282778e+002, 8.920611e+001
8.287599e+002, 8.524076e+001
8.292421e+002, 8.148409e+001
8.297242e+002, 7.791821e+001
8.302063e+002, 7.484339e+001
8.306884e+002, 7.248705e+001
8.311705e+002, 7.073380e+001
8.316526e+002, 6.935863e+001
8.321348e+002, 6.837808e+001
8.326169e+002, 6.744168e+001
8.330990e+002, 6.648504e+001
8.335811e+002, 6.566952e+001
8.340632e+002, 6.516834e+001
8.345453e+002, 6.480557e+001
8.350275e+002, 6.410435e+001
8.355096e+002, 6.270167e+001
8.359917e+002, 6.209383e+001
8.364738e+002, 6.318235e+001
8.369559e+002, 6.400956e+001
8.374380e+002, 6.362806e+001
8.379202e+002, 6.274905e+001
8.384023e+002, 6.211762e+001
8.388844e+002, 6.185235e+001
8.393665e+002, 6.177709e+001
8.398486e+002, 6.194494e+001
8.403307e+002, 6.207627e+001
8.408129e+002, 6.181509e+001
8.412950e+002, 6.133271e+001
8.417771e+002, 6.096706e+001
8.422592e+002, 6.076124e+001
8.427413e+002, 6.059557e+001
8.432234e+002, 6.039952e+001
8.437056e+002, 6.018302e+001
8.441877e+002, 5.993237e+001
8.446698e+002, 5.963048e+001
8.451519e+002, 5.954083e+001
8.456340e+002, 5.974401e+001
8.461161e+002, 5.995346e+001
8.465983e+002, 6.005135e+001
8.470804e+002, 6.009161e+001
8.475625e+002, 6.011956e+001
8.480446e+002, 6.012610e+001
8.485267e+002, 6.026878e+001
8.490089e+002, 6.076290e+001
8.494910e+002, 6.112363e+001
8.499731e+002, 6.110345e+001
8.504552e+002, 6.098061e+001
8.509373e+002, 6.094402e+001
8.514194e+002, 6.103814e+001
8.519016e+002, 6.135915e+001
8.523837e+002, 6.207464e+001
8.528658e+002, 6.256892e+001
8.533479e+002, 6.197388e+001
8.538300e+002, 6.091893e+001
8.543121e+002, 6.057920e+001
8.547943e+002, 6.090144e+001
8.552764e+002, 6.118774e+001
8.557585e+002, 6.113758e+001
8.562406e+002, 6.093486e+001
8.567227e+002, 6.082222e+001
8.572048e+002, 6.078631e+001
8.576870e+002, 6.061431e+001
8.581691e+002, 6.024580e+001
8.586512e+002, 5.998200e+001
8.591333e+002, 5.989854e+001
8.596154e+002, 5.994420e+001
8.600975e+002, 6.017989e+001
8.605797e+002, 6.052704e+001
8.610618e+002, 6.055381e+001
8.615439e+002, 6.006146e+001
8.620260e+002, 5.959113e+001
8.625081e+002, 5.910365e+001
8.629902e+002, 5.874860e+001
8.634724e+002, 5.879565e+001
8.639545e+002, 5.896570e+001
8.644366e+002, 5.869617e+001
8.649187e+002, 5.786937e+001
8.654008e+002, 5.726415e+001
8.658829e+002, 5.769194e+001
8.663651e+002, 5.837024e+001
8.668472e+002, 5.844773e+001
8.673293e+002, 5.804262e+001
8.678114e+002, 5.732619e+001
8.682935e+002, 5.641337e+001
8.687756e+002, 5.576118e+001
8.692578e+002, 5.574877e+001
8.697399e+002, 5.613316e+001
8.702220e+002, 5.633916e+001
8.707041e+002, 5.636105e+001
8.711862e+002, 5.626975e+001
8.716683e+002, 5.601107e+001
8.721505e+002, 5.587952e+001
8.726326e+002, 5.612904e+001
8.731147e+002, 5.647270e+001
8.735968e+002, 5.638798e+001
8.740789e+002, 5.575301e+001
8.745610e+002, 5.534820e+001
8.750432e+002, 5.531739e+001
8.755253e+002, 5.531866e+001
8.760074e+002, 5.526811e+001
8.764895e+002, 5.522532e+001
8.769716e+002, 5.525672e+001
8.774537e+002, 5.534514e+001
8.779359e+002, 5.542683e+001
8.784180e+002, 5.552289e+001
8.789001e+002, 5.550463e+001
8.793822e+002, 5.517421e+001
8.798643e+002, 5.477415e+001
8.803464e+002, 5.457726e+001
8.808286e+002, 5.455590e+001
8.813107e+002, 5.456123e+001
8.817928e+002, 5.454097e+001
8.822749e+002, 5.457233e+001
8.827570e+002, 5.478162e+001
8.832391e+002, 5.508819e+001
8.837213e+002, 5.521446e+001
8.842034e+002, 5.517208e+001
8.846855e+002, 5.516480e+001
8.851676e+002, 5.524809e+001
8.856497e+002, 5.531281e+001
8.861318e+002, 5.528059e+001
8.866140e+002, 5.515664e+001
8.870961e+002, 5.493740e+001
8.875782e+002, 5.450359e+001
8.880603e+002, 5.428411e+001
8.885424e+002, 5.437617e+001
8.890245e+002, 5.455205e+001
8.895067e+002, 5.477959e+001
8.899888e+002, 5.500629e+001
8.904709e+002, 5.522412e+001
8.909530e+002, 5.542876e+001
8.914351e+002, 5.538749e+001
8.919172e+002, 5.475324e+001
8.923994e+002, 5.423686e+001
8.928815e+002, 5.423948e+001
8.933636e+002, 5.440953e+001
8.938457e+002, 5.441590e+001
8.943278e+002, 5.426750e+001
8.948099e+002, 5.410084e+001
8.952921e+002, 5.396289e+001
8.957742e+002, 5.391655e+001
8.962563e+002, 5.412355e+001
8.967384e+002, 5.440924e+001
8.972205e+002, 5.445187e+001
8.977026e+002, 5.428724e+001
8.981848e+002, 5.408319e+001
8.986669e+002, 5.389811e+001
8.991490e+002, 5.379374e+001
8.996311e+002, 5.385175e+001
9.001132e+002, 5.400846e+001
9.005953e+002, 5.402235e+001
9.010775e+002, 5.388654e+001
9.015596e+002, 5.366593e+001
9.020417e+002, 5.332544e+001
9.025238e+002, 5.304879e+001
9.030059e+002, 5.296647e+001
9.034880e+002, 5.299279e+001
9.039702e+002, 5.292110e+001
9.044523e+002, 5.264186e+001
9.049344e+002, 5.270925e+001
9.054165e+002, 5.364863e+001
9.058986e+002, 5.425200e+001
9.063807e+002, 5.401513e+001
9.068629e+002, 5.352617e+001
9.073450e+002, 5.323619e+001
9.078271e+002, 5.315227e+001
9.083092e+002, 5.316628e+001
9.087913e+002, 5.334270e+001
9.092734e+002, 5.342125e+001
9.097556e+002, 5.319604e+001
9.102377e+002, 5.290148e+001
9.107198e+002, 5.276258e+001
9.112019e+002, 5.271460e+001
9.116840e+002, 5.257870e+001
9.121661e+002, 5.231260e+001
9.126483e+002, 5.206627e+001
9.131304e+002, 5.198429e+001
9.136125e+002, 5.198056e+001
9.140946e+002, 5.188266e+001
9.145767e+002, 5.174543e+001
9.150588e+002, 5.180296e+001
9.155410e+002, 5.206704e+001
9.160231e+002, 5.222597e+001
9.165052e+002, 5.207218e+001
9.169873e+002, 5.176137e+001
9.174694e+002, 5.154280e+001
9.179515e+002, 5.140987e+001
9.184337e+002, 5.166825e+001
9.189158e+002, 5.249006e+001
9.193979e+002, 5.287561e+001
9.198800e+002, 5.233538e+001
9.203621e+002, 5.151946e+001
9.208442e+002, 5.106004e+001
9.213264e+002, 5.094344e+001
9.218085e+002, 5.105090e+001
9.222906e+002, 5.177342e+001
9.227727e+002, 5.207735e+001
9.232548e+002, 5.145337e+001
9.237369e+002, 5.092664e+001
9.242191e+002, 5.118467e+001
9.247012e+002, 5.175039e+001
9.251833e+002, 5.183522e+001
9.256654e+002, 5.132752e+001
9.261475e+002, 5.095319e+001
9.266296e+002, 5.090729e+001
9.271118e+002, 5.107184e+001
9.275939e+002, 5.162920e+001
9.280760e+002, 5.219544e+001
9.285581e+002, 5.229739e+001
9.290402e+002, 5.200896e+001
9.295223e+002, 5.173233e+001
9.300045e+002, 5.164253e+001
9.304866e+002, 5.161158e+001
9.309687e+002, 5.153858e+001
9.314508e+002, 5.143931e+001
9.319329e+002, 5.135056e+001
9.324150e+002, 5.125753e+001
9.328972e+002, 5.108704e+001
9.333793e+002, 5.083080e+001
9.338614e+002, 5.059627e+001
9.343435e+002, 5.046491e+001
9.348256e+002, 5.044999e+001
9.353077e+002, 5.063414e+001
9.357899e+002, 5.099849e+001
9.362720e+002, 5.127738e+001
9.367541e+002, 5.144079e+001
9.372362e+002, 5.152478e+001
9.377183e+002, 5.154849e+001
9.382004e+002, 5.149624e+001
9.386826e+002, 5.134166e+001
9.391647e+002, 5.108331e+001
9.396468e+002, 5.074275e+001
9.401289e+002, 5.019510e+001
9.406110e+002, 4.987605e+001
9.410931e+002, 4.996320e+001
9.415753e+002, 5.017835e+001
9.420574e+002, 5.038423e+001
9.425395e+002, 5.056157e+001
9.430216e+002, 5.067715e+001
9.435037e+002, 5.076949e+001
9.439858e+002, 5.068122e+001
9.444680e+002, 5.017360e+001
9.449501e+002, 4.975963e+001
9.454322e+002, 4.958581e+001
9.459143e+002, 4.963003e+001
9.463964e+002, 4.999413e+001
9.468785e+002, 5.057172e+001
9.473607e+002, 5.091491e+001
9.478428e+002, 5.075694e+001
9.483249e+002, 5.060350e+001
9.488070e+002, 5.081368e+001
9.492891e+002, 5.107764e+001
9.497712e+002, 5.111749e+001
9.502534e+002, 5.097546e+001
9.507355e+002, 5.069463e+001
9.512176e+002, 5.033339e+001
9.516997e+002, 5.018293e+001
9.521818e+002, 5.058871e+001
9.526639e+002, 5.116197e+001
9.531461e+002, 5.138382e+001
9.536282e+002, 5.135561e+001
9.541103e+002, 5.127944e+001
9.545924e+002, 5.119374e+001
9.550745e+002, 5.108839e+001
9.555566e+002, 5.095548e+001
9.560388e+002, 5.092536e+001
9.565209e+002, 5.128682e+001
9.570030e+002, 5.189890e+001
9.574851e+002, 5.194068e+001
9.579672e+002, 5.141713e+001
9.584493e+002, 5.111823e+001
9.589315e+002, 5.124175e+001
9.594136e+002, 5.145031e+001
9.598957e+002, 5.150207e+001
9.603778e+002, 5.145158e+001
9.608599e+002, 5.143164e+001
9.613420e+002, 5.143787e+001
9.618242e+002, 5.151472e+001
9.623063e+002, 5.173988e+001
9.627884e+002, 5.182973e+001
9.632705e+002, 5.158496e+001
9.637526e+002, 5.130835e+001
9.642347e+002, 5.130746e+001
9.647169e+002, 5.155017e+001
9.651990e+002, 5.180275e+001
9.656811e+002, 5.221998e+001
9.661632e+002, 5.240468e+001
9.666453e+002, 5.206770e+001
9.671274e+002, 5.182963e+001
9.676096e+002, 5.206106e+001
9.680917e+002, 5.247301e+001
9.685738e+002, 5.265639e+001
9.690559e+002, 5.260217e+001
9.695380e+002, 5.270665e+001
9.700201e+002, 5.327794e+001
9.705023e+002, 5.374120e+001
9.709844e+002, 5.380043e+001
9.714665e+002, 5.375758e+001
9.719486e+002, 5.379812e+001
9.724307e+002, 5.394901e+001
9.729128e+002, 5.421146e+001
9.733950e+002, 5.458540e+001
9.738771e+002, 5.505275e+001
9.743592e+002, 5.582021e+001
9.748413e+002, 5.646316e+001
9.753234e+002, 5.633190e+001
9.758055e+002, 5.599104e+001
9.762877e+002, 5.640183e+001
9.767698e+002, 5.746202e+001
9.772519e+002, 5.834965e+001
9.777340e+002, 5.867735e+001
9.782161e+002, 5.884436e+001
9.786982e+002, 5.926333e+001
9.791804e+002, 5.982436e+001
9.796625e+002, 6.022081e+001
9.801446e+002, 6.056927e+001
9.806267e+002, 6.137526e+001
9.811088e+002, 6.268834e+001
9.815909e+002, 6.394415e+001
9.820731e+002, 6.473188e+001
9.825552e+002, 6.538625e+001
9.830373e+002, 6.659020e+001
9.835194e+002, 6.825147e+001
9.840015e+002, 6.968981e+001
9.844836e+002, 7.089021e+001
9.849658e+002, 7.212299e+001
9.854479e+002, 7.347331e+001
9.859300e+002, 7.492126e+001
9.864121e+002, 7.651788e+001
9.868942e+002, 7.808974e+001
9.873763e+002, 7.887234e+001
9.878585e+002, 7.868262e+001
9.883406e+002, 7.901741e+001
9.888227e+002, 8.023516e+001
9.893048e+002, 8.096381e+001
9.897869e+002, 8.046394e+001
9.902690e+002, 7.954688e+001
9.907512e+002, 7.917290e+001
9.912333e+002, 7.929032e+001
9.917154e+002, 7.925869e+001
9.921975e+002, 7.898316e+001
9.926796e+002, 7.876513e+001
9.931617e+002, 7.875959e+001
9.936439e+002, 7.862617e+001
9.941260e+002, 7.808360e+001
9.946081e+002, 7.738814e+001
9.950902e+002, 7.703028e+001
9.955723e+002, 7.704286e+001
9.960544e+002, 7.644746e+001
9.965366e+002, 7.459129e+001
9.970187e+002, 7.300556e+001
9.975008e+002, 7.224986e+001
9.979829e+002, 7.151144e+001
9.984650e+002, 7.022458e+001
9.989471e+002, 6.863471e+001
9.994293e+002, 6.715554e+001
9.999114e+002, 6.583230e+001
1.000393e+003, 6.474741e+001
1.000876e+003, 6.397770e+001
1.001358e+003, 6.338816e+001
1.001840e+003, 6.311494e+001
1.002322e+003, 6.284420e+001
1.002804e+003, 6.230576e+001
1.003286e+003, 6.153895e+001
1.003768e+003, 6.063409e+001
1.004250e+003, 5.960484e+001
1.004733e+003, 5.871918e+001
1.005215e+003, 5.827760e+001
1.005697e+003, 5.787006e+001
1.006179e+003, 5.714205e+001
1.006661e+003, 5.629902e+001
1.007143e+003, 5.554028e+001
1.007625e+003, 5.493744e+001
1.008107e+003, 5.460023e+001
1.008589e+003, 5.459667e+001
1.009072e+003, 5.459089e+001
1.009554e+003, 5.433045e+001
1.010036e+003, 5.389124e+001
1.010518e+003, 5.317021e+001
1.011000e+003, 5.240971e+001
1.011482e+003, 5.215226e+001
1.011964e+003, 5.238391e+001
1.012446e+003, 5.260219e+001
1.012929e+003, 5.253764e+001
1.013411e+003, 5.231705e+001
1.013893e+003, 5.202936e+001
1.014375e+003, 5.172763e+001
1.014857e+003, 5.151186e+001
1.015339e+003, 5.137904e+001
1.015821e+003, 5.129714e+001
1.016303e+003, 5.126304e+001
1.016785e+003, 5.133016e+001
1.017268e+003, 5.155090e+001
1.017750e+003, 5.179200e+001
1.018232e+003, 5.185722e+001
1.018714e+003, 5.175546e+001
1.019196e+003, 5.146055e+001
1.019678e+003, 5.100561e+001
1.020160e+003, 5.063770e+001
1.020642e+003, 5.042514e+001
1.021125e+003, 5.043261e+001
1.021607e+003, 5.076092e+001
1.022089e+003, 5.116196e+001
1.022571e+003, 5.096499e+001
1.023053e+003, 5.021552e+001
1.023535e+003, 4.987171e+001
1.024017e+003, 4.998364e+001
1.024499e+003, 5.006894e+001
1.024981e+003, 4.996864e+001
1.025464e+003, 4.986554e+001
1.025946e+003, 4.993762e+001
1.026428e+003, 5.011263e+001
1.026910e+003, 5.015804e+001
1.027392e+003, 5.006077e+001
1.027874e+003, 4.993721e+001
1.028356e+003, 4.976042e+001
1.028838e+003, 4.971552e+001
1.029321e+003, 4.988852e+001
1.029803e+003, 5.016593e+001
1.030285e+003, 5.048962e+001
1.030767e+003, 5.079283e+001
1.031249e+003, 5.073602e+001
1.031731e+003, 5.016553e+001
1.032213e+003, 4.983708e+001
1.032695e+003, 4.986019e+001
1.033177e+003, 4.988825e+001
1.033660e+003, 4.975941e+001
1.034142e+003, 4.964982e+001
1.034624e+003, 4.978014e+001
1.035106e+003, 5.009253e+001
1.035588e+003, 5.021880e+001
1.036070e+003, 5.008821e+001
1.036552e+003, 4.994141e+001
1.037034e+003, 4.979469e+001
1.037516e+003, 4.961167e+001
1.037999e+003, 4.938019e+001
1.038481e+003, 4.910136e+001
1.038963e+003, 4.866025e+001
1.039445e+003, 4.813264e+001
1.039927e+003, 4.812154e+001
1.040409e+003, 4.921915e+001
1.040891e+003, 4.978519e+001
1.041373e+003, 4.946040e+001
1.041855e+003, 4.905249e+001
1.042338e+003, 4.875233e+001
1.042820e+003, 4.858553e+001
1.043302e+003, 4.864230e+001
1.043784e+003, 4.888452e+001
1.044266e+003, 4.902027e+001
1.044748e+003, 4.900343e+001
1.045230e+003, 4.894349e+001
1.045712e+003, 4.864790e+001
1.046195e+003, 4.854833e+001
1.046677e+003, 4.915938e+001
1.047159e+003, 4.980809e+001
1.047641e+003, 4.956218e+001
1.048123e+003, 4.858857e+001
1.048605e+003, 4.818789e+001
1.049087e+003, 4.879388e+001
1.049569e+003, 4.943715e+001
1.050052e+003, 5.043587e+001
1.050534e+003, 5.090680e+001
1.051016e+003, 4.997426e+001
1.051498e+003, 4.863305e+001
1.051980e+003, 4.794459e+001
1.052462e+003, 4.790706e+001
1.052944e+003, 4.801159e+001
1.053426e+003, 4.830520e+001
1.053908e+003, 4.845608e+001
1.054391e+003, 4.829035e+001
1.054873e+003, 4.807875e+001
1.055355e+003, 4.790870e+001
1.055837e+003, 4.780060e+001
1.056319e+003, 4.777193e+001
1.056801e+003, 4.781896e+001
1.057283e+003, 4.792725e+001
1.057765e+003, 4.815166e+001
1.058248e+003, 4.829753e+001
1.058730e+003, 4.816656e+001
1.059212e+003, 4.810445e+001
1.059694e+003, 4.847811e+001
1.060176e+003, 4.890403e+001
1.060658e+003, 4.888994e+001
1.061140e+003, 4.849220e+001
1.061622e+003, 4.813807e+001
1.062104e+003, 4.791727e+001
1.062587e+003, 4.782133e+001
1.063069e+003, 4.796824e+001
1.063551e+003, 4.810286e+001
1.064033e+003, 4.798075e+001
1.064515e+003, 4.783264e+001
1.064997e+003, 4.799551e+001
1.065479e+003, 4.839296e+001
1.065961e+003, 4.865517e+001
1.066443e+003, 4.868532e+001
1.066926e+003, 4.853709e+001
1.067408e+003, 4.797942e+001
1.067890e+003, 4.753828e+001
1.068372e+003, 4.762264e+001
1.068854e+003, 4.792435e+001
1.069336e+003, 4.809820e+001
1.069818e+003, 4.814954e+001
1.070300e+003, 4.826318e+001
1.070782e+003, 4.852022e+001
1.071265e+003, 4.870350e+001
1.071747e+003, 4.882478e+001
1.072229e+003, 4.872064e+001
1.072711e+003, 4.794469e+001
1.073193e+003, 4.715550e+001
1.073675e+003, 4.723547e+001
1.074157e+003, 4.792714e+001
1.074639e+003, 4.829531e+001
1.075122e+003, 4.803726e+001
1.075604e+003, 4.778878e+001
1.076086e+003, 4.794355e+001
1.076568e+003, 4.806996e+001
1.077050e+003, 4.786394e+001
1.077532e+003, 4.754319e+001
1.078014e+003, 4.718276e+001
1.078496e+003, 4.694030e+001
1.078979e+003, 4.724123e+001
1.079461e+003, 4.823610e+001
1.079943e+003, 4.892029e+001
1.080425e+003, 4.856678e+001
1.080907e+003, 4.810358e+001
1.081389e+003, 4.801249e+001
1.081871e+003, 4.807727e+001
1.082353e+003, 4.810653e+001
1.082835e+003, 4.811024e+001
1.083318e+003, 4.816462e+001
1.083800e+003, 4.828606e+001
1.084282e+003, 4.840157e+001
1.084764e+003, 4.849203e+001
1.085246e+003, 4.855348e+001
1.085728e+003, 4.864820e+001
1.086210e+003, 4.865425e+001
1.086692e+003, 4.830772e+001
1.087175e+003, 4.786014e+001
1.087657e+003, 4.781336e+001
1.088139e+003, 4.822848e+001
1.088621e+003, 4.859081e+001
1.089103e+003, 4.875438e+001
1.089585e+003, 4.874251e+001
1.090067e+003, 4.831371e+001
1.090549e+003, 4.796215e+001
1.091031e+003, 4.819984e+001
1.091514e+003, 4.869909e+001
1.091996e+003, 4.892096e+001
1.092478e+003, 4.882545e+001
1.092960e+003, 4.878453e+001
1.093442e+003, 4.895732e+001
1.093924e+003, 4.913562e+001
1.094406e+003, 4.936029e+001
1.094888e+003, 4.943881e+001
1.095370e+003, 4.910330e+001
1.095853e+003, 4.864044e+001
1.096335e+003, 4.839152e+001
1.096817e+003, 4.837516e+001
1.097299e+003, 4.846588e+001
1.097781e+003, 4.867882e+001
1.098263e+003, 4.887341e+001
1.098745e+003, 4.907370e+001
1.099227e+003, 4.916475e+001
1.099709e+003, 4.890473e+001
1.100192e+003, 4.864386e+001
1.100674e+003, 4.885567e+001
1.101156e+003, 4.939555e+001
1.101638e+003, 4.968713e+001
1.102120e+003, 4.956948e+001
1.102602e+003, 4.940068e+001
1.103084e+003, 4.915785e+001
1.103566e+003, 4.901906e+001
1.104049e+003, 4.913145e+001
1.104531e+003, 4.930640e+001
1.105013e+003, 4.941730e+001
1.105495e+003, 4.945395e+001
1.105977e+003, 4.938203e+001
1.106459e+003, 4.915532e+001
1.106941e+003, 4.911151e+001
1.107423e+003, 4.948809e+001
1.107906e+003, 4.980118e+001
1.108388e+003, 4.994195e+001
1.108870e+003, 4.996041e+001
1.109352e+003, 4.980070e+001
1.109834e+003, 4.958064e+001
1.110316e+003, 4.952242e+001
1.110798e+003, 4.964870e+001
1.111280e+003, 4.968366e+001
1.111762e+003, 4.945179e+001
1.112245e+003, 4.936112e+001
1.112727e+003, 4.954755e+001
1.113209e+003, 4.978688e+001
1.113691e+003, 5.001662e+001
1.114173e+003, 5.020955e+001
1.114655e+003, 5.036567e+001
1.115137e+003, 5.047454e+001
1.115619e+003, 5.039077e+001
1.116102e+003, 4.990135e+001
1.116584e+003, 4.959587e+001
1.117066e+003, 4.952869e+001
1.117548e+003, 4.958042e+001
1.118030e+003, 4.981002e+001
1.118512e+003, 5.003459e+001
1.118994e+003, 5.007338e+001
1.119476e+003, 4.996321e+001
1.119958e+003, 4.984261e+001
1.120441e+003, 4.966842e+001
1.120923e+003, 4.963439e+001
1.121405e+003, 4.984112e+001
1.121887e+003, 4.996213e+001
1.122369e+003, 4.987551e+001
1.122851e+003, 4.974836e+001
1.123333e+003, 4.967330e+001
1.123815e+003, 4.967958e+001
1.124297e+003, 4.988033e+001
1.124780e+003, 5.032122e+001
1.125262e+003, 5.031806e+001
1.125744e+003, 4.969347e+001
1.126226e+003, 4.928508e+001
1.126708e+003, 4.925456e+001
1.127190e+003, 4.940871e+001
1.127672e+003, 4.968919e+001
1.128154e+003, 4.997467e+001
1.128636e+003, 5.007210e+001
1.129119e+003, 5.001223e+001
1.129601e+003, 5.007393e+001
1.130083e+003, 5.027769e+001
1.130565e+003, 5.036319e+001
1.131047e+003, 5.029142e+001
1.131529e+003, 5.023232e+001
1.132011e+003, 5.026371e+001
1.132493e+003, 5.023735e+001
1.132976e+003, 4.995480e+001
1.133458e+003, 4.960271e+001
1.133940e+003, 4.980278e+001
1.134422e+003, 5.049765e+001
1.134904e+003, 5.100106e+001
1.135386e+003, 5.127727e+001
1.135868e+003, 5.119784e+001
1.136350e+003, 5.073887e+001
1.136833e+003, 5.037698e+001
1.137315e+003, 5.044931e+001
1.137797e+003, 5.080811e+001
1.138279e+003, 5.133012e+001
1.138761e+003, 5.190544e+001
1.139243e+003, 5.208356e+001
1.139725e+003, 5.195693e+001
1.140207e+003, 5.193494e+001
1.140689e+003, 5.206682e+001
1.141172e+003, 5.214229e+001
1.141654e+003, 5.206324e+001
1.142136e+003, 5.201400e+001
1.142618e+003, 5.229089e+001
1.143100e+003, 5.260997e+001
1.143582e+003, 5.244716e+001
1.144064e+003, 5.197828e+001
1.144546e+003, 5.140966e+001
1.145029e+003, 5.089983e+001
1.145511e+003, 5.085450e+001
1.145993e+003, 5.134099e+001
1.146475e+003, 5.191646e+001
1.146957e+003, 5.234842e+001
1.147439e+003, 5.257317e+001
1.147921e+003, 5.245009e+001
1.148403e+003, 5.214909e+001
1.148885e+003, 5.177958e+001
1.149368e+003, 5.143418e+001
1.149850e+003, 5.125149e+001
1.150332e+003, 5.123310e+001
1.150814e+003, 5.129165e+001
1.151296e+003, 5.140621e+001
1.151778e+003, 5.150669e+001
1.152260e+003, 5.145162e+001
1.152742e+003, 5.148297e+001
1.153224e+003, 5.196480e+001
1.153707e+003, 5.245765e+001
1.154189e+003, 5.240856e+001
1.154671e+003, 5.200605e+001
1.155153e+003, 5.172639e+001
1.155635e+003, 5.166418e+001
1.156117e+003, 5.179145e+001
1.156599e+003, 5.238824e+001
1.157081e+003, 5.276121e+001
1.157563e+003, 5.252529e+001
1.158046e+003, 5.218695e+001
1.158528e+003, 5.190179e+001
1.159010e+003, 5.180192e+001
1.159492e+003, 5.223658e+001
1.159974e+003, 5.308990e+001
1.160456e+003, 5.334205e+001
1.160938e+003, 5.225264e+001
1.161420e+003, 5.184470e+001
1.161903e+003, 5.286654e+001
1.162385e+003, 5.361646e+001
1.162867e+003, 5.345817e+001
1.163349e+003, 5.306878e+001
1.163831e+003, 5.292746e+001
1.164313e+003, 5.296582e+001
1.164795e+003, 5.303619e+001
1.165277e+003, 5.315433e+001
1.165760e+003, 5.315479e+001
1.166242e+003, 5.296319e+001
1.166724e+003, 5.290138e+001
1.167206e+003, 5.304975e+001
1.167688e+003, 5.324778e+001
1.168170e+003, 5.344824e+001
1.168652e+003, 5.354475e+001
1.169134e+003, 5.334536e+001
1.169616e+003, 5.297218e+001
1.170099e+003, 5.310256e+001
1.170581e+003, 5.374717e+001
1.171063e+003, 5.391303e+001
1.171545e+003, 5.353589e+001
1.172027e+003, 5.331292e+001
1.172509e+003, 5.345670e+001
1.172991e+003, 5.371642e+001
1.173473e+003, 5.390553e+001
1.173956e+003, 5.407140e+001
1.174438e+003, 5.436918e+001
1.174920e+003, 5.469173e+001
1.175402e+003, 5.455296e+001
1.175884e+003, 5.413135e+001
1.176366e+003, 5.416404e+001
1.176848e+003, 5.464935e+001
1.177330e+003, 5.497324e+001
1.177813e+003, 5.487353e+001
1.178295e+003, 5.456594e+001
1.178777e+003, 5.410548e+001
1.179259e+003, 5.373933e+001
1.179741e+003, 5.386721e+001
1.180223e+003, 5.422030e+001
1.180705e+003, 5.444400e+001
1.181187e+003, 5.456343e+001
1.181669e+003, 5.471338e+001
1.182151e+003, 5.490206e+001
1.182634e+003, 5.500652e+001
1.183116e+003, 5.494209e+001
1.183598e+003, 5.489393e+001
1.184080e+003, 5.500777e+001
1.184562e+003, 5.513049e+001
1.185044e+003, 5.512565e+001
1.185526e+003, 5.510513e+001
1.186008e+003, 5.520422e+001
1.186490e+003, 5.538221e+001
1.186973e+003, 5.552457e+001
1.187455e+003, 5.561122e+001
1.187937e+003, 5.567828e+001
1.188419e+003, 5.578267e+001
1.188901e+003, 5.579368e+001
1.189383e+003, 5.549841e+001
1.189865e+003, 5.532368e+001
1.190347e+003, 5.558950e+001
1.190830e+003, 5.600405e+001
1.191312e+003, 5.628172e+001
1.191794e+003, 5.643648e+001
1.192276e+003, 5.653998e+001
1.192758e+003, 5.659487e+001
1.193240e+003, 5.657107e+001
1.193722e+003, 5.638973e+001
1.194204e+003, 5.640913e+001
1.194687e+003, 5.682568e+001
1.195169e+003, 5.706669e+001
1.195651e+003, 5.671669e+001
1.196133e+003, 5.612626e+001
1.196615e+003, 5.581528e+001
1.197097e+003, 5.578526e+001
1.197579e+003, 5.618587e+001
1.198061e+003, 5.697360e+001
1.198543e+003, 5.717018e+001
1.199026e+003, 5.672961e+001
1.199508e+003, 5.635847e+001
1.199990e+003, 5.630327e+001
1.200472e+003, 5.653109e+001
1.200954e+003, 5.706516e+001
1.201436e+003, 5.762624e+001
1.201918e+003, 5.776858e+001
1.202400e+003, 5.764862e+001
1.202883e+003, 5.749681e+001
1.203365e+003, 5.737247e+001
1.203847e+003, 5.737838e+001
1.204329e+003, 5.752290e+001
1.204811e+003, 5.781492e+001
1.205293e+003, 5.824707e+001
1.205775e+003, 5.859320e+001
1.206257e+003, 5.869267e+001
1.206740e+003, 5.865979e+001
1.207222e+003, 5.836414e+001
1.207704e+003, 5.818085e+001
1.208186e+003, 5.865036e+001
1.208668e+003, 5.934170e+001
1.209150e+003, 5.963403e+001
1.209632e+003, 5.949463e+001
1.210114e+003, 5.914629e+001
1.210596e+003, 5.845865e+001
1.211078e+003, 5.816402e+001
1.211561e+003, 5.882798e+001
1.212043e+003, 5.931874e+001
1.212525e+003, 5.904005e+001
1.213007e+003, 5.876158e+001
1.213489e+003, 5.910870e+001
1.213971e+003, 5.965837e+001
1.214453e+003, 5.968446e+001
1.214935e+003, 5.923524e+001
1.215417e+003, 5.925611e+001
1.215900e+003, 5.996136e+001
1.216382e+003, 6.028646e+001
1.216864e+003, 6.007810e+001
1.217346e+003, 5.990712e+001
1.217828e+003, 5.994620e+001
1.218310e+003, 6.010561e+001
1.218792e+003, 6.033313e+001
1.219274e+003, 6.058317e+001
1.219757e+003, 6.082165e+001
1.220239e+003, 6.100173e+001
1.220721e+003, 6.074624e+001
1.221203e+003, 6.020775e+001
1.221685e+003, 6.026832e+001
1.222167e+003, 6.089458e+001
1.222649e+003, 6.125396e+001
1.223131e+003, 6.107380e+001
1.223614e+003, 6.078612e+001
1.224096e+003, 6.065822e+001
1.224578e+003, 6.074819e+001
1.225060e+003, 6.126947e+001
1.225542e+003, 6.191075e+001
1.226024e+003, 6.236503e+001
1.226506e+003, 6.263575e+001
1.226988e+003, 6.270667e+001
1.227470e+003, 6.263692e+001
1.227953e+003, 6.259633e+001
1.228435e+003, 6.263786e+001
1.228917e+003, 6.250957e+001
1.229399e+003, 6.180521e+001
1.229881e+003, 6.136304e+001
1.230363e+003, 6.172377e+001
1.230845e+003, 6.211674e+001
1.231327e+003, 6.199545e+001
1.231810e+003, 6.172940e+001
1.232292e+003, 6.176656e+001
1.232774e+003, 6.205218e+001
1.233256e+003, 6.235804e+001
1.233738e+003, 6.268303e+001
1.234220e+003, 6.303977e+001
1.234702e+003, 6.345205e+001
1.235184e+003, 6.383339e+001
1.235667e+003, 6.420782e+001
1.236149e+003, 6.436197e+001
1.236631e+003, 6.414550e+001
1.237113e+003, 6.384233e+001
1.237595e+003, 6.379514e+001
1.238077e+003, 6.391951e+001
1.238559e+003, 6.397105e+001
1.239041e+003, 6.396280e+001
1.239523e+003, 6.395033e+001
1.240005e+003, 6.394184e+001
1.240488e+003, 6.395927e+001
1.240970e+003, 6.400542e+001
1.241452e+003, 6.406724e+001
1.241934e+003, 6.413882e+001
1.242416e+003, 6.421684e+001
1.242898e+003, 6.423055e+001
1.243380e+003, 6.432629e+001
1.243862e+003, 6.478177e+001
1.244344e+003, 6.528708e+001
1.244827e+003, 6.548113e+001
1.245309e+003, 6.547328e+001
1.245791e+003, 6.546151e+001
1.246273e+003, 6.548335e+001
1.246755e+003, 6.553111e+001
1.247237e+003, 6.561025e+001
1.247719e+003, 6.568937e+001
1.248201e+003, 6.583763e+001
1.248684e+003, 6.587837e+001
1.249166e+003, 6.565416e+001
1.249648e+003, 6.542848e+001
1.250130e+003, 6.533925e+001
1.250612e+003, 6.534077e+001
1.251094e+003, 6.536854e+001
1.251576e+003, 6.543223e+001
1.252058e+003, 6.558727e+001
1.252541e+003, 6.583043e+001
1.253023e+003, 6.627601e+001
1.253505e+003, 6.697952e+001
1.253987e+003, 6.715919e+001
1.254469e+003, 6.662109e+001
1.254951e+003, 6.619633e+001
1.255433e+003, 6.636953e+001
1.255915e+003, 6.675065e+001
1.256397e+003, 6.687449e+001
1.256880e+003, 6.687402e+001
1.257362e+003, 6.706992e+001
1.257844e+003, 6.730222e+001
1.258326e+003, 6.715366e+001
1.258808e+003, 6.679781e+001
1.259290e+003, 6.670188e+001
1.259772e+003, 6.691076e+001
1.260254e+003, 6.717525e+001
1.260737e+003, 6.741113e+001
1.261219e+003, 6.755984e+001
1.261701e+003, 6.759182e+001
1.262183e+003, 6.752783e+001
1.262665e+003, 6.710610e+001
1.263147e+003, 6.687974e+001
1.263629e+003, 6.741843e+001
1.264111e+003, 6.829111e+001
1.264594e+003, 6.891828e+001
1.265076e+003, 6.930650e+001
1.265558e+003, 6.965215e+001
1.266040e+003, 7.008360e+001
1.266522e+003, 6.990932e+001
1.267004e+003, 6.879333e+001
1.267486e+003, 6.833668e+001
1.267968e+003, 6.899906e+001
1.268450e+003, 6.955197e+001
1.268932e+003, 6.933460e+001
1.269415e+003, 6.899596e+001
1.269897e+003, 6.931553e+001
1.270379e+003, 6.993357e+001
1.270861e+003, 6.995066e+001
1.271343e+003, 6.955592e+001
1.271825e+003, 6.921763e+001
1.272307e+003, 6.900601e+001
1.272789e+003, 6.908418e+001
1.273271e+003, 6.942191e+001
1.273754e+003, 6.988609e+001
1.274236e+003, 7.041216e+001
1.274718e+003, 7.059515e+001
1.275200e+003, 6.977841e+001
1.275682e+003, 6.913718e+001
1.276164e+003, 6.946503e+001
1.276646e+003, 7.010978e+001
1.277128e+003, 7.093192e+001
1.277611e+003, 7.155362e+001
1.278093e+003, 7.141369e+001
1.278575e+003, 7.074936e+001
1.279057e+003, 7.036548e+001
1.279539e+003, 7.030992e+001
1.280021e+003, 7.038087e+001
1.280503e+003, 7.058740e+001
1.280985e+003, 7.088006e+001
1.281468e+003, 7.133785e+001
1.281950e+003, 7.162316e+001
1.282432e+003, 7.158100e+001
1.282914e+003, 7.150274e+001
1.283396e+003, 7.164599e+001
1.283878e+003, 7.184456e+001
1.284360e+003, 7.173556e+001
1.284842e+003, 7.142085e+001
1.285324e+003, 7.120052e+001
##END=



