##NAMES=Metatorbernite
##RRUFFID=R070686
##IDEAL CHEMISTRY=Cu^2+^(U^6+^O_2_)_2_(PO_4_)_2_&#183;8H_2_O
##LOCALITY=Fichtelgebirge, Franconia, Bavaria, Germany
##OWNER=RRUFF
##SOURCE=Michael Scott
##DESCRIPTION=Green tabular crystals
##STATUS=The identification of this mineral has been confirmed by X-ray diffraction.
##URL=rruff.info/R070686
9.001007e+001, 0.000000e+000
9.049219e+001, 1.914966e+001
9.097430e+001, 1.916076e+001
9.145642e+001, 1.916900e+001
9.193854e+001, 1.917219e+001
9.242065e+001, 1.915217e+001
9.290277e+001, 1.909798e+001
9.338489e+001, 1.901027e+001
9.386700e+001, 1.889026e+001
9.434912e+001, 1.874242e+001
9.483124e+001, 1.856243e+001
9.531335e+001, 1.831353e+001
9.579547e+001, 1.798248e+001
9.627759e+001, 1.767242e+001
9.675970e+001, 1.755033e+001
9.724182e+001, 1.759939e+001
9.772394e+001, 1.758085e+001
9.820605e+001, 1.734063e+001
9.868817e+001, 1.690116e+001
9.917029e+001, 1.657353e+001
9.965240e+001, 1.639280e+001
1.001345e+002, 1.626849e+001
1.006166e+002, 1.600295e+001
1.010988e+002, 1.555329e+001
1.015809e+002, 1.513891e+001
1.020630e+002, 1.487737e+001
1.025451e+002, 1.478365e+001
1.030272e+002, 1.476494e+001
1.035093e+002, 1.484152e+001
1.039915e+002, 1.498583e+001
1.044736e+002, 1.510538e+001
1.049557e+002, 1.526062e+001
1.054378e+002, 1.530091e+001
1.059199e+002, 1.508767e+001
1.064020e+002, 1.438675e+001
1.068842e+002, 1.386566e+001
1.073663e+002, 1.364960e+001
1.078484e+002, 1.374461e+001
1.083305e+002, 1.379318e+001
1.088126e+002, 1.374837e+001
1.092947e+002, 1.368334e+001
1.097769e+002, 1.366514e+001
1.102590e+002, 1.371835e+001
1.107411e+002, 1.379377e+001
1.112232e+002, 1.393179e+001
1.117053e+002, 1.419360e+001
1.121874e+002, 1.424919e+001
1.126696e+002, 1.388649e+001
1.131517e+002, 1.335219e+001
1.136338e+002, 1.296595e+001
1.141159e+002, 1.283463e+001
1.145980e+002, 1.281101e+001
1.150801e+002, 1.286821e+001
1.155623e+002, 1.306433e+001
1.160444e+002, 1.319023e+001
1.165265e+002, 1.319724e+001
1.170086e+002, 1.309558e+001
1.174907e+002, 1.290691e+001
1.179728e+002, 1.243859e+001
1.184550e+002, 1.200725e+001
1.189371e+002, 1.184359e+001
1.194192e+002, 1.219380e+001
1.199013e+002, 1.251267e+001
1.203834e+002, 1.248554e+001
1.208655e+002, 1.217743e+001
1.213477e+002, 1.184128e+001
1.218298e+002, 1.155575e+001
1.223119e+002, 1.133894e+001
1.227940e+002, 1.121949e+001
1.232761e+002, 1.130693e+001
1.237582e+002, 1.140439e+001
1.242404e+002, 1.136756e+001
1.247225e+002, 1.119752e+001
1.252046e+002, 1.090623e+001
1.256867e+002, 1.026070e+001
1.261688e+002, 9.513485e+000
1.266509e+002, 9.130635e+000
1.271331e+002, 9.663173e+000
1.276152e+002, 1.053707e+001
1.280973e+002, 1.086799e+001
1.285794e+002, 1.062807e+001
1.290615e+002, 1.018242e+001
1.295436e+002, 9.806974e+000
1.300258e+002, 9.514907e+000
1.305079e+002, 9.369349e+000
1.309900e+002, 9.506525e+000
1.314721e+002, 9.820605e+000
1.319542e+002, 9.987534e+000
1.324363e+002, 9.985383e+000
1.329185e+002, 9.870762e+000
1.334006e+002, 9.690344e+000
1.338827e+002, 9.442846e+000
1.343648e+002, 9.220847e+000
1.348469e+002, 9.073870e+000
1.353290e+002, 8.998306e+000
1.358112e+002, 8.932650e+000
1.362933e+002, 8.856340e+000
1.367754e+002, 8.808208e+000
1.372575e+002, 8.929427e+000
1.377396e+002, 9.271471e+000
1.382217e+002, 9.552188e+000
1.387039e+002, 9.572972e+000
1.391860e+002, 9.297121e+000
1.396681e+002, 9.004773e+000
1.401502e+002, 8.690802e+000
1.406323e+002, 8.387850e+000
1.411144e+002, 8.238575e+000
1.415966e+002, 8.282716e+000
1.420787e+002, 8.405410e+000
1.425608e+002, 8.527846e+000
1.430429e+002, 8.654123e+000
1.435250e+002, 8.772676e+000
1.440071e+002, 8.912828e+000
1.444893e+002, 9.067068e+000
1.449714e+002, 9.040770e+000
1.454535e+002, 8.681116e+000
1.459356e+002, 8.289861e+000
1.464177e+002, 8.181142e+000
1.468998e+002, 8.627277e+000
1.473820e+002, 8.920724e+000
1.478641e+002, 8.870035e+000
1.483462e+002, 8.400713e+000
1.488283e+002, 8.112262e+000
1.493104e+002, 8.111717e+000
1.497925e+002, 8.240172e+000
1.502747e+002, 8.314290e+000
1.507568e+002, 8.286380e+000
1.512389e+002, 8.251722e+000
1.517210e+002, 8.238832e+000
1.522031e+002, 8.271485e+000
1.526852e+002, 8.251087e+000
1.531674e+002, 8.096762e+000
1.536495e+002, 7.905559e+000
1.541316e+002, 7.816751e+000
1.546137e+002, 7.895384e+000
1.550958e+002, 8.030898e+000
1.555779e+002, 8.196536e+000
1.560601e+002, 8.405494e+000
1.565422e+002, 8.607402e+000
1.570243e+002, 8.813509e+000
1.575064e+002, 9.006105e+000
1.579885e+002, 9.150896e+000
1.584706e+002, 9.108485e+000
1.589528e+002, 9.113217e+000
1.594349e+002, 9.283666e+000
1.599170e+002, 9.716567e+000
1.603991e+002, 1.017625e+001
1.608812e+002, 1.057076e+001
1.613633e+002, 1.093966e+001
1.618455e+002, 1.138682e+001
1.623276e+002, 1.194887e+001
1.628097e+002, 1.259706e+001
1.632918e+002, 1.333042e+001
1.637739e+002, 1.418299e+001
1.642560e+002, 1.506480e+001
1.647382e+002, 1.588698e+001
1.652203e+002, 1.668922e+001
1.657024e+002, 1.762338e+001
1.661845e+002, 1.883319e+001
1.666666e+002, 2.018103e+001
1.671487e+002, 2.152917e+001
1.676309e+002, 2.283125e+001
1.681130e+002, 2.415322e+001
1.685951e+002, 2.554589e+001
1.690772e+002, 2.700003e+001
1.695593e+002, 2.842339e+001
1.700414e+002, 2.966174e+001
1.705236e+002, 3.087318e+001
1.710057e+002, 3.223501e+001
1.714878e+002, 3.401936e+001
1.719699e+002, 3.583162e+001
1.724520e+002, 3.723238e+001
1.729341e+002, 3.826256e+001
1.734163e+002, 3.936066e+001
1.738984e+002, 4.082787e+001
1.743805e+002, 4.259185e+001
1.748626e+002, 4.447979e+001
1.753447e+002, 4.649041e+001
1.758268e+002, 4.859262e+001
1.763090e+002, 5.075726e+001
1.767911e+002, 5.296562e+001
1.772732e+002, 5.525293e+001
1.777553e+002, 5.741734e+001
1.782374e+002, 5.940406e+001
1.787195e+002, 6.135891e+001
1.792017e+002, 6.341433e+001
1.796838e+002, 6.547771e+001
1.801659e+002, 6.724667e+001
1.806480e+002, 6.870657e+001
1.811301e+002, 7.031181e+001
1.816122e+002, 7.270895e+001
1.820944e+002, 7.569491e+001
1.825765e+002, 7.854097e+001
1.830586e+002, 8.078435e+001
1.835407e+002, 8.269985e+001
1.840228e+002, 8.502805e+001
1.845049e+002, 8.780392e+001
1.849871e+002, 9.073831e+001
1.854692e+002, 9.337789e+001
1.859513e+002, 9.581403e+001
1.864334e+002, 9.839608e+001
1.869155e+002, 1.013843e+002
1.873976e+002, 1.046707e+002
1.878798e+002, 1.079592e+002
1.883619e+002, 1.112309e+002
1.888440e+002, 1.144935e+002
1.893261e+002, 1.177187e+002
1.898082e+002, 1.209296e+002
1.902903e+002, 1.240368e+002
1.907725e+002, 1.270362e+002
1.912546e+002, 1.299452e+002
1.917367e+002, 1.326787e+002
1.922188e+002, 1.353319e+002
1.927009e+002, 1.376183e+002
1.931830e+002, 1.390712e+002
1.936652e+002, 1.396992e+002
1.941473e+002, 1.395571e+002
1.946294e+002, 1.386399e+002
1.951115e+002, 1.369629e+002
1.955936e+002, 1.346094e+002
1.960757e+002, 1.315395e+002
1.965579e+002, 1.278903e+002
1.970400e+002, 1.237033e+002
1.975221e+002, 1.189085e+002
1.980042e+002, 1.143275e+002
1.984863e+002, 1.103136e+002
1.989684e+002, 1.068829e+002
1.994506e+002, 1.039486e+002
1.999327e+002, 1.015594e+002
2.004148e+002, 9.962563e+001
2.008969e+002, 9.796425e+001
2.013790e+002, 9.652913e+001
2.018611e+002, 9.551314e+001
2.023433e+002, 9.508887e+001
2.028254e+002, 9.528973e+001
2.033075e+002, 9.565828e+001
2.037896e+002, 9.615945e+001
2.042717e+002, 9.680231e+001
2.047538e+002, 9.765934e+001
2.052360e+002, 9.879060e+001
2.057181e+002, 9.990758e+001
2.062002e+002, 1.007473e+002
2.066823e+002, 1.012108e+002
2.071644e+002, 1.020621e+002
2.076465e+002, 1.034830e+002
2.081287e+002, 1.052570e+002
2.086108e+002, 1.067440e+002
2.090929e+002, 1.078303e+002
2.095750e+002, 1.089456e+002
2.100571e+002, 1.103708e+002
2.105392e+002, 1.121894e+002
2.110214e+002, 1.139436e+002
2.115035e+002, 1.155635e+002
2.119856e+002, 1.170995e+002
2.124677e+002, 1.187879e+002
2.129498e+002, 1.206736e+002
2.134319e+002, 1.226266e+002
2.139140e+002, 1.245641e+002
2.143962e+002, 1.264331e+002
2.148783e+002, 1.285202e+002
2.153604e+002, 1.309385e+002
2.158425e+002, 1.335806e+002
2.163246e+002, 1.358972e+002
2.168067e+002, 1.378265e+002
2.172889e+002, 1.395912e+002
2.177710e+002, 1.413722e+002
2.182531e+002, 1.432711e+002
2.187352e+002, 1.448875e+002
2.192173e+002, 1.461565e+002
2.196994e+002, 1.471310e+002
2.201816e+002, 1.480583e+002
2.206637e+002, 1.491244e+002
2.211458e+002, 1.498479e+002
2.216279e+002, 1.499005e+002
2.221100e+002, 1.491409e+002
2.225921e+002, 1.480766e+002
2.230743e+002, 1.466859e+002
2.235564e+002, 1.450230e+002
2.240385e+002, 1.432693e+002
2.245206e+002, 1.415180e+002
2.250027e+002, 1.396018e+002
2.254848e+002, 1.374273e+002
2.259670e+002, 1.350141e+002
2.264491e+002, 1.323165e+002
2.269312e+002, 1.291332e+002
2.274133e+002, 1.256471e+002
2.278954e+002, 1.226133e+002
2.283775e+002, 1.203303e+002
2.288597e+002, 1.181496e+002
2.293418e+002, 1.156425e+002
2.298239e+002, 1.124541e+002
2.303060e+002, 1.097879e+002
2.307881e+002, 1.079075e+002
2.312702e+002, 1.066355e+002
2.317524e+002, 1.052005e+002
2.322345e+002, 1.034697e+002
2.327166e+002, 1.017840e+002
2.331987e+002, 1.003710e+002
2.336808e+002, 9.933825e+001
2.341629e+002, 9.832591e+001
2.346451e+002, 9.720692e+001
2.351272e+002, 9.607789e+001
2.356093e+002, 9.537440e+001
2.360914e+002, 9.531313e+001
2.365735e+002, 9.537922e+001
2.370556e+002, 9.528450e+001
2.375378e+002, 9.493233e+001
2.380199e+002, 9.463364e+001
2.385020e+002, 9.441103e+001
2.389841e+002, 9.425549e+001
2.394662e+002, 9.412322e+001
2.399483e+002, 9.394938e+001
2.404305e+002, 9.389242e+001
2.409126e+002, 9.403328e+001
2.413947e+002, 9.438859e+001
2.418768e+002, 9.492437e+001
2.423589e+002, 9.574403e+001
2.428410e+002, 9.673550e+001
2.433232e+002, 9.748547e+001
2.438053e+002, 9.777158e+001
2.442874e+002, 9.811723e+001
2.447695e+002, 9.880029e+001
2.452516e+002, 9.999922e+001
2.457337e+002, 1.011494e+002
2.462159e+002, 1.022863e+002
2.466980e+002, 1.033575e+002
2.471801e+002, 1.041684e+002
2.476622e+002, 1.046494e+002
2.481443e+002, 1.049842e+002
2.486264e+002, 1.052525e+002
2.491086e+002, 1.054661e+002
2.495907e+002, 1.056047e+002
2.500728e+002, 1.057561e+002
2.505549e+002, 1.058095e+002
2.510370e+002, 1.054282e+002
2.515191e+002, 1.043824e+002
2.520013e+002, 1.032692e+002
2.524834e+002, 1.023934e+002
2.529655e+002, 1.020275e+002
2.534476e+002, 1.011908e+002
2.539297e+002, 9.969447e+001
2.544118e+002, 9.781667e+001
2.548940e+002, 9.612795e+001
2.553761e+002, 9.464552e+001
2.558582e+002, 9.331467e+001
2.563403e+002, 9.214668e+001
2.568224e+002, 9.120596e+001
2.573046e+002, 9.021086e+001
2.577867e+002, 8.912177e+001
2.582688e+002, 8.800991e+001
2.587509e+002, 8.701482e+001
2.592330e+002, 8.614770e+001
2.597151e+002, 8.539213e+001
2.601973e+002, 8.476036e+001
2.606794e+002, 8.429839e+001
2.611615e+002, 8.378834e+001
2.616436e+002, 8.317378e+001
2.621257e+002, 8.256651e+001
2.626078e+002, 8.218522e+001
2.630900e+002, 8.213130e+001
2.635721e+002, 8.206973e+001
2.640542e+002, 8.183540e+001
2.645363e+002, 8.135646e+001
2.650184e+002, 8.121400e+001
2.655005e+002, 8.152563e+001
2.659827e+002, 8.203387e+001
2.664648e+002, 8.238174e+001
2.669469e+002, 8.253681e+001
2.674290e+002, 8.261849e+001
2.679111e+002, 8.265112e+001
2.683932e+002, 8.263096e+001
2.688754e+002, 8.256815e+001
2.693575e+002, 8.236870e+001
2.698396e+002, 8.226641e+001
2.703217e+002, 8.266819e+001
2.708038e+002, 8.376108e+001
2.712859e+002, 8.460648e+001
2.717681e+002, 8.483675e+001
2.722502e+002, 8.447973e+001
2.727323e+002, 8.442964e+001
2.732144e+002, 8.473100e+001
2.736965e+002, 8.525050e+001
2.741786e+002, 8.586964e+001
2.746608e+002, 8.660634e+001
2.751429e+002, 8.739121e+001
2.756250e+002, 8.827037e+001
2.761071e+002, 8.919907e+001
2.765892e+002, 8.982045e+001
2.770714e+002, 9.005359e+001
2.775535e+002, 9.018266e+001
2.780356e+002, 9.048814e+001
2.785177e+002, 9.099289e+001
2.789998e+002, 9.141048e+001
2.794819e+002, 9.160307e+001
2.799641e+002, 9.167935e+001
2.804462e+002, 9.215221e+001
2.809283e+002, 9.308907e+001
2.814104e+002, 9.413855e+001
2.818925e+002, 9.511150e+001
2.823746e+002, 9.601188e+001
2.828568e+002, 9.658450e+001
2.833389e+002, 9.668113e+001
2.838210e+002, 9.651225e+001
2.843031e+002, 9.672913e+001
2.847852e+002, 9.738557e+001
2.852673e+002, 9.799993e+001
2.857495e+002, 9.825475e+001
2.862316e+002, 9.816523e+001
2.867137e+002, 9.787550e+001
2.871958e+002, 9.736087e+001
2.876779e+002, 9.672185e+001
2.881600e+002, 9.615498e+001
2.886422e+002, 9.566059e+001
2.891243e+002, 9.517777e+001
2.896064e+002, 9.473145e+001
2.900885e+002, 9.428768e+001
2.905706e+002, 9.365142e+001
2.910527e+002, 9.275118e+001
2.915349e+002, 9.177950e+001
2.920170e+002, 9.111292e+001
2.924991e+002, 9.072180e+001
2.929812e+002, 9.021989e+001
2.934633e+002, 8.928970e+001
2.939454e+002, 8.807681e+001
2.944276e+002, 8.704747e+001
2.949097e+002, 8.624400e+001
2.953918e+002, 8.559135e+001
2.958739e+002, 8.498420e+001
2.963560e+002, 8.444642e+001
2.968381e+002, 8.406156e+001
2.973203e+002, 8.408531e+001
2.978024e+002, 8.425626e+001
2.982845e+002, 8.395681e+001
2.987666e+002, 8.313656e+001
2.992487e+002, 8.222768e+001
2.997308e+002, 8.160369e+001
3.002130e+002, 8.122585e+001
3.006951e+002, 8.099451e+001
3.011772e+002, 8.100933e+001
3.016593e+002, 8.107826e+001
3.021414e+002, 8.084228e+001
3.026235e+002, 8.031155e+001
3.031057e+002, 7.984975e+001
3.035878e+002, 7.995178e+001
3.040699e+002, 8.032151e+001
3.045520e+002, 8.039581e+001
3.050341e+002, 7.978921e+001
3.055162e+002, 7.899829e+001
3.059984e+002, 7.857767e+001
3.064805e+002, 7.847868e+001
3.069626e+002, 7.833955e+001
3.074447e+002, 7.782265e+001
3.079268e+002, 7.714847e+001
3.084089e+002, 7.660258e+001
3.088911e+002, 7.625201e+001
3.093732e+002, 7.605796e+001
3.098553e+002, 7.618041e+001
3.103374e+002, 7.648560e+001
3.108195e+002, 7.651918e+001
3.113016e+002, 7.565888e+001
3.117838e+002, 7.459983e+001
3.122659e+002, 7.399702e+001
3.127480e+002, 7.413828e+001
3.132301e+002, 7.436655e+001
3.137122e+002, 7.434725e+001
3.141943e+002, 7.413010e+001
3.146765e+002, 7.381938e+001
3.151586e+002, 7.341899e+001
3.156407e+002, 7.297229e+001
3.161228e+002, 7.246023e+001
3.166049e+002, 7.183747e+001
3.170870e+002, 7.135104e+001
3.175692e+002, 7.124268e+001
3.180513e+002, 7.131098e+001
3.185334e+002, 7.127528e+001
3.190155e+002, 7.101994e+001
3.194976e+002, 7.066360e+001
3.199797e+002, 7.017148e+001
3.204619e+002, 6.951461e+001
3.209440e+002, 6.908047e+001
3.214261e+002, 6.916957e+001
3.219082e+002, 6.945747e+001
3.223903e+002, 6.963714e+001
3.228724e+002, 6.967435e+001
3.233546e+002, 6.956429e+001
3.238367e+002, 6.919276e+001
3.243188e+002, 6.857735e+001
3.248009e+002, 6.816391e+001
3.252830e+002, 6.820975e+001
3.257651e+002, 6.836966e+001
3.262473e+002, 6.842099e+001
3.267294e+002, 6.810256e+001
3.272115e+002, 6.795541e+001
3.276936e+002, 6.824039e+001
3.281757e+002, 6.881535e+001
3.286578e+002, 6.897582e+001
3.291400e+002, 6.821424e+001
3.296221e+002, 6.745889e+001
3.301042e+002, 6.711347e+001
3.305863e+002, 6.755641e+001
3.310684e+002, 6.778130e+001
3.315505e+002, 6.766489e+001
3.320327e+002, 6.735120e+001
3.325148e+002, 6.715415e+001
3.329969e+002, 6.708140e+001
3.334790e+002, 6.711253e+001
3.339611e+002, 6.725642e+001
3.344432e+002, 6.754567e+001
3.349254e+002, 6.781700e+001
3.354075e+002, 6.810040e+001
3.358896e+002, 6.833401e+001
3.363717e+002, 6.842034e+001
3.368538e+002, 6.831233e+001
3.373359e+002, 6.816451e+001
3.378180e+002, 6.801002e+001
3.383001e+002, 6.785004e+001
3.387823e+002, 6.769628e+001
3.392644e+002, 6.755151e+001
3.397465e+002, 6.741407e+001
3.402286e+002, 6.726749e+001
3.407107e+002, 6.709991e+001
3.411928e+002, 6.701443e+001
3.416750e+002, 6.705274e+001
3.421571e+002, 6.718379e+001
3.426392e+002, 6.731060e+001
3.431213e+002, 6.745051e+001
3.436034e+002, 6.750475e+001
3.440855e+002, 6.733086e+001
3.445677e+002, 6.694476e+001
3.450498e+002, 6.671984e+001
3.455319e+002, 6.673420e+001
3.460140e+002, 6.687656e+001
3.464961e+002, 6.692118e+001
3.469782e+002, 6.687318e+001
3.474604e+002, 6.687173e+001
3.479425e+002, 6.707059e+001
3.484246e+002, 6.739197e+001
3.489067e+002, 6.752348e+001
3.493888e+002, 6.742657e+001
3.498709e+002, 6.725106e+001
3.503531e+002, 6.714268e+001
3.508352e+002, 6.710001e+001
3.513173e+002, 6.711788e+001
3.517994e+002, 6.718134e+001
3.522815e+002, 6.730778e+001
3.527636e+002, 6.759666e+001
3.532458e+002, 6.804669e+001
3.537279e+002, 6.840410e+001
3.542100e+002, 6.840600e+001
3.546921e+002, 6.817498e+001
3.551742e+002, 6.790986e+001
3.556563e+002, 6.755965e+001
3.561385e+002, 6.731659e+001
3.566206e+002, 6.746264e+001
3.571027e+002, 6.792277e+001
3.575848e+002, 6.831943e+001
3.580669e+002, 6.835607e+001
3.585490e+002, 6.826125e+001
3.590312e+002, 6.826717e+001
3.595133e+002, 6.848189e+001
3.599954e+002, 6.866198e+001
3.604775e+002, 6.858473e+001
3.609596e+002, 6.837165e+001
3.614417e+002, 6.828059e+001
3.619239e+002, 6.854835e+001
3.624060e+002, 6.886482e+001
3.628881e+002, 6.906337e+001
3.633702e+002, 6.911417e+001
3.638523e+002, 6.911525e+001
3.643344e+002, 6.898952e+001
3.648166e+002, 6.886878e+001
3.652987e+002, 6.890383e+001
3.657808e+002, 6.932895e+001
3.662629e+002, 6.971352e+001
3.667450e+002, 6.991423e+001
3.672271e+002, 6.992968e+001
3.677093e+002, 6.998568e+001
3.681914e+002, 7.021111e+001
3.686735e+002, 7.041953e+001
3.691556e+002, 7.048801e+001
3.696377e+002, 7.017309e+001
3.701198e+002, 7.001521e+001
3.706020e+002, 7.007868e+001
3.710841e+002, 7.031876e+001
3.715662e+002, 7.058739e+001
3.720483e+002, 7.097144e+001
3.725304e+002, 7.127287e+001
3.730125e+002, 7.138783e+001
3.734947e+002, 7.121928e+001
3.739768e+002, 7.112943e+001
3.744589e+002, 7.109090e+001
3.749410e+002, 7.115181e+001
3.754231e+002, 7.144713e+001
3.759052e+002, 7.212855e+001
3.763874e+002, 7.261797e+001
3.768695e+002, 7.264949e+001
3.773516e+002, 7.224212e+001
3.778337e+002, 7.219227e+001
3.783158e+002, 7.259218e+001
3.787979e+002, 7.309370e+001
3.792801e+002, 7.334305e+001
3.797622e+002, 7.333212e+001
3.802443e+002, 7.329314e+001
3.807264e+002, 7.322582e+001
3.812085e+002, 7.319683e+001
3.816906e+002, 7.341792e+001
3.821728e+002, 7.389062e+001
3.826549e+002, 7.442271e+001
3.831370e+002, 7.493177e+001
3.836191e+002, 7.539952e+001
3.841012e+002, 7.568552e+001
3.845833e+002, 7.572205e+001
3.850655e+002, 7.576450e+001
3.855476e+002, 7.621049e+001
3.860297e+002, 7.697005e+001
3.865118e+002, 7.769572e+001
3.869939e+002, 7.819534e+001
3.874760e+002, 7.857862e+001
3.879582e+002, 7.895940e+001
3.884403e+002, 7.934359e+001
3.889224e+002, 7.984813e+001
3.894045e+002, 8.055341e+001
3.898866e+002, 8.143497e+001
3.903687e+002, 8.247263e+001
3.908509e+002, 8.371358e+001
3.913330e+002, 8.503642e+001
3.918151e+002, 8.636983e+001
3.922972e+002, 8.772106e+001
3.927793e+002, 8.913874e+001
3.932614e+002, 9.062989e+001
3.937436e+002, 9.219886e+001
3.942257e+002, 9.385874e+001
3.947078e+002, 9.554128e+001
3.951899e+002, 9.745977e+001
3.956720e+002, 9.976704e+001
3.961541e+002, 1.023433e+002
3.966363e+002, 1.049963e+002
3.971184e+002, 1.078728e+002
3.976005e+002, 1.106376e+002
3.980826e+002, 1.131652e+002
3.985647e+002, 1.154313e+002
3.990468e+002, 1.176113e+002
3.995290e+002, 1.198550e+002
4.000111e+002, 1.219414e+002
4.004932e+002, 1.236978e+002
4.009753e+002, 1.249979e+002
4.014574e+002, 1.261380e+002
4.019395e+002, 1.270867e+002
4.024217e+002, 1.278814e+002
4.029038e+002, 1.286241e+002
4.033859e+002, 1.290379e+002
4.038680e+002, 1.298079e+002
4.043501e+002, 1.314319e+002
4.048322e+002, 1.343441e+002
4.053144e+002, 1.365823e+002
4.057965e+002, 1.381695e+002
4.062786e+002, 1.390296e+002
4.067607e+002, 1.390572e+002
4.072428e+002, 1.382730e+002
4.077249e+002, 1.365090e+002
4.082071e+002, 1.335596e+002
4.086892e+002, 1.295575e+002
4.091713e+002, 1.252629e+002
4.096534e+002, 1.205913e+002
4.101355e+002, 1.160140e+002
4.106176e+002, 1.119196e+002
4.110998e+002, 1.082688e+002
4.115819e+002, 1.049377e+002
4.120640e+002, 1.018667e+002
4.125461e+002, 9.915744e+001
4.130282e+002, 9.693105e+001
4.135103e+002, 9.518008e+001
4.139925e+002, 9.379832e+001
4.144746e+002, 9.288675e+001
4.149567e+002, 9.223474e+001
4.154388e+002, 9.150246e+001
4.159209e+002, 9.063804e+001
4.164030e+002, 8.986380e+001
4.168852e+002, 8.943060e+001
4.173673e+002, 8.919389e+001
4.178494e+002, 8.891550e+001
4.183315e+002, 8.832255e+001
4.188136e+002, 8.780622e+001
4.192957e+002, 8.761147e+001
4.197779e+002, 8.771999e+001
4.202600e+002, 8.798587e+001
4.207421e+002, 8.845933e+001
4.212242e+002, 8.899767e+001
4.217063e+002, 8.946957e+001
4.221884e+002, 8.975017e+001
4.226706e+002, 9.017306e+001
4.231527e+002, 9.092709e+001
4.236348e+002, 9.186919e+001
4.241169e+002, 9.273117e+001
4.245990e+002, 9.345215e+001
4.250811e+002, 9.411829e+001
4.255633e+002, 9.465402e+001
4.260454e+002, 9.498037e+001
4.265275e+002, 9.574415e+001
4.270096e+002, 9.728275e+001
4.274917e+002, 9.899814e+001
4.279738e+002, 1.003876e+002
4.284560e+002, 1.012384e+002
4.289381e+002, 1.021937e+002
4.294202e+002, 1.033136e+002
4.299023e+002, 1.045724e+002
4.303844e+002, 1.059713e+002
4.308665e+002, 1.075402e+002
4.313487e+002, 1.091421e+002
4.318308e+002, 1.106500e+002
4.323129e+002, 1.120386e+002
4.327950e+002, 1.137606e+002
4.332771e+002, 1.158871e+002
4.337592e+002, 1.181598e+002
4.342414e+002, 1.203703e+002
4.347235e+002, 1.225047e+002
4.352056e+002, 1.243558e+002
4.356877e+002, 1.257160e+002
4.361698e+002, 1.268474e+002
4.366519e+002, 1.284386e+002
4.371341e+002, 1.304592e+002
4.376162e+002, 1.323364e+002
4.380983e+002, 1.338022e+002
4.385804e+002, 1.348257e+002
4.390625e+002, 1.353220e+002
4.395446e+002, 1.352349e+002
4.400268e+002, 1.347665e+002
4.405089e+002, 1.339288e+002
4.409910e+002, 1.328433e+002
4.414731e+002, 1.317740e+002
4.419552e+002, 1.311153e+002
4.424373e+002, 1.302823e+002
4.429195e+002, 1.287885e+002
4.434016e+002, 1.266357e+002
4.438837e+002, 1.244589e+002
4.443658e+002, 1.224557e+002
4.448479e+002, 1.205588e+002
4.453300e+002, 1.187416e+002
4.458122e+002, 1.170670e+002
4.462943e+002, 1.153547e+002
4.467764e+002, 1.134732e+002
4.472585e+002, 1.115190e+002
4.477406e+002, 1.097417e+002
4.482227e+002, 1.083570e+002
4.487049e+002, 1.069473e+002
4.491870e+002, 1.052642e+002
4.496691e+002, 1.031745e+002
4.501512e+002, 1.017244e+002
4.506333e+002, 1.011524e+002
4.511154e+002, 1.009787e+002
4.515976e+002, 1.007865e+002
4.520797e+002, 1.005832e+002
4.525618e+002, 1.003515e+002
4.530439e+002, 1.000949e+002
4.535260e+002, 9.980838e+001
4.540081e+002, 9.940440e+001
4.544903e+002, 9.884457e+001
4.549724e+002, 9.841427e+001
4.554545e+002, 9.829635e+001
4.559366e+002, 9.845912e+001
4.564187e+002, 9.871017e+001
4.569008e+002, 9.906049e+001
4.573830e+002, 9.939058e+001
4.578651e+002, 9.951013e+001
4.583472e+002, 9.948008e+001
4.588293e+002, 9.950084e+001
4.593114e+002, 9.969723e+001
4.597935e+002, 9.991206e+001
4.602757e+002, 9.995875e+001
4.607578e+002, 9.984874e+001
4.612399e+002, 9.964899e+001
4.617220e+002, 9.930167e+001
4.622041e+002, 9.893806e+001
4.626862e+002, 9.873757e+001
4.631684e+002, 9.879218e+001
4.636505e+002, 9.871496e+001
4.641326e+002, 9.811642e+001
4.646147e+002, 9.733070e+001
4.650968e+002, 9.678053e+001
4.655789e+002, 9.719212e+001
4.660611e+002, 9.726525e+001
4.665432e+002, 9.633443e+001
4.670253e+002, 9.451860e+001
4.675074e+002, 9.317512e+001
4.679895e+002, 9.290414e+001
4.684716e+002, 9.278244e+001
4.689538e+002, 9.235116e+001
4.694359e+002, 9.131734e+001
4.699180e+002, 9.063822e+001
4.704001e+002, 9.045189e+001
4.708822e+002, 9.051701e+001
4.713643e+002, 9.049224e+001
4.718465e+002, 9.038491e+001
4.723286e+002, 9.015378e+001
4.728107e+002, 8.974097e+001
4.732928e+002, 8.919363e+001
4.737749e+002, 8.877468e+001
4.742570e+002, 8.850974e+001
4.747392e+002, 8.824687e+001
4.752213e+002, 8.784605e+001
4.757034e+002, 8.733326e+001
4.761855e+002, 8.685694e+001
4.766676e+002, 8.640490e+001
4.771497e+002, 8.608846e+001
4.776319e+002, 8.620734e+001
4.781140e+002, 8.662028e+001
4.785961e+002, 8.686250e+001
4.790782e+002, 8.658028e+001
4.795603e+002, 8.611639e+001
4.800424e+002, 8.584464e+001
4.805246e+002, 8.575160e+001
4.810067e+002, 8.573533e+001
4.814888e+002, 8.584219e+001
4.819709e+002, 8.593474e+001
4.824530e+002, 8.586199e+001
4.829352e+002, 8.550036e+001
4.834173e+002, 8.520838e+001
4.838994e+002, 8.515330e+001
4.843815e+002, 8.524982e+001
4.848636e+002, 8.536868e+001
4.853457e+002, 8.557333e+001
4.858279e+002, 8.570087e+001
4.863100e+002, 8.569662e+001
4.867921e+002, 8.555805e+001
4.872742e+002, 8.537239e+001
4.877563e+002, 8.494048e+001
4.882384e+002, 8.466424e+001
4.887206e+002, 8.480232e+001
4.892027e+002, 8.554214e+001
4.896848e+002, 8.621990e+001
4.901669e+002, 8.691326e+001
4.906490e+002, 8.745206e+001
4.911311e+002, 8.746287e+001
4.916133e+002, 8.684609e+001
4.920954e+002, 8.639880e+001
4.925775e+002, 8.642765e+001
4.930596e+002, 8.679597e+001
4.935417e+002, 8.695971e+001
4.940238e+002, 8.691299e+001
4.945060e+002, 8.692293e+001
4.949881e+002, 8.734496e+001
4.954702e+002, 8.796443e+001
4.959523e+002, 8.821948e+001
4.964344e+002, 8.798769e+001
4.969165e+002, 8.760239e+001
4.973987e+002, 8.724634e+001
4.978808e+002, 8.698716e+001
4.983629e+002, 8.696056e+001
4.988450e+002, 8.746606e+001
4.993271e+002, 8.801698e+001
4.998092e+002, 8.818040e+001
5.002914e+002, 8.805653e+001
5.007735e+002, 8.818188e+001
5.012556e+002, 8.895567e+001
5.017377e+002, 8.990607e+001
5.022198e+002, 9.080975e+001
5.027019e+002, 9.176927e+001
5.031841e+002, 9.236929e+001
5.036662e+002, 9.233288e+001
5.041483e+002, 9.200503e+001
5.046304e+002, 9.177964e+001
5.051125e+002, 9.169516e+001
5.055946e+002, 9.166068e+001
5.060768e+002, 9.170669e+001
5.065589e+002, 9.179555e+001
5.070410e+002, 9.169681e+001
5.075231e+002, 9.130954e+001
5.080052e+002, 9.101550e+001
5.084873e+002, 9.108342e+001
5.089695e+002, 9.151624e+001
5.094516e+002, 9.176293e+001
5.099337e+002, 9.180029e+001
5.104158e+002, 9.173080e+001
5.108979e+002, 9.161653e+001
5.113800e+002, 9.148005e+001
5.118622e+002, 9.145079e+001
5.123443e+002, 9.164169e+001
5.128264e+002, 9.183852e+001
5.133085e+002, 9.169203e+001
5.137906e+002, 9.128885e+001
5.142728e+002, 9.093887e+001
5.147549e+002, 9.080944e+001
5.152370e+002, 9.081438e+001
5.157191e+002, 9.093469e+001
5.162012e+002, 9.117844e+001
5.166833e+002, 9.133443e+001
5.171655e+002, 9.116650e+001
5.176476e+002, 9.094448e+001
5.181297e+002, 9.090229e+001
5.186118e+002, 9.136594e+001
5.190939e+002, 9.166714e+001
5.195760e+002, 9.163075e+001
5.200582e+002, 9.136401e+001
5.205403e+002, 9.111979e+001
5.210224e+002, 9.081052e+001
5.215045e+002, 9.065034e+001
5.219866e+002, 9.071964e+001
5.224688e+002, 9.101861e+001
5.229509e+002, 9.136941e+001
5.234330e+002, 9.182716e+001
5.239151e+002, 9.221143e+001
5.243972e+002, 9.231570e+001
5.248793e+002, 9.212984e+001
5.253615e+002, 9.212455e+001
5.258436e+002, 9.236816e+001
5.263257e+002, 9.272636e+001
5.268078e+002, 9.308201e+001
5.272899e+002, 9.340371e+001
5.277720e+002, 9.351962e+001
5.282542e+002, 9.317496e+001
5.287363e+002, 9.273294e+001
5.292184e+002, 9.274050e+001
5.297005e+002, 9.312493e+001
5.301826e+002, 9.349034e+001
5.306647e+002, 9.360130e+001
5.311469e+002, 9.358329e+001
5.316290e+002, 9.351746e+001
5.321111e+002, 9.339314e+001
5.325932e+002, 9.333834e+001
5.330753e+002, 9.339503e+001
5.335574e+002, 9.355183e+001
5.340396e+002, 9.379563e+001
5.345217e+002, 9.437556e+001
5.350038e+002, 9.475035e+001
5.354859e+002, 9.473247e+001
5.359680e+002, 9.445217e+001
5.364501e+002, 9.431869e+001
5.369323e+002, 9.438960e+001
5.374144e+002, 9.451157e+001
5.378965e+002, 9.464645e+001
5.383786e+002, 9.479496e+001
5.388607e+002, 9.487917e+001
5.393428e+002, 9.488120e+001
5.398250e+002, 9.486818e+001
5.403071e+002, 9.485905e+001
5.407892e+002, 9.486623e+001
5.412713e+002, 9.507009e+001
5.417534e+002, 9.556458e+001
5.422355e+002, 9.607350e+001
5.427177e+002, 9.616533e+001
5.431998e+002, 9.594058e+001
5.436819e+002, 9.571612e+001
5.441640e+002, 9.560677e+001
5.446461e+002, 9.558865e+001
5.451282e+002, 9.562473e+001
5.456104e+002, 9.572515e+001
5.460925e+002, 9.594839e+001
5.465746e+002, 9.655740e+001
5.470567e+002, 9.713572e+001
5.475388e+002, 9.736655e+001
5.480209e+002, 9.708443e+001
5.485031e+002, 9.686388e+001
5.489852e+002, 9.685760e+001
5.494673e+002, 9.695304e+001
5.499494e+002, 9.703374e+001
5.504315e+002, 9.712022e+001
5.509136e+002, 9.714526e+001
5.513958e+002, 9.703104e+001
5.518779e+002, 9.686723e+001
5.523600e+002, 9.698357e+001
5.528421e+002, 9.750388e+001
5.533242e+002, 9.786092e+001
5.538063e+002, 9.767249e+001
5.542885e+002, 9.705692e+001
5.547706e+002, 9.708593e+001
5.552527e+002, 9.782235e+001
5.557348e+002, 9.854185e+001
5.562169e+002, 9.844193e+001
5.566990e+002, 9.784136e+001
5.571812e+002, 9.760200e+001
5.576633e+002, 9.792735e+001
5.581454e+002, 9.836848e+001
5.586275e+002, 9.853567e+001
5.591096e+002, 9.850964e+001
5.595917e+002, 9.843535e+001
5.600739e+002, 9.827291e+001
5.605560e+002, 9.817018e+001
5.610381e+002, 9.832144e+001
5.615202e+002, 9.863285e+001
5.620023e+002, 9.870004e+001
5.624844e+002, 9.806606e+001
5.629666e+002, 9.746831e+001
5.634487e+002, 9.729306e+001
5.639308e+002, 9.766416e+001
5.644129e+002, 9.783247e+001
5.648950e+002, 9.762134e+001
5.653771e+002, 9.739888e+001
5.658593e+002, 9.752467e+001
5.663414e+002, 9.813425e+001
5.668235e+002, 9.848605e+001
5.673056e+002, 9.844373e+001
5.677877e+002, 9.821712e+001
5.682698e+002, 9.819925e+001
5.687520e+002, 9.837765e+001
5.692341e+002, 9.853683e+001
5.697162e+002, 9.858927e+001
5.701983e+002, 9.857890e+001
5.706804e+002, 9.857792e+001
5.711625e+002, 9.858702e+001
5.716447e+002, 9.860313e+001
5.721268e+002, 9.881453e+001
5.726089e+002, 9.892448e+001
5.730910e+002, 9.845223e+001
5.735731e+002, 9.721436e+001
5.740552e+002, 9.642760e+001
5.745374e+002, 9.703545e+001
5.750195e+002, 9.815527e+001
5.755016e+002, 9.896213e+001
5.759837e+002, 9.908004e+001
5.764658e+002, 9.914365e+001
5.769479e+002, 9.917834e+001
5.774301e+002, 9.920072e+001
5.779122e+002, 9.925585e+001
5.783943e+002, 9.940174e+001
5.788764e+002, 9.944514e+001
5.793585e+002, 9.925351e+001
5.798406e+002, 9.889530e+001
5.803228e+002, 9.895065e+001
5.808049e+002, 9.949522e+001
5.812870e+002, 9.996166e+001
5.817691e+002, 9.978699e+001
5.822512e+002, 9.918950e+001
5.827333e+002, 9.915003e+001
5.832155e+002, 9.977810e+001
5.836975e+002, 1.004487e+002
5.841796e+002, 1.005154e+002
5.846617e+002, 1.002494e+002
5.851439e+002, 1.000965e+002
5.856260e+002, 1.001928e+002
5.861081e+002, 1.004072e+002
5.865902e+002, 1.007863e+002
5.870723e+002, 1.012155e+002
5.875544e+002, 1.014677e+002
5.880366e+002, 1.013801e+002
5.885187e+002, 1.012098e+002
5.890008e+002, 1.009177e+002
5.894829e+002, 1.005330e+002
5.899650e+002, 1.005245e+002
5.904471e+002, 1.012464e+002
5.909293e+002, 1.018764e+002
5.914114e+002, 1.019185e+002
5.918935e+002, 1.012198e+002
5.923756e+002, 1.010996e+002
5.928577e+002, 1.017214e+002
5.933398e+002, 1.024795e+002
5.938220e+002, 1.026776e+002
5.943041e+002, 1.023979e+002
5.947862e+002, 1.022939e+002
5.952683e+002, 1.025162e+002
5.957504e+002, 1.028709e+002
5.962325e+002, 1.032319e+002
5.967147e+002, 1.035356e+002
5.971968e+002, 1.036115e+002
5.976789e+002, 1.030832e+002
5.981610e+002, 1.025566e+002
5.986431e+002, 1.025244e+002
5.991252e+002, 1.028987e+002
5.996074e+002, 1.032519e+002
6.000895e+002, 1.034869e+002
6.005716e+002, 1.036199e+002
6.010537e+002, 1.036305e+002
6.015358e+002, 1.034794e+002
6.020179e+002, 1.033879e+002
6.025001e+002, 1.033919e+002
6.029822e+002, 1.034225e+002
6.034643e+002, 1.034180e+002
6.039464e+002, 1.033497e+002
6.044285e+002, 1.033678e+002
6.049106e+002, 1.034999e+002
6.053928e+002, 1.036876e+002
6.058749e+002, 1.038157e+002
6.063570e+002, 1.038967e+002
6.068391e+002, 1.041084e+002
6.073212e+002, 1.046047e+002
6.078033e+002, 1.051300e+002
6.082855e+002, 1.051733e+002
6.087676e+002, 1.048737e+002
6.092497e+002, 1.047469e+002
6.097318e+002, 1.052648e+002
6.102139e+002, 1.059305e+002
6.106960e+002, 1.064239e+002
6.111782e+002, 1.067218e+002
6.116603e+002, 1.067693e+002
6.121424e+002, 1.062287e+002
6.126245e+002, 1.056641e+002
6.131066e+002, 1.054588e+002
6.135887e+002, 1.059007e+002
6.140709e+002, 1.060769e+002
6.145530e+002, 1.057405e+002
6.150351e+002, 1.053654e+002
6.155172e+002, 1.055353e+002
6.159993e+002, 1.064481e+002
6.164814e+002, 1.069929e+002
6.169636e+002, 1.069352e+002
6.174457e+002, 1.065510e+002
6.179278e+002, 1.062919e+002
6.184099e+002, 1.061619e+002
6.188920e+002, 1.062030e+002
6.193741e+002, 1.065894e+002
6.198563e+002, 1.070397e+002
6.203384e+002, 1.070165e+002
6.208205e+002, 1.066252e+002
6.213026e+002, 1.063960e+002
6.217847e+002, 1.069586e+002
6.222668e+002, 1.075672e+002
6.227490e+002, 1.075406e+002
6.232311e+002, 1.067470e+002
6.237132e+002, 1.062143e+002
6.241953e+002, 1.064800e+002
6.246774e+002, 1.069234e+002
6.251595e+002, 1.071077e+002
6.256417e+002, 1.068640e+002
6.261238e+002, 1.066862e+002
6.266059e+002, 1.066006e+002
6.270880e+002, 1.065586e+002
6.275701e+002, 1.064988e+002
6.280522e+002, 1.064203e+002
6.285344e+002, 1.063356e+002
6.290165e+002, 1.062331e+002
6.294986e+002, 1.061471e+002
6.299807e+002, 1.061646e+002
6.304628e+002, 1.062679e+002
6.309449e+002, 1.063628e+002
6.314271e+002, 1.064115e+002
6.319092e+002, 1.064207e+002
6.323913e+002, 1.063950e+002
6.328734e+002, 1.063335e+002
6.333555e+002, 1.062396e+002
6.338376e+002, 1.060782e+002
6.343198e+002, 1.059106e+002
6.348019e+002, 1.057791e+002
6.352840e+002, 1.056991e+002
6.357661e+002, 1.055883e+002
6.362482e+002, 1.053484e+002
6.367303e+002, 1.051485e+002
6.372125e+002, 1.051279e+002
6.376946e+002, 1.053938e+002
6.381767e+002, 1.055401e+002
6.386588e+002, 1.055658e+002
6.391409e+002, 1.054486e+002
6.396230e+002, 1.050347e+002
6.401052e+002, 1.043577e+002
6.405873e+002, 1.039915e+002
6.410694e+002, 1.042073e+002
6.415515e+002, 1.045910e+002
6.420336e+002, 1.044163e+002
6.425157e+002, 1.038763e+002
6.429979e+002, 1.035318e+002
6.434800e+002, 1.039235e+002
6.439621e+002, 1.043915e+002
6.444442e+002, 1.044058e+002
6.449263e+002, 1.040454e+002
6.454084e+002, 1.038161e+002
6.458906e+002, 1.040347e+002
6.463727e+002, 1.042870e+002
6.468548e+002, 1.043841e+002
6.473369e+002, 1.043124e+002
6.478190e+002, 1.041884e+002
6.483011e+002, 1.040108e+002
6.487833e+002, 1.037850e+002
6.492654e+002, 1.034609e+002
6.497475e+002, 1.030082e+002
6.502296e+002, 1.028430e+002
6.507117e+002, 1.030368e+002
6.511938e+002, 1.033248e+002
6.516760e+002, 1.033732e+002
6.521581e+002, 1.032440e+002
6.526402e+002, 1.031250e+002
6.531223e+002, 1.030629e+002
6.536044e+002, 1.030290e+002
6.540865e+002, 1.030478e+002
6.545687e+002, 1.030685e+002
6.550508e+002, 1.029953e+002
6.555329e+002, 1.026055e+002
6.560150e+002, 1.023061e+002
6.564971e+002, 1.023158e+002
6.569792e+002, 1.025694e+002
6.574614e+002, 1.027154e+002
6.579435e+002, 1.027234e+002
6.584256e+002, 1.026430e+002
6.589077e+002, 1.024574e+002
6.593898e+002, 1.021740e+002
6.598719e+002, 1.020120e+002
6.603541e+002, 1.020077e+002
6.608362e+002, 1.019555e+002
6.613183e+002, 1.016490e+002
6.618004e+002, 1.011670e+002
6.622825e+002, 1.007694e+002
6.627646e+002, 1.004650e+002
6.632468e+002, 1.003442e+002
6.637289e+002, 1.007165e+002
6.642110e+002, 1.012313e+002
6.646931e+002, 1.013949e+002
6.651752e+002, 1.009637e+002
6.656573e+002, 1.005393e+002
6.661395e+002, 1.003649e+002
6.666216e+002, 1.003511e+002
6.671037e+002, 1.003874e+002
6.675858e+002, 1.006060e+002
6.680679e+002, 1.006756e+002
6.685500e+002, 1.004875e+002
6.690322e+002, 1.001724e+002
6.695143e+002, 1.000288e+002
6.699964e+002, 1.000883e+002
6.704785e+002, 1.001657e+002
6.709606e+002, 1.002337e+002
6.714427e+002, 1.002600e+002
6.719249e+002, 1.000628e+002
6.724070e+002, 9.968346e+001
6.728891e+002, 9.946843e+001
6.733712e+002, 9.990881e+001
6.738533e+002, 1.004556e+002
6.743354e+002, 1.003475e+002
6.748176e+002, 9.963770e+001
6.752997e+002, 9.905711e+001
6.757818e+002, 9.917585e+001
6.762639e+002, 9.939055e+001
6.767460e+002, 9.929966e+001
6.772281e+002, 9.875218e+001
6.777103e+002, 9.833632e+001
6.781924e+002, 9.810363e+001
6.786745e+002, 9.797767e+001
6.791566e+002, 9.789088e+001
6.796387e+002, 9.782131e+001
6.801208e+002, 9.793501e+001
6.806030e+002, 9.830355e+001
6.810851e+002, 9.869118e+001
6.815672e+002, 9.878386e+001
6.820493e+002, 9.863593e+001
6.825314e+002, 9.847685e+001
6.830135e+002, 9.834851e+001
6.834957e+002, 9.825973e+001
6.839778e+002, 9.830411e+001
6.844599e+002, 9.838528e+001
6.849420e+002, 9.832230e+001
6.854241e+002, 9.781418e+001
6.859063e+002, 9.739681e+001
6.863884e+002, 9.732410e+001
6.868705e+002, 9.750952e+001
6.873526e+002, 9.764971e+001
6.878347e+002, 9.782061e+001
6.883168e+002, 9.780173e+001
6.887990e+002, 9.742961e+001
6.892811e+002, 9.679687e+001
6.897632e+002, 9.662980e+001
6.902453e+002, 9.700576e+001
6.907274e+002, 9.732002e+001
6.912095e+002, 9.704992e+001
6.916917e+002, 9.645859e+001
6.921738e+002, 9.643605e+001
6.926559e+002, 9.696471e+001
6.931380e+002, 9.743394e+001
6.936201e+002, 9.734269e+001
6.941022e+002, 9.700496e+001
6.945844e+002, 9.668121e+001
6.950665e+002, 9.639225e+001
6.955486e+002, 9.622138e+001
6.960307e+002, 9.630064e+001
6.965128e+002, 9.644167e+001
6.969949e+002, 9.649184e+001
6.974771e+002, 9.637712e+001
6.979592e+002, 9.632399e+001
6.984413e+002, 9.635851e+001
6.989234e+002, 9.642434e+001
6.994055e+002, 9.646123e+001
6.998876e+002, 9.647066e+001
7.003698e+002, 9.645660e+001
7.008519e+002, 9.642993e+001
7.013340e+002, 9.635960e+001
7.018161e+002, 9.615278e+001
7.022982e+002, 9.586795e+001
7.027803e+002, 9.565099e+001
7.032625e+002, 9.558533e+001
7.037446e+002, 9.557033e+001
7.042267e+002, 9.553474e+001
7.047088e+002, 9.550045e+001
7.051909e+002, 9.551649e+001
7.056730e+002, 9.552380e+001
7.061552e+002, 9.567128e+001
7.066373e+002, 9.613933e+001
7.071194e+002, 9.679346e+001
7.076015e+002, 9.696541e+001
7.080836e+002, 9.649866e+001
7.085657e+002, 9.601126e+001
7.090479e+002, 9.575134e+001
7.095300e+002, 9.567034e+001
7.100121e+002, 9.554091e+001
7.104942e+002, 9.536802e+001
7.109763e+002, 9.529590e+001
7.114584e+002, 9.556887e+001
7.119406e+002, 9.591820e+001
7.124227e+002, 9.597204e+001
7.129048e+002, 9.572039e+001
7.133869e+002, 9.547096e+001
7.138690e+002, 9.540405e+001
7.143511e+002, 9.537050e+001
7.148333e+002, 9.526614e+001
7.153154e+002, 9.504971e+001
7.157975e+002, 9.487290e+001
7.162796e+002, 9.475870e+001
7.167617e+002, 9.465976e+001
7.172438e+002, 9.454256e+001
7.177260e+002, 9.441002e+001
7.182081e+002, 9.421834e+001
7.186902e+002, 9.393271e+001
7.191723e+002, 9.373087e+001
7.196544e+002, 9.393061e+001
7.201365e+002, 9.437461e+001
7.206187e+002, 9.464791e+001
7.211008e+002, 9.461216e+001
7.215829e+002, 9.453640e+001
7.220650e+002, 9.470063e+001
7.225471e+002, 9.492097e+001
7.230292e+002, 9.495364e+001
7.235114e+002, 9.434323e+001
7.239935e+002, 9.401331e+001
7.244756e+002, 9.430245e+001
7.249577e+002, 9.487870e+001
7.254398e+002, 9.519131e+001
7.259219e+002, 9.516286e+001
7.264041e+002, 9.509428e+001
7.268862e+002, 9.504832e+001
7.273683e+002, 9.500142e+001
7.278504e+002, 9.484567e+001
7.283325e+002, 9.461112e+001
7.288146e+002, 9.451118e+001
7.292968e+002, 9.473429e+001
7.297789e+002, 9.506325e+001
7.302610e+002, 9.523145e+001
7.307431e+002, 9.529290e+001
7.312252e+002, 9.542672e+001
7.317073e+002, 9.608879e+001
7.321895e+002, 9.647359e+001
7.326716e+002, 9.599240e+001
7.331537e+002, 9.472722e+001
7.336358e+002, 9.404844e+001
7.341179e+002, 9.422583e+001
7.346000e+002, 9.452681e+001
7.350822e+002, 9.467146e+001
7.355643e+002, 9.467463e+001
7.360464e+002, 9.466758e+001
7.365285e+002, 9.465214e+001
7.370106e+002, 9.460228e+001
7.374927e+002, 9.443748e+001
7.379749e+002, 9.424963e+001
7.384570e+002, 9.422433e+001
7.389391e+002, 9.436593e+001
7.394212e+002, 9.449717e+001
7.399033e+002, 9.454713e+001
7.403854e+002, 9.452283e+001
7.408676e+002, 9.439631e+001
7.413497e+002, 9.410603e+001
7.418318e+002, 9.395264e+001
7.423139e+002, 9.396289e+001
7.427960e+002, 9.409425e+001
7.432781e+002, 9.439997e+001
7.437603e+002, 9.495895e+001
7.442424e+002, 9.504173e+001
7.447245e+002, 9.452621e+001
7.452066e+002, 9.396703e+001
7.456887e+002, 9.400893e+001
7.461708e+002, 9.445731e+001
7.466530e+002, 9.481832e+001
7.471351e+002, 9.501019e+001
7.476172e+002, 9.510021e+001
7.480993e+002, 9.505193e+001
7.485814e+002, 9.496741e+001
7.490635e+002, 9.496201e+001
7.495457e+002, 9.510408e+001
7.500278e+002, 9.526012e+001
7.505099e+002, 9.543607e+001
7.509920e+002, 9.559795e+001
7.514741e+002, 9.569362e+001
7.519562e+002, 9.569674e+001
7.524384e+002, 9.573441e+001
7.529205e+002, 9.582658e+001
7.534026e+002, 9.594585e+001
7.538847e+002, 9.602227e+001
7.543668e+002, 9.608123e+001
7.548489e+002, 9.624006e+001
7.553311e+002, 9.658440e+001
7.558132e+002, 9.694376e+001
7.562953e+002, 9.715196e+001
7.567774e+002, 9.727140e+001
7.572595e+002, 9.740720e+001
7.577416e+002, 9.784856e+001
7.582238e+002, 9.800955e+001
7.587059e+002, 9.746976e+001
7.591880e+002, 9.663519e+001
7.596701e+002, 9.638590e+001
7.601522e+002, 9.690562e+001
7.606343e+002, 9.742648e+001
7.611165e+002, 9.778397e+001
7.615986e+002, 9.800202e+001
7.620807e+002, 9.809978e+001
7.625628e+002, 9.809745e+001
7.630449e+002, 9.811102e+001
7.635270e+002, 9.823258e+001
7.640092e+002, 9.835945e+001
7.644913e+002, 9.833029e+001
7.649734e+002, 9.821778e+001
7.654555e+002, 9.824799e+001
7.659376e+002, 9.862746e+001
7.664197e+002, 9.902943e+001
7.669019e+002, 9.934084e+001
7.673840e+002, 9.957764e+001
7.678661e+002, 9.982210e+001
7.683482e+002, 1.000857e+002
7.688303e+002, 1.003124e+002
7.693124e+002, 1.004329e+002
7.697946e+002, 1.005125e+002
7.702767e+002, 1.008542e+002
7.707588e+002, 1.014246e+002
7.712409e+002, 1.019126e+002
7.717230e+002, 1.020457e+002
7.722051e+002, 1.020649e+002
7.726873e+002, 1.022347e+002
7.731694e+002, 1.025324e+002
7.736515e+002, 1.027355e+002
7.741336e+002, 1.026487e+002
7.746157e+002, 1.025657e+002
7.750978e+002, 1.025736e+002
7.755800e+002, 1.026753e+002
7.760621e+002, 1.030297e+002
7.765442e+002, 1.037500e+002
7.770263e+002, 1.044026e+002
7.775084e+002, 1.046589e+002
7.779905e+002, 1.046369e+002
7.784727e+002, 1.049609e+002
7.789548e+002, 1.056074e+002
7.794369e+002, 1.061668e+002
7.799190e+002, 1.062199e+002
7.804011e+002, 1.061245e+002
7.808832e+002, 1.061558e+002
7.813654e+002, 1.063399e+002
7.818475e+002, 1.068233e+002
7.823296e+002, 1.080538e+002
7.828117e+002, 1.092319e+002
7.832938e+002, 1.099636e+002
7.837759e+002, 1.102128e+002
7.842581e+002, 1.103822e+002
7.847402e+002, 1.104062e+002
7.852223e+002, 1.105584e+002
7.857044e+002, 1.111485e+002
7.861865e+002, 1.120357e+002
7.866686e+002, 1.126200e+002
7.871508e+002, 1.128924e+002
7.876329e+002, 1.132223e+002
7.881150e+002, 1.140499e+002
7.885971e+002, 1.149748e+002
7.890792e+002, 1.154737e+002
7.895613e+002, 1.154117e+002
7.900435e+002, 1.157757e+002
7.905256e+002, 1.172626e+002
7.910077e+002, 1.188343e+002
7.914898e+002, 1.199002e+002
7.919719e+002, 1.203225e+002
7.924540e+002, 1.212051e+002
7.929362e+002, 1.226328e+002
7.934183e+002, 1.240982e+002
7.939004e+002, 1.249669e+002
7.943825e+002, 1.255430e+002
7.948646e+002, 1.267729e+002
7.953467e+002, 1.287420e+002
7.958289e+002, 1.306841e+002
7.963110e+002, 1.319289e+002
7.967931e+002, 1.329678e+002
7.972752e+002, 1.341783e+002
7.977573e+002, 1.356537e+002
7.982394e+002, 1.371664e+002
7.987216e+002, 1.386540e+002
7.992037e+002, 1.402140e+002
7.996858e+002, 1.418948e+002
8.001679e+002, 1.437100e+002
8.006500e+002, 1.455972e+002
8.011321e+002, 1.475806e+002
8.016143e+002, 1.496469e+002
8.020964e+002, 1.516991e+002
8.025785e+002, 1.538469e+002
8.030606e+002, 1.563965e+002
8.035427e+002, 1.594008e+002
8.040248e+002, 1.624554e+002
8.045070e+002, 1.652443e+002
8.049891e+002, 1.680717e+002
8.054712e+002, 1.710910e+002
8.059533e+002, 1.742209e+002
8.064354e+002, 1.780673e+002
8.069175e+002, 1.828964e+002
8.073997e+002, 1.880461e+002
8.078818e+002, 1.928849e+002
8.083639e+002, 1.973994e+002
8.088460e+002, 2.028606e+002
8.093281e+002, 2.093226e+002
8.098102e+002, 2.165687e+002
8.102924e+002, 2.240828e+002
8.107745e+002, 2.324076e+002
8.112566e+002, 2.423853e+002
8.117387e+002, 2.540974e+002
8.122208e+002, 2.668721e+002
8.127029e+002, 2.800314e+002
8.131851e+002, 2.944716e+002
8.136672e+002, 3.110131e+002
8.141493e+002, 3.300739e+002
8.146314e+002, 3.492256e+002
8.151135e+002, 3.681216e+002
8.155956e+002, 3.876021e+002
8.160778e+002, 4.077347e+002
8.165599e+002, 4.287804e+002
8.170420e+002, 4.515566e+002
8.175241e+002, 4.762045e+002
8.180062e+002, 5.025216e+002
8.184883e+002, 5.293999e+002
8.189705e+002, 5.588937e+002
8.194526e+002, 5.923890e+002
8.199347e+002, 6.297527e+002
8.204168e+002, 6.723879e+002
8.208989e+002, 7.218341e+002
8.213810e+002, 7.756754e+002
8.218632e+002, 8.331713e+002
8.223453e+002, 8.942054e+002
8.228274e+002, 9.614783e+002
8.233095e+002, 1.034666e+003
8.237916e+002, 1.109268e+003
8.242737e+002, 1.184977e+003
8.247559e+002, 1.257523e+003
8.252380e+002, 1.322776e+003
8.257201e+002, 1.379268e+003
8.262022e+002, 1.410823e+003
8.266843e+002, 1.409641e+003
8.271664e+002, 1.377941e+003
8.276486e+002, 1.312861e+003
8.281307e+002, 1.208991e+003
8.286128e+002, 1.099118e+003
8.290949e+002, 9.761102e+002
8.295770e+002, 8.583273e+002
8.300591e+002, 7.528802e+002
8.305413e+002, 6.603076e+002
8.310234e+002, 5.824044e+002
8.315055e+002, 5.191078e+002
8.319876e+002, 4.661644e+002
8.324697e+002, 4.219337e+002
8.329518e+002, 3.850467e+002
8.334340e+002, 3.542977e+002
8.339161e+002, 3.295356e+002
8.343982e+002, 3.077988e+002
8.348803e+002, 2.889335e+002
8.353624e+002, 2.721644e+002
8.358445e+002, 2.569997e+002
8.363267e+002, 2.435025e+002
8.368088e+002, 2.318900e+002
8.372909e+002, 2.224194e+002
8.377730e+002, 2.139490e+002
8.382551e+002, 2.059312e+002
8.387372e+002, 1.984302e+002
8.392194e+002, 1.917559e+002
8.397015e+002, 1.858160e+002
8.401836e+002, 1.800772e+002
8.406657e+002, 1.740826e+002
8.411478e+002, 1.683217e+002
8.416299e+002, 1.632797e+002
8.421121e+002, 1.588670e+002
8.425942e+002, 1.543277e+002
8.430763e+002, 1.492829e+002
8.435584e+002, 1.446144e+002
8.440405e+002, 1.405575e+002
8.445226e+002, 1.370986e+002
8.450048e+002, 1.342952e+002
8.454869e+002, 1.321200e+002
8.459690e+002, 1.301561e+002
8.464511e+002, 1.282541e+002
8.469332e+002, 1.264355e+002
8.474153e+002, 1.246617e+002
8.478975e+002, 1.229938e+002
8.483796e+002, 1.216033e+002
8.488617e+002, 1.206615e+002
8.493438e+002, 1.198905e+002
8.498259e+002, 1.193367e+002
8.503080e+002, 1.188692e+002
8.507902e+002, 1.181410e+002
8.512723e+002, 1.171284e+002
8.517544e+002, 1.160135e+002
8.522365e+002, 1.147639e+002
8.527186e+002, 1.135724e+002
8.532007e+002, 1.128908e+002
8.536829e+002, 1.125531e+002
8.541650e+002, 1.120969e+002
8.546471e+002, 1.112154e+002
8.551292e+002, 1.103271e+002
8.556113e+002, 1.095961e+002
8.560934e+002, 1.090028e+002
8.565756e+002, 1.085085e+002
8.570577e+002, 1.081971e+002
8.575398e+002, 1.077966e+002
8.580219e+002, 1.072772e+002
8.585040e+002, 1.066438e+002
8.589861e+002, 1.058764e+002
8.594683e+002, 1.049958e+002
8.599504e+002, 1.040931e+002
8.604325e+002, 1.031418e+002
8.609146e+002, 1.023601e+002
8.613967e+002, 1.021614e+002
8.618788e+002, 1.021700e+002
8.623610e+002, 1.019053e+002
8.628431e+002, 1.010169e+002
8.633252e+002, 1.002888e+002
8.638073e+002, 9.987148e+001
8.642894e+002, 9.955289e+001
8.647715e+002, 9.909065e+001
8.652537e+002, 9.846734e+001
8.657358e+002, 9.812984e+001
8.662179e+002, 9.814493e+001
8.667000e+002, 9.820882e+001
8.671821e+002, 9.797660e+001
8.676642e+002, 9.761338e+001
8.681464e+002, 9.734668e+001
8.686285e+002, 9.720789e+001
8.691106e+002, 9.717749e+001
8.695927e+002, 9.738855e+001
8.700748e+002, 9.758549e+001
8.705569e+002, 9.752633e+001
8.710391e+002, 9.710117e+001
8.715212e+002, 9.730021e+001
8.720033e+002, 9.832247e+001
8.724854e+002, 9.915456e+001
8.729675e+002, 9.867656e+001
8.734496e+002, 9.751157e+001
8.739318e+002, 9.724399e+001
8.744139e+002, 9.785715e+001
8.748960e+002, 9.852686e+001
8.753781e+002, 9.882301e+001
8.758602e+002, 9.897372e+001
8.763423e+002, 9.909367e+001
8.768245e+002, 9.918980e+001
8.773066e+002, 9.925124e+001
8.777887e+002, 9.922160e+001
8.782708e+002, 9.929737e+001
8.787529e+002, 9.957613e+001
8.792350e+002, 1.000162e+002
8.797172e+002, 1.005662e+002
8.801993e+002, 1.011850e+002
8.806814e+002, 1.016383e+002
8.811635e+002, 1.015941e+002
8.816456e+002, 1.015210e+002
8.821277e+002, 1.018119e+002
8.826099e+002, 1.023583e+002
8.830920e+002, 1.028286e+002
8.835741e+002, 1.029754e+002
8.840562e+002, 1.033192e+002
8.845383e+002, 1.040509e+002
8.850204e+002, 1.049360e+002
8.855026e+002, 1.053749e+002
8.859847e+002, 1.054063e+002
8.864668e+002, 1.056620e+002
8.869489e+002, 1.063897e+002
8.874310e+002, 1.072533e+002
8.879131e+002, 1.079278e+002
8.883953e+002, 1.084708e+002
8.888774e+002, 1.089755e+002
8.893595e+002, 1.094708e+002
8.898416e+002, 1.099218e+002
8.903237e+002, 1.102430e+002
8.908058e+002, 1.105907e+002
8.912880e+002, 1.111782e+002
8.917701e+002, 1.120326e+002
8.922522e+002, 1.127384e+002
8.927343e+002, 1.132482e+002
8.932164e+002, 1.137091e+002
8.936985e+002, 1.143014e+002
8.941807e+002, 1.149291e+002
8.946628e+002, 1.154372e+002
8.951449e+002, 1.157749e+002
8.956270e+002, 1.161725e+002
8.961091e+002, 1.167974e+002
8.965912e+002, 1.174369e+002
8.970734e+002, 1.179370e+002
8.975555e+002, 1.182663e+002
8.980376e+002, 1.188946e+002
8.985197e+002, 1.198971e+002
8.990018e+002, 1.207254e+002
8.994839e+002, 1.208971e+002
8.999661e+002, 1.206664e+002
9.004482e+002, 1.204673e+002
9.009303e+002, 1.203022e+002
9.014124e+002, 1.201173e+002
9.018945e+002, 1.198652e+002
9.023766e+002, 1.196045e+002
9.028588e+002, 1.193796e+002
9.033409e+002, 1.191715e+002
9.038230e+002, 1.188626e+002
9.043051e+002, 1.184094e+002
9.047872e+002, 1.180222e+002
9.052693e+002, 1.178271e+002
9.057515e+002, 1.176583e+002
9.062336e+002, 1.172002e+002
9.067157e+002, 1.164850e+002
9.071978e+002, 1.155996e+002
9.076799e+002, 1.143316e+002
9.081620e+002, 1.132199e+002
9.086442e+002, 1.125828e+002
9.091263e+002, 1.122317e+002
9.096084e+002, 1.118632e+002
9.100905e+002, 1.115611e+002
9.105726e+002, 1.109574e+002
9.110547e+002, 1.099209e+002
9.115369e+002, 1.087926e+002
9.120190e+002, 1.080369e+002
9.125011e+002, 1.075503e+002
9.129832e+002, 1.070423e+002
9.134653e+002, 1.064596e+002
9.139474e+002, 1.058762e+002
9.144296e+002, 1.053097e+002
9.149117e+002, 1.047813e+002
9.153938e+002, 1.043076e+002
9.158759e+002, 1.038835e+002
9.163580e+002, 1.035397e+002
9.168401e+002, 1.033070e+002
9.173223e+002, 1.030734e+002
9.178044e+002, 1.027554e+002
9.182865e+002, 1.023744e+002
9.187686e+002, 1.019812e+002
9.192507e+002, 1.015822e+002
9.197328e+002, 1.012213e+002
9.202150e+002, 1.010222e+002
9.206971e+002, 1.007852e+002
9.211792e+002, 1.002801e+002
9.216613e+002, 9.957361e+001
9.221434e+002, 9.919332e+001
9.226255e+002, 9.928439e+001
9.231077e+002, 9.938326e+001
9.235898e+002, 9.936844e+001
9.240719e+002, 9.926779e+001
9.245540e+002, 9.911841e+001
9.250361e+002, 9.893309e+001
9.255182e+002, 9.877627e+001
9.260004e+002, 9.871717e+001
9.264825e+002, 9.861057e+001
9.269646e+002, 9.824344e+001
9.274467e+002, 9.780843e+001
9.279288e+002, 9.761521e+001
9.284109e+002, 9.780520e+001
9.288931e+002, 9.795802e+001
9.293752e+002, 9.802442e+001
9.298573e+002, 9.810958e+001
9.303394e+002, 9.845512e+001
9.308215e+002, 9.892834e+001
9.313036e+002, 9.900442e+001
9.317858e+002, 9.860194e+001
9.322679e+002, 9.814040e+001
9.327500e+002, 9.777402e+001
9.332321e+002, 9.756990e+001
9.337142e+002, 9.762634e+001
9.341964e+002, 9.799709e+001
9.346785e+002, 9.826601e+001
9.351606e+002, 9.845757e+001
9.356427e+002, 9.847243e+001
9.361248e+002, 9.808705e+001
9.366069e+002, 9.753228e+001
9.370891e+002, 9.774943e+001
9.375712e+002, 9.859026e+001
9.380533e+002, 9.930161e+001
9.385354e+002, 9.944331e+001
9.390175e+002, 9.936462e+001
9.394996e+002, 9.906839e+001
9.399818e+002, 9.870759e+001
9.404639e+002, 9.872311e+001
9.409460e+002, 9.928352e+001
9.414281e+002, 9.980549e+001
9.419102e+002, 1.002264e+002
9.423923e+002, 1.004806e+002
9.428745e+002, 1.002805e+002
9.433566e+002, 9.982679e+001
9.438387e+002, 9.974293e+001
9.443208e+002, 1.002604e+002
9.448029e+002, 1.008578e+002
9.452850e+002, 1.013011e+002
9.457672e+002, 1.016522e+002
9.462493e+002, 1.019522e+002
9.467314e+002, 1.021695e+002
9.472135e+002, 1.025173e+002
9.476956e+002, 1.030470e+002
9.481777e+002, 1.035342e+002
9.486599e+002, 1.036837e+002
9.491420e+002, 1.036830e+002
9.496241e+002, 1.040817e+002
9.501062e+002, 1.048272e+002
9.505883e+002, 1.054057e+002
9.510704e+002, 1.051995e+002
9.515526e+002, 1.050905e+002
9.520347e+002, 1.057092e+002
9.525168e+002, 1.068164e+002
9.529989e+002, 1.074574e+002
9.534810e+002, 1.075076e+002
9.539631e+002, 1.076330e+002
9.544453e+002, 1.079062e+002
9.549274e+002, 1.085653e+002
9.554095e+002, 1.106238e+002
9.558916e+002, 1.132792e+002
9.563737e+002, 1.147869e+002
9.568558e+002, 1.140212e+002
9.573380e+002, 1.131303e+002
9.578201e+002, 1.126726e+002
9.583022e+002, 1.125463e+002
9.587843e+002, 1.126806e+002
9.592664e+002, 1.131105e+002
9.597485e+002, 1.136518e+002
9.602307e+002, 1.143150e+002
9.607128e+002, 1.149574e+002
9.611949e+002, 1.153941e+002
9.616770e+002, 1.157606e+002
9.621591e+002, 1.162140e+002
9.626412e+002, 1.167727e+002
9.631234e+002, 1.174620e+002
9.636055e+002, 1.184561e+002
9.640876e+002, 1.193994e+002
9.645697e+002, 1.201196e+002
9.650518e+002, 1.206943e+002
9.655339e+002, 1.215174e+002
9.660161e+002, 1.225915e+002
9.664982e+002, 1.236840e+002
9.669803e+002, 1.245695e+002
9.674624e+002, 1.256540e+002
9.679445e+002, 1.274545e+002
9.684266e+002, 1.297450e+002
9.689088e+002, 1.321140e+002
9.693909e+002, 1.346535e+002
9.698730e+002, 1.369773e+002
9.703551e+002, 1.388850e+002
9.708372e+002, 1.408279e+002
9.713193e+002, 1.433504e+002
9.718015e+002, 1.463944e+002
9.722836e+002, 1.495358e+002
9.727657e+002, 1.527212e+002
9.732478e+002, 1.563588e+002
9.737299e+002, 1.608561e+002
9.742120e+002, 1.659296e+002
9.746942e+002, 1.713609e+002
9.751763e+002, 1.771451e+002
9.756584e+002, 1.833752e+002
9.761405e+002, 1.900108e+002
9.766226e+002, 1.972474e+002
9.771047e+002, 2.050622e+002
9.775869e+002, 2.136177e+002
9.780690e+002, 2.233399e+002
9.785511e+002, 2.340051e+002
9.790332e+002, 2.450460e+002
9.795153e+002, 2.561595e+002
9.799974e+002, 2.678697e+002
9.804796e+002, 2.802626e+002
9.809617e+002, 2.935587e+002
9.814438e+002, 3.079248e+002
9.819259e+002, 3.234659e+002
9.824080e+002, 3.402461e+002
9.828901e+002, 3.584143e+002
9.833723e+002, 3.775961e+002
9.838544e+002, 3.971753e+002
9.843365e+002, 4.175910e+002
9.848186e+002, 4.399320e+002
9.853007e+002, 4.643410e+002
9.857828e+002, 4.891184e+002
9.862650e+002, 5.147935e+002
9.867471e+002, 5.396514e+002
9.872292e+002, 5.636340e+002
9.877113e+002, 5.863087e+002
9.881934e+002, 6.054777e+002
9.886755e+002, 6.211179e+002
9.891577e+002, 6.337404e+002
9.896398e+002, 6.436389e+002
9.901219e+002, 6.501779e+002
9.906040e+002, 6.516215e+002
9.910861e+002, 6.493513e+002
9.915682e+002, 6.457008e+002
9.920504e+002, 6.412797e+002
9.925325e+002, 6.354096e+002
9.930146e+002, 6.277079e+002
9.934967e+002, 6.191139e+002
9.939788e+002, 6.104342e+002
9.944609e+002, 6.015701e+002
9.949431e+002, 5.916088e+002
9.954252e+002, 5.804646e+002
9.959073e+002, 5.684689e+002
9.963894e+002, 5.561365e+002
9.968715e+002, 5.426781e+002
9.973536e+002, 5.275529e+002
9.978358e+002, 5.106949e+002
9.983179e+002, 4.914194e+002
9.988000e+002, 4.689597e+002
9.992821e+002, 4.459037e+002
9.997642e+002, 4.223925e+002
1.000246e+003, 3.991129e+002
1.000728e+003, 3.777068e+002
1.001211e+003, 3.580560e+002
1.001693e+003, 3.407231e+002
1.002175e+003, 3.259346e+002
1.002657e+003, 3.129451e+002
1.003139e+003, 3.019655e+002
1.003621e+003, 2.924874e+002
1.004103e+003, 2.842611e+002
1.004585e+003, 2.775341e+002
1.005068e+003, 2.708689e+002
1.005550e+003, 2.642950e+002
1.006032e+003, 2.569469e+002
1.006514e+003, 2.481306e+002
1.006996e+003, 2.380951e+002
1.007478e+003, 2.263093e+002
1.007960e+003, 2.131843e+002
1.008442e+003, 2.010703e+002
1.008924e+003, 1.903348e+002
1.009407e+003, 1.808548e+002
1.009889e+003, 1.725928e+002
1.010371e+003, 1.654804e+002
1.010853e+003, 1.594797e+002
1.011335e+003, 1.544447e+002
1.011817e+003, 1.499282e+002
1.012299e+003, 1.458105e+002
1.012781e+003, 1.421143e+002
1.013263e+003, 1.388086e+002
1.013746e+003, 1.359226e+002
1.014228e+003, 1.335661e+002
1.014710e+003, 1.318570e+002
1.015192e+003, 1.299950e+002
1.015674e+003, 1.279147e+002
1.016156e+003, 1.259142e+002
1.016638e+003, 1.241233e+002
1.017120e+003, 1.225377e+002
1.017603e+003, 1.211494e+002
1.018085e+003, 1.199504e+002
1.018567e+003, 1.189618e+002
1.019049e+003, 1.184602e+002
1.019531e+003, 1.178307e+002
1.020013e+003, 1.167392e+002
1.020495e+003, 1.155054e+002
1.020977e+003, 1.145801e+002
1.021459e+003, 1.139655e+002
1.021942e+003, 1.135453e+002
1.022424e+003, 1.133324e+002
1.022906e+003, 1.130790e+002
1.023388e+003, 1.124744e+002
1.023870e+003, 1.117645e+002
1.024352e+003, 1.112006e+002
1.024834e+003, 1.108230e+002
1.025316e+003, 1.104481e+002
1.025799e+003, 1.100871e+002
1.026281e+003, 1.096813e+002
1.026763e+003, 1.091834e+002
1.027245e+003, 1.086495e+002
1.027727e+003, 1.081947e+002
1.028209e+003, 1.078090e+002
1.028691e+003, 1.074498e+002
1.029173e+003, 1.070275e+002
1.029656e+003, 1.067440e+002
1.030138e+003, 1.068827e+002
1.030620e+003, 1.070888e+002
1.031102e+003, 1.069586e+002
1.031584e+003, 1.064000e+002
1.032066e+003, 1.060351e+002
1.032548e+003, 1.058934e+002
1.033030e+003, 1.057524e+002
1.033512e+003, 1.052893e+002
1.033995e+003, 1.048165e+002
1.034477e+003, 1.048074e+002
1.034959e+003, 1.051903e+002
1.035441e+003, 1.053985e+002
1.035923e+003, 1.051462e+002
1.036405e+003, 1.049562e+002
1.036887e+003, 1.049730e+002
1.037369e+003, 1.050557e+002
1.037851e+003, 1.048955e+002
1.038334e+003, 1.045578e+002
1.038816e+003, 1.042730e+002
1.039298e+003, 1.040901e+002
1.039780e+003, 1.039816e+002
1.040262e+003, 1.039418e+002
1.040744e+003, 1.039633e+002
1.041226e+003, 1.040862e+002
1.041708e+003, 1.043292e+002
1.042191e+003, 1.042735e+002
1.042673e+003, 1.038761e+002
1.043155e+003, 1.035513e+002
1.043637e+003, 1.035798e+002
1.044119e+003, 1.037566e+002
1.044601e+003, 1.038136e+002
1.045083e+003, 1.037937e+002
1.045565e+003, 1.037939e+002
1.046047e+003, 1.038701e+002
1.046530e+003, 1.039310e+002
1.047012e+003, 1.039824e+002
1.047494e+003, 1.039957e+002
1.047976e+003, 1.039615e+002
1.048458e+003, 1.038640e+002
1.048940e+003, 1.034975e+002
1.049422e+003, 1.028634e+002
1.049904e+003, 1.025818e+002
1.050386e+003, 1.036396e+002
1.050869e+003, 1.046109e+002
1.051351e+003, 1.043783e+002
1.051833e+003, 1.032873e+002
1.052315e+003, 1.027820e+002
1.052797e+003, 1.029385e+002
1.053279e+003, 1.030838e+002
1.053761e+003, 1.030027e+002
1.054243e+003, 1.029307e+002
1.054726e+003, 1.033150e+002
1.055208e+003, 1.038344e+002
1.055690e+003, 1.039940e+002
1.056172e+003, 1.035133e+002
1.056654e+003, 1.032847e+002
1.057136e+003, 1.035665e+002
1.057618e+003, 1.037669e+002
1.058100e+003, 1.034831e+002
1.058583e+003, 1.028423e+002
1.059065e+003, 1.022431e+002
1.059547e+003, 1.017191e+002
1.060029e+003, 1.014230e+002
1.060511e+003, 1.016157e+002
1.060993e+003, 1.018522e+002
1.061475e+003, 1.019508e+002
1.061957e+003, 1.019848e+002
1.062439e+003, 1.020684e+002
1.062922e+003, 1.022184e+002
1.063404e+003, 1.022756e+002
1.063886e+003, 1.022279e+002
1.064368e+003, 1.020837e+002
1.064850e+003, 1.017494e+002
1.065332e+003, 1.013938e+002
1.065814e+003, 1.011453e+002
1.066296e+003, 1.010244e+002
1.066778e+003, 1.011355e+002
1.067261e+003, 1.016406e+002
1.067743e+003, 1.019995e+002
1.068225e+003, 1.020363e+002
1.068707e+003, 1.019188e+002
1.069189e+003, 1.019570e+002
1.069671e+003, 1.020841e+002
1.070153e+003, 1.021565e+002
1.070635e+003, 1.021521e+002
1.071118e+003, 1.020365e+002
1.071600e+003, 1.016656e+002
1.072082e+003, 1.013059e+002
1.072564e+003, 1.011232e+002
1.073046e+003, 1.011034e+002
1.073528e+003, 1.009539e+002
1.074010e+003, 1.007038e+002
1.074492e+003, 1.007481e+002
1.074974e+003, 1.016963e+002
1.075457e+003, 1.025652e+002
1.075939e+003, 1.024175e+002
1.076421e+003, 1.017673e+002
1.076903e+003, 1.015147e+002
1.077385e+003, 1.018894e+002
1.077867e+003, 1.020541e+002
1.078349e+003, 1.019137e+002
1.078831e+003, 1.018086e+002
1.079313e+003, 1.022275e+002
1.079796e+003, 1.027860e+002
1.080278e+003, 1.028059e+002
1.080760e+003, 1.023475e+002
1.081242e+003, 1.020558e+002
1.081724e+003, 1.023773e+002
1.082206e+003, 1.025440e+002
1.082688e+003, 1.023281e+002
1.083170e+003, 1.019755e+002
1.083652e+003, 1.019658e+002
1.084135e+003, 1.022155e+002
1.084617e+003, 1.023876e+002
1.085099e+003, 1.024000e+002
1.085581e+003, 1.024865e+002
1.086063e+003, 1.028459e+002
1.086545e+003, 1.032737e+002
1.087027e+003, 1.037266e+002
1.087509e+003, 1.041658e+002
1.087992e+003, 1.040758e+002
1.088474e+003, 1.034477e+002
1.088956e+003, 1.031007e+002
1.089438e+003, 1.035338e+002
1.089920e+003, 1.040910e+002
1.090402e+003, 1.040890e+002
1.090884e+003, 1.038281e+002
1.091366e+003, 1.037199e+002
1.091849e+003, 1.038644e+002
1.092331e+003, 1.040458e+002
1.092813e+003, 1.042723e+002
1.093295e+003, 1.045084e+002
1.093777e+003, 1.047722e+002
1.094259e+003, 1.050051e+002
1.094741e+003, 1.050789e+002
1.095223e+003, 1.050241e+002
1.095705e+003, 1.049518e+002
1.096188e+003, 1.048303e+002
1.096670e+003, 1.048086e+002
1.097152e+003, 1.049912e+002
1.097634e+003, 1.051688e+002
1.098116e+003, 1.049445e+002
1.098598e+003, 1.044567e+002
1.099080e+003, 1.044478e+002
1.099562e+003, 1.049768e+002
1.100044e+003, 1.054384e+002
1.100527e+003, 1.054697e+002
1.101009e+003, 1.053199e+002
1.101491e+003, 1.050600e+002
1.101973e+003, 1.047455e+002
1.102455e+003, 1.045030e+002
1.102937e+003, 1.043307e+002
1.103419e+003, 1.044274e+002
1.103901e+003, 1.049205e+002
1.104384e+003, 1.053803e+002
1.104866e+003, 1.051973e+002
1.105348e+003, 1.048927e+002
1.105830e+003, 1.050947e+002
1.106312e+003, 1.059667e+002
1.106794e+003, 1.063095e+002
1.107276e+003, 1.060262e+002
1.107758e+003, 1.055675e+002
1.108240e+003, 1.049867e+002
1.108723e+003, 1.045322e+002
1.109205e+003, 1.047935e+002
1.109687e+003, 1.054187e+002
1.110169e+003, 1.057180e+002
1.110651e+003, 1.051901e+002
1.111133e+003, 1.049179e+002
1.111615e+003, 1.050971e+002
1.112097e+003, 1.053184e+002
1.112579e+003, 1.051635e+002
1.113062e+003, 1.048033e+002
1.113544e+003, 1.048820e+002
1.114026e+003, 1.053352e+002
1.114508e+003, 1.058256e+002
1.114990e+003, 1.064133e+002
1.115472e+003, 1.067241e+002
1.115954e+003, 1.065216e+002
1.116436e+003, 1.060871e+002
1.116919e+003, 1.057319e+002
1.117401e+003, 1.054556e+002
1.117883e+003, 1.052629e+002
1.118365e+003, 1.051550e+002
1.118847e+003, 1.052004e+002
1.119329e+003, 1.057336e+002
1.119811e+003, 1.061713e+002
1.120293e+003, 1.059890e+002
1.120776e+003, 1.053875e+002
1.121258e+003, 1.050584e+002
1.121740e+003, 1.050208e+002
1.122222e+003, 1.050936e+002
1.122704e+003, 1.052783e+002
1.123186e+003, 1.053831e+002
1.123668e+003, 1.050885e+002
1.124150e+003, 1.046874e+002
1.124632e+003, 1.045100e+002
1.125115e+003, 1.046211e+002
1.125597e+003, 1.046375e+002
1.126079e+003, 1.045178e+002
1.126561e+003, 1.044469e+002
1.127043e+003, 1.045758e+002
1.127525e+003, 1.046624e+002
1.128007e+003, 1.040190e+002
1.128489e+003, 1.031426e+002
1.128971e+003, 1.029725e+002
1.129454e+003, 1.041822e+002
1.129936e+003, 1.048658e+002
1.130418e+003, 1.046673e+002
1.130900e+003, 1.042916e+002
1.131382e+003, 1.041559e+002
1.131864e+003, 1.041726e+002
1.132346e+003, 1.040293e+002
1.132828e+003, 1.037934e+002
1.133311e+003, 1.036876e+002
1.133793e+003, 1.039163e+002
1.134275e+003, 1.041408e+002
1.134757e+003, 1.042733e+002
1.135239e+003, 1.043792e+002
1.135721e+003, 1.045414e+002
1.136203e+003, 1.047391e+002
1.136685e+003, 1.048589e+002
1.137167e+003, 1.048845e+002
1.137650e+003, 1.047065e+002
1.138132e+003, 1.039022e+002
1.138614e+003, 1.032693e+002
1.139096e+003, 1.033670e+002
1.139578e+003, 1.038106e+002
1.140060e+003, 1.039704e+002
1.140542e+003, 1.038389e+002
1.141024e+003, 1.040016e+002
1.141506e+003, 1.045418e+002
1.141989e+003, 1.049855e+002
1.142471e+003, 1.048805e+002
1.142953e+003, 1.046054e+002
1.143435e+003, 1.044058e+002
1.143917e+003, 1.042921e+002
1.144399e+003, 1.042249e+002
1.144881e+003, 1.042093e+002
1.145363e+003, 1.042030e+002
1.145846e+003, 1.041872e+002
1.146328e+003, 1.042143e+002
1.146810e+003, 1.044568e+002
1.147292e+003, 1.046955e+002
1.147774e+003, 1.046281e+002
1.148256e+003, 1.041863e+002
1.148738e+003, 1.040358e+002
1.149220e+003, 1.042621e+002
1.149703e+003, 1.045055e+002
1.150185e+003, 1.046531e+002
1.150667e+003, 1.047307e+002
1.151149e+003, 1.047486e+002
1.151631e+003, 1.047352e+002
1.152113e+003, 1.046615e+002
1.152595e+003, 1.043332e+002
1.153077e+003, 1.047620e+002
1.153559e+003, 1.063418e+002
1.154042e+003, 1.078679e+002
1.154524e+003, 1.088946e+002
1.155006e+003, 1.092891e+002
1.155488e+003, 1.083148e+002
1.155970e+003, 1.065025e+002
1.156452e+003, 1.051833e+002
1.156934e+003, 1.050932e+002
1.157416e+003, 1.049456e+002
1.157898e+003, 1.044299e+002
1.158381e+003, 1.040411e+002
1.158863e+003, 1.039913e+002
1.159345e+003, 1.043863e+002
1.159827e+003, 1.063414e+002
1.160309e+003, 1.092743e+002
1.160791e+003, 1.107851e+002
1.161273e+003, 1.083932e+002
1.161755e+003, 1.062305e+002
1.162238e+003, 1.053027e+002
1.162720e+003, 1.050463e+002
1.163202e+003, 1.049935e+002
1.163684e+003, 1.051167e+002
1.164166e+003, 1.052410e+002
1.164648e+003, 1.053605e+002
1.165130e+003, 1.055022e+002
1.165612e+003, 1.058169e+002
1.166094e+003, 1.059940e+002
1.166577e+003, 1.057704e+002
1.167059e+003, 1.054232e+002
1.167541e+003, 1.054433e+002
1.168023e+003, 1.057897e+002
1.168505e+003, 1.059093e+002
1.168987e+003, 1.057459e+002
1.169469e+003, 1.055172e+002
1.169951e+003, 1.052533e+002
1.170433e+003, 1.050918e+002
1.170916e+003, 1.052037e+002
1.171398e+003, 1.054580e+002
1.171880e+003, 1.055064e+002
1.172362e+003, 1.053529e+002
1.172844e+003, 1.053400e+002
1.173326e+003, 1.055522e+002
1.173808e+003, 1.057426e+002
1.174290e+003, 1.055366e+002
1.174773e+003, 1.053651e+002
1.175255e+003, 1.056914e+002
1.175737e+003, 1.063871e+002
1.176219e+003, 1.067566e+002
1.176701e+003, 1.067922e+002
1.177183e+003, 1.066890e+002
1.177665e+003, 1.064432e+002
1.178147e+003, 1.062823e+002
1.178630e+003, 1.066015e+002
1.179112e+003, 1.069882e+002
1.179594e+003, 1.069550e+002
1.180076e+003, 1.064859e+002
1.180558e+003, 1.063861e+002
1.181040e+003, 1.067064e+002
1.181522e+003, 1.068947e+002
1.182004e+003, 1.067054e+002
1.182486e+003, 1.063740e+002
1.182969e+003, 1.059500e+002
1.183451e+003, 1.056437e+002
1.183933e+003, 1.057677e+002
1.184415e+003, 1.064208e+002
1.184897e+003, 1.070714e+002
1.185379e+003, 1.077877e+002
1.185861e+003, 1.080575e+002
1.186343e+003, 1.073240e+002
1.186825e+003, 1.064090e+002
1.187308e+003, 1.063513e+002
1.187790e+003, 1.067499e+002
1.188272e+003, 1.069802e+002
1.188754e+003, 1.068788e+002
1.189236e+003, 1.068325e+002
1.189718e+003, 1.068438e+002
1.190200e+003, 1.069022e+002
1.190682e+003, 1.069785e+002
1.191165e+003, 1.071184e+002
1.191647e+003, 1.074970e+002
1.192129e+003, 1.079581e+002
1.192611e+003, 1.081708e+002
1.193093e+003, 1.078950e+002
1.193575e+003, 1.078290e+002
1.194057e+003, 1.080601e+002
1.194539e+003, 1.081821e+002
1.195021e+003, 1.076764e+002
1.195504e+003, 1.070097e+002
1.195986e+003, 1.068175e+002
1.196468e+003, 1.070023e+002
1.196950e+003, 1.072667e+002
1.197432e+003, 1.076339e+002
1.197914e+003, 1.079088e+002
1.198396e+003, 1.080832e+002
1.198878e+003, 1.081468e+002
1.199360e+003, 1.079386e+002
1.199843e+003, 1.077084e+002
1.200325e+003, 1.079495e+002
1.200807e+003, 1.085225e+002
1.201289e+003, 1.087857e+002
1.201771e+003, 1.084986e+002
1.202253e+003, 1.081462e+002
1.202735e+003, 1.076792e+002
1.203217e+003, 1.075030e+002
1.203700e+003, 1.084794e+002
1.204182e+003, 1.097874e+002
1.204664e+003, 1.100873e+002
1.205146e+003, 1.094777e+002
1.205628e+003, 1.092461e+002
1.206110e+003, 1.098608e+002
1.206592e+003, 1.101652e+002
1.207074e+003, 1.098272e+002
1.207557e+003, 1.095674e+002
1.208039e+003, 1.105506e+002
1.208521e+003, 1.120400e+002
1.209003e+003, 1.131747e+002
1.209485e+003, 1.138384e+002
1.209967e+003, 1.135369e+002
1.210449e+003, 1.116779e+002
1.210931e+003, 1.102684e+002
1.211413e+003, 1.097379e+002
1.211896e+003, 1.097474e+002
1.212378e+003, 1.100751e+002
1.212860e+003, 1.105061e+002
1.213342e+003, 1.107388e+002
1.213824e+003, 1.107405e+002
1.214306e+003, 1.105620e+002
1.214788e+003, 1.100913e+002
1.215270e+003, 1.098013e+002
1.215752e+003, 1.098416e+002
1.216235e+003, 1.100533e+002
1.216717e+003, 1.102951e+002
1.217199e+003, 1.105196e+002
1.217681e+003, 1.106375e+002
1.218163e+003, 1.106288e+002
1.218645e+003, 1.107014e+002
1.219127e+003, 1.109586e+002
1.219609e+003, 1.110031e+002
1.220092e+003, 1.106092e+002
1.220574e+003, 1.101715e+002
1.221056e+003, 1.103865e+002
1.221538e+003, 1.108828e+002
1.222020e+003, 1.110754e+002
1.222502e+003, 1.107991e+002
1.222984e+003, 1.108832e+002
1.223466e+003, 1.115161e+002
1.223948e+003, 1.119460e+002
1.224431e+003, 1.118137e+002
1.224913e+003, 1.115170e+002
1.225395e+003, 1.116084e+002
1.225877e+003, 1.119195e+002
1.226359e+003, 1.122565e+002
1.226841e+003, 1.126218e+002
1.227323e+003, 1.127599e+002
1.227805e+003, 1.126218e+002
1.228287e+003, 1.124560e+002
1.228770e+003, 1.123781e+002
1.229252e+003, 1.123008e+002
1.229734e+003, 1.119437e+002
1.230216e+003, 1.115933e+002
1.230698e+003, 1.117337e+002
1.231180e+003, 1.126113e+002
1.231662e+003, 1.129856e+002
1.232144e+003, 1.128010e+002
1.232627e+003, 1.124222e+002
1.233109e+003, 1.118480e+002
1.233591e+003, 1.114452e+002
1.234073e+003, 1.119277e+002
1.234555e+003, 1.127109e+002
1.235037e+003, 1.129206e+002
1.235519e+003, 1.123258e+002
1.236001e+003, 1.122176e+002
1.236484e+003, 1.126511e+002
1.236966e+003, 1.131026e+002
1.237448e+003, 1.133236e+002
1.237930e+003, 1.134234e+002
1.238412e+003, 1.135911e+002
1.238894e+003, 1.136640e+002
1.239376e+003, 1.132895e+002
1.239858e+003, 1.123041e+002
1.240340e+003, 1.122305e+002
1.240823e+003, 1.131164e+002
1.241305e+003, 1.137879e+002
1.241787e+003, 1.132755e+002
1.242269e+003, 1.127830e+002
1.242751e+003, 1.136609e+002
1.243233e+003, 1.149597e+002
1.243715e+003, 1.154633e+002
1.244197e+003, 1.150767e+002
1.244679e+003, 1.146173e+002
1.245162e+003, 1.140882e+002
1.245644e+003, 1.137859e+002
1.246126e+003, 1.140633e+002
1.246608e+003, 1.143624e+002
1.247090e+003, 1.141876e+002
1.247572e+003, 1.139211e+002
1.248054e+003, 1.140121e+002
1.248536e+003, 1.144783e+002
1.249019e+003, 1.149219e+002
1.249501e+003, 1.153340e+002
1.249983e+003, 1.156134e+002
1.250465e+003, 1.156323e+002
1.250947e+003, 1.155895e+002
1.251429e+003, 1.154896e+002
1.251911e+003, 1.154534e+002
1.252393e+003, 1.156517e+002
1.252875e+003, 1.160582e+002
1.253358e+003, 1.161688e+002
1.253840e+003, 1.160202e+002
1.254322e+003, 1.158764e+002
1.254804e+003, 1.158511e+002
1.255286e+003, 1.158839e+002
1.255768e+003, 1.160512e+002
1.256250e+003, 1.161637e+002
1.256732e+003, 1.159384e+002
1.257214e+003, 1.154911e+002
1.257697e+003, 1.155741e+002
1.258179e+003, 1.161124e+002
1.258661e+003, 1.167348e+002
1.259143e+003, 1.176839e+002
1.259625e+003, 1.180658e+002
1.260107e+003, 1.174400e+002
1.260589e+003, 1.167133e+002
1.261071e+003, 1.167071e+002
1.261554e+003, 1.172014e+002
1.262036e+003, 1.176098e+002
1.262518e+003, 1.178993e+002
1.263000e+003, 1.179968e+002
1.263482e+003, 1.177324e+002
1.263964e+003, 1.174406e+002
1.264446e+003, 1.170364e+002
1.264928e+003, 1.168669e+002
1.265411e+003, 1.175194e+002
1.265893e+003, 1.184463e+002
1.266375e+003, 1.184572e+002
1.266857e+003, 1.178629e+002
1.267339e+003, 1.175289e+002
1.267821e+003, 1.178280e+002
1.268303e+003, 1.181502e+002
1.268785e+003, 1.184887e+002
1.269267e+003, 1.188383e+002
1.269750e+003, 1.193496e+002
1.270232e+003, 1.197481e+002
1.270714e+003, 1.195510e+002
1.271196e+003, 1.189843e+002
1.271678e+003, 1.185497e+002
1.272160e+003, 1.181783e+002
1.272642e+003, 1.183946e+002
1.273124e+003, 1.192929e+002
1.273606e+003, 1.200540e+002
1.274089e+003, 1.199073e+002
1.274571e+003, 1.195297e+002
1.275053e+003, 1.195109e+002
1.275535e+003, 1.196890e+002
1.276017e+003, 1.197574e+002
1.276499e+003, 1.196860e+002
1.276981e+003, 1.196642e+002
1.277463e+003, 1.196954e+002
1.277946e+003, 1.197002e+002
1.278428e+003, 1.195935e+002
1.278910e+003, 1.194854e+002
1.279392e+003, 1.194470e+002
1.279874e+003, 1.194492e+002
1.280356e+003, 1.194345e+002
1.280838e+003, 1.194076e+002
1.281320e+003, 1.195961e+002
1.281802e+003, 1.199673e+002
1.282285e+003, 1.202208e+002
1.282767e+003, 1.200418e+002
1.283249e+003, 1.199143e+002
1.283731e+003, 1.200566e+002
1.284213e+003, 1.202694e+002
1.284695e+003, 1.203824e+002
1.285177e+003, 1.204158e+002
1.285659e+003, 1.204218e+002
1.286141e+003, 1.204310e+002
1.286624e+003, 1.205660e+002
1.287106e+003, 1.211077e+002
1.287588e+003, 1.214081e+002
1.288070e+003, 1.212792e+002
1.288552e+003, 1.211302e+002
1.289034e+003, 1.213865e+002
1.289516e+003, 1.218267e+002
1.289998e+003, 1.219275e+002
1.290481e+003, 1.217955e+002
1.290963e+003, 1.217107e+002
1.291445e+003, 1.218510e+002
1.291927e+003, 1.218470e+002
1.292409e+003, 1.216618e+002
1.292891e+003, 1.214733e+002
1.293373e+003, 1.213214e+002
1.293855e+003, 1.213107e+002
1.294338e+003, 1.217131e+002
1.294820e+003, 1.223123e+002
1.295302e+003, 1.226906e+002
1.295784e+003, 1.228116e+002
1.296266e+003, 1.227391e+002
1.296748e+003, 1.224573e+002
1.297230e+003, 1.222612e+002
1.297712e+003, 1.223801e+002
1.298194e+003, 1.225948e+002
1.298677e+003, 1.227386e+002
1.299159e+003, 1.228743e+002
1.299641e+003, 1.231203e+002
1.300123e+003, 1.234870e+002
1.300605e+003, 1.234084e+002
1.301087e+003, 1.229336e+002
1.301569e+003, 1.225037e+002
1.302051e+003, 1.222772e+002
1.302533e+003, 1.222183e+002
1.303016e+003, 1.223313e+002
##END=



