##NAMES=Metazeunerite
##RRUFFID=R070314
##IDEAL CHEMISTRY=Cu^2+^(U^6+^O_2_)_2_(As^5+^O_4_)_2_&#183;8H_2_O
##LOCALITY=Mylar mine, Majuba Hill, Antelope District, Pershing County, Nevada, USA
##OWNER=RRUFF
##SOURCE=James Shigley
##DESCRIPTION=Green tabular crystals in quartz
##STATUS=The identification of this mineral has been confirmed by single-crystal X-ray diffraction.
##URL=rruff.info/R070314
157.3757, 11714.56
157.8578, 11824.05
158.3399, 11931.03
158.8221, 12030.85
159.3042, 12121.55
159.7863, 12195.81
160.2684, 12267.47
160.7505, 12346.68
161.2326, 12431.38
161.7148, 12499.81
162.1969, 12511.75
162.6790, 12515.19
163.1611, 12556.12
163.6432, 12696.10
164.1253, 12840.78
164.6075, 12932.40
165.0896, 12968.61
165.5717, 13009.85
166.0538, 13099.00
166.5359, 13212.92
167.0180, 13318.55
167.5002, 13371.56
167.9823, 13431.08
168.4644, 13552.81
168.9465, 13749.07
169.4286, 13950.26
169.9107, 14100.28
170.3929, 14216.79
170.8750, 14340.94
171.3571, 14497.95
171.8392, 14669.88
172.3213, 14835.95
172.8034, 14989.01
173.2856, 15145.62
173.7677, 15326.03
174.2498, 15524.89
174.7319, 15720.43
175.2140, 15889.24
175.6961, 16048.96
176.1783, 16227.68
176.6604, 16433.41
177.1425, 16650.50
177.6246, 16860.02
178.1067, 17061.59
178.5888, 17267.01
179.0710, 17477.61
179.5531, 17695.14
180.0352, 17921.22
180.5173, 18155.94
180.9994, 18397.36
181.4815, 18643.24
181.9637, 18895.13
182.4458, 19134.33
182.9279, 19351.01
183.4100, 19544.72
183.8921, 19719.84
184.3742, 19890.88
184.8564, 20038.73
185.3385, 20121.41
185.8206, 20140.34
186.3027, 20085.75
186.7848, 19934.18
187.2669, 19692.13
187.7491, 19405.72
188.2312, 19078.86
188.7133, 18721.12
189.1954, 18352.20
189.6775, 17969.74
190.1596, 17597.13
190.6418, 17249.23
191.1239, 16928.19
191.6060, 16650.21
192.0881, 16427.75
192.5702, 16257.51
193.0524, 16113.97
193.5345, 16000.58
194.0166, 15905.67
194.4987, 15810.06
194.9808, 15712.38
195.4629, 15634.75
195.9451, 15596.80
196.4272, 15597.11
196.9093, 15586.29
197.3914, 15559.06
197.8735, 15526.57
198.3556, 15511.17
198.8378, 15515.02
199.3199, 15522.42
199.8020, 15523.84
200.2841, 15518.41
200.7662, 15520.72
201.2483, 15534.77
201.7305, 15554.10
202.2126, 15557.11
202.6947, 15536.17
203.1768, 15527.38
203.6589, 15560.39
204.1410, 15642.94
204.6232, 15710.04
205.1053, 15754.13
205.5874, 15779.93
206.0695, 15799.50
206.5516, 15808.19
207.0337, 15822.91
207.5159, 15856.85
207.9980, 15912.53
208.4801, 15973.26
208.9622, 16040.39
209.4443, 16110.93
209.9264, 16169.95
210.4086, 16215.67
210.8907, 16253.57
211.3728, 16285.77
211.8549, 16310.04
212.3370, 16337.59
212.8191, 16372.74
213.3013, 16413.46
213.7834, 16444.18
214.2655, 16460.79
214.7476, 16474.05
215.2297, 16493.87
215.7118, 16524.26
216.1940, 16550.85
216.6761, 16571.89
217.1582, 16587.42
217.6403, 16596.10
218.1224, 16600.03
218.6045, 16594.25
219.0867, 16572.10
219.5688, 16527.56
220.0509, 16481.07
220.5330, 16437.73
221.0151, 16397.07
221.4972, 16352.77
221.9794, 16297.01
222.4615, 16245.88
222.9436, 16219.86
223.4257, 16237.23
223.9078, 16241.25
224.3899, 16214.36
224.8721, 16152.74
225.3542, 16107.27
225.8363, 16087.22
226.3184, 16074.14
226.8005, 16040.79
227.2827, 15962.09
227.7648, 15912.87
228.2469, 15925.00
228.7290, 16012.40
229.2111, 16049.14
229.6932, 16007.12
230.1754, 15936.85
230.6575, 15906.38
231.1396, 15941.01
231.6217, 15970.87
232.1038, 15972.89
232.5859, 15938.32
233.0681, 15924.18
233.5502, 15940.06
234.0323, 15969.42
234.5144, 15987.66
234.9965, 15985.70
235.4786, 15987.91
235.9608, 16003.65
236.4429, 16037.34
236.9250, 16061.49
237.4071, 16065.32
237.8892, 16066.19
238.3713, 16096.62
238.8535, 16187.02
239.3356, 16255.57
239.8177, 16268.12
240.2998, 16201.76
240.7819, 16169.01
241.2640, 16183.95
241.7462, 16223.75
242.2283, 16248.15
242.7104, 16245.08
243.1925, 16246.63
243.6746, 16266.93
244.1567, 16317.27
244.6389, 16347.13
245.1210, 16350.06
245.6031, 16336.41
246.0852, 16323.86
246.5673, 16313.49
247.0494, 16302.21
247.5316, 16286.23
248.0137, 16258.63
248.4958, 16251.92
248.9779, 16278.61
249.4600, 16319.21
249.9421, 16335.04
250.4243, 16312.07
250.9064, 16289.68
251.3885, 16282.71
251.8706, 16295.83
252.3527, 16308.77
252.8348, 16320.09
253.3170, 16332.09
253.7991, 16349.04
254.2812, 16370.92
254.7633, 16397.58
255.2454, 16433.69
255.7275, 16488.72
256.2097, 16514.12
256.6918, 16495.99
257.1739, 16457.51
257.6560, 16439.66
258.1381, 16442.82
258.6202, 16466.31
259.1024, 16518.39
259.5845, 16613.43
260.0666, 16672.57
260.5487, 16681.27
261.0308, 16664.93
261.5129, 16669.80
261.9951, 16699.76
262.4772, 16741.84
262.9593, 16795.39
263.4414, 16867.15
263.9235, 16918.23
264.4056, 16941.06
264.8878, 16950.81
265.3699, 16973.98
265.8520, 17012.45
266.3341, 17059.73
266.8162, 17119.39
267.2983, 17196.26
267.7805, 17247.79
268.2626, 17262.75
268.7447, 17264.36
269.2268, 17292.04
269.7089, 17349.13
270.1910, 17420.33
270.6732, 17508.68
271.1553, 17618.31
271.6374, 17700.11
272.1195, 17752.51
272.6016, 17779.45
273.0837, 17777.30
273.5659, 17738.35
274.0480, 17709.90
274.5301, 17716.79
275.0122, 17760.86
275.4943, 17783.31
275.9764, 17777.44
276.4586, 17762.59
276.9407, 17771.64
277.4228, 17808.01
277.9049, 17837.64
278.3870, 17846.34
278.8691, 17834.79
279.3513, 17817.88
279.8334, 17794.32
280.3155, 17768.73
280.7976, 17749.03
281.2798, 17735.86
281.7619, 17717.88
282.2440, 17685.84
282.7261, 17643.14
283.2082, 17618.74
283.6903, 17616.04
284.1725, 17619.07
284.6546, 17605.62
285.1367, 17576.57
285.6188, 17552.23
286.1009, 17540.90
286.5830, 17540.21
287.0652, 17538.40
287.5473, 17534.40
288.0294, 17535.86
288.5115, 17555.19
288.9936, 17590.29
289.4757, 17623.56
289.9579, 17654.55
290.4400, 17678.34
290.9221, 17676.67
291.4042, 17647.88
291.8863, 17614.68
292.3684, 17596.94
292.8506, 17593.58
293.3327, 17599.71
293.8148, 17616.90
294.2969, 17640.85
294.7790, 17663.46
295.2611, 17684.83
295.7433, 17707.41
296.2254, 17741.04
296.7075, 17778.85
297.1896, 17798.65
297.6717, 17780.74
298.1538, 17753.73
298.6360, 17770.56
299.1181, 17827.30
299.6002, 17875.77
300.0823, 17855.48
300.5644, 17803.64
301.0465, 17793.36
301.5287, 17860.95
302.0108, 17956.09
302.4929, 18020.49
302.9750, 18059.92
303.4571, 18103.88
303.9392, 18178.22
304.4214, 18267.69
304.9035, 18353.10
305.3856, 18425.30
305.8677, 18496.67
306.3498, 18571.72
306.8319, 18652.15
307.3141, 18745.87
307.7962, 18861.00
308.2783, 18988.72
308.7604, 19122.01
309.2425, 19255.52
309.7246, 19397.08
310.2068, 19562.51
310.6889, 19741.73
311.1710, 19910.52
311.6531, 20006.21
312.1352, 20118.28
312.6173, 20328.36
313.0995, 20685.46
313.5816, 21027.76
314.0637, 21256.78
314.5458, 21421.06
315.0279, 21614.00
315.5100, 21904.37
315.9922, 22207.96
316.4743, 22481.62
316.9564, 22717.41
317.4385, 22935.42
317.9206, 23147.15
318.4027, 23343.94
318.8849, 23513.69
319.3670, 23695.06
319.8491, 23811.99
320.3312, 23841.25
320.8133, 23781.72
321.2954, 23627.91
321.7776, 23354.35
322.2597, 22995.24
322.7418, 22587.00
323.2239, 22067.73
323.7060, 21566.75
324.1881, 21105.17
324.6703, 20682.65
325.1524, 20313.82
325.6345, 20009.59
326.1166, 19758.72
326.5987, 19549.77
327.0808, 19407.84
327.5630, 19278.11
328.0451, 19150.14
328.5272, 19025.09
329.0093, 18929.58
329.4914, 18891.76
329.9735, 18860.10
330.4557, 18798.56
330.9378, 18670.72
331.4199, 18577.24
331.9020, 18536.40
332.3841, 18537.29
332.8662, 18525.40
333.3484, 18490.49
333.8305, 18458.54
334.3126, 18448.34
334.7947, 18475.30
335.2768, 18472.73
335.7589, 18420.00
336.2411, 18345.52
336.7232, 18328.72
337.2053, 18392.06
337.6874, 18447.85
338.1695, 18443.37
338.6516, 18367.30
339.1338, 18333.75
339.6159, 18354.76
340.0980, 18403.07
340.5801, 18434.55
341.0622, 18448.40
341.5443, 18455.43
342.0265, 18453.25
342.5086, 18444.74
342.9907, 18461.91
343.4728, 18509.47
343.9549, 18563.68
344.4370, 18605.03
344.9192, 18631.61
345.4013, 18622.32
345.8834, 18542.77
346.3655, 18429.43
346.8476, 18388.01
347.3297, 18420.17
347.8119, 18475.66
348.2940, 18516.10
348.7761, 18543.24
349.2582, 18560.76
349.7403, 18565.42
350.2225, 18565.89
350.7046, 18573.71
351.1867, 18588.56
351.6688, 18607.39
352.1509, 18633.25
352.6331, 18660.41
353.1152, 18680.57
353.5973, 18692.38
354.0794, 18695.89
354.5615, 18677.77
355.0436, 18648.51
355.5258, 18640.04
356.0079, 18695.98
356.4900, 18765.92
356.9721, 18802.61
357.4542, 18790.05
357.9363, 18773.96
358.4185, 18782.08
358.9006, 18803.77
359.3827, 18820.63
359.8648, 18816.13
360.3469, 18812.37
360.8290, 18824.67
361.3112, 18857.75
361.7933, 18881.88
362.2754, 18873.97
362.7575, 18857.55
363.2396, 18858.17
363.7217, 18891.10
364.2039, 18932.14
364.6860, 18983.86
365.1681, 19046.38
365.6502, 19086.17
366.1323, 19081.78
366.6144, 19064.59
367.0966, 19056.10
367.5787, 19059.92
368.0608, 19069.07
368.5429, 19084.42
369.0250, 19105.25
369.5071, 19128.05
369.9893, 19157.51
370.4714, 19183.41
370.9535, 19200.05
371.4356, 19201.91
371.9177, 19205.78
372.3998, 19207.73
372.8820, 19213.99
373.3641, 19243.14
373.8462, 19308.20
374.3283, 19362.08
374.8104, 19381.23
375.2925, 19362.02
375.7747, 19350.65
376.2568, 19344.52
376.7389, 19351.12
377.2210, 19388.89
377.7031, 19460.87
378.1852, 19519.89
378.6674, 19548.21
379.1495, 19552.32
379.6316, 19558.33
380.1137, 19565.69
380.5958, 19579.58
381.0779, 19612.11
381.5601, 19658.23
382.0422, 19688.53
382.5243, 19689.71
383.0064, 19681.57
383.4885, 19698.71
383.9706, 19738.66
384.4528, 19781.90
384.9349, 19808.87
385.4170, 19832.36
385.8991, 19880.18
386.3812, 19966.09
386.8633, 20046.61
387.3455, 20074.70
387.8276, 20066.15
388.3097, 20057.40
388.7918, 20064.77
389.2739, 20080.58
389.7560, 20097.36
390.2382, 20113.87
390.7203, 20139.41
391.2024, 20184.41
391.6845, 20239.18
392.1666, 20293.22
392.6487, 20344.21
393.1309, 20392.39
393.6130, 20440.77
394.0951, 20488.49
394.5772, 20523.40
395.0593, 20534.55
395.5414, 20536.96
396.0236, 20539.80
396.5057, 20519.49
396.9878, 20529.29
397.4699, 20601.04
397.9520, 20710.16
398.4341, 20778.74
398.9163, 20783.45
399.3984, 20771.52
399.8805, 20756.66
400.3626, 20733.56
400.8447, 20723.74
401.3268, 20731.36
401.8090, 20749.19
402.2911, 20769.23
402.7732, 20795.32
403.2553, 20813.15
403.7374, 20818.84
404.2195, 20812.62
404.7017, 20797.33
405.1838, 20770.80
405.6659, 20740.79
406.1480, 20712.93
406.6301, 20687.03
407.1122, 20665.61
407.5944, 20648.82
408.0765, 20637.04
408.5586, 20634.59
409.0407, 20641.22
409.5228, 20645.05
410.0049, 20634.71
410.4871, 20615.45
410.9692, 20600.91
411.4513, 20592.00
411.9334, 20589.80
412.4155, 20598.34
412.8976, 20615.09
413.3798, 20632.22
413.8619, 20648.09
414.3440, 20661.73
414.8261, 20671.90
415.3082, 20678.63
415.7903, 20683.91
416.2725, 20685.64
416.7546, 20687.98
417.2367, 20695.49
417.7188, 20704.25
418.2009, 20724.22
418.6830, 20767.13
419.1652, 20827.11
419.6473, 20880.94
420.1294, 20916.98
420.6115, 20948.16
421.0937, 20982.55
421.5758, 21024.33
422.0579, 21061.07
422.5400, 21082.46
423.0221, 21099.70
423.5042, 21131.83
423.9864, 21195.46
424.4685, 21255.44
424.9506, 21300.05
425.4327, 21326.06
425.9148, 21373.18
426.3969, 21455.02
426.8791, 21542.41
427.3612, 21608.04
427.8433, 21644.34
428.3254, 21681.06
428.8075, 21718.37
429.2896, 21760.30
429.7718, 21823.07
430.2539, 21910.34
430.7360, 21999.27
431.2181, 22073.01
431.7002, 22133.07
432.1823, 22198.33
432.6645, 22266.72
433.1466, 22350.72
433.6287, 22479.02
434.1108, 22642.12
434.5929, 22793.40
435.0750, 22900.80
435.5572, 22988.55
436.0393, 23103.89
436.5214, 23245.38
437.0035, 23382.24
437.4856, 23478.13
437.9677, 23556.85
438.4499, 23652.81
438.9320, 23785.21
439.4141, 23918.96
439.8962, 24023.33
440.3783, 24108.51
440.8604, 24203.91
441.3426, 24329.54
441.8247, 24462.37
442.3068, 24596.28
442.7889, 24737.25
443.2710, 24846.75
443.7531, 24884.52
444.2353, 24897.03
444.7174, 24936.34
445.1995, 25061.85
445.6816, 25156.88
446.1637, 25193.22
446.6458, 25175.84
447.1280, 25158.54
447.6101, 25144.50
448.0922, 25126.97
448.5743, 25102.56
449.0564, 25070.42
449.5385, 25032.95
450.0207, 24990.54
450.5028, 24942.76
450.9849, 24891.62
451.4670, 24840.30
451.9491, 24770.93
452.4312, 24663.92
452.9134, 24528.26
453.3955, 24437.60
453.8776, 24397.35
454.3597, 24365.28
454.8418, 24300.23
455.3239, 24208.15
455.8061, 24116.54
456.2882, 24031.22
456.7703, 23947.88
457.2524, 23851.11
457.7345, 23747.73
458.2166, 23663.62
458.6988, 23636.24
459.1809, 23625.98
459.6630, 23588.16
460.1451, 23514.58
460.6272, 23437.40
461.1093, 23374.05
461.5915, 23320.08
462.0736, 23271.30
462.5557, 23216.83
463.0378, 23176.48
463.5199, 23175.70
464.0020, 23205.69
464.4842, 23200.89
464.9663, 23110.94
465.4484, 23009.87
465.9305, 22937.45
466.4126, 22919.05
466.8947, 22884.31
467.3769, 22807.05
467.8590, 22724.98
468.3411, 22705.26
468.8232, 22785.68
469.3053, 22854.20
469.7874, 22883.29
470.2696, 22874.03
470.7517, 22838.17
471.2338, 22765.61
471.7159, 22697.78
472.1980, 22681.39
472.6801, 22714.72
473.1623, 22722.16
473.6444, 22685.82
474.1265, 22633.41
474.6086, 22611.77
475.0907, 22617.71
475.5728, 22630.57
476.0550, 22647.84
476.5371, 22662.18
477.0192, 22660.36
477.5013, 22641.86
477.9834, 22615.96
478.4655, 22577.86
478.9477, 22540.28
479.4298, 22521.08
479.9119, 22537.45
480.3940, 22557.93
480.8761, 22567.83
481.3582, 22569.14
481.8404, 22567.35
482.3225, 22566.91
482.8046, 22561.58
483.2867, 22544.49
483.7688, 22506.56
484.2509, 22486.56
484.7331, 22507.81
485.2152, 22538.15
485.6973, 22546.56
486.1794, 22512.60
486.6615, 22492.95
487.1436, 22504.85
487.6258, 22537.51
488.1079, 22529.61
488.5900, 22458.44
489.0721, 22409.98
489.5542, 22453.04
490.0363, 22589.03
490.5185, 22657.92
491.0006, 22644.93
491.4827, 22598.61
491.9648, 22573.67
492.4470, 22568.36
492.9291, 22575.10
493.4112, 22595.98
493.8933, 22623.35
494.3754, 22645.11
494.8575, 22662.18
495.3397, 22679.05
495.8218, 22715.64
496.3039, 22745.60
496.7860, 22728.03
497.2681, 22638.21
497.7502, 22574.76
498.2324, 22621.06
498.7145, 22716.21
499.1966, 22778.26
499.6787, 22752.03
500.1608, 22719.87
500.6429, 22703.21
501.1251, 22702.26
501.6072, 22709.62
502.0893, 22744.56
502.5714, 22770.25
503.0535, 22765.94
503.5356, 22708.17
504.0178, 22676.20
504.4999, 22672.84
504.9820, 22693.26
505.4641, 22737.65
505.9462, 22813.39
506.4283, 22873.82
506.9105, 22902.63
507.3926, 22906.14
507.8747, 22908.98
508.3568, 22911.34
508.8389, 22908.80
509.3210, 22896.97
509.8032, 22877.65
510.2853, 22850.46
510.7674, 22810.37
511.2495, 22783.85
511.7316, 22812.93
512.2137, 22875.07
512.6959, 22923.87
513.1780, 22935.13
513.6601, 22931.14
514.1422, 22923.24
514.6243, 22911.84
515.1064, 22898.20
515.5886, 22876.56
516.0707, 22857.16
516.5528, 22846.29
517.0349, 22845.23
517.5170, 22851.39
517.9991, 22873.35
518.4813, 22898.97
518.9634, 22911.12
519.4455, 22893.32
519.9276, 22891.27
520.4097, 22921.35
520.8918, 22976.31
521.3740, 23009.73
521.8561, 23016.57
522.3382, 23018.54
522.8203, 23031.48
523.3024, 23054.23
523.7845, 23066.13
524.2667, 23063.78
524.7488, 23059.39
525.2309, 23076.68
525.7130, 23106.41
526.1951, 23114.64
526.6772, 23069.94
527.1594, 23016.92
527.6415, 23013.46
528.1236, 23050.19
528.6057, 23085.91
529.0878, 23097.86
529.5699, 23099.12
530.0521, 23097.85
530.5342, 23094.23
531.0163, 23092.33
531.4984, 23094.23
531.9805, 23098.19
532.4626, 23102.36
532.9448, 23095.81
533.4269, 23102.83
533.9090, 23134.13
534.3911, 23181.83
534.8732, 23213.52
535.3553, 23223.66
535.8375, 23228.83
536.3196, 23238.81
536.8017, 23254.82
537.2838, 23246.69
537.7659, 23206.59
538.2480, 23167.93
538.7302, 23174.12
539.2123, 23218.19
539.6944, 23250.61
540.1765, 23257.70
540.6586, 23253.98
541.1407, 23258.15
541.6229, 23268.81
542.1050, 23280.96
542.5871, 23292.50
543.0692, 23303.96
543.5513, 23319.29
544.0334, 23338.41
544.5156, 23346.58
544.9977, 23306.99
545.4798, 23270.83
545.9619, 23282.05
546.4440, 23407.29
546.9261, 23493.17
547.4083, 23482.87
547.8904, 23427.31
548.3725, 23420.46
548.8546, 23500.38
549.3367, 23566.55
549.8188, 23593.91
550.3010, 23584.96
550.7831, 23565.75
551.2652, 23533.14
551.7473, 23500.74
552.2294, 23474.91
552.7115, 23456.34
553.1937, 23455.86
553.6758, 23476.54
554.1579, 23506.20
554.6400, 23530.09
555.1221, 23550.87
555.6042, 23575.83
556.0864, 23610.73
556.5685, 23648.14
557.0506, 23687.54
557.5327, 23725.09
558.0148, 23745.72
558.4969, 23726.87
558.9791, 23700.24
559.4612, 23685.10
559.9433, 23685.38
560.4254, 23687.50
560.9075, 23680.32
561.3896, 23679.10
561.8718, 23697.89
562.3539, 23756.36
562.8360, 23800.94
563.3181, 23822.08
563.8002, 23829.26
564.2823, 23849.54
564.7645, 23889.14
565.2466, 23911.98
565.7287, 23891.57
566.2108, 23841.67
566.6929, 23836.16
567.1750, 23876.65
567.6572, 23925.93
568.1393, 23955.28
568.6214, 23970.14
569.1035, 23979.04
569.5856, 23982.25
570.0677, 23984.38
570.5499, 23985.04
571.0320, 23988.04
571.5141, 23999.39
571.9962, 24036.43
572.4783, 24067.16
572.9604, 24073.47
573.4426, 24060.19
573.9247, 24053.04
574.4068, 24048.04
574.8889, 24058.08
575.3710, 24095.98
575.8531, 24173.66
576.3353, 24211.41
576.8174, 24192.54
577.2995, 24157.94
577.7816, 24147.28
578.2637, 24163.19
578.7458, 24174.53
579.2280, 24173.92
579.7101, 24172.17
580.1922, 24194.35
580.6743, 24235.61
581.1564, 24268.51
581.6385, 24266.42
582.1207, 24256.29
582.6028, 24281.72
583.0849, 24337.18
583.5670, 24380.80
584.0491, 24375.91
584.5313, 24356.92
585.0134, 24349.75
585.4955, 24359.89
585.9776, 24376.74
586.4597, 24413.75
586.9418, 24449.23
587.4240, 24456.57
587.9061, 24400.00
588.3882, 24371.78
588.8703, 24395.20
589.3524, 24449.62
589.8345, 24471.06
590.3167, 24450.56
590.7988, 24431.00
591.2809, 24425.14
591.7630, 24434.80
592.2451, 24483.01
592.7272, 24571.76
593.2094, 24650.55
593.6915, 24658.93
594.1736, 24631.23
594.6557, 24639.08
595.1378, 24702.87
595.6199, 24763.84
596.1021, 24771.07
596.5842, 24749.39
597.0663, 24734.13
597.5485, 24742.39
598.0306, 24753.55
598.5127, 24756.04
598.9948, 24754.68
599.4769, 24771.05
599.9590, 24823.17
600.4412, 24873.02
600.9233, 24909.49
601.4054, 24932.68
601.8875, 24941.60
602.3696, 24931.13
602.8517, 24918.73
603.3339, 24916.88
603.8160, 24925.52
604.2981, 24950.01
604.7802, 24995.28
605.2623, 25040.33
605.7444, 25051.65
606.2266, 25040.22
606.7087, 25035.14
607.1908, 25053.45
607.6729, 25075.63
608.1550, 25081.07
608.6371, 25076.59
609.1193, 25084.61
609.6014, 25129.96
610.0835, 25176.32
610.5656, 25205.32
611.0477, 25213.85
611.5298, 25220.24
612.0120, 25220.62
612.4941, 25223.57
612.9762, 25233.58
613.4583, 25248.89
613.9404, 25282.58
614.4225, 25347.02
614.9047, 25408.71
615.3868, 25406.37
615.8689, 25346.08
616.3510, 25310.66
616.8331, 25334.75
617.3152, 25382.25
617.7974, 25397.05
618.2795, 25386.38
618.7616, 25379.18
619.2437, 25385.77
619.7258, 25406.00
620.2079, 25450.63
620.6901, 25519.24
621.1722, 25566.70
621.6543, 25553.00
622.1364, 25530.20
622.6185, 25534.13
623.1006, 25586.70
623.5828, 25621.11
624.0649, 25629.88
624.5470, 25627.31
625.0291, 25627.40
625.5112, 25628.08
625.9933, 25644.43
626.4755, 25683.80
626.9576, 25733.71
627.4397, 25778.07
627.9218, 25814.06
628.4039, 25820.07
628.8860, 25741.42
629.3682, 25649.65
629.8503, 25661.00
630.3324, 25762.04
630.8145, 25850.31
631.2966, 25855.27
631.7787, 25832.79
632.2609, 25816.18
632.7430, 25804.69
633.2251, 25819.73
633.7072, 25901.26
634.1893, 25988.88
634.6714, 26031.35
635.1536, 26005.21
635.6357, 25984.98
636.1178, 25976.04
636.5999, 25975.48
637.0820, 25984.11
637.5641, 26002.86
638.0463, 26000.97
638.5284, 25945.83
639.0105, 25883.62
639.4926, 25926.18
639.9747, 26056.49
640.4568, 26174.25
640.9390, 26221.11
641.4211, 26227.00
641.9032, 26206.53
642.3853, 26161.04
642.8674, 26134.74
643.3495, 26161.55
643.8317, 26202.91
644.3138, 26232.78
644.7959, 26243.92
645.2780, 26250.43
645.7601, 26245.61
646.2422, 26242.00
646.7244, 26259.86
647.2065, 26307.12
647.6886, 26332.83
648.1707, 26324.10
648.6528, 26294.76
649.1349, 26261.03
649.6171, 26226.58
650.0992, 26215.90
650.5813, 26261.68
651.0634, 26324.22
651.5455, 26351.21
652.0276, 26349.04
652.5098, 26350.57
652.9919, 26370.82
653.4740, 26402.26
653.9561, 26445.30
654.4382, 26504.27
654.9203, 26547.65
655.4025, 26568.61
655.8846, 26575.39
656.3667, 26570.65
656.8488, 26547.41
657.3309, 26533.69
657.8130, 26531.41
658.2952, 26536.85
658.7773, 26546.62
659.2594, 26560.39
659.7415, 26574.26
660.2236, 26589.38
660.7057, 26600.49
661.1879, 26590.78
661.6700, 26569.74
662.1521, 26564.02
662.6342, 26603.58
663.1163, 26647.86
663.5984, 26672.91
664.0806, 26679.61
664.5627, 26681.01
665.0448, 26668.35
665.5269, 26662.23
666.0090, 26674.64
666.4911, 26709.78
666.9733, 26730.32
667.4554, 26731.24
667.9375, 26727.53
668.4196, 26729.51
668.9017, 26737.27
669.3839, 26756.01
669.8660, 26789.09
670.3481, 26819.11
670.8302, 26819.30
671.3123, 26801.58
671.7944, 26791.34
672.2766, 26796.50
672.7587, 26811.27
673.2408, 26846.04
673.7229, 26886.08
674.2050, 26903.26
674.6871, 26843.48
675.1693, 26810.38
675.6514, 26851.10
676.1335, 26947.25
676.6156, 27002.81
677.0977, 27008.71
677.5798, 26993.52
678.0620, 26956.27
678.5441, 26903.09
679.0262, 26907.73
679.5083, 26973.71
679.9904, 27040.86
680.4725, 27058.65
680.9547, 27045.61
681.4368, 27030.05
681.9189, 27014.04
682.4010, 27007.93
682.8831, 27034.32
683.3652, 27066.64
683.8474, 27077.01
684.3295, 27042.87
684.8116, 27012.47
685.2937, 26976.84
685.7758, 26955.86
686.2579, 26983.44
686.7401, 27085.92
687.2222, 27166.10
687.7043, 27210.36
688.1864, 27218.18
688.6685, 27164.92
689.1506, 27056.22
689.6328, 26983.56
690.1149, 27003.39
690.5970, 27072.51
691.0791, 27138.73
691.5612, 27200.22
692.0433, 27246.00
692.5255, 27265.99
693.0076, 27273.04
693.4897, 27270.77
693.9718, 27258.19
694.4539, 27255.02
694.9360, 27271.03
695.4182, 27290.44
695.9003, 27304.65
696.3824, 27311.01
696.8645, 27324.09
697.3466, 27346.71
697.8287, 27368.62
698.3109, 27375.23
698.7930, 27370.14
699.2751, 27373.81
699.7572, 27391.75
700.2393, 27411.65
700.7214, 27421.90
701.2036, 27425.02
701.6857, 27424.90
702.1678, 27408.70
702.6499, 27406.12
703.1320, 27442.60
703.6141, 27500.57
704.0963, 27534.81
704.5784, 27520.19
705.0605, 27517.87
705.5426, 27546.80
706.0247, 27597.65
706.5068, 27627.17
706.9890, 27633.59
707.4711, 27634.88
707.9532, 27640.01
708.4353, 27646.86
708.9174, 27645.18
709.3995, 27636.73
709.8817, 27639.23
710.3638, 27686.03
710.8459, 27735.41
711.3280, 27745.50
711.8101, 27707.55
712.2922, 27672.02
712.7744, 27635.23
713.2565, 27619.36
713.7386, 27641.91
714.2207, 27729.96
714.7028, 27784.38
715.1849, 27795.68
715.6671, 27790.74
716.1492, 27800.11
716.6313, 27822.30
717.1134, 27841.55
717.5955, 27856.72
718.0776, 27862.77
718.5598, 27843.34
719.0419, 27811.44
719.5240, 27792.20
720.0061, 27796.14
720.4882, 27812.57
720.9703, 27846.51
721.4525, 27888.79
721.9346, 27918.87
722.4167, 27936.17
722.8988, 27936.90
723.3809, 27906.65
723.8630, 27860.61
724.3452, 27867.42
724.8273, 27934.55
725.3094, 28000.13
725.7915, 28030.59
726.2736, 28039.94
726.7557, 28066.86
727.2379, 28108.71
727.7200, 28144.69
728.2021, 28160.76
728.6842, 28165.64
729.1663, 28162.05
729.6484, 28149.84
730.1306, 28146.91
730.6127, 28162.94
731.0948, 28186.13
731.5769, 28209.31
732.0590, 28231.00
732.5411, 28260.47
733.0233, 28299.36
733.5054, 28342.41
733.9875, 28390.34
734.4696, 28440.66
734.9517, 28472.43
735.4338, 28482.61
735.9160, 28480.11
736.3981, 28466.27
736.8802, 28448.05
737.3623, 28435.67
737.8444, 28432.42
738.3266, 28434.25
738.8087, 28437.48
739.2908, 28445.62
739.7729, 28463.77
740.2551, 28492.22
740.7372, 28531.34
741.2193, 28588.69
741.7014, 28650.46
742.1835, 28685.21
742.6656, 28692.52
743.1478, 28695.64
743.6299, 28698.79
744.1120, 28706.00
744.5941, 28722.23
745.0762, 28747.65
745.5583, 28783.35
746.0405, 28849.97
746.5226, 28907.98
747.0047, 28925.54
747.4868, 28910.80
747.9689, 28912.19
748.4510, 28942.84
748.9332, 28980.81
749.4153, 29022.03
749.8974, 29065.66
750.3795, 29103.97
750.8616, 29136.56
751.3438, 29165.80
751.8259, 29196.18
752.3080, 29223.51
752.7901, 29234.48
753.2722, 29229.71
753.7543, 29227.45
754.2365, 29235.46
754.7186, 29254.06
755.2007, 29280.97
755.6828, 29313.90
756.1649, 29369.46
756.6470, 29479.62
757.1292, 29588.16
757.6113, 29658.42
758.0934, 29678.70
758.5755, 29715.00
759.0576, 29771.66
759.5397, 29831.13
760.0219, 29874.38
760.5040, 29905.74
760.9861, 29932.62
761.4682, 29951.94
761.9503, 29989.00
762.4324, 30092.76
762.9146, 30213.64
763.3967, 30291.51
763.8788, 30274.15
764.3609, 30274.61
764.8430, 30325.55
765.3251, 30395.10
765.8073, 30443.37
766.2894, 30456.03
766.7715, 30506.57
767.2536, 30613.54
767.7357, 30745.93
768.2178, 30850.78
768.7000, 30935.54
769.1821, 31031.36
769.6642, 31163.92
770.1463, 31287.22
770.6284, 31340.05
771.1105, 31357.83
771.5927, 31409.04
772.0748, 31551.86
772.5569, 31687.91
773.0390, 31792.87
773.5211, 31874.92
774.0032, 31946.49
774.4854, 31997.34
774.9675, 32079.11
775.4496, 32219.58
775.9317, 32390.02
776.4138, 32515.96
776.8959, 32603.48
777.3781, 32691.46
777.8602, 32790.68
778.3423, 32906.36
778.8244, 33049.41
779.3065, 33215.22
779.7886, 33384.38
780.2708, 33547.21
780.7529, 33716.84
781.2350, 33897.48
781.7171, 34089.53
782.1992, 34299.45
782.6813, 34528.81
783.1635, 34762.02
783.6456, 34986.08
784.1277, 35207.44
784.6098, 35448.82
785.0919, 35710.80
785.5740, 36005.36
786.0562, 36360.99
786.5383, 36741.56
787.0204, 37112.43
787.5025, 37474.56
787.9846, 37848.20
788.4667, 38234.90
788.9489, 38636.05
789.4310, 39044.30
789.9131, 39452.03
790.3952, 39957.05
790.8773, 40567.06
791.3594, 41219.54
791.8416, 41855.57
792.3237, 42493.99
792.8058, 43178.99
793.2879, 43918.43
793.7700, 44705.72
794.2521, 45485.23
794.7343, 46347.88
795.2164, 47362.77
795.6985, 48568.92
796.1806, 49850.16
796.6627, 51182.28
797.1448, 52603.24
797.6270, 54127.50
798.1091, 55758.24
798.5912, 57456.74
799.0733, 59233.64
799.5554, 61108.95
800.0375, 63104.39
800.5197, 65190.72
801.0018, 67332.02
801.4839, 69512.78
801.9660, 71741.70
802.4481, 74046.56
802.9302, 76387.97
803.4124, 78736.32
803.8945, 81102.03
804.3766, 83436.85
804.8587, 85718.75
805.3408, 87996.27
805.8229, 90375.00
806.3051, 92852.63
806.7872, 95091.84
807.2693, 97083.73
807.7514, 98750.99
808.2335, 100137.8
808.7156, 101132.3
809.1978, 101566.3
809.6799, 101395.9
810.1620, 100693.5
810.6441, 99389.99
811.1262, 97607.25
811.6083, 95465.97
812.0905, 92828.08
812.5726, 90136.53
813.0547, 87375.84
813.5368, 84660.67
814.0189, 82104.17
814.5010, 79714.06
814.9832, 77536.77
815.4653, 75600.81
815.9474, 73846.13
816.4295, 72207.01
816.9116, 70702.77
817.3937, 69358.19
817.8759, 68233.70
818.3580, 67188.96
818.8401, 66264.52
819.3222, 65375.40
819.8043, 64455.61
820.2864, 63530.11
820.7686, 62449.18
821.2507, 61199.99
821.7328, 59818.96
822.2149, 58349.01
822.6970, 56807.00
823.1791, 55191.32
823.6613, 53489.45
824.1434, 51807.94
824.6255, 50237.44
825.1076, 48731.82
825.5897, 47266.08
826.0718, 45733.23
826.5540, 44376.07
827.0361, 43212.11
827.5182, 42179.80
828.0003, 41186.73
828.4824, 40241.24
828.9645, 39383.28
829.4467, 38626.36
829.9288, 37950.55
830.4109, 37342.10
830.8930, 36799.07
831.3751, 36314.95
831.8572, 35907.54
832.3394, 35525.63
832.8215, 35148.29
833.3036, 34786.82
833.7857, 34443.33
834.2678, 34105.96
834.7499, 33839.37
835.2321, 33663.37
835.7142, 33526.46
836.1963, 33372.79
836.6784, 33203.74
837.1605, 33027.32
837.6426, 32845.07
838.1248, 32662.71
838.6069, 32474.18
839.0890, 32293.12
839.5711, 32136.14
840.0532, 32000.71
840.5353, 31904.01
841.0175, 31864.12
841.4996, 31842.98
841.9817, 31806.44
842.4638, 31754.44
842.9459, 31680.89
843.4280, 31580.74
843.9102, 31482.45
844.3923, 31424.63
844.8744, 31387.01
845.3565, 31334.74
845.8386, 31253.37
846.3207, 31184.31
846.8029, 31143.07
847.2850, 31122.87
847.7671, 31119.29
848.2492, 31143.83
848.7313, 31151.40
849.2134, 31137.71
849.6956, 31117.77
850.1777, 31099.68
850.6598, 31087.28
851.1419, 31102.45
851.6240, 31151.65
852.1061, 31188.31
852.5883, 31168.26
853.0704, 31124.87
853.5525, 31088.56
854.0346, 31068.57
854.5167, 31041.49
854.9988, 31000.36
855.4810, 30959.23
855.9631, 30920.69
856.4452, 30884.21
856.9273, 30895.51
857.4094, 30958.87
857.8915, 31024.56
858.3737, 31046.42
858.8558, 31045.45
859.3379, 31045.06
859.8200, 31047.66
860.3021, 31056.22
860.7842, 31068.25
861.2664, 31090.14
861.7485, 31125.32
862.2306, 31175.09
862.7127, 31228.19
863.1948, 31284.83
863.6769, 31345.74
864.1591, 31433.36
864.6412, 31521.02
865.1233, 31523.58
865.6054, 31447.36
866.0875, 31404.71
866.5696, 31492.79
867.0518, 31610.61
867.5339, 31694.09
868.0160, 31737.76
868.4981, 31796.89
868.9802, 31890.15
869.4623, 31958.54
869.9445, 31950.49
870.4266, 31895.75
870.9087, 31940.42
871.3908, 32078.43
871.8729, 32237.22
872.3550, 32382.22
872.8372, 32522.97
873.3193, 32676.60
873.8014, 32837.63
874.2835, 32967.55
874.7656, 33015.21
875.2477, 33082.27
875.7299, 33199.81
876.2120, 33354.41
876.6941, 33499.46
877.1762, 33634.45
877.6583, 33769.10
878.1404, 33918.07
878.6226, 34056.09
879.1047, 34143.47
879.5869, 34192.35
880.0690, 34236.09
880.5511, 34267.22
881.0332, 34318.34
881.5153, 34416.31
881.9974, 34534.62
882.4796, 34623.24
882.9617, 34680.25
883.4438, 34717.91
883.9259, 34737.52
884.4080, 34741.50
884.8901, 34727.04
885.3723, 34700.14
885.8544, 34676.38
886.3365, 34676.93
886.8186, 34655.97
887.3007, 34587.79
887.7828, 34488.00
888.2650, 34377.77
888.7471, 34253.27
889.2292, 34133.26
889.7113, 34018.70
890.1934, 33909.75
890.6755, 33806.70
891.1577, 33708.47
891.6398, 33611.09
892.1219, 33517.47
892.6040, 33410.20
893.0861, 33256.14
893.5682, 33096.57
894.0504, 32972.20
894.5325, 32904.20
895.0146, 32838.11
895.4967, 32785.78
895.9788, 32713.85
896.4609, 32577.25
896.9431, 32390.78
897.4252, 32250.65
897.9073, 32162.37
898.3894, 32097.11
898.8715, 32044.28
899.3536, 31994.73
899.8358, 31938.36
900.3179, 31873.74
900.8000, 31815.82
901.2821, 31770.53
901.7642, 31726.20
902.2463, 31678.58
902.7285, 31627.84
903.2106, 31564.75
903.6927, 31490.22
904.1748, 31421.57
904.6569, 31367.87
905.1390, 31325.55
905.6212, 31299.77
906.1033, 31284.59
906.5854, 31253.44
907.0675, 31180.82
907.5496, 31112.83
908.0317, 31058.49
908.5139, 31017.11
908.9960, 30986.19
909.4781, 30965.90
909.9602, 30958.94
910.4423, 30982.00
910.9244, 30993.63
911.4066, 30919.77
911.8887, 30802.72
912.3708, 30719.38
912.8529, 30722.10
913.3350, 30729.26
913.8171, 30736.70
914.2993, 30733.85
914.7814, 30693.47
915.2635, 30609.14
915.7456, 30586.13
916.2277, 30654.36
916.7098, 30720.88
917.1920, 30654.58
917.6741, 30525.73
918.1562, 30438.38
918.6383, 30423.80
919.1204, 30417.68
919.6025, 30415.62
920.0847, 30403.25
920.5668, 30361.92
921.0489, 30280.28
921.5310, 30263.94
922.0131, 30321.62
922.4952, 30372.18
922.9774, 30327.39
923.4595, 30244.65
923.9416, 30217.39
924.4237, 30246.71
924.9058, 30260.51
925.3879, 30204.97
925.8701, 30153.78
926.3522, 30142.54
926.8343, 30164.67
927.3164, 30161.77
927.7985, 30129.60
928.2806, 30112.46
928.7628, 30143.78
929.2449, 30189.52
929.7270, 30196.20
930.2091, 30173.20
930.6912, 30146.09
931.1733, 30106.72
931.6555, 30087.09
932.1376, 30118.13
932.6197, 30165.80
933.1018, 30168.52
933.5839, 30118.55
934.0660, 30083.05
934.5482, 30076.73
935.0303, 30079.49
935.5124, 30055.01
935.9945, 30024.04
936.4766, 30028.80
936.9587, 30100.22
937.4409, 30148.48
937.9230, 30122.97
938.4051, 30079.64
938.8872, 30060.34
939.3693, 30068.45
939.8514, 30083.37
940.3336, 30106.61
940.8157, 30123.90
941.2978, 30115.31
941.7799, 30097.42
942.2620, 30095.57
942.7441, 30110.54
943.2263, 30125.86
943.7084, 30148.38
944.1905, 30154.32
944.6726, 30124.55
945.1547, 30068.98
945.6368, 30055.21
946.1190, 30085.76
946.6011, 30114.06
947.0832, 30117.98
947.5653, 30109.95
948.0474, 30101.85
948.5295, 30095.29
949.0117, 30093.97
949.4938, 30083.63
949.9759, 30101.53
950.4580, 30181.94
950.9401, 30272.45
951.4222, 30279.86
951.9044, 30202.30
952.3865, 30166.66
952.8686, 30201.71
953.3507, 30240.78
953.8328, 30189.91
954.3149, 30111.59
954.7971, 30092.64
955.2792, 30172.79
955.7613, 30222.60
956.2434, 30200.93
956.7255, 30170.16
957.2076, 30168.59
957.6898, 30195.24
958.1719, 30219.24
958.6540, 30240.51
959.1361, 30241.41
959.6182, 30181.51
960.1003, 30117.98
960.5825, 30107.10
961.0646, 30142.69
961.5467, 30177.77
962.0288, 30201.71
962.5109, 30227.79
962.9930, 30260.56
963.4752, 30295.51
963.9573, 30319.39
964.4394, 30333.77
964.9215, 30351.10
965.4036, 30382.50
965.8857, 30403.83
966.3679, 30376.18
966.8500, 30335.04
967.3321, 30328.49
967.8142, 30397.86
968.2963, 30438.06
968.7784, 30443.21
969.2606, 30429.55
969.7427, 30409.39
970.2248, 30383.96
970.7069, 30349.87
971.1890, 30307.40
971.6711, 30288.98
972.1533, 30341.48
972.6354, 30404.28
973.1175, 30423.82
973.5996, 30401.14
974.0817, 30442.36
974.5638, 30571.29
975.0460, 30678.58
975.5281, 30711.32
976.0102, 30701.73
976.4923, 30712.89
976.9744, 30740.01
977.4565, 30769.00
977.9387, 30813.69
978.4208, 30835.78
978.9029, 30798.90
979.3850, 30742.60
979.8671, 30718.80
980.3492, 30730.78
980.8314, 30764.19
981.3135, 30824.20
981.7956, 30875.50
982.2777, 30862.56
982.7598, 30824.36
983.2419, 30823.03
983.7241, 30873.91
984.2062, 30907.68
984.6883, 30866.34
985.1704, 30843.75
985.6525, 30902.87
986.1346, 31028.08
986.6168, 31033.78
987.0989, 30923.86
987.5810, 30820.55
988.0631, 30781.78
988.5452, 30792.06
989.0273, 30869.34
989.5095, 30983.15
989.9916, 31055.00
990.4737, 31061.21
990.9558, 31032.73
991.4379, 30957.55
991.9200, 30871.57
992.4022, 30832.45
992.8843, 30832.48
993.3664, 30839.34
993.8485, 30848.53
994.3306, 30854.73
994.8127, 30868.02
995.2949, 30867.22
995.7770, 30821.81
996.2591, 30719.17
996.7412, 30670.55
997.2233, 30690.55
997.7054, 30712.66
998.1876, 30683.02
998.6697, 30632.78
999.1518, 30638.40
999.6339, 30687.28
1000.116, 30728.78
1000.598, 30734.40
1001.080, 30735.69
1001.562, 30740.56
1002.044, 30749.47
1002.527, 30761.03
1003.009, 30774.11
1003.491, 30809.86
1003.973, 30877.63
1004.455, 30942.83
1004.937, 30974.29
1005.419, 30975.99
1005.901, 30941.81
1006.384, 30852.25
1006.866, 30810.48
1007.348, 30855.68
1007.830, 30906.39
1008.312, 30913.31
1008.794, 30885.74
1009.276, 30875.51
1009.758, 30882.41
1010.240, 30903.53
1010.723, 30953.34
1011.205, 31000.91
1011.687, 31020.24
1012.169, 31022.81
1012.651, 31042.30
1013.133, 31090.18
1013.615, 31121.75
1014.097, 31126.10
1014.580, 31123.54
1015.062, 31140.78
1015.544, 31171.73
1016.026, 31206.05
1016.508, 31242.11
1016.990, 31278.83
1017.472, 31323.55
1017.954, 31361.08
1018.436, 31381.40
1018.919, 31385.21
1019.401, 31383.46
1019.883, 31376.07
1020.365, 31395.02
1020.847, 31491.62
1021.329, 31596.04
1021.811, 31628.15
1022.293, 31613.89
1022.776, 31618.69
1023.258, 31681.48
1023.740, 31717.35
1024.222, 31707.49
1024.704, 31685.86
1025.186, 31712.26
1025.668, 31766.61
1026.150, 31769.32
1026.632, 31704.96
1027.115, 31651.60
1027.597, 31684.16
1028.079, 31720.14
1028.561, 31690.51
1029.043, 31599.51
1029.525, 31563.50
1030.007, 31587.96
1030.489, 31627.87
1030.972, 31673.53
1031.454, 31710.98
1031.936, 31712.35
1032.418, 31692.08
1032.900, 31681.11
1033.382, 31702.27
1033.864, 31714.31
1034.346, 31709.73
1034.828, 31699.36
1035.311, 31695.72
1035.793, 31697.49
1036.275, 31699.27
1036.757, 31700.66
1037.239, 31689.55
1037.721, 31644.72
1038.203, 31595.10
1038.685, 31555.16
1039.167, 31527.69
1039.650, 31532.78
1040.132, 31582.63
1040.614, 31608.74
1041.096, 31576.91
1041.578, 31528.02
1042.060, 31533.19
1042.542, 31568.12
1043.024, 31586.80
1043.507, 31566.36
1043.989, 31547.04
1044.471, 31537.22
1044.953, 31529.44
1045.435, 31522.20
1045.917, 31514.12
1046.399, 31468.77
1046.881, 31389.23
1047.364, 31345.97
1047.846, 31432.83
1048.328, 31529.58
1048.810, 31543.76
1049.292, 31494.13
1049.774, 31481.80
1050.256, 31524.00
1050.738, 31542.60
1051.220, 31516.41
1051.703, 31476.05
1052.185, 31459.34
1052.667, 31461.78
1053.149, 31479.18
1053.631, 31514.81
1054.113, 31545.43
1054.595, 31551.35
1055.077, 31567.71
1055.559, 31627.96
1056.042, 31716.90
1056.524, 31718.58
1057.006, 31642.90
1057.488, 31570.71
1057.970, 31537.25
1058.452, 31530.31
1058.934, 31557.02
1059.416, 31600.79
1059.899, 31628.84
1060.381, 31634.82
1060.863, 31650.02
1061.345, 31682.25
1061.827, 31701.25
1062.309, 31649.80
1062.791, 31578.04
1063.273, 31571.74
1063.755, 31636.10
1064.238, 31681.63
1064.720, 31662.20
1065.202, 31648.28
1065.684, 31658.38
1066.166, 31689.17
1066.648, 31746.75
1067.130, 31820.04
1067.612, 31860.17
1068.094, 31842.17
1068.577, 31809.84
1069.059, 31773.31
1069.541, 31746.44
1070.023, 31748.45
1070.505, 31791.99
1070.987, 31772.08
1071.469, 31678.28
1071.951, 31619.96
1072.434, 31724.94
1072.916, 31868.51
1073.398, 31896.47
1073.880, 31835.19
1074.362, 31784.95
1074.844, 31768.70
1075.326, 31761.30
1075.808, 31760.59
1076.291, 31766.09
1076.773, 31779.27
1077.255, 31797.90
1077.737, 31817.53
1078.219, 31837.76
1078.701, 31849.88
1079.183, 31833.38
1079.665, 31824.28
1080.147, 31844.88
1080.630, 31888.25
1081.112, 31909.85
1081.594, 31910.65
1082.076, 31922.21
1082.558, 31966.84
1083.040, 32006.62
1083.522, 32000.05
1084.004, 31971.38
1084.486, 31952.68
1084.969, 31948.39
1085.451, 31952.04
1085.933, 31966.36
1086.415, 31978.29
1086.897, 31971.44
1087.379, 31958.74
1087.861, 31970.57
1088.343, 31999.13
1088.826, 32009.76
1089.308, 31976.05
1089.790, 31938.35
1090.272, 31890.42
1090.754, 31858.41
1091.236, 31909.29
1091.718, 32017.14
1092.200, 32047.19
1092.682, 31972.76
1093.165, 31916.08
1093.647, 31979.72
1094.129, 32062.24
1094.611, 32101.96
1095.093, 32103.08
1095.575, 32092.54
1096.057, 32069.35
1096.539, 32060.01
1097.022, 32077.63
1097.504, 32106.71
1097.986, 32143.76
1098.468, 32177.06
1098.950, 32188.78
1099.432, 32168.17
1099.914, 32144.13
1100.396, 32110.85
1100.879, 32094.23
1101.361, 32128.69
1101.843, 32185.69
1102.325, 32215.80
1102.807, 32220.03
1103.289, 32204.22
1103.771, 32149.71
1104.253, 32101.22
1104.735, 32056.26
1105.218, 32031.85
1105.700, 32065.15
1106.182, 32142.60
1106.664, 32197.44
1107.146, 32222.69
1107.628, 32240.92
1108.110, 32263.11
1108.592, 32285.88
1109.074, 32316.93
1109.557, 32346.75
1110.039, 32322.73
1110.521, 32243.69
1111.003, 32192.10
1111.485, 32197.90
1111.967, 32221.80
1112.449, 32211.79
1112.931, 32208.31
1113.414, 32274.55
1113.896, 32447.83
1114.378, 32500.51
1114.860, 32404.27
1115.342, 32311.00
1115.824, 32314.32
1116.306, 32365.43
1116.788, 32402.12
1117.271, 32423.64
1117.753, 32428.67
1118.235, 32398.76
1118.717, 32377.02
1119.199, 32362.94
1119.681, 32363.15
1120.163, 32399.25
1120.645, 32452.73
1121.127, 32458.75
1121.609, 32420.73
1122.092, 32397.05
1122.574, 32431.41
1123.056, 32468.43
1123.538, 32494.51
1124.020, 32508.34
1124.502, 32497.86
1124.984, 32468.16
1125.466, 32467.27
1125.949, 32507.15
1126.431, 32546.70
1126.913, 32557.54
1127.395, 32556.88
1127.877, 32554.86
1128.359, 32552.31
1128.841, 32552.55
1129.323, 32555.83
1129.806, 32555.51
1130.288, 32542.52
1130.770, 32539.20
1131.252, 32582.92
1131.734, 32643.19
1132.216, 32679.81
1132.698, 32685.80
1133.180, 32673.91
1133.662, 32638.28
1134.145, 32609.92
1134.627, 32613.12
1135.109, 32632.56
1135.591, 32654.27
1136.073, 32672.11
1136.555, 32670.01
1137.037, 32609.85
1137.519, 32581.44
1138.001, 32595.73
1138.484, 32630.36
1138.966, 32664.83
1139.448, 32700.95
1139.930, 32752.08
1140.412, 32814.64
1140.894, 32848.08
1141.376, 32797.90
1141.858, 32767.68
1142.341, 32797.86
1142.823, 32847.76
1143.305, 32829.93
1143.787, 32763.41
1144.269, 32739.33
1144.751, 32776.71
1145.233, 32813.33
1145.715, 32806.28
1146.198, 32796.36
1146.680, 32806.67
1147.162, 32832.88
1147.644, 32854.20
1148.126, 32871.13
1148.608, 32889.35
1149.090, 32911.11
1149.572, 32934.38
1150.054, 32971.91
1150.536, 32999.70
1151.019, 32989.01
1151.501, 32935.70
1151.983, 32908.09
1152.465, 32906.91
1152.947, 32909.41
1153.429, 32896.82
1153.911, 32889.70
1154.393, 32916.29
1154.876, 32959.32
1155.358, 32986.81
1155.840, 32985.14
1156.322, 33006.80
1156.804, 33057.91
1157.286, 33103.98
1157.768, 33115.84
1158.250, 33107.64
1158.733, 33090.72
1159.215, 33068.71
1159.697, 33052.92
1160.179, 33049.92
1160.661, 33039.35
1161.143, 33013.07
1161.625, 32995.30
1162.107, 33023.48
1162.589, 33074.79
1163.072, 33110.47
1163.554, 33128.45
1164.036, 33148.43
1164.518, 33180.38
1165.000, 33205.60
1165.482, 33218.79
1165.964, 33224.41
1166.446, 33225.63
1166.928, 33226.45
1167.411, 33237.44
1167.893, 33262.21
1168.375, 33285.08
1168.857, 33310.76
1169.339, 33320.15
1169.821, 33300.27
1170.303, 33262.70
1170.785, 33244.07
1171.268, 33236.90
1171.750, 33210.40
1172.232, 33133.72
1172.714, 33093.04
1173.196, 33152.54
1173.678, 33232.34
1174.160, 33287.07
1174.642, 33320.73
1175.125, 33363.13
1175.607, 33408.20
1176.089, 33419.48
1176.571, 33332.72
1177.053, 33271.25
1177.535, 33317.05
1178.017, 33393.20
1178.499, 33437.66
1178.981, 33450.63
1179.464, 33409.68
1179.946, 33318.64
1180.428, 33240.20
1180.910, 33201.87
1181.392, 33199.54
1181.874, 33242.80
1182.356, 33315.78
1182.838, 33408.94
1183.320, 33525.69
1183.803, 33566.98
1184.285, 33523.21
1184.767, 33472.31
1185.249, 33473.05
1185.731, 33486.58
1186.213, 33488.85
1186.695, 33482.41
1187.177, 33471.40
1187.660, 33453.64
1188.142, 33474.16
1188.624, 33546.36
1189.106, 33606.56
1189.588, 33581.12
1190.070, 33534.68
1190.552, 33520.78
1191.034, 33536.82
1191.516, 33542.62
1191.999, 33536.13
1192.481, 33541.80
1192.963, 33569.49
1193.445, 33597.35
1193.927, 33608.70
1194.409, 33605.68
1194.891, 33581.67
1195.373, 33536.11
1195.855, 33522.81
1196.338, 33543.53
1196.820, 33583.63
1197.302, 33650.12
1197.784, 33706.36
1198.266, 33687.57
1198.748, 33647.41
1199.230, 33660.02
1199.712, 33743.40
1200.195, 33804.70
1200.677, 33842.60
1201.159, 33868.35
1201.641, 33896.16
1202.123, 33904.15
1202.605, 33837.98
1203.087, 33745.19
1203.569, 33706.18
1204.052, 33749.94
1204.534, 33780.39
1205.016, 33795.27
1205.498, 33811.93
1205.980, 33854.16
1206.462, 33895.52
1206.944, 33906.93
1207.426, 33893.80
1207.908, 33863.59
1208.391, 33796.16
1208.873, 33779.35
1209.355, 33824.34
1209.837, 33878.83
1210.319, 33890.91
1210.801, 33893.65
1211.283, 33933.12
1211.765, 33996.27
1212.247, 34030.32
1212.730, 34019.97
1213.212, 34022.78
1213.694, 34049.18
1214.176, 34066.82
1214.658, 34032.05
1215.140, 33980.28
1215.622, 33949.88
1216.104, 33940.58
1216.587, 33933.46
1217.069, 33916.38
1217.551, 33943.18
1218.033, 34032.19
1218.515, 34125.32
1218.997, 34158.14
1219.479, 34159.17
1219.961, 34157.43
1220.443, 34155.13
1220.926, 34146.11
1221.408, 34127.93
1221.890, 34111.32
1222.372, 34096.47
1222.854, 34092.13
1223.336, 34122.06
1223.818, 34159.91
1224.300, 34169.07
1224.782, 34144.49
1225.265, 34153.62
1225.747, 34208.30
1226.229, 34235.24
1226.711, 34198.51
1227.193, 34162.41
1227.675, 34233.63
1228.157, 34333.20
1228.639, 34357.37
1229.122, 34286.19
1229.604, 34254.26
1230.086, 34267.42
1230.568, 34279.39
1231.050, 34270.34
1231.532, 34256.69
1232.014, 34241.55
1232.496, 34241.70
1232.979, 34291.13
1233.461, 34402.04
1233.943, 34449.64
1234.425, 34427.96
1234.907, 34398.05
1235.389, 34382.71
1235.871, 34380.91
1236.353, 34400.20
1236.835, 34427.44
1237.318, 34445.67
1237.800, 34454.22
1238.282, 34454.69
1238.764, 34446.74
1239.246, 34437.37
1239.728, 34426.04
1240.210, 34420.62
1240.692, 34419.38
1241.175, 34433.73
1241.657, 34484.85
1242.139, 34585.30
1242.621, 34636.37
1243.103, 34638.20
1243.585, 34623.12
1244.067, 34594.14
1244.549, 34573.59
1245.031, 34583.25
1245.514, 34607.24
1245.996, 34619.99
1246.478, 34619.16
1246.960, 34645.46
1247.442, 34697.74
1247.924, 34738.42
1248.406, 34757.04
1248.888, 34741.46
1249.370, 34629.65
1249.853, 34513.55
1250.335, 34534.79
1250.817, 34686.38
1251.299, 34751.85
1251.781, 34725.88
1252.263, 34678.77
1252.745, 34616.65
1253.227, 34587.84
1253.710, 34638.64
1254.192, 34714.31
1254.674, 34741.76
1255.156, 34730.10
1255.638, 34756.20
1256.120, 34819.21
1256.602, 34854.07
1257.084, 34776.26
1257.567, 34728.39
1258.049, 34766.81
1258.531, 34840.58
1259.013, 34880.06
1259.495, 34894.87
1259.977, 34932.05
1260.459, 34989.48
1260.941, 35005.18
1261.423, 34877.94
1261.906, 34809.97
1262.388, 34864.76
1262.870, 34964.78
1263.352, 35003.97
1263.834, 34999.97
1264.316, 34981.50
1264.798, 34954.57
1265.280, 34951.71
1265.762, 34998.16
1266.245, 35048.24
1266.727, 35101.47
1267.209, 35138.64
1267.691, 35110.31
1268.173, 35059.15
1268.655, 35068.05
1269.137, 35138.84
1269.619, 35167.92
1270.102, 35123.84
1270.584, 35098.72
1271.066, 35117.60
1271.548, 35141.22
1272.030, 35092.58
1272.512, 35038.83
1272.994, 35077.41
1273.476, 35207.41
1273.958, 35292.66
1274.441, 35330.88
1274.923, 35301.94
1275.405, 35183.07
1275.887, 35080.19
1276.369, 35130.02
1276.851, 35228.42
1277.333, 35283.50
1277.815, 35294.23
1278.297, 35292.04
1278.780, 35276.77
1279.262, 35246.25
1279.744, 35195.01
1280.226, 35161.35
1280.708, 35190.75
1281.190, 35236.26
1281.672, 35262.34
1282.154, 35276.32
1282.637, 35317.96
1283.119, 35380.42
1283.601, 35387.54
1284.083, 35314.05
1284.565, 35254.58
1285.047, 35284.15
1285.529, 35322.54
1286.011, 35322.82
1286.494, 35307.95
1286.976, 35353.79
1287.458, 35439.65
1287.940, 35494.04
1288.422, 35499.70
1288.904, 35496.14
1289.386, 35489.18
1289.868, 35486.97
1290.350, 35491.39
1290.833, 35503.34
1291.315, 35539.84
1291.797, 35580.40
1292.279, 35573.43
1292.761, 35499.75
1293.243, 35474.80
1293.725, 35536.34
1294.207, 35574.59
1294.689, 35546.66
1295.172, 35495.65
1295.654, 35470.19
1296.136, 35468.24
1296.618, 35497.27
1297.100, 35562.47
1297.582, 35585.06
1298.064, 35558.03
1298.546, 35531.76
1299.029, 35517.21
1299.511, 35524.18
1299.993, 35580.31
1300.475, 35650.01
1300.957, 35704.03
1301.439, 35740.00
1301.921, 35749.44
1302.403, 35732.14
1302.885, 35675.49
1303.368, 35560.08
1303.850, 35473.90
1304.332, 35489.78
1304.814, 35549.23
1305.296, 35626.09
1305.778, 35706.42
1306.260, 35735.96
1306.742, 35725.54
1307.224, 35718.85
1307.707, 35726.79
1308.189, 35736.82
1308.671, 35735.87
1309.153, 35748.65
1309.635, 35789.54
1310.117, 35842.50
1310.599, 35879.28
##END=



