##NAMES=Metarauchite
##RRUFFID=R120114
##IDEAL CHEMISTRY=Ni^2+^(U^6+^O_2_)_2_(As^5+^O_4_)_2_&#183;8H_2_O
##LOCALITY=Schweizer vein, 90 level, Eduard mine, Jachymov, Krusne Hory Mts., Czech Republic
##OWNER=RRUFF
##SOURCE=Dr Peter Kolesar
##DESCRIPTION=Aggregates of yellow play crystals, associated with green platy metazeunerite
##STATUS=The identification of this mineral has been confirmed only by single crystal X-ray diffraction.
##URL=rruff.info/R120114
9.112140e+001, 0.000000e+000
9.160352e+001, 6.352048e+003
9.208563e+001, 6.205391e+003
9.256775e+001, 6.187886e+003
9.304987e+001, 6.366525e+003
9.353198e+001, 6.588035e+003
9.401410e+001, 6.729038e+003
9.449622e+001, 6.793813e+003
9.497833e+001, 6.818843e+003
9.546045e+001, 6.833604e+003
9.594257e+001, 6.837661e+003
9.642468e+001, 6.836022e+003
9.690680e+001, 6.833057e+003
9.738892e+001, 6.830399e+003
9.787103e+001, 6.829552e+003
9.835315e+001, 6.822201e+003
9.883527e+001, 6.803784e+003
9.931738e+001, 6.789078e+003
9.979950e+001, 6.781632e+003
1.002816e+002, 6.774771e+003
1.007637e+002, 6.765691e+003
1.012458e+002, 6.756042e+003
1.017280e+002, 6.747971e+003
1.022101e+002, 6.741892e+003
1.026922e+002, 6.735516e+003
1.031743e+002, 6.724015e+003
1.036564e+002, 6.707217e+003
1.041385e+002, 6.688610e+003
1.046207e+002, 6.664776e+003
1.051028e+002, 6.638532e+003
1.055849e+002, 6.620479e+003
1.060670e+002, 6.616679e+003
1.065491e+002, 6.617652e+003
1.070313e+002, 6.612681e+003
1.075134e+002, 6.600382e+003
1.079955e+002, 6.586056e+003
1.084776e+002, 6.575036e+003
1.089597e+002, 6.567779e+003
1.094418e+002, 6.560683e+003
1.099240e+002, 6.551999e+003
1.104061e+002, 6.543158e+003
1.108882e+002, 6.535204e+003
1.113703e+002, 6.528489e+003
1.118524e+002, 6.522915e+003
1.123345e+002, 6.518315e+003
1.128167e+002, 6.514982e+003
1.132988e+002, 6.512442e+003
1.137809e+002, 6.511090e+003
1.142630e+002, 6.510264e+003
1.147451e+002, 6.509161e+003
1.152272e+002, 6.507278e+003
1.157094e+002, 6.504604e+003
1.161915e+002, 6.501693e+003
1.166736e+002, 6.500100e+003
1.171557e+002, 6.496704e+003
1.176378e+002, 6.489416e+003
1.181199e+002, 6.478957e+003
1.186021e+002, 6.467755e+003
1.190842e+002, 6.457333e+003
1.195663e+002, 6.447882e+003
1.200484e+002, 6.441696e+003
1.205305e+002, 6.443540e+003
1.210126e+002, 6.445603e+003
1.214948e+002, 6.439540e+003
1.219769e+002, 6.423549e+003
1.224590e+002, 6.406221e+003
1.229411e+002, 6.397938e+003
1.234232e+002, 6.396166e+003
1.239053e+002, 6.392962e+003
1.243875e+002, 6.385812e+003
1.248696e+002, 6.375243e+003
1.253517e+002, 6.362053e+003
1.258338e+002, 6.343253e+003
1.263159e+002, 6.326309e+003
1.267980e+002, 6.316599e+003
1.272802e+002, 6.313193e+003
1.277623e+002, 6.311731e+003
1.282444e+002, 6.309447e+003
1.287265e+002, 6.306436e+003
1.292086e+002, 6.301804e+003
1.296907e+002, 6.293742e+003
1.301729e+002, 6.285232e+003
1.306550e+002, 6.277529e+003
1.311371e+002, 6.270833e+003
1.316192e+002, 6.264658e+003
1.321013e+002, 6.258229e+003
1.325834e+002, 6.250635e+003
1.330656e+002, 6.244696e+003
1.335477e+002, 6.239704e+003
1.340298e+002, 6.236475e+003
1.345119e+002, 6.236446e+003
1.349940e+002, 6.239918e+003
1.354761e+002, 6.245076e+003
1.359583e+002, 6.247730e+003
1.364404e+002, 6.244158e+003
1.369225e+002, 6.242672e+003
1.374046e+002, 6.244580e+003
1.378867e+002, 6.248674e+003
1.383688e+002, 6.253463e+003
1.388510e+002, 6.258427e+003
1.393331e+002, 6.263340e+003
1.398152e+002, 6.267421e+003
1.402973e+002, 6.270751e+003
1.407794e+002, 6.273389e+003
1.412615e+002, 6.274843e+003
1.417437e+002, 6.275386e+003
1.422258e+002, 6.276231e+003
1.427079e+002, 6.277604e+003
1.431900e+002, 6.279999e+003
1.436721e+002, 6.284209e+003
1.441542e+002, 6.291553e+003
1.446364e+002, 6.299135e+003
1.451185e+002, 6.303576e+003
1.456006e+002, 6.304263e+003
1.460827e+002, 6.305503e+003
1.465648e+002, 6.309801e+003
1.470469e+002, 6.315793e+003
1.475291e+002, 6.322553e+003
1.480112e+002, 6.330276e+003
1.484933e+002, 6.338069e+003
1.489754e+002, 6.343585e+003
1.494575e+002, 6.345092e+003
1.499396e+002, 6.347393e+003
1.504218e+002, 6.351510e+003
1.509039e+002, 6.357338e+003
1.513860e+002, 6.364808e+003
1.518681e+002, 6.374025e+003
1.523502e+002, 6.384880e+003
1.528323e+002, 6.395897e+003
1.533145e+002, 6.407969e+003
1.537966e+002, 6.419271e+003
1.542787e+002, 6.430713e+003
1.547608e+002, 6.441128e+003
1.552429e+002, 6.448079e+003
1.557250e+002, 6.449046e+003
1.562072e+002, 6.443234e+003
1.566893e+002, 6.443194e+003
1.571714e+002, 6.451646e+003
1.576535e+002, 6.461993e+003
1.581356e+002, 6.472420e+003
1.586177e+002, 6.482433e+003
1.590999e+002, 6.491752e+003
1.595820e+002, 6.500038e+003
1.600641e+002, 6.507120e+003
1.605462e+002, 6.514178e+003
1.610283e+002, 6.518446e+003
1.615104e+002, 6.524464e+003
1.619926e+002, 6.537275e+003
1.624747e+002, 6.557399e+003
1.629568e+002, 6.578579e+003
1.634389e+002, 6.594750e+003
1.639210e+002, 6.606080e+003
1.644031e+002, 6.613134e+003
1.648853e+002, 6.612898e+003
1.653674e+002, 6.609307e+003
1.658495e+002, 6.608331e+003
1.663316e+002, 6.611468e+003
1.668137e+002, 6.615482e+003
1.672958e+002, 6.616817e+003
1.677780e+002, 6.616208e+003
1.682601e+002, 6.616518e+003
1.687422e+002, 6.618560e+003
1.692243e+002, 6.622491e+003
1.697064e+002, 6.629193e+003
1.701885e+002, 6.640354e+003
1.706707e+002, 6.652462e+003
1.711528e+002, 6.663419e+003
1.716349e+002, 6.673298e+003
1.721170e+002, 6.682690e+003
1.725991e+002, 6.691911e+003
1.730812e+002, 6.700943e+003
1.735634e+002, 6.710086e+003
1.740455e+002, 6.718754e+003
1.745276e+002, 6.728132e+003
1.750097e+002, 6.738340e+003
1.754918e+002, 6.749591e+003
1.759739e+002, 6.762369e+003
1.764561e+002, 6.777472e+003
1.769382e+002, 6.795954e+003
1.774203e+002, 6.813526e+003
1.779024e+002, 6.829869e+003
1.783845e+002, 6.845601e+003
1.788666e+002, 6.860667e+003
1.793488e+002, 6.875154e+003
1.798309e+002, 6.889609e+003
1.803130e+002, 6.904540e+003
1.807951e+002, 6.919935e+003
1.812772e+002, 6.935901e+003
1.817593e+002, 6.952091e+003
1.822415e+002, 6.968943e+003
1.827236e+002, 6.986998e+003
1.832057e+002, 7.006310e+003
1.836878e+002, 7.026169e+003
1.841699e+002, 7.045592e+003
1.846520e+002, 7.065106e+003
1.851342e+002, 7.082909e+003
1.856163e+002, 7.097523e+003
1.860984e+002, 7.111030e+003
1.865805e+002, 7.126039e+003
1.870626e+002, 7.143438e+003
1.875447e+002, 7.161283e+003
1.880269e+002, 7.175920e+003
1.885090e+002, 7.186674e+003
1.889911e+002, 7.197821e+003
1.894732e+002, 7.211269e+003
1.899553e+002, 7.225534e+003
1.904374e+002, 7.237694e+003
1.909196e+002, 7.246649e+003
1.914017e+002, 7.253942e+003
1.918838e+002, 7.261658e+003
1.923659e+002, 7.269637e+003
1.928480e+002, 7.278171e+003
1.933301e+002, 7.289033e+003
1.938123e+002, 7.300896e+003
1.942944e+002, 7.308729e+003
1.947765e+002, 7.309692e+003
1.952586e+002, 7.307731e+003
1.957407e+002, 7.307521e+003
1.962228e+002, 7.309095e+003
1.967050e+002, 7.310260e+003
1.971871e+002, 7.308976e+003
1.976692e+002, 7.305391e+003
1.981513e+002, 7.302665e+003
1.986334e+002, 7.302828e+003
1.991155e+002, 7.302881e+003
1.995977e+002, 7.300631e+003
2.000798e+002, 7.296039e+003
2.005619e+002, 7.290850e+003
2.010440e+002, 7.286877e+003
2.015261e+002, 7.284399e+003
2.020082e+002, 7.281374e+003
2.024904e+002, 7.278496e+003
2.029725e+002, 7.274314e+003
2.034546e+002, 7.267693e+003
2.039367e+002, 7.258632e+003
2.044188e+002, 7.248231e+003
2.049009e+002, 7.238036e+003
2.053831e+002, 7.228718e+003
2.058652e+002, 7.217440e+003
2.063473e+002, 7.206814e+003
2.068294e+002, 7.192516e+003
2.073115e+002, 7.171398e+003
2.077936e+002, 7.143287e+003
2.082758e+002, 7.110504e+003
2.087579e+002, 7.076107e+003
2.092400e+002, 7.039025e+003
2.097221e+002, 7.002704e+003
2.102042e+002, 6.966654e+003
2.106863e+002, 6.931655e+003
2.111685e+002, 6.898282e+003
2.116506e+002, 6.866560e+003
2.121327e+002, 6.835843e+003
2.126148e+002, 6.804868e+003
2.130969e+002, 6.773075e+003
2.135790e+002, 6.742953e+003
2.140612e+002, 6.715204e+003
2.145433e+002, 6.688628e+003
2.150254e+002, 6.662083e+003
2.155075e+002, 6.635468e+003
2.159896e+002, 6.608728e+003
2.164717e+002, 6.581873e+003
2.169539e+002, 6.553866e+003
2.174360e+002, 6.528349e+003
2.179181e+002, 6.506183e+003
2.184002e+002, 6.486076e+003
2.188823e+002, 6.466636e+003
2.193644e+002, 6.447591e+003
2.198466e+002, 6.429338e+003
2.203287e+002, 6.412258e+003
2.208108e+002, 6.395977e+003
2.212929e+002, 6.382531e+003
2.217750e+002, 6.375436e+003
2.222571e+002, 6.370126e+003
2.227393e+002, 6.359795e+003
2.232214e+002, 6.342360e+003
2.237035e+002, 6.324081e+003
2.241856e+002, 6.313723e+003
2.246677e+002, 6.310601e+003
2.251498e+002, 6.307653e+003
2.256320e+002, 6.302823e+003
2.261141e+002, 6.297146e+003
2.265962e+002, 6.292906e+003
2.270783e+002, 6.291292e+003
2.275604e+002, 6.288677e+003
2.280425e+002, 6.279216e+003
2.285247e+002, 6.264781e+003
2.290068e+002, 6.253245e+003
2.294889e+002, 6.250459e+003
2.299710e+002, 6.252523e+003
2.304531e+002, 6.249973e+003
2.309352e+002, 6.239708e+003
2.314174e+002, 6.229427e+003
2.318995e+002, 6.225903e+003
2.323816e+002, 6.227136e+003
2.328637e+002, 6.227909e+003
2.333458e+002, 6.225641e+003
2.338279e+002, 6.220955e+003
2.343101e+002, 6.215330e+003
2.347922e+002, 6.207140e+003
2.352743e+002, 6.201087e+003
2.357564e+002, 6.200328e+003
2.362385e+002, 6.203298e+003
2.367206e+002, 6.207000e+003
2.372028e+002, 6.210489e+003
2.376849e+002, 6.213406e+003
2.381670e+002, 6.214166e+003
2.386491e+002, 6.211888e+003
2.391312e+002, 6.208542e+003
2.396133e+002, 6.204991e+003
2.400955e+002, 6.201119e+003
2.405776e+002, 6.196248e+003
2.410597e+002, 6.188890e+003
2.415418e+002, 6.180513e+003
2.420239e+002, 6.178947e+003
2.425060e+002, 6.190701e+003
2.429882e+002, 6.200585e+003
2.434703e+002, 6.202802e+003
2.439524e+002, 6.200767e+003
2.444345e+002, 6.199170e+003
2.449166e+002, 6.200364e+003
2.453987e+002, 6.204432e+003
2.458809e+002, 6.212096e+003
2.463630e+002, 6.227982e+003
2.468451e+002, 6.241513e+003
2.473272e+002, 6.250394e+003
2.478093e+002, 6.255868e+003
2.482914e+002, 6.259735e+003
2.487736e+002, 6.263057e+003
2.492557e+002, 6.265189e+003
2.497378e+002, 6.263202e+003
2.502199e+002, 6.248828e+003
2.507020e+002, 6.240803e+003
2.511841e+002, 6.246708e+003
2.516663e+002, 6.258454e+003
2.521484e+002, 6.266310e+003
2.526305e+002, 6.265566e+003
2.531126e+002, 6.258828e+003
2.535947e+002, 6.254150e+003
2.540768e+002, 6.249850e+003
2.545590e+002, 6.250411e+003
2.550411e+002, 6.261386e+003
2.555232e+002, 6.275280e+003
2.560053e+002, 6.282893e+003
2.564874e+002, 6.280357e+003
2.569695e+002, 6.272489e+003
2.574517e+002, 6.270926e+003
2.579338e+002, 6.282481e+003
2.584159e+002, 6.292770e+003
2.588980e+002, 6.301671e+003
2.593801e+002, 6.309258e+003
2.598622e+002, 6.315396e+003
2.603444e+002, 6.320055e+003
2.608265e+002, 6.323915e+003
2.613086e+002, 6.328311e+003
2.617907e+002, 6.334790e+003
2.622728e+002, 6.339142e+003
2.627549e+002, 6.340171e+003
2.632371e+002, 6.339579e+003
2.637192e+002, 6.338938e+003
2.642013e+002, 6.338684e+003
2.646834e+002, 6.338417e+003
2.651655e+002, 6.337523e+003
2.656476e+002, 6.335687e+003
2.661298e+002, 6.333954e+003
2.666119e+002, 6.332979e+003
2.670940e+002, 6.331796e+003
2.675761e+002, 6.329018e+003
2.680582e+002, 6.324475e+003
2.685403e+002, 6.320182e+003
2.690225e+002, 6.319068e+003
2.695046e+002, 6.322578e+003
2.699867e+002, 6.322118e+003
2.704688e+002, 6.312366e+003
2.709509e+002, 6.301811e+003
2.714330e+002, 6.298897e+003
2.719152e+002, 6.304330e+003
2.723973e+002, 6.311112e+003
2.728794e+002, 6.312783e+003
2.733615e+002, 6.308774e+003
2.738436e+002, 6.304408e+003
2.743257e+002, 6.298255e+003
2.748079e+002, 6.292783e+003
2.752900e+002, 6.289997e+003
2.757721e+002, 6.289937e+003
2.762542e+002, 6.291610e+003
2.767363e+002, 6.294852e+003
2.772184e+002, 6.299364e+003
2.777006e+002, 6.302706e+003
2.781827e+002, 6.304881e+003
2.786648e+002, 6.305819e+003
2.791469e+002, 6.304769e+003
2.796290e+002, 6.302009e+003
2.801111e+002, 6.299685e+003
2.805933e+002, 6.299304e+003
2.810754e+002, 6.300299e+003
2.815575e+002, 6.300526e+003
2.820396e+002, 6.300426e+003
2.825217e+002, 6.299101e+003
2.830038e+002, 6.295333e+003
2.834860e+002, 6.289572e+003
2.839681e+002, 6.284063e+003
2.844502e+002, 6.279755e+003
2.849323e+002, 6.276425e+003
2.854144e+002, 6.273193e+003
2.858965e+002, 6.269460e+003
2.863787e+002, 6.267187e+003
2.868608e+002, 6.268654e+003
2.873429e+002, 6.272764e+003
2.878250e+002, 6.275189e+003
2.883071e+002, 6.273536e+003
2.887892e+002, 6.270974e+003
2.892714e+002, 6.272548e+003
2.897535e+002, 6.278720e+003
2.902356e+002, 6.284416e+003
2.907177e+002, 6.288477e+003
2.911998e+002, 6.290307e+003
2.916819e+002, 6.287531e+003
2.921641e+002, 6.277842e+003
2.926462e+002, 6.266851e+003
2.931283e+002, 6.260584e+003
2.936104e+002, 6.258526e+003
2.940925e+002, 6.258122e+003
2.945746e+002, 6.259854e+003
2.950568e+002, 6.262329e+003
2.955389e+002, 6.262263e+003
2.960210e+002, 6.258452e+003
2.965031e+002, 6.254563e+003
2.969852e+002, 6.254208e+003
2.974673e+002, 6.256356e+003
2.979495e+002, 6.258472e+003
2.984316e+002, 6.260749e+003
2.989137e+002, 6.262143e+003
2.993958e+002, 6.259735e+003
2.998779e+002, 6.252248e+003
3.003600e+002, 6.246979e+003
3.008422e+002, 6.251932e+003
3.013243e+002, 6.262038e+003
3.018064e+002, 6.268360e+003
3.022885e+002, 6.265917e+003
3.027706e+002, 6.261908e+003
3.032527e+002, 6.265797e+003
3.037349e+002, 6.278248e+003
3.042170e+002, 6.289312e+003
3.046991e+002, 6.291752e+003
3.051812e+002, 6.291369e+003
3.056633e+002, 6.296724e+003
3.061454e+002, 6.310983e+003
3.066276e+002, 6.325760e+003
3.071097e+002, 6.333548e+003
3.075918e+002, 6.334661e+003
3.080739e+002, 6.334383e+003
3.085560e+002, 6.333047e+003
3.090381e+002, 6.332261e+003
3.095203e+002, 6.334155e+003
3.100024e+002, 6.339064e+003
3.104845e+002, 6.343671e+003
3.109666e+002, 6.345181e+003
3.114487e+002, 6.344242e+003
3.119308e+002, 6.343965e+003
3.124130e+002, 6.344574e+003
3.128951e+002, 6.346584e+003
3.133772e+002, 6.350940e+003
3.138593e+002, 6.357254e+003
3.143414e+002, 6.362969e+003
3.148235e+002, 6.366204e+003
3.153057e+002, 6.367913e+003
3.157878e+002, 6.371296e+003
3.162699e+002, 6.378054e+003
3.167520e+002, 6.382912e+003
3.172341e+002, 6.379810e+003
3.177162e+002, 6.371912e+003
3.181984e+002, 6.365975e+003
3.186805e+002, 6.365266e+003
3.191626e+002, 6.367573e+003
3.196447e+002, 6.370316e+003
3.201268e+002, 6.374063e+003
3.206089e+002, 6.375522e+003
3.210911e+002, 6.371092e+003
3.215732e+002, 6.363615e+003
3.220553e+002, 6.356700e+003
3.225374e+002, 6.350726e+003
3.230195e+002, 6.346036e+003
3.235016e+002, 6.343802e+003
3.239838e+002, 6.344042e+003
3.244659e+002, 6.343131e+003
3.249480e+002, 6.338500e+003
3.254301e+002, 6.332858e+003
3.259122e+002, 6.329909e+003
3.263943e+002, 6.330354e+003
3.268765e+002, 6.330648e+003
3.273586e+002, 6.328610e+003
3.278407e+002, 6.324325e+003
3.283228e+002, 6.317985e+003
3.288049e+002, 6.308428e+003
3.292870e+002, 6.298463e+003
3.297692e+002, 6.291998e+003
3.302513e+002, 6.288626e+003
3.307334e+002, 6.283095e+003
3.312155e+002, 6.269058e+003
3.316976e+002, 6.251397e+003
3.321797e+002, 6.242690e+003
3.326619e+002, 6.246635e+003
3.331440e+002, 6.252841e+003
3.336261e+002, 6.253434e+003
3.341082e+002, 6.249824e+003
3.345903e+002, 6.244553e+003
3.350724e+002, 6.234252e+003
3.355546e+002, 6.224763e+003
3.360367e+002, 6.225970e+003
3.365188e+002, 6.239050e+003
3.370009e+002, 6.250667e+003
3.374830e+002, 6.252832e+003
3.379651e+002, 6.248369e+003
3.384473e+002, 6.242345e+003
3.389294e+002, 6.233318e+003
3.394115e+002, 6.225961e+003
3.398936e+002, 6.225534e+003
3.403757e+002, 6.231070e+003
3.408578e+002, 6.235155e+003
3.413400e+002, 6.234557e+003
3.418221e+002, 6.231639e+003
3.423042e+002, 6.230093e+003
3.427863e+002, 6.230038e+003
3.432684e+002, 6.230410e+003
3.437505e+002, 6.230987e+003
3.442327e+002, 6.231589e+003
3.447148e+002, 6.231664e+003
3.451969e+002, 6.230909e+003
3.456790e+002, 6.230083e+003
3.461611e+002, 6.230335e+003
3.466432e+002, 6.231461e+003
3.471254e+002, 6.232099e+003
3.476075e+002, 6.233057e+003
3.480896e+002, 6.232772e+003
3.485717e+002, 6.228454e+003
3.490538e+002, 6.219713e+003
3.495359e+002, 6.210736e+003
3.500181e+002, 6.204571e+003
3.505002e+002, 6.200793e+003
3.509823e+002, 6.196916e+003
3.514644e+002, 6.193089e+003
3.519465e+002, 6.188919e+003
3.524286e+002, 6.183065e+003
3.529108e+002, 6.176209e+003
3.533929e+002, 6.171777e+003
3.538750e+002, 6.172156e+003
3.543571e+002, 6.175330e+003
3.548392e+002, 6.175756e+003
3.553214e+002, 6.170955e+003
3.558035e+002, 6.169174e+003
3.562856e+002, 6.177303e+003
3.567677e+002, 6.189737e+003
3.572498e+002, 6.195930e+003
3.577319e+002, 6.192463e+003
3.582141e+002, 6.184459e+003
3.586962e+002, 6.177962e+003
3.591783e+002, 6.172688e+003
3.596604e+002, 6.170732e+003
3.601425e+002, 6.175011e+003
3.606246e+002, 6.181099e+003
3.611068e+002, 6.185074e+003
3.615889e+002, 6.186570e+003
3.620710e+002, 6.186981e+003
3.625531e+002, 6.187532e+003
3.630352e+002, 6.188151e+003
3.635173e+002, 6.187314e+003
3.639995e+002, 6.183234e+003
3.644816e+002, 6.179599e+003
3.649637e+002, 6.177111e+003
3.654458e+002, 6.176400e+003
3.659279e+002, 6.179396e+003
3.664100e+002, 6.187583e+003
3.668922e+002, 6.198997e+003
3.673743e+002, 6.207023e+003
3.678564e+002, 6.206874e+003
3.683385e+002, 6.210271e+003
3.688206e+002, 6.223102e+003
3.693027e+002, 6.238372e+003
3.697849e+002, 6.248507e+003
3.702670e+002, 6.251260e+003
3.707491e+002, 6.248047e+003
3.712312e+002, 6.239951e+003
3.717133e+002, 6.223564e+003
3.721954e+002, 6.213174e+003
3.726776e+002, 6.212587e+003
3.731597e+002, 6.214335e+003
3.736418e+002, 6.213985e+003
3.741239e+002, 6.211576e+003
3.746060e+002, 6.209458e+003
3.750881e+002, 6.209505e+003
3.755703e+002, 6.211687e+003
3.760524e+002, 6.214119e+003
3.765345e+002, 6.218271e+003
3.770166e+002, 6.221083e+003
3.774987e+002, 6.220962e+003
3.779808e+002, 6.219324e+003
3.784630e+002, 6.218071e+003
3.789451e+002, 6.218081e+003
3.794272e+002, 6.219176e+003
3.799093e+002, 6.220993e+003
3.803914e+002, 6.224165e+003
3.808735e+002, 6.227042e+003
3.813557e+002, 6.229484e+003
3.818378e+002, 6.231675e+003
3.823199e+002, 6.233675e+003
3.828020e+002, 6.235528e+003
3.832841e+002, 6.237293e+003
3.837662e+002, 6.238802e+003
3.842484e+002, 6.239767e+003
3.847305e+002, 6.242360e+003
3.852126e+002, 6.247663e+003
3.856947e+002, 6.253600e+003
3.861768e+002, 6.259991e+003
3.866589e+002, 6.266483e+003
3.871411e+002, 6.272830e+003
3.876232e+002, 6.279187e+003
3.881053e+002, 6.284858e+003
3.885874e+002, 6.287295e+003
3.890695e+002, 6.285760e+003
3.895516e+002, 6.282102e+003
3.900338e+002, 6.274127e+003
3.905159e+002, 6.265955e+003
3.909980e+002, 6.261686e+003
3.914801e+002, 6.262438e+003
3.919622e+002, 6.265591e+003
3.924443e+002, 6.267833e+003
3.929265e+002, 6.268924e+003
3.934086e+002, 6.271689e+003
3.938907e+002, 6.278807e+003
3.943728e+002, 6.285521e+003
3.948549e+002, 6.290077e+003
3.953370e+002, 6.292106e+003
3.958192e+002, 6.290750e+003
3.963013e+002, 6.283805e+003
3.967834e+002, 6.273088e+003
3.972655e+002, 6.264331e+003
3.977476e+002, 6.257375e+003
3.982297e+002, 6.252867e+003
3.987119e+002, 6.252479e+003
3.991940e+002, 6.254302e+003
3.996761e+002, 6.256014e+003
4.001582e+002, 6.256802e+003
4.006403e+002, 6.257791e+003
4.011224e+002, 6.261035e+003
4.016046e+002, 6.266287e+003
4.020867e+002, 6.268842e+003
4.025688e+002, 6.265474e+003
4.030509e+002, 6.260800e+003
4.035330e+002, 6.259572e+003
4.040151e+002, 6.261685e+003
4.044973e+002, 6.267318e+003
4.049794e+002, 6.280720e+003
4.054615e+002, 6.296530e+003
4.059436e+002, 6.304349e+003
4.064257e+002, 6.302218e+003
4.069078e+002, 6.298084e+003
4.073900e+002, 6.298079e+003
4.078721e+002, 6.301608e+003
4.083542e+002, 6.304865e+003
4.088363e+002, 6.307907e+003
4.093184e+002, 6.310377e+003
4.098005e+002, 6.311146e+003
4.102827e+002, 6.310955e+003
4.107648e+002, 6.312756e+003
4.112469e+002, 6.318435e+003
4.117290e+002, 6.325682e+003
4.122111e+002, 6.328796e+003
4.126932e+002, 6.325901e+003
4.131754e+002, 6.324211e+003
4.136575e+002, 6.325837e+003
4.141396e+002, 6.328750e+003
4.146217e+002, 6.331199e+003
4.151038e+002, 6.332752e+003
4.155859e+002, 6.333239e+003
4.160681e+002, 6.332485e+003
4.165502e+002, 6.330431e+003
4.170323e+002, 6.327179e+003
4.175144e+002, 6.320539e+003
4.179965e+002, 6.315126e+003
4.184786e+002, 6.313087e+003
4.189608e+002, 6.313625e+003
4.194429e+002, 6.314907e+003
4.199250e+002, 6.315979e+003
4.204071e+002, 6.317428e+003
4.208892e+002, 6.320950e+003
4.213713e+002, 6.328365e+003
4.218535e+002, 6.335236e+003
4.223356e+002, 6.343560e+003
4.228177e+002, 6.349961e+003
4.232998e+002, 6.350641e+003
4.237819e+002, 6.345874e+003
4.242640e+002, 6.339904e+003
4.247462e+002, 6.336865e+003
4.252283e+002, 6.336830e+003
4.257104e+002, 6.338556e+003
4.261925e+002, 6.345309e+003
4.266746e+002, 6.350248e+003
4.271567e+002, 6.350359e+003
4.276389e+002, 6.347623e+003
4.281210e+002, 6.344974e+003
4.286031e+002, 6.343705e+003
4.290852e+002, 6.343663e+003
4.295673e+002, 6.344715e+003
4.300494e+002, 6.347140e+003
4.305316e+002, 6.349703e+003
4.310137e+002, 6.351751e+003
4.314958e+002, 6.354157e+003
4.319779e+002, 6.358515e+003
4.324600e+002, 6.364552e+003
4.329421e+002, 6.368764e+003
4.334243e+002, 6.367028e+003
4.339064e+002, 6.360949e+003
4.343885e+002, 6.357311e+003
4.348706e+002, 6.356391e+003
4.353527e+002, 6.358025e+003
4.358348e+002, 6.364750e+003
4.363170e+002, 6.373523e+003
4.367991e+002, 6.379025e+003
4.372812e+002, 6.378681e+003
4.377633e+002, 6.376386e+003
4.382454e+002, 6.374628e+003
4.387275e+002, 6.373643e+003
4.392097e+002, 6.375741e+003
4.396918e+002, 6.382982e+003
4.401739e+002, 6.391737e+003
4.406560e+002, 6.396325e+003
4.411381e+002, 6.396642e+003
4.416202e+002, 6.396627e+003
4.421024e+002, 6.397366e+003
4.425845e+002, 6.398336e+003
4.430666e+002, 6.398900e+003
4.435487e+002, 6.399023e+003
4.440308e+002, 6.399023e+003
4.445129e+002, 6.398941e+003
4.449951e+002, 6.398932e+003
4.454772e+002, 6.400294e+003
4.459593e+002, 6.404951e+003
4.464414e+002, 6.408564e+003
4.469235e+002, 6.408911e+003
4.474056e+002, 6.407662e+003
4.478878e+002, 6.407334e+003
4.483699e+002, 6.408791e+003
4.488520e+002, 6.411200e+003
4.493341e+002, 6.413258e+003
4.498162e+002, 6.414523e+003
4.502983e+002, 6.416767e+003
4.507805e+002, 6.420929e+003
4.512626e+002, 6.425054e+003
4.517447e+002, 6.428659e+003
4.522268e+002, 6.431391e+003
4.527089e+002, 6.432634e+003
4.531910e+002, 6.431848e+003
4.536732e+002, 6.429500e+003
4.541553e+002, 6.427390e+003
4.546374e+002, 6.424448e+003
4.551195e+002, 6.423720e+003
4.556016e+002, 6.428393e+003
4.560837e+002, 6.433426e+003
4.565659e+002, 6.433146e+003
4.570480e+002, 6.427103e+003
4.575301e+002, 6.421654e+003
4.580122e+002, 6.424912e+003
4.584943e+002, 6.436646e+003
4.589764e+002, 6.444096e+003
4.594586e+002, 6.445176e+003
4.599407e+002, 6.444277e+003
4.604228e+002, 6.443222e+003
4.609049e+002, 6.442096e+003
4.613870e+002, 6.440969e+003
4.618691e+002, 6.439624e+003
4.623513e+002, 6.438700e+003
4.628334e+002, 6.439994e+003
4.633155e+002, 6.443340e+003
4.637976e+002, 6.443833e+003
4.642797e+002, 6.438641e+003
4.647618e+002, 6.431495e+003
4.652440e+002, 6.427054e+003
4.657261e+002, 6.425296e+003
4.662082e+002, 6.424202e+003
4.666903e+002, 6.422406e+003
4.671724e+002, 6.421273e+003
4.676545e+002, 6.423742e+003
4.681367e+002, 6.429679e+003
4.686188e+002, 6.433794e+003
4.691009e+002, 6.431983e+003
4.695830e+002, 6.425585e+003
4.700651e+002, 6.421406e+003
4.705472e+002, 6.418648e+003
4.710294e+002, 6.418725e+003
4.715115e+002, 6.423183e+003
4.719936e+002, 6.430156e+003
4.724757e+002, 6.438210e+003
4.729578e+002, 6.446690e+003
4.734399e+002, 6.453940e+003
4.739221e+002, 6.458132e+003
4.744042e+002, 6.459331e+003
4.748863e+002, 6.456671e+003
4.753684e+002, 6.448422e+003
4.758505e+002, 6.438607e+003
4.763326e+002, 6.426847e+003
4.768148e+002, 6.414918e+003
4.772969e+002, 6.405251e+003
4.777790e+002, 6.399058e+003
4.782611e+002, 6.396029e+003
4.787432e+002, 6.396383e+003
4.792253e+002, 6.402198e+003
4.797075e+002, 6.405529e+003
4.801896e+002, 6.403914e+003
4.806717e+002, 6.400920e+003
4.811538e+002, 6.397199e+003
4.816359e+002, 6.393561e+003
4.821180e+002, 6.392009e+003
4.826002e+002, 6.394023e+003
4.830823e+002, 6.399069e+003
4.835644e+002, 6.407694e+003
4.840465e+002, 6.422695e+003
4.845286e+002, 6.430612e+003
4.850107e+002, 6.419780e+003
4.854929e+002, 6.401350e+003
4.859750e+002, 6.387866e+003
4.864571e+002, 6.380866e+003
4.869392e+002, 6.377664e+003
4.874213e+002, 6.378074e+003
4.879034e+002, 6.380915e+003
4.883856e+002, 6.384416e+003
4.888677e+002, 6.388677e+003
4.893498e+002, 6.390507e+003
4.898319e+002, 6.386107e+003
4.903140e+002, 6.375961e+003
4.907961e+002, 6.368667e+003
4.912783e+002, 6.365571e+003
4.917604e+002, 6.363813e+003
4.922425e+002, 6.361507e+003
4.927246e+002, 6.359730e+003
4.932067e+002, 6.360985e+003
4.936888e+002, 6.366153e+003
4.941710e+002, 6.373068e+003
4.946531e+002, 6.378432e+003
4.951352e+002, 6.382048e+003
4.956173e+002, 6.384583e+003
4.960994e+002, 6.387275e+003
4.965815e+002, 6.387881e+003
4.970637e+002, 6.384172e+003
4.975458e+002, 6.377578e+003
4.980279e+002, 6.371041e+003
4.985100e+002, 6.366179e+003
4.989921e+002, 6.362515e+003
4.994742e+002, 6.358747e+003
4.999564e+002, 6.354649e+003
5.004385e+002, 6.350961e+003
5.009206e+002, 6.345448e+003
5.014027e+002, 6.342140e+003
5.018848e+002, 6.345190e+003
5.023669e+002, 6.353608e+003
5.028491e+002, 6.361554e+003
5.033312e+002, 6.364851e+003
5.038133e+002, 6.364839e+003
5.042954e+002, 6.365669e+003
5.047775e+002, 6.368144e+003
5.052596e+002, 6.367522e+003
5.057418e+002, 6.358468e+003
5.062239e+002, 6.346797e+003
5.067060e+002, 6.340945e+003
5.071881e+002, 6.342319e+003
5.076702e+002, 6.345541e+003
5.081523e+002, 6.349030e+003
5.086345e+002, 6.352276e+003
5.091166e+002, 6.354489e+003
5.095987e+002, 6.355554e+003
5.100808e+002, 6.355443e+003
5.105629e+002, 6.353909e+003
5.110450e+002, 6.351066e+003
5.115272e+002, 6.348485e+003
5.120093e+002, 6.346865e+003
5.124914e+002, 6.344592e+003
5.129735e+002, 6.339223e+003
5.134556e+002, 6.333701e+003
5.139377e+002, 6.332718e+003
5.144199e+002, 6.337211e+003
5.149020e+002, 6.343081e+003
5.153841e+002, 6.345170e+003
5.158662e+002, 6.342991e+003
5.163483e+002, 6.340447e+003
5.168304e+002, 6.337331e+003
5.173126e+002, 6.334094e+003
5.177947e+002, 6.330677e+003
5.182768e+002, 6.327288e+003
5.187589e+002, 6.324114e+003
5.192410e+002, 6.321204e+003
5.197231e+002, 6.318824e+003
5.202053e+002, 6.317389e+003
5.206874e+002, 6.316928e+003
5.211695e+002, 6.316990e+003
5.216516e+002, 6.318221e+003
5.221337e+002, 6.318993e+003
5.226158e+002, 6.318106e+003
5.230980e+002, 6.315917e+003
5.235801e+002, 6.313463e+003
5.240622e+002, 6.311136e+003
5.245443e+002, 6.308692e+003
5.250264e+002, 6.304506e+003
5.255085e+002, 6.299382e+003
5.259907e+002, 6.299198e+003
5.264728e+002, 6.307658e+003
5.269549e+002, 6.318335e+003
5.274370e+002, 6.320991e+003
5.279191e+002, 6.314217e+003
5.284012e+002, 6.309431e+003
5.288834e+002, 6.309017e+003
5.293655e+002, 6.309893e+003
5.298476e+002, 6.310437e+003
5.303297e+002, 6.310456e+003
5.308118e+002, 6.309744e+003
5.312939e+002, 6.308090e+003
5.317761e+002, 6.306155e+003
5.322582e+002, 6.305667e+003
5.327403e+002, 6.307071e+003
5.332224e+002, 6.309041e+003
5.337045e+002, 6.312136e+003
5.341866e+002, 6.315070e+003
5.346688e+002, 6.317548e+003
5.351509e+002, 6.319193e+003
5.356330e+002, 6.319111e+003
5.361151e+002, 6.316196e+003
5.365972e+002, 6.311854e+003
5.370793e+002, 6.309791e+003
5.375615e+002, 6.310243e+003
5.380436e+002, 6.312228e+003
5.385257e+002, 6.317381e+003
5.390078e+002, 6.322583e+003
5.394899e+002, 6.325024e+003
5.399720e+002, 6.324755e+003
5.404542e+002, 6.323847e+003
5.409363e+002, 6.324740e+003
5.414184e+002, 6.324939e+003
5.419005e+002, 6.319409e+003
5.423826e+002, 6.308389e+003
5.428647e+002, 6.298920e+003
5.433469e+002, 6.294693e+003
5.438290e+002, 6.294287e+003
5.443111e+002, 6.294270e+003
5.447932e+002, 6.294719e+003
5.452753e+002, 6.295217e+003
5.457574e+002, 6.294468e+003
5.462396e+002, 6.294567e+003
5.467217e+002, 6.298247e+003
5.472038e+002, 6.304813e+003
5.476859e+002, 6.310936e+003
5.481680e+002, 6.314401e+003
5.486501e+002, 6.315351e+003
5.491323e+002, 6.314110e+003
5.496144e+002, 6.307803e+003
5.500965e+002, 6.304396e+003
5.505786e+002, 6.306068e+003
5.510607e+002, 6.309542e+003
5.515428e+002, 6.313536e+003
5.520250e+002, 6.317314e+003
5.525071e+002, 6.319157e+003
5.529892e+002, 6.316323e+003
5.534713e+002, 6.311130e+003
5.539534e+002, 6.311289e+003
5.544355e+002, 6.318220e+003
5.549177e+002, 6.323356e+003
5.553998e+002, 6.323212e+003
5.558819e+002, 6.319388e+003
5.563640e+002, 6.312954e+003
5.568461e+002, 6.303077e+003
5.573282e+002, 6.297601e+003
5.578104e+002, 6.302466e+003
5.582925e+002, 6.311617e+003
5.587746e+002, 6.317919e+003
5.592567e+002, 6.321205e+003
5.597388e+002, 6.324760e+003
5.602209e+002, 6.330748e+003
5.607031e+002, 6.338199e+003
5.611852e+002, 6.344042e+003
5.616673e+002, 6.349817e+003
5.621494e+002, 6.351593e+003
5.626315e+002, 6.345517e+003
5.631136e+002, 6.338403e+003
5.635958e+002, 6.335495e+003
5.640779e+002, 6.336371e+003
5.645600e+002, 6.337725e+003
5.650421e+002, 6.337537e+003
5.655242e+002, 6.335521e+003
5.660063e+002, 6.329611e+003
5.664885e+002, 6.316862e+003
5.669706e+002, 6.308843e+003
5.674527e+002, 6.311033e+003
5.679348e+002, 6.317048e+003
5.684169e+002, 6.324341e+003
5.688990e+002, 6.332092e+003
5.693812e+002, 6.337440e+003
5.698633e+002, 6.338087e+003
5.703454e+002, 6.335828e+003
5.708275e+002, 6.332614e+003
5.713096e+002, 6.328573e+003
5.717917e+002, 6.324800e+003
5.722739e+002, 6.321397e+003
5.727560e+002, 6.319068e+003
5.732381e+002, 6.319284e+003
5.737202e+002, 6.322526e+003
5.742023e+002, 6.326329e+003
5.746844e+002, 6.331580e+003
5.751666e+002, 6.336420e+003
5.756487e+002, 6.338620e+003
5.761308e+002, 6.339343e+003
5.766129e+002, 6.342543e+003
5.770950e+002, 6.350528e+003
5.775771e+002, 6.359396e+003
5.780593e+002, 6.359518e+003
5.785414e+002, 6.345887e+003
5.790235e+002, 6.337102e+003
5.795056e+002, 6.336352e+003
5.799877e+002, 6.338519e+003
5.804698e+002, 6.343379e+003
5.809520e+002, 6.349288e+003
5.814341e+002, 6.353114e+003
5.819162e+002, 6.353224e+003
5.823983e+002, 6.351092e+003
5.828804e+002, 6.347352e+003
5.833625e+002, 6.342396e+003
5.838447e+002, 6.340690e+003
5.843268e+002, 6.343530e+003
5.848089e+002, 6.349394e+003
5.852910e+002, 6.359336e+003
5.857731e+002, 6.372423e+003
5.862552e+002, 6.378164e+003
5.867374e+002, 6.370608e+003
5.872195e+002, 6.360819e+003
5.877016e+002, 6.352275e+003
5.881837e+002, 6.346017e+003
5.886658e+002, 6.344610e+003
5.891479e+002, 6.348546e+003
5.896301e+002, 6.353529e+003
5.901122e+002, 6.353753e+003
5.905943e+002, 6.348249e+003
5.910764e+002, 6.347260e+003
5.915585e+002, 6.355101e+003
5.920406e+002, 6.362542e+003
5.925228e+002, 6.368998e+003
5.930049e+002, 6.373103e+003
5.934870e+002, 6.372240e+003
5.939691e+002, 6.365914e+003
5.944512e+002, 6.359292e+003
5.949333e+002, 6.355994e+003
5.954155e+002, 6.356303e+003
5.958976e+002, 6.362718e+003
5.963797e+002, 6.376849e+003
5.968618e+002, 6.390837e+003
5.973439e+002, 6.402965e+003
5.978260e+002, 6.410344e+003
5.983082e+002, 6.406038e+003
5.987903e+002, 6.383234e+003
5.992724e+002, 6.366053e+003
5.997545e+002, 6.364729e+003
6.002366e+002, 6.371347e+003
6.007188e+002, 6.380019e+003
6.012009e+002, 6.388851e+003
6.016830e+002, 6.394306e+003
6.021651e+002, 6.393619e+003
6.026472e+002, 6.388716e+003
6.031293e+002, 6.386839e+003
6.036115e+002, 6.390057e+003
6.040936e+002, 6.392514e+003
6.045757e+002, 6.394186e+003
6.050578e+002, 6.394717e+003
6.055399e+002, 6.393008e+003
6.060220e+002, 6.389854e+003
6.065042e+002, 6.387662e+003
6.069863e+002, 6.388226e+003
6.074684e+002, 6.389799e+003
6.079505e+002, 6.388946e+003
6.084326e+002, 6.385773e+003
6.089147e+002, 6.384693e+003
6.093969e+002, 6.387467e+003
6.098790e+002, 6.391630e+003
6.103611e+002, 6.394950e+003
6.108432e+002, 6.397467e+003
6.113253e+002, 6.398896e+003
6.118074e+002, 6.397604e+003
6.122896e+002, 6.396899e+003
6.127717e+002, 6.399437e+003
6.132538e+002, 6.403472e+003
6.137359e+002, 6.406258e+003
6.142180e+002, 6.406903e+003
6.147001e+002, 6.405524e+003
6.151823e+002, 6.401519e+003
6.156644e+002, 6.394505e+003
6.161465e+002, 6.392763e+003
6.166286e+002, 6.402130e+003
6.171107e+002, 6.408696e+003
6.175928e+002, 6.406903e+003
6.180750e+002, 6.401896e+003
6.185571e+002, 6.398292e+003
6.190392e+002, 6.397112e+003
6.195213e+002, 6.398419e+003
6.200034e+002, 6.403432e+003
6.204855e+002, 6.410708e+003
6.209677e+002, 6.417396e+003
6.214498e+002, 6.423412e+003
6.219319e+002, 6.428310e+003
6.224140e+002, 6.432319e+003
6.228961e+002, 6.434651e+003
6.233782e+002, 6.432756e+003
6.238604e+002, 6.424529e+003
6.243425e+002, 6.419344e+003
6.248246e+002, 6.420377e+003
6.253067e+002, 6.422911e+003
6.257888e+002, 6.423881e+003
6.262709e+002, 6.423673e+003
6.267531e+002, 6.423670e+003
6.272352e+002, 6.424510e+003
6.277173e+002, 6.426604e+003
6.281994e+002, 6.431055e+003
6.286815e+002, 6.438368e+003
6.291636e+002, 6.445359e+003
6.296458e+002, 6.454296e+003
6.301279e+002, 6.459408e+003
6.306100e+002, 6.455294e+003
6.310921e+002, 6.446453e+003
6.315742e+002, 6.440829e+003
6.320563e+002, 6.440677e+003
6.325385e+002, 6.443142e+003
6.330206e+002, 6.447581e+003
6.335027e+002, 6.452844e+003
6.339848e+002, 6.457012e+003
6.344669e+002, 6.459775e+003
6.349490e+002, 6.460470e+003
6.354312e+002, 6.458357e+003
6.359133e+002, 6.453992e+003
6.363954e+002, 6.449886e+003
6.368775e+002, 6.444030e+003
6.373596e+002, 6.441373e+003
6.378417e+002, 6.443607e+003
6.383239e+002, 6.447865e+003
6.388060e+002, 6.453539e+003
6.392881e+002, 6.459478e+003
6.397702e+002, 6.462702e+003
6.402523e+002, 6.460429e+003
6.407344e+002, 6.457010e+003
6.412166e+002, 6.463183e+003
6.416987e+002, 6.479677e+003
6.421808e+002, 6.488769e+003
6.426629e+002, 6.484963e+003
6.431450e+002, 6.476217e+003
6.436271e+002, 6.466865e+003
6.441093e+002, 6.457883e+003
6.445914e+002, 6.453892e+003
6.450735e+002, 6.459732e+003
6.455556e+002, 6.465916e+003
6.460377e+002, 6.468332e+003
6.465198e+002, 6.468285e+003
6.470020e+002, 6.466938e+003
6.474841e+002, 6.464854e+003
6.479662e+002, 6.463256e+003
6.484483e+002, 6.463064e+003
6.489304e+002, 6.464403e+003
6.494125e+002, 6.468790e+003
6.498947e+002, 6.480260e+003
6.503768e+002, 6.487028e+003
6.508589e+002, 6.485176e+003
6.513410e+002, 6.479652e+003
6.518231e+002, 6.471995e+003
6.523052e+002, 6.463318e+003
6.527874e+002, 6.456962e+003
6.532695e+002, 6.455092e+003
6.537516e+002, 6.455860e+003
6.542337e+002, 6.457699e+003
6.547158e+002, 6.460354e+003
6.551979e+002, 6.462684e+003
6.556801e+002, 6.464340e+003
6.561622e+002, 6.465701e+003
6.566443e+002, 6.467218e+003
6.571264e+002, 6.468920e+003
6.576085e+002, 6.470220e+003
6.580906e+002, 6.468638e+003
6.585728e+002, 6.469816e+003
6.590549e+002, 6.478483e+003
6.595370e+002, 6.488571e+003
6.600191e+002, 6.493803e+003
6.605012e+002, 6.493396e+003
6.609833e+002, 6.490706e+003
6.614655e+002, 6.488144e+003
6.619476e+002, 6.485593e+003
6.624297e+002, 6.482182e+003
6.629118e+002, 6.477507e+003
6.633939e+002, 6.475565e+003
6.638760e+002, 6.479344e+003
6.643582e+002, 6.484286e+003
6.648403e+002, 6.483553e+003
6.653224e+002, 6.477747e+003
6.658045e+002, 6.476047e+003
6.662866e+002, 6.482767e+003
6.667687e+002, 6.490958e+003
6.672509e+002, 6.497986e+003
6.677330e+002, 6.503481e+003
6.682151e+002, 6.507240e+003
6.686972e+002, 6.509148e+003
6.691793e+002, 6.508604e+003
6.696614e+002, 6.504144e+003
6.701436e+002, 6.496336e+003
6.706257e+002, 6.493577e+003
6.711078e+002, 6.498280e+003
6.715899e+002, 6.503042e+003
6.720720e+002, 6.506498e+003
6.725541e+002, 6.508734e+003
6.730363e+002, 6.508953e+003
6.735184e+002, 6.507464e+003
6.740005e+002, 6.507278e+003
6.744826e+002, 6.511202e+003
6.749647e+002, 6.515750e+003
6.754468e+002, 6.516542e+003
6.759290e+002, 6.515002e+003
6.764111e+002, 6.516065e+003
6.768932e+002, 6.521312e+003
6.773753e+002, 6.527012e+003
6.778574e+002, 6.528145e+003
6.783395e+002, 6.524321e+003
6.788217e+002, 6.526305e+003
6.793038e+002, 6.543136e+003
6.797859e+002, 6.554265e+003
6.802680e+002, 6.552636e+003
6.807501e+002, 6.546327e+003
6.812322e+002, 6.541000e+003
6.817144e+002, 6.538122e+003
6.821965e+002, 6.538935e+003
6.826786e+002, 6.546219e+003
6.831607e+002, 6.556368e+003
6.836428e+002, 6.564535e+003
6.841249e+002, 6.570528e+003
6.846071e+002, 6.571460e+003
6.850892e+002, 6.565251e+003
6.855713e+002, 6.558104e+003
6.860534e+002, 6.557209e+003
6.865355e+002, 6.562956e+003
6.870176e+002, 6.568103e+003
6.874998e+002, 6.574195e+003
6.879819e+002, 6.577722e+003
6.884640e+002, 6.574818e+003
6.889461e+002, 6.570766e+003
6.894282e+002, 6.570902e+003
6.899103e+002, 6.575772e+003
6.903925e+002, 6.582756e+003
6.908746e+002, 6.591062e+003
6.913567e+002, 6.598955e+003
6.918388e+002, 6.601130e+003
6.923209e+002, 6.597335e+003
6.928030e+002, 6.595368e+003
6.932852e+002, 6.598169e+003
6.937673e+002, 6.601862e+003
6.942494e+002, 6.602181e+003
6.947315e+002, 6.599410e+003
6.952136e+002, 6.597929e+003
6.956957e+002, 6.598817e+003
6.961779e+002, 6.599956e+003
6.966600e+002, 6.599720e+003
6.971421e+002, 6.599875e+003
6.976242e+002, 6.601216e+003
6.981063e+002, 6.604670e+003
6.985884e+002, 6.613333e+003
6.990706e+002, 6.630843e+003
6.995527e+002, 6.652980e+003
7.000348e+002, 6.667965e+003
7.005169e+002, 6.675263e+003
7.009990e+002, 6.678061e+003
7.014811e+002, 6.674942e+003
7.019633e+002, 6.670297e+003
7.024454e+002, 6.667486e+003
7.029275e+002, 6.666146e+003
7.034096e+002, 6.665126e+003
7.038917e+002, 6.663093e+003
7.043738e+002, 6.662959e+003
7.048560e+002, 6.665494e+003
7.053381e+002, 6.670811e+003
7.058202e+002, 6.681551e+003
7.063023e+002, 6.696070e+003
7.067844e+002, 6.706405e+003
7.072665e+002, 6.706512e+003
7.077487e+002, 6.700711e+003
7.082308e+002, 6.700890e+003
7.087129e+002, 6.708164e+003
7.091950e+002, 6.716376e+003
7.096771e+002, 6.726200e+003
7.101592e+002, 6.734983e+003
7.106414e+002, 6.741775e+003
7.111235e+002, 6.746275e+003
7.116056e+002, 6.747257e+003
7.120877e+002, 6.742919e+003
7.125698e+002, 6.738948e+003
7.130519e+002, 6.737607e+003
7.135341e+002, 6.738499e+003
7.140162e+002, 6.741908e+003
7.144983e+002, 6.747283e+003
7.149804e+002, 6.752896e+003
7.154625e+002, 6.757857e+003
7.159446e+002, 6.762034e+003
7.164268e+002, 6.764284e+003
7.169089e+002, 6.762990e+003
7.173910e+002, 6.767499e+003
7.178731e+002, 6.783377e+003
7.183552e+002, 6.797848e+003
7.188373e+002, 6.804059e+003
7.193195e+002, 6.805657e+003
7.198016e+002, 6.807319e+003
7.202837e+002, 6.809472e+003
7.207658e+002, 6.813144e+003
7.212479e+002, 6.819139e+003
7.217300e+002, 6.826656e+003
7.222122e+002, 6.836173e+003
7.226943e+002, 6.846583e+003
7.231764e+002, 6.853707e+003
7.236585e+002, 6.855651e+003
7.241406e+002, 6.857090e+003
7.246227e+002, 6.865635e+003
7.251049e+002, 6.882308e+003
7.255870e+002, 6.897060e+003
7.260691e+002, 6.910717e+003
7.265512e+002, 6.920890e+003
7.270333e+002, 6.924642e+003
7.275154e+002, 6.925896e+003
7.279976e+002, 6.927378e+003
7.284797e+002, 6.929464e+003
7.289618e+002, 6.934804e+003
7.294439e+002, 6.943911e+003
7.299260e+002, 6.957228e+003
7.304081e+002, 6.979379e+003
7.308903e+002, 7.005508e+003
7.313724e+002, 7.024544e+003
7.318545e+002, 7.033259e+003
7.323366e+002, 7.034640e+003
7.328187e+002, 7.030513e+003
7.333008e+002, 7.021809e+003
7.337830e+002, 7.020078e+003
7.342651e+002, 7.029049e+003
7.347472e+002, 7.037023e+003
7.352293e+002, 7.039614e+003
7.357114e+002, 7.041917e+003
7.361935e+002, 7.048162e+003
7.366757e+002, 7.057509e+003
7.371578e+002, 7.065608e+003
7.376399e+002, 7.068423e+003
7.381220e+002, 7.073188e+003
7.386041e+002, 7.088187e+003
7.390862e+002, 7.106876e+003
7.395684e+002, 7.117819e+003
7.400505e+002, 7.120097e+003
7.405326e+002, 7.121108e+003
7.410147e+002, 7.126147e+003
7.414968e+002, 7.133917e+003
7.419789e+002, 7.139902e+003
7.424611e+002, 7.142257e+003
7.429432e+002, 7.149654e+003
7.434253e+002, 7.165602e+003
7.439074e+002, 7.183353e+003
7.443895e+002, 7.199477e+003
7.448716e+002, 7.214555e+003
7.453538e+002, 7.230166e+003
7.458359e+002, 7.247710e+003
7.463180e+002, 7.262019e+003
7.468001e+002, 7.266029e+003
7.472822e+002, 7.269039e+003
7.477643e+002, 7.281254e+003
7.482465e+002, 7.301363e+003
7.487286e+002, 7.323484e+003
7.492107e+002, 7.344897e+003
7.496928e+002, 7.365172e+003
7.501749e+002, 7.384330e+003
7.506570e+002, 7.402581e+003
7.511392e+002, 7.414527e+003
7.516213e+002, 7.414989e+003
7.521034e+002, 7.421304e+003
7.525855e+002, 7.444341e+003
7.530676e+002, 7.474089e+003
7.535497e+002, 7.497699e+003
7.540319e+002, 7.514760e+003
7.545140e+002, 7.534014e+003
7.549961e+002, 7.556545e+003
7.554782e+002, 7.582799e+003
7.559603e+002, 7.615819e+003
7.564424e+002, 7.651435e+003
7.569246e+002, 7.682852e+003
7.574067e+002, 7.709214e+003
7.578888e+002, 7.735618e+003
7.583709e+002, 7.766849e+003
7.588530e+002, 7.801611e+003
7.593351e+002, 7.834836e+003
7.598173e+002, 7.865774e+003
7.602994e+002, 7.900650e+003
7.607815e+002, 7.940847e+003
7.612636e+002, 7.984824e+003
7.617457e+002, 8.033132e+003
7.622278e+002, 8.084311e+003
7.627100e+002, 8.131489e+003
7.631921e+002, 8.170960e+003
7.636742e+002, 8.211824e+003
7.641563e+002, 8.254057e+003
7.646384e+002, 8.300030e+003
7.651205e+002, 8.352198e+003
7.656027e+002, 8.410109e+003
7.660848e+002, 8.472894e+003
7.665669e+002, 8.540643e+003
7.670490e+002, 8.608805e+003
7.675311e+002, 8.672266e+003
7.680132e+002, 8.731026e+003
7.684954e+002, 8.784150e+003
7.689775e+002, 8.831073e+003
7.694596e+002, 8.876856e+003
7.699417e+002, 8.923031e+003
7.704238e+002, 8.971066e+003
7.709059e+002, 9.024229e+003
7.713881e+002, 9.084277e+003
7.718702e+002, 9.141625e+003
7.723523e+002, 9.195368e+003
7.728344e+002, 9.247782e+003
7.733165e+002, 9.301524e+003
7.737986e+002, 9.352932e+003
7.742808e+002, 9.397206e+003
7.747629e+002, 9.434197e+003
7.752450e+002, 9.469624e+003
7.757271e+002, 9.507978e+003
7.762092e+002, 9.546045e+003
7.766913e+002, 9.579621e+003
7.771735e+002, 9.608719e+003
7.776556e+002, 9.632330e+003
7.781377e+002, 9.650197e+003
7.786198e+002, 9.666125e+003
7.791019e+002, 9.684163e+003
7.795840e+002, 9.702388e+003
7.800662e+002, 9.710107e+003
7.805483e+002, 9.699442e+003
7.810304e+002, 9.693146e+003
7.815125e+002, 9.695106e+003
7.819946e+002, 9.699077e+003
7.824767e+002, 9.700595e+003
7.829589e+002, 9.702349e+003
7.834410e+002, 9.709363e+003
7.839231e+002, 9.722913e+003
7.844052e+002, 9.741778e+003
7.848873e+002, 9.764819e+003
7.853694e+002, 9.793096e+003
7.858516e+002, 9.827106e+003
7.863337e+002, 9.867401e+003
7.868158e+002, 9.915316e+003
7.872979e+002, 9.971408e+003
7.877800e+002, 1.003529e+004
7.882621e+002, 1.010765e+004
7.887443e+002, 1.018798e+004
7.892264e+002, 1.026956e+004
7.897085e+002, 1.034784e+004
7.901906e+002, 1.044062e+004
7.906727e+002, 1.055885e+004
7.911548e+002, 1.068963e+004
7.916370e+002, 1.081996e+004
7.921191e+002, 1.095087e+004
7.926012e+002, 1.108687e+004
7.930833e+002, 1.122611e+004
7.935654e+002, 1.137444e+004
7.940475e+002, 1.154079e+004
7.945297e+002, 1.171177e+004
7.950118e+002, 1.187418e+004
7.954939e+002, 1.202851e+004
7.959760e+002, 1.218117e+004
7.964581e+002, 1.233535e+004
7.969402e+002, 1.249269e+004
7.974224e+002, 1.265594e+004
7.979045e+002, 1.282510e+004
7.983866e+002, 1.300038e+004
7.988687e+002, 1.318331e+004
7.993508e+002, 1.335280e+004
7.998329e+002, 1.349846e+004
8.003151e+002, 1.362361e+004
8.007972e+002, 1.373312e+004
8.012793e+002, 1.382980e+004
8.017614e+002, 1.389986e+004
8.022435e+002, 1.393994e+004
8.027256e+002, 1.396061e+004
8.032078e+002, 1.395796e+004
8.036899e+002, 1.394201e+004
8.041720e+002, 1.392152e+004
8.046541e+002, 1.389805e+004
8.051362e+002, 1.387050e+004
8.056183e+002, 1.384262e+004
8.061005e+002, 1.380572e+004
8.065826e+002, 1.374596e+004
8.070647e+002, 1.367150e+004
8.075468e+002, 1.360270e+004
8.080289e+002, 1.354166e+004
8.085110e+002, 1.347409e+004
8.089932e+002, 1.338954e+004
8.094753e+002, 1.329190e+004
8.099574e+002, 1.319258e+004
8.104395e+002, 1.309561e+004
8.109216e+002, 1.297639e+004
8.114037e+002, 1.283085e+004
8.118859e+002, 1.266866e+004
8.123680e+002, 1.249120e+004
8.128501e+002, 1.230119e+004
8.133322e+002, 1.209977e+004
8.138143e+002, 1.188535e+004
8.142964e+002, 1.167453e+004
8.147786e+002, 1.146749e+004
8.152607e+002, 1.126760e+004
8.157428e+002, 1.108086e+004
8.162249e+002, 1.090114e+004
8.167070e+002, 1.071887e+004
8.171891e+002, 1.053428e+004
8.176713e+002, 1.035794e+004
8.181534e+002, 1.019963e+004
8.186355e+002, 1.005372e+004
8.191176e+002, 9.908573e+003
8.195997e+002, 9.765184e+003
8.200818e+002, 9.632011e+003
8.205640e+002, 9.510710e+003
8.210461e+002, 9.397896e+003
8.215282e+002, 9.291554e+003
8.220103e+002, 9.191334e+003
8.224924e+002, 9.097404e+003
8.229745e+002, 9.010628e+003
8.234567e+002, 8.926672e+003
8.239388e+002, 8.843982e+003
8.244209e+002, 8.765498e+003
8.249030e+002, 8.691315e+003
8.253851e+002, 8.622077e+003
8.258672e+002, 8.558395e+003
8.263494e+002, 8.500222e+003
8.268315e+002, 8.449777e+003
8.273136e+002, 8.414535e+003
8.277957e+002, 8.381416e+003
8.282778e+002, 8.337983e+003
8.287599e+002, 8.289457e+003
8.292421e+002, 8.245201e+003
8.297242e+002, 8.207142e+003
8.302063e+002, 8.172486e+003
8.306884e+002, 8.138834e+003
8.311705e+002, 8.107259e+003
8.316526e+002, 8.081720e+003
8.321348e+002, 8.062629e+003
8.326169e+002, 8.039131e+003
8.330990e+002, 8.008967e+003
8.335811e+002, 7.976952e+003
8.340632e+002, 7.943536e+003
8.345453e+002, 7.911659e+003
8.350275e+002, 7.888458e+003
8.355096e+002, 7.879213e+003
8.359917e+002, 7.862803e+003
8.364738e+002, 7.830597e+003
8.369559e+002, 7.801068e+003
8.374380e+002, 7.783476e+003
8.379202e+002, 7.770527e+003
8.384023e+002, 7.753655e+003
8.388844e+002, 7.732155e+003
8.393665e+002, 7.711038e+003
8.398486e+002, 7.694450e+003
8.403307e+002, 7.677578e+003
8.408129e+002, 7.654632e+003
8.412950e+002, 7.628240e+003
8.417771e+002, 7.603414e+003
8.422592e+002, 7.580977e+003
8.427413e+002, 7.559269e+003
8.432234e+002, 7.537264e+003
8.437056e+002, 7.516687e+003
8.441877e+002, 7.503100e+003
8.446698e+002, 7.497821e+003
8.451519e+002, 7.482932e+003
8.456340e+002, 7.454583e+003
8.461161e+002, 7.426061e+003
8.465983e+002, 7.401916e+003
8.470804e+002, 7.381206e+003
8.475625e+002, 7.363064e+003
8.480446e+002, 7.347562e+003
8.485267e+002, 7.331935e+003
8.490089e+002, 7.313509e+003
8.494910e+002, 7.298218e+003
8.499731e+002, 7.292681e+003
8.504552e+002, 7.287087e+003
8.509373e+002, 7.270508e+003
8.514194e+002, 7.245658e+003
8.519016e+002, 7.223909e+003
8.523837e+002, 7.210497e+003
8.528658e+002, 7.200099e+003
8.533479e+002, 7.188221e+003
8.538300e+002, 7.175751e+003
8.543121e+002, 7.163466e+003
8.547943e+002, 7.151982e+003
8.552764e+002, 7.144021e+003
8.557585e+002, 7.140843e+003
8.562406e+002, 7.138869e+003
8.567227e+002, 7.133060e+003
8.572048e+002, 7.123859e+003
8.576870e+002, 7.116524e+003
8.581691e+002, 7.110524e+003
8.586512e+002, 7.109195e+003
8.591333e+002, 7.116542e+003
8.596154e+002, 7.123533e+003
8.600975e+002, 7.119311e+003
8.605797e+002, 7.107210e+003
8.610618e+002, 7.106347e+003
8.615439e+002, 7.129292e+003
8.620260e+002, 7.142262e+003
8.625081e+002, 7.132923e+003
8.629902e+002, 7.121628e+003
8.634724e+002, 7.120733e+003
8.639545e+002, 7.126126e+003
8.644366e+002, 7.129964e+003
8.649187e+002, 7.130353e+003
8.654008e+002, 7.130338e+003
8.658829e+002, 7.129124e+003
8.663651e+002, 7.130857e+003
8.668472e+002, 7.145063e+003
8.673293e+002, 7.165214e+003
8.678114e+002, 7.173929e+003
8.682935e+002, 7.168667e+003
8.687756e+002, 7.162389e+003
8.692578e+002, 7.164707e+003
8.697399e+002, 7.173563e+003
8.702220e+002, 7.185018e+003
8.707041e+002, 7.199230e+003
8.711862e+002, 7.210548e+003
8.716683e+002, 7.217074e+003
8.721505e+002, 7.225799e+003
8.726326e+002, 7.241030e+003
8.731147e+002, 7.259567e+003
8.735968e+002, 7.276068e+003
8.740789e+002, 7.289791e+003
8.745610e+002, 7.305247e+003
8.750432e+002, 7.326168e+003
8.755253e+002, 7.343648e+003
8.760074e+002, 7.352703e+003
8.764895e+002, 7.359857e+003
8.769716e+002, 7.371108e+003
8.774537e+002, 7.385667e+003
8.779359e+002, 7.398765e+003
8.784180e+002, 7.407883e+003
8.789001e+002, 7.417739e+003
8.793822e+002, 7.431580e+003
8.798643e+002, 7.447542e+003
8.803464e+002, 7.463636e+003
8.808286e+002, 7.480045e+003
8.813107e+002, 7.497296e+003
8.817928e+002, 7.515724e+003
8.822749e+002, 7.537161e+003
8.827570e+002, 7.564556e+003
8.832391e+002, 7.595995e+003
8.837213e+002, 7.625778e+003
8.842034e+002, 7.653882e+003
8.846855e+002, 7.679318e+003
8.851676e+002, 7.701701e+003
8.856497e+002, 7.722476e+003
8.861318e+002, 7.743377e+003
8.866140e+002, 7.763033e+003
8.870961e+002, 7.776488e+003
8.875782e+002, 7.781532e+003
8.880603e+002, 7.785825e+003
8.885424e+002, 7.787489e+003
8.890245e+002, 7.790961e+003
8.895067e+002, 7.801302e+003
8.899888e+002, 7.812337e+003
8.904709e+002, 7.817460e+003
8.909530e+002, 7.816362e+003
8.914351e+002, 7.810529e+003
8.919172e+002, 7.797982e+003
8.923994e+002, 7.783537e+003
8.928815e+002, 7.769079e+003
8.933636e+002, 7.753686e+003
8.938457e+002, 7.738417e+003
8.943278e+002, 7.721275e+003
8.948099e+002, 7.696375e+003
8.952921e+002, 7.660531e+003
8.957742e+002, 7.622448e+003
8.962563e+002, 7.587625e+003
8.967384e+002, 7.557595e+003
8.972205e+002, 7.536387e+003
8.977026e+002, 7.523046e+003
8.981848e+002, 7.513589e+003
8.986669e+002, 7.506743e+003
8.991490e+002, 7.504329e+003
8.996311e+002, 7.508817e+003
9.001132e+002, 7.518182e+003
9.005953e+002, 7.524519e+003
9.010775e+002, 7.527502e+003
9.015596e+002, 7.530865e+003
9.020417e+002, 7.534896e+003
9.025238e+002, 7.539645e+003
9.030059e+002, 7.544074e+003
9.034880e+002, 7.550292e+003
9.039702e+002, 7.563742e+003
9.044523e+002, 7.587789e+003
9.049344e+002, 7.605123e+003
9.054165e+002, 7.609071e+003
9.058986e+002, 7.614817e+003
9.063807e+002, 7.631498e+003
9.068629e+002, 7.646804e+003
9.073450e+002, 7.651170e+003
9.078271e+002, 7.644579e+003
9.083092e+002, 7.629900e+003
9.087913e+002, 7.606227e+003
9.092734e+002, 7.577801e+003
9.097556e+002, 7.543273e+003
9.102377e+002, 7.507483e+003
9.107198e+002, 7.474055e+003
9.112019e+002, 7.442966e+003
9.116840e+002, 7.413738e+003
9.121661e+002, 7.386181e+003
9.126483e+002, 7.359338e+003
9.131304e+002, 7.331707e+003
9.136125e+002, 7.304943e+003
9.140946e+002, 7.283146e+003
9.145767e+002, 7.264610e+003
9.150588e+002, 7.242776e+003
9.155410e+002, 7.217104e+003
9.160231e+002, 7.194729e+003
9.165052e+002, 7.180085e+003
9.169873e+002, 7.171117e+003
9.174694e+002, 7.164867e+003
9.179515e+002, 7.161531e+003
9.184337e+002, 7.154304e+003
9.189158e+002, 7.142148e+003
9.193979e+002, 7.130823e+003
9.198800e+002, 7.123119e+003
9.203621e+002, 7.115331e+003
9.208442e+002, 7.103274e+003
9.213264e+002, 7.087386e+003
9.218085e+002, 7.072596e+003
9.222906e+002, 7.054360e+003
9.227727e+002, 7.044751e+003
9.232548e+002, 7.049895e+003
9.237369e+002, 7.057322e+003
9.242191e+002, 7.066361e+003
9.247012e+002, 7.071729e+003
9.251833e+002, 7.063937e+003
9.256654e+002, 7.041442e+003
9.261475e+002, 7.019769e+003
9.266296e+002, 7.003361e+003
9.271118e+002, 6.989172e+003
9.275939e+002, 6.975907e+003
9.280760e+002, 6.963792e+003
9.285581e+002, 6.953599e+003
9.290402e+002, 6.944826e+003
9.295223e+002, 6.935665e+003
9.300045e+002, 6.925003e+003
9.304866e+002, 6.915519e+003
9.309687e+002, 6.909790e+003
9.314508e+002, 6.906601e+003
9.319329e+002, 6.905195e+003
9.324150e+002, 6.904604e+003
9.328972e+002, 6.903222e+003
9.333793e+002, 6.900221e+003
9.338614e+002, 6.892280e+003
9.343435e+002, 6.875154e+003
9.348256e+002, 6.854237e+003
9.353077e+002, 6.843612e+003
9.357899e+002, 6.842604e+003
9.362720e+002, 6.841928e+003
9.367541e+002, 6.840938e+003
9.372362e+002, 6.835844e+003
9.377183e+002, 6.823678e+003
9.382004e+002, 6.809917e+003
9.386826e+002, 6.802968e+003
9.391647e+002, 6.803006e+003
9.396468e+002, 6.802556e+003
9.401289e+002, 6.801519e+003
9.406110e+002, 6.800230e+003
9.410931e+002, 6.798235e+003
9.415753e+002, 6.796779e+003
9.420574e+002, 6.799414e+003
9.425395e+002, 6.802758e+003
9.430216e+002, 6.796661e+003
9.435037e+002, 6.775930e+003
9.439858e+002, 6.761746e+003
9.444680e+002, 6.759992e+003
9.449501e+002, 6.760009e+003
9.454322e+002, 6.757545e+003
9.459143e+002, 6.755124e+003
9.463964e+002, 6.755562e+003
9.468785e+002, 6.758750e+003
9.473607e+002, 6.763061e+003
9.478428e+002, 6.769486e+003
9.483249e+002, 6.773614e+003
9.488070e+002, 6.770311e+003
9.492891e+002, 6.765905e+003
9.497712e+002, 6.767478e+003
9.502534e+002, 6.772266e+003
9.507355e+002, 6.772992e+003
9.512176e+002, 6.768391e+003
9.516997e+002, 6.765697e+003
9.521818e+002, 6.772089e+003
9.526639e+002, 6.781072e+003
9.531461e+002, 6.783659e+003
9.536282e+002, 6.781953e+003
9.541103e+002, 6.780244e+003
9.545924e+002, 6.779307e+003
9.550745e+002, 6.779944e+003
9.555566e+002, 6.782629e+003
9.560388e+002, 6.784393e+003
9.565209e+002, 6.780133e+003
9.570030e+002, 6.771521e+003
9.574851e+002, 6.766663e+003
9.579672e+002, 6.765568e+003
9.584493e+002, 6.768190e+003
9.589315e+002, 6.775008e+003
9.594136e+002, 6.782043e+003
9.598957e+002, 6.786758e+003
9.603778e+002, 6.788898e+003
9.608599e+002, 6.787432e+003
9.613420e+002, 6.781518e+003
9.618242e+002, 6.776109e+003
9.623063e+002, 6.770982e+003
9.627884e+002, 6.767006e+003
9.632705e+002, 6.765362e+003
9.637526e+002, 6.763748e+003
9.642347e+002, 6.758945e+003
9.647169e+002, 6.751788e+003
9.651990e+002, 6.748438e+003
9.656811e+002, 6.750148e+003
9.661632e+002, 6.753877e+003
9.666453e+002, 6.764220e+003
9.671274e+002, 6.771313e+003
9.676096e+002, 6.767155e+003
9.680917e+002, 6.759704e+003
9.685738e+002, 6.760616e+003
9.690559e+002, 6.770010e+003
9.695380e+002, 6.774463e+003
9.700201e+002, 6.765144e+003
9.705023e+002, 6.757866e+003
9.709844e+002, 6.762092e+003
9.714665e+002, 6.767042e+003
9.719486e+002, 6.763061e+003
9.724307e+002, 6.753219e+003
9.729128e+002, 6.744158e+003
9.733950e+002, 6.737732e+003
9.738771e+002, 6.734542e+003
9.743592e+002, 6.737628e+003
9.748413e+002, 6.741389e+003
9.753234e+002, 6.740585e+003
9.758055e+002, 6.737461e+003
9.762877e+002, 6.734550e+003
9.767698e+002, 6.732694e+003
9.772519e+002, 6.732896e+003
9.777340e+002, 6.735648e+003
9.782161e+002, 6.739745e+003
9.786982e+002, 6.744864e+003
9.791804e+002, 6.749883e+003
9.796625e+002, 6.751313e+003
9.801446e+002, 6.750682e+003
9.806267e+002, 6.753831e+003
9.811088e+002, 6.761640e+003
9.815909e+002, 6.770450e+003
9.820731e+002, 6.778053e+003
9.825552e+002, 6.783365e+003
9.830373e+002, 6.784220e+003
9.835194e+002, 6.780930e+003
9.840015e+002, 6.774979e+003
9.844836e+002, 6.766439e+003
9.849658e+002, 6.759372e+003
9.854479e+002, 6.755039e+003
9.859300e+002, 6.752764e+003
9.864121e+002, 6.752034e+003
9.868942e+002, 6.752701e+003
9.873763e+002, 6.754348e+003
9.878585e+002, 6.757086e+003
9.883406e+002, 6.759931e+003
9.888227e+002, 6.762481e+003
9.893048e+002, 6.766631e+003
9.897869e+002, 6.774283e+003
9.902690e+002, 6.781758e+003
9.907512e+002, 6.784781e+003
9.912333e+002, 6.783512e+003
9.917154e+002, 6.779755e+003
9.921975e+002, 6.770742e+003
9.926796e+002, 6.765029e+003
9.931617e+002, 6.763314e+003
9.936439e+002, 6.764846e+003
9.941260e+002, 6.772914e+003
9.946081e+002, 6.781955e+003
9.950902e+002, 6.782747e+003
9.955723e+002, 6.774913e+003
9.960544e+002, 6.770951e+003
9.965366e+002, 6.773708e+003
9.970187e+002, 6.777000e+003
9.975008e+002, 6.779188e+003
9.979829e+002, 6.782342e+003
9.984650e+002, 6.789553e+003
9.989471e+002, 6.797896e+003
9.994293e+002, 6.802261e+003
9.999114e+002, 6.801881e+003
1.000393e+003, 6.800008e+003
1.000876e+003, 6.796570e+003
1.001358e+003, 6.793008e+003
1.001840e+003, 6.789022e+003
1.002322e+003, 6.785962e+003
1.002804e+003, 6.785638e+003
1.003286e+003, 6.787067e+003
1.003768e+003, 6.787559e+003
1.004250e+003, 6.786270e+003
1.004733e+003, 6.786343e+003
1.005215e+003, 6.791769e+003
1.005697e+003, 6.796743e+003
1.006179e+003, 6.796604e+003
1.006661e+003, 6.793623e+003
1.007143e+003, 6.789913e+003
1.007625e+003, 6.786366e+003
1.008107e+003, 6.783270e+003
1.008589e+003, 6.780489e+003
1.009072e+003, 6.781834e+003
1.009554e+003, 6.793850e+003
1.010036e+003, 6.808902e+003
1.010518e+003, 6.819303e+003
1.011000e+003, 6.825109e+003
1.011482e+003, 6.826301e+003
1.011964e+003, 6.823602e+003
1.012446e+003, 6.818688e+003
1.012929e+003, 6.811953e+003
1.013411e+003, 6.808107e+003
1.013893e+003, 6.816420e+003
1.014375e+003, 6.829914e+003
1.014857e+003, 6.831885e+003
1.015339e+003, 6.826259e+003
1.015821e+003, 6.829280e+003
1.016303e+003, 6.843575e+003
1.016785e+003, 6.858334e+003
1.017268e+003, 6.866665e+003
1.017750e+003, 6.868635e+003
1.018232e+003, 6.862057e+003
1.018714e+003, 6.849271e+003
1.019196e+003, 6.839420e+003
1.019678e+003, 6.832768e+003
1.020160e+003, 6.828854e+003
1.020642e+003, 6.827497e+003
1.021125e+003, 6.826196e+003
1.021607e+003, 6.822888e+003
1.022089e+003, 6.818380e+003
1.022571e+003, 6.814136e+003
1.023053e+003, 6.810188e+003
1.023535e+003, 6.807677e+003
1.024017e+003, 6.806589e+003
1.024499e+003, 6.809146e+003
1.024981e+003, 6.816732e+003
1.025464e+003, 6.823042e+003
1.025946e+003, 6.821854e+003
1.026428e+003, 6.815898e+003
1.026910e+003, 6.814206e+003
1.027392e+003, 6.817508e+003
1.027874e+003, 6.816892e+003
1.028356e+003, 6.810072e+003
1.028838e+003, 6.809675e+003
1.029321e+003, 6.821748e+003
1.029803e+003, 6.836815e+003
1.030285e+003, 6.845809e+003
1.030767e+003, 6.850001e+003
1.031249e+003, 6.855793e+003
1.031731e+003, 6.865255e+003
1.032213e+003, 6.867713e+003
1.032695e+003, 6.860167e+003
1.033177e+003, 6.852288e+003
1.033660e+003, 6.846822e+003
1.034142e+003, 6.843427e+003
1.034624e+003, 6.840388e+003
1.035106e+003, 6.839083e+003
1.035588e+003, 6.849284e+003
1.036070e+003, 6.881274e+003
1.036552e+003, 6.899779e+003
1.037034e+003, 6.898448e+003
1.037516e+003, 6.893335e+003
1.037999e+003, 6.888591e+003
1.038481e+003, 6.884632e+003
1.038963e+003, 6.881985e+003
1.039445e+003, 6.880575e+003
1.039927e+003, 6.879841e+003
1.040409e+003, 6.881585e+003
1.040891e+003, 6.880835e+003
1.041373e+003, 6.875504e+003
1.041855e+003, 6.870369e+003
1.042338e+003, 6.864544e+003
1.042820e+003, 6.861733e+003
1.043302e+003, 6.868857e+003
1.043784e+003, 6.883893e+003
1.044266e+003, 6.891268e+003
1.044748e+003, 6.889110e+003
1.045230e+003, 6.881690e+003
1.045712e+003, 6.858081e+003
1.046195e+003, 6.842679e+003
1.046677e+003, 6.852359e+003
1.047159e+003, 6.869934e+003
1.047641e+003, 6.877255e+003
1.048123e+003, 6.874832e+003
1.048605e+003, 6.872098e+003
1.049087e+003, 6.870557e+003
1.049569e+003, 6.867750e+003
1.050052e+003, 6.861419e+003
1.050534e+003, 6.855936e+003
1.051016e+003, 6.852104e+003
1.051498e+003, 6.850931e+003
1.051980e+003, 6.855596e+003
1.052462e+003, 6.864502e+003
1.052944e+003, 6.868138e+003
1.053426e+003, 6.859185e+003
1.053908e+003, 6.856367e+003
1.054391e+003, 6.872060e+003
1.054873e+003, 6.885411e+003
1.055355e+003, 6.882273e+003
1.055837e+003, 6.873644e+003
1.056319e+003, 6.871255e+003
1.056801e+003, 6.875778e+003
1.057283e+003, 6.884409e+003
1.057765e+003, 6.900904e+003
1.058248e+003, 6.910935e+003
1.058730e+003, 6.906350e+003
1.059212e+003, 6.898825e+003
1.059694e+003, 6.891405e+003
1.060176e+003, 6.887050e+003
1.060658e+003, 6.891331e+003
1.061140e+003, 6.901789e+003
1.061622e+003, 6.907287e+003
1.062104e+003, 6.903927e+003
1.062587e+003, 6.897991e+003
1.063069e+003, 6.885875e+003
1.063551e+003, 6.878467e+003
1.064033e+003, 6.885409e+003
1.064515e+003, 6.898243e+003
1.064997e+003, 6.909901e+003
1.065479e+003, 6.918056e+003
1.065961e+003, 6.918250e+003
1.066443e+003, 6.905918e+003
1.066926e+003, 6.897333e+003
1.067408e+003, 6.901749e+003
1.067890e+003, 6.908759e+003
1.068372e+003, 6.914353e+003
1.068854e+003, 6.917527e+003
1.069336e+003, 6.916884e+003
1.069818e+003, 6.913168e+003
1.070300e+003, 6.908359e+003
1.070782e+003, 6.902290e+003
1.071265e+003, 6.898717e+003
1.071747e+003, 6.902858e+003
1.072229e+003, 6.905833e+003
1.072711e+003, 6.898352e+003
1.073193e+003, 6.889875e+003
1.073675e+003, 6.892983e+003
1.074157e+003, 6.904266e+003
1.074639e+003, 6.911422e+003
1.075122e+003, 6.910814e+003
1.075604e+003, 6.907762e+003
1.076086e+003, 6.904180e+003
1.076568e+003, 6.899528e+003
1.077050e+003, 6.890968e+003
1.077532e+003, 6.883200e+003
1.078014e+003, 6.882668e+003
1.078496e+003, 6.886811e+003
1.078979e+003, 6.887749e+003
1.079461e+003, 6.883207e+003
1.079943e+003, 6.880646e+003
1.080425e+003, 6.884260e+003
1.080907e+003, 6.889820e+003
1.081389e+003, 6.896011e+003
1.081871e+003, 6.902163e+003
1.082353e+003, 6.909722e+003
1.082835e+003, 6.916153e+003
1.083318e+003, 6.914352e+003
1.083800e+003, 6.902948e+003
1.084282e+003, 6.896558e+003
1.084764e+003, 6.906927e+003
1.085246e+003, 6.916898e+003
1.085728e+003, 6.917073e+003
1.086210e+003, 6.913973e+003
1.086692e+003, 6.910042e+003
1.087175e+003, 6.908467e+003
1.087657e+003, 6.916057e+003
1.088139e+003, 6.933021e+003
1.088621e+003, 6.945552e+003
1.089103e+003, 6.947665e+003
1.089585e+003, 6.944898e+003
1.090067e+003, 6.937147e+003
1.090549e+003, 6.927807e+003
1.091031e+003, 6.914865e+003
1.091514e+003, 6.904498e+003
1.091996e+003, 6.907457e+003
1.092478e+003, 6.923487e+003
1.092960e+003, 6.939438e+003
1.093442e+003, 6.955482e+003
1.093924e+003, 6.962261e+003
1.094406e+003, 6.950039e+003
1.094888e+003, 6.934265e+003
1.095370e+003, 6.922318e+003
1.095853e+003, 6.914647e+003
1.096335e+003, 6.912520e+003
1.096817e+003, 6.914732e+003
1.097299e+003, 6.916108e+003
1.097781e+003, 6.916618e+003
1.098263e+003, 6.912998e+003
1.098745e+003, 6.896950e+003
1.099227e+003, 6.885220e+003
1.099709e+003, 6.890070e+003
1.100192e+003, 6.901134e+003
1.100674e+003, 6.908541e+003
1.101156e+003, 6.911938e+003
1.101638e+003, 6.913631e+003
1.102120e+003, 6.913666e+003
1.102602e+003, 6.913270e+003
1.103084e+003, 6.910703e+003
1.103566e+003, 6.910182e+003
1.104049e+003, 6.916881e+003
1.104531e+003, 6.923024e+003
1.105013e+003, 6.920468e+003
1.105495e+003, 6.912398e+003
1.105977e+003, 6.905612e+003
1.106459e+003, 6.899612e+003
1.106941e+003, 6.903623e+003
1.107423e+003, 6.926492e+003
1.107906e+003, 6.949377e+003
1.108388e+003, 6.974624e+003
1.108870e+003, 6.990881e+003
1.109352e+003, 6.985858e+003
1.109834e+003, 6.968947e+003
1.110316e+003, 6.956143e+003
1.110798e+003, 6.948564e+003
1.111280e+003, 6.939944e+003
1.111762e+003, 6.927197e+003
1.112245e+003, 6.917396e+003
1.112727e+003, 6.914414e+003
1.113209e+003, 6.911139e+003
1.113691e+003, 6.899915e+003
1.114173e+003, 6.889187e+003
1.114655e+003, 6.892076e+003
1.115137e+003, 6.907242e+003
1.115619e+003, 6.916172e+003
1.116102e+003, 6.912943e+003
1.116584e+003, 6.913903e+003
1.117066e+003, 6.923837e+003
1.117548e+003, 6.931001e+003
1.118030e+003, 6.930354e+003
1.118512e+003, 6.926175e+003
1.118994e+003, 6.920938e+003
1.119476e+003, 6.915765e+003
1.119958e+003, 6.915430e+003
1.120441e+003, 6.921565e+003
1.120923e+003, 6.927572e+003
1.121405e+003, 6.934561e+003
1.121887e+003, 6.938618e+003
1.122369e+003, 6.936438e+003
1.122851e+003, 6.935843e+003
1.123333e+003, 6.945406e+003
1.123815e+003, 6.957614e+003
1.124297e+003, 6.954314e+003
1.124780e+003, 6.933625e+003
1.125262e+003, 6.922260e+003
1.125744e+003, 6.921665e+003
1.126226e+003, 6.926268e+003
1.126708e+003, 6.937111e+003
1.127190e+003, 6.946337e+003
1.127672e+003, 6.949221e+003
1.128154e+003, 6.949050e+003
1.128636e+003, 6.950479e+003
1.129119e+003, 6.953292e+003
1.129601e+003, 6.956117e+003
1.130083e+003, 6.959104e+003
1.130565e+003, 6.959894e+003
1.131047e+003, 6.957985e+003
1.131529e+003, 6.955726e+003
1.132011e+003, 6.953811e+003
1.132493e+003, 6.953782e+003
1.132976e+003, 6.957743e+003
1.133458e+003, 6.963680e+003
1.133940e+003, 6.964969e+003
1.134422e+003, 6.962210e+003
1.134904e+003, 6.963337e+003
1.135386e+003, 6.968532e+003
1.135868e+003, 6.973961e+003
1.136350e+003, 6.978568e+003
1.136833e+003, 6.981913e+003
1.137315e+003, 6.983560e+003
1.137797e+003, 6.984824e+003
1.138279e+003, 6.988571e+003
1.138761e+003, 6.993661e+003
1.139243e+003, 6.995116e+003
1.139725e+003, 6.994150e+003
1.140207e+003, 6.997083e+003
1.140689e+003, 7.003998e+003
1.141172e+003, 7.008177e+003
1.141654e+003, 7.006458e+003
1.142136e+003, 7.001817e+003
1.142618e+003, 6.996467e+003
1.143100e+003, 6.991280e+003
1.143582e+003, 6.986079e+003
1.144064e+003, 6.982899e+003
1.144546e+003, 6.985562e+003
1.145029e+003, 6.994313e+003
1.145511e+003, 7.010371e+003
1.145993e+003, 7.032888e+003
1.146475e+003, 7.054575e+003
1.146957e+003, 7.073922e+003
1.147439e+003, 7.081555e+003
1.147921e+003, 7.058992e+003
1.148403e+003, 7.027156e+003
1.148885e+003, 7.008536e+003
1.149368e+003, 7.001173e+003
1.149850e+003, 7.000053e+003
1.150332e+003, 7.003536e+003
1.150814e+003, 7.010814e+003
1.151296e+003, 7.022047e+003
1.151778e+003, 7.034025e+003
1.152260e+003, 7.044893e+003
1.152742e+003, 7.055728e+003
1.153224e+003, 7.073255e+003
1.153707e+003, 7.086415e+003
1.154189e+003, 7.080188e+003
1.154671e+003, 7.060965e+003
1.155153e+003, 7.044092e+003
1.155635e+003, 7.032607e+003
1.156117e+003, 7.024366e+003
1.156599e+003, 7.020844e+003
1.157081e+003, 7.017415e+003
1.157563e+003, 7.011899e+003
1.158046e+003, 7.006858e+003
1.158528e+003, 7.001493e+003
1.159010e+003, 6.999082e+003
1.159492e+003, 7.006407e+003
1.159974e+003, 7.021893e+003
1.160456e+003, 7.030868e+003
1.160938e+003, 7.026833e+003
1.161420e+003, 7.026560e+003
1.161903e+003, 7.033372e+003
1.162385e+003, 7.040211e+003
1.162867e+003, 7.047888e+003
1.163349e+003, 7.051487e+003
1.163831e+003, 7.043970e+003
1.164313e+003, 7.031378e+003
1.164795e+003, 7.029261e+003
1.165277e+003, 7.039362e+003
1.165760e+003, 7.044958e+003
1.166242e+003, 7.044443e+003
1.166724e+003, 7.044630e+003
1.167206e+003, 7.046811e+003
1.167688e+003, 7.048921e+003
1.168170e+003, 7.049685e+003
1.168652e+003, 7.050727e+003
1.169134e+003, 7.054673e+003
1.169616e+003, 7.060238e+003
1.170099e+003, 7.060454e+003
1.170581e+003, 7.055241e+003
1.171063e+003, 7.052323e+003
1.171545e+003, 7.052164e+003
1.172027e+003, 7.053950e+003
1.172509e+003, 7.057442e+003
1.172991e+003, 7.062719e+003
1.173473e+003, 7.070346e+003
1.173956e+003, 7.076825e+003
1.174438e+003, 7.074983e+003
1.174920e+003, 7.067335e+003
1.175402e+003, 7.059945e+003
1.175884e+003, 7.054286e+003
1.176366e+003, 7.057400e+003
1.176848e+003, 7.068203e+003
1.177330e+003, 7.075853e+003
1.177813e+003, 7.075870e+003
1.178295e+003, 7.074721e+003
1.178777e+003, 7.076536e+003
1.179259e+003, 7.082728e+003
1.179741e+003, 7.100331e+003
1.180223e+003, 7.119643e+003
1.180705e+003, 7.127229e+003
1.181187e+003, 7.124757e+003
1.181669e+003, 7.116188e+003
1.182151e+003, 7.103714e+003
1.182634e+003, 7.090932e+003
1.183116e+003, 7.078269e+003
1.183598e+003, 7.070273e+003
1.184080e+003, 7.072496e+003
1.184562e+003, 7.076974e+003
1.185044e+003, 7.077337e+003
1.185526e+003, 7.078049e+003
1.186008e+003, 7.086497e+003
1.186490e+003, 7.098583e+003
1.186973e+003, 7.103896e+003
1.187455e+003, 7.100450e+003
1.187937e+003, 7.095314e+003
1.188419e+003, 7.082706e+003
1.188901e+003, 7.079197e+003
1.189383e+003, 7.097098e+003
1.189865e+003, 7.114140e+003
1.190347e+003, 7.117937e+003
1.190830e+003, 7.116070e+003
1.191312e+003, 7.116169e+003
1.191794e+003, 7.117695e+003
1.192276e+003, 7.117990e+003
1.192758e+003, 7.116859e+003
1.193240e+003, 7.114961e+003
1.193722e+003, 7.111462e+003
1.194204e+003, 7.109594e+003
1.194687e+003, 7.109752e+003
1.195169e+003, 7.113532e+003
1.195651e+003, 7.123393e+003
1.196133e+003, 7.133445e+003
1.196615e+003, 7.133970e+003
1.197097e+003, 7.126338e+003
1.197579e+003, 7.117162e+003
1.198061e+003, 7.106812e+003
1.198543e+003, 7.104659e+003
1.199026e+003, 7.110947e+003
1.199508e+003, 7.115796e+003
1.199990e+003, 7.115892e+003
1.200472e+003, 7.114760e+003
1.200954e+003, 7.115123e+003
1.201436e+003, 7.116052e+003
1.201918e+003, 7.116667e+003
1.202400e+003, 7.116515e+003
1.202883e+003, 7.112972e+003
1.203365e+003, 7.108544e+003
1.203847e+003, 7.110045e+003
1.204329e+003, 7.116572e+003
1.204811e+003, 7.122006e+003
1.205293e+003, 7.123993e+003
1.205775e+003, 7.123034e+003
1.206257e+003, 7.118746e+003
1.206740e+003, 7.112671e+003
1.207222e+003, 7.103912e+003
1.207704e+003, 7.095860e+003
1.208186e+003, 7.090269e+003
1.208668e+003, 7.088307e+003
1.209150e+003, 7.093475e+003
1.209632e+003, 7.103922e+003
1.210114e+003, 7.110009e+003
1.210596e+003, 7.107615e+003
1.211078e+003, 7.107413e+003
1.211561e+003, 7.115321e+003
1.212043e+003, 7.120395e+003
1.212525e+003, 7.116870e+003
1.213007e+003, 7.112028e+003
1.213489e+003, 7.110412e+003
1.213971e+003, 7.110284e+003
1.214453e+003, 7.107854e+003
1.214935e+003, 7.103612e+003
1.215417e+003, 7.108752e+003
1.215900e+003, 7.127762e+003
1.216382e+003, 7.138131e+003
1.216864e+003, 7.136506e+003
1.217346e+003, 7.135889e+003
1.217828e+003, 7.140850e+003
1.218310e+003, 7.144796e+003
1.218792e+003, 7.142306e+003
1.219274e+003, 7.137578e+003
1.219757e+003, 7.140341e+003
1.220239e+003, 7.147383e+003
1.220721e+003, 7.139320e+003
1.221203e+003, 7.120631e+003
1.221685e+003, 7.114440e+003
1.222167e+003, 7.121682e+003
1.222649e+003, 7.129559e+003
1.223131e+003, 7.133650e+003
1.223614e+003, 7.138681e+003
1.224096e+003, 7.148101e+003
1.224578e+003, 7.160383e+003
1.225060e+003, 7.176374e+003
1.225542e+003, 7.191994e+003
1.226024e+003, 7.205191e+003
1.226506e+003, 7.212721e+003
1.226988e+003, 7.208249e+003
1.227470e+003, 7.194126e+003
1.227953e+003, 7.177361e+003
1.228435e+003, 7.159742e+003
1.228917e+003, 7.145296e+003
1.229399e+003, 7.134482e+003
1.229881e+003, 7.128716e+003
1.230363e+003, 7.131595e+003
1.230845e+003, 7.135954e+003
1.231327e+003, 7.137775e+003
1.231810e+003, 7.138640e+003
1.232292e+003, 7.141197e+003
1.232774e+003, 7.144575e+003
1.233256e+003, 7.144826e+003
1.233738e+003, 7.140527e+003
1.234220e+003, 7.139183e+003
1.234702e+003, 7.141029e+003
1.235184e+003, 7.145746e+003
1.235667e+003, 7.154713e+003
1.236149e+003, 7.160921e+003
1.236631e+003, 7.160576e+003
1.237113e+003, 7.156492e+003
1.237595e+003, 7.151320e+003
1.238077e+003, 7.146318e+003
1.238559e+003, 7.146890e+003
1.239041e+003, 7.151063e+003
1.239523e+003, 7.147292e+003
1.240005e+003, 7.136960e+003
1.240488e+003, 7.128349e+003
1.240970e+003, 7.123668e+003
1.241452e+003, 7.123339e+003
1.241934e+003, 7.127577e+003
1.242416e+003, 7.135361e+003
1.242898e+003, 7.150405e+003
1.243380e+003, 7.163148e+003
1.243862e+003, 7.161307e+003
1.244344e+003, 7.154209e+003
1.244827e+003, 7.149648e+003
1.245309e+003, 7.149139e+003
1.245791e+003, 7.155518e+003
1.246273e+003, 7.167140e+003
1.246755e+003, 7.175952e+003
1.247237e+003, 7.180658e+003
1.247719e+003, 7.179852e+003
1.248201e+003, 7.167099e+003
1.248684e+003, 7.157408e+003
1.249166e+003, 7.158418e+003
1.249648e+003, 7.159925e+003
1.250130e+003, 7.154427e+003
1.250612e+003, 7.148087e+003
1.251094e+003, 7.149837e+003
1.251576e+003, 7.158193e+003
1.252058e+003, 7.163698e+003
1.252541e+003, 7.166399e+003
1.253023e+003, 7.165321e+003
1.253505e+003, 7.160001e+003
1.253987e+003, 7.156076e+003
1.254469e+003, 7.154829e+003
1.254951e+003, 7.155129e+003
1.255433e+003, 7.156271e+003
1.255915e+003, 7.159786e+003
1.256397e+003, 7.169714e+003
1.256880e+003, 7.180240e+003
1.257362e+003, 7.175733e+003
1.257844e+003, 7.165622e+003
1.258326e+003, 7.169938e+003
1.258808e+003, 7.184527e+003
1.259290e+003, 7.196290e+003
1.259772e+003, 7.203500e+003
1.260254e+003, 7.213236e+003
1.260737e+003, 7.229187e+003
1.261219e+003, 7.240977e+003
1.261701e+003, 7.240318e+003
1.262183e+003, 7.238006e+003
1.262665e+003, 7.239156e+003
1.263147e+003, 7.240688e+003
1.263629e+003, 7.239172e+003
1.264111e+003, 7.237280e+003
1.264594e+003, 7.241124e+003
1.265076e+003, 7.248627e+003
1.265558e+003, 7.246735e+003
1.266040e+003, 7.230377e+003
1.266522e+003, 7.223550e+003
1.267004e+003, 7.229573e+003
1.267486e+003, 7.232962e+003
1.267968e+003, 7.230106e+003
1.268450e+003, 7.227995e+003
1.268932e+003, 7.230543e+003
1.269415e+003, 7.233061e+003
1.269897e+003, 7.230078e+003
1.270379e+003, 7.223635e+003
1.270861e+003, 7.216483e+003
1.271343e+003, 7.210631e+003
1.271825e+003, 7.213478e+003
1.272307e+003, 7.222818e+003
1.272789e+003, 7.233378e+003
1.273271e+003, 7.242715e+003
1.273754e+003, 7.245634e+003
1.274236e+003, 7.240433e+003
1.274718e+003, 7.236057e+003
1.275200e+003, 7.241252e+003
1.275682e+003, 7.244866e+003
1.276164e+003, 7.236409e+003
1.276646e+003, 7.228261e+003
1.277128e+003, 7.229150e+003
1.277611e+003, 7.235530e+003
1.278093e+003, 7.245378e+003
1.278575e+003, 7.256519e+003
1.279057e+003, 7.262749e+003
1.279539e+003, 7.263813e+003
1.280021e+003, 7.263695e+003
1.280503e+003, 7.258339e+003
1.280985e+003, 7.260159e+003
1.281468e+003, 7.275303e+003
1.281950e+003, 7.286785e+003
1.282432e+003, 7.287099e+003
1.282914e+003, 7.288206e+003
1.283396e+003, 7.300794e+003
1.283878e+003, 7.318095e+003
1.284360e+003, 7.328625e+003
1.284842e+003, 7.329986e+003
1.285324e+003, 7.316723e+003
##END=



