##NAMES=Metatorbernite
##RRUFFID=R070683
##IDEAL CHEMISTRY=Cu^2+^(U^6+^O_2_)_2_(PO_4_)_2_&#183;8H_2_O
##LOCALITY=Chalk Mountain mine, Spruce Pine, Spruce Pine District, Mitchell County, North Carolina, USA
##OWNER=RRUFF
##SOURCE=Michael Scott
##DESCRIPTION=Emerald-green tabular crystals associated with quartz and muscovite
##STATUS=The identification of this mineral has been confirmed by single-crystal X-ray diffraction.
##URL=rruff.info/R070683
9.001007e+001, 0.000000e+000
9.049219e+001, 2.254746e+001
9.097430e+001, 2.276107e+001
9.145642e+001, 2.270772e+001
9.193854e+001, 2.240994e+001
9.242065e+001, 2.205580e+001
9.290277e+001, 2.175442e+001
9.338489e+001, 2.150710e+001
9.386700e+001, 2.132337e+001
9.434912e+001, 2.125739e+001
9.483124e+001, 2.124361e+001
9.531335e+001, 2.115350e+001
9.579547e+001, 2.098488e+001
9.627759e+001, 2.074992e+001
9.675970e+001, 2.039547e+001
9.724182e+001, 1.993779e+001
9.772394e+001, 1.957777e+001
9.820605e+001, 1.947945e+001
9.868817e+001, 1.961056e+001
9.917029e+001, 1.955935e+001
9.965240e+001, 1.928052e+001
1.001345e+002, 1.888325e+001
1.006166e+002, 1.858708e+001
1.010988e+002, 1.841190e+001
1.015809e+002, 1.823840e+001
1.020630e+002, 1.797301e+001
1.025451e+002, 1.756899e+001
1.030272e+002, 1.730808e+001
1.035093e+002, 1.725886e+001
1.039915e+002, 1.735993e+001
1.044736e+002, 1.734461e+001
1.049557e+002, 1.716498e+001
1.054378e+002, 1.693780e+001
1.059199e+002, 1.674957e+001
1.064020e+002, 1.665598e+001
1.068842e+002, 1.648782e+001
1.073663e+002, 1.614277e+001
1.078484e+002, 1.561777e+001
1.083305e+002, 1.537119e+001
1.088126e+002, 1.567583e+001
1.092947e+002, 1.610630e+001
1.097769e+002, 1.627160e+001
1.102590e+002, 1.588042e+001
1.107411e+002, 1.551857e+001
1.112232e+002, 1.530309e+001
1.117053e+002, 1.527751e+001
1.121874e+002, 1.521371e+001
1.126696e+002, 1.506179e+001
1.131517e+002, 1.487346e+001
1.136338e+002, 1.471576e+001
1.141159e+002, 1.469722e+001
1.145980e+002, 1.463080e+001
1.150801e+002, 1.442533e+001
1.155623e+002, 1.399187e+001
1.160444e+002, 1.361322e+001
1.165265e+002, 1.337364e+001
1.170086e+002, 1.323910e+001
1.174907e+002, 1.314820e+001
1.179728e+002, 1.303745e+001
1.184550e+002, 1.298652e+001
1.189371e+002, 1.307856e+001
1.194192e+002, 1.351315e+001
1.199013e+002, 1.381134e+001
1.203834e+002, 1.360333e+001
1.208655e+002, 1.300484e+001
1.213477e+002, 1.246661e+001
1.218298e+002, 1.226315e+001
1.223119e+002, 1.224435e+001
1.227940e+002, 1.225683e+001
1.232761e+002, 1.227362e+001
1.237582e+002, 1.228722e+001
1.242404e+002, 1.230066e+001
1.247225e+002, 1.231192e+001
1.252046e+002, 1.229614e+001
1.256867e+002, 1.223485e+001
1.261688e+002, 1.213341e+001
1.266509e+002, 1.200158e+001
1.271331e+002, 1.182612e+001
1.276152e+002, 1.162829e+001
1.280973e+002, 1.143054e+001
1.285794e+002, 1.123119e+001
1.290615e+002, 1.105212e+001
1.295436e+002, 1.088268e+001
1.300258e+002, 1.073987e+001
1.305079e+002, 1.069964e+001
1.309900e+002, 1.092908e+001
1.314721e+002, 1.129903e+001
1.319542e+002, 1.136677e+001
1.324363e+002, 1.105890e+001
1.329185e+002, 1.063372e+001
1.334006e+002, 1.049537e+001
1.338827e+002, 1.064310e+001
1.343648e+002, 1.080927e+001
1.348469e+002, 1.084005e+001
1.353290e+002, 1.074626e+001
1.358112e+002, 1.068684e+001
1.362933e+002, 1.067935e+001
1.367754e+002, 1.070483e+001
1.372575e+002, 1.074405e+001
1.377396e+002, 1.081404e+001
1.382217e+002, 1.081861e+001
1.387039e+002, 1.066582e+001
1.391860e+002, 1.032524e+001
1.396681e+002, 1.003709e+001
1.401502e+002, 9.828257e+000
1.406323e+002, 9.690383e+000
1.411144e+002, 9.580233e+000
1.415966e+002, 9.497550e+000
1.420787e+002, 9.442838e+000
1.425608e+002, 9.428960e+000
1.430429e+002, 9.487237e+000
1.435250e+002, 9.493651e+000
1.440071e+002, 9.398639e+000
1.444893e+002, 9.210433e+000
1.449714e+002, 9.136466e+000
1.454535e+002, 9.275526e+000
1.459356e+002, 9.432893e+000
1.464177e+002, 9.405028e+000
1.468998e+002, 8.989226e+000
1.473820e+002, 8.710006e+000
1.478641e+002, 8.720124e+000
1.483462e+002, 9.084780e+000
1.488283e+002, 9.280883e+000
1.493104e+002, 9.224198e+000
1.497925e+002, 9.039826e+000
1.502747e+002, 8.868246e+000
1.507568e+002, 8.669782e+000
1.512389e+002, 8.529019e+000
1.517210e+002, 8.479963e+000
1.522031e+002, 8.562020e+000
1.526852e+002, 8.610785e+000
1.531674e+002, 8.542196e+000
1.536495e+002, 8.456893e+000
1.541316e+002, 8.499592e+000
1.546137e+002, 8.895381e+000
1.550958e+002, 9.236706e+000
1.555779e+002, 9.374187e+000
1.560601e+002, 9.189438e+000
1.565422e+002, 9.053333e+000
1.570243e+002, 8.995804e+000
1.575064e+002, 9.022693e+000
1.579885e+002, 9.145306e+000
1.584706e+002, 9.319171e+000
1.589528e+002, 9.623662e+000
1.594349e+002, 1.012636e+001
1.599170e+002, 1.100668e+001
1.603991e+002, 1.178437e+001
1.608812e+002, 1.218347e+001
1.613633e+002, 1.236119e+001
1.618455e+002, 1.273016e+001
1.623276e+002, 1.348101e+001
1.628097e+002, 1.443622e+001
1.632918e+002, 1.551016e+001
1.637739e+002, 1.674177e+001
1.642560e+002, 1.799733e+001
1.647382e+002, 1.923597e+001
1.652203e+002, 2.045606e+001
1.657024e+002, 2.165145e+001
1.661845e+002, 2.252009e+001
1.666666e+002, 2.350177e+001
1.671487e+002, 2.499943e+001
1.676309e+002, 2.757540e+001
1.681130e+002, 3.024711e+001
1.685951e+002, 3.237816e+001
1.690772e+002, 3.403958e+001
1.695593e+002, 3.559677e+001
1.700414e+002, 3.722941e+001
1.705236e+002, 3.889762e+001
1.710057e+002, 4.052981e+001
1.714878e+002, 4.206244e+001
1.719699e+002, 4.360565e+001
1.724520e+002, 4.528837e+001
1.729341e+002, 4.710116e+001
1.734163e+002, 4.882993e+001
1.738984e+002, 5.013649e+001
1.743805e+002, 5.128791e+001
1.748626e+002, 5.268327e+001
1.753447e+002, 5.449718e+001
1.758268e+002, 5.663800e+001
1.763090e+002, 5.905104e+001
1.767911e+002, 6.171663e+001
1.772732e+002, 6.456133e+001
1.777553e+002, 6.736235e+001
1.782374e+002, 6.997341e+001
1.787195e+002, 7.237862e+001
1.792017e+002, 7.438384e+001
1.796838e+002, 7.628371e+001
1.801659e+002, 7.846683e+001
1.806480e+002, 8.095741e+001
1.811301e+002, 8.365523e+001
1.816122e+002, 8.662222e+001
1.820944e+002, 8.978973e+001
1.825765e+002, 9.285526e+001
1.830586e+002, 9.552542e+001
1.835407e+002, 9.803342e+001
1.840228e+002, 1.010812e+002
1.845049e+002, 1.047070e+002
1.849871e+002, 1.085467e+002
1.854692e+002, 1.121594e+002
1.859513e+002, 1.155960e+002
1.864334e+002, 1.189208e+002
1.869155e+002, 1.220578e+002
1.873976e+002, 1.251141e+002
1.878798e+002, 1.285775e+002
1.883619e+002, 1.325232e+002
1.888440e+002, 1.365945e+002
1.893261e+002, 1.401483e+002
1.898082e+002, 1.432553e+002
1.902903e+002, 1.464163e+002
1.907725e+002, 1.501701e+002
1.912546e+002, 1.543557e+002
1.917367e+002, 1.576694e+002
1.922188e+002, 1.599945e+002
1.927009e+002, 1.616722e+002
1.931830e+002, 1.633348e+002
1.936652e+002, 1.649890e+002
1.941473e+002, 1.659555e+002
1.946294e+002, 1.659586e+002
1.951115e+002, 1.649992e+002
1.955936e+002, 1.628497e+002
1.960757e+002, 1.593232e+002
1.965579e+002, 1.549279e+002
1.970400e+002, 1.505105e+002
1.975221e+002, 1.460626e+002
1.980042e+002, 1.416872e+002
1.984863e+002, 1.371876e+002
1.989684e+002, 1.325704e+002
1.994506e+002, 1.287899e+002
1.999327e+002, 1.259907e+002
2.004148e+002, 1.239925e+002
2.008969e+002, 1.225294e+002
2.013790e+002, 1.216258e+002
2.018611e+002, 1.210379e+002
2.023433e+002, 1.206987e+002
2.028254e+002, 1.206331e+002
2.033075e+002, 1.204862e+002
2.037896e+002, 1.201619e+002
2.042717e+002, 1.198020e+002
2.047538e+002, 1.197683e+002
2.052360e+002, 1.200793e+002
2.057181e+002, 1.206309e+002
2.062002e+002, 1.213802e+002
2.066823e+002, 1.223358e+002
2.071644e+002, 1.234312e+002
2.076465e+002, 1.247190e+002
2.081287e+002, 1.261059e+002
2.086108e+002, 1.273364e+002
2.090929e+002, 1.283622e+002
2.095750e+002, 1.293671e+002
2.100571e+002, 1.303828e+002
2.105392e+002, 1.313368e+002
2.110214e+002, 1.326937e+002
2.115035e+002, 1.346440e+002
2.119856e+002, 1.369716e+002
2.124677e+002, 1.389723e+002
2.129498e+002, 1.405617e+002
2.134319e+002, 1.420342e+002
2.139140e+002, 1.435749e+002
2.143962e+002, 1.451985e+002
2.148783e+002, 1.468582e+002
2.153604e+002, 1.485475e+002
2.158425e+002, 1.502704e+002
2.163246e+002, 1.519823e+002
2.168067e+002, 1.537345e+002
2.172889e+002, 1.554052e+002
2.177710e+002, 1.569662e+002
2.182531e+002, 1.584852e+002
2.187352e+002, 1.596902e+002
2.192173e+002, 1.605171e+002
2.196994e+002, 1.610198e+002
2.201816e+002, 1.614571e+002
2.206637e+002, 1.619506e+002
2.211458e+002, 1.621785e+002
2.216279e+002, 1.619412e+002
2.221100e+002, 1.611928e+002
2.225921e+002, 1.600734e+002
2.230743e+002, 1.584641e+002
2.235564e+002, 1.564899e+002
2.240385e+002, 1.546755e+002
2.245206e+002, 1.532174e+002
2.250027e+002, 1.516819e+002
2.254848e+002, 1.497708e+002
2.259670e+002, 1.473039e+002
2.264491e+002, 1.449505e+002
2.269312e+002, 1.428058e+002
2.274133e+002, 1.408213e+002
2.278954e+002, 1.385996e+002
2.283775e+002, 1.359710e+002
2.288597e+002, 1.334171e+002
2.293418e+002, 1.312547e+002
2.298239e+002, 1.295580e+002
2.303060e+002, 1.280986e+002
2.307881e+002, 1.269716e+002
2.312702e+002, 1.260799e+002
2.317524e+002, 1.250045e+002
2.322345e+002, 1.236592e+002
2.327166e+002, 1.222663e+002
2.331987e+002, 1.209474e+002
2.336808e+002, 1.196428e+002
2.341629e+002, 1.185432e+002
2.346451e+002, 1.176739e+002
2.351272e+002, 1.170134e+002
2.356093e+002, 1.164746e+002
2.360914e+002, 1.161597e+002
2.365735e+002, 1.158267e+002
2.370556e+002, 1.152906e+002
2.375378e+002, 1.142735e+002
2.380199e+002, 1.136959e+002
2.385020e+002, 1.138466e+002
2.389841e+002, 1.144820e+002
2.394662e+002, 1.145424e+002
2.399483e+002, 1.135501e+002
2.404305e+002, 1.126430e+002
2.409126e+002, 1.124757e+002
2.413947e+002, 1.135113e+002
2.418768e+002, 1.142600e+002
2.423589e+002, 1.145346e+002
2.428410e+002, 1.144853e+002
2.433232e+002, 1.146602e+002
2.438053e+002, 1.151904e+002
2.442874e+002, 1.157629e+002
2.447695e+002, 1.162178e+002
2.452516e+002, 1.165251e+002
2.457337e+002, 1.167664e+002
2.462159e+002, 1.168385e+002
2.466980e+002, 1.168570e+002
2.471801e+002, 1.172704e+002
2.476622e+002, 1.185237e+002
2.481443e+002, 1.195019e+002
2.486264e+002, 1.195697e+002
2.491086e+002, 1.181448e+002
2.495907e+002, 1.172285e+002
2.500728e+002, 1.170418e+002
2.505549e+002, 1.173293e+002
2.510370e+002, 1.174044e+002
2.515191e+002, 1.171501e+002
2.520013e+002, 1.168738e+002
2.524834e+002, 1.167636e+002
2.529655e+002, 1.170567e+002
2.534476e+002, 1.168816e+002
2.539297e+002, 1.160548e+002
2.544118e+002, 1.148456e+002
2.548940e+002, 1.138381e+002
2.553761e+002, 1.131222e+002
2.558582e+002, 1.124437e+002
2.563403e+002, 1.116754e+002
2.568224e+002, 1.107289e+002
2.573046e+002, 1.100024e+002
2.577867e+002, 1.095988e+002
2.582688e+002, 1.093525e+002
2.587509e+002, 1.089238e+002
2.592330e+002, 1.081994e+002
2.597151e+002, 1.075285e+002
2.601973e+002, 1.070456e+002
2.606794e+002, 1.067902e+002
2.611615e+002, 1.065820e+002
2.616436e+002, 1.064266e+002
2.621257e+002, 1.063168e+002
2.626078e+002, 1.062491e+002
2.630900e+002, 1.062438e+002
2.635721e+002, 1.062384e+002
2.640542e+002, 1.061929e+002
2.645363e+002, 1.060851e+002
2.650184e+002, 1.061230e+002
2.655005e+002, 1.063873e+002
2.659827e+002, 1.067082e+002
2.664648e+002, 1.068018e+002
2.669469e+002, 1.065492e+002
2.674290e+002, 1.064153e+002
2.679111e+002, 1.065579e+002
2.683932e+002, 1.069907e+002
2.688754e+002, 1.074867e+002
2.693575e+002, 1.081021e+002
2.698396e+002, 1.086894e+002
2.703217e+002, 1.089767e+002
2.708038e+002, 1.088288e+002
2.712859e+002, 1.089035e+002
2.717681e+002, 1.094745e+002
2.722502e+002, 1.105129e+002
2.727323e+002, 1.112326e+002
2.732144e+002, 1.115222e+002
2.736965e+002, 1.116926e+002
2.741786e+002, 1.120733e+002
2.746608e+002, 1.127002e+002
2.751429e+002, 1.133680e+002
2.756250e+002, 1.140410e+002
2.761071e+002, 1.147138e+002
2.765892e+002, 1.153872e+002
2.770714e+002, 1.160699e+002
2.775535e+002, 1.166979e+002
2.780356e+002, 1.171795e+002
2.785177e+002, 1.174970e+002
2.789998e+002, 1.178259e+002
2.794819e+002, 1.181361e+002
2.799641e+002, 1.184971e+002
2.804462e+002, 1.193589e+002
2.809283e+002, 1.208800e+002
2.814104e+002, 1.222270e+002
2.818925e+002, 1.225757e+002
2.823746e+002, 1.219108e+002
2.828568e+002, 1.214433e+002
2.833389e+002, 1.214086e+002
2.838210e+002, 1.216705e+002
2.843031e+002, 1.218561e+002
2.847852e+002, 1.219593e+002
2.852673e+002, 1.220735e+002
2.857495e+002, 1.223337e+002
2.862316e+002, 1.227185e+002
2.867137e+002, 1.229316e+002
2.871958e+002, 1.229601e+002
2.876779e+002, 1.227676e+002
2.881600e+002, 1.221387e+002
2.886422e+002, 1.210639e+002
2.891243e+002, 1.200799e+002
2.896064e+002, 1.196415e+002
2.900885e+002, 1.196300e+002
2.905706e+002, 1.194434e+002
2.910527e+002, 1.189882e+002
2.915349e+002, 1.184288e+002
2.920170e+002, 1.180900e+002
2.924991e+002, 1.179433e+002
2.929812e+002, 1.176518e+002
2.934633e+002, 1.168903e+002
2.939454e+002, 1.158280e+002
2.944276e+002, 1.150111e+002
2.949097e+002, 1.144896e+002
2.953918e+002, 1.141553e+002
2.958739e+002, 1.140392e+002
2.963560e+002, 1.140622e+002
2.968381e+002, 1.138413e+002
2.973203e+002, 1.129050e+002
2.978024e+002, 1.116569e+002
2.982845e+002, 1.109587e+002
2.987666e+002, 1.108565e+002
2.992487e+002, 1.109902e+002
2.997308e+002, 1.104989e+002
3.002130e+002, 1.098708e+002
3.006951e+002, 1.105515e+002
3.011772e+002, 1.150468e+002
3.016593e+002, 1.202262e+002
3.021414e+002, 1.210920e+002
3.026235e+002, 1.177153e+002
3.031057e+002, 1.134421e+002
3.035878e+002, 1.106073e+002
3.040699e+002, 1.088908e+002
3.045520e+002, 1.077917e+002
3.050341e+002, 1.073939e+002
3.055162e+002, 1.073089e+002
3.059984e+002, 1.072190e+002
3.064805e+002, 1.071141e+002
3.069626e+002, 1.069178e+002
3.074447e+002, 1.064880e+002
3.079268e+002, 1.059644e+002
3.084089e+002, 1.055410e+002
3.088911e+002, 1.053129e+002
3.093732e+002, 1.051272e+002
3.098553e+002, 1.048110e+002
3.103374e+002, 1.044217e+002
3.108195e+002, 1.041476e+002
3.113016e+002, 1.042960e+002
3.117838e+002, 1.045074e+002
3.122659e+002, 1.044278e+002
3.127480e+002, 1.038785e+002
3.132301e+002, 1.032962e+002
3.137122e+002, 1.029622e+002
3.141943e+002, 1.027798e+002
3.146765e+002, 1.025538e+002
3.151586e+002, 1.020189e+002
3.156407e+002, 1.015376e+002
3.161228e+002, 1.014042e+002
3.166049e+002, 1.017605e+002
3.170870e+002, 1.020176e+002
3.175692e+002, 1.019027e+002
3.180513e+002, 1.015338e+002
3.185334e+002, 1.010750e+002
3.190155e+002, 1.003116e+002
3.194976e+002, 9.969901e+001
3.199797e+002, 9.952955e+001
3.204619e+002, 9.986321e+001
3.209440e+002, 1.001046e+002
3.214261e+002, 9.996007e+001
3.219082e+002, 9.968877e+001
3.223903e+002, 9.953623e+001
3.228724e+002, 9.963790e+001
3.233546e+002, 9.977703e+001
3.238367e+002, 9.993993e+001
3.243188e+002, 1.001199e+002
3.248009e+002, 1.001979e+002
3.252830e+002, 1.000171e+002
3.257651e+002, 9.981416e+001
3.262473e+002, 9.974331e+001
3.267294e+002, 1.001720e+002
3.272115e+002, 1.003303e+002
3.276936e+002, 9.995364e+001
3.281757e+002, 9.918266e+001
3.286578e+002, 9.869801e+001
3.291400e+002, 9.876413e+001
3.296221e+002, 9.890607e+001
3.301042e+002, 9.891953e+001
3.305863e+002, 9.866247e+001
3.310684e+002, 9.851225e+001
3.315505e+002, 9.848959e+001
3.320327e+002, 9.856846e+001
3.325148e+002, 9.870679e+001
3.329969e+002, 9.901582e+001
3.334790e+002, 9.922658e+001
3.339611e+002, 9.922326e+001
3.344432e+002, 9.893074e+001
3.349254e+002, 9.870826e+001
3.354075e+002, 9.856909e+001
3.358896e+002, 9.848580e+001
3.363717e+002, 9.839381e+001
3.368538e+002, 9.820200e+001
3.373359e+002, 9.823705e+001
3.378180e+002, 9.870688e+001
3.383001e+002, 9.959756e+001
3.387823e+002, 1.000313e+002
3.392644e+002, 9.987634e+001
3.397465e+002, 9.952254e+001
3.402286e+002, 9.935899e+001
3.407107e+002, 9.943364e+001
3.411928e+002, 9.941594e+001
3.416750e+002, 9.918063e+001
3.421571e+002, 9.882876e+001
3.426392e+002, 9.881703e+001
3.431213e+002, 9.920402e+001
3.436034e+002, 9.962375e+001
3.440855e+002, 9.985825e+001
3.445677e+002, 9.990650e+001
3.450498e+002, 9.972981e+001
3.455319e+002, 9.925614e+001
3.460140e+002, 9.866775e+001
3.464961e+002, 9.824825e+001
3.469782e+002, 9.800037e+001
3.474604e+002, 9.799584e+001
3.479425e+002, 9.844227e+001
3.484246e+002, 9.919311e+001
3.489067e+002, 9.967448e+001
3.493888e+002, 9.982603e+001
3.498709e+002, 9.986006e+001
3.503531e+002, 1.001063e+002
3.508352e+002, 1.004750e+002
3.513173e+002, 1.006335e+002
3.517994e+002, 1.001157e+002
3.522815e+002, 9.940575e+001
3.527636e+002, 9.941650e+001
3.532458e+002, 1.001465e+002
3.537279e+002, 1.009599e+002
3.542100e+002, 1.013877e+002
3.546921e+002, 1.015212e+002
3.551742e+002, 1.015013e+002
3.556563e+002, 1.012305e+002
3.561385e+002, 1.009739e+002
3.566206e+002, 1.010701e+002
3.571027e+002, 1.014439e+002
3.575848e+002, 1.017196e+002
3.580669e+002, 1.015221e+002
3.585490e+002, 1.011978e+002
3.590312e+002, 1.010915e+002
3.595133e+002, 1.013442e+002
3.599954e+002, 1.016550e+002
3.604775e+002, 1.018792e+002
3.609596e+002, 1.020373e+002
3.614417e+002, 1.021690e+002
3.619239e+002, 1.023048e+002
3.624060e+002, 1.024120e+002
3.628881e+002, 1.024222e+002
3.633702e+002, 1.022797e+002
3.638523e+002, 1.023099e+002
3.643344e+002, 1.028447e+002
3.648166e+002, 1.035296e+002
3.652987e+002, 1.039634e+002
3.657808e+002, 1.037797e+002
3.662629e+002, 1.035977e+002
3.667450e+002, 1.035576e+002
3.672271e+002, 1.036640e+002
3.677093e+002, 1.038683e+002
3.681914e+002, 1.044266e+002
3.686735e+002, 1.049151e+002
3.691556e+002, 1.050528e+002
3.696377e+002, 1.041124e+002
3.701198e+002, 1.037252e+002
3.706020e+002, 1.043217e+002
3.710841e+002, 1.055665e+002
3.715662e+002, 1.062211e+002
3.720483e+002, 1.058076e+002
3.725304e+002, 1.053757e+002
3.730125e+002, 1.054010e+002
3.734947e+002, 1.061495e+002
3.739768e+002, 1.065680e+002
3.744589e+002, 1.065070e+002
3.749410e+002, 1.062404e+002
3.754231e+002, 1.062193e+002
3.759052e+002, 1.065279e+002
3.763874e+002, 1.068488e+002
3.768695e+002, 1.070733e+002
3.773516e+002, 1.072103e+002
3.778337e+002, 1.074797e+002
3.783158e+002, 1.079557e+002
3.787979e+002, 1.083775e+002
3.792801e+002, 1.083644e+002
3.797622e+002, 1.078838e+002
3.802443e+002, 1.077197e+002
3.807264e+002, 1.080846e+002
3.812085e+002, 1.088110e+002
3.816906e+002, 1.095605e+002
3.821728e+002, 1.103354e+002
3.826549e+002, 1.108866e+002
3.831370e+002, 1.107747e+002
3.836191e+002, 1.102350e+002
3.841012e+002, 1.102420e+002
3.845833e+002, 1.109558e+002
3.850655e+002, 1.120155e+002
3.855476e+002, 1.130049e+002
3.860297e+002, 1.139484e+002
3.865118e+002, 1.148848e+002
3.869939e+002, 1.157862e+002
3.874760e+002, 1.167217e+002
3.879582e+002, 1.178119e+002
3.884403e+002, 1.190700e+002
3.889224e+002, 1.203893e+002
3.894045e+002, 1.214796e+002
3.898866e+002, 1.226144e+002
3.903687e+002, 1.242110e+002
3.908509e+002, 1.266452e+002
3.913330e+002, 1.293028e+002
3.918151e+002, 1.317614e+002
3.922972e+002, 1.340833e+002
3.927793e+002, 1.365587e+002
3.932614e+002, 1.391234e+002
3.937436e+002, 1.420112e+002
3.942257e+002, 1.455124e+002
3.947078e+002, 1.498711e+002
3.951899e+002, 1.543038e+002
3.956720e+002, 1.585045e+002
3.961541e+002, 1.626068e+002
3.966363e+002, 1.668264e+002
3.971184e+002, 1.710135e+002
3.976005e+002, 1.755116e+002
3.980826e+002, 1.807048e+002
3.985647e+002, 1.867740e+002
3.990468e+002, 1.920725e+002
3.995290e+002, 1.963820e+002
4.000111e+002, 1.998858e+002
4.004932e+002, 2.027326e+002
4.009753e+002, 2.044942e+002
4.014574e+002, 2.061735e+002
4.019395e+002, 2.077107e+002
4.024217e+002, 2.091973e+002
4.029038e+002, 2.110239e+002
4.033859e+002, 2.131677e+002
4.038680e+002, 2.156872e+002
4.043501e+002, 2.187617e+002
4.048322e+002, 2.226974e+002
4.053144e+002, 2.261605e+002
4.057965e+002, 2.294528e+002
4.062786e+002, 2.318727e+002
4.067607e+002, 2.322621e+002
4.072428e+002, 2.305271e+002
4.077249e+002, 2.272388e+002
4.082071e+002, 2.225113e+002
4.086892e+002, 2.163891e+002
4.091713e+002, 2.089048e+002
4.096534e+002, 1.998206e+002
4.101355e+002, 1.905597e+002
4.106176e+002, 1.822235e+002
4.110998e+002, 1.747555e+002
4.115819e+002, 1.680704e+002
4.120640e+002, 1.621466e+002
4.125461e+002, 1.569926e+002
4.130282e+002, 1.525972e+002
4.135103e+002, 1.489386e+002
4.139925e+002, 1.457743e+002
4.144746e+002, 1.430221e+002
4.149567e+002, 1.406163e+002
4.154388e+002, 1.385019e+002
4.159209e+002, 1.366578e+002
4.164030e+002, 1.350786e+002
4.168852e+002, 1.337883e+002
4.173673e+002, 1.327361e+002
4.178494e+002, 1.318315e+002
4.183315e+002, 1.310875e+002
4.188136e+002, 1.304329e+002
4.192957e+002, 1.297114e+002
4.197779e+002, 1.289828e+002
4.202600e+002, 1.285849e+002
4.207421e+002, 1.290032e+002
4.212242e+002, 1.296175e+002
4.217063e+002, 1.299450e+002
4.221884e+002, 1.296823e+002
4.226706e+002, 1.295558e+002
4.231527e+002, 1.299078e+002
4.236348e+002, 1.304964e+002
4.241169e+002, 1.308672e+002
4.245990e+002, 1.305215e+002
4.250811e+002, 1.303653e+002
4.255633e+002, 1.306952e+002
4.260454e+002, 1.315621e+002
4.265275e+002, 1.325458e+002
4.270096e+002, 1.337482e+002
4.274917e+002, 1.349930e+002
4.279738e+002, 1.361416e+002
4.284560e+002, 1.371652e+002
4.289381e+002, 1.381407e+002
4.294202e+002, 1.390683e+002
4.299023e+002, 1.399404e+002
4.303844e+002, 1.407058e+002
4.308665e+002, 1.412196e+002
4.313487e+002, 1.420298e+002
4.318308e+002, 1.435684e+002
4.323129e+002, 1.458811e+002
4.327950e+002, 1.478181e+002
4.332771e+002, 1.493063e+002
4.337592e+002, 1.505682e+002
4.342414e+002, 1.518975e+002
4.347235e+002, 1.532868e+002
4.352056e+002, 1.546359e+002
4.356877e+002, 1.559276e+002
4.361698e+002, 1.571477e+002
4.366519e+002, 1.582746e+002
4.371341e+002, 1.593112e+002
4.376162e+002, 1.602910e+002
4.380983e+002, 1.612462e+002
4.385804e+002, 1.621721e+002
4.390625e+002, 1.631697e+002
4.395446e+002, 1.644008e+002
4.400268e+002, 1.652099e+002
4.405089e+002, 1.647301e+002
4.409910e+002, 1.634011e+002
4.414731e+002, 1.621353e+002
4.419552e+002, 1.616667e+002
4.424373e+002, 1.611266e+002
4.429195e+002, 1.598720e+002
4.434016e+002, 1.578971e+002
4.438837e+002, 1.558518e+002
4.443658e+002, 1.538808e+002
4.448479e+002, 1.520043e+002
4.453300e+002, 1.502564e+002
4.458122e+002, 1.485400e+002
4.462943e+002, 1.470603e+002
4.467764e+002, 1.459323e+002
4.472585e+002, 1.450591e+002
4.477406e+002, 1.441964e+002
4.482227e+002, 1.435560e+002
4.487049e+002, 1.426895e+002
4.491870e+002, 1.413264e+002
4.496691e+002, 1.393099e+002
4.501512e+002, 1.378204e+002
4.506333e+002, 1.369920e+002
4.511154e+002, 1.365644e+002
4.515976e+002, 1.364046e+002
4.520797e+002, 1.367148e+002
4.525618e+002, 1.365823e+002
4.530439e+002, 1.356629e+002
4.535260e+002, 1.343225e+002
4.540081e+002, 1.336860e+002
4.544903e+002, 1.338314e+002
4.549724e+002, 1.341726e+002
4.554545e+002, 1.343905e+002
4.559366e+002, 1.345132e+002
4.564187e+002, 1.348071e+002
4.569008e+002, 1.353108e+002
4.573830e+002, 1.357974e+002
4.578651e+002, 1.359907e+002
4.583472e+002, 1.359392e+002
4.588293e+002, 1.357800e+002
4.593114e+002, 1.354872e+002
4.597935e+002, 1.351771e+002
4.602757e+002, 1.349818e+002
4.607578e+002, 1.348936e+002
4.612399e+002, 1.348715e+002
4.617220e+002, 1.349641e+002
4.622041e+002, 1.350702e+002
4.626862e+002, 1.351175e+002
4.631684e+002, 1.351165e+002
4.636505e+002, 1.349679e+002
4.641326e+002, 1.344761e+002
4.646147e+002, 1.338544e+002
4.650968e+002, 1.333700e+002
4.655789e+002, 1.334350e+002
4.660611e+002, 1.333284e+002
4.665432e+002, 1.326664e+002
4.670253e+002, 1.315215e+002
4.675074e+002, 1.306993e+002
4.679895e+002, 1.305423e+002
4.684716e+002, 1.305299e+002
4.689538e+002, 1.304171e+002
4.694359e+002, 1.301212e+002
4.699180e+002, 1.299093e+002
4.704001e+002, 1.298039e+002
4.708822e+002, 1.297624e+002
4.713643e+002, 1.297559e+002
4.718465e+002, 1.298600e+002
4.723286e+002, 1.297552e+002
4.728107e+002, 1.292572e+002
4.732928e+002, 1.284751e+002
4.737749e+002, 1.280487e+002
4.742570e+002, 1.280319e+002
4.747392e+002, 1.280987e+002
4.752213e+002, 1.280319e+002
4.757034e+002, 1.278418e+002
4.761855e+002, 1.275804e+002
4.766676e+002, 1.272374e+002
4.771497e+002, 1.268815e+002
4.776319e+002, 1.265812e+002
4.781140e+002, 1.263432e+002
4.785961e+002, 1.261941e+002
4.790782e+002, 1.262139e+002
4.795603e+002, 1.262876e+002
4.800424e+002, 1.262669e+002
4.805246e+002, 1.261649e+002
4.810067e+002, 1.260878e+002
4.814888e+002, 1.261562e+002
4.819709e+002, 1.262480e+002
4.824530e+002, 1.262228e+002
4.829352e+002, 1.259507e+002
4.834173e+002, 1.258164e+002
4.838994e+002, 1.262006e+002
4.843815e+002, 1.267670e+002
4.848636e+002, 1.270010e+002
4.853457e+002, 1.264363e+002
4.858279e+002, 1.258866e+002
4.863100e+002, 1.254740e+002
4.867921e+002, 1.252123e+002
4.872742e+002, 1.253360e+002
4.877563e+002, 1.262253e+002
4.882384e+002, 1.271203e+002
4.887206e+002, 1.275628e+002
4.892027e+002, 1.273168e+002
4.896848e+002, 1.272872e+002
4.901669e+002, 1.276129e+002
4.906490e+002, 1.280224e+002
4.911311e+002, 1.280047e+002
4.916133e+002, 1.274723e+002
4.920954e+002, 1.271268e+002
4.925775e+002, 1.272399e+002
4.930596e+002, 1.276889e+002
4.935417e+002, 1.280555e+002
4.940238e+002, 1.283374e+002
4.945060e+002, 1.285209e+002
4.949881e+002, 1.285211e+002
4.954702e+002, 1.284145e+002
4.959523e+002, 1.283934e+002
4.964344e+002, 1.284843e+002
4.969165e+002, 1.286458e+002
4.973987e+002, 1.288444e+002
4.978808e+002, 1.290836e+002
4.983629e+002, 1.293670e+002
4.988450e+002, 1.298591e+002
4.993271e+002, 1.302605e+002
4.998092e+002, 1.302910e+002
5.002914e+002, 1.300191e+002
5.007735e+002, 1.298175e+002
5.012556e+002, 1.297007e+002
5.017377e+002, 1.297942e+002
5.022198e+002, 1.302286e+002
5.027019e+002, 1.312232e+002
5.031841e+002, 1.320352e+002
5.036662e+002, 1.325440e+002
5.041483e+002, 1.328369e+002
5.046304e+002, 1.330006e+002
5.051125e+002, 1.329458e+002
5.055946e+002, 1.329004e+002
5.060768e+002, 1.328759e+002
5.065589e+002, 1.328846e+002
5.070410e+002, 1.330179e+002
5.075231e+002, 1.333387e+002
5.080052e+002, 1.336026e+002
5.084873e+002, 1.336355e+002
5.089695e+002, 1.334332e+002
5.094516e+002, 1.333607e+002
5.099337e+002, 1.334321e+002
5.104158e+002, 1.335778e+002
5.108979e+002, 1.338020e+002
5.113800e+002, 1.340572e+002
5.118622e+002, 1.341017e+002
5.123443e+002, 1.337891e+002
5.128264e+002, 1.333578e+002
5.133085e+002, 1.330189e+002
5.137906e+002, 1.328057e+002
5.142728e+002, 1.328373e+002
5.147549e+002, 1.334169e+002
5.152370e+002, 1.341182e+002
5.157191e+002, 1.346226e+002
5.162012e+002, 1.349084e+002
5.166833e+002, 1.349593e+002
5.171655e+002, 1.344832e+002
5.176476e+002, 1.339259e+002
5.181297e+002, 1.336739e+002
5.186118e+002, 1.342558e+002
5.190939e+002, 1.345893e+002
5.195760e+002, 1.342054e+002
5.200582e+002, 1.334771e+002
5.205403e+002, 1.332939e+002
5.210224e+002, 1.340540e+002
5.215045e+002, 1.348106e+002
5.219866e+002, 1.353500e+002
5.224688e+002, 1.356720e+002
5.229509e+002, 1.357224e+002
5.234330e+002, 1.353622e+002
5.239151e+002, 1.350491e+002
5.243972e+002, 1.352030e+002
5.248793e+002, 1.358346e+002
5.253615e+002, 1.363045e+002
5.258436e+002, 1.365068e+002
5.263257e+002, 1.366739e+002
5.268078e+002, 1.373394e+002
5.272899e+002, 1.383462e+002
5.277720e+002, 1.389129e+002
5.282542e+002, 1.384011e+002
5.287363e+002, 1.375359e+002
5.292184e+002, 1.372575e+002
5.297005e+002, 1.375043e+002
5.301826e+002, 1.379263e+002
5.306647e+002, 1.385794e+002
5.311469e+002, 1.391513e+002
5.316290e+002, 1.392842e+002
5.321111e+002, 1.388052e+002
5.325932e+002, 1.385079e+002
5.330753e+002, 1.389513e+002
5.335574e+002, 1.396303e+002
5.340396e+002, 1.400134e+002
5.345217e+002, 1.396273e+002
5.350038e+002, 1.393976e+002
5.354859e+002, 1.396488e+002
5.359680e+002, 1.401630e+002
5.364501e+002, 1.402057e+002
5.369323e+002, 1.394302e+002
5.374144e+002, 1.387716e+002
5.378965e+002, 1.385836e+002
5.383786e+002, 1.388735e+002
5.388607e+002, 1.392717e+002
5.393428e+002, 1.398146e+002
5.398250e+002, 1.403383e+002
5.403071e+002, 1.406702e+002
5.407892e+002, 1.408227e+002
5.412713e+002, 1.409671e+002
5.417534e+002, 1.411393e+002
5.422355e+002, 1.412744e+002
5.427177e+002, 1.412370e+002
5.431998e+002, 1.410783e+002
5.436819e+002, 1.409621e+002
5.441640e+002, 1.409717e+002
5.446461e+002, 1.410539e+002
5.451282e+002, 1.411730e+002
5.456104e+002, 1.413265e+002
5.460925e+002, 1.414994e+002
5.465746e+002, 1.415681e+002
5.470567e+002, 1.417347e+002
5.475388e+002, 1.422380e+002
5.480209e+002, 1.433250e+002
5.485031e+002, 1.440069e+002
5.489852e+002, 1.437495e+002
5.494673e+002, 1.431484e+002
5.499494e+002, 1.428368e+002
5.504315e+002, 1.430473e+002
5.509136e+002, 1.431978e+002
5.513958e+002, 1.432020e+002
5.518779e+002, 1.431126e+002
5.523600e+002, 1.430945e+002
5.528421e+002, 1.431678e+002
5.533242e+002, 1.432358e+002
5.538063e+002, 1.432337e+002
5.542885e+002, 1.431815e+002
5.547706e+002, 1.432776e+002
5.552527e+002, 1.435395e+002
5.557348e+002, 1.437709e+002
5.562169e+002, 1.437731e+002
5.566990e+002, 1.436142e+002
5.571812e+002, 1.434172e+002
5.576633e+002, 1.431483e+002
5.581454e+002, 1.430590e+002
5.586275e+002, 1.435781e+002
5.591096e+002, 1.444201e+002
5.595917e+002, 1.450925e+002
5.600739e+002, 1.455541e+002
5.605560e+002, 1.456425e+002
5.610381e+002, 1.448935e+002
5.615202e+002, 1.435830e+002
5.620023e+002, 1.428846e+002
5.624844e+002, 1.436639e+002
5.629666e+002, 1.446295e+002
5.634487e+002, 1.452277e+002
5.639308e+002, 1.453951e+002
5.644129e+002, 1.454522e+002
5.648950e+002, 1.453562e+002
5.653771e+002, 1.451943e+002
5.658593e+002, 1.450362e+002
5.663414e+002, 1.448882e+002
5.668235e+002, 1.447080e+002
5.673056e+002, 1.444821e+002
5.677877e+002, 1.442326e+002
5.682698e+002, 1.439142e+002
5.687520e+002, 1.435435e+002
5.692341e+002, 1.434577e+002
5.697162e+002, 1.440050e+002
5.701983e+002, 1.447691e+002
5.706804e+002, 1.448992e+002
5.711625e+002, 1.444815e+002
5.716447e+002, 1.441139e+002
5.721268e+002, 1.442384e+002
5.726089e+002, 1.445739e+002
5.730910e+002, 1.448774e+002
5.735731e+002, 1.451306e+002
5.740552e+002, 1.453000e+002
5.745374e+002, 1.452681e+002
5.750195e+002, 1.451983e+002
5.755016e+002, 1.452425e+002
5.759837e+002, 1.455107e+002
5.764658e+002, 1.457871e+002
5.769479e+002, 1.459796e+002
5.774301e+002, 1.461802e+002
5.779122e+002, 1.466183e+002
5.783943e+002, 1.475468e+002
5.788764e+002, 1.481926e+002
5.793585e+002, 1.482583e+002
5.798406e+002, 1.478403e+002
5.803228e+002, 1.476194e+002
5.808049e+002, 1.476092e+002
5.812870e+002, 1.477041e+002
5.817691e+002, 1.478916e+002
5.822512e+002, 1.481368e+002
5.827333e+002, 1.482617e+002
5.832155e+002, 1.482434e+002
5.836975e+002, 1.482633e+002
5.841796e+002, 1.485748e+002
5.846617e+002, 1.490267e+002
5.851439e+002, 1.493666e+002
5.856260e+002, 1.495024e+002
5.861081e+002, 1.495594e+002
5.865902e+002, 1.496055e+002
5.870723e+002, 1.496290e+002
5.875544e+002, 1.496061e+002
5.880366e+002, 1.493219e+002
5.885187e+002, 1.491975e+002
5.890008e+002, 1.494953e+002
5.894829e+002, 1.501792e+002
5.899650e+002, 1.505491e+002
5.904471e+002, 1.503842e+002
5.909293e+002, 1.501829e+002
5.914114e+002, 1.501930e+002
5.918935e+002, 1.504533e+002
5.923756e+002, 1.505945e+002
5.928577e+002, 1.505483e+002
5.933398e+002, 1.505673e+002
5.938220e+002, 1.511179e+002
5.943041e+002, 1.520824e+002
5.947862e+002, 1.524474e+002
5.952683e+002, 1.518758e+002
5.957504e+002, 1.510618e+002
5.962325e+002, 1.508725e+002
5.967147e+002, 1.511611e+002
5.971968e+002, 1.515427e+002
5.976789e+002, 1.519318e+002
5.981610e+002, 1.522861e+002
5.986431e+002, 1.526518e+002
5.991252e+002, 1.529821e+002
5.996074e+002, 1.530719e+002
6.000895e+002, 1.525003e+002
6.005716e+002, 1.519682e+002
6.010537e+002, 1.518400e+002
6.015358e+002, 1.522338e+002
6.020179e+002, 1.526075e+002
6.025001e+002, 1.528956e+002
6.029822e+002, 1.532216e+002
6.034643e+002, 1.537331e+002
6.039464e+002, 1.545647e+002
6.044285e+002, 1.550332e+002
6.049106e+002, 1.550121e+002
6.053928e+002, 1.547826e+002
6.058749e+002, 1.547735e+002
6.063570e+002, 1.549688e+002
6.068391e+002, 1.551496e+002
6.073212e+002, 1.552089e+002
6.078033e+002, 1.552681e+002
6.082855e+002, 1.556013e+002
6.087676e+002, 1.561183e+002
6.092497e+002, 1.565022e+002
6.097318e+002, 1.564796e+002
6.102139e+002, 1.563193e+002
6.106960e+002, 1.562000e+002
6.111782e+002, 1.561319e+002
6.116603e+002, 1.561104e+002
6.121424e+002, 1.561486e+002
6.126245e+002, 1.562220e+002
6.131066e+002, 1.562981e+002
6.135887e+002, 1.562850e+002
6.140709e+002, 1.565237e+002
6.145530e+002, 1.573120e+002
6.150351e+002, 1.580911e+002
6.155172e+002, 1.581804e+002
6.159993e+002, 1.573541e+002
6.164814e+002, 1.569034e+002
6.169636e+002, 1.571056e+002
6.174457e+002, 1.576286e+002
6.179278e+002, 1.578039e+002
6.184099e+002, 1.576704e+002
6.188920e+002, 1.576395e+002
6.193741e+002, 1.579351e+002
6.198563e+002, 1.583882e+002
6.203384e+002, 1.588499e+002
6.208205e+002, 1.592804e+002
6.213026e+002, 1.594862e+002
6.217847e+002, 1.591033e+002
6.222668e+002, 1.586332e+002
6.227490e+002, 1.584930e+002
6.232311e+002, 1.587517e+002
6.237132e+002, 1.589470e+002
6.241953e+002, 1.589399e+002
6.246774e+002, 1.588426e+002
6.251595e+002, 1.587330e+002
6.256417e+002, 1.586158e+002
6.261238e+002, 1.584862e+002
6.266059e+002, 1.583264e+002
6.270880e+002, 1.581814e+002
6.275701e+002, 1.581109e+002
6.280522e+002, 1.581186e+002
6.285344e+002, 1.582029e+002
6.290165e+002, 1.584280e+002
6.294986e+002, 1.586329e+002
6.299807e+002, 1.583628e+002
6.304628e+002, 1.577229e+002
6.309449e+002, 1.572918e+002
6.314271e+002, 1.575102e+002
6.319092e+002, 1.579743e+002
6.323913e+002, 1.583717e+002
6.328734e+002, 1.586659e+002
6.333555e+002, 1.586614e+002
6.338376e+002, 1.579675e+002
6.343198e+002, 1.571729e+002
6.348019e+002, 1.566151e+002
6.352840e+002, 1.563504e+002
6.357661e+002, 1.561966e+002
6.362482e+002, 1.561422e+002
6.367303e+002, 1.561812e+002
6.372125e+002, 1.563514e+002
6.376946e+002, 1.567941e+002
6.381767e+002, 1.569248e+002
6.386588e+002, 1.566228e+002
6.391409e+002, 1.561810e+002
6.396230e+002, 1.560747e+002
6.401052e+002, 1.562749e+002
6.405873e+002, 1.563039e+002
6.410694e+002, 1.559643e+002
6.415515e+002, 1.555324e+002
6.420336e+002, 1.554328e+002
6.425157e+002, 1.555905e+002
6.429979e+002, 1.557867e+002
6.434800e+002, 1.560463e+002
6.439621e+002, 1.561930e+002
6.444442e+002, 1.560569e+002
6.449263e+002, 1.556744e+002
6.454084e+002, 1.552667e+002
6.458906e+002, 1.547367e+002
6.463727e+002, 1.543472e+002
6.468548e+002, 1.542616e+002
6.473369e+002, 1.545156e+002
6.478190e+002, 1.547894e+002
6.483011e+002, 1.552037e+002
6.487833e+002, 1.554535e+002
6.492654e+002, 1.551676e+002
6.497475e+002, 1.542616e+002
6.502296e+002, 1.539069e+002
6.507117e+002, 1.542492e+002
6.511938e+002, 1.548231e+002
6.516760e+002, 1.550852e+002
6.521581e+002, 1.551065e+002
6.526402e+002, 1.550756e+002
6.531223e+002, 1.549792e+002
6.536044e+002, 1.549760e+002
6.540865e+002, 1.553992e+002
6.545687e+002, 1.559953e+002
6.550508e+002, 1.562802e+002
6.555329e+002, 1.557490e+002
6.560150e+002, 1.552112e+002
6.564971e+002, 1.548886e+002
6.569792e+002, 1.547938e+002
6.574614e+002, 1.549694e+002
6.579435e+002, 1.557352e+002
6.584256e+002, 1.563132e+002
6.589077e+002, 1.564065e+002
6.593898e+002, 1.560359e+002
6.598719e+002, 1.557312e+002
6.603541e+002, 1.555127e+002
6.608362e+002, 1.552654e+002
6.613183e+002, 1.547155e+002
6.618004e+002, 1.540459e+002
6.622825e+002, 1.541403e+002
6.627646e+002, 1.550958e+002
6.632468e+002, 1.559487e+002
6.637289e+002, 1.556357e+002
6.642110e+002, 1.547929e+002
6.646931e+002, 1.542862e+002
6.651752e+002, 1.544707e+002
6.656573e+002, 1.545637e+002
6.661395e+002, 1.539590e+002
6.666216e+002, 1.531731e+002
6.671037e+002, 1.528410e+002
6.675858e+002, 1.536081e+002
6.680679e+002, 1.541222e+002
6.685500e+002, 1.541653e+002
6.690322e+002, 1.539470e+002
6.695143e+002, 1.539450e+002
6.699964e+002, 1.542175e+002
6.704785e+002, 1.544167e+002
6.709606e+002, 1.544308e+002
6.714427e+002, 1.543020e+002
6.719249e+002, 1.540890e+002
6.724070e+002, 1.538097e+002
6.728891e+002, 1.536228e+002
6.733712e+002, 1.537971e+002
6.738533e+002, 1.540116e+002
6.743354e+002, 1.537368e+002
6.748176e+002, 1.530333e+002
6.752997e+002, 1.526330e+002
6.757818e+002, 1.532653e+002
6.762639e+002, 1.540455e+002
6.767460e+002, 1.544217e+002
6.772281e+002, 1.542275e+002
6.777103e+002, 1.540002e+002
6.781924e+002, 1.535803e+002
6.786745e+002, 1.533184e+002
6.791566e+002, 1.535858e+002
6.796387e+002, 1.546034e+002
6.801208e+002, 1.550210e+002
6.806030e+002, 1.546361e+002
6.810851e+002, 1.540029e+002
6.815672e+002, 1.537757e+002
6.820493e+002, 1.538953e+002
6.825314e+002, 1.541443e+002
6.830135e+002, 1.545544e+002
6.834957e+002, 1.548679e+002
6.839778e+002, 1.546961e+002
6.844599e+002, 1.542424e+002
6.849420e+002, 1.538964e+002
6.854241e+002, 1.538580e+002
6.859063e+002, 1.538911e+002
6.863884e+002, 1.539573e+002
6.868705e+002, 1.540323e+002
6.873526e+002, 1.540380e+002
6.878347e+002, 1.539947e+002
6.883168e+002, 1.538493e+002
6.887990e+002, 1.535493e+002
6.892811e+002, 1.531288e+002
6.897632e+002, 1.527831e+002
6.902453e+002, 1.524873e+002
6.907274e+002, 1.524444e+002
6.912095e+002, 1.529967e+002
6.916917e+002, 1.538770e+002
6.921738e+002, 1.542590e+002
6.926559e+002, 1.541431e+002
6.931380e+002, 1.538919e+002
6.936201e+002, 1.535886e+002
6.941022e+002, 1.533831e+002
6.945844e+002, 1.535121e+002
6.950665e+002, 1.540816e+002
6.955486e+002, 1.544333e+002
6.960307e+002, 1.540123e+002
6.965128e+002, 1.534935e+002
6.969949e+002, 1.534365e+002
6.974771e+002, 1.542224e+002
6.979592e+002, 1.546843e+002
6.984413e+002, 1.547545e+002
6.989234e+002, 1.545862e+002
6.994055e+002, 1.543391e+002
6.998876e+002, 1.540149e+002
7.003698e+002, 1.536101e+002
7.008519e+002, 1.530733e+002
7.013340e+002, 1.526133e+002
7.018161e+002, 1.525992e+002
7.022982e+002, 1.528994e+002
7.027803e+002, 1.531798e+002
7.032625e+002, 1.532832e+002
7.037446e+002, 1.533702e+002
7.042267e+002, 1.535253e+002
7.047088e+002, 1.537426e+002
7.051909e+002, 1.540094e+002
7.056730e+002, 1.545473e+002
7.061552e+002, 1.548634e+002
7.066373e+002, 1.546973e+002
7.071194e+002, 1.541941e+002
7.076015e+002, 1.540711e+002
7.080836e+002, 1.544561e+002
7.085657e+002, 1.548286e+002
7.090479e+002, 1.549868e+002
7.095300e+002, 1.549583e+002
7.100121e+002, 1.548450e+002
7.104942e+002, 1.546467e+002
7.109763e+002, 1.544109e+002
7.114584e+002, 1.540258e+002
7.119406e+002, 1.536958e+002
7.124227e+002, 1.537486e+002
7.129048e+002, 1.541875e+002
7.133869e+002, 1.545944e+002
7.138690e+002, 1.549082e+002
7.143511e+002, 1.550190e+002
7.148333e+002, 1.547877e+002
7.153154e+002, 1.540029e+002
7.157975e+002, 1.535464e+002
7.162796e+002, 1.535150e+002
7.167617e+002, 1.536998e+002
7.172438e+002, 1.540493e+002
7.177260e+002, 1.546183e+002
7.182081e+002, 1.546373e+002
7.186902e+002, 1.539335e+002
7.191723e+002, 1.532103e+002
7.196544e+002, 1.534672e+002
7.201365e+002, 1.543473e+002
7.206187e+002, 1.549378e+002
7.211008e+002, 1.549829e+002
7.215829e+002, 1.548762e+002
7.220650e+002, 1.548952e+002
7.225471e+002, 1.549482e+002
7.230292e+002, 1.549126e+002
7.235114e+002, 1.545236e+002
7.239935e+002, 1.543227e+002
7.244756e+002, 1.544368e+002
7.249577e+002, 1.547653e+002
7.254398e+002, 1.551773e+002
7.259219e+002, 1.557169e+002
7.264041e+002, 1.562029e+002
7.268862e+002, 1.566248e+002
7.273683e+002, 1.569377e+002
7.278504e+002, 1.569662e+002
7.283325e+002, 1.567460e+002
7.288146e+002, 1.565147e+002
7.292968e+002, 1.563802e+002
7.297789e+002, 1.562900e+002
7.302610e+002, 1.561436e+002
7.307431e+002, 1.559837e+002
7.312252e+002, 1.559509e+002
7.317073e+002, 1.563985e+002
7.321895e+002, 1.567035e+002
7.326716e+002, 1.564392e+002
7.331537e+002, 1.556617e+002
7.336358e+002, 1.553054e+002
7.341179e+002, 1.555505e+002
7.346000e+002, 1.559167e+002
7.350822e+002, 1.562580e+002
7.355643e+002, 1.565637e+002
7.360464e+002, 1.566598e+002
7.365285e+002, 1.565379e+002
7.370106e+002, 1.563923e+002
7.374927e+002, 1.563987e+002
7.379749e+002, 1.564601e+002
7.384570e+002, 1.563533e+002
7.389391e+002, 1.560779e+002
7.394212e+002, 1.559251e+002
7.399033e+002, 1.561714e+002
7.403854e+002, 1.565292e+002
7.408676e+002, 1.568280e+002
7.413497e+002, 1.570822e+002
7.418318e+002, 1.571024e+002
7.423139e+002, 1.566475e+002
7.427960e+002, 1.562220e+002
7.432781e+002, 1.561903e+002
7.437603e+002, 1.566124e+002
7.442424e+002, 1.570332e+002
7.447245e+002, 1.574654e+002
7.452066e+002, 1.578057e+002
7.456887e+002, 1.578979e+002
7.461708e+002, 1.578226e+002
7.466530e+002, 1.577883e+002
7.471351e+002, 1.578389e+002
7.476172e+002, 1.578959e+002
7.480993e+002, 1.578304e+002
7.485814e+002, 1.577735e+002
7.490635e+002, 1.578775e+002
7.495457e+002, 1.583003e+002
7.500278e+002, 1.586891e+002
7.505099e+002, 1.589563e+002
7.509920e+002, 1.591864e+002
7.514741e+002, 1.595060e+002
7.519562e+002, 1.599772e+002
7.524384e+002, 1.602209e+002
7.529205e+002, 1.601256e+002
7.534026e+002, 1.598981e+002
7.538847e+002, 1.597882e+002
7.543668e+002, 1.598150e+002
7.548489e+002, 1.601069e+002
7.553311e+002, 1.609042e+002
7.558132e+002, 1.615954e+002
7.562953e+002, 1.615425e+002
7.567774e+002, 1.610203e+002
7.572595e+002, 1.605126e+002
7.577416e+002, 1.598869e+002
7.582238e+002, 1.596253e+002
7.587059e+002, 1.600301e+002
7.591880e+002, 1.608231e+002
7.596701e+002, 1.614732e+002
7.601522e+002, 1.620178e+002
7.606343e+002, 1.623043e+002
7.611165e+002, 1.622187e+002
7.615986e+002, 1.619366e+002
7.620807e+002, 1.619030e+002
7.625628e+002, 1.620782e+002
7.630449e+002, 1.622233e+002
7.635270e+002, 1.621256e+002
7.640092e+002, 1.620379e+002
7.644913e+002, 1.622085e+002
7.649734e+002, 1.625871e+002
7.654555e+002, 1.630203e+002
7.659376e+002, 1.635736e+002
7.664197e+002, 1.640367e+002
7.669019e+002, 1.642520e+002
7.673840e+002, 1.642931e+002
7.678661e+002, 1.645545e+002
7.683482e+002, 1.651860e+002
7.688303e+002, 1.655724e+002
7.693124e+002, 1.653023e+002
7.697946e+002, 1.646543e+002
7.702767e+002, 1.646874e+002
7.707588e+002, 1.653362e+002
7.712409e+002, 1.659928e+002
7.717230e+002, 1.662469e+002
7.722051e+002, 1.663607e+002
7.726873e+002, 1.666793e+002
7.731694e+002, 1.671501e+002
7.736515e+002, 1.673336e+002
7.741336e+002, 1.665913e+002
7.746157e+002, 1.660054e+002
7.750978e+002, 1.661232e+002
7.755800e+002, 1.669143e+002
7.760621e+002, 1.675233e+002
7.765442e+002, 1.678644e+002
7.770263e+002, 1.682732e+002
7.775084e+002, 1.689969e+002
7.779905e+002, 1.699453e+002
7.784727e+002, 1.707306e+002
7.789548e+002, 1.713479e+002
7.794369e+002, 1.717299e+002
7.799190e+002, 1.716652e+002
7.804011e+002, 1.714447e+002
7.808832e+002, 1.712678e+002
7.813654e+002, 1.711574e+002
7.818475e+002, 1.713329e+002
7.823296e+002, 1.723223e+002
7.828117e+002, 1.731920e+002
7.832938e+002, 1.733598e+002
7.837759e+002, 1.727098e+002
7.842581e+002, 1.727915e+002
7.847402e+002, 1.738195e+002
7.852223e+002, 1.749149e+002
7.857044e+002, 1.754308e+002
7.861865e+002, 1.755122e+002
7.866686e+002, 1.756589e+002
7.871508e+002, 1.758932e+002
7.876329e+002, 1.763955e+002
7.881150e+002, 1.775752e+002
7.885971e+002, 1.789269e+002
7.890792e+002, 1.799030e+002
7.895613e+002, 1.804118e+002
7.900435e+002, 1.809905e+002
7.905256e+002, 1.817059e+002
7.910077e+002, 1.825870e+002
7.914898e+002, 1.837254e+002
7.919719e+002, 1.851885e+002
7.924540e+002, 1.863130e+002
7.929362e+002, 1.870217e+002
7.934183e+002, 1.876182e+002
7.939004e+002, 1.882405e+002
7.943825e+002, 1.889487e+002
7.948646e+002, 1.899731e+002
7.953467e+002, 1.913426e+002
7.958289e+002, 1.926717e+002
7.963110e+002, 1.934904e+002
7.967931e+002, 1.942668e+002
7.972752e+002, 1.954195e+002
7.977573e+002, 1.971237e+002
7.982394e+002, 1.987189e+002
7.987216e+002, 2.002013e+002
7.992037e+002, 2.014936e+002
7.996858e+002, 2.023589e+002
8.001679e+002, 2.026326e+002
8.006500e+002, 2.040092e+002
8.011321e+002, 2.066717e+002
8.016143e+002, 2.094049e+002
8.020964e+002, 2.108340e+002
8.025785e+002, 2.116240e+002
8.030606e+002, 2.130832e+002
8.035427e+002, 2.153810e+002
8.040248e+002, 2.179756e+002
8.045070e+002, 2.207605e+002
8.049891e+002, 2.235856e+002
8.054712e+002, 2.262768e+002
8.059533e+002, 2.286866e+002
8.064354e+002, 2.314586e+002
8.069175e+002, 2.345058e+002
8.073997e+002, 2.380388e+002
8.078818e+002, 2.423345e+002
8.083639e+002, 2.473428e+002
8.088460e+002, 2.523249e+002
8.093281e+002, 2.572248e+002
8.098102e+002, 2.624767e+002
8.102924e+002, 2.681333e+002
8.107745e+002, 2.745370e+002
8.112566e+002, 2.822039e+002
8.117387e+002, 2.911631e+002
8.122208e+002, 3.011141e+002
8.127029e+002, 3.118199e+002
8.131851e+002, 3.235713e+002
8.136672e+002, 3.366482e+002
8.141493e+002, 3.511768e+002
8.146314e+002, 3.663802e+002
8.151135e+002, 3.821605e+002
8.155956e+002, 3.985646e+002
8.160778e+002, 4.150836e+002
8.165599e+002, 4.320418e+002
8.170420e+002, 4.505046e+002
8.175241e+002, 4.706029e+002
8.180062e+002, 4.925235e+002
8.184883e+002, 5.159500e+002
8.189705e+002, 5.419164e+002
8.194526e+002, 5.710192e+002
8.199347e+002, 6.031089e+002
8.204168e+002, 6.390896e+002
8.208989e+002, 6.799100e+002
8.213810e+002, 7.241108e+002
8.218632e+002, 7.711934e+002
8.223453e+002, 8.209667e+002
8.228274e+002, 8.766962e+002
8.233095e+002, 9.381215e+002
8.237916e+002, 1.001452e+003
8.242737e+002, 1.066209e+003
8.247559e+002, 1.129079e+003
8.252380e+002, 1.187096e+003
8.257201e+002, 1.239038e+003
8.262022e+002, 1.271403e+003
8.266843e+002, 1.280681e+003
8.271664e+002, 1.263324e+003
8.276486e+002, 1.213028e+003
8.281307e+002, 1.124288e+003
8.286128e+002, 1.029458e+003
8.290949e+002, 9.221281e+002
8.295770e+002, 8.188817e+002
8.300591e+002, 7.260925e+002
8.305413e+002, 6.442753e+002
8.310234e+002, 5.752845e+002
8.315055e+002, 5.190733e+002
8.319876e+002, 4.725836e+002
8.324697e+002, 4.355646e+002
8.329518e+002, 4.054286e+002
8.334340e+002, 3.793888e+002
8.339161e+002, 3.573276e+002
8.343982e+002, 3.383841e+002
8.348803e+002, 3.234736e+002
8.353624e+002, 3.105710e+002
8.358445e+002, 2.987315e+002
8.363267e+002, 2.880076e+002
8.368088e+002, 2.786080e+002
8.372909e+002, 2.707283e+002
8.377730e+002, 2.635051e+002
8.382551e+002, 2.562665e+002
8.387372e+002, 2.493975e+002
8.392194e+002, 2.442845e+002
8.397015e+002, 2.406389e+002
8.401836e+002, 2.367888e+002
8.406657e+002, 2.314431e+002
8.411478e+002, 2.258819e+002
8.416299e+002, 2.207676e+002
8.421121e+002, 2.161359e+002
8.425942e+002, 2.121044e+002
8.430763e+002, 2.087294e+002
8.435584e+002, 2.057631e+002
8.440405e+002, 2.032073e+002
8.445226e+002, 2.009742e+002
8.450048e+002, 1.986649e+002
8.454869e+002, 1.963000e+002
8.459690e+002, 1.942049e+002
8.464511e+002, 1.926901e+002
8.469332e+002, 1.914298e+002
8.474153e+002, 1.901399e+002
8.478975e+002, 1.888273e+002
8.483796e+002, 1.875091e+002
8.488617e+002, 1.859948e+002
8.493438e+002, 1.847105e+002
8.498259e+002, 1.838397e+002
8.503080e+002, 1.832663e+002
8.507902e+002, 1.827157e+002
8.512723e+002, 1.821868e+002
8.517544e+002, 1.817288e+002
8.522365e+002, 1.813743e+002
8.527186e+002, 1.810713e+002
8.532007e+002, 1.807705e+002
8.536829e+002, 1.804458e+002
8.541650e+002, 1.800196e+002
8.546471e+002, 1.793135e+002
8.551292e+002, 1.786811e+002
8.556113e+002, 1.782777e+002
8.560934e+002, 1.780650e+002
8.565756e+002, 1.779695e+002
8.570577e+002, 1.780152e+002
8.575398e+002, 1.781331e+002
8.580219e+002, 1.784011e+002
8.585040e+002, 1.786051e+002
8.589861e+002, 1.782911e+002
8.594683e+002, 1.775633e+002
8.599504e+002, 1.770175e+002
8.604325e+002, 1.768487e+002
8.609146e+002, 1.767210e+002
8.613967e+002, 1.761309e+002
8.618788e+002, 1.754912e+002
8.623610e+002, 1.753387e+002
8.628431e+002, 1.762660e+002
8.633252e+002, 1.768474e+002
8.638073e+002, 1.768543e+002
8.642894e+002, 1.766010e+002
8.647715e+002, 1.763672e+002
8.652537e+002, 1.761560e+002
8.657358e+002, 1.759079e+002
8.662179e+002, 1.755933e+002
8.667000e+002, 1.754202e+002
8.671821e+002, 1.757763e+002
8.676642e+002, 1.763364e+002
8.681464e+002, 1.765949e+002
8.686285e+002, 1.764389e+002
8.691106e+002, 1.762789e+002
8.695927e+002, 1.762278e+002
8.700748e+002, 1.762673e+002
8.705569e+002, 1.764318e+002
8.710391e+002, 1.767805e+002
8.715212e+002, 1.767115e+002
8.720033e+002, 1.760723e+002
8.724854e+002, 1.756032e+002
8.729675e+002, 1.760064e+002
8.734496e+002, 1.769577e+002
8.739318e+002, 1.777868e+002
8.744139e+002, 1.784518e+002
8.748960e+002, 1.788282e+002
8.753781e+002, 1.784800e+002
8.758602e+002, 1.781328e+002
8.763423e+002, 1.783427e+002
8.768245e+002, 1.791263e+002
8.773066e+002, 1.795339e+002
8.777887e+002, 1.793616e+002
8.782708e+002, 1.793060e+002
8.787529e+002, 1.797364e+002
8.792350e+002, 1.804659e+002
8.797172e+002, 1.808358e+002
8.801993e+002, 1.808927e+002
8.806814e+002, 1.809451e+002
8.811635e+002, 1.811105e+002
8.816456e+002, 1.813804e+002
8.821277e+002, 1.817234e+002
8.826099e+002, 1.821621e+002
8.830920e+002, 1.827723e+002
8.835741e+002, 1.838805e+002
8.840562e+002, 1.846810e+002
8.845383e+002, 1.848822e+002
8.850204e+002, 1.848421e+002
8.855026e+002, 1.854811e+002
8.859847e+002, 1.867335e+002
8.864668e+002, 1.876188e+002
8.869489e+002, 1.876928e+002
8.874310e+002, 1.876673e+002
8.879131e+002, 1.883968e+002
8.883953e+002, 1.895211e+002
8.888774e+002, 1.905106e+002
8.893595e+002, 1.912795e+002
8.898416e+002, 1.918005e+002
8.903237e+002, 1.918867e+002
8.908058e+002, 1.918953e+002
8.912880e+002, 1.922526e+002
8.917701e+002, 1.930004e+002
8.922522e+002, 1.935077e+002
8.927343e+002, 1.936858e+002
8.932164e+002, 1.938630e+002
8.936985e+002, 1.943892e+002
8.941807e+002, 1.951282e+002
8.946628e+002, 1.959513e+002
8.951449e+002, 1.968678e+002
8.956270e+002, 1.975971e+002
8.961091e+002, 1.978391e+002
8.965912e+002, 1.980414e+002
8.970734e+002, 1.984978e+002
8.975555e+002, 1.992355e+002
8.980376e+002, 1.998717e+002
8.985197e+002, 2.003995e+002
8.990018e+002, 2.008583e+002
8.994839e+002, 2.012985e+002
8.999661e+002, 2.016768e+002
9.004482e+002, 2.018003e+002
9.009303e+002, 2.017337e+002
9.014124e+002, 2.018765e+002
9.018945e+002, 2.028599e+002
9.023766e+002, 2.036709e+002
9.028588e+002, 2.036951e+002
9.033409e+002, 2.031016e+002
9.038230e+002, 2.026570e+002
9.043051e+002, 2.023672e+002
9.047872e+002, 2.021911e+002
9.052693e+002, 2.021736e+002
9.057515e+002, 2.021792e+002
9.062336e+002, 2.019309e+002
9.067157e+002, 2.014740e+002
9.071978e+002, 2.009385e+002
9.076799e+002, 2.002542e+002
9.081620e+002, 1.996618e+002
9.086442e+002, 1.993973e+002
9.091263e+002, 1.992500e+002
9.096084e+002, 1.988483e+002
9.100905e+002, 1.980371e+002
9.105726e+002, 1.973775e+002
9.110547e+002, 1.969129e+002
9.115369e+002, 1.966120e+002
9.120190e+002, 1.966246e+002
9.125011e+002, 1.967570e+002
9.129832e+002, 1.963382e+002
9.134653e+002, 1.951516e+002
9.139474e+002, 1.941086e+002
9.144296e+002, 1.939075e+002
9.149117e+002, 1.940182e+002
9.153938e+002, 1.940084e+002
9.158759e+002, 1.938222e+002
9.163580e+002, 1.935695e+002
9.168401e+002, 1.931770e+002
9.173223e+002, 1.928912e+002
9.178044e+002, 1.930445e+002
9.182865e+002, 1.934436e+002
9.187686e+002, 1.932303e+002
9.192507e+002, 1.924773e+002
9.197328e+002, 1.918994e+002
9.202150e+002, 1.921810e+002
9.206971e+002, 1.925680e+002
9.211792e+002, 1.925310e+002
9.216613e+002, 1.921290e+002
9.221434e+002, 1.919741e+002
9.226255e+002, 1.922282e+002
9.231077e+002, 1.923730e+002
9.235898e+002, 1.922021e+002
9.240719e+002, 1.918929e+002
9.245540e+002, 1.918669e+002
9.250361e+002, 1.920702e+002
9.255182e+002, 1.922894e+002
9.260004e+002, 1.924518e+002
9.264825e+002, 1.925895e+002
9.269646e+002, 1.927118e+002
9.274467e+002, 1.928230e+002
9.279288e+002, 1.929340e+002
9.284109e+002, 1.930991e+002
9.288931e+002, 1.931109e+002
9.293752e+002, 1.928454e+002
9.298573e+002, 1.926600e+002
9.303394e+002, 1.931590e+002
9.308215e+002, 1.940921e+002
9.313036e+002, 1.945070e+002
9.317858e+002, 1.942682e+002
9.322679e+002, 1.939499e+002
9.327500e+002, 1.938378e+002
9.332321e+002, 1.938988e+002
9.337142e+002, 1.941350e+002
9.341964e+002, 1.945695e+002
9.346785e+002, 1.950397e+002
9.351606e+002, 1.956137e+002
9.356427e+002, 1.960508e+002
9.361248e+002, 1.961555e+002
9.366069e+002, 1.960434e+002
9.370891e+002, 1.960363e+002
9.375712e+002, 1.961461e+002
9.380533e+002, 1.964414e+002
9.385354e+002, 1.970788e+002
9.390175e+002, 1.977875e+002
9.394996e+002, 1.985352e+002
9.399818e+002, 1.992200e+002
9.404639e+002, 1.995173e+002
9.409460e+002, 1.991445e+002
9.414281e+002, 1.991101e+002
9.419102e+002, 1.996401e+002
9.423923e+002, 2.004811e+002
9.428745e+002, 2.012529e+002
9.433566e+002, 2.020005e+002
9.438387e+002, 2.029187e+002
9.443208e+002, 2.041888e+002
9.448029e+002, 2.050999e+002
9.452850e+002, 2.048497e+002
9.457672e+002, 2.043116e+002
9.462493e+002, 2.043101e+002
9.467314e+002, 2.049528e+002
9.472135e+002, 2.058163e+002
9.476956e+002, 2.069692e+002
9.481777e+002, 2.081124e+002
9.486599e+002, 2.089691e+002
9.491420e+002, 2.096350e+002
9.496241e+002, 2.103181e+002
9.501062e+002, 2.110200e+002
9.505883e+002, 2.117055e+002
9.510704e+002, 2.122163e+002
9.515526e+002, 2.128418e+002
9.520347e+002, 2.138255e+002
9.525168e+002, 2.150523e+002
9.529989e+002, 2.160539e+002
9.534810e+002, 2.167576e+002
9.539631e+002, 2.175987e+002
9.544453e+002, 2.187686e+002
9.549274e+002, 2.200164e+002
9.554095e+002, 2.207418e+002
9.558916e+002, 2.212508e+002
9.563737e+002, 2.222563e+002
9.568558e+002, 2.243300e+002
9.573380e+002, 2.262772e+002
9.578201e+002, 2.277896e+002
9.583022e+002, 2.289328e+002
9.587843e+002, 2.296521e+002
9.592664e+002, 2.297812e+002
9.597485e+002, 2.305142e+002
9.602307e+002, 2.319322e+002
9.607128e+002, 2.335798e+002
9.611949e+002, 2.351849e+002
9.616770e+002, 2.367024e+002
9.621591e+002, 2.379566e+002
9.626412e+002, 2.389734e+002
9.631234e+002, 2.401653e+002
9.636055e+002, 2.416079e+002
9.640876e+002, 2.433577e+002
9.645697e+002, 2.454903e+002
9.650518e+002, 2.479245e+002
9.655339e+002, 2.504393e+002
9.660161e+002, 2.530416e+002
9.664982e+002, 2.555320e+002
9.669803e+002, 2.576036e+002
9.674624e+002, 2.599023e+002
9.679445e+002, 2.632294e+002
9.684266e+002, 2.672444e+002
9.689088e+002, 2.713159e+002
9.693909e+002, 2.752770e+002
9.698730e+002, 2.793057e+002
9.703551e+002, 2.832044e+002
9.708372e+002, 2.874744e+002
9.713193e+002, 2.927955e+002
9.718015e+002, 2.990727e+002
9.722836e+002, 3.058141e+002
9.727657e+002, 3.129543e+002
9.732478e+002, 3.206638e+002
9.737299e+002, 3.289111e+002
9.742120e+002, 3.380208e+002
9.746942e+002, 3.482721e+002
9.751763e+002, 3.597233e+002
9.756584e+002, 3.721800e+002
9.761405e+002, 3.855674e+002
9.766226e+002, 4.002348e+002
9.771047e+002, 4.162693e+002
9.775869e+002, 4.337324e+002
9.780690e+002, 4.525338e+002
9.785511e+002, 4.724822e+002
9.790332e+002, 4.933747e+002
9.795153e+002, 5.148766e+002
9.799974e+002, 5.379922e+002
9.804796e+002, 5.634873e+002
9.809617e+002, 5.909142e+002
9.814438e+002, 6.192430e+002
9.819259e+002, 6.478975e+002
9.824080e+002, 6.801388e+002
9.828901e+002, 7.164548e+002
9.833723e+002, 7.557090e+002
9.838544e+002, 7.969252e+002
9.843365e+002, 8.402216e+002
9.848186e+002, 8.866562e+002
9.853007e+002, 9.363801e+002
9.857828e+002, 9.852172e+002
9.862650e+002, 1.033004e+003
9.867471e+002, 1.078332e+003
9.872292e+002, 1.122091e+003
9.877113e+002, 1.163236e+003
9.881934e+002, 1.196633e+003
9.886755e+002, 1.222275e+003
9.891577e+002, 1.240004e+003
9.896398e+002, 1.249157e+003
9.901219e+002, 1.250990e+003
9.906040e+002, 1.244984e+003
9.910861e+002, 1.233148e+003
9.915682e+002, 1.218828e+003
9.920504e+002, 1.200638e+003
9.925325e+002, 1.183475e+003
9.930146e+002, 1.167545e+003
9.934967e+002, 1.152906e+003
9.939788e+002, 1.139947e+003
9.944609e+002, 1.128322e+003
9.949431e+002, 1.115405e+003
9.954252e+002, 1.100993e+003
9.959073e+002, 1.083849e+003
9.963894e+002, 1.064430e+003
9.968715e+002, 1.040609e+003
9.973536e+002, 1.010372e+003
9.978358e+002, 9.737321e+002
9.983179e+002, 9.321273e+002
9.988000e+002, 8.838029e+002
9.992821e+002, 8.349854e+002
9.997642e+002, 7.864954e+002
1.000246e+003, 7.389467e+002
1.000728e+003, 6.941833e+002
1.001211e+003, 6.521839e+002
1.001693e+003, 6.146580e+002
1.002175e+003, 5.820953e+002
1.002657e+003, 5.532557e+002
1.003139e+003, 5.286337e+002
1.003621e+003, 5.072477e+002
1.004103e+003, 4.884280e+002
1.004585e+003, 4.723466e+002
1.005068e+003, 4.583525e+002
1.005550e+003, 4.465459e+002
1.006032e+003, 4.347264e+002
1.006514e+003, 4.207569e+002
1.006996e+003, 4.059486e+002
1.007478e+003, 3.914945e+002
1.007960e+003, 3.774398e+002
1.008442e+003, 3.638443e+002
1.008924e+003, 3.496334e+002
1.009407e+003, 3.370571e+002
1.009889e+003, 3.266021e+002
1.010371e+003, 3.178546e+002
1.010853e+003, 3.100337e+002
1.011335e+003, 3.030318e+002
1.011817e+003, 2.968145e+002
1.012299e+003, 2.913690e+002
1.012781e+003, 2.865309e+002
1.013263e+003, 2.824032e+002
1.013746e+003, 2.786291e+002
1.014228e+003, 2.747981e+002
1.014710e+003, 2.707746e+002
1.015192e+003, 2.673947e+002
1.015674e+003, 2.648186e+002
1.016156e+003, 2.624030e+002
1.016638e+003, 2.595944e+002
1.017120e+003, 2.567152e+002
1.017603e+003, 2.545674e+002
1.018085e+003, 2.529737e+002
1.018567e+003, 2.513858e+002
1.019049e+003, 2.491555e+002
1.019531e+003, 2.473885e+002
1.020013e+003, 2.468021e+002
1.020495e+003, 2.465607e+002
1.020977e+003, 2.453249e+002
1.021459e+003, 2.430585e+002
1.021942e+003, 2.412159e+002
1.022424e+003, 2.399887e+002
1.022906e+003, 2.390811e+002
1.023388e+003, 2.385680e+002
1.023870e+003, 2.379890e+002
1.024352e+003, 2.367226e+002
1.024834e+003, 2.346415e+002
1.025316e+003, 2.330883e+002
1.025799e+003, 2.322952e+002
1.026281e+003, 2.317334e+002
1.026763e+003, 2.312432e+002
1.027245e+003, 2.308124e+002
1.027727e+003, 2.304263e+002
1.028209e+003, 2.300531e+002
1.028691e+003, 2.295751e+002
1.029173e+003, 2.288779e+002
1.029656e+003, 2.281724e+002
1.030138e+003, 2.274303e+002
1.030620e+003, 2.268181e+002
1.031102e+003, 2.264957e+002
1.031584e+003, 2.264845e+002
1.032066e+003, 2.267135e+002
1.032548e+003, 2.272201e+002
1.033030e+003, 2.275683e+002
1.033512e+003, 2.272184e+002
1.033995e+003, 2.266206e+002
1.034477e+003, 2.262602e+002
1.034959e+003, 2.261475e+002
1.035441e+003, 2.261814e+002
1.035923e+003, 2.266508e+002
1.036405e+003, 2.267830e+002
1.036887e+003, 2.263577e+002
1.037369e+003, 2.255960e+002
1.037851e+003, 2.247408e+002
1.038334e+003, 2.239065e+002
1.038816e+003, 2.235230e+002
1.039298e+003, 2.237668e+002
1.039780e+003, 2.241102e+002
1.040262e+003, 2.245119e+002
1.040744e+003, 2.246584e+002
1.041226e+003, 2.241962e+002
1.041708e+003, 2.230777e+002
1.042191e+003, 2.223425e+002
1.042673e+003, 2.220061e+002
1.043155e+003, 2.218457e+002
1.043637e+003, 2.218385e+002
1.044119e+003, 2.218483e+002
1.044601e+003, 2.215699e+002
1.045083e+003, 2.211692e+002
1.045565e+003, 2.210349e+002
1.046047e+003, 2.216724e+002
1.046530e+003, 2.219909e+002
1.047012e+003, 2.217575e+002
1.047494e+003, 2.213903e+002
1.047976e+003, 2.214374e+002
1.048458e+003, 2.217751e+002
1.048940e+003, 2.216932e+002
1.049422e+003, 2.211550e+002
1.049904e+003, 2.208360e+002
1.050386e+003, 2.214318e+002
1.050869e+003, 2.221213e+002
1.051351e+003, 2.222988e+002
1.051833e+003, 2.221288e+002
1.052315e+003, 2.224217e+002
1.052797e+003, 2.232920e+002
1.053279e+003, 2.236877e+002
1.053761e+003, 2.231987e+002
1.054243e+003, 2.224809e+002
1.054726e+003, 2.223963e+002
1.055208e+003, 2.225997e+002
1.055690e+003, 2.225965e+002
1.056172e+003, 2.222050e+002
1.056654e+003, 2.218696e+002
1.057136e+003, 2.216648e+002
1.057618e+003, 2.214505e+002
1.058100e+003, 2.210462e+002
1.058583e+003, 2.205826e+002
1.059065e+003, 2.207302e+002
1.059547e+003, 2.213417e+002
1.060029e+003, 2.217355e+002
1.060511e+003, 2.212374e+002
1.060993e+003, 2.208141e+002
1.061475e+003, 2.210978e+002
1.061957e+003, 2.215736e+002
1.062439e+003, 2.214452e+002
1.062922e+003, 2.205955e+002
1.063404e+003, 2.202619e+002
1.063886e+003, 2.205854e+002
1.064368e+003, 2.210193e+002
1.064850e+003, 2.212135e+002
1.065332e+003, 2.211797e+002
1.065814e+003, 2.207445e+002
1.066296e+003, 2.199698e+002
1.066778e+003, 2.197273e+002
1.067261e+003, 2.204105e+002
1.067743e+003, 2.208485e+002
1.068225e+003, 2.206624e+002
1.068707e+003, 2.202075e+002
1.069189e+003, 2.202102e+002
1.069671e+003, 2.204527e+002
1.070153e+003, 2.203175e+002
1.070635e+003, 2.194277e+002
1.071118e+003, 2.190247e+002
1.071600e+003, 2.203879e+002
1.072082e+003, 2.216423e+002
1.072564e+003, 2.216081e+002
1.073046e+003, 2.204164e+002
1.073528e+003, 2.195714e+002
1.074010e+003, 2.190841e+002
1.074492e+003, 2.189889e+002
1.074974e+003, 2.196032e+002
1.075457e+003, 2.202890e+002
1.075939e+003, 2.206508e+002
1.076421e+003, 2.207366e+002
1.076903e+003, 2.205887e+002
1.077385e+003, 2.200414e+002
1.077867e+003, 2.198084e+002
1.078349e+003, 2.199460e+002
1.078831e+003, 2.202864e+002
1.079313e+003, 2.208401e+002
1.079796e+003, 2.214038e+002
1.080278e+003, 2.216340e+002
1.080760e+003, 2.215543e+002
1.081242e+003, 2.214474e+002
1.081724e+003, 2.212939e+002
1.082206e+003, 2.212655e+002
1.082688e+003, 2.214063e+002
1.083170e+003, 2.216804e+002
1.083652e+003, 2.220875e+002
1.084135e+003, 2.225802e+002
1.084617e+003, 2.229976e+002
1.085099e+003, 2.233329e+002
1.085581e+003, 2.234268e+002
1.086063e+003, 2.228589e+002
1.086545e+003, 2.223291e+002
1.087027e+003, 2.223645e+002
1.087509e+003, 2.228808e+002
1.087992e+003, 2.228946e+002
1.088474e+003, 2.223985e+002
1.088956e+003, 2.221259e+002
1.089438e+003, 2.225251e+002
1.089920e+003, 2.230046e+002
1.090402e+003, 2.228699e+002
1.090884e+003, 2.225045e+002
1.091366e+003, 2.224282e+002
1.091849e+003, 2.227056e+002
1.092331e+003, 2.233848e+002
1.092813e+003, 2.246560e+002
1.093295e+003, 2.256850e+002
1.093777e+003, 2.256300e+002
1.094259e+003, 2.250261e+002
1.094741e+003, 2.248984e+002
1.095223e+003, 2.251182e+002
1.095705e+003, 2.251970e+002
1.096188e+003, 2.246592e+002
1.096670e+003, 2.243694e+002
1.097152e+003, 2.244817e+002
1.097634e+003, 2.248567e+002
1.098116e+003, 2.255096e+002
1.098598e+003, 2.262991e+002
1.099080e+003, 2.263992e+002
1.099562e+003, 2.257496e+002
1.100044e+003, 2.252823e+002
1.100527e+003, 2.257790e+002
1.101009e+003, 2.264105e+002
1.101491e+003, 2.267365e+002
1.101973e+003, 2.268429e+002
1.102455e+003, 2.270381e+002
1.102937e+003, 2.273298e+002
1.103419e+003, 2.273000e+002
1.103901e+003, 2.267465e+002
1.104384e+003, 2.262572e+002
1.104866e+003, 2.266048e+002
1.105348e+003, 2.271764e+002
1.105830e+003, 2.272801e+002
1.106312e+003, 2.267554e+002
1.106794e+003, 2.266905e+002
1.107276e+003, 2.272276e+002
1.107758e+003, 2.276475e+002
1.108240e+003, 2.275682e+002
1.108723e+003, 2.272512e+002
1.109205e+003, 2.269746e+002
1.109687e+003, 2.268041e+002
1.110169e+003, 2.268695e+002
1.110651e+003, 2.273236e+002
1.111133e+003, 2.278486e+002
1.111615e+003, 2.286191e+002
1.112097e+003, 2.291015e+002
1.112579e+003, 2.285986e+002
1.113062e+003, 2.275004e+002
1.113544e+003, 2.271862e+002
1.114026e+003, 2.275688e+002
1.114508e+003, 2.281837e+002
1.114990e+003, 2.292087e+002
1.115472e+003, 2.299238e+002
1.115954e+003, 2.300019e+002
1.116436e+003, 2.297413e+002
1.116919e+003, 2.294233e+002
1.117401e+003, 2.290652e+002
1.117883e+003, 2.289750e+002
1.118365e+003, 2.291823e+002
1.118847e+003, 2.293577e+002
1.119329e+003, 2.291053e+002
1.119811e+003, 2.288944e+002
1.120293e+003, 2.291257e+002
1.120776e+003, 2.296582e+002
1.121258e+003, 2.300249e+002
1.121740e+003, 2.302260e+002
1.122222e+003, 2.301964e+002
1.122704e+003, 2.298671e+002
1.123186e+003, 2.295301e+002
1.123668e+003, 2.294270e+002
1.124150e+003, 2.295029e+002
1.124632e+003, 2.297739e+002
1.125115e+003, 2.302681e+002
1.125597e+003, 2.304725e+002
1.126079e+003, 2.303049e+002
1.126561e+003, 2.301011e+002
1.127043e+003, 2.299694e+002
1.127525e+003, 2.299060e+002
1.128007e+003, 2.299260e+002
1.128489e+003, 2.300051e+002
1.128971e+003, 2.301115e+002
1.129454e+003, 2.302931e+002
1.129936e+003, 2.303447e+002
1.130418e+003, 2.301417e+002
1.130900e+003, 2.300325e+002
1.131382e+003, 2.303223e+002
1.131864e+003, 2.308302e+002
1.132346e+003, 2.310018e+002
1.132828e+003, 2.309072e+002
1.133311e+003, 2.307795e+002
1.133793e+003, 2.306709e+002
1.134275e+003, 2.305934e+002
1.134757e+003, 2.304978e+002
1.135239e+003, 2.304717e+002
1.135721e+003, 2.306501e+002
1.136203e+003, 2.309915e+002
1.136685e+003, 2.311350e+002
1.137167e+003, 2.310935e+002
1.137650e+003, 2.311382e+002
1.138132e+003, 2.315221e+002
1.138614e+003, 2.319309e+002
1.139096e+003, 2.323193e+002
1.139578e+003, 2.325859e+002
1.140060e+003, 2.325121e+002
1.140542e+003, 2.320929e+002
1.141024e+003, 2.316074e+002
1.141506e+003, 2.310641e+002
1.141989e+003, 2.309268e+002
1.142471e+003, 2.321371e+002
1.142953e+003, 2.333979e+002
1.143435e+003, 2.336919e+002
1.143917e+003, 2.331318e+002
1.144399e+003, 2.324053e+002
1.144881e+003, 2.314012e+002
1.145363e+003, 2.311072e+002
1.145846e+003, 2.318533e+002
1.146328e+003, 2.328782e+002
1.146810e+003, 2.335048e+002
1.147292e+003, 2.338487e+002
1.147774e+003, 2.339508e+002
1.148256e+003, 2.337871e+002
1.148738e+003, 2.339211e+002
1.149220e+003, 2.345287e+002
1.149703e+003, 2.347640e+002
1.150185e+003, 2.341516e+002
1.150667e+003, 2.333791e+002
1.151149e+003, 2.334737e+002
1.151631e+003, 2.341022e+002
1.152113e+003, 2.347948e+002
1.152595e+003, 2.355686e+002
1.153077e+003, 2.359608e+002
1.153559e+003, 2.359203e+002
1.154042e+003, 2.355706e+002
1.154524e+003, 2.347189e+002
1.155006e+003, 2.338221e+002
1.155488e+003, 2.341838e+002
1.155970e+003, 2.353040e+002
1.156452e+003, 2.359368e+002
1.156934e+003, 2.352225e+002
1.157416e+003, 2.348672e+002
1.157898e+003, 2.352675e+002
1.158381e+003, 2.357498e+002
1.158863e+003, 2.357095e+002
1.159345e+003, 2.353357e+002
1.159827e+003, 2.354655e+002
1.160309e+003, 2.359730e+002
1.160791e+003, 2.363483e+002
1.161273e+003, 2.362553e+002
1.161755e+003, 2.361177e+002
1.162238e+003, 2.359377e+002
1.162720e+003, 2.358661e+002
1.163202e+003, 2.361415e+002
1.163684e+003, 2.366936e+002
1.164166e+003, 2.371372e+002
1.164648e+003, 2.374417e+002
1.165130e+003, 2.375022e+002
1.165612e+003, 2.369669e+002
1.166094e+003, 2.365083e+002
1.166577e+003, 2.364221e+002
1.167059e+003, 2.365805e+002
1.167541e+003, 2.368829e+002
1.168023e+003, 2.373071e+002
1.168505e+003, 2.374605e+002
1.168987e+003, 2.373044e+002
1.169469e+003, 2.371631e+002
1.169951e+003, 2.372521e+002
1.170433e+003, 2.374373e+002
1.170916e+003, 2.376557e+002
1.171398e+003, 2.379055e+002
1.171880e+003, 2.382541e+002
1.172362e+003, 2.386980e+002
1.172844e+003, 2.388157e+002
1.173326e+003, 2.384638e+002
1.173808e+003, 2.382607e+002
1.174290e+003, 2.390535e+002
1.174773e+003, 2.399188e+002
1.175255e+003, 2.400087e+002
1.175737e+003, 2.394836e+002
1.176219e+003, 2.392090e+002
1.176701e+003, 2.391924e+002
1.177183e+003, 2.392338e+002
1.177665e+003, 2.392868e+002
1.178147e+003, 2.393591e+002
1.178630e+003, 2.393566e+002
1.179112e+003, 2.394497e+002
1.179594e+003, 2.398554e+002
1.180076e+003, 2.405771e+002
1.180558e+003, 2.413733e+002
1.181040e+003, 2.423066e+002
1.181522e+003, 2.427378e+002
1.182004e+003, 2.422576e+002
1.182486e+003, 2.415381e+002
1.182969e+003, 2.411469e+002
1.183451e+003, 2.410211e+002
1.183933e+003, 2.411469e+002
1.184415e+003, 2.415808e+002
1.184897e+003, 2.418001e+002
1.185379e+003, 2.417789e+002
1.185861e+003, 2.416741e+002
1.186343e+003, 2.413725e+002
1.186825e+003, 2.412848e+002
1.187308e+003, 2.422469e+002
1.187790e+003, 2.436248e+002
1.188272e+003, 2.443715e+002
1.188754e+003, 2.440977e+002
1.189236e+003, 2.439507e+002
1.189718e+003, 2.439459e+002
1.190200e+003, 2.440047e+002
1.190682e+003, 2.441090e+002
1.191165e+003, 2.442266e+002
1.191647e+003, 2.443121e+002
1.192129e+003, 2.443819e+002
1.192611e+003, 2.444739e+002
1.193093e+003, 2.446575e+002
1.193575e+003, 2.447153e+002
1.194057e+003, 2.446234e+002
1.194539e+003, 2.444950e+002
1.195021e+003, 2.443291e+002
1.195504e+003, 2.442396e+002
1.195986e+003, 2.443725e+002
1.196468e+003, 2.447127e+002
1.196950e+003, 2.452392e+002
1.197432e+003, 2.462373e+002
1.197914e+003, 2.467089e+002
1.198396e+003, 2.464798e+002
1.198878e+003, 2.461246e+002
1.199360e+003, 2.462627e+002
1.199843e+003, 2.465700e+002
1.200325e+003, 2.464167e+002
1.200807e+003, 2.459809e+002
1.201289e+003, 2.461152e+002
1.201771e+003, 2.474354e+002
1.202253e+003, 2.482095e+002
1.202735e+003, 2.481362e+002
1.203217e+003, 2.478585e+002
1.203700e+003, 2.481591e+002
1.204182e+003, 2.486629e+002
1.204664e+003, 2.487305e+002
1.205146e+003, 2.484206e+002
1.205628e+003, 2.484272e+002
1.206110e+003, 2.489937e+002
1.206592e+003, 2.494896e+002
1.207074e+003, 2.497236e+002
1.207557e+003, 2.501235e+002
1.208039e+003, 2.515919e+002
1.208521e+003, 2.533599e+002
1.209003e+003, 2.542921e+002
1.209485e+003, 2.543259e+002
1.209967e+003, 2.541810e+002
1.210449e+003, 2.538301e+002
1.210931e+003, 2.537075e+002
1.211413e+003, 2.540313e+002
1.211896e+003, 2.542722e+002
1.212378e+003, 2.534390e+002
1.212860e+003, 2.522157e+002
1.213342e+003, 2.517053e+002
1.213824e+003, 2.520288e+002
1.214306e+003, 2.520432e+002
1.214788e+003, 2.514402e+002
1.215270e+003, 2.510825e+002
1.215752e+003, 2.512692e+002
1.216235e+003, 2.516210e+002
1.216717e+003, 2.516352e+002
1.217199e+003, 2.514443e+002
1.217681e+003, 2.511445e+002
1.218163e+003, 2.507243e+002
1.218645e+003, 2.508191e+002
1.219127e+003, 2.517595e+002
1.219609e+003, 2.522402e+002
1.220092e+003, 2.516515e+002
1.220574e+003, 2.508654e+002
1.221056e+003, 2.513001e+002
1.221538e+003, 2.523174e+002
1.222020e+003, 2.530304e+002
1.222502e+003, 2.532522e+002
1.222984e+003, 2.533264e+002
1.223466e+003, 2.531564e+002
1.223948e+003, 2.532433e+002
1.224431e+003, 2.538930e+002
1.224913e+003, 2.546270e+002
1.225395e+003, 2.545998e+002
1.225877e+003, 2.542833e+002
1.226359e+003, 2.543877e+002
1.226841e+003, 2.551702e+002
1.227323e+003, 2.555973e+002
1.227805e+003, 2.555805e+002
1.228287e+003, 2.555429e+002
1.228770e+003, 2.556643e+002
1.229252e+003, 2.558462e+002
1.229734e+003, 2.560781e+002
1.230216e+003, 2.562229e+002
1.230698e+003, 2.560008e+002
1.231180e+003, 2.552153e+002
1.231662e+003, 2.550101e+002
1.232144e+003, 2.554853e+002
1.232627e+003, 2.559671e+002
1.233109e+003, 2.561531e+002
1.233591e+003, 2.561974e+002
1.234073e+003, 2.562519e+002
1.234555e+003, 2.563036e+002
1.235037e+003, 2.563643e+002
1.235519e+003, 2.564815e+002
1.236001e+003, 2.562221e+002
1.236484e+003, 2.555046e+002
1.236966e+003, 2.552098e+002
1.237448e+003, 2.560010e+002
1.237930e+003, 2.570692e+002
1.238412e+003, 2.577677e+002
1.238894e+003, 2.581564e+002
1.239376e+003, 2.582209e+002
1.239858e+003, 2.578899e+002
1.240340e+003, 2.579545e+002
1.240823e+003, 2.584288e+002
1.241305e+003, 2.588302e+002
1.241787e+003, 2.587596e+002
1.242269e+003, 2.587005e+002
1.242751e+003, 2.591026e+002
1.243233e+003, 2.597296e+002
1.243715e+003, 2.602938e+002
1.244197e+003, 2.607859e+002
1.244679e+003, 2.612395e+002
1.245162e+003, 2.616548e+002
1.245644e+003, 2.618408e+002
1.246126e+003, 2.614581e+002
1.246608e+003, 2.611404e+002
1.247090e+003, 2.615523e+002
1.247572e+003, 2.621058e+002
1.248054e+003, 2.620669e+002
1.248536e+003, 2.614065e+002
1.249019e+003, 2.611217e+002
1.249501e+003, 2.612122e+002
1.249983e+003, 2.616497e+002
1.250465e+003, 2.628849e+002
1.250947e+003, 2.638780e+002
1.251429e+003, 2.637749e+002
1.251911e+003, 2.634158e+002
1.252393e+003, 2.636716e+002
1.252875e+003, 2.644787e+002
1.253358e+003, 2.645291e+002
1.253840e+003, 2.639515e+002
1.254322e+003, 2.636418e+002
1.254804e+003, 2.644978e+002
1.255286e+003, 2.651298e+002
1.255768e+003, 2.650378e+002
1.256250e+003, 2.645511e+002
1.256732e+003, 2.635963e+002
1.257214e+003, 2.624114e+002
1.257697e+003, 2.627912e+002
1.258179e+003, 2.643975e+002
1.258661e+003, 2.656295e+002
1.259143e+003, 2.656055e+002
1.259625e+003, 2.653470e+002
1.260107e+003, 2.649388e+002
1.260589e+003, 2.645790e+002
1.261071e+003, 2.643369e+002
1.261554e+003, 2.642983e+002
1.262036e+003, 2.648199e+002
1.262518e+003, 2.657928e+002
1.263000e+003, 2.668583e+002
1.263482e+003, 2.683466e+002
1.263964e+003, 2.691270e+002
1.264446e+003, 2.689662e+002
1.264928e+003, 2.684501e+002
1.265411e+003, 2.678582e+002
1.265893e+003, 2.673614e+002
1.266375e+003, 2.673693e+002
1.266857e+003, 2.677454e+002
1.267339e+003, 2.681155e+002
1.267821e+003, 2.683471e+002
1.268303e+003, 2.686711e+002
1.268785e+003, 2.691300e+002
1.269267e+003, 2.695715e+002
1.269750e+003, 2.699223e+002
1.270232e+003, 2.701495e+002
1.270714e+003, 2.700364e+002
1.271196e+003, 2.697991e+002
1.271678e+003, 2.700043e+002
1.272160e+003, 2.710082e+002
1.272642e+003, 2.713082e+002
1.273124e+003, 2.707719e+002
1.273606e+003, 2.703199e+002
1.274089e+003, 2.706481e+002
1.274571e+003, 2.713147e+002
1.275053e+003, 2.722569e+002
1.275535e+003, 2.731105e+002
1.276017e+003, 2.732330e+002
1.276499e+003, 2.724688e+002
1.276981e+003, 2.719521e+002
1.277463e+003, 2.717074e+002
1.277946e+003, 2.717103e+002
1.278428e+003, 2.720990e+002
1.278910e+003, 2.725709e+002
1.279392e+003, 2.730312e+002
1.279874e+003, 2.734108e+002
1.280356e+003, 2.735846e+002
1.280838e+003, 2.735618e+002
1.281320e+003, 2.738112e+002
1.281802e+003, 2.743031e+002
1.282285e+003, 2.747193e+002
1.282767e+003, 2.748317e+002
1.283249e+003, 2.749087e+002
1.283731e+003, 2.750214e+002
1.284213e+003, 2.751602e+002
1.284695e+003, 2.752737e+002
1.285177e+003, 2.754015e+002
1.285659e+003, 2.759082e+002
1.286141e+003, 2.766460e+002
1.286624e+003, 2.770020e+002
1.287106e+003, 2.761566e+002
1.287588e+003, 2.757592e+002
1.288070e+003, 2.761072e+002
1.288552e+003, 2.767211e+002
1.289034e+003, 2.774495e+002
1.289516e+003, 2.780459e+002
1.289998e+003, 2.776013e+002
1.290481e+003, 2.765881e+002
1.290963e+003, 2.762262e+002
1.291445e+003, 2.775291e+002
1.291927e+003, 2.782926e+002
1.292409e+003, 2.783964e+002
1.292891e+003, 2.784035e+002
1.293373e+003, 2.788024e+002
1.293855e+003, 2.792668e+002
1.294338e+003, 2.793414e+002
1.294820e+003, 2.791874e+002
1.295302e+003, 2.790929e+002
1.295784e+003, 2.790448e+002
1.296266e+003, 2.792220e+002
1.296748e+003, 2.796373e+002
1.297230e+003, 2.800415e+002
1.297712e+003, 2.803515e+002
1.298194e+003, 2.805055e+002
1.298677e+003, 2.801852e+002
1.299159e+003, 2.798514e+002
1.299641e+003, 2.800890e+002
1.300123e+003, 2.809142e+002
1.300605e+003, 2.814858e+002
1.301087e+003, 2.817999e+002
1.301569e+003, 2.818203e+002
1.302051e+003, 2.812539e+002
1.302533e+003, 2.807525e+002
1.303016e+003, 2.805258e+002
##END=



