##NAMES=Metatorbernite
##RRUFFID=R040171
##IDEAL CHEMISTRY=Cu^2+^(U^6+^O_2_)_2_(PO_4_)_2_&#183;8H_2_O
##LOCALITY=La Luz de Cobre, Sonora, Mexico
##OWNER=RRUFF
##SOURCE=University of Arizona Mineral Museum
##DESCRIPTION=Green thin tabular crystals
##STATUS=The identification of this mineral has been confirmed by X-ray diffraction and chemical analysis
##URL=rruff.info/R040171
##MEASURED CHEMISTRY=(Cu_0.80_[box]_0.20_)_Σ=1_(U_1.00_O_2_)_2_(P_1.00_O_4_)_2_·8((H_2_O)_0.95_(H_3_O)^+^_0.05_)
140.5016, 1491.587
140.9837, 1507.430
141.4658, 1532.270
141.9480, 1557.009
142.4301, 1574.576
142.9122, 1580.261
143.3943, 1588.873
143.8764, 1603.683
144.3585, 1624.375
144.8407, 1641.332
145.3228, 1652.321
145.8049, 1661.155
146.2870, 1671.391
146.7691, 1685.501
147.2512, 1697.622
147.7334, 1706.564
148.2155, 1712.120
148.6976, 1715.684
149.1797, 1711.991
149.6618, 1707.843
150.1439, 1712.183
150.6261, 1729.409
151.1082, 1751.131
151.5903, 1776.108
152.0724, 1806.940
152.5545, 1834.856
153.0366, 1859.108
153.5188, 1879.886
154.0009, 1897.488
154.4830, 1910.318
154.9651, 1921.373
155.4472, 1931.997
155.9293, 1941.701
156.4115, 1951.921
156.8936, 1964.625
157.3757, 1978.525
157.8578, 1989.392
158.3399, 1993.357
158.8221, 1995.403
159.3042, 1998.810
159.7863, 2003.756
160.2684, 2010.761
160.7505, 2019.483
161.2326, 2030.161
161.7148, 2044.099
162.1969, 2066.217
162.6790, 2090.279
163.1611, 2109.997
163.6432, 2118.676
164.1253, 2126.390
164.6075, 2138.184
165.0896, 2154.228
165.5717, 2172.286
166.0538, 2190.904
166.5359, 2210.817
167.0180, 2233.070
167.5002, 2257.167
167.9823, 2284.509
168.4644, 2317.723
168.9465, 2357.921
169.4286, 2397.594
169.9107, 2429.177
170.3929, 2455.942
170.8750, 2485.620
171.3571, 2521.551
171.8392, 2562.292
172.3213, 2605.997
172.8034, 2651.516
173.2856, 2701.550
173.7677, 2758.842
174.2498, 2823.026
174.7319, 2891.662
175.2140, 2963.194
175.6961, 3038.284
176.1783, 3118.275
176.6604, 3203.616
177.1425, 3291.847
177.6246, 3374.931
178.1067, 3454.487
178.5888, 3546.862
179.0710, 3673.168
179.5531, 3819.550
180.0352, 3952.311
180.5173, 4056.021
180.9994, 4148.615
181.4815, 4254.255
181.9637, 4373.760
182.4458, 4503.253
182.9279, 4644.820
183.4100, 4795.837
183.8921, 4948.328
184.3742, 5097.296
184.8564, 5247.831
185.3385, 5407.887
185.8206, 5579.153
186.3027, 5756.125
186.7848, 5942.414
187.2669, 6134.934
187.7491, 6316.248
188.2312, 6474.971
188.7133, 6616.871
189.1954, 6775.320
189.6775, 6956.074
190.1596, 7122.833
190.6418, 7228.163
191.1239, 7272.515
191.6060, 7299.609
192.0881, 7334.351
192.5702, 7371.740
193.0524, 7372.090
193.5345, 7339.041
194.0166, 7260.204
194.4987, 7114.179
194.9808, 6899.556
195.4629, 6637.675
195.9451, 6325.518
196.4272, 5960.427
196.9093, 5611.697
197.3914, 5278.325
197.8735, 4966.234
198.3556, 4685.774
198.8378, 4438.084
199.3199, 4219.906
199.8020, 4032.125
200.2841, 3876.646
200.7662, 3748.607
201.2483, 3651.088
201.7305, 3577.878
202.2126, 3513.280
202.6947, 3455.664
203.1768, 3412.751
203.6589, 3392.738
204.1410, 3398.979
204.6232, 3405.867
205.1053, 3411.786
205.5874, 3416.654
206.0695, 3419.104
206.5516, 3417.305
207.0337, 3417.904
207.5159, 3425.852
207.9980, 3441.988
208.4801, 3460.225
208.9622, 3478.103
209.4443, 3497.542
209.9264, 3529.805
210.4086, 3579.707
210.8907, 3632.973
211.3728, 3678.133
211.8549, 3713.885
212.3370, 3746.916
212.8191, 3776.879
213.3013, 3804.414
213.7834, 3837.439
214.2655, 3877.047
214.7476, 3920.583
215.2297, 3966.980
215.7118, 4020.506
216.1940, 4065.764
216.6761, 4096.843
217.1582, 4114.823
217.6403, 4143.263
218.1224, 4191.093
218.6045, 4237.036
219.0867, 4260.825
219.5688, 4259.108
220.0509, 4241.813
220.5330, 4206.796
221.0151, 4153.061
221.4972, 4108.624
221.9794, 4077.355
222.4615, 4050.627
222.9436, 4020.263
223.4257, 3989.780
223.9078, 3947.480
224.3899, 3889.463
224.8721, 3813.806
225.3542, 3737.442
225.8363, 3658.627
226.3184, 3580.133
226.8005, 3503.684
227.2827, 3429.618
227.7648, 3357.719
228.2469, 3285.987
228.7290, 3212.957
229.2111, 3154.049
229.6932, 3115.625
230.1754, 3086.857
230.6575, 3052.680
231.1396, 3008.356
231.6217, 2967.521
232.1038, 2935.149
232.5859, 2913.587
233.0681, 2886.725
233.5502, 2847.385
234.0323, 2807.985
234.5144, 2788.529
234.9965, 2804.582
235.4786, 2814.300
235.9608, 2801.672
236.4429, 2758.947
236.9250, 2731.045
237.4071, 2722.722
237.8892, 2726.531
238.3713, 2730.939
238.8535, 2734.927
239.3356, 2741.374
239.8177, 2753.312
240.2998, 2775.336
240.7819, 2783.709
241.2640, 2768.673
241.7462, 2745.793
242.2283, 2743.172
242.7104, 2772.889
243.1925, 2803.011
243.6746, 2822.661
244.1567, 2828.382
244.6389, 2835.386
245.1210, 2843.328
245.6031, 2852.720
246.0852, 2865.449
246.5673, 2886.339
247.0494, 2902.313
247.5316, 2907.933
248.0137, 2899.980
248.4958, 2892.311
248.9779, 2884.529
249.4600, 2877.299
249.9421, 2873.284
250.4243, 2877.889
250.9064, 2875.916
251.3885, 2858.954
251.8706, 2818.425
252.3527, 2792.306
252.8348, 2786.840
253.3170, 2791.905
253.7991, 2788.311
254.2812, 2773.012
254.7633, 2755.003
255.2454, 2737.863
255.7275, 2723.096
256.2097, 2703.396
256.6918, 2675.361
257.1739, 2644.953
257.6560, 2622.881
258.1381, 2610.513
258.6202, 2603.691
259.1024, 2601.735
259.5845, 2606.110
260.0666, 2609.038
260.5487, 2609.100
261.0308, 2608.797
261.5129, 2614.303
261.9951, 2629.890
262.4772, 2640.887
262.9593, 2639.089
263.4414, 2619.891
263.9235, 2609.605
264.4056, 2608.546
264.8878, 2616.063
265.3699, 2633.384
265.8520, 2665.393
266.3341, 2693.617
266.8162, 2708.802
267.2983, 2707.490
267.7805, 2715.267
268.2626, 2735.079
268.7447, 2760.671
269.2268, 2781.231
269.7089, 2795.579
270.1910, 2809.014
270.6732, 2822.832
271.1553, 2836.617
271.6374, 2854.580
272.1195, 2877.169
272.6016, 2903.334
273.0837, 2930.721
273.5659, 2959.399
274.0480, 2989.605
274.5301, 3024.654
275.0122, 3064.936
275.4943, 3090.940
275.9764, 3098.015
276.4586, 3099.564
276.9407, 3116.462
277.4228, 3149.920
277.9049, 3186.084
278.3870, 3220.286
278.8691, 3252.540
279.3513, 3283.314
279.8334, 3312.806
280.3155, 3340.307
280.7976, 3366.541
281.2798, 3391.555
281.7619, 3408.889
282.2440, 3411.301
282.7261, 3401.828
283.2082, 3406.825
283.6903, 3429.859
284.1725, 3454.230
284.6546, 3456.760
285.1367, 3438.242
285.6188, 3419.896
286.1009, 3408.802
286.5830, 3403.910
287.0652, 3403.065
287.5473, 3407.470
288.0294, 3408.825
288.5115, 3395.364
288.9936, 3368.707
289.4757, 3343.136
289.9579, 3325.388
290.4400, 3311.570
290.9221, 3289.120
291.4042, 3257.479
291.8863, 3224.185
292.3684, 3197.624
292.8506, 3176.251
293.3327, 3152.817
293.8148, 3123.037
294.2969, 3090.790
294.7790, 3062.644
295.2611, 3038.501
295.7433, 3017.575
296.2254, 2997.098
296.7075, 2978.723
297.1896, 2968.333
297.6717, 2972.062
298.1538, 2980.434
298.6360, 2978.644
299.1181, 2967.319
299.6002, 2954.087
300.0823, 2945.290
300.5644, 2938.578
301.0465, 2929.074
301.5287, 2913.594
302.0108, 2897.216
302.4929, 2886.781
302.9750, 2881.267
303.4571, 2875.413
303.9392, 2866.852
304.4214, 2855.409
304.9035, 2839.925
305.3856, 2817.933
305.8677, 2795.931
306.3498, 2779.658
306.8319, 2768.428
307.3141, 2759.519
307.7962, 2751.043
308.2783, 2744.405
308.7604, 2741.870
309.2425, 2746.614
309.7246, 2749.643
310.2068, 2744.632
310.6889, 2733.322
311.1710, 2720.247
311.6531, 2704.509
312.1352, 2689.704
312.6173, 2680.267
313.0995, 2680.493
313.5816, 2675.850
314.0637, 2654.135
314.5458, 2623.082
315.0279, 2597.091
315.5100, 2583.324
315.9922, 2574.835
316.4743, 2568.122
316.9564, 2562.612
317.4385, 2559.576
317.9206, 2561.805
318.4027, 2566.222
318.8849, 2568.526
319.3670, 2570.709
319.8491, 2567.820
320.3312, 2554.865
320.8133, 2528.614
321.2954, 2509.892
321.7776, 2505.660
322.2597, 2509.628
322.7418, 2515.090
323.2239, 2530.690
323.7060, 2538.112
324.1881, 2528.622
324.6703, 2500.054
325.1524, 2479.833
325.6345, 2475.289
326.1166, 2477.141
326.5987, 2477.878
327.0808, 2474.591
327.5630, 2473.545
328.0451, 2475.664
328.5272, 2480.868
329.0093, 2488.098
329.4914, 2504.804
329.9735, 2516.667
330.4557, 2512.934
330.9378, 2479.013
331.4199, 2455.012
331.9020, 2446.260
332.3841, 2450.093
332.8662, 2453.262
333.3484, 2453.320
333.8305, 2456.384
334.3126, 2468.865
334.7947, 2499.112
335.2768, 2510.945
335.7589, 2494.851
336.2411, 2463.610
336.7232, 2449.926
337.2053, 2458.312
337.6874, 2471.411
338.1695, 2483.049
338.6516, 2493.697
339.1338, 2497.169
339.6159, 2491.733
340.0980, 2481.614
340.5801, 2472.069
341.0622, 2462.419
341.5443, 2458.970
342.0265, 2466.802
342.5086, 2484.420
342.9907, 2500.378
343.4728, 2515.792
343.9549, 2524.604
344.4370, 2512.134
344.9192, 2481.381
345.4013, 2461.078
345.8834, 2467.466
346.3655, 2490.058
346.8476, 2500.323
347.3297, 2497.894
347.8119, 2493.151
348.2940, 2494.788
348.7761, 2501.790
349.2582, 2511.487
349.7403, 2525.827
350.2225, 2539.961
350.7046, 2546.007
351.1867, 2544.795
351.6688, 2542.322
352.1509, 2544.283
352.6331, 2547.400
353.1152, 2546.167
353.5973, 2537.366
354.0794, 2527.710
354.5615, 2522.354
355.0436, 2520.897
355.5258, 2522.108
356.0079, 2524.694
356.4900, 2529.999
356.9721, 2541.121
357.4542, 2561.600
357.9363, 2577.504
358.4185, 2575.702
358.9006, 2564.598
359.3827, 2558.729
359.8648, 2566.887
360.3469, 2579.263
360.8290, 2592.025
361.3112, 2605.291
361.7933, 2615.668
362.2754, 2623.098
362.7575, 2626.821
363.2396, 2626.003
363.7217, 2607.565
364.2039, 2597.453
364.6860, 2609.309
365.1681, 2643.562
365.6502, 2663.720
366.1323, 2650.624
366.6144, 2631.410
367.0966, 2624.773
367.5787, 2641.139
368.0608, 2658.292
368.5429, 2678.979
369.0250, 2700.733
369.5071, 2709.570
369.9893, 2692.729
370.4714, 2677.783
370.9535, 2679.939
371.4356, 2712.559
371.9177, 2730.868
372.3998, 2727.866
372.8820, 2713.543
373.3641, 2710.996
373.8462, 2724.819
374.3283, 2738.386
374.8104, 2743.099
375.2925, 2737.479
375.7747, 2742.800
376.2568, 2762.936
376.7389, 2786.423
377.2210, 2796.187
377.7031, 2791.214
378.1852, 2787.106
378.6674, 2788.807
379.1495, 2795.177
379.6316, 2799.837
380.1137, 2802.019
380.5958, 2809.103
381.0779, 2831.611
381.5601, 2866.531
382.0422, 2896.216
382.5243, 2913.867
383.0064, 2928.948
383.4885, 2958.378
383.9706, 3000.994
384.4528, 3046.095
384.9349, 3084.680
385.4170, 3121.761
385.8991, 3166.557
386.3812, 3221.453
386.8633, 3282.307
387.3455, 3342.180
387.8276, 3404.707
388.3097, 3479.469
388.7918, 3580.448
389.2739, 3689.016
389.7560, 3784.725
390.2382, 3863.596
390.7203, 3959.051
391.2024, 4099.167
391.6845, 4261.788
392.1666, 4423.327
392.6487, 4567.156
393.1309, 4715.810
393.6130, 4878.051
394.0951, 5053.658
394.5772, 5231.030
395.0593, 5393.183
395.5414, 5565.294
396.0236, 5761.708
396.5057, 6017.604
396.9878, 6259.485
397.4699, 6483.541
397.9520, 6688.141
398.4341, 6866.695
398.9163, 7017.634
399.3984, 7143.833
399.8805, 7244.016
400.3626, 7311.261
400.8447, 7373.298
401.3268, 7433.530
401.8090, 7485.946
402.2911, 7518.538
402.7732, 7517.736
403.2553, 7533.013
403.7374, 7586.675
404.2195, 7674.980
404.7017, 7733.182
405.1838, 7763.913
405.6659, 7757.040
406.1480, 7709.121
406.6301, 7620.510
407.1122, 7467.662
407.5944, 7234.223
408.0765, 6945.525
408.5586, 6664.259
409.0407, 6388.984
409.5228, 6102.792
410.0049, 5775.044
410.4871, 5430.278
410.9692, 5133.248
411.4513, 4891.860
411.9334, 4690.391
412.4155, 4513.255
412.8976, 4358.100
413.3798, 4224.333
413.8619, 4114.515
414.3440, 4021.139
414.8261, 3935.333
415.3082, 3856.577
415.7903, 3787.802
416.2725, 3734.064
416.7546, 3689.508
417.2367, 3646.186
417.7188, 3595.857
418.2009, 3553.908
418.6830, 3530.631
419.1652, 3522.571
419.6473, 3517.992
420.1294, 3516.837
420.6115, 3515.161
421.0937, 3509.170
421.5758, 3491.080
422.0579, 3484.810
422.5400, 3503.049
423.0221, 3532.927
423.5042, 3553.555
423.9864, 3548.981
424.4685, 3552.063
424.9506, 3572.262
425.4327, 3610.798
425.9148, 3647.198
426.3969, 3678.843
426.8791, 3711.307
427.3612, 3749.717
427.8433, 3796.328
428.3254, 3841.361
428.8075, 3882.794
429.2896, 3921.865
429.7718, 3961.625
430.2539, 4002.041
430.7360, 4043.581
431.2181, 4085.868
431.7002, 4128.982
432.1823, 4174.668
432.6645, 4223.598
433.1466, 4273.351
433.6287, 4319.741
434.1108, 4363.280
434.5929, 4406.957
435.0750, 4454.790
435.5572, 4501.881
436.0393, 4540.939
436.5214, 4571.906
437.0035, 4593.623
437.4856, 4602.338
437.9677, 4601.889
438.4499, 4597.139
438.9320, 4588.162
439.4141, 4577.145
439.8962, 4570.271
440.3783, 4563.054
440.8604, 4543.707
441.3426, 4499.079
441.8247, 4447.113
442.3068, 4398.330
442.7889, 4355.317
443.2710, 4308.530
443.7531, 4248.600
444.2353, 4186.389
444.7174, 4132.865
445.1995, 4099.736
445.6816, 4065.092
446.1637, 4024.242
446.6458, 3978.193
447.1280, 3933.689
447.6101, 3891.456
448.0922, 3849.796
448.5743, 3806.365
449.0564, 3753.734
449.5385, 3719.029
450.0207, 3707.129
450.5028, 3709.614
450.9849, 3712.610
451.4670, 3716.741
451.9491, 3717.965
452.4312, 3713.034
452.9134, 3703.194
453.3955, 3698.783
453.8776, 3700.401
454.3597, 3703.193
454.8418, 3702.070
455.3239, 3697.960
455.8061, 3695.106
456.2882, 3695.541
456.7703, 3695.913
457.2524, 3688.400
457.7345, 3675.572
458.2166, 3667.829
458.6988, 3677.459
459.1809, 3692.440
459.6630, 3697.834
460.1451, 3690.550
460.6272, 3685.839
461.1093, 3700.481
461.5915, 3721.144
462.0736, 3730.932
462.5557, 3710.734
463.0378, 3691.997
463.5199, 3688.654
464.0020, 3698.676
464.4842, 3705.524
464.9663, 3705.437
465.4484, 3701.513
465.9305, 3695.399
466.4126, 3687.728
466.8947, 3676.717
467.3769, 3661.124
467.8590, 3642.806
468.3411, 3624.041
468.8232, 3603.131
469.3053, 3585.369
469.7874, 3572.180
470.2696, 3563.442
470.7517, 3557.665
471.2338, 3555.917
471.7159, 3553.895
472.1980, 3549.089
472.6801, 3541.382
473.1623, 3526.101
473.6444, 3499.074
474.1265, 3470.892
474.6086, 3465.149
475.0907, 3477.920
475.5728, 3483.827
476.0550, 3458.997
476.5371, 3422.315
477.0192, 3408.262
477.5013, 3418.189
477.9834, 3427.556
478.4655, 3412.011
478.9477, 3386.177
479.4298, 3369.727
479.9119, 3375.236
480.3940, 3382.688
480.8761, 3383.127
481.3582, 3377.502
481.8404, 3368.440
482.3225, 3348.825
482.8046, 3332.546
483.2867, 3326.709
483.7688, 3334.845
484.2509, 3343.250
484.7331, 3355.890
485.2152, 3365.587
485.6973, 3364.641
486.1794, 3341.415
486.6615, 3327.927
487.1436, 3332.430
487.6258, 3350.208
488.1079, 3358.168
488.5900, 3353.265
489.0721, 3346.796
489.5542, 3344.195
490.0363, 3345.440
490.5185, 3351.221
491.0006, 3362.980
491.4827, 3374.362
491.9648, 3374.788
492.4470, 3366.386
492.9291, 3360.646
493.4112, 3361.390
493.8933, 3367.092
494.3754, 3378.668
494.8575, 3394.832
495.3397, 3406.789
495.8218, 3401.941
496.3039, 3393.313
496.7860, 3397.233
497.2681, 3420.051
497.7502, 3439.898
498.2324, 3442.287
498.7145, 3435.609
499.1966, 3431.315
499.6787, 3429.650
500.1608, 3434.035
500.6429, 3450.191
501.1251, 3476.850
501.6072, 3494.332
502.0893, 3497.111
502.5714, 3494.368
503.0535, 3489.443
503.5356, 3478.952
504.0178, 3474.546
504.4999, 3477.651
504.9820, 3485.625
505.4641, 3496.851
505.9462, 3513.508
506.4283, 3521.073
506.9105, 3510.359
507.3926, 3488.438
507.8747, 3486.363
508.3568, 3505.157
508.8389, 3525.169
509.3210, 3529.164
509.8032, 3523.284
510.2853, 3526.822
510.7674, 3544.775
511.2495, 3561.032
511.7316, 3554.111
512.2137, 3533.500
512.6959, 3518.625
513.1780, 3517.870
513.6601, 3525.167
514.1422, 3541.562
514.6243, 3564.953
515.1064, 3581.755
515.5886, 3581.677
516.0707, 3576.865
516.5528, 3574.566
517.0349, 3576.694
517.5170, 3579.228
517.9991, 3581.979
518.4813, 3584.853
518.9634, 3587.501
519.4455, 3588.183
519.9276, 3591.708
520.4097, 3599.726
520.8918, 3611.483
521.3740, 3624.776
521.8561, 3642.064
522.3382, 3652.748
522.8203, 3643.727
523.3024, 3617.003
523.7845, 3608.460
524.2667, 3623.083
524.7488, 3644.397
525.2309, 3648.736
525.7130, 3642.196
526.1951, 3646.603
526.6772, 3679.184
527.1594, 3717.265
527.6415, 3732.468
528.1236, 3728.792
528.6057, 3724.053
529.0878, 3728.555
529.5699, 3735.755
530.0521, 3739.866
530.5342, 3738.693
531.0163, 3741.231
531.4984, 3750.480
531.9805, 3764.868
532.4626, 3782.731
532.9448, 3815.696
533.4269, 3837.706
533.9090, 3842.330
534.3911, 3833.505
534.8732, 3825.947
535.3553, 3819.089
535.8375, 3814.519
536.3196, 3814.809
536.8017, 3820.562
537.2838, 3815.510
537.7659, 3795.576
538.2480, 3778.165
538.7302, 3787.521
539.2123, 3819.197
539.6944, 3841.364
540.1765, 3845.164
540.6586, 3840.116
541.1407, 3837.904
541.6229, 3838.005
542.1050, 3838.493
542.5871, 3839.202
543.0692, 3839.264
543.5513, 3835.781
544.0334, 3828.749
544.5156, 3827.136
544.9977, 3835.208
545.4798, 3850.404
545.9619, 3871.768
546.4440, 3915.317
546.9261, 3940.896
547.4083, 3927.444
547.8904, 3895.587
548.3725, 3883.391
548.8546, 3904.873
549.3367, 3922.697
549.8188, 3926.280
550.3010, 3917.156
550.7831, 3914.188
551.2652, 3919.396
551.7473, 3924.015
552.2294, 3918.653
552.7115, 3905.029
553.1937, 3903.040
553.6758, 3916.636
554.1579, 3931.991
554.6400, 3927.478
555.1221, 3910.335
555.6042, 3901.474
556.0864, 3911.882
556.5685, 3930.100
557.0506, 3951.718
557.5327, 3973.568
558.0148, 3983.327
558.4969, 3962.448
558.9791, 3937.034
559.4612, 3924.791
559.9433, 3931.109
560.4254, 3932.163
560.9075, 3910.400
561.3896, 3889.171
561.8718, 3889.734
562.3539, 3934.582
562.8360, 3962.347
563.3181, 3962.374
563.8002, 3945.357
564.2823, 3937.492
564.7645, 3941.223
565.2466, 3943.300
565.7287, 3937.103
566.2108, 3924.873
566.6929, 3918.143
567.1750, 3917.148
567.6572, 3917.608
568.1393, 3914.145
568.6214, 3909.890
569.1035, 3912.425
569.5856, 3924.549
570.0677, 3936.924
570.5499, 3938.152
571.0320, 3935.366
571.5141, 3939.848
571.9962, 3968.547
572.4783, 3992.539
572.9604, 3993.163
573.4426, 3976.233
573.9247, 3972.378
574.4068, 4006.979
574.8889, 4036.682
575.3710, 4042.492
575.8531, 4018.167
576.3353, 4002.851
576.8174, 3999.496
577.2995, 4000.993
577.7816, 3999.830
578.2637, 3995.287
578.7458, 3996.722
579.2280, 4006.979
579.7101, 4021.051
580.1922, 4030.433
580.6743, 4035.656
581.1564, 4039.726
581.6385, 4043.017
582.1207, 4046.495
582.6028, 4052.121
583.0849, 4059.486
583.5670, 4065.756
584.0491, 4066.774
584.5313, 4067.602
585.0134, 4072.982
585.4955, 4085.746
585.9776, 4096.020
586.4597, 4099.053
586.9418, 4099.199
587.4240, 4101.049
587.9061, 4100.431
588.3882, 4108.579
588.8703, 4130.600
589.3524, 4161.097
589.8345, 4186.102
590.3167, 4207.302
590.7988, 4215.925
591.2809, 4200.589
591.7630, 4168.398
592.2451, 4158.899
592.7272, 4172.768
593.2094, 4192.832
593.6915, 4206.308
594.1736, 4215.515
594.6557, 4226.173
595.1378, 4240.511
595.6199, 4249.785
596.1021, 4238.389
596.5842, 4220.106
597.0663, 4214.573
597.5485, 4249.699
598.0306, 4276.119
598.5127, 4267.341
598.9948, 4233.891
599.4769, 4222.290
599.9590, 4253.012
600.4412, 4284.155
600.9233, 4301.535
601.4054, 4304.218
601.8875, 4309.779
602.3696, 4319.502
602.8517, 4328.854
603.3339, 4331.673
603.8160, 4328.868
604.2981, 4333.558
604.7802, 4348.553
605.2623, 4366.341
605.7444, 4378.198
606.2266, 4385.067
606.7087, 4388.768
607.1908, 4386.246
607.6729, 4384.875
608.1550, 4393.899
608.6371, 4409.529
609.1193, 4419.766
609.6014, 4413.290
610.0835, 4405.785
610.5656, 4402.976
611.0477, 4404.696
611.5298, 4416.653
612.0120, 4449.490
612.4941, 4481.868
612.9762, 4498.121
613.4583, 4492.466
613.9404, 4492.801
614.4225, 4503.691
614.9047, 4514.590
615.3868, 4504.154
615.8689, 4474.805
616.3510, 4460.871
616.8331, 4477.824
617.3152, 4508.077
617.7974, 4528.584
618.2795, 4539.754
618.7616, 4544.441
619.2437, 4538.517
619.7258, 4530.904
620.2079, 4530.694
620.6901, 4538.165
621.1722, 4538.885
621.6543, 4525.952
622.1364, 4505.899
622.6185, 4481.117
623.1006, 4441.032
623.5828, 4420.763
624.0649, 4429.284
624.5470, 4449.392
625.0291, 4460.741
625.5112, 4461.750
625.9933, 4462.462
626.4755, 4464.746
626.9576, 4467.592
627.4397, 4469.701
627.9218, 4470.845
628.4039, 4469.294
628.8860, 4466.269
629.3682, 4458.921
629.8503, 4439.026
630.3324, 4408.687
630.8145, 4384.065
631.2966, 4378.101
631.7787, 4379.043
632.2609, 4379.281
632.7430, 4377.898
633.2251, 4375.489
633.7072, 4368.382
634.1893, 4362.686
634.6714, 4365.034
635.1536, 4386.411
635.6357, 4389.417
636.1178, 4362.900
636.5999, 4325.714
637.0820, 4316.335
637.5641, 4336.182
638.0463, 4350.220
638.5284, 4345.962
639.0105, 4330.017
639.4926, 4310.532
639.9747, 4289.149
640.4568, 4275.756
640.9390, 4287.805
641.4211, 4302.938
641.9032, 4296.745
642.3853, 4267.603
642.8674, 4242.856
643.3495, 4233.917
643.8317, 4232.915
644.3138, 4234.815
644.7959, 4242.151
645.2780, 4246.847
645.7601, 4250.839
646.2422, 4250.527
646.7244, 4238.601
647.2065, 4211.031
647.6886, 4194.111
648.1707, 4195.129
648.6528, 4205.475
649.1349, 4208.682
649.6171, 4205.469
650.0992, 4201.123
650.5813, 4198.041
651.0634, 4195.212
651.5455, 4191.732
652.0276, 4187.498
652.5098, 4182.116
652.9919, 4171.367
653.4740, 4162.503
653.9561, 4162.031
654.4382, 4172.896
654.9203, 4177.683
655.4025, 4169.150
655.8846, 4158.073
656.3667, 4151.720
656.8488, 4151.947
657.3309, 4151.019
657.8130, 4147.862
658.2952, 4144.928
658.7773, 4147.906
659.2594, 4155.904
659.7415, 4157.182
660.2236, 4146.044
660.7057, 4131.168
661.1879, 4127.381
661.6700, 4130.396
662.1521, 4128.282
662.6342, 4102.511
663.1163, 4080.778
663.5984, 4084.947
664.0806, 4111.920
664.5627, 4133.514
665.0448, 4143.125
665.5269, 4145.101
666.0090, 4139.997
666.4911, 4126.564
666.9733, 4114.742
667.4554, 4102.298
667.9375, 4095.889
668.4196, 4106.532
668.9017, 4133.261
669.3839, 4143.333
669.8660, 4131.985
670.3481, 4112.612
670.8302, 4098.700
671.3123, 4088.673
671.7944, 4079.372
672.2766, 4071.327
672.7587, 4061.467
673.2408, 4041.407
673.7229, 4018.794
674.2050, 4008.168
674.6871, 4028.073
675.1693, 4044.772
675.6514, 4046.461
676.1335, 4036.611
676.6156, 4034.013
677.0977, 4042.843
677.5798, 4049.312
678.0620, 4045.465
678.5441, 4032.876
679.0262, 4028.981
679.5083, 4034.359
679.9904, 4038.372
680.4725, 4029.265
680.9547, 4013.981
681.4368, 4005.294
681.9189, 4005.320
682.4010, 4006.358
682.8831, 4004.299
683.3652, 4000.136
683.8474, 3994.709
684.3295, 3986.088
684.8116, 3979.577
685.2937, 3977.197
685.7758, 3976.766
686.2579, 3974.594
686.7401, 3967.074
687.2222, 3969.258
687.7043, 3989.193
688.1864, 4015.273
688.6685, 4017.072
689.1506, 3995.894
689.6328, 3972.483
690.1149, 3949.329
690.5970, 3933.587
691.0791, 3943.943
691.5612, 3974.672
692.0433, 3996.363
692.5255, 3982.084
693.0076, 3963.062
693.4897, 3961.848
693.9718, 3982.287
694.4539, 3993.158
694.9360, 3984.931
695.4182, 3970.985
695.9003, 3955.698
696.3824, 3935.503
696.8645, 3933.102
697.3466, 3954.120
697.8287, 3978.163
698.3109, 3982.580
698.7930, 3970.266
699.2751, 3954.814
699.7572, 3936.851
700.2393, 3923.084
700.7214, 3923.307
701.2036, 3932.025
701.6857, 3940.183
702.1678, 3948.137
702.6499, 3950.803
703.1320, 3940.559
703.6141, 3923.733
704.0963, 3916.634
704.5784, 3927.561
705.0605, 3936.187
705.5426, 3935.763
706.0247, 3929.933
706.5068, 3938.991
706.9890, 3965.871
707.4711, 3983.440
707.9532, 3968.873
708.4353, 3936.570
708.9174, 3926.839
709.3995, 3937.459
709.8817, 3947.258
710.3638, 3938.788
710.8459, 3924.896
711.3280, 3917.120
711.8101, 3917.288
712.2922, 3917.511
712.7744, 3914.345
713.2565, 3911.411
713.7386, 3911.510
714.2207, 3917.448
714.7028, 3919.165
715.1849, 3916.318
715.6671, 3909.851
716.1492, 3899.470
716.6313, 3885.645
717.1134, 3872.101
717.5955, 3858.551
718.0776, 3848.846
718.5598, 3847.821
719.0419, 3854.226
719.5240, 3865.938
720.0061, 3890.608
720.4882, 3910.260
720.9703, 3914.359
721.4525, 3907.697
721.9346, 3901.235
722.4167, 3898.283
722.8988, 3893.020
723.3809, 3883.415
723.8630, 3870.781
724.3452, 3858.329
724.8273, 3844.811
725.3094, 3840.862
725.7915, 3858.494
726.2736, 3886.851
726.7557, 3896.081
727.2379, 3888.176
727.7200, 3878.820
728.2021, 3879.035
728.6842, 3881.503
729.1663, 3879.862
729.6484, 3873.460
730.1306, 3867.642
730.6127, 3861.124
731.0948, 3858.110
731.5769, 3861.726
732.0590, 3874.803
732.5411, 3882.517
733.0233, 3883.746
733.5054, 3882.121
733.9875, 3882.173
734.4696, 3882.972
734.9517, 3876.411
735.4338, 3860.550
735.9160, 3843.484
736.3981, 3826.335
736.8802, 3815.521
737.3623, 3823.142
737.8444, 3867.252
738.3266, 3901.284
738.8087, 3903.558
739.2908, 3886.663
739.7729, 3867.938
740.2551, 3840.717
740.7372, 3826.276
741.2193, 3831.813
741.7014, 3847.406
742.1835, 3852.396
742.6656, 3846.659
743.1478, 3837.178
743.6299, 3822.165
744.1120, 3809.610
744.5941, 3818.155
745.0762, 3840.717
745.5583, 3855.563
746.0405, 3840.812
746.5226, 3825.619
747.0047, 3830.953
747.4868, 3852.220
747.9689, 3860.601
748.4510, 3839.920
748.9332, 3822.414
749.4153, 3818.688
749.8974, 3827.634
750.3795, 3838.476
750.8616, 3852.526
751.3438, 3858.303
751.8259, 3838.854
752.3080, 3807.765
752.7901, 3800.479
753.2722, 3816.658
753.7543, 3832.857
754.2365, 3828.643
754.7186, 3821.291
755.2007, 3827.064
755.6828, 3851.432
756.1649, 3866.904
756.6470, 3861.630
757.1292, 3852.758
757.6113, 3850.538
758.0934, 3856.790
758.5755, 3861.917
759.0576, 3866.246
759.5397, 3868.474
760.0219, 3864.504
760.5040, 3857.200
760.9861, 3856.829
761.4682, 3866.108
761.9503, 3876.108
762.4324, 3878.655
762.9146, 3878.452
763.3967, 3881.164
763.8788, 3890.409
764.3609, 3898.968
764.8430, 3907.470
765.3251, 3913.603
765.8073, 3912.493
766.2894, 3899.385
766.7715, 3899.816
767.2536, 3922.209
767.7357, 3950.312
768.2178, 3953.708
768.7000, 3938.056
769.1821, 3926.773
769.6642, 3927.489
770.1463, 3935.067
770.6284, 3951.080
771.1105, 3969.982
771.5927, 3981.048
772.0748, 3973.680
772.5569, 3966.328
773.0390, 3958.269
773.5211, 3954.097
774.0032, 3969.385
774.4854, 4011.381
774.9675, 4045.802
775.4496, 4062.570
775.9317, 4065.068
776.4138, 4053.675
776.8959, 4032.518
777.3781, 4023.432
777.8602, 4052.788
778.3423, 4087.083
778.8244, 4092.554
779.3065, 4076.892
779.7886, 4073.803
780.2708, 4105.875
780.7529, 4139.418
781.2350, 4163.828
781.7171, 4179.954
782.1992, 4195.602
782.6813, 4210.611
783.1635, 4225.210
783.6456, 4239.188
784.1277, 4252.813
784.6098, 4267.801
785.0919, 4283.929
785.5740, 4299.521
786.0562, 4310.177
786.5383, 4322.464
787.0204, 4343.478
787.5025, 4373.680
787.9846, 4401.415
788.4667, 4416.833
788.9489, 4436.147
789.4310, 4468.090
789.9131, 4513.378
790.3952, 4552.556
790.8773, 4584.452
791.3594, 4614.252
791.8416, 4642.727
792.3237, 4672.145
792.8058, 4709.552
793.2879, 4755.488
793.7700, 4803.136
794.2521, 4852.512
794.7343, 4898.582
795.2164, 4932.202
795.6985, 4946.064
796.1806, 4980.381
796.6627, 5052.665
797.1448, 5131.248
797.6270, 5193.907
798.1091, 5237.401
798.5912, 5291.921
799.0733, 5359.440
799.5554, 5431.332
800.0375, 5499.075
800.5197, 5564.543
801.0018, 5629.768
801.4839, 5693.649
801.9660, 5766.413
802.4481, 5862.414
802.9302, 5964.963
803.4124, 6057.867
803.8945, 6123.005
804.3766, 6216.623
804.8587, 6349.336
805.3408, 6496.435
805.8229, 6634.218
806.3051, 6762.817
806.7872, 6898.729
807.2693, 7041.430
807.7514, 7206.826
808.2335, 7415.479
808.7156, 7658.102
809.1978, 7915.698
809.6799, 8173.644
810.1620, 8482.748
810.6441, 8850.689
811.1262, 9290.618
811.6083, 9808.953
812.0905, 10402.89
812.5726, 11072.92
813.0547, 11790.55
813.5368, 12625.38
814.0189, 13680.15
814.5010, 14931.80
814.9832, 16255.23
815.4653, 17627.39
815.9474, 19046.10
816.4295, 20560.80
816.9116, 22112.30
817.3937, 23630.17
817.8759, 25055.85
818.3580, 26501.71
818.8401, 28006.30
819.3222, 29514.10
819.8043, 30982.48
820.2864, 32401.21
820.7686, 33831.75
821.2507, 35266.11
821.7328, 36717.52
822.2149, 38228.46
822.6970, 39743.92
823.1791, 41183.95
823.6613, 42570.80
824.1434, 43694.32
824.6255, 44588.39
825.1076, 45050.78
825.5897, 44843.37
826.0718, 43837.85
826.5540, 42210.12
827.0361, 39804.75
827.5182, 36940.80
828.0003, 33840.25
828.4824, 30532.17
828.9645, 27350.00
829.4467, 24335.90
829.9288, 21569.46
830.4109, 19130.81
830.8930, 17011.48
831.3751, 15174.85
831.8572, 13649.28
832.3394, 12364.36
832.8215, 11344.25
833.3036, 10524.76
833.7857, 9810.164
834.2678, 9212.559
834.7499, 8715.625
835.2321, 8335.696
835.7142, 8025.144
836.1963, 7728.759
836.6784, 7450.173
837.1605, 7218.821
837.6426, 7050.579
838.1248, 6891.904
838.6069, 6702.589
839.0890, 6499.727
839.5711, 6304.169
840.0532, 6119.962
840.5353, 5943.622
841.0175, 5772.550
841.4996, 5610.514
841.9817, 5465.875
842.4638, 5338.756
842.9459, 5207.238
843.4280, 5066.786
843.9102, 4934.755
844.3923, 4830.447
844.8744, 4746.924
845.3565, 4675.721
845.8386, 4616.429
846.3207, 4562.225
846.8029, 4515.908
847.2850, 4469.944
847.7671, 4416.669
848.2492, 4349.211
848.7313, 4292.420
849.2134, 4246.721
849.6956, 4211.700
850.1777, 4193.152
850.6598, 4185.085
851.1419, 4163.098
851.6240, 4122.429
852.1061, 4086.604
852.5883, 4081.853
853.0704, 4084.822
853.5525, 4070.847
854.0346, 4024.570
854.5167, 4000.351
854.9988, 4015.146
855.4810, 4033.975
855.9631, 4029.248
856.4452, 4000.414
856.9273, 3985.128
857.4094, 3985.316
857.8915, 3985.435
858.3737, 3970.973
858.8558, 3948.927
859.3379, 3925.326
859.8200, 3900.430
860.3021, 3884.562
860.7842, 3884.541
861.2664, 3893.140
861.7485, 3908.911
862.2306, 3934.057
862.7127, 3943.527
863.1948, 3934.924
863.6769, 3921.529
864.1591, 3910.964
864.6412, 3903.009
865.1233, 3896.223
865.6054, 3890.698
866.0875, 3888.852
866.5696, 3889.169
867.0518, 3896.072
867.5339, 3919.805
868.0160, 3962.069
868.4981, 3974.874
868.9802, 3944.788
869.4623, 3913.395
869.9445, 3899.555
870.4266, 3900.530
870.9087, 3904.996
871.3908, 3912.901
871.8729, 3922.901
872.3550, 3938.704
872.8372, 3952.708
873.3193, 3957.483
873.8014, 3954.238
874.2835, 3950.342
874.7656, 3938.709
875.2477, 3938.069
875.7299, 3958.596
876.2120, 3992.549
876.6941, 4009.015
877.1762, 4008.000
877.6583, 4004.635
878.1404, 4001.671
878.6226, 4003.782
879.1047, 4019.558
879.5869, 4045.397
880.0690, 4072.378
880.5511, 4109.568
881.0332, 4132.710
881.5153, 4121.896
881.9974, 4096.614
882.4796, 4098.423
882.9617, 4132.750
883.4438, 4162.881
883.9259, 4178.010
884.4080, 4188.950
884.8901, 4214.087
885.3723, 4248.280
885.8544, 4279.790
886.3365, 4304.693
886.8186, 4325.459
887.3007, 4334.844
887.7828, 4344.023
888.2650, 4369.420
888.7471, 4418.728
889.2292, 4464.137
889.7113, 4505.189
890.1934, 4537.861
890.6755, 4549.651
891.1577, 4548.941
891.6398, 4564.226
892.1219, 4603.084
892.6040, 4645.601
893.0861, 4688.396
893.5682, 4721.713
894.0504, 4732.573
894.5325, 4700.049
895.0146, 4695.790
895.4967, 4728.554
895.9788, 4773.286
896.4609, 4812.134
896.9431, 4845.067
897.4252, 4870.521
897.9073, 4888.320
898.3894, 4899.845
898.8715, 4902.884
899.3536, 4902.836
899.8358, 4907.853
900.3179, 4920.145
900.8000, 4913.616
901.2821, 4869.502
901.7642, 4831.536
902.2463, 4825.675
902.7285, 4844.984
903.2106, 4828.590
903.6927, 4778.123
904.1748, 4735.278
904.6569, 4735.043
905.1390, 4747.402
905.6212, 4745.898
906.1033, 4730.961
906.5854, 4707.364
907.0675, 4665.390
907.5496, 4627.909
908.0317, 4599.554
908.5139, 4579.733
908.9960, 4572.441
909.4781, 4577.789
909.9602, 4563.721
910.4423, 4505.652
910.9244, 4444.868
911.4066, 4441.349
911.8887, 4469.696
912.3708, 4483.093
912.8529, 4452.975
913.3350, 4422.342
913.8171, 4396.032
914.2993, 4375.271
914.7814, 4364.185
915.2635, 4363.848
915.7456, 4357.642
916.2277, 4341.747
916.7098, 4325.948
917.1920, 4325.183
917.6741, 4330.591
918.1562, 4328.308
918.6383, 4312.953
919.1204, 4299.302
919.6025, 4294.437
920.0847, 4290.619
920.5668, 4281.999
921.0489, 4267.199
921.5310, 4257.127
922.0131, 4251.916
922.4952, 4250.429
922.9774, 4257.202
923.4595, 4264.486
923.9416, 4256.955
924.4237, 4235.165
924.9058, 4219.647
925.3879, 4217.791
925.8701, 4225.449
926.3522, 4245.792
926.8343, 4275.428
927.3164, 4283.457
927.7985, 4267.418
928.2806, 4253.134
928.7628, 4255.429
929.2449, 4263.594
929.7270, 4255.150
930.2091, 4238.489
930.6912, 4236.125
931.1733, 4275.855
931.6555, 4309.551
932.1376, 4318.572
932.6197, 4314.399
933.1018, 4315.287
933.5839, 4322.030
934.0660, 4327.864
934.5482, 4331.456
935.0303, 4334.269
935.5124, 4339.250
935.9945, 4344.561
936.4766, 4346.221
936.9587, 4340.790
937.4409, 4338.818
937.9230, 4342.173
938.4051, 4351.730
938.8872, 4369.257
939.3693, 4396.812
939.8514, 4423.184
940.3336, 4449.094
940.8157, 4466.471
941.2978, 4454.000
941.7799, 4436.143
942.2620, 4457.169
942.7441, 4516.540
943.2263, 4561.783
943.7084, 4556.494
944.1905, 4548.737
944.6726, 4559.458
945.1547, 4584.717
945.6368, 4597.044
946.1190, 4595.362
946.6011, 4600.734
947.0832, 4623.257
947.5653, 4657.184
948.0474, 4703.409
948.5295, 4754.728
949.0117, 4794.388
949.4938, 4810.676
949.9759, 4821.327
950.4580, 4823.250
950.9401, 4826.572
951.4222, 4846.416
951.9044, 4882.938
952.3865, 4931.291
952.8686, 4993.726
953.3507, 5053.259
953.8328, 5087.500
954.3149, 5110.102
954.7971, 5138.849
955.2792, 5178.692
955.7613, 5215.980
956.2434, 5242.656
956.7255, 5273.386
957.2076, 5317.966
957.6898, 5376.250
958.1719, 5435.231
958.6540, 5495.387
959.1361, 5556.974
959.6182, 5624.417
960.1003, 5690.828
960.5825, 5742.204
961.0646, 5784.144
961.5467, 5851.226
962.0288, 5966.094
962.5109, 6080.676
962.9930, 6179.831
963.4752, 6272.609
963.9573, 6374.992
964.4394, 6487.654
964.9215, 6620.538
965.4036, 6779.260
965.8857, 6955.589
966.3679, 7149.286
966.8500, 7353.584
967.3321, 7561.692
967.8142, 7755.754
968.2963, 7980.375
968.7784, 8231.843
969.2606, 8518.246
969.7427, 8839.873
970.2248, 9200.421
970.7069, 9618.098
971.1890, 10092.13
971.6711, 10600.86
972.1533, 11109.46
972.6354, 11659.46
973.1175, 12258.43
973.5996, 12910.88
974.0817, 13689.11
974.5638, 14601.83
975.0460, 15605.62
975.5281, 16692.15
976.0102, 17863.58
976.4923, 19113.83
976.9744, 20458.38
977.4565, 21942.69
977.9387, 23646.99
978.4208, 25423.76
978.9029, 27211.38
979.3850, 29043.30
979.8671, 30987.92
980.3492, 33042.66
980.8314, 35184.99
981.3135, 37430.36
981.7956, 39712.97
982.2777, 41991.59
982.7598, 44280.66
983.2419, 46623.48
983.7241, 49041.75
984.2062, 51378.91
984.6883, 53603.87
985.1704, 55717.59
985.6525, 57761.52
986.1346, 59718.42
986.6168, 61441.91
987.0989, 62928.42
987.5810, 64067.83
988.0631, 64774.34
988.5452, 65124.77
989.0273, 65137.95
989.5095, 64851.89
989.9916, 64350.75
990.4737, 63565.96
990.9558, 62692.02
991.4379, 61757.23
991.9200, 60746.97
992.4022, 59622.96
992.8843, 58409.31
993.3664, 57161.70
993.8485, 55901.89
994.3306, 54612.93
994.8127, 53414.51
995.2949, 52090.03
995.7770, 50432.96
996.2591, 48418.27
996.7412, 46282.04
997.2233, 44031.89
997.7054, 41701.89
998.1876, 39271.70
998.6697, 36803.65
999.1518, 34332.87
999.6339, 31892.06
1000.116, 29580.19
1000.598, 27388.81
1001.080, 25371.60
1001.562, 23528.18
1002.044, 21859.11
1002.527, 20346.91
1003.009, 19005.45
1003.491, 17792.31
1003.973, 16729.80
1004.455, 15764.47
1004.937, 14877.05
1005.419, 14052.58
1005.901, 13280.67
1006.384, 12553.54
1006.866, 11921.87
1007.348, 11446.27
1007.830, 10979.11
1008.312, 10412.38
1008.794, 9780.990
1009.276, 9283.900
1009.758, 8913.524
1010.240, 8587.532
1010.723, 8262.500
1011.205, 7962.143
1011.687, 7699.336
1012.169, 7474.582
1012.651, 7287.351
1013.133, 7150.651
1013.615, 7002.313
1014.097, 6825.854
1014.580, 6653.425
1015.062, 6540.562
1015.544, 6463.099
1016.026, 6374.804
1016.508, 6266.432
1016.990, 6154.722
1017.472, 6034.421
1017.954, 5924.444
1018.436, 5836.216
1018.919, 5769.597
1019.401, 5707.662
1019.883, 5650.418
1020.365, 5595.311
1020.847, 5541.415
1021.329, 5488.493
1021.811, 5433.736
1022.293, 5380.131
1022.776, 5334.126
1023.258, 5305.354
1023.740, 5270.054
1024.222, 5224.731
1024.704, 5173.928
1025.186, 5121.839
1025.668, 5069.651
1026.150, 5023.809
1026.632, 4985.241
1027.115, 4948.817
1027.597, 4905.683
1028.079, 4868.742
1028.561, 4849.270
1029.043, 4846.134
1029.525, 4837.491
1030.007, 4823.142
1030.489, 4806.181
1030.972, 4787.858
1031.454, 4767.937
1031.936, 4743.516
1032.418, 4717.220
1032.900, 4695.037
1033.382, 4688.333
1033.864, 4671.099
1034.346, 4635.825
1034.828, 4596.297
1035.311, 4563.900
1035.793, 4540.013
1036.275, 4543.698
1036.757, 4576.659
1037.239, 4598.765
1037.721, 4567.103
1038.203, 4526.898
1038.685, 4511.019
1039.167, 4518.162
1039.650, 4520.412
1040.132, 4516.560
1040.614, 4514.146
1041.096, 4519.613
1041.578, 4521.201
1042.060, 4492.257
1042.542, 4447.495
1043.024, 4414.308
1043.507, 4405.795
1043.989, 4400.293
1044.471, 4394.537
1044.953, 4389.392
1045.435, 4386.258
1045.917, 4384.805
1046.399, 4379.933
1046.881, 4371.687
1047.364, 4362.665
1047.846, 4354.782
1048.328, 4346.577
1048.810, 4335.955
1049.292, 4324.030
1049.774, 4315.523
1050.256, 4311.420
1050.738, 4307.786
1051.220, 4304.603
1051.703, 4299.525
1052.185, 4289.184
1052.667, 4274.751
1053.149, 4257.404
1053.631, 4236.301
1054.113, 4217.528
1054.595, 4204.433
1055.077, 4191.981
1055.559, 4176.667
1056.042, 4159.686
1056.524, 4150.854
1057.006, 4148.821
1057.488, 4142.555
1057.970, 4115.885
1058.452, 4093.598
1058.934, 4099.381
1059.416, 4117.621
1059.899, 4118.315
1060.381, 4096.424
1060.863, 4071.249
1061.345, 4042.228
1061.827, 4018.830
1062.309, 4016.344
1062.791, 4022.653
1063.273, 4020.089
1063.755, 4007.149
1064.238, 3991.550
1064.720, 3970.512
1065.202, 3953.472
1065.684, 3944.515
1066.166, 3940.667
1066.648, 3934.119
1067.130, 3925.375
1067.612, 3915.536
1068.094, 3902.543
1068.577, 3894.403
1069.059, 3903.370
1069.541, 3914.356
1070.023, 3911.988
1070.505, 3893.176
1070.987, 3876.994
1071.469, 3862.942
1071.951, 3854.252
1072.434, 3856.400
1072.916, 3862.623
1073.398, 3865.863
1073.880, 3866.358
1074.362, 3865.428
1074.844, 3861.970
1075.326, 3859.562
1075.808, 3859.141
1076.291, 3858.989
1076.773, 3859.337
1077.255, 3857.749
1077.737, 3843.740
1078.219, 3815.103
1078.701, 3792.961
1079.183, 3792.114
1079.665, 3797.302
1080.147, 3802.646
1080.630, 3807.084
1081.112, 3801.666
1081.594, 3786.892
1082.076, 3778.851
1082.558, 3787.372
1083.040, 3797.628
1083.522, 3792.871
1084.004, 3783.349
1084.486, 3784.422
1084.969, 3807.262
1085.451, 3810.323
1085.933, 3787.748
1086.415, 3767.375
1086.897, 3778.552
1087.379, 3802.119
1087.861, 3801.000
1088.343, 3780.681
1088.826, 3767.356
1089.308, 3780.512
1089.790, 3787.626
1090.272, 3779.502
1090.754, 3766.925
1091.236, 3766.741
1091.718, 3777.061
1092.200, 3792.893
1092.682, 3814.559
1093.165, 3824.781
1093.647, 3794.761
1094.129, 3766.403
1094.611, 3771.142
1095.093, 3802.742
1095.575, 3815.464
1096.057, 3808.595
1096.539, 3800.509
1097.022, 3798.477
1097.504, 3797.269
1097.986, 3792.790
1098.468, 3785.235
1098.950, 3773.563
1099.432, 3750.068
1099.914, 3744.941
1100.396, 3762.798
1100.879, 3784.241
1101.361, 3798.794
1101.843, 3805.671
1102.325, 3799.253
1102.807, 3783.254
1103.289, 3771.612
1103.771, 3775.216
1104.253, 3775.486
1104.735, 3767.003
1105.218, 3756.664
1105.700, 3758.260
1106.182, 3767.299
1106.664, 3758.501
1107.146, 3728.680
1107.628, 3703.240
1108.110, 3695.133
1108.592, 3698.482
1109.074, 3715.124
1109.557, 3740.029
1110.039, 3755.818
1110.521, 3762.657
1111.003, 3752.955
1111.485, 3719.684
1111.967, 3684.441
1112.449, 3661.904
1112.931, 3652.501
1113.414, 3661.334
1113.896, 3695.540
1114.378, 3707.231
1114.860, 3690.941
1115.342, 3676.256
1115.824, 3685.700
1116.306, 3701.852
1116.788, 3691.689
1117.271, 3667.094
1117.753, 3654.468
1118.235, 3679.537
1118.717, 3689.908
1119.199, 3677.006
1119.681, 3659.120
1120.163, 3655.765
1120.645, 3661.769
1121.127, 3660.159
1121.609, 3651.394
1122.092, 3647.462
1122.574, 3664.150
1123.056, 3674.421
1123.538, 3666.899
1124.020, 3650.141
1124.502, 3641.062
1124.984, 3638.733
1125.466, 3634.811
1125.949, 3627.539
1126.431, 3621.623
1126.913, 3622.762
1127.395, 3624.453
1127.877, 3621.355
1128.359, 3614.173
1128.841, 3610.367
1129.323, 3610.454
1129.806, 3602.419
1130.288, 3576.319
1130.770, 3552.435
1131.252, 3556.473
1131.734, 3572.801
1132.216, 3580.576
1132.698, 3574.232
1133.180, 3571.122
1133.662, 3571.659
1134.145, 3573.822
1134.627, 3579.864
1135.109, 3584.391
1135.591, 3573.271
1136.073, 3553.935
1136.555, 3545.492
1137.037, 3569.853
1137.519, 3578.733
1138.001, 3562.967
1138.484, 3544.721
1138.966, 3553.490
1139.448, 3575.988
1139.930, 3573.668
1140.412, 3548.455
1140.894, 3536.698
1141.376, 3573.699
1141.858, 3599.891
1142.341, 3598.956
1142.823, 3580.294
1143.305, 3554.006
1143.787, 3524.165
1144.269, 3511.794
1144.751, 3522.177
1145.233, 3529.844
1145.715, 3513.234
1146.198, 3497.040
1146.680, 3495.104
1147.162, 3504.649
1147.644, 3514.179
1148.126, 3523.524
1148.608, 3529.908
1149.090, 3532.249
1149.572, 3532.280
1150.054, 3526.562
1150.536, 3522.647
1151.019, 3531.108
1151.501, 3554.119
1151.983, 3555.362
1152.465, 3533.994
1152.947, 3512.427
1153.429, 3502.551
1153.911, 3498.116
1154.393, 3494.232
1154.876, 3491.490
1155.358, 3490.445
1155.840, 3487.569
1156.322, 3500.369
1156.804, 3533.588
1157.286, 3558.182
1157.768, 3541.600
1158.250, 3509.356
1158.733, 3492.587
1159.215, 3488.478
1159.697, 3481.718
1160.179, 3463.168
1160.661, 3457.609
1161.143, 3470.644
1161.625, 3489.520
1162.107, 3502.577
1162.589, 3510.149
1163.072, 3512.549
1163.554, 3509.883
1164.036, 3501.951
1164.518, 3480.291
1165.000, 3469.001
1165.482, 3478.728
1165.964, 3493.773
1166.446, 3478.352
1166.928, 3447.802
1167.411, 3440.078
1167.893, 3466.422
1168.375, 3483.759
1168.857, 3469.333
1169.339, 3454.317
1169.821, 3451.370
1170.303, 3455.395
1170.785, 3448.024
1171.268, 3434.548
1171.750, 3433.941
1172.232, 3459.472
1172.714, 3479.379
1173.196, 3473.035
1173.678, 3464.894
1174.160, 3472.993
1174.642, 3492.575
1175.125, 3485.380
1175.607, 3457.153
1176.089, 3439.915
1176.571, 3456.500
1177.053, 3476.974
1177.535, 3495.853
1178.017, 3506.462
1178.499, 3499.085
1178.981, 3473.963
1179.464, 3455.875
1179.946, 3445.264
1180.428, 3444.172
1180.910, 3467.008
1181.392, 3485.310
1181.874, 3480.173
1182.356, 3462.614
1182.838, 3447.655
1183.320, 3435.039
1183.803, 3431.390
1184.285, 3437.471
1184.767, 3443.402
1185.249, 3441.591
1185.731, 3437.257
1186.213, 3428.680
1186.695, 3421.388
1187.177, 3434.818
1187.660, 3471.468
1188.142, 3486.510
1188.624, 3469.830
1189.106, 3453.201
1189.588, 3472.655
1190.070, 3497.143
1190.552, 3498.853
1191.034, 3480.357
1191.516, 3468.080
1191.999, 3462.212
1192.481, 3462.104
1192.963, 3470.002
1193.445, 3474.180
1193.927, 3453.348
1194.409, 3429.366
1194.891, 3428.997
1195.373, 3454.389
1195.855, 3461.304
1196.338, 3447.575
1196.820, 3434.668
1197.302, 3431.918
1197.784, 3431.533
1198.266, 3421.377
1198.748, 3410.473
1199.230, 3411.399
1199.712, 3427.040
1200.195, 3443.923
1200.677, 3463.229
1201.159, 3475.164
1201.641, 3470.323
1202.123, 3460.556
1202.605, 3459.229
1203.087, 3462.372
1203.569, 3463.231
1204.052, 3459.666
1204.534, 3459.044
1205.016, 3462.370
1205.498, 3462.591
1205.980, 3446.709
1206.462, 3431.655
1206.944, 3447.485
1207.426, 3477.584
1207.908, 3479.815
1208.391, 3432.000
1208.873, 3414.560
1209.355, 3435.394
1209.837, 3461.228
1210.319, 3458.772
1210.801, 3449.629
1211.283, 3464.547
1211.765, 3494.466
1212.247, 3502.774
1212.730, 3477.188
1213.212, 3463.074
1213.694, 3466.514
1214.176, 3475.136
1214.658, 3477.865
1215.140, 3478.497
1215.622, 3484.201
1216.104, 3492.759
1216.587, 3488.234
1217.069, 3462.511
1217.551, 3451.361
1218.033, 3463.244
1218.515, 3479.361
1218.997, 3477.818
1219.479, 3469.604
1219.961, 3465.496
1220.443, 3466.811
1220.926, 3476.036
1221.408, 3498.904
1221.890, 3503.662
1222.372, 3478.162
1222.854, 3448.980
1223.336, 3447.912
1223.818, 3461.011
1224.300, 3475.702
1224.782, 3490.326
1225.265, 3492.344
1225.747, 3477.903
1226.229, 3471.294
1226.711, 3484.096
1227.193, 3496.272
1227.675, 3472.780
1228.157, 3441.093
1228.639, 3439.157
1229.122, 3474.940
1229.604, 3486.002
1230.086, 3468.559
1230.568, 3452.041
1231.050, 3448.147
1231.532, 3449.241
1232.014, 3442.185
1232.496, 3437.442
1232.979, 3452.404
1233.461, 3491.825
1233.943, 3512.300
1234.425, 3512.501
1234.907, 3505.177
1235.389, 3494.041
1235.871, 3481.521
1236.353, 3468.286
1236.835, 3455.711
1237.318, 3444.903
1237.800, 3434.674
1238.282, 3434.731
1238.764, 3445.414
1239.246, 3459.543
1239.728, 3476.457
1240.210, 3490.690
1240.692, 3495.895
1241.175, 3496.157
1241.657, 3497.437
1242.139, 3500.736
1242.621, 3498.088
1243.103, 3489.390
1243.585, 3484.374
1244.067, 3493.361
1244.549, 3503.250
1245.031, 3506.611
1245.514, 3504.436
1245.996, 3497.246
1246.478, 3483.882
1246.960, 3479.889
1247.442, 3485.187
1247.924, 3493.560
1248.406, 3505.404
1248.888, 3514.247
1249.370, 3514.951
1249.853, 3511.322
1250.335, 3507.140
1250.817, 3502.583
1251.299, 3504.601
1251.781, 3512.729
1252.263, 3515.993
1252.745, 3501.206
1253.227, 3487.654
1253.710, 3486.128
1254.192, 3488.688
1254.674, 3484.099
1255.156, 3474.061
1255.638, 3469.814
1256.120, 3472.174
1256.602, 3481.664
1257.084, 3511.898
1257.567, 3531.816
1258.049, 3529.764
1258.531, 3516.142
1259.013, 3498.706
1259.495, 3482.027
1259.977, 3487.506
1260.459, 3514.457
1260.941, 3537.405
1261.423, 3543.125
1261.906, 3544.983
1262.388, 3545.921
1262.870, 3544.812
1263.352, 3539.386
1263.834, 3530.885
1264.316, 3519.630
1264.798, 3506.639
1265.280, 3502.103
1265.762, 3518.387
1266.245, 3527.337
1266.727, 3521.277
1267.209, 3512.489
1267.691, 3522.733
1268.173, 3539.343
1268.655, 3540.047
1269.137, 3523.778
1269.619, 3507.549
1270.102, 3489.351
1270.584, 3482.997
1271.066, 3493.193
1271.548, 3510.027
1272.030, 3525.459
1272.512, 3537.177
1272.994, 3541.771
1273.476, 3538.890
1273.958, 3531.592
1274.441, 3517.528
1274.923, 3513.088
1275.405, 3523.912
1275.887, 3535.988
1276.369, 3536.479
1276.851, 3529.812
1277.333, 3514.279
1277.815, 3494.095
1278.297, 3494.549
1278.780, 3516.787
1279.262, 3536.071
1279.744, 3547.338
1280.226, 3550.322
1280.708, 3536.421
1281.190, 3521.808
1281.672, 3516.844
1282.154, 3520.930
1282.637, 3537.768
1283.119, 3564.895
1283.601, 3576.283
1284.083, 3564.480
1284.565, 3552.474
1285.047, 3555.875
1285.529, 3560.648
1286.011, 3558.482
1286.494, 3553.581
1286.976, 3563.301
1287.458, 3580.482
1287.940, 3574.652
1288.422, 3534.575
1288.904, 3514.789
1289.386, 3560.925
1289.868, 3595.985
1290.350, 3591.292
1290.833, 3566.510
1291.315, 3560.291
1291.797, 3563.554
1292.279, 3554.757
1292.761, 3526.628
1293.243, 3519.813
1293.725, 3546.152
1294.207, 3572.375
1294.689, 3589.475
1295.172, 3597.341
1295.654, 3585.764
1296.136, 3570.432
1296.618, 3578.645
##END=



