##NAMES=Metatorbernite
##RRUFFID=R130109
##IDEAL CHEMISTRY=Cu^2+^(U^6+^O_2_)_2_(PO_4_)_2_&#183;8H_2_O
##LOCALITY=Shinkolobwe mine, Katanga, Zaire
##OWNER=RRUFF
##SOURCE=Don Doell
##DESCRIPTION=Green tetragonal platy crystals associated with phosphuranylite R130108
##STATUS=The identification of this mineral has been confirmed only by single crystal X-ray diffraction.
##URL=rruff.info/R130109
8.936163e+001, 0.000000e+000
8.984375e+001, 3.253154e+002
9.032587e+001, 3.277562e+002
9.080798e+001, 3.282942e+002
9.129010e+001, 3.264015e+002
9.177222e+001, 3.232103e+002
9.225433e+001, 3.198768e+002
9.273645e+001, 3.163972e+002
9.321857e+001, 3.128675e+002
9.370068e+001, 3.095221e+002
9.418280e+001, 3.062438e+002
9.466492e+001, 3.026711e+002
9.514703e+001, 2.983920e+002
9.562915e+001, 2.938013e+002
9.611127e+001, 2.899326e+002
9.659338e+001, 2.868747e+002
9.707550e+001, 2.842209e+002
9.755762e+001, 2.814576e+002
9.803973e+001, 2.785686e+002
9.852185e+001, 2.758575e+002
9.900397e+001, 2.734001e+002
9.948608e+001, 2.711870e+002
9.996820e+001, 2.694177e+002
1.004503e+002, 2.683825e+002
1.009324e+002, 2.674294e+002
1.014146e+002, 2.650504e+002
1.018967e+002, 2.608203e+002
1.023788e+002, 2.563199e+002
1.028609e+002, 2.522035e+002
1.033430e+002, 2.484109e+002
1.038251e+002, 2.453675e+002
1.043073e+002, 2.433985e+002
1.047894e+002, 2.422616e+002
1.052715e+002, 2.407027e+002
1.057536e+002, 2.385642e+002
1.062357e+002, 2.361637e+002
1.067178e+002, 2.336474e+002
1.072000e+002, 2.307068e+002
1.076821e+002, 2.281384e+002
1.081642e+002, 2.262370e+002
1.086463e+002, 2.250769e+002
1.091284e+002, 2.235514e+002
1.096105e+002, 2.216891e+002
1.100927e+002, 2.194423e+002
1.105748e+002, 2.167884e+002
1.110569e+002, 2.124744e+002
1.115390e+002, 2.089309e+002
1.120211e+002, 2.070870e+002
1.125032e+002, 2.076502e+002
1.129854e+002, 2.073843e+002
1.134675e+002, 2.053978e+002
1.139496e+002, 2.024211e+002
1.144317e+002, 1.994778e+002
1.149138e+002, 1.962682e+002
1.153959e+002, 1.935630e+002
1.158781e+002, 1.918524e+002
1.163602e+002, 1.917125e+002
1.168423e+002, 1.914641e+002
1.173244e+002, 1.905049e+002
1.178065e+002, 1.889866e+002
1.182886e+002, 1.872962e+002
1.187708e+002, 1.855651e+002
1.192529e+002, 1.837392e+002
1.197350e+002, 1.817648e+002
1.202171e+002, 1.793723e+002
1.206992e+002, 1.771254e+002
1.211813e+002, 1.755535e+002
1.216635e+002, 1.745389e+002
1.221456e+002, 1.734723e+002
1.226277e+002, 1.720192e+002
1.231098e+002, 1.702774e+002
1.235919e+002, 1.683684e+002
1.240740e+002, 1.660533e+002
1.245562e+002, 1.637523e+002
1.250383e+002, 1.619799e+002
1.255204e+002, 1.607247e+002
1.260025e+002, 1.596590e+002
1.264846e+002, 1.586055e+002
1.269667e+002, 1.575350e+002
1.274489e+002, 1.563745e+002
1.279310e+002, 1.551254e+002
1.284131e+002, 1.537597e+002
1.288952e+002, 1.521273e+002
1.293773e+002, 1.501542e+002
1.298594e+002, 1.482289e+002
1.303416e+002, 1.469482e+002
1.308237e+002, 1.462298e+002
1.313058e+002, 1.453875e+002
1.317879e+002, 1.437952e+002
1.322700e+002, 1.416800e+002
1.327521e+002, 1.402039e+002
1.332343e+002, 1.395558e+002
1.337164e+002, 1.393946e+002
1.341985e+002, 1.391425e+002
1.346806e+002, 1.388021e+002
1.351627e+002, 1.383363e+002
1.356448e+002, 1.377605e+002
1.361270e+002, 1.370753e+002
1.366091e+002, 1.361268e+002
1.370912e+002, 1.348327e+002
1.375733e+002, 1.332973e+002
1.380554e+002, 1.317909e+002
1.385375e+002, 1.303318e+002
1.390197e+002, 1.288354e+002
1.395018e+002, 1.271001e+002
1.399839e+002, 1.249870e+002
1.404660e+002, 1.233281e+002
1.409481e+002, 1.223475e+002
1.414302e+002, 1.220019e+002
1.419124e+002, 1.216849e+002
1.423945e+002, 1.214803e+002
1.428766e+002, 1.211924e+002
1.433587e+002, 1.205963e+002
1.438408e+002, 1.195426e+002
1.443229e+002, 1.185008e+002
1.448051e+002, 1.176269e+002
1.452872e+002, 1.169643e+002
1.457693e+002, 1.160197e+002
1.462514e+002, 1.144813e+002
1.467335e+002, 1.128434e+002
1.472156e+002, 1.117293e+002
1.476978e+002, 1.115231e+002
1.481799e+002, 1.113839e+002
1.486620e+002, 1.111385e+002
1.491441e+002, 1.108421e+002
1.496262e+002, 1.102862e+002
1.501083e+002, 1.092076e+002
1.505905e+002, 1.079203e+002
1.510726e+002, 1.069714e+002
1.515547e+002, 1.065985e+002
1.520368e+002, 1.063657e+002
1.525189e+002, 1.061931e+002
1.530010e+002, 1.063860e+002
1.534832e+002, 1.060954e+002
1.539653e+002, 1.049071e+002
1.544474e+002, 1.031776e+002
1.549295e+002, 1.017628e+002
1.554116e+002, 1.008088e+002
1.558937e+002, 1.001614e+002
1.563759e+002, 9.978259e+001
1.568580e+002, 9.994796e+001
1.573401e+002, 1.000013e+002
1.578222e+002, 9.972384e+001
1.583043e+002, 9.920874e+001
1.587864e+002, 9.879951e+001
1.592686e+002, 9.873544e+001
1.597507e+002, 9.872114e+001
1.602328e+002, 9.856596e+001
1.607149e+002, 9.798196e+001
1.611970e+002, 9.749606e+001
1.616791e+002, 9.740491e+001
1.621613e+002, 9.763423e+001
1.626434e+002, 9.768195e+001
1.631255e+002, 9.716888e+001
1.636076e+002, 9.645867e+001
1.640897e+002, 9.587524e+001
1.645718e+002, 9.587017e+001
1.650540e+002, 9.572910e+001
1.655361e+002, 9.473415e+001
1.660182e+002, 9.294093e+001
1.665003e+002, 9.179955e+001
1.669824e+002, 9.288724e+001
1.674645e+002, 9.485799e+001
1.679467e+002, 9.603636e+001
1.684288e+002, 9.526132e+001
1.689109e+002, 9.384178e+001
1.693930e+002, 9.253858e+001
1.698751e+002, 9.136717e+001
1.703572e+002, 9.049989e+001
1.708394e+002, 9.023226e+001
1.713215e+002, 9.032240e+001
1.718036e+002, 9.036463e+001
1.722857e+002, 8.995995e+001
1.727678e+002, 8.953577e+001
1.732499e+002, 8.944447e+001
1.737321e+002, 8.969474e+001
1.742142e+002, 9.040874e+001
1.746963e+002, 9.204504e+001
1.751784e+002, 9.426572e+001
1.756605e+002, 9.627833e+001
1.761426e+002, 9.719922e+001
1.766248e+002, 9.781714e+001
1.771069e+002, 9.922281e+001
1.775890e+002, 1.015846e+002
1.780711e+002, 1.044685e+002
1.785532e+002, 1.074933e+002
1.790353e+002, 1.106903e+002
1.795175e+002, 1.140516e+002
1.799996e+002, 1.176758e+002
1.804817e+002, 1.214624e+002
1.809638e+002, 1.252901e+002
1.814459e+002, 1.291533e+002
1.819280e+002, 1.330558e+002
1.824102e+002, 1.372846e+002
1.828923e+002, 1.416831e+002
1.833744e+002, 1.457660e+002
1.838565e+002, 1.485331e+002
1.843386e+002, 1.506541e+002
1.848207e+002, 1.540934e+002
1.853029e+002, 1.594319e+002
1.857850e+002, 1.656617e+002
1.862671e+002, 1.709915e+002
1.867492e+002, 1.754712e+002
1.872313e+002, 1.805863e+002
1.877134e+002, 1.871178e+002
1.881956e+002, 1.951213e+002
1.886777e+002, 2.046683e+002
1.891598e+002, 2.161963e+002
1.896419e+002, 2.289287e+002
1.901240e+002, 2.414546e+002
1.906061e+002, 2.539402e+002
1.910883e+002, 2.660648e+002
1.915704e+002, 2.775761e+002
1.920525e+002, 2.886302e+002
1.925346e+002, 2.999774e+002
1.930167e+002, 3.123452e+002
1.934988e+002, 3.244528e+002
1.939810e+002, 3.326988e+002
1.944631e+002, 3.369865e+002
1.949452e+002, 3.370141e+002
1.954273e+002, 3.306974e+002
1.959094e+002, 3.182283e+002
1.963915e+002, 3.029336e+002
1.968737e+002, 2.846575e+002
1.973558e+002, 2.645013e+002
1.978379e+002, 2.454778e+002
1.983200e+002, 2.274638e+002
1.988021e+002, 2.112934e+002
1.992842e+002, 1.980449e+002
1.997664e+002, 1.876629e+002
2.002485e+002, 1.788093e+002
2.007306e+002, 1.712026e+002
2.012127e+002, 1.648111e+002
2.016948e+002, 1.594444e+002
2.021769e+002, 1.551735e+002
2.026591e+002, 1.516033e+002
2.031412e+002, 1.484718e+002
2.036233e+002, 1.457746e+002
2.041054e+002, 1.433316e+002
2.045875e+002, 1.410438e+002
2.050696e+002, 1.389399e+002
2.055518e+002, 1.373699e+002
2.060339e+002, 1.363725e+002
2.065160e+002, 1.357828e+002
2.069981e+002, 1.355713e+002
2.074802e+002, 1.358838e+002
2.079623e+002, 1.358773e+002
2.084445e+002, 1.352327e+002
2.089266e+002, 1.339847e+002
2.094087e+002, 1.331086e+002
2.098908e+002, 1.326767e+002
2.103729e+002, 1.324562e+002
2.108550e+002, 1.321931e+002
2.113372e+002, 1.318548e+002
2.118193e+002, 1.315848e+002
2.123014e+002, 1.313729e+002
2.127835e+002, 1.312178e+002
2.132656e+002, 1.313881e+002
2.137477e+002, 1.319769e+002
2.142299e+002, 1.327555e+002
2.147120e+002, 1.334213e+002
2.151941e+002, 1.338819e+002
2.156762e+002, 1.344994e+002
2.161583e+002, 1.353876e+002
2.166404e+002, 1.365467e+002
2.171226e+002, 1.377942e+002
2.176047e+002, 1.392197e+002
2.180868e+002, 1.406275e+002
2.185689e+002, 1.417864e+002
2.190510e+002, 1.426227e+002
2.195331e+002, 1.434045e+002
2.200153e+002, 1.442545e+002
2.204974e+002, 1.452099e+002
2.209795e+002, 1.458699e+002
2.214616e+002, 1.461995e+002
2.219437e+002, 1.462884e+002
2.224258e+002, 1.463012e+002
2.229080e+002, 1.464357e+002
2.233901e+002, 1.460711e+002
2.238722e+002, 1.449709e+002
2.243543e+002, 1.430429e+002
2.248364e+002, 1.411094e+002
2.253185e+002, 1.391277e+002
2.258007e+002, 1.371972e+002
2.262828e+002, 1.354599e+002
2.267649e+002, 1.341164e+002
2.272470e+002, 1.325736e+002
2.277291e+002, 1.306249e+002
2.282112e+002, 1.281501e+002
2.286934e+002, 1.260051e+002
2.291755e+002, 1.243911e+002
2.296576e+002, 1.229271e+002
2.301397e+002, 1.211319e+002
2.306218e+002, 1.187896e+002
2.311039e+002, 1.164664e+002
2.315861e+002, 1.142928e+002
2.320682e+002, 1.122181e+002
2.325503e+002, 1.104385e+002
2.330324e+002, 1.089709e+002
2.335145e+002, 1.077890e+002
2.339966e+002, 1.068956e+002
2.344788e+002, 1.065371e+002
2.349609e+002, 1.060316e+002
2.354430e+002, 1.050988e+002
2.359251e+002, 1.036096e+002
2.364072e+002, 1.026115e+002
2.368893e+002, 1.022430e+002
2.373715e+002, 1.022462e+002
2.378536e+002, 1.023532e+002
2.383357e+002, 1.027720e+002
2.388178e+002, 1.029116e+002
2.392999e+002, 1.024483e+002
2.397820e+002, 1.012119e+002
2.402642e+002, 1.007457e+002
2.407463e+002, 1.015229e+002
2.412284e+002, 1.026674e+002
2.417105e+002, 1.030395e+002
2.421926e+002, 1.020520e+002
2.426747e+002, 1.013662e+002
2.431569e+002, 1.015041e+002
2.436390e+002, 1.026098e+002
2.441211e+002, 1.033287e+002
2.446032e+002, 1.034740e+002
2.450853e+002, 1.034063e+002
2.455674e+002, 1.035428e+002
2.460496e+002, 1.039707e+002
2.465317e+002, 1.044527e+002
2.470138e+002, 1.050030e+002
2.474959e+002, 1.056561e+002
2.479780e+002, 1.059812e+002
2.484601e+002, 1.057913e+002
2.489423e+002, 1.054664e+002
2.494244e+002, 1.054321e+002
2.499065e+002, 1.058150e+002
2.503886e+002, 1.062548e+002
2.508707e+002, 1.067703e+002
2.513528e+002, 1.073818e+002
2.518350e+002, 1.075343e+002
2.523171e+002, 1.070683e+002
2.527992e+002, 1.063182e+002
2.532813e+002, 1.056428e+002
2.537634e+002, 1.051973e+002
2.542455e+002, 1.044859e+002
2.547277e+002, 1.032793e+002
2.552098e+002, 1.015566e+002
2.556919e+002, 1.002746e+002
2.561740e+002, 9.959225e+001
2.566561e+002, 9.914678e+001
2.571382e+002, 9.862214e+001
2.576204e+002, 9.800415e+001
2.581025e+002, 9.731767e+001
2.585846e+002, 9.650373e+001
2.590667e+002, 9.557629e+001
2.595488e+002, 9.496503e+001
2.600309e+002, 9.482286e+001
2.605131e+002, 9.479146e+001
2.609952e+002, 9.451681e+001
2.614773e+002, 9.382603e+001
2.619594e+002, 9.338159e+001
2.624415e+002, 9.334527e+001
2.629236e+002, 9.367899e+001
2.634058e+002, 9.401748e+001
2.638879e+002, 9.443208e+001
2.643700e+002, 9.473916e+001
2.648521e+002, 9.473739e+001
2.653342e+002, 9.427938e+001
2.658163e+002, 9.401456e+001
2.662985e+002, 9.406653e+001
2.667806e+002, 9.439014e+001
2.672627e+002, 9.474215e+001
2.677448e+002, 9.511244e+001
2.682269e+002, 9.552628e+001
2.687090e+002, 9.600538e+001
2.691912e+002, 9.656409e+001
2.696733e+002, 9.715382e+001
2.701554e+002, 9.780618e+001
2.706375e+002, 9.847753e+001
2.711196e+002, 9.889531e+001
2.716017e+002, 9.891972e+001
2.720839e+002, 9.907224e+001
2.725660e+002, 9.977434e+001
2.730481e+002, 1.011307e+002
2.735302e+002, 1.023540e+002
2.740123e+002, 1.033539e+002
2.744944e+002, 1.041968e+002
2.749766e+002, 1.050684e+002
2.754587e+002, 1.059563e+002
2.759408e+002, 1.069169e+002
2.764229e+002, 1.079430e+002
2.769050e+002, 1.090311e+002
2.773871e+002, 1.103349e+002
2.778693e+002, 1.119709e+002
2.783514e+002, 1.137100e+002
2.788335e+002, 1.149974e+002
2.793156e+002, 1.157867e+002
2.797977e+002, 1.164719e+002
2.802798e+002, 1.172934e+002
2.807620e+002, 1.182456e+002
2.812441e+002, 1.190747e+002
2.817262e+002, 1.197783e+002
2.822083e+002, 1.203351e+002
2.826904e+002, 1.206626e+002
2.831725e+002, 1.207466e+002
2.836547e+002, 1.207951e+002
2.841368e+002, 1.209028e+002
2.846189e+002, 1.210641e+002
2.851010e+002, 1.212616e+002
2.855831e+002, 1.215297e+002
2.860652e+002, 1.217350e+002
2.865474e+002, 1.216595e+002
2.870295e+002, 1.213074e+002
2.875116e+002, 1.208694e+002
2.879937e+002, 1.204842e+002
2.884758e+002, 1.201001e+002
2.889579e+002, 1.193849e+002
2.894401e+002, 1.182823e+002
2.899222e+002, 1.171108e+002
2.904043e+002, 1.163838e+002
2.908864e+002, 1.160236e+002
2.913685e+002, 1.153888e+002
2.918506e+002, 1.140802e+002
2.923328e+002, 1.123352e+002
2.928149e+002, 1.108687e+002
2.932970e+002, 1.096792e+002
2.937791e+002, 1.086768e+002
2.942612e+002, 1.078589e+002
2.947433e+002, 1.071806e+002
2.952255e+002, 1.064705e+002
2.957076e+002, 1.056432e+002
2.961897e+002, 1.047700e+002
2.966718e+002, 1.039253e+002
2.971539e+002, 1.031164e+002
2.976360e+002, 1.025559e+002
2.981182e+002, 1.026817e+002
2.986003e+002, 1.032101e+002
2.990824e+002, 1.034019e+002
2.995645e+002, 1.028849e+002
3.000466e+002, 1.021261e+002
3.005287e+002, 1.018335e+002
3.010109e+002, 1.019495e+002
3.014930e+002, 1.020580e+002
3.019751e+002, 1.018042e+002
3.024572e+002, 1.013513e+002
3.029393e+002, 1.009951e+002
3.034214e+002, 1.008481e+002
3.039036e+002, 1.007196e+002
3.043857e+002, 1.004190e+002
3.048678e+002, 9.996733e+001
3.053499e+002, 9.942989e+001
3.058320e+002, 9.891476e+001
3.063141e+002, 9.831361e+001
3.067963e+002, 9.743884e+001
3.072784e+002, 9.613769e+001
3.077605e+002, 9.489438e+001
3.082426e+002, 9.410883e+001
3.087247e+002, 9.368800e+001
3.092068e+002, 9.340986e+001
3.096890e+002, 9.344584e+001
3.101711e+002, 9.340823e+001
3.106532e+002, 9.288662e+001
3.111353e+002, 9.175589e+001
3.116174e+002, 9.057488e+001
3.120995e+002, 8.964375e+001
3.125817e+002, 8.891673e+001
3.130638e+002, 8.830559e+001
3.135459e+002, 8.790668e+001
3.140280e+002, 8.750742e+001
3.145101e+002, 8.701553e+001
3.149922e+002, 8.643373e+001
3.154744e+002, 8.566582e+001
3.159565e+002, 8.435781e+001
3.164386e+002, 8.294496e+001
3.169207e+002, 8.193780e+001
3.174028e+002, 8.183597e+001
3.178849e+002, 8.184779e+001
3.183671e+002, 8.173183e+001
3.188492e+002, 8.147561e+001
3.193313e+002, 8.102520e+001
3.198134e+002, 8.003588e+001
3.202955e+002, 7.901110e+001
3.207776e+002, 7.836160e+001
3.212598e+002, 7.867974e+001
3.217419e+002, 7.883587e+001
3.222240e+002, 7.834762e+001
3.227061e+002, 7.738184e+001
3.231882e+002, 7.681944e+001
3.236703e+002, 7.733135e+001
3.241525e+002, 7.794477e+001
3.246346e+002, 7.811575e+001
3.251167e+002, 7.739893e+001
3.255988e+002, 7.677319e+001
3.260809e+002, 7.633522e+001
3.265630e+002, 7.605053e+001
3.270452e+002, 7.582291e+001
3.275273e+002, 7.570156e+001
3.280094e+002, 7.559409e+001
3.284915e+002, 7.547873e+001
3.289736e+002, 7.539636e+001
3.294557e+002, 7.521461e+001
3.299379e+002, 7.479079e+001
3.304200e+002, 7.431166e+001
3.309021e+002, 7.409702e+001
3.313842e+002, 7.442675e+001
3.318663e+002, 7.464371e+001
3.323484e+002, 7.452520e+001
3.328306e+002, 7.400074e+001
3.333127e+002, 7.362625e+001
3.337948e+002, 7.351360e+001
3.342769e+002, 7.344876e+001
3.347590e+002, 7.314171e+001
3.352411e+002, 7.233324e+001
3.357233e+002, 7.188070e+001
3.362054e+002, 7.211104e+001
3.366875e+002, 7.296216e+001
3.371696e+002, 7.333669e+001
3.376517e+002, 7.308365e+001
3.381339e+002, 7.264849e+001
3.386160e+002, 7.236670e+001
3.390981e+002, 7.224003e+001
3.395802e+002, 7.227506e+001
3.400623e+002, 7.255442e+001
3.405444e+002, 7.295885e+001
3.410266e+002, 7.303334e+001
3.415087e+002, 7.271928e+001
3.419908e+002, 7.235941e+001
3.424729e+002, 7.219243e+001
3.429550e+002, 7.221727e+001
3.434371e+002, 7.212508e+001
3.439193e+002, 7.185284e+001
3.444014e+002, 7.152630e+001
3.448835e+002, 7.136661e+001
3.453656e+002, 7.137327e+001
3.458477e+002, 7.147672e+001
3.463298e+002, 7.179914e+001
3.468120e+002, 7.222783e+001
3.472941e+002, 7.211492e+001
3.477762e+002, 7.134434e+001
3.482583e+002, 7.058369e+001
3.487404e+002, 7.084042e+001
3.492225e+002, 7.186929e+001
3.497047e+002, 7.261678e+001
3.501868e+002, 7.243808e+001
3.506689e+002, 7.183505e+001
3.511510e+002, 7.166778e+001
3.516331e+002, 7.193374e+001
3.521152e+002, 7.242136e+001
3.525974e+002, 7.328894e+001
3.530795e+002, 7.421349e+001
3.535616e+002, 7.454786e+001
3.540437e+002, 7.382805e+001
3.545258e+002, 7.281879e+001
3.550079e+002, 7.227283e+001
3.554901e+002, 7.211507e+001
3.559722e+002, 7.199419e+001
3.564543e+002, 7.159330e+001
3.569364e+002, 7.116857e+001
3.574185e+002, 7.103179e+001
3.579006e+002, 7.136703e+001
3.583828e+002, 7.164494e+001
3.588649e+002, 7.138111e+001
3.593470e+002, 7.082462e+001
3.598291e+002, 7.047753e+001
3.603112e+002, 7.082588e+001
3.607933e+002, 7.124895e+001
3.612755e+002, 7.130261e+001
3.617576e+002, 7.087205e+001
3.622397e+002, 7.062141e+001
3.627218e+002, 7.094353e+001
3.632039e+002, 7.152775e+001
3.636860e+002, 7.202736e+001
3.641682e+002, 7.246156e+001
3.646503e+002, 7.269271e+001
3.651324e+002, 7.256647e+001
3.656145e+002, 7.210227e+001
3.660966e+002, 7.176067e+001
3.665787e+002, 7.166842e+001
3.670609e+002, 7.169067e+001
3.675430e+002, 7.174118e+001
3.680251e+002, 7.186509e+001
3.685072e+002, 7.195576e+001
3.689893e+002, 7.194962e+001
3.694714e+002, 7.189614e+001
3.699536e+002, 7.197012e+001
3.704357e+002, 7.240811e+001
3.709178e+002, 7.272330e+001
3.713999e+002, 7.267377e+001
3.718820e+002, 7.200211e+001
3.723641e+002, 7.163846e+001
3.728463e+002, 7.169512e+001
3.733284e+002, 7.198843e+001
3.738105e+002, 7.226157e+001
3.742926e+002, 7.255952e+001
3.747747e+002, 7.272411e+001
3.752568e+002, 7.262575e+001
3.757390e+002, 7.225829e+001
3.762211e+002, 7.229411e+001
3.767032e+002, 7.289502e+001
3.771853e+002, 7.356081e+001
3.776674e+002, 7.376364e+001
3.781495e+002, 7.344163e+001
3.786317e+002, 7.320808e+001
3.791138e+002, 7.318764e+001
3.795959e+002, 7.332713e+001
3.800780e+002, 7.349032e+001
3.805601e+002, 7.368221e+001
3.810422e+002, 7.383762e+001
3.815244e+002, 7.387971e+001
3.820065e+002, 7.383549e+001
3.824886e+002, 7.385600e+001
3.829707e+002, 7.396899e+001
3.834528e+002, 7.411729e+001
3.839349e+002, 7.421976e+001
3.844171e+002, 7.428528e+001
3.848992e+002, 7.435876e+001
3.853813e+002, 7.439369e+001
3.858634e+002, 7.447247e+001
3.863455e+002, 7.481767e+001
3.868276e+002, 7.544715e+001
3.873098e+002, 7.601799e+001
3.877919e+002, 7.609409e+001
3.882740e+002, 7.592761e+001
3.887561e+002, 7.597043e+001
3.892382e+002, 7.646159e+001
3.897203e+002, 7.713020e+001
3.902025e+002, 7.774476e+001
3.906846e+002, 7.832820e+001
3.911667e+002, 7.901149e+001
3.916488e+002, 7.993457e+001
3.921309e+002, 8.094476e+001
3.926130e+002, 8.190313e+001
3.930952e+002, 8.270737e+001
3.935773e+002, 8.359727e+001
3.940594e+002, 8.455772e+001
3.945415e+002, 8.567673e+001
3.950236e+002, 8.711771e+001
3.955057e+002, 8.923563e+001
3.959879e+002, 9.141849e+001
3.964700e+002, 9.338142e+001
3.969521e+002, 9.504780e+001
3.974342e+002, 9.687172e+001
3.979163e+002, 9.922106e+001
3.983984e+002, 1.016175e+002
3.988806e+002, 1.036244e+002
3.993627e+002, 1.051886e+002
3.998448e+002, 1.063831e+002
4.003269e+002, 1.071407e+002
4.008090e+002, 1.075004e+002
4.012911e+002, 1.077030e+002
4.017733e+002, 1.074121e+002
4.022554e+002, 1.073607e+002
4.027375e+002, 1.079599e+002
4.032196e+002, 1.094432e+002
4.037017e+002, 1.110120e+002
4.041838e+002, 1.126699e+002
4.046660e+002, 1.143900e+002
4.051481e+002, 1.162251e+002
4.056302e+002, 1.183975e+002
4.061123e+002, 1.199149e+002
4.065944e+002, 1.203854e+002
4.070765e+002, 1.198319e+002
4.075587e+002, 1.188335e+002
4.080408e+002, 1.174242e+002
4.085229e+002, 1.154330e+002
4.090050e+002, 1.124401e+002
4.094871e+002, 1.085256e+002
4.099692e+002, 1.046881e+002
4.104514e+002, 1.010766e+002
4.109335e+002, 9.770290e+001
4.114156e+002, 9.451173e+001
4.118977e+002, 9.154700e+001
4.123798e+002, 8.899126e+001
4.128619e+002, 8.711771e+001
4.133441e+002, 8.574685e+001
4.138262e+002, 8.453300e+001
4.143083e+002, 8.344314e+001
4.147904e+002, 8.247518e+001
4.152725e+002, 8.158956e+001
4.157546e+002, 8.081765e+001
4.162368e+002, 8.020219e+001
4.167189e+002, 7.981945e+001
4.172010e+002, 7.957083e+001
4.176831e+002, 7.942396e+001
4.181652e+002, 7.936967e+001
4.186473e+002, 7.927754e+001
4.191295e+002, 7.898096e+001
4.196116e+002, 7.866312e+001
4.200937e+002, 7.849819e+001
4.205758e+002, 7.863548e+001
4.210579e+002, 7.877042e+001
4.215400e+002, 7.869620e+001
4.220222e+002, 7.854257e+001
4.225043e+002, 7.862768e+001
4.229864e+002, 7.940256e+001
4.234685e+002, 8.009945e+001
4.239506e+002, 8.022109e+001
4.244327e+002, 7.924523e+001
4.249149e+002, 7.941519e+001
4.253970e+002, 8.202966e+001
4.258791e+002, 8.513955e+001
4.263612e+002, 8.679503e+001
4.268433e+002, 8.597549e+001
4.273254e+002, 8.528394e+001
4.278076e+002, 8.501653e+001
4.282897e+002, 8.516933e+001
4.287718e+002, 8.580570e+001
4.292539e+002, 8.712582e+001
4.297360e+002, 8.850086e+001
4.302181e+002, 8.948435e+001
4.307003e+002, 8.998267e+001
4.311824e+002, 9.069231e+001
4.316645e+002, 9.162675e+001
4.321466e+002, 9.280301e+001
4.326287e+002, 9.430708e+001
4.331108e+002, 9.613247e+001
4.335930e+002, 9.798715e+001
4.340751e+002, 9.974956e+001
4.345572e+002, 1.014574e+002
4.350393e+002, 1.033181e+002
4.355214e+002, 1.053347e+002
4.360035e+002, 1.071862e+002
4.364857e+002, 1.084127e+002
4.369678e+002, 1.092343e+002
4.374499e+002, 1.102450e+002
4.379320e+002, 1.116708e+002
4.384141e+002, 1.131327e+002
4.388962e+002, 1.143415e+002
4.393784e+002, 1.152656e+002
4.398605e+002, 1.158140e+002
4.403426e+002, 1.158763e+002
4.408247e+002, 1.155774e+002
4.413068e+002, 1.150071e+002
4.417889e+002, 1.141750e+002
4.422711e+002, 1.130931e+002
4.427532e+002, 1.116291e+002
4.432353e+002, 1.099752e+002
4.437174e+002, 1.083308e+002
4.441995e+002, 1.066818e+002
4.446816e+002, 1.051227e+002
4.451638e+002, 1.037586e+002
4.456459e+002, 1.025342e+002
4.461280e+002, 1.011406e+002
4.466101e+002, 9.939005e+001
4.470922e+002, 9.758134e+001
4.475743e+002, 9.580968e+001
4.480565e+002, 9.402922e+001
4.485386e+002, 9.244331e+001
4.490207e+002, 9.109168e+001
4.495028e+002, 8.991894e+001
4.499849e+002, 8.887691e+001
4.504670e+002, 8.794947e+001
4.509492e+002, 8.717787e+001
4.514313e+002, 8.661526e+001
4.519134e+002, 8.623052e+001
4.523955e+002, 8.579201e+001
4.528776e+002, 8.527564e+001
4.533597e+002, 8.482038e+001
4.538419e+002, 8.454091e+001
4.543240e+002, 8.443610e+001
4.548061e+002, 8.433672e+001
4.552882e+002, 8.420363e+001
4.557703e+002, 8.414080e+001
4.562524e+002, 8.447359e+001
4.567346e+002, 8.511221e+001
4.572167e+002, 8.542944e+001
4.576988e+002, 8.485429e+001
4.581809e+002, 8.392991e+001
4.586630e+002, 8.363264e+001
4.591451e+002, 8.393417e+001
4.596273e+002, 8.435318e+001
4.601094e+002, 8.456407e+001
4.605915e+002, 8.465797e+001
4.610736e+002, 8.477290e+001
4.615557e+002, 8.500758e+001
4.620378e+002, 8.511950e+001
4.625200e+002, 8.490151e+001
4.630021e+002, 8.445290e+001
4.634842e+002, 8.396994e+001
4.639663e+002, 8.341728e+001
4.644484e+002, 8.294302e+001
4.649305e+002, 8.264995e+001
4.654127e+002, 8.255030e+001
4.658948e+002, 8.247120e+001
4.663769e+002, 8.255138e+001
4.668590e+002, 8.253749e+001
4.673411e+002, 8.224471e+001
4.678232e+002, 8.129787e+001
4.683054e+002, 8.055067e+001
4.687875e+002, 8.016440e+001
4.692696e+002, 7.997649e+001
4.697517e+002, 7.954884e+001
4.702338e+002, 7.867282e+001
4.707159e+002, 7.795525e+001
4.711981e+002, 7.769235e+001
4.716802e+002, 7.791259e+001
4.721623e+002, 7.779020e+001
4.726444e+002, 7.723344e+001
4.731265e+002, 7.658897e+001
4.736086e+002, 7.627288e+001
4.740908e+002, 7.627651e+001
4.745729e+002, 7.605655e+001
4.750550e+002, 7.545206e+001
4.755371e+002, 7.467376e+001
4.760192e+002, 7.404323e+001
4.765013e+002, 7.356608e+001
4.769835e+002, 7.330417e+001
4.774656e+002, 7.344317e+001
4.779477e+002, 7.376162e+001
4.784298e+002, 7.391090e+001
4.789119e+002, 7.387389e+001
4.793940e+002, 7.373087e+001
4.798762e+002, 7.348994e+001
4.803583e+002, 7.319790e+001
4.808404e+002, 7.290981e+001
4.813225e+002, 7.257873e+001
4.818046e+002, 7.233888e+001
4.822867e+002, 7.233719e+001
4.827689e+002, 7.248738e+001
4.832510e+002, 7.256596e+001
4.837331e+002, 7.237587e+001
4.842152e+002, 7.220724e+001
4.846973e+002, 7.222195e+001
4.851794e+002, 7.248655e+001
4.856616e+002, 7.264860e+001
4.861437e+002, 7.263805e+001
4.866258e+002, 7.253715e+001
4.871079e+002, 7.239628e+001
4.875900e+002, 7.213307e+001
4.880721e+002, 7.197836e+001
4.885543e+002, 7.199278e+001
4.890364e+002, 7.211406e+001
4.895185e+002, 7.217421e+001
4.900006e+002, 7.217338e+001
4.904827e+002, 7.210108e+001
4.909648e+002, 7.189720e+001
4.914470e+002, 7.157486e+001
4.919291e+002, 7.146284e+001
4.924112e+002, 7.158654e+001
4.928933e+002, 7.180319e+001
4.933754e+002, 7.203649e+001
4.938575e+002, 7.225827e+001
4.943397e+002, 7.231310e+001
4.948218e+002, 7.211468e+001
4.953039e+002, 7.183716e+001
4.957860e+002, 7.165284e+001
4.962681e+002, 7.157851e+001
4.967502e+002, 7.166966e+001
4.972324e+002, 7.220826e+001
4.977145e+002, 7.276865e+001
4.981966e+002, 7.287148e+001
4.986787e+002, 7.249162e+001
4.991608e+002, 7.216924e+001
4.996429e+002, 7.226921e+001
5.001251e+002, 7.251067e+001
5.006072e+002, 7.264565e+001
5.010893e+002, 7.254897e+001
5.015714e+002, 7.243273e+001
5.020535e+002, 7.215935e+001
5.025356e+002, 7.190302e+001
5.030178e+002, 7.206131e+001
5.034999e+002, 7.327092e+001
5.039820e+002, 7.423911e+001
5.044641e+002, 7.455730e+001
5.049462e+002, 7.419702e+001
5.054283e+002, 7.401376e+001
5.059105e+002, 7.404309e+001
5.063926e+002, 7.420019e+001
5.068747e+002, 7.449446e+001
5.073568e+002, 7.498643e+001
5.078389e+002, 7.518148e+001
5.083210e+002, 7.497547e+001
5.088032e+002, 7.455319e+001
5.092853e+002, 7.416582e+001
5.097674e+002, 7.381948e+001
5.102495e+002, 7.363106e+001
5.107316e+002, 7.374712e+001
5.112137e+002, 7.400753e+001
5.116959e+002, 7.405171e+001
5.121780e+002, 7.389159e+001
5.126601e+002, 7.369936e+001
5.131422e+002, 7.352544e+001
5.136243e+002, 7.342294e+001
5.141064e+002, 7.351295e+001
5.145886e+002, 7.389535e+001
5.150707e+002, 7.418060e+001
5.155528e+002, 7.406641e+001
5.160349e+002, 7.371926e+001
5.165170e+002, 7.337842e+001
5.169991e+002, 7.298357e+001
5.174813e+002, 7.274693e+001
5.179634e+002, 7.278662e+001
5.184455e+002, 7.307650e+001
5.189276e+002, 7.339036e+001
5.194097e+002, 7.392536e+001
5.198918e+002, 7.427681e+001
5.203740e+002, 7.421626e+001
5.208561e+002, 7.352390e+001
5.213382e+002, 7.315054e+001
5.218203e+002, 7.320381e+001
5.223024e+002, 7.344943e+001
5.227845e+002, 7.364270e+001
5.232667e+002, 7.378630e+001
5.237488e+002, 7.384153e+001
5.242309e+002, 7.375935e+001
5.247130e+002, 7.361999e+001
5.251951e+002, 7.362793e+001
5.256772e+002, 7.378195e+001
5.261594e+002, 7.399706e+001
5.266415e+002, 7.430753e+001
5.271236e+002, 7.463269e+001
5.276057e+002, 7.477177e+001
5.280878e+002, 7.471796e+001
5.285699e+002, 7.458967e+001
5.290521e+002, 7.448045e+001
5.295342e+002, 7.435897e+001
5.300163e+002, 7.414671e+001
5.304984e+002, 7.365946e+001
5.309805e+002, 7.338639e+001
5.314626e+002, 7.379287e+001
5.319448e+002, 7.458952e+001
5.324269e+002, 7.521326e+001
5.329090e+002, 7.542503e+001
5.333911e+002, 7.551626e+001
5.338732e+002, 7.554748e+001
5.343553e+002, 7.551794e+001
5.348375e+002, 7.554283e+001
5.353196e+002, 7.577989e+001
5.358017e+002, 7.591424e+001
5.362838e+002, 7.572439e+001
5.367659e+002, 7.498339e+001
5.372480e+002, 7.455851e+001
5.377302e+002, 7.452137e+001
5.382123e+002, 7.471078e+001
5.386944e+002, 7.492493e+001
5.391765e+002, 7.516991e+001
5.396586e+002, 7.538611e+001
5.401407e+002, 7.556248e+001
5.406229e+002, 7.569570e+001
5.411050e+002, 7.574288e+001
5.415871e+002, 7.571481e+001
5.420692e+002, 7.570924e+001
5.425513e+002, 7.581580e+001
5.430334e+002, 7.597588e+001
5.435156e+002, 7.609773e+001
5.439977e+002, 7.617507e+001
5.444798e+002, 7.624673e+001
5.449619e+002, 7.642760e+001
5.454440e+002, 7.657935e+001
5.459261e+002, 7.651902e+001
5.464083e+002, 7.580206e+001
5.468904e+002, 7.543389e+001
5.473725e+002, 7.611806e+001
5.478546e+002, 7.736495e+001
5.483367e+002, 7.814384e+001
5.488188e+002, 7.784532e+001
5.493010e+002, 7.753826e+001
5.497831e+002, 7.744393e+001
5.502652e+002, 7.756092e+001
5.507473e+002, 7.788415e+001
5.512294e+002, 7.862341e+001
5.517115e+002, 7.921450e+001
5.521937e+002, 7.919019e+001
5.526758e+002, 7.844765e+001
5.531579e+002, 7.813010e+001
5.536400e+002, 7.837217e+001
5.541221e+002, 7.880583e+001
5.546042e+002, 7.890856e+001
5.550864e+002, 7.873975e+001
5.555685e+002, 7.867513e+001
5.560506e+002, 7.887098e+001
5.565327e+002, 7.916858e+001
5.570148e+002, 7.936863e+001
5.574969e+002, 7.948045e+001
5.579791e+002, 7.954122e+001
5.584612e+002, 7.963985e+001
5.589433e+002, 7.964684e+001
5.594254e+002, 7.939195e+001
5.599075e+002, 7.885879e+001
5.603896e+002, 7.839199e+001
5.608718e+002, 7.826811e+001
5.613539e+002, 7.818562e+001
5.618360e+002, 7.790595e+001
5.623181e+002, 7.701127e+001
5.628002e+002, 7.651646e+001
5.632823e+002, 7.680663e+001
5.637645e+002, 7.737812e+001
5.642466e+002, 7.743198e+001
5.647287e+002, 7.671375e+001
5.652108e+002, 7.605183e+001
5.656929e+002, 7.562588e+001
5.661750e+002, 7.540405e+001
5.666572e+002, 7.525597e+001
5.671393e+002, 7.519559e+001
5.676214e+002, 7.510976e+001
5.681035e+002, 7.488734e+001
5.685856e+002, 7.457769e+001
5.690677e+002, 7.437383e+001
5.695499e+002, 7.428728e+001
5.700320e+002, 7.423969e+001
5.705141e+002, 7.406071e+001
5.709962e+002, 7.389636e+001
5.714783e+002, 7.402937e+001
5.719604e+002, 7.470061e+001
5.724426e+002, 7.532453e+001
5.729247e+002, 7.555000e+001
5.734068e+002, 7.546758e+001
5.738889e+002, 7.524409e+001
5.743710e+002, 7.476397e+001
5.748531e+002, 7.432326e+001
5.753353e+002, 7.403564e+001
5.758174e+002, 7.389624e+001
5.762995e+002, 7.375452e+001
5.767816e+002, 7.352882e+001
5.772637e+002, 7.339429e+001
5.777458e+002, 7.345811e+001
5.782280e+002, 7.377831e+001
5.787101e+002, 7.396973e+001
5.791922e+002, 7.398550e+001
5.796743e+002, 7.397504e+001
5.801564e+002, 7.416770e+001
5.806385e+002, 7.454099e+001
5.811207e+002, 7.463667e+001
5.816028e+002, 7.427769e+001
5.820849e+002, 7.382722e+001
5.825670e+002, 7.391273e+001
5.830491e+002, 7.438432e+001
5.835313e+002, 7.476189e+001
5.840134e+002, 7.475019e+001
5.844955e+002, 7.458776e+001
5.849776e+002, 7.441504e+001
5.854597e+002, 7.425626e+001
5.859418e+002, 7.423592e+001
5.864240e+002, 7.453056e+001
5.869061e+002, 7.488918e+001
5.873882e+002, 7.520129e+001
5.878703e+002, 7.548569e+001
5.883524e+002, 7.558484e+001
5.888345e+002, 7.512488e+001
5.893167e+002, 7.470543e+001
5.897988e+002, 7.483435e+001
5.902809e+002, 7.583887e+001
5.907630e+002, 7.661754e+001
5.912451e+002, 7.697173e+001
5.917272e+002, 7.719032e+001
5.922094e+002, 7.790242e+001
5.926915e+002, 7.914061e+001
5.931736e+002, 8.025330e+001
5.936557e+002, 8.097475e+001
5.941378e+002, 8.145638e+001
5.946199e+002, 8.243848e+001
5.951021e+002, 8.375070e+001
5.955842e+002, 8.406355e+001
5.960663e+002, 8.138258e+001
5.965484e+002, 7.781958e+001
5.970305e+002, 7.573261e+001
5.975126e+002, 7.533062e+001
5.979948e+002, 7.580030e+001
5.984769e+002, 7.735438e+001
5.989590e+002, 7.920180e+001
5.994411e+002, 8.070805e+001
5.999232e+002, 8.193803e+001
6.004053e+002, 8.251852e+001
6.008875e+002, 8.218051e+001
6.013696e+002, 8.122549e+001
6.018517e+002, 7.996767e+001
6.023338e+002, 7.797512e+001
6.028159e+002, 7.656511e+001
6.032980e+002, 7.604761e+001
6.037802e+002, 7.625642e+001
6.042623e+002, 7.674817e+001
6.047444e+002, 7.759136e+001
6.052265e+002, 7.809643e+001
6.057086e+002, 7.761501e+001
6.061907e+002, 7.650528e+001
6.066729e+002, 7.605038e+001
6.071550e+002, 7.624027e+001
6.076371e+002, 7.659890e+001
6.081192e+002, 7.682687e+001
6.086013e+002, 7.696209e+001
6.090834e+002, 7.703053e+001
6.095656e+002, 7.701566e+001
6.100477e+002, 7.703056e+001
6.105298e+002, 7.713735e+001
6.110119e+002, 7.730811e+001
6.114940e+002, 7.751342e+001
6.119761e+002, 7.788656e+001
6.124583e+002, 7.812746e+001
6.129404e+002, 7.815603e+001
6.134225e+002, 7.803352e+001
6.139046e+002, 7.786745e+001
6.143867e+002, 7.759347e+001
6.148688e+002, 7.742364e+001
6.153510e+002, 7.744793e+001
6.158331e+002, 7.763067e+001
6.163152e+002, 7.773592e+001
6.167973e+002, 7.775254e+001
6.172794e+002, 7.778403e+001
6.177615e+002, 7.791799e+001
6.182437e+002, 7.811611e+001
6.187258e+002, 7.825549e+001
6.192079e+002, 7.832557e+001
6.196900e+002, 7.843766e+001
6.201721e+002, 7.885383e+001
6.206542e+002, 7.930032e+001
6.211364e+002, 7.938703e+001
6.216185e+002, 7.883156e+001
6.221006e+002, 7.835082e+001
6.225827e+002, 7.834389e+001
6.230648e+002, 7.857449e+001
6.235469e+002, 7.871228e+001
6.240291e+002, 7.867933e+001
6.245112e+002, 7.857664e+001
6.249933e+002, 7.837672e+001
6.254754e+002, 7.812248e+001
6.259575e+002, 7.794704e+001
6.264396e+002, 7.783403e+001
6.269218e+002, 7.785609e+001
6.274039e+002, 7.812377e+001
6.278860e+002, 7.856333e+001
6.283681e+002, 7.867420e+001
6.288502e+002, 7.844516e+001
6.293323e+002, 7.818209e+001
6.298145e+002, 7.808956e+001
6.302966e+002, 7.812954e+001
6.307787e+002, 7.830457e+001
6.312608e+002, 7.863675e+001
6.317429e+002, 7.879440e+001
6.322250e+002, 7.829482e+001
6.327072e+002, 7.759650e+001
6.331893e+002, 7.720571e+001
6.336714e+002, 7.747047e+001
6.341535e+002, 7.767493e+001
6.346356e+002, 7.760757e+001
6.351177e+002, 7.737321e+001
6.355999e+002, 7.713357e+001
6.360820e+002, 7.681822e+001
6.365641e+002, 7.662305e+001
6.370462e+002, 7.660809e+001
6.375283e+002, 7.672781e+001
6.380104e+002, 7.688278e+001
6.384926e+002, 7.711079e+001
6.389747e+002, 7.713624e+001
6.394568e+002, 7.669844e+001
6.399389e+002, 7.598502e+001
6.404210e+002, 7.563264e+001
6.409031e+002, 7.562839e+001
6.413853e+002, 7.579143e+001
6.418674e+002, 7.606812e+001
6.423495e+002, 7.639900e+001
6.428316e+002, 7.678547e+001
6.433137e+002, 7.726155e+001
6.437958e+002, 7.745546e+001
6.442780e+002, 7.689237e+001
6.447601e+002, 7.612499e+001
6.452422e+002, 7.563779e+001
6.457243e+002, 7.560311e+001
6.462064e+002, 7.572801e+001
6.466885e+002, 7.616743e+001
6.471707e+002, 7.664529e+001
6.476528e+002, 7.674521e+001
6.481349e+002, 7.630955e+001
6.486170e+002, 7.602420e+001
6.490991e+002, 7.608231e+001
6.495812e+002, 7.628964e+001
6.500634e+002, 7.608327e+001
6.505455e+002, 7.550234e+001
6.510276e+002, 7.514365e+001
6.515097e+002, 7.548890e+001
6.519918e+002, 7.609526e+001
6.524739e+002, 7.624266e+001
6.529561e+002, 7.600140e+001
6.534382e+002, 7.574783e+001
6.539203e+002, 7.569866e+001
6.544024e+002, 7.571690e+001
6.548845e+002, 7.569231e+001
6.553666e+002, 7.560428e+001
6.558488e+002, 7.560563e+001
6.563309e+002, 7.594168e+001
6.568130e+002, 7.621328e+001
6.572951e+002, 7.614365e+001
6.577772e+002, 7.549143e+001
6.582593e+002, 7.516804e+001
6.587415e+002, 7.526831e+001
6.592236e+002, 7.554466e+001
6.597057e+002, 7.576818e+001
6.601878e+002, 7.593656e+001
6.606699e+002, 7.590712e+001
6.611520e+002, 7.559624e+001
6.616342e+002, 7.522741e+001
6.621163e+002, 7.506931e+001
6.625984e+002, 7.510603e+001
6.630805e+002, 7.530625e+001
6.635626e+002, 7.592696e+001
6.640447e+002, 7.642725e+001
6.645269e+002, 7.630688e+001
6.650090e+002, 7.574636e+001
6.654911e+002, 7.527303e+001
6.659732e+002, 7.499522e+001
6.664553e+002, 7.488564e+001
6.669374e+002, 7.506142e+001
6.674196e+002, 7.548643e+001
6.679017e+002, 7.560939e+001
6.683838e+002, 7.534293e+001
6.688659e+002, 7.494055e+001
6.693480e+002, 7.446279e+001
6.698301e+002, 7.391383e+001
6.703123e+002, 7.357710e+001
6.707944e+002, 7.345725e+001
6.712765e+002, 7.351391e+001
6.717586e+002, 7.388671e+001
6.722407e+002, 7.438274e+001
6.727228e+002, 7.449997e+001
6.732050e+002, 7.411277e+001
6.736871e+002, 7.372793e+001
6.741692e+002, 7.383507e+001
6.746513e+002, 7.410758e+001
6.751334e+002, 7.414826e+001
6.756155e+002, 7.355964e+001
6.760977e+002, 7.317996e+001
6.765798e+002, 7.341029e+001
6.770619e+002, 7.389249e+001
6.775440e+002, 7.408155e+001
6.780261e+002, 7.380202e+001
6.785082e+002, 7.361350e+001
6.789904e+002, 7.367576e+001
6.794725e+002, 7.384300e+001
6.799546e+002, 7.367442e+001
6.804367e+002, 7.316994e+001
6.809188e+002, 7.273351e+001
6.814009e+002, 7.256120e+001
6.818831e+002, 7.255317e+001
6.823652e+002, 7.252928e+001
6.828473e+002, 7.250417e+001
6.833294e+002, 7.254939e+001
6.838115e+002, 7.287681e+001
6.842936e+002, 7.315986e+001
6.847758e+002, 7.304605e+001
6.852579e+002, 7.252210e+001
6.857400e+002, 7.227121e+001
6.862221e+002, 7.231558e+001
6.867042e+002, 7.283544e+001
6.871863e+002, 7.417883e+001
6.876685e+002, 7.689772e+001
6.881506e+002, 7.783815e+001
6.886327e+002, 7.645878e+001
6.891148e+002, 7.443013e+001
6.895969e+002, 7.311995e+001
6.900790e+002, 7.249656e+001
6.905612e+002, 7.233327e+001
6.910433e+002, 7.267754e+001
6.915254e+002, 7.311507e+001
6.920075e+002, 7.318681e+001
6.924896e+002, 7.300081e+001
6.929717e+002, 7.272366e+001
6.934539e+002, 7.228779e+001
6.939360e+002, 7.199992e+001
6.944181e+002, 7.216737e+001
6.949002e+002, 7.256767e+001
6.953823e+002, 7.285653e+001
6.958644e+002, 7.298319e+001
6.963466e+002, 7.295193e+001
6.968287e+002, 7.268575e+001
6.973108e+002, 7.228867e+001
6.977929e+002, 7.204354e+001
6.982750e+002, 7.198735e+001
6.987571e+002, 7.195318e+001
6.992393e+002, 7.189194e+001
6.997214e+002, 7.181406e+001
7.002035e+002, 7.169765e+001
7.006856e+002, 7.156126e+001
7.011677e+002, 7.157506e+001
7.016498e+002, 7.203416e+001
7.021320e+002, 7.257542e+001
7.026141e+002, 7.275616e+001
7.030962e+002, 7.259801e+001
7.035783e+002, 7.239895e+001
7.040604e+002, 7.220943e+001
7.045425e+002, 7.208618e+001
7.050247e+002, 7.207764e+001
7.055068e+002, 7.220918e+001
7.059889e+002, 7.233316e+001
7.064710e+002, 7.247549e+001
7.069531e+002, 7.257325e+001
7.074352e+002, 7.257823e+001
7.079174e+002, 7.248420e+001
7.083995e+002, 7.234792e+001
7.088816e+002, 7.215046e+001
7.093637e+002, 7.200969e+001
7.098458e+002, 7.211974e+001
7.103279e+002, 7.237776e+001
7.108101e+002, 7.251945e+001
7.112922e+002, 7.248095e+001
7.117743e+002, 7.240110e+001
7.122564e+002, 7.233992e+001
7.127385e+002, 7.231770e+001
7.132206e+002, 7.236217e+001
7.137028e+002, 7.257448e+001
7.141849e+002, 7.272471e+001
7.146670e+002, 7.271865e+001
7.151491e+002, 7.264767e+001
7.156312e+002, 7.263405e+001
7.161133e+002, 7.269907e+001
7.165955e+002, 7.276221e+001
7.170776e+002, 7.280962e+001
7.175597e+002, 7.284634e+001
7.180418e+002, 7.286639e+001
7.185239e+002, 7.287489e+001
7.190060e+002, 7.293165e+001
7.194882e+002, 7.310242e+001
7.199703e+002, 7.328419e+001
7.204524e+002, 7.334844e+001
7.209345e+002, 7.331669e+001
7.214166e+002, 7.325658e+001
7.218987e+002, 7.318417e+001
7.223809e+002, 7.310379e+001
7.228630e+002, 7.299121e+001
7.233451e+002, 7.285954e+001
7.238272e+002, 7.282494e+001
7.243093e+002, 7.302048e+001
7.247914e+002, 7.311799e+001
7.252736e+002, 7.294590e+001
7.257557e+002, 7.253947e+001
7.262378e+002, 7.228835e+001
7.267199e+002, 7.217905e+001
7.272020e+002, 7.233728e+001
7.276841e+002, 7.282602e+001
7.281663e+002, 7.364713e+001
7.286484e+002, 7.523507e+001
7.291305e+002, 7.752812e+001
7.296126e+002, 7.885336e+001
7.300947e+002, 7.718117e+001
7.305768e+002, 7.467388e+001
7.310590e+002, 7.305685e+001
7.315411e+002, 7.267872e+001
7.320232e+002, 7.249445e+001
7.325053e+002, 7.235841e+001
7.329874e+002, 7.232967e+001
7.334695e+002, 7.248045e+001
7.339517e+002, 7.290877e+001
7.344338e+002, 7.314592e+001
7.349159e+002, 7.314953e+001
7.353980e+002, 7.308455e+001
7.358801e+002, 7.315450e+001
7.363622e+002, 7.331383e+001
7.368444e+002, 7.332433e+001
7.373265e+002, 7.310500e+001
7.378086e+002, 7.296776e+001
7.382907e+002, 7.335312e+001
7.387728e+002, 7.394382e+001
7.392549e+002, 7.432885e+001
7.397371e+002, 7.438075e+001
7.402192e+002, 7.425101e+001
7.407013e+002, 7.374439e+001
7.411834e+002, 7.317969e+001
7.416655e+002, 7.299817e+001
7.421476e+002, 7.343891e+001
7.426298e+002, 7.366920e+001
7.431119e+002, 7.349931e+001
7.435940e+002, 7.319472e+001
7.440761e+002, 7.325745e+001
7.445582e+002, 7.365609e+001
7.450403e+002, 7.409666e+001
7.455225e+002, 7.452540e+001
7.460046e+002, 7.489732e+001
7.464867e+002, 7.515834e+001
7.469688e+002, 7.532188e+001
7.474509e+002, 7.541466e+001
7.479330e+002, 7.540915e+001
7.484152e+002, 7.537538e+001
7.488973e+002, 7.528741e+001
7.493794e+002, 7.519014e+001
7.498615e+002, 7.524210e+001
7.503436e+002, 7.563676e+001
7.508257e+002, 7.582376e+001
7.513079e+002, 7.557980e+001
7.517900e+002, 7.506506e+001
7.522721e+002, 7.486726e+001
7.527542e+002, 7.498524e+001
7.532363e+002, 7.519534e+001
7.537184e+002, 7.545715e+001
7.542006e+002, 7.570105e+001
7.546827e+002, 7.575529e+001
7.551648e+002, 7.567497e+001
7.556469e+002, 7.568638e+001
7.561290e+002, 7.608335e+001
7.566111e+002, 7.644239e+001
7.570933e+002, 7.647939e+001
7.575754e+002, 7.620572e+001
7.580575e+002, 7.606384e+001
7.585396e+002, 7.616698e+001
7.590217e+002, 7.626405e+001
7.595038e+002, 7.622527e+001
7.599860e+002, 7.607532e+001
7.604681e+002, 7.616885e+001
7.609502e+002, 7.653315e+001
7.614323e+002, 7.680209e+001
7.619144e+002, 7.661800e+001
7.623965e+002, 7.621508e+001
7.628787e+002, 7.601921e+001
7.633608e+002, 7.603281e+001
7.638429e+002, 7.610647e+001
7.643250e+002, 7.611804e+001
7.648071e+002, 7.618558e+001
7.652892e+002, 7.641194e+001
7.657714e+002, 7.683120e+001
7.662535e+002, 7.722971e+001
7.667356e+002, 7.771611e+001
7.672177e+002, 7.802344e+001
7.676998e+002, 7.790053e+001
7.681819e+002, 7.729858e+001
7.686641e+002, 7.715642e+001
7.691462e+002, 7.751755e+001
7.696283e+002, 7.801622e+001
7.701104e+002, 7.851019e+001
7.705925e+002, 7.887794e+001
7.710746e+002, 7.873877e+001
7.715568e+002, 7.803391e+001
7.720389e+002, 7.752797e+001
7.725210e+002, 7.794390e+001
7.730031e+002, 7.858434e+001
7.734852e+002, 7.890199e+001
7.739673e+002, 7.872721e+001
7.744495e+002, 7.851321e+001
7.749316e+002, 7.812222e+001
7.754137e+002, 7.788416e+001
7.758958e+002, 7.813380e+001
7.763779e+002, 7.892812e+001
7.768600e+002, 7.943909e+001
7.773422e+002, 7.960596e+001
7.778243e+002, 7.970830e+001
7.783064e+002, 8.010247e+001
7.787885e+002, 8.061486e+001
7.792706e+002, 8.087406e+001
7.797527e+002, 8.077498e+001
7.802349e+002, 8.071226e+001
7.807170e+002, 8.096853e+001
7.811991e+002, 8.133839e+001
7.816812e+002, 8.164186e+001
7.821633e+002, 8.180944e+001
7.826454e+002, 8.198716e+001
7.831276e+002, 8.216640e+001
7.836097e+002, 8.236768e+001
7.840918e+002, 8.257896e+001
7.845739e+002, 8.279582e+001
7.850560e+002, 8.324726e+001
7.855381e+002, 8.400259e+001
7.860203e+002, 8.471564e+001
7.865024e+002, 8.487937e+001
7.869845e+002, 8.476472e+001
7.874666e+002, 8.483784e+001
7.879487e+002, 8.521630e+001
7.884308e+002, 8.574525e+001
7.889130e+002, 8.647974e+001
7.893951e+002, 8.726247e+001
7.898772e+002, 8.793875e+001
7.903593e+002, 8.841842e+001
7.908414e+002, 8.891209e+001
7.913235e+002, 8.937696e+001
7.918057e+002, 8.991309e+001
7.922878e+002, 9.067445e+001
7.927699e+002, 9.164986e+001
7.932520e+002, 9.248042e+001
7.937341e+002, 9.307750e+001
7.942162e+002, 9.372705e+001
7.946984e+002, 9.489024e+001
7.951805e+002, 9.628201e+001
7.956626e+002, 9.744199e+001
7.961447e+002, 9.823687e+001
7.966268e+002, 9.888646e+001
7.971089e+002, 9.924747e+001
7.975911e+002, 9.963067e+001
7.980732e+002, 1.003836e+002
7.985553e+002, 1.016603e+002
7.990374e+002, 1.029691e+002
7.995195e+002, 1.042873e+002
8.000016e+002, 1.056309e+002
8.004838e+002, 1.069859e+002
8.009659e+002, 1.083908e+002
8.014480e+002, 1.101395e+002
8.019301e+002, 1.123399e+002
8.024122e+002, 1.146404e+002
8.028943e+002, 1.166030e+002
8.033765e+002, 1.184654e+002
8.038586e+002, 1.205745e+002
8.043407e+002, 1.231194e+002
8.048228e+002, 1.257147e+002
8.053049e+002, 1.281206e+002
8.057870e+002, 1.306652e+002
8.062692e+002, 1.336758e+002
8.067513e+002, 1.371761e+002
8.072334e+002, 1.410671e+002
8.077155e+002, 1.453136e+002
8.081976e+002, 1.499088e+002
8.086797e+002, 1.547468e+002
8.091619e+002, 1.599073e+002
8.096440e+002, 1.655019e+002
8.101261e+002, 1.713867e+002
8.106082e+002, 1.783920e+002
8.110903e+002, 1.870471e+002
8.115724e+002, 1.971137e+002
8.120546e+002, 2.082873e+002
8.125367e+002, 2.201628e+002
8.130188e+002, 2.338602e+002
8.135009e+002, 2.498620e+002
8.139830e+002, 2.672370e+002
8.144651e+002, 2.847748e+002
8.149473e+002, 3.025870e+002
8.154294e+002, 3.211633e+002
8.159115e+002, 3.406675e+002
8.163936e+002, 3.609151e+002
8.168757e+002, 3.814471e+002
8.173578e+002, 4.025894e+002
8.178400e+002, 4.255052e+002
8.183221e+002, 4.509876e+002
8.188042e+002, 4.766046e+002
8.192863e+002, 4.978492e+002
8.197684e+002, 5.205438e+002
8.202505e+002, 5.506204e+002
8.207327e+002, 5.892391e+002
8.212148e+002, 6.310616e+002
8.216969e+002, 6.742197e+002
8.221790e+002, 7.244224e+002
8.226611e+002, 7.870012e+002
8.231432e+002, 8.617385e+002
8.236254e+002, 9.435802e+002
8.241075e+002, 1.032888e+003
8.245896e+002, 1.124641e+003
8.250717e+002, 1.222040e+003
8.255538e+002, 1.314635e+003
8.260359e+002, 1.394385e+003
8.265181e+002, 1.468995e+003
8.270002e+002, 1.497756e+003
8.274823e+002, 1.456645e+003
8.279644e+002, 1.377611e+003
8.284465e+002, 1.275074e+003
8.289286e+002, 1.144807e+003
8.294108e+002, 1.013267e+003
8.298929e+002, 8.789163e+002
8.303750e+002, 7.533432e+002
8.308571e+002, 6.460731e+002
8.313392e+002, 5.561289e+002
8.318214e+002, 4.813077e+002
8.323035e+002, 4.222021e+002
8.327856e+002, 3.731069e+002
8.332677e+002, 3.338140e+002
8.337498e+002, 3.015156e+002
8.342319e+002, 2.746974e+002
8.347141e+002, 2.542219e+002
8.351962e+002, 2.358396e+002
8.356783e+002, 2.197386e+002
8.361604e+002, 2.054618e+002
8.366425e+002, 1.930517e+002
8.371246e+002, 1.824536e+002
8.376068e+002, 1.728988e+002
8.380889e+002, 1.643853e+002
8.385710e+002, 1.567827e+002
8.390531e+002, 1.502619e+002
8.395352e+002, 1.444340e+002
8.400173e+002, 1.388878e+002
8.404995e+002, 1.335518e+002
8.409816e+002, 1.287316e+002
8.414637e+002, 1.247278e+002
8.419458e+002, 1.210814e+002
8.424279e+002, 1.174933e+002
8.429100e+002, 1.139721e+002
8.433922e+002, 1.111356e+002
8.438743e+002, 1.091147e+002
8.443564e+002, 1.070565e+002
8.448385e+002, 1.041359e+002
8.453206e+002, 1.008900e+002
8.458027e+002, 9.874939e+001
8.462849e+002, 9.754754e+001
8.467670e+002, 9.640883e+001
8.472491e+002, 9.479894e+001
8.477312e+002, 9.315346e+001
8.482133e+002, 9.168929e+001
8.486954e+002, 9.041256e+001
8.491776e+002, 8.927110e+001
8.496597e+002, 8.831014e+001
8.501418e+002, 8.736547e+001
8.506239e+002, 8.636155e+001
8.511060e+002, 8.535609e+001
8.515881e+002, 8.460795e+001
8.520703e+002, 8.408658e+001
8.525524e+002, 8.352869e+001
8.530345e+002, 8.277578e+001
8.535166e+002, 8.196190e+001
8.539987e+002, 8.099328e+001
8.544808e+002, 8.005384e+001
8.549630e+002, 7.961065e+001
8.554451e+002, 8.068763e+001
8.559272e+002, 8.116697e+001
8.564093e+002, 8.034840e+001
8.568914e+002, 7.882054e+001
8.573735e+002, 7.792735e+001
8.578557e+002, 7.772155e+001
8.583378e+002, 7.746317e+001
8.588199e+002, 7.690441e+001
8.593020e+002, 7.630117e+001
8.597841e+002, 7.607643e+001
8.602662e+002, 7.609255e+001
8.607484e+002, 7.607727e+001
8.612305e+002, 7.599502e+001
8.617126e+002, 7.578024e+001
8.621947e+002, 7.525366e+001
8.626768e+002, 7.464720e+001
8.631589e+002, 7.432618e+001
8.636411e+002, 7.449325e+001
8.641232e+002, 7.429279e+001
8.646053e+002, 7.350411e+001
8.650874e+002, 7.267821e+001
8.655695e+002, 7.271236e+001
8.660516e+002, 7.331245e+001
8.665338e+002, 7.349482e+001
8.670159e+002, 7.299814e+001
8.674980e+002, 7.248586e+001
8.679801e+002, 7.249090e+001
8.684622e+002, 7.267203e+001
8.689443e+002, 7.266714e+001
8.694265e+002, 7.221262e+001
8.699086e+002, 7.211458e+001
8.703907e+002, 7.251225e+001
8.708728e+002, 7.305132e+001
8.713549e+002, 7.353160e+001
8.718370e+002, 7.393239e+001
8.723192e+002, 7.388777e+001
8.728013e+002, 7.337416e+001
8.732834e+002, 7.291302e+001
8.737655e+002, 7.308936e+001
8.742476e+002, 7.342764e+001
8.747297e+002, 7.336222e+001
8.752119e+002, 7.282645e+001
8.756940e+002, 7.255553e+001
8.761761e+002, 7.292322e+001
8.766582e+002, 7.339692e+001
8.771403e+002, 7.379809e+001
8.776224e+002, 7.412821e+001
8.781046e+002, 7.443171e+001
8.785867e+002, 7.471303e+001
8.790688e+002, 7.486618e+001
8.795509e+002, 7.468124e+001
8.800330e+002, 7.441359e+001
8.805151e+002, 7.443979e+001
8.809973e+002, 7.470996e+001
8.814794e+002, 7.502532e+001
8.819615e+002, 7.532746e+001
8.824436e+002, 7.563596e+001
8.829257e+002, 7.597234e+001
8.834078e+002, 7.631775e+001
8.838900e+002, 7.663081e+001
8.843721e+002, 7.690359e+001
8.848542e+002, 7.715443e+001
8.853363e+002, 7.729996e+001
8.858184e+002, 7.757092e+001
8.863005e+002, 7.861398e+001
8.867827e+002, 8.010945e+001
8.872648e+002, 8.121535e+001
8.877469e+002, 8.139832e+001
8.882290e+002, 8.147246e+001
8.887111e+002, 8.178503e+001
8.891932e+002, 8.220142e+001
8.896754e+002, 8.250111e+001
8.901575e+002, 8.252737e+001
8.906396e+002, 8.287181e+001
8.911217e+002, 8.366940e+001
8.916038e+002, 8.457591e+001
8.920859e+002, 8.503146e+001
8.925681e+002, 8.524909e+001
8.930502e+002, 8.595800e+001
8.935323e+002, 8.732932e+001
8.940144e+002, 8.874035e+001
8.944965e+002, 9.002512e+001
8.949786e+002, 9.096798e+001
8.954608e+002, 9.123461e+001
8.959429e+002, 9.040757e+001
8.964250e+002, 9.047627e+001
8.969071e+002, 9.187696e+001
8.973892e+002, 9.329526e+001
8.978713e+002, 9.366216e+001
8.983535e+002, 9.320847e+001
8.988356e+002, 9.335463e+001
8.993177e+002, 9.406714e+001
8.997998e+002, 9.471065e+001
9.002819e+002, 9.475313e+001
9.007640e+002, 9.465257e+001
9.012462e+002, 9.484077e+001
9.017283e+002, 9.527747e+001
9.022104e+002, 9.537424e+001
9.026925e+002, 9.483480e+001
9.031746e+002, 9.437788e+001
9.036567e+002, 9.428866e+001
9.041389e+002, 9.438789e+001
9.046210e+002, 9.410360e+001
9.051031e+002, 9.345525e+001
9.055852e+002, 9.260390e+001
9.060673e+002, 9.150973e+001
9.065494e+002, 9.038581e+001
9.070316e+002, 8.933230e+001
9.075137e+002, 8.840862e+001
9.079958e+002, 8.770694e+001
9.084779e+002, 8.757303e+001
9.089600e+002, 8.723043e+001
9.094421e+002, 8.656939e+001
9.099243e+002, 8.572363e+001
9.104064e+002, 8.481158e+001
9.108885e+002, 8.384355e+001
9.113706e+002, 8.292107e+001
9.118527e+002, 8.204880e+001
9.123348e+002, 8.129354e+001
9.128170e+002, 8.080880e+001
9.132991e+002, 8.042986e+001
9.137812e+002, 7.996768e+001
9.142633e+002, 7.937050e+001
9.147454e+002, 7.877595e+001
9.152275e+002, 7.815311e+001
9.157097e+002, 7.759985e+001
9.161918e+002, 7.719372e+001
9.166739e+002, 7.693209e+001
9.171560e+002, 7.663184e+001
9.176381e+002, 7.629485e+001
9.181202e+002, 7.596593e+001
9.186024e+002, 7.569462e+001
9.190845e+002, 7.543535e+001
9.195666e+002, 7.511935e+001
9.200487e+002, 7.476316e+001
9.205308e+002, 7.445395e+001
9.210129e+002, 7.434200e+001
9.214951e+002, 7.411402e+001
9.219772e+002, 7.359455e+001
9.224593e+002, 7.294345e+001
9.229414e+002, 7.268414e+001
9.234235e+002, 7.281087e+001
9.239056e+002, 7.296562e+001
9.243878e+002, 7.309261e+001
9.248699e+002, 7.307644e+001
9.253520e+002, 7.260366e+001
9.258341e+002, 7.195317e+001
9.263162e+002, 7.156536e+001
9.267983e+002, 7.179123e+001
9.272805e+002, 7.195010e+001
9.277626e+002, 7.197194e+001
9.282447e+002, 7.189413e+001
9.287268e+002, 7.177447e+001
9.292089e+002, 7.161636e+001
9.296910e+002, 7.116250e+001
9.301732e+002, 7.035461e+001
9.306553e+002, 6.976627e+001
9.311374e+002, 7.020576e+001
9.316195e+002, 7.098494e+001
9.321016e+002, 7.134200e+001
9.325837e+002, 7.117309e+001
9.330659e+002, 7.088685e+001
9.335480e+002, 7.045638e+001
9.340301e+002, 7.005220e+001
9.345122e+002, 6.967813e+001
9.349943e+002, 6.937636e+001
9.354764e+002, 6.957977e+001
9.359586e+002, 7.027308e+001
9.364407e+002, 7.084195e+001
9.369228e+002, 7.089861e+001
9.374049e+002, 7.076517e+001
9.378870e+002, 7.072083e+001
9.383691e+002, 7.075204e+001
9.388513e+002, 7.082899e+001
9.393334e+002, 7.106355e+001
9.398155e+002, 7.117480e+001
9.402976e+002, 7.106757e+001
9.407797e+002, 7.088661e+001
9.412618e+002, 7.083383e+001
9.417440e+002, 7.091041e+001
9.422261e+002, 7.118233e+001
9.427082e+002, 7.171934e+001
9.431903e+002, 7.213928e+001
9.436724e+002, 7.189067e+001
9.441545e+002, 7.143761e+001
9.446367e+002, 7.123291e+001
9.451188e+002, 7.134859e+001
9.456009e+002, 7.178703e+001
9.460830e+002, 7.286950e+001
9.465651e+002, 7.373937e+001
9.470472e+002, 7.379080e+001
9.475294e+002, 7.313744e+001
9.480115e+002, 7.266732e+001
9.484936e+002, 7.238341e+001
9.489757e+002, 7.236372e+001
9.494578e+002, 7.291373e+001
9.499399e+002, 7.352254e+001
9.504221e+002, 7.374443e+001
9.509042e+002, 7.368040e+001
9.513863e+002, 7.375329e+001
9.518684e+002, 7.410774e+001
9.523505e+002, 7.439221e+001
9.528326e+002, 7.445728e+001
9.533148e+002, 7.454404e+001
9.537969e+002, 7.528509e+001
9.542790e+002, 7.648830e+001
9.547611e+002, 7.729350e+001
9.552432e+002, 7.741357e+001
9.557253e+002, 7.734893e+001
9.562075e+002, 7.728653e+001
9.566896e+002, 7.731377e+001
9.571717e+002, 7.755392e+001
9.576538e+002, 7.813567e+001
9.581359e+002, 7.849041e+001
9.586180e+002, 7.850492e+001
9.591002e+002, 7.857388e+001
9.595823e+002, 7.911938e+001
9.600644e+002, 7.993168e+001
9.605465e+002, 8.027103e+001
9.610286e+002, 8.019585e+001
9.615107e+002, 8.024513e+001
9.619929e+002, 8.099790e+001
9.624750e+002, 8.168707e+001
9.629571e+002, 8.172787e+001
9.634392e+002, 8.135926e+001
9.639213e+002, 8.151268e+001
9.644034e+002, 8.232584e+001
9.648856e+002, 8.309707e+001
9.653677e+002, 8.363042e+001
9.658498e+002, 8.410452e+001
9.663319e+002, 8.482198e+001
9.668140e+002, 8.569893e+001
9.672961e+002, 8.652795e+001
9.677783e+002, 8.720307e+001
9.682604e+002, 8.798736e+001
9.687425e+002, 8.895183e+001
9.692246e+002, 9.010404e+001
9.697067e+002, 9.147093e+001
9.701888e+002, 9.304393e+001
9.706710e+002, 9.461288e+001
9.711531e+002, 9.610763e+001
9.716352e+002, 9.814551e+001
9.721173e+002, 1.018896e+002
9.725994e+002, 1.059976e+002
9.730815e+002, 1.083826e+002
9.735637e+002, 1.093401e+002
9.740458e+002, 1.109866e+002
9.745279e+002, 1.143834e+002
9.750100e+002, 1.181363e+002
9.754921e+002, 1.218709e+002
9.759742e+002, 1.257621e+002
9.764564e+002, 1.302908e+002
9.769385e+002, 1.354749e+002
9.774206e+002, 1.408836e+002
9.779027e+002, 1.461936e+002
9.783848e+002, 1.521840e+002
9.788669e+002, 1.600691e+002
9.793491e+002, 1.688980e+002
9.798312e+002, 1.774813e+002
9.803133e+002, 1.850908e+002
9.807954e+002, 1.938395e+002
9.812775e+002, 2.040122e+002
9.817596e+002, 2.151017e+002
9.822418e+002, 2.267831e+002
9.827239e+002, 2.391615e+002
9.832060e+002, 2.526870e+002
9.836881e+002, 2.673901e+002
9.841702e+002, 2.835179e+002
9.846523e+002, 3.015766e+002
9.851345e+002, 3.207552e+002
9.856166e+002, 3.410938e+002
9.860987e+002, 3.623305e+002
9.865808e+002, 3.837941e+002
9.870629e+002, 4.061952e+002
9.875450e+002, 4.265854e+002
9.880272e+002, 4.445460e+002
9.885093e+002, 4.599650e+002
9.889914e+002, 4.732506e+002
9.894735e+002, 4.835909e+002
9.899556e+002, 4.888189e+002
9.904377e+002, 4.878612e+002
9.909199e+002, 4.844572e+002
9.914020e+002, 4.786952e+002
9.918841e+002, 4.721894e+002
9.923662e+002, 4.659290e+002
9.928483e+002, 4.600181e+002
9.933304e+002, 4.540533e+002
9.938126e+002, 4.480015e+002
9.942947e+002, 4.424497e+002
9.947768e+002, 4.378502e+002
9.952589e+002, 4.338925e+002
9.957410e+002, 4.311444e+002
9.962231e+002, 4.287202e+002
9.967053e+002, 4.240172e+002
9.971874e+002, 4.171772e+002
9.976695e+002, 4.065409e+002
9.981516e+002, 3.914242e+002
9.986337e+002, 3.730370e+002
9.991158e+002, 3.519830e+002
9.995980e+002, 3.285687e+002
1.000080e+003, 3.062027e+002
1.000562e+003, 2.849834e+002
1.001044e+003, 2.656528e+002
1.001526e+003, 2.481406e+002
1.002009e+003, 2.328755e+002
1.002491e+003, 2.205637e+002
1.002973e+003, 2.113103e+002
1.003455e+003, 2.039920e+002
1.003937e+003, 1.989367e+002
1.004419e+003, 1.948825e+002
1.004901e+003, 1.917297e+002
1.005383e+003, 1.887464e+002
1.005865e+003, 1.846364e+002
1.006348e+003, 1.793150e+002
1.006830e+003, 1.724075e+002
1.007312e+003, 1.626694e+002
1.007794e+003, 1.527446e+002
1.008276e+003, 1.423920e+002
1.008758e+003, 1.327978e+002
1.009240e+003, 1.252813e+002
1.009722e+003, 1.200399e+002
1.010205e+003, 1.153212e+002
1.010687e+003, 1.109789e+002
1.011169e+003, 1.069962e+002
1.011651e+003, 1.031410e+002
1.012133e+003, 9.971085e+001
1.012615e+003, 9.708330e+001
1.013097e+003, 9.526533e+001
1.013579e+003, 9.364940e+001
1.014061e+003, 9.223244e+001
1.014544e+003, 9.083366e+001
1.015026e+003, 8.941000e+001
1.015508e+003, 8.798174e+001
1.015990e+003, 8.649120e+001
1.016472e+003, 8.499597e+001
1.016954e+003, 8.374753e+001
1.017436e+003, 8.285564e+001
1.017918e+003, 8.210977e+001
1.018401e+003, 8.142059e+001
1.018883e+003, 8.078649e+001
1.019365e+003, 8.019302e+001
1.019847e+003, 7.963209e+001
1.020329e+003, 7.918518e+001
1.020811e+003, 7.889497e+001
1.021293e+003, 7.848845e+001
1.021775e+003, 7.761938e+001
1.022257e+003, 7.659562e+001
1.022740e+003, 7.585850e+001
1.023222e+003, 7.538403e+001
1.023704e+003, 7.504732e+001
1.024186e+003, 7.501994e+001
1.024668e+003, 7.483581e+001
1.025150e+003, 7.432811e+001
1.025632e+003, 7.368788e+001
1.026114e+003, 7.317310e+001
1.026596e+003, 7.280161e+001
1.027079e+003, 7.275964e+001
1.027561e+003, 7.313255e+001
1.028043e+003, 7.336777e+001
1.028525e+003, 7.286446e+001
1.029007e+003, 7.213618e+001
1.029489e+003, 7.161775e+001
1.029971e+003, 7.136043e+001
1.030453e+003, 7.110113e+001
1.030936e+003, 7.081590e+001
1.031418e+003, 7.061720e+001
1.031900e+003, 7.059663e+001
1.032382e+003, 7.063997e+001
1.032864e+003, 7.052164e+001
1.033346e+003, 7.028590e+001
1.033828e+003, 7.003896e+001
1.034310e+003, 6.981270e+001
1.034792e+003, 6.958921e+001
1.035275e+003, 6.933134e+001
1.035757e+003, 6.910413e+001
1.036239e+003, 6.898264e+001
1.036721e+003, 6.896812e+001
1.037203e+003, 6.891669e+001
1.037685e+003, 6.882509e+001
1.038167e+003, 6.865222e+001
1.038649e+003, 6.820261e+001
1.039132e+003, 6.780178e+001
1.039614e+003, 6.780644e+001
1.040096e+003, 6.812170e+001
1.040578e+003, 6.819182e+001
1.041060e+003, 6.785003e+001
1.041542e+003, 6.765730e+001
1.042024e+003, 6.777419e+001
1.042506e+003, 6.795248e+001
1.042989e+003, 6.777760e+001
1.043471e+003, 6.739013e+001
1.043953e+003, 6.702914e+001
1.044435e+003, 6.669077e+001
1.044917e+003, 6.666107e+001
1.045399e+003, 6.749630e+001
1.045881e+003, 6.820629e+001
1.046363e+003, 6.821925e+001
1.046845e+003, 6.764481e+001
1.047328e+003, 6.737235e+001
1.047810e+003, 6.738319e+001
1.048292e+003, 6.740058e+001
1.048774e+003, 6.732698e+001
1.049256e+003, 6.716950e+001
1.049738e+003, 6.680635e+001
1.050220e+003, 6.640582e+001
1.050702e+003, 6.626144e+001
1.051184e+003, 6.656970e+001
1.051667e+003, 6.668787e+001
1.052149e+003, 6.656697e+001
1.052631e+003, 6.637258e+001
1.053113e+003, 6.614477e+001
1.053595e+003, 6.598542e+001
1.054077e+003, 6.622253e+001
1.054559e+003, 6.678182e+001
1.055041e+003, 6.711103e+001
1.055523e+003, 6.673438e+001
1.056006e+003, 6.640466e+001
1.056488e+003, 6.637221e+001
1.056970e+003, 6.647542e+001
1.057452e+003, 6.639058e+001
1.057934e+003, 6.613257e+001
1.058416e+003, 6.580555e+001
1.058898e+003, 6.540978e+001
1.059380e+003, 6.507842e+001
1.059863e+003, 6.497100e+001
1.060345e+003, 6.494330e+001
1.060827e+003, 6.489577e+001
1.061309e+003, 6.482191e+001
1.061791e+003, 6.461320e+001
1.062273e+003, 6.417450e+001
1.062755e+003, 6.409483e+001
1.063237e+003, 6.489547e+001
1.063719e+003, 6.584311e+001
1.064202e+003, 6.565837e+001
1.064684e+003, 6.480637e+001
1.065166e+003, 6.417925e+001
1.065648e+003, 6.425603e+001
1.066130e+003, 6.419499e+001
1.066612e+003, 6.378959e+001
1.067094e+003, 6.340240e+001
1.067576e+003, 6.332085e+001
1.068059e+003, 6.351637e+001
1.068541e+003, 6.393754e+001
1.069023e+003, 6.453763e+001
1.069505e+003, 6.495535e+001
1.069987e+003, 6.479866e+001
1.070469e+003, 6.458731e+001
1.070951e+003, 6.464705e+001
1.071433e+003, 6.481738e+001
1.071916e+003, 6.475839e+001
1.072398e+003, 6.442765e+001
1.072880e+003, 6.425081e+001
1.073362e+003, 6.429173e+001
1.073844e+003, 6.445509e+001
1.074326e+003, 6.480695e+001
1.074808e+003, 6.512352e+001
1.075290e+003, 6.513699e+001
1.075772e+003, 6.482201e+001
1.076255e+003, 6.447478e+001
1.076737e+003, 6.403477e+001
1.077219e+003, 6.378889e+001
1.077701e+003, 6.390668e+001
1.078183e+003, 6.416161e+001
1.078665e+003, 6.401414e+001
1.079147e+003, 6.366514e+001
1.079629e+003, 6.361451e+001
1.080111e+003, 6.411675e+001
1.080594e+003, 6.455403e+001
1.081076e+003, 6.471226e+001
1.081558e+003, 6.473299e+001
1.082040e+003, 6.465136e+001
1.082522e+003, 6.448338e+001
1.083004e+003, 6.441774e+001
1.083486e+003, 6.444344e+001
1.083968e+003, 6.446321e+001
1.084450e+003, 6.434327e+001
1.084933e+003, 6.428819e+001
1.085415e+003, 6.456599e+001
1.085897e+003, 6.493354e+001
1.086379e+003, 6.496774e+001
1.086861e+003, 6.449833e+001
1.087343e+003, 6.441508e+001
1.087825e+003, 6.481271e+001
1.088307e+003, 6.522952e+001
1.088790e+003, 6.519576e+001
1.089272e+003, 6.499732e+001
1.089754e+003, 6.504618e+001
1.090236e+003, 6.528196e+001
1.090718e+003, 6.525992e+001
1.091200e+003, 6.460062e+001
1.091682e+003, 6.425192e+001
1.092164e+003, 6.446574e+001
1.092646e+003, 6.488590e+001
1.093129e+003, 6.498867e+001
1.093611e+003, 6.486111e+001
1.094093e+003, 6.466290e+001
1.094575e+003, 6.440303e+001
1.095057e+003, 6.432430e+001
1.095539e+003, 6.475128e+001
1.096021e+003, 6.515014e+001
1.096503e+003, 6.528522e+001
1.096986e+003, 6.521578e+001
1.097468e+003, 6.517897e+001
1.097950e+003, 6.516175e+001
1.098432e+003, 6.503869e+001
1.098914e+003, 6.471738e+001
1.099396e+003, 6.442242e+001
1.099878e+003, 6.425143e+001
1.100360e+003, 6.423550e+001
1.100843e+003, 6.447673e+001
1.101325e+003, 6.503300e+001
1.101807e+003, 6.516337e+001
1.102289e+003, 6.483040e+001
1.102771e+003, 6.448323e+001
1.103253e+003, 6.436403e+001
1.103735e+003, 6.437814e+001
1.104217e+003, 6.448992e+001
1.104699e+003, 6.463724e+001
1.105182e+003, 6.469877e+001
1.105664e+003, 6.454899e+001
1.106146e+003, 6.451857e+001
1.106628e+003, 6.466003e+001
1.107110e+003, 6.480248e+001
1.107592e+003, 6.479245e+001
1.108074e+003, 6.467452e+001
1.108556e+003, 6.447453e+001
1.109038e+003, 6.423312e+001
1.109521e+003, 6.413808e+001
1.110003e+003, 6.445203e+001
1.110485e+003, 6.465005e+001
1.110967e+003, 6.451623e+001
1.111449e+003, 6.434624e+001
1.111931e+003, 6.473576e+001
1.112413e+003, 6.550677e+001
1.112895e+003, 6.584402e+001
1.113377e+003, 6.565123e+001
1.113860e+003, 6.520510e+001
1.114342e+003, 6.427044e+001
1.114824e+003, 6.354817e+001
1.115306e+003, 6.356329e+001
1.115788e+003, 6.406246e+001
1.116270e+003, 6.422849e+001
1.116752e+003, 6.406879e+001
1.117234e+003, 6.390575e+001
1.117717e+003, 6.381477e+001
1.118199e+003, 6.376585e+001
1.118681e+003, 6.377258e+001
1.119163e+003, 6.378013e+001
1.119645e+003, 6.371408e+001
1.120127e+003, 6.356598e+001
1.120609e+003, 6.352079e+001
1.121091e+003, 6.359308e+001
1.121573e+003, 6.367483e+001
1.122056e+003, 6.372970e+001
1.122538e+003, 6.375526e+001
1.123020e+003, 6.369819e+001
1.123502e+003, 6.362933e+001
1.123984e+003, 6.368700e+001
1.124466e+003, 6.410811e+001
1.124948e+003, 6.409175e+001
1.125430e+003, 6.345978e+001
1.125913e+003, 6.283450e+001
1.126395e+003, 6.266899e+001
1.126877e+003, 6.278609e+001
1.127359e+003, 6.280361e+001
1.127841e+003, 6.275993e+001
1.128323e+003, 6.276028e+001
1.128805e+003, 6.294580e+001
1.129287e+003, 6.302037e+001
1.129770e+003, 6.287659e+001
1.130252e+003, 6.272105e+001
1.130734e+003, 6.286085e+001
1.131216e+003, 6.316212e+001
1.131698e+003, 6.297849e+001
1.132180e+003, 6.235981e+001
1.132662e+003, 6.186713e+001
1.133144e+003, 6.183437e+001
1.133626e+003, 6.194828e+001
1.134109e+003, 6.217223e+001
1.134591e+003, 6.240530e+001
1.135073e+003, 6.248635e+001
1.135555e+003, 6.242476e+001
1.136037e+003, 6.231155e+001
1.136519e+003, 6.215357e+001
1.137001e+003, 6.208437e+001
1.137483e+003, 6.238310e+001
1.137965e+003, 6.262875e+001
1.138448e+003, 6.247685e+001
1.138930e+003, 6.206002e+001
1.139412e+003, 6.172520e+001
1.139894e+003, 6.146156e+001
1.140376e+003, 6.154375e+001
1.140858e+003, 6.210573e+001
1.141340e+003, 6.261199e+001
1.141822e+003, 6.247334e+001
1.142304e+003, 6.211446e+001
1.142787e+003, 6.196611e+001
1.143269e+003, 6.205019e+001
1.143751e+003, 6.179074e+001
1.144233e+003, 6.107831e+001
1.144715e+003, 6.065468e+001
1.145197e+003, 6.084890e+001
1.145679e+003, 6.127158e+001
1.146161e+003, 6.152441e+001
1.146644e+003, 6.164693e+001
1.147126e+003, 6.165160e+001
1.147608e+003, 6.145502e+001
1.148090e+003, 6.156342e+001
1.148572e+003, 6.212939e+001
1.149054e+003, 6.252999e+001
1.149536e+003, 6.237169e+001
1.150018e+003, 6.196960e+001
1.150500e+003, 6.188588e+001
1.150983e+003, 6.197567e+001
1.151465e+003, 6.193956e+001
1.151947e+003, 6.157279e+001
1.152429e+003, 6.133552e+001
1.152911e+003, 6.125143e+001
1.153393e+003, 6.131104e+001
1.153875e+003, 6.162600e+001
1.154357e+003, 6.203596e+001
1.154840e+003, 6.187664e+001
1.155322e+003, 6.141267e+001
1.155804e+003, 6.149025e+001
1.156286e+003, 6.317917e+001
1.156768e+003, 6.439239e+001
1.157250e+003, 6.487177e+001
1.157732e+003, 6.478957e+001
1.158214e+003, 6.411057e+001
1.158697e+003, 6.299618e+001
1.159179e+003, 6.206429e+001
1.159661e+003, 6.135078e+001
1.160143e+003, 6.097046e+001
1.160625e+003, 6.123289e+001
1.161107e+003, 6.153203e+001
1.161589e+003, 6.177613e+001
1.162071e+003, 6.187536e+001
1.162553e+003, 6.162990e+001
1.163036e+003, 6.110199e+001
1.163518e+003, 6.067212e+001
1.164000e+003, 6.037635e+001
1.164482e+003, 6.035723e+001
1.164964e+003, 6.105855e+001
1.165446e+003, 6.166527e+001
1.165928e+003, 6.179921e+001
1.166410e+003, 6.158173e+001
1.166892e+003, 6.105459e+001
1.167375e+003, 6.026458e+001
1.167857e+003, 6.000951e+001
1.168339e+003, 6.040689e+001
1.168821e+003, 6.096262e+001
1.169303e+003, 6.165339e+001
1.169785e+003, 6.206480e+001
1.170267e+003, 6.165890e+001
1.170749e+003, 6.080761e+001
1.171231e+003, 6.058759e+001
1.171714e+003, 6.099156e+001
1.172196e+003, 6.135131e+001
1.172678e+003, 6.152980e+001
1.173160e+003, 6.162456e+001
1.173642e+003, 6.162408e+001
1.174124e+003, 6.164714e+001
1.174606e+003, 6.187485e+001
1.175088e+003, 6.224037e+001
1.175571e+003, 6.231194e+001
1.176053e+003, 6.208042e+001
1.176535e+003, 6.169466e+001
1.177017e+003, 6.109388e+001
1.177499e+003, 6.070427e+001
1.177981e+003, 6.123740e+001
1.178463e+003, 6.196943e+001
1.178945e+003, 6.212341e+001
1.179427e+003, 6.166661e+001
1.179910e+003, 6.147576e+001
1.180392e+003, 6.158773e+001
1.180874e+003, 6.154823e+001
1.181356e+003, 6.109037e+001
1.181838e+003, 6.063922e+001
1.182320e+003, 6.067157e+001
1.182802e+003, 6.095358e+001
1.183284e+003, 6.124689e+001
1.183767e+003, 6.154143e+001
1.184249e+003, 6.170445e+001
1.184731e+003, 6.172944e+001
1.185213e+003, 6.167101e+001
1.185695e+003, 6.151546e+001
1.186177e+003, 6.135258e+001
1.186659e+003, 6.122306e+001
1.187141e+003, 6.118274e+001
1.187624e+003, 6.136703e+001
1.188106e+003, 6.193607e+001
1.188588e+003, 6.210021e+001
1.189070e+003, 6.178447e+001
1.189552e+003, 6.149444e+001
1.190034e+003, 6.158015e+001
1.190516e+003, 6.178425e+001
1.190998e+003, 6.177055e+001
1.191480e+003, 6.165027e+001
1.191963e+003, 6.161306e+001
1.192445e+003, 6.169238e+001
1.192927e+003, 6.178799e+001
1.193409e+003, 6.182965e+001
1.193891e+003, 6.221582e+001
1.194373e+003, 6.396004e+001
1.194855e+003, 6.565093e+001
1.195337e+003, 6.500614e+001
1.195819e+003, 6.293377e+001
1.196302e+003, 6.144551e+001
1.196784e+003, 6.099150e+001
1.197266e+003, 6.084524e+001
1.197748e+003, 6.105608e+001
1.198230e+003, 6.131055e+001
1.198712e+003, 6.127513e+001
1.199194e+003, 6.119279e+001
1.199676e+003, 6.147939e+001
1.200158e+003, 6.198664e+001
1.200641e+003, 6.229411e+001
1.201123e+003, 6.230723e+001
1.201605e+003, 6.214542e+001
1.202087e+003, 6.174629e+001
1.202569e+003, 6.145340e+001
1.203051e+003, 6.175049e+001
1.203533e+003, 6.222231e+001
1.204015e+003, 6.230522e+001
1.204498e+003, 6.207509e+001
1.204980e+003, 6.185152e+001
1.205462e+003, 6.160582e+001
1.205944e+003, 6.158028e+001
1.206426e+003, 6.184687e+001
1.206908e+003, 6.213097e+001
1.207390e+003, 6.212254e+001
1.207872e+003, 6.199708e+001
1.208354e+003, 6.196196e+001
1.208837e+003, 6.201637e+001
1.209319e+003, 6.211556e+001
1.209801e+003, 6.229952e+001
1.210283e+003, 6.238654e+001
1.210765e+003, 6.233052e+001
1.211247e+003, 6.227139e+001
1.211729e+003, 6.245300e+001
1.212211e+003, 6.265232e+001
1.212694e+003, 6.251140e+001
1.213176e+003, 6.208884e+001
1.213658e+003, 6.184106e+001
1.214140e+003, 6.184073e+001
1.214622e+003, 6.192118e+001
1.215104e+003, 6.208340e+001
1.215586e+003, 6.221869e+001
1.216068e+003, 6.217533e+001
1.216551e+003, 6.206306e+001
1.217033e+003, 6.198412e+001
1.217515e+003, 6.195710e+001
1.217997e+003, 6.204971e+001
1.218479e+003, 6.231354e+001
1.218961e+003, 6.251284e+001
1.219443e+003, 6.260438e+001
1.219925e+003, 6.264155e+001
1.220407e+003, 6.266168e+001
1.220890e+003, 6.267608e+001
1.221372e+003, 6.271840e+001
1.221854e+003, 6.277578e+001
1.222336e+003, 6.272746e+001
1.222818e+003, 6.252280e+001
1.223300e+003, 6.242388e+001
1.223782e+003, 6.250753e+001
1.224264e+003, 6.258731e+001
1.224746e+003, 6.236195e+001
1.225229e+003, 6.209467e+001
1.225711e+003, 6.210628e+001
1.226193e+003, 6.238771e+001
1.226675e+003, 6.248136e+001
1.227157e+003, 6.230365e+001
1.227639e+003, 6.245809e+001
1.228121e+003, 6.316997e+001
1.228603e+003, 6.377210e+001
1.229085e+003, 6.328933e+001
1.229568e+003, 6.255412e+001
1.230050e+003, 6.244746e+001
1.230532e+003, 6.293319e+001
1.231014e+003, 6.305756e+001
1.231496e+003, 6.276402e+001
1.231978e+003, 6.262801e+001
1.232460e+003, 6.280567e+001
1.232942e+003, 6.304630e+001
1.233425e+003, 6.313823e+001
1.233907e+003, 6.316182e+001
1.234389e+003, 6.315932e+001
1.234871e+003, 6.314918e+001
1.235353e+003, 6.325658e+001
1.235835e+003, 6.349320e+001
1.236317e+003, 6.355048e+001
1.236799e+003, 6.333413e+001
1.237281e+003, 6.303729e+001
1.237764e+003, 6.270465e+001
1.238246e+003, 6.245889e+001
1.238728e+003, 6.246318e+001
1.239210e+003, 6.264298e+001
1.239692e+003, 6.267503e+001
1.240174e+003, 6.256890e+001
1.240656e+003, 6.263168e+001
1.241138e+003, 6.297492e+001
1.241621e+003, 6.325613e+001
1.242103e+003, 6.308250e+001
1.242585e+003, 6.289294e+001
1.243067e+003, 6.304721e+001
1.243549e+003, 6.340652e+001
1.244031e+003, 6.338853e+001
1.244513e+003, 6.305466e+001
1.244995e+003, 6.290960e+001
1.245478e+003, 6.308801e+001
1.245960e+003, 6.334653e+001
1.246442e+003, 6.370828e+001
1.246924e+003, 6.391105e+001
1.247406e+003, 6.377449e+001
1.247888e+003, 6.342418e+001
1.248370e+003, 6.326980e+001
1.248852e+003, 6.325551e+001
1.249334e+003, 6.308059e+001
1.249817e+003, 6.262299e+001
1.250299e+003, 6.239856e+001
1.250781e+003, 6.300087e+001
1.251263e+003, 6.346413e+001
1.251745e+003, 6.329588e+001
1.252227e+003, 6.284162e+001
1.252709e+003, 6.303467e+001
1.253191e+003, 6.364770e+001
1.253673e+003, 6.400787e+001
1.254156e+003, 6.395018e+001
1.254638e+003, 6.388001e+001
1.255120e+003, 6.396123e+001
1.255602e+003, 6.399615e+001
1.256084e+003, 6.391817e+001
1.256566e+003, 6.375721e+001
1.257048e+003, 6.343034e+001
1.257530e+003, 6.310869e+001
1.258012e+003, 6.323738e+001
1.258495e+003, 6.395593e+001
1.258977e+003, 6.439372e+001
1.259459e+003, 6.433304e+001
1.259941e+003, 6.420173e+001
1.260423e+003, 6.411610e+001
1.260905e+003, 6.406564e+001
1.261387e+003, 6.400785e+001
1.261869e+003, 6.398766e+001
1.262352e+003, 6.411015e+001
1.262834e+003, 6.440286e+001
1.263316e+003, 6.453109e+001
1.263798e+003, 6.440276e+001
1.264280e+003, 6.444727e+001
1.264762e+003, 6.489916e+001
1.265244e+003, 6.523174e+001
1.265726e+003, 6.448065e+001
1.266208e+003, 6.347228e+001
1.266691e+003, 6.318277e+001
1.267173e+003, 6.369938e+001
1.267655e+003, 6.415929e+001
1.268137e+003, 6.458060e+001
1.268619e+003, 6.478185e+001
1.269101e+003, 6.466451e+001
1.269583e+003, 6.453481e+001
1.270065e+003, 6.476216e+001
1.270548e+003, 6.504349e+001
1.271030e+003, 6.505928e+001
1.271512e+003, 6.488085e+001
1.271994e+003, 6.484872e+001
1.272476e+003, 6.495966e+001
1.272958e+003, 6.497205e+001
1.273440e+003, 6.477866e+001
1.273922e+003, 6.488495e+001
1.274405e+003, 6.590434e+001
1.274887e+003, 6.711826e+001
1.275369e+003, 6.846093e+001
1.275851e+003, 6.949948e+001
1.276333e+003, 6.854412e+001
1.276815e+003, 6.607657e+001
1.277297e+003, 6.458982e+001
1.277779e+003, 6.459738e+001
1.278261e+003, 6.492292e+001
1.278744e+003, 6.515477e+001
1.279226e+003, 6.537841e+001
1.279708e+003, 6.570141e+001
1.280190e+003, 6.594149e+001
1.280672e+003, 6.556552e+001
1.281154e+003, 6.486646e+001
1.281636e+003, 6.466821e+001
1.282118e+003, 6.508138e+001
1.282600e+003, 6.537801e+001
1.283083e+003, 6.526295e+001
1.283565e+003, 6.514594e+001
1.284047e+003, 6.510912e+001
1.284529e+003, 6.512834e+001
1.285011e+003, 6.520538e+001
1.285493e+003, 6.529713e+001
1.285975e+003, 6.534512e+001
1.286457e+003, 6.534238e+001
1.286939e+003, 6.526330e+001
1.287422e+003, 6.505193e+001
1.287904e+003, 6.500731e+001
1.288386e+003, 6.523389e+001
1.288868e+003, 6.541930e+001
1.289350e+003, 6.502686e+001
1.289832e+003, 6.457954e+001
1.290314e+003, 6.471732e+001
1.290796e+003, 6.531317e+001
1.291279e+003, 6.553203e+001
1.291761e+003, 6.531754e+001
1.292243e+003, 6.533323e+001
1.292725e+003, 6.568455e+001
1.293207e+003, 6.604497e+001
1.293689e+003, 6.624578e+001
1.294171e+003, 6.626965e+001
1.294653e+003, 6.592300e+001
1.295135e+003, 6.547771e+001
1.295618e+003, 6.551042e+001
1.296100e+003, 6.593642e+001
1.296582e+003, 6.579526e+001
1.297064e+003, 6.504566e+001
1.297546e+003, 6.453816e+001
1.298028e+003, 6.503641e+001
1.298510e+003, 6.548084e+001
1.298992e+003, 6.550372e+001
1.299475e+003, 6.537734e+001
1.299957e+003, 6.542903e+001
1.300439e+003, 6.562589e+001
1.300921e+003, 6.593719e+001
1.301403e+003, 6.631667e+001
1.301885e+003, 6.654202e+001
##END=



