##NAMES=Metatorbernite
##RRUFFID=R070686
##IDEAL CHEMISTRY=Cu^2+^(U^6+^O_2_)_2_(PO_4_)_2_&#183;8H_2_O
##LOCALITY=Fichtelgebirge, Franconia, Bavaria, Germany
##OWNER=RRUFF
##SOURCE=Michael Scott
##DESCRIPTION=Green tabular crystals
##STATUS=The identification of this mineral has been confirmed by X-ray diffraction.
##URL=rruff.info/R070686
9.112140e+001, 0.000000e+000
9.160352e+001, 4.212300e+001
9.208563e+001, 4.087909e+001
9.256775e+001, 4.069933e+001
9.304987e+001, 4.201994e+001
9.353198e+001, 4.389783e+001
9.401410e+001, 4.563507e+001
9.449622e+001, 4.705137e+001
9.497833e+001, 4.815086e+001
9.546045e+001, 4.901390e+001
9.594257e+001, 4.966445e+001
9.642468e+001, 4.983194e+001
9.690680e+001, 4.956938e+001
9.738892e+001, 4.898357e+001
9.787103e+001, 4.803693e+001
9.835315e+001, 4.673760e+001
9.883527e+001, 4.519826e+001
9.931738e+001, 4.364480e+001
9.979950e+001, 4.205394e+001
1.002816e+002, 4.056974e+001
1.007637e+002, 3.907668e+001
1.012458e+002, 3.770668e+001
1.017280e+002, 3.660097e+001
1.022101e+002, 3.578290e+001
1.026922e+002, 3.516665e+001
1.031743e+002, 3.457879e+001
1.036564e+002, 3.394147e+001
1.041385e+002, 3.363019e+001
1.046207e+002, 3.397989e+001
1.051028e+002, 3.480286e+001
1.055849e+002, 3.546623e+001
1.060670e+002, 3.572932e+001
1.065491e+002, 3.576043e+001
1.070313e+002, 3.580766e+001
1.075134e+002, 3.590458e+001
1.079955e+002, 3.588497e+001
1.084776e+002, 3.552929e+001
1.089597e+002, 3.475731e+001
1.094418e+002, 3.399506e+001
1.099240e+002, 3.336502e+001
1.104061e+002, 3.278829e+001
1.108882e+002, 3.222319e+001
1.113703e+002, 3.165489e+001
1.118524e+002, 3.107657e+001
1.123345e+002, 3.047654e+001
1.128167e+002, 2.991641e+001
1.132988e+002, 2.923583e+001
1.137809e+002, 2.828395e+001
1.142630e+002, 2.723488e+001
1.147451e+002, 2.630027e+001
1.152272e+002, 2.562353e+001
1.157094e+002, 2.518688e+001
1.161915e+002, 2.477474e+001
1.166736e+002, 2.434728e+001
1.171557e+002, 2.397354e+001
1.176378e+002, 2.368199e+001
1.181199e+002, 2.346637e+001
1.186021e+002, 2.330193e+001
1.190842e+002, 2.316796e+001
1.195663e+002, 2.307083e+001
1.200484e+002, 2.303269e+001
1.205305e+002, 2.308062e+001
1.210126e+002, 2.316845e+001
1.214948e+002, 2.324840e+001
1.219769e+002, 2.331073e+001
1.224590e+002, 2.340108e+001
1.229411e+002, 2.364371e+001
1.234232e+002, 2.398293e+001
1.239053e+002, 2.418985e+001
1.243875e+002, 2.414238e+001
1.248696e+002, 2.390086e+001
1.253517e+002, 2.363622e+001
1.258338e+002, 2.339091e+001
1.263159e+002, 2.308046e+001
1.267980e+002, 2.259468e+001
1.272802e+002, 2.197498e+001
1.277623e+002, 2.141844e+001
1.282444e+002, 2.111504e+001
1.287265e+002, 2.109404e+001
1.292086e+002, 2.102903e+001
1.296907e+002, 2.088638e+001
1.301729e+002, 2.069723e+001
1.306550e+002, 2.045488e+001
1.311371e+002, 2.016670e+001
1.316192e+002, 1.986385e+001
1.321013e+002, 1.958530e+001
1.325834e+002, 1.931671e+001
1.330656e+002, 1.910470e+001
1.335477e+002, 1.894917e+001
1.340298e+002, 1.883853e+001
1.345119e+002, 1.877999e+001
1.349940e+002, 1.877234e+001
1.354761e+002, 1.878659e+001
1.359583e+002, 1.875670e+001
1.364404e+002, 1.865028e+001
1.369225e+002, 1.853697e+001
1.374046e+002, 1.839734e+001
1.378867e+002, 1.825677e+001
1.383688e+002, 1.815467e+001
1.388510e+002, 1.811058e+001
1.393331e+002, 1.811247e+001
1.398152e+002, 1.812650e+001
1.402973e+002, 1.819464e+001
1.407794e+002, 1.821669e+001
1.412615e+002, 1.810902e+001
1.417437e+002, 1.790219e+001
1.422258e+002, 1.773202e+001
1.427079e+002, 1.767405e+001
1.431900e+002, 1.770310e+001
1.436721e+002, 1.774298e+001
1.441542e+002, 1.777951e+001
1.446364e+002, 1.784001e+001
1.451185e+002, 1.798944e+001
1.456006e+002, 1.825556e+001
1.460827e+002, 1.844017e+001
1.465648e+002, 1.839587e+001
1.470469e+002, 1.822881e+001
1.475291e+002, 1.801917e+001
1.480112e+002, 1.776743e+001
1.484933e+002, 1.751818e+001
1.489754e+002, 1.738168e+001
1.494575e+002, 1.742056e+001
1.499396e+002, 1.747094e+001
1.504218e+002, 1.749936e+001
1.509039e+002, 1.750043e+001
1.513860e+002, 1.746006e+001
1.518681e+002, 1.736039e+001
1.523502e+002, 1.721298e+001
1.528323e+002, 1.712446e+001
1.533145e+002, 1.721622e+001
1.537966e+002, 1.724945e+001
1.542787e+002, 1.714127e+001
1.547608e+002, 1.693558e+001
1.552429e+002, 1.671413e+001
1.557250e+002, 1.653049e+001
1.562072e+002, 1.637987e+001
1.566893e+002, 1.636213e+001
1.571714e+002, 1.661842e+001
1.576535e+002, 1.685059e+001
1.581356e+002, 1.692427e+001
1.586177e+002, 1.684852e+001
1.590999e+002, 1.671811e+001
1.595820e+002, 1.661591e+001
1.600641e+002, 1.654718e+001
1.605462e+002, 1.647515e+001
1.610283e+002, 1.637164e+001
1.615104e+002, 1.628380e+001
1.619926e+002, 1.624751e+001
1.624747e+002, 1.626743e+001
1.629568e+002, 1.632762e+001
1.634389e+002, 1.643592e+001
1.639210e+002, 1.658833e+001
1.644031e+002, 1.668659e+001
1.648853e+002, 1.668177e+001
1.653674e+002, 1.662244e+001
1.658495e+002, 1.656018e+001
1.663316e+002, 1.648068e+001
1.668137e+002, 1.646140e+001
1.672958e+002, 1.660583e+001
1.677780e+002, 1.687779e+001
1.682601e+002, 1.715792e+001
1.687422e+002, 1.742880e+001
1.692243e+002, 1.767240e+001
1.697064e+002, 1.778873e+001
1.701885e+002, 1.764270e+001
1.706707e+002, 1.752888e+001
1.711528e+002, 1.766655e+001
1.716349e+002, 1.801121e+001
1.721170e+002, 1.836862e+001
1.725991e+002, 1.855439e+001
1.730812e+002, 1.855560e+001
1.735634e+002, 1.866315e+001
1.740455e+002, 1.895602e+001
1.745276e+002, 1.931947e+001
1.750097e+002, 1.973750e+001
1.754918e+002, 2.019403e+001
1.759739e+002, 2.065276e+001
1.764561e+002, 2.106790e+001
1.769382e+002, 2.142672e+001
1.774203e+002, 2.179461e+001
1.779024e+002, 2.216528e+001
1.783845e+002, 2.254756e+001
1.788666e+002, 2.292175e+001
1.793488e+002, 2.329631e+001
1.798309e+002, 2.371989e+001
1.803130e+002, 2.425341e+001
1.807951e+002, 2.492377e+001
1.812772e+002, 2.566270e+001
1.817593e+002, 2.653041e+001
1.822415e+002, 2.741643e+001
1.827236e+002, 2.821747e+001
1.832057e+002, 2.891570e+001
1.836878e+002, 2.958793e+001
1.841699e+002, 3.034332e+001
1.846520e+002, 3.116992e+001
1.851342e+002, 3.214077e+001
1.856163e+002, 3.330819e+001
1.860984e+002, 3.459730e+001
1.865805e+002, 3.596954e+001
1.870626e+002, 3.742176e+001
1.875447e+002, 3.886439e+001
1.880269e+002, 4.013303e+001
1.885090e+002, 4.121540e+001
1.889911e+002, 4.223785e+001
1.894732e+002, 4.330409e+001
1.899553e+002, 4.431493e+001
1.904374e+002, 4.507884e+001
1.909196e+002, 4.553083e+001
1.914017e+002, 4.574671e+001
1.918838e+002, 4.581738e+001
1.923659e+002, 4.574432e+001
1.928480e+002, 4.562502e+001
1.933301e+002, 4.569462e+001
1.938123e+002, 4.580017e+001
1.942944e+002, 4.536097e+001
1.947765e+002, 4.412337e+001
1.952586e+002, 4.236408e+001
1.957407e+002, 4.038298e+001
1.962228e+002, 3.818082e+001
1.967050e+002, 3.600075e+001
1.971871e+002, 3.399610e+001
1.976692e+002, 3.216488e+001
1.981513e+002, 3.045732e+001
1.986334e+002, 2.886464e+001
1.991155e+002, 2.741500e+001
1.995977e+002, 2.611068e+001
2.000798e+002, 2.495252e+001
2.005619e+002, 2.395837e+001
2.010440e+002, 2.315277e+001
2.015261e+002, 2.254282e+001
2.020082e+002, 2.204914e+001
2.024904e+002, 2.169836e+001
2.029725e+002, 2.144097e+001
2.034546e+002, 2.127285e+001
2.039367e+002, 2.118691e+001
2.044188e+002, 2.115783e+001
2.049009e+002, 2.116415e+001
2.053831e+002, 2.122151e+001
2.058652e+002, 2.126641e+001
2.063473e+002, 2.127778e+001
2.068294e+002, 2.129089e+001
2.073115e+002, 2.129451e+001
2.077936e+002, 2.130236e+001
2.082758e+002, 2.137292e+001
2.087579e+002, 2.160372e+001
2.092400e+002, 2.210642e+001
2.097221e+002, 2.252707e+001
2.102042e+002, 2.279370e+001
2.106863e+002, 2.304171e+001
2.111685e+002, 2.335836e+001
2.116506e+002, 2.376297e+001
2.121327e+002, 2.422525e+001
2.126148e+002, 2.471223e+001
2.130969e+002, 2.526398e+001
2.135790e+002, 2.573864e+001
2.140612e+002, 2.605526e+001
2.145433e+002, 2.634901e+001
2.150254e+002, 2.674697e+001
2.155075e+002, 2.727118e+001
2.159896e+002, 2.783424e+001
2.164717e+002, 2.829733e+001
2.169539e+002, 2.856531e+001
2.174360e+002, 2.898200e+001
2.179181e+002, 2.974639e+001
2.184002e+002, 3.056673e+001
2.188823e+002, 3.114947e+001
2.193644e+002, 3.142096e+001
2.198466e+002, 3.153520e+001
2.203287e+002, 3.168484e+001
2.208108e+002, 3.188064e+001
2.212929e+002, 3.205381e+001
2.217750e+002, 3.232837e+001
2.222571e+002, 3.252493e+001
2.227393e+002, 3.239300e+001
2.232214e+002, 3.186279e+001
2.237035e+002, 3.111665e+001
2.241856e+002, 3.030900e+001
2.246677e+002, 2.944660e+001
2.251498e+002, 2.864178e+001
2.256320e+002, 2.794374e+001
2.261141e+002, 2.731641e+001
2.265962e+002, 2.671910e+001
2.270783e+002, 2.616393e+001
2.275604e+002, 2.558121e+001
2.280425e+002, 2.489416e+001
2.285247e+002, 2.412328e+001
2.290068e+002, 2.329258e+001
2.294889e+002, 2.229853e+001
2.299710e+002, 2.126691e+001
2.304531e+002, 2.049177e+001
2.309352e+002, 2.006651e+001
2.314174e+002, 1.977935e+001
2.318995e+002, 1.950347e+001
2.323816e+002, 1.923315e+001
2.328637e+002, 1.895173e+001
2.333458e+002, 1.868653e+001
2.338279e+002, 1.840774e+001
2.343101e+002, 1.797703e+001
2.347922e+002, 1.725589e+001
2.352743e+002, 1.662494e+001
2.357564e+002, 1.634682e+001
2.362385e+002, 1.630227e+001
2.367206e+002, 1.624841e+001
2.372028e+002, 1.600377e+001
2.376849e+002, 1.563857e+001
2.381670e+002, 1.547262e+001
2.386491e+002, 1.567253e+001
2.391312e+002, 1.582697e+001
2.396133e+002, 1.576089e+001
2.400955e+002, 1.554321e+001
2.405776e+002, 1.528027e+001
2.410597e+002, 1.500795e+001
2.415418e+002, 1.474720e+001
2.420239e+002, 1.461287e+001
2.425060e+002, 1.469458e+001
2.429882e+002, 1.478884e+001
2.434703e+002, 1.483267e+001
2.439524e+002, 1.484955e+001
2.444345e+002, 1.487364e+001
2.449166e+002, 1.492245e+001
2.453987e+002, 1.499585e+001
2.458809e+002, 1.509686e+001
2.463630e+002, 1.528480e+001
2.468451e+002, 1.542032e+001
2.473272e+002, 1.545466e+001
2.478093e+002, 1.542949e+001
2.482914e+002, 1.540810e+001
2.487736e+002, 1.542911e+001
2.492557e+002, 1.546172e+001
2.497378e+002, 1.537349e+001
2.502199e+002, 1.493935e+001
2.507020e+002, 1.466770e+001
2.511841e+002, 1.475772e+001
2.516663e+002, 1.499841e+001
2.521484e+002, 1.513887e+001
2.526305e+002, 1.505764e+001
2.531126e+002, 1.481741e+001
2.535947e+002, 1.461076e+001
2.540768e+002, 1.441576e+001
2.545590e+002, 1.429345e+001
2.550411e+002, 1.433100e+001
2.555232e+002, 1.440972e+001
2.560053e+002, 1.438522e+001
2.564874e+002, 1.419721e+001
2.569695e+002, 1.391718e+001
2.574517e+002, 1.371821e+001
2.579338e+002, 1.371695e+001
2.584159e+002, 1.366014e+001
2.588980e+002, 1.352563e+001
2.593801e+002, 1.334349e+001
2.598622e+002, 1.311735e+001
2.603444e+002, 1.285159e+001
2.608265e+002, 1.260257e+001
2.613086e+002, 1.247889e+001
2.617907e+002, 1.257098e+001
2.622728e+002, 1.265799e+001
2.627549e+002, 1.274698e+001
2.632371e+002, 1.282522e+001
2.637192e+002, 1.289020e+001
2.642013e+002, 1.293996e+001
2.646834e+002, 1.294955e+001
2.651655e+002, 1.287132e+001
2.656476e+002, 1.263720e+001
2.661298e+002, 1.248443e+001
2.666119e+002, 1.245731e+001
2.670940e+002, 1.249085e+001
2.675761e+002, 1.253191e+001
2.680582e+002, 1.256910e+001
2.685403e+002, 1.261094e+001
2.690225e+002, 1.267435e+001
2.695046e+002, 1.277198e+001
2.699867e+002, 1.281945e+001
2.704688e+002, 1.270490e+001
2.709509e+002, 1.260782e+001
2.714330e+002, 1.272905e+001
2.719152e+002, 1.308035e+001
2.723973e+002, 1.344454e+001
2.728794e+002, 1.359693e+001
2.733615e+002, 1.351841e+001
2.738436e+002, 1.354281e+001
2.743257e+002, 1.378727e+001
2.748079e+002, 1.405777e+001
2.752900e+002, 1.416142e+001
2.757721e+002, 1.410231e+001
2.762542e+002, 1.408302e+001
2.767363e+002, 1.427256e+001
2.772184e+002, 1.465258e+001
2.777006e+002, 1.497479e+001
2.781827e+002, 1.526791e+001
2.786648e+002, 1.547731e+001
2.791469e+002, 1.551624e+001
2.796290e+002, 1.540577e+001
2.801111e+002, 1.530213e+001
2.805933e+002, 1.527362e+001
2.810754e+002, 1.533895e+001
2.815575e+002, 1.551185e+001
2.820396e+002, 1.586906e+001
2.825217e+002, 1.623854e+001
2.830038e+002, 1.652627e+001
2.834860e+002, 1.673868e+001
2.839681e+002, 1.691229e+001
2.844502e+002, 1.706169e+001
2.849323e+002, 1.717947e+001
2.854144e+002, 1.725728e+001
2.858965e+002, 1.728557e+001
2.863787e+002, 1.730029e+001
2.868608e+002, 1.733150e+001
2.873429e+002, 1.736781e+001
2.878250e+002, 1.737237e+001
2.883071e+002, 1.734285e+001
2.887892e+002, 1.725876e+001
2.892714e+002, 1.706236e+001
2.897535e+002, 1.673113e+001
2.902356e+002, 1.647388e+001
2.907177e+002, 1.650979e+001
2.911998e+002, 1.669800e+001
2.916819e+002, 1.662148e+001
2.921641e+002, 1.609001e+001
2.926462e+002, 1.546699e+001
2.931283e+002, 1.518336e+001
2.936104e+002, 1.519660e+001
2.940925e+002, 1.519459e+001
2.945746e+002, 1.504654e+001
2.950568e+002, 1.480188e+001
2.955389e+002, 1.454074e+001
2.960210e+002, 1.425273e+001
2.965031e+002, 1.400760e+001
2.969852e+002, 1.389258e+001
2.974673e+002, 1.387081e+001
2.979495e+002, 1.385315e+001
2.984316e+002, 1.385002e+001
2.989137e+002, 1.381990e+001
2.993958e+002, 1.368033e+001
2.998779e+002, 1.340883e+001
3.003600e+002, 1.312727e+001
3.008422e+002, 1.284945e+001
3.013243e+002, 1.262808e+001
3.018064e+002, 1.258997e+001
3.022885e+002, 1.289163e+001
3.027706e+002, 1.326263e+001
3.032527e+002, 1.338167e+001
3.037349e+002, 1.323477e+001
3.042170e+002, 1.303879e+001
3.046991e+002, 1.285760e+001
3.051812e+002, 1.270407e+001
3.056633e+002, 1.260457e+001
3.061454e+002, 1.258488e+001
3.066276e+002, 1.256469e+001
3.071097e+002, 1.245778e+001
3.075918e+002, 1.227047e+001
3.080739e+002, 1.210737e+001
3.085560e+002, 1.199683e+001
3.090381e+002, 1.193638e+001
3.095203e+002, 1.192808e+001
3.100024e+002, 1.197734e+001
3.104845e+002, 1.202182e+001
3.109666e+002, 1.203017e+001
3.114487e+002, 1.200142e+001
3.119308e+002, 1.192264e+001
3.124130e+002, 1.176516e+001
3.128951e+002, 1.159434e+001
3.133772e+002, 1.148096e+001
3.138593e+002, 1.141518e+001
3.143414e+002, 1.133572e+001
3.148235e+002, 1.119105e+001
3.153057e+002, 1.101082e+001
3.157878e+002, 1.087880e+001
3.162699e+002, 1.082437e+001
3.167520e+002, 1.076484e+001
3.172341e+002, 1.059645e+001
3.177162e+002, 1.037560e+001
3.181984e+002, 1.023297e+001
3.186805e+002, 1.030169e+001
3.191626e+002, 1.043643e+001
3.196447e+002, 1.035826e+001
3.201268e+002, 1.000853e+001
3.206089e+002, 9.743127e+000
3.210911e+002, 9.910665e+000
3.215732e+002, 1.024784e+001
3.220553e+002, 1.037683e+001
3.225374e+002, 1.014706e+001
3.230195e+002, 9.813976e+000
3.235016e+002, 9.632947e+000
3.239838e+002, 9.603644e+000
3.244659e+002, 9.612198e+000
3.249480e+002, 9.650726e+000
3.254301e+002, 9.680707e+000
3.259122e+002, 9.644679e+000
3.263943e+002, 9.524629e+000
3.268765e+002, 9.416754e+000
3.273586e+002, 9.378704e+000
3.278407e+002, 9.408425e+000
3.283228e+002, 9.518182e+000
3.288049e+002, 9.790484e+000
3.292870e+002, 1.002843e+001
3.297692e+002, 9.993685e+000
3.302513e+002, 9.712004e+000
3.307334e+002, 9.462407e+000
3.312155e+002, 9.442937e+000
3.316976e+002, 9.546470e+000
3.321797e+002, 9.486005e+000
3.326619e+002, 9.162459e+000
3.331440e+002, 8.870783e+000
3.336261e+002, 8.933825e+000
3.341082e+002, 9.221446e+000
3.345903e+002, 9.435239e+000
3.350724e+002, 9.416841e+000
3.355546e+002, 9.310680e+000
3.360367e+002, 9.321651e+000
3.365188e+002, 9.464278e+000
3.370009e+002, 9.572689e+000
3.374830e+002, 9.501401e+000
3.379651e+002, 9.348762e+000
3.384473e+002, 9.310720e+000
3.389294e+002, 9.482253e+000
3.394115e+002, 9.654542e+000
3.398936e+002, 9.610982e+000
3.403757e+002, 9.387469e+000
3.408578e+002, 9.268146e+000
3.413400e+002, 9.413168e+000
3.418221e+002, 9.657702e+000
3.423042e+002, 9.745035e+000
3.427863e+002, 9.656019e+000
3.432684e+002, 9.537103e+000
3.437505e+002, 9.447417e+000
3.442327e+002, 9.381089e+000
3.447148e+002, 9.323168e+000
3.451969e+002, 9.268963e+000
3.456790e+002, 9.226762e+000
3.461611e+002, 9.211836e+000
3.466432e+002, 9.219924e+000
3.471254e+002, 9.232560e+000
3.476075e+002, 9.198023e+000
3.480896e+002, 9.188234e+000
3.485717e+002, 9.343699e+000
3.490538e+002, 9.684780e+000
3.495359e+002, 9.971372e+000
3.500181e+002, 1.001723e+001
3.505002e+002, 9.850786e+000
3.509823e+002, 9.657612e+000
3.514644e+002, 9.380718e+000
3.519465e+002, 9.137525e+000
3.524286e+002, 8.993315e+000
3.529108e+002, 8.946878e+000
3.533929e+002, 9.005465e+000
3.538750e+002, 9.209695e+000
3.543571e+002, 9.485480e+000
3.548392e+002, 9.653491e+000
3.553214e+002, 9.712008e+000
3.558035e+002, 9.693439e+000
3.562856e+002, 9.551388e+000
3.567677e+002, 9.349997e+000
3.572498e+002, 9.188964e+000
3.577319e+002, 9.089930e+000
3.582141e+002, 9.075984e+000
3.586962e+002, 9.225526e+000
3.591783e+002, 9.587336e+000
3.596604e+002, 9.800433e+000
3.601425e+002, 9.706894e+000
3.606246e+002, 9.520227e+000
3.611068e+002, 9.424630e+000
3.615889e+002, 9.440222e+000
3.620710e+002, 9.519361e+000
3.625531e+002, 9.636918e+000
3.630352e+002, 9.790963e+000
3.635173e+002, 9.896409e+000
3.639995e+002, 9.948065e+000
3.644816e+002, 9.962569e+000
3.649637e+002, 9.928144e+000
3.654458e+002, 9.861361e+000
3.659279e+002, 9.792939e+000
3.664100e+002, 9.732615e+000
3.668922e+002, 9.695882e+000
3.673743e+002, 9.740748e+000
3.678564e+002, 9.998363e+000
3.683385e+002, 1.014748e+001
3.688206e+002, 1.004643e+001
3.693027e+002, 9.858527e+000
3.697849e+002, 9.776428e+000
3.702670e+002, 9.852597e+000
3.707491e+002, 1.000206e+001
3.712312e+002, 1.011072e+001
3.717133e+002, 1.016414e+001
3.721954e+002, 1.021342e+001
3.726776e+002, 1.025877e+001
3.731597e+002, 1.030003e+001
3.736418e+002, 1.034370e+001
3.741239e+002, 1.038520e+001
3.746060e+002, 1.040120e+001
3.750881e+002, 1.036224e+001
3.755703e+002, 1.027335e+001
3.760524e+002, 1.030118e+001
3.765345e+002, 1.064733e+001
3.770166e+002, 1.087817e+001
3.774987e+002, 1.078208e+001
3.779808e+002, 1.053961e+001
3.784630e+002, 1.043216e+001
3.789451e+002, 1.059031e+001
3.794272e+002, 1.089279e+001
3.799093e+002, 1.103808e+001
3.803914e+002, 1.081371e+001
3.808735e+002, 1.079548e+001
3.813557e+002, 1.115565e+001
3.818378e+002, 1.159824e+001
3.823199e+002, 1.192426e+001
3.828020e+002, 1.209806e+001
3.832841e+002, 1.218332e+001
3.837662e+002, 1.223784e+001
3.842484e+002, 1.225289e+001
3.847305e+002, 1.229986e+001
3.852126e+002, 1.239595e+001
3.856947e+002, 1.250965e+001
3.861768e+002, 1.259105e+001
3.866589e+002, 1.268581e+001
3.871411e+002, 1.288836e+001
3.876232e+002, 1.326835e+001
3.881053e+002, 1.377927e+001
3.885874e+002, 1.424047e+001
3.890695e+002, 1.457395e+001
3.895516e+002, 1.500957e+001
3.900338e+002, 1.564278e+001
3.905159e+002, 1.636483e+001
3.909980e+002, 1.706418e+001
3.914801e+002, 1.771261e+001
3.919622e+002, 1.838929e+001
3.924443e+002, 1.918542e+001
3.929265e+002, 2.009968e+001
3.934086e+002, 2.112871e+001
3.938907e+002, 2.227141e+001
3.943728e+002, 2.354379e+001
3.948549e+002, 2.493170e+001
3.953370e+002, 2.644397e+001
3.958192e+002, 2.810298e+001
3.963013e+002, 2.994917e+001
3.967834e+002, 3.195642e+001
3.972655e+002, 3.406424e+001
3.977476e+002, 3.635065e+001
3.982297e+002, 3.852270e+001
3.987119e+002, 4.056401e+001
3.991940e+002, 4.236332e+001
3.996761e+002, 4.369252e+001
4.001582e+002, 4.441229e+001
4.006403e+002, 4.483407e+001
4.011224e+002, 4.515261e+001
4.016046e+002, 4.538677e+001
4.020867e+002, 4.580482e+001
4.025688e+002, 4.644364e+001
4.030509e+002, 4.737215e+001
4.035330e+002, 4.872307e+001
4.040151e+002, 5.050426e+001
4.044973e+002, 5.222100e+001
4.049794e+002, 5.379626e+001
4.054615e+002, 5.512823e+001
4.059436e+002, 5.618379e+001
4.064257e+002, 5.701869e+001
4.069078e+002, 5.705883e+001
4.073900e+002, 5.563586e+001
4.078721e+002, 5.290980e+001
4.083542e+002, 4.995371e+001
4.088363e+002, 4.671743e+001
4.093184e+002, 4.338451e+001
4.098005e+002, 4.000048e+001
4.102827e+002, 3.661459e+001
4.107648e+002, 3.340526e+001
4.112469e+002, 3.041246e+001
4.117290e+002, 2.771727e+001
4.122111e+002, 2.559324e+001
4.126932e+002, 2.419345e+001
4.131754e+002, 2.287402e+001
4.136575e+002, 2.140106e+001
4.141396e+002, 2.002465e+001
4.146217e+002, 1.905288e+001
4.151038e+002, 1.852079e+001
4.155859e+002, 1.816468e+001
4.160681e+002, 1.773688e+001
4.165502e+002, 1.723017e+001
4.170323e+002, 1.672465e+001
4.175144e+002, 1.614945e+001
4.179965e+002, 1.564755e+001
4.184786e+002, 1.528187e+001
4.189608e+002, 1.503210e+001
4.194429e+002, 1.485334e+001
4.199250e+002, 1.472377e+001
4.204071e+002, 1.464292e+001
4.208892e+002, 1.461649e+001
4.213713e+002, 1.475871e+001
4.218535e+002, 1.477621e+001
4.223356e+002, 1.453277e+001
4.228177e+002, 1.425949e+001
4.232998e+002, 1.414523e+001
4.237819e+002, 1.420535e+001
4.242640e+002, 1.431780e+001
4.247462e+002, 1.434123e+001
4.252283e+002, 1.426044e+001
4.257104e+002, 1.432143e+001
4.261925e+002, 1.469871e+001
4.266746e+002, 1.503402e+001
4.271567e+002, 1.516594e+001
4.276389e+002, 1.520292e+001
4.281210e+002, 1.533280e+001
4.286031e+002, 1.566014e+001
4.290852e+002, 1.606519e+001
4.295673e+002, 1.625036e+001
4.300494e+002, 1.609251e+001
4.305316e+002, 1.615937e+001
4.310137e+002, 1.683496e+001
4.314958e+002, 1.761220e+001
4.319779e+002, 1.818674e+001
4.324600e+002, 1.853581e+001
4.329421e+002, 1.879181e+001
4.334243e+002, 1.895590e+001
4.339064e+002, 1.908895e+001
4.343885e+002, 1.950958e+001
4.348706e+002, 2.037556e+001
4.353527e+002, 2.119855e+001
4.358348e+002, 2.161509e+001
4.363170e+002, 2.178779e+001
4.367991e+002, 2.196608e+001
4.372812e+002, 2.218008e+001
4.377633e+002, 2.245898e+001
4.382454e+002, 2.288776e+001
4.387275e+002, 2.343699e+001
4.392097e+002, 2.391077e+001
4.396918e+002, 2.428672e+001
4.401739e+002, 2.448619e+001
4.406560e+002, 2.433404e+001
4.411381e+002, 2.381877e+001
4.416202e+002, 2.328945e+001
4.421024e+002, 2.284505e+001
4.425845e+002, 2.243575e+001
4.430666e+002, 2.202558e+001
4.435487e+002, 2.160574e+001
4.440308e+002, 2.114319e+001
4.445129e+002, 2.060342e+001
4.449951e+002, 1.999735e+001
4.454772e+002, 1.941056e+001
4.459593e+002, 1.881676e+001
4.464414e+002, 1.827257e+001
4.469235e+002, 1.781287e+001
4.474056e+002, 1.740866e+001
4.478878e+002, 1.701035e+001
4.483699e+002, 1.660158e+001
4.488520e+002, 1.621218e+001
4.493341e+002, 1.588685e+001
4.498162e+002, 1.564406e+001
4.502983e+002, 1.542169e+001
4.507805e+002, 1.518292e+001
4.512626e+002, 1.499471e+001
4.517447e+002, 1.494514e+001
4.522268e+002, 1.497875e+001
4.527089e+002, 1.493918e+001
4.531910e+002, 1.470622e+001
4.536732e+002, 1.435194e+001
4.541553e+002, 1.419399e+001
4.546374e+002, 1.437938e+001
4.551195e+002, 1.451542e+001
4.556016e+002, 1.450086e+001
4.560837e+002, 1.444203e+001
4.565659e+002, 1.442127e+001
4.570480e+002, 1.445596e+001
4.575301e+002, 1.452162e+001
4.580122e+002, 1.461541e+001
4.584943e+002, 1.473588e+001
4.589764e+002, 1.478869e+001
4.594586e+002, 1.476391e+001
4.599407e+002, 1.467627e+001
4.604228e+002, 1.448343e+001
4.609049e+002, 1.424920e+001
4.613870e+002, 1.409336e+001
4.618691e+002, 1.408099e+001
4.623513e+002, 1.412501e+001
4.628334e+002, 1.412038e+001
4.633155e+002, 1.406933e+001
4.637976e+002, 1.403649e+001
4.642797e+002, 1.406998e+001
4.647618e+002, 1.409494e+001
4.652440e+002, 1.401217e+001
4.657261e+002, 1.382220e+001
4.662082e+002, 1.361338e+001
4.666903e+002, 1.334828e+001
4.671724e+002, 1.311517e+001
4.676545e+002, 1.308374e+001
4.681367e+002, 1.324939e+001
4.686188e+002, 1.333391e+001
4.691009e+002, 1.311129e+001
4.695830e+002, 1.266740e+001
4.700651e+002, 1.243399e+001
4.705472e+002, 1.254118e+001
4.710294e+002, 1.266306e+001
4.715115e+002, 1.274854e+001
4.719936e+002, 1.279054e+001
4.724757e+002, 1.279878e+001
4.729578e+002, 1.276989e+001
4.734399e+002, 1.264387e+001
4.739221e+002, 1.232271e+001
4.744042e+002, 1.174146e+001
4.748863e+002, 1.134748e+001
4.753684e+002, 1.118009e+001
4.758505e+002, 1.112930e+001
4.763326e+002, 1.125067e+001
4.768148e+002, 1.144234e+001
4.772969e+002, 1.154319e+001
4.777790e+002, 1.147325e+001
4.782611e+002, 1.129944e+001
4.787432e+002, 1.115483e+001
4.792253e+002, 1.103645e+001
4.797075e+002, 1.095836e+001
4.801896e+002, 1.093005e+001
4.806717e+002, 1.093669e+001
4.811538e+002, 1.100194e+001
4.816359e+002, 1.110458e+001
4.821180e+002, 1.117062e+001
4.826002e+002, 1.113611e+001
4.830823e+002, 1.103347e+001
4.835644e+002, 1.094596e+001
4.840465e+002, 1.086914e+001
4.845286e+002, 1.082674e+001
4.850107e+002, 1.085082e+001
4.854929e+002, 1.090534e+001
4.859750e+002, 1.096018e+001
4.864571e+002, 1.102120e+001
4.869392e+002, 1.103455e+001
4.874213e+002, 1.090487e+001
4.879034e+002, 1.071262e+001
4.883856e+002, 1.065172e+001
4.888677e+002, 1.076281e+001
4.893498e+002, 1.092329e+001
4.898319e+002, 1.104594e+001
4.903140e+002, 1.112612e+001
4.907961e+002, 1.116156e+001
4.912783e+002, 1.112065e+001
4.917604e+002, 1.106931e+001
4.922425e+002, 1.104229e+001
4.927246e+002, 1.102503e+001
4.932067e+002, 1.098371e+001
4.936888e+002, 1.090663e+001
4.941710e+002, 1.082111e+001
4.946531e+002, 1.077138e+001
4.951352e+002, 1.077155e+001
4.956173e+002, 1.076447e+001
4.960994e+002, 1.077261e+001
4.965815e+002, 1.075325e+001
4.970637e+002, 1.064627e+001
4.975458e+002, 1.049827e+001
4.980279e+002, 1.041054e+001
4.985100e+002, 1.044368e+001
4.989921e+002, 1.055283e+001
4.994742e+002, 1.062272e+001
4.999564e+002, 1.062919e+001
5.004385e+002, 1.065749e+001
5.009206e+002, 1.074118e+001
5.014027e+002, 1.083325e+001
5.018848e+002, 1.091320e+001
5.023669e+002, 1.097637e+001
5.028491e+002, 1.101681e+001
5.033312e+002, 1.103313e+001
5.038133e+002, 1.102346e+001
5.042954e+002, 1.097759e+001
5.047775e+002, 1.089042e+001
5.052596e+002, 1.078868e+001
5.057418e+002, 1.063823e+001
5.062239e+002, 1.050912e+001
5.067060e+002, 1.050758e+001
5.071881e+002, 1.066401e+001
5.076702e+002, 1.084302e+001
5.081523e+002, 1.100534e+001
5.086345e+002, 1.113733e+001
5.091166e+002, 1.121578e+001
5.095987e+002, 1.123751e+001
5.100808e+002, 1.120696e+001
5.105629e+002, 1.110936e+001
5.110450e+002, 1.095598e+001
5.115272e+002, 1.087239e+001
5.120093e+002, 1.090244e+001
5.124914e+002, 1.093950e+001
5.129735e+002, 1.097354e+001
5.134556e+002, 1.098822e+001
5.139377e+002, 1.095370e+001
5.144199e+002, 1.086599e+001
5.149020e+002, 1.076065e+001
5.153841e+002, 1.067918e+001
5.158662e+002, 1.061979e+001
5.163483e+002, 1.059738e+001
5.168304e+002, 1.065489e+001
5.173126e+002, 1.070477e+001
5.177947e+002, 1.072899e+001
5.182768e+002, 1.072824e+001
5.187589e+002, 1.069999e+001
5.192410e+002, 1.064186e+001
5.197231e+002, 1.057713e+001
5.202053e+002, 1.055024e+001
5.206874e+002, 1.056669e+001
5.211695e+002, 1.052783e+001
5.216516e+002, 1.032775e+001
5.221337e+002, 1.019326e+001
5.226158e+002, 1.030208e+001
5.230980e+002, 1.059205e+001
5.235801e+002, 1.089466e+001
5.240622e+002, 1.124230e+001
5.245443e+002, 1.148601e+001
5.250264e+002, 1.136324e+001
5.255085e+002, 1.094718e+001
5.259907e+002, 1.069417e+001
5.264728e+002, 1.079664e+001
5.269549e+002, 1.105209e+001
5.274370e+002, 1.116042e+001
5.279191e+002, 1.109662e+001
5.284012e+002, 1.106392e+001
5.288834e+002, 1.114080e+001
5.293655e+002, 1.120474e+001
5.298476e+002, 1.116201e+001
5.303297e+002, 1.103238e+001
5.308118e+002, 1.086876e+001
5.312939e+002, 1.069229e+001
5.317761e+002, 1.054510e+001
5.322582e+002, 1.054242e+001
5.327403e+002, 1.078370e+001
5.332224e+002, 1.099025e+001
5.337045e+002, 1.120716e+001
5.341866e+002, 1.134958e+001
5.346688e+002, 1.131279e+001
5.351509e+002, 1.115096e+001
5.356330e+002, 1.102804e+001
5.361151e+002, 1.106177e+001
5.365972e+002, 1.119243e+001
5.370793e+002, 1.126894e+001
5.375615e+002, 1.129152e+001
5.380436e+002, 1.125673e+001
5.385257e+002, 1.112407e+001
5.390078e+002, 1.096191e+001
5.394899e+002, 1.080212e+001
5.399720e+002, 1.065162e+001
5.404542e+002, 1.058455e+001
5.409363e+002, 1.071808e+001
5.414184e+002, 1.091653e+001
5.419005e+002, 1.096580e+001
5.423826e+002, 1.086638e+001
5.428647e+002, 1.078246e+001
5.433469e+002, 1.080958e+001
5.438290e+002, 1.089619e+001
5.443111e+002, 1.090366e+001
5.447932e+002, 1.079250e+001
5.452753e+002, 1.070782e+001
5.457574e+002, 1.070185e+001
5.462396e+002, 1.070701e+001
5.467217e+002, 1.064840e+001
5.472038e+002, 1.053815e+001
5.476859e+002, 1.045257e+001
5.481680e+002, 1.044568e+001
5.486501e+002, 1.050453e+001
5.491323e+002, 1.057676e+001
5.496144e+002, 1.069690e+001
5.500965e+002, 1.076752e+001
5.505786e+002, 1.078317e+001
5.510607e+002, 1.074987e+001
5.515428e+002, 1.063700e+001
5.520250e+002, 1.046646e+001
5.525071e+002, 1.033104e+001
5.529892e+002, 1.029024e+001
5.534713e+002, 1.033673e+001
5.539534e+002, 1.047872e+001
5.544355e+002, 1.074654e+001
5.549177e+002, 1.095757e+001
5.553998e+002, 1.105509e+001
5.558819e+002, 1.104082e+001
5.563640e+002, 1.090661e+001
5.568461e+002, 1.063423e+001
5.573282e+002, 1.038958e+001
5.578104e+002, 1.020421e+001
5.582925e+002, 1.009822e+001
5.587746e+002, 1.013786e+001
5.592567e+002, 1.030453e+001
5.597388e+002, 1.045445e+001
5.602209e+002, 1.050424e+001
5.607031e+002, 1.047248e+001
5.611852e+002, 1.041889e+001
5.616673e+002, 1.033751e+001
5.621494e+002, 1.023965e+001
5.626315e+002, 1.009293e+001
5.631136e+002, 9.955174e+000
5.635958e+002, 9.859705e+000
5.640779e+002, 9.811770e+000
5.645600e+002, 9.815681e+000
5.650421e+002, 9.882930e+000
5.655242e+002, 9.988756e+000
5.660063e+002, 1.005013e+001
5.664885e+002, 1.005795e+001
5.669706e+002, 1.004692e+001
5.674527e+002, 9.994968e+000
5.679348e+002, 9.949198e+000
5.684169e+002, 9.957383e+000
5.688990e+002, 1.001146e+001
5.693812e+002, 1.004344e+001
5.698633e+002, 9.989219e+000
5.703454e+002, 9.907163e+000
5.708275e+002, 9.920919e+000
5.713096e+002, 1.001774e+001
5.717917e+002, 9.981210e+000
5.722739e+002, 9.656791e+000
5.727560e+002, 9.252034e+000
5.732381e+002, 9.172274e+000
5.737202e+002, 9.524721e+000
5.742023e+002, 9.754363e+000
5.746844e+002, 9.697272e+000
5.751666e+002, 9.600610e+000
5.756487e+002, 9.647689e+000
5.761308e+002, 9.798867e+000
5.766129e+002, 9.919225e+000
5.770950e+002, 9.938445e+000
5.775771e+002, 9.892037e+000
5.780593e+002, 9.859979e+000
5.785414e+002, 9.858484e+000
5.790235e+002, 9.826684e+000
5.795056e+002, 9.645100e+000
5.799877e+002, 9.543001e+000
5.804698e+002, 9.683200e+000
5.809520e+002, 9.982603e+000
5.814341e+002, 1.025212e+001
5.819162e+002, 1.041974e+001
5.823983e+002, 1.049460e+001
5.828804e+002, 1.046966e+001
5.833625e+002, 1.035136e+001
5.838447e+002, 1.019169e+001
5.843268e+002, 9.967943e+000
5.848089e+002, 9.786321e+000
5.852910e+002, 9.798211e+000
5.857731e+002, 9.980516e+000
5.862552e+002, 1.009060e+001
5.867374e+002, 1.004021e+001
5.872195e+002, 9.983439e+000
5.877016e+002, 9.986773e+000
5.881837e+002, 1.004147e+001
5.886658e+002, 1.015131e+001
5.891479e+002, 1.031177e+001
5.896301e+002, 1.045412e+001
5.901122e+002, 1.048582e+001
5.905943e+002, 1.039128e+001
5.910764e+002, 1.033407e+001
5.915585e+002, 1.031591e+001
5.920406e+002, 1.033652e+001
5.925228e+002, 1.041770e+001
5.930049e+002, 1.052704e+001
5.934870e+002, 1.064285e+001
5.939691e+002, 1.075757e+001
5.944512e+002, 1.082721e+001
5.949333e+002, 1.077124e+001
5.954155e+002, 1.062819e+001
5.958976e+002, 1.058144e+001
5.963797e+002, 1.066305e+001
5.968618e+002, 1.074086e+001
5.973439e+002, 1.072602e+001
5.978260e+002, 1.065932e+001
5.983082e+002, 1.064181e+001
5.987903e+002, 1.068575e+001
5.992724e+002, 1.074757e+001
5.997545e+002, 1.083611e+001
6.002366e+002, 1.092166e+001
6.007188e+002, 1.096449e+001
6.012009e+002, 1.096792e+001
6.016830e+002, 1.096668e+001
6.021651e+002, 1.098225e+001
6.026472e+002, 1.101604e+001
6.031293e+002, 1.107500e+001
6.036115e+002, 1.117444e+001
6.040936e+002, 1.127150e+001
6.045757e+002, 1.138209e+001
6.050578e+002, 1.147323e+001
6.055399e+002, 1.152815e+001
6.060220e+002, 1.154552e+001
6.065042e+002, 1.152164e+001
6.069863e+002, 1.142857e+001
6.074684e+002, 1.133240e+001
6.079505e+002, 1.135027e+001
6.084326e+002, 1.147987e+001
6.089147e+002, 1.162967e+001
6.093969e+002, 1.179638e+001
6.098790e+002, 1.193818e+001
6.103611e+002, 1.199610e+001
6.108432e+002, 1.197756e+001
6.113253e+002, 1.196354e+001
6.118074e+002, 1.198086e+001
6.122896e+002, 1.198546e+001
6.127717e+002, 1.191085e+001
6.132538e+002, 1.182000e+001
6.137359e+002, 1.183069e+001
6.142180e+002, 1.197377e+001
6.147001e+002, 1.217238e+001
6.151823e+002, 1.234853e+001
6.156644e+002, 1.250511e+001
6.161465e+002, 1.257206e+001
6.166286e+002, 1.243889e+001
6.171107e+002, 1.236878e+001
6.175928e+002, 1.248644e+001
6.180750e+002, 1.266227e+001
6.185571e+002, 1.276467e+001
6.190392e+002, 1.276870e+001
6.195213e+002, 1.273564e+001
6.200034e+002, 1.270679e+001
6.204855e+002, 1.267525e+001
6.209677e+002, 1.261972e+001
6.214498e+002, 1.253862e+001
6.219319e+002, 1.246083e+001
6.224140e+002, 1.239667e+001
6.228961e+002, 1.234877e+001
6.233782e+002, 1.232887e+001
6.238604e+002, 1.235243e+001
6.243425e+002, 1.235191e+001
6.248246e+002, 1.230641e+001
6.253067e+002, 1.224652e+001
6.257888e+002, 1.217135e+001
6.262709e+002, 1.210028e+001
6.267531e+002, 1.208151e+001
6.272352e+002, 1.214031e+001
6.277173e+002, 1.222256e+001
6.281994e+002, 1.221972e+001
6.286815e+002, 1.210991e+001
6.291636e+002, 1.203951e+001
6.296458e+002, 1.206703e+001
6.301279e+002, 1.206800e+001
6.306100e+002, 1.191687e+001
6.310921e+002, 1.171481e+001
6.315742e+002, 1.166545e+001
6.320563e+002, 1.187725e+001
6.325385e+002, 1.207097e+001
6.330206e+002, 1.200444e+001
6.335027e+002, 1.178790e+001
6.339848e+002, 1.164072e+001
6.344669e+002, 1.159433e+001
6.349490e+002, 1.156103e+001
6.354312e+002, 1.146933e+001
6.359133e+002, 1.134304e+001
6.363954e+002, 1.129493e+001
6.368775e+002, 1.146749e+001
6.373596e+002, 1.152575e+001
6.378417e+002, 1.133226e+001
6.383239e+002, 1.112481e+001
6.388060e+002, 1.110167e+001
6.392881e+002, 1.122377e+001
6.397702e+002, 1.131843e+001
6.402523e+002, 1.128439e+001
6.407344e+002, 1.116031e+001
6.412166e+002, 1.100041e+001
6.416987e+002, 1.080090e+001
6.421808e+002, 1.063236e+001
6.426629e+002, 1.048505e+001
6.431450e+002, 1.040907e+001
6.436271e+002, 1.051535e+001
6.441093e+002, 1.074468e+001
6.445914e+002, 1.087378e+001
6.450735e+002, 1.077718e+001
6.455556e+002, 1.068305e+001
6.460377e+002, 1.072289e+001
6.465198e+002, 1.081968e+001
6.470020e+002, 1.086196e+001
6.474841e+002, 1.083045e+001
6.479662e+002, 1.077783e+001
6.484483e+002, 1.075345e+001
6.489304e+002, 1.074828e+001
6.494125e+002, 1.068789e+001
6.498947e+002, 1.050973e+001
6.503768e+002, 1.039612e+001
6.508589e+002, 1.039411e+001
6.513410e+002, 1.045141e+001
6.518231e+002, 1.058247e+001
6.523052e+002, 1.075454e+001
6.527874e+002, 1.083954e+001
6.532695e+002, 1.073245e+001
6.537516e+002, 1.054585e+001
6.542337e+002, 1.038134e+001
6.547158e+002, 1.025022e+001
6.551979e+002, 1.023126e+001
6.556801e+002, 1.036495e+001
6.561622e+002, 1.050673e+001
6.566443e+002, 1.048378e+001
6.571264e+002, 1.028297e+001
6.576085e+002, 1.017280e+001
6.580906e+002, 1.022452e+001
6.585728e+002, 1.026432e+001
6.590549e+002, 1.026753e+001
6.595370e+002, 1.022883e+001
6.600191e+002, 1.011332e+001
6.605012e+002, 9.936853e+000
6.609833e+002, 9.797426e+000
6.614655e+002, 9.783542e+000
6.619476e+002, 9.862514e+000
6.624297e+002, 9.936715e+000
6.629118e+002, 1.000464e+001
6.633939e+002, 1.008350e+001
6.638760e+002, 1.020187e+001
6.643582e+002, 1.030476e+001
6.648403e+002, 1.030413e+001
6.653224e+002, 1.020995e+001
6.658045e+002, 1.015215e+001
6.662866e+002, 1.021284e+001
6.667687e+002, 1.025051e+001
6.672509e+002, 1.017313e+001
6.677330e+002, 1.002438e+001
6.682151e+002, 9.843068e+000
6.686972e+002, 9.654329e+000
6.691793e+002, 9.551343e+000
6.696614e+002, 9.657580e+000
6.701436e+002, 9.950555e+000
6.706257e+002, 1.010275e+001
6.711078e+002, 1.006853e+001
6.715899e+002, 9.988634e+000
6.720720e+002, 9.838714e+000
6.725541e+002, 9.701753e+000
6.730363e+002, 9.667216e+000
6.735184e+002, 9.726727e+000
6.740005e+002, 9.753449e+000
6.744826e+002, 9.641223e+000
6.749647e+002, 9.513371e+000
6.754468e+002, 9.510591e+000
6.759290e+002, 9.595486e+000
6.764111e+002, 9.654725e+000
6.768932e+002, 9.653129e+000
6.773753e+002, 9.620041e+000
6.778574e+002, 9.594440e+000
6.783395e+002, 9.579318e+000
6.788217e+002, 9.493105e+000
6.793038e+002, 9.215669e+000
6.797859e+002, 9.021816e+000
6.802680e+002, 8.969852e+000
6.807501e+002, 9.012875e+000
6.812322e+002, 9.162169e+000
6.817144e+002, 9.385037e+000
6.821965e+002, 9.533341e+000
6.826786e+002, 9.460079e+000
6.831607e+002, 9.287169e+000
6.836428e+002, 9.202724e+000
6.841249e+002, 9.201765e+000
6.846071e+002, 9.256160e+000
6.850892e+002, 9.370656e+000
6.855713e+002, 9.490224e+000
6.860534e+002, 9.558454e+000
6.865355e+002, 9.574187e+000
6.870176e+002, 9.538975e+000
6.874998e+002, 9.361725e+000
6.879819e+002, 9.252353e+000
6.884640e+002, 9.354811e+000
6.889461e+002, 9.493073e+000
6.894282e+002, 9.466202e+000
6.899103e+002, 9.269390e+000
6.903925e+002, 9.063367e+000
6.908746e+002, 8.964243e+000
6.913567e+002, 8.946387e+000
6.918388e+002, 8.958344e+000
6.923209e+002, 9.001034e+000
6.928030e+002, 9.055576e+000
6.932852e+002, 9.131441e+000
6.937673e+002, 9.191113e+000
6.942494e+002, 9.195052e+000
6.947315e+002, 9.144332e+000
6.952136e+002, 9.071987e+000
6.956957e+002, 8.928246e+000
6.961779e+002, 8.824463e+000
6.966600e+002, 8.800784e+000
6.971421e+002, 8.835418e+000
6.976242e+002, 8.931212e+000
6.981063e+002, 9.068430e+000
6.985884e+002, 9.184835e+000
6.990706e+002, 9.239915e+000
6.995527e+002, 9.228608e+000
7.000348e+002, 9.102372e+000
7.005169e+002, 8.827870e+000
7.009990e+002, 8.659876e+000
7.014811e+002, 8.685633e+000
7.019633e+002, 8.776845e+000
7.024454e+002, 8.833966e+000
7.029275e+002, 8.867794e+000
7.034096e+002, 8.917423e+000
7.038917e+002, 9.032916e+000
7.043738e+002, 9.102977e+000
7.048560e+002, 9.030683e+000
7.053381e+002, 8.917073e+000
7.058202e+002, 8.888900e+000
7.063023e+002, 8.950848e+000
7.067844e+002, 9.031992e+000
7.072665e+002, 9.088862e+000
7.077487e+002, 9.112615e+000
7.082308e+002, 9.056889e+000
7.087129e+002, 8.886430e+000
7.091950e+002, 8.809520e+000
7.096771e+002, 8.929614e+000
7.101592e+002, 9.042887e+000
7.106414e+002, 8.978214e+000
7.111235e+002, 8.819116e+000
7.116056e+002, 8.752407e+000
7.120877e+002, 8.856812e+000
7.125698e+002, 8.941920e+000
7.130519e+002, 8.845714e+000
7.135341e+002, 8.722399e+000
7.140162e+002, 8.811306e+000
7.144983e+002, 9.071667e+000
7.149804e+002, 9.231554e+000
7.154625e+002, 9.127996e+000
7.159446e+002, 8.895235e+000
7.164268e+002, 8.828424e+000
7.169089e+002, 8.974550e+000
7.173910e+002, 9.075196e+000
7.178731e+002, 9.111964e+000
7.183552e+002, 9.117402e+000
7.188373e+002, 9.073247e+000
7.193195e+002, 9.022550e+000
7.198016e+002, 9.052034e+000
7.202837e+002, 9.200618e+000
7.207658e+002, 9.270587e+000
7.212479e+002, 9.048506e+000
7.217300e+002, 8.784866e+000
7.222122e+002, 8.824599e+000
7.226943e+002, 9.080139e+000
7.231764e+002, 9.160018e+000
7.236585e+002, 8.890524e+000
7.241406e+002, 8.532537e+000
7.246227e+002, 8.506504e+000
7.251049e+002, 8.858968e+000
7.255870e+002, 9.096735e+000
7.260691e+002, 9.164804e+000
7.265512e+002, 9.204345e+000
7.270333e+002, 9.280160e+000
7.275154e+002, 9.340987e+000
7.279976e+002, 9.314231e+000
7.284797e+002, 9.197215e+000
7.289618e+002, 9.107472e+000
7.294439e+002, 9.130398e+000
7.299260e+002, 9.170838e+000
7.304081e+002, 9.149769e+000
7.308903e+002, 9.076893e+000
7.313724e+002, 8.959817e+000
7.318545e+002, 8.806339e+000
7.323366e+002, 8.684572e+000
7.328187e+002, 8.669116e+000
7.333008e+002, 8.753206e+000
7.337830e+002, 8.863310e+000
7.342651e+002, 9.044483e+000
7.347472e+002, 9.154012e+000
7.352293e+002, 9.103491e+000
7.357114e+002, 9.016009e+000
7.361935e+002, 8.964527e+000
7.366757e+002, 8.950177e+000
7.371578e+002, 8.962051e+000
7.376399e+002, 9.030910e+000
7.381220e+002, 9.080607e+000
7.386041e+002, 9.027572e+000
7.390862e+002, 8.935361e+000
7.395684e+002, 8.930496e+000
7.400505e+002, 9.013850e+000
7.405326e+002, 9.051608e+000
7.410147e+002, 8.937992e+000
7.414968e+002, 8.733817e+000
7.419789e+002, 8.619875e+000
7.424611e+002, 8.604787e+000
7.429432e+002, 8.654866e+000
7.434253e+002, 8.847538e+000
7.439074e+002, 9.002539e+000
7.443895e+002, 8.992892e+000
7.448716e+002, 8.884413e+000
7.453538e+002, 8.785536e+000
7.458359e+002, 8.693585e+000
7.463180e+002, 8.675757e+000
7.468001e+002, 8.795257e+000
7.472822e+002, 8.979501e+000
7.477643e+002, 9.202717e+000
7.482465e+002, 9.424277e+000
7.487286e+002, 9.551166e+000
7.492107e+002, 9.540360e+000
7.496928e+002, 9.436196e+000
7.501749e+002, 9.271647e+000
7.506570e+002, 9.037363e+000
7.511392e+002, 8.952967e+000
7.516213e+002, 9.078766e+000
7.521034e+002, 9.216479e+000
7.525855e+002, 9.301549e+000
7.530676e+002, 9.349291e+000
7.535497e+002, 9.378284e+000
7.540319e+002, 9.388785e+000
7.545140e+002, 9.379228e+000
7.549961e+002, 9.301147e+000
7.554782e+002, 9.252955e+000
7.559603e+002, 9.330278e+000
7.564424e+002, 9.461755e+000
7.569246e+002, 9.536002e+000
7.574067e+002, 9.531687e+000
7.578888e+002, 9.504150e+000
7.583709e+002, 9.505349e+000
7.588530e+002, 9.515054e+000
7.593351e+002, 9.445441e+000
7.598173e+002, 9.279916e+000
7.602994e+002, 9.180621e+000
7.607815e+002, 9.194736e+000
7.612636e+002, 9.261381e+000
7.617457e+002, 9.347643e+000
7.622278e+002, 9.446249e+000
7.627100e+002, 9.522176e+000
7.631921e+002, 9.546270e+000
7.636742e+002, 9.591581e+000
7.641563e+002, 9.731592e+000
7.646384e+002, 9.852722e+000
7.651205e+002, 9.831511e+000
7.656027e+002, 9.711304e+000
7.660848e+002, 9.622369e+000
7.665669e+002, 9.624851e+000
7.670490e+002, 9.678515e+000
7.675311e+002, 9.738303e+000
7.680132e+002, 9.804218e+000
7.684954e+002, 9.891117e+000
7.689775e+002, 1.000875e+001
7.694596e+002, 1.006590e+001
7.699417e+002, 1.000622e+001
7.704238e+002, 9.877765e+000
7.709059e+002, 9.741186e+000
7.713881e+002, 9.553048e+000
7.718702e+002, 9.551061e+000
7.723523e+002, 9.942080e+000
7.728344e+002, 1.026668e+001
7.733165e+002, 1.032410e+001
7.737986e+002, 1.025679e+001
7.742808e+002, 1.020288e+001
7.747629e+002, 1.019685e+001
7.752450e+002, 1.024668e+001
7.757271e+002, 1.039983e+001
7.762092e+002, 1.057126e+001
7.766913e+002, 1.058801e+001
7.771735e+002, 1.050336e+001
7.776556e+002, 1.057870e+001
7.781377e+002, 1.088173e+001
7.786198e+002, 1.114396e+001
7.791019e+002, 1.111551e+001
7.795840e+002, 1.086743e+001
7.800662e+002, 1.076898e+001
7.805483e+002, 1.092907e+001
7.810304e+002, 1.103238e+001
7.815125e+002, 1.097325e+001
7.819946e+002, 1.094180e+001
7.824767e+002, 1.107258e+001
7.829589e+002, 1.128711e+001
7.834410e+002, 1.143323e+001
7.839231e+002, 1.147001e+001
7.844052e+002, 1.145990e+001
7.848873e+002, 1.138085e+001
7.853694e+002, 1.131524e+001
7.858516e+002, 1.140118e+001
7.863337e+002, 1.159696e+001
7.868158e+002, 1.172280e+001
7.872979e+002, 1.170847e+001
7.877800e+002, 1.169317e+001
7.882621e+002, 1.188315e+001
7.887443e+002, 1.226763e+001
7.892264e+002, 1.252007e+001
7.897085e+002, 1.259085e+001
7.901906e+002, 1.267098e+001
7.906727e+002, 1.286023e+001
7.911548e+002, 1.303832e+001
7.916370e+002, 1.304553e+001
7.921191e+002, 1.291421e+001
7.926012e+002, 1.287538e+001
7.930833e+002, 1.297181e+001
7.935654e+002, 1.315455e+001
7.940475e+002, 1.348735e+001
7.945297e+002, 1.384011e+001
7.950118e+002, 1.404265e+001
7.954939e+002, 1.413143e+001
7.959760e+002, 1.429344e+001
7.964581e+002, 1.463916e+001
7.969402e+002, 1.505669e+001
7.974224e+002, 1.540455e+001
7.979045e+002, 1.568098e+001
7.983866e+002, 1.584203e+001
7.988687e+002, 1.586932e+001
7.993508e+002, 1.590351e+001
7.998329e+002, 1.600097e+001
8.003151e+002, 1.617168e+001
8.007972e+002, 1.644322e+001
8.012793e+002, 1.685396e+001
8.017614e+002, 1.721780e+001
8.022435e+002, 1.748287e+001
8.027256e+002, 1.777030e+001
8.032078e+002, 1.810001e+001
8.036899e+002, 1.847898e+001
8.041720e+002, 1.895082e+001
8.046541e+002, 1.949419e+001
8.051362e+002, 1.997717e+001
8.056183e+002, 2.020801e+001
8.061005e+002, 2.048631e+001
8.065826e+002, 2.123072e+001
8.070647e+002, 2.223634e+001
8.075468e+002, 2.300991e+001
8.080289e+002, 2.348968e+001
8.085110e+002, 2.394767e+001
8.089932e+002, 2.456590e+001
8.094753e+002, 2.533531e+001
8.099574e+002, 2.623949e+001
8.104395e+002, 2.728449e+001
8.109216e+002, 2.845973e+001
8.114037e+002, 2.978279e+001
8.118859e+002, 3.119670e+001
8.123680e+002, 3.267516e+001
8.128501e+002, 3.422830e+001
8.133322e+002, 3.582451e+001
8.138143e+002, 3.742113e+001
8.142964e+002, 3.934560e+001
8.147786e+002, 4.174999e+001
8.152607e+002, 4.443189e+001
8.157428e+002, 4.726574e+001
8.162249e+002, 5.030083e+001
8.167070e+002, 5.349015e+001
8.171891e+002, 5.689269e+001
8.176713e+002, 6.082441e+001
8.181534e+002, 6.549072e+001
8.186355e+002, 7.085320e+001
8.191176e+002, 7.679036e+001
8.195997e+002, 8.333180e+001
8.200818e+002, 9.070887e+001
8.205640e+002, 9.896227e+001
8.210461e+002, 1.080202e+002
8.215282e+002, 1.177713e+002
8.220103e+002, 1.283766e+002
8.224924e+002, 1.402172e+002
8.229745e+002, 1.536035e+002
8.234567e+002, 1.677546e+002
8.239388e+002, 1.840541e+002
8.244209e+002, 1.996003e+002
8.249030e+002, 2.158314e+002
8.253851e+002, 2.295343e+002
8.258672e+002, 2.369838e+002
8.263494e+002, 2.376463e+002
8.268315e+002, 2.322512e+002
8.273136e+002, 2.197077e+002
8.277957e+002, 2.026308e+002
8.282778e+002, 1.808450e+002
8.287599e+002, 1.569776e+002
8.292421e+002, 1.351183e+002
8.297242e+002, 1.162913e+002
8.302063e+002, 1.002552e+002
8.306884e+002, 8.682014e+001
8.311705e+002, 7.580989e+001
8.316526e+002, 6.698387e+001
8.321348e+002, 6.042973e+001
8.326169e+002, 5.463000e+001
8.330990e+002, 4.942361e+001
8.335811e+002, 4.500016e+001
8.340632e+002, 4.158552e+001
8.345453e+002, 3.892139e+001
8.350275e+002, 3.638468e+001
8.355096e+002, 3.389619e+001
8.359917e+002, 3.184229e+001
8.364738e+002, 3.049145e+001
8.369559e+002, 2.925198e+001
8.374380e+002, 2.785475e+001
8.379202e+002, 2.648064e+001
8.384023e+002, 2.535901e+001
8.388844e+002, 2.449676e+001
8.393665e+002, 2.368833e+001
8.398486e+002, 2.284283e+001
8.403307e+002, 2.197057e+001
8.408129e+002, 2.104284e+001
8.412950e+002, 2.011074e+001
8.417771e+002, 1.927678e+001
8.422592e+002, 1.855603e+001
8.427413e+002, 1.790798e+001
8.432234e+002, 1.731085e+001
8.437056e+002, 1.678947e+001
8.441877e+002, 1.642978e+001
8.446698e+002, 1.625416e+001
8.451519e+002, 1.596611e+001
8.456340e+002, 1.550215e+001
8.461161e+002, 1.508515e+001
8.465983e+002, 1.479289e+001
8.470804e+002, 1.460835e+001
8.475625e+002, 1.453431e+001
8.480446e+002, 1.457903e+001
8.485267e+002, 1.458330e+001
8.490089e+002, 1.452114e+001
8.494910e+002, 1.444309e+001
8.499731e+002, 1.434298e+001
8.504552e+002, 1.424824e+001
8.509373e+002, 1.420926e+001
8.514194e+002, 1.419844e+001
8.519016e+002, 1.412619e+001
8.523837e+002, 1.394757e+001
8.528658e+002, 1.371711e+001
8.533479e+002, 1.344087e+001
8.538300e+002, 1.316506e+001
8.543121e+002, 1.295886e+001
8.547943e+002, 1.283165e+001
8.552764e+002, 1.283023e+001
8.557585e+002, 1.297717e+001
8.562406e+002, 1.310411e+001
8.567227e+002, 1.297051e+001
8.572048e+002, 1.260086e+001
8.576870e+002, 1.231468e+001
8.581691e+002, 1.214349e+001
8.586512e+002, 1.192908e+001
8.591333e+002, 1.159489e+001
8.596154e+002, 1.126704e+001
8.600975e+002, 1.107426e+001
8.605797e+002, 1.098808e+001
8.610618e+002, 1.083970e+001
8.615439e+002, 1.055915e+001
8.620260e+002, 1.033529e+001
8.625081e+002, 1.017908e+001
8.629902e+002, 1.009274e+001
8.634724e+002, 1.016084e+001
8.639545e+002, 1.026720e+001
8.644366e+002, 1.018106e+001
8.649187e+002, 9.854647e+000
8.654008e+002, 9.618038e+000
8.658829e+002, 9.823476e+000
8.663651e+002, 1.012440e+001
8.668472e+002, 1.010067e+001
8.673293e+002, 9.855701e+000
8.678114e+002, 9.613979e+000
8.682935e+002, 9.441253e+000
8.687756e+002, 9.389020e+000
8.692578e+002, 9.512341e+000
8.697399e+002, 9.730342e+000
8.702220e+002, 9.842332e+000
8.707041e+002, 9.843843e+000
8.711862e+002, 9.829570e+000
8.716683e+002, 9.815734e+000
8.721505e+002, 9.744192e+000
8.726326e+002, 9.533042e+000
8.731147e+002, 9.308381e+000
8.735968e+002, 9.310742e+000
8.740789e+002, 9.613959e+000
8.745610e+002, 9.743425e+000
8.750432e+002, 9.489665e+000
8.755253e+002, 9.345013e+000
8.760074e+002, 9.517774e+000
8.764895e+002, 9.765353e+000
8.769716e+002, 9.890470e+000
8.774537e+002, 9.901874e+000
8.779359e+002, 9.904044e+000
8.784180e+002, 9.930035e+000
8.789001e+002, 9.957874e+000
8.793822e+002, 9.948663e+000
8.798643e+002, 9.952632e+000
8.803464e+002, 1.006852e+001
8.808286e+002, 1.024496e+001
8.813107e+002, 1.031093e+001
8.817928e+002, 1.021380e+001
8.822749e+002, 1.012330e+001
8.827570e+002, 1.023955e+001
8.832391e+002, 1.049788e+001
8.837213e+002, 1.069694e+001
8.842034e+002, 1.083991e+001
8.846855e+002, 1.098958e+001
8.851676e+002, 1.116806e+001
8.856497e+002, 1.129264e+001
8.861318e+002, 1.128841e+001
8.866140e+002, 1.119346e+001
8.870961e+002, 1.113214e+001
8.875782e+002, 1.109142e+001
8.880603e+002, 1.112043e+001
8.885424e+002, 1.126173e+001
8.890245e+002, 1.141428e+001
8.895067e+002, 1.154627e+001
8.899888e+002, 1.166299e+001
8.904709e+002, 1.176063e+001
8.909530e+002, 1.184023e+001
8.914351e+002, 1.194783e+001
8.919172e+002, 1.212876e+001
8.923994e+002, 1.229538e+001
8.928815e+002, 1.242077e+001
8.933636e+002, 1.250876e+001
8.938457e+002, 1.252188e+001
8.943278e+002, 1.250380e+001
8.948099e+002, 1.259048e+001
8.952921e+002, 1.285601e+001
8.957742e+002, 1.309823e+001
8.962563e+002, 1.311036e+001
8.967384e+002, 1.297998e+001
8.972205e+002, 1.278208e+001
8.977026e+002, 1.257275e+001
8.981848e+002, 1.258882e+001
8.986669e+002, 1.289075e+001
8.991490e+002, 1.317015e+001
8.996311e+002, 1.310375e+001
9.001132e+002, 1.280648e+001
9.005953e+002, 1.273403e+001
9.010775e+002, 1.291048e+001
9.015596e+002, 1.304042e+001
9.020417e+002, 1.308735e+001
9.025238e+002, 1.306823e+001
9.030059e+002, 1.297293e+001
9.034880e+002, 1.283765e+001
9.039702e+002, 1.273096e+001
9.044523e+002, 1.264696e+001
9.049344e+002, 1.261696e+001
9.054165e+002, 1.276703e+001
9.058986e+002, 1.280724e+001
9.063807e+002, 1.256236e+001
9.068629e+002, 1.226956e+001
9.073450e+002, 1.215098e+001
9.078271e+002, 1.217428e+001
9.083092e+002, 1.215718e+001
9.087913e+002, 1.203484e+001
9.092734e+002, 1.190330e+001
9.097556e+002, 1.183052e+001
9.102377e+002, 1.174462e+001
9.107198e+002, 1.156295e+001
9.112019e+002, 1.132312e+001
9.116840e+002, 1.109367e+001
9.121661e+002, 1.090049e+001
9.126483e+002, 1.076148e+001
9.131304e+002, 1.073078e+001
9.136125e+002, 1.072854e+001
9.140946e+002, 1.058111e+001
9.145767e+002, 1.035306e+001
9.150588e+002, 1.028053e+001
9.155410e+002, 1.038820e+001
9.160231e+002, 1.049429e+001
9.165052e+002, 1.048751e+001
9.169873e+002, 1.039175e+001
9.174694e+002, 1.020350e+001
9.179515e+002, 9.911453e+000
9.184337e+002, 9.899275e+000
9.189158e+002, 1.026422e+001
9.193979e+002, 1.044734e+001
9.198800e+002, 1.018371e+001
9.203621e+002, 9.815878e+000
9.208442e+002, 9.705493e+000
9.213264e+002, 9.827886e+000
9.218085e+002, 9.928466e+000
9.222906e+002, 1.008215e+001
9.227727e+002, 1.008966e+001
9.232548e+002, 9.731376e+000
9.237369e+002, 9.461233e+000
9.242191e+002, 9.582776e+000
9.247012e+002, 9.886601e+000
9.251833e+002, 1.005008e+001
9.256654e+002, 1.003154e+001
9.261475e+002, 1.001044e+001
9.266296e+002, 1.001086e+001
9.271118e+002, 1.005555e+001
9.275939e+002, 1.027842e+001
9.280760e+002, 1.046583e+001
9.285581e+002, 1.027826e+001
9.290402e+002, 9.830037e+000
9.295223e+002, 9.578834e+000
9.300045e+002, 9.743217e+000
9.304866e+002, 1.002319e+001
9.309687e+002, 1.018696e+001
9.314508e+002, 1.026772e+001
9.319329e+002, 1.030507e+001
9.324150e+002, 1.030566e+001
9.328972e+002, 1.026745e+001
9.333793e+002, 1.019565e+001
9.338614e+002, 1.013452e+001
9.343435e+002, 1.012211e+001
9.348256e+002, 1.014878e+001
9.353077e+002, 1.020959e+001
9.357899e+002, 1.029867e+001
9.362720e+002, 1.030488e+001
9.367541e+002, 1.020396e+001
9.372362e+002, 1.018903e+001
9.377183e+002, 1.038790e+001
9.382004e+002, 1.061151e+001
9.386826e+002, 1.053829e+001
9.391647e+002, 1.015577e+001
9.396468e+002, 1.008981e+001
9.401289e+002, 1.051732e+001
9.406110e+002, 1.082940e+001
9.410931e+002, 1.086937e+001
9.415753e+002, 1.081973e+001
9.420574e+002, 1.077230e+001
9.425395e+002, 1.073774e+001
9.430216e+002, 1.074300e+001
9.435037e+002, 1.079301e+001
9.439858e+002, 1.086815e+001
9.444680e+002, 1.101076e+001
9.449501e+002, 1.112487e+001
9.454322e+002, 1.114784e+001
9.459143e+002, 1.114457e+001
9.463964e+002, 1.115403e+001
9.468785e+002, 1.119751e+001
9.473607e+002, 1.133707e+001
9.478428e+002, 1.164852e+001
9.483249e+002, 1.194153e+001
9.488070e+002, 1.211101e+001
9.492891e+002, 1.221678e+001
9.497712e+002, 1.227202e+001
9.502534e+002, 1.232039e+001
9.507355e+002, 1.242076e+001
9.512176e+002, 1.259320e+001
9.516997e+002, 1.285453e+001
9.521818e+002, 1.328619e+001
9.526639e+002, 1.372263e+001
9.531461e+002, 1.392461e+001
9.536282e+002, 1.395663e+001
9.541103e+002, 1.391973e+001
9.545924e+002, 1.385513e+001
9.550745e+002, 1.387786e+001
9.555566e+002, 1.404616e+001
9.560388e+002, 1.429045e+001
9.565209e+002, 1.454307e+001
9.570030e+002, 1.478883e+001
9.574851e+002, 1.494375e+001
9.579672e+002, 1.500887e+001
9.584493e+002, 1.501754e+001
9.589315e+002, 1.496329e+001
9.594136e+002, 1.498120e+001
9.598957e+002, 1.519696e+001
9.603778e+002, 1.550237e+001
9.608599e+002, 1.558618e+001
9.613420e+002, 1.535964e+001
9.618242e+002, 1.538582e+001
9.623063e+002, 1.578473e+001
9.627884e+002, 1.614164e+001
9.632705e+002, 1.631666e+001
9.637526e+002, 1.639906e+001
9.642347e+002, 1.640752e+001
9.647169e+002, 1.638123e+001
9.651990e+002, 1.661339e+001
9.656811e+002, 1.733459e+001
9.661632e+002, 1.796231e+001
9.666453e+002, 1.847812e+001
9.671274e+002, 1.891989e+001
9.676096e+002, 1.924813e+001
9.680917e+002, 1.954650e+001
9.685738e+002, 1.985238e+001
9.690559e+002, 2.018918e+001
9.695380e+002, 2.079201e+001
9.700201e+002, 2.196026e+001
9.705023e+002, 2.308655e+001
9.709844e+002, 2.388087e+001
9.714665e+002, 2.462054e+001
9.719486e+002, 2.544817e+001
9.724307e+002, 2.643287e+001
9.729128e+002, 2.768781e+001
9.733950e+002, 2.923834e+001
9.738771e+002, 3.088859e+001
9.743592e+002, 3.252697e+001
9.748413e+002, 3.423226e+001
9.753234e+002, 3.597972e+001
9.758055e+002, 3.789611e+001
9.762877e+002, 4.014289e+001
9.767698e+002, 4.274424e+001
9.772519e+002, 4.571064e+001
9.777340e+002, 4.905321e+001
9.782161e+002, 5.259946e+001
9.786982e+002, 5.602366e+001
9.791804e+002, 5.957948e+001
9.796625e+002, 6.362275e+001
9.801446e+002, 6.818621e+001
9.806267e+002, 7.348884e+001
9.811088e+002, 7.951108e+001
9.815909e+002, 8.588860e+001
9.820731e+002, 9.237495e+001
9.825552e+002, 9.907223e+001
9.830373e+002, 1.061626e+002
9.835194e+002, 1.136637e+002
9.840015e+002, 1.218154e+002
9.844836e+002, 1.306523e+002
9.849658e+002, 1.399009e+002
9.854479e+002, 1.495093e+002
9.859300e+002, 1.593510e+002
9.864121e+002, 1.694870e+002
9.868942e+002, 1.794829e+002
9.873763e+002, 1.875484e+002
9.878585e+002, 1.934925e+002
9.883406e+002, 1.989019e+002
9.888227e+002, 2.041190e+002
9.893048e+002, 2.079296e+002
9.897869e+002, 2.097526e+002
9.902690e+002, 2.100102e+002
9.907512e+002, 2.090178e+002
9.912333e+002, 2.068534e+002
9.917154e+002, 2.045086e+002
9.921975e+002, 2.020436e+002
9.926796e+002, 1.992506e+002
9.931617e+002, 1.959727e+002
9.936439e+002, 1.925737e+002
9.941260e+002, 1.891800e+002
9.946081e+002, 1.857597e+002
9.950902e+002, 1.823413e+002
9.955723e+002, 1.789456e+002
9.960544e+002, 1.750350e+002
9.965366e+002, 1.709424e+002
9.970187e+002, 1.658027e+002
9.975008e+002, 1.593589e+002
9.979829e+002, 1.519477e+002
9.984650e+002, 1.432821e+002
9.989471e+002, 1.339394e+002
9.994293e+002, 1.248230e+002
9.999114e+002, 1.160122e+002
1.000393e+003, 1.078152e+002
1.000876e+003, 1.004434e+002
1.001358e+003, 9.358724e+001
1.001840e+003, 8.691175e+001
1.002322e+003, 8.096133e+001
1.002804e+003, 7.634053e+001
1.003286e+003, 7.280171e+001
1.003768e+003, 6.974880e+001
1.004250e+003, 6.705427e+001
1.004733e+003, 6.446871e+001
1.005215e+003, 6.222896e+001
1.005697e+003, 5.966988e+001
1.006179e+003, 5.613173e+001
1.006661e+003, 5.209404e+001
1.007143e+003, 4.798115e+001
1.007625e+003, 4.400071e+001
1.008107e+003, 4.035886e+001
1.008589e+003, 3.715718e+001
1.009072e+003, 3.431108e+001
1.009554e+003, 3.177505e+001
1.010036e+003, 2.955698e+001
1.010518e+003, 2.769678e+001
1.011000e+003, 2.614898e+001
1.011482e+003, 2.483606e+001
1.011964e+003, 2.372226e+001
1.012446e+003, 2.275236e+001
1.012929e+003, 2.189450e+001
1.013411e+003, 2.109733e+001
1.013893e+003, 2.027472e+001
1.014375e+003, 1.947686e+001
1.014857e+003, 1.878983e+001
1.015339e+003, 1.821747e+001
1.015821e+003, 1.776517e+001
1.016303e+003, 1.742744e+001
1.016785e+003, 1.715579e+001
1.017268e+003, 1.692196e+001
1.017750e+003, 1.670449e+001
1.018232e+003, 1.651145e+001
1.018714e+003, 1.630156e+001
1.019196e+003, 1.582475e+001
1.019678e+003, 1.512170e+001
1.020160e+003, 1.460790e+001
1.020642e+003, 1.439486e+001
1.021125e+003, 1.426032e+001
1.021607e+003, 1.402190e+001
1.022089e+003, 1.374839e+001
1.022571e+003, 1.362997e+001
1.023053e+003, 1.365158e+001
1.023535e+003, 1.350374e+001
1.024017e+003, 1.316602e+001
1.024499e+003, 1.291227e+001
1.024981e+003, 1.283490e+001
1.025464e+003, 1.281549e+001
1.025946e+003, 1.275402e+001
1.026428e+003, 1.265561e+001
1.026910e+003, 1.254188e+001
1.027392e+003, 1.241796e+001
1.027874e+003, 1.220271e+001
1.028356e+003, 1.185274e+001
1.028838e+003, 1.162247e+001
1.029321e+003, 1.163110e+001
1.029803e+003, 1.169990e+001
1.030285e+003, 1.166081e+001
1.030767e+003, 1.152985e+001
1.031249e+003, 1.136969e+001
1.031731e+003, 1.115342e+001
1.032213e+003, 1.100992e+001
1.032695e+003, 1.095188e+001
1.033177e+003, 1.095273e+001
1.033660e+003, 1.105643e+001
1.034142e+003, 1.112160e+001
1.034624e+003, 1.095714e+001
1.035106e+003, 1.062325e+001
1.035588e+003, 1.051407e+001
1.036070e+003, 1.077780e+001
1.036552e+003, 1.091229e+001
1.037034e+003, 1.089966e+001
1.037516e+003, 1.076429e+001
1.037999e+003, 1.039920e+001
1.038481e+003, 1.003745e+001
1.038963e+003, 9.949040e+000
1.039445e+003, 1.009915e+001
1.039927e+003, 1.021909e+001
1.040409e+003, 1.032058e+001
1.040891e+003, 1.037096e+001
1.041373e+003, 1.034077e+001
1.041855e+003, 1.029695e+001
1.042338e+003, 1.026403e+001
1.042820e+003, 1.022919e+001
1.043302e+003, 1.016971e+001
1.043784e+003, 1.009205e+001
1.044266e+003, 1.004587e+001
1.044748e+003, 1.011823e+001
1.045230e+003, 1.007796e+001
1.045712e+003, 9.739377e+000
1.046195e+003, 9.495693e+000
1.046677e+003, 9.609409e+000
1.047159e+003, 9.819201e+000
1.047641e+003, 9.823657e+000
1.048123e+003, 9.647040e+000
1.048605e+003, 9.535735e+000
1.049087e+003, 9.554516e+000
1.049569e+003, 9.568496e+000
1.050052e+003, 9.532790e+000
1.050534e+003, 9.518828e+000
1.051016e+003, 9.599751e+000
1.051498e+003, 9.690965e+000
1.051980e+003, 9.694948e+000
1.052462e+003, 9.616958e+000
1.052944e+003, 9.527822e+000
1.053426e+003, 9.428797e+000
1.053908e+003, 9.341626e+000
1.054391e+003, 9.276532e+000
1.054873e+003, 9.218739e+000
1.055355e+003, 9.146942e+000
1.055837e+003, 9.087785e+000
1.056319e+003, 9.080701e+000
1.056801e+003, 9.117471e+000
1.057283e+003, 9.151195e+000
1.057765e+003, 9.204500e+000
1.058248e+003, 9.174069e+000
1.058730e+003, 8.917516e+000
1.059212e+003, 8.696941e+000
1.059694e+003, 8.636577e+000
1.060176e+003, 8.706660e+000
1.060658e+003, 8.949647e+000
1.061140e+003, 9.291581e+000
1.061622e+003, 9.454787e+000
1.062104e+003, 9.310925e+000
1.062587e+003, 9.136956e+000
1.063069e+003, 9.014701e+000
1.063551e+003, 8.910648e+000
1.064033e+003, 8.768488e+000
1.064515e+003, 8.659984e+000
1.064997e+003, 8.706550e+000
1.065479e+003, 8.866675e+000
1.065961e+003, 8.965997e+000
1.066443e+003, 8.953609e+000
1.066926e+003, 8.879775e+000
1.067408e+003, 8.678180e+000
1.067890e+003, 8.520155e+000
1.068372e+003, 8.539409e+000
1.068854e+003, 8.634686e+000
1.069336e+003, 8.708573e+000
1.069818e+003, 8.746351e+000
1.070300e+003, 8.752749e+000
1.070782e+003, 8.725466e+000
1.071265e+003, 8.685122e+000
1.071747e+003, 8.636944e+000
1.072229e+003, 8.582691e+000
1.072711e+003, 8.495264e+000
1.073193e+003, 8.423566e+000
1.073675e+003, 8.440121e+000
1.074157e+003, 8.517936e+000
1.074639e+003, 8.570062e+000
1.075122e+003, 8.570705e+000
1.075604e+003, 8.557893e+000
1.076086e+003, 8.598005e+000
1.076568e+003, 8.571704e+000
1.077050e+003, 8.295247e+000
1.077532e+003, 8.007816e+000
1.078014e+003, 7.982325e+000
1.078496e+003, 8.154956e+000
1.078979e+003, 8.313846e+000
1.079461e+003, 8.404151e+000
1.079943e+003, 8.489414e+000
1.080425e+003, 8.650630e+000
1.080907e+003, 8.749213e+000
1.081389e+003, 8.678315e+000
1.081871e+003, 8.534404e+000
1.082353e+003, 8.349700e+000
1.082835e+003, 8.185230e+000
1.083318e+003, 8.154235e+000
1.083800e+003, 8.280602e+000
1.084282e+003, 8.435483e+000
1.084764e+003, 8.634031e+000
1.085246e+003, 8.757446e+000
1.085728e+003, 8.720284e+000
1.086210e+003, 8.606994e+000
1.086692e+003, 8.409889e+000
1.087175e+003, 8.225099e+000
1.087657e+003, 8.256008e+000
1.088139e+003, 8.516197e+000
1.088621e+003, 8.673429e+000
1.089103e+003, 8.526801e+000
1.089585e+003, 8.347939e+000
1.090067e+003, 8.211216e+000
1.090549e+003, 8.128755e+000
1.091031e+003, 8.139129e+000
1.091514e+003, 8.194901e+000
1.091996e+003, 8.228120e+000
1.092478e+003, 8.231406e+000
1.092960e+003, 8.239760e+000
1.093442e+003, 8.290586e+000
1.093924e+003, 8.300017e+000
1.094406e+003, 8.227569e+000
1.094888e+003, 8.113555e+000
1.095370e+003, 7.918287e+000
1.095853e+003, 7.739936e+000
1.096335e+003, 7.697937e+000
1.096817e+003, 7.791879e+000
1.097299e+003, 7.964715e+000
1.097781e+003, 8.284588e+000
1.098263e+003, 8.467607e+000
1.098745e+003, 8.312577e+000
1.099227e+003, 8.129958e+000
1.099709e+003, 8.078048e+000
1.100192e+003, 8.085008e+000
1.100674e+003, 8.063632e+000
1.101156e+003, 8.025665e+000
1.101638e+003, 8.048088e+000
1.102120e+003, 8.179859e+000
1.102602e+003, 8.239217e+000
1.103084e+003, 8.146341e+000
1.103566e+003, 8.018858e+000
1.104049e+003, 7.848546e+000
1.104531e+003, 7.711179e+000
1.105013e+003, 7.663085e+000
1.105495e+003, 7.698185e+000
1.105977e+003, 7.827181e+000
1.106459e+003, 8.087866e+000
1.106941e+003, 8.189593e+000
1.107423e+003, 7.946057e+000
1.107906e+003, 7.730577e+000
1.108388e+003, 7.668579e+000
1.108870e+003, 7.638242e+000
1.109352e+003, 7.537538e+000
1.109834e+003, 7.423573e+000
1.110316e+003, 7.407974e+000
1.110798e+003, 7.501127e+000
1.111280e+003, 7.587637e+000
1.111762e+003, 7.650862e+000
1.112245e+003, 7.718916e+000
1.112727e+003, 7.884270e+000
1.113209e+003, 7.953702e+000
1.113691e+003, 7.721052e+000
1.114173e+003, 7.411465e+000
1.114655e+003, 7.328319e+000
1.115137e+003, 7.453619e+000
1.115619e+003, 7.527295e+000
1.116102e+003, 7.494466e+000
1.116584e+003, 7.508634e+000
1.117066e+003, 7.636572e+000
1.117548e+003, 7.713339e+000
1.118030e+003, 7.639315e+000
1.118512e+003, 7.537639e+000
1.118994e+003, 7.536220e+000
1.119476e+003, 7.603210e+000
1.119958e+003, 7.604668e+000
1.120441e+003, 7.499826e+000
1.120923e+003, 7.465253e+000
1.121405e+003, 7.551268e+000
1.121887e+003, 7.596329e+000
1.122369e+003, 7.550546e+000
1.122851e+003, 7.467127e+000
1.123333e+003, 7.369702e+000
1.123815e+003, 7.277475e+000
1.124297e+003, 7.234609e+000
1.124780e+003, 7.244446e+000
1.125262e+003, 7.269520e+000
1.125744e+003, 7.331531e+000
1.126226e+003, 7.313922e+000
1.126708e+003, 7.163412e+000
1.127190e+003, 7.039923e+000
1.127672e+003, 7.026312e+000
1.128154e+003, 7.105596e+000
1.128636e+003, 7.277749e+000
1.129119e+003, 7.517090e+000
1.129601e+003, 7.588132e+000
1.130083e+003, 7.473071e+000
1.130565e+003, 7.399284e+000
1.131047e+003, 7.398326e+000
1.131529e+003, 7.342252e+000
1.132011e+003, 7.169539e+000
1.132493e+003, 6.996897e+000
1.132976e+003, 6.938870e+000
1.133458e+003, 6.979385e+000
1.133940e+003, 7.103562e+000
1.134422e+003, 7.298583e+000
1.134904e+003, 7.394725e+000
1.135386e+003, 7.386971e+000
1.135868e+003, 7.329134e+000
1.136350e+003, 7.237013e+000
1.136833e+003, 7.136542e+000
1.137315e+003, 7.040566e+000
1.137797e+003, 6.980921e+000
1.138279e+003, 7.049197e+000
1.138761e+003, 7.190431e+000
1.139243e+003, 7.203722e+000
1.139725e+003, 7.113863e+000
1.140207e+003, 7.010006e+000
1.140689e+003, 6.919022e+000
1.141172e+003, 6.907609e+000
1.141654e+003, 7.005574e+000
1.142136e+003, 7.086851e+000
1.142618e+003, 6.994365e+000
1.143100e+003, 6.825334e+000
1.143582e+003, 6.713013e+000
1.144064e+003, 6.663116e+000
1.144546e+003, 6.707518e+000
1.145029e+003, 6.823357e+000
1.145511e+003, 6.941228e+000
1.145993e+003, 7.041183e+000
1.146475e+003, 7.152944e+000
1.146957e+003, 7.318487e+000
1.147439e+003, 7.447829e+000
1.147921e+003, 7.470099e+000
1.148403e+003, 7.391164e+000
1.148885e+003, 7.108098e+000
1.149368e+003, 6.783072e+000
1.149850e+003, 6.732601e+000
1.150332e+003, 6.935219e+000
1.150814e+003, 7.090420e+000
1.151296e+003, 7.070827e+000
1.151778e+003, 7.016340e+000
1.152260e+003, 6.990613e+000
1.152742e+003, 6.981785e+000
1.153224e+003, 6.999616e+000
1.153707e+003, 7.015466e+000
1.154189e+003, 7.002447e+000
1.154671e+003, 6.961919e+000
1.155153e+003, 6.886905e+000
1.155635e+003, 6.774875e+000
1.156117e+003, 6.726679e+000
1.156599e+003, 6.797121e+000
1.157081e+003, 6.903005e+000
1.157563e+003, 7.122985e+000
1.158046e+003, 7.256562e+000
1.158528e+003, 7.087107e+000
1.159010e+003, 6.815235e+000
1.159492e+003, 6.729459e+000
1.159974e+003, 6.815339e+000
1.160456e+003, 6.808908e+000
1.160938e+003, 6.567367e+000
1.161420e+003, 6.471445e+000
1.161903e+003, 6.632058e+000
1.162385e+003, 6.803400e+000
1.162867e+003, 6.950545e+000
1.163349e+003, 7.049071e+000
1.163831e+003, 7.075470e+000
1.164313e+003, 7.041556e+000
1.164795e+003, 6.968233e+000
1.165277e+003, 6.845957e+000
1.165760e+003, 6.760397e+000
1.166242e+003, 6.707789e+000
1.166724e+003, 6.716074e+000
1.167206e+003, 6.822221e+000
1.167688e+003, 6.882263e+000
1.168170e+003, 6.815621e+000
1.168652e+003, 6.676214e+000
1.169134e+003, 6.502610e+000
1.169616e+003, 6.343306e+000
1.170099e+003, 6.503165e+000
1.170581e+003, 6.989281e+000
1.171063e+003, 7.157269e+000
1.171545e+003, 6.966006e+000
1.172027e+003, 6.797856e+000
1.172509e+003, 6.768846e+000
1.172991e+003, 6.738504e+000
1.173473e+003, 6.586411e+000
1.173956e+003, 6.447041e+000
1.174438e+003, 6.635731e+000
1.174920e+003, 7.005546e+000
1.175402e+003, 7.043023e+000
1.175884e+003, 6.832624e+000
1.176366e+003, 6.675295e+000
1.176848e+003, 6.616003e+000
1.177330e+003, 6.597736e+000
1.177813e+003, 6.595084e+000
1.178295e+003, 6.612758e+000
1.178777e+003, 6.676847e+000
1.179259e+003, 6.731098e+000
1.179741e+003, 6.699895e+000
1.180223e+003, 6.618154e+000
1.180705e+003, 6.461005e+000
1.181187e+003, 6.322479e+000
1.181669e+003, 6.450832e+000
1.182151e+003, 6.821827e+000
1.182634e+003, 7.076132e+000
1.183116e+003, 7.037012e+000
1.183598e+003, 6.908452e+000
1.184080e+003, 6.737372e+000
1.184562e+003, 6.600210e+000
1.185044e+003, 6.563581e+000
1.185526e+003, 6.574131e+000
1.186008e+003, 6.599685e+000
1.186490e+003, 6.618238e+000
1.186973e+003, 6.576600e+000
1.187455e+003, 6.459322e+000
1.187937e+003, 6.414273e+000
1.188419e+003, 6.506817e+000
1.188901e+003, 6.619418e+000
1.189383e+003, 6.800035e+000
1.189865e+003, 6.913438e+000
1.190347e+003, 6.848679e+000
1.190830e+003, 6.714243e+000
1.191312e+003, 6.605587e+000
1.191794e+003, 6.527391e+000
1.192276e+003, 6.508677e+000
1.192758e+003, 6.586771e+000
1.193240e+003, 6.586319e+000
1.193722e+003, 6.455359e+000
1.194204e+003, 6.416008e+000
1.194687e+003, 6.560079e+000
1.195169e+003, 6.664433e+000
1.195651e+003, 6.568779e+000
1.196133e+003, 6.408748e+000
1.196615e+003, 6.409362e+000
1.197097e+003, 6.537880e+000
1.197579e+003, 6.593312e+000
1.198061e+003, 6.579287e+000
1.198543e+003, 6.550497e+000
1.199026e+003, 6.515683e+000
1.199508e+003, 6.538916e+000
1.199990e+003, 6.636205e+000
1.200472e+003, 6.680007e+000
1.200954e+003, 6.561369e+000
1.201436e+003, 6.371428e+000
1.201918e+003, 6.174963e+000
1.202400e+003, 6.048552e+000
1.202883e+003, 6.231248e+000
1.203365e+003, 6.580606e+000
1.203847e+003, 6.785059e+000
1.204329e+003, 6.813592e+000
1.204811e+003, 6.742996e+000
1.205293e+003, 6.606682e+000
1.205775e+003, 6.489413e+000
1.206257e+003, 6.461581e+000
1.206740e+003, 6.456096e+000
1.207222e+003, 6.368022e+000
1.207704e+003, 6.335088e+000
1.208186e+003, 6.584943e+000
1.208668e+003, 6.912427e+000
1.209150e+003, 6.997629e+000
1.209632e+003, 6.849198e+000
1.210114e+003, 6.696653e+000
1.210596e+003, 6.569559e+000
1.211078e+003, 6.510640e+000
1.211561e+003, 6.609326e+000
1.212043e+003, 6.664507e+000
1.212525e+003, 6.535733e+000
1.213007e+003, 6.432773e+000
1.213489e+003, 6.549617e+000
1.213971e+003, 6.728442e+000
1.214453e+003, 6.695163e+000
1.214935e+003, 6.469203e+000
1.215417e+003, 6.429098e+000
1.215900e+003, 6.662916e+000
1.216382e+003, 6.739227e+000
1.216864e+003, 6.606218e+000
1.217346e+003, 6.423281e+000
1.217828e+003, 6.215186e+000
1.218310e+003, 6.119691e+000
1.218792e+003, 6.266421e+000
1.219274e+003, 6.488782e+000
1.219757e+003, 6.448083e+000
1.220239e+003, 6.218318e+000
1.220721e+003, 6.158401e+000
1.221203e+003, 6.239811e+000
1.221685e+003, 6.338202e+000
1.222167e+003, 6.430433e+000
1.222649e+003, 6.520354e+000
1.223131e+003, 6.600564e+000
1.223614e+003, 6.564816e+000
1.224096e+003, 6.271749e+000
1.224578e+003, 6.017357e+000
1.225060e+003, 6.226187e+000
1.225542e+003, 6.568540e+000
1.226024e+003, 6.668809e+000
1.226506e+003, 6.614817e+000
1.226988e+003, 6.510477e+000
1.227470e+003, 6.419584e+000
1.227953e+003, 6.478614e+000
1.228435e+003, 6.733377e+000
1.228917e+003, 6.886084e+000
1.229399e+003, 6.757028e+000
1.229881e+003, 6.601427e+000
1.230363e+003, 6.497644e+000
1.230845e+003, 6.395895e+000
1.231327e+003, 6.207497e+000
1.231810e+003, 6.047980e+000
1.232292e+003, 6.074294e+000
1.232774e+003, 6.248112e+000
1.233256e+003, 6.426142e+000
1.233738e+003, 6.626004e+000
1.234220e+003, 6.756727e+000
1.234702e+003, 6.822766e+000
1.235184e+003, 6.784413e+000
1.235667e+003, 6.592619e+000
1.236149e+003, 6.469889e+000
1.236631e+003, 6.547216e+000
1.237113e+003, 6.670067e+000
1.237595e+003, 6.647707e+000
1.238077e+003, 6.537768e+000
1.238559e+003, 6.520203e+000
1.239041e+003, 6.572752e+000
1.239523e+003, 6.568575e+000
1.240005e+003, 6.520881e+000
1.240488e+003, 6.540538e+000
1.240970e+003, 6.632986e+000
1.241452e+003, 6.675396e+000
1.241934e+003, 6.606711e+000
1.242416e+003, 6.532152e+000
1.242898e+003, 6.574175e+000
1.243380e+003, 6.627693e+000
1.243862e+003, 6.576963e+000
1.244344e+003, 6.488717e+000
1.244827e+003, 6.389649e+000
1.245309e+003, 6.335062e+000
1.245791e+003, 6.450350e+000
1.246273e+003, 6.700403e+000
1.246755e+003, 6.853120e+000
1.247237e+003, 6.836739e+000
1.247719e+003, 6.766501e+000
1.248201e+003, 6.626321e+000
1.248684e+003, 6.494804e+000
1.249166e+003, 6.376043e+000
1.249648e+003, 6.295216e+000
1.250130e+003, 6.267157e+000
1.250612e+003, 6.285350e+000
1.251094e+003, 6.352471e+000
1.251576e+003, 6.457334e+000
1.252058e+003, 6.514921e+000
1.252541e+003, 6.506679e+000
1.253023e+003, 6.625619e+000
1.253505e+003, 6.902295e+000
1.253987e+003, 6.956966e+000
1.254469e+003, 6.696175e+000
1.254951e+003, 6.480627e+000
1.255433e+003, 6.520772e+000
1.255915e+003, 6.642682e+000
1.256397e+003, 6.615890e+000
1.256880e+003, 6.554894e+000
1.257362e+003, 6.788175e+000
1.257844e+003, 7.097075e+000
1.258326e+003, 6.966400e+000
1.258808e+003, 6.559949e+000
1.259290e+003, 6.313910e+000
1.259772e+003, 6.301610e+000
1.260254e+003, 6.401122e+000
1.260737e+003, 6.585907e+000
1.261219e+003, 6.695251e+000
1.261701e+003, 6.546727e+000
1.262183e+003, 6.433222e+000
1.262665e+003, 6.563317e+000
1.263147e+003, 6.709243e+000
1.263629e+003, 6.645133e+000
1.264111e+003, 6.530719e+000
1.264594e+003, 6.645982e+000
1.265076e+003, 6.938757e+000
1.265558e+003, 7.066029e+000
1.266040e+003, 6.980217e+000
1.266522e+003, 6.901314e+000
1.267004e+003, 6.839559e+000
1.267486e+003, 6.735310e+000
1.267968e+003, 6.556349e+000
1.268450e+003, 6.438827e+000
1.268932e+003, 6.455698e+000
1.269415e+003, 6.543449e+000
1.269897e+003, 6.644105e+000
1.270379e+003, 6.733762e+000
1.270861e+003, 6.752709e+000
1.271343e+003, 6.714543e+000
1.271825e+003, 6.625741e+000
1.272307e+003, 6.524154e+000
1.272789e+003, 6.511139e+000
1.273271e+003, 6.597510e+000
1.273754e+003, 6.788856e+000
1.274236e+003, 7.078996e+000
1.274718e+003, 7.213703e+000
1.275200e+003, 6.869436e+000
1.275682e+003, 6.560117e+000
1.276164e+003, 6.666142e+000
1.276646e+003, 6.831616e+000
1.277128e+003, 6.794485e+000
1.277611e+003, 6.679684e+000
1.278093e+003, 6.634531e+000
1.278575e+003, 6.649689e+000
1.279057e+003, 6.660406e+000
1.279539e+003, 6.659291e+000
1.280021e+003, 6.703316e+000
1.280503e+003, 6.840694e+000
1.280985e+003, 6.876425e+000
1.281468e+003, 6.774071e+000
1.281950e+003, 6.624916e+000
1.282432e+003, 6.442853e+000
1.282914e+003, 6.344571e+000
1.283396e+003, 6.444057e+000
1.283878e+003, 6.613625e+000
1.284360e+003, 6.579942e+000
1.284842e+003, 6.436867e+000
1.285324e+003, 6.449389e+000
##END=



