##NAMES=Metarossite
##RRUFFID=R100065
##IDEAL CHEMISTRY=CaV^5+^_2_O_6_&#183;2H_2_O
##LOCALITY=Blue Cap mine, San Juan County, Utah, USA
##OWNER=RRUFF
##SOURCE=Bob Jenkins
##DESCRIPTION=Pale yellow bladed crystals
##STATUS=The identification of this mineral has been confirmed by single-crystal X-ray diffraction.
##URL=rruff.info/R100065
##MEASURED CHEMISTRY=Ca_0.94_V^5+^_2.02_O_6_Â·2H_2_O
8.930109e+001, 0.000000e+000
8.978320e+001, 2.884386e+003
9.026532e+001, 2.835941e+003
9.074744e+001, 2.830553e+003
9.122955e+001, 2.881709e+003
9.171167e+001, 2.959987e+003
9.219379e+001, 3.031047e+003
9.267590e+001, 3.097319e+003
9.315802e+001, 3.162292e+003
9.364014e+001, 3.226791e+003
9.412225e+001, 3.291772e+003
9.460437e+001, 3.358734e+003
9.508649e+001, 3.431631e+003
9.556860e+001, 3.503538e+003
9.605072e+001, 3.564169e+003
9.653284e+001, 3.616475e+003
9.701495e+001, 3.660087e+003
9.749707e+001, 3.698039e+003
9.797919e+001, 3.730451e+003
9.846130e+001, 3.743257e+003
9.894342e+001, 3.732887e+003
9.942554e+001, 3.700383e+003
9.990765e+001, 3.650107e+003
1.003898e+002, 3.580333e+003
1.008719e+002, 3.497654e+003
1.013540e+002, 3.410008e+003
1.018361e+002, 3.315836e+003
1.023182e+002, 3.220641e+003
1.028004e+002, 3.123235e+003
1.032825e+002, 3.020831e+003
1.037646e+002, 2.930857e+003
1.042467e+002, 2.852065e+003
1.047288e+002, 2.785842e+003
1.052109e+002, 2.736645e+003
1.056931e+002, 2.706212e+003
1.061752e+002, 2.687988e+003
1.066573e+002, 2.678998e+003
1.071394e+002, 2.681032e+003
1.076215e+002, 2.688760e+003
1.081036e+002, 2.702582e+003
1.085858e+002, 2.722045e+003
1.090679e+002, 2.745006e+003
1.095500e+002, 2.773949e+003
1.100321e+002, 2.804700e+003
1.105142e+002, 2.834832e+003
1.109963e+002, 2.857220e+003
1.114785e+002, 2.886863e+003
1.119606e+002, 2.925660e+003
1.124427e+002, 2.973396e+003
1.129248e+002, 3.026478e+003
1.134069e+002, 3.084748e+003
1.138890e+002, 3.147611e+003
1.143712e+002, 3.215334e+003
1.148533e+002, 3.283464e+003
1.153354e+002, 3.359900e+003
1.158175e+002, 3.448026e+003
1.162996e+002, 3.549677e+003
1.167817e+002, 3.655936e+003
1.172639e+002, 3.759216e+003
1.177460e+002, 3.867249e+003
1.182281e+002, 3.989858e+003
1.187102e+002, 4.140960e+003
1.191923e+002, 4.300731e+003
1.196744e+002, 4.455703e+003
1.201566e+002, 4.603350e+003
1.206387e+002, 4.752748e+003
1.211208e+002, 4.911777e+003
1.216029e+002, 5.075877e+003
1.220850e+002, 5.234383e+003
1.225671e+002, 5.388906e+003
1.230493e+002, 5.532046e+003
1.235314e+002, 5.657875e+003
1.240135e+002, 5.767693e+003
1.244956e+002, 5.854500e+003
1.249777e+002, 5.910661e+003
1.254598e+002, 5.937362e+003
1.259420e+002, 5.937779e+003
1.264241e+002, 5.905805e+003
1.269062e+002, 5.849708e+003
1.273883e+002, 5.782443e+003
1.278704e+002, 5.700901e+003
1.283525e+002, 5.616901e+003
1.288347e+002, 5.544579e+003
1.293168e+002, 5.483892e+003
1.297989e+002, 5.438731e+003
1.302810e+002, 5.410408e+003
1.307631e+002, 5.399449e+003
1.312452e+002, 5.406728e+003
1.317274e+002, 5.431792e+003
1.322095e+002, 5.475655e+003
1.326916e+002, 5.541761e+003
1.331737e+002, 5.631439e+003
1.336558e+002, 5.739632e+003
1.341379e+002, 5.865955e+003
1.346201e+002, 6.010354e+003
1.351022e+002, 6.166979e+003
1.355843e+002, 6.335625e+003
1.360664e+002, 6.515339e+003
1.365485e+002, 6.697118e+003
1.370306e+002, 6.887045e+003
1.375128e+002, 7.066511e+003
1.379949e+002, 7.223637e+003
1.384770e+002, 7.362181e+003
1.389591e+002, 7.461202e+003
1.394412e+002, 7.515507e+003
1.399233e+002, 7.524462e+003
1.404055e+002, 7.488885e+003
1.408876e+002, 7.403598e+003
1.413697e+002, 7.277916e+003
1.418518e+002, 7.122760e+003
1.423339e+002, 6.929970e+003
1.428160e+002, 6.727551e+003
1.432982e+002, 6.521662e+003
1.437803e+002, 6.308333e+003
1.442624e+002, 6.109820e+003
1.447445e+002, 5.927450e+003
1.452266e+002, 5.759593e+003
1.457087e+002, 5.610146e+003
1.461909e+002, 5.477207e+003
1.466730e+002, 5.361909e+003
1.471551e+002, 5.263865e+003
1.476372e+002, 5.188264e+003
1.481193e+002, 5.122846e+003
1.486014e+002, 5.065854e+003
1.490836e+002, 5.018843e+003
1.495657e+002, 4.985195e+003
1.500478e+002, 4.967963e+003
1.505299e+002, 4.962293e+003
1.510120e+002, 4.966212e+003
1.514941e+002, 4.979077e+003
1.519763e+002, 5.001966e+003
1.524584e+002, 5.035829e+003
1.529405e+002, 5.080084e+003
1.534226e+002, 5.132263e+003
1.539047e+002, 5.191345e+003
1.543868e+002, 5.258782e+003
1.548690e+002, 5.335357e+003
1.553511e+002, 5.423256e+003
1.558332e+002, 5.517942e+003
1.563153e+002, 5.623000e+003
1.567974e+002, 5.736574e+003
1.572795e+002, 5.843857e+003
1.577617e+002, 5.952215e+003
1.582438e+002, 6.047680e+003
1.587259e+002, 6.120187e+003
1.592080e+002, 6.180888e+003
1.596901e+002, 6.205720e+003
1.601722e+002, 6.186890e+003
1.606544e+002, 6.124703e+003
1.611365e+002, 6.026908e+003
1.616186e+002, 5.882798e+003
1.621007e+002, 5.710764e+003
1.625828e+002, 5.524111e+003
1.630649e+002, 5.310974e+003
1.635471e+002, 5.099229e+003
1.640292e+002, 4.895236e+003
1.645113e+002, 4.699260e+003
1.649934e+002, 4.527497e+003
1.654755e+002, 4.391756e+003
1.659576e+002, 4.283380e+003
1.664398e+002, 4.193268e+003
1.669219e+002, 4.116151e+003
1.674040e+002, 4.055841e+003
1.678861e+002, 4.017685e+003
1.683682e+002, 4.002115e+003
1.688503e+002, 3.999149e+003
1.693325e+002, 4.004411e+003
1.698146e+002, 4.017922e+003
1.702967e+002, 4.039491e+003
1.707788e+002, 4.066813e+003
1.712609e+002, 4.103722e+003
1.717430e+002, 4.153558e+003
1.722252e+002, 4.216957e+003
1.727073e+002, 4.291087e+003
1.731894e+002, 4.375188e+003
1.736715e+002, 4.469240e+003
1.741536e+002, 4.569802e+003
1.746357e+002, 4.673886e+003
1.751179e+002, 4.785885e+003
1.756000e+002, 4.912201e+003
1.760821e+002, 5.052759e+003
1.765642e+002, 5.204060e+003
1.770463e+002, 5.366005e+003
1.775284e+002, 5.537105e+003
1.780106e+002, 5.709897e+003
1.784927e+002, 5.885666e+003
1.789748e+002, 6.060309e+003
1.794569e+002, 6.224377e+003
1.799390e+002, 6.379550e+003
1.804211e+002, 6.520567e+003
1.809033e+002, 6.644491e+003
1.813854e+002, 6.751743e+003
1.818675e+002, 6.841206e+003
1.823496e+002, 6.913711e+003
1.828317e+002, 6.968198e+003
1.833138e+002, 7.003300e+003
1.837960e+002, 7.015659e+003
1.842781e+002, 7.016448e+003
1.847602e+002, 7.012935e+003
1.852423e+002, 7.007085e+003
1.857244e+002, 7.015700e+003
1.862065e+002, 7.048256e+003
1.866887e+002, 7.103524e+003
1.871708e+002, 7.177030e+003
1.876529e+002, 7.267732e+003
1.881350e+002, 7.377001e+003
1.886171e+002, 7.504189e+003
1.890992e+002, 7.650438e+003
1.895814e+002, 7.817124e+003
1.900635e+002, 8.005071e+003
1.905456e+002, 8.216515e+003
1.910277e+002, 8.447357e+003
1.915098e+002, 8.698731e+003
1.919919e+002, 8.969053e+003
1.924741e+002, 9.253293e+003
1.929562e+002, 9.550675e+003
1.934383e+002, 9.853130e+003
1.939204e+002, 1.016059e+004
1.944025e+002, 1.047137e+004
1.948846e+002, 1.075922e+004
1.953668e+002, 1.102518e+004
1.958489e+002, 1.126192e+004
1.963310e+002, 1.145501e+004
1.968131e+002, 1.160517e+004
1.972952e+002, 1.170563e+004
1.977773e+002, 1.174632e+004
1.982595e+002, 1.172591e+004
1.987416e+002, 1.167715e+004
1.992237e+002, 1.160255e+004
1.997058e+002, 1.150373e+004
2.001879e+002, 1.138102e+004
2.006700e+002, 1.122930e+004
2.011522e+002, 1.107195e+004
2.016343e+002, 1.091934e+004
2.021164e+002, 1.076998e+004
2.025985e+002, 1.064074e+004
2.030806e+002, 1.053484e+004
2.035627e+002, 1.045082e+004
2.040449e+002, 1.038358e+004
2.045270e+002, 1.033013e+004
2.050091e+002, 1.030308e+004
2.054912e+002, 1.031382e+004
2.059733e+002, 1.036577e+004
2.064554e+002, 1.043583e+004
2.069376e+002, 1.052483e+004
2.074197e+002, 1.062888e+004
2.079018e+002, 1.074081e+004
2.083839e+002, 1.086727e+004
2.088660e+002, 1.098523e+004
2.093481e+002, 1.108469e+004
2.098303e+002, 1.117353e+004
2.103124e+002, 1.121238e+004
2.107945e+002, 1.119609e+004
2.112766e+002, 1.112693e+004
2.117587e+002, 1.100983e+004
2.122408e+002, 1.083771e+004
2.127230e+002, 1.063148e+004
2.132051e+002, 1.039792e+004
2.136872e+002, 1.012893e+004
2.141693e+002, 9.857850e+003
2.146514e+002, 9.587383e+003
2.151335e+002, 9.317369e+003
2.156157e+002, 9.060166e+003
2.160978e+002, 8.813400e+003
2.165799e+002, 8.579303e+003
2.170620e+002, 8.356396e+003
2.175441e+002, 8.142542e+003
2.180262e+002, 7.944064e+003
2.185084e+002, 7.758849e+003
2.189905e+002, 7.587080e+003
2.194726e+002, 7.438862e+003
2.199547e+002, 7.314022e+003
2.204368e+002, 7.208948e+003
2.209189e+002, 7.121948e+003
2.214011e+002, 7.050365e+003
2.218832e+002, 7.002916e+003
2.223653e+002, 6.983408e+003
2.228474e+002, 6.988599e+003
2.233295e+002, 7.003041e+003
2.238116e+002, 7.024261e+003
2.242938e+002, 7.058018e+003
2.247759e+002, 7.108755e+003
2.252580e+002, 7.180009e+003
2.257401e+002, 7.259048e+003
2.262222e+002, 7.347547e+003
2.267043e+002, 7.443056e+003
2.271865e+002, 7.539603e+003
2.276686e+002, 7.633627e+003
2.281507e+002, 7.730963e+003
2.286328e+002, 7.834871e+003
2.291149e+002, 7.949755e+003
2.295970e+002, 8.060208e+003
2.300792e+002, 8.163909e+003
2.305613e+002, 8.262509e+003
2.310434e+002, 8.358642e+003
2.315255e+002, 8.450358e+003
2.320076e+002, 8.541014e+003
2.324897e+002, 8.632480e+003
2.329719e+002, 8.729893e+003
2.334540e+002, 8.815877e+003
2.339361e+002, 8.884963e+003
2.344182e+002, 8.943052e+003
2.349003e+002, 9.011890e+003
2.353824e+002, 9.095670e+003
2.358646e+002, 9.184255e+003
2.363467e+002, 9.272411e+003
2.368288e+002, 9.357516e+003
2.373109e+002, 9.447560e+003
2.377930e+002, 9.541145e+003
2.382751e+002, 9.640182e+003
2.387573e+002, 9.748429e+003
2.392394e+002, 9.870363e+003
2.397215e+002, 9.994841e+003
2.402036e+002, 1.011874e+004
2.406857e+002, 1.024505e+004
2.411678e+002, 1.036365e+004
2.416500e+002, 1.047502e+004
2.421321e+002, 1.057794e+004
2.426142e+002, 1.067205e+004
2.430963e+002, 1.076052e+004
2.435784e+002, 1.083454e+004
2.440605e+002, 1.089029e+004
2.445427e+002, 1.092892e+004
2.450248e+002, 1.094761e+004
2.455069e+002, 1.094580e+004
2.459890e+002, 1.092436e+004
2.464711e+002, 1.088379e+004
2.469532e+002, 1.081554e+004
2.474354e+002, 1.074190e+004
2.479175e+002, 1.067066e+004
2.483996e+002, 1.059985e+004
2.488817e+002, 1.053630e+004
2.493638e+002, 1.047714e+004
2.498459e+002, 1.042709e+004
2.503281e+002, 1.039464e+004
2.508102e+002, 1.038034e+004
2.512923e+002, 1.038289e+004
2.517744e+002, 1.040084e+004
2.522565e+002, 1.043197e+004
2.527386e+002, 1.048794e+004
2.532208e+002, 1.057401e+004
2.537029e+002, 1.068104e+004
2.541850e+002, 1.079595e+004
2.546671e+002, 1.091529e+004
2.551492e+002, 1.104990e+004
2.556313e+002, 1.120512e+004
2.561135e+002, 1.138353e+004
2.565956e+002, 1.155990e+004
2.570777e+002, 1.173031e+004
2.575598e+002, 1.189985e+004
2.580419e+002, 1.207785e+004
2.585240e+002, 1.227207e+004
2.590062e+002, 1.245222e+004
2.594883e+002, 1.260816e+004
2.599704e+002, 1.273546e+004
2.604525e+002, 1.286436e+004
2.609346e+002, 1.299446e+004
2.614167e+002, 1.312474e+004
2.618989e+002, 1.325504e+004
2.623810e+002, 1.338683e+004
2.628631e+002, 1.351222e+004
2.633452e+002, 1.362731e+004
2.638273e+002, 1.373376e+004
2.643094e+002, 1.383832e+004
2.647916e+002, 1.394288e+004
2.652737e+002, 1.404583e+004
2.657558e+002, 1.414518e+004
2.662379e+002, 1.423643e+004
2.667200e+002, 1.433728e+004
2.672021e+002, 1.445197e+004
2.676843e+002, 1.457985e+004
2.681664e+002, 1.471667e+004
2.686485e+002, 1.485796e+004
2.691306e+002, 1.501647e+004
2.696127e+002, 1.520506e+004
2.700948e+002, 1.542892e+004
2.705770e+002, 1.565671e+004
2.710591e+002, 1.588579e+004
2.715412e+002, 1.611222e+004
2.720233e+002, 1.632780e+004
2.725054e+002, 1.653344e+004
2.729875e+002, 1.671519e+004
2.734697e+002, 1.686619e+004
2.739518e+002, 1.699024e+004
2.744339e+002, 1.706343e+004
2.749160e+002, 1.707560e+004
2.753981e+002, 1.703971e+004
2.758802e+002, 1.699077e+004
2.763624e+002, 1.692828e+004
2.768445e+002, 1.685803e+004
2.773266e+002, 1.677947e+004
2.778087e+002, 1.669140e+004
2.782908e+002, 1.661700e+004
2.787729e+002, 1.656328e+004
2.792551e+002, 1.651854e+004
2.797372e+002, 1.646441e+004
2.802193e+002, 1.640358e+004
2.807014e+002, 1.631387e+004
2.811835e+002, 1.618618e+004
2.816656e+002, 1.602042e+004
2.821478e+002, 1.581392e+004
2.826299e+002, 1.557201e+004
2.831120e+002, 1.527833e+004
2.835941e+002, 1.489996e+004
2.840762e+002, 1.443315e+004
2.845583e+002, 1.391782e+004
2.850405e+002, 1.335661e+004
2.855226e+002, 1.275328e+004
2.860047e+002, 1.213719e+004
2.864868e+002, 1.150377e+004
2.869689e+002, 1.087325e+004
2.874510e+002, 1.026695e+004
2.879332e+002, 9.685166e+003
2.884153e+002, 9.130084e+003
2.888974e+002, 8.610841e+003
2.893795e+002, 8.124683e+003
2.898616e+002, 7.681202e+003
2.903438e+002, 7.281436e+003
2.908259e+002, 6.917296e+003
2.913080e+002, 6.580202e+003
2.917901e+002, 6.273019e+003
2.922722e+002, 5.993821e+003
2.927543e+002, 5.748972e+003
2.932365e+002, 5.531677e+003
2.937186e+002, 5.329389e+003
2.942007e+002, 5.143841e+003
2.946828e+002, 4.973277e+003
2.951649e+002, 4.817328e+003
2.956470e+002, 4.676621e+003
2.961292e+002, 4.547958e+003
2.966113e+002, 4.432494e+003
2.970934e+002, 4.328717e+003
2.975755e+002, 4.234602e+003
2.980576e+002, 4.149475e+003
2.985397e+002, 4.070595e+003
2.990219e+002, 3.994448e+003
2.995040e+002, 3.922098e+003
2.999861e+002, 3.857421e+003
3.004682e+002, 3.802575e+003
3.009503e+002, 3.752886e+003
3.014324e+002, 3.701739e+003
3.019146e+002, 3.650469e+003
3.023967e+002, 3.602382e+003
3.028788e+002, 3.561069e+003
3.033609e+002, 3.524138e+003
3.038430e+002, 3.489106e+003
3.043251e+002, 3.455783e+003
3.048073e+002, 3.423769e+003
3.052894e+002, 3.391782e+003
3.057715e+002, 3.360620e+003
3.062536e+002, 3.331341e+003
3.067357e+002, 3.305004e+003
3.072178e+002, 3.280754e+003
3.077000e+002, 3.259019e+003
3.081821e+002, 3.240135e+003
3.086642e+002, 3.220146e+003
3.091463e+002, 3.196655e+003
3.096284e+002, 3.170136e+003
3.101105e+002, 3.140959e+003
3.105927e+002, 3.105806e+003
3.110748e+002, 3.070969e+003
3.115569e+002, 3.041136e+003
3.120390e+002, 3.016414e+003
3.125211e+002, 2.992465e+003
3.130032e+002, 2.967578e+003
3.134854e+002, 2.941640e+003
3.139675e+002, 2.914857e+003
3.144496e+002, 2.887667e+003
3.149317e+002, 2.859487e+003
3.154138e+002, 2.828604e+003
3.158959e+002, 2.795784e+003
3.163781e+002, 2.764615e+003
3.168602e+002, 2.738975e+003
3.173423e+002, 2.714617e+003
3.178244e+002, 2.688368e+003
3.183065e+002, 2.657425e+003
3.187886e+002, 2.627584e+003
3.192708e+002, 2.600723e+003
3.197529e+002, 2.576555e+003
3.202350e+002, 2.554190e+003
3.207171e+002, 2.534432e+003
3.211992e+002, 2.515833e+003
3.216813e+002, 2.498027e+003
3.221635e+002, 2.481939e+003
3.226456e+002, 2.464306e+003
3.231277e+002, 2.440948e+003
3.236098e+002, 2.416161e+003
3.240919e+002, 2.397072e+003
3.245740e+002, 2.389922e+003
3.250562e+002, 2.384156e+003
3.255383e+002, 2.376269e+003
3.260204e+002, 2.365066e+003
3.265025e+002, 2.356005e+003
3.269846e+002, 2.349537e+003
3.274667e+002, 2.345393e+003
3.279489e+002, 2.343219e+003
3.284310e+002, 2.344622e+003
3.289131e+002, 2.346229e+003
3.293952e+002, 2.347104e+003
3.298773e+002, 2.347199e+003
3.303594e+002, 2.349350e+003
3.308416e+002, 2.352708e+003
3.313237e+002, 2.358813e+003
3.318058e+002, 2.368948e+003
3.322879e+002, 2.385353e+003
3.327700e+002, 2.402006e+003
3.332521e+002, 2.417997e+003
3.337343e+002, 2.433875e+003
3.342164e+002, 2.452454e+003
3.346985e+002, 2.473991e+003
3.351806e+002, 2.497441e+003
3.356627e+002, 2.521825e+003
3.361448e+002, 2.545471e+003
3.366270e+002, 2.574861e+003
3.371091e+002, 2.611565e+003
3.375912e+002, 2.652661e+003
3.380733e+002, 2.692416e+003
3.385554e+002, 2.729278e+003
3.390375e+002, 2.768601e+003
3.395197e+002, 2.812981e+003
3.400018e+002, 2.862244e+003
3.404839e+002, 2.913113e+003
3.409660e+002, 2.964549e+003
3.414481e+002, 3.017771e+003
3.419302e+002, 3.073341e+003
3.424124e+002, 3.131842e+003
3.428945e+002, 3.190859e+003
3.433766e+002, 3.249755e+003
3.438587e+002, 3.308689e+003
3.443408e+002, 3.371116e+003
3.448229e+002, 3.436792e+003
3.453051e+002, 3.505583e+003
3.457872e+002, 3.578433e+003
3.462693e+002, 3.654483e+003
3.467514e+002, 3.730645e+003
3.472335e+002, 3.805174e+003
3.477156e+002, 3.879921e+003
3.481978e+002, 3.957436e+003
3.486799e+002, 4.037543e+003
3.491620e+002, 4.117672e+003
3.496441e+002, 4.196324e+003
3.501262e+002, 4.273775e+003
3.506083e+002, 4.350419e+003
3.510905e+002, 4.427151e+003
3.515726e+002, 4.502944e+003
3.520547e+002, 4.576933e+003
3.525368e+002, 4.649291e+003
3.530189e+002, 4.720527e+003
3.535010e+002, 4.794422e+003
3.539832e+002, 4.865657e+003
3.544653e+002, 4.926791e+003
3.549474e+002, 4.977858e+003
3.554295e+002, 5.023852e+003
3.559116e+002, 5.071067e+003
3.563937e+002, 5.115566e+003
3.568759e+002, 5.150873e+003
3.573580e+002, 5.174141e+003
3.578401e+002, 5.188317e+003
3.583222e+002, 5.194710e+003
3.588043e+002, 5.193545e+003
3.592864e+002, 5.185698e+003
3.597686e+002, 5.171778e+003
3.602507e+002, 5.151232e+003
3.607328e+002, 5.123911e+003
3.612149e+002, 5.090089e+003
3.616970e+002, 5.048657e+003
3.621791e+002, 4.997951e+003
3.626613e+002, 4.939196e+003
3.631434e+002, 4.875272e+003
3.636255e+002, 4.804584e+003
3.641076e+002, 4.730852e+003
3.645897e+002, 4.655058e+003
3.650718e+002, 4.578710e+003
3.655540e+002, 4.500638e+003
3.660361e+002, 4.418558e+003
3.665182e+002, 4.335467e+003
3.670003e+002, 4.254971e+003
3.674824e+002, 4.183566e+003
3.679645e+002, 4.108635e+003
3.684467e+002, 4.023703e+003
3.689288e+002, 3.929400e+003
3.694109e+002, 3.843833e+003
3.698930e+002, 3.770174e+003
3.703751e+002, 3.702915e+003
3.708572e+002, 3.638228e+003
3.713394e+002, 3.576438e+003
3.718215e+002, 3.517997e+003
3.723036e+002, 3.463721e+003
3.727857e+002, 3.412804e+003
3.732678e+002, 3.361378e+003
3.737499e+002, 3.307117e+003
3.742321e+002, 3.255533e+003
3.747142e+002, 3.210059e+003
3.751963e+002, 3.171628e+003
3.756784e+002, 3.133732e+003
3.761605e+002, 3.095915e+003
3.766426e+002, 3.059427e+003
3.771248e+002, 3.027595e+003
3.776069e+002, 3.000398e+003
3.780890e+002, 2.975808e+003
3.785711e+002, 2.953975e+003
3.790532e+002, 2.934400e+003
3.795353e+002, 2.914414e+003
3.800175e+002, 2.893422e+003
3.804996e+002, 2.874173e+003
3.809817e+002, 2.859468e+003
3.814638e+002, 2.849052e+003
3.819459e+002, 2.840011e+003
3.824280e+002, 2.831131e+003
3.829102e+002, 2.824295e+003
3.833923e+002, 2.824734e+003
3.838744e+002, 2.831825e+003
3.843565e+002, 2.839387e+003
3.848386e+002, 2.841580e+003
3.853207e+002, 2.841657e+003
3.858029e+002, 2.846762e+003
3.862850e+002, 2.858210e+003
3.867671e+002, 2.871611e+003
3.872492e+002, 2.884581e+003
3.877313e+002, 2.896208e+003
3.882134e+002, 2.904131e+003
3.886956e+002, 2.905203e+003
3.891777e+002, 2.903423e+003
3.896598e+002, 2.902467e+003
3.901419e+002, 2.902312e+003
3.906240e+002, 2.901106e+003
3.911061e+002, 2.898457e+003
3.915883e+002, 2.893900e+003
3.920704e+002, 2.886695e+003
3.925525e+002, 2.874121e+003
3.930346e+002, 2.862449e+003
3.935167e+002, 2.853322e+003
3.939988e+002, 2.847082e+003
3.944810e+002, 2.844494e+003
3.949631e+002, 2.844968e+003
3.954452e+002, 2.849826e+003
3.959273e+002, 2.860649e+003
3.964094e+002, 2.879636e+003
3.968915e+002, 2.898078e+003
3.973737e+002, 2.911934e+003
3.978558e+002, 2.925165e+003
3.983379e+002, 2.942649e+003
3.988200e+002, 2.964700e+003
3.993021e+002, 2.991162e+003
3.997842e+002, 3.021381e+003
4.002664e+002, 3.055312e+003
4.007485e+002, 3.096206e+003
4.012306e+002, 3.146928e+003
4.017127e+002, 3.201210e+003
4.021948e+002, 3.253899e+003
4.026769e+002, 3.298238e+003
4.031591e+002, 3.356163e+003
4.036412e+002, 3.432980e+003
4.041233e+002, 3.522069e+003
4.046054e+002, 3.608530e+003
4.050875e+002, 3.688859e+003
4.055696e+002, 3.774290e+003
4.060518e+002, 3.868779e+003
4.065339e+002, 3.972365e+003
4.070160e+002, 4.086000e+003
4.074981e+002, 4.210418e+003
4.079802e+002, 4.339796e+003
4.084623e+002, 4.466482e+003
4.089445e+002, 4.591177e+003
4.094266e+002, 4.718485e+003
4.099087e+002, 4.847219e+003
4.103908e+002, 4.981124e+003
4.108729e+002, 5.130045e+003
4.113550e+002, 5.294386e+003
4.118372e+002, 5.462466e+003
4.123193e+002, 5.625226e+003
4.128014e+002, 5.787224e+003
4.132835e+002, 5.959798e+003
4.137656e+002, 6.145494e+003
4.142477e+002, 6.342278e+003
4.147299e+002, 6.546929e+003
4.152120e+002, 6.760376e+003
4.156941e+002, 6.979018e+003
4.161762e+002, 7.206313e+003
4.166583e+002, 7.437479e+003
4.171404e+002, 7.668380e+003
4.176226e+002, 7.900724e+003
4.181047e+002, 8.132885e+003
4.185868e+002, 8.367088e+003
4.190689e+002, 8.600851e+003
4.195510e+002, 8.836829e+003
4.200331e+002, 9.087440e+003
4.205153e+002, 9.321674e+003
4.209974e+002, 9.528569e+003
4.214795e+002, 9.708807e+003
4.219616e+002, 9.855174e+003
4.224437e+002, 9.973814e+003
4.229258e+002, 1.005387e+004
4.234080e+002, 1.009224e+004
4.238901e+002, 1.009070e+004
4.243722e+002, 1.004314e+004
4.248543e+002, 9.950214e+003
4.253364e+002, 9.810447e+003
4.258185e+002, 9.621982e+003
4.263007e+002, 9.365122e+003
4.267828e+002, 9.084371e+003
4.272649e+002, 8.780578e+003
4.277470e+002, 8.457599e+003
4.282291e+002, 8.127646e+003
4.287112e+002, 7.785167e+003
4.291934e+002, 7.449264e+003
4.296755e+002, 7.121545e+003
4.301576e+002, 6.801296e+003
4.306397e+002, 6.500438e+003
4.311218e+002, 6.218079e+003
4.316039e+002, 5.958020e+003
4.320861e+002, 5.724183e+003
4.325682e+002, 5.517430e+003
4.330503e+002, 5.329880e+003
4.335324e+002, 5.159237e+003
4.340145e+002, 5.004049e+003
4.344966e+002, 4.858390e+003
4.349788e+002, 4.722156e+003
4.354609e+002, 4.600114e+003
4.359430e+002, 4.497028e+003
4.364251e+002, 4.410248e+003
4.369072e+002, 4.333284e+003
4.373893e+002, 4.265210e+003
4.378715e+002, 4.204281e+003
4.383536e+002, 4.148354e+003
4.388357e+002, 4.097914e+003
4.393178e+002, 4.054320e+003
4.397999e+002, 4.019569e+003
4.402820e+002, 3.990979e+003
4.407642e+002, 3.967190e+003
4.412463e+002, 3.947851e+003
4.417284e+002, 3.931341e+003
4.422105e+002, 3.916042e+003
4.426926e+002, 3.903165e+003
4.431747e+002, 3.893885e+003
4.436569e+002, 3.888865e+003
4.441390e+002, 3.886968e+003
4.446211e+002, 3.887934e+003
4.451032e+002, 3.891779e+003
4.455853e+002, 3.898542e+003
4.460674e+002, 3.912559e+003
4.465496e+002, 3.925792e+003
4.470317e+002, 3.934696e+003
4.475138e+002, 3.937275e+003
4.479959e+002, 3.942296e+003
4.484780e+002, 3.952475e+003
4.489601e+002, 3.963420e+003
4.494423e+002, 3.970725e+003
4.499244e+002, 3.972135e+003
4.504065e+002, 3.974712e+003
4.508886e+002, 3.979969e+003
4.513707e+002, 3.987156e+003
4.518528e+002, 3.993487e+003
4.523350e+002, 3.999162e+003
4.528171e+002, 4.003285e+003
4.532992e+002, 4.004613e+003
4.537813e+002, 4.003038e+003
4.542634e+002, 4.003200e+003
4.547455e+002, 4.005249e+003
4.552277e+002, 4.008571e+003
4.557098e+002, 4.013368e+003
4.561919e+002, 4.019164e+003
4.566740e+002, 4.022766e+003
4.571561e+002, 4.020013e+003
4.576382e+002, 4.017036e+003
4.581204e+002, 4.026132e+003
4.586025e+002, 4.046109e+003
4.590846e+002, 4.067570e+003
4.595667e+002, 4.082427e+003
4.600488e+002, 4.095977e+003
4.605309e+002, 4.115352e+003
4.610131e+002, 4.141950e+003
4.614952e+002, 4.172346e+003
4.619773e+002, 4.204803e+003
4.624594e+002, 4.239008e+003
4.629415e+002, 4.274979e+003
4.634236e+002, 4.311005e+003
4.639058e+002, 4.349842e+003
4.643879e+002, 4.393223e+003
4.648700e+002, 4.440579e+003
4.653521e+002, 4.491047e+003
4.658342e+002, 4.547439e+003
4.663163e+002, 4.605144e+003
4.667985e+002, 4.661407e+003
4.672806e+002, 4.712472e+003
4.677627e+002, 4.768471e+003
4.682448e+002, 4.832080e+003
4.687269e+002, 4.899063e+003
4.692090e+002, 4.964468e+003
4.696912e+002, 5.029552e+003
4.701733e+002, 5.092277e+003
4.706554e+002, 5.154220e+003
4.711375e+002, 5.214297e+003
4.716196e+002, 5.261119e+003
4.721017e+002, 5.292593e+003
4.725839e+002, 5.316730e+003
4.730660e+002, 5.342632e+003
4.735481e+002, 5.370324e+003
4.740302e+002, 5.379589e+003
4.745123e+002, 5.367849e+003
4.749944e+002, 5.340367e+003
4.754766e+002, 5.305838e+003
4.759587e+002, 5.263238e+003
4.764408e+002, 5.205101e+003
4.769229e+002, 5.125370e+003
4.774050e+002, 5.030998e+003
4.778871e+002, 4.932985e+003
4.783693e+002, 4.831157e+003
4.788514e+002, 4.723643e+003
4.793335e+002, 4.606525e+003
4.798156e+002, 4.483558e+003
4.802977e+002, 4.359748e+003
4.807798e+002, 4.235864e+003
4.812620e+002, 4.112840e+003
4.817441e+002, 3.990780e+003
4.822262e+002, 3.870173e+003
4.827083e+002, 3.751777e+003
4.831904e+002, 3.631490e+003
4.836725e+002, 3.517076e+003
4.841547e+002, 3.412950e+003
4.846368e+002, 3.319141e+003
4.851189e+002, 3.229302e+003
4.856010e+002, 3.141982e+003
4.860831e+002, 3.058754e+003
4.865652e+002, 2.980925e+003
4.870474e+002, 2.908143e+003
4.875295e+002, 2.840342e+003
4.880116e+002, 2.778024e+003
4.884937e+002, 2.721089e+003
4.889758e+002, 2.669068e+003
4.894579e+002, 2.622307e+003
4.899401e+002, 2.579265e+003
4.904222e+002, 2.539870e+003
4.909043e+002, 2.503734e+003
4.913864e+002, 2.466566e+003
4.918685e+002, 2.427648e+003
4.923506e+002, 2.391752e+003
4.928328e+002, 2.363036e+003
4.933149e+002, 2.340400e+003
4.937970e+002, 2.318321e+003
4.942791e+002, 2.296309e+003
4.947612e+002, 2.274997e+003
4.952433e+002, 2.253877e+003
4.957255e+002, 2.233760e+003
4.962076e+002, 2.216576e+003
4.966897e+002, 2.205077e+003
4.971718e+002, 2.194832e+003
4.976539e+002, 2.181565e+003
4.981360e+002, 2.166035e+003
4.986182e+002, 2.150825e+003
4.991003e+002, 2.136477e+003
4.995824e+002, 2.123587e+003
5.000645e+002, 2.112606e+003
5.005466e+002, 2.103100e+003
5.010287e+002, 2.096809e+003
5.015109e+002, 2.096523e+003
5.019930e+002, 2.098616e+003
5.024751e+002, 2.099479e+003
5.029572e+002, 2.098181e+003
5.034393e+002, 2.096123e+003
5.039214e+002, 2.092679e+003
5.044036e+002, 2.088543e+003
5.048857e+002, 2.085982e+003
5.053678e+002, 2.084898e+003
5.058499e+002, 2.085584e+003
5.063320e+002, 2.088786e+003
5.068141e+002, 2.094803e+003
5.072963e+002, 2.098366e+003
5.077784e+002, 2.098401e+003
5.082605e+002, 2.099007e+003
5.087426e+002, 2.105530e+003
5.092247e+002, 2.117493e+003
5.097068e+002, 2.127310e+003
5.101890e+002, 2.132830e+003
5.106711e+002, 2.136947e+003
5.111532e+002, 2.144627e+003
5.116353e+002, 2.155277e+003
5.121174e+002, 2.165861e+003
5.125995e+002, 2.172121e+003
5.130817e+002, 2.178962e+003
5.135638e+002, 2.194369e+003
5.140459e+002, 2.218003e+003
5.145280e+002, 2.239965e+003
5.150101e+002, 2.251511e+003
5.154922e+002, 2.259790e+003
5.159744e+002, 2.270829e+003
5.164565e+002, 2.284521e+003
5.169386e+002, 2.304020e+003
5.174207e+002, 2.335429e+003
5.179028e+002, 2.372336e+003
5.183849e+002, 2.404216e+003
5.188671e+002, 2.422381e+003
5.193492e+002, 2.442907e+003
5.198313e+002, 2.469719e+003
5.203134e+002, 2.502274e+003
5.207955e+002, 2.536435e+003
5.212776e+002, 2.572529e+003
5.217598e+002, 2.609844e+003
5.222419e+002, 2.647510e+003
5.227240e+002, 2.685498e+003
5.232061e+002, 2.724804e+003
5.236882e+002, 2.765625e+003
5.241703e+002, 2.807708e+003
5.246525e+002, 2.850722e+003
5.251346e+002, 2.894857e+003
5.256167e+002, 2.940736e+003
5.260988e+002, 2.988778e+003
5.265809e+002, 3.037704e+003
5.270630e+002, 3.085024e+003
5.275452e+002, 3.130770e+003
5.280273e+002, 3.175928e+003
5.285094e+002, 3.219617e+003
5.289915e+002, 3.264160e+003
5.294736e+002, 3.313960e+003
5.299557e+002, 3.369718e+003
5.304379e+002, 3.424562e+003
5.309200e+002, 3.476325e+003
5.314021e+002, 3.524835e+003
5.318842e+002, 3.570231e+003
5.323663e+002, 3.613437e+003
5.328484e+002, 3.652072e+003
5.333306e+002, 3.684324e+003
5.338127e+002, 3.711509e+003
5.342948e+002, 3.735578e+003
5.347769e+002, 3.760382e+003
5.352590e+002, 3.778201e+003
5.357411e+002, 3.786600e+003
5.362233e+002, 3.785786e+003
5.367054e+002, 3.782179e+003
5.371875e+002, 3.777768e+003
5.376696e+002, 3.766930e+003
5.381517e+002, 3.744475e+003
5.386339e+002, 3.709846e+003
5.391160e+002, 3.674479e+003
5.395981e+002, 3.639475e+003
5.400802e+002, 3.602836e+003
5.405623e+002, 3.559535e+003
5.410444e+002, 3.510791e+003
5.415266e+002, 3.462573e+003
5.420087e+002, 3.417061e+003
5.424908e+002, 3.372604e+003
5.429729e+002, 3.327192e+003
5.434550e+002, 3.281527e+003
5.439371e+002, 3.236979e+003
5.444193e+002, 3.194365e+003
5.449014e+002, 3.152709e+003
5.453835e+002, 3.110375e+003
5.458656e+002, 3.067055e+003
5.463477e+002, 3.026644e+003
5.468298e+002, 2.991617e+003
5.473120e+002, 2.959104e+003
5.477941e+002, 2.926931e+003
5.482762e+002, 2.890737e+003
5.487583e+002, 2.860057e+003
5.492404e+002, 2.839816e+003
5.497225e+002, 2.824175e+003
5.502047e+002, 2.802845e+003
5.506868e+002, 2.772065e+003
5.511689e+002, 2.742816e+003
5.516510e+002, 2.718530e+003
5.521331e+002, 2.698303e+003
5.526152e+002, 2.676936e+003
5.530974e+002, 2.654338e+003
5.535795e+002, 2.631251e+003
5.540616e+002, 2.607123e+003
5.545437e+002, 2.582619e+003
5.550258e+002, 2.561914e+003
5.555079e+002, 2.545490e+003
5.559901e+002, 2.530799e+003
5.564722e+002, 2.515516e+003
5.569543e+002, 2.499768e+003
5.574364e+002, 2.483729e+003
5.579185e+002, 2.467108e+003
5.584006e+002, 2.450700e+003
5.588828e+002, 2.436005e+003
5.593649e+002, 2.421880e+003
5.598470e+002, 2.405383e+003
5.603291e+002, 2.382874e+003
5.608112e+002, 2.359880e+003
5.612933e+002, 2.338619e+003
5.617755e+002, 2.319180e+003
5.622576e+002, 2.299809e+003
5.627397e+002, 2.280078e+003
5.632218e+002, 2.260704e+003
5.637039e+002, 2.241914e+003
5.641860e+002, 2.223613e+003
5.646682e+002, 2.206296e+003
5.651503e+002, 2.190748e+003
5.656324e+002, 2.175050e+003
5.661145e+002, 2.156280e+003
5.665966e+002, 2.133794e+003
5.670787e+002, 2.113181e+003
5.675609e+002, 2.095833e+003
5.680430e+002, 2.080863e+003
5.685251e+002, 2.067568e+003
5.690072e+002, 2.055610e+003
5.694893e+002, 2.043144e+003
5.699714e+002, 2.029035e+003
5.704536e+002, 2.013704e+003
5.709357e+002, 1.996316e+003
5.714178e+002, 1.977244e+003
5.718999e+002, 1.960906e+003
5.723820e+002, 1.951915e+003
5.728641e+002, 1.946093e+003
5.733463e+002, 1.940255e+003
5.738284e+002, 1.934268e+003
5.743105e+002, 1.926740e+003
5.747926e+002, 1.916582e+003
5.752747e+002, 1.904860e+003
5.757568e+002, 1.892911e+003
5.762390e+002, 1.878443e+003
5.767211e+002, 1.866843e+003
5.772032e+002, 1.860193e+003
5.776853e+002, 1.856683e+003
5.781674e+002, 1.849885e+003
5.786495e+002, 1.838365e+003
5.791317e+002, 1.827817e+003
5.796138e+002, 1.821063e+003
5.800959e+002, 1.817572e+003
5.805780e+002, 1.812813e+003
5.810601e+002, 1.806656e+003
5.815422e+002, 1.800338e+003
5.820244e+002, 1.795218e+003
5.825065e+002, 1.790688e+003
5.829886e+002, 1.785155e+003
5.834707e+002, 1.778151e+003
5.839528e+002, 1.771127e+003
5.844349e+002, 1.764979e+003
5.849171e+002, 1.759731e+003
5.853992e+002, 1.755425e+003
5.858813e+002, 1.752757e+003
5.863634e+002, 1.750261e+003
5.868455e+002, 1.747423e+003
5.873276e+002, 1.744282e+003
5.878098e+002, 1.741077e+003
5.882919e+002, 1.738323e+003
5.887740e+002, 1.734972e+003
5.892561e+002, 1.730405e+003
5.897382e+002, 1.724578e+003
5.902203e+002, 1.719580e+003
5.907025e+002, 1.715349e+003
5.911846e+002, 1.712132e+003
5.916667e+002, 1.710399e+003
5.921488e+002, 1.710277e+003
5.926309e+002, 1.709963e+003
5.931130e+002, 1.709538e+003
5.935952e+002, 1.708449e+003
5.940773e+002, 1.705252e+003
5.945594e+002, 1.700652e+003
5.950415e+002, 1.697634e+003
5.955236e+002, 1.697697e+003
5.960057e+002, 1.698186e+003
5.964879e+002, 1.695333e+003
5.969700e+002, 1.690591e+003
5.974521e+002, 1.687386e+003
5.979342e+002, 1.688462e+003
5.984163e+002, 1.690486e+003
5.988984e+002, 1.692584e+003
5.993806e+002, 1.694445e+003
5.998627e+002, 1.693807e+003
6.003448e+002, 1.686840e+003
6.008269e+002, 1.680066e+003
6.013090e+002, 1.676604e+003
6.017911e+002, 1.677279e+003
6.022733e+002, 1.678117e+003
6.027554e+002, 1.679426e+003
6.032375e+002, 1.680453e+003
6.037196e+002, 1.680260e+003
6.042017e+002, 1.678675e+003
6.046838e+002, 1.677711e+003
6.051660e+002, 1.677753e+003
6.056481e+002, 1.678156e+003
6.061302e+002, 1.677589e+003
6.066123e+002, 1.676361e+003
6.070944e+002, 1.675893e+003
6.075765e+002, 1.676938e+003
6.080587e+002, 1.678759e+003
6.085408e+002, 1.680700e+003
6.090229e+002, 1.682720e+003
6.095050e+002, 1.684761e+003
6.099871e+002, 1.687285e+003
6.104692e+002, 1.689374e+003
6.109514e+002, 1.690133e+003
6.114335e+002, 1.689411e+003
6.119156e+002, 1.689278e+003
6.123977e+002, 1.690945e+003
6.128798e+002, 1.692700e+003
6.133619e+002, 1.693476e+003
6.138441e+002, 1.692653e+003
6.143262e+002, 1.692463e+003
6.148083e+002, 1.693321e+003
6.152904e+002, 1.694278e+003
6.157725e+002, 1.693914e+003
6.162546e+002, 1.692135e+003
6.167368e+002, 1.690762e+003
6.172189e+002, 1.689904e+003
6.177010e+002, 1.690056e+003
6.181831e+002, 1.692431e+003
6.186652e+002, 1.696670e+003
6.191473e+002, 1.701386e+003
6.196295e+002, 1.706750e+003
6.201116e+002, 1.711648e+003
6.205937e+002, 1.714844e+003
6.210758e+002, 1.716499e+003
6.215579e+002, 1.717513e+003
6.220400e+002, 1.717830e+003
6.225222e+002, 1.717979e+003
6.230043e+002, 1.718075e+003
6.234864e+002, 1.717970e+003
6.239685e+002, 1.718748e+003
6.244506e+002, 1.721192e+003
6.249327e+002, 1.723965e+003
6.254149e+002, 1.726292e+003
6.258970e+002, 1.728238e+003
6.263791e+002, 1.729251e+003
6.268612e+002, 1.728795e+003
6.273433e+002, 1.728268e+003
6.278254e+002, 1.729511e+003
6.283076e+002, 1.732499e+003
6.287897e+002, 1.737021e+003
6.292718e+002, 1.743830e+003
6.297539e+002, 1.750848e+003
6.302360e+002, 1.754268e+003
6.307181e+002, 1.754978e+003
6.312003e+002, 1.755719e+003
6.316824e+002, 1.758040e+003
6.321645e+002, 1.760814e+003
6.326466e+002, 1.762704e+003
6.331287e+002, 1.764027e+003
6.336108e+002, 1.766756e+003
6.340930e+002, 1.774253e+003
6.345751e+002, 1.781117e+003
6.350572e+002, 1.783883e+003
6.355393e+002, 1.781201e+003
6.360214e+002, 1.781039e+003
6.365035e+002, 1.784571e+003
6.369857e+002, 1.789188e+003
6.374678e+002, 1.792953e+003
6.379499e+002, 1.795738e+003
6.384320e+002, 1.798389e+003
6.389141e+002, 1.800810e+003
6.393962e+002, 1.803427e+003
6.398784e+002, 1.806606e+003
6.403605e+002, 1.810400e+003
6.408426e+002, 1.815418e+003
6.413247e+002, 1.822517e+003
6.418068e+002, 1.829561e+003
6.422889e+002, 1.833964e+003
6.427711e+002, 1.836569e+003
6.432532e+002, 1.839400e+003
6.437353e+002, 1.843820e+003
6.442174e+002, 1.848185e+003
6.446995e+002, 1.851424e+003
6.451816e+002, 1.853751e+003
6.456638e+002, 1.856801e+003
6.461459e+002, 1.860733e+003
6.466280e+002, 1.865536e+003
6.471101e+002, 1.871530e+003
6.475922e+002, 1.878754e+003
6.480743e+002, 1.885439e+003
6.485565e+002, 1.891533e+003
6.490386e+002, 1.897039e+003
6.495207e+002, 1.901362e+003
6.500028e+002, 1.904714e+003
6.504849e+002, 1.909094e+003
6.509670e+002, 1.914586e+003
6.514492e+002, 1.921091e+003
6.519313e+002, 1.929831e+003
6.524134e+002, 1.939230e+003
6.528955e+002, 1.945816e+003
6.533776e+002, 1.947474e+003
6.538597e+002, 1.949312e+003
6.543419e+002, 1.954571e+003
6.548240e+002, 1.962127e+003
6.553061e+002, 1.970175e+003
6.557882e+002, 1.979731e+003
6.562703e+002, 1.988094e+003
6.567524e+002, 1.993732e+003
6.572346e+002, 1.997798e+003
6.577167e+002, 2.003668e+003
6.581988e+002, 2.011819e+003
6.586809e+002, 2.020854e+003
6.591630e+002, 2.030899e+003
6.596451e+002, 2.041480e+003
6.601273e+002, 2.048922e+003
6.606094e+002, 2.053085e+003
6.610915e+002, 2.058280e+003
6.615736e+002, 2.068215e+003
6.620557e+002, 2.081011e+003
6.625378e+002, 2.092708e+003
6.630200e+002, 2.103098e+003
6.635021e+002, 2.114537e+003
6.639842e+002, 2.130534e+003
6.644663e+002, 2.147354e+003
6.649484e+002, 2.160916e+003
6.654305e+002, 2.169133e+003
6.659127e+002, 2.178500e+003
6.663948e+002, 2.191581e+003
6.668769e+002, 2.206058e+003
6.673590e+002, 2.219254e+003
6.678411e+002, 2.228026e+003
6.683232e+002, 2.242591e+003
6.688054e+002, 2.266292e+003
6.692875e+002, 2.293064e+003
6.697696e+002, 2.310109e+003
6.702517e+002, 2.317140e+003
6.707338e+002, 2.329621e+003
6.712159e+002, 2.353710e+003
6.716981e+002, 2.383266e+003
6.721802e+002, 2.407656e+003
6.726623e+002, 2.428024e+003
6.731444e+002, 2.449408e+003
6.736265e+002, 2.475713e+003
6.741086e+002, 2.502626e+003
6.745908e+002, 2.525383e+003
6.750729e+002, 2.544899e+003
6.755550e+002, 2.568656e+003
6.760371e+002, 2.601861e+003
6.765192e+002, 2.637243e+003
6.770013e+002, 2.671946e+003
6.774835e+002, 2.705763e+003
6.779656e+002, 2.741672e+003
6.784477e+002, 2.779078e+003
6.789298e+002, 2.820231e+003
6.794119e+002, 2.867188e+003
6.798940e+002, 2.920575e+003
6.803762e+002, 2.972217e+003
6.808583e+002, 3.021887e+003
6.813404e+002, 3.073732e+003
6.818225e+002, 3.134166e+003
6.823046e+002, 3.200021e+003
6.827867e+002, 3.265528e+003
6.832689e+002, 3.327549e+003
6.837510e+002, 3.393950e+003
6.842331e+002, 3.469780e+003
6.847152e+002, 3.552419e+003
6.851973e+002, 3.636767e+003
6.856794e+002, 3.719046e+003
6.861616e+002, 3.807228e+003
6.866437e+002, 3.903623e+003
6.871258e+002, 4.007040e+003
6.876079e+002, 4.114742e+003
6.880900e+002, 4.225973e+003
6.885721e+002, 4.339206e+003
6.890543e+002, 4.450207e+003
6.895364e+002, 4.563808e+003
6.900185e+002, 4.704183e+003
6.905006e+002, 4.869539e+003
6.909827e+002, 5.024587e+003
6.914648e+002, 5.143833e+003
6.919470e+002, 5.246897e+003
6.924291e+002, 5.364754e+003
6.929112e+002, 5.496339e+003
6.933933e+002, 5.635273e+003
6.938754e+002, 5.784667e+003
6.943575e+002, 5.936794e+003
6.948397e+002, 6.088180e+003
6.953218e+002, 6.239349e+003
6.958039e+002, 6.386126e+003
6.962860e+002, 6.528081e+003
6.967681e+002, 6.666654e+003
6.972502e+002, 6.804031e+003
6.977324e+002, 6.939937e+003
6.982145e+002, 7.074538e+003
6.986966e+002, 7.210150e+003
6.991787e+002, 7.338132e+003
6.996608e+002, 7.451762e+003
7.001429e+002, 7.550187e+003
7.006251e+002, 7.634355e+003
7.011072e+002, 7.704414e+003
7.015893e+002, 7.759287e+003
7.020714e+002, 7.797823e+003
7.025535e+002, 7.820375e+003
7.030356e+002, 7.827428e+003
7.035178e+002, 7.818448e+003
7.039999e+002, 7.794733e+003
7.044820e+002, 7.756734e+003
7.049641e+002, 7.704244e+003
7.054462e+002, 7.635552e+003
7.059283e+002, 7.545016e+003
7.064105e+002, 7.448702e+003
7.068926e+002, 7.350066e+003
7.073747e+002, 7.245658e+003
7.078568e+002, 7.124951e+003
7.083389e+002, 6.986561e+003
7.088210e+002, 6.844167e+003
7.093032e+002, 6.700848e+003
7.097853e+002, 6.557376e+003
7.102674e+002, 6.417329e+003
7.107495e+002, 6.279487e+003
7.112316e+002, 6.144005e+003
7.117137e+002, 6.008728e+003
7.121959e+002, 5.877696e+003
7.126780e+002, 5.755274e+003
7.131601e+002, 5.640274e+003
7.136422e+002, 5.528066e+003
7.141243e+002, 5.412035e+003
7.146064e+002, 5.302315e+003
7.150886e+002, 5.203888e+003
7.155707e+002, 5.116295e+003
7.160528e+002, 5.028751e+003
7.165349e+002, 4.938614e+003
7.170170e+002, 4.853523e+003
7.174991e+002, 4.777138e+003
7.179813e+002, 4.709757e+003
7.184634e+002, 4.649217e+003
7.189455e+002, 4.595923e+003
7.194276e+002, 4.546471e+003
7.199097e+002, 4.498352e+003
7.203918e+002, 4.452003e+003
7.208740e+002, 4.408447e+003
7.213561e+002, 4.367096e+003
7.218382e+002, 4.330550e+003
7.223203e+002, 4.301559e+003
7.228024e+002, 4.276576e+003
7.232845e+002, 4.251970e+003
7.237667e+002, 4.223564e+003
7.242488e+002, 4.202290e+003
7.247309e+002, 4.191494e+003
7.252130e+002, 4.183966e+003
7.256951e+002, 4.169667e+003
7.261772e+002, 4.147767e+003
7.266594e+002, 4.133168e+003
7.271415e+002, 4.129544e+003
7.276236e+002, 4.130550e+003
7.281057e+002, 4.126765e+003
7.285878e+002, 4.120646e+003
7.290699e+002, 4.118694e+003
7.295521e+002, 4.124737e+003
7.300342e+002, 4.132900e+003
7.305163e+002, 4.140821e+003
7.309984e+002, 4.147867e+003
7.314805e+002, 4.152890e+003
7.319626e+002, 4.147503e+003
7.324448e+002, 4.150160e+003
7.329269e+002, 4.166462e+003
7.334090e+002, 4.192215e+003
7.338911e+002, 4.216073e+003
7.343732e+002, 4.237682e+003
7.348553e+002, 4.257769e+003
7.353375e+002, 4.275528e+003
7.358196e+002, 4.292699e+003
7.363017e+002, 4.313946e+003
7.367838e+002, 4.338905e+003
7.372659e+002, 4.365351e+003
7.377480e+002, 4.390320e+003
7.382302e+002, 4.417491e+003
7.387123e+002, 4.454183e+003
7.391944e+002, 4.497720e+003
7.396765e+002, 4.535009e+003
7.401586e+002, 4.552833e+003
7.406407e+002, 4.571423e+003
7.411229e+002, 4.600003e+003
7.416050e+002, 4.638363e+003
7.420871e+002, 4.677207e+003
7.425692e+002, 4.716944e+003
7.430513e+002, 4.756802e+003
7.435334e+002, 4.797342e+003
7.440156e+002, 4.838203e+003
7.444977e+002, 4.874778e+003
7.449798e+002, 4.907245e+003
7.454619e+002, 4.936268e+003
7.459440e+002, 4.959933e+003
7.464261e+002, 4.981305e+003
7.469083e+002, 5.004398e+003
7.473904e+002, 5.029566e+003
7.478725e+002, 5.055182e+003
7.483546e+002, 5.084671e+003
7.488367e+002, 5.110889e+003
7.493188e+002, 5.128277e+003
7.498010e+002, 5.134003e+003
7.502831e+002, 5.139063e+003
7.507652e+002, 5.144598e+003
7.512473e+002, 5.147571e+003
7.517294e+002, 5.146413e+003
7.522115e+002, 5.141106e+003
7.526937e+002, 5.128554e+003
7.531758e+002, 5.108259e+003
7.536579e+002, 5.082545e+003
7.541400e+002, 5.054991e+003
7.546221e+002, 5.023450e+003
7.551042e+002, 4.983446e+003
7.555864e+002, 4.933778e+003
7.560685e+002, 4.878865e+003
7.565506e+002, 4.818665e+003
7.570327e+002, 4.755812e+003
7.575148e+002, 4.694775e+003
7.579969e+002, 4.642249e+003
7.584791e+002, 4.579565e+003
7.589612e+002, 4.503370e+003
7.594433e+002, 4.420711e+003
7.599254e+002, 4.341035e+003
7.604075e+002, 4.263761e+003
7.608896e+002, 4.186614e+003
7.613718e+002, 4.109097e+003
7.618539e+002, 4.031738e+003
7.623360e+002, 3.955333e+003
7.628181e+002, 3.879587e+003
7.633002e+002, 3.804323e+003
7.637823e+002, 3.729335e+003
7.642645e+002, 3.653496e+003
7.647466e+002, 3.574341e+003
7.652287e+002, 3.494896e+003
7.657108e+002, 3.417350e+003
7.661929e+002, 3.339368e+003
7.666750e+002, 3.268323e+003
7.671572e+002, 3.206625e+003
7.676393e+002, 3.151110e+003
7.681214e+002, 3.095001e+003
7.686035e+002, 3.038144e+003
7.690856e+002, 2.983544e+003
7.695677e+002, 2.931373e+003
7.700499e+002, 2.881950e+003
7.705320e+002, 2.836538e+003
7.710141e+002, 2.794277e+003
7.714962e+002, 2.753000e+003
7.719783e+002, 2.711288e+003
7.724604e+002, 2.670643e+003
7.729426e+002, 2.631758e+003
7.734247e+002, 2.594755e+003
7.739068e+002, 2.560438e+003
7.743889e+002, 2.529889e+003
7.748710e+002, 2.500468e+003
7.753531e+002, 2.471570e+003
7.758353e+002, 2.443609e+003
7.763174e+002, 2.417762e+003
7.767995e+002, 2.394295e+003
7.772816e+002, 2.372268e+003
7.777637e+002, 2.351846e+003
7.782458e+002, 2.332215e+003
7.787280e+002, 2.311953e+003
7.792101e+002, 2.291229e+003
7.796922e+002, 2.270974e+003
7.801743e+002, 2.249937e+003
7.806564e+002, 2.230896e+003
7.811385e+002, 2.215790e+003
7.816207e+002, 2.203852e+003
7.821028e+002, 2.192095e+003
7.825849e+002, 2.180157e+003
7.830670e+002, 2.168342e+003
7.835491e+002, 2.156763e+003
7.840313e+002, 2.145309e+003
7.845134e+002, 2.133189e+003
7.849955e+002, 2.120263e+003
7.854776e+002, 2.108006e+003
7.859597e+002, 2.096957e+003
7.864418e+002, 2.086886e+003
7.869240e+002, 2.077926e+003
7.874061e+002, 2.069807e+003
7.878882e+002, 2.061629e+003
7.883703e+002, 2.052556e+003
7.888524e+002, 2.043897e+003
7.893345e+002, 2.036355e+003
7.898167e+002, 2.029904e+003
7.902988e+002, 2.024290e+003
7.907809e+002, 2.019634e+003
7.912630e+002, 2.015633e+003
7.917451e+002, 2.012742e+003
7.922272e+002, 2.010342e+003
7.927094e+002, 2.004721e+003
7.931915e+002, 1.996066e+003
7.936736e+002, 1.987702e+003
7.941557e+002, 1.981853e+003
7.946378e+002, 1.977234e+003
7.951199e+002, 1.971796e+003
7.956021e+002, 1.966075e+003
7.960842e+002, 1.962228e+003
7.965663e+002, 1.964212e+003
7.970484e+002, 1.965423e+003
7.975305e+002, 1.962282e+003
7.980126e+002, 1.955321e+003
7.984948e+002, 1.948994e+003
7.989769e+002, 1.942975e+003
7.994590e+002, 1.938573e+003
7.999411e+002, 1.936968e+003
8.004232e+002, 1.937290e+003
8.009053e+002, 1.936039e+003
8.013875e+002, 1.933398e+003
8.018696e+002, 1.931112e+003
8.023517e+002, 1.930687e+003
8.028338e+002, 1.930775e+003
8.033159e+002, 1.930012e+003
8.037980e+002, 1.928506e+003
8.042802e+002, 1.927140e+003
8.047623e+002, 1.927244e+003
8.052444e+002, 1.926319e+003
8.057265e+002, 1.922432e+003
8.062086e+002, 1.916252e+003
8.066907e+002, 1.914164e+003
8.071729e+002, 1.916855e+003
8.076550e+002, 1.920646e+003
8.081371e+002, 1.924299e+003
8.086192e+002, 1.927581e+003
8.091013e+002, 1.930447e+003
8.095834e+002, 1.932633e+003
8.100656e+002, 1.932608e+003
8.105477e+002, 1.926521e+003
8.110298e+002, 1.920466e+003
8.115119e+002, 1.919187e+003
8.119940e+002, 1.922198e+003
8.124761e+002, 1.924532e+003
8.129583e+002, 1.925472e+003
8.134404e+002, 1.925625e+003
8.139225e+002, 1.924985e+003
8.144046e+002, 1.923708e+003
8.148867e+002, 1.922189e+003
8.153688e+002, 1.920354e+003
8.158510e+002, 1.920099e+003
8.163331e+002, 1.923544e+003
8.168152e+002, 1.928505e+003
8.172973e+002, 1.931286e+003
8.177794e+002, 1.932278e+003
8.182615e+002, 1.933037e+003
8.187437e+002, 1.932857e+003
8.192258e+002, 1.934009e+003
8.197079e+002, 1.939236e+003
8.201900e+002, 1.947463e+003
8.206721e+002, 1.950800e+003
8.211542e+002, 1.946558e+003
8.216364e+002, 1.943488e+003
8.221185e+002, 1.945351e+003
8.226006e+002, 1.950038e+003
8.230827e+002, 1.950149e+003
8.235648e+002, 1.946199e+003
8.240469e+002, 1.942294e+003
8.245291e+002, 1.939668e+003
8.250112e+002, 1.938840e+003
8.254933e+002, 1.941305e+003
8.259754e+002, 1.946117e+003
8.264575e+002, 1.950236e+003
8.269396e+002, 1.952675e+003
8.274218e+002, 1.954301e+003
8.279039e+002, 1.954930e+003
8.283860e+002, 1.955015e+003
8.288681e+002, 1.955873e+003
8.293502e+002, 1.957410e+003
8.298323e+002, 1.960411e+003
8.303145e+002, 1.965623e+003
8.307966e+002, 1.971848e+003
8.312787e+002, 1.976849e+003
8.317608e+002, 1.980937e+003
8.322429e+002, 1.984928e+003
8.327250e+002, 1.989217e+003
8.332072e+002, 1.993557e+003
8.336893e+002, 1.997452e+003
8.341714e+002, 2.001315e+003
8.346535e+002, 2.006449e+003
8.351356e+002, 2.015027e+003
8.356177e+002, 2.020955e+003
8.360999e+002, 2.022493e+003
8.365820e+002, 2.021492e+003
8.370641e+002, 2.020640e+003
8.375462e+002, 2.020317e+003
8.380283e+002, 2.025459e+003
8.385104e+002, 2.040043e+003
8.389926e+002, 2.056298e+003
8.394747e+002, 2.065740e+003
8.399568e+002, 2.070691e+003
8.404389e+002, 2.075321e+003
8.409210e+002, 2.078930e+003
8.414031e+002, 2.084868e+003
8.418853e+002, 2.094935e+003
8.423674e+002, 2.107110e+003
8.428495e+002, 2.118955e+003
8.433316e+002, 2.130692e+003
8.438137e+002, 2.140364e+003
8.442958e+002, 2.146780e+003
8.447780e+002, 2.153251e+003
8.452601e+002, 2.165892e+003
8.457422e+002, 2.182291e+003
8.462243e+002, 2.196488e+003
8.467064e+002, 2.205361e+003
8.471885e+002, 2.215617e+003
8.476707e+002, 2.231889e+003
8.481528e+002, 2.251315e+003
8.486349e+002, 2.270574e+003
8.491170e+002, 2.287111e+003
8.495991e+002, 2.307538e+003
8.500812e+002, 2.333462e+003
8.505634e+002, 2.361068e+003
8.510455e+002, 2.384965e+003
8.515276e+002, 2.406245e+003
8.520097e+002, 2.432975e+003
8.524918e+002, 2.466347e+003
8.529739e+002, 2.505278e+003
8.534561e+002, 2.549919e+003
8.539382e+002, 2.598950e+003
8.544203e+002, 2.650067e+003
8.549024e+002, 2.701467e+003
8.553845e+002, 2.760345e+003
8.558666e+002, 2.826356e+003
8.563488e+002, 2.903136e+003
8.568309e+002, 2.992505e+003
8.573130e+002, 3.096135e+003
8.577951e+002, 3.203310e+003
8.582772e+002, 3.311843e+003
8.587593e+002, 3.432077e+003
8.592415e+002, 3.578250e+003
8.597236e+002, 3.739465e+003
8.602057e+002, 3.900823e+003
8.606878e+002, 4.060301e+003
8.611699e+002, 4.222807e+003
8.616520e+002, 4.388554e+003
8.621342e+002, 4.561262e+003
8.626163e+002, 4.745664e+003
8.630984e+002, 4.939991e+003
8.635805e+002, 5.143780e+003
8.640626e+002, 5.354159e+003
8.645447e+002, 5.579652e+003
8.650269e+002, 5.823099e+003
8.655090e+002, 6.086628e+003
8.659911e+002, 6.368860e+003
8.664732e+002, 6.669049e+003
8.669553e+002, 6.992441e+003
8.674374e+002, 7.345021e+003
8.679196e+002, 7.717354e+003
8.684017e+002, 8.104702e+003
8.688838e+002, 8.502807e+003
8.693659e+002, 8.888600e+003
8.698480e+002, 9.275581e+003
8.703301e+002, 9.623163e+003
8.708123e+002, 9.931763e+003
8.712944e+002, 1.018951e+004
8.717765e+002, 1.037038e+004
8.722586e+002, 1.047073e+004
8.727407e+002, 1.046974e+004
8.732228e+002, 1.034300e+004
8.737050e+002, 1.012583e+004
8.741871e+002, 9.827493e+003
8.746692e+002, 9.470425e+003
8.751513e+002, 9.098018e+003
8.756334e+002, 8.689392e+003
8.761155e+002, 8.314295e+003
8.765977e+002, 7.976456e+003
8.770798e+002, 7.678842e+003
8.775619e+002, 7.426870e+003
8.780440e+002, 7.220765e+003
8.785261e+002, 7.058793e+003
8.790082e+002, 6.940408e+003
8.794904e+002, 6.861335e+003
8.799725e+002, 6.817250e+003
8.804546e+002, 6.805420e+003
8.809367e+002, 6.821470e+003
8.814188e+002, 6.865565e+003
8.819009e+002, 6.934245e+003
8.823831e+002, 7.037400e+003
8.828652e+002, 7.159605e+003
8.833473e+002, 7.281949e+003
8.838294e+002, 7.404124e+003
8.843115e+002, 7.534048e+003
8.847936e+002, 7.674294e+003
8.852758e+002, 7.814027e+003
8.857579e+002, 7.948901e+003
8.862400e+002, 8.073653e+003
8.867221e+002, 8.182736e+003
8.872042e+002, 8.276150e+003
8.876863e+002, 8.327582e+003
8.881685e+002, 8.323650e+003
8.886506e+002, 8.271834e+003
8.891327e+002, 8.174888e+003
8.896148e+002, 8.032830e+003
8.900969e+002, 7.847323e+003
8.905790e+002, 7.611873e+003
8.910612e+002, 7.343953e+003
8.915433e+002, 7.043759e+003
8.920254e+002, 6.719566e+003
8.925075e+002, 6.403156e+003
8.929896e+002, 6.093515e+003
8.934717e+002, 5.794849e+003
8.939539e+002, 5.501800e+003
8.944360e+002, 5.222648e+003
8.949181e+002, 4.961891e+003
8.954002e+002, 4.718294e+003
8.958823e+002, 4.495612e+003
8.963644e+002, 4.290647e+003
8.968466e+002, 4.107649e+003
8.973287e+002, 3.947995e+003
8.978108e+002, 3.809051e+003
8.982929e+002, 3.680609e+003
8.987750e+002, 3.563183e+003
8.992571e+002, 3.456467e+003
8.997393e+002, 3.362159e+003
9.002214e+002, 3.275906e+003
9.007035e+002, 3.195229e+003
9.011856e+002, 3.120605e+003
9.016677e+002, 3.054548e+003
9.021498e+002, 2.999425e+003
9.026320e+002, 2.949837e+003
9.031141e+002, 2.906441e+003
9.035962e+002, 2.866588e+003
9.040783e+002, 2.827615e+003
9.045604e+002, 2.789285e+003
9.050425e+002, 2.752466e+003
9.055247e+002, 2.716933e+003
9.060068e+002, 2.685001e+003
9.064889e+002, 2.660286e+003
9.069710e+002, 2.639648e+003
9.074531e+002, 2.619691e+003
9.079352e+002, 2.599373e+003
9.084174e+002, 2.581021e+003
9.088995e+002, 2.565295e+003
9.093816e+002, 2.551065e+003
9.098637e+002, 2.537529e+003
9.103458e+002, 2.524529e+003
9.108279e+002, 2.515361e+003
9.113101e+002, 2.510071e+003
9.117922e+002, 2.505715e+003
9.122743e+002, 2.499407e+003
9.127564e+002, 2.493370e+003
9.132385e+002, 2.489303e+003
9.137206e+002, 2.487501e+003
9.142028e+002, 2.489289e+003
9.146849e+002, 2.495953e+003
9.151670e+002, 2.505520e+003
9.156491e+002, 2.517916e+003
9.161312e+002, 2.532622e+003
9.166133e+002, 2.546795e+003
9.170955e+002, 2.560457e+003
9.175776e+002, 2.578113e+003
9.180597e+002, 2.601487e+003
9.185418e+002, 2.629849e+003
9.190239e+002, 2.660118e+003
9.195060e+002, 2.695224e+003
9.199882e+002, 2.740231e+003
9.204703e+002, 2.801186e+003
9.209524e+002, 2.867279e+003
9.214345e+002, 2.934050e+003
9.219166e+002, 3.006147e+003
9.223987e+002, 3.090712e+003
9.228809e+002, 3.188832e+003
9.233630e+002, 3.287281e+003
9.238451e+002, 3.385336e+003
9.243272e+002, 3.482212e+003
9.248093e+002, 3.573318e+003
9.252914e+002, 3.663694e+003
9.257736e+002, 3.756695e+003
9.262557e+002, 3.852190e+003
9.267378e+002, 3.958737e+003
9.272199e+002, 4.074105e+003
9.277020e+002, 4.205146e+003
9.281841e+002, 4.355742e+003
9.286663e+002, 4.525401e+003
9.291484e+002, 4.711613e+003
9.296305e+002, 4.915860e+003
9.301126e+002, 5.137120e+003
9.305947e+002, 5.382541e+003
9.310768e+002, 5.643116e+003
9.315590e+002, 5.909202e+003
9.320411e+002, 6.181313e+003
9.325232e+002, 6.445734e+003
9.330053e+002, 6.728353e+003
9.334874e+002, 6.972456e+003
9.339695e+002, 7.180133e+003
9.344517e+002, 7.336671e+003
9.349338e+002, 7.410697e+003
9.354159e+002, 7.401541e+003
9.358980e+002, 7.314811e+003
9.363801e+002, 7.140905e+003
9.368622e+002, 6.923475e+003
9.373444e+002, 6.681822e+003
9.378265e+002, 6.445550e+003
9.383086e+002, 6.253509e+003
9.387907e+002, 6.108105e+003
9.392728e+002, 6.029102e+003
9.397549e+002, 6.017084e+003
9.402371e+002, 6.072964e+003
9.407192e+002, 6.203290e+003
9.412013e+002, 6.408484e+003
9.416834e+002, 6.668456e+003
9.421655e+002, 6.981684e+003
9.426476e+002, 7.341862e+003
9.431298e+002, 7.754367e+003
9.436119e+002, 8.199252e+003
9.440940e+002, 8.662049e+003
9.445761e+002, 9.144721e+003
9.450582e+002, 9.638354e+003
9.455403e+002, 1.013333e+004
9.460225e+002, 1.064869e+004
9.465046e+002, 1.118004e+004
9.469867e+002, 1.173683e+004
9.474688e+002, 1.236698e+004
9.479509e+002, 1.306457e+004
9.484330e+002, 1.384921e+004
9.489152e+002, 1.472110e+004
9.493973e+002, 1.569256e+004
9.498794e+002, 1.679346e+004
9.503615e+002, 1.799813e+004
9.508436e+002, 1.926606e+004
9.513257e+002, 2.063613e+004
9.518079e+002, 2.199143e+004
9.522900e+002, 2.337456e+004
9.527721e+002, 2.467404e+004
9.532542e+002, 2.582721e+004
9.537363e+002, 2.680342e+004
9.542184e+002, 2.740088e+004
9.547006e+002, 2.760596e+004
9.551827e+002, 2.731442e+004
9.556648e+002, 2.635272e+004
9.561469e+002, 2.491813e+004
9.566290e+002, 2.310583e+004
9.571111e+002, 2.087027e+004
9.575933e+002, 1.871084e+004
9.580754e+002, 1.660608e+004
9.585575e+002, 1.465070e+004
9.590396e+002, 1.289230e+004
9.595217e+002, 1.133719e+004
9.600038e+002, 9.992205e+003
9.604860e+002, 8.849927e+003
9.609681e+002, 7.868654e+003
9.614502e+002, 7.073339e+003
9.619323e+002, 6.396146e+003
9.624144e+002, 5.827401e+003
9.628965e+002, 5.351526e+003
9.633787e+002, 4.945960e+003
9.638608e+002, 4.615121e+003
9.643429e+002, 4.324858e+003
9.648250e+002, 4.071949e+003
9.653071e+002, 3.850486e+003
9.657892e+002, 3.659565e+003
9.662714e+002, 3.495638e+003
9.667535e+002, 3.348223e+003
9.672356e+002, 3.217565e+003
9.677177e+002, 3.098603e+003
9.681998e+002, 2.991473e+003
9.686819e+002, 2.894637e+003
9.691641e+002, 2.808616e+003
9.696462e+002, 2.732250e+003
9.701283e+002, 2.664824e+003
9.706104e+002, 2.606115e+003
9.710925e+002, 2.552772e+003
9.715746e+002, 2.503849e+003
9.720568e+002, 2.457664e+003
9.725389e+002, 2.409481e+003
9.730210e+002, 2.360646e+003
9.735031e+002, 2.317068e+003
9.739852e+002, 2.283914e+003
9.744673e+002, 2.253222e+003
9.749495e+002, 2.223691e+003
9.754316e+002, 2.194532e+003
9.759137e+002, 2.163963e+003
9.763958e+002, 2.131759e+003
9.768779e+002, 2.105196e+003
9.773600e+002, 2.086526e+003
9.778422e+002, 2.069787e+003
9.783243e+002, 2.047726e+003
9.788064e+002, 2.023844e+003
9.792885e+002, 2.002405e+003
9.797706e+002, 1.983872e+003
9.802527e+002, 1.969507e+003
9.807349e+002, 1.963375e+003
9.812170e+002, 1.955872e+003
9.816991e+002, 1.940612e+003
9.821812e+002, 1.919167e+003
9.826633e+002, 1.905002e+003
9.831454e+002, 1.897516e+003
9.836276e+002, 1.890126e+003
9.841097e+002, 1.877565e+003
9.845918e+002, 1.864800e+003
9.850739e+002, 1.856558e+003
9.855560e+002, 1.851094e+003
9.860381e+002, 1.843690e+003
9.865203e+002, 1.832811e+003
9.870024e+002, 1.822369e+003
9.874845e+002, 1.812625e+003
9.879666e+002, 1.803967e+003
9.884487e+002, 1.797437e+003
9.889308e+002, 1.792482e+003
9.894130e+002, 1.787255e+003
9.898951e+002, 1.781411e+003
9.903772e+002, 1.775712e+003
9.908593e+002, 1.771013e+003
9.913414e+002, 1.766320e+003
9.918235e+002, 1.760927e+003
9.923057e+002, 1.754786e+003
9.927878e+002, 1.747919e+003
9.932699e+002, 1.739962e+003
9.937520e+002, 1.733079e+003
9.942341e+002, 1.728802e+003
9.947162e+002, 1.726025e+003
9.951984e+002, 1.723553e+003
9.956805e+002, 1.721041e+003
9.961626e+002, 1.717631e+003
9.966447e+002, 1.711877e+003
9.971268e+002, 1.706567e+003
9.976089e+002, 1.702211e+003
9.980911e+002, 1.698577e+003
9.985732e+002, 1.695241e+003
9.990553e+002, 1.692193e+003
9.995374e+002, 1.691169e+003
1.000020e+003, 1.692771e+003
1.000502e+003, 1.692991e+003
1.000984e+003, 1.686163e+003
1.001466e+003, 1.677457e+003
1.001948e+003, 1.671987e+003
1.002430e+003, 1.670641e+003
1.002912e+003, 1.669427e+003
1.003394e+003, 1.667761e+003
1.003876e+003, 1.666870e+003
1.004359e+003, 1.668299e+003
1.004841e+003, 1.670242e+003
1.005323e+003, 1.665448e+003
1.005805e+003, 1.655768e+003
1.006287e+003, 1.648925e+003
1.006769e+003, 1.650509e+003
1.007251e+003, 1.652806e+003
1.007733e+003, 1.651887e+003
1.008216e+003, 1.649276e+003
1.008698e+003, 1.647046e+003
1.009180e+003, 1.645048e+003
1.009662e+003, 1.644252e+003
1.010144e+003, 1.644981e+003
1.010626e+003, 1.645505e+003
1.011108e+003, 1.643617e+003
1.011590e+003, 1.640650e+003
1.012072e+003, 1.638347e+003
1.012555e+003, 1.636849e+003
1.013037e+003, 1.636364e+003
1.013519e+003, 1.639453e+003
1.014001e+003, 1.640519e+003
1.014483e+003, 1.637065e+003
1.014965e+003, 1.630549e+003
1.015447e+003, 1.625415e+003
1.015929e+003, 1.621688e+003
1.016411e+003, 1.620255e+003
1.016894e+003, 1.622478e+003
1.017376e+003, 1.624553e+003
1.017858e+003, 1.622784e+003
1.018340e+003, 1.619070e+003
1.018822e+003, 1.615593e+003
1.019304e+003, 1.611736e+003
1.019786e+003, 1.610910e+003
1.020268e+003, 1.614307e+003
1.020751e+003, 1.617616e+003
1.021233e+003, 1.616710e+003
1.021715e+003, 1.613362e+003
1.022197e+003, 1.612700e+003
1.022679e+003, 1.614295e+003
1.023161e+003, 1.615060e+003
1.023643e+003, 1.612414e+003
1.024125e+003, 1.609774e+003
1.024607e+003, 1.608385e+003
1.025090e+003, 1.607948e+003
1.025572e+003, 1.608013e+003
1.026054e+003, 1.608605e+003
1.026536e+003, 1.609537e+003
1.027018e+003, 1.611207e+003
1.027500e+003, 1.611194e+003
1.027982e+003, 1.603615e+003
1.028464e+003, 1.594709e+003
1.028947e+003, 1.592812e+003
1.029429e+003, 1.601267e+003
1.029911e+003, 1.605598e+003
1.030393e+003, 1.603143e+003
1.030875e+003, 1.599824e+003
1.031357e+003, 1.598743e+003
1.031839e+003, 1.599084e+003
1.032321e+003, 1.597936e+003
1.032803e+003, 1.595628e+003
1.033286e+003, 1.593439e+003
1.033768e+003, 1.591451e+003
1.034250e+003, 1.590394e+003
1.034732e+003, 1.590537e+003
1.035214e+003, 1.591876e+003
1.035696e+003, 1.594999e+003
1.036178e+003, 1.601027e+003
1.036660e+003, 1.601983e+003
1.037143e+003, 1.596727e+003
1.037625e+003, 1.590196e+003
1.038107e+003, 1.585387e+003
1.038589e+003, 1.582776e+003
1.039071e+003, 1.584032e+003
1.039553e+003, 1.588919e+003
1.040035e+003, 1.592461e+003
1.040517e+003, 1.593470e+003
1.041000e+003, 1.593089e+003
1.041482e+003, 1.590985e+003
1.041964e+003, 1.588313e+003
1.042446e+003, 1.588575e+003
1.042928e+003, 1.590909e+003
1.043410e+003, 1.591662e+003
1.043892e+003, 1.589444e+003
1.044374e+003, 1.586494e+003
1.044856e+003, 1.583335e+003
1.045339e+003, 1.580732e+003
1.045821e+003, 1.579294e+003
1.046303e+003, 1.579047e+003
1.046785e+003, 1.580161e+003
1.047267e+003, 1.582843e+003
1.047749e+003, 1.585049e+003
1.048231e+003, 1.583937e+003
1.048713e+003, 1.582564e+003
1.049195e+003, 1.586723e+003
1.049677e+003, 1.593976e+003
1.050160e+003, 1.597203e+003
1.050642e+003, 1.589832e+003
1.051124e+003, 1.584604e+003
1.051606e+003, 1.583353e+003
1.052088e+003, 1.584004e+003
1.052570e+003, 1.584260e+003
1.053052e+003, 1.584054e+003
1.053534e+003, 1.582434e+003
1.054017e+003, 1.579192e+003
1.054499e+003, 1.577834e+003
1.054981e+003, 1.583847e+003
1.055463e+003, 1.589412e+003
1.055945e+003, 1.588469e+003
1.056427e+003, 1.582442e+003
1.056909e+003, 1.579565e+003
1.057391e+003, 1.580105e+003
1.057874e+003, 1.580883e+003
1.058356e+003, 1.580805e+003
1.058838e+003, 1.580557e+003
1.059320e+003, 1.581603e+003
1.059802e+003, 1.582777e+003
1.060284e+003, 1.582225e+003
1.060766e+003, 1.578030e+003
1.061248e+003, 1.575899e+003
1.061730e+003, 1.576720e+003
1.062213e+003, 1.578232e+003
1.062695e+003, 1.578814e+003
1.063177e+003, 1.578773e+003
1.063659e+003, 1.579553e+003
1.064141e+003, 1.580853e+003
1.064623e+003, 1.581278e+003
1.065105e+003, 1.577495e+003
1.065587e+003, 1.575688e+003
1.066070e+003, 1.580789e+003
1.066552e+003, 1.587970e+003
1.067034e+003, 1.589603e+003
1.067516e+003, 1.585475e+003
1.067998e+003, 1.582244e+003
1.068480e+003, 1.580677e+003
1.068962e+003, 1.580251e+003
1.069444e+003, 1.582359e+003
1.069927e+003, 1.584050e+003
1.070409e+003, 1.581317e+003
1.070891e+003, 1.574106e+003
1.071373e+003, 1.571616e+003
1.071855e+003, 1.575919e+003
1.072337e+003, 1.579859e+003
1.072819e+003, 1.581297e+003
1.073301e+003, 1.581080e+003
1.073783e+003, 1.580411e+003
1.074266e+003, 1.579344e+003
1.074748e+003, 1.577790e+003
1.075230e+003, 1.575055e+003
1.075712e+003, 1.573770e+003
1.076194e+003, 1.575662e+003
1.076676e+003, 1.578011e+003
1.077158e+003, 1.578970e+003
1.077640e+003, 1.578799e+003
1.078122e+003, 1.581225e+003
1.078604e+003, 1.585728e+003
1.079087e+003, 1.587924e+003
1.079569e+003, 1.582250e+003
1.080051e+003, 1.576779e+003
1.080533e+003, 1.577067e+003
1.081015e+003, 1.580552e+003
1.081497e+003, 1.582425e+003
1.081979e+003, 1.582350e+003
1.082461e+003, 1.581811e+003
1.082944e+003, 1.580823e+003
1.083426e+003, 1.580013e+003
1.083908e+003, 1.580248e+003
1.084390e+003, 1.580849e+003
1.084872e+003, 1.581062e+003
1.085354e+003, 1.580852e+003
1.085836e+003, 1.580440e+003
1.086318e+003, 1.579837e+003
1.086801e+003, 1.579064e+003
1.087283e+003, 1.577969e+003
1.087765e+003, 1.576978e+003
1.088247e+003, 1.576826e+003
1.088729e+003, 1.577419e+003
1.089211e+003, 1.578648e+003
1.089693e+003, 1.580653e+003
1.090175e+003, 1.582404e+003
1.090657e+003, 1.583062e+003
1.091140e+003, 1.583788e+003
1.091622e+003, 1.585958e+003
1.092104e+003, 1.588938e+003
1.092586e+003, 1.586184e+003
1.093068e+003, 1.578299e+003
1.093550e+003, 1.572790e+003
1.094032e+003, 1.574353e+003
1.094514e+003, 1.577339e+003
1.094997e+003, 1.578444e+003
1.095479e+003, 1.578110e+003
1.095961e+003, 1.576538e+003
1.096443e+003, 1.572136e+003
1.096925e+003, 1.573171e+003
1.097407e+003, 1.580626e+003
1.097889e+003, 1.587384e+003
1.098371e+003, 1.586818e+003
1.098854e+003, 1.583041e+003
1.099336e+003, 1.580535e+003
1.099818e+003, 1.579328e+003
1.100300e+003, 1.579024e+003
1.100782e+003, 1.580657e+003
1.101264e+003, 1.581235e+003
1.101746e+003, 1.580343e+003
1.102228e+003, 1.578385e+003
1.102710e+003, 1.574036e+003
1.103193e+003, 1.569438e+003
1.103675e+003, 1.570780e+003
1.104157e+003, 1.578785e+003
1.104639e+003, 1.586430e+003
1.105121e+003, 1.593756e+003
1.105603e+003, 1.596089e+003
1.106085e+003, 1.589477e+003
1.106567e+003, 1.578073e+003
1.107049e+003, 1.575947e+003
1.107531e+003, 1.581770e+003
1.108014e+003, 1.585181e+003
1.108496e+003, 1.582870e+003
1.108978e+003, 1.579415e+003
1.109460e+003, 1.576897e+003
1.109942e+003, 1.575505e+003
1.110424e+003, 1.575490e+003
1.110906e+003, 1.576807e+003
1.111388e+003, 1.579558e+003
1.111871e+003, 1.583999e+003
1.112353e+003, 1.586013e+003
1.112835e+003, 1.581839e+003
1.113317e+003, 1.576413e+003
1.113799e+003, 1.574691e+003
1.114281e+003, 1.575623e+003
1.114763e+003, 1.577619e+003
1.115245e+003, 1.581554e+003
1.115728e+003, 1.583979e+003
1.116210e+003, 1.584526e+003
1.116692e+003, 1.584845e+003
1.117174e+003, 1.586791e+003
1.117656e+003, 1.589192e+003
1.118138e+003, 1.589989e+003
1.118620e+003, 1.589281e+003
1.119102e+003, 1.587732e+003
1.119584e+003, 1.584619e+003
1.120067e+003, 1.581767e+003
1.120549e+003, 1.578822e+003
1.121031e+003, 1.577116e+003
1.121513e+003, 1.579683e+003
1.121995e+003, 1.584970e+003
1.122477e+003, 1.587668e+003
1.122959e+003, 1.587304e+003
1.123441e+003, 1.585522e+003
1.123924e+003, 1.580819e+003
1.124406e+003, 1.577651e+003
1.124888e+003, 1.578745e+003
1.125370e+003, 1.582220e+003
1.125852e+003, 1.582615e+003
1.126334e+003, 1.580238e+003
1.126816e+003, 1.578346e+003
1.127298e+003, 1.577662e+003
1.127781e+003, 1.577905e+003
1.128263e+003, 1.579722e+003
1.128745e+003, 1.581755e+003
1.129227e+003, 1.583032e+003
1.129709e+003, 1.583555e+003
1.130191e+003, 1.582564e+003
1.130673e+003, 1.579860e+003
1.131155e+003, 1.578727e+003
1.131637e+003, 1.580894e+003
1.132120e+003, 1.584432e+003
1.132602e+003, 1.588557e+003
1.133084e+003, 1.592209e+003
1.133566e+003, 1.593552e+003
1.134048e+003, 1.591473e+003
1.134530e+003, 1.590413e+003
1.135012e+003, 1.590599e+003
1.135494e+003, 1.590819e+003
1.135976e+003, 1.589941e+003
1.136458e+003, 1.588827e+003
1.136941e+003, 1.589119e+003
1.137423e+003, 1.590291e+003
1.137905e+003, 1.591045e+003
1.138387e+003, 1.589954e+003
1.138869e+003, 1.590154e+003
1.139351e+003, 1.592017e+003
1.139833e+003, 1.594686e+003
1.140315e+003, 1.598342e+003
1.140798e+003, 1.601830e+003
1.141280e+003, 1.601253e+003
1.141762e+003, 1.597311e+003
1.142244e+003, 1.595206e+003
1.142726e+003, 1.599615e+003
1.143208e+003, 1.602651e+003
1.143690e+003, 1.602218e+003
1.144172e+003, 1.600070e+003
1.144655e+003, 1.598591e+003
1.145137e+003, 1.597739e+003
1.145619e+003, 1.597435e+003
1.146101e+003, 1.597698e+003
1.146583e+003, 1.597496e+003
1.147065e+003, 1.595181e+003
1.147547e+003, 1.593492e+003
1.148029e+003, 1.593457e+003
1.148511e+003, 1.595008e+003
1.148994e+003, 1.599229e+003
1.149476e+003, 1.605513e+003
1.149958e+003, 1.607436e+003
1.150440e+003, 1.602443e+003
1.150922e+003, 1.598544e+003
1.151404e+003, 1.604492e+003
1.151886e+003, 1.611192e+003
1.152368e+003, 1.610462e+003
1.152851e+003, 1.603427e+003
1.153333e+003, 1.602358e+003
1.153815e+003, 1.607270e+003
1.154297e+003, 1.611155e+003
1.154779e+003, 1.611230e+003
1.155261e+003, 1.609667e+003
1.155743e+003, 1.607248e+003
1.156225e+003, 1.604964e+003
1.156708e+003, 1.604161e+003
1.157190e+003, 1.605021e+003
1.157672e+003, 1.605559e+003
1.158154e+003, 1.605574e+003
1.158636e+003, 1.607230e+003
1.159118e+003, 1.614118e+003
1.159600e+003, 1.620630e+003
1.160082e+003, 1.619092e+003
1.160564e+003, 1.613202e+003
1.161047e+003, 1.609450e+003
1.161529e+003, 1.610062e+003
1.162011e+003, 1.609653e+003
1.162493e+003, 1.608041e+003
1.162975e+003, 1.606181e+003
1.163457e+003, 1.604135e+003
1.163939e+003, 1.602731e+003
1.164421e+003, 1.603799e+003
1.164903e+003, 1.606509e+003
1.165385e+003, 1.608329e+003
1.165868e+003, 1.607814e+003
1.166350e+003, 1.608089e+003
1.166832e+003, 1.609693e+003
1.167314e+003, 1.611165e+003
1.167796e+003, 1.610313e+003
1.168278e+003, 1.608577e+003
1.168760e+003, 1.608949e+003
1.169242e+003, 1.611159e+003
1.169725e+003, 1.612398e+003
1.170207e+003, 1.611286e+003
1.170689e+003, 1.609848e+003
1.171171e+003, 1.608195e+003
1.171653e+003, 1.606734e+003
1.172135e+003, 1.606579e+003
1.172617e+003, 1.606931e+003
1.173099e+003, 1.605099e+003
1.173582e+003, 1.600909e+003
1.174064e+003, 1.599382e+003
1.174546e+003, 1.604716e+003
1.175028e+003, 1.610196e+003
1.175510e+003, 1.614737e+003
1.175992e+003, 1.617648e+003
1.176474e+003, 1.616052e+003
1.176956e+003, 1.611720e+003
1.177438e+003, 1.610245e+003
1.177921e+003, 1.613058e+003
1.178403e+003, 1.615138e+003
1.178885e+003, 1.613651e+003
1.179367e+003, 1.611813e+003
1.179849e+003, 1.610523e+003
1.180331e+003, 1.610058e+003
1.180813e+003, 1.612338e+003
1.181295e+003, 1.616327e+003
1.181778e+003, 1.617758e+003
1.182260e+003, 1.614627e+003
1.182742e+003, 1.611935e+003
1.183224e+003, 1.614061e+003
1.183706e+003, 1.614865e+003
1.184188e+003, 1.609325e+003
1.184670e+003, 1.599694e+003
1.185152e+003, 1.600354e+003
1.185635e+003, 1.609217e+003
1.186117e+003, 1.615526e+003
1.186599e+003, 1.614208e+003
1.187081e+003, 1.611660e+003
1.187563e+003, 1.609687e+003
1.188045e+003, 1.608894e+003
1.188527e+003, 1.610205e+003
1.189009e+003, 1.613344e+003
1.189491e+003, 1.614538e+003
1.189974e+003, 1.614032e+003
1.190456e+003, 1.613583e+003
1.190938e+003, 1.614533e+003
1.191420e+003, 1.615129e+003
1.191902e+003, 1.614201e+003
1.192384e+003, 1.612703e+003
1.192866e+003, 1.611230e+003
1.193348e+003, 1.609743e+003
1.193830e+003, 1.610945e+003
1.194313e+003, 1.614546e+003
1.194795e+003, 1.617046e+003
1.195277e+003, 1.615406e+003
1.195759e+003, 1.613144e+003
1.196241e+003, 1.610903e+003
1.196723e+003, 1.609959e+003
1.197205e+003, 1.613005e+003
1.197687e+003, 1.620271e+003
1.198169e+003, 1.622584e+003
1.198652e+003, 1.619646e+003
1.199134e+003, 1.614535e+003
1.199616e+003, 1.605654e+003
1.200098e+003, 1.599186e+003
1.200580e+003, 1.600594e+003
1.201062e+003, 1.606186e+003
1.201544e+003, 1.610282e+003
1.202026e+003, 1.612882e+003
1.202509e+003, 1.613797e+003
1.202991e+003, 1.612980e+003
1.203473e+003, 1.612455e+003
1.203955e+003, 1.614560e+003
1.204437e+003, 1.616562e+003
1.204919e+003, 1.616404e+003
1.205401e+003, 1.614879e+003
1.205883e+003, 1.613615e+003
1.206365e+003, 1.612579e+003
1.206848e+003, 1.612103e+003
1.207330e+003, 1.612222e+003
1.207812e+003, 1.612844e+003
1.208294e+003, 1.614509e+003
1.208776e+003, 1.616086e+003
1.209258e+003, 1.616979e+003
1.209740e+003, 1.617108e+003
1.210222e+003, 1.615747e+003
1.210705e+003, 1.612867e+003
1.211187e+003, 1.611375e+003
1.211669e+003, 1.611878e+003
1.212151e+003, 1.613043e+003
1.212633e+003, 1.615233e+003
1.213115e+003, 1.616436e+003
1.213597e+003, 1.613700e+003
1.214079e+003, 1.608775e+003
1.214562e+003, 1.608601e+003
1.215044e+003, 1.613047e+003
1.215526e+003, 1.616017e+003
1.216008e+003, 1.616061e+003
1.216490e+003, 1.614768e+003
1.216972e+003, 1.611479e+003
1.217454e+003, 1.609042e+003
1.217936e+003, 1.610677e+003
1.218418e+003, 1.615129e+003
1.218901e+003, 1.615184e+003
1.219383e+003, 1.611141e+003
1.219865e+003, 1.610851e+003
1.220347e+003, 1.617853e+003
1.220829e+003, 1.623713e+003
1.221311e+003, 1.620219e+003
1.221793e+003, 1.614729e+003
1.222275e+003, 1.612584e+003
1.222757e+003, 1.613517e+003
1.223240e+003, 1.615829e+003
1.223722e+003, 1.619310e+003
1.224204e+003, 1.620759e+003
1.224686e+003, 1.618273e+003
1.225168e+003, 1.616091e+003
1.225650e+003, 1.618685e+003
1.226132e+003, 1.621227e+003
1.226614e+003, 1.619397e+003
1.227096e+003, 1.613981e+003
1.227579e+003, 1.612602e+003
1.228061e+003, 1.614732e+003
1.228543e+003, 1.615510e+003
1.229025e+003, 1.612054e+003
1.229507e+003, 1.609257e+003
1.229989e+003, 1.610940e+003
1.230471e+003, 1.613584e+003
1.230953e+003, 1.614286e+003
1.231436e+003, 1.613334e+003
1.231918e+003, 1.613876e+003
1.232400e+003, 1.615596e+003
1.232882e+003, 1.616315e+003
1.233364e+003, 1.614380e+003
1.233846e+003, 1.612698e+003
1.234328e+003, 1.613516e+003
1.234810e+003, 1.614324e+003
1.235292e+003, 1.612602e+003
1.235775e+003, 1.609052e+003
1.236257e+003, 1.610789e+003
1.236739e+003, 1.616479e+003
1.237221e+003, 1.618898e+003
1.237703e+003, 1.611970e+003
1.238185e+003, 1.605979e+003
1.238667e+003, 1.604333e+003
1.239149e+003, 1.605683e+003
1.239632e+003, 1.610947e+003
1.240114e+003, 1.618706e+003
1.240596e+003, 1.620070e+003
1.241078e+003, 1.616309e+003
1.241560e+003, 1.612827e+003
1.242042e+003, 1.611136e+003
1.242524e+003, 1.611618e+003
1.243006e+003, 1.616279e+003
1.243489e+003, 1.620458e+003
1.243971e+003, 1.619284e+003
1.244453e+003, 1.614595e+003
1.244935e+003, 1.614241e+003
1.245417e+003, 1.617367e+003
1.245899e+003, 1.620766e+003
1.246381e+003, 1.624984e+003
1.246863e+003, 1.626369e+003
1.247345e+003, 1.623754e+003
1.247828e+003, 1.619925e+003
1.248310e+003, 1.616327e+003
1.248792e+003, 1.613666e+003
1.249274e+003, 1.614763e+003
1.249756e+003, 1.618558e+003
1.250238e+003, 1.621362e+003
1.250720e+003, 1.621440e+003
1.251202e+003, 1.620950e+003
1.251684e+003, 1.619972e+003
1.252167e+003, 1.618729e+003
1.252649e+003, 1.616432e+003
1.253131e+003, 1.614467e+003
1.253613e+003, 1.616999e+003
1.254095e+003, 1.622276e+003
1.254577e+003, 1.624505e+003
1.255059e+003, 1.619621e+003
1.255541e+003, 1.616553e+003
1.256023e+003, 1.616019e+003
1.256506e+003, 1.616393e+003
1.256988e+003, 1.615986e+003
1.257470e+003, 1.615818e+003
1.257952e+003, 1.617828e+003
1.258434e+003, 1.621302e+003
1.258916e+003, 1.623990e+003
1.259398e+003, 1.625516e+003
1.259880e+003, 1.626863e+003
1.260363e+003, 1.628215e+003
1.260845e+003, 1.628730e+003
1.261327e+003, 1.627534e+003
1.261809e+003, 1.625289e+003
1.262291e+003, 1.622168e+003
1.262773e+003, 1.618608e+003
1.263255e+003, 1.615439e+003
1.263737e+003, 1.612247e+003
1.264219e+003, 1.611803e+003
1.264702e+003, 1.614438e+003
1.265184e+003, 1.617560e+003
1.265666e+003, 1.619663e+003
1.266148e+003, 1.620997e+003
1.266630e+003, 1.621461e+003
1.267112e+003, 1.621375e+003
1.267594e+003, 1.621633e+003
1.268076e+003, 1.622369e+003
1.268559e+003, 1.620664e+003
1.269041e+003, 1.616388e+003
1.269523e+003, 1.614207e+003
1.270005e+003, 1.620466e+003
1.270487e+003, 1.626350e+003
1.270969e+003, 1.626034e+003
1.271451e+003, 1.622538e+003
1.271933e+003, 1.619177e+003
1.272416e+003, 1.616049e+003
1.272898e+003, 1.614430e+003
1.273380e+003, 1.614338e+003
1.273862e+003, 1.615051e+003
1.274344e+003, 1.615539e+003
1.274826e+003, 1.617741e+003
1.275308e+003, 1.623684e+003
1.275790e+003, 1.630019e+003
1.276272e+003, 1.632514e+003
1.276755e+003, 1.631829e+003
1.277237e+003, 1.629610e+003
1.277719e+003, 1.626364e+003
1.278201e+003, 1.624450e+003
1.278683e+003, 1.626213e+003
1.279165e+003, 1.627733e+003
1.279647e+003, 1.628504e+003
1.280129e+003, 1.628420e+003
1.280611e+003, 1.626676e+003
1.281094e+003, 1.624284e+003
1.281576e+003, 1.623142e+003
1.282058e+003, 1.623332e+003
1.282540e+003, 1.624864e+003
1.283022e+003, 1.629698e+003
1.283504e+003, 1.631885e+003
1.283986e+003, 1.630391e+003
1.284468e+003, 1.627690e+003
1.284950e+003, 1.625467e+003
1.285433e+003, 1.624065e+003
1.285915e+003, 1.624161e+003
1.286397e+003, 1.625550e+003
1.286879e+003, 1.627609e+003
1.287361e+003, 1.630917e+003
1.287843e+003, 1.632044e+003
1.288325e+003, 1.630482e+003
1.288807e+003, 1.628451e+003
1.289290e+003, 1.628016e+003
1.289772e+003, 1.627808e+003
1.290254e+003, 1.625943e+003
1.290736e+003, 1.623628e+003
1.291218e+003, 1.623922e+003
1.291700e+003, 1.627127e+003
1.292182e+003, 1.628570e+003
1.292664e+003, 1.627934e+003
1.293146e+003, 1.627283e+003
1.293629e+003, 1.628341e+003
1.294111e+003, 1.629485e+003
1.294593e+003, 1.629990e+003
1.295075e+003, 1.629874e+003
1.295557e+003, 1.628700e+003
1.296039e+003, 1.626725e+003
1.296521e+003, 1.626129e+003
1.297003e+003, 1.626899e+003
1.297486e+003, 1.628120e+003
1.297968e+003, 1.630526e+003
1.298450e+003, 1.631872e+003
1.298932e+003, 1.631489e+003
1.299414e+003, 1.630327e+003
1.299896e+003, 1.629446e+003
1.300378e+003, 1.628652e+003
1.300860e+003, 1.626152e+003
1.301343e+003, 1.623021e+003
1.301825e+003, 1.623721e+003
##END=



