##NAMES=Microsommite
##RRUFFID=R100090
##IDEAL CHEMISTRY=[(Na,K)_6_(S^6+^O_4_)][Ca_2_Cl_2_][(Si_6_Al_6_O_24_)]
##LOCALITY=Monte Somma, Campania, Italy
##OWNER=RRUFF
##SOURCE=Marcus Origlieri
##DESCRIPTION=Aggregate of parallel striated colorless crystals
##STATUS=The identification of this mineral has been confirmed by single-crystal X-ray diffraction.
##URL=rruff.info/R100090
117.0086, 28.46833
117.4907, 26.75495
117.9728, 25.91359
118.4550, 25.99096
118.9371, 26.28202
119.4192, 26.92718
119.9013, 27.50673
120.3834, 27.47331
120.8655, 25.73724
121.3477, 23.85473
121.8298, 23.00343
122.3119, 23.38187
122.7940, 24.16656
123.2761, 25.17365
123.7582, 26.18528
124.2404, 26.71631
124.7225, 25.99629
125.2046, 24.82632
125.6867, 24.21415
126.1688, 24.37512
126.6509, 24.93371
127.1331, 25.56055
127.6152, 26.25772
128.0973, 27.03543
128.5794, 28.00690
129.0615, 29.06725
129.5436, 29.89373
130.0258, 30.19230
130.5079, 30.47177
130.9900, 31.72057
131.4721, 33.92732
131.9542, 36.52590
132.4363, 39.27875
132.9185, 42.11362
133.4006, 44.45541
133.8827, 45.73417
134.3648, 46.45761
134.8469, 48.57693
135.3290, 52.19078
135.8112, 56.78971
136.2933, 61.87505
136.7754, 67.48257
137.2575, 73.33691
137.7396, 79.24125
138.2217, 85.11716
138.7039, 91.91645
139.1860, 99.64900
139.6681, 108.3154
140.1502, 118.3640
140.6323, 130.1114
141.1144, 141.8551
141.5966, 152.9861
142.0787, 163.3524
142.5608, 173.6015
143.0429, 184.0374
143.5250, 194.1684
144.0071, 202.6018
144.4893, 208.3107
144.9714, 213.8709
145.4535, 220.4580
145.9356, 229.1208
146.4177, 236.7928
146.8998, 242.8647
147.3820, 247.8607
147.8641, 254.2356
148.3462, 262.3365
148.8283, 271.4058
149.3104, 281.1395
149.7925, 291.1433
150.2747, 302.2800
150.7568, 314.8506
151.2389, 328.7271
151.7210, 342.4144
152.2031, 355.5704
152.6852, 368.6039
153.1674, 381.9173
153.6495, 396.9567
154.1316, 410.6542
154.6137, 422.2379
155.0958, 431.6687
155.5779, 440.8637
156.0601, 450.7936
156.5422, 460.2704
157.0243, 468.1559
157.5064, 473.4839
157.9885, 477.9193
158.4706, 481.4355
158.9528, 483.8386
159.4349, 487.2277
159.9170, 493.1328
160.3991, 500.0160
160.8812, 506.0996
161.3633, 509.2306
161.8455, 512.7692
162.3276, 518.5035
162.8097, 526.9543
163.2918, 535.4320
163.7739, 542.1622
164.2560, 547.6749
164.7382, 550.3120
165.2203, 554.3693
165.7024, 559.2751
166.1845, 563.9713
166.6666, 568.3129
167.1487, 572.5515
167.6309, 576.9743
168.1130, 581.4596
168.5951, 585.6658
169.0772, 589.4031
169.5593, 592.8674
170.0414, 596.2834
170.5236, 599.8516
171.0057, 603.0319
171.4878, 605.5633
171.9699, 607.4603
172.4520, 608.7058
172.9341, 609.0089
173.4163, 608.7867
173.8984, 608.5071
174.3805, 608.2364
174.8626, 607.9748
175.3447, 607.6832
175.8268, 607.3724
176.3090, 607.1165
176.7911, 606.8477
177.2732, 606.6785
177.7553, 606.8825
178.2374, 607.9151
178.7195, 608.9033
179.2017, 608.2938
179.6838, 606.2646
180.1659, 604.6007
180.6480, 605.1896
181.1301, 607.1834
181.6122, 608.5078
182.0944, 607.8253
182.5765, 606.6971
183.0586, 608.3201
183.5407, 612.6295
184.0228, 617.0190
184.5049, 618.6321
184.9871, 618.2219
185.4692, 618.4641
185.9513, 620.6469
186.4334, 623.8598
186.9155, 625.9495
187.3976, 626.8423
187.8798, 627.3749
188.3619, 628.5336
188.8440, 630.1863
189.3261, 631.4045
189.8082, 631.9200
190.2903, 631.7720
190.7725, 630.8539
191.2546, 628.9991
191.7367, 627.1884
192.2188, 626.7396
192.7009, 627.5712
193.1830, 628.2681
193.6652, 628.3850
194.1473, 627.9444
194.6294, 626.9555
195.1115, 625.3109
195.5936, 623.4767
196.0757, 622.0859
196.5579, 621.1515
197.0400, 620.2566
197.5221, 619.2327
198.0042, 618.0967
198.4863, 617.0999
198.9684, 616.3762
199.4506, 615.5115
199.9327, 613.8787
200.4148, 611.4305
200.8969, 608.6312
201.3790, 605.3608
201.8611, 601.5858
202.3433, 598.7609
202.8254, 597.1054
203.3075, 596.0175
203.7896, 594.5458
204.2717, 592.6365
204.7538, 590.5418
205.2360, 588.4631
205.7181, 586.4667
206.2002, 583.7970
206.6823, 580.3440
207.1644, 576.3521
207.6465, 572.0286
208.1287, 567.1426
208.6108, 562.8867
209.0929, 560.1727
209.5750, 559.5145
210.0571, 557.5156
210.5392, 553.7682
211.0214, 549.0527
211.5035, 544.9213
211.9856, 541.5123
212.4677, 538.4382
212.9498, 535.5235
213.4319, 532.7650
213.9140, 530.3378
214.3962, 528.3765
214.8783, 526.6450
215.3604, 524.6501
215.8425, 522.3395
216.3246, 519.8230
216.8067, 517.0003
217.2889, 513.6464
217.7710, 510.8497
218.2531, 508.7929
218.7352, 507.2042
219.2173, 505.3615
219.6994, 503.0663
220.1816, 500.8667
220.6637, 499.1162
221.1458, 498.2712
221.6279, 496.4518
222.1100, 493.0979
222.5921, 488.9720
223.0743, 486.0136
223.5564, 484.6774
224.0385, 483.7697
224.5206, 482.9093
225.0027, 482.4175
225.4848, 481.0542
225.9670, 478.4160
226.4491, 475.0478
226.9312, 472.2878
227.4133, 470.2151
227.8954, 468.6486
228.3775, 467.5995
228.8597, 467.2782
229.3418, 466.9120
229.8239, 466.6071
230.3060, 466.2010
230.7881, 465.2125
231.2702, 463.2532
231.7524, 461.2443
232.2345, 459.6597
232.7166, 458.7780
233.1987, 457.5645
233.6808, 455.8257
234.1629, 453.8098
234.6451, 452.1431
235.1272, 450.9196
235.6093, 449.9458
236.0914, 449.2834
236.5735, 449.5751
237.0556, 448.6551
237.5378, 445.8119
238.0199, 441.9852
238.5020, 439.5916
238.9841, 439.2227
239.4662, 439.3864
239.9483, 439.5101
240.4305, 439.6700
240.9126, 439.6003
241.3947, 439.2450
241.8768, 438.6686
242.3589, 437.9932
242.8410, 437.0268
243.3232, 436.2347
243.8053, 435.8682
244.2874, 436.2093
244.7695, 436.2751
245.2516, 436.0229
245.7337, 435.5132
246.2159, 434.8603
246.6980, 433.9760
247.1801, 433.0938
247.6622, 432.3245
248.1443, 431.7748
248.6264, 431.0264
249.1086, 429.9463
249.5907, 428.7343
250.0728, 427.7644
250.5549, 426.9494
251.0370, 426.5290
251.5191, 426.7795
252.0013, 428.1860
252.4834, 428.4965
252.9655, 426.9932
253.4476, 424.8111
253.9297, 424.2523
254.4118, 426.3968
254.8940, 428.1346
255.3761, 428.1595
255.8582, 425.8331
256.3403, 424.4120
256.8224, 424.3414
257.3046, 424.8369
257.7867, 424.5712
258.2688, 423.2618
258.7509, 421.7767
259.2330, 420.1464
259.7151, 418.0758
260.1973, 417.8036
260.6794, 420.2918
261.1615, 423.6570
261.6436, 424.9644
262.1257, 423.4406
262.6078, 421.7622
263.0900, 420.6604
263.5721, 420.1424
264.0542, 420.0618
264.5363, 420.5703
265.0184, 421.3213
265.5005, 421.9329
265.9827, 422.4337
266.4648, 422.6544
266.9469, 422.3582
267.4290, 421.5157
267.9111, 421.5567
268.3932, 422.9930
268.8754, 424.5131
269.3575, 424.3729
269.8396, 421.9697
270.3217, 420.1057
270.8038, 419.4232
271.2859, 419.8960
271.7681, 421.3378
272.2502, 424.2343
272.7323, 427.1007
273.2144, 428.1516
273.6965, 427.0300
274.1786, 426.0732
274.6608, 425.7562
275.1429, 426.0250
275.6250, 426.4394
276.1071, 426.9427
276.5892, 427.7526
277.0714, 429.2771
277.5535, 431.6617
278.0356, 433.4608
278.5177, 434.2284
278.9998, 434.2580
279.4819, 434.8033
279.9641, 435.9808
280.4462, 437.2289
280.9283, 437.9857
281.4104, 438.2198
281.8925, 438.8198
282.3746, 439.8904
282.8568, 441.4362
283.3389, 443.6938
283.8210, 446.7716
284.3031, 449.7019
284.7852, 451.6334
285.2673, 452.6128
285.7495, 453.8651
286.2316, 455.5568
286.7137, 457.5437
287.1958, 459.8532
287.6779, 462.5135
288.1600, 464.4249
288.6422, 464.6998
289.1243, 463.4996
289.6064, 461.9774
290.0885, 460.1334
290.5706, 458.2008
291.0527, 456.6066
291.5349, 455.3311
292.0170, 454.0196
292.4991, 452.8320
292.9812, 451.5151
293.4633, 448.9929
293.9454, 445.0285
294.4276, 440.5908
294.9097, 436.8113
295.3918, 433.6447
295.8739, 430.9406
296.3560, 428.8618
296.8381, 427.1757
297.3203, 425.2833
297.8024, 423.1261
298.2845, 421.2194
298.7666, 420.4125
299.2487, 420.3710
299.7308, 420.0456
300.2130, 418.6740
300.6951, 416.8792
301.1772, 415.6638
301.6593, 415.0322
302.1414, 414.6696
302.6235, 414.5749
303.1057, 414.5509
303.5878, 414.1816
304.0699, 413.0579
304.5520, 411.7407
305.0341, 410.8206
305.5162, 410.2862
305.9984, 410.0105
306.4805, 410.1002
306.9626, 410.3431
307.4447, 410.4631
307.9268, 410.4756
308.4089, 410.2102
308.8911, 409.2755
309.3732, 407.8403
309.8553, 406.6131
310.3374, 405.8228
310.8195, 405.5244
311.3016, 405.9891
311.7838, 407.8492
312.2659, 409.2396
312.7480, 408.3299
313.2301, 405.9522
313.7122, 404.1510
314.1943, 404.3169
314.6765, 405.1160
315.1586, 405.5790
315.6407, 405.4419
316.1228, 405.4228
316.6049, 405.9263
317.0870, 406.7658
317.5692, 407.6236
318.0513, 408.9505
318.5334, 409.8106
319.0155, 409.3932
319.4976, 407.3661
319.9797, 405.9930
320.4619, 406.6411
320.9440, 408.1060
321.4261, 409.0316
321.9082, 408.3668
322.3903, 407.8169
322.8724, 408.1392
323.3546, 409.3776
323.8367, 410.0616
324.3188, 409.3821
324.8009, 408.3430
325.2830, 407.7208
325.7651, 407.6134
326.2473, 407.9319
326.7294, 408.9402
327.2115, 410.5250
327.6936, 411.7674
328.1757, 412.6266
328.6578, 413.1184
329.1400, 413.2438
329.6221, 412.6793
330.1042, 412.1753
330.5863, 411.5978
331.0684, 411.0730
331.5505, 410.9942
332.0327, 411.6143
332.5148, 412.3690
332.9969, 413.1156
333.4790, 414.0346
333.9611, 414.3817
334.4432, 414.0139
334.9254, 413.1479
335.4075, 412.0296
335.8896, 410.1856
336.3717, 409.0544
336.8538, 409.3663
337.3359, 411.3420
337.8180, 412.3052
338.3001, 411.8248
338.7823, 411.0005
339.2644, 411.3653
339.7465, 413.4286
340.2286, 414.4171
340.7107, 413.3661
341.1928, 410.6015
341.6750, 408.3943
342.1571, 406.6486
342.6392, 405.6680
343.1213, 405.8802
343.6034, 407.2946
344.0855, 408.9376
344.5677, 410.8288
345.0498, 412.6503
345.5319, 413.4606
346.0140, 413.2334
346.4961, 412.7559
346.9782, 412.5265
347.4604, 412.4850
347.9425, 412.2932
348.4246, 411.8636
348.9067, 411.4618
349.3888, 411.6861
349.8709, 412.3910
350.3531, 412.7455
350.8352, 411.7018
351.3173, 410.1678
351.7994, 409.9668
352.2815, 411.2175
352.7636, 413.1511
353.2458, 415.6880
353.7279, 418.3523
354.2100, 420.0923
354.6921, 419.5661
355.1742, 418.5580
355.6563, 419.0469
356.1385, 420.9238
356.6206, 423.0658
357.1027, 425.5300
357.5848, 427.5177
358.0669, 428.0036
358.5490, 425.9081
359.0312, 423.4510
359.5133, 421.7866
359.9954, 420.8477
360.4775, 420.3963
360.9596, 420.5740
361.4417, 421.0305
361.9239, 421.6111
362.4060, 422.4399
362.8881, 422.9462
363.3702, 422.6126
363.8523, 421.8783
364.3344, 421.4180
364.8166, 421.3308
365.2987, 421.6343
365.7808, 422.6360
366.2629, 424.5247
366.7450, 425.6017
367.2271, 424.8802
367.7093, 423.5965
368.1914, 422.8375
368.6735, 423.0503
369.1556, 423.4146
369.6377, 423.9330
370.1198, 424.5736
370.6020, 424.9982
371.0841, 424.9298
371.5662, 424.9046
372.0483, 425.2426
372.5304, 426.3397
373.0125, 427.0202
373.4947, 426.9500
373.9768, 426.5516
374.4589, 426.8951
374.9410, 428.3630
375.4231, 429.7841
375.9052, 430.6224
376.3874, 430.7480
376.8695, 431.4331
377.3516, 432.9171
377.8337, 434.5724
378.3158, 435.5053
378.7979, 435.5766
379.2801, 436.0405
379.7622, 437.4098
380.2443, 439.4213
380.7264, 440.8243
381.2085, 441.5123
381.6906, 442.2861
382.1728, 444.1387
382.6549, 446.8377
383.1370, 448.6639
383.6191, 449.0438
384.1012, 448.9599
384.5833, 450.1604
385.0655, 452.5122
385.5476, 454.9620
386.0297, 457.3548
386.5118, 459.3565
386.9939, 460.2181
387.4760, 459.7567
387.9582, 458.9702
388.4403, 458.9542
388.9224, 459.3001
389.4045, 459.1650
389.8866, 457.4273
390.3687, 455.5922
390.8509, 455.1231
391.3330, 455.9212
391.8151, 456.7936
392.2972, 457.2325
392.7793, 457.3073
393.2614, 457.0266
393.7436, 455.8895
394.2257, 455.1222
394.7078, 455.9044
395.1899, 457.5227
395.6720, 458.1030
396.1541, 455.5371
396.6363, 453.0123
397.1184, 452.1540
397.6005, 453.6521
398.0826, 455.1796
398.5647, 456.3704
399.0468, 457.4158
399.5290, 458.5475
400.0111, 460.3250
400.4932, 461.5878
400.9753, 461.6456
401.4574, 460.5106
401.9395, 460.9394
402.4217, 464.0797
402.9038, 467.5675
403.3859, 469.7137
403.8680, 469.6363
404.3501, 470.3548
404.8322, 472.3329
405.3144, 475.0997
405.7965, 477.3338
406.2786, 478.9129
406.7607, 480.4031
407.2428, 481.9497
407.7249, 483.5490
408.2071, 485.6446
408.6892, 488.3110
409.1713, 491.2775
409.6534, 494.2564
410.1355, 497.2382
410.6176, 500.2404
411.0998, 503.2144
411.5819, 506.2729
412.0640, 509.6735
412.5461, 513.3878
413.0282, 517.4443
413.5103, 521.8959
413.9925, 526.6443
414.4746, 531.5932
414.9567, 536.8068
415.4388, 542.0087
415.9209, 546.8044
416.4030, 551.3812
416.8852, 556.3464
417.3673, 562.7352
417.8494, 569.0817
418.3315, 573.7986
418.8136, 576.7286
419.2957, 580.2659
419.7779, 586.3816
420.2600, 593.4747
420.7421, 599.8438
421.2242, 605.5834
421.7063, 609.9940
422.1884, 612.4638
422.6706, 613.3679
423.1527, 614.2144
423.6348, 615.7637
424.1169, 616.9918
424.5990, 617.5586
425.0811, 617.7781
425.5633, 616.5071
426.0454, 612.7197
426.5275, 607.8782
427.0096, 603.7376
427.4917, 600.4097
427.9738, 597.6934
428.4560, 595.8044
428.9381, 594.6658
429.4202, 592.7501
429.9023, 589.4939
430.3844, 586.5292
430.8665, 585.1887
431.3487, 585.7100
431.8308, 586.3567
432.3129, 586.9042
432.7950, 587.5892
433.2771, 589.0228
433.7592, 591.2167
434.2414, 593.4181
434.7235, 594.8699
435.2056, 595.9830
435.6877, 598.7410
436.1698, 603.2393
436.6519, 607.9882
437.1341, 611.2278
437.6162, 613.4832
438.0983, 616.1843
438.5804, 619.6622
439.0625, 623.8268
439.5446, 628.8445
440.0268, 634.5430
440.5089, 640.2822
440.9910, 645.5103
441.4731, 650.7191
441.9552, 656.3795
442.4373, 662.4847
442.9195, 669.1124
443.4016, 676.6883
443.8837, 684.6770
444.3658, 692.4272
444.8479, 699.1971
445.3300, 706.2574
445.8122, 713.9246
446.2943, 722.1747
446.7764, 731.2737
447.2585, 742.5884
447.7406, 753.7294
448.2227, 763.4349
448.7049, 770.2982
449.1870, 778.3489
449.6691, 788.8680
450.1512, 799.9024
450.6333, 807.9435
451.1154, 811.5980
451.5976, 815.4088
452.0797, 820.7201
452.5618, 827.3892
453.0439, 833.2848
453.5260, 838.5469
454.0081, 842.2747
454.4903, 843.6461
454.9724, 842.6650
455.4545, 839.9678
455.9366, 835.3716
456.4187, 829.6763
456.9008, 824.8455
457.3830, 820.5146
457.8651, 814.4833
458.3472, 805.3868
458.8293, 793.9320
459.3114, 780.4278
459.7935, 765.0313
460.2757, 749.8761
460.7578, 737.4756
461.2399, 726.3054
461.7220, 714.2532
462.2041, 700.2715
462.6862, 685.8770
463.1684, 671.3475
463.6505, 657.0375
464.1326, 644.1201
464.6147, 633.7376
465.0968, 624.2233
465.5789, 614.9092
466.0611, 605.6503
466.5432, 597.0862
467.0253, 589.7069
467.5074, 582.9485
467.9895, 576.3671
468.4716, 568.9384
468.9538, 562.8604
469.4359, 558.8730
469.9180, 556.3597
470.4001, 553.3007
470.8822, 549.3261
471.3643, 545.5239
471.8465, 542.4454
472.3286, 540.2034
472.8107, 537.5317
473.2928, 534.3889
473.7749, 531.0313
474.2570, 527.8185
474.7392, 524.7518
475.2213, 521.4673
475.7034, 517.6641
476.1855, 513.8677
476.6676, 511.1437
477.1497, 509.4422
477.6319, 508.3952
478.1140, 508.5406
478.5961, 508.9346
479.0782, 507.7793
479.5603, 504.8647
480.0424, 501.6484
480.5246, 499.0586
481.0067, 496.9740
481.4888, 495.2274
481.9709, 494.0325
482.4530, 492.8278
482.9352, 491.4173
483.4173, 489.7794
483.8994, 487.8484
484.3815, 485.1606
484.8636, 482.5272
485.3457, 480.3561
485.8279, 478.7563
486.3100, 477.2682
486.7921, 476.0650
487.2742, 474.8462
487.7563, 473.3245
488.2384, 471.3244
488.7206, 469.3133
489.2027, 467.3535
489.6848, 465.4227
490.1669, 463.3885
490.6490, 461.1383
491.1311, 459.1898
491.6133, 457.8916
492.0954, 457.2294
492.5775, 456.5705
493.0596, 455.9117
493.5417, 455.2979
494.0238, 454.9258
494.5060, 454.6902
494.9881, 454.0693
495.4702, 452.8453
495.9523, 451.3244
496.4344, 449.5672
496.9165, 447.7910
497.3987, 446.8172
497.8808, 448.0979
498.3629, 449.7896
498.8450, 449.8648
499.3271, 448.0974
499.8092, 446.5249
500.2914, 446.8112
500.7735, 447.5200
501.2556, 447.2773
501.7377, 444.6136
502.2198, 442.3275
502.7019, 440.9706
503.1841, 440.4175
503.6662, 440.3095
504.1483, 441.0285
504.6304, 441.7632
505.1125, 442.3691
505.5946, 442.8770
506.0768, 442.9482
506.5589, 442.5449
507.0410, 441.7696
507.5231, 440.5877
508.0052, 438.9052
508.4873, 437.4717
508.9695, 436.3701
509.4516, 435.5981
509.9337, 435.1339
510.4158, 434.9820
510.8979, 435.2557
511.3800, 436.4182
511.8622, 437.9082
512.3443, 438.2863
512.8264, 437.6026
513.3085, 436.9026
513.7906, 437.2590
514.2728, 437.9662
514.7549, 438.0305
515.2370, 437.0739
515.7191, 436.0428
516.2012, 435.4720
516.6833, 435.2276
517.1655, 435.0922
517.6476, 434.9317
518.1297, 434.9396
518.6118, 435.4432
519.0939, 436.3519
519.5760, 436.6409
520.0582, 435.6044
520.5403, 434.4163
521.0224, 433.4860
521.5045, 432.6064
521.9866, 432.6578
522.4688, 434.1482
522.9509, 436.0026
523.4330, 436.8722
523.9151, 436.5957
524.3972, 436.1901
524.8793, 435.8237
525.3615, 435.5043
525.8436, 435.4188
526.3257, 435.5552
526.8078, 435.2744
527.2899, 433.4331
527.7720, 431.0306
528.2542, 430.7391
528.7363, 432.7343
529.2184, 434.8335
529.7005, 435.0013
530.1826, 434.1933
530.6647, 433.7334
531.1469, 434.3087
531.6290, 434.7754
532.1111, 434.2187
532.5932, 433.1128
533.0753, 432.4267
533.5574, 432.9032
534.0396, 433.3907
534.5217, 433.2838
535.0038, 432.4984
535.4859, 432.5146
535.9680, 434.1928
536.4501, 435.8539
536.9323, 436.5153
537.4144, 435.8626
537.8965, 435.0332
538.3786, 433.9022
538.8607, 432.7977
539.3428, 432.3076
539.8250, 432.4757
540.3071, 432.6720
540.7892, 432.8232
541.2713, 432.8116
541.7534, 431.9302
542.2355, 430.3183
542.7177, 429.4330
543.1998, 430.9350
543.6819, 433.4831
544.1640, 435.0574
544.6461, 435.4976
545.1282, 435.3218
545.6104, 434.2935
546.0925, 433.0830
546.5746, 432.4532
547.0567, 432.8915
547.5388, 433.5420
548.0209, 434.4702
548.5031, 435.3871
548.9852, 435.6815
549.4673, 434.4074
549.9494, 433.4008
550.4315, 433.1904
550.9136, 433.7731
551.3958, 434.2713
551.8779, 434.6400
552.3600, 435.0041
552.8421, 435.4786
553.3242, 436.0906
553.8063, 436.5690
554.2885, 436.9115
554.7706, 437.0969
555.2527, 437.1533
555.7348, 437.0529
556.2169, 436.5565
556.6990, 435.3426
557.1812, 434.0309
557.6633, 433.4935
558.1454, 433.6271
558.6275, 434.0463
559.1096, 434.8459
559.5917, 435.6242
560.0739, 435.9914
560.5560, 435.9191
561.0381, 435.8374
561.5202, 436.0348
562.0023, 436.2225
562.4844, 436.1799
562.9666, 435.6915
563.4487, 435.2324
563.9308, 434.5733
564.4129, 434.0589
564.8950, 434.3408
565.3771, 435.9869
565.8593, 437.1154
566.3414, 437.1846
566.8235, 436.4231
567.3056, 435.7777
567.7877, 435.2255
568.2698, 434.9688
568.7520, 435.0307
569.2341, 435.4716
569.7162, 436.9164
570.1983, 439.4635
570.6804, 441.5507
571.1625, 441.1229
571.6447, 439.3945
572.1268, 438.3570
572.6089, 438.7178
573.0910, 439.3540
573.5731, 439.8572
574.0552, 440.0966
574.5374, 439.8513
575.0195, 437.5825
575.5016, 436.3081
575.9837, 438.1382
576.4658, 442.6471
576.9479, 444.3973
577.4301, 441.0904
577.9122, 437.5998
578.3943, 435.9652
578.8764, 436.4637
579.3585, 437.5621
579.8406, 439.6549
580.3228, 441.4679
580.8049, 441.3003
581.2870, 439.2867
581.7691, 437.8057
582.2512, 437.2162
582.7333, 437.4321
583.2155, 438.7853
583.6975, 440.9002
584.1796, 442.6757
584.6617, 443.7948
585.1439, 444.1728
585.6260, 443.2199
586.1081, 441.2469
586.5902, 439.8272
587.0723, 440.0215
587.5544, 440.7272
588.0366, 441.4222
588.5187, 442.1252
589.0008, 442.4804
589.4829, 442.0629
589.9650, 441.5486
590.4471, 441.5040
590.9293, 442.3984
591.4114, 442.5985
591.8935, 441.6479
592.3756, 440.3481
592.8577, 440.3181
593.3398, 441.6447
593.8220, 442.7714
594.3041, 443.1166
594.7862, 442.9989
595.2683, 443.1105
595.7504, 443.4332
596.2325, 443.8396
596.7147, 444.1936
597.1968, 444.6192
597.6789, 445.2599
598.1610, 446.1283
598.6431, 447.1824
599.1252, 448.9651
599.6074, 450.5858
600.0895, 451.2360
600.5716, 449.8777
601.0537, 449.1172
601.5358, 449.5758
602.0179, 450.7538
602.5001, 452.0382
602.9822, 453.3691
603.4643, 454.9311
603.9464, 456.9044
604.4285, 459.0686
604.9106, 460.6600
605.3928, 461.5825
605.8749, 462.6311
606.3570, 464.3241
606.8391, 466.4295
607.3212, 468.2580
607.8033, 469.8033
608.2855, 471.1324
608.7676, 471.6806
609.2497, 472.2900
609.7318, 474.1390
610.2139, 477.5976
610.6960, 481.4106
611.1782, 485.5192
611.6603, 489.3378
612.1424, 492.2893
612.6245, 493.5444
613.1066, 494.7178
613.5887, 495.9424
614.0709, 497.2425
614.5530, 498.8186
615.0351, 501.1439
615.5172, 502.6513
615.9993, 502.7339
616.4814, 501.6636
616.9636, 500.7461
617.4457, 499.9512
617.9278, 499.6879
618.4099, 500.7119
618.8920, 502.4323
619.3741, 503.1013
619.8563, 502.6498
620.3384, 502.0783
620.8205, 502.2535
621.3026, 502.7576
621.7847, 503.0953
622.2668, 503.1512
622.7490, 503.0633
623.2311, 503.0420
623.7132, 502.8592
624.1953, 502.2238
624.6774, 500.6637
625.1595, 499.1495
625.6417, 497.6861
626.1238, 496.3614
626.6059, 495.5079
627.0880, 495.2969
627.5701, 495.0540
628.0522, 494.6411
628.5344, 494.0045
629.0165, 492.6877
629.4986, 490.6744
629.9807, 488.7354
630.4628, 487.9546
630.9449, 487.4777
631.4271, 485.2712
631.9092, 481.1073
632.3913, 477.3115
632.8734, 476.1304
633.3555, 475.9062
633.8376, 474.8565
634.3198, 472.0972
634.8019, 469.4813
635.2840, 467.3095
635.7661, 465.6281
636.2482, 464.4974
636.7303, 464.5051
637.2125, 464.0488
637.6946, 462.7367
638.1767, 460.8971
638.6588, 459.4032
639.1409, 458.2560
639.6230, 457.4010
640.1052, 456.8763
640.5873, 456.6053
641.0694, 456.3571
641.5515, 456.1430
642.0336, 456.0438
642.5157, 456.1579
642.9979, 456.4038
643.4800, 456.8493
643.9621, 457.5318
644.4442, 457.7296
644.9263, 456.3290
645.4084, 454.7530
645.8906, 454.1865
646.3727, 455.4327
646.8548, 456.5394
647.3369, 457.1807
647.8190, 457.7566
648.3011, 458.7968
648.7833, 460.5386
649.2654, 461.8936
649.7475, 462.5662
650.2296, 462.9303
650.7117, 463.7375
651.1938, 464.9798
651.6760, 466.5092
652.1581, 468.4422
652.6402, 470.5108
653.1223, 472.3482
653.6044, 473.9657
654.0865, 475.5135
654.5687, 476.7031
655.0508, 478.1242
655.5329, 480.4938
656.0150, 483.8942
656.4971, 486.5366
656.9792, 487.4616
657.4614, 487.9637
657.9435, 488.6901
658.4256, 489.6139
658.9077, 490.9037
659.3898, 492.7380
659.8719, 494.6137
660.3541, 496.0269
660.8362, 496.9787
661.3183, 497.8497
661.8004, 498.8507
662.2825, 499.2262
662.7646, 497.3167
663.2468, 493.9970
663.7289, 491.4787
664.2110, 491.5077
664.6931, 491.4055
665.1752, 488.6893
665.6573, 484.4315
666.1395, 481.1026
666.6216, 480.4677
667.1037, 479.8309
667.5858, 478.0359
668.0679, 475.3275
668.5500, 473.5909
669.0322, 473.1798
669.5143, 473.0263
669.9964, 472.8295
670.4785, 472.5480
670.9606, 471.2973
671.4427, 468.9501
671.9249, 466.8000
672.4070, 465.9320
672.8891, 465.9847
673.3712, 466.4396
673.8533, 467.3136
674.3354, 467.6974
674.8176, 466.3473
675.2997, 464.4508
675.7818, 463.3036
676.2639, 463.6023
676.7460, 463.8705
677.2281, 464.1529
677.7103, 464.0635
678.1924, 462.9398
678.6745, 459.5849
679.1566, 457.9860
679.6387, 459.2529
680.1208, 462.0099
680.6030, 463.3987
681.0851, 463.4009
681.5672, 462.6935
682.0493, 461.1641
682.5314, 459.3989
683.0135, 458.2809
683.4957, 457.7939
683.9778, 457.9258
684.4599, 459.7852
684.9420, 461.3408
685.4241, 460.5998
685.9063, 457.7594
686.3884, 456.0981
686.8705, 457.6530
687.3526, 459.5317
687.8347, 460.5574
688.3168, 460.6903
688.7990, 460.0762
689.2811, 458.2925
689.7632, 456.7000
690.2453, 456.5706
690.7274, 457.7733
691.2095, 458.6925
691.6917, 459.2489
692.1738, 459.3218
692.6559, 458.4737
693.1380, 457.1222
693.6201, 455.9272
694.1022, 454.9562
694.5844, 454.3824
695.0665, 454.6616
695.5486, 455.2720
696.0307, 455.5474
696.5128, 455.1328
696.9949, 454.6195
697.4771, 453.9064
697.9592, 453.1994
698.4413, 452.9952
698.9234, 453.4613
699.4055, 453.7739
699.8876, 453.7129
700.3698, 453.3702
700.8519, 452.9631
701.3340, 452.4886
701.8161, 451.9169
702.2982, 451.0750
702.7803, 450.2413
703.2625, 449.7539
703.7446, 449.5656
704.2267, 449.4259
704.7088, 449.0541
705.1909, 448.8514
705.6730, 449.0751
706.1552, 449.7752
706.6373, 450.4735
707.1194, 451.2144
707.6015, 451.8810
708.0836, 452.3884
708.5657, 452.7220
709.0479, 453.0511
709.5300, 453.3846
710.0121, 453.5951
710.4942, 453.2564
710.9763, 452.7390
711.4584, 453.0993
711.9406, 454.5909
712.4227, 455.9532
712.9048, 456.1304
713.3869, 455.7682
713.8690, 455.5533
714.3511, 455.8358
714.8333, 455.9313
715.3154, 455.4980
715.7975, 454.9516
716.2796, 454.6985
716.7617, 454.7227
717.2438, 455.2735
717.7260, 456.7137
718.2081, 458.1935
718.6902, 457.8355
719.1723, 455.9050
719.6544, 454.4828
720.1365, 454.3387
720.6187, 454.7988
721.1008, 455.4679
721.5829, 456.1074
722.0650, 456.1802
722.5471, 454.7110
723.0292, 453.3505
723.5114, 452.8090
723.9935, 452.9786
724.4756, 453.3827
724.9577, 454.3291
725.4398, 454.9677
725.9219, 455.0760
726.4041, 454.6705
726.8862, 453.5313
727.3683, 451.5258
727.8504, 450.2270
728.3325, 451.1100
728.8146, 453.1320
729.2968, 454.0480
729.7789, 453.9442
730.2610, 453.6985
730.7431, 453.9970
731.2252, 454.2662
731.7073, 453.8798
732.1895, 452.6915
732.6716, 452.1427
733.1537, 452.8982
733.6358, 453.9890
734.1179, 455.0665
734.6000, 456.2151
735.0822, 456.6971
735.5643, 456.3693
736.0464, 455.8593
736.5285, 455.6760
737.0106, 455.7798
737.4927, 456.1566
737.9749, 456.8623
738.4570, 457.2987
738.9391, 456.4804
739.4212, 455.3293
739.9033, 455.0016
740.3854, 456.2329
740.8676, 457.0951
741.3497, 456.7536
741.8318, 455.9562
742.3139, 455.4779
742.7960, 455.4737
743.2781, 455.3752
743.7603, 455.0478
744.2424, 454.7647
744.7245, 454.8598
745.2066, 455.3286
745.6887, 456.2981
746.1708, 457.9892
746.6530, 459.6752
747.1351, 460.6636
747.6172, 461.0280
748.0993, 460.8863
748.5814, 459.7128
749.0635, 458.6960
749.5457, 458.1135
750.0278, 457.9950
750.5099, 458.4384
750.9920, 459.9747
751.4741, 461.1073
751.9562, 461.7175
752.4384, 461.6570
752.9205, 459.9589
753.4026, 456.6913
753.8847, 454.5828
754.3668, 455.1495
754.8489, 456.9423
755.3311, 458.2867
755.8132, 459.1538
756.2953, 459.4167
756.7774, 458.0459
757.2595, 457.0143
757.7416, 457.7213
758.2238, 459.7625
758.7059, 460.7486
759.1880, 459.5697
759.6701, 458.9515
760.1522, 459.9419
760.6343, 462.1411
761.1165, 463.3264
761.5986, 463.4377
762.0807, 463.6624
762.5628, 464.8444
763.0449, 466.4751
763.5270, 467.6844
764.0092, 468.5227
764.4913, 469.3073
764.9734, 469.9026
765.4555, 470.7559
765.9376, 472.3673
766.4197, 474.7658
766.9019, 476.4735
767.3840, 476.8857
767.8661, 477.3698
768.3482, 478.4595
768.8303, 480.1588
769.3124, 482.5736
769.7946, 485.7879
770.2767, 488.4679
770.7588, 488.8654
771.2409, 488.3776
771.7230, 489.7491
772.2051, 492.9986
772.6873, 496.1859
773.1694, 498.3444
773.6515, 499.8996
774.1336, 501.1107
774.6157, 501.9716
775.0978, 502.5762
775.5800, 502.7037
776.0621, 502.8886
776.5442, 503.6577
777.0263, 505.0822
777.5084, 505.3712
777.9905, 504.4767
778.4727, 502.9491
778.9548, 500.9509
779.4369, 498.7459
779.9190, 496.8849
780.4011, 495.4645
780.8832, 493.8132
781.3654, 491.8646
781.8475, 489.3540
782.3296, 485.7261
782.8117, 479.9467
783.2938, 476.5846
783.7759, 476.9559
784.2581, 477.9230
784.7402, 476.8996
785.2223, 473.8912
785.7044, 471.7601
786.1865, 470.6701
786.6686, 470.1195
787.1508, 470.0321
787.6329, 470.0279
788.1150, 469.3448
788.5971, 467.7041
789.0792, 466.4415
789.5613, 466.5851
790.0435, 467.0880
790.5256, 467.0472
791.0077, 466.0368
791.4898, 465.5357
791.9719, 465.8249
792.4540, 466.1507
792.9362, 465.6386
793.4183, 464.3927
793.9004, 463.7797
794.3825, 463.9476
794.8646, 464.3658
795.3467, 464.8980
795.8289, 465.2186
796.3110, 464.7648
796.7931, 463.2354
797.2752, 461.8554
797.7573, 460.8594
798.2394, 460.3402
798.7216, 460.3480
799.2037, 460.9426
799.6858, 462.0253
800.1679, 463.9008
800.6500, 465.5711
801.1321, 465.9113
801.6143, 465.1473
802.0964, 464.3426
802.5785, 463.5920
803.0606, 463.0256
803.5427, 462.8713
804.0248, 462.9113
804.5070, 462.9037
804.9891, 462.7764
805.4712, 462.6828
805.9533, 462.8384
806.4354, 462.9037
806.9175, 462.5201
807.3997, 461.4240
807.8818, 461.1846
808.3639, 462.0426
808.8460, 463.0221
809.3281, 462.9920
809.8102, 462.3064
810.2924, 461.8573
810.7745, 461.7764
811.2566, 461.8219
811.7387, 461.8260
812.2208, 461.8759
812.7029, 462.0793
813.1851, 462.5751
813.6672, 462.8374
814.1493, 462.5247
814.6314, 462.3483
815.1135, 463.1363
815.5956, 464.9751
816.0778, 465.6324
816.5599, 464.9435
817.0420, 463.7180
817.5241, 462.3149
818.0062, 461.0490
818.4883, 460.4505
818.9705, 460.6420
819.4526, 461.0472
819.9347, 461.7009
820.4168, 462.2447
820.8989, 462.3185
821.3810, 461.7050
821.8632, 461.5539
822.3453, 461.9644
822.8274, 462.6275
823.3095, 463.3915
823.7916, 464.2148
824.2737, 464.8181
824.7559, 465.1922
825.2380, 465.3791
825.7201, 465.3992
826.2022, 465.2559
826.6843, 464.8506
827.1664, 464.1205
827.6486, 463.6807
828.1307, 463.9336
828.6128, 464.2655
829.0949, 464.2871
829.5770, 463.9360
830.0591, 464.4821
830.5413, 466.1322
831.0234, 467.3958
831.5055, 466.7813
831.9876, 465.1286
832.4697, 463.9178
832.9518, 463.2311
833.4340, 463.0577
833.9161, 463.8017
834.3982, 464.7194
834.8803, 465.2872
835.3624, 465.4346
835.8445, 466.0035
836.3267, 467.5394
836.8088, 468.4143
837.2909, 467.5665
837.7730, 465.3536
838.2551, 463.7167
838.7372, 462.6620
839.2194, 462.2265
839.7015, 462.8509
840.1836, 463.8130
840.6657, 464.4938
841.1478, 464.8911
841.6299, 465.0824
842.1121, 465.3681
842.5942, 465.0873
843.0763, 463.4998
843.5584, 461.0912
844.0405, 460.9718
844.5226, 463.4956
845.0048, 465.7095
845.4869, 466.2167
845.9690, 465.6811
846.4511, 464.8180
846.9332, 463.9374
847.4153, 464.0905
847.8975, 467.4667
848.3796, 470.2841
848.8617, 470.1224
849.3438, 467.8773
849.8259, 466.7476
850.3080, 467.3780
850.7902, 467.8331
851.2723, 467.5553
851.7544, 467.0289
852.2365, 467.4099
852.7186, 468.5722
853.2007, 469.8381
853.6829, 471.3589
854.1650, 472.2249
854.6471, 471.1698
855.1292, 469.0275
855.6113, 467.1943
856.0934, 465.8355
856.5756, 465.1418
857.0577, 465.1928
857.5398, 465.8213
858.0219, 467.0673
858.5040, 469.0113
858.9861, 469.9144
859.4683, 469.2667
859.9504, 468.3320
860.4325, 468.8953
860.9146, 470.1977
861.3967, 470.9137
861.8788, 470.5030
862.3610, 470.0643
862.8431, 470.2801
863.3252, 470.4689
863.8073, 469.9533
864.2894, 468.3499
864.7715, 467.1935
865.2537, 466.5063
865.7358, 466.2796
866.2179, 466.9970
866.7000, 468.1249
867.1821, 467.8387
867.6642, 465.8838
868.1464, 464.4957
868.6285, 466.1279
869.1106, 468.2008
869.5927, 468.5207
870.0748, 466.3268
870.5569, 465.3342
871.0391, 465.9637
871.5212, 467.0410
872.0033, 468.1695
872.4854, 469.2204
872.9675, 468.6362
873.4496, 466.5683
873.9318, 465.5946
874.4139, 469.4287
874.8960, 473.6234
875.3781, 473.5396
875.8602, 469.6596
876.3423, 466.9453
876.8245, 467.5421
877.3066, 468.3697
877.7887, 468.6511
878.2708, 468.5439
878.7529, 468.7997
879.2350, 469.4247
879.7172, 469.6803
880.1993, 468.8468
880.6814, 467.9530
881.1635, 468.9044
881.6456, 470.8332
882.1277, 471.7079
882.6099, 469.2618
883.0920, 467.4688
883.5741, 467.8086
884.0562, 469.2487
884.5383, 470.2445
885.0204, 470.7552
885.5026, 471.0587
885.9847, 471.1700
886.4668, 471.1852
886.9489, 471.2570
887.4310, 471.3248
887.9131, 471.2125
888.3953, 470.7267
888.8774, 470.4860
889.3595, 471.4440
889.8416, 472.3404
890.3237, 471.8513
890.8058, 469.1332
891.2880, 467.5063
891.7701, 467.1209
892.2522, 467.3920
892.7343, 467.9079
893.2164, 468.6447
893.6985, 469.6867
894.1807, 471.0237
894.6628, 472.0663
895.1449, 472.3120
895.6270, 472.2180
896.1091, 471.9985
896.5912, 471.6577
897.0734, 471.4734
897.5555, 471.3605
898.0376, 471.6378
898.5197, 472.7594
899.0018, 474.2954
899.4839, 474.4624
899.9661, 473.4837
900.4482, 472.6591
900.9303, 472.8104
901.4124, 473.2582
901.8945, 473.7377
902.3766, 474.1665
902.8588, 474.2646
903.3409, 473.5711
903.8230, 473.4316
904.3051, 474.3419
904.7872, 475.6339
905.2693, 475.9483
905.7515, 475.4076
906.2336, 474.7123
906.7157, 473.9193
907.1978, 473.3846
907.6799, 473.7307
908.1620, 474.3668
908.6442, 474.5339
909.1263, 473.2282
909.6084, 473.0796
910.0905, 474.8143
910.5726, 476.7847
911.0547, 477.5507
911.5369, 477.1780
912.0190, 476.2747
912.5011, 474.8576
912.9832, 473.6503
913.4653, 473.2979
913.9474, 473.4088
914.4296, 473.6307
914.9117, 473.9244
915.3938, 474.4464
915.8759, 475.4547
916.3580, 476.3532
916.8401, 476.9247
917.3223, 477.1758
917.8044, 477.1452
918.2865, 476.8354
918.7686, 476.3438
919.2507, 475.4455
919.7328, 474.6260
920.2150, 474.3608
920.6971, 474.5541
921.1792, 474.9581
921.6613, 475.6813
922.1434, 476.4428
922.6255, 477.4323
923.1077, 478.2492
923.5898, 478.0209
924.0719, 476.8159
924.5540, 475.7712
925.0361, 475.0996
925.5182, 474.6837
926.0004, 474.1404
926.4825, 473.8941
926.9646, 474.5765
927.4467, 476.7805
927.9288, 478.5065
928.4109, 479.2646
928.8931, 479.8539
929.3752, 481.0582
929.8573, 482.8420
930.3394, 483.0392
930.8215, 481.6527
931.3036, 480.2253
931.7858, 479.8930
932.2679, 480.0788
932.7500, 480.2457
933.2321, 480.3988
933.7142, 480.7734
934.1964, 481.8331
934.6785, 482.5519
935.1606, 482.4845
935.6427, 482.0043
936.1248, 482.2343
936.6069, 483.1381
937.0891, 484.3122
937.5712, 485.9696
938.0533, 487.1913
938.5354, 486.4622
939.0175, 484.9252
939.4996, 484.2707
939.9818, 485.8654
940.4639, 486.9160
940.9460, 487.1411
941.4281, 487.0190
941.9102, 486.9860
942.3923, 487.0323
942.8745, 487.0446
943.3566, 487.0128
943.8387, 487.0480
944.3208, 486.8367
944.8029, 487.0279
945.2850, 488.6529
945.7672, 491.8454
946.2493, 493.5505
946.7314, 492.9957
947.2135, 491.9770
947.6956, 490.8480
948.1777, 489.9233
948.6599, 490.8827
949.1420, 493.3495
949.6241, 495.1537
950.1062, 494.8167
950.5883, 494.0303
951.0704, 493.6268
951.5526, 493.6659
952.0347, 494.3403
952.5168, 496.2195
952.9989, 497.4778
953.4810, 497.7767
953.9631, 497.8260
954.4453, 498.4769
954.9274, 499.6214
955.4095, 501.0135
955.8916, 502.6434
956.3737, 503.9755
956.8558, 504.4799
957.3380, 504.6748
957.8201, 504.7492
958.3022, 504.6713
958.7843, 505.6025
959.2664, 507.9066
959.7485, 510.0594
960.2307, 511.0948
960.7128, 511.6064
961.1949, 513.1002
961.6770, 515.3232
962.1591, 517.3479
962.6412, 518.8595
963.1234, 519.9880
963.6055, 520.2645
964.0876, 520.4143
964.5697, 521.6594
965.0518, 524.1561
965.5339, 527.0640
966.0161, 530.3646
966.4982, 533.8178
966.9803, 536.8715
967.4624, 540.0004
967.9445, 544.0784
968.4266, 549.3909
968.9088, 554.5906
969.3909, 558.4330
969.8730, 562.8225
970.3551, 568.9976
970.8372, 576.7386
971.3193, 583.8485
971.8015, 590.2255
972.2836, 597.0914
972.7657, 604.9327
973.2478, 613.6473
973.7299, 623.0303
974.2120, 633.2665
974.6942, 644.8903
975.1763, 658.8600
975.6584, 673.0755
976.1405, 686.6985
976.6226, 701.1861
977.1047, 719.1031
977.5869, 740.2879
978.0690, 761.3127
978.5511, 781.4581
979.0332, 802.0369
979.5153, 823.6817
979.9974, 846.8024
980.4796, 872.0209
980.9617, 899.6124
981.4438, 927.7540
981.9259, 956.1183
982.4080, 986.3500
982.8901, 1020.540
983.3723, 1056.856
983.8544, 1089.553
984.3365, 1119.159
984.8186, 1147.864
985.3007, 1178.675
985.7828, 1206.697
986.2650, 1232.203
986.7471, 1252.334
987.2292, 1263.554
987.7113, 1265.449
988.1934, 1259.911
988.6755, 1247.151
989.1577, 1226.636
989.6398, 1197.032
990.1219, 1159.842
990.6040, 1116.634
991.0861, 1067.562
991.5682, 1017.020
992.0504, 963.2730
992.5325, 912.1837
993.0146, 865.7012
993.4967, 824.3269
993.9788, 786.3635
994.4609, 751.8185
994.9431, 721.8239
995.4252, 697.3410
995.9073, 676.8263
996.3894, 658.9767
996.8715, 643.5406
997.3536, 629.7383
997.8358, 617.8028
998.3179, 607.3249
998.8000, 598.4480
999.2821, 590.7042
999.7642, 583.6492
1000.246, 577.1966
1000.728, 571.1293
1001.211, 565.3773
1001.693, 560.6424
1002.175, 558.3303
1002.657, 556.2455
1003.139, 552.6242
1003.621, 547.7498
1004.103, 544.2130
1004.585, 542.2022
1005.068, 540.8714
1005.550, 540.0850
1006.032, 539.6484
1006.514, 539.3636
1006.996, 539.1594
1007.478, 538.8286
1007.960, 538.1105
1008.442, 537.8076
1008.924, 538.5779
1009.407, 539.5001
1009.889, 539.9254
1010.371, 539.8235
1010.853, 540.0820
1011.335, 540.7068
1011.817, 541.4275
1012.299, 541.8227
1012.781, 542.4333
1013.263, 544.0565
1013.746, 546.3553
1014.228, 548.1102
1014.710, 548.5250
1015.192, 549.5963
1015.674, 551.8420
1016.156, 554.4694
1016.638, 556.4642
1017.120, 557.8655
1017.603, 558.5839
1018.085, 558.4915
1018.567, 558.7782
1019.049, 560.9297
1019.531, 563.0228
1020.013, 563.5915
1020.495, 562.7025
1020.977, 562.2883
1021.459, 562.4144
1021.942, 562.4180
1022.424, 561.9103
1022.906, 561.2095
1023.388, 560.7834
1023.870, 560.4869
1024.352, 560.0322
1024.834, 559.7288
1025.316, 558.6544
1025.799, 556.5803
1026.281, 554.0075
1026.763, 551.0894
1027.245, 548.0540
1027.727, 546.4073
1028.209, 546.1705
1028.691, 545.6495
1029.173, 543.1251
1029.656, 540.4190
1030.138, 539.0214
1030.620, 536.8646
1031.102, 537.1558
1031.584, 534.1096
1032.066, 532.0928
1032.548, 531.9110
1033.030, 532.5836
1033.512, 533.0033
1033.995, 533.1449
1034.477, 532.9778
1034.959, 532.5280
1035.441, 531.6165
1035.923, 529.3344
1036.405, 527.5776
1036.887, 527.5597
1037.369, 529.0613
1037.851, 530.3841
1038.334, 531.4551
1038.816, 531.7415
1039.298, 529.9522
1039.780, 528.2781
1040.262, 527.8879
1040.744, 528.7533
1041.226, 530.8875
1041.708, 535.0186
1042.191, 538.0702
1042.673, 539.6481
1043.155, 540.9724
1043.637, 543.1774
1044.119, 546.0881
1044.601, 549.6515
1045.083, 553.8421
1045.565, 557.6451
1046.047, 560.6580
1046.530, 563.2650
1047.012, 565.4496
1047.494, 567.3696
1047.976, 569.1520
1048.458, 570.9556
1048.940, 573.9144
1049.422, 578.5496
1049.904, 583.7690
1050.386, 589.0576
1050.869, 594.3795
1051.351, 599.6931
1051.833, 604.9627
1052.315, 610.6983
1052.797, 617.2496
1053.279, 622.6926
1053.761, 625.6593
1054.243, 627.0804
1054.726, 628.7764
1055.208, 630.2776
1055.690, 630.3493
1056.172, 627.8619
1056.654, 624.7319
1057.136, 620.9595
1057.618, 617.0662
1058.100, 613.8483
1058.583, 611.1295
1059.065, 607.4496
1059.547, 602.7343
1060.029, 598.5143
1060.511, 596.3281
1060.993, 594.6390
1061.475, 592.5031
1061.957, 590.0627
1062.439, 588.0284
1062.922, 586.4140
1063.404, 585.2003
1063.886, 584.5214
1064.368, 583.8463
1064.850, 582.6025
1065.332, 580.9012
1065.814, 578.7740
1066.296, 576.0618
1066.778, 573.8184
1067.261, 572.5411
1067.743, 570.9619
1068.225, 568.2275
1068.707, 564.7927
1069.189, 562.3745
1069.671, 560.6875
1070.153, 558.7211
1070.635, 555.6080
1071.118, 552.7256
1071.600, 551.0048
1072.082, 549.6010
1072.564, 547.6350
1073.046, 545.0525
1073.528, 542.7975
1074.010, 540.9230
1074.492, 539.0724
1074.974, 536.7791
1075.457, 534.5740
1075.939, 533.0611
1076.421, 532.0741
1076.903, 530.8812
1077.385, 529.5749
1077.867, 527.5745
1078.349, 524.4884
1078.831, 521.5286
1079.313, 520.6905
1079.796, 520.9722
1080.278, 520.6074
1080.760, 519.3264
1081.242, 517.8553
1081.724, 516.2911
1082.206, 514.7205
1082.688, 513.1328
1083.170, 511.6140
1083.652, 510.5132
1084.135, 509.7673
1084.617, 509.1219
1085.099, 508.5554
1085.581, 507.9243
1086.063, 506.9924
1086.545, 506.0805
1087.027, 505.3907
1087.509, 504.8963
1087.992, 505.2589
1088.474, 506.5650
1088.956, 507.4929
1089.438, 506.7500
1089.920, 505.6472
1090.402, 505.7315
1090.884, 506.4594
1091.366, 506.6519
1091.849, 505.5756
1092.331, 505.0219
1092.813, 505.1214
1093.295, 505.5788
1093.777, 506.2457
1094.259, 506.9941
1094.741, 507.6133
1095.223, 508.0860
1095.705, 508.4034
1096.188, 508.4746
1096.670, 508.4776
1097.152, 508.3122
1097.634, 508.2729
1098.116, 509.0629
1098.598, 510.5244
1099.080, 511.7115
1099.562, 512.4702
1100.044, 513.1101
1100.527, 514.3234
1101.009, 515.0230
1101.491, 513.8230
1101.973, 511.3194
1102.455, 511.5890
1102.937, 514.7387
1103.419, 517.3212
1103.901, 518.1564
1104.384, 517.9861
1104.866, 516.7952
1105.348, 515.4402
1105.830, 515.1313
1106.312, 516.5443
1106.794, 516.4423
1107.276, 514.1666
1107.758, 512.7200
1108.240, 514.4553
1108.723, 517.5583
1109.205, 519.3377
1109.687, 519.9133
1110.169, 519.5911
1110.651, 517.6368
1111.133, 516.0095
1111.615, 514.9211
1112.097, 514.0757
1112.579, 513.1271
1113.062, 512.1991
1113.544, 511.7753
1114.026, 511.8289
1114.508, 512.1011
1114.990, 513.2136
1115.472, 513.5730
1115.954, 511.9448
1116.436, 509.7503
1116.919, 509.4521
1117.401, 510.8669
1117.883, 510.7562
1118.365, 508.6887
1118.847, 507.1325
1119.329, 508.9419
1119.811, 510.9990
1120.293, 510.7182
1120.776, 508.7456
1121.258, 508.0253
1121.740, 508.7194
1122.222, 509.0693
1122.704, 508.5720
1123.186, 508.0082
1123.668, 508.3820
1124.150, 509.0194
1124.632, 509.1001
1125.115, 508.4352
1125.597, 508.2289
1126.079, 508.6344
1126.561, 509.0522
1127.043, 509.2282
1127.525, 509.3349
1128.007, 509.5729
1128.489, 509.9730
1128.971, 510.7002
1129.454, 512.2571
1129.936, 512.6937
1130.418, 511.2837
1130.900, 509.8740
1131.382, 509.6007
1131.864, 510.1195
1132.346, 510.5108
1132.828, 510.8103
1133.311, 511.1396
1133.793, 511.7629
1134.275, 512.0914
1134.757, 511.7951
1135.239, 511.4005
1135.721, 511.5821
1136.203, 512.1664
1136.685, 511.2902
1137.167, 509.1596
1137.650, 507.8494
1138.132, 509.8619
1138.614, 511.5042
1139.096, 510.3354
1139.578, 508.1834
1140.060, 507.6494
1140.542, 508.7543
1141.024, 509.4788
1141.506, 509.6595
1141.989, 509.6372
1142.471, 509.7139
1142.953, 509.6425
1143.435, 509.0443
1143.917, 508.1613
1144.399, 507.8363
1144.881, 508.1668
1145.363, 508.3719
1145.846, 508.3288
1146.328, 508.0869
1146.810, 507.1409
1147.292, 506.4258
1147.774, 507.2233
1148.256, 509.5381
1148.738, 510.7255
1149.220, 510.6005
1149.703, 509.8390
1150.185, 508.4200
1150.667, 507.0106
1151.149, 506.5705
1151.631, 506.6366
1152.113, 506.5896
1152.595, 506.3122
1153.077, 506.0417
1153.559, 505.8283
1154.042, 505.5034
1154.524, 504.9244
1155.006, 504.2978
1155.488, 504.2537
1155.970, 504.3817
1156.452, 503.7171
1156.934, 501.3503
1157.416, 500.3915
1157.898, 501.8735
1158.381, 503.3958
1158.863, 503.7466
1159.345, 503.1137
1159.827, 501.7295
1160.309, 499.8336
1160.791, 498.0665
1161.273, 496.4599
1161.755, 495.4353
1162.238, 495.4608
1162.720, 495.5599
1163.202, 494.8507
1163.684, 493.5867
1164.166, 493.0876
1164.648, 493.2494
1165.130, 493.6212
1165.612, 494.2029
1166.094, 494.6862
1166.577, 495.2967
1167.059, 495.4318
1167.541, 494.2012
1168.023, 491.7827
1168.505, 489.7072
1168.987, 488.0775
1169.469, 487.4569
1169.951, 488.7732
1170.433, 490.4877
1170.916, 492.7384
1171.398, 494.4653
1171.880, 493.9146
1172.362, 491.2250
1172.844, 489.1128
1173.326, 487.7936
1173.808, 486.6747
1174.290, 485.3554
1174.773, 484.1455
1175.255, 483.1386
1175.737, 482.4161
1176.219, 482.2394
1176.701, 482.6131
1177.183, 483.1350
1177.665, 483.7752
1178.147, 484.2686
1178.630, 484.6747
1179.112, 484.6126
1179.594, 483.3627
1180.076, 481.4406
1180.558, 480.4815
1181.040, 480.5103
1181.522, 480.8764
1182.004, 481.4930
1182.486, 482.1343
1182.969, 482.6145
1183.451, 483.0103
1183.933, 483.3629
1184.415, 483.6791
1184.897, 484.1305
1185.379, 484.7889
1185.861, 484.6279
1186.343, 483.1664
1186.825, 481.7520
1187.308, 482.0469
1187.790, 482.7928
1188.272, 482.7149
1188.754, 481.7785
1189.236, 481.0459
1189.718, 480.5093
1190.200, 480.4429
1190.682, 481.0899
1191.165, 481.8115
1191.647, 482.1738
1192.129, 482.0913
1192.611, 481.1508
1193.093, 479.2307
1193.575, 478.8711
1194.057, 480.3915
1194.539, 480.9419
1195.021, 478.8009
1195.504, 476.4451
1195.986, 477.2468
1196.468, 479.1977
1196.950, 479.4967
1197.432, 477.4546
1197.914, 476.9359
1198.396, 478.1905
1198.878, 479.2612
1199.360, 479.1276
1199.843, 478.4883
1200.325, 477.8222
1200.807, 477.3359
1201.289, 477.4970
1201.771, 478.7104
1202.253, 478.6392
1202.735, 477.0130
1203.217, 475.9489
1203.700, 477.3427
1204.182, 479.0606
1204.664, 478.1724
1205.146, 476.1140
1205.628, 475.2912
1206.110, 476.4857
1206.592, 476.9497
1207.074, 476.5473
1207.557, 476.2653
1208.039, 476.7853
1208.521, 477.6898
1209.003, 478.8970
1209.485, 480.0431
1209.967, 480.3651
1210.449, 479.4379
1210.931, 478.8233
1211.413, 478.5270
1211.896, 478.4962
1212.378, 478.9547
1212.860, 479.4293
1213.342, 479.3852
1213.824, 478.9860
1214.306, 478.5127
1214.788, 477.8120
1215.270, 477.6688
1215.752, 478.1229
1216.235, 478.9607
1216.717, 480.7630
1217.199, 482.2368
1217.681, 481.6647
1218.163, 479.8629
1218.645, 478.7542
1219.127, 478.6888
1219.609, 478.2067
1220.092, 477.1818
1220.574, 476.3405
1221.056, 476.3569
1221.538, 476.7269
1222.020, 477.1857
1222.502, 477.5832
1222.984, 477.5863
1223.466, 477.0432
1223.948, 476.8284
1224.431, 477.0041
1224.913, 477.3488
1225.395, 478.0240
1225.877, 478.4743
1226.359, 478.0858
1226.841, 477.1402
1227.323, 476.3029
1227.805, 475.5021
1228.287, 475.3957
1228.770, 476.0444
1229.252, 477.1226
1229.734, 479.2675
1230.216, 480.8563
1230.698, 480.0795
1231.180, 477.9786
1231.662, 477.1388
1232.144, 477.7000
1232.627, 477.3127
1233.109, 475.7511
1233.591, 474.2360
1234.073, 473.7322
1234.555, 473.5205
1235.037, 472.8141
1235.519, 472.2145
1236.001, 473.2334
1236.484, 475.8662
1236.966, 477.0197
1237.448, 476.4190
1237.930, 475.4225
1238.412, 474.3952
1238.894, 473.8428
1239.376, 474.4914
1239.858, 475.5635
1240.340, 475.7606
1240.823, 475.1629
1241.305, 474.6312
1241.787, 474.2621
1242.269, 474.3038
1242.751, 475.0338
1243.233, 476.1275
1243.715, 477.9706
1244.197, 479.6112
1244.679, 478.7640
1245.162, 476.2151
1245.644, 476.8934
1246.126, 480.9877
1246.608, 483.9633
1247.090, 482.5787
1247.572, 480.7005
1248.054, 479.4354
1248.536, 478.5851
1249.019, 477.7819
1249.501, 477.1738
1249.983, 477.5052
1250.465, 478.7213
1250.947, 479.4930
1251.429, 479.0833
1251.911, 478.2941
1252.393, 477.1103
1252.875, 475.9683
1253.358, 475.4886
1253.840, 475.4845
1254.322, 475.4791
1254.804, 475.4797
1255.286, 475.9334
1255.768, 478.1741
1256.250, 478.5529
1256.732, 475.9270
1257.214, 472.8106
1257.697, 472.6803
1258.179, 473.9001
1258.661, 473.5815
1259.143, 471.9053
1259.625, 471.4811
1260.107, 473.2617
1260.589, 474.5491
1261.071, 474.9355
1261.554, 474.8755
1262.036, 474.5279
1262.518, 474.2436
1263.000, 474.5791
1263.482, 474.5912
1263.964, 474.8468
1264.446, 475.4456
1264.928, 475.6633
1265.411, 476.6268
1265.893, 477.4120
1266.375, 476.7437
1266.857, 475.9317
1267.339, 476.3548
1267.821, 477.5369
1268.303, 477.8149
1268.785, 477.0896
1269.267, 476.6778
1269.750, 476.7134
1270.232, 477.3052
1270.714, 479.6570
1271.196, 481.4447
1271.678, 480.5161
1272.160, 478.3373
1272.642, 477.0314
1273.124, 476.5831
1273.606, 477.0060
1274.089, 478.2076
1274.571, 478.6689
1275.053, 476.3549
1275.535, 474.5768
1276.017, 474.9966
1276.499, 476.0447
1276.981, 475.4354
1277.463, 473.6664
1277.946, 472.5858
1278.428, 472.2659
1278.910, 472.2150
1279.392, 472.3508
1279.874, 472.5710
1280.356, 472.8828
1280.838, 473.2077
1281.320, 473.5708
1281.802, 473.8399
1282.285, 473.5231
1282.767, 472.8104
1283.249, 472.6047
1283.731, 473.2645
1284.213, 474.3818
1284.695, 476.1994
1285.177, 477.4368
1285.659, 476.0246
1286.141, 474.0341
1286.624, 474.7233
1287.106, 476.9751
1287.588, 477.2513
1288.070, 474.5928
1288.552, 473.1919
1289.034, 473.3311
1289.516, 473.9065
1289.998, 474.2773
1290.481, 474.5384
1290.963, 474.7060
1291.445, 474.8349
1291.927, 474.9229
1292.409, 474.9271
1292.891, 475.8044
1293.373, 477.5005
1293.855, 478.8783
1294.338, 479.0373
1294.820, 478.9732
1295.302, 479.4432
1295.784, 479.6317
1296.266, 478.2914
1296.748, 475.8786
1297.230, 475.8098
1297.712, 477.6619
1298.194, 479.4002
1298.677, 479.6229
1299.159, 480.1464
1299.641, 481.4277
1300.123, 482.6525
1300.605, 483.3576
1301.087, 483.4450
1301.569, 482.0695
1302.051, 479.8823
1302.533, 478.3479
1303.016, 477.4544
##END=



