##NAMES=Microcline
##RRUFFID=R150015
##IDEAL CHEMISTRY=KAlSi_3_O_8_
##LOCALITY=
##OWNER=RRUFF
##SOURCE=Jennifer Schmidt
##DESCRIPTION=Pale pick, massive
##STATUS=The identification of this mineral is confirmed by single-crystal X-ray diffraction and chemical analysis.
##URL=rruff.info/R150015
##MEASURED CHEMISTRY=(K_0.88_Na_0.10_Ba_0.02_)Al_1.02_Si_2.97_O_8_
9.059570e+001, 2.233256e+003
9.107782e+001, 2.218271e+003
9.155994e+001, 2.213051e+003
9.204205e+001, 2.221847e+003
9.252417e+001, 2.237677e+003
9.300629e+001, 2.259928e+003
9.348840e+001, 2.275652e+003
9.397052e+001, 2.268077e+003
9.445264e+001, 2.228721e+003
9.493475e+001, 2.185206e+003
9.541687e+001, 2.145861e+003
9.589898e+001, 2.114574e+003
9.638110e+001, 2.087047e+003
9.686321e+001, 2.058991e+003
9.734533e+001, 2.027107e+003
9.782745e+001, 1.989425e+003
9.830956e+001, 1.958236e+003
9.879168e+001, 1.933419e+003
9.927380e+001, 1.913297e+003
9.975591e+001, 1.898094e+003
1.002380e+002, 1.886687e+003
1.007201e+002, 1.877023e+003
1.012023e+002, 1.868106e+003
1.016844e+002, 1.859895e+003
1.021665e+002, 1.851996e+003
1.026486e+002, 1.843942e+003
1.031307e+002, 1.836163e+003
1.036128e+002, 1.828849e+003
1.040950e+002, 1.821724e+003
1.045771e+002, 1.815671e+003
1.050592e+002, 1.810005e+003
1.055413e+002, 1.805251e+003
1.060234e+002, 1.802860e+003
1.065055e+002, 1.804025e+003
1.069877e+002, 1.808026e+003
1.074698e+002, 1.812512e+003
1.079519e+002, 1.820210e+003
1.084340e+002, 1.824456e+003
1.089161e+002, 1.823671e+003
1.093982e+002, 1.817699e+003
1.098804e+002, 1.806405e+003
1.103625e+002, 1.788257e+003
1.108446e+002, 1.761309e+003
1.113267e+002, 1.737980e+003
1.118088e+002, 1.720217e+003
1.122909e+002, 1.704024e+003
1.127731e+002, 1.688178e+003
1.132552e+002, 1.672251e+003
1.137373e+002, 1.655788e+003
1.142194e+002, 1.638157e+003
1.147015e+002, 1.616807e+003
1.151836e+002, 1.598912e+003
1.156658e+002, 1.587099e+003
1.161479e+002, 1.577293e+003
1.166300e+002, 1.565263e+003
1.171121e+002, 1.549374e+003
1.175942e+002, 1.531499e+003
1.180763e+002, 1.516056e+003
1.185584e+002, 1.502719e+003
1.190406e+002, 1.491440e+003
1.195227e+002, 1.483310e+003
1.200048e+002, 1.477430e+003
1.204869e+002, 1.471103e+003
1.209690e+002, 1.462538e+003
1.214511e+002, 1.453411e+003
1.219333e+002, 1.446798e+003
1.224154e+002, 1.443257e+003
1.228975e+002, 1.441213e+003
1.233796e+002, 1.439841e+003
1.238617e+002, 1.439270e+003
1.243438e+002, 1.438163e+003
1.248260e+002, 1.436984e+003
1.253081e+002, 1.434508e+003
1.257902e+002, 1.428962e+003
1.262723e+002, 1.419112e+003
1.267544e+002, 1.406672e+003
1.272365e+002, 1.395307e+003
1.277187e+002, 1.384282e+003
1.282008e+002, 1.375895e+003
1.286829e+002, 1.372027e+003
1.291650e+002, 1.370445e+003
1.296471e+002, 1.368234e+003
1.301292e+002, 1.363498e+003
1.306114e+002, 1.356423e+003
1.310935e+002, 1.349687e+003
1.315756e+002, 1.343598e+003
1.320577e+002, 1.337549e+003
1.325398e+002, 1.331319e+003
1.330219e+002, 1.325003e+003
1.335041e+002, 1.318776e+003
1.339862e+002, 1.312612e+003
1.344683e+002, 1.306211e+003
1.349504e+002, 1.302293e+003
1.354325e+002, 1.302121e+003
1.359146e+002, 1.302875e+003
1.363968e+002, 1.302975e+003
1.368789e+002, 1.302262e+003
1.373610e+002, 1.301492e+003
1.378431e+002, 1.301385e+003
1.383252e+002, 1.301936e+003
1.388073e+002, 1.303782e+003
1.392895e+002, 1.308745e+003
1.397716e+002, 1.314333e+003
1.402537e+002, 1.317430e+003
1.407358e+002, 1.317089e+003
1.412179e+002, 1.315216e+003
1.417000e+002, 1.313868e+003
1.421821e+002, 1.312966e+003
1.426643e+002, 1.312634e+003
1.431464e+002, 1.313050e+003
1.436285e+002, 1.314109e+003
1.441106e+002, 1.315416e+003
1.445927e+002, 1.316791e+003
1.450748e+002, 1.318567e+003
1.455570e+002, 1.320921e+003
1.460391e+002, 1.323852e+003
1.465212e+002, 1.327272e+003
1.470033e+002, 1.331089e+003
1.474854e+002, 1.335297e+003
1.479675e+002, 1.340020e+003
1.484497e+002, 1.346523e+003
1.489318e+002, 1.352812e+003
1.494139e+002, 1.357389e+003
1.498960e+002, 1.360013e+003
1.503781e+002, 1.362186e+003
1.508602e+002, 1.366092e+003
1.513424e+002, 1.372337e+003
1.518245e+002, 1.379246e+003
1.523066e+002, 1.387518e+003
1.527887e+002, 1.395791e+003
1.532708e+002, 1.403390e+003
1.537529e+002, 1.409966e+003
1.542351e+002, 1.415205e+003
1.547172e+002, 1.418269e+003
1.551993e+002, 1.418428e+003
1.556814e+002, 1.416828e+003
1.561635e+002, 1.413789e+003
1.566456e+002, 1.408999e+003
1.571278e+002, 1.401855e+003
1.576099e+002, 1.391983e+003
1.580920e+002, 1.379890e+003
1.585741e+002, 1.367623e+003
1.590562e+002, 1.354607e+003
1.595383e+002, 1.342043e+003
1.600205e+002, 1.329789e+003
1.605026e+002, 1.318191e+003
1.609847e+002, 1.308243e+003
1.614668e+002, 1.300991e+003
1.619489e+002, 1.295643e+003
1.624310e+002, 1.288699e+003
1.629131e+002, 1.278742e+003
1.633953e+002, 1.268710e+003
1.638774e+002, 1.260390e+003
1.643595e+002, 1.253647e+003
1.648416e+002, 1.247295e+003
1.653237e+002, 1.240605e+003
1.658058e+002, 1.233839e+003
1.662880e+002, 1.227575e+003
1.667701e+002, 1.222182e+003
1.672522e+002, 1.217042e+003
1.677343e+002, 1.211194e+003
1.682164e+002, 1.204340e+003
1.686985e+002, 1.198253e+003
1.691807e+002, 1.194144e+003
1.696628e+002, 1.191391e+003
1.701449e+002, 1.189471e+003
1.706270e+002, 1.188414e+003
1.711091e+002, 1.187956e+003
1.715912e+002, 1.187585e+003
1.720734e+002, 1.187538e+003
1.725555e+002, 1.187106e+003
1.730376e+002, 1.186052e+003
1.735197e+002, 1.184516e+003
1.740018e+002, 1.182568e+003
1.744839e+002, 1.180018e+003
1.749661e+002, 1.177127e+003
1.754482e+002, 1.175581e+003
1.759303e+002, 1.176929e+003
1.764124e+002, 1.177974e+003
1.768945e+002, 1.177854e+003
1.773766e+002, 1.176833e+003
1.778588e+002, 1.175420e+003
1.783409e+002, 1.173923e+003
1.788230e+002, 1.172339e+003
1.793051e+002, 1.171016e+003
1.797872e+002, 1.171213e+003
1.802693e+002, 1.170443e+003
1.807515e+002, 1.167328e+003
1.812336e+002, 1.162479e+003
1.817157e+002, 1.157499e+003
1.821978e+002, 1.153716e+003
1.826799e+002, 1.151217e+003
1.831620e+002, 1.149182e+003
1.836441e+002, 1.147884e+003
1.841263e+002, 1.146680e+003
1.846084e+002, 1.145724e+003
1.850905e+002, 1.144764e+003
1.855726e+002, 1.142766e+003
1.860547e+002, 1.138365e+003
1.865368e+002, 1.131046e+003
1.870190e+002, 1.126641e+003
1.875011e+002, 1.127136e+003
1.879832e+002, 1.129029e+003
1.884653e+002, 1.129999e+003
1.889474e+002, 1.129765e+003
1.894296e+002, 1.128991e+003
1.899117e+002, 1.128459e+003
1.903938e+002, 1.128101e+003
1.908759e+002, 1.126539e+003
1.913580e+002, 1.121378e+003
1.918401e+002, 1.115978e+003
1.923223e+002, 1.114941e+003
1.928044e+002, 1.119479e+003
1.932865e+002, 1.124705e+003
1.937686e+002, 1.125279e+003
1.942507e+002, 1.122539e+003
1.947328e+002, 1.120227e+003
1.952150e+002, 1.119756e+003
1.956971e+002, 1.120423e+003
1.961792e+002, 1.120921e+003
1.966613e+002, 1.121203e+003
1.971434e+002, 1.121158e+003
1.976255e+002, 1.120499e+003
1.981077e+002, 1.119440e+003
1.985898e+002, 1.118554e+003
1.990719e+002, 1.118020e+003
1.995540e+002, 1.117866e+003
2.000361e+002, 1.118408e+003
2.005182e+002, 1.120682e+003
2.010004e+002, 1.122138e+003
2.014825e+002, 1.121062e+003
2.019646e+002, 1.118170e+003
2.024467e+002, 1.115236e+003
2.029288e+002, 1.113331e+003
2.034109e+002, 1.112429e+003
2.038930e+002, 1.112234e+003
2.043752e+002, 1.113439e+003
2.048573e+002, 1.114699e+003
2.053394e+002, 1.115884e+003
2.058215e+002, 1.116755e+003
2.063036e+002, 1.116808e+003
2.067857e+002, 1.115294e+003
2.072679e+002, 1.112061e+003
2.077500e+002, 1.110242e+003
2.082321e+002, 1.111449e+003
2.087142e+002, 1.112682e+003
2.091963e+002, 1.112998e+003
2.096784e+002, 1.112513e+003
2.101606e+002, 1.111817e+003
2.106427e+002, 1.111425e+003
2.111248e+002, 1.111375e+003
2.116069e+002, 1.111283e+003
2.120890e+002, 1.111379e+003
2.125711e+002, 1.111229e+003
2.130533e+002, 1.110561e+003
2.135354e+002, 1.109459e+003
2.140175e+002, 1.108135e+003
2.144996e+002, 1.106669e+003
2.149817e+002, 1.104861e+003
2.154638e+002, 1.104522e+003
2.159460e+002, 1.106633e+003
2.164281e+002, 1.108992e+003
2.169102e+002, 1.110658e+003
2.173923e+002, 1.111566e+003
2.178744e+002, 1.112042e+003
2.183565e+002, 1.112334e+003
2.188387e+002, 1.112415e+003
2.193208e+002, 1.112538e+003
2.198029e+002, 1.112762e+003
2.202850e+002, 1.112976e+003
2.207671e+002, 1.112998e+003
2.212492e+002, 1.112873e+003
2.217314e+002, 1.112973e+003
2.222135e+002, 1.113760e+003
2.226956e+002, 1.115265e+003
2.231777e+002, 1.115953e+003
2.236598e+002, 1.114911e+003
2.241419e+002, 1.113728e+003
2.246240e+002, 1.113806e+003
2.251062e+002, 1.115162e+003
2.255883e+002, 1.116503e+003
2.260704e+002, 1.116711e+003
2.265525e+002, 1.115904e+003
2.270346e+002, 1.115347e+003
2.275167e+002, 1.114619e+003
2.279989e+002, 1.114483e+003
2.284810e+002, 1.116098e+003
2.289631e+002, 1.119572e+003
2.294452e+002, 1.122935e+003
2.299273e+002, 1.124668e+003
2.304094e+002, 1.125144e+003
2.308916e+002, 1.125423e+003
2.313737e+002, 1.125350e+003
2.318558e+002, 1.125323e+003
2.323379e+002, 1.125922e+003
2.328200e+002, 1.127241e+003
2.333021e+002, 1.128499e+003
2.337843e+002, 1.129099e+003
2.342664e+002, 1.129327e+003
2.347485e+002, 1.129549e+003
2.352306e+002, 1.129538e+003
2.357127e+002, 1.129825e+003
2.361948e+002, 1.131244e+003
2.366770e+002, 1.134000e+003
2.371591e+002, 1.137089e+003
2.376412e+002, 1.140890e+003
2.381233e+002, 1.144476e+003
2.386054e+002, 1.146600e+003
2.390875e+002, 1.146481e+003
2.395697e+002, 1.145312e+003
2.400518e+002, 1.144748e+003
2.405339e+002, 1.144625e+003
2.410160e+002, 1.145691e+003
2.414981e+002, 1.149820e+003
2.419802e+002, 1.154567e+003
2.424624e+002, 1.157322e+003
2.429445e+002, 1.156868e+003
2.434266e+002, 1.155073e+003
2.439087e+002, 1.155277e+003
2.443908e+002, 1.158293e+003
2.448729e+002, 1.161096e+003
2.453550e+002, 1.162177e+003
2.458372e+002, 1.163028e+003
2.463193e+002, 1.165134e+003
2.468014e+002, 1.169057e+003
2.472835e+002, 1.173669e+003
2.477656e+002, 1.177045e+003
2.482477e+002, 1.178695e+003
2.487299e+002, 1.180194e+003
2.492120e+002, 1.181776e+003
2.496941e+002, 1.183363e+003
2.501762e+002, 1.184936e+003
2.506583e+002, 1.186487e+003
2.511404e+002, 1.187925e+003
2.516226e+002, 1.189006e+003
2.521047e+002, 1.189277e+003
2.525868e+002, 1.190260e+003
2.530689e+002, 1.192207e+003
2.535510e+002, 1.194711e+003
2.540331e+002, 1.197782e+003
2.545153e+002, 1.201314e+003
2.549974e+002, 1.204770e+003
2.554795e+002, 1.207267e+003
2.559616e+002, 1.208227e+003
2.564437e+002, 1.209439e+003
2.569258e+002, 1.209904e+003
2.574080e+002, 1.211285e+003
2.578901e+002, 1.215280e+003
2.583722e+002, 1.221889e+003
2.588543e+002, 1.229223e+003
2.593364e+002, 1.234644e+003
2.598185e+002, 1.237075e+003
2.603007e+002, 1.240270e+003
2.607828e+002, 1.244605e+003
2.612649e+002, 1.249268e+003
2.617470e+002, 1.253889e+003
2.622291e+002, 1.258369e+003
2.627112e+002, 1.262636e+003
2.631934e+002, 1.266656e+003
2.636755e+002, 1.270470e+003
2.641576e+002, 1.273802e+003
2.646397e+002, 1.276121e+003
2.651218e+002, 1.278477e+003
2.656039e+002, 1.281598e+003
2.660861e+002, 1.285387e+003
2.665682e+002, 1.289156e+003
2.670503e+002, 1.292201e+003
2.675324e+002, 1.294362e+003
2.680145e+002, 1.296747e+003
2.684966e+002, 1.299632e+003
2.689788e+002, 1.302442e+003
2.694609e+002, 1.305004e+003
2.699430e+002, 1.307252e+003
2.704251e+002, 1.309029e+003
2.709072e+002, 1.310100e+003
2.713893e+002, 1.310411e+003
2.718715e+002, 1.311537e+003
2.723536e+002, 1.313120e+003
2.728357e+002, 1.315649e+003
2.733178e+002, 1.319915e+003
2.737999e+002, 1.325381e+003
2.742820e+002, 1.330692e+003
2.747642e+002, 1.334960e+003
2.752463e+002, 1.338243e+003
2.757284e+002, 1.341118e+003
2.762105e+002, 1.342928e+003
2.766926e+002, 1.345131e+003
2.771747e+002, 1.348278e+003
2.776568e+002, 1.352202e+003
2.781389e+002, 1.356612e+003
2.786211e+002, 1.361484e+003
2.791032e+002, 1.366539e+003
2.795853e+002, 1.370529e+003
2.800674e+002, 1.373149e+003
2.805495e+002, 1.375342e+003
2.810316e+002, 1.377740e+003
2.815138e+002, 1.379829e+003
2.819959e+002, 1.380626e+003
2.824780e+002, 1.379662e+003
2.829601e+002, 1.377348e+003
2.834422e+002, 1.374667e+003
2.839243e+002, 1.371687e+003
2.844065e+002, 1.368306e+003
2.848886e+002, 1.364235e+003
2.853707e+002, 1.359824e+003
2.858528e+002, 1.355595e+003
2.863349e+002, 1.351722e+003
2.868170e+002, 1.348040e+003
2.872992e+002, 1.344375e+003
2.877813e+002, 1.341074e+003
2.882634e+002, 1.336727e+003
2.887455e+002, 1.329737e+003
2.892276e+002, 1.322152e+003
2.897097e+002, 1.317023e+003
2.901919e+002, 1.315127e+003
2.906740e+002, 1.313756e+003
2.911561e+002, 1.309275e+003
2.916382e+002, 1.301179e+003
2.921203e+002, 1.293978e+003
2.926024e+002, 1.288183e+003
2.930846e+002, 1.283432e+003
2.935667e+002, 1.279898e+003
2.940488e+002, 1.277536e+003
2.945309e+002, 1.274818e+003
2.950130e+002, 1.270014e+003
2.954951e+002, 1.263097e+003
2.959773e+002, 1.257358e+003
2.964594e+002, 1.253188e+003
2.969415e+002, 1.250027e+003
2.974236e+002, 1.247845e+003
2.979057e+002, 1.246518e+003
2.983878e+002, 1.245012e+003
2.988700e+002, 1.242493e+003
2.993521e+002, 1.239141e+003
2.998342e+002, 1.236312e+003
3.003163e+002, 1.234086e+003
3.007984e+002, 1.232305e+003
3.012805e+002, 1.231150e+003
3.017627e+002, 1.230458e+003
3.022448e+002, 1.229413e+003
3.027269e+002, 1.227409e+003
3.032090e+002, 1.224895e+003
3.036911e+002, 1.223196e+003
3.041732e+002, 1.222536e+003
3.046554e+002, 1.222211e+003
3.051375e+002, 1.221998e+003
3.056196e+002, 1.221895e+003
3.061017e+002, 1.221959e+003
3.065838e+002, 1.222320e+003
3.070659e+002, 1.222672e+003
3.075481e+002, 1.222284e+003
3.080302e+002, 1.220946e+003
3.085123e+002, 1.219887e+003
3.089944e+002, 1.219702e+003
3.094765e+002, 1.220017e+003
3.099586e+002, 1.220210e+003
3.104408e+002, 1.220116e+003
3.109229e+002, 1.219887e+003
3.114050e+002, 1.219529e+003
3.118871e+002, 1.218971e+003
3.123692e+002, 1.219158e+003
3.128513e+002, 1.221122e+003
3.133335e+002, 1.223532e+003
3.138156e+002, 1.224720e+003
3.142977e+002, 1.224412e+003
3.147798e+002, 1.223593e+003
3.152619e+002, 1.222890e+003
3.157440e+002, 1.222369e+003
3.162262e+002, 1.222628e+003
3.167083e+002, 1.224741e+003
3.171904e+002, 1.226925e+003
3.176725e+002, 1.227565e+003
3.181546e+002, 1.226692e+003
3.186367e+002, 1.225437e+003
3.191188e+002, 1.224154e+003
3.196010e+002, 1.223199e+003
3.200831e+002, 1.223727e+003
3.205652e+002, 1.227216e+003
3.210473e+002, 1.230678e+003
3.215294e+002, 1.231978e+003
3.220115e+002, 1.231755e+003
3.224937e+002, 1.232421e+003
3.229758e+002, 1.235341e+003
3.234579e+002, 1.239537e+003
3.239400e+002, 1.242474e+003
3.244221e+002, 1.244011e+003
3.249042e+002, 1.244958e+003
3.253864e+002, 1.245283e+003
3.258685e+002, 1.245263e+003
3.263506e+002, 1.245406e+003
3.268327e+002, 1.245869e+003
3.273148e+002, 1.246552e+003
3.277969e+002, 1.247336e+003
3.282791e+002, 1.248229e+003
3.287612e+002, 1.249161e+003
3.292433e+002, 1.250480e+003
3.297254e+002, 1.251665e+003
3.302075e+002, 1.251950e+003
3.306896e+002, 1.251202e+003
3.311718e+002, 1.250194e+003
3.316539e+002, 1.249540e+003
3.321360e+002, 1.249283e+003
3.326181e+002, 1.249773e+003
3.331002e+002, 1.251796e+003
3.335823e+002, 1.253976e+003
3.340645e+002, 1.255087e+003
3.345466e+002, 1.255233e+003
3.350287e+002, 1.255603e+003
3.355108e+002, 1.256969e+003
3.359929e+002, 1.259296e+003
3.364750e+002, 1.261991e+003
3.369572e+002, 1.265968e+003
3.374393e+002, 1.269344e+003
3.379214e+002, 1.271541e+003
3.384035e+002, 1.272546e+003
3.388856e+002, 1.272038e+003
3.393677e+002, 1.269605e+003
3.398499e+002, 1.266182e+003
3.403320e+002, 1.264385e+003
3.408141e+002, 1.264761e+003
3.412962e+002, 1.265459e+003
3.417783e+002, 1.266773e+003
3.422604e+002, 1.267990e+003
3.427426e+002, 1.267847e+003
3.432247e+002, 1.265981e+003
3.437068e+002, 1.263746e+003
3.441889e+002, 1.262984e+003
3.446710e+002, 1.264152e+003
3.451531e+002, 1.265872e+003
3.456353e+002, 1.268694e+003
3.461174e+002, 1.271682e+003
3.465995e+002, 1.274323e+003
3.470816e+002, 1.276473e+003
3.475637e+002, 1.277946e+003
3.480458e+002, 1.278474e+003
3.485280e+002, 1.277999e+003
3.490101e+002, 1.277687e+003
3.494922e+002, 1.277749e+003
3.499743e+002, 1.277741e+003
3.504564e+002, 1.276886e+003
3.509385e+002, 1.275801e+003
3.514207e+002, 1.276097e+003
3.519028e+002, 1.278883e+003
3.523849e+002, 1.283384e+003
3.528670e+002, 1.286265e+003
3.533491e+002, 1.285989e+003
3.538312e+002, 1.286009e+003
3.543134e+002, 1.286379e+003
3.547955e+002, 1.287399e+003
3.552776e+002, 1.289807e+003
3.557597e+002, 1.293797e+003
3.562418e+002, 1.298156e+003
3.567239e+002, 1.300821e+003
3.572061e+002, 1.300798e+003
3.576882e+002, 1.300962e+003
3.581703e+002, 1.301365e+003
3.586524e+002, 1.301887e+003
3.591345e+002, 1.302099e+003
3.596166e+002, 1.302181e+003
3.600987e+002, 1.303071e+003
3.605808e+002, 1.305902e+003
3.610630e+002, 1.311016e+003
3.615451e+002, 1.314676e+003
3.620272e+002, 1.316168e+003
3.625093e+002, 1.317049e+003
3.629914e+002, 1.317624e+003
3.634735e+002, 1.317983e+003
3.639557e+002, 1.317999e+003
3.644378e+002, 1.317511e+003
3.649199e+002, 1.316893e+003
3.654020e+002, 1.317790e+003
3.658841e+002, 1.321519e+003
3.663662e+002, 1.325057e+003
3.668484e+002, 1.327788e+003
3.673305e+002, 1.330295e+003
3.678126e+002, 1.333241e+003
3.682947e+002, 1.336801e+003
3.687768e+002, 1.340561e+003
3.692589e+002, 1.344220e+003
3.697411e+002, 1.348663e+003
3.702232e+002, 1.350417e+003
3.707053e+002, 1.347025e+003
3.711874e+002, 1.343071e+003
3.716695e+002, 1.340652e+003
3.721516e+002, 1.339946e+003
3.726338e+002, 1.340180e+003
3.731159e+002, 1.340821e+003
3.735980e+002, 1.341856e+003
3.740801e+002, 1.342893e+003
3.745622e+002, 1.343549e+003
3.750443e+002, 1.344721e+003
3.755265e+002, 1.347428e+003
3.760086e+002, 1.350653e+003
3.764907e+002, 1.352789e+003
3.769728e+002, 1.352970e+003
3.774549e+002, 1.351859e+003
3.779370e+002, 1.350653e+003
3.784192e+002, 1.348892e+003
3.789013e+002, 1.348389e+003
3.793834e+002, 1.350972e+003
3.798655e+002, 1.354186e+003
3.803476e+002, 1.355998e+003
3.808297e+002, 1.356021e+003
3.813119e+002, 1.355713e+003
3.817940e+002, 1.356535e+003
3.822761e+002, 1.358469e+003
3.827582e+002, 1.360481e+003
3.832403e+002, 1.362341e+003
3.837224e+002, 1.364410e+003
3.842046e+002, 1.367260e+003
3.846867e+002, 1.370582e+003
3.851688e+002, 1.373331e+003
3.856509e+002, 1.374867e+003
3.861330e+002, 1.375426e+003
3.866151e+002, 1.375203e+003
3.870973e+002, 1.373770e+003
3.875794e+002, 1.373076e+003
3.880615e+002, 1.374759e+003
3.885436e+002, 1.377753e+003
3.890257e+002, 1.380549e+003
3.895078e+002, 1.382479e+003
3.899900e+002, 1.384847e+003
3.904721e+002, 1.389265e+003
3.909542e+002, 1.395447e+003
3.914363e+002, 1.401189e+003
3.919184e+002, 1.406179e+003
3.924005e+002, 1.409841e+003
3.928827e+002, 1.410809e+003
3.933648e+002, 1.408795e+003
3.938469e+002, 1.408066e+003
3.943290e+002, 1.411401e+003
3.948111e+002, 1.416708e+003
3.952932e+002, 1.420684e+003
3.957754e+002, 1.422854e+003
3.962575e+002, 1.424174e+003
3.967396e+002, 1.425019e+003
3.972217e+002, 1.425585e+003
3.977038e+002, 1.427502e+003
3.981859e+002, 1.432155e+003
3.986681e+002, 1.437058e+003
3.991501e+002, 1.440708e+003
3.996323e+002, 1.443243e+003
4.001144e+002, 1.445105e+003
4.005965e+002, 1.446243e+003
4.010786e+002, 1.447274e+003
4.015607e+002, 1.450128e+003
4.020428e+002, 1.455605e+003
4.025250e+002, 1.461150e+003
4.030071e+002, 1.466885e+003
4.034892e+002, 1.472197e+003
4.039713e+002, 1.476269e+003
4.044534e+002, 1.478926e+003
4.049355e+002, 1.480705e+003
4.054177e+002, 1.482205e+003
4.058998e+002, 1.483438e+003
4.063819e+002, 1.484193e+003
4.068640e+002, 1.484283e+003
4.073461e+002, 1.484147e+003
4.078282e+002, 1.483909e+003
4.083104e+002, 1.483625e+003
4.087925e+002, 1.483427e+003
4.092746e+002, 1.483432e+003
4.097567e+002, 1.483493e+003
4.102388e+002, 1.482920e+003
4.107209e+002, 1.481064e+003
4.112031e+002, 1.479389e+003
4.116852e+002, 1.478266e+003
4.121673e+002, 1.477239e+003
4.126494e+002, 1.475697e+003
4.131315e+002, 1.473556e+003
4.136136e+002, 1.471458e+003
4.140958e+002, 1.470491e+003
4.145779e+002, 1.471236e+003
4.150600e+002, 1.470744e+003
4.155421e+002, 1.467698e+003
4.160242e+002, 1.464618e+003
4.165063e+002, 1.462231e+003
4.169885e+002, 1.460596e+003
4.174706e+002, 1.459573e+003
4.179527e+002, 1.458913e+003
4.184348e+002, 1.458925e+003
4.189169e+002, 1.461053e+003
4.193990e+002, 1.466709e+003
4.198812e+002, 1.471311e+003
4.203633e+002, 1.472760e+003
4.208454e+002, 1.472940e+003
4.213275e+002, 1.473561e+003
4.218096e+002, 1.475042e+003
4.222917e+002, 1.476461e+003
4.227739e+002, 1.476796e+003
4.232560e+002, 1.476086e+003
4.237381e+002, 1.475156e+003
4.242202e+002, 1.473381e+003
4.247023e+002, 1.472480e+003
4.251844e+002, 1.474254e+003
4.256666e+002, 1.478014e+003
4.261487e+002, 1.481293e+003
4.266308e+002, 1.482978e+003
4.271129e+002, 1.483624e+003
4.275950e+002, 1.483587e+003
4.280771e+002, 1.482780e+003
4.285593e+002, 1.483001e+003
4.290414e+002, 1.485824e+003
4.295235e+002, 1.490020e+003
4.300056e+002, 1.492678e+003
4.304877e+002, 1.493094e+003
4.309698e+002, 1.493588e+003
4.314520e+002, 1.495450e+003
4.319341e+002, 1.498177e+003
4.324162e+002, 1.500801e+003
4.328983e+002, 1.503078e+003
4.333804e+002, 1.505200e+003
4.338625e+002, 1.507251e+003
4.343447e+002, 1.509164e+003
4.348268e+002, 1.511848e+003
4.353089e+002, 1.515870e+003
4.357910e+002, 1.520211e+003
4.362731e+002, 1.524415e+003
4.367552e+002, 1.528368e+003
4.372374e+002, 1.531800e+003
4.377195e+002, 1.534462e+003
4.382016e+002, 1.536665e+003
4.386837e+002, 1.539570e+003
4.391658e+002, 1.543976e+003
4.396479e+002, 1.548082e+003
4.401301e+002, 1.551053e+003
4.406122e+002, 1.554073e+003
4.410943e+002, 1.558726e+003
4.415764e+002, 1.565060e+003
4.420585e+002, 1.571297e+003
4.425406e+002, 1.575244e+003
4.430227e+002, 1.576528e+003
4.435049e+002, 1.578349e+003
4.439870e+002, 1.580075e+003
4.444691e+002, 1.583030e+003
4.449512e+002, 1.588433e+003
4.454333e+002, 1.595182e+003
4.459154e+002, 1.601565e+003
4.463976e+002, 1.606644e+003
4.468797e+002, 1.610962e+003
4.473618e+002, 1.615670e+003
4.478439e+002, 1.620780e+003
4.483260e+002, 1.626225e+003
4.488081e+002, 1.631531e+003
4.492903e+002, 1.637547e+003
4.497724e+002, 1.645195e+003
4.502545e+002, 1.654354e+003
4.507366e+002, 1.663714e+003
4.512187e+002, 1.672507e+003
4.517008e+002, 1.680715e+003
4.521830e+002, 1.687687e+003
4.526651e+002, 1.692555e+003
4.531472e+002, 1.698237e+003
4.536293e+002, 1.708000e+003
4.541114e+002, 1.719288e+003
4.545935e+002, 1.728344e+003
4.550757e+002, 1.733746e+003
4.555578e+002, 1.737918e+003
4.560399e+002, 1.742677e+003
4.565220e+002, 1.747875e+003
4.570041e+002, 1.752755e+003
4.574862e+002, 1.756757e+003
4.579684e+002, 1.761145e+003
4.584505e+002, 1.768282e+003
4.589326e+002, 1.778168e+003
4.594147e+002, 1.786685e+003
4.598968e+002, 1.792008e+003
4.603789e+002, 1.796438e+003
4.608611e+002, 1.801728e+003
4.613432e+002, 1.807979e+003
4.618253e+002, 1.814915e+003
4.623074e+002, 1.822561e+003
4.627895e+002, 1.830635e+003
4.632716e+002, 1.838134e+003
4.637538e+002, 1.843229e+003
4.642359e+002, 1.850172e+003
4.647180e+002, 1.860610e+003
4.652001e+002, 1.872560e+003
4.656822e+002, 1.883756e+003
4.661643e+002, 1.893914e+003
4.666465e+002, 1.904469e+003
4.671286e+002, 1.917023e+003
4.676107e+002, 1.931847e+003
4.680928e+002, 1.946929e+003
4.685749e+002, 1.960985e+003
4.690570e+002, 1.976707e+003
4.695392e+002, 1.996189e+003
4.700213e+002, 2.017407e+003
4.705034e+002, 2.036877e+003
4.709855e+002, 2.052992e+003
4.714676e+002, 2.068195e+003
4.719497e+002, 2.087459e+003
4.724319e+002, 2.112177e+003
4.729140e+002, 2.134769e+003
4.733961e+002, 2.155186e+003
4.738782e+002, 2.171968e+003
4.743603e+002, 2.183830e+003
4.748424e+002, 2.191102e+003
4.753246e+002, 2.195575e+003
4.758067e+002, 2.198528e+003
4.762888e+002, 2.199262e+003
4.767709e+002, 2.196032e+003
4.772530e+002, 2.188608e+003
4.777351e+002, 2.178771e+003
4.782173e+002, 2.167000e+003
4.786994e+002, 2.153260e+003
4.791815e+002, 2.137795e+003
4.796636e+002, 2.120522e+003
4.801457e+002, 2.101944e+003
4.806278e+002, 2.081815e+003
4.811100e+002, 2.060665e+003
4.815920e+002, 2.039168e+003
4.820742e+002, 2.017404e+003
4.825563e+002, 1.995876e+003
4.830384e+002, 1.974468e+003
4.835205e+002, 1.953412e+003
4.840026e+002, 1.935417e+003
4.844847e+002, 1.921210e+003
4.849669e+002, 1.909075e+003
4.854490e+002, 1.898432e+003
4.859311e+002, 1.889300e+003
4.864132e+002, 1.882042e+003
4.868953e+002, 1.876748e+003
4.873774e+002, 1.872605e+003
4.878596e+002, 1.868332e+003
4.883417e+002, 1.863699e+003
4.888238e+002, 1.859499e+003
4.893059e+002, 1.854332e+003
4.897880e+002, 1.850846e+003
4.902701e+002, 1.851217e+003
4.907523e+002, 1.854304e+003
4.912344e+002, 1.857327e+003
4.917165e+002, 1.858450e+003
4.921986e+002, 1.858865e+003
4.926807e+002, 1.862203e+003
4.931628e+002, 1.869840e+003
4.936450e+002, 1.876582e+003
4.941271e+002, 1.878950e+003
4.946092e+002, 1.881772e+003
4.950913e+002, 1.889111e+003
4.955734e+002, 1.900740e+003
4.960555e+002, 1.912323e+003
4.965377e+002, 1.919647e+003
4.970198e+002, 1.924674e+003
4.975019e+002, 1.932868e+003
4.979840e+002, 1.944737e+003
4.984661e+002, 1.957963e+003
4.989482e+002, 1.971858e+003
4.994304e+002, 1.986286e+003
4.999125e+002, 2.000887e+003
5.003946e+002, 2.015745e+003
5.008767e+002, 2.030646e+003
5.013588e+002, 2.045468e+003
5.018409e+002, 2.060367e+003
5.023231e+002, 2.075663e+003
5.028052e+002, 2.091375e+003
5.032873e+002, 2.107844e+003
5.037694e+002, 2.124980e+003
5.042515e+002, 2.142937e+003
5.047336e+002, 2.164472e+003
5.052158e+002, 2.190325e+003
5.056979e+002, 2.218449e+003
5.061800e+002, 2.249047e+003
5.066621e+002, 2.281206e+003
5.071442e+002, 2.313039e+003
5.076263e+002, 2.343970e+003
5.081085e+002, 2.375805e+003
5.085906e+002, 2.411673e+003
5.090727e+002, 2.453630e+003
5.095548e+002, 2.492260e+003
5.100369e+002, 2.526032e+003
5.105190e+002, 2.557859e+003
5.110012e+002, 2.589471e+003
5.114833e+002, 2.619935e+003
5.119654e+002, 2.647620e+003
5.124475e+002, 2.671946e+003
5.129296e+002, 2.692464e+003
5.134117e+002, 2.709652e+003
5.138939e+002, 2.724395e+003
5.143760e+002, 2.729446e+003
5.148581e+002, 2.721826e+003
5.153402e+002, 2.704598e+003
5.158223e+002, 2.681163e+003
5.163044e+002, 2.651509e+003
5.167866e+002, 2.615273e+003
5.172687e+002, 2.568818e+003
5.177508e+002, 2.517531e+003
5.182329e+002, 2.466534e+003
5.187150e+002, 2.416203e+003
5.191971e+002, 2.369833e+003
5.196793e+002, 2.329716e+003
5.201614e+002, 2.293543e+003
5.206435e+002, 2.256803e+003
5.211256e+002, 2.218289e+003
5.216077e+002, 2.182252e+003
5.220898e+002, 2.149497e+003
5.225720e+002, 2.119571e+003
5.230541e+002, 2.092360e+003
5.235362e+002, 2.067897e+003
5.240183e+002, 2.046003e+003
5.245004e+002, 2.026698e+003
5.249825e+002, 2.009960e+003
5.254647e+002, 1.995256e+003
5.259468e+002, 1.982692e+003
5.264289e+002, 1.972476e+003
5.269110e+002, 1.965777e+003
5.273931e+002, 1.960431e+003
5.278752e+002, 1.954776e+003
5.283574e+002, 1.948608e+003
5.288395e+002, 1.942740e+003
5.293216e+002, 1.938328e+003
5.298037e+002, 1.934924e+003
5.302858e+002, 1.929266e+003
5.307679e+002, 1.919910e+003
5.312501e+002, 1.911695e+003
5.317322e+002, 1.906845e+003
5.322143e+002, 1.904166e+003
5.326964e+002, 1.902824e+003
5.331785e+002, 1.902848e+003
5.336606e+002, 1.903192e+003
5.341428e+002, 1.903472e+003
5.346249e+002, 1.903523e+003
5.351070e+002, 1.902675e+003
5.355891e+002, 1.900736e+003
5.360712e+002, 1.899312e+003
5.365533e+002, 1.899866e+003
5.370355e+002, 1.902014e+003
5.375176e+002, 1.903236e+003
5.379997e+002, 1.902516e+003
5.384818e+002, 1.902205e+003
5.389639e+002, 1.903950e+003
5.394460e+002, 1.906023e+003
5.399282e+002, 1.905785e+003
5.404103e+002, 1.902937e+003
5.408924e+002, 1.899872e+003
5.413745e+002, 1.899209e+003
5.418566e+002, 1.901037e+003
5.423387e+002, 1.902180e+003
5.428209e+002, 1.901871e+003
5.433029e+002, 1.901758e+003
5.437850e+002, 1.901315e+003
5.442672e+002, 1.901646e+003
5.447493e+002, 1.904707e+003
5.452314e+002, 1.910830e+003
5.457135e+002, 1.916858e+003
5.461956e+002, 1.918795e+003
5.466777e+002, 1.917040e+003
5.471599e+002, 1.916431e+003
5.476420e+002, 1.918002e+003
5.481241e+002, 1.919072e+003
5.486062e+002, 1.916629e+003
5.490883e+002, 1.912868e+003
5.495704e+002, 1.911460e+003
5.500526e+002, 1.913608e+003
5.505347e+002, 1.916907e+003
5.510168e+002, 1.920214e+003
5.514989e+002, 1.923532e+003
5.519810e+002, 1.927057e+003
5.524631e+002, 1.930847e+003
5.529453e+002, 1.934187e+003
5.534274e+002, 1.936385e+003
5.539095e+002, 1.937436e+003
5.543916e+002, 1.938050e+003
5.548737e+002, 1.937413e+003
5.553558e+002, 1.937364e+003
5.558380e+002, 1.939052e+003
5.563201e+002, 1.941310e+003
5.568022e+002, 1.942305e+003
5.572843e+002, 1.941757e+003
5.577664e+002, 1.941455e+003
5.582485e+002, 1.943748e+003
5.587307e+002, 1.948749e+003
5.592128e+002, 1.952674e+003
5.596949e+002, 1.955068e+003
5.601770e+002, 1.956931e+003
5.606591e+002, 1.958710e+003
5.611412e+002, 1.960185e+003
5.616234e+002, 1.960901e+003
5.621055e+002, 1.960661e+003
5.625876e+002, 1.960565e+003
5.630697e+002, 1.961656e+003
5.635518e+002, 1.963672e+003
5.640339e+002, 1.965693e+003
5.645161e+002, 1.967572e+003
5.649982e+002, 1.969723e+003
5.654803e+002, 1.972540e+003
5.659624e+002, 1.975891e+003
5.664445e+002, 1.979158e+003
5.669266e+002, 1.983125e+003
5.674088e+002, 1.985901e+003
5.678909e+002, 1.985347e+003
5.683730e+002, 1.983953e+003
5.688551e+002, 1.985225e+003
5.693372e+002, 1.989546e+003
5.698193e+002, 1.994445e+003
5.703015e+002, 1.997558e+003
5.707836e+002, 1.999009e+003
5.712657e+002, 2.000986e+003
5.717478e+002, 2.003613e+003
5.722299e+002, 2.006650e+003
5.727120e+002, 2.011126e+003
5.731942e+002, 2.015321e+003
5.736763e+002, 2.017196e+003
5.741584e+002, 2.016685e+003
5.746405e+002, 2.016038e+003
5.751226e+002, 2.016858e+003
5.756047e+002, 2.019120e+003
5.760869e+002, 2.023305e+003
5.765690e+002, 2.030120e+003
5.770511e+002, 2.035818e+003
5.775332e+002, 2.038059e+003
5.780153e+002, 2.038359e+003
5.784974e+002, 2.038923e+003
5.789796e+002, 2.039496e+003
5.794617e+002, 2.041671e+003
5.799438e+002, 2.048352e+003
5.804259e+002, 2.055586e+003
5.809080e+002, 2.058050e+003
5.813901e+002, 2.056042e+003
5.818723e+002, 2.054236e+003
5.823544e+002, 2.055576e+003
5.828365e+002, 2.059317e+003
5.833186e+002, 2.062933e+003
5.838007e+002, 2.066604e+003
5.842828e+002, 2.069892e+003
5.847650e+002, 2.073664e+003
5.852471e+002, 2.076384e+003
5.857292e+002, 2.076087e+003
5.862113e+002, 2.073728e+003
5.866934e+002, 2.072382e+003
5.871755e+002, 2.074247e+003
5.876577e+002, 2.077797e+003
5.881398e+002, 2.079476e+003
5.886219e+002, 2.079037e+003
5.891040e+002, 2.078268e+003
5.895861e+002, 2.076533e+003
5.900682e+002, 2.075822e+003
5.905504e+002, 2.078248e+003
5.910325e+002, 2.083403e+003
5.915146e+002, 2.088714e+003
5.919967e+002, 2.094579e+003
5.924788e+002, 2.099278e+003
5.929609e+002, 2.100383e+003
5.934431e+002, 2.098992e+003
5.939252e+002, 2.098141e+003
5.944073e+002, 2.098858e+003
5.948894e+002, 2.101200e+003
5.953715e+002, 2.105426e+003
5.958536e+002, 2.112018e+003
5.963358e+002, 2.118407e+003
5.968179e+002, 2.126905e+003
5.973000e+002, 2.132701e+003
5.977821e+002, 2.131978e+003
5.982642e+002, 2.128278e+003
5.987463e+002, 2.126466e+003
5.992285e+002, 2.128217e+003
5.997106e+002, 2.132044e+003
6.001927e+002, 2.136560e+003
6.006748e+002, 2.141742e+003
6.011569e+002, 2.146776e+003
6.016390e+002, 2.152072e+003
6.021212e+002, 2.156204e+003
6.026033e+002, 2.156922e+003
6.030854e+002, 2.156360e+003
6.035675e+002, 2.158057e+003
6.040496e+002, 2.163408e+003
6.045317e+002, 2.168106e+003
6.050139e+002, 2.169504e+003
6.054960e+002, 2.169143e+003
6.059781e+002, 2.168989e+003
6.064602e+002, 2.169361e+003
6.069423e+002, 2.170156e+003
6.074244e+002, 2.171228e+003
6.079066e+002, 2.172748e+003
6.083887e+002, 2.175515e+003
6.088708e+002, 2.180567e+003
6.093529e+002, 2.185459e+003
6.098350e+002, 2.191062e+003
6.103171e+002, 2.195720e+003
6.107993e+002, 2.197418e+003
6.112814e+002, 2.196966e+003
6.117635e+002, 2.197293e+003
6.122456e+002, 2.200477e+003
6.127277e+002, 2.205189e+003
6.132098e+002, 2.208559e+003
6.136920e+002, 2.210454e+003
6.141741e+002, 2.212767e+003
6.146562e+002, 2.216196e+003
6.151383e+002, 2.219874e+003
6.156204e+002, 2.222957e+003
6.161025e+002, 2.225526e+003
6.165847e+002, 2.228005e+003
6.170668e+002, 2.230844e+003
6.175489e+002, 2.233249e+003
6.180310e+002, 2.234009e+003
6.185131e+002, 2.234087e+003
6.189952e+002, 2.235727e+003
6.194774e+002, 2.239540e+003
6.199595e+002, 2.243698e+003
6.204416e+002, 2.245857e+003
6.209237e+002, 2.245792e+003
6.214058e+002, 2.247388e+003
6.218879e+002, 2.252099e+003
6.223701e+002, 2.256780e+003
6.228522e+002, 2.261289e+003
6.233343e+002, 2.265172e+003
6.238164e+002, 2.267735e+003
6.242985e+002, 2.268929e+003
6.247806e+002, 2.269797e+003
6.252628e+002, 2.270999e+003
6.257448e+002, 2.272538e+003
6.262269e+002, 2.274245e+003
6.267090e+002, 2.276059e+003
6.271912e+002, 2.278959e+003
6.276733e+002, 2.283911e+003
6.281554e+002, 2.289729e+003
6.286375e+002, 2.294706e+003
6.291196e+002, 2.299536e+003
6.296017e+002, 2.300909e+003
6.300839e+002, 2.293599e+003
6.305660e+002, 2.286891e+003
6.310481e+002, 2.287895e+003
6.315302e+002, 2.294718e+003
6.320123e+002, 2.302335e+003
6.324944e+002, 2.308415e+003
6.329766e+002, 2.313140e+003
6.334587e+002, 2.316698e+003
6.339408e+002, 2.318997e+003
6.344229e+002, 2.320669e+003
6.349050e+002, 2.321915e+003
6.353871e+002, 2.322204e+003
6.358693e+002, 2.320103e+003
6.363514e+002, 2.317398e+003
6.368335e+002, 2.316972e+003
6.373156e+002, 2.319806e+003
6.377977e+002, 2.323582e+003
6.382798e+002, 2.326762e+003
6.387620e+002, 2.329700e+003
6.392441e+002, 2.333331e+003
6.397262e+002, 2.337701e+003
6.402083e+002, 2.341600e+003
6.406904e+002, 2.344077e+003
6.411725e+002, 2.345680e+003
6.416547e+002, 2.348286e+003
6.421368e+002, 2.354044e+003
6.426189e+002, 2.357533e+003
6.431010e+002, 2.356040e+003
6.435831e+002, 2.354677e+003
6.440652e+002, 2.357679e+003
6.445474e+002, 2.363523e+003
6.450295e+002, 2.367732e+003
6.455116e+002, 2.367802e+003
6.459937e+002, 2.365844e+003
6.464758e+002, 2.364683e+003
6.469579e+002, 2.364331e+003
6.474401e+002, 2.366122e+003
6.479222e+002, 2.371036e+003
6.484043e+002, 2.376489e+003
6.488864e+002, 2.380618e+003
6.493685e+002, 2.383725e+003
6.498506e+002, 2.386657e+003
6.503328e+002, 2.390276e+003
6.508149e+002, 2.392525e+003
6.512970e+002, 2.390863e+003
6.517791e+002, 2.388353e+003
6.522612e+002, 2.389040e+003
6.527433e+002, 2.393037e+003
6.532255e+002, 2.397453e+003
6.537076e+002, 2.400107e+003
6.541897e+002, 2.401584e+003
6.546718e+002, 2.404130e+003
6.551539e+002, 2.408108e+003
6.556360e+002, 2.412220e+003
6.561182e+002, 2.416587e+003
6.566003e+002, 2.420755e+003
6.570824e+002, 2.424459e+003
6.575645e+002, 2.427734e+003
6.580466e+002, 2.430699e+003
6.585287e+002, 2.433314e+003
6.590109e+002, 2.435762e+003
6.594930e+002, 2.438238e+003
6.599751e+002, 2.440668e+003
6.604572e+002, 2.442723e+003
6.609393e+002, 2.444301e+003
6.614214e+002, 2.446282e+003
6.619036e+002, 2.449713e+003
6.623857e+002, 2.454337e+003
6.628678e+002, 2.457265e+003
6.633499e+002, 2.458235e+003
6.638320e+002, 2.457835e+003
6.643141e+002, 2.453975e+003
6.647963e+002, 2.450431e+003
6.652784e+002, 2.450639e+003
6.657605e+002, 2.454145e+003
6.662426e+002, 2.457963e+003
6.667247e+002, 2.460294e+003
6.672068e+002, 2.461867e+003
6.676890e+002, 2.464442e+003
6.681711e+002, 2.467950e+003
6.686532e+002, 2.469246e+003
6.691353e+002, 2.466478e+003
6.696174e+002, 2.464122e+003
6.700995e+002, 2.467030e+003
6.705817e+002, 2.474634e+003
6.710638e+002, 2.480325e+003
6.715459e+002, 2.482062e+003
6.720280e+002, 2.484237e+003
6.725101e+002, 2.489158e+003
6.729922e+002, 2.494620e+003
6.734744e+002, 2.498199e+003
6.739565e+002, 2.499679e+003
6.744386e+002, 2.500152e+003
6.749207e+002, 2.500139e+003
6.754028e+002, 2.500278e+003
6.758849e+002, 2.503001e+003
6.763671e+002, 2.509003e+003
6.768492e+002, 2.514559e+003
6.773313e+002, 2.519355e+003
6.778134e+002, 2.523027e+003
6.782955e+002, 2.524365e+003
6.787776e+002, 2.524266e+003
6.792598e+002, 2.526056e+003
6.797419e+002, 2.532442e+003
6.802240e+002, 2.538402e+003
6.807061e+002, 2.540088e+003
6.811882e+002, 2.539784e+003
6.816703e+002, 2.541007e+003
6.821525e+002, 2.544362e+003
6.826346e+002, 2.548846e+003
6.831167e+002, 2.553908e+003
6.835988e+002, 2.559092e+003
6.840809e+002, 2.561971e+003
6.845630e+002, 2.561090e+003
6.850452e+002, 2.561095e+003
6.855273e+002, 2.562858e+003
6.860094e+002, 2.565449e+003
6.864915e+002, 2.568592e+003
6.869736e+002, 2.572127e+003
6.874557e+002, 2.575864e+003
6.879379e+002, 2.580267e+003
6.884200e+002, 2.583831e+003
6.889021e+002, 2.583917e+003
6.893842e+002, 2.582317e+003
6.898663e+002, 2.583559e+003
6.903484e+002, 2.588419e+003
6.908306e+002, 2.594243e+003
6.913127e+002, 2.599335e+003
6.917948e+002, 2.603419e+003
6.922769e+002, 2.605031e+003
6.927590e+002, 2.601134e+003
6.932411e+002, 2.599690e+003
6.937233e+002, 2.602375e+003
6.942054e+002, 2.606296e+003
6.946875e+002, 2.610474e+003
6.951696e+002, 2.614427e+003
6.956517e+002, 2.617234e+003
6.961339e+002, 2.618124e+003
6.966160e+002, 2.618945e+003
6.970981e+002, 2.621097e+003
6.975802e+002, 2.624848e+003
6.980623e+002, 2.632192e+003
6.985444e+002, 2.643688e+003
6.990266e+002, 2.654404e+003
6.995087e+002, 2.661198e+003
6.999908e+002, 2.664318e+003
7.004729e+002, 2.664537e+003
7.009550e+002, 2.657554e+003
7.014371e+002, 2.654244e+003
7.019193e+002, 2.657130e+003
7.024014e+002, 2.661488e+003
7.028835e+002, 2.664484e+003
7.033656e+002, 2.666654e+003
7.038477e+002, 2.669994e+003
7.043298e+002, 2.675468e+003
7.048120e+002, 2.681194e+003
7.052941e+002, 2.684628e+003
7.057762e+002, 2.686205e+003
7.062583e+002, 2.687928e+003
7.067404e+002, 2.689945e+003
7.072225e+002, 2.692431e+003
7.077046e+002, 2.695569e+003
7.081867e+002, 2.699207e+003
7.086688e+002, 2.702990e+003
7.091509e+002, 2.706989e+003
7.096331e+002, 2.710922e+003
7.101152e+002, 2.715496e+003
7.105973e+002, 2.719282e+003
7.110794e+002, 2.720570e+003
7.115615e+002, 2.720670e+003
7.120436e+002, 2.722045e+003
7.125258e+002, 2.725570e+003
7.130079e+002, 2.729719e+003
7.134900e+002, 2.732803e+003
7.139721e+002, 2.734975e+003
7.144542e+002, 2.737266e+003
7.149363e+002, 2.739786e+003
7.154185e+002, 2.741667e+003
7.159006e+002, 2.741672e+003
7.163827e+002, 2.741673e+003
7.168648e+002, 2.745679e+003
7.173469e+002, 2.754787e+003
7.178290e+002, 2.760888e+003
7.183112e+002, 2.760681e+003
7.187933e+002, 2.760114e+003
7.192754e+002, 2.762425e+003
7.197575e+002, 2.766123e+003
7.202396e+002, 2.768512e+003
7.207217e+002, 2.769088e+003
7.212039e+002, 2.770140e+003
7.216860e+002, 2.774212e+003
7.221681e+002, 2.780509e+003
7.226502e+002, 2.786032e+003
7.231323e+002, 2.790838e+003
7.236144e+002, 2.794668e+003
7.240966e+002, 2.797310e+003
7.245787e+002, 2.799131e+003
7.250608e+002, 2.800422e+003
7.255429e+002, 2.801208e+003
7.260250e+002, 2.801811e+003
7.265071e+002, 2.801445e+003
7.269893e+002, 2.801904e+003
7.274714e+002, 2.803924e+003
7.279535e+002, 2.807074e+003
7.284356e+002, 2.810784e+003
7.289177e+002, 2.815034e+003
7.293998e+002, 2.820393e+003
7.298820e+002, 2.827648e+003
7.303641e+002, 2.835589e+003
7.308462e+002, 2.841414e+003
7.313283e+002, 2.845046e+003
7.318104e+002, 2.847859e+003
7.322925e+002, 2.849525e+003
7.327747e+002, 2.851767e+003
7.332568e+002, 2.856419e+003
7.337389e+002, 2.862913e+003
7.342210e+002, 2.868223e+003
7.347031e+002, 2.872030e+003
7.351852e+002, 2.875067e+003
7.356674e+002, 2.876538e+003
7.361495e+002, 2.878039e+003
7.366316e+002, 2.881167e+003
7.371137e+002, 2.885514e+003
7.375958e+002, 2.889691e+003
7.380779e+002, 2.893061e+003
7.385601e+002, 2.895845e+003
7.390422e+002, 2.898091e+003
7.395243e+002, 2.899921e+003
7.400064e+002, 2.902691e+003
7.404885e+002, 2.906741e+003
7.409706e+002, 2.910539e+003
7.414528e+002, 2.912655e+003
7.419349e+002, 2.914390e+003
7.424170e+002, 2.919053e+003
7.428991e+002, 2.927969e+003
7.433812e+002, 2.935051e+003
7.438633e+002, 2.939679e+003
7.443455e+002, 2.942537e+003
7.448276e+002, 2.942491e+003
7.453097e+002, 2.941504e+003
7.457918e+002, 2.942997e+003
7.462739e+002, 2.947670e+003
7.467560e+002, 2.952112e+003
7.472382e+002, 2.951830e+003
7.477203e+002, 2.948949e+003
7.482024e+002, 2.950445e+003
7.486845e+002, 2.956431e+003
7.491666e+002, 2.962547e+003
7.496487e+002, 2.967373e+003
7.501309e+002, 2.971710e+003
7.506130e+002, 2.976667e+003
7.510951e+002, 2.982286e+003
7.515772e+002, 2.986807e+003
7.520593e+002, 2.990991e+003
7.525414e+002, 2.993118e+003
7.530236e+002, 2.989905e+003
7.535057e+002, 2.986521e+003
7.539878e+002, 2.988092e+003
7.544699e+002, 2.994191e+003
7.549520e+002, 3.000849e+003
7.554341e+002, 3.006158e+003
7.559163e+002, 3.010268e+003
7.563984e+002, 3.013472e+003
7.568805e+002, 3.015677e+003
7.573626e+002, 3.016140e+003
7.578447e+002, 3.014654e+003
7.583268e+002, 3.012821e+003
7.588090e+002, 3.011547e+003
7.592911e+002, 3.011035e+003
7.597732e+002, 3.011858e+003
7.602553e+002, 3.013730e+003
7.607374e+002, 3.017708e+003
7.612195e+002, 3.026923e+003
7.617017e+002, 3.034896e+003
7.621838e+002, 3.037478e+003
7.626659e+002, 3.037237e+003
7.631480e+002, 3.038559e+003
7.636301e+002, 3.042712e+003
7.641122e+002, 3.046931e+003
7.645944e+002, 3.048385e+003
7.650765e+002, 3.049017e+003
7.655586e+002, 3.052628e+003
7.660407e+002, 3.058621e+003
7.665228e+002, 3.062900e+003
7.670049e+002, 3.063833e+003
7.674871e+002, 3.063125e+003
7.679692e+002, 3.062839e+003
7.684513e+002, 3.062928e+003
7.689334e+002, 3.063718e+003
7.694155e+002, 3.064211e+003
7.698976e+002, 3.067017e+003
7.703798e+002, 3.074438e+003
7.708619e+002, 3.082873e+003
7.713440e+002, 3.090824e+003
7.718261e+002, 3.097500e+003
7.723082e+002, 3.100117e+003
7.727903e+002, 3.095058e+003
7.732725e+002, 3.089231e+003
7.737546e+002, 3.087182e+003
7.742367e+002, 3.087611e+003
7.747188e+002, 3.088284e+003
7.752009e+002, 3.089127e+003
7.756830e+002, 3.092126e+003
7.761652e+002, 3.098886e+003
7.766473e+002, 3.107344e+003
7.771294e+002, 3.112208e+003
7.776115e+002, 3.112778e+003
7.780936e+002, 3.114768e+003
7.785757e+002, 3.119518e+003
7.790579e+002, 3.123923e+003
7.795400e+002, 3.126163e+003
7.800221e+002, 3.127043e+003
7.805042e+002, 3.127823e+003
7.809863e+002, 3.128529e+003
7.814684e+002, 3.129204e+003
7.819506e+002, 3.129098e+003
7.824327e+002, 3.129716e+003
7.829148e+002, 3.132363e+003
7.833969e+002, 3.136281e+003
7.838790e+002, 3.140097e+003
7.843611e+002, 3.143492e+003
7.848433e+002, 3.147294e+003
7.853254e+002, 3.152611e+003
7.858075e+002, 3.158702e+003
7.862896e+002, 3.163197e+003
7.867717e+002, 3.166058e+003
7.872538e+002, 3.168472e+003
7.877360e+002, 3.170394e+003
7.882181e+002, 3.172931e+003
7.887002e+002, 3.177036e+003
7.891823e+002, 3.182656e+003
7.896644e+002, 3.189198e+003
7.901465e+002, 3.198894e+003
7.906286e+002, 3.206310e+003
7.911107e+002, 3.211420e+003
7.915928e+002, 3.213798e+003
7.920750e+002, 3.210725e+003
7.925571e+002, 3.205224e+003
7.930392e+002, 3.203420e+003
7.935213e+002, 3.207710e+003
7.940034e+002, 3.214292e+003
7.944855e+002, 3.220883e+003
7.949677e+002, 3.227067e+003
7.954498e+002, 3.231782e+003
7.959319e+002, 3.235167e+003
7.964140e+002, 3.238177e+003
7.968961e+002, 3.241164e+003
7.973782e+002, 3.244562e+003
7.978604e+002, 3.249306e+003
7.983425e+002, 3.255574e+003
7.988246e+002, 3.258763e+003
7.993067e+002, 3.256458e+003
7.997888e+002, 3.255414e+003
8.002709e+002, 3.258952e+003
8.007531e+002, 3.263022e+003
8.012352e+002, 3.263741e+003
8.017173e+002, 3.262022e+003
8.021994e+002, 3.262671e+003
8.026815e+002, 3.267618e+003
8.031636e+002, 3.274191e+003
8.036458e+002, 3.282959e+003
8.041279e+002, 3.291358e+003
8.046100e+002, 3.295974e+003
8.050921e+002, 3.297168e+003
8.055742e+002, 3.297179e+003
8.060563e+002, 3.297096e+003
8.065385e+002, 3.297953e+003
8.070206e+002, 3.302056e+003
8.075027e+002, 3.309105e+003
8.079848e+002, 3.314526e+003
8.084669e+002, 3.317884e+003
8.089490e+002, 3.321046e+003
8.094312e+002, 3.324800e+003
8.099133e+002, 3.328808e+003
8.103954e+002, 3.332640e+003
8.108775e+002, 3.336337e+003
8.113596e+002, 3.339509e+003
8.118417e+002, 3.342789e+003
8.123239e+002, 3.344756e+003
8.128060e+002, 3.343212e+003
8.132881e+002, 3.341485e+003
8.137702e+002, 3.342935e+003
8.142523e+002, 3.347353e+003
8.147344e+002, 3.352208e+003
8.152166e+002, 3.356305e+003
8.156987e+002, 3.360208e+003
8.161808e+002, 3.364680e+003
8.166629e+002, 3.369302e+003
8.171450e+002, 3.372927e+003
8.176271e+002, 3.375540e+003
8.181093e+002, 3.378345e+003
8.185914e+002, 3.382046e+003
8.190735e+002, 3.386105e+003
8.195556e+002, 3.389339e+003
8.200377e+002, 3.391419e+003
8.205198e+002, 3.394803e+003
8.210020e+002, 3.401036e+003
8.214841e+002, 3.405586e+003
8.219662e+002, 3.405304e+003
8.224483e+002, 3.403489e+003
8.229304e+002, 3.403372e+003
8.234125e+002, 3.405006e+003
8.238947e+002, 3.408226e+003
8.243768e+002, 3.415241e+003
8.248589e+002, 3.421191e+003
8.253410e+002, 3.422153e+003
8.258231e+002, 3.422201e+003
8.263052e+002, 3.426437e+003
8.267874e+002, 3.434458e+003
8.272695e+002, 3.442668e+003
8.277516e+002, 3.449510e+003
8.282337e+002, 3.453688e+003
8.287158e+002, 3.451729e+003
8.291979e+002, 3.445364e+003
8.296801e+002, 3.441159e+003
8.301622e+002, 3.439688e+003
8.306443e+002, 3.442875e+003
8.311264e+002, 3.452917e+003
8.316085e+002, 3.464400e+003
8.320906e+002, 3.468030e+003
8.325728e+002, 3.462358e+003
8.330549e+002, 3.459043e+003
8.335370e+002, 3.458045e+003
8.340191e+002, 3.459551e+003
8.345012e+002, 3.465276e+003
8.349833e+002, 3.471985e+003
8.354655e+002, 3.477641e+003
8.359476e+002, 3.481992e+003
8.364297e+002, 3.484743e+003
8.369118e+002, 3.484265e+003
8.373939e+002, 3.484673e+003
8.378760e+002, 3.488728e+003
8.383582e+002, 3.494571e+003
8.388403e+002, 3.500352e+003
8.393224e+002, 3.505870e+003
8.398045e+002, 3.511502e+003
8.402866e+002, 3.517428e+003
8.407687e+002, 3.523232e+003
8.412509e+002, 3.528085e+003
8.417330e+002, 3.532214e+003
8.422151e+002, 3.537416e+003
8.426972e+002, 3.543889e+003
8.431793e+002, 3.547810e+003
8.436614e+002, 3.547130e+003
8.441436e+002, 3.545159e+003
8.446257e+002, 3.545865e+003
8.451078e+002, 3.549132e+003
8.455899e+002, 3.550826e+003
8.460720e+002, 3.548566e+003
8.465541e+002, 3.548153e+003
8.470363e+002, 3.550032e+003
8.475184e+002, 3.553849e+003
8.480005e+002, 3.561194e+003
8.484826e+002, 3.569973e+003
8.489647e+002, 3.575300e+003
8.494468e+002, 3.575020e+003
8.499290e+002, 3.575377e+003
8.504111e+002, 3.581278e+003
8.508932e+002, 3.588263e+003
8.513753e+002, 3.590992e+003
8.518574e+002, 3.591240e+003
8.523395e+002, 3.594129e+003
8.528217e+002, 3.600967e+003
8.533038e+002, 3.608337e+003
8.537859e+002, 3.613396e+003
8.542680e+002, 3.615916e+003
8.547501e+002, 3.613648e+003
8.552322e+002, 3.606607e+003
8.557144e+002, 3.603171e+003
8.561965e+002, 3.605367e+003
8.566786e+002, 3.609969e+003
8.571607e+002, 3.615135e+003
8.576428e+002, 3.620447e+003
8.581249e+002, 3.624621e+003
8.586071e+002, 3.627492e+003
8.590892e+002, 3.629474e+003
8.595713e+002, 3.627534e+003
8.600534e+002, 3.628210e+003
8.605355e+002, 3.634921e+003
8.610176e+002, 3.644851e+003
8.614998e+002, 3.655572e+003
8.619819e+002, 3.666539e+003
8.624640e+002, 3.675174e+003
8.629461e+002, 3.681545e+003
8.634282e+002, 3.684174e+003
8.639103e+002, 3.677910e+003
8.643925e+002, 3.669480e+003
8.648746e+002, 3.669810e+003
8.653567e+002, 3.678292e+003
8.658388e+002, 3.685679e+003
8.663209e+002, 3.686571e+003
8.668030e+002, 3.684031e+003
8.672852e+002, 3.681407e+003
8.677673e+002, 3.679251e+003
8.682494e+002, 3.681215e+003
8.687315e+002, 3.687638e+003
8.692136e+002, 3.693878e+003
8.696957e+002, 3.698142e+003
8.701779e+002, 3.700978e+003
8.706600e+002, 3.702810e+003
8.711421e+002, 3.703620e+003
8.716242e+002, 3.705746e+003
8.721063e+002, 3.709528e+003
8.725884e+002, 3.714014e+003
8.730705e+002, 3.720841e+003
8.735526e+002, 3.726598e+003
8.740347e+002, 3.728216e+003
8.745168e+002, 3.727274e+003
8.749990e+002, 3.727781e+003
8.754811e+002, 3.730747e+003
8.759632e+002, 3.733999e+003
8.764453e+002, 3.737363e+003
8.769274e+002, 3.740170e+003
8.774095e+002, 3.741711e+003
8.778917e+002, 3.742427e+003
8.783738e+002, 3.742932e+003
8.788559e+002, 3.743467e+003
8.793380e+002, 3.744245e+003
8.798201e+002, 3.745191e+003
8.803022e+002, 3.746778e+003
8.807844e+002, 3.749504e+003
8.812665e+002, 3.753536e+003
8.817486e+002, 3.760479e+003
8.822307e+002, 3.770295e+003
8.827128e+002, 3.777879e+003
8.831949e+002, 3.779593e+003
8.836771e+002, 3.778743e+003
8.841592e+002, 3.782713e+003
8.846413e+002, 3.792536e+003
8.851234e+002, 3.799344e+003
8.856055e+002, 3.802661e+003
8.860876e+002, 3.803899e+003
8.865698e+002, 3.802091e+003
8.870519e+002, 3.799883e+003
8.875340e+002, 3.800316e+003
8.880161e+002, 3.803247e+003
8.884982e+002, 3.806409e+003
8.889803e+002, 3.811269e+003
8.894625e+002, 3.814192e+003
8.899446e+002, 3.812270e+003
8.904267e+002, 3.810403e+003
8.909088e+002, 3.812046e+003
8.913909e+002, 3.816319e+003
8.918730e+002, 3.820930e+003
8.923552e+002, 3.825272e+003
8.928373e+002, 3.830516e+003
8.933194e+002, 3.840739e+003
8.938015e+002, 3.849507e+003
8.942836e+002, 3.848142e+003
8.947657e+002, 3.840469e+003
8.952479e+002, 3.833626e+003
8.957300e+002, 3.829703e+003
8.962121e+002, 3.829278e+003
8.966942e+002, 3.833094e+003
8.971763e+002, 3.839567e+003
8.976584e+002, 3.845815e+003
8.981406e+002, 3.851818e+003
8.986227e+002, 3.858220e+003
8.991048e+002, 3.865226e+003
8.995869e+002, 3.870265e+003
9.000690e+002, 3.872008e+003
9.005511e+002, 3.871412e+003
9.010333e+002, 3.869536e+003
9.015154e+002, 3.866231e+003
9.019975e+002, 3.864767e+003
9.024796e+002, 3.865066e+003
9.029617e+002, 3.867396e+003
9.034438e+002, 3.873291e+003
9.039260e+002, 3.879848e+003
9.044081e+002, 3.884516e+003
9.048902e+002, 3.888385e+003
9.053723e+002, 3.894514e+003
9.058544e+002, 3.904529e+003
9.063365e+002, 3.913041e+003
9.068187e+002, 3.919230e+003
9.073008e+002, 3.922996e+003
9.077829e+002, 3.922712e+003
9.082650e+002, 3.920682e+003
9.087471e+002, 3.919370e+003
9.092292e+002, 3.919486e+003
9.097114e+002, 3.921672e+003
9.101935e+002, 3.927811e+003
9.106756e+002, 3.933730e+003
9.111577e+002, 3.933876e+003
9.116398e+002, 3.931309e+003
9.121219e+002, 3.932328e+003
9.126041e+002, 3.936657e+003
9.130862e+002, 3.939451e+003
9.135683e+002, 3.938426e+003
9.140504e+002, 3.935906e+003
9.145325e+002, 3.934363e+003
9.150146e+002, 3.934072e+003
9.154968e+002, 3.936567e+003
9.159789e+002, 3.941930e+003
9.164610e+002, 3.949302e+003
9.169431e+002, 3.959100e+003
9.174252e+002, 3.968383e+003
9.179073e+002, 3.974849e+003
9.183895e+002, 3.978862e+003
9.188716e+002, 3.981970e+003
9.193537e+002, 3.985444e+003
9.198358e+002, 3.984372e+003
9.203179e+002, 3.972883e+003
9.208000e+002, 3.965209e+003
9.212822e+002, 3.970949e+003
9.217643e+002, 3.980663e+003
9.222464e+002, 3.983735e+003
9.227285e+002, 3.980277e+003
9.232106e+002, 3.978092e+003
9.236927e+002, 3.977367e+003
9.241749e+002, 3.979180e+003
9.246570e+002, 3.985827e+003
9.251391e+002, 3.993361e+003
9.256212e+002, 3.998142e+003
9.261033e+002, 4.001505e+003
9.265854e+002, 4.007354e+003
9.270676e+002, 4.016966e+003
9.275497e+002, 4.024993e+003
9.280318e+002, 4.026712e+003
9.285139e+002, 4.026242e+003
9.289960e+002, 4.026694e+003
9.294781e+002, 4.028528e+003
9.299603e+002, 4.032797e+003
9.304424e+002, 4.039299e+003
9.309245e+002, 4.046388e+003
9.314066e+002, 4.053218e+003
9.318887e+002, 4.058915e+003
9.323708e+002, 4.061932e+003
9.328530e+002, 4.062563e+003
9.333351e+002, 4.060663e+003
9.338172e+002, 4.056592e+003
9.342993e+002, 4.056922e+003
9.347814e+002, 4.064309e+003
9.352635e+002, 4.074510e+003
9.357457e+002, 4.083388e+003
9.362278e+002, 4.090702e+003
9.367099e+002, 4.094663e+003
9.371920e+002, 4.094251e+003
9.376741e+002, 4.095102e+003
9.381563e+002, 4.099042e+003
9.386384e+002, 4.101479e+003
9.391205e+002, 4.098563e+003
9.396026e+002, 4.093714e+003
9.400847e+002, 4.093722e+003
9.405668e+002, 4.100188e+003
9.410490e+002, 4.102083e+003
9.415311e+002, 4.093960e+003
9.420132e+002, 4.088948e+003
9.424953e+002, 4.091868e+003
9.429774e+002, 4.096638e+003
9.434595e+002, 4.099162e+003
9.439417e+002, 4.099896e+003
9.444238e+002, 4.100347e+003
9.449059e+002, 4.100319e+003
9.453880e+002, 4.101967e+003
9.458701e+002, 4.106692e+003
9.463522e+002, 4.112688e+003
9.468344e+002, 4.120431e+003
9.473165e+002, 4.127733e+003
9.477986e+002, 4.130528e+003
9.482807e+002, 4.129483e+003
9.487628e+002, 4.130733e+003
9.492449e+002, 4.138750e+003
9.497271e+002, 4.147077e+003
9.502092e+002, 4.148358e+003
9.506913e+002, 4.146675e+003
9.511734e+002, 4.148812e+003
9.516555e+002, 4.153933e+003
9.521376e+002, 4.156611e+003
9.526198e+002, 4.155408e+003
9.531019e+002, 4.156367e+003
9.535840e+002, 4.166850e+003
9.540661e+002, 4.181676e+003
9.545482e+002, 4.187371e+003
9.550303e+002, 4.185360e+003
9.555124e+002, 4.184618e+003
9.559945e+002, 4.186426e+003
9.564766e+002, 4.190823e+003
9.569587e+002, 4.198173e+003
9.574409e+002, 4.206269e+003
9.579230e+002, 4.211419e+003
9.584051e+002, 4.213708e+003
9.588872e+002, 4.216596e+003
9.593693e+002, 4.220544e+003
9.598514e+002, 4.222983e+003
9.603336e+002, 4.222867e+003
9.608157e+002, 4.222276e+003
9.612978e+002, 4.222895e+003
9.617799e+002, 4.224101e+003
9.622620e+002, 4.224023e+003
9.627441e+002, 4.221849e+003
9.632263e+002, 4.220893e+003
9.637084e+002, 4.220100e+003
9.641905e+002, 4.222044e+003
9.646726e+002, 4.228783e+003
9.651547e+002, 4.237328e+003
9.656368e+002, 4.246695e+003
9.661190e+002, 4.255912e+003
9.666011e+002, 4.260716e+003
9.670832e+002, 4.256943e+003
9.675653e+002, 4.256213e+003
9.680474e+002, 4.262854e+003
9.685295e+002, 4.271174e+003
9.690117e+002, 4.279542e+003
9.694938e+002, 4.286682e+003
9.699759e+002, 4.291212e+003
9.704580e+002, 4.293029e+003
9.709401e+002, 4.292837e+003
9.714222e+002, 4.289964e+003
9.719044e+002, 4.286760e+003
9.723865e+002, 4.284554e+003
9.728686e+002, 4.282894e+003
9.733507e+002, 4.280716e+003
9.738328e+002, 4.278836e+003
9.743149e+002, 4.279042e+003
9.747971e+002, 4.281857e+003
9.752792e+002, 4.286631e+003
9.757613e+002, 4.293998e+003
9.762434e+002, 4.301752e+003
9.767255e+002, 4.306372e+003
9.772076e+002, 4.309294e+003
9.776898e+002, 4.313966e+003
9.781719e+002, 4.320375e+003
9.786540e+002, 4.326083e+003
9.791361e+002, 4.329957e+003
9.796182e+002, 4.332523e+003
9.801003e+002, 4.333174e+003
9.805825e+002, 4.333498e+003
9.810646e+002, 4.340120e+003
9.815467e+002, 4.352073e+003
9.820288e+002, 4.361673e+003
9.825109e+002, 4.367378e+003
9.829930e+002, 4.371079e+003
9.834752e+002, 4.374047e+003
9.839573e+002, 4.375368e+003
9.844394e+002, 4.372155e+003
9.849215e+002, 4.364349e+003
9.854036e+002, 4.362620e+003
9.858857e+002, 4.368097e+003
9.863679e+002, 4.372930e+003
9.868500e+002, 4.374746e+003
9.873321e+002, 4.376597e+003
9.878142e+002, 4.381311e+003
9.882963e+002, 4.387615e+003
9.887784e+002, 4.391425e+003
9.892606e+002, 4.391868e+003
9.897427e+002, 4.392709e+003
9.902248e+002, 4.393639e+003
9.907069e+002, 4.395495e+003
9.911890e+002, 4.398175e+003
9.916711e+002, 4.402301e+003
9.921533e+002, 4.408900e+003
9.926354e+002, 4.417591e+003
9.931175e+002, 4.426182e+003
9.935996e+002, 4.438117e+003
9.940817e+002, 4.443768e+003
9.945638e+002, 4.438317e+003
9.950460e+002, 4.432220e+003
9.955281e+002, 4.428503e+003
9.960102e+002, 4.426846e+003
9.964923e+002, 4.426586e+003
9.969744e+002, 4.427846e+003
9.974565e+002, 4.431806e+003
9.979387e+002, 4.440825e+003
9.984208e+002, 4.448959e+003
9.989029e+002, 4.455171e+003
9.993850e+002, 4.459532e+003
9.998671e+002, 4.460188e+003
1.000349e+003, 4.459954e+003
1.000831e+003, 4.463101e+003
1.001313e+003, 4.469843e+003
1.001796e+003, 4.476198e+003
1.002278e+003, 4.480288e+003
1.002760e+003, 4.483946e+003
1.003242e+003, 4.487702e+003
1.003724e+003, 4.491873e+003
1.004206e+003, 4.498377e+003
1.004688e+003, 4.505013e+003
1.005170e+003, 4.506911e+003
1.005653e+003, 4.503380e+003
1.006135e+003, 4.500124e+003
1.006617e+003, 4.501593e+003
1.007099e+003, 4.503653e+003
1.007581e+003, 4.500900e+003
1.008063e+003, 4.497256e+003
1.008545e+003, 4.499586e+003
1.009027e+003, 4.506104e+003
1.009509e+003, 4.509938e+003
1.009992e+003, 4.508806e+003
1.010474e+003, 4.506407e+003
1.010956e+003, 4.504130e+003
1.011438e+003, 4.504526e+003
1.011920e+003, 4.513533e+003
1.012402e+003, 4.527651e+003
1.012884e+003, 4.539171e+003
1.013366e+003, 4.547342e+003
1.013849e+003, 4.553775e+003
1.014331e+003, 4.559266e+003
1.014813e+003, 4.565156e+003
1.015295e+003, 4.574298e+003
1.015777e+003, 4.583912e+003
1.016259e+003, 4.586430e+003
1.016741e+003, 4.582977e+003
1.017223e+003, 4.577873e+003
1.017705e+003, 4.572088e+003
1.018188e+003, 4.567658e+003
1.018670e+003, 4.565615e+003
1.019152e+003, 4.565725e+003
1.019634e+003, 4.568210e+003
1.020116e+003, 4.572416e+003
1.020598e+003, 4.574712e+003
1.021080e+003, 4.575219e+003
1.021562e+003, 4.578054e+003
1.022044e+003, 4.584088e+003
1.022527e+003, 4.589286e+003
1.023009e+003, 4.591154e+003
1.023491e+003, 4.591825e+003
1.023973e+003, 4.595189e+003
1.024455e+003, 4.600897e+003
1.024937e+003, 4.602212e+003
1.025419e+003, 4.598382e+003
1.025901e+003, 4.596748e+003
1.026384e+003, 4.599005e+003
1.026866e+003, 4.602115e+003
1.027348e+003, 4.604251e+003
1.027830e+003, 4.605971e+003
1.028312e+003, 4.608260e+003
1.028794e+003, 4.611165e+003
1.029276e+003, 4.614611e+003
1.029758e+003, 4.619474e+003
1.030240e+003, 4.621505e+003
1.030723e+003, 4.618356e+003
1.031205e+003, 4.616003e+003
1.031687e+003, 4.618745e+003
1.032169e+003, 4.624346e+003
1.032651e+003, 4.627860e+003
1.033133e+003, 4.628444e+003
1.033615e+003, 4.634014e+003
1.034097e+003, 4.647104e+003
1.034579e+003, 4.659655e+003
1.035062e+003, 4.670588e+003
1.035544e+003, 4.680069e+003
1.036026e+003, 4.689636e+003
1.036508e+003, 4.696773e+003
1.036990e+003, 4.694780e+003
1.037472e+003, 4.680685e+003
1.037954e+003, 4.674107e+003
1.038436e+003, 4.680598e+003
1.038919e+003, 4.685760e+003
1.039401e+003, 4.686539e+003
1.039883e+003, 4.685971e+003
1.040365e+003, 4.684890e+003
1.040847e+003, 4.684211e+003
1.041329e+003, 4.685867e+003
1.041811e+003, 4.690115e+003
1.042293e+003, 4.695548e+003
1.042776e+003, 4.702996e+003
1.043258e+003, 4.710541e+003
1.043740e+003, 4.722052e+003
1.044222e+003, 4.729421e+003
1.044704e+003, 4.724164e+003
1.045186e+003, 4.712133e+003
1.045668e+003, 4.704185e+003
1.046150e+003, 4.701071e+003
1.046632e+003, 4.701750e+003
1.047115e+003, 4.710193e+003
1.047597e+003, 4.716746e+003
1.048079e+003, 4.717881e+003
1.048561e+003, 4.717455e+003
1.049043e+003, 4.717329e+003
1.049525e+003, 4.717854e+003
1.050007e+003, 4.719094e+003
1.050489e+003, 4.720896e+003
1.050971e+003, 4.725229e+003
1.051454e+003, 4.736179e+003
1.051936e+003, 4.744600e+003
1.052418e+003, 4.746706e+003
1.052900e+003, 4.746374e+003
1.053382e+003, 4.744093e+003
1.053864e+003, 4.742356e+003
1.054346e+003, 4.746563e+003
1.054828e+003, 4.757696e+003
1.055311e+003, 4.764892e+003
1.055793e+003, 4.760826e+003
1.056275e+003, 4.758452e+003
1.056757e+003, 4.764102e+003
1.057239e+003, 4.771227e+003
1.057721e+003, 4.776135e+003
1.058203e+003, 4.778461e+003
1.058685e+003, 4.776563e+003
1.059167e+003, 4.770495e+003
1.059650e+003, 4.769635e+003
1.060132e+003, 4.782317e+003
1.060614e+003, 4.793609e+003
1.061096e+003, 4.798238e+003
1.061578e+003, 4.799008e+003
1.062060e+003, 4.795875e+003
1.062542e+003, 4.791434e+003
1.063024e+003, 4.788859e+003
1.063506e+003, 4.788819e+003
1.063989e+003, 4.792019e+003
1.064471e+003, 4.802931e+003
1.064953e+003, 4.811106e+003
1.065435e+003, 4.809334e+003
1.065917e+003, 4.806068e+003
1.066399e+003, 4.808142e+003
1.066881e+003, 4.812917e+003
1.067363e+003, 4.815767e+003
1.067846e+003, 4.816084e+003
1.068328e+003, 4.816021e+003
1.068810e+003, 4.815967e+003
1.069292e+003, 4.816441e+003
1.069774e+003, 4.816474e+003
1.070256e+003, 4.818401e+003
1.070738e+003, 4.826999e+003
1.071220e+003, 4.836935e+003
1.071703e+003, 4.840095e+003
1.072185e+003, 4.836340e+003
1.072667e+003, 4.832578e+003
1.073149e+003, 4.831799e+003
1.073631e+003, 4.830295e+003
1.074113e+003, 4.822517e+003
1.074595e+003, 4.817385e+003
1.075077e+003, 4.824024e+003
1.075559e+003, 4.835568e+003
1.076042e+003, 4.843984e+003
1.076524e+003, 4.847962e+003
1.077006e+003, 4.848098e+003
1.077488e+003, 4.843282e+003
1.077970e+003, 4.838954e+003
1.078452e+003, 4.836095e+003
1.078934e+003, 4.836278e+003
1.079416e+003, 4.843083e+003
1.079898e+003, 4.851781e+003
1.080380e+003, 4.855685e+003
1.080863e+003, 4.856156e+003
1.081345e+003, 4.860910e+003
1.081827e+003, 4.873814e+003
1.082309e+003, 4.883383e+003
1.082791e+003, 4.880018e+003
1.083273e+003, 4.876919e+003
1.083755e+003, 4.882951e+003
1.084237e+003, 4.892774e+003
1.084720e+003, 4.902330e+003
1.085202e+003, 4.909990e+003
1.085684e+003, 4.912185e+003
1.086166e+003, 4.906914e+003
1.086648e+003, 4.906838e+003
1.087130e+003, 4.923936e+003
1.087612e+003, 4.939282e+003
1.088094e+003, 4.941372e+003
1.088577e+003, 4.938750e+003
1.089059e+003, 4.939261e+003
1.089541e+003, 4.941748e+003
1.090023e+003, 4.941011e+003
1.090505e+003, 4.935981e+003
1.090987e+003, 4.935349e+003
1.091469e+003, 4.946997e+003
1.091951e+003, 4.957640e+003
1.092433e+003, 4.961147e+003
1.092916e+003, 4.961989e+003
1.093398e+003, 4.963714e+003
1.093880e+003, 4.965282e+003
1.094362e+003, 4.964328e+003
1.094844e+003, 4.960646e+003
1.095326e+003, 4.956301e+003
1.095808e+003, 4.950708e+003
1.096290e+003, 4.946417e+003
1.096772e+003, 4.943209e+003
1.097255e+003, 4.942703e+003
1.097737e+003, 4.945638e+003
1.098219e+003, 4.952031e+003
1.098701e+003, 4.964099e+003
1.099183e+003, 4.980325e+003
1.099665e+003, 4.991514e+003
1.100147e+003, 4.993681e+003
1.100629e+003, 4.994511e+003
1.101112e+003, 4.994572e+003
1.101594e+003, 4.995321e+003
1.102076e+003, 4.996682e+003
1.102558e+003, 4.999675e+003
1.103040e+003, 5.007703e+003
1.103522e+003, 5.018365e+003
1.104004e+003, 5.022268e+003
1.104486e+003, 5.015071e+003
1.104969e+003, 5.010678e+003
1.105451e+003, 5.010078e+003
1.105933e+003, 5.014564e+003
1.106415e+003, 5.028265e+003
1.106897e+003, 5.043845e+003
1.107379e+003, 5.057426e+003
1.107861e+003, 5.067896e+003
1.108343e+003, 5.072421e+003
1.108825e+003, 5.069412e+003
1.109307e+003, 5.068628e+003
1.109790e+003, 5.075076e+003
1.110272e+003, 5.077867e+003
1.110754e+003, 5.070791e+003
1.111236e+003, 5.063734e+003
1.111718e+003, 5.063137e+003
1.112200e+003, 5.066149e+003
1.112682e+003, 5.068542e+003
1.113164e+003, 5.070325e+003
1.113647e+003, 5.070440e+003
1.114129e+003, 5.066567e+003
1.114611e+003, 5.064966e+003
1.115093e+003, 5.066755e+003
1.115575e+003, 5.070012e+003
1.116057e+003, 5.074712e+003
1.116539e+003, 5.079772e+003
1.117021e+003, 5.083648e+003
1.117504e+003, 5.086655e+003
1.117986e+003, 5.091096e+003
1.118468e+003, 5.097149e+003
1.118950e+003, 5.104293e+003
1.119432e+003, 5.114014e+003
1.119914e+003, 5.121650e+003
1.120396e+003, 5.125052e+003
1.120878e+003, 5.126997e+003
1.121360e+003, 5.129667e+003
1.121843e+003, 5.132897e+003
1.122325e+003, 5.136568e+003
1.122807e+003, 5.141499e+003
1.123289e+003, 5.141393e+003
1.123771e+003, 5.134213e+003
1.124253e+003, 5.129292e+003
1.124735e+003, 5.129516e+003
1.125217e+003, 5.129571e+003
1.125699e+003, 5.125913e+003
1.126182e+003, 5.120399e+003
1.126664e+003, 5.115697e+003
1.127146e+003, 5.112001e+003
1.127628e+003, 5.113807e+003
1.128110e+003, 5.122007e+003
1.128592e+003, 5.127429e+003
1.129074e+003, 5.128687e+003
1.129556e+003, 5.128140e+003
1.130039e+003, 5.126642e+003
1.130521e+003, 5.124876e+003
1.131003e+003, 5.123617e+003
1.131485e+003, 5.122708e+003
1.131967e+003, 5.120878e+003
1.132449e+003, 5.118392e+003
1.132931e+003, 5.121058e+003
1.133413e+003, 5.129045e+003
1.133896e+003, 5.135302e+003
1.134378e+003, 5.137683e+003
1.134860e+003, 5.138913e+003
1.135342e+003, 5.141088e+003
1.135824e+003, 5.143476e+003
1.136306e+003, 5.145454e+003
1.136788e+003, 5.146425e+003
1.137270e+003, 5.142283e+003
1.137752e+003, 5.134693e+003
1.138234e+003, 5.131719e+003
1.138717e+003, 5.134637e+003
1.139199e+003, 5.141295e+003
1.139681e+003, 5.150640e+003
1.140163e+003, 5.158701e+003
1.140645e+003, 5.161260e+003
1.141127e+003, 5.159469e+003
1.141609e+003, 5.154349e+003
1.142091e+003, 5.147031e+003
1.142574e+003, 5.138544e+003
1.143056e+003, 5.130367e+003
1.143538e+003, 5.126376e+003
1.144020e+003, 5.127585e+003
1.144502e+003, 5.131448e+003
1.144984e+003, 5.136936e+003
1.145466e+003, 5.142497e+003
1.145948e+003, 5.148106e+003
1.146431e+003, 5.151552e+003
1.146913e+003, 5.148169e+003
1.147395e+003, 5.141325e+003
1.147877e+003, 5.136628e+003
1.148359e+003, 5.135158e+003
1.148841e+003, 5.136228e+003
1.149323e+003, 5.139886e+003
1.149805e+003, 5.143843e+003
1.150287e+003, 5.147038e+003
1.150770e+003, 5.149571e+003
1.151252e+003, 5.151545e+003
1.151734e+003, 5.152874e+003
1.152216e+003, 5.153540e+003
1.152698e+003, 5.153463e+003
1.153180e+003, 5.152394e+003
1.153662e+003, 5.150297e+003
1.154144e+003, 5.147884e+003
1.154626e+003, 5.144918e+003
1.155109e+003, 5.142394e+003
1.155591e+003, 5.140630e+003
1.156073e+003, 5.139457e+003
1.156555e+003, 5.139259e+003
1.157037e+003, 5.139272e+003
1.157519e+003, 5.137883e+003
1.158001e+003, 5.135521e+003
1.158483e+003, 5.135687e+003
1.158966e+003, 5.140808e+003
1.159448e+003, 5.143917e+003
1.159930e+003, 5.142437e+003
1.160412e+003, 5.141851e+003
1.160894e+003, 5.144387e+003
1.161376e+003, 5.147398e+003
1.161858e+003, 5.148823e+003
1.162340e+003, 5.149416e+003
1.162822e+003, 5.151084e+003
1.163305e+003, 5.154151e+003
1.163787e+003, 5.154756e+003
1.164269e+003, 5.152295e+003
1.164751e+003, 5.148671e+003
1.165233e+003, 5.142814e+003
1.165715e+003, 5.139985e+003
1.166197e+003, 5.143474e+003
1.166679e+003, 5.148876e+003
1.167161e+003, 5.150696e+003
1.167644e+003, 5.150368e+003
1.168126e+003, 5.154314e+003
1.168608e+003, 5.162709e+003
1.169090e+003, 5.170321e+003
1.169572e+003, 5.176971e+003
1.170054e+003, 5.179612e+003
1.170536e+003, 5.177329e+003
1.171018e+003, 5.173813e+003
1.171500e+003, 5.171403e+003
1.171983e+003, 5.170719e+003
1.172465e+003, 5.173680e+003
1.172947e+003, 5.178835e+003
1.173429e+003, 5.181619e+003
1.173911e+003, 5.182257e+003
1.174393e+003, 5.180762e+003
1.174875e+003, 5.177849e+003
1.175357e+003, 5.176844e+003
1.175840e+003, 5.178838e+003
1.176322e+003, 5.180686e+003
1.176804e+003, 5.179051e+003
1.177286e+003, 5.177673e+003
1.177768e+003, 5.182291e+003
1.178250e+003, 5.189311e+003
1.178732e+003, 5.194380e+003
1.179214e+003, 5.197316e+003
1.179697e+003, 5.198161e+003
1.180179e+003, 5.197319e+003
1.180661e+003, 5.195820e+003
1.181143e+003, 5.193935e+003
1.181625e+003, 5.192590e+003
1.182107e+003, 5.192842e+003
1.182589e+003, 5.193214e+003
1.183071e+003, 5.193244e+003
1.183553e+003, 5.192475e+003
1.184036e+003, 5.189110e+003
1.184518e+003, 5.185232e+003
1.185000e+003, 5.184927e+003
1.185482e+003, 5.188616e+003
1.185964e+003, 5.192382e+003
1.186446e+003, 5.195356e+003
1.186928e+003, 5.198392e+003
1.187410e+003, 5.204631e+003
1.187892e+003, 5.207296e+003
1.188375e+003, 5.198508e+003
1.188857e+003, 5.189394e+003
1.189339e+003, 5.191952e+003
1.189821e+003, 5.201791e+003
1.190303e+003, 5.205931e+003
1.190785e+003, 5.203099e+003
1.191267e+003, 5.202150e+003
1.191749e+003, 5.203248e+003
1.192232e+003, 5.206099e+003
1.192714e+003, 5.211735e+003
1.193196e+003, 5.215568e+003
1.193678e+003, 5.214616e+003
1.194160e+003, 5.212805e+003
1.194642e+003, 5.215336e+003
1.195124e+003, 5.220502e+003
1.195606e+003, 5.220904e+003
1.196089e+003, 5.216792e+003
1.196571e+003, 5.216118e+003
1.197053e+003, 5.219052e+003
1.197535e+003, 5.221578e+003
1.198017e+003, 5.222671e+003
1.198499e+003, 5.223205e+003
1.198981e+003, 5.223752e+003
1.199463e+003, 5.223599e+003
1.199945e+003, 5.221045e+003
1.200427e+003, 5.217739e+003
1.200910e+003, 5.217447e+003
1.201392e+003, 5.218774e+003
1.201874e+003, 5.217557e+003
1.202356e+003, 5.215124e+003
1.202838e+003, 5.217716e+003
1.203320e+003, 5.226007e+003
1.203802e+003, 5.231827e+003
1.204284e+003, 5.229694e+003
1.204767e+003, 5.225932e+003
1.205249e+003, 5.224627e+003
1.205731e+003, 5.224424e+003
1.206213e+003, 5.225231e+003
1.206695e+003, 5.225731e+003
1.207177e+003, 5.223624e+003
1.207659e+003, 5.220104e+003
1.208141e+003, 5.218469e+003
1.208624e+003, 5.219407e+003
1.209106e+003, 5.221501e+003
1.209588e+003, 5.226767e+003
1.210070e+003, 5.229630e+003
1.210552e+003, 5.224898e+003
1.211034e+003, 5.222314e+003
1.211516e+003, 5.227907e+003
1.211998e+003, 5.237004e+003
1.212480e+003, 5.246500e+003
1.212963e+003, 5.255301e+003
1.213445e+003, 5.259013e+003
1.213927e+003, 5.256674e+003
1.214409e+003, 5.253577e+003
1.214891e+003, 5.249407e+003
1.215373e+003, 5.245581e+003
1.215855e+003, 5.242413e+003
1.216337e+003, 5.239228e+003
1.216819e+003, 5.235532e+003
1.217302e+003, 5.232655e+003
1.217784e+003, 5.232358e+003
1.218266e+003, 5.234021e+003
1.218748e+003, 5.237005e+003
1.219230e+003, 5.240262e+003
1.219712e+003, 5.235846e+003
1.220194e+003, 5.225794e+003
1.220676e+003, 5.222831e+003
1.221159e+003, 5.228997e+003
1.221641e+003, 5.236538e+003
1.222123e+003, 5.241340e+003
1.222605e+003, 5.245148e+003
1.223087e+003, 5.249934e+003
1.223569e+003, 5.254370e+003
1.224051e+003, 5.256608e+003
1.224533e+003, 5.257727e+003
1.225016e+003, 5.258418e+003
1.225498e+003, 5.259339e+003
1.225980e+003, 5.263132e+003
1.226462e+003, 5.268741e+003
1.226944e+003, 5.267953e+003
1.227426e+003, 5.254494e+003
1.227908e+003, 5.244420e+003
1.228390e+003, 5.246015e+003
1.228872e+003, 5.248377e+003
1.229354e+003, 5.246216e+003
1.229837e+003, 5.243763e+003
1.230319e+003, 5.245156e+003
1.230801e+003, 5.248264e+003
1.231283e+003, 5.249050e+003
1.231765e+003, 5.247635e+003
1.232247e+003, 5.246940e+003
1.232729e+003, 5.247810e+003
1.233211e+003, 5.246568e+003
1.233694e+003, 5.241717e+003
1.234176e+003, 5.240090e+003
1.234658e+003, 5.244453e+003
1.235140e+003, 5.249393e+003
1.235622e+003, 5.250987e+003
1.236104e+003, 5.250986e+003
1.236586e+003, 5.252622e+003
1.237068e+003, 5.255104e+003
1.237551e+003, 5.255085e+003
1.238033e+003, 5.252913e+003
1.238515e+003, 5.249189e+003
1.238997e+003, 5.244744e+003
1.239479e+003, 5.243083e+003
1.239961e+003, 5.244878e+003
1.240443e+003, 5.246813e+003
1.240925e+003, 5.246635e+003
1.241407e+003, 5.246797e+003
1.241890e+003, 5.249804e+003
1.242372e+003, 5.254163e+003
1.242854e+003, 5.261425e+003
1.243336e+003, 5.266854e+003
1.243818e+003, 5.262506e+003
1.244300e+003, 5.252556e+003
1.244782e+003, 5.246047e+003
1.245264e+003, 5.244535e+003
1.245746e+003, 5.245883e+003
1.246229e+003, 5.250665e+003
1.246711e+003, 5.256204e+003
1.247193e+003, 5.264921e+003
1.247675e+003, 5.270385e+003
1.248157e+003, 5.269000e+003
1.248639e+003, 5.265333e+003
1.249121e+003, 5.261867e+003
1.249603e+003, 5.258800e+003
1.250085e+003, 5.256399e+003
1.250568e+003, 5.254687e+003
1.251050e+003, 5.254679e+003
1.251532e+003, 5.256610e+003
1.252014e+003, 5.256330e+003
1.252496e+003, 5.253258e+003
1.252978e+003, 5.256394e+003
1.253460e+003, 5.268396e+003
1.253942e+003, 5.281204e+003
1.254425e+003, 5.289397e+003
1.254907e+003, 5.293704e+003
1.255389e+003, 5.293266e+003
1.255871e+003, 5.290912e+003
1.256353e+003, 5.292437e+003
1.256835e+003, 5.295750e+003
1.257317e+003, 5.296848e+003
1.257799e+003, 5.296277e+003
1.258281e+003, 5.296500e+003
1.258764e+003, 5.297853e+003
1.259246e+003, 5.298768e+003
1.259728e+003, 5.298809e+003
1.260210e+003, 5.297553e+003
1.260692e+003, 5.291480e+003
1.261174e+003, 5.288473e+003
1.261656e+003, 5.294089e+003
1.262138e+003, 5.302338e+003
1.262620e+003, 5.310456e+003
1.263103e+003, 5.317067e+003
1.263585e+003, 5.321070e+003
1.264067e+003, 5.322159e+003
1.264549e+003, 5.316782e+003
1.265031e+003, 5.300456e+003
1.265513e+003, 5.293238e+003
1.265995e+003, 5.297150e+003
1.266477e+003, 5.301767e+003
1.266960e+003, 5.305015e+003
1.267442e+003, 5.306989e+003
1.267924e+003, 5.307796e+003
1.268406e+003, 5.306718e+003
1.268888e+003, 5.302188e+003
1.269370e+003, 5.296521e+003
1.269852e+003, 5.295962e+003
1.270334e+003, 5.298138e+003
1.270817e+003, 5.296695e+003
1.271299e+003, 5.292735e+003
1.271781e+003, 5.289651e+003
1.272263e+003, 5.288255e+003
1.272745e+003, 5.288744e+003
1.273227e+003, 5.291218e+003
1.273709e+003, 5.293793e+003
1.274191e+003, 5.296596e+003
1.274673e+003, 5.297571e+003
1.275156e+003, 5.292051e+003
1.275638e+003, 5.288480e+003
1.276120e+003, 5.293403e+003
1.276602e+003, 5.302550e+003
1.277084e+003, 5.313466e+003
1.277566e+003, 5.323833e+003
1.278048e+003, 5.326686e+003
1.278530e+003, 5.320981e+003
1.279012e+003, 5.317478e+003
1.279495e+003, 5.315931e+003
1.279977e+003, 5.316981e+003
1.280459e+003, 5.321662e+003
1.280941e+003, 5.324472e+003
1.281423e+003, 5.322881e+003
1.281905e+003, 5.324350e+003
1.282387e+003, 5.335679e+003
1.282869e+003, 5.348766e+003
1.283352e+003, 5.349404e+003
1.283834e+003, 5.341143e+003
1.284316e+003, 5.331166e+003
1.284798e+003, 5.319722e+003
##END=



