##NAMES=Microcline
##RRUFFID=R150015
##IDEAL CHEMISTRY=KAlSi_3_O_8_
##LOCALITY=
##OWNER=RRUFF
##SOURCE=Jennifer Schmidt
##DESCRIPTION=Pale pick, massive
##STATUS=The identification of this mineral is confirmed by single-crystal X-ray diffraction and chemical analysis.
##URL=rruff.info/R150015
##MEASURED CHEMISTRY=(K_0.88_Na_0.10_Ba_0.02_)Al_1.02_Si_2.97_O_8_
8.930109e+001, 0.000000e+000
8.978320e+001, 1.500635e+003
9.026532e+001, 1.489361e+003
9.074744e+001, 1.488750e+003
9.122955e+001, 1.501814e+003
9.171167e+001, 1.523148e+003
9.219379e+001, 1.548093e+003
9.267590e+001, 1.576548e+003
9.315802e+001, 1.601140e+003
9.364014e+001, 1.615577e+003
9.412225e+001, 1.622060e+003
9.460437e+001, 1.625108e+003
9.508649e+001, 1.623907e+003
9.556860e+001, 1.620730e+003
9.605072e+001, 1.623915e+003
9.653284e+001, 1.635386e+003
9.701495e+001, 1.647409e+003
9.749707e+001, 1.650692e+003
9.797919e+001, 1.645486e+003
9.846130e+001, 1.641842e+003
9.894342e+001, 1.642507e+003
9.942554e+001, 1.647246e+003
9.990765e+001, 1.654464e+003
1.003898e+002, 1.664592e+003
1.008719e+002, 1.676215e+003
1.013540e+002, 1.687564e+003
1.018361e+002, 1.698874e+003
1.023182e+002, 1.709437e+003
1.028004e+002, 1.718749e+003
1.032825e+002, 1.725995e+003
1.037646e+002, 1.735392e+003
1.042467e+002, 1.746958e+003
1.047288e+002, 1.760560e+003
1.052109e+002, 1.775869e+003
1.056931e+002, 1.793160e+003
1.061752e+002, 1.811975e+003
1.066573e+002, 1.832446e+003
1.071394e+002, 1.855206e+003
1.076215e+002, 1.878614e+003
1.081036e+002, 1.906057e+003
1.085858e+002, 1.935555e+003
1.090679e+002, 1.955325e+003
1.095500e+002, 1.964622e+003
1.100321e+002, 1.965668e+003
1.105142e+002, 1.959715e+003
1.109963e+002, 1.942183e+003
1.114785e+002, 1.923300e+003
1.119606e+002, 1.903719e+003
1.124427e+002, 1.883502e+003
1.129248e+002, 1.863761e+003
1.134069e+002, 1.844605e+003
1.138890e+002, 1.826024e+003
1.143712e+002, 1.807772e+003
1.148533e+002, 1.787364e+003
1.153354e+002, 1.769587e+003
1.158175e+002, 1.756586e+003
1.162996e+002, 1.748508e+003
1.167817e+002, 1.741564e+003
1.172639e+002, 1.733594e+003
1.177460e+002, 1.726036e+003
1.182281e+002, 1.720718e+003
1.187102e+002, 1.719975e+003
1.191923e+002, 1.720437e+003
1.196744e+002, 1.720084e+003
1.201566e+002, 1.718514e+003
1.206387e+002, 1.716845e+003
1.211208e+002, 1.715017e+003
1.216029e+002, 1.713516e+003
1.220850e+002, 1.713395e+003
1.225671e+002, 1.715408e+003
1.230493e+002, 1.718888e+003
1.235314e+002, 1.723287e+003
1.240135e+002, 1.728670e+003
1.244956e+002, 1.734437e+003
1.249777e+002, 1.742736e+003
1.254598e+002, 1.751883e+003
1.259420e+002, 1.755384e+003
1.264241e+002, 1.745476e+003
1.269062e+002, 1.727393e+003
1.273883e+002, 1.710627e+003
1.278704e+002, 1.697199e+003
1.283525e+002, 1.685820e+003
1.288347e+002, 1.674270e+003
1.293168e+002, 1.662595e+003
1.297989e+002, 1.652568e+003
1.302810e+002, 1.646494e+003
1.307631e+002, 1.643514e+003
1.312452e+002, 1.639817e+003
1.317274e+002, 1.634148e+003
1.322095e+002, 1.627314e+003
1.326916e+002, 1.621534e+003
1.331737e+002, 1.616885e+003
1.336558e+002, 1.612615e+003
1.341379e+002, 1.607494e+003
1.346201e+002, 1.601563e+003
1.351022e+002, 1.596712e+003
1.355843e+002, 1.593419e+003
1.360664e+002, 1.591671e+003
1.365485e+002, 1.591435e+003
1.370306e+002, 1.592648e+003
1.375128e+002, 1.595578e+003
1.379949e+002, 1.601273e+003
1.384770e+002, 1.610437e+003
1.389591e+002, 1.618890e+003
1.394412e+002, 1.624513e+003
1.399233e+002, 1.626780e+003
1.404055e+002, 1.633227e+003
1.408876e+002, 1.646155e+003
1.413697e+002, 1.660880e+003
1.418518e+002, 1.669400e+003
1.423339e+002, 1.669493e+003
1.428160e+002, 1.668269e+003
1.432982e+002, 1.667809e+003
1.437803e+002, 1.667574e+003
1.442624e+002, 1.670025e+003
1.447445e+002, 1.676297e+003
1.452266e+002, 1.684927e+003
1.457087e+002, 1.692125e+003
1.461909e+002, 1.696364e+003
1.466730e+002, 1.701287e+003
1.471551e+002, 1.708408e+003
1.476372e+002, 1.718346e+003
1.481193e+002, 1.729397e+003
1.486014e+002, 1.742016e+003
1.490836e+002, 1.755816e+003
1.495657e+002, 1.769974e+003
1.500478e+002, 1.783690e+003
1.505299e+002, 1.798093e+003
1.510120e+002, 1.813794e+003
1.514941e+002, 1.832749e+003
1.519763e+002, 1.850467e+003
1.524584e+002, 1.867298e+003
1.529405e+002, 1.882983e+003
1.534226e+002, 1.896721e+003
1.539047e+002, 1.909161e+003
1.543868e+002, 1.919152e+003
1.548690e+002, 1.926062e+003
1.553511e+002, 1.930290e+003
1.558332e+002, 1.930928e+003
1.563153e+002, 1.927605e+003
1.567974e+002, 1.920418e+003
1.572795e+002, 1.910132e+003
1.577617e+002, 1.895995e+003
1.582438e+002, 1.879335e+003
1.587259e+002, 1.861115e+003
1.592080e+002, 1.838548e+003
1.596901e+002, 1.817364e+003
1.601722e+002, 1.799536e+003
1.606544e+002, 1.784999e+003
1.611365e+002, 1.771578e+003
1.616186e+002, 1.758898e+003
1.621007e+002, 1.746904e+003
1.625828e+002, 1.735229e+003
1.630649e+002, 1.721934e+003
1.635471e+002, 1.710574e+003
1.640292e+002, 1.704126e+003
1.645113e+002, 1.702672e+003
1.649934e+002, 1.700063e+003
1.654755e+002, 1.691902e+003
1.659576e+002, 1.681113e+003
1.664398e+002, 1.671439e+003
1.669219e+002, 1.664602e+003
1.674040e+002, 1.658990e+003
1.678861e+002, 1.653338e+003
1.683682e+002, 1.647473e+003
1.688503e+002, 1.643035e+003
1.693325e+002, 1.641723e+003
1.698146e+002, 1.642479e+003
1.702967e+002, 1.643598e+003
1.707788e+002, 1.643833e+003
1.712609e+002, 1.644411e+003
1.717430e+002, 1.646933e+003
1.722252e+002, 1.651757e+003
1.727073e+002, 1.656333e+003
1.731894e+002, 1.658068e+003
1.736715e+002, 1.657993e+003
1.741536e+002, 1.658369e+003
1.746357e+002, 1.661072e+003
1.751179e+002, 1.664518e+003
1.756000e+002, 1.666936e+003
1.760821e+002, 1.668177e+003
1.765642e+002, 1.668295e+003
1.770463e+002, 1.666894e+003
1.775284e+002, 1.664286e+003
1.780106e+002, 1.661463e+003
1.784927e+002, 1.659215e+003
1.789748e+002, 1.657033e+003
1.794569e+002, 1.654062e+003
1.799390e+002, 1.650124e+003
1.804211e+002, 1.645715e+003
1.809033e+002, 1.641730e+003
1.813854e+002, 1.637893e+003
1.818675e+002, 1.633007e+003
1.823496e+002, 1.624805e+003
1.828317e+002, 1.615127e+003
1.833138e+002, 1.608336e+003
1.837960e+002, 1.605516e+003
1.842781e+002, 1.604048e+003
1.847602e+002, 1.599672e+003
1.852423e+002, 1.592773e+003
1.857244e+002, 1.586994e+003
1.862065e+002, 1.585473e+003
1.866887e+002, 1.587039e+003
1.871708e+002, 1.587227e+003
1.876529e+002, 1.585365e+003
1.881350e+002, 1.582332e+003
1.886171e+002, 1.579152e+003
1.890992e+002, 1.575820e+003
1.895814e+002, 1.573414e+003
1.900635e+002, 1.573337e+003
1.905456e+002, 1.575150e+003
1.910277e+002, 1.575721e+003
1.915098e+002, 1.574426e+003
1.919919e+002, 1.572187e+003
1.924741e+002, 1.571017e+003
1.929562e+002, 1.570974e+003
1.934383e+002, 1.570863e+003
1.939204e+002, 1.569123e+003
1.944025e+002, 1.565961e+003
1.948846e+002, 1.565393e+003
1.953668e+002, 1.568652e+003
1.958489e+002, 1.573895e+003
1.963310e+002, 1.576655e+003
1.968131e+002, 1.576703e+003
1.972952e+002, 1.575959e+003
1.977773e+002, 1.575480e+003
1.982595e+002, 1.575265e+003
1.987416e+002, 1.575635e+003
1.992237e+002, 1.577033e+003
1.997058e+002, 1.578728e+003
2.001879e+002, 1.578320e+003
2.006700e+002, 1.575379e+003
2.011522e+002, 1.572310e+003
2.016343e+002, 1.571068e+003
2.021164e+002, 1.571925e+003
2.025985e+002, 1.571817e+003
2.030806e+002, 1.570117e+003
2.035627e+002, 1.567360e+003
2.040449e+002, 1.565342e+003
2.045270e+002, 1.564245e+003
2.050091e+002, 1.563244e+003
2.054912e+002, 1.561403e+003
2.059733e+002, 1.558322e+003
2.064554e+002, 1.556958e+003
2.069376e+002, 1.558320e+003
2.074197e+002, 1.561448e+003
2.079018e+002, 1.562414e+003
2.083839e+002, 1.560415e+003
2.088660e+002, 1.558325e+003
2.093481e+002, 1.558395e+003
2.098303e+002, 1.561251e+003
2.103124e+002, 1.563532e+003
2.107945e+002, 1.564872e+003
2.112766e+002, 1.565390e+003
2.117587e+002, 1.565442e+003
2.122408e+002, 1.564751e+003
2.127230e+002, 1.564198e+003
2.132051e+002, 1.564454e+003
2.136872e+002, 1.565795e+003
2.141693e+002, 1.566865e+003
2.146514e+002, 1.567203e+003
2.151335e+002, 1.567121e+003
2.156157e+002, 1.568344e+003
2.160978e+002, 1.571642e+003
2.165799e+002, 1.574753e+003
2.170620e+002, 1.575936e+003
2.175441e+002, 1.574145e+003
2.180262e+002, 1.573473e+003
2.185084e+002, 1.574709e+003
2.189905e+002, 1.577394e+003
2.194726e+002, 1.579061e+003
2.199547e+002, 1.579196e+003
2.204368e+002, 1.579273e+003
2.209189e+002, 1.580411e+003
2.214011e+002, 1.583405e+003
2.218832e+002, 1.585442e+003
2.223653e+002, 1.586031e+003
2.228474e+002, 1.585523e+003
2.233295e+002, 1.585374e+003
2.238116e+002, 1.585422e+003
2.242938e+002, 1.586102e+003
2.247759e+002, 1.587944e+003
2.252580e+002, 1.591943e+003
2.257401e+002, 1.594536e+003
2.262222e+002, 1.594866e+003
2.267043e+002, 1.593579e+003
2.271865e+002, 1.593545e+003
2.276686e+002, 1.595500e+003
2.281507e+002, 1.597587e+003
2.286328e+002, 1.598680e+003
2.291149e+002, 1.598279e+003
2.295970e+002, 1.598018e+003
2.300792e+002, 1.597843e+003
2.305613e+002, 1.597893e+003
2.310434e+002, 1.598758e+003
2.315255e+002, 1.600768e+003
2.320076e+002, 1.603141e+003
2.324897e+002, 1.605640e+003
2.329719e+002, 1.609012e+003
2.334540e+002, 1.610752e+003
2.339361e+002, 1.609731e+003
2.344182e+002, 1.607112e+003
2.349003e+002, 1.607073e+003
2.353824e+002, 1.610928e+003
2.358646e+002, 1.615483e+003
2.363467e+002, 1.619246e+003
2.368288e+002, 1.622114e+003
2.373109e+002, 1.624303e+003
2.377930e+002, 1.625412e+003
2.382751e+002, 1.625876e+003
2.387573e+002, 1.626990e+003
2.392394e+002, 1.628779e+003
2.397215e+002, 1.631112e+003
2.402036e+002, 1.634019e+003
2.406857e+002, 1.637876e+003
2.411678e+002, 1.641342e+003
2.416500e+002, 1.644078e+003
2.421321e+002, 1.646480e+003
2.426142e+002, 1.649555e+003
2.430963e+002, 1.652998e+003
2.435784e+002, 1.657576e+003
2.440605e+002, 1.664134e+003
2.445427e+002, 1.675004e+003
2.450248e+002, 1.681749e+003
2.455069e+002, 1.682422e+003
2.459890e+002, 1.679778e+003
2.464711e+002, 1.679992e+003
2.469532e+002, 1.684814e+003
2.474354e+002, 1.689644e+003
2.479175e+002, 1.692449e+003
2.483996e+002, 1.692122e+003
2.488817e+002, 1.693547e+003
2.493638e+002, 1.697269e+003
2.498459e+002, 1.702473e+003
2.503281e+002, 1.707677e+003
2.508102e+002, 1.712826e+003
2.512923e+002, 1.718146e+003
2.517744e+002, 1.723858e+003
2.522565e+002, 1.730080e+003
2.527386e+002, 1.735963e+003
2.532208e+002, 1.741125e+003
2.537029e+002, 1.746232e+003
2.541850e+002, 1.752591e+003
2.546671e+002, 1.761061e+003
2.551492e+002, 1.769066e+003
2.556313e+002, 1.775441e+003
2.561135e+002, 1.779697e+003
2.565956e+002, 1.785287e+003
2.570777e+002, 1.792345e+003
2.575598e+002, 1.800468e+003
2.580419e+002, 1.809288e+003
2.585240e+002, 1.819105e+003
2.590062e+002, 1.828646e+003
2.594883e+002, 1.837566e+003
2.599704e+002, 1.845665e+003
2.604525e+002, 1.853710e+003
2.609346e+002, 1.861481e+003
2.614167e+002, 1.869359e+003
2.618989e+002, 1.877832e+003
2.623810e+002, 1.887028e+003
2.628631e+002, 1.896342e+003
2.633452e+002, 1.905425e+003
2.638273e+002, 1.914430e+003
2.643094e+002, 1.924567e+003
2.647916e+002, 1.936958e+003
2.652737e+002, 1.949045e+003
2.657558e+002, 1.958275e+003
2.662379e+002, 1.963775e+003
2.667200e+002, 1.969131e+003
2.672021e+002, 1.975058e+003
2.676843e+002, 1.981480e+003
2.681664e+002, 1.987851e+003
2.686485e+002, 1.994125e+003
2.691306e+002, 2.000380e+003
2.696127e+002, 2.006698e+003
2.700948e+002, 2.013157e+003
2.705770e+002, 2.018969e+003
2.710591e+002, 2.023475e+003
2.715412e+002, 2.027156e+003
2.720233e+002, 2.032645e+003
2.725054e+002, 2.040066e+003
2.729875e+002, 2.048643e+003
2.734697e+002, 2.058452e+003
2.739518e+002, 2.070094e+003
2.744339e+002, 2.079208e+003
2.749160e+002, 2.084390e+003
2.753981e+002, 2.087230e+003
2.758802e+002, 2.092750e+003
2.763624e+002, 2.101267e+003
2.768445e+002, 2.110987e+003
2.773266e+002, 2.121121e+003
2.778087e+002, 2.131747e+003
2.782908e+002, 2.141928e+003
2.787729e+002, 2.151758e+003
2.792551e+002, 2.160941e+003
2.797372e+002, 2.168789e+003
2.802193e+002, 2.175419e+003
2.807014e+002, 2.180105e+003
2.811835e+002, 2.182213e+003
2.816656e+002, 2.181769e+003
2.821478e+002, 2.180499e+003
2.826299e+002, 2.178533e+003
2.831120e+002, 2.175645e+003
2.835941e+002, 2.171796e+003
2.840762e+002, 2.167014e+003
2.845583e+002, 2.160109e+003
2.850405e+002, 2.150031e+003
2.855226e+002, 2.137028e+003
2.860047e+002, 2.123146e+003
2.864868e+002, 2.108184e+003
2.869689e+002, 2.093045e+003
2.874510e+002, 2.079144e+003
2.879332e+002, 2.066407e+003
2.884153e+002, 2.053331e+003
2.888974e+002, 2.039348e+003
2.893795e+002, 2.024679e+003
2.898616e+002, 2.010525e+003
2.903438e+002, 1.996871e+003
2.908259e+002, 1.983801e+003
2.913080e+002, 1.971797e+003
2.917901e+002, 1.960721e+003
2.922722e+002, 1.948947e+003
2.927543e+002, 1.935385e+003
2.932365e+002, 1.921171e+003
2.937186e+002, 1.909371e+003
2.942007e+002, 1.900115e+003
2.946828e+002, 1.891451e+003
2.951649e+002, 1.881248e+003
2.956470e+002, 1.870221e+003
2.961292e+002, 1.860441e+003
2.966113e+002, 1.852904e+003
2.970934e+002, 1.846541e+003
2.975755e+002, 1.839565e+003
2.980576e+002, 1.832020e+003
2.985397e+002, 1.824696e+003
2.990219e+002, 1.818083e+003
2.995040e+002, 1.812041e+003
2.999861e+002, 1.806449e+003
3.004682e+002, 1.801490e+003
3.009503e+002, 1.796605e+003
3.014324e+002, 1.790323e+003
3.019146e+002, 1.783242e+003
3.023967e+002, 1.777555e+003
3.028788e+002, 1.775772e+003
3.033609e+002, 1.775936e+003
3.038430e+002, 1.775032e+003
3.043251e+002, 1.772291e+003
3.048073e+002, 1.769823e+003
3.052894e+002, 1.770568e+003
3.057715e+002, 1.773174e+003
3.062536e+002, 1.774381e+003
3.067357e+002, 1.771021e+003
3.072178e+002, 1.766137e+003
3.077000e+002, 1.762790e+003
3.081821e+002, 1.761259e+003
3.086642e+002, 1.760560e+003
3.091463e+002, 1.760371e+003
3.096284e+002, 1.760451e+003
3.101105e+002, 1.760430e+003
3.105927e+002, 1.759607e+003
3.110748e+002, 1.759010e+003
3.115569e+002, 1.759948e+003
3.120390e+002, 1.762409e+003
3.125211e+002, 1.763862e+003
3.130032e+002, 1.761776e+003
3.134854e+002, 1.758394e+003
3.139675e+002, 1.756131e+003
3.144496e+002, 1.756764e+003
3.149317e+002, 1.757869e+003
3.154138e+002, 1.758396e+003
3.158959e+002, 1.758435e+003
3.163781e+002, 1.758477e+003
3.168602e+002, 1.758957e+003
3.173423e+002, 1.759424e+003
3.178244e+002, 1.759500e+003
3.183065e+002, 1.758592e+003
3.187886e+002, 1.758031e+003
3.192708e+002, 1.758141e+003
3.197529e+002, 1.758913e+003
3.202350e+002, 1.760337e+003
3.207171e+002, 1.763511e+003
3.211992e+002, 1.766463e+003
3.216813e+002, 1.768022e+003
3.221635e+002, 1.767161e+003
3.226456e+002, 1.766851e+003
3.231277e+002, 1.767416e+003
3.236098e+002, 1.768889e+003
3.240919e+002, 1.771350e+003
3.245740e+002, 1.776767e+003
3.250562e+002, 1.781334e+003
3.255383e+002, 1.783676e+003
3.260204e+002, 1.783210e+003
3.265025e+002, 1.782675e+003
3.269846e+002, 1.781737e+003
3.274667e+002, 1.781047e+003
3.279489e+002, 1.781293e+003
3.284310e+002, 1.783793e+003
3.289131e+002, 1.785814e+003
3.293952e+002, 1.786856e+003
3.298773e+002, 1.786912e+003
3.303594e+002, 1.787008e+003
3.308416e+002, 1.787069e+003
3.313237e+002, 1.787248e+003
3.318058e+002, 1.787677e+003
3.322879e+002, 1.788636e+003
3.327700e+002, 1.789351e+003
3.332521e+002, 1.789713e+003
3.337343e+002, 1.789762e+003
3.342164e+002, 1.789704e+003
3.346985e+002, 1.789431e+003
3.351806e+002, 1.789177e+003
3.356627e+002, 1.789060e+003
3.361448e+002, 1.789094e+003
3.366270e+002, 1.789168e+003
3.371091e+002, 1.789246e+003
3.375912e+002, 1.789382e+003
3.380733e+002, 1.789759e+003
3.385554e+002, 1.790491e+003
3.390375e+002, 1.791111e+003
3.395197e+002, 1.791456e+003
3.400018e+002, 1.791528e+003
3.404839e+002, 1.791343e+003
3.409660e+002, 1.790865e+003
3.414481e+002, 1.790215e+003
3.419302e+002, 1.789586e+003
3.424124e+002, 1.788981e+003
3.428945e+002, 1.788114e+003
3.433766e+002, 1.786543e+003
3.438587e+002, 1.784640e+003
3.443408e+002, 1.784449e+003
3.448229e+002, 1.786215e+003
3.453051e+002, 1.788010e+003
3.457872e+002, 1.787489e+003
3.462693e+002, 1.785121e+003
3.467514e+002, 1.784179e+003
3.472335e+002, 1.785760e+003
3.477156e+002, 1.788589e+003
3.481978e+002, 1.790275e+003
3.486799e+002, 1.790887e+003
3.491620e+002, 1.791140e+003
3.496441e+002, 1.791305e+003
3.501262e+002, 1.791500e+003
3.506083e+002, 1.792030e+003
3.510905e+002, 1.793006e+003
3.515726e+002, 1.794103e+003
3.520547e+002, 1.795057e+003
3.525368e+002, 1.795836e+003
3.530189e+002, 1.796342e+003
3.535010e+002, 1.795714e+003
3.539832e+002, 1.795155e+003
3.544653e+002, 1.796505e+003
3.549474e+002, 1.799911e+003
3.554295e+002, 1.803338e+003
3.559116e+002, 1.805103e+003
3.563937e+002, 1.805880e+003
3.568759e+002, 1.806658e+003
3.573580e+002, 1.807848e+003
3.578401e+002, 1.809126e+003
3.583222e+002, 1.809995e+003
3.588043e+002, 1.810618e+003
3.592864e+002, 1.811919e+003
3.597686e+002, 1.814816e+003
3.602507e+002, 1.818397e+003
3.607328e+002, 1.821885e+003
3.612149e+002, 1.825234e+003
3.616970e+002, 1.828286e+003
3.621791e+002, 1.830697e+003
3.626613e+002, 1.832733e+003
3.631434e+002, 1.835023e+003
3.636255e+002, 1.838968e+003
3.641076e+002, 1.842221e+003
3.645897e+002, 1.843126e+003
3.650718e+002, 1.840277e+003
3.655540e+002, 1.839288e+003
3.660361e+002, 1.843162e+003
3.665182e+002, 1.848742e+003
3.670003e+002, 1.852242e+003
3.674824e+002, 1.851013e+003
3.679645e+002, 1.849997e+003
3.684467e+002, 1.850444e+003
3.689288e+002, 1.852463e+003
3.694109e+002, 1.854086e+003
3.698930e+002, 1.855866e+003
3.703751e+002, 1.856886e+003
3.708572e+002, 1.856300e+003
3.713394e+002, 1.851600e+003
3.718215e+002, 1.849709e+003
3.723036e+002, 1.852532e+003
3.727857e+002, 1.858482e+003
3.732678e+002, 1.861823e+003
3.737499e+002, 1.861514e+003
3.742321e+002, 1.860439e+003
3.747142e+002, 1.859816e+003
3.751963e+002, 1.859654e+003
3.756784e+002, 1.859867e+003
3.761605e+002, 1.860630e+003
3.766426e+002, 1.861500e+003
3.771248e+002, 1.861720e+003
3.776069e+002, 1.861179e+003
3.780890e+002, 1.860624e+003
3.785711e+002, 1.860364e+003
3.790532e+002, 1.860323e+003
3.795353e+002, 1.859843e+003
3.800175e+002, 1.858834e+003
3.804996e+002, 1.857851e+003
3.809817e+002, 1.857486e+003
3.814638e+002, 1.857677e+003
3.819459e+002, 1.857886e+003
3.824280e+002, 1.858043e+003
3.829102e+002, 1.858095e+003
3.833923e+002, 1.857484e+003
3.838744e+002, 1.856337e+003
3.843565e+002, 1.856135e+003
3.848386e+002, 1.858388e+003
3.853207e+002, 1.862159e+003
3.858029e+002, 1.865715e+003
3.862850e+002, 1.869027e+003
3.867671e+002, 1.871503e+003
3.872492e+002, 1.871678e+003
3.877313e+002, 1.870536e+003
3.882134e+002, 1.870329e+003
3.886956e+002, 1.873157e+003
3.891777e+002, 1.876685e+003
3.896598e+002, 1.878507e+003
3.901419e+002, 1.878719e+003
3.906240e+002, 1.879403e+003
3.911061e+002, 1.882511e+003
3.915883e+002, 1.886512e+003
3.920704e+002, 1.889776e+003
3.925525e+002, 1.891357e+003
3.930346e+002, 1.892863e+003
3.935167e+002, 1.894821e+003
3.939988e+002, 1.897283e+003
3.944810e+002, 1.900389e+003
3.949631e+002, 1.904364e+003
3.954452e+002, 1.908861e+003
3.959273e+002, 1.913722e+003
3.964094e+002, 1.918932e+003
3.968915e+002, 1.924481e+003
3.973737e+002, 1.931125e+003
3.978558e+002, 1.937829e+003
3.983379e+002, 1.943321e+003
3.988200e+002, 1.946007e+003
3.993021e+002, 1.948953e+003
3.997842e+002, 1.952174e+003
4.002664e+002, 1.955657e+003
4.007485e+002, 1.961556e+003
4.012306e+002, 1.971563e+003
4.017127e+002, 1.982208e+003
4.021948e+002, 1.991259e+003
4.026769e+002, 1.997998e+003
4.031591e+002, 2.004729e+003
4.036412e+002, 2.012096e+003
4.041233e+002, 2.019264e+003
4.046054e+002, 2.024223e+003
4.050875e+002, 2.026502e+003
4.055696e+002, 2.027839e+003
4.060518e+002, 2.028774e+003
4.065339e+002, 2.029312e+003
4.070160e+002, 2.030154e+003
4.074981e+002, 2.031628e+003
4.079802e+002, 2.032572e+003
4.084623e+002, 2.031316e+003
4.089445e+002, 2.027915e+003
4.094266e+002, 2.024549e+003
4.099087e+002, 2.021995e+003
4.103908e+002, 2.019729e+003
4.108729e+002, 2.016835e+003
4.113550e+002, 2.013289e+003
4.118372e+002, 2.008463e+003
4.123193e+002, 2.000945e+003
4.128014e+002, 1.991840e+003
4.132835e+002, 1.983552e+003
4.137656e+002, 1.976264e+003
4.142477e+002, 1.970052e+003
4.147299e+002, 1.965173e+003
4.152120e+002, 1.961440e+003
4.156941e+002, 1.958574e+003
4.161762e+002, 1.957386e+003
4.166583e+002, 1.956276e+003
4.171404e+002, 1.953319e+003
4.176226e+002, 1.948525e+003
4.181047e+002, 1.944331e+003
4.185868e+002, 1.942198e+003
4.190689e+002, 1.941245e+003
4.195510e+002, 1.940658e+003
4.200331e+002, 1.940772e+003
4.205153e+002, 1.940477e+003
4.209974e+002, 1.939193e+003
4.214795e+002, 1.937193e+003
4.219616e+002, 1.935196e+003
4.224437e+002, 1.932433e+003
4.229258e+002, 1.930560e+003
4.234080e+002, 1.930686e+003
4.238901e+002, 1.933773e+003
4.243722e+002, 1.935742e+003
4.248543e+002, 1.936037e+003
4.253364e+002, 1.935253e+003
4.258185e+002, 1.933830e+003
4.263007e+002, 1.929937e+003
4.267828e+002, 1.928168e+003
4.272649e+002, 1.930072e+003
4.277470e+002, 1.934923e+003
4.282291e+002, 1.937894e+003
4.287112e+002, 1.937961e+003
4.291934e+002, 1.937851e+003
4.296755e+002, 1.939188e+003
4.301576e+002, 1.942318e+003
4.306397e+002, 1.944988e+003
4.311218e+002, 1.947054e+003
4.316039e+002, 1.948731e+003
4.320861e+002, 1.950013e+003
4.325682e+002, 1.950807e+003
4.330503e+002, 1.952784e+003
4.335324e+002, 1.956945e+003
4.340145e+002, 1.962677e+003
4.344966e+002, 1.968000e+003
4.349788e+002, 1.972931e+003
4.354609e+002, 1.977407e+003
4.359430e+002, 1.980605e+003
4.364251e+002, 1.983340e+003
4.369072e+002, 1.987989e+003
4.373893e+002, 1.995406e+003
4.378715e+002, 2.003853e+003
4.383536e+002, 2.011784e+003
4.388357e+002, 2.019190e+003
4.393178e+002, 2.026037e+003
4.397999e+002, 2.031087e+003
4.402820e+002, 2.036331e+003
4.407642e+002, 2.044038e+003
4.412463e+002, 2.054378e+003
4.417284e+002, 2.064175e+003
4.422105e+002, 2.070352e+003
4.426926e+002, 2.075801e+003
4.431747e+002, 2.083361e+003
4.436569e+002, 2.095994e+003
4.441390e+002, 2.108177e+003
4.446211e+002, 2.117268e+003
4.451032e+002, 2.124479e+003
4.455853e+002, 2.133034e+003
4.460674e+002, 2.144338e+003
4.465496e+002, 2.156496e+003
4.470317e+002, 2.169017e+003
4.475138e+002, 2.182277e+003
4.479959e+002, 2.194853e+003
4.484780e+002, 2.206065e+003
4.489601e+002, 2.217239e+003
4.494423e+002, 2.229996e+003
4.499244e+002, 2.245212e+003
4.504065e+002, 2.259966e+003
4.508886e+002, 2.273513e+003
4.513707e+002, 2.286250e+003
4.518528e+002, 2.300489e+003
4.523350e+002, 2.316667e+003
4.528171e+002, 2.333223e+003
4.532992e+002, 2.349828e+003
4.537813e+002, 2.366527e+003
4.542634e+002, 2.382402e+003
4.547455e+002, 2.397585e+003
4.552277e+002, 2.411688e+003
4.557098e+002, 2.423858e+003
4.561919e+002, 2.434298e+003
4.566740e+002, 2.445416e+003
4.571561e+002, 2.457753e+003
4.576382e+002, 2.471147e+003
4.581204e+002, 2.485381e+003
4.586025e+002, 2.500439e+003
4.590846e+002, 2.515155e+003
4.595667e+002, 2.527625e+003
4.600488e+002, 2.539957e+003
4.605309e+002, 2.555195e+003
4.610131e+002, 2.574065e+003
4.614952e+002, 2.594276e+003
4.619773e+002, 2.614140e+003
4.624594e+002, 2.634089e+003
4.629415e+002, 2.655045e+003
4.634236e+002, 2.675805e+003
4.639058e+002, 2.698757e+003
4.643879e+002, 2.725976e+003
4.648700e+002, 2.756807e+003
4.653521e+002, 2.788011e+003
4.658342e+002, 2.818200e+003
4.663163e+002, 2.849270e+003
4.667985e+002, 2.882142e+003
4.672806e+002, 2.915621e+003
4.677627e+002, 2.953191e+003
4.682448e+002, 2.996118e+003
4.687269e+002, 3.042248e+003
4.692090e+002, 3.088992e+003
4.696912e+002, 3.136053e+003
4.701733e+002, 3.185259e+003
4.706554e+002, 3.237741e+003
4.711375e+002, 3.293058e+003
4.716196e+002, 3.347401e+003
4.721017e+002, 3.401488e+003
4.725839e+002, 3.452699e+003
4.730660e+002, 3.501615e+003
4.735481e+002, 3.548054e+003
4.740302e+002, 3.586486e+003
4.745123e+002, 3.616530e+003
4.749944e+002, 3.638493e+003
4.754766e+002, 3.654094e+003
4.759587e+002, 3.662706e+003
4.764408e+002, 3.660008e+003
4.769229e+002, 3.643901e+003
4.774050e+002, 3.615853e+003
4.778871e+002, 3.576848e+003
4.783693e+002, 3.527302e+003
4.788514e+002, 3.470716e+003
4.793335e+002, 3.406723e+003
4.798156e+002, 3.337996e+003
4.802977e+002, 3.267548e+003
4.807798e+002, 3.195175e+003
4.812620e+002, 3.124380e+003
4.817441e+002, 3.054866e+003
4.822262e+002, 2.988824e+003
4.827083e+002, 2.929506e+003
4.831904e+002, 2.879453e+003
4.836725e+002, 2.834609e+003
4.841547e+002, 2.795029e+003
4.846368e+002, 2.760508e+003
4.851189e+002, 2.727172e+003
4.856010e+002, 2.694953e+003
4.860831e+002, 2.663325e+003
4.865652e+002, 2.631846e+003
4.870474e+002, 2.597513e+003
4.875295e+002, 2.569484e+003
4.880116e+002, 2.549984e+003
4.884937e+002, 2.535456e+003
4.889758e+002, 2.520625e+003
4.894579e+002, 2.504547e+003
4.899401e+002, 2.490951e+003
4.904222e+002, 2.480570e+003
4.909043e+002, 2.473330e+003
4.913864e+002, 2.468389e+003
4.918685e+002, 2.465687e+003
4.923506e+002, 2.465719e+003
4.928328e+002, 2.469841e+003
4.933149e+002, 2.477218e+003
4.937970e+002, 2.483573e+003
4.942791e+002, 2.488160e+003
4.947612e+002, 2.494130e+003
4.952433e+002, 2.504933e+003
4.957255e+002, 2.520043e+003
4.962076e+002, 2.538167e+003
4.966897e+002, 2.558845e+003
4.971718e+002, 2.582358e+003
4.976539e+002, 2.608553e+003
4.981360e+002, 2.637431e+003
4.986182e+002, 2.669684e+003
4.991003e+002, 2.706096e+003
4.995824e+002, 2.745609e+003
5.000645e+002, 2.786607e+003
5.005466e+002, 2.829435e+003
5.010287e+002, 2.874147e+003
5.015109e+002, 2.919852e+003
5.019930e+002, 2.967964e+003
5.024751e+002, 3.019345e+003
5.029572e+002, 3.074814e+003
5.034393e+002, 3.132670e+003
5.039214e+002, 3.191721e+003
5.044036e+002, 3.252362e+003
5.048857e+002, 3.317852e+003
5.053678e+002, 3.390026e+003
5.058499e+002, 3.465071e+003
5.063320e+002, 3.540645e+003
5.068141e+002, 3.616258e+003
5.072963e+002, 3.700582e+003
5.077784e+002, 3.796543e+003
5.082605e+002, 3.896375e+003
5.087426e+002, 3.994546e+003
5.092247e+002, 4.091092e+003
5.097068e+002, 4.186888e+003
5.101890e+002, 4.282410e+003
5.106711e+002, 4.376298e+003
5.111532e+002, 4.467141e+003
5.116353e+002, 4.554042e+003
5.121174e+002, 4.630552e+003
5.125995e+002, 4.698015e+003
5.130817e+002, 4.751664e+003
5.135638e+002, 4.787504e+003
5.140459e+002, 4.805178e+003
5.145280e+002, 4.800974e+003
5.150101e+002, 4.773606e+003
5.154922e+002, 4.722525e+003
5.159744e+002, 4.646687e+003
5.164565e+002, 4.540222e+003
5.169386e+002, 4.419770e+003
5.174207e+002, 4.285454e+003
5.179028e+002, 4.141665e+003
5.183849e+002, 3.995575e+003
5.188671e+002, 3.837665e+003
5.193492e+002, 3.689122e+003
5.198313e+002, 3.552441e+003
5.203134e+002, 3.428558e+003
5.207955e+002, 3.313909e+003
5.212776e+002, 3.208803e+003
5.217598e+002, 3.112029e+003
5.222419e+002, 3.024022e+003
5.227240e+002, 2.944486e+003
5.232061e+002, 2.873007e+003
5.236882e+002, 2.809972e+003
5.241703e+002, 2.753665e+003
5.246525e+002, 2.701879e+003
5.251346e+002, 2.654417e+003
5.256167e+002, 2.611809e+003
5.260988e+002, 2.575288e+003
5.265809e+002, 2.543125e+003
5.270630e+002, 2.512877e+003
5.275452e+002, 2.484644e+003
5.280273e+002, 2.458250e+003
5.285094e+002, 2.432995e+003
5.289915e+002, 2.409646e+003
5.294736e+002, 2.388882e+003
5.299557e+002, 2.370704e+003
5.304379e+002, 2.354308e+003
5.309200e+002, 2.338596e+003
5.314021e+002, 2.324461e+003
5.318842e+002, 2.312823e+003
5.323663e+002, 2.305743e+003
5.328484e+002, 2.298473e+003
5.333306e+002, 2.289650e+003
5.338127e+002, 2.279844e+003
5.342948e+002, 2.270490e+003
5.347769e+002, 2.260705e+003
5.352590e+002, 2.252446e+003
5.357411e+002, 2.246954e+003
5.362233e+002, 2.244129e+003
5.367054e+002, 2.238696e+003
5.371875e+002, 2.229221e+003
5.376696e+002, 2.220093e+003
5.381517e+002, 2.214568e+003
5.386339e+002, 2.213062e+003
5.391160e+002, 2.210359e+003
5.395981e+002, 2.205994e+003
5.400802e+002, 2.201039e+003
5.405623e+002, 2.196364e+003
5.410444e+002, 2.192104e+003
5.415266e+002, 2.189024e+003
5.420087e+002, 2.188040e+003
5.424908e+002, 2.187538e+003
5.429729e+002, 2.184587e+003
5.434550e+002, 2.179903e+003
5.439371e+002, 2.176283e+003
5.444193e+002, 2.176071e+003
5.449014e+002, 2.177032e+003
5.453835e+002, 2.177495e+003
5.458656e+002, 2.177303e+003
5.463477e+002, 2.176584e+003
5.468298e+002, 2.174986e+003
5.473120e+002, 2.173077e+003
5.477941e+002, 2.171323e+003
5.482762e+002, 2.169313e+003
5.487583e+002, 2.168096e+003
5.492404e+002, 2.168604e+003
5.497225e+002, 2.169677e+003
5.502047e+002, 2.169162e+003
5.506868e+002, 2.165688e+003
5.511689e+002, 2.163356e+003
5.516510e+002, 2.163789e+003
5.521331e+002, 2.166350e+003
5.526152e+002, 2.166740e+003
5.530974e+002, 2.164740e+003
5.535795e+002, 2.161790e+003
5.540616e+002, 2.158142e+003
5.545437e+002, 2.154173e+003
5.550258e+002, 2.152103e+003
5.555079e+002, 2.152192e+003
5.559901e+002, 2.153370e+003
5.564722e+002, 2.155180e+003
5.569543e+002, 2.157195e+003
5.574364e+002, 2.158415e+003
5.579185e+002, 2.158106e+003
5.584006e+002, 2.157624e+003
5.588828e+002, 2.158095e+003
5.593649e+002, 2.159177e+003
5.598470e+002, 2.160110e+003
5.603291e+002, 2.160176e+003
5.608112e+002, 2.160305e+003
5.612933e+002, 2.161015e+003
5.617755e+002, 2.162294e+003
5.622576e+002, 2.163221e+003
5.627397e+002, 2.162785e+003
5.632218e+002, 2.162625e+003
5.637039e+002, 2.163663e+003
5.641860e+002, 2.166671e+003
5.646682e+002, 2.168955e+003
5.651503e+002, 2.170623e+003
5.656324e+002, 2.171529e+003
5.661145e+002, 2.171190e+003
5.665966e+002, 2.169456e+003
5.670787e+002, 2.168198e+003
5.675609e+002, 2.167796e+003
5.680430e+002, 2.168217e+003
5.685251e+002, 2.169941e+003
5.690072e+002, 2.172767e+003
5.694893e+002, 2.174811e+003
5.699714e+002, 2.174710e+003
5.704536e+002, 2.173388e+003
5.709357e+002, 2.171341e+003
5.714178e+002, 2.168755e+003
5.718999e+002, 2.167985e+003
5.723820e+002, 2.172522e+003
5.728641e+002, 2.178430e+003
5.733463e+002, 2.181987e+003
5.738284e+002, 2.181619e+003
5.743105e+002, 2.181408e+003
5.747926e+002, 2.182523e+003
5.752747e+002, 2.184455e+003
5.757568e+002, 2.186580e+003
5.762390e+002, 2.189681e+003
5.767211e+002, 2.191814e+003
5.772032e+002, 2.192267e+003
5.776853e+002, 2.191638e+003
5.781674e+002, 2.192144e+003
5.786495e+002, 2.194337e+003
5.791317e+002, 2.196056e+003
5.796138e+002, 2.196192e+003
5.800959e+002, 2.194983e+003
5.805780e+002, 2.194266e+003
5.810601e+002, 2.194042e+003
5.815422e+002, 2.194357e+003
5.820244e+002, 2.195719e+003
5.825065e+002, 2.197632e+003
5.829886e+002, 2.198712e+003
5.834707e+002, 2.198682e+003
5.839528e+002, 2.198479e+003
5.844349e+002, 2.198669e+003
5.849171e+002, 2.199299e+003
5.853992e+002, 2.200443e+003
5.858813e+002, 2.202741e+003
5.863634e+002, 2.204874e+003
5.868455e+002, 2.206188e+003
5.873276e+002, 2.206883e+003
5.878098e+002, 2.207485e+003
5.882919e+002, 2.208173e+003
5.887740e+002, 2.208653e+003
5.892561e+002, 2.208778e+003
5.897382e+002, 2.208530e+003
5.902203e+002, 2.208317e+003
5.907025e+002, 2.208090e+003
5.911846e+002, 2.207973e+003
5.916667e+002, 2.207884e+003
5.921488e+002, 2.207770e+003
5.926309e+002, 2.209097e+003
5.931130e+002, 2.212455e+003
5.935952e+002, 2.215347e+003
5.940773e+002, 2.213696e+003
5.945594e+002, 2.208766e+003
5.950415e+002, 2.205677e+003
5.955236e+002, 2.206506e+003
5.960057e+002, 2.208174e+003
5.964879e+002, 2.206004e+003
5.969700e+002, 2.201970e+003
5.974521e+002, 2.200724e+003
5.979342e+002, 2.208206e+003
5.984163e+002, 2.215726e+003
5.988984e+002, 2.217679e+003
5.993806e+002, 2.214619e+003
5.998627e+002, 2.212713e+003
6.003448e+002, 2.214123e+003
6.008269e+002, 2.216341e+003
6.013090e+002, 2.218236e+003
6.017911e+002, 2.219723e+003
6.022733e+002, 2.221168e+003
6.027554e+002, 2.222704e+003
6.032375e+002, 2.223996e+003
6.037196e+002, 2.224581e+003
6.042017e+002, 2.224373e+003
6.046838e+002, 2.224443e+003
6.051660e+002, 2.224928e+003
6.056481e+002, 2.225737e+003
6.061302e+002, 2.226781e+003
6.066123e+002, 2.228038e+003
6.070944e+002, 2.229336e+003
6.075765e+002, 2.230353e+003
6.080587e+002, 2.231642e+003
6.085408e+002, 2.234514e+003
6.090229e+002, 2.238363e+003
6.095050e+002, 2.241139e+003
6.099871e+002, 2.239715e+003
6.104692e+002, 2.238495e+003
6.109514e+002, 2.241086e+003
6.114335e+002, 2.248021e+003
6.119156e+002, 2.252427e+003
6.123977e+002, 2.250633e+003
6.128798e+002, 2.247609e+003
6.133619e+002, 2.246350e+003
6.138441e+002, 2.248003e+003
6.143262e+002, 2.248468e+003
6.148083e+002, 2.246859e+003
6.152904e+002, 2.245299e+003
6.157725e+002, 2.247090e+003
6.162546e+002, 2.252520e+003
6.167368e+002, 2.256559e+003
6.172189e+002, 2.258100e+003
6.177010e+002, 2.258155e+003
6.181831e+002, 2.258328e+003
6.186652e+002, 2.258571e+003
6.191473e+002, 2.258673e+003
6.196295e+002, 2.257737e+003
6.201116e+002, 2.257154e+003
6.205937e+002, 2.258816e+003
6.210758e+002, 2.262285e+003
6.215579e+002, 2.265446e+003
6.220400e+002, 2.267024e+003
6.225222e+002, 2.268093e+003
6.230043e+002, 2.269210e+003
6.234864e+002, 2.270437e+003
6.239685e+002, 2.271608e+003
6.244506e+002, 2.272237e+003
6.249327e+002, 2.273183e+003
6.254149e+002, 2.275141e+003
6.258970e+002, 2.278593e+003
6.263791e+002, 2.281572e+003
6.268612e+002, 2.284080e+003
6.273433e+002, 2.285978e+003
6.278254e+002, 2.286760e+003
6.283076e+002, 2.286492e+003
6.287897e+002, 2.286570e+003
6.292718e+002, 2.287230e+003
6.297539e+002, 2.288601e+003
6.302360e+002, 2.291800e+003
6.307181e+002, 2.296051e+003
6.312003e+002, 2.298831e+003
6.316824e+002, 2.297786e+003
6.321645e+002, 2.295646e+003
6.326466e+002, 2.294544e+003
6.331287e+002, 2.294316e+003
6.336108e+002, 2.293652e+003
6.340930e+002, 2.290913e+003
6.345751e+002, 2.288612e+003
6.350572e+002, 2.288273e+003
6.355393e+002, 2.290422e+003
6.360214e+002, 2.292008e+003
6.365035e+002, 2.292910e+003
6.369857e+002, 2.293374e+003
6.374678e+002, 2.293463e+003
6.379499e+002, 2.293085e+003
6.384320e+002, 2.293056e+003
6.389141e+002, 2.293587e+003
6.393962e+002, 2.293990e+003
6.398784e+002, 2.292706e+003
6.403605e+002, 2.290322e+003
6.408426e+002, 2.289461e+003
6.413247e+002, 2.291329e+003
6.418068e+002, 2.294166e+003
6.422889e+002, 2.296141e+003
6.427711e+002, 2.297638e+003
6.432532e+002, 2.299558e+003
6.437353e+002, 2.303453e+003
6.442174e+002, 2.306758e+003
6.446995e+002, 2.307330e+003
6.451816e+002, 2.305763e+003
6.456638e+002, 2.306166e+003
6.461459e+002, 2.311740e+003
6.466280e+002, 2.316706e+003
6.471101e+002, 2.318740e+003
6.475922e+002, 2.317561e+003
6.480743e+002, 2.318172e+003
6.485565e+002, 2.321042e+003
6.490386e+002, 2.324407e+003
6.495207e+002, 2.326987e+003
6.500028e+002, 2.328802e+003
6.504849e+002, 2.330048e+003
6.509670e+002, 2.330645e+003
6.514492e+002, 2.331089e+003
6.519313e+002, 2.332444e+003
6.524134e+002, 2.333914e+003
6.528955e+002, 2.333743e+003
6.533776e+002, 2.330571e+003
6.538597e+002, 2.327807e+003
6.543419e+002, 2.328374e+003
6.548240e+002, 2.330574e+003
6.553061e+002, 2.331800e+003
6.557882e+002, 2.329732e+003
6.562703e+002, 2.328575e+003
6.567524e+002, 2.330495e+003
6.572346e+002, 2.334063e+003
6.577167e+002, 2.334575e+003
6.581988e+002, 2.330175e+003
6.586809e+002, 2.327072e+003
6.591630e+002, 2.327854e+003
6.596451e+002, 2.331713e+003
6.601273e+002, 2.333865e+003
6.606094e+002, 2.334241e+003
6.610915e+002, 2.334229e+003
6.615736e+002, 2.334517e+003
6.620557e+002, 2.335098e+003
6.625378e+002, 2.336283e+003
6.630200e+002, 2.338052e+003
6.635021e+002, 2.339226e+003
6.639842e+002, 2.338280e+003
6.644663e+002, 2.336714e+003
6.649484e+002, 2.336000e+003
6.654305e+002, 2.336691e+003
6.659127e+002, 2.337347e+003
6.663948e+002, 2.336779e+003
6.668769e+002, 2.336522e+003
6.673590e+002, 2.338284e+003
6.678411e+002, 2.343875e+003
6.683232e+002, 2.347756e+003
6.688054e+002, 2.349412e+003
6.692875e+002, 2.349289e+003
6.697696e+002, 2.347455e+003
6.702517e+002, 2.343850e+003
6.707338e+002, 2.341476e+003
6.712159e+002, 2.341566e+003
6.716981e+002, 2.342896e+003
6.721802e+002, 2.343614e+003
6.726623e+002, 2.343785e+003
6.731444e+002, 2.343685e+003
6.736265e+002, 2.343178e+003
6.741086e+002, 2.342686e+003
6.745908e+002, 2.342763e+003
6.750729e+002, 2.343274e+003
6.755550e+002, 2.343255e+003
6.760371e+002, 2.341473e+003
6.765192e+002, 2.339991e+003
6.770013e+002, 2.339847e+003
6.774835e+002, 2.341194e+003
6.779656e+002, 2.342323e+003
6.784477e+002, 2.343012e+003
6.789298e+002, 2.343916e+003
6.794119e+002, 2.345773e+003
6.798940e+002, 2.348607e+003
6.803762e+002, 2.350173e+003
6.808583e+002, 2.350275e+003
6.813404e+002, 2.349875e+003
6.818225e+002, 2.349519e+003
6.823046e+002, 2.349451e+003
6.827867e+002, 2.350397e+003
6.832689e+002, 2.352834e+003
6.837510e+002, 2.355130e+003
6.842331e+002, 2.355642e+003
6.847152e+002, 2.355457e+003
6.851973e+002, 2.355943e+003
6.856794e+002, 2.359180e+003
6.861616e+002, 2.361104e+003
6.866437e+002, 2.359211e+003
6.871258e+002, 2.356042e+003
6.876079e+002, 2.356538e+003
6.880900e+002, 2.362568e+003
6.885721e+002, 2.367297e+003
6.890543e+002, 2.368734e+003
6.895364e+002, 2.367953e+003
6.900185e+002, 2.368211e+003
6.905006e+002, 2.369442e+003
6.909827e+002, 2.370278e+003
6.914648e+002, 2.369452e+003
6.919470e+002, 2.368074e+003
6.924291e+002, 2.367880e+003
6.929112e+002, 2.368733e+003
6.933933e+002, 2.369887e+003
6.938754e+002, 2.371699e+003
6.943575e+002, 2.373104e+003
6.948397e+002, 2.372649e+003
6.953218e+002, 2.369954e+003
6.958039e+002, 2.369956e+003
6.962860e+002, 2.376204e+003
6.967681e+002, 2.382580e+003
6.972502e+002, 2.385770e+003
6.977324e+002, 2.384775e+003
6.982145e+002, 2.386046e+003
6.986966e+002, 2.390502e+003
6.991787e+002, 2.394675e+003
6.996608e+002, 2.393937e+003
7.001429e+002, 2.389579e+003
7.006251e+002, 2.388180e+003
7.011072e+002, 2.390841e+003
7.015893e+002, 2.395003e+003
7.020714e+002, 2.399241e+003
7.025535e+002, 2.402974e+003
7.030356e+002, 2.405247e+003
7.035178e+002, 2.404846e+003
7.039999e+002, 2.404494e+003
7.044820e+002, 2.404920e+003
7.049641e+002, 2.406090e+003
7.054462e+002, 2.408000e+003
7.059283e+002, 2.410826e+003
7.064105e+002, 2.414181e+003
7.068926e+002, 2.418773e+003
7.073747e+002, 2.423443e+003
7.078568e+002, 2.424954e+003
7.083389e+002, 2.423057e+003
7.088210e+002, 2.421629e+003
7.093032e+002, 2.421928e+003
7.097853e+002, 2.423594e+003
7.102674e+002, 2.426587e+003
7.107495e+002, 2.430516e+003
7.112316e+002, 2.433594e+003
7.117137e+002, 2.434206e+003
7.121959e+002, 2.434136e+003
7.126780e+002, 2.434098e+003
7.131601e+002, 2.434304e+003
7.136422e+002, 2.435896e+003
7.141243e+002, 2.441627e+003
7.146064e+002, 2.446414e+003
7.150886e+002, 2.447560e+003
7.155707e+002, 2.444909e+003
7.160528e+002, 2.445069e+003
7.165349e+002, 2.449056e+003
7.170170e+002, 2.453292e+003
7.174991e+002, 2.455456e+003
7.179813e+002, 2.455777e+003
7.184634e+002, 2.455815e+003
7.189455e+002, 2.455555e+003
7.194276e+002, 2.456191e+003
7.199097e+002, 2.459326e+003
7.203918e+002, 2.463734e+003
7.208740e+002, 2.468081e+003
7.213561e+002, 2.472427e+003
7.218382e+002, 2.475231e+003
7.223203e+002, 2.474078e+003
7.228024e+002, 2.472040e+003
7.232845e+002, 2.471868e+003
7.237667e+002, 2.475425e+003
7.242488e+002, 2.477995e+003
7.247309e+002, 2.479369e+003
7.252130e+002, 2.479974e+003
7.256951e+002, 2.479781e+003
7.261772e+002, 2.478604e+003
7.266594e+002, 2.479782e+003
7.271415e+002, 2.484364e+003
7.276236e+002, 2.489854e+003
7.281057e+002, 2.492890e+003
7.285878e+002, 2.494106e+003
7.290699e+002, 2.495146e+003
7.295521e+002, 2.496415e+003
7.300342e+002, 2.497912e+003
7.305163e+002, 2.499548e+003
7.309984e+002, 2.501446e+003
7.314805e+002, 2.503812e+003
7.319626e+002, 2.507221e+003
7.324448e+002, 2.510511e+003
7.329269e+002, 2.513605e+003
7.334090e+002, 2.516430e+003
7.338911e+002, 2.518374e+003
7.343732e+002, 2.518856e+003
7.348553e+002, 2.520921e+003
7.353375e+002, 2.526224e+003
7.358196e+002, 2.533173e+003
7.363017e+002, 2.537277e+003
7.367838e+002, 2.538985e+003
7.372659e+002, 2.541046e+003
7.377480e+002, 2.544909e+003
7.382302e+002, 2.549837e+003
7.387123e+002, 2.556222e+003
7.391944e+002, 2.563440e+003
7.396765e+002, 2.568608e+003
7.401586e+002, 2.567807e+003
7.406407e+002, 2.567434e+003
7.411229e+002, 2.571017e+003
7.416050e+002, 2.578341e+003
7.420871e+002, 2.583560e+003
7.425692e+002, 2.586120e+003
7.430513e+002, 2.587973e+003
7.435334e+002, 2.590046e+003
7.440156e+002, 2.592315e+003
7.444977e+002, 2.594581e+003
7.449798e+002, 2.596859e+003
7.454619e+002, 2.598612e+003
7.459440e+002, 2.598553e+003
7.464261e+002, 2.598153e+003
7.469083e+002, 2.599859e+003
7.473904e+002, 2.603916e+003
7.478725e+002, 2.606708e+003
7.483546e+002, 2.604337e+003
7.488367e+002, 2.601653e+003
7.493188e+002, 2.602312e+003
7.498010e+002, 2.607882e+003
7.502831e+002, 2.611618e+003
7.507652e+002, 2.613216e+003
7.512473e+002, 2.613380e+003
7.517294e+002, 2.612133e+003
7.522115e+002, 2.609515e+003
7.526937e+002, 2.608459e+003
7.531758e+002, 2.609394e+003
7.536579e+002, 2.610219e+003
7.541400e+002, 2.608648e+003
7.546221e+002, 2.605599e+003
7.551042e+002, 2.602293e+003
7.555864e+002, 2.598772e+003
7.560685e+002, 2.596105e+003
7.565506e+002, 2.595075e+003
7.570327e+002, 2.595148e+003
7.575148e+002, 2.595838e+003
7.579969e+002, 2.598216e+003
7.584791e+002, 2.599412e+003
7.589612e+002, 2.598887e+003
7.594433e+002, 2.597754e+003
7.599254e+002, 2.597486e+003
7.604075e+002, 2.598116e+003
7.608896e+002, 2.598103e+003
7.613718e+002, 2.597074e+003
7.618539e+002, 2.595674e+003
7.623360e+002, 2.594684e+003
7.628181e+002, 2.593960e+003
7.633002e+002, 2.593298e+003
7.637823e+002, 2.593028e+003
7.642645e+002, 2.592070e+003
7.647466e+002, 2.588153e+003
7.652287e+002, 2.583700e+003
7.657108e+002, 2.582331e+003
7.661929e+002, 2.589032e+003
7.666750e+002, 2.592565e+003
7.671572e+002, 2.590829e+003
7.676393e+002, 2.586371e+003
7.681214e+002, 2.584137e+003
7.686035e+002, 2.584358e+003
7.690856e+002, 2.583397e+003
7.695677e+002, 2.579995e+003
7.700499e+002, 2.575570e+003
7.705320e+002, 2.571688e+003
7.710141e+002, 2.568528e+003
7.714962e+002, 2.566583e+003
7.719783e+002, 2.566961e+003
7.724604e+002, 2.567620e+003
7.729426e+002, 2.567811e+003
7.734247e+002, 2.567473e+003
7.739068e+002, 2.566434e+003
7.743889e+002, 2.563810e+003
7.748710e+002, 2.561838e+003
7.753531e+002, 2.561576e+003
7.758353e+002, 2.561925e+003
7.763174e+002, 2.558717e+003
7.767995e+002, 2.551721e+003
7.772816e+002, 2.547345e+003
7.777637e+002, 2.549092e+003
7.782458e+002, 2.553576e+003
7.787280e+002, 2.555675e+003
7.792101e+002, 2.555753e+003
7.796922e+002, 2.554927e+003
7.801743e+002, 2.552333e+003
7.806564e+002, 2.550368e+003
7.811385e+002, 2.550932e+003
7.816207e+002, 2.553333e+003
7.821028e+002, 2.554437e+003
7.825849e+002, 2.553625e+003
7.830670e+002, 2.552033e+003
7.835491e+002, 2.548995e+003
7.840313e+002, 2.545596e+003
7.845134e+002, 2.547273e+003
7.849955e+002, 2.554117e+003
7.854776e+002, 2.559385e+003
7.859597e+002, 2.558906e+003
7.864418e+002, 2.555709e+003
7.869240e+002, 2.554196e+003
7.874061e+002, 2.554084e+003
7.878882e+002, 2.554394e+003
7.883703e+002, 2.554344e+003
7.888524e+002, 2.554883e+003
7.893345e+002, 2.557625e+003
7.898167e+002, 2.561942e+003
7.902988e+002, 2.562692e+003
7.907809e+002, 2.557288e+003
7.912630e+002, 2.553114e+003
7.917451e+002, 2.553183e+003
7.922272e+002, 2.556383e+003
7.927094e+002, 2.557686e+003
7.931915e+002, 2.557154e+003
7.936736e+002, 2.556396e+003
7.941557e+002, 2.555918e+003
7.946378e+002, 2.555983e+003
7.951199e+002, 2.557275e+003
7.956021e+002, 2.559514e+003
7.960842e+002, 2.561519e+003
7.965663e+002, 2.562054e+003
7.970484e+002, 2.562902e+003
7.975305e+002, 2.565591e+003
7.980126e+002, 2.569690e+003
7.984948e+002, 2.571152e+003
7.989769e+002, 2.568575e+003
7.994590e+002, 2.566844e+003
7.999411e+002, 2.568418e+003
8.004232e+002, 2.572354e+003
8.009053e+002, 2.574560e+003
8.013875e+002, 2.575287e+003
8.018696e+002, 2.576923e+003
8.023517e+002, 2.583358e+003
8.028338e+002, 2.589674e+003
8.033159e+002, 2.590174e+003
8.037980e+002, 2.585695e+003
8.042802e+002, 2.581729e+003
8.047623e+002, 2.579287e+003
8.052444e+002, 2.578457e+003
8.057265e+002, 2.579515e+003
8.062086e+002, 2.582244e+003
8.066907e+002, 2.585062e+003
8.071729e+002, 2.588085e+003
8.076550e+002, 2.590561e+003
8.081371e+002, 2.592103e+003
8.086192e+002, 2.592854e+003
8.091013e+002, 2.592770e+003
8.095834e+002, 2.592085e+003
8.100656e+002, 2.592117e+003
8.105477e+002, 2.594264e+003
8.110298e+002, 2.596920e+003
8.115119e+002, 2.599712e+003
8.119940e+002, 2.602373e+003
8.124761e+002, 2.603028e+003
8.129583e+002, 2.599895e+003
8.134404e+002, 2.596719e+003
8.139225e+002, 2.594510e+003
8.144046e+002, 2.593221e+003
8.148867e+002, 2.592707e+003
8.153688e+002, 2.593049e+003
8.158510e+002, 2.592718e+003
8.163331e+002, 2.589995e+003
8.168152e+002, 2.586605e+003
8.172973e+002, 2.585864e+003
8.177794e+002, 2.587126e+003
8.182615e+002, 2.587930e+003
8.187437e+002, 2.586222e+003
8.192258e+002, 2.584499e+003
8.197079e+002, 2.584400e+003
8.201900e+002, 2.585516e+003
8.206721e+002, 2.584759e+003
8.211542e+002, 2.580868e+003
8.216364e+002, 2.577930e+003
8.221185e+002, 2.577953e+003
8.226006e+002, 2.579583e+003
8.230827e+002, 2.577642e+003
8.235648e+002, 2.572636e+003
8.240469e+002, 2.568444e+003
8.245291e+002, 2.567618e+003
8.250112e+002, 2.568188e+003
8.254933e+002, 2.568990e+003
8.259754e+002, 2.569719e+003
8.264575e+002, 2.569382e+003
8.269396e+002, 2.565935e+003
8.274218e+002, 2.563450e+003
8.279039e+002, 2.563415e+003
8.283860e+002, 2.565066e+003
8.288681e+002, 2.565741e+003
8.293502e+002, 2.565230e+003
8.298323e+002, 2.565013e+003
8.303145e+002, 2.565723e+003
8.307966e+002, 2.566824e+003
8.312787e+002, 2.567300e+003
8.317608e+002, 2.567290e+003
8.322429e+002, 2.567242e+003
8.327250e+002, 2.567100e+003
8.332072e+002, 2.567229e+003
8.336893e+002, 2.568179e+003
8.341714e+002, 2.569548e+003
8.346535e+002, 2.570257e+003
8.351356e+002, 2.570269e+003
8.356177e+002, 2.569583e+003
8.360999e+002, 2.567813e+003
8.365820e+002, 2.565710e+003
8.370641e+002, 2.564725e+003
8.375462e+002, 2.564875e+003
8.380283e+002, 2.566484e+003
8.385104e+002, 2.570202e+003
8.389926e+002, 2.574403e+003
8.394747e+002, 2.577693e+003
8.399568e+002, 2.580082e+003
8.404389e+002, 2.581632e+003
8.409210e+002, 2.581741e+003
8.414031e+002, 2.581684e+003
8.418853e+002, 2.581608e+003
8.423674e+002, 2.581535e+003
8.428495e+002, 2.581527e+003
8.433316e+002, 2.581597e+003
8.438137e+002, 2.581492e+003
8.442958e+002, 2.581088e+003
8.447780e+002, 2.580679e+003
8.452601e+002, 2.581106e+003
8.457422e+002, 2.581838e+003
8.462243e+002, 2.581295e+003
8.467064e+002, 2.578093e+003
8.471885e+002, 2.576003e+003
8.476707e+002, 2.578715e+003
8.481528e+002, 2.583053e+003
8.486349e+002, 2.585251e+003
8.491170e+002, 2.583677e+003
8.495991e+002, 2.582383e+003
8.500812e+002, 2.581569e+003
8.505634e+002, 2.580932e+003
8.510455e+002, 2.580030e+003
8.515276e+002, 2.578964e+003
8.520097e+002, 2.578363e+003
8.524918e+002, 2.578351e+003
8.529739e+002, 2.578630e+003
8.534561e+002, 2.579867e+003
8.539382e+002, 2.580754e+003
8.544203e+002, 2.579120e+003
8.549024e+002, 2.572871e+003
8.553845e+002, 2.570006e+003
8.558666e+002, 2.575194e+003
8.563488e+002, 2.581355e+003
8.568309e+002, 2.583541e+003
8.573130e+002, 2.581045e+003
8.577951e+002, 2.579919e+003
8.582772e+002, 2.580252e+003
8.587593e+002, 2.581215e+003
8.592415e+002, 2.581816e+003
8.597236e+002, 2.582639e+003
8.602057e+002, 2.585579e+003
8.606878e+002, 2.590730e+003
8.611699e+002, 2.593789e+003
8.616520e+002, 2.590474e+003
8.621342e+002, 2.586297e+003
8.626163e+002, 2.585002e+003
8.630984e+002, 2.586810e+003
8.635805e+002, 2.587095e+003
8.640626e+002, 2.585446e+003
8.645447e+002, 2.583649e+003
8.650269e+002, 2.583143e+003
8.655090e+002, 2.583289e+003
8.659911e+002, 2.581053e+003
8.664732e+002, 2.576927e+003
8.669553e+002, 2.574103e+003
8.674374e+002, 2.575425e+003
8.679196e+002, 2.578034e+003
8.684017e+002, 2.580163e+003
8.688838e+002, 2.581777e+003
8.693659e+002, 2.583415e+003
8.698480e+002, 2.585898e+003
8.703301e+002, 2.586879e+003
8.708123e+002, 2.584762e+003
8.712944e+002, 2.581011e+003
8.717765e+002, 2.581580e+003
8.722586e+002, 2.585956e+003
8.727407e+002, 2.588917e+003
8.732228e+002, 2.587450e+003
8.737050e+002, 2.584272e+003
8.741871e+002, 2.581332e+003
8.746692e+002, 2.578920e+003
8.751513e+002, 2.577624e+003
8.756334e+002, 2.579521e+003
8.761155e+002, 2.580227e+003
8.765977e+002, 2.578422e+003
8.770798e+002, 2.575476e+003
8.775619e+002, 2.573943e+003
8.780440e+002, 2.573956e+003
8.785261e+002, 2.573735e+003
8.790082e+002, 2.572860e+003
8.794904e+002, 2.571797e+003
8.799725e+002, 2.571211e+003
8.804546e+002, 2.570832e+003
8.809367e+002, 2.570107e+003
8.814188e+002, 2.568477e+003
8.819009e+002, 2.567355e+003
8.823831e+002, 2.567850e+003
8.828652e+002, 2.568696e+003
8.833473e+002, 2.568544e+003
8.838294e+002, 2.566978e+003
8.843115e+002, 2.566088e+003
8.847936e+002, 2.566027e+003
8.852758e+002, 2.566425e+003
8.857579e+002, 2.567695e+003
8.862400e+002, 2.569015e+003
8.867221e+002, 2.567395e+003
8.872042e+002, 2.562225e+003
8.876863e+002, 2.559715e+003
8.881685e+002, 2.567195e+003
8.886506e+002, 2.575695e+003
8.891327e+002, 2.578005e+003
8.896148e+002, 2.572660e+003
8.900969e+002, 2.570526e+003
8.905790e+002, 2.572617e+003
8.910612e+002, 2.575101e+003
8.915433e+002, 2.575513e+003
8.920254e+002, 2.574417e+003
8.925075e+002, 2.573920e+003
8.929896e+002, 2.573944e+003
8.934717e+002, 2.574103e+003
8.939539e+002, 2.574701e+003
8.944360e+002, 2.574857e+003
8.949181e+002, 2.573664e+003
8.954002e+002, 2.571373e+003
8.958823e+002, 2.569631e+003
8.963644e+002, 2.568290e+003
8.968466e+002, 2.568159e+003
8.973287e+002, 2.570059e+003
8.978108e+002, 2.572897e+003
8.982929e+002, 2.573484e+003
8.987750e+002, 2.572177e+003
8.992571e+002, 2.571092e+003
8.997393e+002, 2.571117e+003
9.002214e+002, 2.571581e+003
9.007035e+002, 2.572367e+003
9.011856e+002, 2.573083e+003
9.016677e+002, 2.573055e+003
9.021498e+002, 2.570717e+003
9.026320e+002, 2.569657e+003
9.031141e+002, 2.570844e+003
9.035962e+002, 2.572388e+003
9.040783e+002, 2.570984e+003
9.045604e+002, 2.566973e+003
9.050425e+002, 2.565796e+003
9.055247e+002, 2.568664e+003
9.060068e+002, 2.571718e+003
9.064889e+002, 2.570841e+003
9.069710e+002, 2.568395e+003
9.074531e+002, 2.567021e+003
9.079352e+002, 2.567436e+003
9.084174e+002, 2.567980e+003
9.088995e+002, 2.568915e+003
9.093816e+002, 2.569371e+003
9.098637e+002, 2.568440e+003
9.103458e+002, 2.566121e+003
9.108279e+002, 2.565648e+003
9.113101e+002, 2.567044e+003
9.117922e+002, 2.568611e+003
9.122743e+002, 2.569291e+003
9.127564e+002, 2.569335e+003
9.132385e+002, 2.568721e+003
9.137206e+002, 2.567579e+003
9.142028e+002, 2.566808e+003
9.146849e+002, 2.567426e+003
9.151670e+002, 2.567533e+003
9.156491e+002, 2.566183e+003
9.161312e+002, 2.564011e+003
9.166133e+002, 2.563642e+003
9.170955e+002, 2.565129e+003
9.175776e+002, 2.566672e+003
9.180597e+002, 2.567734e+003
9.185418e+002, 2.568402e+003
9.190239e+002, 2.568418e+003
9.195060e+002, 2.568181e+003
9.199882e+002, 2.568441e+003
9.204703e+002, 2.570953e+003
9.209524e+002, 2.571866e+003
9.214345e+002, 2.569280e+003
9.219166e+002, 2.565808e+003
9.223987e+002, 2.564537e+003
9.228809e+002, 2.565500e+003
9.233630e+002, 2.568289e+003
9.238451e+002, 2.573321e+003
9.243272e+002, 2.577302e+003
9.248093e+002, 2.574818e+003
9.252914e+002, 2.570026e+003
9.257736e+002, 2.569052e+003
9.262557e+002, 2.573634e+003
9.267378e+002, 2.576662e+003
9.272199e+002, 2.574467e+003
9.277020e+002, 2.571758e+003
9.281841e+002, 2.571007e+003
9.286663e+002, 2.572234e+003
9.291484e+002, 2.572610e+003
9.296305e+002, 2.572131e+003
9.301126e+002, 2.571214e+003
9.305947e+002, 2.569414e+003
9.310768e+002, 2.567773e+003
9.315590e+002, 2.567820e+003
9.320411e+002, 2.569270e+003
9.325232e+002, 2.570884e+003
9.330053e+002, 2.572628e+003
9.334874e+002, 2.574009e+003
9.339695e+002, 2.574889e+003
9.344517e+002, 2.575363e+003
9.349338e+002, 2.575760e+003
9.354159e+002, 2.576097e+003
9.358980e+002, 2.575798e+003
9.363801e+002, 2.574513e+003
9.368622e+002, 2.573135e+003
9.373444e+002, 2.572604e+003
9.378265e+002, 2.572742e+003
9.383086e+002, 2.573299e+003
9.387907e+002, 2.574362e+003
9.392728e+002, 2.575548e+003
9.397549e+002, 2.576957e+003
9.402371e+002, 2.578247e+003
9.407192e+002, 2.579023e+003
9.412013e+002, 2.579233e+003
9.416834e+002, 2.579871e+003
9.421655e+002, 2.580943e+003
9.426476e+002, 2.582486e+003
9.431298e+002, 2.584974e+003
9.436119e+002, 2.587623e+003
9.440940e+002, 2.590183e+003
9.445761e+002, 2.592531e+003
9.450582e+002, 2.592524e+003
9.455403e+002, 2.585909e+003
9.460225e+002, 2.581619e+003
9.465046e+002, 2.583423e+003
9.469867e+002, 2.589497e+003
9.474688e+002, 2.592282e+003
9.479509e+002, 2.591927e+003
9.484330e+002, 2.591210e+003
9.489152e+002, 2.591091e+003
9.493973e+002, 2.591374e+003
9.498794e+002, 2.591879e+003
9.503615e+002, 2.592648e+003
9.508436e+002, 2.593762e+003
9.513257e+002, 2.596370e+003
9.518079e+002, 2.597540e+003
9.522900e+002, 2.596364e+003
9.527721e+002, 2.594743e+003
9.532542e+002, 2.595459e+003
9.537363e+002, 2.598071e+003
9.542184e+002, 2.598760e+003
9.547006e+002, 2.596923e+003
9.551827e+002, 2.595535e+003
9.556648e+002, 2.598560e+003
9.561469e+002, 2.602063e+003
9.566290e+002, 2.601984e+003
9.571111e+002, 2.597352e+003
9.575933e+002, 2.594884e+003
9.580754e+002, 2.595418e+003
9.585575e+002, 2.596970e+003
9.590396e+002, 2.598924e+003
9.595217e+002, 2.601047e+003
9.600038e+002, 2.602577e+003
9.604860e+002, 2.603552e+003
9.609681e+002, 2.604163e+003
9.614502e+002, 2.604041e+003
9.619323e+002, 2.604038e+003
9.624144e+002, 2.604570e+003
9.628965e+002, 2.605578e+003
9.633787e+002, 2.606909e+003
9.638608e+002, 2.608547e+003
9.643429e+002, 2.610636e+003
9.648250e+002, 2.613585e+003
9.653071e+002, 2.616042e+003
9.657892e+002, 2.614980e+003
9.662714e+002, 2.612109e+003
9.667535e+002, 2.612142e+003
9.672356e+002, 2.616302e+003
9.677177e+002, 2.620145e+003
9.681998e+002, 2.620808e+003
9.686819e+002, 2.620560e+003
9.691641e+002, 2.620718e+003
9.696462e+002, 2.621257e+003
9.701283e+002, 2.623670e+003
9.706104e+002, 2.628520e+003
9.710925e+002, 2.632259e+003
9.715746e+002, 2.631791e+003
9.720568e+002, 2.629474e+003
9.725389e+002, 2.629945e+003
9.730210e+002, 2.632352e+003
9.735031e+002, 2.633889e+003
9.739852e+002, 2.630950e+003
9.744673e+002, 2.629989e+003
9.749495e+002, 2.634587e+003
9.754316e+002, 2.641278e+003
9.759137e+002, 2.643966e+003
9.763958e+002, 2.642469e+003
9.768779e+002, 2.640231e+003
9.773600e+002, 2.637387e+003
9.778422e+002, 2.636102e+003
9.783243e+002, 2.640088e+003
9.788064e+002, 2.646320e+003
9.792885e+002, 2.651265e+003
9.797706e+002, 2.654495e+003
9.802527e+002, 2.655425e+003
9.807349e+002, 2.651857e+003
9.812170e+002, 2.648944e+003
9.816991e+002, 2.650047e+003
9.821812e+002, 2.654382e+003
9.826633e+002, 2.655686e+003
9.831454e+002, 2.654195e+003
9.836276e+002, 2.652866e+003
9.841097e+002, 2.652535e+003
9.845918e+002, 2.653812e+003
9.850739e+002, 2.658667e+003
9.855560e+002, 2.665408e+003
9.860381e+002, 2.669331e+003
9.865203e+002, 2.668696e+003
9.870024e+002, 2.668276e+003
9.874845e+002, 2.668546e+003
9.879666e+002, 2.669521e+003
9.884487e+002, 2.671767e+003
9.889308e+002, 2.674735e+003
9.894130e+002, 2.676825e+003
9.898951e+002, 2.677751e+003
9.903772e+002, 2.678131e+003
9.908593e+002, 2.677586e+003
9.913414e+002, 2.677250e+003
9.918235e+002, 2.678234e+003
9.923057e+002, 2.680647e+003
9.927878e+002, 2.681709e+003
9.932699e+002, 2.681097e+003
9.937520e+002, 2.681163e+003
9.942341e+002, 2.683577e+003
9.947162e+002, 2.687150e+003
9.951984e+002, 2.690227e+003
9.956805e+002, 2.692760e+003
9.961626e+002, 2.694548e+003
9.966447e+002, 2.695418e+003
9.971268e+002, 2.695620e+003
9.976089e+002, 2.694814e+003
9.980911e+002, 2.693747e+003
9.985732e+002, 2.693326e+003
9.990553e+002, 2.693542e+003
9.995374e+002, 2.694936e+003
1.000020e+003, 2.697700e+003
1.000502e+003, 2.700235e+003
1.000984e+003, 2.700353e+003
1.001466e+003, 2.699937e+003
1.001948e+003, 2.701047e+003
1.002430e+003, 2.704070e+003
1.002912e+003, 2.706445e+003
1.003394e+003, 2.708498e+003
1.003876e+003, 2.708817e+003
1.004359e+003, 2.706112e+003
1.004841e+003, 2.701712e+003
1.005323e+003, 2.699455e+003
1.005805e+003, 2.699164e+003
1.006287e+003, 2.700229e+003
1.006769e+003, 2.704138e+003
1.007251e+003, 2.707086e+003
1.007733e+003, 2.705723e+003
1.008216e+003, 2.702869e+003
1.008698e+003, 2.702680e+003
1.009180e+003, 2.706371e+003
1.009662e+003, 2.707755e+003
1.010144e+003, 2.706022e+003
1.010626e+003, 2.704351e+003
1.011108e+003, 2.707362e+003
1.011590e+003, 2.711727e+003
1.012072e+003, 2.711690e+003
1.012555e+003, 2.707127e+003
1.013037e+003, 2.703639e+003
1.013519e+003, 2.704751e+003
1.014001e+003, 2.705309e+003
1.014483e+003, 2.702915e+003
1.014965e+003, 2.699021e+003
1.015447e+003, 2.699154e+003
1.015929e+003, 2.702903e+003
1.016411e+003, 2.705913e+003
1.016894e+003, 2.706638e+003
1.017376e+003, 2.706469e+003
1.017858e+003, 2.706079e+003
1.018340e+003, 2.705749e+003
1.018822e+003, 2.705917e+003
1.019304e+003, 2.707214e+003
1.019786e+003, 2.707556e+003
1.020268e+003, 2.706833e+003
1.020751e+003, 2.705536e+003
1.021233e+003, 2.703250e+003
1.021715e+003, 2.700874e+003
1.022197e+003, 2.701622e+003
1.022679e+003, 2.704912e+003
1.023161e+003, 2.707066e+003
1.023643e+003, 2.704961e+003
1.024125e+003, 2.702757e+003
1.024607e+003, 2.701880e+003
1.025090e+003, 2.702081e+003
1.025572e+003, 2.703042e+003
1.026054e+003, 2.704797e+003
1.026536e+003, 2.706645e+003
1.027018e+003, 2.708529e+003
1.027500e+003, 2.710090e+003
1.027982e+003, 2.711130e+003
1.028464e+003, 2.711522e+003
1.028947e+003, 2.710920e+003
1.029429e+003, 2.708996e+003
1.029911e+003, 2.707675e+003
1.030393e+003, 2.707231e+003
1.030875e+003, 2.707244e+003
1.031357e+003, 2.707967e+003
1.031839e+003, 2.708880e+003
1.032321e+003, 2.707237e+003
1.032803e+003, 2.703868e+003
1.033286e+003, 2.702146e+003
1.033768e+003, 2.704719e+003
1.034250e+003, 2.708227e+003
1.034732e+003, 2.712267e+003
1.035214e+003, 2.715855e+003
1.035696e+003, 2.717334e+003
1.036178e+003, 2.716117e+003
1.036660e+003, 2.715950e+003
1.037143e+003, 2.717144e+003
1.037625e+003, 2.718687e+003
1.038107e+003, 2.719783e+003
1.038589e+003, 2.720570e+003
1.039071e+003, 2.720795e+003
1.039553e+003, 2.720551e+003
1.040035e+003, 2.721656e+003
1.040517e+003, 2.726240e+003
1.041000e+003, 2.729417e+003
1.041482e+003, 2.729346e+003
1.041964e+003, 2.727516e+003
1.042446e+003, 2.728009e+003
1.042928e+003, 2.730006e+003
1.043410e+003, 2.729555e+003
1.043892e+003, 2.724136e+003
1.044374e+003, 2.720261e+003
1.044856e+003, 2.724341e+003
1.045339e+003, 2.730124e+003
1.045821e+003, 2.731748e+003
1.046303e+003, 2.728428e+003
1.046785e+003, 2.726473e+003
1.047267e+003, 2.726024e+003
1.047749e+003, 2.725776e+003
1.048231e+003, 2.724414e+003
1.048713e+003, 2.723086e+003
1.049195e+003, 2.722856e+003
1.049677e+003, 2.723868e+003
1.050160e+003, 2.726529e+003
1.050642e+003, 2.734200e+003
1.051124e+003, 2.738742e+003
1.051606e+003, 2.738578e+003
1.052088e+003, 2.735986e+003
1.052570e+003, 2.733353e+003
1.053052e+003, 2.730854e+003
1.053534e+003, 2.729546e+003
1.054017e+003, 2.729571e+003
1.054499e+003, 2.729712e+003
1.054981e+003, 2.728967e+003
1.055463e+003, 2.728335e+003
1.055945e+003, 2.729056e+003
1.056427e+003, 2.730633e+003
1.056909e+003, 2.729482e+003
1.057391e+003, 2.725311e+003
1.057874e+003, 2.722213e+003
1.058356e+003, 2.722062e+003
1.058838e+003, 2.722654e+003
1.059320e+003, 2.721220e+003
1.059802e+003, 2.718849e+003
1.060284e+003, 2.717158e+003
1.060766e+003, 2.717377e+003
1.061248e+003, 2.715884e+003
1.061730e+003, 2.711214e+003
1.062213e+003, 2.707510e+003
1.062695e+003, 2.708922e+003
1.063177e+003, 2.713579e+003
1.063659e+003, 2.714146e+003
1.064141e+003, 2.711470e+003
1.064623e+003, 2.709701e+003
1.065105e+003, 2.712337e+003
1.065587e+003, 2.714595e+003
1.066070e+003, 2.714080e+003
1.066552e+003, 2.712285e+003
1.067034e+003, 2.711349e+003
1.067516e+003, 2.711282e+003
1.067998e+003, 2.711229e+003
1.068480e+003, 2.711078e+003
1.068962e+003, 2.711050e+003
1.069444e+003, 2.711127e+003
1.069927e+003, 2.711610e+003
1.070409e+003, 2.713525e+003
1.070891e+003, 2.716803e+003
1.071373e+003, 2.716802e+003
1.071855e+003, 2.711115e+003
1.072337e+003, 2.709160e+003
1.072819e+003, 2.715552e+003
1.073301e+003, 2.724538e+003
1.073783e+003, 2.724617e+003
1.074266e+003, 2.719651e+003
1.074748e+003, 2.718110e+003
1.075230e+003, 2.723987e+003
1.075712e+003, 2.728474e+003
1.076194e+003, 2.728247e+003
1.076676e+003, 2.727149e+003
1.077158e+003, 2.727398e+003
1.077640e+003, 2.728843e+003
1.078122e+003, 2.729913e+003
1.078604e+003, 2.730675e+003
1.079087e+003, 2.731740e+003
1.079569e+003, 2.734224e+003
1.080051e+003, 2.736282e+003
1.080533e+003, 2.735856e+003
1.081015e+003, 2.734585e+003
1.081497e+003, 2.735562e+003
1.081979e+003, 2.739386e+003
1.082461e+003, 2.742523e+003
1.082944e+003, 2.744617e+003
1.083426e+003, 2.746570e+003
1.083908e+003, 2.749846e+003
1.084390e+003, 2.753058e+003
1.084872e+003, 2.753835e+003
1.085354e+003, 2.752413e+003
1.085836e+003, 2.753021e+003
1.086318e+003, 2.757925e+003
1.086801e+003, 2.761602e+003
1.087283e+003, 2.762226e+003
1.087765e+003, 2.761839e+003
1.088247e+003, 2.764094e+003
1.088729e+003, 2.768405e+003
1.089211e+003, 2.773820e+003
1.089693e+003, 2.780866e+003
1.090175e+003, 2.785221e+003
1.090657e+003, 2.781240e+003
1.091140e+003, 2.777831e+003
1.091622e+003, 2.780469e+003
1.092104e+003, 2.788129e+003
1.092586e+003, 2.792414e+003
1.093068e+003, 2.793570e+003
1.093550e+003, 2.794385e+003
1.094032e+003, 2.795458e+003
1.094514e+003, 2.797609e+003
1.094997e+003, 2.802043e+003
1.095479e+003, 2.807641e+003
1.095961e+003, 2.813020e+003
1.096443e+003, 2.818309e+003
1.096925e+003, 2.823051e+003
1.097407e+003, 2.827461e+003
1.097889e+003, 2.830109e+003
1.098371e+003, 2.827294e+003
1.098854e+003, 2.823816e+003
1.099336e+003, 2.826758e+003
1.099818e+003, 2.834637e+003
1.100300e+003, 2.841146e+003
1.100782e+003, 2.844161e+003
1.101264e+003, 2.846841e+003
1.101746e+003, 2.849294e+003
1.102228e+003, 2.852016e+003
1.102710e+003, 2.856312e+003
1.103193e+003, 2.861266e+003
1.103675e+003, 2.864262e+003
1.104157e+003, 2.865000e+003
1.104639e+003, 2.866572e+003
1.105121e+003, 2.869944e+003
1.105603e+003, 2.875146e+003
1.106085e+003, 2.883073e+003
1.106567e+003, 2.892326e+003
1.107049e+003, 2.898073e+003
1.107531e+003, 2.900797e+003
1.108014e+003, 2.903638e+003
1.108496e+003, 2.907321e+003
1.108978e+003, 2.911886e+003
1.109460e+003, 2.917167e+003
1.109942e+003, 2.923471e+003
1.110424e+003, 2.931397e+003
1.110906e+003, 2.941057e+003
1.111388e+003, 2.949156e+003
1.111871e+003, 2.955686e+003
1.112353e+003, 2.960479e+003
1.112835e+003, 2.961213e+003
1.113317e+003, 2.963030e+003
1.113799e+003, 2.973389e+003
1.114281e+003, 2.988077e+003
1.114763e+003, 3.000345e+003
1.115245e+003, 3.009155e+003
1.115728e+003, 3.014364e+003
1.116210e+003, 3.014654e+003
1.116692e+003, 3.015861e+003
1.117174e+003, 3.024241e+003
1.117656e+003, 3.036125e+003
1.118138e+003, 3.044759e+003
1.118620e+003, 3.050716e+003
1.119102e+003, 3.057107e+003
1.119584e+003, 3.066501e+003
1.120067e+003, 3.074000e+003
1.120549e+003, 3.078164e+003
1.121031e+003, 3.081132e+003
1.121513e+003, 3.086879e+003
1.121995e+003, 3.093816e+003
1.122477e+003, 3.095651e+003
1.122959e+003, 3.091918e+003
1.123441e+003, 3.088399e+003
1.123924e+003, 3.087965e+003
1.124406e+003, 3.088733e+003
1.124888e+003, 3.090692e+003
1.125370e+003, 3.092808e+003
1.125852e+003, 3.091938e+003
1.126334e+003, 3.088323e+003
1.126816e+003, 3.084423e+003
1.127298e+003, 3.080897e+003
1.127781e+003, 3.077094e+003
1.128263e+003, 3.072809e+003
1.128745e+003, 3.067893e+003
1.129227e+003, 3.061792e+003
1.129709e+003, 3.054615e+003
1.130191e+003, 3.048862e+003
1.130673e+003, 3.044508e+003
1.131155e+003, 3.041445e+003
1.131637e+003, 3.040632e+003
1.132120e+003, 3.039152e+003
1.132602e+003, 3.032445e+003
1.133084e+003, 3.023690e+003
1.133566e+003, 3.017771e+003
1.134048e+003, 3.016453e+003
1.134530e+003, 3.013138e+003
1.135012e+003, 3.007217e+003
1.135494e+003, 3.001613e+003
1.135976e+003, 2.998545e+003
1.136458e+003, 2.996690e+003
1.136941e+003, 2.994588e+003
1.137423e+003, 2.991963e+003
1.137905e+003, 2.988152e+003
1.138387e+003, 2.981771e+003
1.138869e+003, 2.975859e+003
1.139351e+003, 2.970507e+003
1.139833e+003, 2.965851e+003
1.140315e+003, 2.962800e+003
1.140798e+003, 2.960370e+003
1.141280e+003, 2.955668e+003
1.141762e+003, 2.949014e+003
1.142244e+003, 2.943392e+003
1.142726e+003, 2.942094e+003
1.143208e+003, 2.938962e+003
1.143690e+003, 2.931833e+003
1.144172e+003, 2.923271e+003
1.144655e+003, 2.917206e+003
1.145137e+003, 2.913124e+003
1.145619e+003, 2.908723e+003
1.146101e+003, 2.903774e+003
1.146583e+003, 2.897820e+003
1.147065e+003, 2.886996e+003
1.147547e+003, 2.879354e+003
1.148029e+003, 2.880458e+003
1.148511e+003, 2.886277e+003
1.148994e+003, 2.884687e+003
1.149476e+003, 2.876487e+003
1.149958e+003, 2.868412e+003
1.150440e+003, 2.861609e+003
1.150922e+003, 2.856852e+003
1.151404e+003, 2.856319e+003
1.151886e+003, 2.856619e+003
1.152368e+003, 2.855088e+003
1.152851e+003, 2.851874e+003
1.153333e+003, 2.848888e+003
1.153815e+003, 2.846095e+003
1.154297e+003, 2.843575e+003
1.154779e+003, 2.841657e+003
1.155261e+003, 2.839253e+003
1.155743e+003, 2.834630e+003
1.156225e+003, 2.829431e+003
1.156708e+003, 2.825602e+003
1.157190e+003, 2.823252e+003
1.157672e+003, 2.822153e+003
1.158154e+003, 2.822646e+003
1.158636e+003, 2.821561e+003
1.159118e+003, 2.816171e+003
1.159600e+003, 2.809498e+003
1.160082e+003, 2.804244e+003
1.160564e+003, 2.800360e+003
1.161047e+003, 2.797855e+003
1.161529e+003, 2.797280e+003
1.162011e+003, 2.796874e+003
1.162493e+003, 2.796733e+003
1.162975e+003, 2.796481e+003
1.163457e+003, 2.795915e+003
1.163939e+003, 2.795000e+003
1.164421e+003, 2.793462e+003
1.164903e+003, 2.791511e+003
1.165385e+003, 2.789795e+003
1.165868e+003, 2.788664e+003
1.166350e+003, 2.787271e+003
1.166832e+003, 2.785467e+003
1.167314e+003, 2.783526e+003
1.167796e+003, 2.781151e+003
1.168278e+003, 2.779128e+003
1.168760e+003, 2.779543e+003
1.169242e+003, 2.782008e+003
1.169725e+003, 2.783409e+003
1.170207e+003, 2.782413e+003
1.170689e+003, 2.780691e+003
1.171171e+003, 2.777973e+003
1.171653e+003, 2.775685e+003
1.172135e+003, 2.775265e+003
1.172617e+003, 2.776999e+003
1.173099e+003, 2.783272e+003
1.173582e+003, 2.794113e+003
1.174064e+003, 2.800740e+003
1.174546e+003, 2.797651e+003
1.175028e+003, 2.792301e+003
1.175510e+003, 2.785614e+003
1.175992e+003, 2.778855e+003
1.176474e+003, 2.774241e+003
1.176956e+003, 2.771768e+003
1.177438e+003, 2.772615e+003
1.177921e+003, 2.777646e+003
1.178403e+003, 2.779997e+003
1.178885e+003, 2.773511e+003
1.179367e+003, 2.767555e+003
1.179849e+003, 2.765776e+003
1.180331e+003, 2.767228e+003
1.180813e+003, 2.770621e+003
1.181295e+003, 2.774882e+003
1.181778e+003, 2.775337e+003
1.182260e+003, 2.769362e+003
1.182742e+003, 2.764496e+003
1.183224e+003, 2.764419e+003
1.183706e+003, 2.766289e+003
1.184188e+003, 2.768889e+003
1.184670e+003, 2.772013e+003
1.185152e+003, 2.774856e+003
1.185635e+003, 2.777190e+003
1.186117e+003, 2.777884e+003
1.186599e+003, 2.775611e+003
1.187081e+003, 2.773458e+003
1.187563e+003, 2.773883e+003
1.188045e+003, 2.774133e+003
1.188527e+003, 2.771365e+003
1.189009e+003, 2.766107e+003
1.189491e+003, 2.765292e+003
1.189974e+003, 2.768522e+003
1.190456e+003, 2.772949e+003
1.190938e+003, 2.779201e+003
1.191420e+003, 2.783539e+003
1.191902e+003, 2.783656e+003
1.192384e+003, 2.781194e+003
1.192866e+003, 2.777058e+003
1.193348e+003, 2.771146e+003
1.193830e+003, 2.768602e+003
1.194313e+003, 2.769258e+003
1.194795e+003, 2.771125e+003
1.195277e+003, 2.774537e+003
1.195759e+003, 2.777128e+003
1.196241e+003, 2.777013e+003
1.196723e+003, 2.775627e+003
1.197205e+003, 2.774844e+003
1.197687e+003, 2.774710e+003
1.198169e+003, 2.773749e+003
1.198652e+003, 2.771954e+003
1.199134e+003, 2.770193e+003
1.199616e+003, 2.768620e+003
1.200098e+003, 2.767785e+003
1.200580e+003, 2.769094e+003
1.201062e+003, 2.770898e+003
1.201544e+003, 2.769712e+003
1.202026e+003, 2.765371e+003
1.202509e+003, 2.765590e+003
1.202991e+003, 2.771080e+003
1.203473e+003, 2.776162e+003
1.203955e+003, 2.776382e+003
1.204437e+003, 2.775141e+003
1.204919e+003, 2.773813e+003
1.205401e+003, 2.772852e+003
1.205883e+003, 2.773380e+003
1.206365e+003, 2.775410e+003
1.206848e+003, 2.776935e+003
1.207330e+003, 2.777654e+003
1.207812e+003, 2.778185e+003
1.208294e+003, 2.779081e+003
1.208776e+003, 2.779889e+003
1.209258e+003, 2.780187e+003
1.209740e+003, 2.780165e+003
1.210222e+003, 2.780590e+003
1.210705e+003, 2.781502e+003
1.211187e+003, 2.780640e+003
1.211669e+003, 2.777333e+003
1.212151e+003, 2.775022e+003
1.212633e+003, 2.778114e+003
1.213115e+003, 2.781852e+003
1.213597e+003, 2.782532e+003
1.214079e+003, 2.780915e+003
1.214562e+003, 2.779347e+003
1.215044e+003, 2.777855e+003
1.215526e+003, 2.777482e+003
1.216008e+003, 2.778572e+003
1.216490e+003, 2.780165e+003
1.216972e+003, 2.782311e+003
1.217454e+003, 2.783887e+003
1.217936e+003, 2.783407e+003
1.218418e+003, 2.781498e+003
1.218901e+003, 2.781431e+003
1.219383e+003, 2.783125e+003
1.219865e+003, 2.785903e+003
1.220347e+003, 2.790222e+003
1.220829e+003, 2.792848e+003
1.221311e+003, 2.789699e+003
1.221793e+003, 2.785310e+003
1.222275e+003, 2.782874e+003
1.222757e+003, 2.782299e+003
1.223240e+003, 2.782880e+003
1.223722e+003, 2.784542e+003
1.224204e+003, 2.786122e+003
1.224686e+003, 2.787546e+003
1.225168e+003, 2.788018e+003
1.225650e+003, 2.785552e+003
1.226132e+003, 2.783353e+003
1.226614e+003, 2.784338e+003
1.227096e+003, 2.787965e+003
1.227579e+003, 2.788948e+003
1.228061e+003, 2.787552e+003
1.228543e+003, 2.785953e+003
1.229025e+003, 2.784614e+003
1.229507e+003, 2.784091e+003
1.229989e+003, 2.785355e+003
1.230471e+003, 2.786987e+003
1.230953e+003, 2.787949e+003
1.231436e+003, 2.788245e+003
1.231918e+003, 2.787841e+003
1.232400e+003, 2.786831e+003
1.232882e+003, 2.785997e+003
1.233364e+003, 2.785768e+003
1.233846e+003, 2.785563e+003
1.234328e+003, 2.784429e+003
1.234810e+003, 2.783908e+003
1.235292e+003, 2.785548e+003
1.235775e+003, 2.788939e+003
1.236257e+003, 2.790634e+003
1.236739e+003, 2.790885e+003
1.237221e+003, 2.790991e+003
1.237703e+003, 2.791161e+003
1.238185e+003, 2.791887e+003
1.238667e+003, 2.793383e+003
1.239149e+003, 2.795495e+003
1.239632e+003, 2.798379e+003
1.240114e+003, 2.801811e+003
1.240596e+003, 2.805601e+003
1.241078e+003, 2.809133e+003
1.241560e+003, 2.809922e+003
1.242042e+003, 2.804116e+003
1.242524e+003, 2.799261e+003
1.243006e+003, 2.796151e+003
1.243489e+003, 2.795855e+003
1.243971e+003, 2.801616e+003
1.244453e+003, 2.810883e+003
1.244935e+003, 2.811393e+003
1.245417e+003, 2.805412e+003
1.245899e+003, 2.801413e+003
1.246381e+003, 2.805805e+003
1.246863e+003, 2.808006e+003
1.247345e+003, 2.805150e+003
1.247828e+003, 2.802358e+003
1.248310e+003, 2.805101e+003
1.248792e+003, 2.810948e+003
1.249274e+003, 2.813403e+003
1.249756e+003, 2.813142e+003
1.250238e+003, 2.812777e+003
1.250720e+003, 2.813286e+003
1.251202e+003, 2.813542e+003
1.251684e+003, 2.812990e+003
1.252167e+003, 2.813246e+003
1.252649e+003, 2.816620e+003
1.253131e+003, 2.821305e+003
1.253613e+003, 2.823785e+003
1.254095e+003, 2.824481e+003
1.254577e+003, 2.825042e+003
1.255059e+003, 2.827078e+003
1.255541e+003, 2.826046e+003
1.256023e+003, 2.820622e+003
1.256506e+003, 2.815826e+003
1.256988e+003, 2.816875e+003
1.257470e+003, 2.820712e+003
1.257952e+003, 2.824324e+003
1.258434e+003, 2.827047e+003
1.258916e+003, 2.826715e+003
1.259398e+003, 2.821296e+003
1.259880e+003, 2.818698e+003
1.260363e+003, 2.819625e+003
1.260845e+003, 2.822004e+003
1.261327e+003, 2.825655e+003
1.261809e+003, 2.828554e+003
1.262291e+003, 2.827860e+003
1.262773e+003, 2.824827e+003
1.263255e+003, 2.822963e+003
1.263737e+003, 2.822672e+003
1.264219e+003, 2.822179e+003
1.264702e+003, 2.821350e+003
1.265184e+003, 2.820471e+003
1.265666e+003, 2.818822e+003
1.266148e+003, 2.818131e+003
1.266630e+003, 2.820906e+003
1.267112e+003, 2.825267e+003
1.267594e+003, 2.827208e+003
1.268076e+003, 2.826604e+003
1.268559e+003, 2.825801e+003
1.269041e+003, 2.824967e+003
1.269523e+003, 2.824395e+003
1.270005e+003, 2.823903e+003
1.270487e+003, 2.824137e+003
1.270969e+003, 2.826325e+003
1.271451e+003, 2.828954e+003
1.271933e+003, 2.829934e+003
1.272416e+003, 2.829347e+003
1.272898e+003, 2.827951e+003
1.273380e+003, 2.825973e+003
1.273862e+003, 2.825555e+003
1.274344e+003, 2.830447e+003
1.274826e+003, 2.833830e+003
1.275308e+003, 2.832330e+003
1.275790e+003, 2.829485e+003
1.276272e+003, 2.830284e+003
1.276755e+003, 2.833526e+003
1.277237e+003, 2.834546e+003
1.277719e+003, 2.833326e+003
1.278201e+003, 2.831824e+003
1.278683e+003, 2.829577e+003
1.279165e+003, 2.829371e+003
1.279647e+003, 2.832579e+003
1.280129e+003, 2.836153e+003
1.280611e+003, 2.835713e+003
1.281094e+003, 2.833555e+003
1.281576e+003, 2.834804e+003
1.282058e+003, 2.839092e+003
1.282540e+003, 2.843296e+003
1.283022e+003, 2.846892e+003
1.283504e+003, 2.850001e+003
1.283986e+003, 2.853028e+003
1.284468e+003, 2.854106e+003
1.284950e+003, 2.849317e+003
1.285433e+003, 2.842896e+003
1.285915e+003, 2.839600e+003
1.286397e+003, 2.839688e+003
1.286879e+003, 2.843924e+003
1.287361e+003, 2.854510e+003
1.287843e+003, 2.859139e+003
1.288325e+003, 2.856089e+003
1.288807e+003, 2.852366e+003
1.289290e+003, 2.853804e+003
1.289772e+003, 2.857387e+003
1.290254e+003, 2.862661e+003
1.290736e+003, 2.867335e+003
1.291218e+003, 2.866224e+003
1.291700e+003, 2.858691e+003
1.292182e+003, 2.853616e+003
1.292664e+003, 2.851572e+003
1.293146e+003, 2.851504e+003
1.293629e+003, 2.854404e+003
1.294111e+003, 2.857145e+003
1.294593e+003, 2.858085e+003
1.295075e+003, 2.857656e+003
1.295557e+003, 2.855397e+003
1.296039e+003, 2.851828e+003
1.296521e+003, 2.851681e+003
1.297003e+003, 2.854813e+003
1.297486e+003, 2.858196e+003
1.297968e+003, 2.862672e+003
1.298450e+003, 2.863974e+003
1.298932e+003, 2.860031e+003
1.299414e+003, 2.854910e+003
1.299896e+003, 2.853176e+003
1.300378e+003, 2.853888e+003
1.300860e+003, 2.854640e+003
1.301343e+003, 2.855497e+003
1.301825e+003, 2.857025e+003
##END=



