##NAMES=Microcline
##RRUFFID=R120005
##IDEAL CHEMISTRY=KAlSi_3_O_8_
##LOCALITY=Mount Malosa, Zomba District, Malawi
##OWNER=RRUFF
##SOURCE=Marcus Origlieri
##DESCRIPTION=Tan colored euhedral crystals associated with black arfvedsonite
##STATUS=The identification of this mineral has been confirmed by single-crystal X-ray diffraction.
##URL=rruff.info/R120005
9.001007e+001, 0.000000e+000
9.049219e+001, 1.327043e+002
9.097430e+001, 1.334732e+002
9.145642e+001, 1.332727e+002
9.193854e+001, 1.321874e+002
9.242065e+001, 1.309245e+002
9.290277e+001, 1.301646e+002
9.338489e+001, 1.296631e+002
9.386700e+001, 1.288421e+002
9.434912e+001, 1.273100e+002
9.483124e+001, 1.253954e+002
9.531335e+001, 1.238366e+002
9.579547e+001, 1.226673e+002
9.627759e+001, 1.215706e+002
9.675970e+001, 1.200866e+002
9.724182e+001, 1.182538e+002
9.772394e+001, 1.165252e+002
9.820605e+001, 1.150822e+002
9.868817e+001, 1.139076e+002
9.917029e+001, 1.128656e+002
9.965240e+001, 1.119510e+002
1.001345e+002, 1.111571e+002
1.006166e+002, 1.105409e+002
1.010988e+002, 1.101505e+002
1.015809e+002, 1.097008e+002
1.020630e+002, 1.090349e+002
1.025451e+002, 1.081167e+002
1.030272e+002, 1.071268e+002
1.035093e+002, 1.060517e+002
1.039915e+002, 1.049149e+002
1.044736e+002, 1.037675e+002
1.049557e+002, 1.026252e+002
1.054378e+002, 1.014616e+002
1.059199e+002, 1.002120e+002
1.064020e+002, 9.858103e+001
1.068842e+002, 9.740734e+001
1.073663e+002, 9.697427e+001
1.078484e+002, 9.729982e+001
1.083305e+002, 9.723685e+001
1.088126e+002, 9.653281e+001
1.092947e+002, 9.558250e+001
1.097769e+002, 9.474068e+001
1.102590e+002, 9.330280e+001
1.107411e+002, 9.269314e+001
1.112232e+002, 9.375985e+001
1.117053e+002, 9.733105e+001
1.121874e+002, 9.895012e+001
1.126696e+002, 9.685629e+001
1.131517e+002, 9.300961e+001
1.136338e+002, 8.995033e+001
1.141159e+002, 8.848621e+001
1.145980e+002, 8.752562e+001
1.150801e+002, 8.674793e+001
1.155623e+002, 8.626211e+001
1.160444e+002, 8.561324e+001
1.165265e+002, 8.455273e+001
1.170086e+002, 8.323347e+001
1.174907e+002, 8.201462e+001
1.179728e+002, 8.090416e+001
1.184550e+002, 7.999372e+001
1.189371e+002, 7.939793e+001
1.194192e+002, 7.945348e+001
1.199013e+002, 7.934456e+001
1.203834e+002, 7.841959e+001
1.208655e+002, 7.689307e+001
1.213477e+002, 7.559907e+001
1.218298e+002, 7.514580e+001
1.223119e+002, 7.512257e+001
1.227940e+002, 7.507175e+001
1.232761e+002, 7.443058e+001
1.237582e+002, 7.409179e+001
1.242404e+002, 7.529367e+001
1.247225e+002, 7.789112e+001
1.252046e+002, 8.009817e+001
1.256867e+002, 8.052260e+001
1.261688e+002, 7.959059e+001
1.266509e+002, 7.805926e+001
1.271331e+002, 7.554203e+001
1.276152e+002, 7.282832e+001
1.280973e+002, 7.125024e+001
1.285794e+002, 7.087639e+001
1.290615e+002, 7.080833e+001
1.295436e+002, 7.017915e+001
1.300258e+002, 6.906332e+001
1.305079e+002, 6.781300e+001
1.309900e+002, 6.619103e+001
1.314721e+002, 6.452205e+001
1.319542e+002, 6.395092e+001
1.324363e+002, 6.472160e+001
1.329185e+002, 6.594104e+001
1.334006e+002, 6.627292e+001
1.338827e+002, 6.571709e+001
1.343648e+002, 6.498705e+001
1.348469e+002, 6.445555e+001
1.353290e+002, 6.410332e+001
1.358112e+002, 6.361699e+001
1.362933e+002, 6.291856e+001
1.367754e+002, 6.215015e+001
1.372575e+002, 6.168827e+001
1.377396e+002, 6.159249e+001
1.382217e+002, 6.152381e+001
1.387039e+002, 6.123962e+001
1.391860e+002, 6.069896e+001
1.396681e+002, 6.023270e+001
1.401502e+002, 5.990873e+001
1.406323e+002, 5.968018e+001
1.411144e+002, 5.931211e+001
1.415966e+002, 5.874639e+001
1.420787e+002, 5.814817e+001
1.425608e+002, 5.764173e+001
1.430429e+002, 5.725317e+001
1.435250e+002, 5.688846e+001
1.440071e+002, 5.653731e+001
1.444893e+002, 5.620231e+001
1.449714e+002, 5.586301e+001
1.454535e+002, 5.548396e+001
1.459356e+002, 5.513732e+001
1.464177e+002, 5.488765e+001
1.468998e+002, 5.466964e+001
1.473820e+002, 5.465321e+001
1.478641e+002, 5.500704e+001
1.483462e+002, 5.585253e+001
1.488283e+002, 5.618524e+001
1.493104e+002, 5.559728e+001
1.497925e+002, 5.469005e+001
1.502747e+002, 5.414657e+001
1.507568e+002, 5.404610e+001
1.512389e+002, 5.423820e+001
1.517210e+002, 5.474742e+001
1.522031e+002, 5.567165e+001
1.526852e+002, 5.658760e+001
1.531674e+002, 5.736788e+001
1.536495e+002, 5.816835e+001
1.541316e+002, 5.921811e+001
1.546137e+002, 6.051389e+001
1.550958e+002, 6.207877e+001
1.555779e+002, 6.391911e+001
1.560601e+002, 6.602522e+001
1.565422e+002, 6.841725e+001
1.570243e+002, 7.102712e+001
1.575064e+002, 7.391777e+001
1.579885e+002, 7.721104e+001
1.584706e+002, 8.087673e+001
1.589528e+002, 8.499233e+001
1.594349e+002, 8.961328e+001
1.599170e+002, 9.485860e+001
1.603991e+002, 1.004130e+002
1.608812e+002, 1.059546e+002
1.613633e+002, 1.117085e+002
1.618455e+002, 1.182648e+002
1.623276e+002, 1.260729e+002
1.628097e+002, 1.345551e+002
1.632918e+002, 1.435116e+002
1.637739e+002, 1.527839e+002
1.642560e+002, 1.625658e+002
1.647382e+002, 1.732664e+002
1.652203e+002, 1.846556e+002
1.657024e+002, 1.958535e+002
1.661845e+002, 2.066035e+002
1.666666e+002, 2.169452e+002
1.671487e+002, 2.267651e+002
1.676309e+002, 2.358023e+002
1.681130e+002, 2.447127e+002
1.685951e+002, 2.541563e+002
1.690772e+002, 2.639746e+002
1.695593e+002, 2.729411e+002
1.700414e+002, 2.794911e+002
1.705236e+002, 2.850507e+002
1.710057e+002, 2.912472e+002
1.714878e+002, 2.991746e+002
1.719699e+002, 3.076118e+002
1.724520e+002, 3.153637e+002
1.729341e+002, 3.225234e+002
1.734163e+002, 3.298436e+002
1.738984e+002, 3.372291e+002
1.743805e+002, 3.452866e+002
1.748626e+002, 3.547546e+002
1.753447e+002, 3.669957e+002
1.758268e+002, 3.803727e+002
1.763090e+002, 3.931332e+002
1.767911e+002, 4.051621e+002
1.772732e+002, 4.171481e+002
1.777553e+002, 4.282980e+002
1.782374e+002, 4.378397e+002
1.787195e+002, 4.460324e+002
1.792017e+002, 4.534781e+002
1.796838e+002, 4.597102e+002
1.801659e+002, 4.631959e+002
1.806480e+002, 4.638312e+002
1.811301e+002, 4.642132e+002
1.816122e+002, 4.672715e+002
1.820944e+002, 4.723184e+002
1.825765e+002, 4.769977e+002
1.830586e+002, 4.800274e+002
1.835407e+002, 4.820485e+002
1.840228e+002, 4.845385e+002
1.845049e+002, 4.875298e+002
1.849871e+002, 4.908213e+002
1.854692e+002, 4.941422e+002
1.859513e+002, 4.975275e+002
1.864334e+002, 5.010117e+002
1.869155e+002, 5.048018e+002
1.873976e+002, 5.087352e+002
1.878798e+002, 5.124119e+002
1.883619e+002, 5.158514e+002
1.888440e+002, 5.188666e+002
1.893261e+002, 5.205989e+002
1.898082e+002, 5.212014e+002
1.902903e+002, 5.225850e+002
1.907725e+002, 5.261462e+002
1.912546e+002, 5.315315e+002
1.917367e+002, 5.362803e+002
1.922188e+002, 5.401024e+002
1.927009e+002, 5.437747e+002
1.931830e+002, 5.486458e+002
1.936652e+002, 5.546954e+002
1.941473e+002, 5.608353e+002
1.946294e+002, 5.661302e+002
1.951115e+002, 5.707056e+002
1.955936e+002, 5.764785e+002
1.960757e+002, 5.839670e+002
1.965579e+002, 5.919796e+002
1.970400e+002, 5.982969e+002
1.975221e+002, 6.028669e+002
1.980042e+002, 6.064387e+002
1.984863e+002, 6.096760e+002
1.989684e+002, 6.125861e+002
1.994506e+002, 6.138547e+002
1.999327e+002, 6.133380e+002
2.004148e+002, 6.112461e+002
2.008969e+002, 6.076204e+002
2.013790e+002, 6.021540e+002
2.018611e+002, 5.966547e+002
2.023433e+002, 5.920345e+002
2.028254e+002, 5.882990e+002
2.033075e+002, 5.853317e+002
2.037896e+002, 5.832211e+002
2.042717e+002, 5.818056e+002
2.047538e+002, 5.807994e+002
2.052360e+002, 5.802667e+002
2.057181e+002, 5.798592e+002
2.062002e+002, 5.792913e+002
2.066823e+002, 5.784677e+002
2.071644e+002, 5.780721e+002
2.076465e+002, 5.782883e+002
2.081287e+002, 5.788791e+002
2.086108e+002, 5.791337e+002
2.090929e+002, 5.789607e+002
2.095750e+002, 5.786903e+002
2.100571e+002, 5.784480e+002
2.105392e+002, 5.781559e+002
2.110214e+002, 5.782802e+002
2.115035e+002, 5.790011e+002
2.119856e+002, 5.801282e+002
2.124677e+002, 5.810124e+002
2.129498e+002, 5.816159e+002
2.134319e+002, 5.821042e+002
2.139140e+002, 5.825456e+002
2.143962e+002, 5.828867e+002
2.148783e+002, 5.834424e+002
2.153604e+002, 5.843395e+002
2.158425e+002, 5.854634e+002
2.163246e+002, 5.862751e+002
2.168067e+002, 5.866434e+002
2.172889e+002, 5.869581e+002
2.177710e+002, 5.875104e+002
2.182531e+002, 5.884746e+002
2.187352e+002, 5.890656e+002
2.192173e+002, 5.888831e+002
2.196994e+002, 5.882610e+002
2.201816e+002, 5.889006e+002
2.206637e+002, 5.913552e+002
2.211458e+002, 5.940897e+002
2.216279e+002, 5.961307e+002
2.221100e+002, 5.973098e+002
2.225921e+002, 5.982556e+002
2.230743e+002, 5.989348e+002
2.235564e+002, 5.994199e+002
2.240385e+002, 6.001083e+002
2.245206e+002, 6.011433e+002
2.250027e+002, 6.021571e+002
2.254848e+002, 6.029391e+002
2.259670e+002, 6.034774e+002
2.264491e+002, 6.038176e+002
2.269312e+002, 6.038596e+002
2.274133e+002, 6.037073e+002
2.278954e+002, 6.038672e+002
2.283775e+002, 6.044729e+002
2.288597e+002, 6.051995e+002
2.293418e+002, 6.058155e+002
2.298239e+002, 6.061467e+002
2.303060e+002, 6.067629e+002
2.307881e+002, 6.077761e+002
2.312702e+002, 6.091022e+002
2.317524e+002, 6.103605e+002
2.322345e+002, 6.116156e+002
2.327166e+002, 6.126602e+002
2.331987e+002, 6.132568e+002
2.336808e+002, 6.129179e+002
2.341629e+002, 6.131897e+002
2.346451e+002, 6.143567e+002
2.351272e+002, 6.162109e+002
2.356093e+002, 6.179359e+002
2.360914e+002, 6.197198e+002
2.365735e+002, 6.211198e+002
2.370556e+002, 6.217463e+002
2.375378e+002, 6.208427e+002
2.380199e+002, 6.208649e+002
2.385020e+002, 6.221906e+002
2.389841e+002, 6.245623e+002
2.394662e+002, 6.268764e+002
2.399483e+002, 6.291071e+002
2.404305e+002, 6.313583e+002
2.409126e+002, 6.337662e+002
2.413947e+002, 6.366257e+002
2.418768e+002, 6.389940e+002
2.423589e+002, 6.405643e+002
2.428410e+002, 6.416318e+002
2.433232e+002, 6.432590e+002
2.438053e+002, 6.454893e+002
2.442874e+002, 6.482095e+002
2.447695e+002, 6.514055e+002
2.452516e+002, 6.554266e+002
2.457337e+002, 6.591172e+002
2.462159e+002, 6.622024e+002
2.466980e+002, 6.649575e+002
2.471801e+002, 6.682831e+002
2.476622e+002, 6.726382e+002
2.481443e+002, 6.768937e+002
2.486264e+002, 6.802399e+002
2.491086e+002, 6.815530e+002
2.495907e+002, 6.847466e+002
2.500728e+002, 6.904420e+002
2.505549e+002, 6.978976e+002
2.510370e+002, 7.051953e+002
2.515191e+002, 7.123756e+002
2.520013e+002, 7.193781e+002
2.524834e+002, 7.262892e+002
2.529655e+002, 7.331411e+002
2.534476e+002, 7.396140e+002
2.539297e+002, 7.453790e+002
2.544118e+002, 7.509113e+002
2.548940e+002, 7.576096e+002
2.553761e+002, 7.664541e+002
2.558582e+002, 7.747625e+002
2.563403e+002, 7.813789e+002
2.568224e+002, 7.860304e+002
2.573046e+002, 7.898633e+002
2.577867e+002, 7.930546e+002
2.582688e+002, 7.952618e+002
2.587509e+002, 7.955630e+002
2.592330e+002, 7.931285e+002
2.597151e+002, 7.904402e+002
2.601973e+002, 7.882218e+002
2.606794e+002, 7.863389e+002
2.611615e+002, 7.856910e+002
2.616436e+002, 7.864247e+002
2.621257e+002, 7.882721e+002
2.626078e+002, 7.909849e+002
2.630900e+002, 7.949749e+002
2.635721e+002, 7.988510e+002
2.640542e+002, 8.022234e+002
2.645363e+002, 8.052020e+002
2.650184e+002, 8.073790e+002
2.655005e+002, 8.089946e+002
2.659827e+002, 8.096320e+002
2.664648e+002, 8.087140e+002
2.669469e+002, 8.061999e+002
2.674290e+002, 8.022464e+002
2.679111e+002, 7.965682e+002
2.683932e+002, 7.890691e+002
2.688754e+002, 7.814924e+002
2.693575e+002, 7.734988e+002
2.698396e+002, 7.659230e+002
2.703217e+002, 7.600752e+002
2.708038e+002, 7.562863e+002
2.712859e+002, 7.528844e+002
2.717681e+002, 7.491921e+002
2.722502e+002, 7.452720e+002
2.727323e+002, 7.431293e+002
2.732144e+002, 7.431357e+002
2.736965e+002, 7.442325e+002
2.741786e+002, 7.452557e+002
2.746608e+002, 7.460753e+002
2.751429e+002, 7.475760e+002
2.756250e+002, 7.499131e+002
2.761071e+002, 7.530845e+002
2.765892e+002, 7.572943e+002
2.770714e+002, 7.625653e+002
2.775535e+002, 7.686282e+002
2.780356e+002, 7.752173e+002
2.785177e+002, 7.823140e+002
2.789998e+002, 7.901047e+002
2.794819e+002, 7.987305e+002
2.799641e+002, 8.080760e+002
2.804462e+002, 8.172363e+002
2.809283e+002, 8.261484e+002
2.814104e+002, 8.352502e+002
2.818925e+002, 8.456475e+002
2.823746e+002, 8.573900e+002
2.828568e+002, 8.672473e+002
2.833389e+002, 8.748114e+002
2.838210e+002, 8.801122e+002
2.843031e+002, 8.832820e+002
2.847852e+002, 8.843848e+002
2.852673e+002, 8.830704e+002
2.857495e+002, 8.789778e+002
2.862316e+002, 8.721818e+002
2.867137e+002, 8.633948e+002
2.871958e+002, 8.527160e+002
2.876779e+002, 8.401071e+002
2.881600e+002, 8.245576e+002
2.886422e+002, 8.060058e+002
2.891243e+002, 7.877249e+002
2.896064e+002, 7.717698e+002
2.900885e+002, 7.579211e+002
2.905706e+002, 7.460616e+002
2.910527e+002, 7.363237e+002
2.915349e+002, 7.281523e+002
2.920170e+002, 7.208016e+002
2.924991e+002, 7.143135e+002
2.929812e+002, 7.085358e+002
2.934633e+002, 7.035085e+002
2.939454e+002, 6.991719e+002
2.944276e+002, 6.954434e+002
2.949097e+002, 6.923731e+002
2.953918e+002, 6.898347e+002
2.958739e+002, 6.879975e+002
2.963560e+002, 6.867121e+002
2.968381e+002, 6.851661e+002
2.973203e+002, 6.825588e+002
2.978024e+002, 6.795294e+002
2.982845e+002, 6.774893e+002
2.987666e+002, 6.765303e+002
2.992487e+002, 6.758599e+002
2.997308e+002, 6.747193e+002
3.002130e+002, 6.732105e+002
3.006951e+002, 6.716434e+002
3.011772e+002, 6.700743e+002
3.016593e+002, 6.685526e+002
3.021414e+002, 6.671119e+002
3.026235e+002, 6.657625e+002
3.031057e+002, 6.645213e+002
3.035878e+002, 6.634479e+002
3.040699e+002, 6.624977e+002
3.045520e+002, 6.616177e+002
3.050341e+002, 6.608553e+002
3.055162e+002, 6.601022e+002
3.059984e+002, 6.592306e+002
3.064805e+002, 6.582584e+002
3.069626e+002, 6.572442e+002
3.074447e+002, 6.560502e+002
3.079268e+002, 6.549005e+002
3.084089e+002, 6.541085e+002
3.088911e+002, 6.538020e+002
3.093732e+002, 6.537998e+002
3.098553e+002, 6.542834e+002
3.103374e+002, 6.550384e+002
3.108195e+002, 6.553403e+002
3.113016e+002, 6.542102e+002
3.117838e+002, 6.527302e+002
3.122659e+002, 6.518680e+002
3.127480e+002, 6.519325e+002
3.132301e+002, 6.523456e+002
3.137122e+002, 6.527751e+002
3.141943e+002, 6.532994e+002
3.146765e+002, 6.540780e+002
3.151586e+002, 6.556891e+002
3.156407e+002, 6.572220e+002
3.161228e+002, 6.580439e+002
3.166049e+002, 6.579286e+002
3.170870e+002, 6.577172e+002
3.175692e+002, 6.575606e+002
3.180513e+002, 6.575844e+002
3.185334e+002, 6.579675e+002
3.190155e+002, 6.594441e+002
3.194976e+002, 6.607146e+002
3.199797e+002, 6.609318e+002
3.204619e+002, 6.599156e+002
3.209440e+002, 6.594572e+002
3.214261e+002, 6.605211e+002
3.219082e+002, 6.621960e+002
3.223903e+002, 6.636160e+002
3.228724e+002, 6.643676e+002
3.233546e+002, 6.650619e+002
3.238367e+002, 6.658293e+002
3.243188e+002, 6.666705e+002
3.248009e+002, 6.675441e+002
3.252830e+002, 6.680817e+002
3.257651e+002, 6.688725e+002
3.262473e+002, 6.703012e+002
3.267294e+002, 6.732979e+002
3.272115e+002, 6.759296e+002
3.276936e+002, 6.778273e+002
3.281757e+002, 6.791545e+002
3.286578e+002, 6.807771e+002
3.291400e+002, 6.834304e+002
3.296221e+002, 6.858057e+002
3.301042e+002, 6.873580e+002
3.305863e+002, 6.876660e+002
3.310684e+002, 6.878743e+002
3.315505e+002, 6.882825e+002
3.320327e+002, 6.885235e+002
3.325148e+002, 6.877076e+002
3.329969e+002, 6.849608e+002
3.334790e+002, 6.822718e+002
3.339611e+002, 6.803414e+002
3.344432e+002, 6.794439e+002
3.349254e+002, 6.780721e+002
3.354075e+002, 6.759987e+002
3.358896e+002, 6.736230e+002
3.363717e+002, 6.714446e+002
3.368538e+002, 6.693891e+002
3.373359e+002, 6.677397e+002
3.378180e+002, 6.666341e+002
3.383001e+002, 6.660719e+002
3.387823e+002, 6.657115e+002
3.392644e+002, 6.656309e+002
3.397465e+002, 6.656379e+002
3.402286e+002, 6.655707e+002
3.407107e+002, 6.654444e+002
3.411928e+002, 6.652679e+002
3.416750e+002, 6.651355e+002
3.421571e+002, 6.649486e+002
3.426392e+002, 6.640745e+002
3.431213e+002, 6.623207e+002
3.436034e+002, 6.608981e+002
3.440855e+002, 6.610137e+002
3.445677e+002, 6.625848e+002
3.450498e+002, 6.633826e+002
3.455319e+002, 6.628745e+002
3.460140e+002, 6.619148e+002
3.464961e+002, 6.622612e+002
3.469782e+002, 6.638636e+002
3.474604e+002, 6.655682e+002
3.479425e+002, 6.666795e+002
3.484246e+002, 6.673539e+002
3.489067e+002, 6.681568e+002
3.493888e+002, 6.691564e+002
3.498709e+002, 6.700958e+002
3.503531e+002, 6.704440e+002
3.508352e+002, 6.704011e+002
3.513173e+002, 6.707108e+002
3.517994e+002, 6.718848e+002
3.522815e+002, 6.735437e+002
3.527636e+002, 6.750779e+002
3.532458e+002, 6.764803e+002
3.537279e+002, 6.778845e+002
3.542100e+002, 6.795105e+002
3.546921e+002, 6.811904e+002
3.551742e+002, 6.826436e+002
3.556563e+002, 6.838558e+002
3.561385e+002, 6.847369e+002
3.566206e+002, 6.849697e+002
3.571027e+002, 6.846937e+002
3.575848e+002, 6.846082e+002
3.580669e+002, 6.855872e+002
3.585490e+002, 6.867306e+002
3.590312e+002, 6.870724e+002
3.595133e+002, 6.860437e+002
3.599954e+002, 6.850927e+002
3.604775e+002, 6.852796e+002
3.609596e+002, 6.861640e+002
3.614417e+002, 6.867997e+002
3.619239e+002, 6.865043e+002
3.624060e+002, 6.861053e+002
3.628881e+002, 6.859358e+002
3.633702e+002, 6.859609e+002
3.638523e+002, 6.866228e+002
3.643344e+002, 6.886762e+002
3.648166e+002, 6.912309e+002
3.652987e+002, 6.932875e+002
3.657808e+002, 6.937591e+002
3.662629e+002, 6.945118e+002
3.667450e+002, 6.961922e+002
3.672271e+002, 6.988032e+002
3.677093e+002, 7.012343e+002
3.681914e+002, 7.030555e+002
3.686735e+002, 7.048364e+002
3.691556e+002, 7.069636e+002
3.696377e+002, 7.097795e+002
3.701198e+002, 7.124672e+002
3.706020e+002, 7.152881e+002
3.710841e+002, 7.179911e+002
3.715662e+002, 7.196910e+002
3.720483e+002, 7.202972e+002
3.725304e+002, 7.199778e+002
3.730125e+002, 7.187406e+002
3.734947e+002, 7.164380e+002
3.739768e+002, 7.136042e+002
3.744589e+002, 7.100283e+002
3.749410e+002, 7.060574e+002
3.754231e+002, 7.022286e+002
3.759052e+002, 6.984326e+002
3.763874e+002, 6.950322e+002
3.768695e+002, 6.921186e+002
3.773516e+002, 6.896770e+002
3.778337e+002, 6.880742e+002
3.783158e+002, 6.874346e+002
3.787979e+002, 6.872625e+002
3.792801e+002, 6.872835e+002
3.797622e+002, 6.875367e+002
3.802443e+002, 6.871668e+002
3.807264e+002, 6.856765e+002
3.812085e+002, 6.837296e+002
3.816906e+002, 6.831552e+002
3.821728e+002, 6.839616e+002
3.826549e+002, 6.852621e+002
3.831370e+002, 6.866546e+002
3.836191e+002, 6.880687e+002
3.841012e+002, 6.891452e+002
3.845833e+002, 6.897792e+002
3.850655e+002, 6.902838e+002
3.855476e+002, 6.910842e+002
3.860297e+002, 6.921117e+002
3.865118e+002, 6.930961e+002
3.869939e+002, 6.938574e+002
3.874760e+002, 6.945314e+002
3.879582e+002, 6.952864e+002
3.884403e+002, 6.961381e+002
3.889224e+002, 6.971428e+002
3.894045e+002, 6.986977e+002
3.898866e+002, 7.003485e+002
3.903687e+002, 7.014198e+002
3.908509e+002, 7.011368e+002
3.913330e+002, 7.008109e+002
3.918151e+002, 7.016229e+002
3.922972e+002, 7.032796e+002
3.927793e+002, 7.045799e+002
3.932614e+002, 7.041876e+002
3.937436e+002, 7.036827e+002
3.942257e+002, 7.043098e+002
3.947078e+002, 7.067814e+002
3.951899e+002, 7.091496e+002
3.956720e+002, 7.103726e+002
3.961541e+002, 7.111056e+002
3.966363e+002, 7.124066e+002
3.971184e+002, 7.150475e+002
3.976005e+002, 7.178071e+002
3.980826e+002, 7.200928e+002
3.985647e+002, 7.217340e+002
3.990468e+002, 7.241389e+002
3.995290e+002, 7.286091e+002
4.000111e+002, 7.332396e+002
4.004932e+002, 7.365060e+002
4.009753e+002, 7.374967e+002
4.014574e+002, 7.383542e+002
4.019395e+002, 7.393917e+002
4.024217e+002, 7.404710e+002
4.029038e+002, 7.409328e+002
4.033859e+002, 7.408862e+002
4.038680e+002, 7.400698e+002
4.043501e+002, 7.382131e+002
4.048322e+002, 7.349879e+002
4.053144e+002, 7.319018e+002
4.057965e+002, 7.289524e+002
4.062786e+002, 7.261852e+002
4.067607e+002, 7.235593e+002
4.072428e+002, 7.209542e+002
4.077249e+002, 7.191743e+002
4.082071e+002, 7.187966e+002
4.086892e+002, 7.195408e+002
4.091713e+002, 7.195074e+002
4.096534e+002, 7.185508e+002
4.101355e+002, 7.176412e+002
4.106176e+002, 7.178849e+002
4.110998e+002, 7.190555e+002
4.115819e+002, 7.198964e+002
4.120640e+002, 7.202455e+002
4.125461e+002, 7.200101e+002
4.130282e+002, 7.188715e+002
4.135103e+002, 7.169259e+002
4.139925e+002, 7.147413e+002
4.144746e+002, 7.124890e+002
4.149567e+002, 7.102338e+002
4.154388e+002, 7.080598e+002
4.159209e+002, 7.059355e+002
4.164030e+002, 7.040637e+002
4.168852e+002, 7.027410e+002
4.173673e+002, 7.017460e+002
4.178494e+002, 7.007104e+002
4.183315e+002, 6.991387e+002
4.188136e+002, 6.977754e+002
4.192957e+002, 6.972836e+002
4.197779e+002, 6.975406e+002
4.202600e+002, 6.976576e+002
4.207421e+002, 6.970172e+002
4.212242e+002, 6.962291e+002
4.217063e+002, 6.957527e+002
4.221884e+002, 6.957600e+002
4.226706e+002, 6.959091e+002
4.231527e+002, 6.963100e+002
4.236348e+002, 6.967784e+002
4.241169e+002, 6.969691e+002
4.245990e+002, 6.960330e+002
4.250811e+002, 6.955681e+002
4.255633e+002, 6.962562e+002
4.260454e+002, 6.983119e+002
4.265275e+002, 6.999310e+002
4.270096e+002, 7.010895e+002
4.274917e+002, 7.018204e+002
4.279738e+002, 7.020155e+002
4.284560e+002, 7.009396e+002
4.289381e+002, 7.009218e+002
4.294202e+002, 7.027571e+002
4.299023e+002, 7.057004e+002
4.303844e+002, 7.071586e+002
4.308665e+002, 7.066840e+002
4.313487e+002, 7.059648e+002
4.318308e+002, 7.057038e+002
4.323129e+002, 7.058934e+002
4.327950e+002, 7.068191e+002
4.332771e+002, 7.086515e+002
4.337592e+002, 7.107903e+002
4.342414e+002, 7.124324e+002
4.347235e+002, 7.136326e+002
4.352056e+002, 7.149869e+002
4.356877e+002, 7.166359e+002
4.361698e+002, 7.185929e+002
4.366519e+002, 7.210453e+002
4.371341e+002, 7.239747e+002
4.376162e+002, 7.269213e+002
4.380983e+002, 7.295245e+002
4.385804e+002, 7.319558e+002
4.390625e+002, 7.344417e+002
4.395446e+002, 7.369441e+002
4.400268e+002, 7.397703e+002
4.405089e+002, 7.434368e+002
4.409910e+002, 7.476364e+002
4.414731e+002, 7.516777e+002
4.419552e+002, 7.553911e+002
4.424373e+002, 7.587683e+002
4.429195e+002, 7.615102e+002
4.434016e+002, 7.636478e+002
4.438837e+002, 7.664250e+002
4.443658e+002, 7.702802e+002
4.448479e+002, 7.750242e+002
4.453300e+002, 7.804691e+002
4.458122e+002, 7.869450e+002
4.462943e+002, 7.936771e+002
4.467764e+002, 8.006281e+002
4.472585e+002, 8.077670e+002
4.477406e+002, 8.150189e+002
4.482227e+002, 8.223426e+002
4.487049e+002, 8.298290e+002
4.491870e+002, 8.376620e+002
4.496691e+002, 8.458703e+002
4.501512e+002, 8.539760e+002
4.506333e+002, 8.623279e+002
4.511154e+002, 8.701188e+002
4.515976e+002, 8.765518e+002
4.520797e+002, 8.814172e+002
4.525618e+002, 8.856758e+002
4.530439e+002, 8.901514e+002
4.535260e+002, 8.937653e+002
4.540081e+002, 8.930433e+002
4.544903e+002, 8.876059e+002
4.549724e+002, 8.802448e+002
4.554545e+002, 8.719056e+002
4.559366e+002, 8.627861e+002
4.564187e+002, 8.534811e+002
4.569008e+002, 8.439252e+002
4.573830e+002, 8.349924e+002
4.578651e+002, 8.280064e+002
4.583472e+002, 8.226282e+002
4.588293e+002, 8.181221e+002
4.593114e+002, 8.140269e+002
4.597935e+002, 8.108184e+002
4.602757e+002, 8.091830e+002
4.607578e+002, 8.089888e+002
4.612399e+002, 8.095367e+002
4.617220e+002, 8.106353e+002
4.622041e+002, 8.121361e+002
4.626862e+002, 8.138857e+002
4.631684e+002, 8.158436e+002
4.636505e+002, 8.181341e+002
4.641326e+002, 8.206390e+002
4.646147e+002, 8.235536e+002
4.650968e+002, 8.271853e+002
4.655789e+002, 8.317687e+002
4.660611e+002, 8.368612e+002
4.665432e+002, 8.422940e+002
4.670253e+002, 8.480941e+002
4.675074e+002, 8.546965e+002
4.679895e+002, 8.620531e+002
4.684716e+002, 8.703380e+002
4.689538e+002, 8.795850e+002
4.694359e+002, 8.896764e+002
4.699180e+002, 9.008480e+002
4.704001e+002, 9.141437e+002
4.708822e+002, 9.278961e+002
4.713643e+002, 9.395687e+002
4.718465e+002, 9.485544e+002
4.723286e+002, 9.572459e+002
4.728107e+002, 9.666177e+002
4.732928e+002, 9.761522e+002
4.737749e+002, 9.838436e+002
4.742570e+002, 9.897613e+002
4.747392e+002, 9.931580e+002
4.752213e+002, 9.933134e+002
4.757034e+002, 9.903743e+002
4.761855e+002, 9.853206e+002
4.766676e+002, 9.782542e+002
4.771497e+002, 9.690833e+002
4.776319e+002, 9.569039e+002
4.781140e+002, 9.424221e+002
4.785961e+002, 9.280609e+002
4.790782e+002, 9.143962e+002
4.795603e+002, 9.017012e+002
4.800424e+002, 8.901865e+002
4.805246e+002, 8.798322e+002
4.810067e+002, 8.708719e+002
4.814888e+002, 8.634703e+002
4.819709e+002, 8.574802e+002
4.824530e+002, 8.530222e+002
4.829352e+002, 8.507104e+002
4.834173e+002, 8.484156e+002
4.838994e+002, 8.457532e+002
4.843815e+002, 8.424556e+002
4.848636e+002, 8.381501e+002
4.853457e+002, 8.322189e+002
4.858279e+002, 8.258379e+002
4.863100e+002, 8.189561e+002
4.867921e+002, 8.115766e+002
4.872742e+002, 8.051243e+002
4.877563e+002, 7.993763e+002
4.882384e+002, 7.947350e+002
4.887206e+002, 7.916124e+002
4.892027e+002, 7.906741e+002
4.896848e+002, 7.894359e+002
4.901669e+002, 7.875117e+002
4.906490e+002, 7.856844e+002
4.911311e+002, 7.851920e+002
4.916133e+002, 7.861315e+002
4.920954e+002, 7.877708e+002
4.925775e+002, 7.899697e+002
4.930596e+002, 7.926747e+002
4.935417e+002, 7.955727e+002
4.940238e+002, 7.986293e+002
4.945060e+002, 8.024480e+002
4.949881e+002, 8.076387e+002
4.954702e+002, 8.138843e+002
4.959523e+002, 8.204230e+002
4.964344e+002, 8.269771e+002
4.969165e+002, 8.344371e+002
4.973987e+002, 8.442054e+002
4.978808e+002, 8.554987e+002
4.983629e+002, 8.666536e+002
4.988450e+002, 8.768181e+002
4.993271e+002, 8.867874e+002
4.998092e+002, 8.966336e+002
5.002914e+002, 9.066130e+002
5.007735e+002, 9.172250e+002
5.012556e+002, 9.290139e+002
5.017377e+002, 9.415050e+002
5.022198e+002, 9.544512e+002
5.027019e+002, 9.680672e+002
5.031841e+002, 9.818865e+002
5.036662e+002, 9.947224e+002
5.041483e+002, 1.008286e+003
5.046304e+002, 1.024409e+003
5.051125e+002, 1.043661e+003
5.055946e+002, 1.064210e+003
5.060768e+002, 1.086230e+003
5.065589e+002, 1.109443e+003
5.070410e+002, 1.132802e+003
5.075231e+002, 1.156043e+003
5.080052e+002, 1.180041e+003
5.084873e+002, 1.206228e+003
5.089695e+002, 1.234300e+003
5.094516e+002, 1.260762e+003
5.099337e+002, 1.285627e+003
5.104158e+002, 1.308686e+003
5.108979e+002, 1.331046e+003
5.113800e+002, 1.351925e+003
5.118622e+002, 1.367165e+003
5.123443e+002, 1.376425e+003
5.128264e+002, 1.378447e+003
5.133085e+002, 1.371242e+003
5.137906e+002, 1.355375e+003
5.142728e+002, 1.332832e+003
5.147549e+002, 1.302849e+003
5.152370e+002, 1.267937e+003
5.157191e+002, 1.228888e+003
5.162012e+002, 1.185404e+003
5.166833e+002, 1.142935e+003
5.171655e+002, 1.101935e+003
5.176476e+002, 1.063748e+003
5.181297e+002, 1.029531e+003
5.186118e+002, 1.000531e+003
5.190939e+002, 9.742515e+002
5.195760e+002, 9.501025e+002
5.200582e+002, 9.286121e+002
5.205403e+002, 9.101287e+002
5.210224e+002, 8.956884e+002
5.215045e+002, 8.831109e+002
5.219866e+002, 8.720217e+002
5.224688e+002, 8.623758e+002
5.229509e+002, 8.536522e+002
5.234330e+002, 8.458596e+002
5.239151e+002, 8.388080e+002
5.243972e+002, 8.323480e+002
5.248793e+002, 8.265035e+002
5.253615e+002, 8.212816e+002
5.258436e+002, 8.166728e+002
5.263257e+002, 8.125773e+002
5.268078e+002, 8.091298e+002
5.272899e+002, 8.061827e+002
5.277720e+002, 8.031003e+002
5.282542e+002, 7.995116e+002
5.287363e+002, 7.957870e+002
5.292184e+002, 7.920904e+002
5.297005e+002, 7.885671e+002
5.301826e+002, 7.858246e+002
5.306647e+002, 7.851418e+002
5.311469e+002, 7.848752e+002
5.316290e+002, 7.834818e+002
5.321111e+002, 7.805353e+002
5.325932e+002, 7.776057e+002
5.330753e+002, 7.749641e+002
5.335574e+002, 7.728096e+002
5.340396e+002, 7.713918e+002
5.345217e+002, 7.714788e+002
5.350038e+002, 7.714527e+002
5.354859e+002, 7.711015e+002
5.359680e+002, 7.704822e+002
5.364501e+002, 7.697534e+002
5.369323e+002, 7.689120e+002
5.374144e+002, 7.679557e+002
5.378965e+002, 7.667187e+002
5.383786e+002, 7.651740e+002
5.388607e+002, 7.646207e+002
5.393428e+002, 7.653190e+002
5.398250e+002, 7.661898e+002
5.403071e+002, 7.660947e+002
5.407892e+002, 7.651512e+002
5.412713e+002, 7.645742e+002
5.417534e+002, 7.646459e+002
5.422355e+002, 7.648519e+002
5.427177e+002, 7.643331e+002
5.431998e+002, 7.633177e+002
5.436819e+002, 7.625485e+002
5.441640e+002, 7.627377e+002
5.446461e+002, 7.630803e+002
5.451282e+002, 7.625589e+002
5.456104e+002, 7.613701e+002
5.460925e+002, 7.607098e+002
5.465746e+002, 7.620153e+002
5.470567e+002, 7.634922e+002
5.475388e+002, 7.636353e+002
5.480209e+002, 7.614693e+002
5.485031e+002, 7.606094e+002
5.489852e+002, 7.632285e+002
5.494673e+002, 7.668325e+002
5.499494e+002, 7.687774e+002
5.504315e+002, 7.680713e+002
5.509136e+002, 7.671641e+002
5.513958e+002, 7.662190e+002
5.518779e+002, 7.652399e+002
5.523600e+002, 7.640809e+002
5.528421e+002, 7.624217e+002
5.533242e+002, 7.617038e+002
5.538063e+002, 7.631987e+002
5.542885e+002, 7.664157e+002
5.547706e+002, 7.670665e+002
5.552527e+002, 7.649504e+002
5.557348e+002, 7.624218e+002
5.562169e+002, 7.613466e+002
5.566990e+002, 7.614656e+002
5.571812e+002, 7.623034e+002
5.576633e+002, 7.640286e+002
5.581454e+002, 7.655328e+002
5.586275e+002, 7.655789e+002
5.591096e+002, 7.646848e+002
5.595917e+002, 7.637585e+002
5.600739e+002, 7.625745e+002
5.605560e+002, 7.620204e+002
5.610381e+002, 7.630873e+002
5.615202e+002, 7.653318e+002
5.620023e+002, 7.668485e+002
5.624844e+002, 7.665850e+002
5.629666e+002, 7.659695e+002
5.634487e+002, 7.655496e+002
5.639308e+002, 7.653181e+002
5.644129e+002, 7.653750e+002
5.648950e+002, 7.659133e+002
5.653771e+002, 7.665157e+002
5.658593e+002, 7.667843e+002
5.663414e+002, 7.665760e+002
5.668235e+002, 7.666713e+002
5.673056e+002, 7.672568e+002
5.677877e+002, 7.680055e+002
5.682698e+002, 7.682925e+002
5.687520e+002, 7.681481e+002
5.692341e+002, 7.679807e+002
5.697162e+002, 7.679139e+002
5.701983e+002, 7.679587e+002
5.706804e+002, 7.681116e+002
5.711625e+002, 7.683901e+002
5.716447e+002, 7.688532e+002
5.721268e+002, 7.698024e+002
5.726089e+002, 7.708187e+002
5.730910e+002, 7.714047e+002
5.735731e+002, 7.714504e+002
5.740552e+002, 7.715950e+002
5.745374e+002, 7.717217e+002
5.750195e+002, 7.722895e+002
5.755016e+002, 7.737216e+002
5.759837e+002, 7.771125e+002
5.764658e+002, 7.800873e+002
5.769479e+002, 7.826217e+002
5.774301e+002, 7.845555e+002
5.779122e+002, 7.854841e+002
5.783943e+002, 7.848066e+002
5.788764e+002, 7.842753e+002
5.793585e+002, 7.843597e+002
5.798406e+002, 7.849792e+002
5.803228e+002, 7.856318e+002
5.808049e+002, 7.863063e+002
5.812870e+002, 7.870689e+002
5.817691e+002, 7.881674e+002
5.822512e+002, 7.894385e+002
5.827333e+002, 7.902615e+002
5.832155e+002, 7.906199e+002
5.836975e+002, 7.904908e+002
5.841796e+002, 7.894592e+002
5.846617e+002, 7.880383e+002
5.851439e+002, 7.871216e+002
5.856260e+002, 7.872941e+002
5.861081e+002, 7.874341e+002
5.865902e+002, 7.868241e+002
5.870723e+002, 7.857004e+002
5.875544e+002, 7.845323e+002
5.880366e+002, 7.831949e+002
5.885187e+002, 7.820546e+002
5.890008e+002, 7.811778e+002
5.894829e+002, 7.805663e+002
5.899650e+002, 7.802847e+002
5.904471e+002, 7.804973e+002
5.909293e+002, 7.807835e+002
5.914114e+002, 7.809460e+002
5.918935e+002, 7.809622e+002
5.923756e+002, 7.809711e+002
5.928577e+002, 7.810125e+002
5.933398e+002, 7.809241e+002
5.938220e+002, 7.803461e+002
5.943041e+002, 7.793895e+002
5.947862e+002, 7.789602e+002
5.952683e+002, 7.793406e+002
5.957504e+002, 7.800172e+002
5.962325e+002, 7.803621e+002
5.967147e+002, 7.804827e+002
5.971968e+002, 7.806382e+002
5.976789e+002, 7.811127e+002
5.981610e+002, 7.815429e+002
5.986431e+002, 7.817312e+002
5.991252e+002, 7.816699e+002
5.996074e+002, 7.813302e+002
6.000895e+002, 7.803034e+002
6.005716e+002, 7.793315e+002
6.010537e+002, 7.788080e+002
6.015358e+002, 7.788747e+002
6.020179e+002, 7.788607e+002
6.025001e+002, 7.785705e+002
6.029822e+002, 7.783824e+002
6.034643e+002, 7.786736e+002
6.039464e+002, 7.796920e+002
6.044285e+002, 7.801371e+002
6.049106e+002, 7.797213e+002
6.053928e+002, 7.791051e+002
6.058749e+002, 7.793661e+002
6.063570e+002, 7.804447e+002
6.068391e+002, 7.815755e+002
6.073212e+002, 7.826400e+002
6.078033e+002, 7.834793e+002
6.082855e+002, 7.836263e+002
6.087676e+002, 7.832753e+002
6.092497e+002, 7.831608e+002
6.097318e+002, 7.838799e+002
6.102139e+002, 7.848422e+002
6.106960e+002, 7.856846e+002
6.111782e+002, 7.863735e+002
6.116603e+002, 7.867625e+002
6.121424e+002, 7.863113e+002
6.126245e+002, 7.859055e+002
6.131066e+002, 7.861956e+002
6.135887e+002, 7.878947e+002
6.140709e+002, 7.887202e+002
6.145530e+002, 7.880748e+002
6.150351e+002, 7.871243e+002
6.155172e+002, 7.871395e+002
6.159993e+002, 7.883496e+002
6.164814e+002, 7.895485e+002
6.169636e+002, 7.906109e+002
6.174457e+002, 7.915114e+002
6.179278e+002, 7.922649e+002
6.184099e+002, 7.928471e+002
6.188920e+002, 7.930557e+002
6.193741e+002, 7.924503e+002
6.198563e+002, 7.916688e+002
6.203384e+002, 7.917894e+002
6.208205e+002, 7.926455e+002
6.213026e+002, 7.934318e+002
6.217847e+002, 7.934310e+002
6.222668e+002, 7.933604e+002
6.227490e+002, 7.939359e+002
6.232311e+002, 7.953231e+002
6.237132e+002, 7.961586e+002
6.241953e+002, 7.953330e+002
6.246774e+002, 7.943649e+002
6.251595e+002, 7.943474e+002
6.256417e+002, 7.959285e+002
6.261238e+002, 7.972919e+002
6.266059e+002, 7.985045e+002
6.270880e+002, 7.994445e+002
6.275701e+002, 7.998191e+002
6.280522e+002, 7.995569e+002
6.285344e+002, 7.995253e+002
6.290165e+002, 8.000173e+002
6.294986e+002, 8.006679e+002
6.299807e+002, 8.005690e+002
6.304628e+002, 7.998879e+002
6.309449e+002, 7.995499e+002
6.314271e+002, 8.001302e+002
6.319092e+002, 8.011868e+002
6.323913e+002, 8.024520e+002
6.328734e+002, 8.038419e+002
6.333555e+002, 8.048875e+002
6.338376e+002, 8.048284e+002
6.343198e+002, 8.047565e+002
6.348019e+002, 8.053969e+002
6.352840e+002, 8.069715e+002
6.357661e+002, 8.084601e+002
6.362482e+002, 8.101115e+002
6.367303e+002, 8.113716e+002
6.372125e+002, 8.117024e+002
6.376946e+002, 8.104689e+002
6.381767e+002, 8.102097e+002
6.386588e+002, 8.111451e+002
6.391409e+002, 8.128709e+002
6.396230e+002, 8.151754e+002
6.401052e+002, 8.179903e+002
6.405873e+002, 8.199081e+002
6.410694e+002, 8.202315e+002
6.415515e+002, 8.200676e+002
6.420336e+002, 8.210919e+002
6.425157e+002, 8.230007e+002
6.429979e+002, 8.249306e+002
6.434800e+002, 8.262791e+002
6.439621e+002, 8.276204e+002
6.444442e+002, 8.293718e+002
6.449263e+002, 8.314802e+002
6.454084e+002, 8.335798e+002
6.458906e+002, 8.356110e+002
6.463727e+002, 8.375408e+002
6.468548e+002, 8.394025e+002
6.473369e+002, 8.412371e+002
6.478190e+002, 8.426709e+002
6.483011e+002, 8.434726e+002
6.487833e+002, 8.442072e+002
6.492654e+002, 8.455590e+002
6.497475e+002, 8.476972e+002
6.502296e+002, 8.482668e+002
6.507117e+002, 8.468992e+002
6.511938e+002, 8.449090e+002
6.516760e+002, 8.440115e+002
6.521581e+002, 8.438429e+002
6.526402e+002, 8.432262e+002
6.531223e+002, 8.415714e+002
6.536044e+002, 8.399602e+002
6.540865e+002, 8.397979e+002
6.545687e+002, 8.403032e+002
6.550508e+002, 8.399805e+002
6.555329e+002, 8.374813e+002
6.560150e+002, 8.348582e+002
6.564971e+002, 8.326666e+002
6.569792e+002, 8.309416e+002
6.574614e+002, 8.297740e+002
6.579435e+002, 8.295388e+002
6.584256e+002, 8.293138e+002
6.589077e+002, 8.287880e+002
6.593898e+002, 8.279737e+002
6.598719e+002, 8.273196e+002
6.603541e+002, 8.269201e+002
6.608362e+002, 8.262359e+002
6.613183e+002, 8.247568e+002
6.618004e+002, 8.226624e+002
6.622825e+002, 8.202672e+002
6.627646e+002, 8.175248e+002
6.632468e+002, 8.156520e+002
6.637289e+002, 8.165618e+002
6.642110e+002, 8.186656e+002
6.646931e+002, 8.199106e+002
6.651752e+002, 8.197355e+002
6.656573e+002, 8.189941e+002
6.661395e+002, 8.172061e+002
6.666216e+002, 8.153978e+002
6.671037e+002, 8.148300e+002
6.675858e+002, 8.172621e+002
6.680679e+002, 8.189271e+002
6.685500e+002, 8.192655e+002
6.690322e+002, 8.187892e+002
6.695143e+002, 8.185926e+002
6.699964e+002, 8.187318e+002
6.704785e+002, 8.188370e+002
6.709606e+002, 8.187350e+002
6.714427e+002, 8.185557e+002
6.719249e+002, 8.186608e+002
6.724070e+002, 8.190298e+002
6.728891e+002, 8.195358e+002
6.733712e+002, 8.203105e+002
6.738533e+002, 8.210532e+002
6.743354e+002, 8.213763e+002
6.748176e+002, 8.212994e+002
6.752997e+002, 8.210992e+002
6.757818e+002, 8.205805e+002
6.762639e+002, 8.202438e+002
6.767460e+002, 8.205901e+002
6.772281e+002, 8.220561e+002
6.777103e+002, 8.225546e+002
6.781924e+002, 8.207550e+002
6.786745e+002, 8.192526e+002
6.791566e+002, 8.203077e+002
6.796387e+002, 8.247654e+002
6.801208e+002, 8.276806e+002
6.806030e+002, 8.286215e+002
6.810851e+002, 8.285251e+002
6.815672e+002, 8.283405e+002
6.820493e+002, 8.281083e+002
6.825314e+002, 8.280710e+002
6.830135e+002, 8.284163e+002
6.834957e+002, 8.286492e+002
6.839778e+002, 8.279946e+002
6.844599e+002, 8.268781e+002
6.849420e+002, 8.261277e+002
6.854241e+002, 8.262347e+002
6.859063e+002, 8.265576e+002
6.863884e+002, 8.268056e+002
6.868705e+002, 8.270781e+002
6.873526e+002, 8.277550e+002
6.878347e+002, 8.294552e+002
6.883168e+002, 8.306948e+002
6.887990e+002, 8.308865e+002
6.892811e+002, 8.302548e+002
6.897632e+002, 8.303861e+002
6.902453e+002, 8.314307e+002
6.907274e+002, 8.322369e+002
6.912095e+002, 8.318973e+002
6.916917e+002, 8.308154e+002
6.921738e+002, 8.301354e+002
6.926559e+002, 8.298664e+002
6.931380e+002, 8.298342e+002
6.936201e+002, 8.299194e+002
6.941022e+002, 8.301575e+002
6.945844e+002, 8.305699e+002
6.950665e+002, 8.311420e+002
6.955486e+002, 8.319318e+002
6.960307e+002, 8.334162e+002
6.965128e+002, 8.348120e+002
6.969949e+002, 8.354776e+002
6.974771e+002, 8.349323e+002
6.979592e+002, 8.346603e+002
6.984413e+002, 8.347170e+002
6.989234e+002, 8.350031e+002
6.994055e+002, 8.356183e+002
6.998876e+002, 8.365941e+002
7.003698e+002, 8.366785e+002
7.008519e+002, 8.353758e+002
7.013340e+002, 8.339246e+002
7.018161e+002, 8.343792e+002
7.022982e+002, 8.360822e+002
7.027803e+002, 8.373694e+002
7.032625e+002, 8.375144e+002
7.037446e+002, 8.371883e+002
7.042267e+002, 8.363830e+002
7.047088e+002, 8.354561e+002
7.051909e+002, 8.352050e+002
7.056730e+002, 8.365361e+002
7.061552e+002, 8.377601e+002
7.066373e+002, 8.382005e+002
7.071194e+002, 8.381429e+002
7.076015e+002, 8.390926e+002
7.080836e+002, 8.414173e+002
7.085657e+002, 8.435587e+002
7.090479e+002, 8.448840e+002
7.095300e+002, 8.455070e+002
7.100121e+002, 8.459189e+002
7.104942e+002, 8.461106e+002
7.109763e+002, 8.460394e+002
7.114584e+002, 8.454226e+002
7.119406e+002, 8.446613e+002
7.124227e+002, 8.442896e+002
7.129048e+002, 8.443290e+002
7.133869e+002, 8.444254e+002
7.138690e+002, 8.444650e+002
7.143511e+002, 8.444802e+002
7.148333e+002, 8.445380e+002
7.153154e+002, 8.447601e+002
7.157975e+002, 8.446663e+002
7.162796e+002, 8.440547e+002
7.167617e+002, 8.434102e+002
7.172438e+002, 8.431003e+002
7.177260e+002, 8.431535e+002
7.182081e+002, 8.434476e+002
7.186902e+002, 8.440401e+002
7.191723e+002, 8.446360e+002
7.196544e+002, 8.448367e+002
7.201365e+002, 8.447639e+002
7.206187e+002, 8.446622e+002
7.211008e+002, 8.444832e+002
7.215829e+002, 8.445741e+002
7.220650e+002, 8.452608e+002
7.225471e+002, 8.463383e+002
7.230292e+002, 8.475532e+002
7.235114e+002, 8.491292e+002
7.239935e+002, 8.504104e+002
7.244756e+002, 8.510800e+002
7.249577e+002, 8.514611e+002
7.254398e+002, 8.521673e+002
7.259219e+002, 8.533904e+002
7.264041e+002, 8.542462e+002
7.268862e+002, 8.543508e+002
7.273683e+002, 8.541728e+002
7.278504e+002, 8.549133e+002
7.283325e+002, 8.564573e+002
7.288146e+002, 8.580775e+002
7.292968e+002, 8.598036e+002
7.297789e+002, 8.611135e+002
7.302610e+002, 8.609057e+002
7.307431e+002, 8.596876e+002
7.312252e+002, 8.591428e+002
7.317073e+002, 8.604727e+002
7.321895e+002, 8.621691e+002
7.326716e+002, 8.636217e+002
7.331537e+002, 8.648378e+002
7.336358e+002, 8.662082e+002
7.341179e+002, 8.677719e+002
7.346000e+002, 8.694822e+002
7.350822e+002, 8.713811e+002
7.355643e+002, 8.734438e+002
7.360464e+002, 8.751306e+002
7.365285e+002, 8.764111e+002
7.370106e+002, 8.780318e+002
7.374927e+002, 8.808845e+002
7.379749e+002, 8.843008e+002
7.384570e+002, 8.870306e+002
7.389391e+002, 8.890152e+002
7.394212e+002, 8.911828e+002
7.399033e+002, 8.945748e+002
7.403854e+002, 8.979891e+002
7.408676e+002, 9.002116e+002
7.413497e+002, 9.003683e+002
7.418318e+002, 9.024891e+002
7.423139e+002, 9.082467e+002
7.427960e+002, 9.143622e+002
7.432781e+002, 9.184977e+002
7.437603e+002, 9.202686e+002
7.442424e+002, 9.229267e+002
7.447245e+002, 9.267552e+002
7.452066e+002, 9.307033e+002
7.456887e+002, 9.337946e+002
7.461708e+002, 9.361949e+002
7.466530e+002, 9.384188e+002
7.471351e+002, 9.406914e+002
7.476172e+002, 9.420862e+002
7.480993e+002, 9.414611e+002
7.485814e+002, 9.397853e+002
7.490635e+002, 9.381959e+002
7.495457e+002, 9.378546e+002
7.500278e+002, 9.360639e+002
7.505099e+002, 9.313215e+002
7.509920e+002, 9.257663e+002
7.514741e+002, 9.220463e+002
7.519562e+002, 9.207840e+002
7.524384e+002, 9.187272e+002
7.529205e+002, 9.153416e+002
7.534026e+002, 9.112205e+002
7.538847e+002, 9.068080e+002
7.543668e+002, 9.023835e+002
7.548489e+002, 8.991097e+002
7.553311e+002, 8.977849e+002
7.558132e+002, 8.968854e+002
7.562953e+002, 8.949263e+002
7.567774e+002, 8.925029e+002
7.572595e+002, 8.907034e+002
7.577416e+002, 8.908820e+002
7.582238e+002, 8.905222e+002
7.587059e+002, 8.884148e+002
7.591880e+002, 8.855553e+002
7.596701e+002, 8.840979e+002
7.601522e+002, 8.845157e+002
7.606343e+002, 8.848492e+002
7.611165e+002, 8.846556e+002
7.615986e+002, 8.840430e+002
7.620807e+002, 8.830396e+002
7.625628e+002, 8.817584e+002
7.630449e+002, 8.808420e+002
7.635270e+002, 8.809171e+002
7.640092e+002, 8.811965e+002
7.644913e+002, 8.806884e+002
7.649734e+002, 8.797323e+002
7.654555e+002, 8.793824e+002
7.659376e+002, 8.807141e+002
7.664197e+002, 8.819724e+002
7.669019e+002, 8.824542e+002
7.673840e+002, 8.823203e+002
7.678661e+002, 8.823411e+002
7.683482e+002, 8.825872e+002
7.688303e+002, 8.827725e+002
7.693124e+002, 8.828682e+002
7.697946e+002, 8.827833e+002
7.702767e+002, 8.818841e+002
7.707588e+002, 8.802999e+002
7.712409e+002, 8.792404e+002
7.717230e+002, 8.797668e+002
7.722051e+002, 8.809485e+002
7.726873e+002, 8.821660e+002
7.731694e+002, 8.833186e+002
7.736515e+002, 8.838735e+002
7.741336e+002, 8.831688e+002
7.746157e+002, 8.823017e+002
7.750978e+002, 8.817109e+002
7.755800e+002, 8.813976e+002
7.760621e+002, 8.811661e+002
7.765442e+002, 8.809946e+002
7.770263e+002, 8.809797e+002
7.775084e+002, 8.812424e+002
7.779905e+002, 8.817100e+002
7.784727e+002, 8.820284e+002
7.789548e+002, 8.822004e+002
7.794369e+002, 8.823615e+002
7.799190e+002, 8.825177e+002
7.804011e+002, 8.827532e+002
7.808832e+002, 8.830146e+002
7.813654e+002, 8.833055e+002
7.818475e+002, 8.841852e+002
7.823296e+002, 8.873417e+002
7.828117e+002, 8.897217e+002
7.832938e+002, 8.895899e+002
7.837759e+002, 8.866528e+002
7.842581e+002, 8.844918e+002
7.847402e+002, 8.830430e+002
7.852223e+002, 8.826644e+002
7.857044e+002, 8.844777e+002
7.861865e+002, 8.876526e+002
7.866686e+002, 8.886086e+002
7.871508e+002, 8.872795e+002
7.876329e+002, 8.857731e+002
7.881150e+002, 8.853873e+002
7.885971e+002, 8.857490e+002
7.890792e+002, 8.866523e+002
7.895613e+002, 8.881413e+002
7.900435e+002, 8.894857e+002
7.905256e+002, 8.906363e+002
7.910077e+002, 8.914500e+002
7.914898e+002, 8.917059e+002
7.919719e+002, 8.912130e+002
7.924540e+002, 8.914746e+002
7.929362e+002, 8.926215e+002
7.934183e+002, 8.938989e+002
7.939004e+002, 8.946555e+002
7.943825e+002, 8.950336e+002
7.948646e+002, 8.954122e+002
7.953467e+002, 8.958235e+002
7.958289e+002, 8.962040e+002
7.963110e+002, 8.962465e+002
7.967931e+002, 8.964283e+002
7.972752e+002, 8.972467e+002
7.977573e+002, 8.989723e+002
7.982394e+002, 9.004739e+002
7.987216e+002, 9.014593e+002
7.992037e+002, 9.024050e+002
7.996858e+002, 9.035645e+002
8.001679e+002, 9.049467e+002
8.006500e+002, 9.066036e+002
8.011321e+002, 9.085688e+002
8.016143e+002, 9.107614e+002
8.020964e+002, 9.133295e+002
8.025785e+002, 9.160046e+002
8.030606e+002, 9.182018e+002
8.035427e+002, 9.198134e+002
8.040248e+002, 9.215266e+002
8.045070e+002, 9.239874e+002
8.049891e+002, 9.265521e+002
8.054712e+002, 9.285233e+002
8.059533e+002, 9.292152e+002
8.064354e+002, 9.315276e+002
8.069175e+002, 9.363010e+002
8.073997e+002, 9.414632e+002
8.078818e+002, 9.455980e+002
8.083639e+002, 9.486816e+002
8.088460e+002, 9.511498e+002
8.093281e+002, 9.529719e+002
8.098102e+002, 9.547156e+002
8.102924e+002, 9.568394e+002
8.107745e+002, 9.592287e+002
8.112566e+002, 9.618729e+002
8.117387e+002, 9.648132e+002
8.122208e+002, 9.673742e+002
8.127029e+002, 9.701667e+002
8.131851e+002, 9.718010e+002
8.136672e+002, 9.710938e+002
8.141493e+002, 9.674863e+002
8.146314e+002, 9.642184e+002
8.151135e+002, 9.615640e+002
8.155956e+002, 9.586268e+002
8.160778e+002, 9.545066e+002
8.165599e+002, 9.494637e+002
8.170420e+002, 9.445906e+002
8.175241e+002, 9.399102e+002
8.180062e+002, 9.359730e+002
8.184883e+002, 9.336424e+002
8.189705e+002, 9.319056e+002
8.194526e+002, 9.296541e+002
8.199347e+002, 9.265915e+002
8.204168e+002, 9.242675e+002
8.208989e+002, 9.236595e+002
8.213810e+002, 9.232789e+002
8.218632e+002, 9.224562e+002
8.223453e+002, 9.211996e+002
8.228274e+002, 9.191885e+002
8.233095e+002, 9.162568e+002
8.237916e+002, 9.138803e+002
8.242737e+002, 9.139265e+002
8.247559e+002, 9.152172e+002
8.252380e+002, 9.152241e+002
8.257201e+002, 9.138412e+002
8.262022e+002, 9.125226e+002
8.266843e+002, 9.121690e+002
8.271664e+002, 9.121784e+002
8.276486e+002, 9.122302e+002
8.281307e+002, 9.123244e+002
8.286128e+002, 9.121286e+002
8.290949e+002, 9.113903e+002
8.295770e+002, 9.107789e+002
8.300591e+002, 9.107401e+002
8.305413e+002, 9.112004e+002
8.310234e+002, 9.113294e+002
8.315055e+002, 9.111259e+002
8.319876e+002, 9.110167e+002
8.324697e+002, 9.116364e+002
8.329518e+002, 9.122975e+002
8.334340e+002, 9.119443e+002
8.339161e+002, 9.106391e+002
8.343982e+002, 9.100215e+002
8.348803e+002, 9.116878e+002
8.353624e+002, 9.131461e+002
8.358445e+002, 9.131060e+002
8.363267e+002, 9.116653e+002
8.368088e+002, 9.111580e+002
8.372909e+002, 9.117694e+002
8.377730e+002, 9.125051e+002
8.382551e+002, 9.127722e+002
8.387372e+002, 9.127850e+002
8.392194e+002, 9.130868e+002
8.397015e+002, 9.136422e+002
8.401836e+002, 9.142304e+002
8.406657e+002, 9.146361e+002
8.411478e+002, 9.151104e+002
8.416299e+002, 9.162099e+002
8.421121e+002, 9.177274e+002
8.425942e+002, 9.177268e+002
8.430763e+002, 9.144219e+002
8.435584e+002, 9.127061e+002
8.440405e+002, 9.149646e+002
8.445226e+002, 9.196985e+002
8.450048e+002, 9.205223e+002
8.454869e+002, 9.176819e+002
8.459690e+002, 9.150585e+002
8.464511e+002, 9.150754e+002
8.469332e+002, 9.159078e+002
8.474153e+002, 9.155663e+002
8.478975e+002, 9.144260e+002
8.483796e+002, 9.135382e+002
8.488617e+002, 9.133782e+002
8.493438e+002, 9.134244e+002
8.498259e+002, 9.134889e+002
8.503080e+002, 9.136719e+002
8.507902e+002, 9.143948e+002
8.512723e+002, 9.158302e+002
8.517544e+002, 9.167158e+002
8.522365e+002, 9.165082e+002
8.527186e+002, 9.158585e+002
8.532007e+002, 9.157410e+002
8.536829e+002, 9.161260e+002
8.541650e+002, 9.169453e+002
8.546471e+002, 9.186776e+002
8.551292e+002, 9.201730e+002
8.556113e+002, 9.205476e+002
8.560934e+002, 9.203754e+002
8.565756e+002, 9.207790e+002
8.570577e+002, 9.223259e+002
8.575398e+002, 9.233406e+002
8.580219e+002, 9.235748e+002
8.585040e+002, 9.233173e+002
8.589861e+002, 9.228278e+002
8.594683e+002, 9.221965e+002
8.599504e+002, 9.219788e+002
8.604325e+002, 9.223712e+002
8.609146e+002, 9.229763e+002
8.613967e+002, 9.236710e+002
8.618788e+002, 9.242573e+002
8.623610e+002, 9.244736e+002
8.628431e+002, 9.239188e+002
8.633252e+002, 9.236050e+002
8.638073e+002, 9.237468e+002
8.642894e+002, 9.240345e+002
8.647715e+002, 9.241804e+002
8.652537e+002, 9.241887e+002
8.657358e+002, 9.242751e+002
8.662179e+002, 9.245192e+002
8.667000e+002, 9.245309e+002
8.671821e+002, 9.236171e+002
8.676642e+002, 9.223652e+002
8.681464e+002, 9.216165e+002
8.686285e+002, 9.215218e+002
8.691106e+002, 9.217855e+002
8.695927e+002, 9.225253e+002
8.700748e+002, 9.234007e+002
8.705569e+002, 9.242220e+002
8.710391e+002, 9.250096e+002
8.715212e+002, 9.253823e+002
8.720033e+002, 9.252158e+002
8.724854e+002, 9.249860e+002
8.729675e+002, 9.249174e+002
8.734496e+002, 9.250467e+002
8.739318e+002, 9.257097e+002
8.744139e+002, 9.268250e+002
8.748960e+002, 9.275652e+002
8.753781e+002, 9.271292e+002
8.758602e+002, 9.264315e+002
8.763423e+002, 9.260740e+002
8.768245e+002, 9.260945e+002
8.773066e+002, 9.258593e+002
8.777887e+002, 9.253417e+002
8.782708e+002, 9.247194e+002
8.787529e+002, 9.240316e+002
8.792350e+002, 9.233671e+002
8.797172e+002, 9.229376e+002
8.801993e+002, 9.227637e+002
8.806814e+002, 9.228031e+002
8.811635e+002, 9.230342e+002
8.816456e+002, 9.234835e+002
8.821277e+002, 9.243086e+002
8.826099e+002, 9.253651e+002
8.830920e+002, 9.262358e+002
8.835741e+002, 9.268376e+002
8.840562e+002, 9.271454e+002
8.845383e+002, 9.269391e+002
8.850204e+002, 9.265640e+002
8.855026e+002, 9.269924e+002
8.859847e+002, 9.281265e+002
8.864668e+002, 9.287308e+002
8.869489e+002, 9.282911e+002
8.874310e+002, 9.275225e+002
8.879131e+002, 9.269782e+002
8.883953e+002, 9.267158e+002
8.888774e+002, 9.268406e+002
8.893595e+002, 9.278967e+002
8.898416e+002, 9.285920e+002
8.903237e+002, 9.286117e+002
8.908058e+002, 9.283533e+002
8.912880e+002, 9.281924e+002
8.917701e+002, 9.281385e+002
8.922522e+002, 9.281381e+002
8.927343e+002, 9.281747e+002
8.932164e+002, 9.283412e+002
8.936985e+002, 9.290095e+002
8.941807e+002, 9.297468e+002
8.946628e+002, 9.297883e+002
8.951449e+002, 9.288807e+002
8.956270e+002, 9.282768e+002
8.961091e+002, 9.290369e+002
8.965912e+002, 9.296915e+002
8.970734e+002, 9.291681e+002
8.975555e+002, 9.272932e+002
8.980376e+002, 9.265809e+002
8.985197e+002, 9.271387e+002
8.990018e+002, 9.283279e+002
8.994839e+002, 9.302841e+002
8.999661e+002, 9.323444e+002
9.004482e+002, 9.330717e+002
9.009303e+002, 9.326271e+002
9.014124e+002, 9.321377e+002
9.018945e+002, 9.315725e+002
9.023766e+002, 9.316525e+002
9.028588e+002, 9.332393e+002
9.033409e+002, 9.358542e+002
9.038230e+002, 9.373731e+002
9.043051e+002, 9.375258e+002
9.047872e+002, 9.376216e+002
9.052693e+002, 9.381196e+002
9.057515e+002, 9.387560e+002
9.062336e+002, 9.389116e+002
9.067157e+002, 9.387513e+002
9.071978e+002, 9.387619e+002
9.076799e+002, 9.389414e+002
9.081620e+002, 9.395871e+002
9.086442e+002, 9.413572e+002
9.091263e+002, 9.435229e+002
9.096084e+002, 9.448662e+002
9.100905e+002, 9.450701e+002
9.105726e+002, 9.453577e+002
9.110547e+002, 9.459814e+002
9.115369e+002, 9.464244e+002
9.120190e+002, 9.458290e+002
9.125011e+002, 9.445136e+002
9.129832e+002, 9.433035e+002
9.134653e+002, 9.423132e+002
9.139474e+002, 9.416345e+002
9.144296e+002, 9.415950e+002
9.149117e+002, 9.417042e+002
9.153938e+002, 9.414612e+002
9.158759e+002, 9.406248e+002
9.163580e+002, 9.403458e+002
9.168401e+002, 9.407692e+002
9.173223e+002, 9.413508e+002
9.178044e+002, 9.417709e+002
9.182865e+002, 9.420397e+002
9.187686e+002, 9.422904e+002
9.192507e+002, 9.424969e+002
9.197328e+002, 9.423812e+002
9.202150e+002, 9.416869e+002
9.206971e+002, 9.407109e+002
9.211792e+002, 9.393431e+002
9.216613e+002, 9.377582e+002
9.221434e+002, 9.370521e+002
9.226255e+002, 9.375694e+002
9.231077e+002, 9.382487e+002
9.235898e+002, 9.389333e+002
9.240719e+002, 9.394352e+002
9.245540e+002, 9.390555e+002
9.250361e+002, 9.380400e+002
9.255182e+002, 9.374548e+002
9.260004e+002, 9.379912e+002
9.264825e+002, 9.385270e+002
9.269646e+002, 9.380172e+002
9.274467e+002, 9.371544e+002
9.279288e+002, 9.370505e+002
9.284109e+002, 9.383434e+002
9.288931e+002, 9.391700e+002
9.293752e+002, 9.393909e+002
9.298573e+002, 9.392297e+002
9.303394e+002, 9.387831e+002
9.308215e+002, 9.381703e+002
9.313036e+002, 9.378447e+002
9.317858e+002, 9.378895e+002
9.322679e+002, 9.379238e+002
9.327500e+002, 9.373992e+002
9.332321e+002, 9.369998e+002
9.337142e+002, 9.374818e+002
9.341964e+002, 9.391227e+002
9.346785e+002, 9.396985e+002
9.351606e+002, 9.387618e+002
9.356427e+002, 9.378822e+002
9.361248e+002, 9.379270e+002
9.366069e+002, 9.386488e+002
9.370891e+002, 9.393837e+002
9.375712e+002, 9.400751e+002
9.380533e+002, 9.404022e+002
9.385354e+002, 9.393766e+002
9.390175e+002, 9.387278e+002
9.394996e+002, 9.398509e+002
9.399818e+002, 9.420951e+002
9.404639e+002, 9.435628e+002
9.409460e+002, 9.439969e+002
9.414281e+002, 9.440212e+002
9.419102e+002, 9.435508e+002
9.423923e+002, 9.430472e+002
9.428745e+002, 9.434189e+002
9.433566e+002, 9.443793e+002
9.438387e+002, 9.450304e+002
9.443208e+002, 9.450173e+002
9.448029e+002, 9.451937e+002
9.452850e+002, 9.464990e+002
9.457672e+002, 9.479523e+002
9.462493e+002, 9.485993e+002
9.467314e+002, 9.482623e+002
9.472135e+002, 9.477711e+002
9.476956e+002, 9.470003e+002
9.481777e+002, 9.465409e+002
9.486599e+002, 9.470911e+002
9.491420e+002, 9.482433e+002
9.496241e+002, 9.491491e+002
9.501062e+002, 9.497556e+002
9.505883e+002, 9.499139e+002
9.510704e+002, 9.486942e+002
9.515526e+002, 9.478202e+002
9.520347e+002, 9.485283e+002
9.525168e+002, 9.503452e+002
9.529989e+002, 9.516115e+002
9.534810e+002, 9.523406e+002
9.539631e+002, 9.523191e+002
9.544453e+002, 9.511483e+002
9.549274e+002, 9.498099e+002
9.554095e+002, 9.502444e+002
9.558916e+002, 9.517202e+002
9.563737e+002, 9.526517e+002
9.568558e+002, 9.523036e+002
9.573380e+002, 9.518167e+002
9.578201e+002, 9.514420e+002
9.583022e+002, 9.512190e+002
9.587843e+002, 9.511356e+002
9.592664e+002, 9.511335e+002
9.597485e+002, 9.519107e+002
9.602307e+002, 9.536519e+002
9.607128e+002, 9.549487e+002
9.611949e+002, 9.537850e+002
9.616770e+002, 9.517828e+002
9.621591e+002, 9.515377e+002
9.626412e+002, 9.530914e+002
9.631234e+002, 9.541139e+002
9.636055e+002, 9.525648e+002
9.640876e+002, 9.517426e+002
9.645697e+002, 9.531478e+002
9.650518e+002, 9.561299e+002
9.655339e+002, 9.579075e+002
9.660161e+002, 9.584741e+002
9.664982e+002, 9.585134e+002
9.669803e+002, 9.578144e+002
9.674624e+002, 9.574648e+002
9.679445e+002, 9.595804e+002
9.684266e+002, 9.626649e+002
9.689088e+002, 9.642077e+002
9.693909e+002, 9.619700e+002
9.698730e+002, 9.603985e+002
9.703551e+002, 9.599950e+002
9.708372e+002, 9.600829e+002
9.713193e+002, 9.598973e+002
9.718015e+002, 9.595204e+002
9.722836e+002, 9.596771e+002
9.727657e+002, 9.604426e+002
9.732478e+002, 9.614535e+002
9.737299e+002, 9.630594e+002
9.742120e+002, 9.643342e+002
9.746942e+002, 9.641824e+002
9.751763e+002, 9.625283e+002
9.756584e+002, 9.616523e+002
9.761405e+002, 9.615593e+002
9.766226e+002, 9.624738e+002
9.771047e+002, 9.648851e+002
9.775869e+002, 9.680084e+002
9.780690e+002, 9.693817e+002
9.785511e+002, 9.694494e+002
9.790332e+002, 9.699858e+002
9.795153e+002, 9.722964e+002
9.799974e+002, 9.743730e+002
9.804796e+002, 9.747978e+002
9.809617e+002, 9.744832e+002
9.814438e+002, 9.747152e+002
9.819259e+002, 9.756359e+002
9.824080e+002, 9.768502e+002
9.828901e+002, 9.784358e+002
9.833723e+002, 9.800050e+002
9.838544e+002, 9.810015e+002
9.843365e+002, 9.817772e+002
9.848186e+002, 9.831064e+002
9.853007e+002, 9.850453e+002
9.857828e+002, 9.867797e+002
9.862650e+002, 9.872462e+002
9.867471e+002, 9.882400e+002
9.872292e+002, 9.908481e+002
9.877113e+002, 9.946318e+002
9.881934e+002, 9.972545e+002
9.886755e+002, 9.986699e+002
9.891577e+002, 9.996993e+002
9.896398e+002, 1.000263e+003
9.901219e+002, 1.001184e+003
9.906040e+002, 1.003778e+003
9.910861e+002, 1.007327e+003
9.915682e+002, 1.010633e+003
9.920504e+002, 1.013563e+003
9.925325e+002, 1.015887e+003
9.930146e+002, 1.017681e+003
9.934967e+002, 1.018819e+003
9.939788e+002, 1.019088e+003
9.944609e+002, 1.018574e+003
9.949431e+002, 1.017884e+003
9.954252e+002, 1.017056e+003
9.959073e+002, 1.016386e+003
9.963894e+002, 1.016716e+003
9.968715e+002, 1.016762e+003
9.973536e+002, 1.015230e+003
9.978358e+002, 1.012247e+003
9.983179e+002, 1.010045e+003
9.988000e+002, 1.008860e+003
9.992821e+002, 1.007989e+003
9.997642e+002, 1.007346e+003
1.000246e+003, 1.006709e+003
1.000728e+003, 1.005613e+003
1.001211e+003, 1.004175e+003
1.001693e+003, 1.002667e+003
1.002175e+003, 1.000924e+003
1.002657e+003, 9.996667e+002
1.003139e+003, 9.996253e+002
1.003621e+003, 9.999520e+002
1.004103e+003, 9.998552e+002
1.004585e+003, 9.992239e+002
1.005068e+003, 9.988263e+002
1.005550e+003, 9.986746e+002
1.006032e+003, 9.985170e+002
1.006514e+003, 9.984768e+002
1.006996e+003, 9.980898e+002
1.007478e+003, 9.962022e+002
1.007960e+003, 9.931905e+002
1.008442e+003, 9.913150e+002
1.008924e+003, 9.924278e+002
1.009407e+003, 9.930931e+002
1.009889e+003, 9.924736e+002
1.010371e+003, 9.911644e+002
1.010853e+003, 9.904054e+002
1.011335e+003, 9.901115e+002
1.011817e+003, 9.897933e+002
1.012299e+003, 9.893928e+002
1.012781e+003, 9.887883e+002
1.013263e+003, 9.875778e+002
1.013746e+003, 9.863483e+002
1.014228e+003, 9.857490e+002
1.014710e+003, 9.859935e+002
1.015192e+003, 9.860358e+002
1.015674e+003, 9.858412e+002
1.016156e+003, 9.855958e+002
1.016638e+003, 9.851494e+002
1.017120e+003, 9.848425e+002
1.017603e+003, 9.855939e+002
1.018085e+003, 9.871611e+002
1.018567e+003, 9.886934e+002
1.019049e+003, 9.896985e+002
1.019531e+003, 9.907027e+002
1.020013e+003, 9.921203e+002
1.020495e+003, 9.934094e+002
1.020977e+003, 9.935077e+002
1.021459e+003, 9.923527e+002
1.021942e+003, 9.920967e+002
1.022424e+003, 9.930787e+002
1.022906e+003, 9.943929e+002
1.023388e+003, 9.955618e+002
1.023870e+003, 9.964266e+002
1.024352e+003, 9.966992e+002
1.024834e+003, 9.963172e+002
1.025316e+003, 9.963307e+002
1.025799e+003, 9.973353e+002
1.026281e+003, 9.976390e+002
1.026763e+003, 9.960545e+002
1.027245e+003, 9.937844e+002
1.027727e+003, 9.942586e+002
1.028209e+003, 9.967588e+002
1.028691e+003, 9.988687e+002
1.029173e+003, 9.995604e+002
1.029656e+003, 9.998083e+002
1.030138e+003, 9.993617e+002
1.030620e+003, 9.991202e+002
1.031102e+003, 1.000235e+003
1.031584e+003, 1.003175e+003
1.032066e+003, 1.004494e+003
1.032548e+003, 1.003952e+003
1.033030e+003, 1.003332e+003
1.033512e+003, 1.004090e+003
1.033995e+003, 1.005595e+003
1.034477e+003, 1.007523e+003
1.034959e+003, 1.009639e+003
1.035441e+003, 1.010778e+003
1.035923e+003, 1.009922e+003
1.036405e+003, 1.009125e+003
1.036887e+003, 1.008589e+003
1.037369e+003, 1.008572e+003
1.037851e+003, 1.010319e+003
1.038334e+003, 1.013106e+003
1.038816e+003, 1.013979e+003
1.039298e+003, 1.011864e+003
1.039780e+003, 1.009711e+003
1.040262e+003, 1.009665e+003
1.040744e+003, 1.010067e+003
1.041226e+003, 1.009336e+003
1.041708e+003, 1.007304e+003
1.042191e+003, 1.007233e+003
1.042673e+003, 1.009410e+003
1.043155e+003, 1.011063e+003
1.043637e+003, 1.010157e+003
1.044119e+003, 1.008346e+003
1.044601e+003, 1.007914e+003
1.045083e+003, 1.008377e+003
1.045565e+003, 1.008640e+003
1.046047e+003, 1.008437e+003
1.046530e+003, 1.007832e+003
1.047012e+003, 1.006462e+003
1.047494e+003, 1.005251e+003
1.047976e+003, 1.005286e+003
1.048458e+003, 1.006396e+003
1.048940e+003, 1.007997e+003
1.049422e+003, 1.010015e+003
1.049904e+003, 1.011607e+003
1.050386e+003, 1.012308e+003
1.050869e+003, 1.012371e+003
1.051351e+003, 1.011376e+003
1.051833e+003, 1.009808e+003
1.052315e+003, 1.009785e+003
1.052797e+003, 1.011551e+003
1.053279e+003, 1.012973e+003
1.053761e+003, 1.013468e+003
1.054243e+003, 1.013461e+003
1.054726e+003, 1.013185e+003
1.055208e+003, 1.012890e+003
1.055690e+003, 1.012983e+003
1.056172e+003, 1.013764e+003
1.056654e+003, 1.014234e+003
1.057136e+003, 1.014321e+003
1.057618e+003, 1.014095e+003
1.058100e+003, 1.013471e+003
1.058583e+003, 1.012593e+003
1.059065e+003, 1.011939e+003
1.059547e+003, 1.011528e+003
1.060029e+003, 1.011438e+003
1.060511e+003, 1.011838e+003
1.060993e+003, 1.012431e+003
1.061475e+003, 1.013334e+003
1.061957e+003, 1.014237e+003
1.062439e+003, 1.014746e+003
1.062922e+003, 1.014865e+003
1.063404e+003, 1.014511e+003
1.063886e+003, 1.013638e+003
1.064368e+003, 1.012758e+003
1.064850e+003, 1.012314e+003
1.065332e+003, 1.012099e+003
1.065814e+003, 1.011799e+003
1.066296e+003, 1.011443e+003
1.066778e+003, 1.011681e+003
1.067261e+003, 1.012834e+003
1.067743e+003, 1.013957e+003
1.068225e+003, 1.014957e+003
1.068707e+003, 1.015530e+003
1.069189e+003, 1.014534e+003
1.069671e+003, 1.012734e+003
1.070153e+003, 1.012059e+003
1.070635e+003, 1.013290e+003
1.071118e+003, 1.014481e+003
1.071600e+003, 1.015014e+003
1.072082e+003, 1.015083e+003
1.072564e+003, 1.014677e+003
1.073046e+003, 1.013865e+003
1.073528e+003, 1.013286e+003
1.074010e+003, 1.012966e+003
1.074492e+003, 1.013066e+003
1.074974e+003, 1.014056e+003
1.075457e+003, 1.015087e+003
1.075939e+003, 1.015453e+003
1.076421e+003, 1.015459e+003
1.076903e+003, 1.015579e+003
1.077385e+003, 1.015662e+003
1.077867e+003, 1.016483e+003
1.078349e+003, 1.018256e+003
1.078831e+003, 1.019924e+003
1.079313e+003, 1.020483e+003
1.079796e+003, 1.020310e+003
1.080278e+003, 1.019690e+003
1.080760e+003, 1.018756e+003
1.081242e+003, 1.018294e+003
1.081724e+003, 1.018940e+003
1.082206e+003, 1.019557e+003
1.082688e+003, 1.019820e+003
1.083170e+003, 1.020067e+003
1.083652e+003, 1.021260e+003
1.084135e+003, 1.023019e+003
1.084617e+003, 1.023616e+003
1.085099e+003, 1.022545e+003
1.085581e+003, 1.021790e+003
1.086063e+003, 1.023409e+003
1.086545e+003, 1.024869e+003
1.087027e+003, 1.024088e+003
1.087509e+003, 1.021473e+003
1.087992e+003, 1.021521e+003
1.088474e+003, 1.024265e+003
1.088956e+003, 1.027093e+003
1.089438e+003, 1.029254e+003
1.089920e+003, 1.030525e+003
1.090402e+003, 1.029991e+003
1.090884e+003, 1.028759e+003
1.091366e+003, 1.028355e+003
1.091849e+003, 1.029120e+003
1.092331e+003, 1.030420e+003
1.092813e+003, 1.032416e+003
1.093295e+003, 1.034394e+003
1.093777e+003, 1.035584e+003
1.094259e+003, 1.036508e+003
1.094741e+003, 1.038788e+003
1.095223e+003, 1.041772e+003
1.095705e+003, 1.043181e+003
1.096188e+003, 1.039747e+003
1.096670e+003, 1.038021e+003
1.097152e+003, 1.039628e+003
1.097634e+003, 1.042503e+003
1.098116e+003, 1.044155e+003
1.098598e+003, 1.044756e+003
1.099080e+003, 1.045011e+003
1.099562e+003, 1.044997e+003
1.100044e+003, 1.044948e+003
1.100527e+003, 1.045071e+003
1.101009e+003, 1.045159e+003
1.101491e+003, 1.045220e+003
1.101973e+003, 1.045169e+003
1.102455e+003, 1.044503e+003
1.102937e+003, 1.043220e+003
1.103419e+003, 1.042484e+003
1.103901e+003, 1.042616e+003
1.104384e+003, 1.043291e+003
1.104866e+003, 1.044232e+003
1.105348e+003, 1.045534e+003
1.105830e+003, 1.047590e+003
1.106312e+003, 1.050621e+003
1.106794e+003, 1.052270e+003
1.107276e+003, 1.052309e+003
1.107758e+003, 1.051812e+003
1.108240e+003, 1.051099e+003
1.108723e+003, 1.050323e+003
1.109205e+003, 1.049453e+003
1.109687e+003, 1.048736e+003
1.110169e+003, 1.048658e+003
1.110651e+003, 1.049594e+003
1.111133e+003, 1.050739e+003
1.111615e+003, 1.051947e+003
1.112097e+003, 1.053469e+003
1.112579e+003, 1.055544e+003
1.113062e+003, 1.058079e+003
1.113544e+003, 1.060992e+003
1.114026e+003, 1.064151e+003
1.114508e+003, 1.066832e+003
1.114990e+003, 1.068440e+003
1.115472e+003, 1.069815e+003
1.115954e+003, 1.071118e+003
1.116436e+003, 1.072404e+003
1.116919e+003, 1.073650e+003
1.117401e+003, 1.074905e+003
1.117883e+003, 1.076588e+003
1.118365e+003, 1.078749e+003
1.118847e+003, 1.081203e+003
1.119329e+003, 1.084039e+003
1.119811e+003, 1.086932e+003
1.120293e+003, 1.089562e+003
1.120776e+003, 1.092074e+003
1.121258e+003, 1.095141e+003
1.121740e+003, 1.098891e+003
1.122222e+003, 1.101846e+003
1.122704e+003, 1.103660e+003
1.123186e+003, 1.104695e+003
1.123668e+003, 1.105083e+003
1.124150e+003, 1.105067e+003
1.124632e+003, 1.104944e+003
1.125115e+003, 1.104741e+003
1.125597e+003, 1.103942e+003
1.126079e+003, 1.102287e+003
1.126561e+003, 1.100948e+003
1.127043e+003, 1.100602e+003
1.127525e+003, 1.100461e+003
1.128007e+003, 1.099307e+003
1.128489e+003, 1.097428e+003
1.128971e+003, 1.095238e+003
1.129454e+003, 1.092588e+003
1.129936e+003, 1.090384e+003
1.130418e+003, 1.088548e+003
1.130900e+003, 1.087471e+003
1.131382e+003, 1.087650e+003
1.131864e+003, 1.088659e+003
1.132346e+003, 1.089174e+003
1.132828e+003, 1.089359e+003
1.133311e+003, 1.089750e+003
1.133793e+003, 1.090540e+003
1.134275e+003, 1.091620e+003
1.134757e+003, 1.093429e+003
1.135239e+003, 1.094961e+003
1.135721e+003, 1.094560e+003
1.136203e+003, 1.092685e+003
1.136685e+003, 1.094283e+003
1.137167e+003, 1.099074e+003
1.137650e+003, 1.102717e+003
1.138132e+003, 1.101525e+003
1.138614e+003, 1.099711e+003
1.139096e+003, 1.099474e+003
1.139578e+003, 1.099865e+003
1.140060e+003, 1.099455e+003
1.140542e+003, 1.098254e+003
1.141024e+003, 1.096355e+003
1.141506e+003, 1.093766e+003
1.141989e+003, 1.090895e+003
1.142471e+003, 1.087825e+003
1.142953e+003, 1.084815e+003
1.143435e+003, 1.081797e+003
1.143917e+003, 1.078998e+003
1.144399e+003, 1.077327e+003
1.144881e+003, 1.076991e+003
1.145363e+003, 1.076409e+003
1.145846e+003, 1.075141e+003
1.146328e+003, 1.073973e+003
1.146810e+003, 1.074284e+003
1.147292e+003, 1.074820e+003
1.147774e+003, 1.073936e+003
1.148256e+003, 1.071281e+003
1.148738e+003, 1.070129e+003
1.149220e+003, 1.071165e+003
1.149703e+003, 1.071258e+003
1.150185e+003, 1.068969e+003
1.150667e+003, 1.065889e+003
1.151149e+003, 1.063999e+003
1.151631e+003, 1.063062e+003
1.152113e+003, 1.062773e+003
1.152595e+003, 1.063276e+003
1.153077e+003, 1.063820e+003
1.153559e+003, 1.064616e+003
1.154042e+003, 1.064816e+003
1.154524e+003, 1.063558e+003
1.155006e+003, 1.061768e+003
1.155488e+003, 1.061727e+003
1.155970e+003, 1.062808e+003
1.156452e+003, 1.063472e+003
1.156934e+003, 1.062774e+003
1.157416e+003, 1.062522e+003
1.157898e+003, 1.063334e+003
1.158381e+003, 1.063998e+003
1.158863e+003, 1.063441e+003
1.159345e+003, 1.061985e+003
1.159827e+003, 1.060554e+003
1.160309e+003, 1.059326e+003
1.160791e+003, 1.059070e+003
1.161273e+003, 1.061413e+003
1.161755e+003, 1.063031e+003
1.162238e+003, 1.062653e+003
1.162720e+003, 1.061709e+003
1.163202e+003, 1.061692e+003
1.163684e+003, 1.062468e+003
1.164166e+003, 1.063315e+003
1.164648e+003, 1.064169e+003
1.165130e+003, 1.064797e+003
1.165612e+003, 1.064892e+003
1.166094e+003, 1.064933e+003
1.166577e+003, 1.065282e+003
1.167059e+003, 1.065609e+003
1.167541e+003, 1.065191e+003
1.168023e+003, 1.064135e+003
1.168505e+003, 1.063920e+003
1.168987e+003, 1.064711e+003
1.169469e+003, 1.065267e+003
1.169951e+003, 1.063420e+003
1.170433e+003, 1.062385e+003
1.170916e+003, 1.065099e+003
1.171398e+003, 1.069856e+003
1.171880e+003, 1.072710e+003
1.172362e+003, 1.073683e+003
1.172844e+003, 1.073114e+003
1.173326e+003, 1.070870e+003
1.173808e+003, 1.068561e+003
1.174290e+003, 1.067167e+003
1.174773e+003, 1.066549e+003
1.175255e+003, 1.066848e+003
1.175737e+003, 1.067862e+003
1.176219e+003, 1.068843e+003
1.176701e+003, 1.069804e+003
1.177183e+003, 1.070736e+003
1.177665e+003, 1.071768e+003
1.178147e+003, 1.072366e+003
1.178630e+003, 1.071591e+003
1.179112e+003, 1.070450e+003
1.179594e+003, 1.069921e+003
1.180076e+003, 1.070064e+003
1.180558e+003, 1.070487e+003
1.181040e+003, 1.071283e+003
1.181522e+003, 1.071469e+003
1.182004e+003, 1.070272e+003
1.182486e+003, 1.069187e+003
1.182969e+003, 1.070366e+003
1.183451e+003, 1.072285e+003
1.183933e+003, 1.072859e+003
1.184415e+003, 1.071468e+003
1.184897e+003, 1.071727e+003
1.185379e+003, 1.073951e+003
1.185861e+003, 1.075730e+003
1.186343e+003, 1.075462e+003
1.186825e+003, 1.074599e+003
1.187308e+003, 1.075008e+003
1.187790e+003, 1.075932e+003
1.188272e+003, 1.076133e+003
1.188754e+003, 1.075102e+003
1.189236e+003, 1.074329e+003
1.189718e+003, 1.073785e+003
1.190200e+003, 1.073728e+003
1.190682e+003, 1.074786e+003
1.191165e+003, 1.076066e+003
1.191647e+003, 1.076167e+003
1.192129e+003, 1.075678e+003
1.192611e+003, 1.075820e+003
1.193093e+003, 1.077209e+003
1.193575e+003, 1.078429e+003
1.194057e+003, 1.079567e+003
1.194539e+003, 1.080123e+003
1.195021e+003, 1.079230e+003
1.195504e+003, 1.077851e+003
1.195986e+003, 1.077028e+003
1.196468e+003, 1.076820e+003
1.196950e+003, 1.077454e+003
1.197432e+003, 1.079838e+003
1.197914e+003, 1.080842e+003
1.198396e+003, 1.079910e+003
1.198878e+003, 1.078881e+003
1.199360e+003, 1.079949e+003
1.199843e+003, 1.081733e+003
1.200325e+003, 1.082005e+003
1.200807e+003, 1.081143e+003
1.201289e+003, 1.081042e+003
1.201771e+003, 1.082705e+003
1.202253e+003, 1.083647e+003
1.202735e+003, 1.083553e+003
1.203217e+003, 1.082896e+003
1.203700e+003, 1.081356e+003
1.204182e+003, 1.080089e+003
1.204664e+003, 1.081239e+003
1.205146e+003, 1.084499e+003
1.205628e+003, 1.087078e+003
1.206110e+003, 1.088591e+003
1.206592e+003, 1.089119e+003
1.207074e+003, 1.088346e+003
1.207557e+003, 1.087458e+003
1.208039e+003, 1.088058e+003
1.208521e+003, 1.089404e+003
1.209003e+003, 1.090469e+003
1.209485e+003, 1.091169e+003
1.209967e+003, 1.091951e+003
1.210449e+003, 1.093275e+003
1.210931e+003, 1.093591e+003
1.211413e+003, 1.092189e+003
1.211896e+003, 1.090752e+003
1.212378e+003, 1.092297e+003
1.212860e+003, 1.094880e+003
1.213342e+003, 1.095469e+003
1.213824e+003, 1.093741e+003
1.214306e+003, 1.092303e+003
1.214788e+003, 1.091249e+003
1.215270e+003, 1.091099e+003
1.215752e+003, 1.092239e+003
1.216235e+003, 1.093745e+003
1.216717e+003, 1.094627e+003
1.217199e+003, 1.094874e+003
1.217681e+003, 1.094207e+003
1.218163e+003, 1.092493e+003
1.218645e+003, 1.091665e+003
1.219127e+003, 1.092156e+003
1.219609e+003, 1.092524e+003
1.220092e+003, 1.092174e+003
1.220574e+003, 1.091804e+003
1.221056e+003, 1.092839e+003
1.221538e+003, 1.094324e+003
1.222020e+003, 1.094636e+003
1.222502e+003, 1.093233e+003
1.222984e+003, 1.093209e+003
1.223466e+003, 1.095162e+003
1.223948e+003, 1.096704e+003
1.224431e+003, 1.096691e+003
1.224913e+003, 1.096372e+003
1.225395e+003, 1.098115e+003
1.225877e+003, 1.100451e+003
1.226359e+003, 1.101188e+003
1.226841e+003, 1.099485e+003
1.227323e+003, 1.098647e+003
1.227805e+003, 1.098862e+003
1.228287e+003, 1.099315e+003
1.228770e+003, 1.099824e+003
1.229252e+003, 1.100118e+003
1.229734e+003, 1.099603e+003
1.230216e+003, 1.098751e+003
1.230698e+003, 1.098257e+003
1.231180e+003, 1.098346e+003
1.231662e+003, 1.097886e+003
1.232144e+003, 1.096607e+003
1.232627e+003, 1.096461e+003
1.233109e+003, 1.099084e+003
1.233591e+003, 1.102030e+003
1.234073e+003, 1.102284e+003
1.234555e+003, 1.101128e+003
1.235037e+003, 1.100200e+003
1.235519e+003, 1.099666e+003
1.236001e+003, 1.099503e+003
1.236484e+003, 1.099713e+003
1.236966e+003, 1.100502e+003
1.237448e+003, 1.102686e+003
1.237930e+003, 1.104385e+003
1.238412e+003, 1.102471e+003
1.238894e+003, 1.099525e+003
1.239376e+003, 1.099418e+003
1.239858e+003, 1.102772e+003
1.240340e+003, 1.104605e+003
1.240823e+003, 1.104804e+003
1.241305e+003, 1.104912e+003
1.241787e+003, 1.105846e+003
1.242269e+003, 1.106802e+003
1.242751e+003, 1.106663e+003
1.243233e+003, 1.106379e+003
1.243715e+003, 1.107296e+003
1.244197e+003, 1.109621e+003
1.244679e+003, 1.110954e+003
1.245162e+003, 1.111320e+003
1.245644e+003, 1.111304e+003
1.246126e+003, 1.110985e+003
1.246608e+003, 1.110752e+003
1.247090e+003, 1.111168e+003
1.247572e+003, 1.111648e+003
1.248054e+003, 1.111466e+003
1.248536e+003, 1.110608e+003
1.249019e+003, 1.110286e+003
1.249501e+003, 1.110468e+003
1.249983e+003, 1.110615e+003
1.250465e+003, 1.109964e+003
1.250947e+003, 1.109799e+003
1.251429e+003, 1.111712e+003
1.251911e+003, 1.113658e+003
1.252393e+003, 1.113077e+003
1.252875e+003, 1.110230e+003
1.253358e+003, 1.111424e+003
1.253840e+003, 1.115992e+003
1.254322e+003, 1.119605e+003
1.254804e+003, 1.119561e+003
1.255286e+003, 1.118663e+003
1.255768e+003, 1.117084e+003
1.256250e+003, 1.115851e+003
1.256732e+003, 1.116023e+003
1.257214e+003, 1.117377e+003
1.257697e+003, 1.118924e+003
1.258179e+003, 1.120477e+003
1.258661e+003, 1.121160e+003
1.259143e+003, 1.119402e+003
1.259625e+003, 1.118549e+003
1.260107e+003, 1.119678e+003
1.260589e+003, 1.121121e+003
1.261071e+003, 1.121231e+003
1.261554e+003, 1.120574e+003
1.262036e+003, 1.121051e+003
1.262518e+003, 1.122372e+003
1.263000e+003, 1.123534e+003
1.263482e+003, 1.124108e+003
1.263964e+003, 1.124490e+003
1.264446e+003, 1.124611e+003
1.264928e+003, 1.124747e+003
1.265411e+003, 1.125194e+003
1.265893e+003, 1.125768e+003
1.266375e+003, 1.126067e+003
1.266857e+003, 1.126211e+003
1.267339e+003, 1.126526e+003
1.267821e+003, 1.127064e+003
1.268303e+003, 1.128190e+003
1.268785e+003, 1.130373e+003
1.269267e+003, 1.131516e+003
1.269750e+003, 1.128283e+003
1.270232e+003, 1.124356e+003
1.270714e+003, 1.125355e+003
1.271196e+003, 1.129265e+003
1.271678e+003, 1.131190e+003
1.272160e+003, 1.129885e+003
1.272642e+003, 1.129175e+003
1.273124e+003, 1.129139e+003
1.273606e+003, 1.129624e+003
1.274089e+003, 1.130774e+003
1.274571e+003, 1.132109e+003
1.275053e+003, 1.133681e+003
1.275535e+003, 1.134890e+003
1.276017e+003, 1.134534e+003
1.276499e+003, 1.132104e+003
1.276981e+003, 1.131711e+003
1.277463e+003, 1.133415e+003
1.277946e+003, 1.135445e+003
1.278428e+003, 1.137065e+003
1.278910e+003, 1.138210e+003
1.279392e+003, 1.138980e+003
1.279874e+003, 1.139126e+003
1.280356e+003, 1.138164e+003
1.280838e+003, 1.136154e+003
1.281320e+003, 1.134552e+003
1.281802e+003, 1.133439e+003
1.282285e+003, 1.133143e+003
1.282767e+003, 1.134500e+003
1.283249e+003, 1.135850e+003
1.283731e+003, 1.136601e+003
1.284213e+003, 1.137070e+003
1.284695e+003, 1.137449e+003
1.285177e+003, 1.137755e+003
1.285659e+003, 1.137929e+003
1.286141e+003, 1.138104e+003
1.286624e+003, 1.138835e+003
1.287106e+003, 1.140968e+003
1.287588e+003, 1.142790e+003
1.288070e+003, 1.144178e+003
1.288552e+003, 1.145013e+003
1.289034e+003, 1.145218e+003
1.289516e+003, 1.144771e+003
1.289998e+003, 1.142707e+003
1.290481e+003, 1.140035e+003
1.290963e+003, 1.139352e+003
1.291445e+003, 1.143724e+003
1.291927e+003, 1.145790e+003
1.292409e+003, 1.144976e+003
1.292891e+003, 1.144019e+003
1.293373e+003, 1.145038e+003
1.293855e+003, 1.146909e+003
1.294338e+003, 1.148582e+003
1.294820e+003, 1.149939e+003
1.295302e+003, 1.150669e+003
1.295784e+003, 1.150678e+003
1.296266e+003, 1.150384e+003
1.296748e+003, 1.149734e+003
1.297230e+003, 1.149716e+003
1.297712e+003, 1.151634e+003
1.298194e+003, 1.153581e+003
1.298677e+003, 1.153883e+003
1.299159e+003, 1.153381e+003
1.299641e+003, 1.153074e+003
1.300123e+003, 1.152947e+003
1.300605e+003, 1.152853e+003
1.301087e+003, 1.152755e+003
1.301569e+003, 1.152377e+003
1.302051e+003, 1.151471e+003
1.302533e+003, 1.150155e+003
1.303016e+003, 1.148401e+003
##END=



