##NAMES=Miersite
##RRUFFID=R110170
##IDEAL CHEMISTRY=Ag^1+^I^1-^
##LOCALITY=Proprietary mine, Broken Hill, Australia
##OWNER=RRUFF
##SOURCE=Marcus Origlieri
##DESCRIPTION=Pale yellow tetrahedra, associated with hexagonal plates of iodargyrite
##STATUS=The identification of this mineral has been confirmed by single-crystal X-ray diffraction.
##URL=rruff.info/R110170
9.112140e+001, 0.000000e+000
9.160352e+001, 3.724582e+004
9.208563e+001, 3.630786e+004
9.256775e+001, 3.619532e+004
9.304987e+001, 3.735775e+004
9.353198e+001, 3.875481e+004
9.401410e+001, 3.962646e+004
9.449622e+001, 4.000443e+004
9.497833e+001, 4.011388e+004
9.546045e+001, 4.013466e+004
9.594257e+001, 4.006551e+004
9.642468e+001, 3.995458e+004
9.690680e+001, 3.983293e+004
9.738892e+001, 3.970200e+004
9.787103e+001, 3.956423e+004
9.835315e+001, 3.937454e+004
9.883527e+001, 3.911363e+004
9.931738e+001, 3.887100e+004
9.979950e+001, 3.865846e+004
1.002816e+002, 3.847675e+004
1.007637e+002, 3.832375e+004
1.012458e+002, 3.818315e+004
1.017280e+002, 3.803889e+004
1.022101e+002, 3.788263e+004
1.026922e+002, 3.772924e+004
1.031743e+002, 3.760432e+004
1.036564e+002, 3.750513e+004
1.041385e+002, 3.740095e+004
1.046207e+002, 3.727507e+004
1.051028e+002, 3.713216e+004
1.055849e+002, 3.698844e+004
1.060670e+002, 3.684257e+004
1.065491e+002, 3.668838e+004
1.070313e+002, 3.652298e+004
1.075134e+002, 3.634414e+004
1.079955e+002, 3.615546e+004
1.084776e+002, 3.596020e+004
1.089597e+002, 3.575674e+004
1.094418e+002, 3.554662e+004
1.099240e+002, 3.533133e+004
1.104061e+002, 3.510844e+004
1.108882e+002, 3.487503e+004
1.113703e+002, 3.462913e+004
1.118524e+002, 3.437532e+004
1.123345e+002, 3.412736e+004
1.128167e+002, 3.390195e+004
1.132988e+002, 3.365851e+004
1.137809e+002, 3.338467e+004
1.142630e+002, 3.309222e+004
1.147451e+002, 3.279227e+004
1.152272e+002, 3.249358e+004
1.157094e+002, 3.219387e+004
1.161915e+002, 3.190093e+004
1.166736e+002, 3.162294e+004
1.171557e+002, 3.133993e+004
1.176378e+002, 3.104112e+004
1.181199e+002, 3.072916e+004
1.186021e+002, 3.041588e+004
1.190842e+002, 3.011171e+004
1.195663e+002, 2.981757e+004
1.200484e+002, 2.952643e+004
1.205305e+002, 2.923582e+004
1.210126e+002, 2.894757e+004
1.214948e+002, 2.866533e+004
1.219769e+002, 2.838972e+004
1.224590e+002, 2.811565e+004
1.229411e+002, 2.783849e+004
1.234232e+002, 2.755933e+004
1.239053e+002, 2.728318e+004
1.243875e+002, 2.701453e+004
1.248696e+002, 2.675054e+004
1.253517e+002, 2.648604e+004
1.258338e+002, 2.621986e+004
1.263159e+002, 2.595244e+004
1.267980e+002, 2.568301e+004
1.272802e+002, 2.541190e+004
1.277623e+002, 2.514384e+004
1.282444e+002, 2.488070e+004
1.287265e+002, 2.462381e+004
1.292086e+002, 2.437025e+004
1.296907e+002, 2.412536e+004
1.301729e+002, 2.387927e+004
1.306550e+002, 2.362714e+004
1.311371e+002, 2.336882e+004
1.316192e+002, 2.310870e+004
1.321013e+002, 2.285381e+004
1.325834e+002, 2.260428e+004
1.330656e+002, 2.235555e+004
1.335477e+002, 2.210505e+004
1.340298e+002, 2.185678e+004
1.345119e+002, 2.161363e+004
1.349940e+002, 2.137711e+004
1.354761e+002, 2.114562e+004
1.359583e+002, 2.091796e+004
1.364404e+002, 2.069795e+004
1.369225e+002, 2.047881e+004
1.374046e+002, 2.026200e+004
1.378867e+002, 2.004481e+004
1.383688e+002, 1.982592e+004
1.388510e+002, 1.960322e+004
1.393331e+002, 1.937831e+004
1.398152e+002, 1.915812e+004
1.402973e+002, 1.894048e+004
1.407794e+002, 1.872795e+004
1.412615e+002, 1.852230e+004
1.417437e+002, 1.832347e+004
1.422258e+002, 1.812658e+004
1.427079e+002, 1.792847e+004
1.431900e+002, 1.773309e+004
1.436721e+002, 1.754672e+004
1.441542e+002, 1.737335e+004
1.446364e+002, 1.720402e+004
1.451185e+002, 1.702990e+004
1.456006e+002, 1.685042e+004
1.460827e+002, 1.666998e+004
1.465648e+002, 1.648599e+004
1.470469e+002, 1.630290e+004
1.475291e+002, 1.612584e+004
1.480112e+002, 1.595816e+004
1.484933e+002, 1.579603e+004
1.489754e+002, 1.562964e+004
1.494575e+002, 1.544988e+004
1.499396e+002, 1.528116e+004
1.504218e+002, 1.513675e+004
1.509039e+002, 1.500398e+004
1.513860e+002, 1.486636e+004
1.518681e+002, 1.471242e+004
1.523502e+002, 1.454411e+004
1.528323e+002, 1.438755e+004
1.533145e+002, 1.425381e+004
1.537966e+002, 1.412188e+004
1.542787e+002, 1.398682e+004
1.547608e+002, 1.384971e+004
1.552429e+002, 1.371253e+004
1.557250e+002, 1.357570e+004
1.562072e+002, 1.343915e+004
1.566893e+002, 1.330838e+004
1.571714e+002, 1.318605e+004
1.576535e+002, 1.306508e+004
1.581356e+002, 1.294036e+004
1.586177e+002, 1.281309e+004
1.590999e+002, 1.268843e+004
1.595820e+002, 1.257188e+004
1.600641e+002, 1.246465e+004
1.605462e+002, 1.235528e+004
1.610283e+002, 1.224324e+004
1.615104e+002, 1.213016e+004
1.619926e+002, 1.201616e+004
1.624747e+002, 1.190159e+004
1.629568e+002, 1.178891e+004
1.634389e+002, 1.168286e+004
1.639210e+002, 1.158291e+004
1.644031e+002, 1.148439e+004
1.648853e+002, 1.138893e+004
1.653674e+002, 1.129386e+004
1.658495e+002, 1.119633e+004
1.663316e+002, 1.109454e+004
1.668137e+002, 1.099292e+004
1.672958e+002, 1.089444e+004
1.677780e+002, 1.079882e+004
1.682601e+002, 1.070714e+004
1.687422e+002, 1.062206e+004
1.692243e+002, 1.054188e+004
1.697064e+002, 1.046108e+004
1.701885e+002, 1.037748e+004
1.706707e+002, 1.029564e+004
1.711528e+002, 1.021878e+004
1.716349e+002, 1.014615e+004
1.721170e+002, 1.007391e+004
1.725991e+002, 9.997588e+003
1.730812e+002, 9.916729e+003
1.735634e+002, 9.841439e+003
1.740455e+002, 9.779317e+003
1.745276e+002, 9.716929e+003
1.750097e+002, 9.647140e+003
1.754918e+002, 9.570854e+003
1.759739e+002, 9.494918e+003
1.764561e+002, 9.427954e+003
1.769382e+002, 9.372575e+003
1.774203e+002, 9.315716e+003
1.779024e+002, 9.255994e+003
1.783845e+002, 9.196087e+003
1.788666e+002, 9.136574e+003
1.793488e+002, 9.078286e+003
1.798309e+002, 9.022193e+003
1.803130e+002, 8.970781e+003
1.807951e+002, 8.926927e+003
1.812772e+002, 8.881716e+003
1.817593e+002, 8.832654e+003
1.822415e+002, 8.784128e+003
1.827236e+002, 8.740276e+003
1.832057e+002, 8.701844e+003
1.836878e+002, 8.665772e+003
1.841699e+002, 8.627304e+003
1.846520e+002, 8.583654e+003
1.851342e+002, 8.543584e+003
1.856163e+002, 8.509205e+003
1.860984e+002, 8.477840e+003
1.865805e+002, 8.446857e+003
1.870626e+002, 8.415517e+003
1.875447e+002, 8.384244e+003
1.880269e+002, 8.353550e+003
1.885090e+002, 8.322959e+003
1.889911e+002, 8.294236e+003
1.894732e+002, 8.267972e+003
1.899553e+002, 8.243809e+003
1.904374e+002, 8.222012e+003
1.909196e+002, 8.203168e+003
1.914017e+002, 8.184945e+003
1.918838e+002, 8.162022e+003
1.923659e+002, 8.133602e+003
1.928480e+002, 8.109526e+003
1.933301e+002, 8.097966e+003
1.938123e+002, 8.095276e+003
1.942944e+002, 8.087631e+003
1.947765e+002, 8.069362e+003
1.952586e+002, 8.047401e+003
1.957407e+002, 8.029558e+003
1.962228e+002, 8.015933e+003
1.967050e+002, 8.002595e+003
1.971871e+002, 7.986836e+003
1.976692e+002, 7.968749e+003
1.981513e+002, 7.949865e+003
1.986334e+002, 7.927979e+003
1.991155e+002, 7.907792e+003
1.995977e+002, 7.894046e+003
2.000798e+002, 7.886575e+003
2.005619e+002, 7.879041e+003
2.010440e+002, 7.863694e+003
2.015261e+002, 7.838617e+003
2.020082e+002, 7.818267e+003
2.024904e+002, 7.809384e+003
2.029725e+002, 7.802267e+003
2.034546e+002, 7.792592e+003
2.039367e+002, 7.779671e+003
2.044188e+002, 7.764898e+003
2.049009e+002, 7.749233e+003
2.053831e+002, 7.731159e+003
2.058652e+002, 7.717108e+003
2.063473e+002, 7.709824e+003
2.068294e+002, 7.704271e+003
2.073115e+002, 7.698196e+003
2.077936e+002, 7.690979e+003
2.082758e+002, 7.682807e+003
2.087579e+002, 7.673995e+003
2.092400e+002, 7.664593e+003
2.097221e+002, 7.654268e+003
2.102042e+002, 7.642498e+003
2.106863e+002, 7.630367e+003
2.111685e+002, 7.618680e+003
2.116506e+002, 7.607537e+003
2.121327e+002, 7.596319e+003
2.126148e+002, 7.583912e+003
2.130969e+002, 7.569140e+003
2.135790e+002, 7.555948e+003
2.140612e+002, 7.543972e+003
2.145433e+002, 7.533658e+003
2.150254e+002, 7.525608e+003
2.155075e+002, 7.519924e+003
2.159896e+002, 7.515601e+003
2.164717e+002, 7.511683e+003
2.169539e+002, 7.509884e+003
2.174360e+002, 7.503401e+003
2.179181e+002, 7.487083e+003
2.184002e+002, 7.468516e+003
2.188823e+002, 7.456267e+003
2.193644e+002, 7.452491e+003
2.198466e+002, 7.450355e+003
2.203287e+002, 7.439269e+003
2.208108e+002, 7.416615e+003
2.212929e+002, 7.400014e+003
2.217750e+002, 7.398259e+003
2.222571e+002, 7.401368e+003
2.227393e+002, 7.395650e+003
2.232214e+002, 7.377365e+003
2.237035e+002, 7.355878e+003
2.241856e+002, 7.344050e+003
2.246677e+002, 7.341094e+003
2.251498e+002, 7.336014e+003
2.256320e+002, 7.323474e+003
2.261141e+002, 7.307717e+003
2.265962e+002, 7.296412e+003
2.270783e+002, 7.291991e+003
2.275604e+002, 7.288472e+003
2.280425e+002, 7.278241e+003
2.285247e+002, 7.263104e+003
2.290068e+002, 7.250440e+003
2.294889e+002, 7.244453e+003
2.299710e+002, 7.242875e+003
2.304531e+002, 7.241341e+003
2.309352e+002, 7.240695e+003
2.314174e+002, 7.237237e+003
2.318995e+002, 7.225661e+003
2.323816e+002, 7.208845e+003
2.328637e+002, 7.194773e+003
2.333458e+002, 7.189175e+003
2.338279e+002, 7.189464e+003
2.343101e+002, 7.187002e+003
2.347922e+002, 7.180387e+003
2.352743e+002, 7.172979e+003
2.357564e+002, 7.165975e+003
2.362385e+002, 7.159682e+003
2.367206e+002, 7.154617e+003
2.372028e+002, 7.150138e+003
2.376849e+002, 7.147088e+003
2.381670e+002, 7.150332e+003
2.386491e+002, 7.167832e+003
2.391312e+002, 7.179330e+003
2.396133e+002, 7.173982e+003
2.400955e+002, 7.158333e+003
2.405776e+002, 7.143664e+003
2.410597e+002, 7.137730e+003
2.415418e+002, 7.137793e+003
2.420239e+002, 7.130419e+003
2.425060e+002, 7.110354e+003
2.429882e+002, 7.089422e+003
2.434703e+002, 7.068332e+003
2.439524e+002, 7.049181e+003
2.444345e+002, 7.035036e+003
2.449166e+002, 7.028137e+003
2.453987e+002, 7.027023e+003
2.458809e+002, 7.024793e+003
2.463630e+002, 7.017684e+003
2.468451e+002, 7.014633e+003
2.473272e+002, 7.022896e+003
2.478093e+002, 7.034548e+003
2.482914e+002, 7.039002e+003
2.487736e+002, 7.030227e+003
2.492557e+002, 7.011307e+003
2.497378e+002, 6.994815e+003
2.502199e+002, 6.981226e+003
2.507020e+002, 6.969828e+003
2.511841e+002, 6.961326e+003
2.516663e+002, 6.954694e+003
2.521484e+002, 6.948737e+003
2.526305e+002, 6.942833e+003
2.531126e+002, 6.937496e+003
2.535947e+002, 6.934310e+003
2.540768e+002, 6.939248e+003
2.545590e+002, 6.938960e+003
2.550411e+002, 6.928784e+003
2.555232e+002, 6.914572e+003
2.560053e+002, 6.902107e+003
2.564874e+002, 6.893901e+003
2.569695e+002, 6.889434e+003
2.574517e+002, 6.887449e+003
2.579338e+002, 6.891719e+003
2.584159e+002, 6.894031e+003
2.588980e+002, 6.894404e+003
2.593801e+002, 6.892738e+003
2.598622e+002, 6.887954e+003
2.603444e+002, 6.879779e+003
2.608265e+002, 6.870702e+003
2.613086e+002, 6.865585e+003
2.617907e+002, 6.869477e+003
2.622728e+002, 6.869165e+003
2.627549e+002, 6.859560e+003
2.632371e+002, 6.848018e+003
2.637192e+002, 6.842933e+003
2.642013e+002, 6.846353e+003
2.646834e+002, 6.852430e+003
2.651655e+002, 6.852260e+003
2.656476e+002, 6.841891e+003
2.661298e+002, 6.834634e+003
2.666119e+002, 6.833721e+003
2.670940e+002, 6.834391e+003
2.675761e+002, 6.831773e+003
2.680582e+002, 6.825012e+003
2.685403e+002, 6.817539e+003
2.690225e+002, 6.813565e+003
2.695046e+002, 6.814287e+003
2.699867e+002, 6.813451e+003
2.704688e+002, 6.811387e+003
2.709509e+002, 6.807485e+003
2.714330e+002, 6.799573e+003
2.719152e+002, 6.787798e+003
2.723973e+002, 6.777366e+003
2.728794e+002, 6.773878e+003
2.733615e+002, 6.778017e+003
2.738436e+002, 6.780212e+003
2.743257e+002, 6.778000e+003
2.748079e+002, 6.775400e+003
2.752900e+002, 6.776269e+003
2.757721e+002, 6.780538e+003
2.762542e+002, 6.784401e+003
2.767363e+002, 6.785073e+003
2.772184e+002, 6.782539e+003
2.777006e+002, 6.779512e+003
2.781827e+002, 6.775437e+003
2.786648e+002, 6.771301e+003
2.791469e+002, 6.767757e+003
2.796290e+002, 6.764787e+003
2.801111e+002, 6.762019e+003
2.805933e+002, 6.758759e+003
2.810754e+002, 6.755841e+003
2.815575e+002, 6.755573e+003
2.820396e+002, 6.760710e+003
2.825217e+002, 6.765177e+003
2.830038e+002, 6.764813e+003
2.834860e+002, 6.760327e+003
2.839681e+002, 6.755147e+003
2.844502e+002, 6.750144e+003
2.849323e+002, 6.746035e+003
2.854144e+002, 6.743838e+003
2.858965e+002, 6.743560e+003
2.863787e+002, 6.744986e+003
2.868608e+002, 6.749702e+003
2.873429e+002, 6.756435e+003
2.878250e+002, 6.760552e+003
2.883071e+002, 6.760206e+003
2.887892e+002, 6.756884e+003
2.892714e+002, 6.752457e+003
2.897535e+002, 6.746708e+003
2.902356e+002, 6.741619e+003
2.907177e+002, 6.736737e+003
2.911998e+002, 6.733130e+003
2.916819e+002, 6.734911e+003
2.921641e+002, 6.745704e+003
2.926462e+002, 6.756662e+003
2.931283e+002, 6.756592e+003
2.936104e+002, 6.746900e+003
2.940925e+002, 6.737769e+003
2.945746e+002, 6.733017e+003
2.950568e+002, 6.731589e+003
2.955389e+002, 6.731876e+003
2.960210e+002, 6.734235e+003
2.965031e+002, 6.736710e+003
2.969852e+002, 6.738599e+003
2.974673e+002, 6.739515e+003
2.979495e+002, 6.737598e+003
2.984316e+002, 6.729485e+003
2.989137e+002, 6.719264e+003
2.993958e+002, 6.713307e+003
2.998779e+002, 6.712349e+003
3.003600e+002, 6.712797e+003
3.008422e+002, 6.713947e+003
3.013243e+002, 6.714657e+003
3.018064e+002, 6.712597e+003
3.022885e+002, 6.706079e+003
3.027706e+002, 6.697692e+003
3.032527e+002, 6.690458e+003
3.037349e+002, 6.684468e+003
3.042170e+002, 6.677774e+003
3.046991e+002, 6.667342e+003
3.051812e+002, 6.656827e+003
3.056633e+002, 6.651889e+003
3.061454e+002, 6.655255e+003
3.066276e+002, 6.659258e+003
3.071097e+002, 6.655968e+003
3.075918e+002, 6.645915e+003
3.080739e+002, 6.638247e+003
3.085560e+002, 6.636913e+003
3.090381e+002, 6.638651e+003
3.095203e+002, 6.639845e+003
3.100024e+002, 6.640426e+003
3.104845e+002, 6.640196e+003
3.109666e+002, 6.638575e+003
3.114487e+002, 6.635847e+003
3.119308e+002, 6.633586e+003
3.124130e+002, 6.632452e+003
3.128951e+002, 6.631262e+003
3.133772e+002, 6.628185e+003
3.138593e+002, 6.623625e+003
3.143414e+002, 6.620677e+003
3.148235e+002, 6.623405e+003
3.153057e+002, 6.628769e+003
3.157878e+002, 6.628070e+003
3.162699e+002, 6.618447e+003
3.167520e+002, 6.607930e+003
3.172341e+002, 6.602501e+003
3.177162e+002, 6.600664e+003
3.181984e+002, 6.599479e+003
3.186805e+002, 6.597303e+003
3.191626e+002, 6.595507e+003
3.196447e+002, 6.597127e+003
3.201268e+002, 6.603088e+003
3.206089e+002, 6.607983e+003
3.210911e+002, 6.608757e+003
3.215732e+002, 6.606513e+003
3.220553e+002, 6.602039e+003
3.225374e+002, 6.594154e+003
3.230195e+002, 6.586284e+003
3.235016e+002, 6.582674e+003
3.239838e+002, 6.583339e+003
3.244659e+002, 6.583292e+003
3.249480e+002, 6.579816e+003
3.254301e+002, 6.575260e+003
3.259122e+002, 6.572413e+003
3.263943e+002, 6.571479e+003
3.268765e+002, 6.571766e+003
3.273586e+002, 6.574360e+003
3.278407e+002, 6.578386e+003
3.283228e+002, 6.578442e+003
3.288049e+002, 6.571353e+003
3.292870e+002, 6.562540e+003
3.297692e+002, 6.557345e+003
3.302513e+002, 6.555524e+003
3.307334e+002, 6.555057e+003
3.312155e+002, 6.556646e+003
3.316976e+002, 6.558753e+003
3.321797e+002, 6.556555e+003
3.326619e+002, 6.547475e+003
3.331440e+002, 6.539933e+003
3.336261e+002, 6.543179e+003
3.341082e+002, 6.553435e+003
3.345903e+002, 6.562271e+003
3.350724e+002, 6.565524e+003
3.355546e+002, 6.566795e+003
3.360367e+002, 6.571102e+003
3.365188e+002, 6.578758e+003
3.370009e+002, 6.586258e+003
3.374830e+002, 6.592721e+003
3.379651e+002, 6.597217e+003
3.384473e+002, 6.597832e+003
3.389294e+002, 6.592517e+003
3.394115e+002, 6.586229e+003
3.398936e+002, 6.584119e+003
3.403757e+002, 6.585332e+003
3.408578e+002, 6.582896e+003
3.413400e+002, 6.571885e+003
3.418221e+002, 6.558361e+003
3.423042e+002, 6.551810e+003
3.427863e+002, 6.553170e+003
3.432684e+002, 6.555312e+003
3.437505e+002, 6.554603e+003
3.442327e+002, 6.552092e+003
3.447148e+002, 6.550681e+003
3.451969e+002, 6.551544e+003
3.456790e+002, 6.552055e+003
3.461611e+002, 6.546744e+003
3.466432e+002, 6.536770e+003
3.471254e+002, 6.532108e+003
3.476075e+002, 6.540081e+003
3.480896e+002, 6.552455e+003
3.485717e+002, 6.559496e+003
3.490538e+002, 6.560368e+003
3.495359e+002, 6.557492e+003
3.500181e+002, 6.550821e+003
3.505002e+002, 6.541627e+003
3.509823e+002, 6.535616e+003
3.514644e+002, 6.536493e+003
3.519465e+002, 6.537760e+003
3.524286e+002, 6.533298e+003
3.529108e+002, 6.524681e+003
3.533929e+002, 6.519769e+003
3.538750e+002, 6.523367e+003
3.543571e+002, 6.532091e+003
3.548392e+002, 6.537313e+003
3.553214e+002, 6.537721e+003
3.558035e+002, 6.538182e+003
3.562856e+002, 6.541358e+003
3.567677e+002, 6.545579e+003
3.572498e+002, 6.547501e+003
3.577319e+002, 6.545946e+003
3.582141e+002, 6.543232e+003
3.586962e+002, 6.542754e+003
3.591783e+002, 6.545076e+003
3.596604e+002, 6.546118e+003
3.601425e+002, 6.544374e+003
3.606246e+002, 6.541833e+003
3.611068e+002, 6.540476e+003
3.615889e+002, 6.540442e+003
3.620710e+002, 6.540516e+003
3.625531e+002, 6.539766e+003
3.630352e+002, 6.538162e+003
3.635173e+002, 6.536107e+003
3.639995e+002, 6.530548e+003
3.644816e+002, 6.527541e+003
3.649637e+002, 6.532338e+003
3.654458e+002, 6.542158e+003
3.659279e+002, 6.549749e+003
3.664100e+002, 6.551172e+003
3.668922e+002, 6.548200e+003
3.673743e+002, 6.546509e+003
3.678564e+002, 6.546536e+003
3.683385e+002, 6.547047e+003
3.688206e+002, 6.547736e+003
3.693027e+002, 6.548863e+003
3.697849e+002, 6.550969e+003
3.702670e+002, 6.554136e+003
3.707491e+002, 6.557630e+003
3.712312e+002, 6.560614e+003
3.717133e+002, 6.563564e+003
3.721954e+002, 6.564022e+003
3.726776e+002, 6.558958e+003
3.731597e+002, 6.554134e+003
3.736418e+002, 6.553381e+003
3.741239e+002, 6.556389e+003
3.746060e+002, 6.560479e+003
3.750881e+002, 6.563674e+003
3.755703e+002, 6.565992e+003
3.760524e+002, 6.567882e+003
3.765345e+002, 6.570756e+003
3.770166e+002, 6.571708e+003
3.774987e+002, 6.568039e+003
3.779808e+002, 6.562582e+003
3.784630e+002, 6.559467e+003
3.789451e+002, 6.560613e+003
3.794272e+002, 6.564574e+003
3.799093e+002, 6.567855e+003
3.803914e+002, 6.569123e+003
3.808735e+002, 6.572073e+003
3.813557e+002, 6.580700e+003
3.818378e+002, 6.588175e+003
3.823199e+002, 6.587423e+003
3.828020e+002, 6.578677e+003
3.832841e+002, 6.569635e+003
3.837662e+002, 6.569548e+003
3.842484e+002, 6.580091e+003
3.847305e+002, 6.587654e+003
3.852126e+002, 6.589851e+003
3.856947e+002, 6.591161e+003
3.861768e+002, 6.592972e+003
3.866589e+002, 6.594911e+003
3.871411e+002, 6.595997e+003
3.876232e+002, 6.595596e+003
3.881053e+002, 6.593968e+003
3.885874e+002, 6.591945e+003
3.890695e+002, 6.588947e+003
3.895516e+002, 6.586685e+003
3.900338e+002, 6.584957e+003
3.905159e+002, 6.584334e+003
3.909980e+002, 6.586835e+003
3.914801e+002, 6.592907e+003
3.919622e+002, 6.597489e+003
3.924443e+002, 6.590817e+003
3.929265e+002, 6.570544e+003
3.934086e+002, 6.562485e+003
3.938907e+002, 6.582594e+003
3.943728e+002, 6.603956e+003
3.948549e+002, 6.611013e+003
3.953370e+002, 6.605547e+003
3.958192e+002, 6.597086e+003
3.963013e+002, 6.592749e+003
3.967834e+002, 6.590033e+003
3.972655e+002, 6.578838e+003
3.977476e+002, 6.554515e+003
3.982297e+002, 6.533899e+003
3.987119e+002, 6.528063e+003
3.991940e+002, 6.530461e+003
3.996761e+002, 6.533969e+003
4.001582e+002, 6.537624e+003
4.006403e+002, 6.540016e+003
4.011224e+002, 6.539512e+003
4.016046e+002, 6.536185e+003
4.020867e+002, 6.531558e+003
4.025688e+002, 6.525489e+003
4.030509e+002, 6.518877e+003
4.035330e+002, 6.512481e+003
4.040151e+002, 6.506250e+003
4.044973e+002, 6.501145e+003
4.049794e+002, 6.498010e+003
4.054615e+002, 6.496154e+003
4.059436e+002, 6.495286e+003
4.064257e+002, 6.495793e+003
4.069078e+002, 6.493852e+003
4.073900e+002, 6.484092e+003
4.078721e+002, 6.468690e+003
4.083542e+002, 6.458877e+003
4.088363e+002, 6.458466e+003
4.093184e+002, 6.461187e+003
4.098005e+002, 6.464417e+003
4.102827e+002, 6.467742e+003
4.107648e+002, 6.469860e+003
4.112469e+002, 6.470243e+003
4.117290e+002, 6.469040e+003
4.122111e+002, 6.466323e+003
4.126932e+002, 6.461879e+003
4.131754e+002, 6.456773e+003
4.136575e+002, 6.448624e+003
4.141396e+002, 6.441231e+003
4.146217e+002, 6.439802e+003
4.151038e+002, 6.444750e+003
4.155859e+002, 6.450669e+003
4.160681e+002, 6.452306e+003
4.165502e+002, 6.449276e+003
4.170323e+002, 6.445279e+003
4.175144e+002, 6.439197e+003
4.179965e+002, 6.433447e+003
4.184786e+002, 6.427894e+003
4.189608e+002, 6.423517e+003
4.194429e+002, 6.422582e+003
4.199250e+002, 6.426449e+003
4.204071e+002, 6.432920e+003
4.208892e+002, 6.435847e+003
4.213713e+002, 6.432642e+003
4.218535e+002, 6.429609e+003
4.223356e+002, 6.427569e+003
4.228177e+002, 6.425369e+003
4.232998e+002, 6.421647e+003
4.237819e+002, 6.416525e+003
4.242640e+002, 6.411724e+003
4.247462e+002, 6.409197e+003
4.252283e+002, 6.409134e+003
4.257104e+002, 6.408301e+003
4.261925e+002, 6.405232e+003
4.266746e+002, 6.402984e+003
4.271567e+002, 6.403990e+003
4.276389e+002, 6.406018e+003
4.281210e+002, 6.405064e+003
4.286031e+002, 6.398734e+003
4.290852e+002, 6.390438e+003
4.295673e+002, 6.387462e+003
4.300494e+002, 6.391261e+003
4.305316e+002, 6.395098e+003
4.310137e+002, 6.398646e+003
4.314958e+002, 6.400872e+003
4.319779e+002, 6.400814e+003
4.324600e+002, 6.398508e+003
4.329421e+002, 6.394968e+003
4.334243e+002, 6.389638e+003
4.339064e+002, 6.383440e+003
4.343885e+002, 6.381052e+003
4.348706e+002, 6.384619e+003
4.353527e+002, 6.387461e+003
4.358348e+002, 6.384087e+003
4.363170e+002, 6.377277e+003
4.367991e+002, 6.371429e+003
4.372812e+002, 6.367746e+003
4.377633e+002, 6.365146e+003
4.382454e+002, 6.363050e+003
4.387275e+002, 6.361308e+003
4.392097e+002, 6.358600e+003
4.396918e+002, 6.353373e+003
4.401739e+002, 6.348636e+003
4.406560e+002, 6.349810e+003
4.411381e+002, 6.357214e+003
4.416202e+002, 6.363841e+003
4.421024e+002, 6.368028e+003
4.425845e+002, 6.370282e+003
4.430666e+002, 6.371508e+003
4.435487e+002, 6.371688e+003
4.440308e+002, 6.368813e+003
4.445129e+002, 6.359767e+003
4.449951e+002, 6.346037e+003
4.454772e+002, 6.341114e+003
4.459593e+002, 6.353904e+003
4.464414e+002, 6.363829e+003
4.469235e+002, 6.362854e+003
4.474056e+002, 6.355646e+003
4.478878e+002, 6.348665e+003
4.483699e+002, 6.344187e+003
4.488520e+002, 6.341888e+003
4.493341e+002, 6.341495e+003
4.498162e+002, 6.344162e+003
4.502983e+002, 6.345461e+003
4.507805e+002, 6.344150e+003
4.512626e+002, 6.342836e+003
4.517447e+002, 6.343507e+003
4.522268e+002, 6.345382e+003
4.527089e+002, 6.346169e+003
4.531910e+002, 6.344253e+003
4.536732e+002, 6.340224e+003
4.541553e+002, 6.336308e+003
4.546374e+002, 6.330943e+003
4.551195e+002, 6.328555e+003
4.556016e+002, 6.333016e+003
4.560837e+002, 6.338285e+003
4.565659e+002, 6.338588e+003
4.570480e+002, 6.333171e+003
4.575301e+002, 6.326658e+003
4.580122e+002, 6.323141e+003
4.584943e+002, 6.322599e+003
4.589764e+002, 6.325457e+003
4.594586e+002, 6.335131e+003
4.599407e+002, 6.343014e+003
4.604228e+002, 6.343305e+003
4.609049e+002, 6.339179e+003
4.613870e+002, 6.336528e+003
4.618691e+002, 6.338544e+003
4.623513e+002, 6.340974e+003
4.628334e+002, 6.337672e+003
4.633155e+002, 6.328908e+003
4.637976e+002, 6.321555e+003
4.642797e+002, 6.317501e+003
4.647618e+002, 6.316157e+003
4.652440e+002, 6.317430e+003
4.657261e+002, 6.321391e+003
4.662082e+002, 6.324259e+003
4.666903e+002, 6.325385e+003
4.671724e+002, 6.324436e+003
4.676545e+002, 6.319467e+003
4.681367e+002, 6.310757e+003
4.686188e+002, 6.303954e+003
4.691009e+002, 6.303445e+003
4.695830e+002, 6.307801e+003
4.700651e+002, 6.309687e+003
4.705472e+002, 6.307016e+003
4.710294e+002, 6.304851e+003
4.715115e+002, 6.304960e+003
4.719936e+002, 6.306054e+003
4.724757e+002, 6.306219e+003
4.729578e+002, 6.305050e+003
4.734399e+002, 6.304131e+003
4.739221e+002, 6.305700e+003
4.744042e+002, 6.310711e+003
4.748863e+002, 6.312470e+003
4.753684e+002, 6.308362e+003
4.758505e+002, 6.304171e+003
4.763326e+002, 6.302331e+003
4.768148e+002, 6.301802e+003
4.772969e+002, 6.300495e+003
4.777790e+002, 6.297381e+003
4.782611e+002, 6.293405e+003
4.787432e+002, 6.290438e+003
4.792253e+002, 6.288318e+003
4.797075e+002, 6.287782e+003
4.801896e+002, 6.291416e+003
4.806717e+002, 6.294625e+003
4.811538e+002, 6.294805e+003
4.816359e+002, 6.292150e+003
4.821180e+002, 6.288398e+003
4.826002e+002, 6.284060e+003
4.830823e+002, 6.279708e+003
4.835644e+002, 6.276906e+003
4.840465e+002, 6.275809e+003
4.845286e+002, 6.275931e+003
4.850107e+002, 6.280189e+003
4.854929e+002, 6.283847e+003
4.859750e+002, 6.280262e+003
4.864571e+002, 6.267456e+003
4.869392e+002, 6.254275e+003
4.874213e+002, 6.244915e+003
4.879034e+002, 6.239179e+003
4.883856e+002, 6.237956e+003
4.888677e+002, 6.241972e+003
4.893498e+002, 6.245455e+003
4.898319e+002, 6.242300e+003
4.903140e+002, 6.233311e+003
4.907961e+002, 6.229502e+003
4.912783e+002, 6.235095e+003
4.917604e+002, 6.241316e+003
4.922425e+002, 6.244655e+003
4.927246e+002, 6.245752e+003
4.932067e+002, 6.245769e+003
4.936888e+002, 6.245124e+003
4.941710e+002, 6.244003e+003
4.946531e+002, 6.242622e+003
4.951352e+002, 6.240658e+003
4.956173e+002, 6.239524e+003
4.960994e+002, 6.241300e+003
4.965815e+002, 6.241775e+003
4.970637e+002, 6.238247e+003
4.975458e+002, 6.231844e+003
4.980279e+002, 6.224830e+003
4.985100e+002, 6.218280e+003
4.989921e+002, 6.212853e+003
4.994742e+002, 6.210693e+003
4.999564e+002, 6.213874e+003
5.004385e+002, 6.214955e+003
5.009206e+002, 6.209303e+003
5.014027e+002, 6.204029e+003
5.018848e+002, 6.204563e+003
5.023669e+002, 6.210198e+003
5.028491e+002, 6.215397e+003
5.033312e+002, 6.215691e+003
5.038133e+002, 6.212970e+003
5.042954e+002, 6.212657e+003
5.047775e+002, 6.215398e+003
5.052596e+002, 6.217672e+003
5.057418e+002, 6.218798e+003
5.062239e+002, 6.217913e+003
5.067060e+002, 6.213016e+003
5.071881e+002, 6.202607e+003
5.076702e+002, 6.194255e+003
5.081523e+002, 6.193701e+003
5.086345e+002, 6.197034e+003
5.091166e+002, 6.197627e+003
5.095987e+002, 6.194486e+003
5.100808e+002, 6.190351e+003
5.105629e+002, 6.187023e+003
5.110450e+002, 6.184612e+003
5.115272e+002, 6.183963e+003
5.120093e+002, 6.186398e+003
5.124914e+002, 6.188719e+003
5.129735e+002, 6.189185e+003
5.134556e+002, 6.189313e+003
5.139377e+002, 6.192454e+003
5.144199e+002, 6.198997e+003
5.149020e+002, 6.204044e+003
5.153841e+002, 6.200415e+003
5.158662e+002, 6.185939e+003
5.163483e+002, 6.177876e+003
5.168304e+002, 6.184349e+003
5.173126e+002, 6.188789e+003
5.177947e+002, 6.186240e+003
5.182768e+002, 6.178863e+003
5.187589e+002, 6.168990e+003
5.192410e+002, 6.157294e+003
5.197231e+002, 6.147157e+003
5.202053e+002, 6.144675e+003
5.206874e+002, 6.150517e+003
5.211695e+002, 6.154025e+003
5.216516e+002, 6.152104e+003
5.221337e+002, 6.149708e+003
5.226158e+002, 6.150813e+003
5.230980e+002, 6.154194e+003
5.235801e+002, 6.156416e+003
5.240622e+002, 6.156836e+003
5.245443e+002, 6.155034e+003
5.250264e+002, 6.148141e+003
5.255085e+002, 6.137563e+003
5.259907e+002, 6.132772e+003
5.264728e+002, 6.138653e+003
5.269549e+002, 6.148186e+003
5.274370e+002, 6.150077e+003
5.279191e+002, 6.142555e+003
5.284012e+002, 6.139575e+003
5.288834e+002, 6.148002e+003
5.293655e+002, 6.156718e+003
5.298476e+002, 6.157108e+003
5.303297e+002, 6.151068e+003
5.308118e+002, 6.145308e+003
5.312939e+002, 6.143411e+003
5.317761e+002, 6.143997e+003
5.322582e+002, 6.143531e+003
5.327403e+002, 6.140528e+003
5.332224e+002, 6.139088e+003
5.337045e+002, 6.139675e+003
5.341866e+002, 6.141147e+003
5.346688e+002, 6.143868e+003
5.351509e+002, 6.146925e+003
5.356330e+002, 6.148085e+003
5.361151e+002, 6.145503e+003
5.365972e+002, 6.140546e+003
5.370793e+002, 6.136470e+003
5.375615e+002, 6.133026e+003
5.380436e+002, 6.131793e+003
5.385257e+002, 6.135919e+003
5.390078e+002, 6.140483e+003
5.394899e+002, 6.141088e+003
5.399720e+002, 6.137771e+003
5.404542e+002, 6.133610e+003
5.409363e+002, 6.128929e+003
5.414184e+002, 6.124931e+003
5.419005e+002, 6.123826e+003
5.423826e+002, 6.125558e+003
5.428647e+002, 6.127539e+003
5.433469e+002, 6.128462e+003
5.438290e+002, 6.128727e+003
5.443111e+002, 6.129502e+003
5.447932e+002, 6.131587e+003
5.452753e+002, 6.132181e+003
5.457574e+002, 6.129557e+003
5.462396e+002, 6.126170e+003
5.467217e+002, 6.124285e+003
5.472038e+002, 6.123762e+003
5.476859e+002, 6.122790e+003
5.481680e+002, 6.119882e+003
5.486501e+002, 6.115893e+003
5.491323e+002, 6.114987e+003
5.496144e+002, 6.120761e+003
5.500965e+002, 6.123309e+003
5.505786e+002, 6.117641e+003
5.510607e+002, 6.111806e+003
5.515428e+002, 6.112787e+003
5.520250e+002, 6.120052e+003
5.525071e+002, 6.126991e+003
5.529892e+002, 6.128325e+003
5.534713e+002, 6.125953e+003
5.539534e+002, 6.126880e+003
5.544355e+002, 6.132924e+003
5.549177e+002, 6.132340e+003
5.553998e+002, 6.114354e+003
5.558819e+002, 6.091696e+003
5.563640e+002, 6.082104e+003
5.568461e+002, 6.087290e+003
5.573282e+002, 6.093421e+003
5.578104e+002, 6.095068e+003
5.582925e+002, 6.094875e+003
5.587746e+002, 6.096832e+003
5.592567e+002, 6.100623e+003
5.597388e+002, 6.101583e+003
5.602209e+002, 6.096405e+003
5.607031e+002, 6.087211e+003
5.611852e+002, 6.080785e+003
5.616673e+002, 6.080112e+003
5.621494e+002, 6.077991e+003
5.626315e+002, 6.073079e+003
5.631136e+002, 6.067685e+003
5.635958e+002, 6.062388e+003
5.640779e+002, 6.058010e+003
5.645600e+002, 6.056854e+003
5.650421e+002, 6.061276e+003
5.655242e+002, 6.068782e+003
5.660063e+002, 6.070686e+003
5.664885e+002, 6.065225e+003
5.669706e+002, 6.059219e+003
5.674527e+002, 6.051068e+003
5.679348e+002, 6.045391e+003
5.684169e+002, 6.047501e+003
5.688990e+002, 6.056323e+003
5.693812e+002, 6.063383e+003
5.698633e+002, 6.064006e+003
5.703454e+002, 6.060398e+003
5.708275e+002, 6.054272e+003
5.713096e+002, 6.045980e+003
5.717917e+002, 6.039838e+003
5.722739e+002, 6.038008e+003
5.727560e+002, 6.038686e+003
5.732381e+002, 6.038756e+003
5.737202e+002, 6.038083e+003
5.742023e+002, 6.037519e+003
5.746844e+002, 6.038208e+003
5.751666e+002, 6.038142e+003
5.756487e+002, 6.035459e+003
5.761308e+002, 6.030860e+003
5.766129e+002, 6.025751e+003
5.770950e+002, 6.020708e+003
5.775771e+002, 6.017058e+003
5.780593e+002, 6.018544e+003
5.785414e+002, 6.028534e+003
5.790235e+002, 6.034364e+003
5.795056e+002, 6.032139e+003
5.799877e+002, 6.028578e+003
5.804698e+002, 6.025868e+003
5.809520e+002, 6.024178e+003
5.814341e+002, 6.023595e+003
5.819162e+002, 6.024785e+003
5.823983e+002, 6.025736e+003
5.828804e+002, 6.022438e+003
5.833625e+002, 6.015519e+003
5.838447e+002, 6.012550e+003
5.843268e+002, 6.016729e+003
5.848089e+002, 6.022011e+003
5.852910e+002, 6.021486e+003
5.857731e+002, 6.015854e+003
5.862552e+002, 6.012288e+003
5.867374e+002, 6.013568e+003
5.872195e+002, 6.014838e+003
5.877016e+002, 6.012349e+003
5.881837e+002, 6.008487e+003
5.886658e+002, 6.008746e+003
5.891479e+002, 6.014440e+003
5.896301e+002, 6.019462e+003
5.901122e+002, 6.015269e+003
5.905943e+002, 6.000168e+003
5.910764e+002, 5.992126e+003
5.915585e+002, 5.998189e+003
5.920406e+002, 6.003248e+003
5.925228e+002, 6.004089e+003
5.930049e+002, 6.001822e+003
5.934870e+002, 5.996808e+003
5.939691e+002, 5.989289e+003
5.944512e+002, 5.982907e+003
5.949333e+002, 5.981776e+003
5.954155e+002, 5.984797e+003
5.958976e+002, 5.987201e+003
5.963797e+002, 5.988582e+003
5.968618e+002, 5.990240e+003
5.973439e+002, 5.994667e+003
5.978260e+002, 5.999103e+003
5.983082e+002, 5.996475e+003
5.987903e+002, 5.982352e+003
5.992724e+002, 5.972457e+003
5.997545e+002, 5.976295e+003
6.002366e+002, 5.984131e+003
6.007188e+002, 5.984357e+003
6.012009e+002, 5.977275e+003
6.016830e+002, 5.971958e+003
6.021651e+002, 5.974907e+003
6.026472e+002, 5.983298e+003
6.031293e+002, 5.986414e+003
6.036115e+002, 5.979923e+003
6.040936e+002, 5.976061e+003
6.045757e+002, 5.977420e+003
6.050578e+002, 5.979780e+003
6.055399e+002, 5.981583e+003
6.060220e+002, 5.982167e+003
6.065042e+002, 5.980251e+003
6.069863e+002, 5.973927e+003
6.074684e+002, 5.966554e+003
6.079505e+002, 5.964299e+003
6.084326e+002, 5.967014e+003
6.089147e+002, 5.968628e+003
6.093969e+002, 5.967431e+003
6.098790e+002, 5.964935e+003
6.103611e+002, 5.962659e+003
6.108432e+002, 5.960564e+003
6.113253e+002, 5.958042e+003
6.118074e+002, 5.952526e+003
6.122896e+002, 5.949195e+003
6.127717e+002, 5.952990e+003
6.132538e+002, 5.960178e+003
6.137359e+002, 5.964560e+003
6.142180e+002, 5.964269e+003
6.147001e+002, 5.961192e+003
6.151823e+002, 5.957216e+003
6.156644e+002, 5.952231e+003
6.161465e+002, 5.948297e+003
6.166286e+002, 5.945609e+003
6.171107e+002, 5.943772e+003
6.175928e+002, 5.944014e+003
6.180750e+002, 5.944233e+003
6.185571e+002, 5.941725e+003
6.190392e+002, 5.936119e+003
6.195213e+002, 5.930712e+003
6.200034e+002, 5.928393e+003
6.204855e+002, 5.927982e+003
6.209677e+002, 5.926517e+003
6.214498e+002, 5.923837e+003
6.219319e+002, 5.922374e+003
6.224140e+002, 5.923807e+003
6.228961e+002, 5.926714e+003
6.233782e+002, 5.928211e+003
6.238604e+002, 5.928530e+003
6.243425e+002, 5.927062e+003
6.248246e+002, 5.920390e+003
6.253067e+002, 5.914868e+003
6.257888e+002, 5.916140e+003
6.262709e+002, 5.922028e+003
6.267531e+002, 5.926817e+003
6.272352e+002, 5.927673e+003
6.277173e+002, 5.926097e+003
6.281994e+002, 5.924767e+003
6.286815e+002, 5.923849e+003
6.291636e+002, 5.921850e+003
6.296458e+002, 5.916189e+003
6.301279e+002, 5.912728e+003
6.306100e+002, 5.916439e+003
6.310921e+002, 5.923546e+003
6.315742e+002, 5.927470e+003
6.320563e+002, 5.926436e+003
6.325385e+002, 5.922447e+003
6.330206e+002, 5.914041e+003
6.335027e+002, 5.904469e+003
6.339848e+002, 5.901432e+003
6.344669e+002, 5.905901e+003
6.349490e+002, 5.910559e+003
6.354312e+002, 5.910220e+003
6.359133e+002, 5.905701e+003
6.363954e+002, 5.900743e+003
6.368775e+002, 5.894612e+003
6.373596e+002, 5.889115e+003
6.378417e+002, 5.883226e+003
6.383239e+002, 5.878901e+003
6.388060e+002, 5.878229e+003
6.392881e+002, 5.880473e+003
6.397702e+002, 5.883147e+003
6.402523e+002, 5.884846e+003
6.407344e+002, 5.885908e+003
6.412166e+002, 5.886940e+003
6.416987e+002, 5.887936e+003
6.421808e+002, 5.888997e+003
6.426629e+002, 5.890954e+003
6.431450e+002, 5.891625e+003
6.436271e+002, 5.887389e+003
6.441093e+002, 5.879857e+003
6.445914e+002, 5.875183e+003
6.450735e+002, 5.875721e+003
6.455556e+002, 5.877579e+003
6.460377e+002, 5.880613e+003
6.465198e+002, 5.883192e+003
6.470020e+002, 5.882362e+003
6.474841e+002, 5.877915e+003
6.479662e+002, 5.872686e+003
6.484483e+002, 5.869139e+003
6.489304e+002, 5.867084e+003
6.494125e+002, 5.864970e+003
6.498947e+002, 5.862306e+003
6.503768e+002, 5.860561e+003
6.508589e+002, 5.861037e+003
6.513410e+002, 5.861625e+003
6.518231e+002, 5.861307e+003
6.523052e+002, 5.859807e+003
6.527874e+002, 5.856495e+003
6.532695e+002, 5.848606e+003
6.537516e+002, 5.841057e+003
6.542337e+002, 5.841274e+003
6.547158e+002, 5.847606e+003
6.551979e+002, 5.852905e+003
6.556801e+002, 5.855363e+003
6.561622e+002, 5.854737e+003
6.566443e+002, 5.849876e+003
6.571264e+002, 5.840390e+003
6.576085e+002, 5.834712e+003
6.580906e+002, 5.837174e+003
6.585728e+002, 5.837522e+003
6.590549e+002, 5.829404e+003
6.595370e+002, 5.820353e+003
6.600191e+002, 5.819920e+003
6.605012e+002, 5.828233e+003
6.609833e+002, 5.835938e+003
6.614655e+002, 5.834991e+003
6.619476e+002, 5.827864e+003
6.624297e+002, 5.821422e+003
6.629118e+002, 5.815400e+003
6.633939e+002, 5.812641e+003
6.638760e+002, 5.815914e+003
6.643582e+002, 5.820581e+003
6.648403e+002, 5.820609e+003
6.653224e+002, 5.816427e+003
6.658045e+002, 5.813232e+003
6.662866e+002, 5.811861e+003
6.667687e+002, 5.811653e+003
6.672509e+002, 5.814221e+003
6.677330e+002, 5.817073e+003
6.682151e+002, 5.815217e+003
6.686972e+002, 5.807818e+003
6.691793e+002, 5.799940e+003
6.696614e+002, 5.796974e+003
6.701436e+002, 5.798534e+003
6.706257e+002, 5.798845e+003
6.711078e+002, 5.796783e+003
6.715899e+002, 5.795794e+003
6.720720e+002, 5.798828e+003
6.725541e+002, 5.801874e+003
6.730363e+002, 5.800982e+003
6.735184e+002, 5.796401e+003
6.740005e+002, 5.792873e+003
6.744826e+002, 5.793067e+003
6.749647e+002, 5.794647e+003
6.754468e+002, 5.796987e+003
6.759290e+002, 5.798810e+003
6.764111e+002, 5.794867e+003
6.768932e+002, 5.783391e+003
6.773753e+002, 5.771899e+003
6.778574e+002, 5.769617e+003
6.783395e+002, 5.776964e+003
6.788217e+002, 5.782836e+003
6.793038e+002, 5.788867e+003
6.797859e+002, 5.791153e+003
6.802680e+002, 5.785701e+003
6.807501e+002, 5.778545e+003
6.812322e+002, 5.775500e+003
6.817144e+002, 5.776781e+003
6.821965e+002, 5.778034e+003
6.826786e+002, 5.775462e+003
6.831607e+002, 5.771845e+003
6.836428e+002, 5.773021e+003
6.841249e+002, 5.778174e+003
6.846071e+002, 5.779741e+003
6.850892e+002, 5.774694e+003
6.855713e+002, 5.768059e+003
6.860534e+002, 5.765938e+003
6.865355e+002, 5.768750e+003
6.870176e+002, 5.768020e+003
6.874998e+002, 5.758627e+003
6.879819e+002, 5.752372e+003
6.884640e+002, 5.755496e+003
6.889461e+002, 5.761091e+003
6.894282e+002, 5.761592e+003
6.899103e+002, 5.756592e+003
6.903925e+002, 5.751406e+003
6.908746e+002, 5.749963e+003
6.913567e+002, 5.751264e+003
6.918388e+002, 5.754766e+003
6.923209e+002, 5.760833e+003
6.928030e+002, 5.759209e+003
6.932852e+002, 5.743261e+003
6.937673e+002, 5.726299e+003
6.942494e+002, 5.723769e+003
6.947315e+002, 5.734566e+003
6.952136e+002, 5.739745e+003
6.956957e+002, 5.733048e+003
6.961779e+002, 5.727442e+003
6.966600e+002, 5.729235e+003
6.971421e+002, 5.733335e+003
6.976242e+002, 5.733674e+003
6.981063e+002, 5.729857e+003
6.985884e+002, 5.725533e+003
6.990706e+002, 5.723165e+003
6.995527e+002, 5.722796e+003
7.000348e+002, 5.725680e+003
7.005169e+002, 5.732870e+003
7.009990e+002, 5.736022e+003
7.014811e+002, 5.731283e+003
7.019633e+002, 5.725201e+003
7.024454e+002, 5.724037e+003
7.029275e+002, 5.726190e+003
7.034096e+002, 5.726318e+003
7.038917e+002, 5.723079e+003
7.043738e+002, 5.718572e+003
7.048560e+002, 5.711498e+003
7.053381e+002, 5.704816e+003
7.058202e+002, 5.702058e+003
7.063023e+002, 5.703445e+003
7.067844e+002, 5.707959e+003
7.072665e+002, 5.715568e+003
7.077487e+002, 5.723351e+003
7.082308e+002, 5.721482e+003
7.087129e+002, 5.706577e+003
7.091950e+002, 5.698220e+003
7.096771e+002, 5.702930e+003
7.101592e+002, 5.709049e+003
7.106414e+002, 5.708107e+003
7.111235e+002, 5.703307e+003
7.116056e+002, 5.701858e+003
7.120877e+002, 5.707055e+003
7.125698e+002, 5.710755e+003
7.130519e+002, 5.707420e+003
7.135341e+002, 5.701447e+003
7.140162e+002, 5.698365e+003
7.144983e+002, 5.697994e+003
7.149804e+002, 5.696148e+003
7.154625e+002, 5.690147e+003
7.159446e+002, 5.683413e+003
7.164268e+002, 5.684078e+003
7.169089e+002, 5.694586e+003
7.173910e+002, 5.701481e+003
7.178731e+002, 5.702756e+003
7.183552e+002, 5.702594e+003
7.188373e+002, 5.699892e+003
7.193195e+002, 5.698234e+003
7.198016e+002, 5.704728e+003
7.202837e+002, 5.722469e+003
7.207658e+002, 5.735951e+003
7.212479e+002, 5.736832e+003
7.217300e+002, 5.730417e+003
7.222122e+002, 5.720221e+003
7.226943e+002, 5.707766e+003
7.231764e+002, 5.695950e+003
7.236585e+002, 5.686017e+003
7.241406e+002, 5.678235e+003
7.246227e+002, 5.673599e+003
7.251049e+002, 5.672640e+003
7.255870e+002, 5.669272e+003
7.260691e+002, 5.661300e+003
7.265512e+002, 5.654497e+003
7.270333e+002, 5.650986e+003
7.275154e+002, 5.649430e+003
7.279976e+002, 5.649046e+003
7.284797e+002, 5.649689e+003
7.289618e+002, 5.650042e+003
7.294439e+002, 5.648105e+003
7.299260e+002, 5.646865e+003
7.304081e+002, 5.650330e+003
7.308903e+002, 5.656486e+003
7.313724e+002, 5.660874e+003
7.318545e+002, 5.662115e+003
7.323366e+002, 5.660414e+003
7.328187e+002, 5.655463e+003
7.333008e+002, 5.647693e+003
7.337830e+002, 5.642256e+003
7.342651e+002, 5.640430e+003
7.347472e+002, 5.638234e+003
7.352293e+002, 5.633029e+003
7.357114e+002, 5.628701e+003
7.361935e+002, 5.629366e+003
7.366757e+002, 5.633746e+003
7.371578e+002, 5.635725e+003
7.376399e+002, 5.631471e+003
7.381220e+002, 5.626880e+003
7.386041e+002, 5.627114e+003
7.390862e+002, 5.629080e+003
7.395684e+002, 5.626783e+003
7.400505e+002, 5.620112e+003
7.405326e+002, 5.615061e+003
7.410147e+002, 5.616364e+003
7.414968e+002, 5.621275e+003
7.419789e+002, 5.620774e+003
7.424611e+002, 5.612436e+003
7.429432e+002, 5.607689e+003
7.434253e+002, 5.609705e+003
7.439074e+002, 5.612866e+003
7.443895e+002, 5.615383e+003
7.448716e+002, 5.616443e+003
7.453538e+002, 5.613861e+003
7.458359e+002, 5.605770e+003
7.463180e+002, 5.599108e+003
7.468001e+002, 5.597921e+003
7.472822e+002, 5.599070e+003
7.477643e+002, 5.599917e+003
7.482465e+002, 5.600165e+003
7.487286e+002, 5.599664e+003
7.492107e+002, 5.598351e+003
7.496928e+002, 5.597379e+003
7.501749e+002, 5.599438e+003
7.506570e+002, 5.604915e+003
7.511392e+002, 5.604540e+003
7.516213e+002, 5.594634e+003
7.521034e+002, 5.587426e+003
7.525855e+002, 5.590624e+003
7.530676e+002, 5.596971e+003
7.535497e+002, 5.596964e+003
7.540319e+002, 5.590260e+003
7.545140e+002, 5.585292e+003
7.549961e+002, 5.585953e+003
7.554782e+002, 5.586882e+003
7.559603e+002, 5.584288e+003
7.564424e+002, 5.580048e+003
7.569246e+002, 5.577233e+003
7.574067e+002, 5.576399e+003
7.578888e+002, 5.576000e+003
7.583709e+002, 5.574720e+003
7.588530e+002, 5.572798e+003
7.593351e+002, 5.571280e+003
7.598173e+002, 5.570355e+003
7.602994e+002, 5.567913e+003
7.607815e+002, 5.561899e+003
7.612636e+002, 5.557354e+003
7.617457e+002, 5.561206e+003
7.622278e+002, 5.570670e+003
7.627100e+002, 5.572090e+003
7.631921e+002, 5.558009e+003
7.636742e+002, 5.547115e+003
7.641563e+002, 5.543719e+003
7.646384e+002, 5.545222e+003
7.651205e+002, 5.553479e+003
7.656027e+002, 5.564552e+003
7.660848e+002, 5.568771e+003
7.665669e+002, 5.561380e+003
7.670490e+002, 5.550517e+003
7.675311e+002, 5.547628e+003
7.680132e+002, 5.550991e+003
7.684954e+002, 5.550405e+003
7.689775e+002, 5.544700e+003
7.694596e+002, 5.539779e+003
7.699417e+002, 5.538377e+003
7.704238e+002, 5.539462e+003
7.709059e+002, 5.541830e+003
7.713881e+002, 5.546618e+003
7.718702e+002, 5.547643e+003
7.723523e+002, 5.539525e+003
7.728344e+002, 5.534114e+003
7.733165e+002, 5.537859e+003
7.737986e+002, 5.545027e+003
7.742808e+002, 5.549303e+003
7.747629e+002, 5.549771e+003
7.752450e+002, 5.549278e+003
7.757271e+002, 5.549635e+003
7.762092e+002, 5.550172e+003
7.766913e+002, 5.549506e+003
7.771735e+002, 5.548079e+003
7.776556e+002, 5.548823e+003
7.781377e+002, 5.552602e+003
7.786198e+002, 5.553104e+003
7.791019e+002, 5.543721e+003
7.795840e+002, 5.527388e+003
7.800662e+002, 5.519749e+003
7.805483e+002, 5.528339e+003
7.810304e+002, 5.531271e+003
7.815125e+002, 5.518173e+003
7.819946e+002, 5.508391e+003
7.824767e+002, 5.516362e+003
7.829589e+002, 5.533139e+003
7.834410e+002, 5.540854e+003
7.839231e+002, 5.533900e+003
7.844052e+002, 5.524398e+003
7.848873e+002, 5.517537e+003
7.853694e+002, 5.513521e+003
7.858516e+002, 5.513650e+003
7.863337e+002, 5.517000e+003
7.868158e+002, 5.521382e+003
7.872979e+002, 5.525873e+003
7.877800e+002, 5.528096e+003
7.882621e+002, 5.523805e+003
7.887443e+002, 5.513397e+003
7.892264e+002, 5.508632e+003
7.897085e+002, 5.510917e+003
7.901906e+002, 5.515190e+003
7.906727e+002, 5.522458e+003
7.911548e+002, 5.528776e+003
7.916370e+002, 5.528835e+003
7.921191e+002, 5.523748e+003
7.926012e+002, 5.521451e+003
7.930833e+002, 5.525088e+003
7.935654e+002, 5.529173e+003
7.940475e+002, 5.532170e+003
7.945297e+002, 5.534206e+003
7.950118e+002, 5.536236e+003
7.954939e+002, 5.537524e+003
7.959760e+002, 5.535225e+003
7.964581e+002, 5.527407e+003
7.969402e+002, 5.517618e+003
7.974224e+002, 5.510809e+003
7.979045e+002, 5.506727e+003
7.983866e+002, 5.504416e+003
7.988687e+002, 5.504025e+003
7.993508e+002, 5.502950e+003
7.998329e+002, 5.499144e+003
8.003151e+002, 5.495052e+003
8.007972e+002, 5.495995e+003
8.012793e+002, 5.504917e+003
8.017614e+002, 5.507134e+003
8.022435e+002, 5.497298e+003
8.027256e+002, 5.488034e+003
8.032078e+002, 5.481315e+003
8.036899e+002, 5.478107e+003
8.041720e+002, 5.480606e+003
8.046541e+002, 5.488073e+003
8.051362e+002, 5.495281e+003
8.056183e+002, 5.499917e+003
8.061005e+002, 5.502541e+003
8.065826e+002, 5.502192e+003
8.070647e+002, 5.500601e+003
8.075468e+002, 5.503455e+003
8.080289e+002, 5.510864e+003
8.085110e+002, 5.513795e+003
8.089932e+002, 5.505080e+003
8.094753e+002, 5.490101e+003
8.099574e+002, 5.483867e+003
8.104395e+002, 5.489102e+003
8.109216e+002, 5.490378e+003
8.114037e+002, 5.484208e+003
8.118859e+002, 5.478593e+003
8.123680e+002, 5.479331e+003
8.128501e+002, 5.482170e+003
8.133322e+002, 5.479572e+003
8.138143e+002, 5.469687e+003
8.142964e+002, 5.465819e+003
8.147786e+002, 5.478690e+003
8.152607e+002, 5.490198e+003
8.157428e+002, 5.486152e+003
8.162249e+002, 5.475843e+003
8.167070e+002, 5.474069e+003
8.171891e+002, 5.482397e+003
8.176713e+002, 5.490110e+003
8.181534e+002, 5.488393e+003
8.186355e+002, 5.481980e+003
8.191176e+002, 5.480736e+003
8.195997e+002, 5.483720e+003
8.200818e+002, 5.482797e+003
8.205640e+002, 5.475970e+003
8.210461e+002, 5.470475e+003
8.215282e+002, 5.472463e+003
8.220103e+002, 5.478271e+003
8.224924e+002, 5.476255e+003
8.229745e+002, 5.459263e+003
8.234567e+002, 5.450376e+003
8.239388e+002, 5.457083e+003
8.244209e+002, 5.463249e+003
8.249030e+002, 5.461515e+003
8.253851e+002, 5.456917e+003
8.258672e+002, 5.456859e+003
8.263494e+002, 5.462307e+003
8.268315e+002, 5.465984e+003
8.273136e+002, 5.462308e+003
8.277957e+002, 5.457658e+003
8.282778e+002, 5.457490e+003
8.287599e+002, 5.460280e+003
8.292421e+002, 5.463588e+003
8.297242e+002, 5.466651e+003
8.302063e+002, 5.468852e+003
8.306884e+002, 5.469652e+003
8.311705e+002, 5.469445e+003
8.316526e+002, 5.469438e+003
8.321348e+002, 5.469659e+003
8.326169e+002, 5.467945e+003
8.330990e+002, 5.463347e+003
8.335811e+002, 5.458771e+003
8.340632e+002, 5.455622e+003
8.345453e+002, 5.453739e+003
8.350275e+002, 5.453106e+003
8.355096e+002, 5.454844e+003
8.359917e+002, 5.454172e+003
8.364738e+002, 5.446864e+003
8.369559e+002, 5.442017e+003
8.374380e+002, 5.445627e+003
8.379202e+002, 5.451810e+003
8.384023e+002, 5.454825e+003
8.388844e+002, 5.453606e+003
8.393665e+002, 5.448497e+003
8.398486e+002, 5.435405e+003
8.403307e+002, 5.423922e+003
8.408129e+002, 5.427499e+003
8.412950e+002, 5.438736e+003
8.417771e+002, 5.442604e+003
8.422592e+002, 5.437484e+003
8.427413e+002, 5.429417e+003
8.432234e+002, 5.421895e+003
8.437056e+002, 5.415953e+003
8.441877e+002, 5.414581e+003
8.446698e+002, 5.418338e+003
8.451519e+002, 5.419385e+003
8.456340e+002, 5.416497e+003
8.461161e+002, 5.413659e+003
8.465983e+002, 5.412506e+003
8.470804e+002, 5.412232e+003
8.475625e+002, 5.412432e+003
8.480446e+002, 5.413309e+003
8.485267e+002, 5.410746e+003
8.490089e+002, 5.398933e+003
8.494910e+002, 5.390897e+003
8.499731e+002, 5.391806e+003
8.504552e+002, 5.396813e+003
8.509373e+002, 5.404377e+003
8.514194e+002, 5.412002e+003
8.519016e+002, 5.413632e+003
8.523837e+002, 5.405187e+003
8.528658e+002, 5.395499e+003
8.533479e+002, 5.392558e+003
8.538300e+002, 5.393868e+003
8.543121e+002, 5.395854e+003
8.547943e+002, 5.397921e+003
8.552764e+002, 5.399317e+003
8.557585e+002, 5.399708e+003
8.562406e+002, 5.399183e+003
8.567227e+002, 5.397766e+003
8.572048e+002, 5.395499e+003
8.576870e+002, 5.392674e+003
8.581691e+002, 5.388693e+003
8.586512e+002, 5.386821e+003
8.591333e+002, 5.389570e+003
8.596154e+002, 5.391826e+003
8.600975e+002, 5.387593e+003
8.605797e+002, 5.378631e+003
8.610618e+002, 5.374955e+003
8.615439e+002, 5.380252e+003
8.620260e+002, 5.384558e+003
8.625081e+002, 5.386487e+003
8.629902e+002, 5.387555e+003
8.634724e+002, 5.390405e+003
8.639545e+002, 5.392370e+003
8.644366e+002, 5.387162e+003
8.649187e+002, 5.373579e+003
8.654008e+002, 5.363359e+003
8.658829e+002, 5.367189e+003
8.663651e+002, 5.376063e+003
8.668472e+002, 5.381560e+003
8.673293e+002, 5.383407e+003
8.678114e+002, 5.379802e+003
8.682935e+002, 5.371281e+003
8.687756e+002, 5.364652e+003
8.692578e+002, 5.365539e+003
8.697399e+002, 5.370391e+003
8.702220e+002, 5.370000e+003
8.707041e+002, 5.364030e+003
8.711862e+002, 5.358966e+003
8.716683e+002, 5.354863e+003
8.721505e+002, 5.353604e+003
8.726326e+002, 5.357550e+003
8.731147e+002, 5.363249e+003
8.735968e+002, 5.364322e+003
8.740789e+002, 5.359101e+003
8.745610e+002, 5.358238e+003
8.750432e+002, 5.369272e+003
8.755253e+002, 5.374540e+003
8.760074e+002, 5.365063e+003
8.764895e+002, 5.352248e+003
8.769716e+002, 5.345911e+003
8.774537e+002, 5.345112e+003
8.779359e+002, 5.342819e+003
8.784180e+002, 5.335274e+003
8.789001e+002, 5.329319e+003
8.793822e+002, 5.330127e+003
8.798643e+002, 5.334042e+003
8.803464e+002, 5.338560e+003
8.808286e+002, 5.342337e+003
8.813107e+002, 5.342449e+003
8.817928e+002, 5.338086e+003
8.822749e+002, 5.333089e+003
8.827570e+002, 5.332369e+003
8.832391e+002, 5.333925e+003
8.837213e+002, 5.329589e+003
8.842034e+002, 5.320013e+003
8.846855e+002, 5.318026e+003
8.851676e+002, 5.327835e+003
8.856497e+002, 5.336489e+003
8.861318e+002, 5.333380e+003
8.866140e+002, 5.321908e+003
8.870961e+002, 5.313520e+003
8.875782e+002, 5.308993e+003
8.880603e+002, 5.305416e+003
8.885424e+002, 5.301377e+003
8.890245e+002, 5.300190e+003
8.895067e+002, 5.308167e+003
8.899888e+002, 5.316625e+003
8.904709e+002, 5.313224e+003
8.909530e+002, 5.297664e+003
8.914351e+002, 5.287578e+003
8.919172e+002, 5.290524e+003
8.923994e+002, 5.294613e+003
8.928815e+002, 5.295682e+003
8.933636e+002, 5.295125e+003
8.938457e+002, 5.294762e+003
8.943278e+002, 5.294131e+003
8.948099e+002, 5.291015e+003
8.952921e+002, 5.284206e+003
8.957742e+002, 5.277209e+003
8.962563e+002, 5.273131e+003
8.967384e+002, 5.271222e+003
8.972205e+002, 5.271439e+003
8.977026e+002, 5.272838e+003
8.981848e+002, 5.271163e+003
8.986669e+002, 5.265311e+003
8.991490e+002, 5.260534e+003
8.996311e+002, 5.262313e+003
9.001132e+002, 5.268735e+003
9.005953e+002, 5.272731e+003
9.010775e+002, 5.274216e+003
9.015596e+002, 5.274076e+003
9.020417e+002, 5.272203e+003
9.025238e+002, 5.269240e+003
9.030059e+002, 5.265024e+003
9.034880e+002, 5.260442e+003
9.039702e+002, 5.257241e+003
9.044523e+002, 5.255419e+003
9.049344e+002, 5.254856e+003
9.054165e+002, 5.257516e+003
9.058986e+002, 5.258804e+003
9.063807e+002, 5.254894e+003
9.068629e+002, 5.251394e+003
9.073450e+002, 5.255261e+003
9.078271e+002, 5.264263e+003
9.083092e+002, 5.268242e+003
9.087913e+002, 5.262289e+003
9.092734e+002, 5.255886e+003
9.097556e+002, 5.253463e+003
9.102377e+002, 5.252255e+003
9.107198e+002, 5.249033e+003
9.112019e+002, 5.245320e+003
9.116840e+002, 5.245019e+003
9.121661e+002, 5.248997e+003
9.126483e+002, 5.253406e+003
9.131304e+002, 5.256221e+003
9.136125e+002, 5.256500e+003
9.140946e+002, 5.250987e+003
9.145767e+002, 5.241648e+003
9.150588e+002, 5.234624e+003
9.155410e+002, 5.230943e+003
9.160231e+002, 5.229109e+003
9.165052e+002, 5.228139e+003
9.169873e+002, 5.228577e+003
9.174694e+002, 5.232689e+003
9.179515e+002, 5.240783e+003
9.184337e+002, 5.242753e+003
9.189158e+002, 5.236816e+003
9.193979e+002, 5.233074e+003
9.198800e+002, 5.236213e+003
9.203621e+002, 5.240302e+003
9.208442e+002, 5.238912e+003
9.213264e+002, 5.232570e+003
9.218085e+002, 5.226837e+003
9.222906e+002, 5.219438e+003
9.227727e+002, 5.216443e+003
9.232548e+002, 5.223289e+003
9.237369e+002, 5.228805e+003
9.242191e+002, 5.225750e+003
9.247012e+002, 5.218992e+003
9.251833e+002, 5.216259e+003
9.256654e+002, 5.218595e+003
9.261475e+002, 5.220583e+003
9.266296e+002, 5.220260e+003
9.271118e+002, 5.219635e+003
9.275939e+002, 5.220409e+003
9.280760e+002, 5.220935e+003
9.285581e+002, 5.218659e+003
9.290402e+002, 5.214357e+003
9.295223e+002, 5.211265e+003
9.300045e+002, 5.210903e+003
9.304866e+002, 5.211205e+003
9.309687e+002, 5.210543e+003
9.314508e+002, 5.209154e+003
9.319329e+002, 5.207056e+003
9.324150e+002, 5.204574e+003
9.328972e+002, 5.202614e+003
9.333793e+002, 5.201432e+003
9.338614e+002, 5.200631e+003
9.343435e+002, 5.199688e+003
9.348256e+002, 5.199333e+003
9.353077e+002, 5.202750e+003
9.357899e+002, 5.209403e+003
9.362720e+002, 5.210425e+003
9.367541e+002, 5.204370e+003
9.372362e+002, 5.198568e+003
9.377183e+002, 5.196472e+003
9.382004e+002, 5.197141e+003
9.386826e+002, 5.199951e+003
9.391647e+002, 5.205066e+003
9.396468e+002, 5.204401e+003
9.401289e+002, 5.195479e+003
9.406110e+002, 5.186600e+003
9.410931e+002, 5.176905e+003
9.415753e+002, 5.170921e+003
9.420574e+002, 5.175531e+003
9.425395e+002, 5.185618e+003
9.430216e+002, 5.186734e+003
9.435037e+002, 5.175091e+003
9.439858e+002, 5.166116e+003
9.444680e+002, 5.160932e+003
9.449501e+002, 5.158779e+003
9.454322e+002, 5.162147e+003
9.459143e+002, 5.166435e+003
9.463964e+002, 5.166027e+003
9.468785e+002, 5.161822e+003
9.473607e+002, 5.160318e+003
9.478428e+002, 5.165911e+003
9.483249e+002, 5.169627e+003
9.488070e+002, 5.163601e+003
9.492891e+002, 5.156042e+003
9.497712e+002, 5.154826e+003
9.502534e+002, 5.158108e+003
9.507355e+002, 5.162208e+003
9.512176e+002, 5.165589e+003
9.516997e+002, 5.165978e+003
9.521818e+002, 5.159483e+003
9.526639e+002, 5.151848e+003
9.531461e+002, 5.152237e+003
9.536282e+002, 5.157272e+003
9.541103e+002, 5.158993e+003
9.545924e+002, 5.156853e+003
9.550745e+002, 5.154367e+003
9.555566e+002, 5.153269e+003
9.560388e+002, 5.152714e+003
9.565209e+002, 5.151158e+003
9.570030e+002, 5.149170e+003
9.574851e+002, 5.150578e+003
9.579672e+002, 5.155369e+003
9.584493e+002, 5.156319e+003
9.589315e+002, 5.151286e+003
9.594136e+002, 5.146650e+003
9.598957e+002, 5.147477e+003
9.603778e+002, 5.151226e+003
9.608599e+002, 5.151258e+003
9.613420e+002, 5.146815e+003
9.618242e+002, 5.142438e+003
9.623063e+002, 5.138307e+003
9.627884e+002, 5.133609e+003
9.632705e+002, 5.126764e+003
9.637526e+002, 5.120925e+003
9.642347e+002, 5.118747e+003
9.647169e+002, 5.120254e+003
9.651990e+002, 5.125782e+003
9.656811e+002, 5.145155e+003
9.661632e+002, 5.153312e+003
9.666453e+002, 5.140912e+003
9.671274e+002, 5.128002e+003
9.676096e+002, 5.123470e+003
9.680917e+002, 5.122844e+003
9.685738e+002, 5.120134e+003
9.690559e+002, 5.115034e+003
9.695380e+002, 5.111417e+003
9.700201e+002, 5.110633e+003
9.705023e+002, 5.110880e+003
9.709844e+002, 5.113278e+003
9.714665e+002, 5.114862e+003
9.719486e+002, 5.110938e+003
9.724307e+002, 5.105045e+003
9.729128e+002, 5.105689e+003
9.733950e+002, 5.114882e+003
9.738771e+002, 5.121737e+003
9.743592e+002, 5.118073e+003
9.748413e+002, 5.111106e+003
9.753234e+002, 5.105980e+003
9.758055e+002, 5.102313e+003
9.762877e+002, 5.099998e+003
9.767698e+002, 5.098479e+003
9.772519e+002, 5.096165e+003
9.777340e+002, 5.092273e+003
9.782161e+002, 5.088358e+003
9.786982e+002, 5.084839e+003
9.791804e+002, 5.083105e+003
9.796625e+002, 5.088763e+003
9.801446e+002, 5.098573e+003
9.806267e+002, 5.099833e+003
9.811088e+002, 5.090921e+003
9.815909e+002, 5.083821e+003
9.820731e+002, 5.087155e+003
9.825552e+002, 5.094546e+003
9.830373e+002, 5.093309e+003
9.835194e+002, 5.085075e+003
9.840015e+002, 5.082715e+003
9.844836e+002, 5.086576e+003
9.849658e+002, 5.087454e+003
9.854479e+002, 5.082011e+003
9.859300e+002, 5.077235e+003
9.864121e+002, 5.080143e+003
9.868942e+002, 5.087930e+003
9.873763e+002, 5.089548e+003
9.878585e+002, 5.083295e+003
9.883406e+002, 5.082804e+003
9.888227e+002, 5.090811e+003
9.893048e+002, 5.097600e+003
9.897869e+002, 5.099386e+003
9.902690e+002, 5.097745e+003
9.907512e+002, 5.094044e+003
9.912333e+002, 5.088461e+003
9.917154e+002, 5.083354e+003
9.921975e+002, 5.078344e+003
9.926796e+002, 5.074536e+003
9.931617e+002, 5.071501e+003
9.936439e+002, 5.070408e+003
9.941260e+002, 5.074052e+003
9.946081e+002, 5.078661e+003
9.950902e+002, 5.078298e+003
9.955723e+002, 5.072775e+003
9.960544e+002, 5.068614e+003
9.965366e+002, 5.066876e+003
9.970187e+002, 5.065354e+003
9.975008e+002, 5.062555e+003
9.979829e+002, 5.061053e+003
9.984650e+002, 5.063560e+003
9.989471e+002, 5.067968e+003
9.994293e+002, 5.071003e+003
9.999114e+002, 5.072268e+003
1.000393e+003, 5.071499e+003
1.000876e+003, 5.067138e+003
1.001358e+003, 5.062604e+003
1.001840e+003, 5.057706e+003
1.002322e+003, 5.054651e+003
1.002804e+003, 5.057970e+003
1.003286e+003, 5.064108e+003
1.003768e+003, 5.063884e+003
1.004250e+003, 5.054352e+003
1.004733e+003, 5.047089e+003
1.005215e+003, 5.049878e+003
1.005697e+003, 5.055573e+003
1.006179e+003, 5.060650e+003
1.006661e+003, 5.064300e+003
1.007143e+003, 5.065084e+003
1.007625e+003, 5.063638e+003
1.008107e+003, 5.062232e+003
1.008589e+003, 5.061837e+003
1.009072e+003, 5.061222e+003
1.009554e+003, 5.058876e+003
1.010036e+003, 5.056120e+003
1.010518e+003, 5.054170e+003
1.011000e+003, 5.053129e+003
1.011482e+003, 5.053655e+003
1.011964e+003, 5.055320e+003
1.012446e+003, 5.055571e+003
1.012929e+003, 5.052729e+003
1.013411e+003, 5.050747e+003
1.013893e+003, 5.057674e+003
1.014375e+003, 5.067279e+003
1.014857e+003, 5.064545e+003
1.015339e+003, 5.053086e+003
1.015821e+003, 5.046644e+003
1.016303e+003, 5.047993e+003
1.016785e+003, 5.051271e+003
1.017268e+003, 5.052709e+003
1.017750e+003, 5.052535e+003
1.018232e+003, 5.050417e+003
1.018714e+003, 5.047009e+003
1.019196e+003, 5.045395e+003
1.019678e+003, 5.045370e+003
1.020160e+003, 5.044130e+003
1.020642e+003, 5.040896e+003
1.021125e+003, 5.036754e+003
1.021607e+003, 5.032265e+003
1.022089e+003, 5.028472e+003
1.022571e+003, 5.028495e+003
1.023053e+003, 5.032039e+003
1.023535e+003, 5.033239e+003
1.024017e+003, 5.031786e+003
1.024499e+003, 5.030666e+003
1.024981e+003, 5.030865e+003
1.025464e+003, 5.031456e+003
1.025946e+003, 5.031804e+003
1.026428e+003, 5.031560e+003
1.026910e+003, 5.029102e+003
1.027392e+003, 5.023997e+003
1.027874e+003, 5.020456e+003
1.028356e+003, 5.018041e+003
1.028838e+003, 5.021167e+003
1.029321e+003, 5.033982e+003
1.029803e+003, 5.044991e+003
1.030285e+003, 5.042162e+003
1.030767e+003, 5.028616e+003
1.031249e+003, 5.017953e+003
1.031731e+003, 5.009586e+003
1.032213e+003, 5.006469e+003
1.032695e+003, 5.010161e+003
1.033177e+003, 5.015354e+003
1.033660e+003, 5.020901e+003
1.034142e+003, 5.025882e+003
1.034624e+003, 5.029425e+003
1.035106e+003, 5.031568e+003
1.035588e+003, 5.032422e+003
1.036070e+003, 5.031963e+003
1.036552e+003, 5.030255e+003
1.037034e+003, 5.026782e+003
1.037516e+003, 5.022996e+003
1.037999e+003, 5.019721e+003
1.038481e+003, 5.016016e+003
1.038963e+003, 5.008391e+003
1.039445e+003, 4.998563e+003
1.039927e+003, 5.000172e+003
1.040409e+003, 5.028731e+003
1.040891e+003, 5.041272e+003
1.041373e+003, 5.026353e+003
1.041855e+003, 5.009799e+003
1.042338e+003, 4.999546e+003
1.042820e+003, 4.993316e+003
1.043302e+003, 4.988537e+003
1.043784e+003, 4.985529e+003
1.044266e+003, 4.986708e+003
1.044748e+003, 4.998796e+003
1.045230e+003, 5.003894e+003
1.045712e+003, 4.995015e+003
1.046195e+003, 4.986316e+003
1.046677e+003, 4.983625e+003
1.047159e+003, 4.983742e+003
1.047641e+003, 4.983212e+003
1.048123e+003, 4.982109e+003
1.048605e+003, 4.982077e+003
1.049087e+003, 4.984328e+003
1.049569e+003, 4.985722e+003
1.050052e+003, 4.984927e+003
1.050534e+003, 4.984169e+003
1.051016e+003, 4.986241e+003
1.051498e+003, 4.987595e+003
1.051980e+003, 4.981814e+003
1.052462e+003, 4.970771e+003
1.052944e+003, 4.966811e+003
1.053426e+003, 4.976615e+003
1.053908e+003, 4.984341e+003
1.054391e+003, 4.985792e+003
1.054873e+003, 4.985059e+003
1.055355e+003, 4.981823e+003
1.055837e+003, 4.979186e+003
1.056319e+003, 4.982885e+003
1.056801e+003, 4.990940e+003
1.057283e+003, 4.991872e+003
1.057765e+003, 4.978288e+003
1.058248e+003, 4.968755e+003
1.058730e+003, 4.971290e+003
1.059212e+003, 4.976342e+003
1.059694e+003, 4.980819e+003
1.060176e+003, 4.983389e+003
1.060658e+003, 4.982063e+003
1.061140e+003, 4.977659e+003
1.061622e+003, 4.973817e+003
1.062104e+003, 4.971482e+003
1.062587e+003, 4.969932e+003
1.063069e+003, 4.969442e+003
1.063551e+003, 4.969068e+003
1.064033e+003, 4.968620e+003
1.064515e+003, 4.967725e+003
1.064997e+003, 4.964802e+003
1.065479e+003, 4.961000e+003
1.065961e+003, 4.960841e+003
1.066443e+003, 4.966932e+003
1.066926e+003, 4.971927e+003
1.067408e+003, 4.971494e+003
1.067890e+003, 4.970585e+003
1.068372e+003, 4.973820e+003
1.068854e+003, 4.976958e+003
1.069336e+003, 4.974452e+003
1.069818e+003, 4.967292e+003
1.070300e+003, 4.960168e+003
1.070782e+003, 4.954131e+003
1.071265e+003, 4.949466e+003
1.071747e+003, 4.945991e+003
1.072229e+003, 4.944233e+003
1.072711e+003, 4.944621e+003
1.073193e+003, 4.946808e+003
1.073675e+003, 4.951821e+003
1.074157e+003, 4.958127e+003
1.074639e+003, 4.962351e+003
1.075122e+003, 4.963772e+003
1.075604e+003, 4.961346e+003
1.076086e+003, 4.950318e+003
1.076568e+003, 4.940422e+003
1.077050e+003, 4.938775e+003
1.077532e+003, 4.940017e+003
1.078014e+003, 4.938038e+003
1.078496e+003, 4.934147e+003
1.078979e+003, 4.933448e+003
1.079461e+003, 4.937421e+003
1.079943e+003, 4.940986e+003
1.080425e+003, 4.942897e+003
1.080907e+003, 4.942436e+003
1.081389e+003, 4.936194e+003
1.081871e+003, 4.929959e+003
1.082353e+003, 4.930359e+003
1.082835e+003, 4.934848e+003
1.083318e+003, 4.937266e+003
1.083800e+003, 4.936224e+003
1.084282e+003, 4.934366e+003
1.084764e+003, 4.931931e+003
1.085246e+003, 4.930120e+003
1.085728e+003, 4.930818e+003
1.086210e+003, 4.931216e+003
1.086692e+003, 4.926884e+003
1.087175e+003, 4.921271e+003
1.087657e+003, 4.921692e+003
1.088139e+003, 4.928949e+003
1.088621e+003, 4.934599e+003
1.089103e+003, 4.933874e+003
1.089585e+003, 4.932831e+003
1.090067e+003, 4.934644e+003
1.090549e+003, 4.936524e+003
1.091031e+003, 4.937118e+003
1.091514e+003, 4.935881e+003
1.091996e+003, 4.931016e+003
1.092478e+003, 4.923104e+003
1.092960e+003, 4.917737e+003
1.093442e+003, 4.917581e+003
1.093924e+003, 4.918705e+003
1.094406e+003, 4.921672e+003
1.094888e+003, 4.923258e+003
1.095370e+003, 4.920215e+003
1.095853e+003, 4.915333e+003
1.096335e+003, 4.912278e+003
1.096817e+003, 4.911052e+003
1.097299e+003, 4.909468e+003
1.097781e+003, 4.907404e+003
1.098263e+003, 4.903933e+003
1.098745e+003, 4.894362e+003
1.099227e+003, 4.888594e+003
1.099709e+003, 4.896962e+003
1.100192e+003, 4.907906e+003
1.100674e+003, 4.908061e+003
1.101156e+003, 4.899701e+003
1.101638e+003, 4.893357e+003
1.102120e+003, 4.890449e+003
1.102602e+003, 4.891639e+003
1.103084e+003, 4.902960e+003
1.103566e+003, 4.910737e+003
1.104049e+003, 4.906076e+003
1.104531e+003, 4.898667e+003
1.105013e+003, 4.896994e+003
1.105495e+003, 4.899110e+003
1.105977e+003, 4.898641e+003
1.106459e+003, 4.893886e+003
1.106941e+003, 4.892869e+003
1.107423e+003, 4.900947e+003
1.107906e+003, 4.907305e+003
1.108388e+003, 4.909864e+003
1.108870e+003, 4.909077e+003
1.109352e+003, 4.901979e+003
1.109834e+003, 4.893236e+003
1.110316e+003, 4.892060e+003
1.110798e+003, 4.899482e+003
1.111280e+003, 4.902358e+003
1.111762e+003, 4.896928e+003
1.112245e+003, 4.891165e+003
1.112727e+003, 4.884780e+003
1.113209e+003, 4.879750e+003
1.113691e+003, 4.877047e+003
1.114173e+003, 4.876242e+003
1.114655e+003, 4.877560e+003
1.115137e+003, 4.880712e+003
1.115619e+003, 4.882051e+003
1.116102e+003, 4.881332e+003
1.116584e+003, 4.879050e+003
1.117066e+003, 4.873274e+003
1.117548e+003, 4.868687e+003
1.118030e+003, 4.866436e+003
1.118512e+003, 4.866497e+003
1.118994e+003, 4.869508e+003
1.119476e+003, 4.874725e+003
1.119958e+003, 4.879430e+003
1.120441e+003, 4.884825e+003
1.120923e+003, 4.885469e+003
1.121405e+003, 4.878253e+003
1.121887e+003, 4.873236e+003
1.122369e+003, 4.873694e+003
1.122851e+003, 4.875813e+003
1.123333e+003, 4.877240e+003
1.123815e+003, 4.877942e+003
1.124297e+003, 4.877638e+003
1.124780e+003, 4.876164e+003
1.125262e+003, 4.876222e+003
1.125744e+003, 4.878497e+003
1.126226e+003, 4.880038e+003
1.126708e+003, 4.880860e+003
1.127190e+003, 4.878578e+003
1.127672e+003, 4.870445e+003
1.128154e+003, 4.862185e+003
1.128636e+003, 4.862886e+003
1.129119e+003, 4.871105e+003
1.129601e+003, 4.874539e+003
1.130083e+003, 4.872708e+003
1.130565e+003, 4.871446e+003
1.131047e+003, 4.871485e+003
1.131529e+003, 4.869881e+003
1.132011e+003, 4.865010e+003
1.132493e+003, 4.861399e+003
1.132976e+003, 4.864106e+003
1.133458e+003, 4.870593e+003
1.133940e+003, 4.872929e+003
1.134422e+003, 4.871661e+003
1.134904e+003, 4.874953e+003
1.135386e+003, 4.882749e+003
1.135868e+003, 4.886038e+003
1.136350e+003, 4.882431e+003
1.136833e+003, 4.875766e+003
1.137315e+003, 4.868350e+003
1.137797e+003, 4.862065e+003
1.138279e+003, 4.860107e+003
1.138761e+003, 4.861904e+003
1.139243e+003, 4.867302e+003
1.139725e+003, 4.874757e+003
1.140207e+003, 4.877041e+003
1.140689e+003, 4.873737e+003
1.141172e+003, 4.870931e+003
1.141654e+003, 4.871483e+003
1.142136e+003, 4.871223e+003
1.142618e+003, 4.863920e+003
1.143100e+003, 4.854977e+003
1.143582e+003, 4.853808e+003
1.144064e+003, 4.857846e+003
1.144546e+003, 4.863396e+003
1.145029e+003, 4.868858e+003
1.145511e+003, 4.871250e+003
1.145993e+003, 4.869903e+003
1.146475e+003, 4.867023e+003
1.146957e+003, 4.863653e+003
1.147439e+003, 4.860490e+003
1.147921e+003, 4.857203e+003
1.148403e+003, 4.855350e+003
1.148885e+003, 4.858429e+003
1.149368e+003, 4.863601e+003
1.149850e+003, 4.867376e+003
1.150332e+003, 4.868123e+003
1.150814e+003, 4.861740e+003
1.151296e+003, 4.844588e+003
1.151778e+003, 4.832469e+003
1.152260e+003, 4.839833e+003
1.152742e+003, 4.849784e+003
1.153224e+003, 4.850839e+003
1.153707e+003, 4.848554e+003
1.154189e+003, 4.848072e+003
1.154671e+003, 4.849891e+003
1.155153e+003, 4.855093e+003
1.155635e+003, 4.864008e+003
1.156117e+003, 4.866755e+003
1.156599e+003, 4.853049e+003
1.157081e+003, 4.842976e+003
1.157563e+003, 4.845290e+003
1.158046e+003, 4.850336e+003
1.158528e+003, 4.853749e+003
1.159010e+003, 4.855280e+003
1.159492e+003, 4.853862e+003
1.159974e+003, 4.850160e+003
1.160456e+003, 4.849650e+003
1.160938e+003, 4.857170e+003
1.161420e+003, 4.859231e+003
1.161903e+003, 4.848354e+003
1.162385e+003, 4.841935e+003
1.162867e+003, 4.848202e+003
1.163349e+003, 4.856519e+003
1.163831e+003, 4.859512e+003
1.164313e+003, 4.857961e+003
1.164795e+003, 4.852913e+003
1.165277e+003, 4.843279e+003
1.165760e+003, 4.839532e+003
1.166242e+003, 4.843649e+003
1.166724e+003, 4.847721e+003
1.167206e+003, 4.851334e+003
1.167688e+003, 4.851610e+003
1.168170e+003, 4.845472e+003
1.168652e+003, 4.840185e+003
1.169134e+003, 4.846425e+003
1.169616e+003, 4.860396e+003
1.170099e+003, 4.863146e+003
1.170581e+003, 4.854530e+003
1.171063e+003, 4.846493e+003
1.171545e+003, 4.839719e+003
1.172027e+003, 4.838172e+003
1.172509e+003, 4.843097e+003
1.172991e+003, 4.849413e+003
1.173473e+003, 4.853373e+003
1.173956e+003, 4.855756e+003
1.174438e+003, 4.858045e+003
1.174920e+003, 4.859823e+003
1.175402e+003, 4.859487e+003
1.175884e+003, 4.857440e+003
1.176366e+003, 4.854926e+003
1.176848e+003, 4.852280e+003
1.177330e+003, 4.849595e+003
1.177813e+003, 4.846985e+003
1.178295e+003, 4.845885e+003
1.178777e+003, 4.848178e+003
1.179259e+003, 4.851752e+003
1.179741e+003, 4.856173e+003
1.180223e+003, 4.858636e+003
1.180705e+003, 4.851992e+003
1.181187e+003, 4.841203e+003
1.181669e+003, 4.837905e+003
1.182151e+003, 4.842912e+003
1.182634e+003, 4.846994e+003
1.183116e+003, 4.845697e+003
1.183598e+003, 4.843904e+003
1.184080e+003, 4.845074e+003
1.184562e+003, 4.845979e+003
1.185044e+003, 4.844343e+003
1.185526e+003, 4.841414e+003
1.186008e+003, 4.837143e+003
1.186490e+003, 4.833084e+003
1.186973e+003, 4.832444e+003
1.187455e+003, 4.835835e+003
1.187937e+003, 4.840757e+003
1.188419e+003, 4.850540e+003
1.188901e+003, 4.856118e+003
1.189383e+003, 4.852784e+003
1.189865e+003, 4.848343e+003
1.190347e+003, 4.845407e+003
1.190830e+003, 4.844412e+003
1.191312e+003, 4.846953e+003
1.191794e+003, 4.851901e+003
1.192276e+003, 4.853732e+003
1.192758e+003, 4.852139e+003
1.193240e+003, 4.848102e+003
1.193722e+003, 4.840133e+003
1.194204e+003, 4.834195e+003
1.194687e+003, 4.831690e+003
1.195169e+003, 4.831458e+003
1.195651e+003, 4.832937e+003
1.196133e+003, 4.836016e+003
1.196615e+003, 4.841544e+003
1.197097e+003, 4.848099e+003
1.197579e+003, 4.845417e+003
1.198061e+003, 4.834122e+003
1.198543e+003, 4.826939e+003
1.199026e+003, 4.824796e+003
1.199508e+003, 4.821622e+003
1.199990e+003, 4.815616e+003
1.200472e+003, 4.813700e+003
1.200954e+003, 4.822425e+003
1.201436e+003, 4.833047e+003
1.201918e+003, 4.831227e+003
1.202400e+003, 4.822411e+003
1.202883e+003, 4.815330e+003
1.203365e+003, 4.811125e+003
1.203847e+003, 4.813600e+003
1.204329e+003, 4.820729e+003
1.204811e+003, 4.824521e+003
1.205293e+003, 4.822060e+003
1.205775e+003, 4.817415e+003
1.206257e+003, 4.811295e+003
1.206740e+003, 4.806890e+003
1.207222e+003, 4.807719e+003
1.207704e+003, 4.810154e+003
1.208186e+003, 4.811139e+003
1.208668e+003, 4.811384e+003
1.209150e+003, 4.812387e+003
1.209632e+003, 4.814106e+003
1.210114e+003, 4.815506e+003
1.210596e+003, 4.816657e+003
1.211078e+003, 4.816486e+003
1.211561e+003, 4.814156e+003
1.212043e+003, 4.811300e+003
1.212525e+003, 4.806273e+003
1.213007e+003, 4.803166e+003
1.213489e+003, 4.805921e+003
1.213971e+003, 4.811074e+003
1.214453e+003, 4.813392e+003
1.214935e+003, 4.812956e+003
1.215417e+003, 4.811630e+003
1.215900e+003, 4.808672e+003
1.216382e+003, 4.808090e+003
1.216864e+003, 4.811358e+003
1.217346e+003, 4.810896e+003
1.217828e+003, 4.803656e+003
1.218310e+003, 4.795616e+003
1.218792e+003, 4.791099e+003
1.219274e+003, 4.789409e+003
1.219757e+003, 4.790357e+003
1.220239e+003, 4.792761e+003
1.220721e+003, 4.789336e+003
1.221203e+003, 4.781833e+003
1.221685e+003, 4.779396e+003
1.222167e+003, 4.782265e+003
1.222649e+003, 4.785026e+003
1.223131e+003, 4.785685e+003
1.223614e+003, 4.785105e+003
1.224096e+003, 4.783702e+003
1.224578e+003, 4.782055e+003
1.225060e+003, 4.781417e+003
1.225542e+003, 4.780315e+003
1.226024e+003, 4.774581e+003
1.226506e+003, 4.768614e+003
1.226988e+003, 4.769833e+003
1.227470e+003, 4.777164e+003
1.227953e+003, 4.786382e+003
1.228435e+003, 4.796549e+003
1.228917e+003, 4.799938e+003
1.229399e+003, 4.787102e+003
1.229881e+003, 4.776289e+003
1.230363e+003, 4.772731e+003
1.230845e+003, 4.773636e+003
1.231327e+003, 4.781380e+003
1.231810e+003, 4.789674e+003
1.232292e+003, 4.790384e+003
1.232774e+003, 4.785338e+003
1.233256e+003, 4.782104e+003
1.233738e+003, 4.781627e+003
1.234220e+003, 4.778257e+003
1.234702e+003, 4.769585e+003
1.235184e+003, 4.766824e+003
1.235667e+003, 4.774172e+003
1.236149e+003, 4.778789e+003
1.236631e+003, 4.773416e+003
1.237113e+003, 4.765500e+003
1.237595e+003, 4.764391e+003
1.238077e+003, 4.766857e+003
1.238559e+003, 4.761526e+003
1.239041e+003, 4.750805e+003
1.239523e+003, 4.747581e+003
1.240005e+003, 4.750985e+003
1.240488e+003, 4.754938e+003
1.240970e+003, 4.757471e+003
1.241452e+003, 4.755229e+003
1.241934e+003, 4.746455e+003
1.242416e+003, 4.740516e+003
1.242898e+003, 4.750501e+003
1.243380e+003, 4.762289e+003
1.243862e+003, 4.760487e+003
1.244344e+003, 4.753752e+003
1.244827e+003, 4.750542e+003
1.245309e+003, 4.750393e+003
1.245791e+003, 4.752124e+003
1.246273e+003, 4.754713e+003
1.246755e+003, 4.754927e+003
1.247237e+003, 4.750906e+003
1.247719e+003, 4.748071e+003
1.248201e+003, 4.749816e+003
1.248684e+003, 4.749835e+003
1.249166e+003, 4.743118e+003
1.249648e+003, 4.737891e+003
1.250130e+003, 4.739140e+003
1.250612e+003, 4.744237e+003
1.251094e+003, 4.750622e+003
1.251576e+003, 4.757642e+003
1.252058e+003, 4.761106e+003
1.252541e+003, 4.761064e+003
1.253023e+003, 4.755550e+003
1.253505e+003, 4.743519e+003
1.253987e+003, 4.739093e+003
1.254469e+003, 4.745683e+003
1.254951e+003, 4.753138e+003
1.255433e+003, 4.755732e+003
1.255915e+003, 4.754203e+003
1.256397e+003, 4.747762e+003
1.256880e+003, 4.740141e+003
1.257362e+003, 4.739812e+003
1.257844e+003, 4.743156e+003
1.258326e+003, 4.742921e+003
1.258808e+003, 4.740169e+003
1.259290e+003, 4.738623e+003
1.259772e+003, 4.738899e+003
1.260254e+003, 4.739859e+003
1.260737e+003, 4.741194e+003
1.261219e+003, 4.742032e+003
1.261701e+003, 4.742416e+003
1.262183e+003, 4.741555e+003
1.262665e+003, 4.737091e+003
1.263147e+003, 4.733341e+003
1.263629e+003, 4.734085e+003
1.264111e+003, 4.737042e+003
1.264594e+003, 4.739255e+003
1.265076e+003, 4.740593e+003
1.265558e+003, 4.740991e+003
1.266040e+003, 4.739823e+003
1.266522e+003, 4.740512e+003
1.267004e+003, 4.745265e+003
1.267486e+003, 4.742752e+003
1.267968e+003, 4.728643e+003
1.268450e+003, 4.717681e+003
1.268932e+003, 4.717446e+003
1.269415e+003, 4.723503e+003
1.269897e+003, 4.732178e+003
1.270379e+003, 4.740549e+003
1.270861e+003, 4.740667e+003
1.271343e+003, 4.735006e+003
1.271825e+003, 4.729005e+003
1.272307e+003, 4.724392e+003
1.272789e+003, 4.726430e+003
1.273271e+003, 4.734219e+003
1.273754e+003, 4.741380e+003
1.274236e+003, 4.745442e+003
1.274718e+003, 4.746610e+003
1.275200e+003, 4.743486e+003
1.275682e+003, 4.740009e+003
1.276164e+003, 4.739239e+003
1.276646e+003, 4.738099e+003
1.277128e+003, 4.732602e+003
1.277611e+003, 4.726951e+003
1.278093e+003, 4.727105e+003
1.278575e+003, 4.731252e+003
1.279057e+003, 4.732498e+003
1.279539e+003, 4.730346e+003
1.280021e+003, 4.729600e+003
1.280503e+003, 4.729250e+003
1.280985e+003, 4.730515e+003
1.281468e+003, 4.735073e+003
1.281950e+003, 4.741446e+003
1.282432e+003, 4.749542e+003
1.282914e+003, 4.755625e+003
1.283396e+003, 4.756343e+003
1.283878e+003, 4.754801e+003
1.284360e+003, 4.757252e+003
1.284842e+003, 4.759640e+003
1.285324e+003, 4.751376e+003
##END=



