##NAMES=Miersite
##RRUFFID=R110034
##IDEAL CHEMISTRY=Ag^1+^I^1-^
##LOCALITY=Block 2-1, 100 meter level, Rubtsovsk mine, Rudniy Altai Mountains, Russia
##OWNER=RRUFF
##SOURCE=William W Pinch
##DESCRIPTION=Greenish-yellow massive
##STATUS=The identification of this mineral has been confirmed by single-crystal X-ray diffraction.
##URL=rruff.info/R110034
9.001007e+001, 0.000000e+000
9.049219e+001, 4.358077e+000
9.097430e+001, 4.526911e+000
9.145642e+001, 4.510507e+000
9.193854e+001, 4.317924e+000
9.242065e+001, 4.025130e+000
9.290277e+001, 3.656734e+000
9.338489e+001, 3.232203e+000
9.386700e+001, 2.787707e+000
9.434912e+001, 2.180649e+000
9.483124e+001, 1.610293e+000
9.531335e+001, 1.587284e+000
9.579547e+001, 2.163411e+000
9.627759e+001, 2.921164e+000
9.675970e+001, 3.323688e+000
9.724182e+001, 3.404333e+000
9.772394e+001, 3.643237e+000
9.820605e+001, 4.444208e+000
9.868817e+001, 5.732402e+000
9.917029e+001, 6.438838e+000
9.965240e+001, 6.372850e+000
1.001345e+002, 6.025084e+000
1.006166e+002, 6.658978e+000
1.010988e+002, 8.665128e+000
1.015809e+002, 9.965396e+000
1.020630e+002, 8.900540e+000
1.025451e+002, 4.652060e+000
1.030272e+002, 2.223506e+000
1.035093e+002, 2.545788e+000
1.039915e+002, 4.849135e+000
1.044736e+002, 5.797856e+000
1.049557e+002, 4.656641e+000
1.054378e+002, 3.210403e+000
1.059199e+002, 2.760909e+000
1.064020e+002, 4.134048e+000
1.068842e+002, 4.954286e+000
1.073663e+002, 4.749487e+000
1.078484e+002, 3.504891e+000
1.083305e+002, 2.564337e+000
1.088126e+002, 1.874428e+000
1.092947e+002, 1.527902e+000
1.097769e+002, 1.620123e+000
1.102590e+002, 3.436589e+000
1.107411e+002, 4.384932e+000
1.112232e+002, 3.504791e+000
1.117053e+002, 3.697853e-002
1.121874e+002, -1.937341e+000
1.126696e+002, -6.928466e-001
1.131517e+002, 1.834176e+000
1.136338e+002, 3.134400e+000
1.141159e+002, 1.465808e+000
1.145980e+002, -3.664216e-001
1.150801e+002, -1.330521e+000
1.155623e+002, -9.626942e-001
1.160444e+002, -5.334656e-001
1.165265e+002, -5.117877e-001
1.170086e+002, -6.647442e-001
1.174907e+002, -5.117358e-001
1.179728e+002, 2.548541e-001
1.184550e+002, 1.296559e+000
1.189371e+002, 2.477686e+000
1.194192e+002, 4.140713e+000
1.199013e+002, 5.363017e+000
1.203834e+002, 5.458342e+000
1.208655e+002, 4.628386e+000
1.213477e+002, 3.658367e+000
1.218298e+002, 3.004413e+000
1.223119e+002, 2.435416e+000
1.227940e+002, 1.678402e+000
1.232761e+002, 2.043997e-001
1.237582e+002, -1.087398e+000
1.242404e+002, -1.305874e+000
1.247225e+002, -5.116386e-001
1.252046e+002, 5.500380e-001
1.256867e+002, 1.754411e+000
1.261688e+002, 2.800706e+000
1.266509e+002, 3.126082e+000
1.271331e+002, 1.635966e+000
1.276152e+002, -3.998453e-001
1.280973e+002, -9.912340e-001
1.285794e+002, -6.768867e-002
1.290615e+002, 1.447311e+000
1.295436e+002, 3.168768e+000
1.300258e+002, 4.875749e+000
1.305079e+002, 5.582116e+000
1.309900e+002, 3.953914e+000
1.314721e+002, 9.061477e-001
1.319542e+002, -7.055938e-001
1.324363e+002, -6.284074e-001
1.329185e+002, 3.903314e-001
1.334006e+002, 1.483813e+000
1.338827e+002, 2.658541e+000
1.343648e+002, 3.604095e+000
1.348469e+002, 4.012182e+000
1.353290e+002, 3.935385e+000
1.358112e+002, 4.274454e+000
1.362933e+002, 5.346141e+000
1.367754e+002, 6.554262e+000
1.372575e+002, 6.295001e+000
1.377396e+002, 4.264352e+000
1.382217e+002, 2.112669e+000
1.387039e+002, 8.879984e-001
1.391860e+002, 7.149681e-001
1.396681e+002, 5.480890e-001
1.401502e+002, 1.723688e-001
1.406323e+002, -2.689727e-001
1.411144e+002, -4.769221e-002
1.415966e+002, 1.156914e+000
1.420787e+002, 2.415675e+000
1.425608e+002, 2.995812e+000
1.430429e+002, 2.692116e+000
1.435250e+002, 2.286970e+000
1.440071e+002, 1.882936e+000
1.444893e+002, 1.480741e+000
1.449714e+002, 9.352893e-001
1.454535e+002, -1.172706e-001
1.459356e+002, -9.510837e-001
1.464177e+002, -7.566013e-001
1.468998e+002, 1.551790e+000
1.473820e+002, 3.175035e+000
1.478641e+002, 3.421519e+000
1.483462e+002, 2.046769e+000
1.488283e+002, 9.720942e-001
1.493104e+002, 9.896123e-002
1.497925e+002, -4.346901e-001
1.502747e+002, -4.637356e-001
1.507568e+002, 6.129282e-001
1.512389e+002, 1.573245e+000
1.517210e+002, 2.105754e+000
1.522031e+002, 2.020043e+000
1.526852e+002, 2.104211e+000
1.531674e+002, 2.614963e+000
1.536495e+002, 3.249421e+000
1.541316e+002, 3.573009e+000
1.546137e+002, 2.715463e+000
1.550958e+002, 2.261855e+000
1.555779e+002, 2.934592e+000
1.560601e+002, 5.662990e+000
1.565422e+002, 7.448371e+000
1.570243e+002, 6.896914e+000
1.575064e+002, 5.150366e+000
1.579885e+002, 4.419820e+000
1.584706e+002, 6.266420e+000
1.589528e+002, 8.440960e+000
1.594349e+002, 9.839425e+000
1.599170e+002, 9.715589e+000
1.603991e+002, 9.834241e+000
1.608812e+002, 1.063405e+001
1.613633e+002, 1.203503e+001
1.618455e+002, 1.382704e+001
1.623276e+002, 1.653597e+001
1.628097e+002, 1.923528e+001
1.632918e+002, 2.135069e+001
1.637739e+002, 2.227947e+001
1.642560e+002, 2.322210e+001
1.647382e+002, 2.485457e+001
1.652203e+002, 2.698615e+001
1.657024e+002, 2.888685e+001
1.661845e+002, 3.016832e+001
1.666666e+002, 3.108531e+001
1.671487e+002, 3.182324e+001
1.676309e+002, 3.207841e+001
1.681130e+002, 3.255436e+001
1.685951e+002, 3.388311e+001
1.690772e+002, 3.593254e+001
1.695593e+002, 3.787413e+001
1.700414e+002, 3.933634e+001
1.705236e+002, 4.038308e+001
1.710057e+002, 4.106871e+001
1.714878e+002, 4.121223e+001
1.719699e+002, 4.116864e+001
1.724520e+002, 4.113194e+001
1.729341e+002, 4.111404e+001
1.734163e+002, 4.128072e+001
1.738984e+002, 4.153897e+001
1.743805e+002, 4.209352e+001
1.748626e+002, 4.326107e+001
1.753447e+002, 4.578035e+001
1.758268e+002, 4.865915e+001
1.763090e+002, 5.073873e+001
1.767911e+002, 5.199526e+001
1.772732e+002, 5.306226e+001
1.777553e+002, 5.438641e+001
1.782374e+002, 5.568325e+001
1.787195e+002, 5.655940e+001
1.792017e+002, 5.635119e+001
1.796838e+002, 5.583261e+001
1.801659e+002, 5.626414e+001
1.806480e+002, 5.769067e+001
1.811301e+002, 5.944189e+001
1.816122e+002, 6.085149e+001
1.820944e+002, 6.205286e+001
1.825765e+002, 6.345103e+001
1.830586e+002, 6.591781e+001
1.835407e+002, 6.861015e+001
1.840228e+002, 6.944009e+001
1.845049e+002, 6.811960e+001
1.849871e+002, 6.646734e+001
1.854692e+002, 6.710492e+001
1.859513e+002, 6.957523e+001
1.864334e+002, 7.138608e+001
1.869155e+002, 7.065528e+001
1.873976e+002, 6.827696e+001
1.878798e+002, 6.730280e+001
1.883619e+002, 6.797346e+001
1.888440e+002, 6.947916e+001
1.893261e+002, 7.097069e+001
1.898082e+002, 7.243820e+001
1.902903e+002, 7.353191e+001
1.907725e+002, 7.392957e+001
1.912546e+002, 7.375089e+001
1.917367e+002, 7.366248e+001
1.922188e+002, 7.372351e+001
1.927009e+002, 7.380984e+001
1.931830e+002, 7.356399e+001
1.936652e+002, 7.298031e+001
1.941473e+002, 7.271784e+001
1.946294e+002, 7.340054e+001
1.951115e+002, 7.492250e+001
1.955936e+002, 7.586019e+001
1.960757e+002, 7.601144e+001
1.965579e+002, 7.576469e+001
1.970400e+002, 7.584508e+001
1.975221e+002, 7.627314e+001
1.980042e+002, 7.678905e+001
1.984863e+002, 7.723176e+001
1.989684e+002, 7.759707e+001
1.994506e+002, 7.813413e+001
1.999327e+002, 7.891626e+001
2.004148e+002, 7.979851e+001
2.008969e+002, 8.045159e+001
2.013790e+002, 8.085934e+001
2.018611e+002, 8.116785e+001
2.023433e+002, 8.147376e+001
2.028254e+002, 8.178765e+001
2.033075e+002, 8.195484e+001
2.037896e+002, 8.188915e+001
2.042717e+002, 8.173305e+001
2.047538e+002, 8.195865e+001
2.052360e+002, 8.271838e+001
2.057181e+002, 8.329444e+001
2.062002e+002, 8.293233e+001
2.066823e+002, 8.129907e+001
2.071644e+002, 8.105315e+001
2.076465e+002, 8.298689e+001
2.081287e+002, 8.611600e+001
2.086108e+002, 8.736646e+001
2.090929e+002, 8.619441e+001
2.095750e+002, 8.465258e+001
2.100571e+002, 8.406602e+001
2.105392e+002, 8.468052e+001
2.110214e+002, 8.505117e+001
2.115035e+002, 8.499422e+001
2.119856e+002, 8.463298e+001
2.124677e+002, 8.427868e+001
2.129498e+002, 8.372124e+001
2.134319e+002, 8.363931e+001
2.139140e+002, 8.481453e+001
2.143962e+002, 8.802831e+001
2.148783e+002, 8.958946e+001
2.153604e+002, 8.858260e+001
2.158425e+002, 8.577539e+001
2.163246e+002, 8.426596e+001
2.168067e+002, 8.428056e+001
2.172889e+002, 8.511208e+001
2.177710e+002, 8.658886e+001
2.182531e+002, 8.928694e+001
2.187352e+002, 9.086182e+001
2.192173e+002, 9.076223e+001
2.196994e+002, 8.938916e+001
2.201816e+002, 8.867824e+001
2.206637e+002, 8.889089e+001
2.211458e+002, 8.928355e+001
2.216279e+002, 8.938947e+001
2.221100e+002, 8.910331e+001
2.225921e+002, 8.878797e+001
2.230743e+002, 8.836018e+001
2.235564e+002, 8.791800e+001
2.240385e+002, 8.799455e+001
2.245206e+002, 8.894594e+001
2.250027e+002, 8.985453e+001
2.254848e+002, 9.008353e+001
2.259670e+002, 8.921935e+001
2.264491e+002, 8.870220e+001
2.269312e+002, 8.881429e+001
2.274133e+002, 8.937461e+001
2.278954e+002, 8.946867e+001
2.283775e+002, 8.883631e+001
2.288597e+002, 8.811797e+001
2.293418e+002, 8.768637e+001
2.298239e+002, 8.756705e+001
2.303060e+002, 8.768753e+001
2.307881e+002, 8.814783e+001
2.312702e+002, 8.885605e+001
2.317524e+002, 8.938883e+001
2.322345e+002, 8.981673e+001
2.327166e+002, 8.996086e+001
2.331987e+002, 8.960064e+001
2.336808e+002, 8.820735e+001
2.341629e+002, 8.749586e+001
2.346451e+002, 8.776889e+001
2.351272e+002, 8.881497e+001
2.356093e+002, 8.976283e+001
2.360914e+002, 9.077917e+001
2.365735e+002, 9.147108e+001
2.370556e+002, 9.152427e+001
2.375378e+002, 9.041819e+001
2.380199e+002, 8.984265e+001
2.385020e+002, 9.013413e+001
2.389841e+002, 9.103030e+001
2.394662e+002, 9.144566e+001
2.399483e+002, 9.118678e+001
2.404305e+002, 9.071956e+001
2.409126e+002, 9.030712e+001
2.413947e+002, 9.010944e+001
2.418768e+002, 8.957494e+001
2.423589e+002, 8.836716e+001
2.428410e+002, 8.682546e+001
2.433232e+002, 8.616231e+001
2.438053e+002, 8.664989e+001
2.442874e+002, 8.765205e+001
2.447695e+002, 8.900566e+001
2.452516e+002, 9.140642e+001
2.457337e+002, 9.256394e+001
2.462159e+002, 9.192229e+001
2.466980e+002, 9.004915e+001
2.471801e+002, 8.876163e+001
2.476622e+002, 8.818081e+001
2.481443e+002, 8.797771e+001
2.486264e+002, 8.805788e+001
2.491086e+002, 8.862472e+001
2.495907e+002, 8.899893e+001
2.500728e+002, 8.921391e+001
2.505549e+002, 8.921969e+001
2.510370e+002, 8.878477e+001
2.515191e+002, 8.744077e+001
2.520013e+002, 8.640115e+001
2.524834e+002, 8.629114e+001
2.529655e+002, 8.761950e+001
2.534476e+002, 8.854695e+001
2.539297e+002, 8.897218e+001
2.544118e+002, 8.904279e+001
2.548940e+002, 8.910605e+001
2.553761e+002, 8.924611e+001
2.558582e+002, 8.922765e+001
2.563403e+002, 8.889433e+001
2.568224e+002, 8.807668e+001
2.573046e+002, 8.749253e+001
2.577867e+002, 8.713164e+001
2.582688e+002, 8.701120e+001
2.587509e+002, 8.725606e+001
2.592330e+002, 8.813728e+001
2.597151e+002, 8.881752e+001
2.601973e+002, 8.885886e+001
2.606794e+002, 8.800491e+001
2.611615e+002, 8.765623e+001
2.616436e+002, 8.788668e+001
2.621257e+002, 8.855889e+001
2.626078e+002, 8.967052e+001
2.630900e+002, 9.176707e+001
2.635721e+002, 9.296038e+001
2.640542e+002, 9.223491e+001
2.645363e+002, 8.911217e+001
2.650184e+002, 8.730533e+001
2.655005e+002, 8.717796e+001
2.659827e+002, 8.789488e+001
2.664648e+002, 8.831905e+001
2.669469e+002, 8.842729e+001
2.674290e+002, 8.828066e+001
2.679111e+002, 8.770014e+001
2.683932e+002, 8.661308e+001
2.688754e+002, 8.647900e+001
2.693575e+002, 8.766671e+001
2.698396e+002, 8.923373e+001
2.703217e+002, 8.994772e+001
2.708038e+002, 8.963313e+001
2.712859e+002, 8.911778e+001
2.717681e+002, 8.850108e+001
2.722502e+002, 8.780044e+001
2.727323e+002, 8.759358e+001
2.732144e+002, 8.799647e+001
2.736965e+002, 8.866470e+001
2.741786e+002, 8.934459e+001
2.746608e+002, 9.012008e+001
2.751429e+002, 9.046597e+001
2.756250e+002, 9.015742e+001
2.761071e+002, 8.928612e+001
2.765892e+002, 8.842119e+001
2.770714e+002, 8.747665e+001
2.775535e+002, 8.682500e+001
2.780356e+002, 8.702860e+001
2.785177e+002, 8.820650e+001
2.789998e+002, 8.895345e+001
2.794819e+002, 8.879655e+001
2.799641e+002, 8.802744e+001
2.804462e+002, 8.806846e+001
2.809283e+002, 8.911496e+001
2.814104e+002, 9.013147e+001
2.818925e+002, 9.016701e+001
2.823746e+002, 8.920750e+001
2.828568e+002, 8.834406e+001
2.833389e+002, 8.770956e+001
2.838210e+002, 8.732156e+001
2.843031e+002, 8.738436e+001
2.847852e+002, 8.797084e+001
2.852673e+002, 8.840941e+001
2.857495e+002, 8.790379e+001
2.862316e+002, 8.657857e+001
2.867137e+002, 8.619270e+001
2.871958e+002, 8.722929e+001
2.876779e+002, 8.892290e+001
2.881600e+002, 8.972068e+001
2.886422e+002, 8.961377e+001
2.891243e+002, 8.919988e+001
2.896064e+002, 8.868620e+001
2.900885e+002, 8.812858e+001
2.905706e+002, 8.791419e+001
2.910527e+002, 8.815929e+001
2.915349e+002, 8.855003e+001
2.920170e+002, 8.857911e+001
2.924991e+002, 8.826876e+001
2.929812e+002, 8.788429e+001
2.934633e+002, 8.739861e+001
2.939454e+002, 8.693699e+001
2.944276e+002, 8.708617e+001
2.949097e+002, 8.801649e+001
2.953918e+002, 8.892982e+001
2.958739e+002, 8.844154e+001
2.963560e+002, 8.689031e+001
2.968381e+002, 8.585550e+001
2.973203e+002, 8.663377e+001
2.978024e+002, 8.834998e+001
2.982845e+002, 8.915501e+001
2.987666e+002, 8.895943e+001
2.992487e+002, 8.842638e+001
2.997308e+002, 8.811994e+001
3.002130e+002, 8.800020e+001
3.006951e+002, 8.795928e+001
3.011772e+002, 8.807157e+001
3.016593e+002, 8.817971e+001
3.021414e+002, 8.795600e+001
3.026235e+002, 8.741157e+001
3.031057e+002, 8.695595e+001
3.035878e+002, 8.687049e+001
3.040699e+002, 8.712292e+001
3.045520e+002, 8.770303e+001
3.050341e+002, 8.907371e+001
3.055162e+002, 9.033679e+001
3.059984e+002, 9.034975e+001
3.064805e+002, 8.926477e+001
3.069626e+002, 8.812160e+001
3.074447e+002, 8.752846e+001
3.079268e+002, 8.733577e+001
3.084089e+002, 8.740813e+001
3.088911e+002, 8.790340e+001
3.093732e+002, 8.835420e+001
3.098553e+002, 8.825658e+001
3.103374e+002, 8.776601e+001
3.108195e+002, 8.740554e+001
3.113016e+002, 8.753170e+001
3.117838e+002, 8.789263e+001
3.122659e+002, 8.829198e+001
3.127480e+002, 8.873434e+001
3.132301e+002, 8.910358e+001
3.137122e+002, 8.924804e+001
3.141943e+002, 8.927194e+001
3.146765e+002, 8.939182e+001
3.151586e+002, 8.999156e+001
3.156407e+002, 9.051745e+001
3.161228e+002, 9.054297e+001
3.166049e+002, 8.988425e+001
3.170870e+002, 8.928429e+001
3.175692e+002, 8.904466e+001
3.180513e+002, 8.907171e+001
3.185334e+002, 8.923817e+001
3.190155e+002, 9.003057e+001
3.194976e+002, 9.050202e+001
3.199797e+002, 8.995229e+001
3.204619e+002, 8.821690e+001
3.209440e+002, 8.701266e+001
3.214261e+002, 8.735170e+001
3.219082e+002, 8.824957e+001
3.223903e+002, 8.877427e+001
3.228724e+002, 8.818845e+001
3.233546e+002, 8.775111e+001
3.238367e+002, 8.788906e+001
3.243188e+002, 8.858395e+001
3.248009e+002, 8.914249e+001
3.252830e+002, 8.941370e+001
3.257651e+002, 8.953580e+001
3.262473e+002, 8.959731e+001
3.267294e+002, 8.944199e+001
3.272115e+002, 8.942007e+001
3.276936e+002, 8.960788e+001
3.281757e+002, 8.997285e+001
3.286578e+002, 9.035608e+001
3.291400e+002, 9.114183e+001
3.296221e+002, 9.162709e+001
3.301042e+002, 9.145305e+001
3.305863e+002, 8.966795e+001
3.310684e+002, 8.882434e+001
3.315505e+002, 8.953061e+001
3.320327e+002, 9.106721e+001
3.325148e+002, 9.179736e+001
3.329969e+002, 9.104981e+001
3.334790e+002, 9.039012e+001
3.339611e+002, 9.041161e+001
3.344432e+002, 9.137020e+001
3.349254e+002, 9.199759e+001
3.354075e+002, 9.233532e+001
3.358896e+002, 9.229631e+001
3.363717e+002, 9.155265e+001
3.368538e+002, 8.949558e+001
3.373359e+002, 8.824988e+001
3.378180e+002, 8.865227e+001
3.383001e+002, 9.066483e+001
3.387823e+002, 9.214664e+001
3.392644e+002, 9.310841e+001
3.397465e+002, 9.349902e+001
3.402286e+002, 9.308050e+001
3.407107e+002, 9.168919e+001
3.411928e+002, 9.048412e+001
3.416750e+002, 8.967933e+001
3.421571e+002, 8.923821e+001
3.426392e+002, 8.909310e+001
3.431213e+002, 8.926018e+001
3.436034e+002, 8.963194e+001
3.440855e+002, 9.030871e+001
3.445677e+002, 9.125790e+001
3.450498e+002, 9.175515e+001
3.455319e+002, 9.164737e+001
3.460140e+002, 9.115333e+001
3.464961e+002, 9.044348e+001
3.469782e+002, 8.954477e+001
3.474604e+002, 8.913676e+001
3.479425e+002, 9.011993e+001
3.484246e+002, 9.199104e+001
3.489067e+002, 9.270779e+001
3.493888e+002, 9.199670e+001
3.498709e+002, 9.096194e+001
3.503531e+002, 9.094308e+001
3.508352e+002, 9.174191e+001
3.513173e+002, 9.261944e+001
3.517994e+002, 9.353382e+001
3.522815e+002, 9.424077e+001
3.527636e+002, 9.413301e+001
3.532458e+002, 9.321116e+001
3.537279e+002, 9.232537e+001
3.542100e+002, 9.245318e+001
3.546921e+002, 9.306839e+001
3.551742e+002, 9.322697e+001
3.556563e+002, 9.226865e+001
3.561385e+002, 9.113002e+001
3.566206e+002, 9.061918e+001
3.571027e+002, 9.068729e+001
3.575848e+002, 9.109403e+001
3.580669e+002, 9.191063e+001
3.585490e+002, 9.288940e+001
3.590312e+002, 9.385112e+001
3.595133e+002, 9.490900e+001
3.599954e+002, 9.562834e+001
3.604775e+002, 9.542850e+001
3.609596e+002, 9.471065e+001
3.614417e+002, 9.432755e+001
3.619239e+002, 9.506611e+001
3.624060e+002, 9.589211e+001
3.628881e+002, 9.623949e+001
3.633702e+002, 9.599776e+001
3.638523e+002, 9.555601e+001
3.643344e+002, 9.482427e+001
3.648166e+002, 9.403454e+001
3.652987e+002, 9.344671e+001
3.657808e+002, 9.283936e+001
3.662629e+002, 9.273840e+001
3.667450e+002, 9.387992e+001
3.672271e+002, 9.623988e+001
3.677093e+002, 9.715519e+001
3.681914e+002, 9.481448e+001
3.686735e+002, 9.187814e+001
3.691556e+002, 9.005887e+001
3.696377e+002, 8.991830e+001
3.701198e+002, 9.034606e+001
3.706020e+002, 9.181820e+001
3.710841e+002, 9.390320e+001
3.715662e+002, 9.501844e+001
3.720483e+002, 9.466636e+001
3.725304e+002, 9.393199e+001
3.730125e+002, 9.315340e+001
3.734947e+002, 9.210732e+001
3.739768e+002, 9.174461e+001
3.744589e+002, 9.244752e+001
3.749410e+002, 9.352355e+001
3.754231e+002, 9.375185e+001
3.759052e+002, 9.274196e+001
3.763874e+002, 9.200168e+001
3.768695e+002, 9.210183e+001
3.773516e+002, 9.301840e+001
3.778337e+002, 9.351340e+001
3.783158e+002, 9.348930e+001
3.787979e+002, 9.334299e+001
3.792801e+002, 9.360330e+001
3.797622e+002, 9.431409e+001
3.802443e+002, 9.445752e+001
3.807264e+002, 9.360040e+001
3.812085e+002, 9.224795e+001
3.816906e+002, 9.191860e+001
3.821728e+002, 9.263365e+001
3.826549e+002, 9.326411e+001
3.831370e+002, 9.273279e+001
3.836191e+002, 9.140751e+001
3.841012e+002, 9.084814e+001
3.845833e+002, 9.132879e+001
3.850655e+002, 9.217383e+001
3.855476e+002, 9.234058e+001
3.860297e+002, 9.205846e+001
3.865118e+002, 9.215775e+001
3.869939e+002, 9.356581e+001
3.874760e+002, 9.538344e+001
3.879582e+002, 9.628896e+001
3.884403e+002, 9.625835e+001
3.889224e+002, 9.582424e+001
3.894045e+002, 9.522742e+001
3.898866e+002, 9.455639e+001
3.903687e+002, 9.391032e+001
3.908509e+002, 9.307087e+001
3.913330e+002, 9.255236e+001
3.918151e+002, 9.302492e+001
3.922972e+002, 9.423206e+001
3.927793e+002, 9.513338e+001
3.932614e+002, 9.496970e+001
3.937436e+002, 9.446101e+001
3.942257e+002, 9.411877e+001
3.947078e+002, 9.410318e+001
3.951899e+002, 9.408590e+001
3.956720e+002, 9.370426e+001
3.961541e+002, 9.328825e+001
3.966363e+002, 9.336903e+001
3.971184e+002, 9.455705e+001
3.976005e+002, 9.581231e+001
3.980826e+002, 9.691196e+001
3.985647e+002, 9.788381e+001
3.990468e+002, 9.832038e+001
3.995290e+002, 9.781117e+001
4.000111e+002, 9.695665e+001
4.004932e+002, 9.623026e+001
4.009753e+002, 9.550981e+001
4.014574e+002, 9.509493e+001
4.019395e+002, 9.515565e+001
4.024217e+002, 9.557424e+001
4.029038e+002, 9.581440e+001
4.033859e+002, 9.592582e+001
4.038680e+002, 9.578661e+001
4.043501e+002, 9.523587e+001
4.048322e+002, 9.403079e+001
4.053144e+002, 9.326498e+001
4.057965e+002, 9.293849e+001
4.062786e+002, 9.305846e+001
4.067607e+002, 9.385793e+001
4.072428e+002, 9.554018e+001
4.077249e+002, 9.677381e+001
4.082071e+002, 9.694947e+001
4.086892e+002, 9.626060e+001
4.091713e+002, 9.595266e+001
4.096534e+002, 9.607684e+001
4.101355e+002, 9.627776e+001
4.106176e+002, 9.622855e+001
4.110998e+002, 9.596423e+001
4.115819e+002, 9.566988e+001
4.120640e+002, 9.534150e+001
4.125461e+002, 9.506494e+001
4.130282e+002, 9.497293e+001
4.135103e+002, 9.505648e+001
4.139925e+002, 9.525587e+001
4.144746e+002, 9.574404e+001
4.149567e+002, 9.625972e+001
4.154388e+002, 9.628143e+001
4.159209e+002, 9.571153e+001
4.164030e+002, 9.517978e+001
4.168852e+002, 9.541702e+001
4.173673e+002, 9.600961e+001
4.178494e+002, 9.628416e+001
4.183315e+002, 9.549548e+001
4.188136e+002, 9.471015e+001
4.192957e+002, 9.465941e+001
4.197779e+002, 9.526205e+001
4.202600e+002, 9.595377e+001
4.207421e+002, 9.685324e+001
4.212242e+002, 9.751651e+001
4.217063e+002, 9.753895e+001
4.221884e+002, 9.642825e+001
4.226706e+002, 9.548949e+001
4.231527e+002, 9.506980e+001
4.236348e+002, 9.502665e+001
4.241169e+002, 9.508496e+001
4.245990e+002, 9.543079e+001
4.250811e+002, 9.565453e+001
4.255633e+002, 9.557974e+001
4.260454e+002, 9.514866e+001
4.265275e+002, 9.481239e+001
4.270096e+002, 9.447431e+001
4.274917e+002, 9.430160e+001
4.279738e+002, 9.449088e+001
4.284560e+002, 9.539820e+001
4.289381e+002, 9.588304e+001
4.294202e+002, 9.560188e+001
4.299023e+002, 9.485214e+001
4.303844e+002, 9.468374e+001
4.308665e+002, 9.524673e+001
4.313487e+002, 9.597050e+001
4.318308e+002, 9.669778e+001
4.323129e+002, 9.745212e+001
4.327950e+002, 9.761802e+001
4.332771e+002, 9.704198e+001
4.337592e+002, 9.626988e+001
4.342414e+002, 9.601586e+001
4.347235e+002, 9.624418e+001
4.352056e+002, 9.652615e+001
4.356877e+002, 9.676275e+001
4.361698e+002, 9.694416e+001
4.366519e+002, 9.698388e+001
4.371341e+002, 9.689596e+001
4.376162e+002, 9.690971e+001
4.380983e+002, 9.753863e+001
4.385804e+002, 9.830601e+001
4.390625e+002, 9.821504e+001
4.395446e+002, 9.684117e+001
4.400268e+002, 9.548527e+001
4.405089e+002, 9.559357e+001
4.409910e+002, 9.656788e+001
4.414731e+002, 9.718211e+001
4.419552e+002, 9.624014e+001
4.424373e+002, 9.527149e+001
4.429195e+002, 9.542594e+001
4.434016e+002, 9.670546e+001
4.438837e+002, 9.783071e+001
4.443658e+002, 9.826704e+001
4.448479e+002, 9.833946e+001
4.453300e+002, 9.829397e+001
4.458122e+002, 9.811398e+001
4.462943e+002, 9.790408e+001
4.467764e+002, 9.754024e+001
4.472585e+002, 9.715144e+001
4.477406e+002, 9.706980e+001
4.482227e+002, 9.759057e+001
4.487049e+002, 9.815822e+001
4.491870e+002, 9.877556e+001
4.496691e+002, 9.959303e+001
4.501512e+002, 9.940418e+001
4.506333e+002, 9.734476e+001
4.511154e+002, 9.522379e+001
4.515976e+002, 9.499442e+001
4.520797e+002, 9.742091e+001
4.525618e+002, 9.915656e+001
4.530439e+002, 9.950657e+001
4.535260e+002, 9.893103e+001
4.540081e+002, 9.902009e+001
4.544903e+002, 9.993516e+001
4.549724e+002, 1.004611e+002
4.554545e+002, 9.950777e+001
4.559366e+002, 9.738074e+001
4.564187e+002, 9.638760e+001
4.569008e+002, 9.676089e+001
4.573830e+002, 9.741377e+001
4.578651e+002, 9.667654e+001
4.583472e+002, 9.509399e+001
4.588293e+002, 9.454761e+001
4.593114e+002, 9.630085e+001
4.597935e+002, 9.870312e+001
4.602757e+002, 9.966013e+001
4.607578e+002, 9.937709e+001
4.612399e+002, 9.893385e+001
4.617220e+002, 9.901283e+001
4.622041e+002, 9.923946e+001
4.626862e+002, 9.922412e+001
4.631684e+002, 9.884959e+001
4.636505e+002, 9.851740e+001
4.641326e+002, 9.854501e+001
4.646147e+002, 9.870742e+001
4.650968e+002, 9.871277e+001
4.655789e+002, 9.792773e+001
4.660611e+002, 9.753239e+001
4.665432e+002, 9.828384e+001
4.670253e+002, 1.000227e+002
4.675074e+002, 1.009480e+002
4.679895e+002, 1.000620e+002
4.684716e+002, 9.895411e+001
4.689538e+002, 9.838394e+001
4.694359e+002, 9.864839e+001
4.699180e+002, 9.880339e+001
4.704001e+002, 9.876668e+001
4.708822e+002, 9.867668e+001
4.713643e+002, 9.872883e+001
4.718465e+002, 9.891875e+001
4.723286e+002, 9.930779e+001
4.728107e+002, 1.001610e+002
4.732928e+002, 1.012448e+002
4.737749e+002, 1.009669e+002
4.742570e+002, 9.906844e+001
4.747392e+002, 9.716911e+001
4.752213e+002, 9.651373e+001
4.757034e+002, 9.696171e+001
4.761855e+002, 9.760529e+001
4.766676e+002, 9.839046e+001
4.771497e+002, 9.922380e+001
4.776319e+002, 1.000590e+002
4.781140e+002, 1.008503e+002
4.785961e+002, 1.014311e+002
4.790782e+002, 1.015720e+002
4.795603e+002, 1.015625e+002
4.800424e+002, 1.017232e+002
4.805246e+002, 1.020425e+002
4.810067e+002, 1.024165e+002
4.814888e+002, 1.029446e+002
4.819709e+002, 1.034067e+002
4.824530e+002, 1.034987e+002
4.829352e+002, 1.028399e+002
4.834173e+002, 1.026194e+002
4.838994e+002, 1.041167e+002
4.843815e+002, 1.061717e+002
4.848636e+002, 1.070038e+002
4.853457e+002, 1.048533e+002
4.858279e+002, 1.028367e+002
4.863100e+002, 1.019080e+002
4.867921e+002, 1.020865e+002
4.872742e+002, 1.019242e+002
4.877563e+002, 1.010116e+002
4.882384e+002, 1.001749e+002
4.887206e+002, 9.995418e+001
4.892027e+002, 1.007686e+002
4.896848e+002, 1.010202e+002
4.901669e+002, 1.004388e+002
4.906490e+002, 9.956351e+001
4.911311e+002, 9.928796e+001
4.916133e+002, 9.970026e+001
4.920954e+002, 1.001306e+002
4.925775e+002, 1.004295e+002
4.930596e+002, 1.005735e+002
4.935417e+002, 1.004271e+002
4.940238e+002, 9.998662e+001
4.945060e+002, 9.948860e+001
4.949881e+002, 9.895670e+001
4.954702e+002, 9.850980e+001
4.959523e+002, 9.851516e+001
4.964344e+002, 9.909870e+001
4.969165e+002, 9.977061e+001
4.973987e+002, 1.001380e+002
4.978808e+002, 1.002365e+002
4.983629e+002, 1.001258e+002
4.988450e+002, 9.961295e+001
4.993271e+002, 9.908503e+001
4.998092e+002, 9.874441e+001
5.002914e+002, 9.859261e+001
5.007735e+002, 9.864646e+001
5.012556e+002, 9.909925e+001
5.017377e+002, 9.962148e+001
5.022198e+002, 1.000952e+002
5.027019e+002, 1.007121e+002
5.031841e+002, 1.007553e+002
5.036662e+002, 9.941312e+001
5.041483e+002, 9.775477e+001
5.046304e+002, 9.703934e+001
5.051125e+002, 9.772578e+001
5.055946e+002, 9.864999e+001
5.060768e+002, 9.987125e+001
5.065589e+002, 1.012181e+002
5.070410e+002, 1.018178e+002
5.075231e+002, 1.015327e+002
5.080052e+002, 1.008886e+002
5.084873e+002, 9.984290e+001
5.089695e+002, 9.839796e+001
5.094516e+002, 9.820957e+001
5.099337e+002, 9.950827e+001
5.104158e+002, 1.011348e+002
5.108979e+002, 1.017671e+002
5.113800e+002, 1.015708e+002
5.118622e+002, 1.012547e+002
5.123443e+002, 1.009929e+002
5.128264e+002, 1.007197e+002
5.133085e+002, 1.001782e+002
5.137906e+002, 9.950158e+001
5.142728e+002, 9.916722e+001
5.147549e+002, 9.975631e+001
5.152370e+002, 1.006015e+002
5.157191e+002, 1.011210e+002
5.162012e+002, 1.012583e+002
5.166833e+002, 1.013679e+002
5.171655e+002, 1.019875e+002
5.176476e+002, 1.024595e+002
5.181297e+002, 1.022029e+002
5.186118e+002, 9.975510e+001
5.190939e+002, 9.824809e+001
5.195760e+002, 9.883807e+001
5.200582e+002, 1.006694e+002
5.205403e+002, 1.016921e+002
5.210224e+002, 1.014868e+002
5.215045e+002, 1.010253e+002
5.219866e+002, 1.004135e+002
5.224688e+002, 9.965134e+001
5.229509e+002, 9.952393e+001
5.234330e+002, 1.002772e+002
5.239151e+002, 1.010874e+002
5.243972e+002, 1.012803e+002
5.248793e+002, 1.008401e+002
5.253615e+002, 1.003565e+002
5.258436e+002, 9.979748e+001
5.263257e+002, 9.943054e+001
5.268078e+002, 9.991557e+001
5.272899e+002, 1.010450e+002
5.277720e+002, 1.018042e+002
5.282542e+002, 1.014575e+002
5.287363e+002, 1.007811e+002
5.292184e+002, 1.009770e+002
5.297005e+002, 1.018726e+002
5.301826e+002, 1.025375e+002
5.306647e+002, 1.020211e+002
5.311469e+002, 1.012561e+002
5.316290e+002, 1.010976e+002
5.321111e+002, 1.017852e+002
5.325932e+002, 1.024912e+002
5.330753e+002, 1.032738e+002
5.335574e+002, 1.037490e+002
5.340396e+002, 1.035065e+002
5.345217e+002, 1.011671e+002
5.350038e+002, 9.965048e+001
5.354859e+002, 9.982059e+001
5.359680e+002, 1.011253e+002
5.364501e+002, 1.018195e+002
5.369323e+002, 1.016294e+002
5.374144e+002, 1.012905e+002
5.378965e+002, 1.010353e+002
5.383786e+002, 1.008645e+002
5.388607e+002, 1.007654e+002
5.393428e+002, 1.007605e+002
5.398250e+002, 1.007556e+002
5.403071e+002, 1.005090e+002
5.407892e+002, 1.000910e+002
5.412713e+002, 1.002957e+002
5.417534e+002, 1.014247e+002
5.422355e+002, 1.027033e+002
5.427177e+002, 1.029044e+002
5.431998e+002, 1.023231e+002
5.436819e+002, 1.018930e+002
5.441640e+002, 1.021669e+002
5.446461e+002, 1.027043e+002
5.451282e+002, 1.034148e+002
5.456104e+002, 1.041668e+002
5.460925e+002, 1.041890e+002
5.465746e+002, 1.018443e+002
5.470567e+002, 9.950650e+001
5.475388e+002, 9.902174e+001
5.480209e+002, 1.013929e+002
5.485031e+002, 1.030842e+002
5.489852e+002, 1.027309e+002
5.494673e+002, 1.016527e+002
5.499494e+002, 1.012784e+002
5.504315e+002, 1.025649e+002
5.509136e+002, 1.030538e+002
5.513958e+002, 1.020563e+002
5.518779e+002, 1.002035e+002
5.523600e+002, 9.944157e+001
5.528421e+002, 9.999369e+001
5.533242e+002, 1.008412e+002
5.538063e+002, 1.016883e+002
5.542885e+002, 1.025002e+002
5.547706e+002, 1.030415e+002
5.552527e+002, 1.033224e+002
5.557348e+002, 1.032321e+002
5.562169e+002, 1.020527e+002
5.566990e+002, 1.004498e+002
5.571812e+002, 1.003784e+002
5.576633e+002, 1.024882e+002
5.581454e+002, 1.048269e+002
5.586275e+002, 1.056207e+002
5.591096e+002, 1.053079e+002
5.595917e+002, 1.046749e+002
5.600739e+002, 1.034895e+002
5.605560e+002, 1.025844e+002
5.610381e+002, 1.026119e+002
5.615202e+002, 1.033514e+002
5.620023e+002, 1.038239e+002
5.624844e+002, 1.037521e+002
5.629666e+002, 1.033838e+002
5.634487e+002, 1.026576e+002
5.639308e+002, 1.013667e+002
5.644129e+002, 1.008078e+002
5.648950e+002, 1.013574e+002
5.653771e+002, 1.022259e+002
5.658593e+002, 1.028079e+002
5.663414e+002, 1.030894e+002
5.668235e+002, 1.031186e+002
5.673056e+002, 1.028461e+002
5.677877e+002, 1.024067e+002
5.682698e+002, 1.019106e+002
5.687520e+002, 1.013790e+002
5.692341e+002, 1.012629e+002
5.697162e+002, 1.020370e+002
5.701983e+002, 1.031272e+002
5.706804e+002, 1.034693e+002
5.711625e+002, 1.031315e+002
5.716447e+002, 1.026011e+002
5.721268e+002, 1.019686e+002
5.726089e+002, 1.014297e+002
5.730910e+002, 1.012468e+002
5.735731e+002, 1.014942e+002
5.740552e+002, 1.017171e+002
5.745374e+002, 1.016221e+002
5.750195e+002, 1.014483e+002
5.755016e+002, 1.014188e+002
5.759837e+002, 1.017168e+002
5.764658e+002, 1.019785e+002
5.769479e+002, 1.018963e+002
5.774301e+002, 1.018158e+002
5.779122e+002, 1.025531e+002
5.783943e+002, 1.048867e+002
5.788764e+002, 1.064498e+002
5.793585e+002, 1.063187e+002
5.798406e+002, 1.048063e+002
5.803228e+002, 1.042740e+002
5.808049e+002, 1.048885e+002
5.812870e+002, 1.054053e+002
5.817691e+002, 1.047334e+002
5.822512e+002, 1.032268e+002
5.827333e+002, 1.023075e+002
5.832155e+002, 1.020753e+002
5.836975e+002, 1.022445e+002
5.841796e+002, 1.029809e+002
5.846617e+002, 1.038336e+002
5.851439e+002, 1.039575e+002
5.856260e+002, 1.026005e+002
5.861081e+002, 1.014183e+002
5.865902e+002, 1.016686e+002
5.870723e+002, 1.027866e+002
5.875544e+002, 1.036733e+002
5.880366e+002, 1.040405e+002
5.885187e+002, 1.041151e+002
5.890008e+002, 1.037262e+002
5.894829e+002, 1.029320e+002
5.899650e+002, 1.027477e+002
5.904471e+002, 1.036662e+002
5.909293e+002, 1.045497e+002
5.914114e+002, 1.047949e+002
5.918935e+002, 1.042783e+002
5.923756e+002, 1.040094e+002
5.928577e+002, 1.040143e+002
5.933398e+002, 1.041945e+002
5.938220e+002, 1.046118e+002
5.943041e+002, 1.051943e+002
5.947862e+002, 1.053048e+002
5.952683e+002, 1.047067e+002
5.957504e+002, 1.039264e+002
5.962325e+002, 1.036833e+002
5.967147e+002, 1.038056e+002
5.971968e+002, 1.038472e+002
5.976789e+002, 1.033866e+002
5.981610e+002, 1.029625e+002
5.986431e+002, 1.030193e+002
5.991252e+002, 1.034748e+002
5.996074e+002, 1.039312e+002
6.000895e+002, 1.044038e+002
6.005716e+002, 1.047133e+002
6.010537e+002, 1.047015e+002
6.015358e+002, 1.042465e+002
6.020179e+002, 1.040170e+002
6.025001e+002, 1.041731e+002
6.029822e+002, 1.044039e+002
6.034643e+002, 1.045031e+002
6.039464e+002, 1.044812e+002
6.044285e+002, 1.042563e+002
6.049106e+002, 1.037505e+002
6.053928e+002, 1.031710e+002
6.058749e+002, 1.027333e+002
6.063570e+002, 1.024534e+002
6.068391e+002, 1.025979e+002
6.073212e+002, 1.034775e+002
6.078033e+002, 1.045262e+002
6.082855e+002, 1.047362e+002
6.087676e+002, 1.043249e+002
6.092497e+002, 1.041038e+002
6.097318e+002, 1.048893e+002
6.102139e+002, 1.057710e+002
6.106960e+002, 1.059581e+002
6.111782e+002, 1.054359e+002
6.116603e+002, 1.049384e+002
6.121424e+002, 1.047804e+002
6.126245e+002, 1.046823e+002
6.131066e+002, 1.044334e+002
6.135887e+002, 1.037776e+002
6.140709e+002, 1.035531e+002
6.145530e+002, 1.039916e+002
6.150351e+002, 1.046554e+002
6.155172e+002, 1.050783e+002
6.159993e+002, 1.051968e+002
6.164814e+002, 1.054078e+002
6.169636e+002, 1.058274e+002
6.174457e+002, 1.062768e+002
6.179278e+002, 1.064413e+002
6.184099e+002, 1.063237e+002
6.188920e+002, 1.059699e+002
6.193741e+002, 1.051391e+002
6.198563e+002, 1.042664e+002
6.203384e+002, 1.042005e+002
6.208205e+002, 1.047680e+002
6.213026e+002, 1.051045e+002
6.217847e+002, 1.044665e+002
6.222668e+002, 1.035810e+002
6.227490e+002, 1.028968e+002
6.232311e+002, 1.024368e+002
6.237132e+002, 1.023896e+002
6.241953e+002, 1.032403e+002
6.246774e+002, 1.042289e+002
6.251595e+002, 1.048258e+002
6.256417e+002, 1.048583e+002
6.261238e+002, 1.047794e+002
6.266059e+002, 1.043603e+002
6.270880e+002, 1.040830e+002
6.275701e+002, 1.048812e+002
6.280522e+002, 1.069546e+002
6.285344e+002, 1.080954e+002
6.290165e+002, 1.076038e+002
6.294986e+002, 1.062887e+002
6.299807e+002, 1.057665e+002
6.304628e+002, 1.058766e+002
6.309449e+002, 1.057718e+002
6.314271e+002, 1.044070e+002
6.319092e+002, 1.030122e+002
6.323913e+002, 1.033187e+002
6.328734e+002, 1.050304e+002
6.333555e+002, 1.062500e+002
6.338376e+002, 1.053880e+002
6.343198e+002, 1.042518e+002
6.348019e+002, 1.039893e+002
6.352840e+002, 1.049049e+002
6.357661e+002, 1.056778e+002
6.362482e+002, 1.061781e+002
6.367303e+002, 1.064945e+002
6.372125e+002, 1.066978e+002
6.376946e+002, 1.068431e+002
6.381767e+002, 1.066469e+002
6.386588e+002, 1.059346e+002
6.391409e+002, 1.051674e+002
6.396230e+002, 1.052022e+002
6.401052e+002, 1.059645e+002
6.405873e+002, 1.062440e+002
6.410694e+002, 1.055654e+002
6.415515e+002, 1.045530e+002
6.420336e+002, 1.040756e+002
6.425157e+002, 1.040426e+002
6.429979e+002, 1.041862e+002
6.434800e+002, 1.043889e+002
6.439621e+002, 1.047098e+002
6.444442e+002, 1.055066e+002
6.449263e+002, 1.065974e+002
6.454084e+002, 1.069233e+002
6.458906e+002, 1.050277e+002
6.463727e+002, 1.032597e+002
6.468548e+002, 1.028975e+002
6.473369e+002, 1.041781e+002
6.478190e+002, 1.049878e+002
6.483011e+002, 1.050662e+002
6.487833e+002, 1.050551e+002
6.492654e+002, 1.055829e+002
6.497475e+002, 1.067557e+002
6.502296e+002, 1.070920e+002
6.507117e+002, 1.063874e+002
6.511938e+002, 1.053318e+002
6.516760e+002, 1.045630e+002
6.521581e+002, 1.041274e+002
6.526402e+002, 1.042729e+002
6.531223e+002, 1.053067e+002
6.536044e+002, 1.064217e+002
6.540865e+002, 1.069794e+002
6.545687e+002, 1.070969e+002
6.550508e+002, 1.070086e+002
6.555329e+002, 1.065275e+002
6.560150e+002, 1.061377e+002
6.564971e+002, 1.061284e+002
6.569792e+002, 1.064022e+002
6.574614e+002, 1.064121e+002
6.579435e+002, 1.056740e+002
6.584256e+002, 1.053319e+002
6.589077e+002, 1.059461e+002
6.593898e+002, 1.074543e+002
6.598719e+002, 1.082668e+002
6.603541e+002, 1.082956e+002
6.608362e+002, 1.080414e+002
6.613183e+002, 1.076662e+002
6.618004e+002, 1.072770e+002
6.622825e+002, 1.074815e+002
6.627646e+002, 1.083621e+002
6.632468e+002, 1.089607e+002
6.637289e+002, 1.080251e+002
6.642110e+002, 1.064588e+002
6.646931e+002, 1.054647e+002
6.651752e+002, 1.054663e+002
6.656573e+002, 1.056294e+002
6.661395e+002, 1.055250e+002
6.666216e+002, 1.054005e+002
6.671037e+002, 1.055600e+002
6.675858e+002, 1.064880e+002
6.680679e+002, 1.071325e+002
6.685500e+002, 1.073108e+002
6.690322e+002, 1.072032e+002
6.695143e+002, 1.071565e+002
6.699964e+002, 1.071457e+002
6.704785e+002, 1.073548e+002
6.709606e+002, 1.080290e+002
6.714427e+002, 1.088283e+002
6.719249e+002, 1.085947e+002
6.724070e+002, 1.074584e+002
6.728891e+002, 1.064770e+002
6.733712e+002, 1.064424e+002
6.738533e+002, 1.068055e+002
6.743354e+002, 1.068458e+002
6.748176e+002, 1.066032e+002
6.752997e+002, 1.066883e+002
6.757818e+002, 1.080237e+002
6.762639e+002, 1.093136e+002
6.767460e+002, 1.096569e+002
6.772281e+002, 1.086409e+002
6.777103e+002, 1.079007e+002
6.781924e+002, 1.076435e+002
6.786745e+002, 1.075321e+002
6.791566e+002, 1.072516e+002
6.796387e+002, 1.066664e+002
6.801208e+002, 1.066169e+002
6.806030e+002, 1.072470e+002
6.810851e+002, 1.081515e+002
6.815672e+002, 1.091006e+002
6.820493e+002, 1.099532e+002
6.825314e+002, 1.100054e+002
6.830135e+002, 1.087639e+002
6.834957e+002, 1.074347e+002
6.839778e+002, 1.073947e+002
6.844599e+002, 1.081745e+002
6.849420e+002, 1.088890e+002
6.854241e+002, 1.093515e+002
6.859063e+002, 1.095437e+002
6.863884e+002, 1.093644e+002
6.868705e+002, 1.088978e+002
6.873526e+002, 1.084246e+002
6.878347e+002, 1.078529e+002
6.883168e+002, 1.074222e+002
6.887990e+002, 1.071679e+002
6.892811e+002, 1.071031e+002
6.897632e+002, 1.074498e+002
6.902453e+002, 1.082884e+002
6.907274e+002, 1.089821e+002
6.912095e+002, 1.090434e+002
6.916917e+002, 1.086781e+002
6.921738e+002, 1.084084e+002
6.926559e+002, 1.082505e+002
6.931380e+002, 1.083567e+002
6.936201e+002, 1.093266e+002
6.941022e+002, 1.103218e+002
6.945844e+002, 1.103508e+002
6.950665e+002, 1.090994e+002
6.955486e+002, 1.081664e+002
6.960307e+002, 1.082912e+002
6.965128e+002, 1.088296e+002
6.969949e+002, 1.093268e+002
6.974771e+002, 1.101260e+002
6.979592e+002, 1.100403e+002
6.984413e+002, 1.085883e+002
6.989234e+002, 1.068743e+002
6.994055e+002, 1.063706e+002
6.998876e+002, 1.071042e+002
7.003698e+002, 1.075822e+002
7.008519e+002, 1.074733e+002
7.013340e+002, 1.072211e+002
7.018161e+002, 1.075423e+002
7.022982e+002, 1.082161e+002
7.027803e+002, 1.086869e+002
7.032625e+002, 1.087037e+002
7.037446e+002, 1.085065e+002
7.042267e+002, 1.081894e+002
7.047088e+002, 1.077800e+002
7.051909e+002, 1.073393e+002
7.056730e+002, 1.062839e+002
7.061552e+002, 1.059070e+002
7.066373e+002, 1.068929e+002
7.071194e+002, 1.088446e+002
7.076015e+002, 1.098911e+002
7.080836e+002, 1.097971e+002
7.085657e+002, 1.094687e+002
7.090479e+002, 1.092166e+002
7.095300e+002, 1.090318e+002
7.100121e+002, 1.088922e+002
7.104942e+002, 1.087951e+002
7.109763e+002, 1.087031e+002
7.114584e+002, 1.085635e+002
7.119406e+002, 1.084279e+002
7.124227e+002, 1.083776e+002
7.129048e+002, 1.084138e+002
7.133869e+002, 1.084376e+002
7.138690e+002, 1.086802e+002
7.143511e+002, 1.086905e+002
7.148333e+002, 1.079334e+002
7.153154e+002, 1.056915e+002
7.157975e+002, 1.050674e+002
7.162796e+002, 1.071366e+002
7.167617e+002, 1.095211e+002
7.172438e+002, 1.102402e+002
7.177260e+002, 1.091039e+002
7.182081e+002, 1.082992e+002
7.186902e+002, 1.079621e+002
7.191723e+002, 1.079561e+002
7.196544e+002, 1.083563e+002
7.201365e+002, 1.089555e+002
7.206187e+002, 1.091532e+002
7.211008e+002, 1.086522e+002
7.215829e+002, 1.082344e+002
7.220650e+002, 1.086103e+002
7.225471e+002, 1.093822e+002
7.230292e+002, 1.100266e+002
7.235114e+002, 1.103644e+002
7.239935e+002, 1.105795e+002
7.244756e+002, 1.105866e+002
7.249577e+002, 1.105277e+002
7.254398e+002, 1.106909e+002
7.259219e+002, 1.112255e+002
7.264041e+002, 1.115022e+002
7.268862e+002, 1.113349e+002
7.273683e+002, 1.108806e+002
7.278504e+002, 1.104573e+002
7.283325e+002, 1.100747e+002
7.288146e+002, 1.098009e+002
7.292968e+002, 1.096112e+002
7.297789e+002, 1.095988e+002
7.302610e+002, 1.101827e+002
7.307431e+002, 1.110901e+002
7.312252e+002, 1.114160e+002
7.317073e+002, 1.097767e+002
7.321895e+002, 1.084355e+002
7.326716e+002, 1.085986e+002
7.331537e+002, 1.101883e+002
7.336358e+002, 1.113775e+002
7.341179e+002, 1.121562e+002
7.346000e+002, 1.125699e+002
7.350822e+002, 1.126084e+002
7.355643e+002, 1.122894e+002
7.360464e+002, 1.115281e+002
7.365285e+002, 1.102773e+002
7.370106e+002, 1.095303e+002
7.374927e+002, 1.105824e+002
7.379749e+002, 1.123882e+002
7.384570e+002, 1.130926e+002
7.389391e+002, 1.126195e+002
7.394212e+002, 1.119641e+002
7.399033e+002, 1.117761e+002
7.403854e+002, 1.115785e+002
7.408676e+002, 1.108798e+002
7.413497e+002, 1.093094e+002
7.418318e+002, 1.085657e+002
7.423139e+002, 1.091811e+002
7.427960e+002, 1.101236e+002
7.432781e+002, 1.106914e+002
7.437603e+002, 1.108080e+002
7.442424e+002, 1.112052e+002
7.447245e+002, 1.120259e+002
7.452066e+002, 1.126155e+002
7.456887e+002, 1.119076e+002
7.461708e+002, 1.104583e+002
7.466530e+002, 1.098617e+002
7.471351e+002, 1.105530e+002
7.476172e+002, 1.112324e+002
7.480993e+002, 1.105821e+002
7.485814e+002, 1.095565e+002
7.490635e+002, 1.092692e+002
7.495457e+002, 1.108344e+002
7.500278e+002, 1.117456e+002
7.505099e+002, 1.111512e+002
7.509920e+002, 1.100966e+002
7.514741e+002, 1.098691e+002
7.519562e+002, 1.107709e+002
7.524384e+002, 1.111553e+002
7.529205e+002, 1.106588e+002
7.534026e+002, 1.098588e+002
7.538847e+002, 1.095905e+002
7.543668e+002, 1.098030e+002
7.548489e+002, 1.103578e+002
7.553311e+002, 1.114843e+002
7.558132e+002, 1.124218e+002
7.562953e+002, 1.122373e+002
7.567774e+002, 1.114359e+002
7.572595e+002, 1.109079e+002
7.577416e+002, 1.113871e+002
7.582238e+002, 1.116277e+002
7.587059e+002, 1.110250e+002
7.591880e+002, 1.100751e+002
7.596701e+002, 1.098510e+002
7.601522e+002, 1.105648e+002
7.606343e+002, 1.113880e+002
7.611165e+002, 1.123378e+002
7.615986e+002, 1.130511e+002
7.620807e+002, 1.122278e+002
7.625628e+002, 1.101696e+002
7.630449e+002, 1.086371e+002
7.635270e+002, 1.086131e+002
7.640092e+002, 1.093302e+002
7.644913e+002, 1.105289e+002
7.649734e+002, 1.119316e+002
7.654555e+002, 1.126981e+002
7.659376e+002, 1.119060e+002
7.664197e+002, 1.110647e+002
7.669019e+002, 1.106249e+002
7.673840e+002, 1.105545e+002
7.678661e+002, 1.107249e+002
7.683482e+002, 1.111311e+002
7.688303e+002, 1.118165e+002
7.693124e+002, 1.130140e+002
7.697946e+002, 1.144242e+002
7.702767e+002, 1.150788e+002
7.707588e+002, 1.149951e+002
7.712409e+002, 1.143346e+002
7.717230e+002, 1.125827e+002
7.722051e+002, 1.107324e+002
7.726873e+002, 1.097116e+002
7.731694e+002, 1.095023e+002
7.736515e+002, 1.097580e+002
7.741336e+002, 1.110599e+002
7.746157e+002, 1.121126e+002
7.750978e+002, 1.122176e+002
7.755800e+002, 1.114222e+002
7.760621e+002, 1.109613e+002
7.765442e+002, 1.108788e+002
7.770263e+002, 1.110127e+002
7.775084e+002, 1.114201e+002
7.779905e+002, 1.119859e+002
7.784727e+002, 1.121380e+002
7.789548e+002, 1.118881e+002
7.794369e+002, 1.114587e+002
7.799190e+002, 1.107139e+002
7.804011e+002, 1.100585e+002
7.808832e+002, 1.099665e+002
7.813654e+002, 1.104613e+002
7.818475e+002, 1.109443e+002
7.823296e+002, 1.110344e+002
7.828117e+002, 1.112476e+002
7.832938e+002, 1.119125e+002
7.837759e+002, 1.130967e+002
7.842581e+002, 1.140116e+002
7.847402e+002, 1.147150e+002
7.852223e+002, 1.149530e+002
7.857044e+002, 1.143624e+002
7.861865e+002, 1.131506e+002
7.866686e+002, 1.119676e+002
7.871508e+002, 1.108382e+002
7.876329e+002, 1.101360e+002
7.881150e+002, 1.103947e+002
7.885971e+002, 1.110428e+002
7.890792e+002, 1.114777e+002
7.895613e+002, 1.115845e+002
7.900435e+002, 1.119989e+002
7.905256e+002, 1.134521e+002
7.910077e+002, 1.147381e+002
7.914898e+002, 1.151896e+002
7.919719e+002, 1.146805e+002
7.924540e+002, 1.141004e+002
7.929362e+002, 1.133853e+002
7.934183e+002, 1.128949e+002
7.939004e+002, 1.132676e+002
7.943825e+002, 1.140822e+002
7.948646e+002, 1.139841e+002
7.953467e+002, 1.128655e+002
7.958289e+002, 1.117996e+002
7.963110e+002, 1.114652e+002
7.967931e+002, 1.115989e+002
7.972752e+002, 1.121695e+002
7.977573e+002, 1.134230e+002
7.982394e+002, 1.139266e+002
7.987216e+002, 1.128060e+002
7.992037e+002, 1.116993e+002
7.996858e+002, 1.118319e+002
8.001679e+002, 1.134941e+002
8.006500e+002, 1.140320e+002
8.011321e+002, 1.133282e+002
8.016143e+002, 1.122995e+002
8.020964e+002, 1.115724e+002
8.025785e+002, 1.111714e+002
8.030606e+002, 1.112602e+002
8.035427e+002, 1.118907e+002
8.040248e+002, 1.124457e+002
8.045070e+002, 1.123076e+002
8.049891e+002, 1.121248e+002
8.054712e+002, 1.124240e+002
8.059533e+002, 1.134569e+002
8.064354e+002, 1.144095e+002
8.069175e+002, 1.154380e+002
8.073997e+002, 1.161470e+002
8.078818e+002, 1.161539e+002
8.083639e+002, 1.154735e+002
8.088460e+002, 1.148567e+002
8.093281e+002, 1.143497e+002
8.098102e+002, 1.136382e+002
8.102924e+002, 1.118398e+002
8.107745e+002, 1.099362e+002
8.112566e+002, 1.094951e+002
8.117387e+002, 1.108802e+002
8.122208e+002, 1.121211e+002
8.127029e+002, 1.121827e+002
8.131851e+002, 1.119862e+002
8.136672e+002, 1.122652e+002
8.141493e+002, 1.133109e+002
8.146314e+002, 1.135063e+002
8.151135e+002, 1.125348e+002
8.155956e+002, 1.114992e+002
8.160778e+002, 1.113940e+002
8.165599e+002, 1.120097e+002
8.170420e+002, 1.123990e+002
8.175241e+002, 1.125088e+002
8.180062e+002, 1.125223e+002
8.184883e+002, 1.126431e+002
8.189705e+002, 1.127006e+002
8.194526e+002, 1.123941e+002
8.199347e+002, 1.115830e+002
8.204168e+002, 1.112484e+002
8.208989e+002, 1.120392e+002
8.213810e+002, 1.129532e+002
8.218632e+002, 1.134316e+002
8.223453e+002, 1.133881e+002
8.228274e+002, 1.138877e+002
8.233095e+002, 1.150262e+002
8.237916e+002, 1.160829e+002
8.242737e+002, 1.164838e+002
8.247559e+002, 1.163853e+002
8.252380e+002, 1.159836e+002
8.257201e+002, 1.153094e+002
8.262022e+002, 1.146830e+002
8.266843e+002, 1.140335e+002
8.271664e+002, 1.137123e+002
8.276486e+002, 1.141716e+002
8.281307e+002, 1.156528e+002
8.286128e+002, 1.162977e+002
8.290949e+002, 1.157275e+002
8.295770e+002, 1.149738e+002
8.300591e+002, 1.146598e+002
8.305413e+002, 1.147161e+002
8.310234e+002, 1.142523e+002
8.315055e+002, 1.132751e+002
8.319876e+002, 1.123639e+002
8.324697e+002, 1.116200e+002
8.329518e+002, 1.113515e+002
8.334340e+002, 1.123129e+002
8.339161e+002, 1.144017e+002
8.343982e+002, 1.157520e+002
8.348803e+002, 1.151763e+002
8.353624e+002, 1.142247e+002
8.358445e+002, 1.134892e+002
8.363267e+002, 1.129739e+002
8.368088e+002, 1.127647e+002
8.372909e+002, 1.129092e+002
8.377730e+002, 1.131542e+002
8.382551e+002, 1.134019e+002
8.387372e+002, 1.136368e+002
8.392194e+002, 1.137436e+002
8.397015e+002, 1.137665e+002
8.401836e+002, 1.139583e+002
8.406657e+002, 1.148667e+002
8.411478e+002, 1.156296e+002
8.416299e+002, 1.155737e+002
8.421121e+002, 1.147795e+002
8.425942e+002, 1.141811e+002
8.430763e+002, 1.139144e+002
8.435584e+002, 1.136899e+002
8.440405e+002, 1.133699e+002
8.445226e+002, 1.130365e+002
8.450048e+002, 1.130430e+002
8.454869e+002, 1.133746e+002
8.459690e+002, 1.138192e+002
8.464511e+002, 1.143642e+002
8.469332e+002, 1.148843e+002
8.474153e+002, 1.155179e+002
8.478975e+002, 1.160336e+002
8.483796e+002, 1.157759e+002
8.488617e+002, 1.134230e+002
8.493438e+002, 1.115153e+002
8.498259e+002, 1.106550e+002
8.503080e+002, 1.107507e+002
8.507902e+002, 1.119258e+002
8.512723e+002, 1.144705e+002
8.517544e+002, 1.162404e+002
8.522365e+002, 1.164471e+002
8.527186e+002, 1.158400e+002
8.532007e+002, 1.156375e+002
8.536829e+002, 1.157128e+002
8.541650e+002, 1.157163e+002
8.546471e+002, 1.154554e+002
8.551292e+002, 1.151596e+002
8.556113e+002, 1.147690e+002
8.560934e+002, 1.144582e+002
8.565756e+002, 1.146059e+002
8.570577e+002, 1.158017e+002
8.575398e+002, 1.161423e+002
8.580219e+002, 1.150650e+002
8.585040e+002, 1.136094e+002
8.589861e+002, 1.136646e+002
8.594683e+002, 1.149339e+002
8.599504e+002, 1.157951e+002
8.604325e+002, 1.157863e+002
8.609146e+002, 1.155291e+002
8.613967e+002, 1.156581e+002
8.618788e+002, 1.158383e+002
8.623610e+002, 1.155973e+002
8.628431e+002, 1.140629e+002
8.633252e+002, 1.135490e+002
8.638073e+002, 1.149487e+002
8.642894e+002, 1.166694e+002
8.647715e+002, 1.169952e+002
8.652537e+002, 1.158352e+002
8.657358e+002, 1.152183e+002
8.662179e+002, 1.153398e+002
8.667000e+002, 1.156770e+002
8.671821e+002, 1.157203e+002
8.676642e+002, 1.156336e+002
8.681464e+002, 1.157373e+002
8.686285e+002, 1.161559e+002
8.691106e+002, 1.162227e+002
8.695927e+002, 1.150014e+002
8.700748e+002, 1.139113e+002
8.705569e+002, 1.140067e+002
8.710391e+002, 1.155519e+002
8.715212e+002, 1.163685e+002
8.720033e+002, 1.163069e+002
8.724854e+002, 1.160744e+002
8.729675e+002, 1.162790e+002
8.734496e+002, 1.166891e+002
8.739318e+002, 1.167045e+002
8.744139e+002, 1.163336e+002
8.748960e+002, 1.159345e+002
8.753781e+002, 1.158186e+002
8.758602e+002, 1.156543e+002
8.763423e+002, 1.150617e+002
8.768245e+002, 1.140603e+002
8.773066e+002, 1.137933e+002
8.777887e+002, 1.146855e+002
8.782708e+002, 1.153229e+002
8.787529e+002, 1.148762e+002
8.792350e+002, 1.138656e+002
8.797172e+002, 1.142459e+002
8.801993e+002, 1.158176e+002
8.806814e+002, 1.172922e+002
8.811635e+002, 1.182234e+002
8.816456e+002, 1.185717e+002
8.821277e+002, 1.177910e+002
8.826099e+002, 1.163688e+002
8.830920e+002, 1.157622e+002
8.835741e+002, 1.171467e+002
8.840562e+002, 1.180757e+002
8.845383e+002, 1.180136e+002
8.850204e+002, 1.174053e+002
8.855026e+002, 1.174497e+002
8.859847e+002, 1.180506e+002
8.864668e+002, 1.176370e+002
8.869489e+002, 1.152790e+002
8.874310e+002, 1.128436e+002
8.879131e+002, 1.122926e+002
8.883953e+002, 1.130748e+002
8.888774e+002, 1.144040e+002
8.893595e+002, 1.171277e+002
8.898416e+002, 1.187306e+002
8.903237e+002, 1.183000e+002
8.908058e+002, 1.171275e+002
8.912880e+002, 1.165275e+002
8.917701e+002, 1.165574e+002
8.922522e+002, 1.164377e+002
8.927343e+002, 1.160690e+002
8.932164e+002, 1.157552e+002
8.936985e+002, 1.157712e+002
8.941807e+002, 1.160622e+002
8.946628e+002, 1.166609e+002
8.951449e+002, 1.176460e+002
8.956270e+002, 1.183435e+002
8.961091e+002, 1.183236e+002
8.965912e+002, 1.181036e+002
8.970734e+002, 1.180533e+002
8.975555e+002, 1.182235e+002
8.980376e+002, 1.178260e+002
8.985197e+002, 1.167469e+002
8.990018e+002, 1.158194e+002
8.994839e+002, 1.156538e+002
8.999661e+002, 1.160366e+002
9.004482e+002, 1.167905e+002
9.009303e+002, 1.178146e+002
9.014124e+002, 1.185068e+002
9.018945e+002, 1.183825e+002
9.023766e+002, 1.180525e+002
9.028588e+002, 1.178068e+002
9.033409e+002, 1.176060e+002
9.038230e+002, 1.171108e+002
9.043051e+002, 1.161125e+002
9.047872e+002, 1.156737e+002
9.052693e+002, 1.163711e+002
9.057515e+002, 1.175470e+002
9.062336e+002, 1.179024e+002
9.067157e+002, 1.176143e+002
9.071978e+002, 1.171887e+002
9.076799e+002, 1.166319e+002
9.081620e+002, 1.162417e+002
9.086442e+002, 1.161842e+002
9.091263e+002, 1.163747e+002
9.096084e+002, 1.167061e+002
9.100905e+002, 1.173972e+002
9.105726e+002, 1.175514e+002
9.110547e+002, 1.169161e+002
9.115369e+002, 1.161499e+002
9.120190e+002, 1.163536e+002
9.125011e+002, 1.171208e+002
9.129832e+002, 1.171590e+002
9.134653e+002, 1.161169e+002
9.139474e+002, 1.152266e+002
9.144296e+002, 1.151488e+002
9.149117e+002, 1.156408e+002
9.153938e+002, 1.166987e+002
9.158759e+002, 1.186444e+002
9.163580e+002, 1.195213e+002
9.168401e+002, 1.189566e+002
9.173223e+002, 1.182403e+002
9.178044e+002, 1.183946e+002
9.182865e+002, 1.191240e+002
9.187686e+002, 1.193016e+002
9.192507e+002, 1.189633e+002
9.197328e+002, 1.185394e+002
9.202150e+002, 1.181429e+002
9.206971e+002, 1.178891e+002
9.211792e+002, 1.178607e+002
9.216613e+002, 1.180553e+002
9.221434e+002, 1.184245e+002
9.226255e+002, 1.192500e+002
9.231077e+002, 1.195335e+002
9.235898e+002, 1.187462e+002
9.240719e+002, 1.175011e+002
9.245540e+002, 1.173130e+002
9.250361e+002, 1.179533e+002
9.255182e+002, 1.184856e+002
9.260004e+002, 1.184491e+002
9.264825e+002, 1.183917e+002
9.269646e+002, 1.187087e+002
9.274467e+002, 1.192049e+002
9.279288e+002, 1.196079e+002
9.284109e+002, 1.201460e+002
9.288931e+002, 1.200263e+002
9.293752e+002, 1.190174e+002
9.298573e+002, 1.177471e+002
9.303394e+002, 1.167138e+002
9.308215e+002, 1.160039e+002
9.313036e+002, 1.160245e+002
9.317858e+002, 1.168661e+002
9.322679e+002, 1.177887e+002
9.327500e+002, 1.185403e+002
9.332321e+002, 1.189793e+002
9.337142e+002, 1.189235e+002
9.341964e+002, 1.182826e+002
9.346785e+002, 1.177530e+002
9.351606e+002, 1.172532e+002
9.356427e+002, 1.170961e+002
9.361248e+002, 1.176664e+002
9.366069e+002, 1.186470e+002
9.370891e+002, 1.188212e+002
9.375712e+002, 1.183424e+002
9.380533e+002, 1.179688e+002
9.385354e+002, 1.180796e+002
9.390175e+002, 1.184461e+002
9.394996e+002, 1.193454e+002
9.399818e+002, 1.203787e+002
9.404639e+002, 1.203206e+002
9.409460e+002, 1.184371e+002
9.414281e+002, 1.173989e+002
9.419102e+002, 1.178758e+002
9.423923e+002, 1.190153e+002
9.428745e+002, 1.195994e+002
9.433566e+002, 1.197070e+002
9.438387e+002, 1.194723e+002
9.443208e+002, 1.188049e+002
9.448029e+002, 1.182731e+002
9.452850e+002, 1.182425e+002
9.457672e+002, 1.184726e+002
9.462493e+002, 1.188022e+002
9.467314e+002, 1.193461e+002
9.472135e+002, 1.194316e+002
9.476956e+002, 1.189604e+002
9.481777e+002, 1.183725e+002
9.486599e+002, 1.179617e+002
9.491420e+002, 1.177075e+002
9.496241e+002, 1.175728e+002
9.501062e+002, 1.175545e+002
9.505883e+002, 1.176420e+002
9.510704e+002, 1.178922e+002
9.515526e+002, 1.181842e+002
9.520347e+002, 1.186065e+002
9.525168e+002, 1.190318e+002
9.529989e+002, 1.188159e+002
9.534810e+002, 1.177136e+002
9.539631e+002, 1.172073e+002
9.544453e+002, 1.179540e+002
9.549274e+002, 1.190867e+002
9.554095e+002, 1.190529e+002
9.558916e+002, 1.183203e+002
9.563737e+002, 1.178945e+002
9.568558e+002, 1.181833e+002
9.573380e+002, 1.186505e+002
9.578201e+002, 1.193166e+002
9.583022e+002, 1.199447e+002
9.587843e+002, 1.203260e+002
9.592664e+002, 1.204509e+002
9.597485e+002, 1.203622e+002
9.602307e+002, 1.200491e+002
9.607128e+002, 1.196243e+002
9.611949e+002, 1.189015e+002
9.616770e+002, 1.182760e+002
9.621591e+002, 1.184841e+002
9.626412e+002, 1.195157e+002
9.631234e+002, 1.203707e+002
9.636055e+002, 1.208878e+002
9.640876e+002, 1.209100e+002
9.645697e+002, 1.200946e+002
9.650518e+002, 1.187878e+002
9.655339e+002, 1.187416e+002
9.660161e+002, 1.199548e+002
9.664982e+002, 1.207326e+002
9.669803e+002, 1.201197e+002
9.674624e+002, 1.192878e+002
9.679445e+002, 1.197045e+002
9.684266e+002, 1.207784e+002
9.689088e+002, 1.215246e+002
9.693909e+002, 1.217074e+002
9.698730e+002, 1.214628e+002
9.703551e+002, 1.206137e+002
9.708372e+002, 1.196133e+002
9.713193e+002, 1.187648e+002
9.718015e+002, 1.181184e+002
9.722836e+002, 1.183128e+002
9.727657e+002, 1.194280e+002
9.732478e+002, 1.203200e+002
9.737299e+002, 1.198889e+002
9.742120e+002, 1.190173e+002
9.746942e+002, 1.182254e+002
9.751763e+002, 1.175834e+002
9.756584e+002, 1.178056e+002
9.761405e+002, 1.193750e+002
9.766226e+002, 1.208064e+002
9.771047e+002, 1.215949e+002
9.775869e+002, 1.218487e+002
9.780690e+002, 1.216920e+002
9.785511e+002, 1.212180e+002
9.790332e+002, 1.207823e+002
9.795153e+002, 1.206205e+002
9.799974e+002, 1.203875e+002
9.804796e+002, 1.194355e+002
9.809617e+002, 1.185179e+002
9.814438e+002, 1.187990e+002
9.819259e+002, 1.210199e+002
9.824080e+002, 1.220796e+002
9.828901e+002, 1.216206e+002
9.833723e+002, 1.208353e+002
9.838544e+002, 1.212604e+002
9.843365e+002, 1.220924e+002
9.848186e+002, 1.214271e+002
9.853007e+002, 1.191718e+002
9.857828e+002, 1.177101e+002
9.862650e+002, 1.186945e+002
9.867471e+002, 1.200920e+002
9.872292e+002, 1.211846e+002
9.877113e+002, 1.219199e+002
9.881934e+002, 1.219011e+002
9.886755e+002, 1.210954e+002
9.891577e+002, 1.202570e+002
9.896398e+002, 1.195924e+002
9.901219e+002, 1.191736e+002
9.906040e+002, 1.192670e+002
9.910861e+002, 1.196228e+002
9.915682e+002, 1.198185e+002
9.920504e+002, 1.195665e+002
9.925325e+002, 1.193909e+002
9.930146e+002, 1.192489e+002
9.934967e+002, 1.192986e+002
9.939788e+002, 1.198556e+002
9.944609e+002, 1.208201e+002
9.949431e+002, 1.212701e+002
9.954252e+002, 1.211605e+002
9.959073e+002, 1.208666e+002
9.963894e+002, 1.205913e+002
9.968715e+002, 1.203001e+002
9.973536e+002, 1.197648e+002
9.978358e+002, 1.190817e+002
9.983179e+002, 1.192776e+002
9.988000e+002, 1.209517e+002
9.992821e+002, 1.219015e+002
9.997642e+002, 1.212333e+002
1.000246e+003, 1.198572e+002
1.000728e+003, 1.196659e+002
1.001211e+003, 1.202709e+002
1.001693e+003, 1.206632e+002
1.002175e+003, 1.203516e+002
1.002657e+003, 1.201909e+002
1.003139e+003, 1.208928e+002
1.003621e+003, 1.216680e+002
1.004103e+003, 1.216727e+002
1.004585e+003, 1.206193e+002
1.005068e+003, 1.206460e+002
1.005550e+003, 1.218675e+002
1.006032e+003, 1.230410e+002
1.006514e+003, 1.232584e+002
1.006996e+003, 1.228682e+002
1.007478e+003, 1.218721e+002
1.007960e+003, 1.205210e+002
1.008442e+003, 1.200791e+002
1.008924e+003, 1.222107e+002
1.009407e+003, 1.235453e+002
1.009889e+003, 1.231965e+002
1.010371e+003, 1.218885e+002
1.010853e+003, 1.210154e+002
1.011335e+003, 1.205359e+002
1.011817e+003, 1.202600e+002
1.012299e+003, 1.201639e+002
1.012781e+003, 1.201665e+002
1.013263e+003, 1.199665e+002
1.013746e+003, 1.199929e+002
1.014228e+003, 1.208862e+002
1.014710e+003, 1.230238e+002
1.015192e+003, 1.239995e+002
1.015674e+003, 1.235433e+002
1.016156e+003, 1.227867e+002
1.016638e+003, 1.222787e+002
1.017120e+003, 1.220103e+002
1.017603e+003, 1.220565e+002
1.018085e+003, 1.223390e+002
1.018567e+003, 1.225838e+002
1.019049e+003, 1.227552e+002
1.019531e+003, 1.227453e+002
1.020013e+003, 1.222676e+002
1.020495e+003, 1.217555e+002
1.020977e+003, 1.219871e+002
1.021459e+003, 1.229872e+002
1.021942e+003, 1.235422e+002
1.022424e+003, 1.234828e+002
1.022906e+003, 1.230955e+002
1.023388e+003, 1.224245e+002
1.023870e+003, 1.217105e+002
1.024352e+003, 1.212183e+002
1.024834e+003, 1.209952e+002
1.025316e+003, 1.207222e+002
1.025799e+003, 1.202550e+002
1.026281e+003, 1.199746e+002
1.026763e+003, 1.199629e+002
1.027245e+003, 1.203014e+002
1.027727e+003, 1.216107e+002
1.028209e+003, 1.235023e+002
1.028691e+003, 1.246567e+002
1.029173e+003, 1.242534e+002
1.029656e+003, 1.234975e+002
1.030138e+003, 1.225789e+002
1.030620e+003, 1.218186e+002
1.031102e+003, 1.215391e+002
1.031584e+003, 1.217909e+002
1.032066e+003, 1.222863e+002
1.032548e+003, 1.230398e+002
1.033030e+003, 1.238395e+002
1.033512e+003, 1.247602e+002
1.033995e+003, 1.254541e+002
1.034477e+003, 1.253685e+002
1.034959e+003, 1.245956e+002
1.035441e+003, 1.238234e+002
1.035923e+003, 1.228871e+002
1.036405e+003, 1.225144e+002
1.036887e+003, 1.231579e+002
1.037369e+003, 1.240685e+002
1.037851e+003, 1.233952e+002
1.038334e+003, 1.216700e+002
1.038816e+003, 1.210533e+002
1.039298e+003, 1.222980e+002
1.039780e+003, 1.234526e+002
1.040262e+003, 1.231310e+002
1.040744e+003, 1.223751e+002
1.041226e+003, 1.220274e+002
1.041708e+003, 1.221310e+002
1.042191e+003, 1.220501e+002
1.042673e+003, 1.217382e+002
1.043155e+003, 1.216400e+002
1.043637e+003, 1.221455e+002
1.044119e+003, 1.228724e+002
1.044601e+003, 1.234040e+002
1.045083e+003, 1.237338e+002
1.045565e+003, 1.238282e+002
1.046047e+003, 1.234903e+002
1.046530e+003, 1.231824e+002
1.047012e+003, 1.229680e+002
1.047494e+003, 1.227628e+002
1.047976e+003, 1.223771e+002
1.048458e+003, 1.218988e+002
1.048940e+003, 1.218444e+002
1.049422e+003, 1.222395e+002
1.049904e+003, 1.226345e+002
1.050386e+003, 1.225790e+002
1.050869e+003, 1.225964e+002
1.051351e+003, 1.232051e+002
1.051833e+003, 1.241816e+002
1.052315e+003, 1.245901e+002
1.052797e+003, 1.243792e+002
1.053279e+003, 1.239092e+002
1.053761e+003, 1.231367e+002
1.054243e+003, 1.225053e+002
1.054726e+003, 1.228210e+002
1.055208e+003, 1.235272e+002
1.055690e+003, 1.238029e+002
1.056172e+003, 1.232797e+002
1.056654e+003, 1.229540e+002
1.057136e+003, 1.227794e+002
1.057618e+003, 1.230510e+002
1.058100e+003, 1.243739e+002
1.058583e+003, 1.262126e+002
1.059065e+003, 1.261019e+002
1.059547e+003, 1.244477e+002
1.060029e+003, 1.231198e+002
1.060511e+003, 1.233459e+002
1.060993e+003, 1.238218e+002
1.061475e+003, 1.241740e+002
1.061957e+003, 1.243787e+002
1.062439e+003, 1.243526e+002
1.062922e+003, 1.240493e+002
1.063404e+003, 1.239797e+002
1.063886e+003, 1.242085e+002
1.064368e+003, 1.244364e+002
1.064850e+003, 1.243853e+002
1.065332e+003, 1.242104e+002
1.065814e+003, 1.240648e+002
1.066296e+003, 1.239541e+002
1.066778e+003, 1.237693e+002
1.067261e+003, 1.233935e+002
1.067743e+003, 1.231433e+002
1.068225e+003, 1.230073e+002
1.068707e+003, 1.231891e+002
1.069189e+003, 1.245653e+002
1.069671e+003, 1.264829e+002
1.070153e+003, 1.272465e+002
1.070635e+003, 1.260753e+002
1.071118e+003, 1.251139e+002
1.071600e+003, 1.256095e+002
1.072082e+003, 1.262114e+002
1.072564e+003, 1.260589e+002
1.073046e+003, 1.252528e+002
1.073528e+003, 1.251073e+002
1.074010e+003, 1.255817e+002
1.074492e+003, 1.260601e+002
1.074974e+003, 1.263553e+002
1.075457e+003, 1.263762e+002
1.075939e+003, 1.258247e+002
1.076421e+003, 1.250313e+002
1.076903e+003, 1.245990e+002
1.077385e+003, 1.248175e+002
1.077867e+003, 1.244235e+002
1.078349e+003, 1.231284e+002
1.078831e+003, 1.222347e+002
1.079313e+003, 1.235740e+002
1.079796e+003, 1.257401e+002
1.080278e+003, 1.264644e+002
1.080760e+003, 1.258580e+002
1.081242e+003, 1.254874e+002
1.081724e+003, 1.261439e+002
1.082206e+003, 1.266915e+002
1.082688e+003, 1.269289e+002
1.083170e+003, 1.269115e+002
1.083652e+003, 1.266417e+002
1.084135e+003, 1.261933e+002
1.084617e+003, 1.258694e+002
1.085099e+003, 1.257462e+002
1.085581e+003, 1.256062e+002
1.086063e+003, 1.251774e+002
1.086545e+003, 1.248292e+002
1.087027e+003, 1.247593e+002
1.087509e+003, 1.249630e+002
1.087992e+003, 1.255733e+002
1.088474e+003, 1.266008e+002
1.088956e+003, 1.271292e+002
1.089438e+003, 1.266293e+002
1.089920e+003, 1.257529e+002
1.090402e+003, 1.248641e+002
1.090884e+003, 1.241148e+002
1.091366e+003, 1.237210e+002
1.091849e+003, 1.237086e+002
1.092331e+003, 1.241354e+002
1.092813e+003, 1.251691e+002
1.093295e+003, 1.260739e+002
1.093777e+003, 1.261297e+002
1.094259e+003, 1.257755e+002
1.094741e+003, 1.259225e+002
1.095223e+003, 1.264061e+002
1.095705e+003, 1.266215e+002
1.096188e+003, 1.260581e+002
1.096670e+003, 1.255727e+002
1.097152e+003, 1.252319e+002
1.097634e+003, 1.251145e+002
1.098116e+003, 1.254282e+002
1.098598e+003, 1.260703e+002
1.099080e+003, 1.266448e+002
1.099562e+003, 1.271115e+002
1.100044e+003, 1.271945e+002
1.100527e+003, 1.265984e+002
1.101009e+003, 1.256800e+002
1.101491e+003, 1.243184e+002
1.101973e+003, 1.228477e+002
1.102455e+003, 1.223758e+002
1.102937e+003, 1.229047e+002
1.103419e+003, 1.240094e+002
1.103901e+003, 1.257701e+002
1.104384e+003, 1.273064e+002
1.104866e+003, 1.278035e+002
1.105348e+003, 1.276015e+002
1.105830e+003, 1.267955e+002
1.106312e+003, 1.252576e+002
1.106794e+003, 1.247159e+002
1.107276e+003, 1.253786e+002
1.107758e+003, 1.262177e+002
1.108240e+003, 1.267921e+002
1.108723e+003, 1.272448e+002
1.109205e+003, 1.278153e+002
1.109687e+003, 1.284530e+002
1.110169e+003, 1.290916e+002
1.110651e+003, 1.301411e+002
1.111133e+003, 1.303069e+002
1.111615e+003, 1.291936e+002
1.112097e+003, 1.278040e+002
1.112579e+003, 1.267763e+002
1.113062e+003, 1.261113e+002
1.113544e+003, 1.258858e+002
1.114026e+003, 1.260471e+002
1.114508e+003, 1.263543e+002
1.114990e+003, 1.269469e+002
1.115472e+003, 1.273450e+002
1.115954e+003, 1.273473e+002
1.116436e+003, 1.271229e+002
1.116919e+003, 1.268157e+002
1.117401e+003, 1.264397e+002
1.117883e+003, 1.261892e+002
1.118365e+003, 1.260821e+002
1.118847e+003, 1.261732e+002
1.119329e+003, 1.268345e+002
1.119811e+003, 1.273977e+002
1.120293e+003, 1.272069e+002
1.120776e+003, 1.265499e+002
1.121258e+003, 1.265971e+002
1.121740e+003, 1.274997e+002
1.122222e+003, 1.273974e+002
1.122704e+003, 1.256256e+002
1.123186e+003, 1.239574e+002
1.123668e+003, 1.244324e+002
1.124150e+003, 1.258104e+002
1.124632e+003, 1.268414e+002
1.125115e+003, 1.273390e+002
1.125597e+003, 1.278445e+002
1.126079e+003, 1.285187e+002
1.126561e+003, 1.286306e+002
1.127043e+003, 1.276539e+002
1.127525e+003, 1.263716e+002
1.128007e+003, 1.262011e+002
1.128489e+003, 1.266060e+002
1.128971e+003, 1.265539e+002
1.129454e+003, 1.252113e+002
1.129936e+003, 1.252104e+002
1.130418e+003, 1.276869e+002
1.130900e+003, 1.297501e+002
1.131382e+003, 1.293865e+002
1.131864e+003, 1.273996e+002
1.132346e+003, 1.258634e+002
1.132828e+003, 1.248126e+002
1.133311e+003, 1.243630e+002
1.133793e+003, 1.253410e+002
1.134275e+003, 1.258483e+002
1.134757e+003, 1.248086e+002
1.135239e+003, 1.238443e+002
1.135721e+003, 1.248836e+002
1.136203e+003, 1.275694e+002
1.136685e+003, 1.288025e+002
1.137167e+003, 1.286038e+002
1.137650e+003, 1.281767e+002
1.138132e+003, 1.282254e+002
1.138614e+003, 1.282484e+002
1.139096e+003, 1.279929e+002
1.139578e+003, 1.275548e+002
1.140060e+003, 1.269738e+002
1.140542e+003, 1.262350e+002
1.141024e+003, 1.261067e+002
1.141506e+003, 1.267060e+002
1.141989e+003, 1.272412e+002
1.142471e+003, 1.267815e+002
1.142953e+003, 1.262839e+002
1.143435e+003, 1.266877e+002
1.143917e+003, 1.277482e+002
1.144399e+003, 1.280603e+002
1.144881e+003, 1.274584e+002
1.145363e+003, 1.272796e+002
1.145846e+003, 1.279044e+002
1.146328e+003, 1.286415e+002
1.146810e+003, 1.288467e+002
1.147292e+003, 1.286774e+002
1.147774e+003, 1.281774e+002
1.148256e+003, 1.273183e+002
1.148738e+003, 1.268124e+002
1.149220e+003, 1.267025e+002
1.149703e+003, 1.268512e+002
1.150185e+003, 1.273157e+002
1.150667e+003, 1.278053e+002
1.151149e+003, 1.277612e+002
1.151631e+003, 1.274997e+002
1.152113e+003, 1.275906e+002
1.152595e+003, 1.283771e+002
1.153077e+003, 1.286466e+002
1.153559e+003, 1.281140e+002
1.154042e+003, 1.275922e+002
1.154524e+003, 1.275900e+002
1.155006e+003, 1.278158e+002
1.155488e+003, 1.275051e+002
1.155970e+003, 1.269017e+002
1.156452e+003, 1.266205e+002
1.156934e+003, 1.271399e+002
1.157416e+003, 1.274792e+002
1.157898e+003, 1.274877e+002
1.158381e+003, 1.273563e+002
1.158863e+003, 1.270975e+002
1.159345e+003, 1.268232e+002
1.159827e+003, 1.271047e+002
1.160309e+003, 1.278092e+002
1.160791e+003, 1.283961e+002
1.161273e+003, 1.289311e+002
1.161755e+003, 1.288434e+002
1.162238e+003, 1.275325e+002
1.162720e+003, 1.260810e+002
1.163202e+003, 1.257122e+002
1.163684e+003, 1.262672e+002
1.164166e+003, 1.268290e+002
1.164648e+003, 1.273260e+002
1.165130e+003, 1.275203e+002
1.165612e+003, 1.269710e+002
1.166094e+003, 1.264368e+002
1.166577e+003, 1.262169e+002
1.167059e+003, 1.262245e+002
1.167541e+003, 1.262768e+002
1.168023e+003, 1.264053e+002
1.168505e+003, 1.271919e+002
1.168987e+003, 1.287064e+002
1.169469e+003, 1.298530e+002
1.169951e+003, 1.295963e+002
1.170433e+003, 1.290068e+002
1.170916e+003, 1.285049e+002
1.171398e+003, 1.282187e+002
1.171880e+003, 1.286342e+002
1.172362e+003, 1.297381e+002
1.172844e+003, 1.304283e+002
1.173326e+003, 1.304960e+002
1.173808e+003, 1.301190e+002
1.174290e+003, 1.288597e+002
1.174773e+003, 1.276982e+002
1.175255e+003, 1.276261e+002
1.175737e+003, 1.283960e+002
1.176219e+003, 1.286620e+002
1.176701e+003, 1.283897e+002
1.177183e+003, 1.284043e+002
1.177665e+003, 1.289693e+002
1.178147e+003, 1.297541e+002
1.178630e+003, 1.311752e+002
1.179112e+003, 1.321498e+002
1.179594e+003, 1.309990e+002
1.180076e+003, 1.277067e+002
1.180558e+003, 1.267626e+002
1.181040e+003, 1.283915e+002
1.181522e+003, 1.302124e+002
1.182004e+003, 1.315613e+002
1.182486e+003, 1.321956e+002
1.182969e+003, 1.314834e+002
1.183451e+003, 1.301103e+002
1.183933e+003, 1.287383e+002
1.184415e+003, 1.272975e+002
1.184897e+003, 1.268792e+002
1.185379e+003, 1.275539e+002
1.185861e+003, 1.288736e+002
1.186343e+003, 1.313273e+002
1.186825e+003, 1.333249e+002
1.187308e+003, 1.322201e+002
1.187790e+003, 1.296561e+002
1.188272e+003, 1.282314e+002
1.188754e+003, 1.285816e+002
1.189236e+003, 1.294611e+002
1.189718e+003, 1.311110e+002
1.190200e+003, 1.320112e+002
1.190682e+003, 1.304129e+002
1.191165e+003, 1.281450e+002
1.191647e+003, 1.276282e+002
1.192129e+003, 1.282257e+002
1.192611e+003, 1.286303e+002
1.193093e+003, 1.281608e+002
1.193575e+003, 1.287205e+002
1.194057e+003, 1.306827e+002
1.194539e+003, 1.322586e+002
1.195021e+003, 1.315680e+002
1.195504e+003, 1.300009e+002
1.195986e+003, 1.293692e+002
1.196468e+003, 1.294655e+002
1.196950e+003, 1.296047e+002
1.197432e+003, 1.295691e+002
1.197914e+003, 1.298386e+002
1.198396e+003, 1.305544e+002
1.198878e+003, 1.311640e+002
1.199360e+003, 1.308246e+002
1.199843e+003, 1.302495e+002
1.200325e+003, 1.308669e+002
1.200807e+003, 1.322580e+002
1.201289e+003, 1.324512e+002
1.201771e+003, 1.302987e+002
1.202253e+003, 1.288622e+002
1.202735e+003, 1.285887e+002
1.203217e+003, 1.287467e+002
1.203700e+003, 1.284111e+002
1.204182e+003, 1.280682e+002
1.204664e+003, 1.286571e+002
1.205146e+003, 1.300317e+002
1.205628e+003, 1.308767e+002
1.206110e+003, 1.309288e+002
1.206592e+003, 1.305330e+002
1.207074e+003, 1.295783e+002
1.207557e+003, 1.286508e+002
1.208039e+003, 1.286983e+002
1.208521e+003, 1.291201e+002
1.209003e+003, 1.288573e+002
1.209485e+003, 1.279001e+002
1.209967e+003, 1.277135e+002
1.210449e+003, 1.289232e+002
1.210931e+003, 1.297364e+002
1.211413e+003, 1.296772e+002
1.211896e+003, 1.293869e+002
1.212378e+003, 1.297879e+002
1.212860e+003, 1.304936e+002
1.213342e+003, 1.308949e+002
1.213824e+003, 1.309285e+002
1.214306e+003, 1.312041e+002
1.214788e+003, 1.320644e+002
1.215270e+003, 1.323669e+002
1.215752e+003, 1.316553e+002
1.216235e+003, 1.306622e+002
1.216717e+003, 1.304226e+002
1.217199e+003, 1.305846e+002
1.217681e+003, 1.306107e+002
1.218163e+003, 1.304080e+002
1.218645e+003, 1.304869e+002
1.219127e+003, 1.310494e+002
1.219609e+003, 1.313942e+002
1.220092e+003, 1.313246e+002
1.220574e+003, 1.308805e+002
1.221056e+003, 1.295204e+002
1.221538e+003, 1.281193e+002
1.222020e+003, 1.281889e+002
1.222502e+003, 1.302499e+002
1.222984e+003, 1.313219e+002
1.223466e+003, 1.309850e+002
1.223948e+003, 1.306801e+002
1.224431e+003, 1.309897e+002
1.224913e+003, 1.314635e+002
1.225395e+003, 1.314501e+002
1.225877e+003, 1.311783e+002
1.226359e+003, 1.309426e+002
1.226841e+003, 1.307855e+002
1.227323e+003, 1.307434e+002
1.227805e+003, 1.308460e+002
1.228287e+003, 1.309613e+002
1.228770e+003, 1.311167e+002
1.229252e+003, 1.311047e+002
1.229734e+003, 1.303907e+002
1.230216e+003, 1.294571e+002
1.230698e+003, 1.289343e+002
1.231180e+003, 1.289283e+002
1.231662e+003, 1.295358e+002
1.232144e+003, 1.309721e+002
1.232627e+003, 1.317620e+002
1.233109e+003, 1.309247e+002
1.233591e+003, 1.296445e+002
1.234073e+003, 1.291064e+002
1.234555e+003, 1.291197e+002
1.235037e+003, 1.296078e+002
1.235519e+003, 1.307781e+002
1.236001e+003, 1.307117e+002
1.236484e+003, 1.292218e+002
1.236966e+003, 1.282027e+002
1.237448e+003, 1.288465e+002
1.237930e+003, 1.300095e+002
1.238412e+003, 1.309760e+002
1.238894e+003, 1.315282e+002
1.239376e+003, 1.311893e+002
1.239858e+003, 1.297920e+002
1.240340e+003, 1.289788e+002
1.240823e+003, 1.287785e+002
1.241305e+003, 1.287120e+002
1.241787e+003, 1.283436e+002
1.242269e+003, 1.282710e+002
1.242751e+003, 1.294104e+002
1.243233e+003, 1.309051e+002
1.243715e+003, 1.317201e+002
1.244197e+003, 1.318262e+002
1.244679e+003, 1.311183e+002
1.245162e+003, 1.296205e+002
1.245644e+003, 1.287454e+002
1.246126e+003, 1.296178e+002
1.246608e+003, 1.308720e+002
1.247090e+003, 1.320593e+002
1.247572e+003, 1.327992e+002
1.248054e+003, 1.326188e+002
1.248536e+003, 1.314733e+002
1.249019e+003, 1.307346e+002
1.249501e+003, 1.303885e+002
1.249983e+003, 1.302418e+002
1.250465e+003, 1.300807e+002
1.250947e+003, 1.302354e+002
1.251429e+003, 1.313096e+002
1.251911e+003, 1.324380e+002
1.252393e+003, 1.328569e+002
1.252875e+003, 1.325813e+002
1.253358e+003, 1.316628e+002
1.253840e+003, 1.302339e+002
1.254322e+003, 1.291709e+002
1.254804e+003, 1.288289e+002
1.255286e+003, 1.290864e+002
1.255768e+003, 1.304387e+002
1.256250e+003, 1.318052e+002
1.256732e+003, 1.321376e+002
1.257214e+003, 1.316446e+002
1.257697e+003, 1.316037e+002
1.258179e+003, 1.319384e+002
1.258661e+003, 1.322618e+002
1.259143e+003, 1.323697e+002
1.259625e+003, 1.325212e+002
1.260107e+003, 1.329382e+002
1.260589e+003, 1.331545e+002
1.261071e+003, 1.325735e+002
1.261554e+003, 1.315156e+002
1.262036e+003, 1.310447e+002
1.262518e+003, 1.310147e+002
1.263000e+003, 1.308880e+002
1.263482e+003, 1.302608e+002
1.263964e+003, 1.298039e+002
1.264446e+003, 1.294603e+002
1.264928e+003, 1.295330e+002
1.265411e+003, 1.306804e+002
1.265893e+003, 1.321975e+002
1.266375e+003, 1.327672e+002
1.266857e+003, 1.325654e+002
1.267339e+003, 1.320882e+002
1.267821e+003, 1.310643e+002
1.268303e+003, 1.305266e+002
1.268785e+003, 1.305532e+002
1.269267e+003, 1.308563e+002
1.269750e+003, 1.314229e+002
1.270232e+003, 1.319691e+002
1.270714e+003, 1.320275e+002
1.271196e+003, 1.317961e+002
1.271678e+003, 1.317770e+002
1.272160e+003, 1.322441e+002
1.272642e+003, 1.320940e+002
1.273124e+003, 1.312193e+002
1.273606e+003, 1.304159e+002
1.274089e+003, 1.301358e+002
1.274571e+003, 1.302944e+002
1.275053e+003, 1.311033e+002
1.275535e+003, 1.321892e+002
1.276017e+003, 1.329471e+002
1.276499e+003, 1.333638e+002
1.276981e+003, 1.333725e+002
1.277463e+003, 1.329785e+002
1.277946e+003, 1.325090e+002
1.278428e+003, 1.320450e+002
1.278910e+003, 1.317289e+002
1.279392e+003, 1.318195e+002
1.279874e+003, 1.320055e+002
1.280356e+003, 1.319832e+002
1.280838e+003, 1.317516e+002
1.281320e+003, 1.308738e+002
1.281802e+003, 1.294785e+002
1.282285e+003, 1.286463e+002
1.282767e+003, 1.292189e+002
1.283249e+003, 1.301503e+002
1.283731e+003, 1.314295e+002
1.284213e+003, 1.325107e+002
1.284695e+003, 1.327917e+002
1.285177e+003, 1.324444e+002
1.285659e+003, 1.321887e+002
1.286141e+003, 1.320529e+002
1.286624e+003, 1.321269e+002
1.287106e+003, 1.326314e+002
1.287588e+003, 1.331099e+002
1.288070e+003, 1.336166e+002
1.288552e+003, 1.338523e+002
1.289034e+003, 1.333011e+002
1.289516e+003, 1.324165e+002
1.289998e+003, 1.323191e+002
1.290481e+003, 1.327396e+002
1.290963e+003, 1.329725e+002
1.291445e+003, 1.324561e+002
1.291927e+003, 1.324797e+002
1.292409e+003, 1.332003e+002
1.292891e+003, 1.338618e+002
1.293373e+003, 1.338958e+002
1.293855e+003, 1.335856e+002
1.294338e+003, 1.330839e+002
1.294820e+003, 1.325640e+002
1.295302e+003, 1.324413e+002
1.295784e+003, 1.329762e+002
1.296266e+003, 1.326973e+002
1.296748e+003, 1.315335e+002
1.297230e+003, 1.308369e+002
1.297712e+003, 1.317959e+002
1.298194e+003, 1.331171e+002
1.298677e+003, 1.339135e+002
1.299159e+003, 1.343878e+002
1.299641e+003, 1.349054e+002
1.300123e+003, 1.354889e+002
1.300605e+003, 1.349453e+002
1.301087e+003, 1.334276e+002
1.301569e+003, 1.323118e+002
1.302051e+003, 1.323506e+002
1.302533e+003, 1.328212e+002
1.303016e+003, 1.335359e+002
##END=



