##NAMES=Miersite
##RRUFFID=R110034
##IDEAL CHEMISTRY=Ag^1+^I^1-^
##LOCALITY=Block 2-1, 100 meter level, Rubtsovsk mine, Rudniy Altai Mountains, Russia
##OWNER=RRUFF
##SOURCE=William W Pinch
##DESCRIPTION=Greenish-yellow massive
##STATUS=The identification of this mineral has been confirmed by single-crystal X-ray diffraction.
##URL=rruff.info/R110034
9.112140e+001, 0.000000e+000
9.160352e+001, 1.794012e+003
9.208563e+001, 1.749356e+003
9.256775e+001, 1.743988e+003
9.304987e+001, 1.799257e+003
9.353198e+001, 1.865784e+003
9.401410e+001, 1.907515e+003
9.449622e+001, 1.925587e+003
9.497833e+001, 1.930149e+003
9.546045e+001, 1.929131e+003
9.594257e+001, 1.922382e+003
9.642468e+001, 1.915891e+003
9.690680e+001, 1.911837e+003
9.738892e+001, 1.908298e+003
9.787103e+001, 1.905754e+003
9.835315e+001, 1.901374e+003
9.883527e+001, 1.892543e+003
9.931738e+001, 1.881601e+003
9.979950e+001, 1.867789e+003
1.002816e+002, 1.857184e+003
1.007637e+002, 1.849288e+003
1.012458e+002, 1.843629e+003
1.017280e+002, 1.840378e+003
1.022101e+002, 1.839594e+003
1.026922e+002, 1.839809e+003
1.031743e+002, 1.838417e+003
1.036564e+002, 1.835211e+003
1.041385e+002, 1.832221e+003
1.046207e+002, 1.830313e+003
1.051028e+002, 1.829107e+003
1.055849e+002, 1.827443e+003
1.060670e+002, 1.824792e+003
1.065491e+002, 1.820811e+003
1.070313e+002, 1.815558e+003
1.075134e+002, 1.808961e+003
1.079955e+002, 1.801088e+003
1.084776e+002, 1.791701e+003
1.089597e+002, 1.780395e+003
1.094418e+002, 1.769017e+003
1.099240e+002, 1.758218e+003
1.104061e+002, 1.747434e+003
1.108882e+002, 1.736584e+003
1.113703e+002, 1.725695e+003
1.118524e+002, 1.714216e+003
1.123345e+002, 1.700539e+003
1.128167e+002, 1.682402e+003
1.132988e+002, 1.664904e+003
1.137809e+002, 1.649600e+003
1.142630e+002, 1.635196e+003
1.147451e+002, 1.619706e+003
1.152272e+002, 1.601910e+003
1.157094e+002, 1.581850e+003
1.161915e+002, 1.563382e+003
1.166736e+002, 1.547226e+003
1.171557e+002, 1.531492e+003
1.176378e+002, 1.515772e+003
1.181199e+002, 1.499940e+003
1.186021e+002, 1.483843e+003
1.190842e+002, 1.467259e+003
1.195663e+002, 1.450164e+003
1.200484e+002, 1.434035e+003
1.205305e+002, 1.419115e+003
1.210126e+002, 1.404872e+003
1.214948e+002, 1.391161e+003
1.219769e+002, 1.378031e+003
1.224590e+002, 1.364725e+003
1.229411e+002, 1.349933e+003
1.234232e+002, 1.334154e+003
1.239053e+002, 1.319309e+003
1.243875e+002, 1.306910e+003
1.248696e+002, 1.296005e+003
1.253517e+002, 1.283931e+003
1.258338e+002, 1.269491e+003
1.263159e+002, 1.255019e+003
1.267980e+002, 1.242350e+003
1.272802e+002, 1.231175e+003
1.277623e+002, 1.220177e+003
1.282444e+002, 1.208266e+003
1.287265e+002, 1.195432e+003
1.292086e+002, 1.182364e+003
1.296907e+002, 1.168254e+003
1.301729e+002, 1.154524e+003
1.306550e+002, 1.142318e+003
1.311371e+002, 1.131574e+003
1.316192e+002, 1.121045e+003
1.321013e+002, 1.108882e+003
1.325834e+002, 1.093516e+003
1.330656e+002, 1.079385e+003
1.335477e+002, 1.067075e+003
1.340298e+002, 1.055491e+003
1.345119e+002, 1.043944e+003
1.349940e+002, 1.032196e+003
1.354761e+002, 1.020204e+003
1.359583e+002, 1.007963e+003
1.364404e+002, 9.944598e+002
1.369225e+002, 9.820712e+002
1.374046e+002, 9.718969e+002
1.378867e+002, 9.626838e+002
1.383688e+002, 9.527595e+002
1.388510e+002, 9.412330e+002
1.393331e+002, 9.285975e+002
1.398152e+002, 9.165291e+002
1.402973e+002, 9.049753e+002
1.407794e+002, 8.938246e+002
1.412615e+002, 8.829998e+002
1.417437e+002, 8.725519e+002
1.422258e+002, 8.625284e+002
1.427079e+002, 8.531933e+002
1.431900e+002, 8.442792e+002
1.436721e+002, 8.350790e+002
1.441542e+002, 8.252126e+002
1.446364e+002, 8.154596e+002
1.451185e+002, 8.069760e+002
1.456006e+002, 8.000988e+002
1.460827e+002, 7.924482e+002
1.465648e+002, 7.814994e+002
1.470469e+002, 7.694708e+002
1.475291e+002, 7.586254e+002
1.480112e+002, 7.499688e+002
1.484933e+002, 7.427328e+002
1.489754e+002, 7.352557e+002
1.494575e+002, 7.274071e+002
1.499396e+002, 7.194421e+002
1.504218e+002, 7.110615e+002
1.509039e+002, 7.026765e+002
1.513860e+002, 6.949221e+002
1.518681e+002, 6.882244e+002
1.523502e+002, 6.824153e+002
1.528323e+002, 6.764166e+002
1.533145e+002, 6.702479e+002
1.537966e+002, 6.638092e+002
1.542787e+002, 6.569117e+002
1.547608e+002, 6.496873e+002
1.552429e+002, 6.423476e+002
1.557250e+002, 6.350170e+002
1.562072e+002, 6.277172e+002
1.566893e+002, 6.202952e+002
1.571714e+002, 6.123099e+002
1.576535e+002, 6.045839e+002
1.581356e+002, 5.973234e+002
1.586177e+002, 5.905925e+002
1.590999e+002, 5.844916e+002
1.595820e+002, 5.793344e+002
1.600641e+002, 5.753611e+002
1.605462e+002, 5.698867e+002
1.610283e+002, 5.614543e+002
1.615104e+002, 5.526232e+002
1.619926e+002, 5.454364e+002
1.624747e+002, 5.401692e+002
1.629568e+002, 5.355307e+002
1.634389e+002, 5.303909e+002
1.639210e+002, 5.247545e+002
1.644031e+002, 5.188492e+002
1.648853e+002, 5.124113e+002
1.653674e+002, 5.058127e+002
1.658495e+002, 4.997737e+002
1.663316e+002, 4.944913e+002
1.668137e+002, 4.894277e+002
1.672958e+002, 4.841016e+002
1.677780e+002, 4.785584e+002
1.682601e+002, 4.729360e+002
1.687422e+002, 4.671678e+002
1.692243e+002, 4.613362e+002
1.697064e+002, 4.558463e+002
1.701885e+002, 4.506261e+002
1.706707e+002, 4.459977e+002
1.711528e+002, 4.424659e+002
1.716349e+002, 4.397581e+002
1.721170e+002, 4.367422e+002
1.725991e+002, 4.322545e+002
1.730812e+002, 4.262000e+002
1.735634e+002, 4.207311e+002
1.740455e+002, 4.166830e+002
1.745276e+002, 4.126493e+002
1.750097e+002, 4.077784e+002
1.754918e+002, 4.022243e+002
1.759739e+002, 3.969128e+002
1.764561e+002, 3.930546e+002
1.769382e+002, 3.912247e+002
1.774203e+002, 3.888030e+002
1.779024e+002, 3.854846e+002
1.783845e+002, 3.818925e+002
1.788666e+002, 3.782447e+002
1.793488e+002, 3.746415e+002
1.798309e+002, 3.711183e+002
1.803130e+002, 3.677744e+002
1.807951e+002, 3.646389e+002
1.812772e+002, 3.616693e+002
1.817593e+002, 3.588326e+002
1.822415e+002, 3.561632e+002
1.827236e+002, 3.536795e+002
1.832057e+002, 3.513921e+002
1.836878e+002, 3.493545e+002
1.841699e+002, 3.477058e+002
1.846520e+002, 3.469886e+002
1.851342e+002, 3.455160e+002
1.856163e+002, 3.423812e+002
1.860984e+002, 3.388546e+002
1.865805e+002, 3.364390e+002
1.870626e+002, 3.356230e+002
1.875447e+002, 3.354678e+002
1.880269e+002, 3.343591e+002
1.885090e+002, 3.320894e+002
1.889911e+002, 3.299313e+002
1.894732e+002, 3.280974e+002
1.899553e+002, 3.265648e+002
1.904374e+002, 3.253727e+002
1.909196e+002, 3.245979e+002
1.914017e+002, 3.239957e+002
1.918838e+002, 3.231964e+002
1.923659e+002, 3.221970e+002
1.928480e+002, 3.211791e+002
1.933301e+002, 3.201611e+002
1.938123e+002, 3.191746e+002
1.942944e+002, 3.183422e+002
1.947765e+002, 3.177397e+002
1.952586e+002, 3.172593e+002
1.957407e+002, 3.167196e+002
1.962228e+002, 3.161183e+002
1.967050e+002, 3.156640e+002
1.971871e+002, 3.157915e+002
1.976692e+002, 3.164471e+002
1.981513e+002, 3.163403e+002
1.986334e+002, 3.143387e+002
1.991155e+002, 3.122367e+002
1.995977e+002, 3.113373e+002
2.000798e+002, 3.116835e+002
2.005619e+002, 3.123467e+002
2.010440e+002, 3.123851e+002
2.015261e+002, 3.116749e+002
2.020082e+002, 3.111791e+002
2.024904e+002, 3.111352e+002
2.029725e+002, 3.112612e+002
2.034546e+002, 3.115726e+002
2.039367e+002, 3.120072e+002
2.044188e+002, 3.122988e+002
2.049009e+002, 3.119203e+002
2.053831e+002, 3.103393e+002
2.058652e+002, 3.097697e+002
2.063473e+002, 3.115196e+002
2.068294e+002, 3.132906e+002
2.073115e+002, 3.135639e+002
2.077936e+002, 3.122002e+002
2.082758e+002, 3.102648e+002
2.087579e+002, 3.092755e+002
2.092400e+002, 3.098103e+002
2.097221e+002, 3.100680e+002
2.102042e+002, 3.098994e+002
2.106863e+002, 3.096102e+002
2.111685e+002, 3.092659e+002
2.116506e+002, 3.089408e+002
2.121327e+002, 3.088620e+002
2.126148e+002, 3.094178e+002
2.130969e+002, 3.111982e+002
2.135790e+002, 3.123444e+002
2.140612e+002, 3.123554e+002
2.145433e+002, 3.120903e+002
2.150254e+002, 3.124093e+002
2.155075e+002, 3.134594e+002
2.159896e+002, 3.144770e+002
2.164717e+002, 3.142743e+002
2.169539e+002, 3.119047e+002
2.174360e+002, 3.106111e+002
2.179181e+002, 3.108586e+002
2.184002e+002, 3.119941e+002
2.188823e+002, 3.137054e+002
2.193644e+002, 3.159224e+002
2.198466e+002, 3.179441e+002
2.203287e+002, 3.186832e+002
2.208108e+002, 3.179205e+002
2.212929e+002, 3.171942e+002
2.217750e+002, 3.168082e+002
2.222571e+002, 3.165260e+002
2.227393e+002, 3.159506e+002
2.232214e+002, 3.149426e+002
2.237035e+002, 3.139897e+002
2.241856e+002, 3.138273e+002
2.246677e+002, 3.143836e+002
2.251498e+002, 3.149431e+002
2.256320e+002, 3.152956e+002
2.261141e+002, 3.155473e+002
2.265962e+002, 3.158774e+002
2.270783e+002, 3.163307e+002
2.275604e+002, 3.168181e+002
2.280425e+002, 3.173895e+002
2.285247e+002, 3.179861e+002
2.290068e+002, 3.182453e+002
2.294889e+002, 3.176743e+002
2.299710e+002, 3.166953e+002
2.304531e+002, 3.163251e+002
2.309352e+002, 3.168925e+002
2.314174e+002, 3.175939e+002
2.318995e+002, 3.177124e+002
2.323816e+002, 3.174482e+002
2.328637e+002, 3.173519e+002
2.333458e+002, 3.179762e+002
2.338279e+002, 3.190022e+002
2.343101e+002, 3.192804e+002
2.347922e+002, 3.182543e+002
2.352743e+002, 3.173773e+002
2.357564e+002, 3.175814e+002
2.362385e+002, 3.185097e+002
2.367206e+002, 3.194771e+002
2.372028e+002, 3.202466e+002
2.376849e+002, 3.207543e+002
2.381670e+002, 3.206110e+002
2.386491e+002, 3.190527e+002
2.391312e+002, 3.180163e+002
2.396133e+002, 3.188292e+002
2.400955e+002, 3.205611e+002
2.405776e+002, 3.215990e+002
2.410597e+002, 3.207861e+002
2.415418e+002, 3.185753e+002
2.420239e+002, 3.171911e+002
2.425060e+002, 3.171673e+002
2.429882e+002, 3.173027e+002
2.434703e+002, 3.173679e+002
2.439524e+002, 3.173205e+002
2.444345e+002, 3.170370e+002
2.449166e+002, 3.163561e+002
2.453987e+002, 3.154873e+002
2.458809e+002, 3.155016e+002
2.463630e+002, 3.175463e+002
2.468451e+002, 3.190003e+002
2.473272e+002, 3.191801e+002
2.478093e+002, 3.185400e+002
2.482914e+002, 3.175986e+002
2.487736e+002, 3.166090e+002
2.492557e+002, 3.156315e+002
2.497378e+002, 3.149201e+002
2.502199e+002, 3.145688e+002
2.507020e+002, 3.144066e+002
2.511841e+002, 3.148271e+002
2.516663e+002, 3.152859e+002
2.521484e+002, 3.149323e+002
2.526305e+002, 3.133304e+002
2.531126e+002, 3.111145e+002
2.535947e+002, 3.102868e+002
2.540768e+002, 3.129909e+002
2.545590e+002, 3.145533e+002
2.550411e+002, 3.141559e+002
2.555232e+002, 3.127002e+002
2.560053e+002, 3.110202e+002
2.564874e+002, 3.094793e+002
2.569695e+002, 3.081790e+002
2.574517e+002, 3.073659e+002
2.579338e+002, 3.075923e+002
2.584159e+002, 3.076821e+002
2.588980e+002, 3.075042e+002
2.593801e+002, 3.072377e+002
2.598622e+002, 3.070712e+002
2.603444e+002, 3.070688e+002
2.608265e+002, 3.071618e+002
2.613086e+002, 3.072251e+002
2.617907e+002, 3.072861e+002
2.622728e+002, 3.072561e+002
2.627549e+002, 3.070968e+002
2.632371e+002, 3.068619e+002
2.637192e+002, 3.067376e+002
2.642013e+002, 3.067534e+002
2.646834e+002, 3.065040e+002
2.651655e+002, 3.052321e+002
2.656476e+002, 3.019413e+002
2.661298e+002, 3.002101e+002
2.666119e+002, 3.014882e+002
2.670940e+002, 3.035872e+002
2.675761e+002, 3.045899e+002
2.680582e+002, 3.041090e+002
2.685403e+002, 3.026852e+002
2.690225e+002, 3.007379e+002
2.695046e+002, 2.980061e+002
2.699867e+002, 2.961839e+002
2.704688e+002, 2.959769e+002
2.709509e+002, 2.962877e+002
2.714330e+002, 2.962423e+002
2.719152e+002, 2.957280e+002
2.723973e+002, 2.950127e+002
2.728794e+002, 2.943292e+002
2.733615e+002, 2.936775e+002
2.738436e+002, 2.929814e+002
2.743257e+002, 2.921316e+002
2.748079e+002, 2.913075e+002
2.752900e+002, 2.907588e+002
2.757721e+002, 2.904639e+002
2.762542e+002, 2.900278e+002
2.767363e+002, 2.890901e+002
2.772184e+002, 2.877058e+002
2.777006e+002, 2.865056e+002
2.781827e+002, 2.857130e+002
2.786648e+002, 2.849348e+002
2.791469e+002, 2.837162e+002
2.796290e+002, 2.821476e+002
2.801111e+002, 2.809567e+002
2.805933e+002, 2.806761e+002
2.810754e+002, 2.811113e+002
2.815575e+002, 2.814203e+002
2.820396e+002, 2.817395e+002
2.825217e+002, 2.817767e+002
2.830038e+002, 2.811531e+002
2.834860e+002, 2.800021e+002
2.839681e+002, 2.790605e+002
2.844502e+002, 2.788145e+002
2.849323e+002, 2.788431e+002
2.854144e+002, 2.782146e+002
2.858965e+002, 2.766263e+002
2.863787e+002, 2.751465e+002
2.868608e+002, 2.744120e+002
2.873429e+002, 2.742822e+002
2.878250e+002, 2.743090e+002
2.883071e+002, 2.745294e+002
2.887892e+002, 2.745810e+002
2.892714e+002, 2.738383e+002
2.897535e+002, 2.722007e+002
2.902356e+002, 2.707153e+002
2.907177e+002, 2.698976e+002
2.911998e+002, 2.696004e+002
2.916819e+002, 2.695405e+002
2.921641e+002, 2.698755e+002
2.926462e+002, 2.699883e+002
2.931283e+002, 2.689433e+002
2.936104e+002, 2.668986e+002
2.940925e+002, 2.651320e+002
2.945746e+002, 2.642877e+002
2.950568e+002, 2.640443e+002
2.955389e+002, 2.637490e+002
2.960210e+002, 2.632763e+002
2.965031e+002, 2.629070e+002
2.969852e+002, 2.631370e+002
2.974673e+002, 2.637126e+002
2.979495e+002, 2.638838e+002
2.984316e+002, 2.633741e+002
2.989137e+002, 2.623365e+002
2.993958e+002, 2.607990e+002
2.998779e+002, 2.586129e+002
3.003600e+002, 2.566609e+002
3.008422e+002, 2.555139e+002
3.013243e+002, 2.550195e+002
3.018064e+002, 2.550993e+002
3.022885e+002, 2.563444e+002
3.027706e+002, 2.575689e+002
3.032527e+002, 2.572054e+002
3.037349e+002, 2.551428e+002
3.042170e+002, 2.530313e+002
3.046991e+002, 2.513612e+002
3.051812e+002, 2.502608e+002
3.056633e+002, 2.500505e+002
3.061454e+002, 2.511382e+002
3.066276e+002, 2.522150e+002
3.071097e+002, 2.519327e+002
3.075918e+002, 2.503796e+002
3.080739e+002, 2.491012e+002
3.085560e+002, 2.488062e+002
3.090381e+002, 2.488367e+002
3.095203e+002, 2.484268e+002
3.100024e+002, 2.475223e+002
3.104845e+002, 2.465216e+002
3.109666e+002, 2.455654e+002
3.114487e+002, 2.446978e+002
3.119308e+002, 2.442222e+002
3.124130e+002, 2.444649e+002
3.128951e+002, 2.447242e+002
3.133772e+002, 2.442770e+002
3.138593e+002, 2.432241e+002
3.143414e+002, 2.422186e+002
3.148235e+002, 2.415670e+002
3.153057e+002, 2.412007e+002
3.157878e+002, 2.410398e+002
3.162699e+002, 2.412733e+002
3.167520e+002, 2.412360e+002
3.172341e+002, 2.399755e+002
3.177162e+002, 2.380696e+002
3.181984e+002, 2.368222e+002
3.186805e+002, 2.372631e+002
3.191626e+002, 2.383769e+002
3.196447e+002, 2.386120e+002
3.201268e+002, 2.379016e+002
3.206089e+002, 2.366414e+002
3.210911e+002, 2.342760e+002
3.215732e+002, 2.317044e+002
3.220553e+002, 2.303328e+002
3.225374e+002, 2.309095e+002
3.230195e+002, 2.319794e+002
3.235016e+002, 2.319841e+002
3.239838e+002, 2.309154e+002
3.244659e+002, 2.299206e+002
3.249480e+002, 2.295879e+002
3.254301e+002, 2.294338e+002
3.259122e+002, 2.288501e+002
3.263943e+002, 2.277375e+002
3.268765e+002, 2.265251e+002
3.273586e+002, 2.253916e+002
3.278407e+002, 2.243711e+002
3.283228e+002, 2.237121e+002
3.288049e+002, 2.235903e+002
3.292870e+002, 2.236978e+002
3.297692e+002, 2.238742e+002
3.302513e+002, 2.240922e+002
3.307334e+002, 2.238980e+002
3.312155e+002, 2.226307e+002
3.316976e+002, 2.208331e+002
3.321797e+002, 2.199201e+002
3.326619e+002, 2.203281e+002
3.331440e+002, 2.208036e+002
3.336261e+002, 2.200057e+002
3.341082e+002, 2.184521e+002
3.345903e+002, 2.173795e+002
3.350724e+002, 2.177243e+002
3.355546e+002, 2.184713e+002
3.360367e+002, 2.182757e+002
3.365188e+002, 2.170726e+002
3.370009e+002, 2.155400e+002
3.374830e+002, 2.136035e+002
3.379651e+002, 2.117509e+002
3.384473e+002, 2.109742e+002
3.389294e+002, 2.119886e+002
3.394115e+002, 2.131360e+002
3.398936e+002, 2.130366e+002
3.403757e+002, 2.118269e+002
3.408578e+002, 2.104935e+002
3.413400e+002, 2.092624e+002
3.418221e+002, 2.082240e+002
3.423042e+002, 2.074365e+002
3.427863e+002, 2.068714e+002
3.432684e+002, 2.066270e+002
3.437505e+002, 2.070054e+002
3.442327e+002, 2.077310e+002
3.447148e+002, 2.081916e+002
3.451969e+002, 2.083049e+002
3.456790e+002, 2.080040e+002
3.461611e+002, 2.068984e+002
3.466432e+002, 2.051322e+002
3.471254e+002, 2.036848e+002
3.476075e+002, 2.027530e+002
3.480896e+002, 2.023044e+002
3.485717e+002, 2.026143e+002
3.490538e+002, 2.037470e+002
3.495359e+002, 2.045157e+002
3.500181e+002, 2.037325e+002
3.505002e+002, 2.018051e+002
3.509823e+002, 2.006872e+002
3.514644e+002, 2.012689e+002
3.519465e+002, 2.020198e+002
3.524286e+002, 2.018434e+002
3.529108e+002, 2.009028e+002
3.533929e+002, 2.000123e+002
3.538750e+002, 1.996486e+002
3.543571e+002, 1.994892e+002
3.548392e+002, 1.986718e+002
3.553214e+002, 1.968420e+002
3.558035e+002, 1.952500e+002
3.562856e+002, 1.942659e+002
3.567677e+002, 1.938368e+002
3.572498e+002, 1.940090e+002
3.577319e+002, 1.948716e+002
3.582141e+002, 1.959230e+002
3.586962e+002, 1.964875e+002
3.591783e+002, 1.965138e+002
3.596604e+002, 1.963976e+002
3.601425e+002, 1.962285e+002
3.606246e+002, 1.959077e+002
3.611068e+002, 1.951699e+002
3.615889e+002, 1.940441e+002
3.620710e+002, 1.931573e+002
3.625531e+002, 1.931646e+002
3.630352e+002, 1.940320e+002
3.635173e+002, 1.941150e+002
3.639995e+002, 1.927674e+002
3.644816e+002, 1.913564e+002
3.649637e+002, 1.904897e+002
3.654458e+002, 1.900786e+002
3.659279e+002, 1.898422e+002
3.664100e+002, 1.896451e+002
3.668922e+002, 1.894996e+002
3.673743e+002, 1.894692e+002
3.678564e+002, 1.901250e+002
3.683385e+002, 1.900902e+002
3.688206e+002, 1.885044e+002
3.693027e+002, 1.864253e+002
3.697849e+002, 1.850180e+002
3.702670e+002, 1.846202e+002
3.707491e+002, 1.849522e+002
3.712312e+002, 1.857567e+002
3.717133e+002, 1.875008e+002
3.721954e+002, 1.881624e+002
3.726776e+002, 1.870877e+002
3.731597e+002, 1.855739e+002
3.736418e+002, 1.841411e+002
3.741239e+002, 1.829610e+002
3.746060e+002, 1.822661e+002
3.750881e+002, 1.823323e+002
3.755703e+002, 1.831182e+002
3.760524e+002, 1.831597e+002
3.765345e+002, 1.816616e+002
3.770166e+002, 1.803498e+002
3.774987e+002, 1.795831e+002
3.779808e+002, 1.792484e+002
3.784630e+002, 1.791930e+002
3.789451e+002, 1.793488e+002
3.794272e+002, 1.796279e+002
3.799093e+002, 1.798431e+002
3.803914e+002, 1.801586e+002
3.808735e+002, 1.800994e+002
3.813557e+002, 1.794027e+002
3.818378e+002, 1.785446e+002
3.823199e+002, 1.777944e+002
3.828020e+002, 1.772297e+002
3.832841e+002, 1.768794e+002
3.837662e+002, 1.768523e+002
3.842484e+002, 1.772457e+002
3.847305e+002, 1.772706e+002
3.852126e+002, 1.763792e+002
3.856947e+002, 1.756347e+002
3.861768e+002, 1.754325e+002
3.866589e+002, 1.756332e+002
3.871411e+002, 1.759431e+002
3.876232e+002, 1.762248e+002
3.881053e+002, 1.764280e+002
3.885874e+002, 1.763693e+002
3.890695e+002, 1.759972e+002
3.895516e+002, 1.754389e+002
3.900338e+002, 1.744345e+002
3.905159e+002, 1.734387e+002
3.909980e+002, 1.728874e+002
3.914801e+002, 1.728995e+002
3.919622e+002, 1.732374e+002
3.924443e+002, 1.737590e+002
3.929265e+002, 1.745290e+002
3.934086e+002, 1.748474e+002
3.938907e+002, 1.742901e+002
3.943728e+002, 1.735545e+002
3.948549e+002, 1.729726e+002
3.953370e+002, 1.725554e+002
3.958192e+002, 1.722582e+002
3.963013e+002, 1.720924e+002
3.967834e+002, 1.720244e+002
3.972655e+002, 1.718967e+002
3.977476e+002, 1.715997e+002
3.982297e+002, 1.715311e+002
3.987119e+002, 1.723235e+002
3.991940e+002, 1.733412e+002
3.996761e+002, 1.737314e+002
4.001582e+002, 1.732010e+002
4.006403e+002, 1.721679e+002
4.011224e+002, 1.707347e+002
4.016046e+002, 1.689505e+002
4.020867e+002, 1.679174e+002
4.025688e+002, 1.683052e+002
4.030509e+002, 1.692241e+002
4.035330e+002, 1.696564e+002
4.040151e+002, 1.696063e+002
4.044973e+002, 1.692936e+002
4.049794e+002, 1.686296e+002
4.054615e+002, 1.678171e+002
4.059436e+002, 1.671983e+002
4.064257e+002, 1.668196e+002
4.069078e+002, 1.666031e+002
4.073900e+002, 1.665375e+002
4.078721e+002, 1.666017e+002
4.083542e+002, 1.666601e+002
4.088363e+002, 1.666200e+002
4.093184e+002, 1.666486e+002
4.098005e+002, 1.669711e+002
4.102827e+002, 1.674795e+002
4.107648e+002, 1.677948e+002
4.112469e+002, 1.677434e+002
4.117290e+002, 1.674204e+002
4.122111e+002, 1.669996e+002
4.126932e+002, 1.664173e+002
4.131754e+002, 1.659102e+002
4.136575e+002, 1.652951e+002
4.141396e+002, 1.648924e+002
4.146217e+002, 1.653120e+002
4.151038e+002, 1.665576e+002
4.155859e+002, 1.676404e+002
4.160681e+002, 1.674836e+002
4.165502e+002, 1.659133e+002
4.170323e+002, 1.650207e+002
4.175144e+002, 1.654109e+002
4.179965e+002, 1.657309e+002
4.184786e+002, 1.652283e+002
4.189608e+002, 1.642763e+002
4.194429e+002, 1.636373e+002
4.199250e+002, 1.637086e+002
4.204071e+002, 1.643045e+002
4.208892e+002, 1.649525e+002
4.213713e+002, 1.661621e+002
4.218535e+002, 1.665878e+002
4.223356e+002, 1.658237e+002
4.228177e+002, 1.645868e+002
4.232998e+002, 1.631044e+002
4.237819e+002, 1.615955e+002
4.242640e+002, 1.606371e+002
4.247462e+002, 1.610363e+002
4.252283e+002, 1.629513e+002
4.257104e+002, 1.638727e+002
4.261925e+002, 1.627615e+002
4.266746e+002, 1.617283e+002
4.271567e+002, 1.614242e+002
4.276389e+002, 1.615797e+002
4.281210e+002, 1.617437e+002
4.286031e+002, 1.617022e+002
4.290852e+002, 1.615559e+002
4.295673e+002, 1.615060e+002
4.300494e+002, 1.615727e+002
4.305316e+002, 1.616628e+002
4.310137e+002, 1.617418e+002
4.314958e+002, 1.618493e+002
4.319779e+002, 1.620539e+002
4.324600e+002, 1.623444e+002
4.329421e+002, 1.625752e+002
4.334243e+002, 1.626651e+002
4.339064e+002, 1.626100e+002
4.343885e+002, 1.623101e+002
4.348706e+002, 1.615648e+002
4.353527e+002, 1.610332e+002
4.358348e+002, 1.615628e+002
4.363170e+002, 1.625246e+002
4.367991e+002, 1.627675e+002
4.372812e+002, 1.615129e+002
4.377633e+002, 1.601551e+002
4.382454e+002, 1.602521e+002
4.387275e+002, 1.615682e+002
4.392097e+002, 1.624314e+002
4.396918e+002, 1.621578e+002
4.401739e+002, 1.613446e+002
4.406560e+002, 1.609573e+002
4.411381e+002, 1.610637e+002
4.416202e+002, 1.607795e+002
4.421024e+002, 1.592121e+002
4.425845e+002, 1.574820e+002
4.430666e+002, 1.570592e+002
4.435487e+002, 1.580073e+002
4.440308e+002, 1.591299e+002
4.445129e+002, 1.595296e+002
4.449951e+002, 1.592932e+002
4.454772e+002, 1.593109e+002
4.459593e+002, 1.601822e+002
4.464414e+002, 1.605805e+002
4.469235e+002, 1.595897e+002
4.474056e+002, 1.580217e+002
4.478878e+002, 1.571943e+002
4.483699e+002, 1.575437e+002
4.488520e+002, 1.583450e+002
4.493341e+002, 1.584868e+002
4.498162e+002, 1.577097e+002
4.502983e+002, 1.569686e+002
4.507805e+002, 1.558130e+002
4.512626e+002, 1.550951e+002
4.517447e+002, 1.556610e+002
4.522268e+002, 1.570686e+002
4.527089e+002, 1.580862e+002
4.531910e+002, 1.578118e+002
4.536732e+002, 1.566632e+002
4.541553e+002, 1.564907e+002
4.546374e+002, 1.582891e+002
4.551195e+002, 1.593557e+002
4.556016e+002, 1.587433e+002
4.560837e+002, 1.576566e+002
4.565659e+002, 1.572089e+002
4.570480e+002, 1.575552e+002
4.575301e+002, 1.578877e+002
4.580122e+002, 1.570693e+002
4.584943e+002, 1.551373e+002
4.589764e+002, 1.543385e+002
4.594586e+002, 1.555808e+002
4.599407e+002, 1.567078e+002
4.604228e+002, 1.563263e+002
4.609049e+002, 1.551182e+002
4.613870e+002, 1.543309e+002
4.618691e+002, 1.545759e+002
4.623513e+002, 1.551230e+002
4.628334e+002, 1.549250e+002
4.633155e+002, 1.540263e+002
4.637976e+002, 1.536574e+002
4.642797e+002, 1.544902e+002
4.647618e+002, 1.556702e+002
4.652440e+002, 1.559713e+002
4.657261e+002, 1.553723e+002
4.662082e+002, 1.551437e+002
4.666903e+002, 1.561997e+002
4.671724e+002, 1.575940e+002
4.676545e+002, 1.581685e+002
4.681367e+002, 1.578518e+002
4.686188e+002, 1.571272e+002
4.691009e+002, 1.561500e+002
4.695830e+002, 1.550736e+002
4.700651e+002, 1.546507e+002
4.705472e+002, 1.554543e+002
4.710294e+002, 1.560921e+002
4.715115e+002, 1.561004e+002
4.719936e+002, 1.557952e+002
4.724757e+002, 1.557256e+002
4.729578e+002, 1.559838e+002
4.734399e+002, 1.559076e+002
4.739221e+002, 1.545397e+002
4.744042e+002, 1.514299e+002
4.748863e+002, 1.496805e+002
4.753684e+002, 1.501835e+002
4.758505e+002, 1.509109e+002
4.763326e+002, 1.511777e+002
4.768148e+002, 1.511453e+002
4.772969e+002, 1.511885e+002
4.777790e+002, 1.514899e+002
4.782611e+002, 1.519319e+002
4.787432e+002, 1.523053e+002
4.792253e+002, 1.526923e+002
4.797075e+002, 1.527674e+002
4.801896e+002, 1.520160e+002
4.806717e+002, 1.513404e+002
4.811538e+002, 1.514247e+002
4.816359e+002, 1.521095e+002
4.821180e+002, 1.525814e+002
4.826002e+002, 1.520200e+002
4.830823e+002, 1.509326e+002
4.835644e+002, 1.510348e+002
4.840465e+002, 1.528340e+002
4.845286e+002, 1.539241e+002
4.850107e+002, 1.523799e+002
4.854929e+002, 1.499916e+002
4.859750e+002, 1.489853e+002
4.864571e+002, 1.498236e+002
4.869392e+002, 1.508130e+002
4.874213e+002, 1.508088e+002
4.879034e+002, 1.502352e+002
4.883856e+002, 1.501313e+002
4.888677e+002, 1.507248e+002
4.893498e+002, 1.512438e+002
4.898319e+002, 1.508727e+002
4.903140e+002, 1.497192e+002
4.907961e+002, 1.492527e+002
4.912783e+002, 1.501979e+002
4.917604e+002, 1.510525e+002
4.922425e+002, 1.509352e+002
4.927246e+002, 1.502844e+002
4.932067e+002, 1.500740e+002
4.936888e+002, 1.506485e+002
4.941710e+002, 1.512536e+002
4.946531e+002, 1.505933e+002
4.951352e+002, 1.478380e+002
4.956173e+002, 1.464879e+002
4.960994e+002, 1.475988e+002
4.965815e+002, 1.488751e+002
4.970637e+002, 1.492043e+002
4.975458e+002, 1.488218e+002
4.980279e+002, 1.484124e+002
4.985100e+002, 1.483499e+002
4.989921e+002, 1.485533e+002
4.994742e+002, 1.488884e+002
4.999564e+002, 1.495615e+002
5.004385e+002, 1.498271e+002
5.009206e+002, 1.491148e+002
5.014027e+002, 1.483342e+002
5.018848e+002, 1.481750e+002
5.023669e+002, 1.485459e+002
5.028491e+002, 1.487345e+002
5.033312e+002, 1.480322e+002
5.038133e+002, 1.468439e+002
5.042954e+002, 1.462952e+002
5.047775e+002, 1.464761e+002
5.052596e+002, 1.469034e+002
5.057418e+002, 1.476343e+002
5.062239e+002, 1.483279e+002
5.067060e+002, 1.484777e+002
5.071881e+002, 1.479600e+002
5.076702e+002, 1.473113e+002
5.081523e+002, 1.466186e+002
5.086345e+002, 1.460271e+002
5.091166e+002, 1.458939e+002
5.095987e+002, 1.462726e+002
5.100808e+002, 1.465952e+002
5.105629e+002, 1.462797e+002
5.110450e+002, 1.454400e+002
5.115272e+002, 1.453663e+002
5.120093e+002, 1.469584e+002
5.124914e+002, 1.481409e+002
5.129735e+002, 1.480155e+002
5.134556e+002, 1.472564e+002
5.139377e+002, 1.467813e+002
5.144199e+002, 1.468287e+002
5.149020e+002, 1.469517e+002
5.153841e+002, 1.465344e+002
5.158662e+002, 1.454304e+002
5.163483e+002, 1.448028e+002
5.168304e+002, 1.453132e+002
5.173126e+002, 1.456069e+002
5.177947e+002, 1.449432e+002
5.182768e+002, 1.439356e+002
5.187589e+002, 1.436566e+002
5.192410e+002, 1.445741e+002
5.197231e+002, 1.456725e+002
5.202053e+002, 1.452648e+002
5.206874e+002, 1.432080e+002
5.211695e+002, 1.417517e+002
5.216516e+002, 1.413277e+002
5.221337e+002, 1.414175e+002
5.226158e+002, 1.417761e+002
5.230980e+002, 1.423210e+002
5.235801e+002, 1.428230e+002
5.240622e+002, 1.432577e+002
5.245443e+002, 1.435580e+002
5.250264e+002, 1.434620e+002
5.255085e+002, 1.430836e+002
5.259907e+002, 1.432348e+002
5.264728e+002, 1.444253e+002
5.269549e+002, 1.457526e+002
5.274370e+002, 1.455950e+002
5.279191e+002, 1.435446e+002
5.284012e+002, 1.427022e+002
5.288834e+002, 1.447132e+002
5.293655e+002, 1.468781e+002
5.298476e+002, 1.472240e+002
5.303297e+002, 1.461036e+002
5.308118e+002, 1.448300e+002
5.312939e+002, 1.440930e+002
5.317761e+002, 1.437309e+002
5.322582e+002, 1.433570e+002
5.327403e+002, 1.430975e+002
5.332224e+002, 1.425748e+002
5.337045e+002, 1.411141e+002
5.341866e+002, 1.400014e+002
5.346688e+002, 1.403439e+002
5.351509e+002, 1.417564e+002
5.356330e+002, 1.429145e+002
5.361151e+002, 1.428577e+002
5.365972e+002, 1.420899e+002
5.370793e+002, 1.420861e+002
5.375615e+002, 1.431344e+002
5.380436e+002, 1.437665e+002
5.385257e+002, 1.434484e+002
5.390078e+002, 1.425996e+002
5.394899e+002, 1.412681e+002
5.399720e+002, 1.395348e+002
5.404542e+002, 1.384733e+002
5.409363e+002, 1.391277e+002
5.414184e+002, 1.405071e+002
5.419005e+002, 1.411993e+002
5.423826e+002, 1.411772e+002
5.428647e+002, 1.410129e+002
5.433469e+002, 1.409344e+002
5.438290e+002, 1.409767e+002
5.443111e+002, 1.413464e+002
5.447932e+002, 1.425791e+002
5.452753e+002, 1.428637e+002
5.457574e+002, 1.407526e+002
5.462396e+002, 1.384416e+002
5.467217e+002, 1.381615e+002
5.472038e+002, 1.396609e+002
5.476859e+002, 1.409810e+002
5.481680e+002, 1.407035e+002
5.486501e+002, 1.392352e+002
5.491323e+002, 1.383791e+002
5.496144e+002, 1.384043e+002
5.500965e+002, 1.386158e+002
5.505786e+002, 1.393235e+002
5.510607e+002, 1.398695e+002
5.515428e+002, 1.394722e+002
5.520250e+002, 1.383074e+002
5.525071e+002, 1.375164e+002
5.529892e+002, 1.381764e+002
5.534713e+002, 1.397405e+002
5.539534e+002, 1.406141e+002
5.544355e+002, 1.406991e+002
5.549177e+002, 1.405591e+002
5.553998e+002, 1.402852e+002
5.558819e+002, 1.399908e+002
5.563640e+002, 1.398237e+002
5.568461e+002, 1.397954e+002
5.573282e+002, 1.398179e+002
5.578104e+002, 1.399137e+002
5.582925e+002, 1.400091e+002
5.587746e+002, 1.400129e+002
5.592567e+002, 1.399247e+002
5.597388e+002, 1.397643e+002
5.602209e+002, 1.394963e+002
5.607031e+002, 1.392376e+002
5.611852e+002, 1.393638e+002
5.616673e+002, 1.407087e+002
5.621494e+002, 1.412438e+002
5.626315e+002, 1.399233e+002
5.631136e+002, 1.385828e+002
5.635958e+002, 1.388828e+002
5.640779e+002, 1.405090e+002
5.645600e+002, 1.418475e+002
5.650421e+002, 1.417048e+002
5.655242e+002, 1.405344e+002
5.660063e+002, 1.398981e+002
5.664885e+002, 1.400642e+002
5.669706e+002, 1.399863e+002
5.674527e+002, 1.389775e+002
5.679348e+002, 1.379780e+002
5.684169e+002, 1.377199e+002
5.688990e+002, 1.381526e+002
5.693812e+002, 1.386196e+002
5.698633e+002, 1.389582e+002
5.703454e+002, 1.390365e+002
5.708275e+002, 1.384497e+002
5.713096e+002, 1.372612e+002
5.717917e+002, 1.363869e+002
5.722739e+002, 1.362540e+002
5.727560e+002, 1.365633e+002
5.732381e+002, 1.368509e+002
5.737202e+002, 1.372032e+002
5.742023e+002, 1.372140e+002
5.746844e+002, 1.363601e+002
5.751666e+002, 1.355747e+002
5.756487e+002, 1.354785e+002
5.761308e+002, 1.359923e+002
5.766129e+002, 1.369198e+002
5.770950e+002, 1.381965e+002
5.775771e+002, 1.394252e+002
5.780593e+002, 1.396226e+002
5.785414e+002, 1.382598e+002
5.790235e+002, 1.373089e+002
5.795056e+002, 1.373063e+002
5.799877e+002, 1.373206e+002
5.804698e+002, 1.368934e+002
5.809520e+002, 1.361572e+002
5.814341e+002, 1.354332e+002
5.819162e+002, 1.347886e+002
5.823983e+002, 1.343791e+002
5.828804e+002, 1.345645e+002
5.833625e+002, 1.352776e+002
5.838447e+002, 1.357420e+002
5.843268e+002, 1.356630e+002
5.848089e+002, 1.355586e+002
5.852910e+002, 1.361613e+002
5.857731e+002, 1.373551e+002
5.862552e+002, 1.378904e+002
5.867374e+002, 1.370777e+002
5.872195e+002, 1.361913e+002
5.877016e+002, 1.358993e+002
5.881837e+002, 1.359823e+002
5.886658e+002, 1.360804e+002
5.891479e+002, 1.360744e+002
5.896301e+002, 1.359485e+002
5.901122e+002, 1.356153e+002
5.905943e+002, 1.349981e+002
5.910764e+002, 1.349315e+002
5.915585e+002, 1.360835e+002
5.920406e+002, 1.370156e+002
5.925228e+002, 1.373300e+002
5.930049e+002, 1.372719e+002
5.934870e+002, 1.371091e+002
5.939691e+002, 1.369148e+002
5.944512e+002, 1.366784e+002
5.949333e+002, 1.363685e+002
5.954155e+002, 1.360027e+002
5.958976e+002, 1.356111e+002
5.963797e+002, 1.351402e+002
5.968618e+002, 1.349090e+002
5.973439e+002, 1.352687e+002
5.978260e+002, 1.359396e+002
5.983082e+002, 1.362042e+002
5.987903e+002, 1.358658e+002
5.992724e+002, 1.356219e+002
5.997545e+002, 1.359160e+002
6.002366e+002, 1.362803e+002
6.007188e+002, 1.360364e+002
6.012009e+002, 1.352716e+002
6.016830e+002, 1.348141e+002
6.021651e+002, 1.352834e+002
6.026472e+002, 1.363352e+002
6.031293e+002, 1.366655e+002
6.036115e+002, 1.357829e+002
6.040936e+002, 1.350690e+002
6.045757e+002, 1.345849e+002
6.050578e+002, 1.343051e+002
6.055399e+002, 1.342745e+002
6.060220e+002, 1.344419e+002
6.065042e+002, 1.346877e+002
6.069863e+002, 1.350028e+002
6.074684e+002, 1.352724e+002
6.079505e+002, 1.353246e+002
6.084326e+002, 1.351599e+002
6.089147e+002, 1.347186e+002
6.093969e+002, 1.337379e+002
6.098790e+002, 1.329394e+002
6.103611e+002, 1.334297e+002
6.108432e+002, 1.350650e+002
6.113253e+002, 1.359523e+002
6.118074e+002, 1.352939e+002
6.122896e+002, 1.344690e+002
6.127717e+002, 1.342092e+002
6.132538e+002, 1.342723e+002
6.137359e+002, 1.341784e+002
6.142180e+002, 1.337980e+002
6.147001e+002, 1.334191e+002
6.151823e+002, 1.333801e+002
6.156644e+002, 1.336918e+002
6.161465e+002, 1.341364e+002
6.166286e+002, 1.351563e+002
6.171107e+002, 1.356698e+002
6.175928e+002, 1.349893e+002
6.180750e+002, 1.339409e+002
6.185571e+002, 1.334843e+002
6.190392e+002, 1.337728e+002
6.195213e+002, 1.339391e+002
6.200034e+002, 1.331044e+002
6.204855e+002, 1.317352e+002
6.209677e+002, 1.307726e+002
6.214498e+002, 1.302541e+002
6.219319e+002, 1.303841e+002
6.224140e+002, 1.315529e+002
6.228961e+002, 1.331232e+002
6.233782e+002, 1.335905e+002
6.238604e+002, 1.324227e+002
6.243425e+002, 1.319779e+002
6.248246e+002, 1.331604e+002
6.253067e+002, 1.345777e+002
6.257888e+002, 1.355066e+002
6.262709e+002, 1.358737e+002
6.267531e+002, 1.356807e+002
6.272352e+002, 1.349180e+002
6.277173e+002, 1.338643e+002
6.281994e+002, 1.329927e+002
6.286815e+002, 1.322972e+002
6.291636e+002, 1.318063e+002
6.296458e+002, 1.315965e+002
6.301279e+002, 1.315071e+002
6.306100e+002, 1.315237e+002
6.310921e+002, 1.315750e+002
6.315742e+002, 1.315196e+002
6.320563e+002, 1.312840e+002
6.325385e+002, 1.310546e+002
6.330206e+002, 1.306819e+002
6.335027e+002, 1.304817e+002
6.339848e+002, 1.315081e+002
6.344669e+002, 1.338588e+002
6.349490e+002, 1.355691e+002
6.354312e+002, 1.350790e+002
6.359133e+002, 1.328789e+002
6.363954e+002, 1.312785e+002
6.368775e+002, 1.303936e+002
6.373596e+002, 1.300183e+002
6.378417e+002, 1.308138e+002
6.383239e+002, 1.315777e+002
6.388060e+002, 1.312727e+002
6.392881e+002, 1.301281e+002
6.397702e+002, 1.291182e+002
6.402523e+002, 1.288341e+002
6.407344e+002, 1.289846e+002
6.412166e+002, 1.289717e+002
6.416987e+002, 1.287740e+002
6.421808e+002, 1.289916e+002
6.426629e+002, 1.301119e+002
6.431450e+002, 1.310747e+002
6.436271e+002, 1.305603e+002
6.441093e+002, 1.290153e+002
6.445914e+002, 1.280865e+002
6.450735e+002, 1.285141e+002
6.455556e+002, 1.290125e+002
6.460377e+002, 1.287655e+002
6.465198e+002, 1.283143e+002
6.470020e+002, 1.283970e+002
6.474841e+002, 1.291634e+002
6.479662e+002, 1.305553e+002
6.484483e+002, 1.327805e+002
6.489304e+002, 1.354551e+002
6.494125e+002, 1.356805e+002
6.498947e+002, 1.316135e+002
6.503768e+002, 1.285559e+002
6.508589e+002, 1.278104e+002
6.513410e+002, 1.280263e+002
6.518231e+002, 1.286097e+002
6.523052e+002, 1.293737e+002
6.527874e+002, 1.298985e+002
6.532695e+002, 1.295361e+002
6.537516e+002, 1.292487e+002
6.542337e+002, 1.308881e+002
6.547158e+002, 1.338399e+002
6.551979e+002, 1.349776e+002
6.556801e+002, 1.331967e+002
6.561622e+002, 1.306587e+002
6.566443e+002, 1.297658e+002
6.571264e+002, 1.306355e+002
6.576085e+002, 1.309402e+002
6.580906e+002, 1.302100e+002
6.585728e+002, 1.295881e+002
6.590549e+002, 1.293583e+002
6.595370e+002, 1.293589e+002
6.600191e+002, 1.296161e+002
6.605012e+002, 1.299985e+002
6.609833e+002, 1.299323e+002
6.614655e+002, 1.286795e+002
6.619476e+002, 1.267710e+002
6.624297e+002, 1.260011e+002
6.629118e+002, 1.265122e+002
6.633939e+002, 1.270532e+002
6.638760e+002, 1.272871e+002
6.643582e+002, 1.273380e+002
6.648403e+002, 1.272078e+002
6.653224e+002, 1.269236e+002
6.658045e+002, 1.270355e+002
6.662866e+002, 1.281886e+002
6.667687e+002, 1.291752e+002
6.672509e+002, 1.289929e+002
6.677330e+002, 1.282999e+002
6.682151e+002, 1.284610e+002
6.686972e+002, 1.297067e+002
6.691793e+002, 1.306323e+002
6.696614e+002, 1.295544e+002
6.701436e+002, 1.266927e+002
6.706257e+002, 1.252833e+002
6.711078e+002, 1.259788e+002
6.715899e+002, 1.267692e+002
6.720720e+002, 1.270990e+002
6.725541e+002, 1.273143e+002
6.730363e+002, 1.277729e+002
6.735184e+002, 1.284437e+002
6.740005e+002, 1.288531e+002
6.744826e+002, 1.287765e+002
6.749647e+002, 1.283673e+002
6.754468e+002, 1.275396e+002
6.759290e+002, 1.264986e+002
6.764111e+002, 1.259168e+002
6.768932e+002, 1.260104e+002
6.773753e+002, 1.262783e+002
6.778574e+002, 1.260560e+002
6.783395e+002, 1.252937e+002
6.788217e+002, 1.253588e+002
6.793038e+002, 1.276585e+002
6.797859e+002, 1.289747e+002
6.802680e+002, 1.279388e+002
6.807501e+002, 1.262567e+002
6.812322e+002, 1.254075e+002
6.817144e+002, 1.255423e+002
6.821965e+002, 1.259989e+002
6.826786e+002, 1.265612e+002
6.831607e+002, 1.270383e+002
6.836428e+002, 1.270103e+002
6.841249e+002, 1.265396e+002
6.846071e+002, 1.261519e+002
6.850892e+002, 1.259938e+002
6.855713e+002, 1.260109e+002
6.860534e+002, 1.261625e+002
6.865355e+002, 1.264554e+002
6.870176e+002, 1.267530e+002
6.874998e+002, 1.272624e+002
6.879819e+002, 1.275164e+002
6.884640e+002, 1.271922e+002
6.889461e+002, 1.266857e+002
6.894282e+002, 1.262453e+002
6.899103e+002, 1.260028e+002
6.903925e+002, 1.262575e+002
6.908746e+002, 1.275545e+002
6.913567e+002, 1.291961e+002
6.918388e+002, 1.292761e+002
6.923209e+002, 1.277246e+002
6.928030e+002, 1.264260e+002
6.932852e+002, 1.258479e+002
6.937673e+002, 1.257350e+002
6.942494e+002, 1.260491e+002
6.947315e+002, 1.267288e+002
6.952136e+002, 1.268486e+002
6.956957e+002, 1.259345e+002
6.961779e+002, 1.249906e+002
6.966600e+002, 1.242813e+002
6.971421e+002, 1.237677e+002
6.976242e+002, 1.233091e+002
6.981063e+002, 1.229579e+002
6.985884e+002, 1.230623e+002
6.990706e+002, 1.240005e+002
6.995527e+002, 1.253861e+002
7.000348e+002, 1.260878e+002
7.005169e+002, 1.260123e+002
7.009990e+002, 1.258374e+002
7.014811e+002, 1.257142e+002
7.019633e+002, 1.254968e+002
7.024454e+002, 1.247421e+002
7.029275e+002, 1.237422e+002
7.034096e+002, 1.235594e+002
7.038917e+002, 1.250508e+002
7.043738e+002, 1.263907e+002
7.048560e+002, 1.269175e+002
7.053381e+002, 1.268306e+002
7.058202e+002, 1.261147e+002
7.063023e+002, 1.249587e+002
7.067844e+002, 1.240122e+002
7.072665e+002, 1.237356e+002
7.077487e+002, 1.239219e+002
7.082308e+002, 1.240165e+002
7.087129e+002, 1.239767e+002
7.091950e+002, 1.240778e+002
7.096771e+002, 1.246479e+002
7.101592e+002, 1.249664e+002
7.106414e+002, 1.243322e+002
7.111235e+002, 1.231635e+002
7.116056e+002, 1.223233e+002
7.120877e+002, 1.219328e+002
7.125698e+002, 1.219309e+002
7.130519e+002, 1.226563e+002
7.135341e+002, 1.235344e+002
7.140162e+002, 1.238103e+002
7.144983e+002, 1.235323e+002
7.149804e+002, 1.232309e+002
7.154625e+002, 1.231994e+002
7.159446e+002, 1.233819e+002
7.164268e+002, 1.237369e+002
7.169089e+002, 1.244001e+002
7.173910e+002, 1.245975e+002
7.178731e+002, 1.238736e+002
7.183552e+002, 1.232808e+002
7.188373e+002, 1.234500e+002
7.193195e+002, 1.239866e+002
7.198016e+002, 1.243460e+002
7.202837e+002, 1.244426e+002
7.207658e+002, 1.244138e+002
7.212479e+002, 1.241593e+002
7.217300e+002, 1.239295e+002
7.222122e+002, 1.241432e+002
7.226943e+002, 1.246468e+002
7.231764e+002, 1.248250e+002
7.236585e+002, 1.244056e+002
7.241406e+002, 1.237739e+002
7.246227e+002, 1.235641e+002
7.251049e+002, 1.238554e+002
7.255870e+002, 1.237764e+002
7.260691e+002, 1.230475e+002
7.265512e+002, 1.224007e+002
7.270333e+002, 1.221112e+002
7.275154e+002, 1.220039e+002
7.279976e+002, 1.218834e+002
7.284797e+002, 1.217383e+002
7.289618e+002, 1.217957e+002
7.294439e+002, 1.223715e+002
7.299260e+002, 1.230007e+002
7.304081e+002, 1.232131e+002
7.308903e+002, 1.231481e+002
7.313724e+002, 1.232177e+002
7.318545e+002, 1.235253e+002
7.323366e+002, 1.237014e+002
7.328187e+002, 1.232746e+002
7.333008e+002, 1.223373e+002
7.337830e+002, 1.220702e+002
7.342651e+002, 1.229665e+002
7.347472e+002, 1.234653e+002
7.352293e+002, 1.226483e+002
7.357114e+002, 1.217931e+002
7.361935e+002, 1.220551e+002
7.366757e+002, 1.231509e+002
7.371578e+002, 1.236862e+002
7.376399e+002, 1.228958e+002
7.381220e+002, 1.218700e+002
7.386041e+002, 1.212436e+002
7.390862e+002, 1.208939e+002
7.395684e+002, 1.205813e+002
7.400505e+002, 1.203052e+002
7.405326e+002, 1.203917e+002
7.410147e+002, 1.211570e+002
7.414968e+002, 1.222277e+002
7.419789e+002, 1.223234e+002
7.424611e+002, 1.209904e+002
7.429432e+002, 1.203949e+002
7.434253e+002, 1.213479e+002
7.439074e+002, 1.223049e+002
7.443895e+002, 1.223491e+002
7.448716e+002, 1.218070e+002
7.453538e+002, 1.212297e+002
7.458359e+002, 1.206417e+002
7.463180e+002, 1.202212e+002
7.468001e+002, 1.199702e+002
7.472822e+002, 1.199850e+002
7.477643e+002, 1.206877e+002
7.482465e+002, 1.217650e+002
7.487286e+002, 1.222235e+002
7.492107e+002, 1.216088e+002
7.496928e+002, 1.205100e+002
7.501749e+002, 1.196854e+002
7.506570e+002, 1.191196e+002
7.511392e+002, 1.192780e+002
7.516213e+002, 1.206035e+002
7.521034e+002, 1.216294e+002
7.525855e+002, 1.215446e+002
7.530676e+002, 1.210194e+002
7.535497e+002, 1.209445e+002
7.540319e+002, 1.213498e+002
7.545140e+002, 1.214371e+002
7.549961e+002, 1.204551e+002
7.554782e+002, 1.196861e+002
7.559603e+002, 1.203082e+002
7.564424e+002, 1.214865e+002
7.569246e+002, 1.218555e+002
7.574067e+002, 1.211857e+002
7.578888e+002, 1.202755e+002
7.583709e+002, 1.197742e+002
7.588530e+002, 1.195940e+002
7.593351e+002, 1.194506e+002
7.598173e+002, 1.193437e+002
7.602994e+002, 1.192916e+002
7.607815e+002, 1.193450e+002
7.612636e+002, 1.193700e+002
7.617457e+002, 1.191853e+002
7.622278e+002, 1.188649e+002
7.627100e+002, 1.187613e+002
7.631921e+002, 1.190091e+002
7.636742e+002, 1.192784e+002
7.641563e+002, 1.193619e+002
7.646384e+002, 1.195457e+002
7.651205e+002, 1.202732e+002
7.656027e+002, 1.212983e+002
7.660848e+002, 1.219628e+002
7.665669e+002, 1.219614e+002
7.670490e+002, 1.215493e+002
7.675311e+002, 1.209541e+002
7.680132e+002, 1.202180e+002
7.684954e+002, 1.195191e+002
7.689775e+002, 1.188378e+002
7.694596e+002, 1.184918e+002
7.699417e+002, 1.187505e+002
7.704238e+002, 1.192563e+002
7.709059e+002, 1.193579e+002
7.713881e+002, 1.188923e+002
7.718702e+002, 1.186735e+002
7.723523e+002, 1.187291e+002
7.728344e+002, 1.189852e+002
7.733165e+002, 1.196736e+002
7.737986e+002, 1.203969e+002
7.742808e+002, 1.207481e+002
7.747629e+002, 1.206619e+002
7.752450e+002, 1.202709e+002
7.757271e+002, 1.193809e+002
7.762092e+002, 1.185099e+002
7.766913e+002, 1.185943e+002
7.771735e+002, 1.194054e+002
7.776556e+002, 1.199701e+002
7.781377e+002, 1.200602e+002
7.786198e+002, 1.201123e+002
7.791019e+002, 1.205380e+002
7.795840e+002, 1.212116e+002
7.800662e+002, 1.214704e+002
7.805483e+002, 1.210760e+002
7.810304e+002, 1.207155e+002
7.815125e+002, 1.204278e+002
7.819946e+002, 1.201851e+002
7.824767e+002, 1.200903e+002
7.829589e+002, 1.200003e+002
7.834410e+002, 1.195656e+002
7.839231e+002, 1.185852e+002
7.844052e+002, 1.178519e+002
7.848873e+002, 1.179925e+002
7.853694e+002, 1.185394e+002
7.858516e+002, 1.189952e+002
7.863337e+002, 1.193356e+002
7.868158e+002, 1.196699e+002
7.872979e+002, 1.200396e+002
7.877800e+002, 1.202680e+002
7.882621e+002, 1.199872e+002
7.887443e+002, 1.192400e+002
7.892264e+002, 1.195527e+002
7.897085e+002, 1.216869e+002
7.901906e+002, 1.227049e+002
7.906727e+002, 1.209528e+002
7.911548e+002, 1.185114e+002
7.916370e+002, 1.174416e+002
7.921191e+002, 1.175770e+002
7.926012e+002, 1.178366e+002
7.930833e+002, 1.180427e+002
7.935654e+002, 1.183711e+002
7.940475e+002, 1.190692e+002
7.945297e+002, 1.197939e+002
7.950118e+002, 1.201375e+002
7.954939e+002, 1.201572e+002
7.959760e+002, 1.202812e+002
7.964581e+002, 1.207964e+002
7.969402e+002, 1.211877e+002
7.974224e+002, 1.203758e+002
7.979045e+002, 1.186204e+002
7.983866e+002, 1.177745e+002
7.988687e+002, 1.180687e+002
7.993508e+002, 1.186040e+002
7.998329e+002, 1.190339e+002
8.003151e+002, 1.192540e+002
8.007972e+002, 1.189427e+002
8.012793e+002, 1.176921e+002
8.017614e+002, 1.175440e+002
8.022435e+002, 1.198979e+002
8.027256e+002, 1.215330e+002
8.032078e+002, 1.209115e+002
8.036899e+002, 1.195058e+002
8.041720e+002, 1.189480e+002
8.046541e+002, 1.193008e+002
8.051362e+002, 1.193706e+002
8.056183e+002, 1.180622e+002
8.061005e+002, 1.167278e+002
8.065826e+002, 1.170788e+002
8.070647e+002, 1.184197e+002
8.075468e+002, 1.191572e+002
8.080289e+002, 1.190525e+002
8.085110e+002, 1.188129e+002
8.089932e+002, 1.189571e+002
8.094753e+002, 1.192504e+002
8.099574e+002, 1.189859e+002
8.104395e+002, 1.179500e+002
8.109216e+002, 1.173487e+002
8.114037e+002, 1.175436e+002
8.118859e+002, 1.176736e+002
8.123680e+002, 1.171362e+002
8.128501e+002, 1.163560e+002
8.133322e+002, 1.159538e+002
8.138143e+002, 1.159985e+002
8.142964e+002, 1.161028e+002
8.147786e+002, 1.161426e+002
8.152607e+002, 1.162554e+002
8.157428e+002, 1.165975e+002
8.162249e+002, 1.170258e+002
8.167070e+002, 1.172388e+002
8.171891e+002, 1.172534e+002
8.176713e+002, 1.175265e+002
8.181534e+002, 1.185569e+002
8.186355e+002, 1.198256e+002
8.191176e+002, 1.203323e+002
8.195997e+002, 1.201337e+002
8.200818e+002, 1.195495e+002
8.205640e+002, 1.185668e+002
8.210461e+002, 1.178239e+002
8.215282e+002, 1.178179e+002
8.220103e+002, 1.183277e+002
8.224924e+002, 1.186827e+002
8.229745e+002, 1.188012e+002
8.234567e+002, 1.189521e+002
8.239388e+002, 1.195438e+002
8.244209e+002, 1.197025e+002
8.249030e+002, 1.186892e+002
8.253851e+002, 1.172879e+002
8.258672e+002, 1.165766e+002
8.263494e+002, 1.166942e+002
8.268315e+002, 1.167420e+002
8.273136e+002, 1.159006e+002
8.277957e+002, 1.151986e+002
8.282778e+002, 1.157987e+002
8.287599e+002, 1.170707e+002
8.292421e+002, 1.178709e+002
8.297242e+002, 1.179851e+002
8.302063e+002, 1.178297e+002
8.306884e+002, 1.177118e+002
8.311705e+002, 1.175667e+002
8.316526e+002, 1.171228e+002
8.321348e+002, 1.163581e+002
8.326169e+002, 1.160984e+002
8.330990e+002, 1.166216e+002
8.335811e+002, 1.170314e+002
8.340632e+002, 1.166396e+002
8.345453e+002, 1.159069e+002
8.350275e+002, 1.159306e+002
8.355096e+002, 1.171975e+002
8.359917e+002, 1.177443e+002
8.364738e+002, 1.168871e+002
8.369559e+002, 1.161030e+002
8.374380e+002, 1.162429e+002
8.379202e+002, 1.165509e+002
8.384023e+002, 1.158307e+002
8.388844e+002, 1.141846e+002
8.393665e+002, 1.132916e+002
8.398486e+002, 1.145292e+002
8.403307e+002, 1.163192e+002
8.408129e+002, 1.171446e+002
8.412950e+002, 1.173199e+002
8.417771e+002, 1.175773e+002
8.422592e+002, 1.179371e+002
8.427413e+002, 1.176234e+002
8.432234e+002, 1.160719e+002
8.437056e+002, 1.140634e+002
8.441877e+002, 1.132246e+002
8.446698e+002, 1.136414e+002
8.451519e+002, 1.142695e+002
8.456340e+002, 1.152816e+002
8.461161e+002, 1.159015e+002
8.465983e+002, 1.155531e+002
8.470804e+002, 1.148818e+002
8.475625e+002, 1.148411e+002
8.480446e+002, 1.154757e+002
8.485267e+002, 1.159352e+002
8.490089e+002, 1.163186e+002
8.494910e+002, 1.163510e+002
8.499731e+002, 1.153903e+002
8.504552e+002, 1.144830e+002
8.509373e+002, 1.149340e+002
8.514194e+002, 1.163146e+002
8.519016e+002, 1.169443e+002
8.523837e+002, 1.159181e+002
8.528658e+002, 1.146008e+002
8.533479e+002, 1.142449e+002
8.538300e+002, 1.144388e+002
8.543121e+002, 1.146016e+002
8.547943e+002, 1.146313e+002
8.552764e+002, 1.143101e+002
8.557585e+002, 1.135411e+002
8.562406e+002, 1.126486e+002
8.567227e+002, 1.119868e+002
8.572048e+002, 1.115768e+002
8.576870e+002, 1.117998e+002
8.581691e+002, 1.129071e+002
8.586512e+002, 1.136101e+002
8.591333e+002, 1.133874e+002
8.596154e+002, 1.129922e+002
8.600975e+002, 1.131203e+002
8.605797e+002, 1.136593e+002
8.610618e+002, 1.139548e+002
8.615439e+002, 1.137195e+002
8.620260e+002, 1.137259e+002
8.625081e+002, 1.145030e+002
8.629902e+002, 1.150930e+002
8.634724e+002, 1.147593e+002
8.639545e+002, 1.139161e+002
8.644366e+002, 1.132764e+002
8.649187e+002, 1.130104e+002
8.654008e+002, 1.127823e+002
8.658829e+002, 1.119009e+002
8.663651e+002, 1.113124e+002
8.668472e+002, 1.128057e+002
8.673293e+002, 1.153381e+002
8.678114e+002, 1.162780e+002
8.682935e+002, 1.151655e+002
8.687756e+002, 1.134567e+002
8.692578e+002, 1.122090e+002
8.697399e+002, 1.113015e+002
8.702220e+002, 1.103292e+002
8.707041e+002, 1.092559e+002
8.711862e+002, 1.090992e+002
8.716683e+002, 1.102288e+002
8.721505e+002, 1.111908e+002
8.726326e+002, 1.110476e+002
8.731147e+002, 1.105374e+002
8.735968e+002, 1.110365e+002
8.740789e+002, 1.129067e+002
8.745610e+002, 1.138135e+002
8.750432e+002, 1.127257e+002
8.755253e+002, 1.120708e+002
8.760074e+002, 1.129215e+002
8.764895e+002, 1.139997e+002
8.769716e+002, 1.141669e+002
8.774537e+002, 1.135603e+002
8.779359e+002, 1.130473e+002
8.784180e+002, 1.129926e+002
8.789001e+002, 1.128942e+002
8.793822e+002, 1.124324e+002
8.798643e+002, 1.117713e+002
8.803464e+002, 1.108687e+002
8.808286e+002, 1.099518e+002
8.813107e+002, 1.095665e+002
8.817928e+002, 1.098971e+002
8.822749e+002, 1.106106e+002
8.827570e+002, 1.115196e+002
8.832391e+002, 1.124532e+002
8.837213e+002, 1.128482e+002
8.842034e+002, 1.127231e+002
8.846855e+002, 1.123032e+002
8.851676e+002, 1.116037e+002
8.856497e+002, 1.108562e+002
8.861318e+002, 1.101987e+002
8.866140e+002, 1.096755e+002
8.870961e+002, 1.094152e+002
8.875782e+002, 1.093141e+002
8.880603e+002, 1.097812e+002
8.885424e+002, 1.114388e+002
8.890245e+002, 1.128051e+002
8.895067e+002, 1.133185e+002
8.899888e+002, 1.132149e+002
8.904709e+002, 1.124871e+002
8.909530e+002, 1.111566e+002
8.914351e+002, 1.104590e+002
8.919172e+002, 1.112255e+002
8.923994e+002, 1.119468e+002
8.928815e+002, 1.119906e+002
8.933636e+002, 1.117171e+002
8.938457e+002, 1.113899e+002
8.943278e+002, 1.110870e+002
8.948099e+002, 1.109133e+002
8.952921e+002, 1.109423e+002
8.957742e+002, 1.108654e+002
8.962563e+002, 1.102904e+002
8.967384e+002, 1.094688e+002
8.972205e+002, 1.086067e+002
8.977026e+002, 1.078808e+002
8.981848e+002, 1.080915e+002
8.986669e+002, 1.094365e+002
8.991490e+002, 1.107653e+002
8.996311e+002, 1.109069e+002
9.001132e+002, 1.102122e+002
9.005953e+002, 1.100518e+002
9.010775e+002, 1.104888e+002
9.015596e+002, 1.107226e+002
9.020417e+002, 1.105949e+002
9.025238e+002, 1.104396e+002
9.030059e+002, 1.105523e+002
9.034880e+002, 1.106541e+002
9.039702e+002, 1.100401e+002
9.044523e+002, 1.082674e+002
9.049344e+002, 1.075759e+002
9.054165e+002, 1.091453e+002
9.058986e+002, 1.102643e+002
9.063807e+002, 1.100981e+002
9.068629e+002, 1.094326e+002
9.073450e+002, 1.087107e+002
9.078271e+002, 1.080827e+002
9.083092e+002, 1.079349e+002
9.087913e+002, 1.085183e+002
9.092734e+002, 1.092725e+002
9.097556e+002, 1.101501e+002
9.102377e+002, 1.109182e+002
9.107198e+002, 1.114429e+002
9.112019e+002, 1.116759e+002
9.116840e+002, 1.114806e+002
9.121661e+002, 1.108541e+002
9.126483e+002, 1.101466e+002
9.131304e+002, 1.095659e+002
9.136125e+002, 1.091557e+002
9.140946e+002, 1.090749e+002
9.145767e+002, 1.092265e+002
9.150588e+002, 1.093078e+002
9.155410e+002, 1.092678e+002
9.160231e+002, 1.091870e+002
9.165052e+002, 1.091182e+002
9.169873e+002, 1.090232e+002
9.174694e+002, 1.086535e+002
9.179515e+002, 1.079663e+002
9.184337e+002, 1.084519e+002
9.189158e+002, 1.105046e+002
9.193979e+002, 1.118845e+002
9.198800e+002, 1.115982e+002
9.203621e+002, 1.108182e+002
9.208442e+002, 1.108302e+002
9.213264e+002, 1.115189e+002
9.218085e+002, 1.116740e+002
9.222906e+002, 1.113372e+002
9.227727e+002, 1.103844e+002
9.232548e+002, 1.075463e+002
9.237369e+002, 1.054921e+002
9.242191e+002, 1.061350e+002
9.247012e+002, 1.080620e+002
9.251833e+002, 1.091217e+002
9.256654e+002, 1.090387e+002
9.261475e+002, 1.089327e+002
9.266296e+002, 1.092878e+002
9.271118e+002, 1.095174e+002
9.275939e+002, 1.091485e+002
9.280760e+002, 1.086235e+002
9.285581e+002, 1.084072e+002
9.290402e+002, 1.085050e+002
9.295223e+002, 1.087923e+002
9.300045e+002, 1.092834e+002
9.304866e+002, 1.094728e+002
9.309687e+002, 1.084085e+002
9.314508e+002, 1.070446e+002
9.319329e+002, 1.071615e+002
9.324150e+002, 1.083091e+002
9.328972e+002, 1.088114e+002
9.333793e+002, 1.082495e+002
9.338614e+002, 1.075234e+002
9.343435e+002, 1.073997e+002
9.348256e+002, 1.076902e+002
9.353077e+002, 1.080170e+002
9.357899e+002, 1.083644e+002
9.362720e+002, 1.084680e+002
9.367541e+002, 1.082793e+002
9.372362e+002, 1.078662e+002
9.377183e+002, 1.069515e+002
9.382004e+002, 1.069399e+002
9.386826e+002, 1.106344e+002
9.391647e+002, 1.182248e+002
9.396468e+002, 1.203311e+002
9.401289e+002, 1.143461e+002
9.406110e+002, 1.091856e+002
9.410931e+002, 1.064204e+002
9.415753e+002, 1.050395e+002
9.420574e+002, 1.047542e+002
9.425395e+002, 1.052577e+002
9.430216e+002, 1.057315e+002
9.435037e+002, 1.062435e+002
9.439858e+002, 1.065145e+002
9.444680e+002, 1.063440e+002
9.449501e+002, 1.061470e+002
9.454322e+002, 1.058576e+002
9.459143e+002, 1.057755e+002
9.463964e+002, 1.065429e+002
9.468785e+002, 1.078756e+002
9.473607e+002, 1.083630e+002
9.478428e+002, 1.071051e+002
9.483249e+002, 1.058739e+002
9.488070e+002, 1.054327e+002
9.492891e+002, 1.056178e+002
9.497712e+002, 1.068177e+002
9.502534e+002, 1.083586e+002
9.507355e+002, 1.088821e+002
9.512176e+002, 1.081169e+002
9.516997e+002, 1.071045e+002
9.521818e+002, 1.065297e+002
9.526639e+002, 1.062623e+002
9.531461e+002, 1.062214e+002
9.536282e+002, 1.063283e+002
9.541103e+002, 1.063859e+002
9.545924e+002, 1.063890e+002
9.550745e+002, 1.065077e+002
9.555566e+002, 1.068314e+002
9.560388e+002, 1.071148e+002
9.565209e+002, 1.069650e+002
9.570030e+002, 1.064898e+002
9.574851e+002, 1.062793e+002
9.579672e+002, 1.063304e+002
9.584493e+002, 1.062143e+002
9.589315e+002, 1.058047e+002
9.594136e+002, 1.054128e+002
9.598957e+002, 1.052023e+002
9.603778e+002, 1.052990e+002
9.608599e+002, 1.062048e+002
9.613420e+002, 1.082976e+002
9.618242e+002, 1.092080e+002
9.623063e+002, 1.086409e+002
9.627884e+002, 1.075290e+002
9.632705e+002, 1.056247e+002
9.637526e+002, 1.040197e+002
9.642347e+002, 1.040386e+002
9.647169e+002, 1.054190e+002
9.651990e+002, 1.062323e+002
9.656811e+002, 1.059945e+002
9.661632e+002, 1.059234e+002
9.666453e+002, 1.060915e+002
9.671274e+002, 1.063453e+002
9.676096e+002, 1.066803e+002
9.680917e+002, 1.070317e+002
9.685738e+002, 1.073956e+002
9.690559e+002, 1.077497e+002
9.695380e+002, 1.077938e+002
9.700201e+002, 1.070346e+002
9.705023e+002, 1.065167e+002
9.709844e+002, 1.070855e+002
9.714665e+002, 1.076089e+002
9.719486e+002, 1.068121e+002
9.724307e+002, 1.053614e+002
9.729128e+002, 1.047826e+002
9.733950e+002, 1.054577e+002
9.738771e+002, 1.061514e+002
9.743592e+002, 1.058887e+002
9.748413e+002, 1.055791e+002
9.753234e+002, 1.064864e+002
9.758055e+002, 1.076068e+002
9.762877e+002, 1.070642e+002
9.767698e+002, 1.051917e+002
9.772519e+002, 1.039380e+002
9.777340e+002, 1.042181e+002
9.782161e+002, 1.051725e+002
9.786982e+002, 1.064321e+002
9.791804e+002, 1.074354e+002
9.796625e+002, 1.065852e+002
9.801446e+002, 1.045154e+002
9.806267e+002, 1.035265e+002
9.811088e+002, 1.040194e+002
9.815909e+002, 1.046539e+002
9.820731e+002, 1.045044e+002
9.825552e+002, 1.040188e+002
9.830373e+002, 1.040844e+002
9.835194e+002, 1.045901e+002
9.840015e+002, 1.046683e+002
9.844836e+002, 1.042953e+002
9.849658e+002, 1.040184e+002
9.854479e+002, 1.040227e+002
9.859300e+002, 1.040468e+002
9.864121e+002, 1.038442e+002
9.868942e+002, 1.034800e+002
9.873763e+002, 1.031003e+002
9.878585e+002, 1.026038e+002
9.883406e+002, 1.028971e+002
9.888227e+002, 1.043558e+002
9.893048e+002, 1.054637e+002
9.897869e+002, 1.055459e+002
9.902690e+002, 1.050832e+002
9.907512e+002, 1.045534e+002
9.912333e+002, 1.039789e+002
9.917154e+002, 1.036517e+002
9.921975e+002, 1.035600e+002
9.926796e+002, 1.037538e+002
9.931617e+002, 1.044270e+002
9.936439e+002, 1.051243e+002
9.941260e+002, 1.058214e+002
9.946081e+002, 1.063118e+002
9.950902e+002, 1.060596e+002
9.955723e+002, 1.050095e+002
9.960544e+002, 1.048585e+002
9.965366e+002, 1.070524e+002
9.970187e+002, 1.081662e+002
9.975008e+002, 1.068823e+002
9.979829e+002, 1.051516e+002
9.984650e+002, 1.035717e+002
9.989471e+002, 1.025965e+002
9.994293e+002, 1.032840e+002
9.999114e+002, 1.058820e+002
1.000393e+003, 1.075130e+002
1.000876e+003, 1.067133e+002
1.001358e+003, 1.056448e+002
1.001840e+003, 1.051764e+002
1.002322e+003, 1.048522e+002
1.002804e+003, 1.041183e+002
1.003286e+003, 1.032051e+002
1.003768e+003, 1.026372e+002
1.004250e+003, 1.025499e+002
1.004733e+003, 1.030144e+002
1.005215e+003, 1.047642e+002
1.005697e+003, 1.063354e+002
1.006179e+003, 1.064716e+002
1.006661e+003, 1.058696e+002
1.007143e+003, 1.052561e+002
1.007625e+003, 1.048187e+002
1.008107e+003, 1.046989e+002
1.008589e+003, 1.049832e+002
1.009072e+003, 1.052358e+002
1.009554e+003, 1.050338e+002
1.010036e+003, 1.046466e+002
1.010518e+003, 1.042656e+002
1.011000e+003, 1.039954e+002
1.011482e+003, 1.041168e+002
1.011964e+003, 1.045727e+002
1.012446e+003, 1.049651e+002
1.012929e+003, 1.050975e+002
1.013411e+003, 1.049053e+002
1.013893e+003, 1.040992e+002
1.014375e+003, 1.030206e+002
1.014857e+003, 1.022970e+002
1.015339e+003, 1.019270e+002
1.015821e+003, 1.018803e+002
1.016303e+003, 1.021135e+002
1.016785e+003, 1.023479e+002
1.017268e+003, 1.023639e+002
1.017750e+003, 1.024697e+002
1.018232e+003, 1.034259e+002
1.018714e+003, 1.049104e+002
1.019196e+003, 1.056245e+002
1.019678e+003, 1.055536e+002
1.020160e+003, 1.047519e+002
1.020642e+003, 1.032453e+002
1.021125e+003, 1.022175e+002
1.021607e+003, 1.026838e+002
1.022089e+003, 1.039971e+002
1.022571e+003, 1.047045e+002
1.023053e+003, 1.048406e+002
1.023535e+003, 1.050131e+002
1.024017e+003, 1.052519e+002
1.024499e+003, 1.053063e+002
1.024981e+003, 1.050968e+002
1.025464e+003, 1.046130e+002
1.025946e+003, 1.036975e+002
1.026428e+003, 1.027706e+002
1.026910e+003, 1.035256e+002
1.027392e+003, 1.063186e+002
1.027874e+003, 1.070786e+002
1.028356e+003, 1.051452e+002
1.028838e+003, 1.038364e+002
1.029321e+003, 1.045394e+002
1.029803e+003, 1.055171e+002
1.030285e+003, 1.049772e+002
1.030767e+003, 1.033427e+002
1.031249e+003, 1.025813e+002
1.031731e+003, 1.030288e+002
1.032213e+003, 1.029705e+002
1.032695e+003, 1.019803e+002
1.033177e+003, 1.014995e+002
1.033660e+003, 1.022925e+002
1.034142e+003, 1.034125e+002
1.034624e+003, 1.038670e+002
1.035106e+003, 1.037780e+002
1.035588e+003, 1.039120e+002
1.036070e+003, 1.045581e+002
1.036552e+003, 1.047131e+002
1.037034e+003, 1.040931e+002
1.037516e+003, 1.034357e+002
1.037999e+003, 1.029719e+002
1.038481e+003, 1.026397e+002
1.038963e+003, 1.023323e+002
1.039445e+003, 1.020825e+002
1.039927e+003, 1.021472e+002
1.040409e+003, 1.026897e+002
1.040891e+003, 1.032647e+002
1.041373e+003, 1.041402e+002
1.041855e+003, 1.047002e+002
1.042338e+003, 1.046999e+002
1.042820e+003, 1.042870e+002
1.043302e+003, 1.032312e+002
1.043784e+003, 1.017384e+002
1.044266e+003, 1.013696e+002
1.044748e+003, 1.034914e+002
1.045230e+003, 1.045112e+002
1.045712e+003, 1.032533e+002
1.046195e+003, 1.020567e+002
1.046677e+003, 1.017937e+002
1.047159e+003, 1.020893e+002
1.047641e+003, 1.027676e+002
1.048123e+003, 1.036852e+002
1.048605e+003, 1.040590e+002
1.049087e+003, 1.034093e+002
1.049569e+003, 1.029383e+002
1.050052e+003, 1.026512e+002
1.050534e+003, 1.027704e+002
1.051016e+003, 1.040811e+002
1.051498e+003, 1.053729e+002
1.051980e+003, 1.050639e+002
1.052462e+003, 1.033741e+002
1.052944e+003, 1.021049e+002
1.053426e+003, 1.016556e+002
1.053908e+003, 1.014672e+002
1.054391e+003, 1.015123e+002
1.054873e+003, 1.016795e+002
1.055355e+003, 1.020378e+002
1.055837e+003, 1.024009e+002
1.056319e+003, 1.025340e+002
1.056801e+003, 1.024677e+002
1.057283e+003, 1.024538e+002
1.057765e+003, 1.026043e+002
1.058248e+003, 1.026840e+002
1.058730e+003, 1.022849e+002
1.059212e+003, 1.021847e+002
1.059694e+003, 1.033113e+002
1.060176e+003, 1.046276e+002
1.060658e+003, 1.048383e+002
1.061140e+003, 1.040699e+002
1.061622e+003, 1.033873e+002
1.062104e+003, 1.030555e+002
1.062587e+003, 1.028907e+002
1.063069e+003, 1.029912e+002
1.063551e+003, 1.030562e+002
1.064033e+003, 1.026601e+002
1.064515e+003, 1.023092e+002
1.064997e+003, 1.028301e+002
1.065479e+003, 1.039622e+002
1.065961e+003, 1.045618e+002
1.066443e+003, 1.042465e+002
1.066926e+003, 1.035691e+002
1.067408e+003, 1.021079e+002
1.067890e+003, 1.010880e+002
1.068372e+003, 1.016706e+002
1.068854e+003, 1.027785e+002
1.069336e+003, 1.032113e+002
1.069818e+003, 1.030049e+002
1.070300e+003, 1.027280e+002
1.070782e+003, 1.024669e+002
1.071265e+003, 1.025251e+002
1.071747e+003, 1.034867e+002
1.072229e+003, 1.042852e+002
1.072711e+003, 1.041834e+002
1.073193e+003, 1.036530e+002
1.073675e+003, 1.030985e+002
1.074157e+003, 1.026147e+002
1.074639e+003, 1.022273e+002
1.075122e+003, 1.019252e+002
1.075604e+003, 1.018686e+002
1.076086e+003, 1.024118e+002
1.076568e+003, 1.028883e+002
1.077050e+003, 1.027290e+002
1.077532e+003, 1.024492e+002
1.078014e+003, 1.029026e+002
1.078496e+003, 1.036390e+002
1.078979e+003, 1.032418e+002
1.079461e+003, 1.012694e+002
1.079943e+003, 9.977632e+001
1.080425e+003, 9.996167e+001
1.080907e+003, 1.005675e+002
1.081389e+003, 1.009968e+002
1.081871e+003, 1.014397e+002
1.082353e+003, 1.022772e+002
1.082835e+003, 1.032307e+002
1.083318e+003, 1.037129e+002
1.083800e+003, 1.035918e+002
1.084282e+003, 1.031294e+002
1.084764e+003, 1.021757e+002
1.085246e+003, 1.012424e+002
1.085728e+003, 1.003559e+002
1.086210e+003, 9.980903e+001
1.086692e+003, 1.000446e+002
1.087175e+003, 1.007255e+002
1.087657e+003, 1.014328e+002
1.088139e+003, 1.020238e+002
1.088621e+003, 1.019179e+002
1.089103e+003, 1.001059e+002
1.089585e+003, 9.864312e+001
1.090067e+003, 9.866319e+001
1.090549e+003, 9.912158e+001
1.091031e+003, 9.909972e+001
1.091514e+003, 9.903995e+001
1.091996e+003, 9.991087e+001
1.092478e+003, 1.016671e+002
1.092960e+003, 1.029427e+002
1.093442e+003, 1.032221e+002
1.093924e+003, 1.030716e+002
1.094406e+003, 1.021427e+002
1.094888e+003, 1.014593e+002
1.095370e+003, 1.020850e+002
1.095853e+003, 1.030965e+002
1.096335e+003, 1.031981e+002
1.096817e+003, 1.024648e+002
1.097299e+003, 1.019756e+002
1.097781e+003, 1.020082e+002
1.098263e+003, 1.023217e+002
1.098745e+003, 1.035731e+002
1.099227e+003, 1.042237e+002
1.099709e+003, 1.027778e+002
1.100192e+003, 1.008457e+002
1.100674e+003, 1.000847e+002
1.101156e+003, 1.003905e+002
1.101638e+003, 1.009890e+002
1.102120e+003, 1.019201e+002
1.102602e+003, 1.024219e+002
1.103084e+003, 1.018297e+002
1.103566e+003, 1.013906e+002
1.104049e+003, 1.019114e+002
1.104531e+003, 1.025057e+002
1.105013e+003, 1.022627e+002
1.105495e+003, 1.015209e+002
1.105977e+003, 1.011617e+002
1.106459e+003, 1.013201e+002
1.106941e+003, 1.016436e+002
1.107423e+003, 1.025618e+002
1.107906e+003, 1.029590e+002
1.108388e+003, 1.020010e+002
1.108870e+003, 1.009821e+002
1.109352e+003, 1.009513e+002
1.109834e+003, 1.013525e+002
1.110316e+003, 1.010855e+002
1.110798e+003, 1.000427e+002
1.111280e+003, 9.943940e+001
1.111762e+003, 9.948949e+001
1.112245e+003, 9.980325e+001
1.112727e+003, 1.004908e+002
1.113209e+003, 1.012528e+002
1.113691e+003, 1.025050e+002
1.114173e+003, 1.033965e+002
1.114655e+003, 1.022915e+002
1.115137e+003, 9.944175e+001
1.115619e+003, 9.830795e+001
1.116102e+003, 1.005515e+002
1.116584e+003, 1.015409e+002
1.117066e+003, 9.994093e+001
1.117548e+003, 9.900762e+001
1.118030e+003, 1.005903e+002
1.118512e+003, 1.025073e+002
1.118994e+003, 1.025904e+002
1.119476e+003, 1.012907e+002
1.119958e+003, 1.004139e+002
1.120441e+003, 1.000345e+002
1.120923e+003, 9.987376e+001
1.121405e+003, 1.001469e+002
1.121887e+003, 1.001109e+002
1.122369e+003, 9.922921e+001
1.122851e+003, 9.867106e+001
1.123333e+003, 9.953310e+001
1.123815e+003, 1.010799e+002
1.124297e+003, 1.016653e+002
1.124780e+003, 1.012161e+002
1.125262e+003, 1.007308e+002
1.125744e+003, 1.001710e+002
1.126226e+003, 9.970390e+001
1.126708e+003, 9.930659e+001
1.127190e+003, 9.919607e+001
1.127672e+003, 9.954318e+001
1.128154e+003, 1.001299e+002
1.128636e+003, 1.007061e+002
1.129119e+003, 1.012188e+002
1.129601e+003, 1.010478e+002
1.130083e+003, 1.000574e+002
1.130565e+003, 1.000802e+002
1.131047e+003, 1.014661e+002
1.131529e+003, 1.021344e+002
1.132011e+003, 1.011179e+002
1.132493e+003, 1.001007e+002
1.132976e+003, 1.009302e+002
1.133458e+003, 1.027586e+002
1.133940e+003, 1.029982e+002
1.134422e+003, 1.018015e+002
1.134904e+003, 1.010533e+002
1.135386e+003, 1.008282e+002
1.135868e+003, 1.008997e+002
1.136350e+003, 1.011943e+002
1.136833e+003, 1.012145e+002
1.137315e+003, 1.005547e+002
1.137797e+003, 9.977341e+001
1.138279e+003, 9.997498e+001
1.138761e+003, 1.008025e+002
1.139243e+003, 1.009138e+002
1.139725e+003, 1.005070e+002
1.140207e+003, 1.004093e+002
1.140689e+003, 1.007650e+002
1.141172e+003, 1.016685e+002
1.141654e+003, 1.031470e+002
1.142136e+003, 1.039872e+002
1.142618e+003, 1.023034e+002
1.143100e+003, 9.982183e+001
1.143582e+003, 9.974642e+001
1.144064e+003, 1.009755e+002
1.144546e+003, 1.012810e+002
1.145029e+003, 1.006805e+002
1.145511e+003, 9.989709e+001
1.145993e+003, 9.923048e+001
1.146475e+003, 9.904272e+001
1.146957e+003, 9.971133e+001
1.147439e+003, 1.006116e+002
1.147921e+003, 1.013438e+002
1.148403e+003, 1.017805e+002
1.148885e+003, 1.016620e+002
1.149368e+003, 1.011769e+002
1.149850e+003, 1.004441e+002
1.150332e+003, 9.967583e+001
1.150814e+003, 9.953210e+001
1.151296e+003, 1.004248e+002
1.151778e+003, 1.011162e+002
1.152260e+003, 1.006793e+002
1.152742e+003, 1.000029e+002
1.153224e+003, 9.944107e+001
1.153707e+003, 9.915516e+001
1.154189e+003, 9.938428e+001
1.154671e+003, 9.997829e+001
1.155153e+003, 1.007114e+002
1.155635e+003, 1.015464e+002
1.156117e+003, 1.018994e+002
1.156599e+003, 1.011175e+002
1.157081e+003, 1.004973e+002
1.157563e+003, 1.005237e+002
1.158046e+003, 1.007419e+002
1.158528e+003, 1.009883e+002
1.159010e+003, 1.011827e+002
1.159492e+003, 1.012379e+002
1.159974e+003, 1.011577e+002
1.160456e+003, 1.010143e+002
1.160938e+003, 1.007554e+002
1.161420e+003, 1.005452e+002
1.161903e+003, 1.005779e+002
1.162385e+003, 1.003707e+002
1.162867e+003, 9.918724e+001
1.163349e+003, 9.844707e+001
1.163831e+003, 9.961394e+001
1.164313e+003, 1.018360e+002
1.164795e+003, 1.031011e+002
1.165277e+003, 1.034079e+002
1.165760e+003, 1.025892e+002
1.166242e+003, 9.987720e+001
1.166724e+003, 9.860715e+001
1.167206e+003, 9.965714e+001
1.167688e+003, 1.010602e+002
1.168170e+003, 1.019104e+002
1.168652e+003, 1.023424e+002
1.169134e+003, 1.024927e+002
1.169616e+003, 1.024032e+002
1.170099e+003, 1.023134e+002
1.170581e+003, 1.022272e+002
1.171063e+003, 1.014736e+002
1.171545e+003, 9.999944e+001
1.172027e+003, 9.980952e+001
1.172509e+003, 1.015353e+002
1.172991e+003, 1.031460e+002
1.173473e+003, 1.030783e+002
1.173956e+003, 1.021084e+002
1.174438e+003, 1.013080e+002
1.174920e+003, 1.007707e+002
1.175402e+003, 1.011654e+002
1.175884e+003, 1.020844e+002
1.176366e+003, 1.017862e+002
1.176848e+003, 1.003355e+002
1.177330e+003, 9.951897e+001
1.177813e+003, 1.000801e+002
1.178295e+003, 1.009806e+002
1.178777e+003, 1.014271e+002
1.179259e+003, 1.015429e+002
1.179741e+003, 1.014276e+002
1.180223e+003, 1.011193e+002
1.180705e+003, 1.004433e+002
1.181187e+003, 9.970447e+001
1.181669e+003, 9.958607e+001
1.182151e+003, 1.001139e+002
1.182634e+003, 1.006854e+002
1.183116e+003, 1.010598e+002
1.183598e+003, 1.013121e+002
1.184080e+003, 1.014713e+002
1.184562e+003, 1.015371e+002
1.185044e+003, 1.012854e+002
1.185526e+003, 1.011255e+002
1.186008e+003, 1.018889e+002
1.186490e+003, 1.029779e+002
1.186973e+003, 1.027088e+002
1.187455e+003, 1.006934e+002
1.187937e+003, 9.952396e+001
1.188419e+003, 1.007142e+002
1.188901e+003, 1.012818e+002
1.189383e+003, 9.975330e+001
1.189865e+003, 9.852251e+001
1.190347e+003, 9.918095e+001
1.190830e+003, 1.004543e+002
1.191312e+003, 1.011290e+002
1.191794e+003, 1.012294e+002
1.192276e+003, 1.008365e+002
1.192758e+003, 9.970705e+001
1.193240e+003, 9.887906e+001
1.193722e+003, 9.828989e+001
1.194204e+003, 9.824471e+001
1.194687e+003, 9.893623e+001
1.195169e+003, 9.983608e+001
1.195651e+003, 1.007024e+002
1.196133e+003, 1.013326e+002
1.196615e+003, 1.013625e+002
1.197097e+003, 1.008840e+002
1.197579e+003, 1.004409e+002
1.198061e+003, 1.000273e+002
1.198543e+003, 9.943320e+001
1.199026e+003, 9.868962e+001
1.199508e+003, 9.873830e+001
1.199990e+003, 9.984455e+001
1.200472e+003, 1.007036e+002
1.200954e+003, 1.001873e+002
1.201436e+003, 9.930324e+001
1.201918e+003, 9.985172e+001
1.202400e+003, 1.009717e+002
1.202883e+003, 1.005713e+002
1.203365e+003, 9.944344e+001
1.203847e+003, 9.987200e+001
1.204329e+003, 1.015618e+002
1.204811e+003, 1.022552e+002
1.205293e+003, 1.011378e+002
1.205775e+003, 9.954379e+001
1.206257e+003, 9.778099e+001
1.206740e+003, 9.670785e+001
1.207222e+003, 9.757861e+001
1.207704e+003, 9.880605e+001
1.208186e+003, 9.875505e+001
1.208668e+003, 9.820669e+001
1.209150e+003, 9.856308e+001
1.209632e+003, 9.974390e+001
1.210114e+003, 1.005518e+002
1.210596e+003, 1.006892e+002
1.211078e+003, 1.005522e+002
1.211561e+003, 9.978104e+001
1.212043e+003, 9.934982e+001
1.212525e+003, 9.993820e+001
1.213007e+003, 1.005400e+002
1.213489e+003, 1.004979e+002
1.213971e+003, 1.000828e+002
1.214453e+003, 9.968613e+001
1.214935e+003, 9.930527e+001
1.215417e+003, 9.879839e+001
1.215900e+003, 9.780183e+001
1.216382e+003, 9.835415e+001
1.216864e+003, 1.011949e+002
1.217346e+003, 1.025989e+002
1.217828e+003, 1.011482e+002
1.218310e+003, 9.928158e+001
1.218792e+003, 9.878996e+001
1.219274e+003, 9.927708e+001
1.219757e+003, 1.004152e+002
1.220239e+003, 1.018018e+002
1.220721e+003, 1.010017e+002
1.221203e+003, 9.860703e+001
1.221685e+003, 9.762395e+001
1.222167e+003, 9.822865e+001
1.222649e+003, 9.924002e+001
1.223131e+003, 1.001506e+002
1.223614e+003, 1.004253e+002
1.224096e+003, 9.944740e+001
1.224578e+003, 9.831982e+001
1.225060e+003, 9.848817e+001
1.225542e+003, 9.898148e+001
1.226024e+003, 9.829163e+001
1.226506e+003, 9.732932e+001
1.226988e+003, 9.786738e+001
1.227470e+003, 9.949474e+001
1.227953e+003, 1.004425e+002
1.228435e+003, 1.002051e+002
1.228917e+003, 9.968826e+001
1.229399e+003, 9.873892e+001
1.229881e+003, 9.828621e+001
1.230363e+003, 9.903918e+001
1.230845e+003, 9.990849e+001
1.231327e+003, 1.003708e+002
1.231810e+003, 1.005175e+002
1.232292e+003, 1.003274e+002
1.232774e+003, 9.994048e+001
1.233256e+003, 9.993740e+001
1.233738e+003, 1.005091e+002
1.234220e+003, 1.005972e+002
1.234702e+003, 9.998092e+001
1.235184e+003, 9.964199e+001
1.235667e+003, 9.986714e+001
1.236149e+003, 9.995285e+001
1.236631e+003, 9.952296e+001
1.237113e+003, 9.884338e+001
1.237595e+003, 9.818143e+001
1.238077e+003, 9.760329e+001
1.238559e+003, 9.730577e+001
1.239041e+003, 9.726289e+001
1.239523e+003, 9.729507e+001
1.240005e+003, 9.744075e+001
1.240488e+003, 9.808232e+001
1.240970e+003, 9.915997e+001
1.241452e+003, 9.980186e+001
1.241934e+003, 9.957607e+001
1.242416e+003, 9.939157e+001
1.242898e+003, 1.003586e+002
1.243380e+003, 1.014570e+002
1.243862e+003, 1.019170e+002
1.244344e+003, 1.017287e+002
1.244827e+003, 1.003729e+002
1.245309e+003, 9.863960e+001
1.245791e+003, 9.777811e+001
1.246273e+003, 9.786507e+001
1.246755e+003, 9.831485e+001
1.247237e+003, 9.923085e+001
1.247719e+003, 9.962512e+001
1.248201e+003, 9.879784e+001
1.248684e+003, 9.809496e+001
1.249166e+003, 9.778304e+001
1.249648e+003, 9.787687e+001
1.250130e+003, 9.872431e+001
1.250612e+003, 9.963665e+001
1.251094e+003, 9.964127e+001
1.251576e+003, 9.888100e+001
1.252058e+003, 9.826669e+001
1.252541e+003, 9.781339e+001
1.253023e+003, 9.731749e+001
1.253505e+003, 9.672302e+001
1.253987e+003, 9.686503e+001
1.254469e+003, 9.795859e+001
1.254951e+003, 9.867243e+001
1.255433e+003, 9.821396e+001
1.255915e+003, 9.750599e+001
1.256397e+003, 9.766763e+001
1.256880e+003, 9.834138e+001
1.257362e+003, 9.906655e+001
1.257844e+003, 9.964695e+001
1.258326e+003, 9.945873e+001
1.258808e+003, 9.886065e+001
1.259290e+003, 9.881068e+001
1.259772e+003, 9.935580e+001
1.260254e+003, 9.981432e+001
1.260737e+003, 9.992459e+001
1.261219e+003, 9.981126e+001
1.261701e+003, 9.945261e+001
1.262183e+003, 9.900516e+001
1.262665e+003, 9.839481e+001
1.263147e+003, 9.787977e+001
1.263629e+003, 9.769360e+001
1.264111e+003, 9.768547e+001
1.264594e+003, 9.760487e+001
1.265076e+003, 9.748961e+001
1.265558e+003, 9.760512e+001
1.266040e+003, 9.800585e+001
1.266522e+003, 9.850915e+001
1.267004e+003, 9.933566e+001
1.267486e+003, 9.931420e+001
1.267968e+003, 9.792754e+001
1.268450e+003, 9.726099e+001
1.268932e+003, 9.851741e+001
1.269415e+003, 9.995808e+001
1.269897e+003, 9.949085e+001
1.270379e+003, 9.810695e+001
1.270861e+003, 9.842280e+001
1.271343e+003, 9.974215e+001
1.271825e+003, 9.970275e+001
1.272307e+003, 9.881522e+001
1.272789e+003, 9.921353e+001
1.273271e+003, 1.007451e+002
1.273754e+003, 1.009882e+002
1.274236e+003, 9.909721e+001
1.274718e+003, 9.781649e+001
1.275200e+003, 9.951317e+001
1.275682e+003, 1.014662e+002
1.276164e+003, 1.024616e+002
1.276646e+003, 1.026942e+002
1.277128e+003, 1.018897e+002
1.277611e+003, 1.007205e+002
1.278093e+003, 9.960979e+001
1.278575e+003, 9.881091e+001
1.279057e+003, 9.918493e+001
1.279539e+003, 1.009775e+002
1.280021e+003, 1.020214e+002
1.280503e+003, 1.022135e+002
1.280985e+003, 1.017108e+002
1.281468e+003, 1.001154e+002
1.281950e+003, 9.975471e+001
1.282432e+003, 1.017862e+002
1.282914e+003, 1.034678e+002
1.283396e+003, 1.023822e+002
1.283878e+003, 1.001464e+002
1.284360e+003, 9.967326e+001
1.284842e+003, 1.004414e+002
1.285324e+003, 1.009947e+002
##END=



