##NAMES=Milarite
##RRUFFID=R120135
##IDEAL CHEMISTRY=KCa_2_(Be_2_AlSi_12_O_30_)&#183;H_2_O
##LOCALITY=Jaguara√ßu, Minas Gerais, Brazil
##OWNER=RRUFF
##SOURCE=Luiz Menezes
##DESCRIPTION=Pale yellow hexagonal prisms, associated with minasgeraisite-(Y) R120134
##STATUS=The identification of this mineral has been confirmed only by single crystal X-ray diffraction.
##URL=rruff.info/R120135
8.975323e+001, 0.000000e+000
9.023535e+001, 2.925555e+002
9.071747e+001, 2.896910e+002
9.119958e+001, 2.875516e+002
9.168170e+001, 2.919209e+002
9.216382e+001, 2.954877e+002
9.264594e+001, 2.970904e+002
9.312805e+001, 2.975395e+002
9.361017e+001, 2.976243e+002
9.409229e+001, 2.968339e+002
9.457440e+001, 2.943297e+002
9.505651e+001, 2.923585e+002
9.553863e+001, 2.911365e+002
9.602074e+001, 2.905047e+002
9.650286e+001, 2.902899e+002
9.698498e+001, 2.902138e+002
9.746709e+001, 2.898228e+002
9.794921e+001, 2.902707e+002
9.843133e+001, 2.917128e+002
9.891344e+001, 2.936302e+002
9.939556e+001, 2.961644e+002
9.987768e+001, 2.990597e+002
1.003598e+002, 3.017575e+002
1.008419e+002, 3.042086e+002
1.013240e+002, 3.060029e+002
1.018061e+002, 3.063231e+002
1.022883e+002, 3.048949e+002
1.027704e+002, 3.021900e+002
1.032525e+002, 2.982779e+002
1.037346e+002, 2.928954e+002
1.042167e+002, 2.875119e+002
1.046988e+002, 2.828080e+002
1.051810e+002, 2.786873e+002
1.056631e+002, 2.752044e+002
1.061452e+002, 2.725493e+002
1.066273e+002, 2.705555e+002
1.071094e+002, 2.684947e+002
1.075915e+002, 2.659426e+002
1.080737e+002, 2.638761e+002
1.085558e+002, 2.627821e+002
1.090379e+002, 2.624640e+002
1.095200e+002, 2.624333e+002
1.100021e+002, 2.621468e+002
1.104842e+002, 2.613805e+002
1.109664e+002, 2.615774e+002
1.114485e+002, 2.631515e+002
1.119306e+002, 2.652448e+002
1.124127e+002, 2.675757e+002
1.128948e+002, 2.700476e+002
1.133769e+002, 2.726782e+002
1.138591e+002, 2.754653e+002
1.143412e+002, 2.784951e+002
1.148233e+002, 2.816103e+002
1.153054e+002, 2.845839e+002
1.157875e+002, 2.877396e+002
1.162696e+002, 2.913206e+002
1.167517e+002, 2.954098e+002
1.172339e+002, 3.000785e+002
1.177160e+002, 3.055780e+002
1.181981e+002, 3.118584e+002
1.186802e+002, 3.187482e+002
1.191623e+002, 3.261379e+002
1.196444e+002, 3.340708e+002
1.201266e+002, 3.427990e+002
1.206087e+002, 3.525638e+002
1.210908e+002, 3.631308e+002
1.215729e+002, 3.737836e+002
1.220550e+002, 3.844193e+002
1.225371e+002, 3.952981e+002
1.230193e+002, 4.066826e+002
1.235014e+002, 4.186783e+002
1.239835e+002, 4.304905e+002
1.244656e+002, 4.422596e+002
1.249477e+002, 4.533878e+002
1.254298e+002, 4.633253e+002
1.259120e+002, 4.719184e+002
1.263941e+002, 4.790338e+002
1.268762e+002, 4.842975e+002
1.273583e+002, 4.877580e+002
1.278404e+002, 4.889239e+002
1.283225e+002, 4.885385e+002
1.288047e+002, 4.861060e+002
1.292868e+002, 4.808170e+002
1.297689e+002, 4.719389e+002
1.302510e+002, 4.596807e+002
1.307331e+002, 4.470542e+002
1.312152e+002, 4.332870e+002
1.316974e+002, 4.197870e+002
1.321795e+002, 4.067352e+002
1.326616e+002, 3.942260e+002
1.331437e+002, 3.824523e+002
1.336258e+002, 3.715514e+002
1.341079e+002, 3.615652e+002
1.345901e+002, 3.521415e+002
1.350722e+002, 3.434300e+002
1.355543e+002, 3.350185e+002
1.360364e+002, 3.264264e+002
1.365185e+002, 3.177134e+002
1.370006e+002, 3.096551e+002
1.374828e+002, 3.033611e+002
1.379649e+002, 2.991921e+002
1.384470e+002, 2.951833e+002
1.389291e+002, 2.910091e+002
1.394112e+002, 2.870164e+002
1.398933e+002, 2.836031e+002
1.403755e+002, 2.808828e+002
1.408576e+002, 2.787099e+002
1.413397e+002, 2.770104e+002
1.418218e+002, 2.757260e+002
1.423039e+002, 2.747266e+002
1.427860e+002, 2.743401e+002
1.432681e+002, 2.742887e+002
1.437503e+002, 2.735363e+002
1.442324e+002, 2.716446e+002
1.447145e+002, 2.691472e+002
1.451966e+002, 2.665663e+002
1.456787e+002, 2.639156e+002
1.461608e+002, 2.611490e+002
1.466430e+002, 2.581731e+002
1.471251e+002, 2.549527e+002
1.476072e+002, 2.518135e+002
1.480893e+002, 2.489767e+002
1.485714e+002, 2.461057e+002
1.490535e+002, 2.427904e+002
1.495357e+002, 2.390080e+002
1.500178e+002, 2.353574e+002
1.504999e+002, 2.328999e+002
1.509820e+002, 2.323834e+002
1.514641e+002, 2.314106e+002
1.519462e+002, 2.291857e+002
1.524284e+002, 2.268095e+002
1.529105e+002, 2.251833e+002
1.533926e+002, 2.246443e+002
1.538747e+002, 2.248087e+002
1.543568e+002, 2.247092e+002
1.548389e+002, 2.233203e+002
1.553211e+002, 2.229703e+002
1.558032e+002, 2.247542e+002
1.562853e+002, 2.273334e+002
1.567674e+002, 2.290479e+002
1.572495e+002, 2.290409e+002
1.577316e+002, 2.277390e+002
1.582138e+002, 2.269317e+002
1.586959e+002, 2.270141e+002
1.591780e+002, 2.270662e+002
1.596601e+002, 2.270619e+002
1.601422e+002, 2.268820e+002
1.606243e+002, 2.262693e+002
1.611065e+002, 2.250825e+002
1.615886e+002, 2.233068e+002
1.620707e+002, 2.211270e+002
1.625528e+002, 2.184996e+002
1.630349e+002, 2.155746e+002
1.635170e+002, 2.121523e+002
1.639991e+002, 2.083111e+002
1.644813e+002, 2.049156e+002
1.649634e+002, 2.026524e+002
1.654455e+002, 2.012226e+002
1.659276e+002, 1.998381e+002
1.664097e+002, 1.984097e+002
1.668918e+002, 1.969939e+002
1.673740e+002, 1.956071e+002
1.678561e+002, 1.942117e+002
1.683382e+002, 1.930363e+002
1.688203e+002, 1.922365e+002
1.693024e+002, 1.917327e+002
1.697845e+002, 1.914976e+002
1.702667e+002, 1.916178e+002
1.707488e+002, 1.919471e+002
1.712309e+002, 1.921965e+002
1.717130e+002, 1.924904e+002
1.721951e+002, 1.924341e+002
1.726772e+002, 1.916430e+002
1.731594e+002, 1.905141e+002
1.736415e+002, 1.896159e+002
1.741236e+002, 1.893244e+002
1.746057e+002, 1.895344e+002
1.750878e+002, 1.896082e+002
1.755699e+002, 1.893792e+002
1.760521e+002, 1.891965e+002
1.765342e+002, 1.892331e+002
1.770163e+002, 1.893791e+002
1.774984e+002, 1.894257e+002
1.779805e+002, 1.891987e+002
1.784626e+002, 1.886942e+002
1.789448e+002, 1.883591e+002
1.794269e+002, 1.883137e+002
1.799090e+002, 1.883162e+002
1.803911e+002, 1.883487e+002
1.808732e+002, 1.883768e+002
1.813553e+002, 1.883608e+002
1.818375e+002, 1.882835e+002
1.823196e+002, 1.881640e+002
1.828017e+002, 1.877323e+002
1.832838e+002, 1.867903e+002
1.837659e+002, 1.857862e+002
1.842480e+002, 1.848608e+002
1.847301e+002, 1.840562e+002
1.852123e+002, 1.834190e+002
1.856944e+002, 1.829921e+002
1.861765e+002, 1.828029e+002
1.866586e+002, 1.828225e+002
1.871407e+002, 1.834189e+002
1.876228e+002, 1.839594e+002
1.881050e+002, 1.838488e+002
1.885871e+002, 1.830494e+002
1.890692e+002, 1.821766e+002
1.895513e+002, 1.818347e+002
1.900334e+002, 1.820215e+002
1.905155e+002, 1.822266e+002
1.909977e+002, 1.823958e+002
1.914798e+002, 1.825600e+002
1.919619e+002, 1.828391e+002
1.924440e+002, 1.833014e+002
1.929261e+002, 1.835893e+002
1.934082e+002, 1.829352e+002
1.938904e+002, 1.816949e+002
1.943725e+002, 1.811043e+002
1.948546e+002, 1.818212e+002
1.953367e+002, 1.833950e+002
1.958188e+002, 1.851135e+002
1.963009e+002, 1.872218e+002
1.967831e+002, 1.887761e+002
1.972652e+002, 1.887909e+002
1.977473e+002, 1.877259e+002
1.982294e+002, 1.866979e+002
1.987115e+002, 1.862737e+002
1.991936e+002, 1.863539e+002
1.996758e+002, 1.864918e+002
2.001579e+002, 1.865268e+002
2.006400e+002, 1.868719e+002
2.011221e+002, 1.877538e+002
2.016042e+002, 1.890709e+002
2.020863e+002, 1.905643e+002
2.025685e+002, 1.920658e+002
2.030506e+002, 1.935834e+002
2.035327e+002, 1.952223e+002
2.040148e+002, 1.971000e+002
2.044969e+002, 1.989771e+002
2.049790e+002, 2.008159e+002
2.054612e+002, 2.025769e+002
2.059433e+002, 2.042167e+002
2.064254e+002, 2.057298e+002
2.069075e+002, 2.071297e+002
2.073896e+002, 2.081302e+002
2.078717e+002, 2.087561e+002
2.083539e+002, 2.089238e+002
2.088360e+002, 2.086579e+002
2.093181e+002, 2.079020e+002
2.098002e+002, 2.065105e+002
2.102823e+002, 2.042770e+002
2.107644e+002, 2.011102e+002
2.112466e+002, 1.980329e+002
2.117287e+002, 1.948905e+002
2.122108e+002, 1.919746e+002
2.126929e+002, 1.892884e+002
2.131750e+002, 1.869099e+002
2.136571e+002, 1.849912e+002
2.141393e+002, 1.837234e+002
2.146214e+002, 1.832187e+002
2.151035e+002, 1.826047e+002
2.155856e+002, 1.817847e+002
2.160677e+002, 1.809662e+002
2.165498e+002, 1.802176e+002
2.170320e+002, 1.795581e+002
2.175141e+002, 1.790081e+002
2.179962e+002, 1.786255e+002
2.184783e+002, 1.784483e+002
2.189604e+002, 1.780018e+002
2.194425e+002, 1.770171e+002
2.199247e+002, 1.760117e+002
2.204068e+002, 1.751720e+002
2.208889e+002, 1.745561e+002
2.213710e+002, 1.743436e+002
2.218531e+002, 1.748150e+002
2.223352e+002, 1.760166e+002
2.228174e+002, 1.767263e+002
2.232995e+002, 1.766541e+002
2.237816e+002, 1.763130e+002
2.242637e+002, 1.760627e+002
2.247458e+002, 1.759238e+002
2.252279e+002, 1.757494e+002
2.257100e+002, 1.753819e+002
2.261922e+002, 1.748556e+002
2.266743e+002, 1.744492e+002
2.271564e+002, 1.742563e+002
2.276385e+002, 1.741436e+002
2.281206e+002, 1.739622e+002
2.286027e+002, 1.737008e+002
2.290849e+002, 1.735282e+002
2.295670e+002, 1.736073e+002
2.300491e+002, 1.738776e+002
2.305312e+002, 1.741691e+002
2.310133e+002, 1.745998e+002
2.314954e+002, 1.749593e+002
2.319776e+002, 1.749127e+002
2.324597e+002, 1.743928e+002
2.329418e+002, 1.739400e+002
2.334239e+002, 1.739541e+002
2.339060e+002, 1.742526e+002
2.343881e+002, 1.745899e+002
2.348703e+002, 1.749502e+002
2.353524e+002, 1.752849e+002
2.358345e+002, 1.754995e+002
2.363166e+002, 1.755558e+002
2.367987e+002, 1.756550e+002
2.372808e+002, 1.761163e+002
2.377630e+002, 1.766127e+002
2.382451e+002, 1.766912e+002
2.387272e+002, 1.760108e+002
2.392093e+002, 1.751464e+002
2.396914e+002, 1.750900e+002
2.401735e+002, 1.760826e+002
2.406557e+002, 1.771202e+002
2.411378e+002, 1.779525e+002
2.416199e+002, 1.785827e+002
2.421020e+002, 1.788998e+002
2.425841e+002, 1.787801e+002
2.430662e+002, 1.785982e+002
2.435484e+002, 1.791020e+002
2.440305e+002, 1.806331e+002
2.445126e+002, 1.819124e+002
2.449947e+002, 1.824556e+002
2.454768e+002, 1.826869e+002
2.459589e+002, 1.829534e+002
2.464410e+002, 1.833760e+002
2.469232e+002, 1.838271e+002
2.474053e+002, 1.840899e+002
2.478874e+002, 1.841147e+002
2.483695e+002, 1.840533e+002
2.488516e+002, 1.837787e+002
2.493337e+002, 1.835277e+002
2.498159e+002, 1.834775e+002
2.502980e+002, 1.836831e+002
2.507801e+002, 1.840874e+002
2.512622e+002, 1.847093e+002
2.517443e+002, 1.859531e+002
2.522264e+002, 1.864363e+002
2.527086e+002, 1.852529e+002
2.531907e+002, 1.838993e+002
2.536728e+002, 1.834420e+002
2.541549e+002, 1.841437e+002
2.546370e+002, 1.855181e+002
2.551191e+002, 1.868997e+002
2.556013e+002, 1.884198e+002
2.560834e+002, 1.896269e+002
2.565655e+002, 1.903051e+002
2.570476e+002, 1.908823e+002
2.575297e+002, 1.915469e+002
2.580118e+002, 1.923775e+002
2.584940e+002, 1.934621e+002
2.589761e+002, 1.950031e+002
2.594582e+002, 1.974359e+002
2.599403e+002, 1.991882e+002
2.604224e+002, 1.996572e+002
2.609045e+002, 2.000716e+002
2.613867e+002, 2.012261e+002
2.618688e+002, 2.031764e+002
2.623509e+002, 2.054075e+002
2.628330e+002, 2.073262e+002
2.633151e+002, 2.087658e+002
2.637972e+002, 2.105154e+002
2.642794e+002, 2.125716e+002
2.647615e+002, 2.148627e+002
2.652436e+002, 2.174650e+002
2.657257e+002, 2.202981e+002
2.662078e+002, 2.231372e+002
2.666899e+002, 2.257865e+002
2.671721e+002, 2.282548e+002
2.676542e+002, 2.303590e+002
2.681363e+002, 2.322862e+002
2.686184e+002, 2.337749e+002
2.691005e+002, 2.345004e+002
2.695826e+002, 2.346074e+002
2.700648e+002, 2.345793e+002
2.705469e+002, 2.348058e+002
2.710290e+002, 2.352962e+002
2.715111e+002, 2.357176e+002
2.719932e+002, 2.363185e+002
2.724753e+002, 2.366297e+002
2.729575e+002, 2.362885e+002
2.734396e+002, 2.354667e+002
2.739217e+002, 2.346434e+002
2.744038e+002, 2.341526e+002
2.748859e+002, 2.339547e+002
2.753680e+002, 2.335645e+002
2.758501e+002, 2.326718e+002
2.763322e+002, 2.319643e+002
2.768144e+002, 2.316698e+002
2.772965e+002, 2.317327e+002
2.777786e+002, 2.320299e+002
2.782607e+002, 2.325108e+002
2.787428e+002, 2.331494e+002
2.792249e+002, 2.338543e+002
2.797071e+002, 2.344378e+002
2.801892e+002, 2.352852e+002
2.806713e+002, 2.363663e+002
2.811534e+002, 2.377905e+002
2.816355e+002, 2.399174e+002
2.821176e+002, 2.430065e+002
2.825998e+002, 2.465436e+002
2.830819e+002, 2.490693e+002
2.835640e+002, 2.500444e+002
2.840461e+002, 2.512267e+002
2.845282e+002, 2.530317e+002
2.850103e+002, 2.552408e+002
2.854925e+002, 2.578245e+002
2.859746e+002, 2.608955e+002
2.864567e+002, 2.636044e+002
2.869388e+002, 2.643826e+002
2.874209e+002, 2.629243e+002
2.879030e+002, 2.608462e+002
2.883852e+002, 2.587388e+002
2.888673e+002, 2.559955e+002
2.893494e+002, 2.516161e+002
2.898315e+002, 2.453282e+002
2.903136e+002, 2.383407e+002
2.907957e+002, 2.319510e+002
2.912779e+002, 2.262332e+002
2.917600e+002, 2.207866e+002
2.922421e+002, 2.156269e+002
2.927242e+002, 2.106919e+002
2.932063e+002, 2.058436e+002
2.936884e+002, 2.010526e+002
2.941706e+002, 1.966392e+002
2.946527e+002, 1.929309e+002
2.951348e+002, 1.899738e+002
2.956169e+002, 1.872505e+002
2.960990e+002, 1.848334e+002
2.965811e+002, 1.825812e+002
2.970633e+002, 1.803430e+002
2.975454e+002, 1.781381e+002
2.980275e+002, 1.761335e+002
2.985096e+002, 1.744514e+002
2.989917e+002, 1.731045e+002
2.994738e+002, 1.719294e+002
2.999560e+002, 1.711285e+002
3.004381e+002, 1.703213e+002
3.009202e+002, 1.692395e+002
3.014023e+002, 1.679370e+002
3.018844e+002, 1.666164e+002
3.023665e+002, 1.652915e+002
3.028487e+002, 1.640948e+002
3.033308e+002, 1.633699e+002
3.038129e+002, 1.632816e+002
3.042950e+002, 1.633274e+002
3.047771e+002, 1.634861e+002
3.052592e+002, 1.636229e+002
3.057414e+002, 1.632994e+002
3.062235e+002, 1.622199e+002
3.067056e+002, 1.608464e+002
3.071877e+002, 1.601394e+002
3.076698e+002, 1.602268e+002
3.081519e+002, 1.602762e+002
3.086341e+002, 1.599833e+002
3.091162e+002, 1.594876e+002
3.095983e+002, 1.589867e+002
3.100804e+002, 1.585071e+002
3.105625e+002, 1.581408e+002
3.110446e+002, 1.580884e+002
3.115268e+002, 1.583588e+002
3.120089e+002, 1.585437e+002
3.124910e+002, 1.585154e+002
3.129731e+002, 1.583818e+002
3.134552e+002, 1.582040e+002
3.139373e+002, 1.579826e+002
3.144195e+002, 1.579201e+002
3.149016e+002, 1.583496e+002
3.153837e+002, 1.592124e+002
3.158658e+002, 1.596388e+002
3.163479e+002, 1.590784e+002
3.168300e+002, 1.583957e+002
3.173121e+002, 1.583209e+002
3.177943e+002, 1.588533e+002
3.182764e+002, 1.595891e+002
3.187585e+002, 1.603736e+002
3.192406e+002, 1.611253e+002
3.197227e+002, 1.615665e+002
3.202048e+002, 1.613983e+002
3.206870e+002, 1.612302e+002
3.211691e+002, 1.613351e+002
3.216512e+002, 1.617030e+002
3.221333e+002, 1.623675e+002
3.226154e+002, 1.634615e+002
3.230975e+002, 1.647188e+002
3.235797e+002, 1.654309e+002
3.240618e+002, 1.654763e+002
3.245439e+002, 1.653777e+002
3.250260e+002, 1.651568e+002
3.255081e+002, 1.649399e+002
3.259902e+002, 1.650355e+002
3.264724e+002, 1.655995e+002
3.269545e+002, 1.662818e+002
3.274366e+002, 1.664526e+002
3.279187e+002, 1.659923e+002
3.284008e+002, 1.658028e+002
3.288829e+002, 1.663893e+002
3.293651e+002, 1.671745e+002
3.298472e+002, 1.673733e+002
3.303293e+002, 1.668493e+002
3.308114e+002, 1.662722e+002
3.312935e+002, 1.663441e+002
3.317756e+002, 1.671292e+002
3.322578e+002, 1.677610e+002
3.327399e+002, 1.680793e+002
3.332220e+002, 1.683327e+002
3.337041e+002, 1.686319e+002
3.341862e+002, 1.690064e+002
3.346683e+002, 1.695529e+002
3.351505e+002, 1.703154e+002
3.356326e+002, 1.713228e+002
3.361147e+002, 1.726354e+002
3.365968e+002, 1.746783e+002
3.370789e+002, 1.765611e+002
3.375610e+002, 1.777802e+002
3.380432e+002, 1.785546e+002
3.385253e+002, 1.793571e+002
3.390074e+002, 1.803755e+002
3.394895e+002, 1.816230e+002
3.399716e+002, 1.831727e+002
3.404537e+002, 1.851008e+002
3.409359e+002, 1.871286e+002
3.414180e+002, 1.892129e+002
3.419001e+002, 1.913682e+002
3.423822e+002, 1.936055e+002
3.428643e+002, 1.959193e+002
3.433464e+002, 1.983096e+002
3.438286e+002, 2.007943e+002
3.443107e+002, 2.034615e+002
3.447928e+002, 2.059355e+002
3.452749e+002, 2.078383e+002
3.457570e+002, 2.097878e+002
3.462391e+002, 2.124523e+002
3.467213e+002, 2.157623e+002
3.472034e+002, 2.189985e+002
3.476855e+002, 2.214864e+002
3.481676e+002, 2.231951e+002
3.486497e+002, 2.247344e+002
3.491318e+002, 2.259092e+002
3.496140e+002, 2.271410e+002
3.500961e+002, 2.286409e+002
3.505782e+002, 2.303308e+002
3.510603e+002, 2.320343e+002
3.515424e+002, 2.336488e+002
3.520245e+002, 2.351767e+002
3.525067e+002, 2.366406e+002
3.529888e+002, 2.381877e+002
3.534709e+002, 2.394860e+002
3.539530e+002, 2.400331e+002
3.544351e+002, 2.404875e+002
3.549172e+002, 2.417812e+002
3.553994e+002, 2.442113e+002
3.558815e+002, 2.470694e+002
3.563636e+002, 2.491701e+002
3.568457e+002, 2.501211e+002
3.573278e+002, 2.510329e+002
3.578099e+002, 2.518154e+002
3.582920e+002, 2.526282e+002
3.587741e+002, 2.535329e+002
3.592563e+002, 2.545634e+002
3.597384e+002, 2.557834e+002
3.602205e+002, 2.573175e+002
3.607026e+002, 2.592424e+002
3.611847e+002, 2.607219e+002
3.616668e+002, 2.613094e+002
3.621490e+002, 2.619431e+002
3.626311e+002, 2.632955e+002
3.631132e+002, 2.649003e+002
3.635953e+002, 2.657961e+002
3.640774e+002, 2.653635e+002
3.645595e+002, 2.638995e+002
3.650417e+002, 2.626552e+002
3.655238e+002, 2.616589e+002
3.660059e+002, 2.608796e+002
3.664880e+002, 2.606605e+002
3.669701e+002, 2.604726e+002
3.674522e+002, 2.597901e+002
3.679344e+002, 2.584540e+002
3.684165e+002, 2.567043e+002
3.688986e+002, 2.548673e+002
3.693807e+002, 2.529011e+002
3.698628e+002, 2.509711e+002
3.703449e+002, 2.493484e+002
3.708271e+002, 2.475396e+002
3.713092e+002, 2.450691e+002
3.717913e+002, 2.420815e+002
3.722734e+002, 2.391664e+002
3.727555e+002, 2.368779e+002
3.732376e+002, 2.352016e+002
3.737198e+002, 2.335244e+002
3.742019e+002, 2.318080e+002
3.746840e+002, 2.301406e+002
3.751661e+002, 2.282466e+002
3.756482e+002, 2.264762e+002
3.761303e+002, 2.254673e+002
3.766125e+002, 2.256525e+002
3.770946e+002, 2.264594e+002
3.775767e+002, 2.265708e+002
3.780588e+002, 2.257230e+002
3.785409e+002, 2.249201e+002
3.790230e+002, 2.245443e+002
3.795052e+002, 2.242538e+002
3.799873e+002, 2.239097e+002
3.804694e+002, 2.234744e+002
3.809515e+002, 2.226423e+002
3.814336e+002, 2.209911e+002
3.819157e+002, 2.185328e+002
3.823979e+002, 2.160522e+002
3.828800e+002, 2.138059e+002
3.833621e+002, 2.113387e+002
3.838442e+002, 2.082456e+002
3.843263e+002, 2.046809e+002
3.848084e+002, 2.011208e+002
3.852906e+002, 1.975980e+002
3.857727e+002, 1.943271e+002
3.862548e+002, 1.920125e+002
3.867369e+002, 1.910029e+002
3.872190e+002, 1.897126e+002
3.877011e+002, 1.869259e+002
3.881833e+002, 1.833559e+002
3.886654e+002, 1.798998e+002
3.891475e+002, 1.765713e+002
3.896296e+002, 1.736722e+002
3.901117e+002, 1.715582e+002
3.905938e+002, 1.701630e+002
3.910760e+002, 1.690621e+002
3.915581e+002, 1.682123e+002
3.920402e+002, 1.674927e+002
3.925223e+002, 1.667538e+002
3.930044e+002, 1.660032e+002
3.934865e+002, 1.651867e+002
3.939687e+002, 1.641258e+002
3.944508e+002, 1.630381e+002
3.949329e+002, 1.623309e+002
3.954150e+002, 1.620803e+002
3.958971e+002, 1.619469e+002
3.963792e+002, 1.616265e+002
3.968614e+002, 1.611405e+002
3.973435e+002, 1.607649e+002
3.978256e+002, 1.605331e+002
3.983077e+002, 1.603902e+002
3.987898e+002, 1.603445e+002
3.992719e+002, 1.603658e+002
3.997540e+002, 1.603200e+002
4.002361e+002, 1.600951e+002
4.007183e+002, 1.598310e+002
4.012004e+002, 1.599727e+002
4.016825e+002, 1.607511e+002
4.021646e+002, 1.614585e+002
4.026467e+002, 1.618621e+002
4.031288e+002, 1.621834e+002
4.036110e+002, 1.627821e+002
4.040931e+002, 1.637081e+002
4.045752e+002, 1.645347e+002
4.050573e+002, 1.647170e+002
4.055394e+002, 1.640684e+002
4.060215e+002, 1.636879e+002
4.065037e+002, 1.635717e+002
4.069858e+002, 1.636880e+002
4.074679e+002, 1.642388e+002
4.079500e+002, 1.650184e+002
4.084321e+002, 1.655486e+002
4.089142e+002, 1.655160e+002
4.093964e+002, 1.650441e+002
4.098785e+002, 1.647045e+002
4.103606e+002, 1.645500e+002
4.108427e+002, 1.644744e+002
4.113248e+002, 1.644553e+002
4.118069e+002, 1.645145e+002
4.122891e+002, 1.647496e+002
4.127712e+002, 1.651535e+002
4.132533e+002, 1.655122e+002
4.137354e+002, 1.654890e+002
4.142175e+002, 1.649358e+002
4.146996e+002, 1.645945e+002
4.151818e+002, 1.646199e+002
4.156639e+002, 1.647224e+002
4.161460e+002, 1.648103e+002
4.166281e+002, 1.648878e+002
4.171102e+002, 1.649890e+002
4.175923e+002, 1.651368e+002
4.180745e+002, 1.653247e+002
4.185566e+002, 1.655572e+002
4.190387e+002, 1.659175e+002
4.195208e+002, 1.661309e+002
4.200029e+002, 1.658432e+002
4.204850e+002, 1.655224e+002
4.209672e+002, 1.656963e+002
4.214493e+002, 1.665043e+002
4.219314e+002, 1.673833e+002
4.224135e+002, 1.677033e+002
4.228956e+002, 1.674945e+002
4.233777e+002, 1.673461e+002
4.238599e+002, 1.671266e+002
4.243420e+002, 1.673163e+002
4.248241e+002, 1.685015e+002
4.253062e+002, 1.704141e+002
4.257883e+002, 1.720871e+002
4.262704e+002, 1.728881e+002
4.267526e+002, 1.733240e+002
4.272347e+002, 1.740849e+002
4.277168e+002, 1.751822e+002
4.281989e+002, 1.765518e+002
4.286810e+002, 1.781660e+002
4.291631e+002, 1.800533e+002
4.296453e+002, 1.821808e+002
4.301274e+002, 1.845766e+002
4.306095e+002, 1.871535e+002
4.310916e+002, 1.900102e+002
4.315737e+002, 1.929840e+002
4.320558e+002, 1.957354e+002
4.325380e+002, 1.981468e+002
4.330201e+002, 2.004613e+002
4.335022e+002, 2.029525e+002
4.339843e+002, 2.056419e+002
4.344664e+002, 2.083330e+002
4.349485e+002, 2.112486e+002
4.354307e+002, 2.139676e+002
4.359128e+002, 2.162869e+002
4.363949e+002, 2.181678e+002
4.368770e+002, 2.195009e+002
4.373591e+002, 2.201666e+002
4.378412e+002, 2.203490e+002
4.383234e+002, 2.207378e+002
4.388055e+002, 2.217754e+002
4.392876e+002, 2.224528e+002
4.397697e+002, 2.224170e+002
4.402518e+002, 2.221541e+002
4.407339e+002, 2.220929e+002
4.412160e+002, 2.223308e+002
4.416982e+002, 2.227433e+002
4.421803e+002, 2.232221e+002
4.426624e+002, 2.238078e+002
4.431445e+002, 2.241742e+002
4.436266e+002, 2.239241e+002
4.441087e+002, 2.238668e+002
4.445909e+002, 2.243364e+002
4.450730e+002, 2.251504e+002
4.455551e+002, 2.260457e+002
4.460372e+002, 2.269065e+002
4.465193e+002, 2.276511e+002
4.470014e+002, 2.279856e+002
4.474836e+002, 2.276124e+002
4.479657e+002, 2.277204e+002
4.484478e+002, 2.289233e+002
4.489299e+002, 2.303941e+002
4.494120e+002, 2.316803e+002
4.498941e+002, 2.327354e+002
4.503763e+002, 2.337004e+002
4.508584e+002, 2.346193e+002
4.513405e+002, 2.355244e+002
4.518226e+002, 2.365483e+002
4.523047e+002, 2.377268e+002
4.527868e+002, 2.389261e+002
4.532690e+002, 2.399440e+002
4.537511e+002, 2.409615e+002
4.542332e+002, 2.422872e+002
4.547153e+002, 2.440877e+002
4.551974e+002, 2.459969e+002
4.556795e+002, 2.476208e+002
4.561617e+002, 2.490662e+002
4.566438e+002, 2.508409e+002
4.571259e+002, 2.531177e+002
4.576080e+002, 2.557176e+002
4.580901e+002, 2.584791e+002
4.585722e+002, 2.613927e+002
4.590544e+002, 2.643569e+002
4.595365e+002, 2.669537e+002
4.600186e+002, 2.698744e+002
4.605007e+002, 2.738582e+002
4.609828e+002, 2.788092e+002
4.614649e+002, 2.839806e+002
4.619471e+002, 2.889142e+002
4.624292e+002, 2.937615e+002
4.629113e+002, 2.992985e+002
4.633934e+002, 3.051925e+002
4.638755e+002, 3.121470e+002
4.643576e+002, 3.201713e+002
4.648398e+002, 3.294004e+002
4.653219e+002, 3.400626e+002
4.658040e+002, 3.521807e+002
4.662861e+002, 3.652912e+002
4.667682e+002, 3.787906e+002
4.672503e+002, 3.926710e+002
4.677325e+002, 4.080935e+002
4.682146e+002, 4.249999e+002
4.686967e+002, 4.435943e+002
4.691788e+002, 4.636115e+002
4.696609e+002, 4.854488e+002
4.701430e+002, 5.096216e+002
4.706252e+002, 5.363941e+002
4.711073e+002, 5.652501e+002
4.715894e+002, 5.953034e+002
4.720715e+002, 6.264263e+002
4.725536e+002, 6.591048e+002
4.730357e+002, 6.937571e+002
4.735179e+002, 7.296976e+002
4.740000e+002, 7.671608e+002
4.744821e+002, 8.055675e+002
4.749642e+002, 8.438961e+002
4.754463e+002, 8.823240e+002
4.759284e+002, 9.197240e+002
4.764106e+002, 9.549642e+002
4.768927e+002, 9.884821e+002
4.773748e+002, 1.016324e+003
4.778569e+002, 1.037222e+003
4.783390e+002, 1.050340e+003
4.788211e+002, 1.055624e+003
4.793033e+002, 1.053144e+003
4.797854e+002, 1.042532e+003
4.802675e+002, 1.022594e+003
4.807496e+002, 9.945912e+002
4.812317e+002, 9.598538e+002
4.817138e+002, 9.184695e+002
4.821959e+002, 8.732464e+002
4.826780e+002, 8.256918e+002
4.831602e+002, 7.759336e+002
4.836423e+002, 7.269876e+002
4.841244e+002, 6.773295e+002
4.846065e+002, 6.301795e+002
4.850886e+002, 5.862568e+002
4.855707e+002, 5.456324e+002
4.860529e+002, 5.084952e+002
4.865350e+002, 4.747769e+002
4.870171e+002, 4.443061e+002
4.874992e+002, 4.171449e+002
4.879813e+002, 3.936504e+002
4.884634e+002, 3.721935e+002
4.889456e+002, 3.524851e+002
4.894277e+002, 3.347468e+002
4.899098e+002, 3.196288e+002
4.903919e+002, 3.066157e+002
4.908740e+002, 2.946940e+002
4.913561e+002, 2.833032e+002
4.918383e+002, 2.726141e+002
4.923204e+002, 2.631325e+002
4.928025e+002, 2.550440e+002
4.932846e+002, 2.477188e+002
4.937667e+002, 2.413745e+002
4.942488e+002, 2.355688e+002
4.947310e+002, 2.299881e+002
4.952131e+002, 2.246509e+002
4.956952e+002, 2.198327e+002
4.961773e+002, 2.159243e+002
4.966594e+002, 2.127002e+002
4.971415e+002, 2.096048e+002
4.976237e+002, 2.066319e+002
4.981058e+002, 2.037418e+002
4.985879e+002, 2.008380e+002
4.990700e+002, 1.980093e+002
4.995521e+002, 1.953875e+002
5.000342e+002, 1.928921e+002
5.005164e+002, 1.907957e+002
5.009985e+002, 1.894728e+002
5.014806e+002, 1.885628e+002
5.019627e+002, 1.873811e+002
5.024448e+002, 1.857894e+002
5.029269e+002, 1.841058e+002
5.034091e+002, 1.826101e+002
5.038912e+002, 1.813002e+002
5.043733e+002, 1.801470e+002
5.048554e+002, 1.791411e+002
5.053375e+002, 1.782824e+002
5.058196e+002, 1.776031e+002
5.063018e+002, 1.770603e+002
5.067839e+002, 1.766532e+002
5.072660e+002, 1.763694e+002
5.077481e+002, 1.760554e+002
5.082302e+002, 1.754078e+002
5.087123e+002, 1.741875e+002
5.091945e+002, 1.734985e+002
5.096766e+002, 1.738951e+002
5.101587e+002, 1.742711e+002
5.106408e+002, 1.740760e+002
5.111229e+002, 1.735698e+002
5.116050e+002, 1.732762e+002
5.120872e+002, 1.734530e+002
5.125693e+002, 1.739772e+002
5.130514e+002, 1.747054e+002
5.135335e+002, 1.756841e+002
5.140156e+002, 1.765325e+002
5.144977e+002, 1.771731e+002
5.149799e+002, 1.776442e+002
5.154620e+002, 1.778701e+002
5.159441e+002, 1.779125e+002
5.164262e+002, 1.781651e+002
5.169083e+002, 1.790573e+002
5.173904e+002, 1.800988e+002
5.178726e+002, 1.804552e+002
5.183547e+002, 1.801970e+002
5.188368e+002, 1.804312e+002
5.193189e+002, 1.818167e+002
5.198010e+002, 1.838452e+002
5.202831e+002, 1.852971e+002
5.207653e+002, 1.859154e+002
5.212474e+002, 1.868450e+002
5.217295e+002, 1.886786e+002
5.222116e+002, 1.906150e+002
5.226937e+002, 1.917887e+002
5.231758e+002, 1.922847e+002
5.236580e+002, 1.928976e+002
5.241401e+002, 1.942047e+002
5.246222e+002, 1.960785e+002
5.251043e+002, 1.979080e+002
5.255864e+002, 1.996426e+002
5.260685e+002, 2.013829e+002
5.265507e+002, 2.030618e+002
5.270328e+002, 2.048093e+002
5.275149e+002, 2.067627e+002
5.279970e+002, 2.089123e+002
5.284791e+002, 2.111077e+002
5.289612e+002, 2.132859e+002
5.294434e+002, 2.154035e+002
5.299255e+002, 2.171358e+002
5.304076e+002, 2.182134e+002
5.308897e+002, 2.195242e+002
5.313718e+002, 2.219049e+002
5.318539e+002, 2.244944e+002
5.323361e+002, 2.263141e+002
5.328182e+002, 2.271084e+002
5.333003e+002, 2.279047e+002
5.337824e+002, 2.296250e+002
5.342645e+002, 2.317824e+002
5.347466e+002, 2.333271e+002
5.352288e+002, 2.341056e+002
5.357109e+002, 2.345259e+002
5.361930e+002, 2.347748e+002
5.366751e+002, 2.349144e+002
5.371572e+002, 2.353040e+002
5.376393e+002, 2.364693e+002
5.381215e+002, 2.372228e+002
5.386036e+002, 2.369061e+002
5.390857e+002, 2.361428e+002
5.395678e+002, 2.358041e+002
5.400499e+002, 2.360221e+002
5.405320e+002, 2.361606e+002
5.410142e+002, 2.354976e+002
5.414963e+002, 2.339989e+002
5.419784e+002, 2.328553e+002
5.424604e+002, 2.326951e+002
5.429426e+002, 2.321429e+002
5.434247e+002, 2.307123e+002
5.439068e+002, 2.288526e+002
5.443889e+002, 2.270544e+002
5.448710e+002, 2.254532e+002
5.453531e+002, 2.239118e+002
5.458353e+002, 2.224012e+002
5.463174e+002, 2.208855e+002
5.467995e+002, 2.189717e+002
5.472816e+002, 2.165134e+002
5.477637e+002, 2.139337e+002
5.482458e+002, 2.114685e+002
5.487280e+002, 2.090652e+002
5.492101e+002, 2.065891e+002
5.496922e+002, 2.039270e+002
5.501743e+002, 2.014093e+002
5.506564e+002, 1.993709e+002
5.511385e+002, 1.975959e+002
5.516207e+002, 1.955840e+002
5.521028e+002, 1.932262e+002
5.525849e+002, 1.908357e+002
5.530670e+002, 1.886833e+002
5.535491e+002, 1.867652e+002
5.540313e+002, 1.850641e+002
5.545134e+002, 1.838054e+002
5.549955e+002, 1.824625e+002
5.554776e+002, 1.807918e+002
5.559597e+002, 1.789925e+002
5.564418e+002, 1.773183e+002
5.569240e+002, 1.758312e+002
5.574061e+002, 1.744648e+002
5.578882e+002, 1.731130e+002
5.583703e+002, 1.717748e+002
5.588524e+002, 1.706782e+002
5.593345e+002, 1.701338e+002
5.598167e+002, 1.693874e+002
5.602988e+002, 1.680732e+002
5.607809e+002, 1.664900e+002
5.612630e+002, 1.649647e+002
5.617451e+002, 1.635798e+002
5.622272e+002, 1.622900e+002
5.627094e+002, 1.610521e+002
5.631915e+002, 1.598770e+002
5.636736e+002, 1.588865e+002
5.641557e+002, 1.581639e+002
5.646378e+002, 1.572324e+002
5.651199e+002, 1.556326e+002
5.656021e+002, 1.535337e+002
5.660842e+002, 1.517281e+002
5.665663e+002, 1.502269e+002
5.670484e+002, 1.490000e+002
5.675305e+002, 1.483807e+002
5.680126e+002, 1.478698e+002
5.684948e+002, 1.467172e+002
5.689769e+002, 1.448657e+002
5.694590e+002, 1.429076e+002
5.699411e+002, 1.413818e+002
5.704232e+002, 1.402779e+002
5.709053e+002, 1.395166e+002
5.713875e+002, 1.396352e+002
5.718696e+002, 1.393637e+002
5.723517e+002, 1.382802e+002
5.728338e+002, 1.368793e+002
5.733159e+002, 1.355406e+002
5.737980e+002, 1.343555e+002
5.742802e+002, 1.333413e+002
5.747623e+002, 1.326491e+002
5.752444e+002, 1.321558e+002
5.757265e+002, 1.312611e+002
5.762086e+002, 1.298298e+002
5.766907e+002, 1.285668e+002
5.771729e+002, 1.278269e+002
5.776550e+002, 1.274648e+002
5.781371e+002, 1.272574e+002
5.786192e+002, 1.272505e+002
5.791013e+002, 1.271734e+002
5.795834e+002, 1.269637e+002
5.800656e+002, 1.266073e+002
5.805477e+002, 1.260825e+002
5.810298e+002, 1.253921e+002
5.815119e+002, 1.244754e+002
5.819940e+002, 1.232141e+002
5.824761e+002, 1.218520e+002
5.829583e+002, 1.212318e+002
5.834404e+002, 1.221088e+002
5.839225e+002, 1.225929e+002
5.844046e+002, 1.223095e+002
5.848867e+002, 1.219347e+002
5.853688e+002, 1.220062e+002
5.858510e+002, 1.224047e+002
5.863331e+002, 1.226134e+002
5.868152e+002, 1.222639e+002
5.872973e+002, 1.216068e+002
5.877794e+002, 1.212338e+002
5.882615e+002, 1.211912e+002
5.887437e+002, 1.210922e+002
5.892258e+002, 1.206715e+002
5.897079e+002, 1.203634e+002
5.901900e+002, 1.207618e+002
5.906721e+002, 1.217193e+002
5.911542e+002, 1.222556e+002
5.916364e+002, 1.216442e+002
5.921185e+002, 1.208581e+002
5.926006e+002, 1.207335e+002
5.930827e+002, 1.211227e+002
5.935648e+002, 1.216187e+002
5.940469e+002, 1.220941e+002
5.945291e+002, 1.224226e+002
5.950112e+002, 1.223965e+002
5.954933e+002, 1.219038e+002
5.959754e+002, 1.215679e+002
5.964575e+002, 1.213352e+002
5.969396e+002, 1.212935e+002
5.974218e+002, 1.215994e+002
5.979039e+002, 1.220701e+002
5.983860e+002, 1.225032e+002
5.988681e+002, 1.228219e+002
5.993502e+002, 1.229515e+002
5.998323e+002, 1.226487e+002
6.003145e+002, 1.219419e+002
6.007966e+002, 1.217265e+002
6.012787e+002, 1.222558e+002
6.017608e+002, 1.228164e+002
6.022429e+002, 1.230276e+002
6.027250e+002, 1.229991e+002
6.032072e+002, 1.228702e+002
6.036893e+002, 1.226545e+002
6.041714e+002, 1.223440e+002
6.046535e+002, 1.218270e+002
6.051356e+002, 1.212575e+002
6.056177e+002, 1.209439e+002
6.060999e+002, 1.208836e+002
6.065820e+002, 1.207089e+002
6.070641e+002, 1.201575e+002
6.075462e+002, 1.192823e+002
6.080283e+002, 1.182991e+002
6.085104e+002, 1.167956e+002
6.089926e+002, 1.158039e+002
6.094747e+002, 1.157671e+002
6.099568e+002, 1.159083e+002
6.104389e+002, 1.156426e+002
6.109210e+002, 1.150352e+002
6.114031e+002, 1.145465e+002
6.118853e+002, 1.145406e+002
6.123674e+002, 1.147084e+002
6.128495e+002, 1.143598e+002
6.133316e+002, 1.134503e+002
6.138137e+002, 1.124915e+002
6.142958e+002, 1.114762e+002
6.147780e+002, 1.106208e+002
6.152601e+002, 1.102160e+002
6.157422e+002, 1.101885e+002
6.162243e+002, 1.101349e+002
6.167064e+002, 1.098447e+002
6.171885e+002, 1.096308e+002
6.176707e+002, 1.098426e+002
6.181528e+002, 1.102488e+002
6.186349e+002, 1.103458e+002
6.191170e+002, 1.099908e+002
6.195991e+002, 1.094743e+002
6.200812e+002, 1.091247e+002
6.205634e+002, 1.089457e+002
6.210455e+002, 1.088585e+002
6.215276e+002, 1.089109e+002
6.220097e+002, 1.090025e+002
6.224918e+002, 1.093194e+002
6.229739e+002, 1.095484e+002
6.234561e+002, 1.091939e+002
6.239382e+002, 1.082306e+002
6.244203e+002, 1.074396e+002
6.249023e+002, 1.077049e+002
6.253845e+002, 1.085928e+002
6.258666e+002, 1.088607e+002
6.263487e+002, 1.084292e+002
6.268308e+002, 1.080383e+002
6.273129e+002, 1.080181e+002
6.277950e+002, 1.082392e+002
6.282772e+002, 1.085280e+002
6.287593e+002, 1.089617e+002
6.292414e+002, 1.091175e+002
6.297235e+002, 1.086365e+002
6.302056e+002, 1.081236e+002
6.306877e+002, 1.080387e+002
6.311699e+002, 1.082618e+002
6.316520e+002, 1.084087e+002
6.321341e+002, 1.083022e+002
6.326162e+002, 1.081684e+002
6.330983e+002, 1.084949e+002
6.335804e+002, 1.094743e+002
6.340626e+002, 1.098911e+002
6.345447e+002, 1.091562e+002
6.350268e+002, 1.086082e+002
6.355089e+002, 1.090970e+002
6.359910e+002, 1.100378e+002
6.364731e+002, 1.105208e+002
6.369553e+002, 1.102738e+002
6.374374e+002, 1.098168e+002
6.379195e+002, 1.095016e+002
6.384016e+002, 1.092378e+002
6.388837e+002, 1.088142e+002
6.393658e+002, 1.082157e+002
6.398480e+002, 1.076229e+002
6.403301e+002, 1.071176e+002
6.408122e+002, 1.067443e+002
6.412943e+002, 1.066590e+002
6.417764e+002, 1.073020e+002
6.422585e+002, 1.075780e+002
6.427407e+002, 1.071901e+002
6.432228e+002, 1.067006e+002
6.437049e+002, 1.064291e+002
6.441870e+002, 1.063601e+002
6.446691e+002, 1.063567e+002
6.451512e+002, 1.063513e+002
6.456334e+002, 1.063627e+002
6.461155e+002, 1.064709e+002
6.465976e+002, 1.066741e+002
6.470797e+002, 1.066527e+002
6.475618e+002, 1.062128e+002
6.480439e+002, 1.058580e+002
6.485261e+002, 1.061240e+002
6.490082e+002, 1.067873e+002
6.494903e+002, 1.071372e+002
6.499724e+002, 1.069835e+002
6.504545e+002, 1.067232e+002
6.509366e+002, 1.063893e+002
6.514188e+002, 1.060984e+002
6.519009e+002, 1.061121e+002
6.523830e+002, 1.063742e+002
6.528651e+002, 1.064168e+002
6.533472e+002, 1.058427e+002
6.538293e+002, 1.048900e+002
6.543115e+002, 1.045177e+002
6.547936e+002, 1.051356e+002
6.552757e+002, 1.053385e+002
6.557578e+002, 1.045291e+002
6.562399e+002, 1.035969e+002
6.567220e+002, 1.029287e+002
6.572042e+002, 1.025349e+002
6.576863e+002, 1.023911e+002
6.581684e+002, 1.026542e+002
6.586505e+002, 1.028946e+002
6.591326e+002, 1.025070e+002
6.596147e+002, 1.017785e+002
6.600969e+002, 1.016262e+002
6.605790e+002, 1.022645e+002
6.610611e+002, 1.029299e+002
6.615432e+002, 1.029421e+002
6.620253e+002, 1.023638e+002
6.625074e+002, 1.018738e+002
6.629896e+002, 1.013232e+002
6.634717e+002, 1.010686e+002
6.639538e+002, 1.013883e+002
6.644359e+002, 1.018256e+002
6.649180e+002, 1.020323e+002
6.654001e+002, 1.020080e+002
6.658823e+002, 1.019458e+002
6.663644e+002, 1.019902e+002
6.668465e+002, 1.020217e+002
6.673286e+002, 1.017248e+002
6.678107e+002, 1.011159e+002
6.682928e+002, 1.008018e+002
6.687750e+002, 1.009949e+002
6.692571e+002, 1.013338e+002
6.697392e+002, 1.015562e+002
6.702213e+002, 1.016414e+002
6.707034e+002, 1.014901e+002
6.711855e+002, 1.008198e+002
6.716677e+002, 1.002582e+002
6.721498e+002, 1.000053e+002
6.726319e+002, 9.996274e+001
6.731140e+002, 1.001420e+002
6.735961e+002, 1.004559e+002
6.740782e+002, 1.005948e+002
6.745604e+002, 1.002900e+002
6.750425e+002, 9.969014e+001
6.755246e+002, 9.922717e+001
6.760067e+002, 9.885371e+001
6.764888e+002, 9.886034e+001
6.769709e+002, 9.963803e+001
6.774531e+002, 1.004394e+002
6.779352e+002, 1.006415e+002
6.784173e+002, 1.003752e+002
6.788994e+002, 1.000925e+002
6.793815e+002, 9.987088e+001
6.798636e+002, 9.969044e+001
6.803458e+002, 9.948715e+001
6.808279e+002, 9.933797e+001
6.813100e+002, 9.937298e+001
6.817921e+002, 9.960767e+001
6.822742e+002, 9.999429e+001
6.827563e+002, 1.005433e+002
6.832385e+002, 1.011518e+002
6.837206e+002, 1.012652e+002
6.842027e+002, 1.005311e+002
6.846848e+002, 1.000716e+002
6.851669e+002, 1.002710e+002
6.856490e+002, 1.005793e+002
6.861312e+002, 1.007066e+002
6.866133e+002, 1.006804e+002
6.870954e+002, 1.006356e+002
6.875775e+002, 1.006126e+002
6.880596e+002, 1.006045e+002
6.885417e+002, 1.004782e+002
6.890239e+002, 1.003821e+002
6.895060e+002, 1.008235e+002
6.899881e+002, 1.018751e+002
6.904702e+002, 1.027401e+002
6.909523e+002, 1.027393e+002
6.914344e+002, 1.020798e+002
6.919166e+002, 1.018250e+002
6.923987e+002, 1.025210e+002
6.928808e+002, 1.027420e+002
6.933629e+002, 1.019670e+002
6.938450e+002, 1.011456e+002
6.943271e+002, 1.008651e+002
6.948093e+002, 1.010148e+002
6.952914e+002, 1.011919e+002
6.957735e+002, 1.012049e+002
6.962556e+002, 1.012304e+002
6.967377e+002, 1.015781e+002
6.972198e+002, 1.021104e+002
6.977020e+002, 1.023098e+002
6.981841e+002, 1.020827e+002
6.986662e+002, 1.017351e+002
6.991483e+002, 1.014520e+002
6.996304e+002, 1.012316e+002
7.001125e+002, 1.010713e+002
7.005947e+002, 1.009377e+002
7.010768e+002, 1.009243e+002
7.015589e+002, 1.012906e+002
7.020410e+002, 1.015397e+002
7.025231e+002, 1.012246e+002
7.030052e+002, 1.005762e+002
7.034874e+002, 1.001218e+002
7.039695e+002, 1.000989e+002
7.044516e+002, 1.002468e+002
7.049337e+002, 1.002753e+002
7.054158e+002, 1.002024e+002
7.058979e+002, 1.001336e+002
7.063801e+002, 1.000928e+002
7.068622e+002, 9.995193e+001
7.073442e+002, 9.962203e+001
7.078264e+002, 9.914964e+001
7.083085e+002, 9.862221e+001
7.087906e+002, 9.791409e+001
7.092727e+002, 9.746931e+001
7.097548e+002, 9.758584e+001
7.102369e+002, 9.770745e+001
7.107191e+002, 9.743133e+001
7.112012e+002, 9.694434e+001
7.116833e+002, 9.667947e+001
7.121654e+002, 9.678291e+001
7.126475e+002, 9.684525e+001
7.131296e+002, 9.616379e+001
7.136118e+002, 9.496378e+001
7.140939e+002, 9.468397e+001
7.145760e+002, 9.557108e+001
7.150581e+002, 9.601232e+001
7.155402e+002, 9.496085e+001
7.160223e+002, 9.338469e+001
7.165045e+002, 9.306742e+001
7.169866e+002, 9.428704e+001
7.174687e+002, 9.495223e+001
7.179508e+002, 9.441228e+001
7.184329e+002, 9.378918e+001
7.189150e+002, 9.363251e+001
7.193972e+002, 9.374838e+001
7.198793e+002, 9.386904e+001
7.203614e+002, 9.389970e+001
7.208435e+002, 9.378867e+001
7.213256e+002, 9.337915e+001
7.218077e+002, 9.280901e+001
7.222899e+002, 9.270297e+001
7.227720e+002, 9.313050e+001
7.232541e+002, 9.343225e+001
7.237362e+002, 9.336716e+001
7.242183e+002, 9.314245e+001
7.247004e+002, 9.300534e+001
7.251826e+002, 9.295107e+001
7.256647e+002, 9.278545e+001
7.261468e+002, 9.224363e+001
7.266289e+002, 9.189404e+001
7.271110e+002, 9.211623e+001
7.275931e+002, 9.253539e+001
7.280753e+002, 9.268560e+001
7.285574e+002, 9.255222e+001
7.290395e+002, 9.248374e+001
7.295216e+002, 9.275677e+001
7.300037e+002, 9.322056e+001
7.304858e+002, 9.366188e+001
7.309680e+002, 9.409819e+001
7.314501e+002, 9.383639e+001
7.319322e+002, 9.245529e+001
7.324143e+002, 9.101830e+001
7.328964e+002, 9.042483e+001
7.333785e+002, 9.053178e+001
7.338607e+002, 9.048487e+001
7.343428e+002, 8.998701e+001
7.348249e+002, 8.979380e+001
7.353070e+002, 9.044347e+001
7.357891e+002, 9.114585e+001
7.362712e+002, 9.107449e+001
7.367534e+002, 9.047697e+001
7.372355e+002, 9.025832e+001
7.377176e+002, 9.090182e+001
7.381997e+002, 9.175925e+001
7.386818e+002, 9.176866e+001
7.391639e+002, 9.103799e+001
7.396461e+002, 9.065262e+001
7.401282e+002, 9.077342e+001
7.406103e+002, 9.089363e+001
7.410924e+002, 9.071613e+001
7.415745e+002, 9.037107e+001
7.420566e+002, 9.011898e+001
7.425388e+002, 8.991311e+001
7.430209e+002, 8.994083e+001
7.435030e+002, 9.037668e+001
7.439851e+002, 9.088457e+001
7.444672e+002, 9.146783e+001
7.449493e+002, 9.193723e+001
7.454315e+002, 9.194489e+001
7.459136e+002, 9.143235e+001
7.463957e+002, 9.084936e+001
7.468778e+002, 9.067437e+001
7.473599e+002, 9.076114e+001
7.478420e+002, 9.060918e+001
7.483242e+002, 9.020876e+001
7.488063e+002, 8.998155e+001
7.492884e+002, 9.009628e+001
7.497705e+002, 9.037180e+001
7.502526e+002, 9.064182e+001
7.507347e+002, 9.091199e+001
7.512169e+002, 9.099635e+001
7.516990e+002, 9.074222e+001
7.521811e+002, 9.051708e+001
7.526632e+002, 9.038358e+001
7.531453e+002, 9.032536e+001
7.536274e+002, 9.033042e+001
7.541096e+002, 9.039397e+001
7.545917e+002, 9.052438e+001
7.550738e+002, 9.076622e+001
7.555559e+002, 9.099397e+001
7.560380e+002, 9.099148e+001
7.565201e+002, 9.081390e+001
7.570023e+002, 9.066563e+001
7.574844e+002, 9.057081e+001
7.579665e+002, 9.066732e+001
7.584486e+002, 9.112084e+001
7.589307e+002, 9.177449e+001
7.594128e+002, 9.209749e+001
7.598950e+002, 9.186610e+001
7.603771e+002, 9.170494e+001
7.608592e+002, 9.159826e+001
7.613413e+002, 9.157265e+001
7.618234e+002, 9.166808e+001
7.623055e+002, 9.184258e+001
7.627877e+002, 9.205081e+001
7.632698e+002, 9.228297e+001
7.637519e+002, 9.247445e+001
7.642340e+002, 9.265022e+001
7.647161e+002, 9.271720e+001
7.651982e+002, 9.239473e+001
7.656804e+002, 9.177554e+001
7.661625e+002, 9.141204e+001
7.666446e+002, 9.152422e+001
7.671267e+002, 9.185727e+001
7.676088e+002, 9.210305e+001
7.680909e+002, 9.226574e+001
7.685731e+002, 9.226302e+001
7.690552e+002, 9.202622e+001
7.695373e+002, 9.173235e+001
7.700194e+002, 9.132113e+001
7.705015e+002, 9.094653e+001
7.709836e+002, 9.077675e+001
7.714658e+002, 9.077283e+001
7.719479e+002, 9.070779e+001
7.724300e+002, 9.042281e+001
7.729121e+002, 9.016133e+001
7.733942e+002, 9.008488e+001
7.738763e+002, 9.014627e+001
7.743585e+002, 9.038058e+001
7.748406e+002, 9.071894e+001
7.753227e+002, 9.080338e+001
7.758048e+002, 9.036759e+001
7.762869e+002, 8.967551e+001
7.767690e+002, 8.936621e+001
7.772512e+002, 8.949557e+001
7.777333e+002, 8.967900e+001
7.782154e+002, 9.011269e+001
7.786975e+002, 9.018042e+001
7.791796e+002, 8.906241e+001
7.796617e+002, 8.757610e+001
7.801439e+002, 8.722084e+001
7.806260e+002, 8.832613e+001
7.811081e+002, 8.910310e+001
7.815902e+002, 8.888213e+001
7.820723e+002, 8.843820e+001
7.825544e+002, 8.822964e+001
7.830366e+002, 8.815620e+001
7.835187e+002, 8.797250e+001
7.840008e+002, 8.763233e+001
7.844829e+002, 8.734310e+001
7.849650e+002, 8.735088e+001
7.854471e+002, 8.752099e+001
7.859293e+002, 8.733627e+001
7.864114e+002, 8.678661e+001
7.868935e+002, 8.667716e+001
7.873756e+002, 8.731049e+001
7.878577e+002, 8.813218e+001
7.883398e+002, 8.867934e+001
7.888220e+002, 8.896725e+001
7.893040e+002, 8.910294e+001
7.897861e+002, 8.901409e+001
7.902682e+002, 8.888655e+001
7.907504e+002, 8.864841e+001
7.912325e+002, 8.845524e+001
7.917146e+002, 8.848738e+001
7.921967e+002, 8.862704e+001
7.926788e+002, 8.860488e+001
7.931609e+002, 8.831086e+001
7.936431e+002, 8.796231e+001
7.941252e+002, 8.770082e+001
7.946073e+002, 8.753385e+001
7.950894e+002, 8.757475e+001
7.955715e+002, 8.776909e+001
7.960536e+002, 8.769416e+001
7.965358e+002, 8.715005e+001
7.970179e+002, 8.652881e+001
7.975000e+002, 8.639240e+001
7.979821e+002, 8.676479e+001
7.984642e+002, 8.702338e+001
7.989464e+002, 8.712473e+001
7.994285e+002, 8.719210e+001
7.999106e+002, 8.734297e+001
8.003927e+002, 8.739906e+001
8.008748e+002, 8.713213e+001
8.013569e+002, 8.662158e+001
8.018391e+002, 8.626099e+001
8.023212e+002, 8.618640e+001
8.028033e+002, 8.623389e+001
8.032854e+002, 8.642506e+001
8.037675e+002, 8.662763e+001
8.042496e+002, 8.661604e+001
8.047318e+002, 8.645251e+001
8.052139e+002, 8.645657e+001
8.056960e+002, 8.681418e+001
8.061781e+002, 8.723760e+001
8.066602e+002, 8.718076e+001
8.071423e+002, 8.669496e+001
8.076245e+002, 8.655067e+001
8.081066e+002, 8.686206e+001
8.085887e+002, 8.705734e+001
8.090708e+002, 8.677573e+001
8.095529e+002, 8.639952e+001
8.100350e+002, 8.658775e+001
8.105172e+002, 8.750117e+001
8.109993e+002, 8.789245e+001
8.114814e+002, 8.727656e+001
8.119635e+002, 8.676335e+001
8.124456e+002, 8.666936e+001
8.129277e+002, 8.680116e+001
8.134099e+002, 8.703699e+001
8.138920e+002, 8.732224e+001
8.143741e+002, 8.757323e+001
8.148562e+002, 8.776153e+001
8.153383e+002, 8.787135e+001
8.158204e+002, 8.777342e+001
8.163026e+002, 8.761086e+001
8.167847e+002, 8.778897e+001
8.172668e+002, 8.830347e+001
8.177489e+002, 8.865034e+001
8.182310e+002, 8.850941e+001
8.187131e+002, 8.823260e+001
8.191953e+002, 8.860840e+001
8.196774e+002, 8.984551e+001
8.201595e+002, 9.035809e+001
8.206416e+002, 8.970475e+001
8.211237e+002, 8.916662e+001
8.216058e+002, 8.934166e+001
8.220880e+002, 8.978298e+001
8.225701e+002, 9.002318e+001
8.230522e+002, 9.006065e+001
8.235343e+002, 9.004766e+001
8.240164e+002, 8.978271e+001
8.244985e+002, 8.974998e+001
8.249807e+002, 9.026126e+001
8.254628e+002, 9.105029e+001
8.259449e+002, 9.187974e+001
8.264270e+002, 9.269073e+001
8.269091e+002, 9.348438e+001
8.273912e+002, 9.428154e+001
8.278734e+002, 9.498366e+001
8.283555e+002, 9.531129e+001
8.288376e+002, 9.541051e+001
8.293197e+002, 9.585822e+001
8.298018e+002, 9.670091e+001
8.302839e+002, 9.799498e+001
8.307661e+002, 9.985011e+001
8.312482e+002, 1.019376e+002
8.317303e+002, 1.037942e+002
8.322124e+002, 1.054658e+002
8.326945e+002, 1.065188e+002
8.331766e+002, 1.069468e+002
8.336588e+002, 1.067238e+002
8.341409e+002, 1.054750e+002
8.346230e+002, 1.039151e+002
8.351051e+002, 1.026781e+002
8.355872e+002, 1.016837e+002
8.360693e+002, 1.003314e+002
8.365515e+002, 9.809733e+001
8.370336e+002, 9.602116e+001
8.375157e+002, 9.478683e+001
8.379978e+002, 9.392781e+001
8.384799e+002, 9.289849e+001
8.389620e+002, 9.172000e+001
8.394442e+002, 9.067619e+001
8.399263e+002, 8.990244e+001
8.404084e+002, 8.930498e+001
8.408905e+002, 8.876606e+001
8.413726e+002, 8.829720e+001
8.418547e+002, 8.800225e+001
8.423369e+002, 8.789540e+001
8.428190e+002, 8.777729e+001
8.433011e+002, 8.757551e+001
8.437832e+002, 8.734019e+001
8.442653e+002, 8.711141e+001
8.447474e+002, 8.689101e+001
8.452296e+002, 8.679932e+001
8.457117e+002, 8.719286e+001
8.461938e+002, 8.718230e+001
8.466759e+002, 8.609708e+001
8.471580e+002, 8.515760e+001
8.476401e+002, 8.541219e+001
8.481223e+002, 8.635038e+001
8.486044e+002, 8.668651e+001
8.490865e+002, 8.593407e+001
8.495686e+002, 8.529356e+001
8.500507e+002, 8.563398e+001
8.505328e+002, 8.622438e+001
8.510150e+002, 8.630093e+001
8.514971e+002, 8.601281e+001
8.519792e+002, 8.579719e+001
8.524613e+002, 8.579339e+001
8.529434e+002, 8.589038e+001
8.534255e+002, 8.601181e+001
8.539077e+002, 8.612326e+001
8.543898e+002, 8.610617e+001
8.548719e+002, 8.596067e+001
8.553540e+002, 8.572305e+001
8.558361e+002, 8.533469e+001
8.563182e+002, 8.516795e+001
8.568004e+002, 8.559245e+001
8.572825e+002, 8.638396e+001
8.577646e+002, 8.683421e+001
8.582467e+002, 8.692773e+001
8.587288e+002, 8.669969e+001
8.592109e+002, 8.563680e+001
8.596931e+002, 8.486028e+001
8.601752e+002, 8.490590e+001
8.606573e+002, 8.537066e+001
8.611394e+002, 8.583196e+001
8.616215e+002, 8.622521e+001
8.621036e+002, 8.649826e+001
8.625858e+002, 8.660094e+001
8.630679e+002, 8.661330e+001
8.635500e+002, 8.661491e+001
8.640321e+002, 8.654763e+001
8.645142e+002, 8.625776e+001
8.649963e+002, 8.579504e+001
8.654785e+002, 8.544144e+001
8.659606e+002, 8.537238e+001
8.664427e+002, 8.539677e+001
8.669248e+002, 8.524146e+001
8.674069e+002, 8.492314e+001
8.678890e+002, 8.444453e+001
8.683712e+002, 8.379485e+001
8.688533e+002, 8.344328e+001
8.693354e+002, 8.365133e+001
8.698175e+002, 8.399283e+001
8.702996e+002, 8.384700e+001
8.707817e+002, 8.320554e+001
8.712639e+002, 8.304573e+001
8.717459e+002, 8.384526e+001
8.722280e+002, 8.428458e+001
8.727101e+002, 8.375956e+001
8.731923e+002, 8.317325e+001
8.736744e+002, 8.311873e+001
8.741565e+002, 8.341239e+001
8.746386e+002, 8.358372e+001
8.751207e+002, 8.355064e+001
8.756028e+002, 8.341379e+001
8.760850e+002, 8.309738e+001
8.765671e+002, 8.279653e+001
8.770492e+002, 8.269441e+001
8.775313e+002, 8.269580e+001
8.780134e+002, 8.258097e+001
8.784955e+002, 8.232939e+001
8.789777e+002, 8.220851e+001
8.794598e+002, 8.255569e+001
8.799419e+002, 8.300008e+001
8.804240e+002, 8.284972e+001
8.809061e+002, 8.226472e+001
8.813882e+002, 8.176918e+001
8.818704e+002, 8.146030e+001
8.823525e+002, 8.144089e+001
8.828346e+002, 8.179928e+001
8.833167e+002, 8.239507e+001
8.837988e+002, 8.300823e+001
8.842809e+002, 8.370869e+001
8.847631e+002, 8.385066e+001
8.852452e+002, 8.316569e+001
8.857273e+002, 8.260001e+001
8.862094e+002, 8.265926e+001
8.866915e+002, 8.279163e+001
8.871736e+002, 8.221333e+001
8.876558e+002, 8.100123e+001
8.881379e+002, 8.034113e+001
8.886200e+002, 8.081670e+001
8.891021e+002, 8.106787e+001
8.895842e+002, 8.050450e+001
8.900663e+002, 7.997989e+001
8.905485e+002, 8.025403e+001
8.910306e+002, 8.096696e+001
8.915127e+002, 8.134841e+001
8.919948e+002, 8.118353e+001
8.924769e+002, 8.084075e+001
8.929590e+002, 8.043045e+001
8.934412e+002, 8.006417e+001
8.939233e+002, 7.982870e+001
8.944054e+002, 7.973986e+001
8.948875e+002, 7.995342e+001
8.953696e+002, 8.041624e+001
8.958517e+002, 8.062095e+001
8.963339e+002, 8.013134e+001
8.968160e+002, 7.935751e+001
8.972981e+002, 7.914352e+001
8.977802e+002, 7.943972e+001
8.982623e+002, 7.974151e+001
8.987444e+002, 7.999826e+001
8.992266e+002, 8.037870e+001
8.997087e+002, 8.105226e+001
9.001908e+002, 8.162673e+001
9.006729e+002, 8.144604e+001
9.011550e+002, 8.045812e+001
9.016371e+002, 7.990374e+001
9.021193e+002, 8.006071e+001
9.026014e+002, 8.013198e+001
9.030835e+002, 7.995329e+001
9.035656e+002, 7.965958e+001
9.040477e+002, 7.925663e+001
9.045298e+002, 7.882091e+001
9.050120e+002, 7.856400e+001
9.054941e+002, 7.857004e+001
9.059762e+002, 7.858121e+001
9.064583e+002, 7.844032e+001
9.069404e+002, 7.838921e+001
9.074225e+002, 7.864272e+001
9.079047e+002, 7.904009e+001
9.083868e+002, 7.940963e+001
9.088689e+002, 7.969128e+001
9.093510e+002, 7.981532e+001
9.098331e+002, 7.971928e+001
9.103152e+002, 7.948068e+001
9.107974e+002, 7.911917e+001
9.112795e+002, 7.869446e+001
9.117616e+002, 7.827155e+001
9.122437e+002, 7.789052e+001
9.127258e+002, 7.766579e+001
9.132079e+002, 7.765187e+001
9.136901e+002, 7.774809e+001
9.141722e+002, 7.777641e+001
9.146543e+002, 7.779194e+001
9.151364e+002, 7.824053e+001
9.156185e+002, 7.914944e+001
9.161006e+002, 7.966504e+001
9.165828e+002, 7.952837e+001
9.170649e+002, 7.915001e+001
9.175470e+002, 7.880171e+001
9.180291e+002, 7.853848e+001
9.185112e+002, 7.859721e+001
9.189933e+002, 7.924760e+001
9.194755e+002, 7.953172e+001
9.199576e+002, 7.933104e+001
9.204397e+002, 7.893115e+001
9.209218e+002, 7.822268e+001
9.214039e+002, 7.751398e+001
9.218860e+002, 7.713039e+001
9.223682e+002, 7.707368e+001
9.228503e+002, 7.721690e+001
9.233324e+002, 7.786894e+001
9.238145e+002, 7.827767e+001
9.242966e+002, 7.795573e+001
9.247787e+002, 7.755806e+001
9.252609e+002, 7.772068e+001
9.257430e+002, 7.818480e+001
9.262251e+002, 7.827012e+001
9.267072e+002, 7.776427e+001
9.271893e+002, 7.735841e+001
9.276714e+002, 7.767501e+001
9.281536e+002, 7.816265e+001
9.286357e+002, 7.831120e+001
9.291178e+002, 7.819227e+001
9.295999e+002, 7.788708e+001
9.300820e+002, 7.747388e+001
9.305641e+002, 7.718095e+001
9.310463e+002, 7.715498e+001
9.315284e+002, 7.731282e+001
9.320105e+002, 7.759969e+001
9.324926e+002, 7.796157e+001
9.329747e+002, 7.812092e+001
9.334568e+002, 7.808123e+001
9.339390e+002, 7.819231e+001
9.344211e+002, 7.859978e+001
9.349032e+002, 7.902487e+001
9.353853e+002, 7.916766e+001
9.358674e+002, 7.905930e+001
9.363495e+002, 7.882609e+001
9.368317e+002, 7.836879e+001
9.373138e+002, 7.825613e+001
9.377959e+002, 7.870596e+001
9.382780e+002, 7.916048e+001
9.387601e+002, 7.928453e+001
9.392422e+002, 7.925213e+001
9.397244e+002, 7.937576e+001
9.402065e+002, 7.968211e+001
9.406886e+002, 7.998125e+001
9.411707e+002, 8.036279e+001
9.416528e+002, 8.061483e+001
9.421349e+002, 8.073216e+001
9.426171e+002, 8.067509e+001
9.430992e+002, 8.015988e+001
9.435813e+002, 7.947968e+001
9.440634e+002, 7.943577e+001
9.445455e+002, 8.038334e+001
9.450276e+002, 8.119698e+001
9.455098e+002, 8.151234e+001
9.459919e+002, 8.153444e+001
9.464740e+002, 8.109982e+001
9.469561e+002, 8.062032e+001
9.474382e+002, 8.074074e+001
9.479203e+002, 8.142429e+001
9.484025e+002, 8.197376e+001
9.488846e+002, 8.192854e+001
9.493667e+002, 8.185397e+001
9.498488e+002, 8.250449e+001
9.503309e+002, 8.335263e+001
9.508130e+002, 8.346870e+001
9.512952e+002, 8.301755e+001
9.517773e+002, 8.278240e+001
9.522594e+002, 8.301238e+001
9.527415e+002, 8.327333e+001
9.532236e+002, 8.312673e+001
9.537057e+002, 8.274348e+001
9.541878e+002, 8.257572e+001
9.546699e+002, 8.257219e+001
9.551520e+002, 8.232927e+001
9.556342e+002, 8.179092e+001
9.561163e+002, 8.136707e+001
9.565984e+002, 8.126437e+001
9.570805e+002, 8.147138e+001
9.575626e+002, 8.205566e+001
9.580447e+002, 8.300664e+001
9.585269e+002, 8.339413e+001
9.590090e+002, 8.301844e+001
9.594911e+002, 8.299715e+001
9.599732e+002, 8.376610e+001
9.604553e+002, 8.448374e+001
9.609374e+002, 8.446321e+001
9.614196e+002, 8.395605e+001
9.619017e+002, 8.367505e+001
9.623838e+002, 8.372749e+001
9.628659e+002, 8.367081e+001
9.633480e+002, 8.334003e+001
9.638301e+002, 8.312295e+001
9.643123e+002, 8.314812e+001
9.647944e+002, 8.330264e+001
9.652765e+002, 8.352885e+001
9.657586e+002, 8.380589e+001
9.662407e+002, 8.405836e+001
9.667228e+002, 8.429281e+001
9.672050e+002, 8.447136e+001
9.676871e+002, 8.458571e+001
9.681692e+002, 8.464294e+001
9.686513e+002, 8.457752e+001
9.691334e+002, 8.449746e+001
9.696155e+002, 8.450539e+001
9.700977e+002, 8.463277e+001
9.705798e+002, 8.496380e+001
9.710619e+002, 8.585225e+001
9.715440e+002, 8.643877e+001
9.720261e+002, 8.575706e+001
9.725082e+002, 8.483344e+001
9.729904e+002, 8.490614e+001
9.734725e+002, 8.563344e+001
9.739546e+002, 8.597424e+001
9.744367e+002, 8.565434e+001
9.749188e+002, 8.539540e+001
9.754009e+002, 8.596138e+001
9.758831e+002, 8.668369e+001
9.763652e+002, 8.644878e+001
9.768473e+002, 8.575744e+001
9.773294e+002, 8.585901e+001
9.778115e+002, 8.669553e+001
9.782936e+002, 8.710116e+001
9.787758e+002, 8.652589e+001
9.792579e+002, 8.575523e+001
9.797400e+002, 8.575744e+001
9.802221e+002, 8.635299e+001
9.807042e+002, 8.707915e+001
9.811863e+002, 8.788609e+001
9.816685e+002, 8.838928e+001
9.821506e+002, 8.851128e+001
9.826327e+002, 8.822853e+001
9.831148e+002, 8.746464e+001
9.835969e+002, 8.657468e+001
9.840790e+002, 8.627109e+001
9.845612e+002, 8.655857e+001
9.850433e+002, 8.677126e+001
9.855254e+002, 8.690218e+001
9.860075e+002, 8.699796e+001
9.864896e+002, 8.707296e+001
9.869717e+002, 8.711291e+001
9.874539e+002, 8.712003e+001
9.879360e+002, 8.706777e+001
9.884181e+002, 8.682407e+001
9.889002e+002, 8.619166e+001
9.893823e+002, 8.610595e+001
9.898644e+002, 8.691615e+001
9.903466e+002, 8.760098e+001
9.908287e+002, 8.783611e+001
9.913108e+002, 8.782970e+001
9.917929e+002, 8.773929e+001
9.922750e+002, 8.757468e+001
9.927571e+002, 8.738238e+001
9.932393e+002, 8.691100e+001
9.937214e+002, 8.686616e+001
9.942035e+002, 8.762993e+001
9.946856e+002, 8.837783e+001
9.951677e+002, 8.883366e+001
9.956498e+002, 8.908707e+001
9.961320e+002, 8.915198e+001
9.966141e+002, 8.907947e+001
9.970962e+002, 8.916525e+001
9.975783e+002, 8.944931e+001
9.980604e+002, 8.991927e+001
9.985425e+002, 9.092510e+001
9.990247e+002, 9.174382e+001
9.995068e+002, 9.165157e+001
9.999889e+002, 9.121866e+001
1.000471e+003, 9.130178e+001
1.000953e+003, 9.197701e+001
1.001435e+003, 9.267070e+001
1.001917e+003, 9.330532e+001
1.002399e+003, 9.365953e+001
1.002882e+003, 9.335546e+001
1.003364e+003, 9.293974e+001
1.003846e+003, 9.297567e+001
1.004328e+003, 9.328492e+001
1.004810e+003, 9.337977e+001
1.005292e+003, 9.317649e+001
1.005774e+003, 9.313883e+001
1.006256e+003, 9.373875e+001
1.006739e+003, 9.438591e+001
1.007221e+003, 9.452603e+001
1.007703e+003, 9.436658e+001
1.008185e+003, 9.415651e+001
1.008667e+003, 9.392407e+001
1.009149e+003, 9.359091e+001
1.009631e+003, 9.314991e+001
1.010113e+003, 9.283434e+001
1.010595e+003, 9.297159e+001
1.011078e+003, 9.321983e+001
1.011560e+003, 9.304183e+001
1.012042e+003, 9.257618e+001
1.012524e+003, 9.210867e+001
1.013006e+003, 9.168511e+001
1.013488e+003, 9.127407e+001
1.013970e+003, 9.086315e+001
1.014452e+003, 9.057162e+001
1.014935e+003, 9.061701e+001
1.015417e+003, 9.081338e+001
1.015899e+003, 9.072416e+001
1.016381e+003, 9.036546e+001
1.016863e+003, 8.969932e+001
1.017345e+003, 8.877101e+001
1.017827e+003, 8.805612e+001
1.018309e+003, 8.780222e+001
1.018791e+003, 8.784160e+001
1.019274e+003, 8.802531e+001
1.019756e+003, 8.827940e+001
1.020238e+003, 8.820210e+001
1.020720e+003, 8.780653e+001
1.021202e+003, 8.740894e+001
1.021684e+003, 8.706045e+001
1.022166e+003, 8.676111e+001
1.022648e+003, 8.649960e+001
1.023130e+003, 8.632433e+001
1.023613e+003, 8.621714e+001
1.024095e+003, 8.622663e+001
1.024577e+003, 8.755642e+001
1.025059e+003, 9.056187e+001
1.025541e+003, 9.159495e+001
1.026023e+003, 8.957740e+001
1.026505e+003, 8.732221e+001
1.026987e+003, 8.653148e+001
1.027469e+003, 8.667357e+001
1.027952e+003, 8.677158e+001
1.028434e+003, 8.680767e+001
1.028916e+003, 8.741406e+001
1.029398e+003, 8.902649e+001
1.029880e+003, 8.959344e+001
1.030362e+003, 8.836330e+001
1.030844e+003, 8.687746e+001
1.031326e+003, 8.606516e+001
1.031809e+003, 8.573306e+001
1.032291e+003, 8.549062e+001
1.032773e+003, 8.532411e+001
1.033255e+003, 8.538410e+001
1.033737e+003, 8.579665e+001
1.034219e+003, 8.617558e+001
1.034701e+003, 8.654790e+001
1.035183e+003, 8.670833e+001
1.035666e+003, 8.633292e+001
1.036148e+003, 8.576390e+001
1.036630e+003, 8.575561e+001
1.037112e+003, 8.642905e+001
1.037594e+003, 8.698756e+001
1.038076e+003, 8.758038e+001
1.038558e+003, 8.780092e+001
1.039040e+003, 8.719131e+001
1.039522e+003, 8.661085e+001
1.040005e+003, 8.678157e+001
1.040487e+003, 8.731514e+001
1.040969e+003, 8.728320e+001
1.041451e+003, 8.645178e+001
1.041933e+003, 8.629275e+001
1.042415e+003, 8.749929e+001
1.042897e+003, 8.844450e+001
1.043379e+003, 8.889949e+001
1.043861e+003, 8.893729e+001
1.044344e+003, 8.814596e+001
1.044826e+003, 8.712381e+001
1.045308e+003, 8.721130e+001
1.045790e+003, 8.875008e+001
1.046272e+003, 8.953427e+001
1.046754e+003, 8.875491e+001
1.047236e+003, 8.799439e+001
1.047718e+003, 8.764859e+001
1.048201e+003, 8.743580e+001
1.048683e+003, 8.715240e+001
1.049165e+003, 8.685816e+001
1.049647e+003, 8.668271e+001
1.050129e+003, 8.664721e+001
1.050611e+003, 8.665552e+001
1.051093e+003, 8.682598e+001
1.051575e+003, 8.684953e+001
1.052057e+003, 8.642026e+001
1.052540e+003, 8.601714e+001
1.053022e+003, 8.620385e+001
1.053504e+003, 8.658183e+001
1.053986e+003, 8.627585e+001
1.054468e+003, 8.513882e+001
1.054950e+003, 8.438174e+001
1.055432e+003, 8.460438e+001
1.055914e+003, 8.487624e+001
1.056396e+003, 8.492954e+001
1.056879e+003, 8.486921e+001
1.057361e+003, 8.463883e+001
1.057843e+003, 8.441297e+001
1.058325e+003, 8.451746e+001
1.058807e+003, 8.499333e+001
1.059289e+003, 8.541578e+001
1.059771e+003, 8.585542e+001
1.060253e+003, 8.593730e+001
1.060736e+003, 8.531079e+001
1.061218e+003, 8.447928e+001
1.061700e+003, 8.354546e+001
1.062182e+003, 8.280152e+001
1.062664e+003, 8.282642e+001
1.063146e+003, 8.363113e+001
1.063628e+003, 8.419038e+001
1.064110e+003, 8.391501e+001
1.064593e+003, 8.363958e+001
1.065075e+003, 8.372188e+001
1.065557e+003, 8.391939e+001
1.066039e+003, 8.413444e+001
1.066521e+003, 8.429487e+001
1.067003e+003, 8.424356e+001
1.067485e+003, 8.400520e+001
1.067967e+003, 8.394029e+001
1.068449e+003, 8.429239e+001
1.068932e+003, 8.464987e+001
1.069414e+003, 8.481736e+001
1.069896e+003, 8.493260e+001
1.070378e+003, 8.516142e+001
1.070860e+003, 8.537028e+001
1.071342e+003, 8.527364e+001
1.071824e+003, 8.491682e+001
1.072306e+003, 8.478216e+001
1.072788e+003, 8.518787e+001
1.073271e+003, 8.551200e+001
1.073753e+003, 8.525671e+001
1.074235e+003, 8.503342e+001
1.074717e+003, 8.541424e+001
1.075199e+003, 8.601739e+001
1.075681e+003, 8.626270e+001
1.076163e+003, 8.618110e+001
1.076645e+003, 8.629363e+001
1.077127e+003, 8.686626e+001
1.077610e+003, 8.736488e+001
1.078092e+003, 8.748714e+001
1.078574e+003, 8.751311e+001
1.079056e+003, 8.757894e+001
1.079538e+003, 8.769631e+001
1.080020e+003, 8.788595e+001
1.080502e+003, 8.812778e+001
1.080984e+003, 8.833556e+001
1.081467e+003, 8.844643e+001
1.081949e+003, 8.870647e+001
1.082431e+003, 8.943192e+001
1.082913e+003, 9.010280e+001
1.083395e+003, 9.043236e+001
1.083877e+003, 9.051567e+001
1.084359e+003, 9.033315e+001
1.084841e+003, 9.002849e+001
1.085323e+003, 8.988029e+001
1.085806e+003, 8.994780e+001
1.086288e+003, 9.031561e+001
1.086770e+003, 9.143640e+001
1.087252e+003, 9.234753e+001
1.087734e+003, 9.253471e+001
1.088216e+003, 9.230210e+001
1.088698e+003, 9.153172e+001
1.089180e+003, 9.070923e+001
1.089662e+003, 9.089350e+001
1.090145e+003, 9.230608e+001
1.090627e+003, 9.350195e+001
1.091109e+003, 9.364754e+001
1.091591e+003, 9.386320e+001
1.092073e+003, 9.487444e+001
1.092555e+003, 9.590446e+001
1.093037e+003, 9.636446e+001
1.093519e+003, 9.638680e+001
1.094002e+003, 9.614158e+001
1.094484e+003, 9.570281e+001
1.094966e+003, 9.552110e+001
1.095448e+003, 9.576099e+001
1.095930e+003, 9.624693e+001
1.096412e+003, 9.732532e+001
1.096894e+003, 9.819727e+001
1.097376e+003, 9.797056e+001
1.097859e+003, 9.747010e+001
1.098341e+003, 9.790575e+001
1.098823e+003, 9.924454e+001
1.099305e+003, 1.004363e+002
1.099787e+003, 1.012117e+002
1.100269e+003, 1.018876e+002
1.100751e+003, 1.025635e+002
1.101233e+003, 1.031315e+002
1.101715e+003, 1.033856e+002
1.102198e+003, 1.036249e+002
1.102680e+003, 1.042611e+002
1.103162e+003, 1.051682e+002
1.103644e+003, 1.057134e+002
1.104126e+003, 1.054451e+002
1.104608e+003, 1.059801e+002
1.105090e+003, 1.084229e+002
1.105572e+003, 1.106430e+002
1.106054e+003, 1.116794e+002
1.106537e+003, 1.124150e+002
1.107019e+003, 1.135225e+002
1.107501e+003, 1.149147e+002
1.107983e+003, 1.162860e+002
1.108465e+003, 1.175863e+002
1.108947e+003, 1.190401e+002
1.109429e+003, 1.206208e+002
1.109911e+003, 1.224246e+002
1.110394e+003, 1.246214e+002
1.110876e+003, 1.268773e+002
1.111358e+003, 1.290330e+002
1.111840e+003, 1.311100e+002
1.112322e+003, 1.330221e+002
1.112804e+003, 1.347301e+002
1.113286e+003, 1.370149e+002
1.113768e+003, 1.401931e+002
1.114250e+003, 1.434096e+002
1.114733e+003, 1.465659e+002
1.115215e+003, 1.497953e+002
1.115697e+003, 1.530853e+002
1.116179e+003, 1.565445e+002
1.116661e+003, 1.603747e+002
1.117143e+003, 1.645107e+002
1.117625e+003, 1.684507e+002
1.118107e+003, 1.719481e+002
1.118589e+003, 1.758228e+002
1.119072e+003, 1.803736e+002
1.119554e+003, 1.847283e+002
1.120036e+003, 1.887664e+002
1.120518e+003, 1.923126e+002
1.121000e+003, 1.952636e+002
1.121482e+003, 1.976045e+002
1.121964e+003, 1.992668e+002
1.122446e+003, 2.002262e+002
1.122929e+003, 2.005800e+002
1.123411e+003, 2.001262e+002
1.123893e+003, 1.998362e+002
1.124375e+003, 2.001501e+002
1.124857e+003, 1.999187e+002
1.125339e+003, 1.983297e+002
1.125821e+003, 1.959401e+002
1.126303e+003, 1.937127e+002
1.126786e+003, 1.916208e+002
1.127268e+003, 1.891665e+002
1.127750e+003, 1.863371e+002
1.128232e+003, 1.833044e+002
1.128714e+003, 1.800548e+002
1.129196e+003, 1.769903e+002
1.129678e+003, 1.742890e+002
1.130160e+003, 1.719698e+002
1.130642e+003, 1.700840e+002
1.131125e+003, 1.685653e+002
1.131607e+003, 1.672469e+002
1.132089e+003, 1.661161e+002
1.132571e+003, 1.647899e+002
1.133053e+003, 1.632634e+002
1.133535e+003, 1.625060e+002
1.134017e+003, 1.628109e+002
1.134499e+003, 1.633385e+002
1.134981e+003, 1.634119e+002
1.135464e+003, 1.634548e+002
1.135946e+003, 1.643615e+002
1.136428e+003, 1.658815e+002
1.136910e+003, 1.668964e+002
1.137392e+003, 1.675913e+002
1.137874e+003, 1.690048e+002
1.138356e+003, 1.712564e+002
1.138838e+003, 1.736462e+002
1.139321e+003, 1.758258e+002
1.139803e+003, 1.780732e+002
1.140285e+003, 1.808763e+002
1.140767e+003, 1.838323e+002
1.141249e+003, 1.859948e+002
1.141731e+003, 1.878348e+002
1.142213e+003, 1.904367e+002
1.142695e+003, 1.937257e+002
1.143177e+003, 1.970619e+002
1.143660e+003, 2.002404e+002
1.144142e+003, 2.034632e+002
1.144624e+003, 2.069735e+002
1.145106e+003, 2.103905e+002
1.145588e+003, 2.131554e+002
1.146070e+003, 2.157368e+002
1.146552e+003, 2.187248e+002
1.147034e+003, 2.219847e+002
1.147516e+003, 2.252134e+002
1.147999e+003, 2.283779e+002
1.148481e+003, 2.316389e+002
1.148963e+003, 2.351317e+002
1.149445e+003, 2.383683e+002
1.149927e+003, 2.409053e+002
1.150409e+003, 2.432316e+002
1.150891e+003, 2.456284e+002
1.151373e+003, 2.480580e+002
1.151856e+003, 2.506804e+002
1.152338e+003, 2.532222e+002
1.152820e+003, 2.549780e+002
1.153302e+003, 2.558064e+002
1.153784e+003, 2.568949e+002
1.154266e+003, 2.590459e+002
1.154748e+003, 2.609536e+002
1.155230e+003, 2.624492e+002
1.155713e+003, 2.632858e+002
1.156195e+003, 2.629790e+002
1.156677e+003, 2.621466e+002
1.157159e+003, 2.616411e+002
1.157641e+003, 2.614107e+002
1.158123e+003, 2.607167e+002
1.158605e+003, 2.592772e+002
1.159087e+003, 2.578259e+002
1.159569e+003, 2.563082e+002
1.160052e+003, 2.549153e+002
1.160534e+003, 2.535806e+002
1.161016e+003, 2.525196e+002
1.161498e+003, 2.521373e+002
1.161980e+003, 2.520210e+002
1.162462e+003, 2.514017e+002
1.162944e+003, 2.503650e+002
1.163426e+003, 2.477619e+002
1.163908e+003, 2.428936e+002
1.164391e+003, 2.384542e+002
1.164873e+003, 2.347050e+002
1.165355e+003, 2.318247e+002
1.165837e+003, 2.301886e+002
1.166319e+003, 2.286886e+002
1.166801e+003, 2.260260e+002
1.167283e+003, 2.223836e+002
1.167765e+003, 2.182607e+002
1.168247e+003, 2.136143e+002
1.168730e+003, 2.099932e+002
1.169212e+003, 2.075114e+002
1.169694e+003, 2.045775e+002
1.170176e+003, 2.007592e+002
1.170658e+003, 1.970160e+002
1.171140e+003, 1.940004e+002
1.171622e+003, 1.914856e+002
1.172104e+003, 1.892509e+002
1.172587e+003, 1.871592e+002
1.173069e+003, 1.848136e+002
1.173551e+003, 1.821806e+002
1.174033e+003, 1.788985e+002
1.174515e+003, 1.751248e+002
1.174997e+003, 1.717591e+002
1.175479e+003, 1.691275e+002
1.175961e+003, 1.670080e+002
1.176443e+003, 1.653219e+002
1.176926e+003, 1.637697e+002
1.177408e+003, 1.620836e+002
1.177890e+003, 1.602175e+002
1.178372e+003, 1.579800e+002
1.178854e+003, 1.555613e+002
1.179336e+003, 1.532604e+002
1.179818e+003, 1.511526e+002
1.180300e+003, 1.493330e+002
1.180782e+003, 1.478675e+002
1.181265e+003, 1.464703e+002
1.181747e+003, 1.449146e+002
1.182229e+003, 1.434471e+002
1.182711e+003, 1.422199e+002
1.183193e+003, 1.411760e+002
1.183675e+003, 1.403221e+002
1.184157e+003, 1.395807e+002
1.184639e+003, 1.388425e+002
1.185122e+003, 1.380872e+002
1.185604e+003, 1.372764e+002
1.186086e+003, 1.363412e+002
1.186568e+003, 1.354431e+002
1.187050e+003, 1.347375e+002
1.187532e+003, 1.339115e+002
1.188014e+003, 1.324044e+002
1.188496e+003, 1.311067e+002
1.188979e+003, 1.311164e+002
1.189461e+003, 1.319009e+002
1.189943e+003, 1.318846e+002
1.190425e+003, 1.308828e+002
1.190907e+003, 1.301476e+002
1.191389e+003, 1.296394e+002
1.191871e+003, 1.295804e+002
1.192353e+003, 1.302196e+002
1.192835e+003, 1.306748e+002
1.193318e+003, 1.304788e+002
1.193800e+003, 1.299591e+002
1.194282e+003, 1.294851e+002
1.194764e+003, 1.290580e+002
1.195246e+003, 1.285423e+002
1.195728e+003, 1.279701e+002
1.196210e+003, 1.285361e+002
1.196692e+003, 1.302112e+002
1.197174e+003, 1.313418e+002
1.197657e+003, 1.315212e+002
1.198139e+003, 1.312403e+002
1.198621e+003, 1.307648e+002
1.199103e+003, 1.305213e+002
1.199585e+003, 1.313238e+002
1.200067e+003, 1.325636e+002
1.200549e+003, 1.329356e+002
1.201031e+003, 1.328313e+002
1.201514e+003, 1.330145e+002
1.201996e+003, 1.335667e+002
1.202478e+003, 1.344842e+002
1.202960e+003, 1.357089e+002
1.203442e+003, 1.369212e+002
1.203924e+003, 1.379876e+002
1.204406e+003, 1.388329e+002
1.204888e+003, 1.391976e+002
1.205370e+003, 1.395309e+002
1.205853e+003, 1.402202e+002
1.206335e+003, 1.410833e+002
1.206817e+003, 1.418654e+002
1.207299e+003, 1.426189e+002
1.207781e+003, 1.435649e+002
1.208263e+003, 1.447534e+002
1.208745e+003, 1.459517e+002
1.209227e+003, 1.469967e+002
1.209709e+003, 1.481970e+002
1.210192e+003, 1.496706e+002
1.210674e+003, 1.512640e+002
1.211156e+003, 1.528728e+002
1.211638e+003, 1.545905e+002
1.212120e+003, 1.565355e+002
1.212602e+003, 1.586676e+002
1.213084e+003, 1.608202e+002
1.213566e+003, 1.630157e+002
1.214049e+003, 1.651056e+002
1.214531e+003, 1.670630e+002
1.215013e+003, 1.689737e+002
1.215495e+003, 1.707854e+002
1.215977e+003, 1.729539e+002
1.216459e+003, 1.757883e+002
1.216941e+003, 1.786570e+002
1.217423e+003, 1.806919e+002
1.217906e+003, 1.822982e+002
1.218388e+003, 1.847827e+002
1.218870e+003, 1.879676e+002
1.219352e+003, 1.911067e+002
1.219834e+003, 1.941062e+002
1.220316e+003, 1.965719e+002
1.220798e+003, 1.985479e+002
1.221280e+003, 2.009012e+002
1.221762e+003, 2.041211e+002
1.222245e+003, 2.075617e+002
1.222727e+003, 2.104038e+002
1.223209e+003, 2.133000e+002
1.223691e+003, 2.171558e+002
1.224173e+003, 2.214057e+002
1.224655e+003, 2.256299e+002
1.225137e+003, 2.294626e+002
1.225619e+003, 2.322165e+002
1.226101e+003, 2.339253e+002
1.226584e+003, 2.355725e+002
1.227066e+003, 2.375256e+002
1.227548e+003, 2.393097e+002
1.228030e+003, 2.405028e+002
1.228512e+003, 2.418279e+002
1.228994e+003, 2.437023e+002
1.229476e+003, 2.457179e+002
1.229958e+003, 2.474949e+002
1.230441e+003, 2.492271e+002
1.230923e+003, 2.513535e+002
1.231405e+003, 2.538580e+002
1.231887e+003, 2.559443e+002
1.232369e+003, 2.575656e+002
1.232851e+003, 2.588994e+002
1.233333e+003, 2.599507e+002
1.233815e+003, 2.606670e+002
1.234297e+003, 2.609319e+002
1.234780e+003, 2.613662e+002
1.235262e+003, 2.625076e+002
1.235744e+003, 2.637201e+002
1.236226e+003, 2.638405e+002
1.236708e+003, 2.631343e+002
1.237190e+003, 2.627650e+002
1.237672e+003, 2.625981e+002
1.238154e+003, 2.619755e+002
1.238636e+003, 2.609169e+002
1.239119e+003, 2.598194e+002
1.239601e+003, 2.588184e+002
1.240083e+003, 2.578881e+002
1.240565e+003, 2.570063e+002
1.241047e+003, 2.562276e+002
1.241529e+003, 2.559014e+002
1.242011e+003, 2.553952e+002
1.242493e+003, 2.539117e+002
1.242975e+003, 2.520119e+002
1.243458e+003, 2.503981e+002
1.243940e+003, 2.489468e+002
1.244422e+003, 2.471717e+002
1.244904e+003, 2.450278e+002
1.245386e+003, 2.431680e+002
1.245868e+003, 2.421734e+002
1.246350e+003, 2.407229e+002
1.246832e+003, 2.382403e+002
1.247315e+003, 2.357352e+002
1.247797e+003, 2.335020e+002
1.248279e+003, 2.313998e+002
1.248761e+003, 2.292552e+002
1.249243e+003, 2.272565e+002
1.249725e+003, 2.258227e+002
1.250207e+003, 2.248962e+002
1.250689e+003, 2.234451e+002
1.251172e+003, 2.214219e+002
1.251654e+003, 2.193356e+002
1.252136e+003, 2.172132e+002
1.252618e+003, 2.150685e+002
1.253100e+003, 2.129055e+002
1.253582e+003, 2.109327e+002
1.254064e+003, 2.093340e+002
1.254546e+003, 2.076973e+002
1.255028e+003, 2.052337e+002
1.255510e+003, 2.025389e+002
1.255993e+003, 2.009348e+002
1.256475e+003, 1.998413e+002
1.256957e+003, 1.981309e+002
1.257439e+003, 1.960162e+002
1.257921e+003, 1.942812e+002
1.258403e+003, 1.930527e+002
1.258885e+003, 1.918819e+002
1.259367e+003, 1.906100e+002
1.259850e+003, 1.892782e+002
1.260332e+003, 1.877656e+002
1.260814e+003, 1.863849e+002
1.261296e+003, 1.850926e+002
1.261778e+003, 1.841758e+002
1.262260e+003, 1.840657e+002
1.262742e+003, 1.843534e+002
1.263224e+003, 1.846452e+002
1.263707e+003, 1.848092e+002
1.264189e+003, 1.836554e+002
1.264671e+003, 1.804835e+002
1.265153e+003, 1.783977e+002
1.265635e+003, 1.776018e+002
1.266117e+003, 1.771547e+002
1.266599e+003, 1.769163e+002
1.267081e+003, 1.764814e+002
1.267563e+003, 1.755951e+002
1.268046e+003, 1.746624e+002
1.268528e+003, 1.741563e+002
1.269010e+003, 1.739565e+002
1.269492e+003, 1.737846e+002
1.269974e+003, 1.736889e+002
1.270456e+003, 1.738295e+002
1.270938e+003, 1.741445e+002
1.271420e+003, 1.745389e+002
1.271902e+003, 1.749160e+002
1.272385e+003, 1.749845e+002
1.272867e+003, 1.746320e+002
1.273349e+003, 1.743858e+002
1.273831e+003, 1.748431e+002
1.274313e+003, 1.750923e+002
1.274795e+003, 1.742556e+002
1.275277e+003, 1.735379e+002
1.275759e+003, 1.738282e+002
1.276242e+003, 1.746043e+002
1.276724e+003, 1.753886e+002
1.277206e+003, 1.761020e+002
1.277688e+003, 1.765511e+002
1.278170e+003, 1.766853e+002
1.278652e+003, 1.770230e+002
1.279134e+003, 1.775824e+002
1.279616e+003, 1.782968e+002
1.280099e+003, 1.791848e+002
1.280581e+003, 1.800753e+002
1.281063e+003, 1.809013e+002
1.281545e+003, 1.817850e+002
1.282027e+003, 1.828555e+002
1.282509e+003, 1.839038e+002
1.282991e+003, 1.843697e+002
1.283473e+003, 1.846501e+002
1.283955e+003, 1.856335e+002
##END=



