##NAMES=Millerite
##RRUFFID=R080122
##IDEAL CHEMISTRY=NiS
##LOCALITY=Eugenia mine, Bellmunt del Priorat, Tarragona, Catalonia, Spain
##OWNER=RRUFF
##SOURCE=Joan Abella i Creus
##DESCRIPTION=Metallic-bronze striated crystals
##STATUS=The identification of this mineral has been confirmed by single-crystal X-ray diffraction.
##URL=rruff.info/R080122
93.78320, 93.86607
94.26532, 93.79710
94.74744, 94.45401
95.22955, 95.60181
95.71167, 96.54298
96.19379, 95.50647
96.67590, 92.30678
97.15802, 88.87465
97.64014, 85.03214
98.12225, 81.18613
98.60437, 78.22397
99.08649, 76.86382
99.56860, 75.91464
100.0507, 73.50513
100.5328, 69.30205
101.0150, 64.80639
101.4971, 61.08232
101.9792, 58.11448
102.4613, 55.36582
102.9434, 52.50038
103.4255, 49.79961
103.9077, 47.50991
104.3898, 45.71754
104.8719, 44.28718
105.3540, 43.00759
105.8361, 42.11499
106.3182, 40.91985
106.8004, 39.16280
107.2825, 37.09208
107.7646, 34.94864
108.2467, 32.85085
108.7288, 30.81487
109.2109, 29.12754
109.6931, 27.89182
110.1752, 26.87228
110.6573, 26.04001
111.1394, 25.37878
111.6215, 24.87834
112.1036, 24.54466
112.5858, 24.40216
113.0679, 24.28447
113.5500, 24.24326
114.0321, 24.18998
114.5142, 24.04408
114.9964, 23.79303
115.4785, 23.51751
115.9606, 23.31634
116.4427, 23.18461
116.9248, 23.04980
117.4069, 22.86156
117.8891, 22.66126
118.3712, 22.55057
118.8533, 22.60447
119.3354, 22.66481
119.8175, 22.56789
120.2996, 22.32702
120.7818, 22.07789
121.2639, 21.89996
121.7460, 21.79291
122.2281, 21.76459
122.7102, 21.99491
123.1923, 22.18497
123.6745, 22.14523
124.1566, 21.85083
124.6387, 21.44825
125.1208, 21.13276
125.6029, 20.90351
126.0850, 20.78152
126.5672, 20.83871
127.0493, 20.94144
127.5314, 20.99634
128.0135, 20.96459
128.4956, 20.85179
128.9777, 20.66940
129.4599, 20.20970
129.9420, 19.91683
130.4241, 19.95848
130.9062, 20.16599
131.3883, 20.28557
131.8705, 20.17042
132.3526, 19.86625
132.8347, 19.63536
133.3168, 19.48581
133.7989, 19.38010
134.2810, 19.36786
134.7632, 19.41681
135.2453, 19.35718
135.7274, 19.02720
136.2095, 18.50035
136.6916, 18.07721
137.1737, 17.82338
137.6559, 17.64679
138.1380, 17.46993
138.6201, 17.30009
139.1022, 17.09266
139.5843, 16.79402
140.0664, 16.44067
140.5486, 16.07758
141.0307, 15.68459
141.5128, 15.29876
141.9949, 15.05796
142.4770, 15.09649
142.9591, 15.07833
143.4413, 14.80578
143.9234, 14.38338
144.4055, 13.99928
144.8876, 13.78703
145.3697, 13.74730
145.8518, 13.76539
146.3340, 14.04475
146.8161, 14.20038
147.2982, 14.04302
147.7803, 13.63387
148.2624, 13.17274
148.7445, 12.85669
149.2267, 12.73240
149.7088, 12.57459
150.1909, 12.33830
150.6730, 12.11119
151.1551, 11.93651
151.6372, 11.82212
152.1194, 11.75820
152.6015, 11.73893
153.0836, 11.79683
153.5657, 11.80793
154.0478, 11.72810
154.5299, 11.62251
155.0121, 11.56897
155.4942, 11.59098
155.9763, 11.62424
156.4584, 11.56380
156.9405, 11.40913
157.4227, 11.23516
157.9048, 11.02398
158.3869, 10.80869
158.8690, 10.66190
159.3511, 10.61081
159.8332, 10.62598
160.3154, 10.66822
160.7975, 10.73678
161.2796, 10.82073
161.7617, 10.91598
162.2438, 11.02271
162.7259, 11.14056
163.2081, 11.33375
163.6902, 11.48012
164.1723, 11.45636
164.6544, 11.25275
165.1365, 11.02550
165.6186, 10.95475
166.1008, 11.08025
166.5829, 11.18556
167.0650, 11.25735
167.5471, 11.28455
168.0292, 11.22470
168.5113, 11.07504
168.9935, 10.91453
169.4756, 10.89570
169.9577, 11.16827
170.4398, 11.28960
170.9219, 11.10438
171.4040, 10.84631
171.8862, 10.72684
172.3683, 10.82070
172.8504, 11.02543
173.3325, 11.09720
173.8146, 10.86987
174.2967, 10.69594
174.7789, 10.61679
175.2610, 10.58505
175.7431, 10.53606
176.2252, 10.43769
176.7073, 10.32260
177.1894, 10.30378
177.6716, 10.48240
178.1537, 10.62195
178.6358, 10.68970
179.1179, 10.68805
179.6000, 10.60113
180.0821, 10.39345
180.5643, 10.13274
181.0464, 10.02890
181.5285, 10.14390
182.0106, 10.29033
182.4927, 10.41810
182.9749, 10.51691
183.4570, 10.52647
183.9391, 10.36118
184.4212, 10.12235
184.9033, 10.02845
185.3854, 10.14399
185.8676, 10.30314
186.3497, 10.39174
186.8318, 10.40968
187.3139, 10.35745
187.7960, 10.13758
188.2781, 9.891067
188.7603, 9.797326
189.2424, 9.939197
189.7245, 10.13233
190.2066, 10.11279
190.6887, 9.812979
191.1708, 9.544943
191.6530, 9.395690
192.1351, 9.336453
192.6172, 9.385688
193.0993, 9.570729
193.5814, 9.784642
194.0635, 9.787397
194.5457, 9.434927
195.0278, 9.155921
195.5099, 9.049762
195.9920, 9.044318
196.4741, 9.080027
196.9562, 9.132077
197.4384, 9.195404
197.9205, 9.257022
198.4026, 9.326472
198.8847, 9.378718
199.3668, 9.414222
199.8489, 9.431254
200.3311, 9.428692
200.8132, 9.406051
201.2953, 9.362578
201.7774, 9.295595
202.2595, 9.162631
202.7416, 9.052359
203.2238, 8.952002
203.7059, 8.883738
204.1880, 8.886836
204.6701, 8.986910
205.1522, 9.157351
205.6344, 9.278363
206.1165, 9.371082
206.5986, 9.399750
207.0807, 9.291980
207.5628, 9.117670
208.0449, 9.019626
208.5271, 9.087749
209.0092, 9.264127
209.4913, 9.305574
209.9734, 9.097394
210.4555, 8.921893
210.9376, 8.919317
211.4198, 9.033776
211.9019, 9.105874
212.3840, 9.042969
212.8661, 8.895473
213.3482, 8.805852
213.8303, 8.770761
214.3125, 8.789689
214.7946, 8.891447
215.2767, 9.061099
215.7588, 9.221981
216.2409, 9.370038
216.7230, 9.460316
217.2052, 9.416807
217.6873, 9.162736
218.1694, 8.937909
218.6515, 8.975772
219.1336, 9.264767
219.6157, 9.489459
220.0979, 9.474197
220.5800, 9.369995
221.0621, 9.351255
221.5442, 9.452441
222.0263, 9.573052
222.5084, 9.602490
222.9906, 9.530125
223.4727, 9.484797
223.9548, 9.535838
224.4369, 9.612756
224.9190, 9.657334
225.4011, 9.657244
225.8833, 9.660645
226.3654, 9.737132
226.8475, 9.906863
227.3296, 10.05065
227.8117, 10.15849
228.2938, 10.22232
228.7760, 10.20735
229.2581, 10.11218
229.7402, 10.00818
230.2223, 9.986808
230.7044, 10.05861
231.1866, 10.18417
231.6687, 10.47662
232.1508, 10.73642
232.6329, 10.78856
233.1150, 10.62208
233.5971, 10.41426
234.0793, 10.44998
234.5614, 10.92135
235.0435, 11.15278
235.5256, 10.87151
236.0077, 10.57022
236.4898, 10.60552
236.9720, 11.01063
237.4541, 11.51997
237.9362, 11.76332
238.4183, 11.59540
238.9004, 11.50176
239.3825, 11.48186
239.8647, 11.52056
240.3468, 11.62996
240.8289, 11.80075
241.3110, 11.99186
241.7931, 12.16287
242.2752, 12.33933
242.7574, 12.39728
243.2395, 12.21140
243.7216, 12.01870
244.2037, 11.99264
244.6858, 12.14103
245.1679, 12.33566
245.6501, 12.44318
246.1322, 12.45748
246.6143, 12.36822
247.0964, 12.07513
247.5785, 11.76493
248.0606, 11.59551
248.5428, 11.56280
249.0249, 11.51024
249.5070, 11.27870
249.9891, 10.83102
250.4712, 10.42762
250.9533, 10.06064
251.4355, 9.739219
251.9176, 9.471422
252.3997, 9.256038
252.8818, 9.081196
253.3639, 8.941698
253.8460, 8.840582
254.3282, 8.755573
254.8103, 8.707911
255.2924, 8.659251
255.7745, 8.577176
256.2566, 8.464196
256.7387, 8.354006
257.2209, 8.269335
257.7030, 8.209983
258.1851, 8.155754
258.6672, 8.075474
259.1493, 8.025478
259.6314, 8.092734
260.1136, 8.258381
260.5957, 8.340163
261.0778, 8.169847
261.5599, 7.853914
262.0420, 7.727874
262.5241, 7.914572
263.0063, 8.149090
263.4884, 8.259025
263.9705, 8.252974
264.4526, 8.196787
264.9347, 8.077253
265.4168, 7.955805
265.8990, 7.953803
266.3811, 8.136385
266.8632, 8.299926
267.3453, 8.277946
267.8275, 8.091909
268.3096, 7.902193
268.7917, 7.737459
269.2738, 7.626707
269.7559, 7.596313
270.2380, 7.653056
270.7202, 7.755528
271.2023, 7.899253
271.6844, 8.075225
272.1665, 8.225957
272.6486, 8.345548
273.1307, 8.419259
273.6129, 8.444524
274.0950, 8.421560
274.5771, 8.358573
275.0592, 8.215891
275.5413, 8.018764
276.0234, 7.923224
276.5056, 7.998516
276.9877, 8.124740
277.4698, 8.220471
277.9519, 8.285402
278.4340, 8.319449
278.9161, 8.283322
279.3983, 8.205577
279.8804, 8.222453
280.3625, 8.384457
280.8446, 8.579053
281.3267, 8.781775
281.8088, 8.964264
282.2910, 9.057890
282.7731, 9.013761
283.2552, 8.852278
283.7373, 8.609935
284.2194, 8.184579
284.7015, 7.878788
285.1837, 7.924536
285.6658, 8.145318
286.1479, 8.270617
286.6300, 8.141717
287.1121, 7.878575
287.5942, 7.756382
288.0764, 7.820885
288.5585, 7.923884
289.0406, 7.999251
289.5227, 8.085016
290.0048, 8.255274
290.4869, 8.567037
290.9691, 8.869134
291.4512, 8.852153
291.9333, 8.379613
292.4154, 8.024736
292.8975, 8.052058
293.3796, 8.186031
293.8618, 8.224475
294.3439, 8.115808
294.8260, 7.946307
295.3081, 7.823400
295.7902, 7.756079
296.2723, 7.693365
296.7545, 7.578239
297.2366, 7.501867
297.7187, 7.538055
298.2008, 7.684525
298.6829, 7.862840
299.1650, 8.006041
299.6472, 8.116793
300.1293, 8.169371
300.6114, 8.088477
301.0935, 8.011583
301.5756, 8.046152
302.0577, 8.150908
302.5399, 8.178899
303.0220, 7.950231
303.5041, 7.485134
303.9862, 7.249621
304.4683, 7.456252
304.9504, 7.660042
305.4326, 7.686253
305.9147, 7.594548
306.3968, 7.508315
306.8789, 7.508807
307.3610, 7.568437
307.8431, 7.561173
308.3253, 7.420722
308.8074, 7.318206
309.2895, 7.333804
309.7716, 7.396870
310.2537, 7.417803
310.7358, 7.353470
311.2180, 7.246364
311.7001, 7.188310
312.1822, 7.185914
312.6643, 7.221224
313.1464, 7.371983
313.6285, 7.507216
314.1107, 7.488345
314.5928, 7.283660
315.0749, 7.032364
315.5570, 6.952727
316.0392, 7.109357
316.5213, 7.201549
317.0034, 7.139157
317.4855, 7.050663
317.9676, 7.001411
318.4497, 6.997568
318.9319, 7.009090
319.4140, 7.002037
319.8961, 6.971893
320.3782, 6.968495
320.8603, 7.029019
321.3424, 7.082400
321.8246, 7.115770
322.3067, 7.121121
322.7888, 7.080752
323.2709, 6.961839
323.7530, 6.782858
324.2351, 6.689825
324.7173, 6.749042
325.1994, 6.805377
325.6815, 6.802734
326.1636, 6.769547
326.6457, 6.752024
327.1278, 6.778430
327.6100, 6.818314
328.0921, 6.778305
328.5742, 6.574897
329.0563, 6.477199
329.5384, 6.650047
330.0205, 6.886033
330.5027, 6.988707
330.9848, 6.902867
331.4669, 6.762566
331.9490, 6.788612
332.4311, 7.050943
332.9132, 7.171270
333.3954, 6.911463
333.8775, 6.626807
334.3596, 6.506304
334.8417, 6.560537
335.3238, 6.689822
335.8059, 6.847425
336.2881, 7.036095
336.7702, 7.089726
337.2523, 6.885987
337.7344, 6.673514
338.2165, 6.554008
338.6986, 6.513984
339.1808, 6.514179
339.6629, 6.552580
340.1450, 6.607389
340.6271, 6.573836
341.1092, 6.352562
341.5913, 6.240593
342.0735, 6.497206
342.5556, 6.863957
343.0377, 7.002893
343.5198, 6.753139
344.0019, 6.335734
344.4840, 6.087028
344.9662, 6.019102
345.4483, 6.057845
345.9304, 6.308841
346.4125, 6.587987
346.8946, 6.759445
347.3767, 6.803154
347.8589, 6.803325
348.3410, 6.841880
348.8231, 6.917313
349.3052, 6.966725
349.7873, 7.003304
350.2694, 6.980583
350.7516, 6.808747
351.2337, 6.534732
351.7158, 6.355104
352.1979, 6.475643
352.6800, 6.786949
353.1621, 6.918573
353.6443, 6.815951
354.1264, 6.642248
354.6085, 6.424580
355.0906, 6.213175
355.5727, 6.105095
356.0548, 6.177318
356.5370, 6.311811
357.0191, 6.343448
357.5012, 6.262400
357.9833, 6.185245
358.4654, 6.141349
358.9475, 6.139812
359.4297, 6.210221
359.9118, 6.376791
360.3939, 6.513224
360.8760, 6.488159
361.3581, 6.338017
361.8402, 6.258852
362.3224, 6.331935
362.8045, 6.431449
363.2866, 6.406797
363.7687, 6.272680
364.2508, 6.169614
364.7329, 6.201283
365.2151, 6.283625
365.6972, 6.242478
366.1793, 6.036417
366.6614, 5.874174
367.1436, 5.982429
367.6257, 6.263359
368.1078, 6.410851
368.5899, 6.272521
369.0720, 6.082196
369.5541, 6.035266
370.0363, 6.113326
370.5184, 6.204167
371.0005, 6.279105
371.4826, 6.310946
371.9647, 6.227709
372.4468, 5.963975
372.9290, 5.762683
373.4111, 5.735673
373.8932, 5.831571
374.3753, 5.994941
374.8574, 6.228746
375.3395, 6.416251
375.8217, 6.369172
376.3038, 6.051204
376.7859, 5.831365
377.2680, 5.824169
377.7501, 5.874059
378.2322, 5.832942
378.7144, 5.702672
379.1965, 5.597845
379.6786, 5.607138
380.1607, 5.722047
380.6428, 5.825580
381.1249, 5.984913
381.6071, 6.062118
382.0892, 5.935706
382.5713, 5.701114
383.0534, 5.545667
383.5355, 5.552755
384.0176, 5.653202
384.4998, 5.699631
384.9819, 5.676974
385.4640, 5.617193
385.9461, 5.447273
386.4282, 5.286120
386.9103, 5.259114
387.3925, 5.371359
387.8746, 5.514018
388.3567, 5.565490
388.8388, 5.504455
389.3209, 5.508059
389.8030, 5.683932
390.2852, 5.804691
390.7673, 5.731926
391.2494, 5.540944
391.7315, 5.397654
392.2136, 5.404760
392.6957, 5.509990
393.1779, 5.509148
393.6600, 5.294172
394.1421, 5.121789
394.6242, 4.989902
395.1063, 4.920633
395.5884, 4.967730
396.0706, 5.130286
396.5527, 5.309913
397.0348, 5.357103
397.5169, 5.213510
397.9990, 5.169680
398.4811, 5.382678
398.9633, 5.554129
399.4454, 5.544063
399.9275, 5.390214
400.4096, 5.204732
400.8917, 5.048754
401.3738, 4.929314
401.8560, 4.882535
402.3381, 4.938483
402.8202, 5.012964
403.3023, 5.100878
403.7844, 5.182684
404.2665, 5.230695
404.7487, 5.234474
405.2308, 5.232202
405.7129, 5.288739
406.1950, 5.410971
406.6771, 5.465462
407.1592, 5.363648
407.6414, 5.253698
408.1235, 5.264341
408.6056, 5.373842
409.0877, 5.453529
409.5698, 5.411923
410.0519, 5.290988
410.5341, 5.174119
411.0162, 5.051210
411.4983, 4.981106
411.9804, 5.034180
412.4625, 5.157758
412.9446, 5.269152
413.4268, 5.359148
413.9089, 5.428092
414.3910, 5.490726
414.8731, 5.537419
415.3553, 5.507092
415.8374, 5.348769
416.3195, 5.157943
416.8016, 5.084426
417.2837, 5.129235
417.7658, 5.178635
418.2480, 5.240534
418.7301, 5.271501
419.2122, 5.190254
419.6943, 4.995347
420.1764, 4.813851
420.6585, 4.743141
421.1407, 4.779762
421.6228, 4.841514
422.1049, 4.981293
422.5870, 5.087021
423.0691, 5.082952
423.5512, 5.019476
424.0334, 4.997746
424.5155, 5.060233
424.9976, 5.150363
425.4797, 5.154775
425.9618, 4.963016
426.4439, 4.915402
426.9261, 5.196094
427.4082, 5.473819
427.8903, 5.454709
428.3724, 5.177443
428.8545, 4.936233
429.3366, 4.993230
429.8188, 5.327552
430.3009, 5.468749
430.7830, 5.170353
431.2651, 4.942824
431.7472, 4.911325
432.2293, 4.976528
432.7115, 5.022547
433.1936, 5.005434
433.6757, 4.950295
434.1578, 4.886436
434.6399, 4.795724
435.1220, 4.760896
435.6042, 4.855148
436.0863, 4.950807
436.5684, 4.994688
437.0505, 4.986595
437.5326, 4.941910
438.0147, 4.843480
438.4969, 4.724372
438.9790, 4.727087
439.4611, 4.925191
439.9432, 5.058398
440.4253, 4.944501
440.9074, 4.744174
441.3896, 4.614809
441.8717, 4.589335
442.3538, 4.630426
442.8359, 4.746014
443.3180, 4.916259
443.8001, 5.007509
444.2823, 4.967000
444.7644, 4.892652
445.2465, 4.916841
445.7286, 5.006691
446.2107, 4.990440
446.6928, 4.665964
447.1750, 4.318581
447.6571, 4.279521
448.1392, 4.524834
448.6213, 4.777932
449.1034, 4.896551
449.5855, 4.923089
450.0677, 4.983107
450.5498, 5.129349
451.0319, 5.196157
451.5140, 5.089197
451.9961, 4.903617
452.4782, 4.731013
452.9604, 4.595595
453.4425, 4.528663
453.9246, 4.574295
454.4067, 4.747924
454.8888, 4.871720
455.3709, 4.987847
455.8531, 5.019426
456.3352, 4.845092
456.8173, 4.586591
457.2994, 4.450602
457.7815, 4.533950
458.2636, 4.746586
458.7458, 4.909548
459.2279, 5.040934
459.7100, 5.077276
460.1921, 4.932849
460.6742, 4.776956
461.1563, 4.703543
461.6385, 4.711562
462.1206, 4.755025
462.6027, 4.808554
463.0848, 4.866115
463.5669, 4.892765
464.0491, 4.870765
464.5312, 4.853314
465.0133, 4.852555
465.4954, 4.867661
465.9775, 4.916455
466.4597, 5.008368
466.9418, 5.064541
467.4239, 4.960517
467.9060, 4.731850
468.3881, 4.635650
468.8702, 4.766152
469.3524, 4.922412
469.8345, 4.929341
470.3166, 4.825758
470.7987, 4.710944
471.2808, 4.535473
471.7629, 4.416517
472.2451, 4.534628
472.7272, 4.833259
473.2093, 5.003852
473.6914, 4.883823
474.1735, 4.630682
474.6556, 4.563742
475.1378, 4.745492
475.6199, 4.868815
476.1020, 4.831919
476.5841, 4.756308
477.0662, 4.756644
477.5483, 4.833506
478.0305, 4.913686
478.5126, 4.943775
478.9947, 4.926480
479.4768, 4.884650
479.9589, 4.715249
480.4410, 4.648479
480.9232, 4.826889
481.4053, 5.063554
481.8874, 5.162252
482.3695, 5.078651
482.8516, 4.907714
483.3337, 4.749897
483.8159, 4.601085
484.2980, 4.501322
484.7801, 4.474655
485.2622, 4.473986
485.7443, 4.478380
486.2264, 4.498209
486.7086, 4.566333
487.1907, 4.712829
487.6728, 4.853018
488.1549, 4.833416
488.6370, 4.640359
489.1191, 4.516736
489.6013, 4.559621
490.0834, 4.640347
490.5655, 4.619075
491.0476, 4.516389
491.5297, 4.475359
492.0118, 4.632003
492.4940, 4.837285
492.9761, 4.869227
493.4582, 4.734199
493.9403, 4.642363
494.4224, 4.717244
494.9045, 4.888851
495.3867, 4.979954
495.8688, 4.981279
496.3509, 4.947319
496.8330, 4.863803
497.3151, 4.766279
497.7972, 4.685983
498.2794, 4.629542
498.7615, 4.603591
499.2436, 4.622236
499.7257, 4.680147
500.2078, 4.679727
500.6899, 4.503795
501.1721, 4.411832
501.6542, 4.543532
502.1363, 4.731234
502.6184, 4.775865
503.1005, 4.633941
503.5826, 4.437403
504.0648, 4.344438
504.5469, 4.362446
505.0290, 4.413224
505.5111, 4.541984
505.9932, 4.647095
506.4753, 4.692961
506.9575, 4.690031
507.4396, 4.640100
507.9217, 4.523772
508.4038, 4.428139
508.8859, 4.490937
509.3680, 4.701617
509.8502, 4.864302
510.3323, 4.926256
510.8144, 4.945364
511.2965, 4.996507
511.7786, 5.066002
512.2607, 5.061955
512.7429, 4.892974
513.2250, 4.696002
513.7071, 4.587761
514.1892, 4.555827
514.6713, 4.527982
515.1534, 4.466218
515.6356, 4.409779
516.1177, 4.444481
516.5998, 4.650512
517.0819, 4.766459
517.5640, 4.719878
518.0461, 4.635175
518.5283, 4.587294
519.0104, 4.578527
519.4925, 4.590989
519.9746, 4.618249
520.4567, 4.642647
520.9388, 4.588302
521.4210, 4.373438
521.9031, 4.234424
522.3852, 4.227406
522.8673, 4.273108
523.3494, 4.325696
523.8315, 4.377353
524.3137, 4.435649
524.7958, 4.528820
525.2779, 4.629936
525.7600, 4.626834
526.2421, 4.489398
526.7242, 4.360394
527.2064, 4.293355
527.6885, 4.275931
528.1706, 4.291174
528.6527, 4.337946
529.1348, 4.418564
529.6169, 4.564340
530.0991, 4.734454
530.5812, 4.884468
531.0633, 5.007255
531.5454, 5.026686
532.0275, 4.836443
532.5096, 4.494081
532.9918, 4.408825
533.4739, 4.863673
533.9560, 5.170694
534.4381, 5.101438
534.9202, 4.861700
535.4023, 4.635711
535.8845, 4.478484
536.3666, 4.403213
536.8487, 4.438149
537.3308, 4.582856
537.8129, 4.672102
538.2951, 4.620365
538.7772, 4.626829
539.2593, 4.775171
539.7415, 4.981040
540.2236, 5.181081
540.7057, 5.354159
541.1878, 5.445771
541.6699, 5.328824
542.1520, 5.049695
542.6342, 4.958567
543.1163, 5.150079
543.5984, 5.357425
544.0805, 5.391327
544.5626, 5.325018
545.0447, 5.296927
545.5269, 5.362432
546.0090, 5.395984
546.4911, 5.279933
546.9732, 5.090748
547.4553, 4.988707
547.9374, 5.007987
548.4196, 5.043458
548.9017, 4.971849
549.3838, 4.786792
549.8659, 4.801709
550.3480, 5.275766
550.8301, 5.605078
551.3123, 5.557144
551.7944, 5.301873
552.2765, 4.996196
552.7586, 4.706836
553.2407, 4.514935
553.7228, 4.558288
554.2050, 4.856645
554.6871, 5.022139
555.1692, 4.973642
555.6513, 4.901899
556.1334, 4.864641
556.6155, 4.851531
557.0977, 4.859639
557.5798, 4.894175
558.0619, 4.903632
558.5440, 4.808999
559.0261, 4.646493
559.5082, 4.557740
559.9904, 4.573410
560.4725, 4.612658
560.9546, 4.618335
561.4367, 4.595734
561.9188, 4.578434
562.4009, 4.569588
562.8831, 4.562502
563.3652, 4.573662
563.8473, 4.577358
564.3294, 4.510398
564.8115, 4.371140
565.2936, 4.266830
565.7758, 4.319519
566.2579, 4.530258
566.7400, 4.633179
567.2221, 4.486643
567.7042, 4.400696
568.1863, 4.488800
568.6685, 4.627368
569.1506, 4.692111
569.6327, 4.655967
570.1148, 4.573412
570.5969, 4.470942
571.0790, 4.359382
571.5612, 4.319600
572.0433, 4.377680
572.5254, 4.434385
573.0075, 4.422396
573.4896, 4.385808
573.9717, 4.398175
574.4539, 4.484008
574.9360, 4.549726
575.4181, 4.515384
575.9002, 4.451024
576.3823, 4.471097
576.8644, 4.580542
577.3466, 4.684850
577.8287, 4.721696
578.3108, 4.695112
578.7929, 4.624314
579.2750, 4.398140
579.7571, 4.275724
580.2393, 4.370045
580.7214, 4.499559
581.2035, 4.503892
581.6856, 4.393359
582.1677, 4.302445
582.6498, 4.345439
583.1320, 4.470985
583.6141, 4.478110
584.0962, 4.306845
584.5783, 4.228174
585.0604, 4.462924
585.5425, 4.701985
586.0247, 4.615816
586.5068, 4.230041
586.9889, 3.958610
587.4710, 4.066646
587.9531, 4.325920
588.4352, 4.491284
588.9174, 4.566191
589.3995, 4.618451
589.8816, 4.681904
590.3637, 4.720071
590.8458, 4.657539
591.3279, 4.422268
591.8101, 4.295851
592.2922, 4.393236
592.7743, 4.484255
593.2564, 4.398992
593.7385, 4.224432
594.2206, 4.149564
594.7028, 4.261527
595.1849, 4.458306
595.6670, 4.564181
596.1491, 4.562670
596.6312, 4.598444
597.1133, 4.743271
597.5955, 4.842853
598.0776, 4.784894
598.5597, 4.634200
599.0418, 4.512887
599.5239, 4.455453
600.0060, 4.427686
600.4882, 4.396388
600.9703, 4.374583
601.4524, 4.421597
601.9345, 4.553729
602.4166, 4.635766
602.8987, 4.520914
603.3809, 4.230995
603.8630, 4.098777
604.3451, 4.242646
604.8272, 4.368252
605.3093, 4.411325
605.7914, 4.417407
606.2736, 4.429507
606.7557, 4.454831
607.2378, 4.476232
607.7199, 4.471035
608.2020, 4.453377
608.6841, 4.516592
609.1663, 4.725987
609.6484, 4.825550
610.1305, 4.616537
610.6126, 4.353256
611.0947, 4.269112
611.5768, 4.364906
612.0590, 4.451610
612.5411, 4.431270
613.0232, 4.373181
613.5053, 4.356908
613.9874, 4.375457
614.4695, 4.378131
614.9517, 4.338663
615.4338, 4.297884
615.9159, 4.328430
616.3980, 4.465470
616.8801, 4.552547
617.3622, 4.562836
617.8444, 4.558455
618.3265, 4.546003
618.8086, 4.542644
619.2907, 4.573771
619.7728, 4.648354
620.2549, 4.744460
620.7371, 4.871996
621.2192, 5.024276
621.7013, 5.000196
622.1834, 4.698639
622.6655, 4.428055
623.1476, 4.383795
623.6298, 4.482119
624.1119, 4.610768
624.5940, 4.794582
625.0761, 4.902238
625.5582, 4.829648
626.0403, 4.671124
626.5225, 4.521463
627.0046, 4.399210
627.4867, 4.330696
627.9688, 4.339079
628.4509, 4.396302
628.9330, 4.402854
629.4152, 4.260805
629.8973, 4.250933
630.3794, 4.520394
630.8615, 4.778017
631.3436, 4.840704
631.8257, 4.756660
632.3079, 4.682399
632.7900, 4.704283
633.2721, 4.737477
633.7542, 4.624602
634.2363, 4.389914
634.7184, 4.264357
635.2006, 4.306119
635.6827, 4.424647
636.1648, 4.572742
636.6469, 4.737768
637.1291, 4.834212
637.6112, 4.791656
638.0933, 4.764740
638.5754, 4.831614
639.0576, 4.924259
639.5397, 4.960807
640.0218, 4.933662
640.5039, 4.896333
640.9860, 4.898834
641.4681, 4.921174
641.9503, 4.852365
642.4324, 4.636046
642.9145, 4.470077
643.3966, 4.431429
643.8787, 4.429953
644.3608, 4.405216
644.8430, 4.362227
645.3251, 4.341304
645.8072, 4.370070
646.2893, 4.418385
646.7714, 4.447790
647.2535, 4.470283
647.7357, 4.531987
648.2178, 4.648042
648.6999, 4.778554
649.1820, 4.881521
649.6641, 4.957479
650.1462, 5.001365
650.6284, 5.020678
651.1105, 5.000544
651.5926, 4.878186
652.0747, 4.751097
652.5568, 4.717603
653.0389, 4.788848
653.5211, 4.913551
654.0032, 5.103584
654.4853, 5.292438
654.9674, 5.241865
655.4495, 4.922981
655.9316, 4.696208
656.4138, 4.711226
656.8959, 4.835669
657.3780, 4.921122
657.8601, 4.970255
658.3422, 4.967592
658.8243, 4.826967
659.3065, 4.720452
659.7886, 4.784460
660.2707, 4.932956
660.7528, 5.029950
661.2349, 5.033124
661.7170, 4.972708
662.1992, 4.863641
662.6813, 4.711559
663.1634, 4.661933
663.6455, 4.777171
664.1276, 4.871264
664.6097, 4.857595
665.0919, 4.814212
665.5740, 4.812536
666.0561, 4.855627
666.5382, 4.888073
667.0203, 4.887389
667.5024, 4.862012
667.9846, 4.804728
668.4667, 4.728743
668.9488, 4.679756
669.4309, 4.675786
669.9130, 4.685685
670.3951, 4.656465
670.8773, 4.568771
671.3594, 4.600078
671.8415, 4.946460
672.3236, 5.181032
672.8057, 5.134283
673.2878, 4.977655
673.7700, 4.863084
674.2521, 4.827225
674.7342, 4.871909
675.2163, 5.096681
675.6984, 5.368564
676.1805, 5.362060
676.6627, 5.088669
677.1448, 4.890241
677.6269, 4.913294
678.1090, 5.018018
678.5911, 4.999841
679.0732, 4.819341
679.5554, 4.748172
680.0375, 4.888793
680.5196, 5.017599
681.0017, 5.038791
681.4838, 5.005897
681.9659, 4.996094
682.4481, 5.023035
682.9302, 5.031438
683.4123, 4.945475
683.8944, 4.802841
684.3765, 4.760914
684.8586, 4.833202
685.3408, 4.936295
685.8229, 5.081523
686.3050, 5.200915
686.7871, 5.181506
687.2692, 5.029017
687.7513, 4.914204
688.2335, 4.891856
688.7156, 4.882048
689.1977, 4.853182
689.6798, 4.804885
690.1619, 4.706999
690.6440, 4.568781
691.1262, 4.501148
691.6083, 4.646484
692.0904, 4.958107
692.5725, 5.088241
693.0546, 4.974373
693.5367, 4.858357
694.0189, 4.769607
694.5010, 4.738219
694.9831, 4.825397
695.4652, 5.010843
695.9473, 5.136391
696.4294, 5.095015
696.9116, 5.040130
697.3937, 5.089021
697.8758, 5.195620
698.3579, 5.270010
698.8400, 5.293524
699.3221, 5.321286
699.8043, 5.420335
700.2864, 5.564856
700.7685, 5.542015
701.2506, 5.244703
701.7327, 5.007624
702.2148, 4.891251
702.6970, 4.861170
703.1791, 4.942847
703.6612, 5.102670
704.1433, 5.223892
704.6254, 5.262681
705.1075, 5.248567
705.5897, 5.175668
706.0718, 5.073869
706.5539, 4.999507
707.0360, 4.964668
707.5181, 4.976154
708.0002, 5.049393
708.4824, 5.163429
708.9645, 5.207126
709.4466, 5.114159
709.9287, 5.078491
710.4108, 5.229783
710.8929, 5.335412
711.3751, 5.190971
711.8572, 4.899347
712.3393, 4.738322
712.8214, 4.840897
713.3035, 5.009481
713.7856, 5.084466
714.2678, 5.097224
714.7499, 5.122287
715.2320, 5.166934
715.7141, 5.166328
716.1962, 5.059105
716.6783, 4.912071
717.1605, 4.940096
717.6426, 5.327042
718.1247, 5.527428
718.6068, 5.391601
719.0889, 5.234651
719.5710, 5.196541
720.0532, 5.234635
720.5353, 5.267301
721.0174, 5.271475
721.4995, 5.255980
721.9816, 5.206622
722.4637, 5.149718
722.9459, 5.124089
723.4280, 5.136232
723.9101, 5.243717
724.3922, 5.505285
724.8743, 5.776548
725.3564, 5.761276
725.8386, 5.322727
726.3207, 5.090857
726.8028, 5.247797
727.2849, 5.392614
727.7670, 5.347478
728.2491, 5.252344
728.7313, 5.328625
729.2134, 5.603078
729.6955, 5.791477
730.1776, 5.593306
730.6597, 5.241917
731.1418, 5.111321
731.6240, 5.175080
732.1061, 5.244799
732.5882, 5.253743
733.0703, 5.263254
733.5524, 5.358481
734.0345, 5.546341
734.5167, 5.653753
734.9988, 5.662028
735.4809, 5.608751
735.9631, 5.454225
736.4452, 5.275424
736.9273, 5.086516
737.4094, 4.922858
737.8915, 4.901148
738.3737, 5.165883
738.8558, 5.485002
739.3379, 5.602302
739.8200, 5.561808
740.3021, 5.477371
740.7842, 5.372941
741.2664, 5.305768
741.7485, 5.330801
742.2306, 5.423284
742.7127, 5.460772
743.1948, 5.406350
743.6769, 5.363454
744.1591, 5.316259
744.6412, 5.302020
745.1233, 5.404160
745.6054, 5.542193
746.0875, 5.513185
746.5696, 5.192379
747.0518, 4.965952
747.5339, 5.285317
748.0160, 5.829539
748.4981, 6.013750
748.9802, 5.840333
749.4623, 5.689893
749.9445, 5.762741
750.4266, 5.922438
750.9087, 5.899796
751.3908, 5.627231
751.8729, 5.494235
752.3550, 5.571836
752.8372, 5.698902
753.3193, 5.902709
753.8014, 6.080952
754.2835, 6.090134
754.7656, 5.919745
755.2477, 5.774931
755.7299, 5.797484
756.2120, 5.849849
756.6941, 5.793302
757.1762, 5.662662
757.6583, 5.529094
758.1404, 5.417470
758.6226, 5.371926
759.1047, 5.450547
759.5868, 5.627124
760.0689, 5.719918
760.5510, 5.697209
761.0331, 5.672319
761.5153, 5.649016
761.9974, 5.647707
762.4795, 5.711932
762.9616, 5.810872
763.4437, 5.841780
763.9258, 5.744181
764.4080, 5.646445
764.8901, 5.609296
765.3722, 5.605411
765.8543, 5.590729
766.3364, 5.576266
766.8185, 5.635540
767.3007, 5.814542
767.7828, 6.008565
768.2649, 5.997256
768.7470, 5.768808
769.2291, 5.672717
769.7112, 5.769685
770.1934, 5.873207
770.6755, 5.887450
771.1576, 5.859917
771.6397, 5.890769
772.1218, 6.003170
772.6039, 6.010415
773.0861, 5.742958
773.5682, 5.513863
774.0503, 5.528648
774.5324, 5.666708
775.0145, 5.763094
775.4966, 5.778010
775.9788, 5.750822
776.4609, 5.691740
776.9430, 5.634666
777.4251, 5.688657
777.9072, 5.849600
778.3893, 5.936540
778.8715, 5.891997
779.3536, 5.826077
779.8357, 5.835923
780.3178, 5.908857
780.7999, 5.957821
781.2820, 5.959615
781.7642, 5.971631
782.2463, 6.024395
782.7284, 6.062145
783.2105, 6.036799
783.6926, 5.971916
784.1747, 5.910839
784.6569, 5.864508
785.1390, 5.859287
785.6211, 5.943409
786.1032, 6.075253
786.5853, 6.187596
787.0674, 6.272432
787.5496, 6.312013
788.0317, 6.298096
788.5138, 6.232175
788.9959, 6.095587
789.4780, 5.872518
789.9601, 5.815875
790.4423, 6.070687
790.9244, 6.258770
791.4065, 6.245092
791.8886, 6.169066
792.3707, 6.135743
792.8528, 6.143114
793.3350, 6.139199
793.8171, 6.080723
794.2992, 6.041854
794.7813, 6.099256
795.2634, 6.188245
795.7455, 6.221740
796.2277, 6.192318
796.7098, 6.125292
797.1919, 6.031173
797.6740, 5.941381
798.1561, 5.923760
798.6382, 5.981117
799.1204, 6.036254
799.6025, 6.087784
800.0846, 6.129426
800.5667, 6.158994
801.0488, 6.176437
801.5309, 6.165507
802.0131, 6.108568
802.4952, 6.131320
802.9773, 6.373457
803.4594, 6.549476
803.9415, 6.499675
804.4236, 6.337992
804.9058, 6.169447
805.3879, 6.031510
805.8700, 5.966557
806.3521, 6.018366
806.8342, 6.136355
807.3163, 6.272559
807.7985, 6.411596
808.2806, 6.472386
808.7627, 6.439033
809.2448, 6.411765
809.7269, 6.471587
810.2090, 6.574325
810.6912, 6.574217
811.1733, 6.387727
811.6554, 6.298512
812.1375, 6.418478
812.6196, 6.508008
813.1017, 6.431536
813.5839, 6.294830
814.0660, 6.235229
814.5481, 6.272112
815.0302, 6.351616
815.5123, 6.535537
815.9944, 6.672990
816.4766, 6.582546
816.9587, 6.378053
817.4408, 6.276650
817.9229, 6.318707
818.4050, 6.388746
818.8871, 6.388849
819.3693, 6.352517
819.8514, 6.382957
820.3335, 6.484677
820.8156, 6.535208
821.2977, 6.498438
821.7798, 6.462863
822.2620, 6.494113
822.7441, 6.567262
823.2262, 6.616113
823.7083, 6.680575
824.1904, 6.627148
824.6725, 6.249622
825.1547, 5.976756
825.6368, 6.100142
826.1189, 6.396118
826.6010, 6.564033
827.0831, 6.550151
827.5652, 6.504066
828.0474, 6.523027
828.5295, 6.560816
829.0116, 6.564384
829.4937, 6.541759
829.9758, 6.504893
830.4579, 6.459459
830.9401, 6.426756
831.4222, 6.418258
831.9043, 6.447006
832.3864, 6.587497
832.8685, 6.896286
833.3506, 7.011131
833.8328, 6.804694
834.3149, 6.588430
834.7971, 6.535381
835.2792, 6.577148
835.7613, 6.584571
836.2434, 6.544816
836.7255, 6.541948
837.2076, 6.593956
837.6898, 6.680472
838.1719, 6.887897
838.6540, 7.069014
839.1361, 7.006613
839.6182, 6.708390
840.1003, 6.397794
840.5825, 6.187513
841.0646, 6.088608
841.5467, 6.186745
842.0288, 6.407271
842.5109, 6.470563
842.9930, 6.349213
843.4752, 6.311905
843.9573, 6.542078
844.4394, 6.877569
844.9215, 6.954577
845.4036, 6.709164
845.8857, 6.528377
846.3679, 6.415740
846.8500, 6.361446
847.3321, 6.418499
847.8142, 6.493275
848.2963, 6.453454
848.7784, 6.308824
849.2606, 6.272880
849.7427, 6.494683
850.2248, 6.696342
850.7069, 6.785951
851.1890, 6.790306
851.6711, 6.706863
852.1533, 6.565102
852.6354, 6.424590
853.1175, 6.308819
853.5996, 6.241580
854.0817, 6.281190
854.5638, 6.383345
855.0460, 6.431334
855.5281, 6.421641
856.0102, 6.389264
856.4923, 6.346078
856.9744, 6.303228
857.4565, 6.271831
857.9387, 6.252676
858.4208, 6.270984
858.9029, 6.330131
859.3850, 6.421824
859.8671, 6.601349
860.3492, 6.749941
860.8314, 6.800699
861.3135, 6.753191
861.7956, 6.581610
862.2777, 6.180190
862.7598, 5.897595
863.2419, 5.867628
863.7241, 5.942836
864.2062, 6.089544
864.6883, 6.246310
865.1704, 6.332555
865.6525, 6.328275
866.1346, 6.269803
866.6168, 6.157917
867.0989, 6.030957
867.5810, 5.952136
868.0631, 5.910606
868.5452, 5.863641
869.0273, 5.804437
869.5095, 5.778438
869.9916, 5.823430
870.4737, 5.909173
870.9558, 5.950897
871.4379, 5.934102
871.9200, 5.970429
872.4022, 6.126020
872.8843, 6.187720
873.3664, 5.962692
873.8485, 5.668817
874.3306, 5.664220
874.8127, 5.959098
875.2949, 6.158205
875.7770, 6.226061
876.2591, 6.208119
876.7412, 6.015760
877.2233, 5.823030
877.7054, 5.832511
878.1876, 5.974053
878.6697, 5.998864
879.1518, 5.780096
879.6339, 5.560561
880.1160, 5.604705
880.5981, 5.721416
881.0803, 5.579744
881.5624, 5.261099
882.0445, 5.111978
882.5266, 5.242452
883.0087, 5.430905
883.4908, 5.440912
883.9730, 5.324427
884.4551, 5.286092
884.9372, 5.329376
885.4193, 5.397533
885.9014, 5.488721
886.3835, 5.579201
886.8657, 5.673958
887.3478, 5.738493
887.8299, 5.667944
888.3120, 5.382759
888.7941, 5.176520
889.2762, 5.054897
889.7584, 5.004580
890.2405, 5.076505
890.7226, 5.180918
891.2047, 5.234432
891.6868, 5.231523
892.1689, 5.197598
892.6511, 5.116189
893.1332, 5.038402
893.6153, 4.987506
894.0974, 4.954861
894.5795, 4.896513
895.0616, 4.850202
895.5438, 4.966641
896.0259, 5.308081
896.5080, 5.587553
896.9901, 5.373895
897.4722, 4.914527
897.9543, 4.841805
898.4365, 5.088519
898.9186, 5.210729
899.4007, 5.084281
899.8828, 4.865278
900.3649, 4.669294
900.8470, 4.523173
901.3292, 4.555868
901.8113, 4.831029
902.2934, 4.958274
902.7755, 4.853125
903.2576, 4.720708
903.7397, 4.640816
904.2219, 4.610497
904.7040, 4.646208
905.1861, 4.767054
905.6682, 4.804551
906.1503, 4.609129
906.6324, 4.524490
907.1146, 4.784288
907.5967, 5.059206
908.0788, 5.034567
908.5609, 4.796643
909.0430, 4.657199
909.5251, 4.745056
910.0073, 4.808216
910.4894, 4.668677
910.9715, 4.461077
911.4536, 4.279283
911.9357, 4.147932
912.4178, 4.100651
912.9000, 4.141656
913.3821, 4.242648
913.8642, 4.401979
914.3463, 4.570998
914.8284, 4.664645
915.3105, 4.687642
915.7927, 4.648768
916.2748, 4.551323
916.7569, 4.443474
917.2390, 4.348488
917.7211, 4.272524
918.2032, 4.222212
918.6854, 4.197179
919.1675, 4.227668
919.6496, 4.346065
920.1317, 4.416240
920.6138, 4.378821
921.0959, 4.319761
921.5781, 4.319742
922.0602, 4.362084
922.5423, 4.364650
923.0244, 4.314455
923.5065, 4.250660
923.9886, 4.130956
924.4708, 4.047564
924.9529, 4.080654
925.4350, 4.150355
925.9171, 4.144244
926.3992, 4.057561
926.8813, 3.999676
927.3635, 4.045968
927.8456, 4.093532
928.3277, 4.094763
928.8098, 4.058306
929.2919, 3.954874
929.7740, 3.826317
930.2562, 3.781196
930.7383, 3.863953
931.2204, 3.984765
931.7025, 4.046487
932.1846, 4.090814
932.6667, 4.252060
933.1489, 4.469078
933.6310, 4.454757
934.1132, 4.166156
934.5953, 3.933358
935.0774, 4.014791
935.5595, 4.266765
936.0416, 4.345061
936.5237, 4.248086
937.0059, 4.204305
937.4880, 4.227014
937.9701, 4.292217
938.4522, 4.409308
938.9343, 4.521616
939.4164, 4.564406
939.8986, 4.539570
940.3807, 4.476833
940.8628, 4.348055
941.3449, 4.237298
941.8270, 4.160926
942.3091, 4.094079
942.7913, 3.995414
943.2734, 3.910058
943.7555, 3.931154
944.2376, 4.082378
944.7197, 4.173393
945.2018, 4.103358
945.6840, 4.055553
946.1661, 4.173753
946.6482, 4.284187
947.1303, 4.167665
947.6124, 3.903035
948.0945, 3.766623
948.5767, 3.872046
949.0588, 4.005771
949.5409, 4.006679
950.0230, 3.997445
950.5051, 4.156334
950.9872, 4.378478
951.4694, 4.444471
951.9515, 4.327253
952.4336, 4.167798
952.9157, 4.047457
953.3978, 3.979098
953.8799, 4.012453
954.3621, 4.105944
954.8442, 4.149771
955.3263, 4.138503
955.8084, 4.106043
956.2905, 4.065863
956.7726, 4.009725
957.2548, 3.919412
957.7369, 3.811856
958.2190, 3.759030
958.7011, 3.761949
959.1832, 3.810784
959.6653, 3.918221
960.1475, 4.003263
960.6296, 4.023235
961.1117, 3.981776
961.5938, 3.863126
962.0759, 3.640488
962.5580, 3.610848
963.0402, 3.886805
963.5223, 4.123487
964.0044, 4.288546
964.4865, 4.343310
964.9686, 4.212762
965.4507, 3.950596
965.9329, 3.710770
966.4150, 3.433641
966.8971, 3.340816
967.3792, 3.644755
967.8613, 3.894543
968.3434, 3.862791
968.8256, 3.746057
969.3077, 3.765810
969.7898, 3.896985
970.2719, 3.933512
970.7540, 3.742261
971.2361, 3.619281
971.7183, 3.778346
972.2004, 3.964647
972.6825, 3.948860
973.1646, 3.834469
973.6467, 3.816872
974.1288, 3.922633
974.6110, 4.012790
975.0931, 3.988184
975.5752, 3.945819
976.0573, 3.975878
976.5394, 4.045821
977.0215, 4.092896
977.5037, 4.134272
977.9858, 4.283662
978.4679, 4.566717
978.9500, 4.749047
979.4321, 4.532474
979.9142, 4.129915
980.3964, 3.976898
980.8785, 4.009942
981.3606, 3.995706
981.8427, 3.906216
982.3248, 3.855898
982.8069, 3.909192
983.2891, 3.980323
983.7712, 3.920602
984.2533, 3.761277
984.7354, 3.767644
985.2175, 3.947676
985.6996, 3.983263
986.1818, 3.781898
986.6639, 3.596833
987.1460, 3.619756
987.6281, 3.747357
988.1102, 3.736108
988.5923, 3.557620
989.0745, 3.440377
989.5566, 3.358799
990.0387, 3.439063
990.5208, 3.844358
991.0029, 4.190307
991.4850, 4.070369
991.9672, 3.633999
992.4493, 3.469483
992.9314, 3.741777
993.4135, 3.891264
993.8956, 3.848809
994.3777, 3.775298
994.8599, 3.647636
995.3420, 3.567206
995.8241, 3.683159
996.3062, 3.949154
996.7883, 4.093951
997.2704, 4.046730
997.7526, 3.966227
998.2347, 3.824337
998.7168, 3.709264
999.1989, 3.662878
999.6810, 3.668586
1000.163, 3.735184
1000.645, 3.845047
1001.127, 3.882457
1001.609, 3.777325
1002.092, 3.651926
1002.574, 3.429940
1003.056, 3.325804
1003.538, 3.664728
1004.020, 4.175041
1004.502, 4.382278
1004.984, 4.215983
1005.466, 4.002207
1005.949, 3.879584
1006.431, 3.814891
1006.913, 3.843651
1007.395, 3.872833
1007.877, 3.765997
1008.359, 3.569281
1008.841, 3.389703
1009.323, 3.269615
1009.805, 3.266012
1010.288, 3.520638
1010.770, 3.798972
1011.252, 3.760728
1011.734, 3.565750
1012.216, 3.502733
1012.698, 3.576792
1013.180, 3.671683
1013.662, 3.736565
1014.145, 3.757438
1014.627, 3.704957
1015.109, 3.611918
1015.591, 3.520549
1016.073, 3.447010
1016.555, 3.473283
1017.037, 3.590007
1017.519, 3.659456
1018.001, 3.611858
1018.484, 3.504941
1018.966, 3.388398
1019.448, 3.285783
1019.930, 3.307234
1020.412, 3.437121
1020.894, 3.527621
1021.376, 3.553527
1021.858, 3.582083
1022.341, 3.653403
1022.823, 3.738120
1023.305, 3.799190
1023.787, 3.832586
1024.269, 3.775949
1024.751, 3.620698
1025.233, 3.556726
1025.715, 3.635877
1026.198, 3.703407
1026.680, 3.659070
1027.162, 3.549267
1027.644, 3.448428
1028.126, 3.354720
1028.608, 3.370018
1029.090, 3.525082
1029.572, 3.634385
1030.054, 3.638421
1030.536, 3.654678
1031.019, 3.782473
1031.501, 3.949116
1031.983, 3.988308
1032.465, 3.873764
1032.947, 3.849522
1033.429, 3.989965
1033.911, 4.019074
1034.393, 3.828958
1034.876, 3.593293
1035.358, 3.393354
1035.840, 3.265243
1036.322, 3.315971
1036.804, 3.607289
1037.286, 3.782690
1037.768, 3.826151
1038.250, 3.776847
1038.733, 3.546435
1039.215, 3.342254
1039.697, 3.333157
1040.179, 3.454965
1040.661, 3.558683
1041.143, 3.669860
1041.625, 3.669239
1042.107, 3.399264
1042.589, 3.234577
1043.072, 3.300582
1043.554, 3.444163
1044.036, 3.615024
1044.518, 3.772710
1045.000, 3.809714
1045.482, 3.682639
1045.964, 3.597921
1046.446, 3.573759
1046.928, 3.587357
1047.411, 3.704442
1047.893, 3.790739
1048.375, 3.714991
1048.857, 3.539501
1049.339, 3.403388
1049.821, 3.306802
1050.303, 3.315578
1050.785, 3.604571
1051.268, 3.782731
1051.750, 3.611812
1052.232, 3.386659
1052.714, 3.345365
1053.196, 3.431803
1053.678, 3.489993
1054.160, 3.490690
1054.642, 3.510581
1055.125, 3.600235
1055.607, 3.669136
1056.089, 3.655105
1056.571, 3.632755
1057.053, 3.699651
1057.535, 3.796208
1058.017, 3.776088
1058.499, 3.601760
1058.981, 3.444705
1059.464, 3.300782
1059.946, 3.257331
1060.428, 3.485687
1060.910, 3.707025
1061.392, 3.655295
1061.874, 3.424744
1062.356, 3.231645
1062.838, 3.118460
1063.320, 3.031542
1063.803, 2.870407
1064.285, 2.836405
1064.767, 3.191278
1065.249, 3.555470
1065.731, 3.547250
1066.213, 3.319079
1066.695, 3.214243
1067.177, 3.299342
1067.660, 3.375128
1068.142, 3.349761
1068.624, 3.314919
1069.106, 3.219887
1069.588, 3.219467
1070.070, 3.612779
1070.552, 4.128061
1071.034, 4.229848
1071.516, 3.842931
1071.999, 3.481625
1072.481, 3.357866
1072.963, 3.307854
1073.445, 3.282731
1073.927, 3.273858
1074.409, 3.252333
1074.891, 3.252052
1075.373, 3.364116
1075.855, 3.581141
1076.338, 3.713789
1076.820, 3.662208
1077.302, 3.551475
1077.784, 3.375215
1078.266, 3.229796
1078.748, 3.234894
1079.230, 3.298056
1079.712, 3.255715
1080.195, 3.108127
1080.677, 3.018189
1081.159, 3.065391
1081.641, 3.140897
1082.123, 3.231046
1082.605, 3.291924
1083.087, 3.258137
1083.569, 3.195315
1084.052, 3.220284
1084.534, 3.312462
1085.016, 3.293388
1085.498, 3.014387
1085.980, 2.881724
1086.462, 3.283421
1086.944, 3.657377
1087.426, 3.546506
1087.908, 3.263850
1088.391, 3.229527
1088.873, 3.395766
1089.355, 3.422330
1089.837, 3.178702
1090.319, 2.940559
1090.801, 2.751860
1091.283, 2.677461
1091.765, 2.844510
1092.248, 3.071432
1092.730, 3.194010
1093.212, 3.213078
1093.694, 3.163946
1094.176, 3.037696
1094.658, 2.983711
1095.140, 3.167192
1095.622, 3.291175
1096.104, 3.151801
1096.587, 2.958323
1097.069, 2.843431
1097.551, 2.834428
1098.033, 3.008647
1098.515, 3.390463
1098.997, 3.597352
1099.479, 3.383289
1099.961, 3.163611
1100.443, 3.060599
1100.926, 3.017907
1101.408, 2.997359
1101.890, 3.008855
1102.372, 3.107565
1102.854, 3.288304
1103.336, 3.363487
1103.818, 3.188618
1104.300, 3.056150
1104.783, 3.031263
1105.265, 3.062485
1105.747, 3.199357
1106.229, 3.325914
1106.711, 3.271683
1107.193, 3.057441
1107.675, 2.897579
1108.157, 2.797993
1108.640, 2.793309
1109.122, 2.979980
1109.604, 3.147874
1110.086, 3.202847
1110.568, 3.212067
1111.050, 3.244536
1111.532, 3.288196
1112.014, 3.285201
1112.496, 3.201907
1112.979, 3.157691
1113.461, 3.242245
1113.943, 3.249530
1114.425, 3.017439
1114.907, 2.806556
1115.389, 2.839985
1115.871, 3.014144
1116.353, 3.090632
1116.835, 3.044594
1117.318, 3.052423
1117.800, 3.196508
1118.282, 3.236784
1118.764, 3.049801
1119.246, 2.886560
1119.728, 2.896309
1120.210, 2.999912
1120.692, 3.082170
1121.175, 3.143844
1121.657, 3.208658
1122.139, 3.275790
1122.621, 3.359020
1123.103, 3.501551
1123.585, 3.553730
1124.067, 3.432900
1124.549, 3.227068
1125.031, 3.010331
1125.514, 2.804927
1125.996, 2.726865
1126.478, 2.802784
1126.960, 2.857012
1127.442, 2.872207
1127.924, 2.943082
1128.406, 3.129631
1128.888, 3.237292
1129.370, 3.080192
1129.853, 2.807875
1130.335, 2.796019
1130.817, 3.043699
1131.299, 3.141672
1131.781, 3.085054
1132.263, 2.977280
1132.745, 2.832443
1133.227, 2.738721
1133.710, 2.745058
1134.192, 2.847469
1134.674, 3.084951
1135.156, 3.385273
1135.638, 3.418406
1136.120, 3.218668
1136.602, 3.030644
1137.084, 2.889005
1137.567, 2.832495
1138.049, 2.874425
1138.531, 2.934800
1139.013, 2.935441
1139.495, 2.910687
1139.977, 2.933259
1140.459, 2.983663
1140.941, 2.981518
1141.423, 2.953522
1141.906, 3.050140
1142.388, 3.281046
1142.870, 3.439376
1143.352, 3.387136
1143.834, 3.277097
1144.316, 3.323661
1144.798, 3.402953
1145.280, 3.285281
1145.762, 3.071508
1146.245, 2.972880
1146.727, 2.993201
1147.209, 3.010664
1147.691, 2.978462
1148.173, 2.983813
1148.655, 3.173128
1149.137, 3.338789
1149.619, 3.238170
1150.102, 3.062066
1150.584, 3.030238
1151.066, 3.101627
1151.548, 3.162219
1152.030, 3.185205
1152.512, 3.183327
1152.994, 3.142313
1153.476, 3.118312
1153.958, 3.209459
1154.441, 3.248832
1154.923, 3.034389
1155.405, 2.767588
1155.887, 2.710968
1156.369, 2.830680
1156.851, 2.916179
1157.333, 2.924507
1157.815, 2.910954
1158.297, 2.838983
1158.780, 2.812502
1159.262, 2.905555
1159.744, 3.014491
1160.226, 3.090670
1160.708, 3.120648
1161.190, 3.058954
1161.672, 2.895130
1162.154, 2.824424
1162.637, 2.933141
1163.119, 2.968823
1163.601, 2.855188
1164.083, 2.769152
1164.565, 2.785241
1165.047, 2.855944
1165.529, 2.935043
1166.011, 3.025200
1166.494, 3.150651
1166.976, 3.342258
1167.458, 3.396777
1167.940, 3.276807
1168.422, 3.216750
1168.904, 3.288538
1169.386, 3.335967
1169.868, 3.243457
1170.350, 3.117669
1170.833, 3.151389
1171.315, 3.306274
1171.797, 3.364324
1172.279, 3.328595
1172.761, 3.208023
1173.243, 3.014855
1173.725, 2.866274
1174.207, 2.808841
1174.689, 2.874156
1175.172, 3.134617
1175.654, 3.400826
1176.136, 3.244747
1176.618, 2.892236
1177.100, 2.917740
1177.582, 3.194771
1178.064, 3.272559
1178.546, 3.107871
1179.029, 3.000390
1179.511, 3.101127
1179.993, 3.212589
1180.475, 3.100622
1180.957, 2.985914
1181.439, 3.180769
1181.921, 3.430897
1182.403, 3.372049
1182.885, 3.112453
1183.368, 2.939407
1183.850, 2.913855
1184.332, 2.920741
1184.814, 2.915027
1185.296, 2.929315
1185.778, 3.013305
1186.260, 3.079331
1186.742, 3.012466
1187.225, 2.947891
1187.707, 3.089481
1188.189, 3.362917
1188.671, 3.471426
1189.153, 3.335085
1189.635, 3.239107
1190.117, 3.216993
1190.599, 3.212828
1191.082, 3.250530
1191.564, 3.257135
1192.046, 3.176820
1192.528, 3.062718
1193.010, 2.982553
1193.492, 2.935576
1193.974, 2.912964
1194.456, 2.912428
1194.938, 2.958038
1195.421, 3.064560
1195.903, 3.135826
1196.385, 3.141025
1196.867, 3.107755
1197.349, 3.043728
1197.831, 3.012490
1198.313, 3.198789
1198.795, 3.508943
1199.277, 3.390307
1199.760, 2.956568
1200.242, 2.855852
1200.724, 3.107356
1201.206, 3.248848
1201.688, 3.113451
1202.170, 2.943779
1202.652, 2.937648
1203.134, 3.000507
1203.617, 3.026654
1204.099, 3.035797
1204.581, 3.068427
1205.063, 3.099494
1205.545, 3.060240
1206.027, 2.968922
1206.509, 2.924929
1206.991, 2.967248
1207.474, 3.016223
1207.956, 3.027899
1208.438, 3.037602
1208.920, 3.091410
1209.402, 3.122473
1209.884, 3.008683
1210.366, 2.875786
1210.848, 2.953246
1211.330, 3.227672
1211.813, 3.408632
1212.295, 3.477430
1212.777, 3.422597
1213.259, 3.094020
1213.741, 2.895236
1214.223, 2.999612
1214.705, 3.144661
1215.187, 3.138588
1215.669, 3.075585
1216.152, 3.140930
1216.634, 3.321515
1217.116, 3.389993
1217.598, 3.340281
1218.080, 3.230357
1218.562, 3.059169
1219.044, 2.973101
1219.526, 3.024835
1220.009, 3.105080
1220.491, 3.122298
1220.973, 3.130554
1221.455, 3.272649
1221.937, 3.456376
1222.419, 3.399588
1222.901, 3.195251
1223.383, 3.081916
1223.865, 3.086821
1224.348, 3.183032
1224.830, 3.348146
1225.312, 3.448830
1225.794, 3.363356
1226.276, 3.242316
1226.758, 3.216994
1227.240, 3.190416
1227.722, 3.013772
1228.204, 2.826816
1228.687, 2.852793
1229.169, 3.039669
1229.651, 3.159098
1230.133, 3.165189
1230.615, 3.123427
1231.097, 2.989495
1231.579, 2.891518
1232.061, 2.855095
1232.544, 2.859235
1233.026, 2.900560
1233.508, 2.973434
1233.990, 3.085194
1234.472, 3.217459
1234.954, 3.289762
1235.436, 3.295419
1235.918, 3.283343
1236.401, 3.251556
1236.883, 3.219762
1237.365, 3.191186
1237.847, 3.191375
1238.329, 3.235901
1238.811, 3.276394
1239.293, 3.252218
1239.775, 3.194782
1240.257, 3.161560
1240.740, 3.149681
1241.222, 3.160087
1241.704, 3.183604
1242.186, 3.180220
1242.668, 3.161563
1243.150, 3.232968
1243.632, 3.453607
1244.114, 3.584641
1244.596, 3.340888
1245.079, 3.117199
1245.561, 3.227150
1246.043, 3.401066
1246.525, 3.421268
1247.007, 3.342732
1247.489, 3.248566
1247.971, 3.154975
1248.453, 3.101917
1248.936, 3.111646
1249.418, 3.118811
1249.900, 3.134512
1250.382, 3.116234
1250.864, 3.004932
1251.346, 2.984383
1251.828, 3.211960
1252.310, 3.450327
1252.792, 3.357672
1253.275, 3.037046
1253.757, 2.923712
1254.239, 3.000639
1254.721, 3.065375
1255.203, 3.107484
1255.685, 3.132756
1256.167, 3.140988
1256.649, 3.111795
1257.131, 3.033956
1257.614, 2.961951
1258.096, 2.932269
1258.578, 2.958161
1259.060, 3.090932
1259.542, 3.258043
1260.024, 3.421700
1260.506, 3.522848
1260.988, 3.423303
1261.471, 3.170812
1261.953, 3.016815
1262.435, 3.040043
1262.917, 3.103891
1263.399, 3.254440
1263.881, 3.325405
1264.363, 3.193049
1264.845, 3.067082
1265.328, 3.071990
1265.810, 3.110000
1266.292, 3.047482
1266.774, 2.935941
1267.256, 3.012318
1267.738, 3.309984
1268.220, 3.417237
1268.702, 3.325970
1269.184, 3.312600
1269.667, 3.423474
1270.149, 3.481774
1270.631, 3.407068
1271.113, 3.309902
1271.595, 3.299836
1272.077, 3.314810
1272.559, 3.207605
1273.041, 3.108157
1273.523, 3.321601
1274.006, 3.628706
1274.488, 3.543217
1274.970, 3.181654
1275.452, 3.110230
1275.934, 3.481073
1276.416, 3.729939
1276.898, 3.492041
1277.380, 3.338645
1277.863, 3.566017
1278.345, 3.733564
1278.827, 3.555859
1279.309, 3.305274
1279.791, 3.179741
1280.273, 3.158192
1280.755, 3.217155
1281.237, 3.354169
1281.719, 3.317626
1282.202, 3.083039
1282.684, 3.075391
1283.166, 3.333785
1283.648, 3.482199
1284.130, 3.405673
1284.612, 3.311897
1285.094, 3.343086
1285.576, 3.430908
1286.059, 3.538823
1286.541, 3.605628
1287.023, 3.563699
1287.505, 3.412520
##END=



