##NAMES=Millerite
##RRUFFID=R080122
##IDEAL CHEMISTRY=NiS
##LOCALITY=Eugenia mine, Bellmunt del Priorat, Tarragona, Catalonia, Spain
##OWNER=RRUFF
##SOURCE=Joan Abella i Creus
##DESCRIPTION=Metallic-bronze striated crystals
##STATUS=The identification of this mineral has been confirmed by single-crystal X-ray diffraction.
##URL=rruff.info/R080122
90.52570, 0.0000000E+00
91.00781, 5.070669
91.48993, 5.060364
91.97205, 5.056399
92.45416, 5.056167
92.93628, 5.062302
93.41840, 5.100353
93.90051, 5.210014
94.38263, 5.292082
94.86475, 5.115051
95.34686, 4.681937
95.82898, 4.280751
96.31110, 4.179986
96.79321, 4.352030
97.27533, 4.516520
97.75745, 4.613832
98.23956, 4.655109
98.72168, 4.673091
99.20380, 4.660821
99.68591, 4.646482
100.1680, 4.661463
100.6501, 4.709579
101.1323, 4.767975
101.6144, 4.831603
102.0965, 4.900903
102.5786, 4.972409
103.0607, 5.055079
103.5428, 5.132692
104.0250, 5.168420
104.5071, 5.109962
104.9892, 5.097835
105.4713, 5.207410
105.9534, 5.570826
106.4355, 5.761453
106.9177, 5.689156
107.3998, 5.440571
107.8819, 5.284914
108.3640, 5.254986
108.8461, 5.293287
109.3282, 5.375029
109.8104, 5.547894
110.2925, 5.707445
110.7746, 5.852913
111.2567, 5.982506
111.7388, 6.087955
112.2209, 6.036197
112.7031, 6.029679
113.1852, 6.208626
113.6673, 6.929730
114.1494, 7.523964
114.6315, 7.738989
115.1136, 7.556460
115.5958, 7.445535
116.0779, 7.668780
116.5600, 8.007223
117.0421, 8.214538
117.5242, 8.042295
118.0063, 7.841511
118.4885, 7.790825
118.9706, 7.915442
119.4527, 8.140865
119.9348, 8.369946
120.4169, 8.670568
120.8990, 9.173774
121.3812, 10.32519
121.8633, 11.53066
122.3454, 12.20594
122.8275, 12.20721
123.3096, 11.82776
123.7917, 11.15089
124.2739, 10.25106
124.7560, 9.401555
125.2381, 8.641962
125.7202, 8.067166
126.2023, 7.863265
126.6844, 8.133098
127.1666, 8.702604
127.6487, 9.505683
128.1308, 10.51926
128.6129, 11.32383
129.0950, 11.44554
129.5771, 11.04563
130.0593, 10.70501
130.5414, 10.63261
131.0235, 10.71567
131.5056, 10.62882
131.9877, 10.31645
132.4698, 9.966063
132.9520, 9.846934
133.4341, 9.946264
133.9162, 10.06473
134.3983, 10.08714
134.8804, 10.04668
135.3625, 10.24052
135.8447, 10.70792
136.3268, 11.30058
136.8089, 11.83528
137.2910, 12.31099
137.7731, 12.75710
138.2552, 13.30385
138.7374, 14.03301
139.2195, 14.14473
139.7016, 13.48449
140.1837, 12.37117
140.6658, 11.44030
141.1479, 10.67592
141.6301, 10.09656
142.1122, 9.698932
142.5943, 9.469061
143.0764, 9.467072
143.5585, 9.805050
144.0406, 10.35672
144.5228, 10.67070
145.0049, 10.58213
145.4870, 10.46096
145.9691, 10.52589
146.4512, 11.01554
146.9333, 11.30075
147.4155, 11.29015
147.8976, 11.01445
148.3797, 10.75257
148.8618, 10.38959
149.3439, 10.11798
149.8260, 10.06010
150.3082, 10.47777
150.7903, 10.81593
151.2724, 10.99709
151.7545, 11.01567
152.2366, 11.07447
152.7188, 11.22926
153.2009, 11.40290
153.6830, 11.53170
154.1651, 11.87850
154.6472, 11.92055
155.1293, 11.37642
155.6115, 10.13932
156.0936, 9.188007
156.5757, 8.833430
157.0578, 8.791652
157.5399, 8.758563
158.0220, 8.410424
158.5042, 8.595318
158.9863, 8.691394
159.4684, 8.703421
159.9505, 8.379663
160.4326, 8.489502
160.9147, 8.425575
161.3969, 8.354520
161.8790, 8.525385
162.3611, 8.250467
162.8432, 8.417497
163.3253, 8.408109
163.8074, 8.479463
164.2896, 8.375975
164.7717, 8.326492
165.2538, 8.485181
165.7359, 8.197123
166.2180, 8.367124
166.7001, 8.448304
167.1823, 8.445429
167.6644, 8.106776
168.1465, 8.201719
168.6286, 8.122896
169.1107, 8.036949
169.5928, 8.192918
170.0750, 7.903099
170.5571, 8.055232
171.0392, 8.030948
171.5213, 8.087405
172.0034, 7.969025
172.4855, 7.904646
172.9677, 8.015156
173.4498, 7.879909
173.9319, 7.993124
174.4140, 8.082770
174.8961, 8.126187
175.3782, 8.122787
175.8604, 8.051763
176.3425, 7.920126
176.8246, 7.789982
177.3067, 7.705234
177.7888, 7.654190
178.2709, 7.611547
178.7531, 7.549106
179.2352, 7.506641
179.7173, 7.582827
180.1994, 7.772223
180.6815, 7.928858
181.1636, 7.857186
181.6458, 7.636357
182.1279, 7.344569
182.6100, 7.546760
183.0921, 7.660129
183.5742, 7.689450
184.0563, 7.382987
184.5385, 7.510118
185.0206, 7.463485
185.5027, 7.409727
185.9848, 7.597886
186.4669, 7.340261
186.9490, 7.524584
187.4312, 7.532489
187.9133, 7.621136
188.3954, 7.534945
188.8775, 7.502755
189.3596, 7.645460
189.8417, 7.691325
190.3239, 7.653707
190.8060, 7.839551
191.2881, 7.846353
191.7702, 7.635305
192.2523, 7.397336
192.7344, 7.436202
193.2166, 7.751245
193.6987, 7.970880
194.1808, 7.856113
194.6629, 7.451775
195.1450, 7.322551
195.6271, 7.529986
196.1093, 7.854722
196.5914, 7.967983
197.0735, 7.854537
197.5556, 7.720344
198.0377, 7.652866
198.5198, 7.651964
199.0020, 7.642217
199.4841, 7.623487
199.9662, 7.595907
200.4483, 7.550709
200.9304, 7.481726
201.4125, 7.432178
201.8947, 7.424338
202.3768, 7.460769
202.8589, 7.514247
203.3410, 7.601471
203.8231, 7.683862
204.3052, 7.675788
204.7874, 7.556791
205.2695, 7.434523
205.7516, 7.361144
206.2337, 7.345587
206.7158, 7.306534
207.1979, 7.212530
207.6801, 7.124545
208.1622, 7.209294
208.6443, 7.545201
209.1264, 7.813540
209.6085, 7.827177
210.0906, 7.502858
210.5728, 7.308083
211.0549, 7.273582
211.5370, 7.355708
212.0191, 7.475888
212.5012, 7.667017
212.9833, 7.818034
213.4655, 7.855505
213.9476, 7.730497
214.4297, 7.678715
214.9118, 7.725494
215.3939, 7.837167
215.8760, 7.945276
216.3581, 8.076970
216.8403, 8.147279
217.3224, 8.087848
217.8045, 7.819696
218.2866, 7.668983
218.7687, 7.676097
219.2508, 7.792202
219.7330, 7.885989
220.2151, 7.941322
220.6972, 8.003313
221.1793, 8.105664
221.6614, 8.296512
222.1435, 8.389026
222.6257, 8.323414
223.1078, 8.174995
223.5899, 8.167072
224.0720, 8.393605
224.5541, 8.610388
225.0362, 8.704344
225.5184, 8.630373
226.0005, 8.532794
226.4826, 8.357376
226.9647, 8.174394
227.4468, 8.191804
227.9289, 8.504387
228.4111, 8.872239
228.8932, 9.206029
229.3753, 9.557144
229.8574, 9.736465
230.3395, 9.633514
230.8216, 9.381207
231.3038, 9.373464
231.7859, 9.808665
232.2680, 10.19667
232.7501, 10.28399
233.2322, 9.842916
233.7143, 9.626934
234.1965, 9.753076
234.6786, 10.08193
235.1607, 10.21076
235.6428, 9.999125
236.1249, 9.791408
236.6070, 9.746851
237.0892, 9.954616
237.5713, 10.12709
238.0534, 10.24454
238.5355, 10.33165
239.0176, 10.46249
239.4997, 10.71120
239.9819, 10.89871
240.4640, 10.91600
240.9461, 10.59746
241.4282, 10.51277
241.9103, 10.76566
242.3924, 11.21940
242.8746, 11.53413
243.3567, 11.59133
243.8388, 11.68959
244.3209, 11.95131
244.8030, 12.41464
245.2851, 12.94237
245.7673, 13.59455
246.2494, 14.28703
246.7315, 14.82673
247.2136, 15.12680
247.6957, 15.41393
248.1778, 15.81464
248.6600, 16.46009
249.1421, 16.81236
249.6242, 16.84225
250.1063, 16.59911
250.5884, 16.15548
251.0705, 15.42281
251.5527, 14.63570
252.0348, 13.86950
252.5169, 13.09843
252.9990, 12.41337
253.4811, 11.79365
253.9632, 11.26576
254.4454, 10.90320
254.9275, 10.78879
255.4096, 10.67586
255.8917, 10.46924
256.3738, 10.13476
256.8560, 9.874634
257.3381, 9.716062
257.8202, 9.606979
258.3023, 9.460781
258.7844, 9.254161
259.2665, 9.064301
259.7487, 8.912868
260.2308, 8.802142
260.7129, 8.725255
261.1950, 8.699044
261.6771, 8.688498
262.1592, 8.630798
262.6414, 8.479645
263.1235, 8.405627
263.6056, 8.506313
264.0877, 8.807281
264.5698, 8.887755
265.0519, 8.670027
265.5341, 8.339063
266.0162, 8.093012
266.4983, 7.932451
266.9804, 7.866884
267.4625, 7.935968
267.9446, 8.135661
268.4268, 8.217342
268.9089, 8.138866
269.3910, 8.014284
269.8731, 7.966865
270.3552, 8.020999
270.8373, 8.052955
271.3195, 8.023936
271.8016, 7.942987
272.2837, 7.904131
272.7658, 7.910462
273.2479, 7.951320
273.7300, 8.043081
274.2122, 8.207030
274.6943, 8.283591
275.1764, 8.216372
275.6585, 8.036404
276.1406, 7.896805
276.6227, 7.793944
277.1049, 7.743385
277.5870, 7.773195
278.0691, 7.890706
278.5512, 8.005449
279.0333, 8.106120
279.5154, 8.192713
279.9976, 8.287795
280.4797, 8.408558
280.9618, 8.449080
281.4439, 8.239143
281.9260, 7.775155
282.4081, 7.589270
282.8903, 7.821969
283.3724, 8.289691
283.8545, 8.562926
284.3366, 8.630555
284.8187, 8.621634
285.3008, 8.581263
285.7830, 8.516932
286.2651, 8.525331
286.7472, 8.623839
287.2293, 8.781010
287.7114, 8.975732
288.1935, 9.207102
288.6757, 9.370544
289.1578, 9.364438
289.6399, 9.224827
290.1220, 9.132766
290.6041, 9.099361
291.0862, 9.109492
291.5684, 9.141217
292.0505, 9.196155
292.5326, 9.286067
293.0147, 9.435123
293.4968, 9.624135
293.9789, 9.806456
294.4611, 9.981373
294.9432, 10.13660
295.4253, 10.23693
295.9074, 10.29761
296.3895, 10.38159
296.8716, 10.56104
297.3538, 10.77222
297.8359, 10.85600
298.3180, 10.80687
298.8001, 10.76860
299.2822, 10.95169
299.7643, 11.25976
300.2465, 11.43142
300.7286, 11.24620
301.2107, 10.96076
301.6928, 10.96573
302.1749, 11.24371
302.6570, 11.52916
303.1392, 11.61421
303.6213, 11.56222
304.1034, 11.48108
304.5855, 11.41269
305.0676, 11.31406
305.5497, 11.09676
306.0319, 10.78881
306.5140, 10.52470
306.9961, 10.46844
307.4782, 10.48112
307.9603, 10.38480
308.4424, 10.09050
308.9246, 9.770616
309.4067, 9.552840
309.8888, 9.417318
310.3709, 9.303948
310.8530, 9.213995
311.3351, 9.115191
311.8173, 8.966900
312.2994, 8.735855
312.7815, 8.533758
313.2636, 8.460797
313.7457, 8.461546
314.2278, 8.436091
314.7100, 8.331232
315.1921, 8.195518
315.6742, 8.041940
316.1563, 7.862720
316.6384, 7.727494
317.1205, 7.688494
317.6027, 7.706954
318.0848, 7.734292
318.5669, 7.780145
319.0490, 7.809857
319.5311, 7.819658
320.0132, 7.810167
320.4954, 7.746695
320.9775, 7.555521
321.4596, 7.337214
321.9417, 7.180048
322.4238, 7.095834
322.9059, 7.080344
323.3881, 7.178591
323.8702, 7.375535
324.3523, 7.506200
324.8344, 7.550755
325.3165, 7.519876
325.7986, 7.420785
326.2808, 7.086104
326.7629, 6.881115
327.2450, 6.899301
327.7271, 7.083129
328.2092, 7.204726
328.6913, 7.192488
329.1735, 7.179283
329.6556, 7.219926
330.1377, 7.354940
330.6198, 7.467742
331.1019, 7.563954
331.5840, 7.635869
332.0662, 7.661862
332.5483, 7.569983
333.0304, 7.538217
333.5125, 7.656485
333.9946, 7.984409
334.4767, 8.140748
334.9589, 8.039665
335.4410, 7.849344
335.9231, 7.781459
336.4052, 7.869230
336.8873, 7.998943
337.3694, 8.173786
337.8515, 8.384872
338.3336, 8.447911
338.8158, 8.292039
339.2979, 8.138993
339.7800, 8.227011
340.2621, 8.601604
340.7442, 8.892783
341.2263, 9.014830
341.7085, 9.017365
342.1906, 9.037334
342.6727, 9.067862
343.1548, 9.159734
343.6369, 9.407334
344.1190, 9.792262
344.6012, 10.01924
345.0833, 10.00702
345.5654, 9.917576
346.0475, 10.06968
346.5296, 10.44705
347.0117, 10.80811
347.4939, 10.99761
347.9760, 11.06382
348.4581, 11.15362
348.9402, 11.27116
349.4223, 11.42416
349.9044, 11.66772
350.3866, 11.96683
350.8687, 12.20436
351.3508, 12.29858
351.8329, 12.31969
352.3150, 12.40208
352.7971, 12.54231
353.2793, 12.61938
353.7614, 12.52040
354.2435, 12.30000
354.7256, 12.04305
355.2077, 11.75650
355.6898, 11.46555
356.1720, 11.15427
356.6541, 10.84215
357.1362, 10.61214
357.6183, 10.64128
358.1004, 10.70230
358.5826, 10.55551
359.0647, 10.05468
359.5468, 9.605813
360.0289, 9.499996
360.5110, 9.595440
360.9931, 9.622135
361.4753, 9.374017
361.9574, 9.110891
362.4395, 8.987257
362.9216, 9.045678
363.4037, 9.057458
363.8858, 8.842458
364.3680, 8.590426
364.8501, 8.500896
365.3322, 8.762628
365.8143, 9.041440
366.2964, 9.274140
366.7785, 9.459433
367.2607, 9.598864
367.7428, 9.668240
368.2249, 9.709949
368.7070, 9.749280
369.1891, 9.786487
369.6712, 9.819382
370.1534, 9.808790
370.6355, 9.792354
371.1176, 9.897683
371.5997, 10.23416
372.0818, 10.55155
372.5639, 10.74706
373.0461, 10.78241
373.5282, 10.82244
374.0103, 10.87810
374.4924, 10.92874
374.9745, 10.95538
375.4566, 10.97969
375.9388, 10.90858
376.4209, 10.68488
376.9030, 10.31893
377.3851, 10.03592
377.8672, 9.849308
378.3493, 9.691748
378.8315, 9.506672
379.3136, 9.292403
379.7957, 9.067293
380.2778, 8.834839
380.7599, 8.591364
381.2420, 8.300505
381.7242, 7.967058
382.2063, 7.661926
382.6884, 7.459961
383.1705, 7.329482
383.6526, 7.158519
384.1347, 6.926158
384.6169, 6.694973
385.0990, 6.549876
385.5811, 6.475372
386.0632, 6.428922
386.5453, 6.423004
387.0274, 6.418617
387.5096, 6.356395
387.9917, 6.236578
388.4738, 6.104616
388.9559, 5.954582
389.4380, 5.828200
389.9201, 5.787603
390.4023, 5.938289
390.8844, 6.082055
391.3665, 6.063508
391.8486, 5.920260
392.3307, 5.790646
392.8128, 5.751627
393.2950, 5.742178
393.7771, 5.724011
394.2592, 5.694586
394.7413, 5.646790
395.2234, 5.533478
395.7055, 5.409275
396.1877, 5.358686
396.6698, 5.541471
397.1519, 5.665740
397.6340, 5.600682
398.1161, 5.310770
398.5982, 5.123256
399.0804, 5.149680
399.5625, 5.231641
400.0446, 5.252798
400.5267, 5.125754
401.0088, 5.067846
401.4909, 5.127518
401.9731, 5.272703
402.4552, 5.377736
402.9373, 5.449367
403.4194, 5.470027
403.9015, 5.414120
404.3836, 5.246269
404.8658, 5.145312
405.3479, 5.125937
405.8300, 5.154757
406.3121, 5.184404
406.7942, 5.213327
407.2763, 5.256161
407.7585, 5.336002
408.2406, 5.435862
408.7227, 5.448660
409.2048, 5.367280
409.6869, 5.259315
410.1690, 5.172266
410.6512, 5.107409
411.1333, 5.066758
411.6154, 5.050105
412.0975, 5.059215
412.5796, 5.140983
413.0617, 5.269662
413.5439, 5.320114
414.0260, 5.113919
414.5081, 4.827341
414.9902, 4.737367
415.4723, 4.878412
415.9544, 5.050344
416.4366, 5.104724
416.9187, 5.081862
417.4008, 5.042257
417.8829, 5.009495
418.3650, 4.965889
418.8471, 4.863358
419.3293, 4.722926
419.8114, 4.663250
420.2935, 4.833511
420.7756, 5.040055
421.2577, 5.143275
421.7398, 5.062751
422.2220, 4.995425
422.7041, 5.007264
423.1862, 5.055811
423.6683, 5.064708
424.1504, 4.694604
424.6325, 4.941937
425.1147, 5.074380
425.5968, 5.098111
426.0789, 4.687518
426.5610, 4.837765
427.0431, 4.763253
427.5252, 4.679523
428.0074, 4.908704
428.4895, 4.561281
428.9716, 4.785502
429.4537, 4.781533
429.9358, 4.882001
430.4179, 4.756321
430.9001, 4.613731
431.3822, 4.610909
431.8643, 4.703234
432.3464, 4.736878
432.8285, 4.696072
433.3106, 4.646802
433.7928, 4.700945
434.2749, 4.840960
434.7570, 4.913073
435.2391, 4.835089
435.7212, 4.687912
436.2033, 4.627065
436.6855, 4.647719
437.1676, 4.696012
437.6497, 4.759331
438.1318, 4.818294
438.6139, 4.841014
439.0960, 4.818553
439.5782, 4.774004
440.0603, 4.703299
440.5424, 4.625618
441.0245, 4.577724
441.5066, 4.584559
441.9887, 4.617233
442.4709, 4.673943
442.9530, 4.752073
443.4351, 4.805140
443.9172, 4.839799
444.3993, 4.827697
444.8814, 4.742162
445.3636, 4.427635
445.8457, 4.242731
446.3278, 4.326696
446.8099, 4.575114
447.2920, 4.729832
447.7741, 4.708044
448.2563, 4.679204
448.7384, 4.706793
449.2205, 4.809465
449.7026, 4.813521
450.1847, 4.659472
450.6668, 4.481828
451.1490, 4.410823
451.6311, 4.473564
452.1132, 4.538376
452.5953, 4.586272
453.0774, 4.624580
453.5595, 4.693538
454.0417, 4.801970
454.5238, 4.858906
455.0059, 4.762965
455.4880, 4.557603
455.9701, 4.484767
456.4522, 4.565941
456.9344, 4.686184
457.4165, 4.729558
457.8986, 4.713294
458.3807, 4.684105
458.8628, 4.657585
459.3449, 4.624002
459.8271, 4.546639
460.3092, 4.443036
460.7913, 4.386490
461.2734, 4.465991
461.7555, 4.583166
462.2376, 4.650364
462.7198, 4.643593
463.2019, 4.640460
463.6840, 4.709376
464.1661, 4.791129
464.6482, 4.814066
465.1303, 4.665670
465.6125, 4.554284
466.0946, 4.573816
466.5767, 4.704629
467.0588, 4.755992
467.5409, 4.649968
468.0230, 4.518221
468.5052, 4.414668
468.9873, 4.341807
469.4694, 4.286695
469.9515, 4.225640
470.4336, 4.202456
470.9157, 4.316015
471.3979, 4.641194
471.8800, 4.836405
472.3621, 4.775292
472.8442, 4.519297
473.3263, 4.361705
473.8084, 4.311800
474.2906, 4.287780
474.7727, 4.207047
475.2548, 4.094097
475.7369, 4.088849
476.2190, 4.227591
476.7011, 4.386273
477.1833, 4.383368
477.6654, 4.276429
478.1475, 4.224146
478.6296, 4.349735
479.1117, 4.521939
479.5938, 4.615066
480.0760, 4.635212
480.5581, 4.621488
481.0402, 4.582886
481.5223, 4.528382
482.0044, 4.453742
482.4865, 4.331182
482.9687, 4.264513
483.4508, 4.325727
483.9329, 4.454576
484.4150, 4.564096
484.8971, 4.685457
485.3792, 4.737787
485.8614, 4.669332
486.3435, 4.491234
486.8256, 4.356709
487.3077, 4.265443
487.7898, 4.219545
488.2719, 4.231879
488.7541, 4.333435
489.2362, 4.389619
489.7183, 4.386682
490.2004, 4.355510
490.6825, 4.346222
491.1646, 4.362661
491.6468, 4.357299
492.1289, 4.297223
492.6110, 4.215300
493.0931, 4.218449
493.5752, 4.305755
494.0573, 4.397459
494.5395, 4.445629
495.0216, 4.455854
495.5037, 4.431260
495.9858, 4.366247
496.4679, 4.303119
496.9500, 4.288606
497.4322, 4.301320
497.9143, 4.306074
498.3964, 4.314846
498.8785, 4.288756
499.3606, 4.153708
499.8427, 3.944581
500.3249, 3.831869
500.8070, 3.978482
501.2891, 4.153553
501.7712, 4.235832
502.2533, 4.187437
502.7354, 4.119389
503.2176, 3.976816
503.6997, 3.851625
504.1818, 3.847225
504.6639, 4.057563
505.1460, 4.214478
505.6281, 4.275324
506.1103, 4.255504
506.5924, 4.191126
507.0745, 4.053298
507.5566, 3.972641
508.0387, 4.051620
508.5208, 4.278974
509.0030, 4.441318
509.4851, 4.543007
509.9672, 4.554356
510.4493, 4.358805
510.9314, 4.032636
511.4135, 3.845727
511.8957, 3.910293
512.3778, 4.066835
512.8599, 4.161287
513.3420, 4.199721
513.8242, 4.199657
514.3063, 4.129926
514.7884, 4.053731
515.2705, 4.025604
515.7526, 4.049475
516.2347, 4.072812
516.7169, 4.046613
517.1990, 4.028158
517.6811, 4.064392
518.1632, 4.277810
518.6453, 4.389486
519.1274, 4.295805
519.6096, 4.096313
520.0917, 3.972265
520.5738, 3.953267
521.0559, 3.962168
521.5380, 3.989748
522.0201, 4.033775
522.5023, 4.045721
522.9844, 4.008434
523.4665, 3.988349
523.9486, 4.077899
524.4307, 4.266212
524.9128, 4.283113
525.3950, 4.074543
525.8771, 3.808747
526.3592, 3.711203
526.8413, 3.747898
527.3234, 3.790093
527.8055, 3.767593
528.2877, 3.749875
528.7698, 3.673980
529.2519, 3.882681
529.7340, 4.002561
530.2161, 4.038391
530.6982, 3.738437
531.1804, 3.872080
531.6625, 3.831956
532.1446, 3.784707
532.6267, 3.979375
533.1088, 3.728261
533.5909, 3.919092
534.0731, 3.933508
534.5552, 4.028665
535.0373, 3.948982
535.5194, 3.923303
536.0015, 4.072517
536.4836, 4.124891
536.9658, 4.003855
537.4479, 3.959475
537.9300, 3.814197
538.4121, 3.760509
538.8942, 3.811314
539.3763, 3.901621
539.8585, 3.992023
540.3406, 4.078986
540.8227, 4.144690
541.3048, 4.189702
541.7869, 4.204726
542.2690, 4.158140
542.7512, 4.071776
543.2333, 4.000200
543.7154, 3.958732
544.1975, 3.947352
544.6796, 3.991522
545.1617, 4.074898
545.6439, 4.123574
546.1260, 4.084831
546.6081, 4.015921
547.0902, 3.940844
547.5723, 3.853659
548.0544, 3.800870
548.5366, 3.818105
549.0187, 3.855740
549.5008, 3.869200
549.9829, 3.837758
550.4650, 3.821588
550.9471, 3.836771
551.4293, 3.864147
551.9114, 3.844211
552.3935, 3.757591
552.8756, 3.719764
553.3577, 3.799527
553.8398, 3.963627
554.3220, 4.060809
554.8041, 4.090366
555.2862, 4.079157
555.7683, 4.016843
556.2504, 3.935157
556.7325, 3.903613
557.2147, 3.938371
557.6968, 3.984421
558.1789, 3.996653
558.6610, 3.990162
559.1431, 3.987134
559.6252, 3.987286
560.1074, 4.000712
560.5895, 4.053399
561.0716, 4.126669
561.5537, 4.157432
562.0358, 4.110601
562.5179, 4.040805
563.0001, 3.960283
563.4822, 3.866694
563.9643, 3.787449
564.4464, 3.699275
564.9285, 3.658303
565.4106, 3.733688
565.8928, 3.956894
566.3749, 4.077113
566.8570, 4.050905
567.3391, 3.972680
567.8212, 4.011457
568.3033, 4.145760
568.7855, 4.209466
569.2676, 4.107692
569.7497, 3.944698
570.2318, 3.869124
570.7139, 3.869369
571.1960, 3.888363
571.6782, 3.922370
572.1603, 3.941617
572.6424, 3.894322
573.1245, 3.767986
573.6066, 3.712397
574.0887, 3.847431
574.5709, 4.038345
575.0530, 4.181770
575.5351, 4.270440
576.0172, 4.301299
576.4993, 4.237688
576.9814, 4.134797
577.4636, 4.090092
577.9457, 4.139493
578.4278, 4.148107
578.9099, 4.066174
579.3920, 3.925636
579.8741, 3.851932
580.3563, 3.849431
580.8384, 3.860336
581.3205, 3.837298
581.8026, 3.801585
582.2847, 3.832061
582.7668, 3.932464
583.2490, 4.019601
583.7311, 3.976485
584.2131, 3.896136
584.6953, 3.919038
585.1774, 4.146012
585.6595, 4.316224
586.1416, 4.220250
586.6237, 3.999691
587.1058, 3.867698
587.5880, 3.972497
588.0701, 4.062952
588.5522, 4.058944
589.0343, 3.987151
589.5164, 3.980636
589.9985, 4.102123
590.4807, 4.181428
590.9628, 4.123180
591.4449, 3.922814
591.9270, 3.838603
592.4091, 3.893646
592.8912, 3.965667
593.3734, 3.921624
593.8555, 3.792339
594.3376, 3.726733
594.8197, 3.751218
595.3018, 3.817661
595.7839, 3.885544
596.2661, 3.956017
596.7482, 4.032544
597.2303, 4.167365
597.7124, 4.256474
598.1945, 4.188626
598.6766, 4.020888
599.1588, 3.919605
599.6409, 4.026895
600.1230, 4.122694
600.6051, 4.094944
601.0872, 3.930312
601.5693, 3.871263
602.0515, 4.008742
602.5336, 4.128740
603.0157, 4.066739
603.4978, 3.769069
603.9799, 3.637610
604.4620, 3.716716
604.9442, 3.864965
605.4263, 3.896108
605.9084, 3.831566
606.3905, 3.798072
606.8726, 3.839256
607.3547, 3.896640
607.8369, 3.885781
608.3190, 3.832556
608.8011, 3.802645
609.2832, 3.874180
609.7653, 3.939157
610.2474, 3.904580
610.7296, 3.786256
611.2117, 3.719593
611.6938, 3.783043
612.1759, 3.871708
612.6580, 3.940036
613.1401, 3.990159
613.6223, 4.007373
614.1044, 3.978056
614.5865, 3.934186
615.0686, 3.901025
615.5507, 3.878650
616.0328, 3.868018
616.5150, 3.871125
616.9971, 3.881855
617.4792, 3.907126
617.9613, 3.937234
618.4434, 3.918827
618.9255, 3.782427
619.4077, 3.652630
619.8898, 3.703763
620.3719, 3.886794
620.8540, 4.047503
621.3361, 4.137395
621.8182, 4.157449
622.3004, 4.074374
622.7825, 3.890445
623.2646, 3.751771
623.7467, 3.666659
624.2288, 3.654123
624.7109, 3.746671
625.1931, 4.016662
625.6752, 4.132989
626.1573, 4.048638
626.6394, 3.890624
627.1215, 3.777881
627.6036, 3.710564
628.0858, 3.680339
628.5679, 3.691430
629.0500, 3.725256
629.5321, 3.741431
630.0142, 3.754883
630.4963, 3.816291
630.9785, 4.027082
631.4606, 4.214203
631.9427, 4.179318
632.4248, 3.987658
632.9069, 3.847189
633.3890, 3.913627
633.8712, 3.988923
634.3533, 3.964752
634.8354, 3.825514
635.3175, 3.761617
635.7996, 3.813825
636.2817, 3.902089
636.7639, 3.993407
637.2460, 4.095461
637.7281, 4.152936
638.2102, 4.156586
638.6923, 4.142768
639.1744, 4.153990
639.6566, 4.184702
640.1387, 4.197550
640.6208, 4.177598
641.1029, 4.162253
641.5850, 4.236393
642.0671, 4.343351
642.5493, 4.370972
643.0314, 4.173364
643.5135, 3.981473
643.9956, 3.923657
644.4777, 3.968465
644.9598, 4.015482
645.4420, 4.053305
645.9241, 4.078365
646.4062, 4.092786
646.8883, 4.096113
647.3704, 4.065115
647.8525, 3.970375
648.3347, 3.906621
648.8168, 3.953847
649.2989, 4.107450
649.7810, 4.192771
650.2631, 4.204537
650.7452, 4.185152
651.2274, 4.168779
651.7095, 4.152096
652.1916, 4.119782
652.6737, 4.059145
653.1558, 4.024634
653.6379, 4.104549
654.1201, 4.218405
654.6022, 4.260727
655.0843, 4.092166
655.5664, 3.974142
656.0485, 4.014622
656.5306, 4.141615
657.0128, 4.185076
657.4949, 4.080967
657.9770, 4.015903
658.4591, 4.048482
658.9412, 4.153344
659.4233, 4.214679
659.9055, 4.228339
660.3876, 4.246624
660.8697, 4.330076
661.3518, 4.433787
661.8339, 4.426477
662.3160, 4.314469
662.7982, 4.203453
663.2803, 4.154309
663.7624, 4.150887
664.2445, 4.197502
664.7266, 4.310384
665.2087, 4.372169
665.6909, 4.293028
666.1730, 4.176363
666.6551, 4.107713
667.1372, 4.091489
667.6193, 4.130193
668.1014, 4.280797
668.5836, 4.427196
669.0657, 4.361764
669.5478, 4.056372
670.0299, 3.893130
670.5120, 3.990462
670.9941, 4.195398
671.4763, 4.214191
671.9584, 4.097749
672.4405, 4.044222
672.9226, 4.217483
673.4047, 4.429710
673.8868, 4.525685
674.3690, 4.523263
674.8511, 4.489580
675.3332, 4.402772
675.8153, 4.334023
676.2974, 4.332351
676.7795, 4.402229
677.2617, 4.407678
677.7438, 4.302680
678.2259, 4.203217
678.7080, 4.172012
679.1901, 4.213387
679.6722, 4.263037
680.1544, 4.327713
680.6365, 4.365442
681.1186, 4.296754
681.6007, 4.174241
682.0828, 4.144036
682.5649, 4.240189
683.0471, 4.351730
683.5292, 4.389500
684.0113, 4.387416
684.4934, 4.384608
684.9755, 4.393559
685.4576, 4.399393
685.9398, 4.393676
686.4219, 4.384051
686.9040, 4.384789
687.3861, 4.411089
687.8682, 4.414958
688.3503, 4.378525
688.8325, 4.322686
689.3146, 4.307730
689.7967, 4.334376
690.2788, 4.354457
690.7609, 4.352647
691.2430, 4.328987
691.7252, 4.261922
692.2073, 4.164987
692.6894, 4.102191
693.1715, 4.125518
693.6536, 4.184034
694.1357, 4.275313
694.6179, 4.392546
695.1000, 4.419311
695.5821, 4.179058
696.0642, 3.976059
696.5463, 3.969561
697.0284, 4.199762
697.5106, 4.362179
697.9927, 4.452958
698.4748, 4.485179
698.9569, 4.434938
699.4390, 4.318823
699.9211, 4.289320
700.4033, 4.365430
700.8854, 4.463179
701.3675, 4.506340
701.8496, 4.512765
702.3317, 4.513314
702.8138, 4.524306
703.2960, 4.505649
703.7781, 4.384742
704.2602, 4.242826
704.7423, 4.179379
705.2244, 4.299254
705.7065, 4.383367
706.1887, 4.399605
706.6708, 4.381646
707.1529, 4.399829
707.6350, 4.465466
708.1171, 4.497076
708.5992, 4.466591
709.0814, 4.398304
709.5635, 4.315130
710.0456, 4.229846
710.5277, 4.203928
711.0098, 4.323390
711.4919, 4.471142
711.9741, 4.559669
712.4562, 4.591297
712.9383, 4.581184
713.4204, 4.458153
713.9025, 4.366863
714.3846, 4.395655
714.8668, 4.536296
715.3489, 4.616588
715.8310, 4.617887
716.3131, 4.597560
716.7952, 4.589034
717.2773, 4.589178
717.7595, 4.521481
718.2416, 4.379013
718.7237, 4.296726
719.2058, 4.479014
719.6879, 4.756788
720.1700, 4.823874
720.6522, 4.638474
721.1343, 4.474701
721.6164, 4.521124
722.0985, 4.637613
722.5806, 4.711754
723.0627, 4.710988
723.5449, 4.702279
724.0270, 4.690431
724.5091, 4.671168
724.9912, 4.628815
725.4733, 4.548536
725.9554, 4.550683
726.4376, 4.673820
726.9197, 4.796343
727.4018, 4.695228
727.8839, 4.450624
728.3660, 4.325561
728.8481, 4.422998
729.3303, 4.571782
729.8124, 4.660148
730.2945, 4.694276
730.7766, 4.682623
731.2587, 4.540177
731.7408, 4.454448
732.2230, 4.496831
732.7051, 4.615866
733.1872, 4.730179
733.6693, 4.856385
734.1514, 4.924350
734.6335, 4.906802
735.1157, 4.830830
735.5978, 4.732082
736.0799, 4.621279
736.5620, 4.591519
737.0441, 4.774324
737.5262, 4.989240
738.0084, 5.008652
738.4905, 4.880594
738.9726, 4.768549
739.4547, 4.709890
739.9368, 4.714321
740.4189, 4.842621
740.9011, 5.078008
741.3832, 5.157074
741.8653, 5.002281
742.3474, 4.831231
742.8295, 4.728300
743.3116, 4.687275
743.7938, 4.669681
744.2759, 4.676018
744.7580, 4.688521
745.2401, 4.670444
745.7222, 4.661355
746.2043, 4.764800
746.6865, 4.974845
747.1686, 5.102231
747.6507, 4.969968
748.1328, 4.776161
748.6149, 4.638862
749.0970, 4.573816
749.5792, 4.575734
750.0613, 4.683817
750.5434, 4.806653
751.0255, 4.886354
751.5076, 4.918048
751.9897, 4.963305
752.4719, 5.028841
752.9540, 5.073577
753.4361, 5.032714
753.9182, 4.949922
754.4003, 4.923137
754.8824, 4.973373
755.3646, 5.014075
755.8467, 4.988981
756.3288, 4.926482
756.8109, 4.846188
757.2930, 4.702281
757.7751, 4.646401
758.2573, 4.738183
758.7394, 4.868713
759.2215, 4.928983
759.7036, 4.905924
760.1857, 4.913150
760.6678, 4.967364
761.1500, 5.030237
761.6321, 5.053091
762.1142, 5.045646
762.5963, 5.023196
763.0784, 4.971668
763.5605, 4.957410
764.0427, 5.090933
764.5248, 5.264604
765.0069, 5.343597
765.4890, 5.165329
765.9711, 5.069226
766.4532, 5.128367
766.9354, 5.245349
767.4175, 5.267419
767.8996, 5.172376
768.3817, 5.130233
768.8638, 5.183985
769.3459, 5.270154
769.8281, 5.293162
770.3102, 5.264968
770.7923, 5.214646
771.2744, 5.114051
771.7565, 5.054872
772.2386, 5.150573
772.7208, 5.319774
773.2029, 5.420806
773.6850, 5.343682
774.1671, 5.295882
774.6492, 5.344894
775.1313, 5.421594
775.6135, 5.349524
776.0956, 5.097798
776.5777, 4.927760
777.0598, 4.925006
777.5419, 5.016621
778.0240, 5.104131
778.5062, 5.178801
778.9883, 5.212941
779.4704, 5.144501
779.9525, 5.081651
780.4346, 5.103230
780.9167, 5.180665
781.3989, 5.243338
781.8810, 5.267603
782.3631, 5.287842
782.8452, 5.311327
783.3273, 5.334150
783.8094, 5.342223
784.2916, 5.333812
784.7737, 5.329944
785.2558, 5.344230
785.7379, 5.360705
786.2200, 5.356289
786.7021, 5.329496
787.1843, 5.276267
787.6664, 5.093048
788.1485, 4.980129
788.6306, 5.133476
789.1127, 5.465865
789.5948, 5.636065
790.0770, 5.490278
790.5591, 5.362223
791.0412, 5.339512
791.5233, 5.387593
792.0054, 5.365134
792.4875, 5.269798
792.9697, 5.223022
793.4518, 5.307862
793.9339, 5.446968
794.4160, 5.530252
794.8981, 5.563889
795.3802, 5.568540
795.8624, 5.534073
796.3445, 5.492790
796.8266, 5.444747
797.3087, 5.399640
797.7908, 5.403467
798.2729, 5.500734
798.7551, 5.563774
799.2372, 5.556612
799.7193, 5.315179
800.2014, 5.541229
800.6835, 5.671213
801.1656, 5.710294
801.6478, 5.386209
802.1299, 5.531077
802.6120, 5.488011
803.0941, 5.437237
803.5762, 5.648110
804.0583, 5.376845
804.5405, 5.583570
805.0226, 5.599489
805.5047, 5.702735
805.9868, 5.616884
806.4689, 5.589438
806.9510, 5.751151
807.4332, 5.808126
807.9153, 5.700506
808.3974, 5.809303
808.8795, 5.531433
809.3616, 5.592867
809.8438, 5.800700
810.3259, 5.702588
810.8080, 5.814842
811.2901, 5.846977
811.7722, 5.515006
812.2543, 5.816251
812.7365, 5.843654
813.2186, 5.589874
813.7007, 5.869423
814.1828, 5.769866
814.6649, 5.839845
815.1470, 5.842675
815.6292, 5.736208
816.1113, 5.578491
816.5934, 5.447889
817.0755, 5.354559
817.5576, 5.333598
818.0397, 5.463240
818.5219, 5.607038
819.0040, 5.723864
819.4861, 5.801839
819.9682, 5.796636
820.4503, 5.636601
820.9324, 5.523982
821.4146, 5.518684
821.8967, 5.575330
822.3788, 5.563852
822.8609, 5.491148
823.3430, 5.469320
823.8251, 5.583927
824.3073, 5.708357
824.7894, 5.653976
825.2715, 5.496960
825.7536, 5.400564
826.2357, 5.504083
826.7178, 5.587448
827.2000, 5.579269
827.6821, 5.511501
828.1642, 5.421254
828.6463, 5.269889
829.1284, 5.248632
829.6105, 5.439558
830.0927, 5.704186
830.5748, 5.782217
831.0569, 5.718411
831.5390, 5.668914
832.0211, 5.697068
832.5032, 5.738496
832.9854, 5.759635
833.4675, 5.760930
833.9496, 5.742255
834.4317, 5.645334
834.9138, 5.614569
835.3959, 5.697104
835.8781, 5.813661
836.3602, 5.833468
836.8423, 5.756575
837.3244, 5.700438
837.8065, 5.689959
838.2886, 5.697907
838.7708, 5.691519
839.2529, 5.681678
839.7350, 5.689841
840.2171, 5.743220
840.6992, 5.771215
841.1813, 5.711104
841.6635, 5.637441
842.1456, 5.638665
842.6277, 5.766676
843.1098, 5.796778
843.5919, 5.691125
844.0740, 5.556120
844.5562, 5.532868
845.0383, 5.584244
845.5204, 5.597569
846.0025, 5.551265
846.4846, 5.497215
846.9667, 5.455142
847.4489, 5.433527
847.9310, 5.441640
848.4131, 5.487097
848.8952, 5.554223
849.3773, 5.684904
849.8594, 5.777022
850.3416, 5.710965
850.8237, 5.493701
851.3058, 5.444101
851.7879, 5.583345
852.2700, 5.726656
852.7521, 5.681382
853.2343, 5.575791
853.7164, 5.572070
854.1985, 5.690481
854.6806, 5.795799
855.1627, 5.857345
855.6448, 5.879657
856.1270, 5.866866
856.6091, 5.818948
857.0912, 5.728940
857.5733, 5.588628
858.0554, 5.456523
858.5375, 5.372384
859.0197, 5.322363
859.5018, 5.272452
859.9839, 5.225625
860.4660, 5.200851
860.9481, 5.214234
861.4302, 5.247472
861.9124, 5.307179
862.3945, 5.385846
862.8766, 5.418547
863.3587, 5.382256
863.8408, 5.351502
864.3229, 5.349136
864.8051, 5.372164
865.2872, 5.429688
865.7693, 5.512324
866.2514, 5.562491
866.7335, 5.569882
867.2156, 5.516278
867.6978, 5.300002
868.1799, 5.017905
868.6620, 4.888933
869.1441, 5.144953
869.6262, 5.325115
870.1083, 5.362965
870.5905, 5.298359
871.0726, 5.178076
871.5547, 5.004005
872.0368, 4.919090
872.5189, 4.979119
873.0010, 5.083190
873.4832, 5.147680
873.9653, 5.167884
874.4474, 5.131720
874.9295, 4.985705
875.4116, 4.870889
875.8937, 4.816775
876.3759, 4.811035
876.8580, 4.862950
877.3401, 4.995843
877.8222, 5.034379
878.3043, 4.943939
878.7864, 4.858834
879.2686, 4.962538
879.7507, 5.160088
880.2328, 5.272441
880.7149, 5.266850
881.1970, 5.250711
881.6791, 5.297347
882.1613, 5.336337
882.6434, 5.315325
883.1255, 5.228001
883.6076, 5.127169
884.0897, 5.004080
884.5718, 4.895901
885.0540, 4.840609
885.5361, 4.818381
886.0182, 4.753493
886.5003, 4.653874
886.9824, 4.590723
887.4645, 4.667754
887.9467, 4.740761
888.4288, 4.697349
888.9109, 4.549062
889.3930, 4.462929
889.8751, 4.461668
890.3572, 4.487563
890.8394, 4.538793
891.3215, 4.592386
891.8036, 4.563967
892.2857, 4.470094
892.7678, 4.400609
893.2499, 4.427010
893.7321, 4.454445
894.2142, 4.366160
894.6963, 4.236685
895.1784, 4.211653
895.6605, 4.470892
896.1426, 4.606806
896.6248, 4.558383
897.1069, 4.404557
897.5890, 4.230751
898.0711, 4.044756
898.5532, 3.947666
899.0353, 3.968489
899.5175, 4.022986
899.9996, 4.013766
900.4817, 4.001492
900.9638, 4.076761
901.4459, 4.330553
901.9280, 4.444169
902.4102, 4.266350
902.8923, 4.087400
903.3744, 4.157050
903.8565, 4.484352
904.3386, 4.568943
904.8207, 4.402107
905.3029, 4.181856
905.7850, 4.018976
906.2671, 3.915913
906.7492, 3.894937
907.2313, 3.950146
907.7134, 3.996578
908.1956, 4.002792
908.6777, 4.003139
909.1598, 4.010077
909.6419, 4.020361
910.1240, 4.022222
910.6061, 4.016056
911.0883, 3.979357
911.5704, 3.855212
912.0525, 3.752871
912.5346, 3.879966
913.0167, 4.130116
913.4988, 4.272544
913.9810, 4.119281
914.4631, 3.985119
914.9452, 3.948342
915.4273, 3.954043
915.9094, 3.927666
916.3915, 3.868264
916.8737, 3.788707
917.3558, 3.686961
917.8379, 3.582961
918.3200, 3.471150
918.8021, 3.383045
919.2842, 3.367330
919.7664, 3.439486
920.2485, 3.555353
920.7306, 3.803561
921.2127, 3.999883
921.6948, 4.007905
922.1769, 3.809496
922.6591, 3.719231
923.1412, 3.747336
923.6233, 3.779376
924.1054, 3.696801
924.5875, 3.591181
925.0696, 3.619241
925.5518, 3.756320
926.0339, 3.849883
926.5160, 3.835968
926.9981, 3.765266
927.4802, 3.601545
927.9623, 3.409152
928.4445, 3.424475
928.9266, 3.670663
929.4087, 3.831852
929.8908, 3.789564
930.3729, 3.673245
930.8550, 3.647542
931.3372, 3.677298
931.8193, 3.701951
932.3014, 3.715528
932.7835, 3.701279
933.2656, 3.623795
933.7477, 3.540816
934.2299, 3.515601
934.7120, 3.560258
935.1941, 3.529878
935.6762, 3.407374
936.1583, 3.297859
936.6404, 3.321596
937.1226, 3.406239
937.6047, 3.443997
938.0868, 3.425407
938.5689, 3.460003
939.0510, 3.707373
939.5331, 3.876588
940.0153, 3.821866
940.4974, 3.585819
940.9795, 3.463698
941.4616, 3.455745
941.9437, 3.491271
942.4258, 3.571122
942.9080, 3.639476
943.3901, 3.586540
943.8722, 3.474275
944.3543, 3.435467
944.8364, 3.603727
945.3185, 3.726445
945.8007, 3.762546
946.2828, 3.743072
946.7649, 3.700951
947.2470, 3.636875
947.7291, 3.575910
948.2112, 3.520957
948.6934, 3.472244
949.1755, 3.429256
949.6576, 3.392485
950.1397, 3.356210
950.6218, 3.314306
951.1039, 3.309761
951.5861, 3.350109
952.0682, 3.425862
952.5503, 3.570718
953.0324, 3.754103
953.5145, 3.715523
953.9966, 3.475274
954.4788, 3.279645
954.9609, 3.315721
955.4430, 3.408910
955.9251, 3.400195
956.4072, 3.338970
956.8893, 3.366901
957.3715, 3.620256
957.8536, 3.755109
958.3357, 3.700438
958.8178, 3.549532
959.2999, 3.416400
959.7820, 3.310217
960.2642, 3.288131
960.7463, 3.373657
961.2284, 3.466042
961.7105, 3.515440
962.1926, 3.523683
962.6747, 3.481206
963.1569, 3.370548
963.6390, 3.303705
964.1211, 3.299856
964.6032, 3.284997
965.0853, 3.160414
965.5674, 3.004031
966.0496, 3.107568
966.5317, 3.412887
967.0138, 3.645975
967.4959, 3.619251
967.9780, 3.528060
968.4601, 3.425843
968.9423, 3.333369
969.4244, 3.299824
969.9065, 3.340248
970.3886, 3.376754
970.8707, 3.398617
971.3528, 3.405674
971.8350, 3.401057
972.3171, 3.380668
972.7992, 3.322025
973.2813, 3.200011
973.7634, 3.139007
974.2455, 3.266591
974.7277, 3.395510
975.2098, 3.386388
975.6919, 3.235737
976.1740, 3.264891
976.6561, 3.483972
977.1382, 3.661423
977.6204, 3.597337
978.1025, 3.454710
978.5846, 3.447967
979.0667, 3.528535
979.5488, 3.548545
980.0309, 3.344296
980.5131, 3.242281
980.9952, 3.345580
981.4773, 3.519452
981.9594, 3.512659
982.4415, 3.353132
982.9236, 3.279736
983.4058, 3.343277
983.8879, 3.447142
984.3700, 3.553565
984.8521, 3.633339
985.3342, 3.649985
985.8163, 3.582064
986.2985, 3.537780
986.7806, 3.530144
987.2627, 3.517346
987.7448, 3.462697
988.2269, 3.392125
988.7090, 3.389741
989.1912, 3.445099
989.6733, 3.514469
990.1554, 3.655003
990.6375, 3.718115
991.1196, 3.519262
991.6017, 3.237624
992.0839, 3.217796
992.5660, 3.565665
993.0481, 3.669625
993.5302, 3.412263
994.0123, 3.096997
994.4944, 3.099950
994.9766, 3.258212
995.4587, 3.322406
995.9408, 3.254245
996.4229, 3.186481
996.9050, 3.153519
997.3871, 3.140275
997.8693, 3.137698
998.3514, 3.149202
998.8335, 3.208627
999.3156, 3.312129
999.7977, 3.397380
1000.280, 3.440671
1000.762, 3.447393
1001.244, 3.409571
1001.726, 3.341795
1002.208, 3.267143
1002.690, 3.151788
1003.173, 3.099019
1003.655, 3.123925
1004.137, 3.188051
1004.619, 3.278913
1005.101, 3.376320
1005.583, 3.382764
1006.065, 3.298134
1006.547, 3.243542
1007.029, 3.346698
1007.512, 3.448210
1007.994, 3.444248
1008.476, 3.356627
1008.958, 3.269222
1009.440, 3.173096
1009.922, 3.137305
1010.404, 3.195545
1010.886, 3.294899
1011.369, 3.403017
1011.851, 3.488499
1012.333, 3.483615
1012.815, 3.289878
1013.297, 3.210198
1013.779, 3.394406
1014.261, 3.586140
1014.743, 3.587802
1015.225, 3.412656
1015.708, 3.333178
1016.190, 3.343189
1016.672, 3.340601
1017.154, 3.177464
1017.636, 3.052811
1018.118, 3.181462
1018.600, 3.468539
1019.082, 3.589151
1019.565, 3.451532
1020.047, 3.352028
1020.529, 3.338746
1021.011, 3.375114
1021.493, 3.440490
1021.975, 3.510033
1022.457, 3.522851
1022.939, 3.462158
1023.421, 3.404906
1023.904, 3.349256
1024.386, 3.346610
1024.868, 3.458410
1025.350, 3.657483
1025.832, 3.669846
1026.314, 3.497439
1026.796, 3.295936
1027.278, 3.086609
1027.760, 2.947216
1028.243, 2.987066
1028.725, 3.139682
1029.207, 3.297424
1029.689, 3.506091
1030.171, 3.590597
1030.653, 3.501763
1031.135, 3.389275
1031.617, 3.436972
1032.100, 3.573725
1032.582, 3.563506
1033.064, 3.408969
1033.546, 3.293723
1034.028, 3.346087
1034.510, 3.429852
1034.992, 3.512186
1035.474, 3.570935
1035.957, 3.503421
1036.439, 3.295072
1036.921, 3.215568
1037.403, 3.353714
1037.885, 3.550225
1038.367, 3.674483
1038.849, 3.725825
1039.331, 3.682317
1039.813, 3.503153
1040.296, 3.386537
1040.778, 3.350295
1041.260, 3.363102
1041.742, 3.423035
1042.224, 3.514018
1042.706, 3.612006
1043.188, 3.696416
1043.670, 3.691369
1044.152, 3.402314
1044.635, 3.198919
1045.117, 3.345936
1045.599, 3.603826
1046.081, 3.651794
1046.563, 3.454156
1047.045, 3.345080
1047.527, 3.352571
1048.009, 3.371603
1048.492, 3.265337
1048.974, 3.153227
1049.456, 3.212313
1049.938, 3.425723
1050.420, 3.475279
1050.902, 3.191367
1051.384, 3.032085
1051.866, 3.146603
1052.349, 3.386891
1052.831, 3.488079
1053.313, 3.480908
1053.795, 3.441260
1054.277, 3.376899
1054.759, 3.325759
1055.241, 3.296451
1055.723, 3.297427
1056.205, 3.353153
1056.688, 3.459819
1057.170, 3.435812
1057.652, 3.280858
1058.134, 3.162918
1058.616, 3.196833
1059.098, 3.276392
1059.580, 3.333234
1060.062, 3.357598
1060.544, 3.325548
1061.027, 3.181122
1061.509, 3.097816
1061.991, 3.100969
1062.473, 3.112565
1062.955, 3.011724
1063.437, 2.878075
1063.919, 2.928753
1064.401, 3.146966
1064.884, 3.296316
1065.366, 3.193540
1065.848, 3.098448
1066.330, 3.101313
1066.812, 3.157706
1067.294, 3.170796
1067.776, 3.144573
1068.258, 3.120141
1068.740, 3.104983
1069.223, 3.099121
1069.705, 3.141323
1070.187, 3.164501
1070.669, 3.079180
1071.151, 2.873928
1071.633, 2.803989
1072.115, 2.900338
1072.597, 2.972282
1073.079, 2.899489
1073.562, 2.803834
1074.044, 2.929914
1074.526, 3.155647
1075.008, 3.251124
1075.490, 3.027860
1075.972, 2.888515
1076.454, 2.889592
1076.936, 2.939391
1077.419, 2.974627
1077.901, 2.997307
1078.383, 3.023858
1078.865, 3.050853
1079.347, 3.052701
1079.829, 2.969031
1080.311, 2.908049
1080.793, 2.948378
1081.275, 3.029254
1081.758, 3.058762
1082.240, 3.035403
1082.722, 2.978111
1083.204, 2.882782
1083.686, 2.813510
1084.168, 2.860754
1084.650, 2.933744
1085.132, 2.939772
1085.615, 2.875997
1086.097, 2.850030
1086.579, 2.881201
1087.061, 2.896234
1087.543, 2.866166
1088.025, 2.827268
1088.507, 2.862433
1088.989, 2.923557
1089.471, 2.915092
1089.953, 2.790903
1090.436, 2.691440
1090.918, 2.642781
1091.400, 2.631662
1091.882, 2.660393
1092.364, 2.719967
1092.846, 2.778351
1093.328, 2.831819
1093.810, 2.865412
1094.293, 2.875901
1094.775, 2.859619
1095.257, 2.765095
1095.739, 2.676175
1096.221, 2.699802
1096.703, 2.859653
1097.185, 2.905468
1097.667, 2.829721
1098.150, 2.761512
1098.632, 2.842715
1099.114, 2.933087
1099.596, 2.915145
1100.078, 2.805289
1100.560, 2.651525
1101.042, 2.388199
1101.524, 2.317335
1102.006, 2.522457
1102.489, 2.773877
1102.971, 2.816006
1103.453, 2.733152
1103.935, 2.634370
1104.417, 2.531971
1104.899, 2.460325
1105.381, 2.437810
1105.863, 2.430474
1106.345, 2.427548
1106.828, 2.437463
1107.310, 2.484928
1107.792, 2.560455
1108.274, 2.644495
1108.756, 2.747186
1109.238, 2.791988
1109.720, 2.687809
1110.202, 2.566390
1110.685, 2.501465
1111.167, 2.485870
1111.649, 2.460849
1112.131, 2.431461
1112.613, 2.456282
1113.095, 2.608395
1113.577, 2.737834
1114.059, 2.720908
1114.542, 2.628494
1115.024, 2.526886
1115.506, 2.385293
1115.988, 2.451213
1116.470, 2.753385
1116.952, 2.973228
1117.434, 2.812423
1117.916, 2.525823
1118.398, 2.335142
1118.880, 2.244313
1119.363, 2.269416
1119.845, 2.506173
1120.327, 2.642436
1120.809, 2.639359
1121.291, 2.590861
1121.773, 2.580191
1122.255, 2.593053
1122.737, 2.617726
1123.220, 2.646920
1123.702, 2.642947
1124.184, 2.555424
1124.666, 2.484220
1125.148, 2.449075
1125.630, 2.434621
1126.112, 2.417514
1126.594, 2.400596
1127.077, 2.384757
1127.559, 2.368977
1128.041, 2.391684
1128.523, 2.567947
1129.005, 2.671826
1129.487, 2.558878
1129.969, 2.329002
1130.451, 2.311315
1130.933, 2.479091
1131.416, 2.635412
1131.898, 2.740646
1132.380, 2.779786
1132.862, 2.657901
1133.344, 2.537565
1133.826, 2.576778
1134.308, 2.762183
1134.790, 2.819813
1135.272, 2.747434
1135.755, 2.615700
1136.237, 2.411195
1136.719, 2.232710
1137.201, 2.188998
1137.683, 2.219701
1138.165, 2.250534
1138.647, 2.269838
1139.129, 2.318560
1139.612, 2.405308
1140.094, 2.463745
1140.576, 2.437165
1141.058, 2.370961
1141.540, 2.294807
1142.022, 2.227956
1142.504, 2.214213
1142.986, 2.327858
1143.469, 2.355824
1143.951, 2.267184
1144.433, 2.172507
1144.915, 2.153151
1145.397, 2.199870
1145.879, 2.342982
1146.361, 2.545563
1146.843, 2.662266
1147.325, 2.623159
1147.807, 2.508587
1148.290, 2.282414
1148.772, 2.070789
1149.254, 2.066756
1149.736, 2.190353
1150.218, 2.215289
1150.700, 2.136353
1151.182, 2.105551
1151.664, 2.284779
1152.147, 2.393361
1152.629, 2.325090
1153.111, 2.178002
1153.593, 2.121821
1154.075, 2.145890
1154.557, 2.227036
1155.039, 2.366989
1155.521, 2.458591
1156.004, 2.423675
1156.486, 2.341121
1156.968, 2.225294
1157.450, 2.106318
1157.932, 2.092827
1158.414, 2.169368
1158.896, 2.226106
1159.378, 2.234792
1159.860, 2.226689
1160.343, 2.201373
1160.825, 2.187078
1161.307, 2.219367
1161.789, 2.284340
1162.271, 2.245655
1162.753, 2.110352
1163.235, 2.049638
1163.717, 2.152228
1164.199, 2.277990
1164.682, 2.321987
1165.164, 2.324811
1165.646, 2.334591
1166.128, 2.357839
1166.610, 2.273718
1167.092, 2.077052
1167.574, 1.935290
1168.056, 1.963107
1168.539, 2.034468
1169.021, 2.049496
1169.503, 2.030267
1169.985, 1.999196
1170.467, 1.942714
1170.949, 1.959139
1171.431, 2.057563
1171.913, 2.145923
1172.396, 2.164793
1172.878, 2.143631
1173.360, 2.071469
1173.842, 1.992875
1174.324, 2.007507
1174.806, 2.196949
1175.288, 2.251001
1175.770, 2.139629
1176.252, 2.014651
1176.734, 2.002201
1177.217, 2.039033
1177.699, 2.047576
1178.181, 2.040554
1178.663, 2.062859
1179.145, 2.147857
1179.627, 2.185569
1180.109, 2.153985
1180.591, 2.131466
1181.074, 2.251522
1181.556, 2.390056
1182.038, 2.321056
1182.520, 2.095174
1183.002, 2.002956
1183.484, 2.174928
1183.966, 2.299761
1184.448, 2.345167
1184.931, 2.319832
1185.413, 2.178119
1185.895, 2.000023
1186.377, 1.910599
1186.859, 1.913320
1187.341, 1.967699
1187.823, 2.127755
1188.305, 2.200995
1188.787, 2.122540
1189.270, 2.013831
1189.752, 2.084643
1190.234, 2.223162
1190.716, 2.203609
1191.198, 2.010666
1191.680, 1.919550
1192.162, 2.066723
1192.644, 2.162266
1193.126, 2.115138
1193.609, 2.030843
1194.091, 2.122950
1194.573, 2.285606
1195.055, 2.295079
1195.537, 2.108576
1196.019, 2.004321
1196.501, 2.106519
1196.983, 2.176105
1197.466, 2.124860
1197.948, 2.032395
1198.430, 2.051433
1198.912, 2.136720
1199.394, 2.205818
1199.876, 2.245506
1200.358, 2.239092
1200.840, 2.138749
1201.323, 2.076641
1201.805, 2.114955
1202.287, 2.199504
1202.769, 2.200793
1203.251, 2.166423
1203.733, 2.224882
1204.215, 2.457870
1204.697, 2.518828
1205.179, 2.240430
1205.661, 2.007796
1206.144, 2.022690
1206.626, 2.154594
1207.108, 2.075166
1207.590, 1.888987
1208.072, 1.831475
1208.554, 2.007236
1209.036, 2.182249
1209.518, 2.368271
1210.001, 2.449367
1210.483, 2.311820
1210.965, 2.079002
1211.447, 2.086124
1211.929, 2.227963
1212.411, 2.260002
1212.893, 2.030809
1213.375, 1.921479
1213.858, 2.031159
1214.340, 2.139658
1214.822, 2.119485
1215.304, 2.015568
1215.786, 1.896004
1216.268, 1.785980
1216.750, 1.750208
1217.232, 1.853082
1217.714, 1.934848
1218.197, 1.981221
1218.679, 2.008945
1219.161, 2.025162
1219.643, 2.032708
1220.125, 2.034071
1220.607, 2.032628
1221.089, 2.036200
1221.571, 2.048298
1222.053, 2.066379
1222.536, 2.098128
1223.018, 2.115071
1223.500, 2.076634
1223.982, 2.024625
1224.464, 2.062602
1224.946, 2.150223
1225.428, 2.195925
1225.910, 2.158562
1226.393, 2.091238
1226.875, 1.980798
1227.357, 1.885229
1227.839, 1.852217
1228.321, 1.858354
1228.803, 1.870996
1229.285, 1.890066
1229.767, 1.915651
1230.250, 1.944458
1230.732, 1.991380
1231.214, 2.065018
1231.696, 2.124343
1232.178, 2.132850
1232.660, 2.111511
1233.142, 2.073978
1233.624, 2.031462
1234.106, 2.009961
1234.589, 2.010165
1235.071, 2.044837
1235.553, 2.123287
1236.035, 2.187358
1236.517, 2.168647
1236.999, 2.130011
1237.481, 2.156422
1237.963, 2.216106
1238.445, 2.234716
1238.928, 2.203598
1239.410, 2.136641
1239.892, 2.026260
1240.374, 1.946587
1240.856, 1.994669
1241.338, 2.061159
1241.820, 2.032069
1242.302, 1.951511
1242.785, 1.917356
1243.267, 1.944174
1243.749, 1.950989
1244.231, 1.933565
1244.713, 1.925266
1245.195, 1.978309
1245.677, 2.021415
1246.159, 1.975786
1246.641, 1.893387
1247.124, 1.877268
1247.606, 1.937274
1248.088, 1.931514
1248.570, 1.855754
1249.052, 1.814137
1249.534, 1.916906
1250.016, 2.030773
1250.498, 2.087113
1250.980, 2.098153
1251.463, 2.068318
1251.945, 1.998729
1252.427, 1.971964
1252.909, 1.987653
1253.391, 2.003691
1253.873, 1.979333
1254.355, 1.968376
1254.837, 2.012735
1255.320, 2.066393
1255.802, 2.071761
1256.284, 2.038394
1256.766, 2.027501
1257.248, 2.038736
1257.730, 2.050487
1258.212, 2.063220
1258.694, 2.056848
1259.177, 2.014226
1259.659, 1.969981
1260.141, 1.973102
1260.623, 2.002832
1261.105, 1.978726
1261.587, 1.910987
1262.069, 1.860183
1262.551, 1.869802
1263.033, 1.871062
1263.516, 1.850518
1263.998, 1.829318
1264.480, 1.812937
1264.962, 1.817807
1265.444, 1.895325
1265.926, 2.026859
1266.408, 2.144529
1266.890, 2.286587
1267.372, 2.289723
1267.855, 2.106160
1268.337, 1.916250
1268.819, 1.892967
1269.301, 1.944708
1269.783, 1.964372
1270.265, 1.951949
1270.747, 1.906983
1271.229, 1.796082
1271.712, 1.783294
1272.194, 1.890857
1272.676, 1.981117
1273.158, 1.894805
1273.640, 1.791164
1274.122, 1.826118
1274.604, 1.950841
1275.086, 2.074530
1275.568, 2.209711
1276.051, 2.216436
1276.533, 2.090111
1277.015, 2.010784
1277.497, 2.198212
1277.979, 2.356280
1278.461, 2.256137
1278.943, 2.050562
1279.425, 1.925539
1279.907, 1.878848
1280.390, 1.830556
1280.872, 1.782299
1281.354, 1.758189
1281.836, 1.713282
1282.318, 1.777170
1282.800, 2.119704
1283.282, 2.451568
1283.764, 2.497012
1284.247, 2.314485
1284.729, 2.148949
1285.211, 2.013706
1285.693, 1.954847
1286.175, 2.097305
1286.657, 2.148197
1287.139, 2.038483
1287.621, 1.913925
1288.104, 1.881416
1288.586, 1.914986
1289.068, 2.008664
1289.550, 2.115510
1290.032, 2.122546
1290.514, 1.851157
1290.996, 1.807158
1291.478, 2.056702
1291.960, 2.257838
1292.443, 2.130107
1292.925, 1.904922
1293.407, 1.868463
1293.889, 1.929878
1294.371, 1.935109
1294.853, 1.856176
1295.335, 1.823806
1295.817, 1.837725
1296.299, 1.902124
1296.782, 2.088482
1297.264, 2.214636
1297.746, 2.044377
1298.228, 1.823273
1298.710, 1.822695
1299.192, 2.022796
1299.674, 2.049226
1300.156, 1.930161
1300.639, 1.851282
1301.121, 1.908774
1301.603, 1.966981
1302.085, 1.955096
1302.567, 1.935518
1303.049, 1.936290
1303.531, 1.957108
##END=



