##NAMES=Minasragrite
##RRUFFID=R130365
##IDEAL CHEMISTRY=V^4+^O(S^6+^O_4_)&#183;5H_2_O
##LOCALITY=Minas Ragra mine, Pasco, Peru
##OWNER=RRUFF
##SOURCE=Tom Loomis
##DESCRIPTION=Glassy blue crystals on patronite, associated with R130366 retgersite
##STATUS=The identification of this mineral has been confirmed only by single crystal X-ray diffraction.
##URL=rruff.info/R130365
8.936163e+001, 0.000000e+000
8.984375e+001, 2.261576e+002
9.032587e+001, 2.275471e+002
9.080798e+001, 2.278411e+002
9.129010e+001, 2.266872e+002
9.177222e+001, 2.248439e+002
9.225433e+001, 2.233578e+002
9.273645e+001, 2.221597e+002
9.321857e+001, 2.205392e+002
9.370068e+001, 2.176096e+002
9.418280e+001, 2.137135e+002
9.466492e+001, 2.099745e+002
9.514703e+001, 2.066014e+002
9.562915e+001, 2.036761e+002
9.611127e+001, 2.014955e+002
9.659338e+001, 2.001784e+002
9.707550e+001, 1.990795e+002
9.755762e+001, 1.973784e+002
9.803973e+001, 1.950558e+002
9.852185e+001, 1.927020e+002
9.900397e+001, 1.905064e+002
9.948608e+001, 1.884614e+002
9.996820e+001, 1.865474e+002
1.004503e+002, 1.847498e+002
1.009324e+002, 1.830733e+002
1.014146e+002, 1.815746e+002
1.018967e+002, 1.803326e+002
1.023788e+002, 1.790062e+002
1.028609e+002, 1.773131e+002
1.033430e+002, 1.750508e+002
1.038251e+002, 1.731567e+002
1.043073e+002, 1.719050e+002
1.047894e+002, 1.711109e+002
1.052715e+002, 1.697833e+002
1.057536e+002, 1.675889e+002
1.062357e+002, 1.652160e+002
1.067178e+002, 1.631040e+002
1.072000e+002, 1.613753e+002
1.076821e+002, 1.597624e+002
1.081642e+002, 1.583425e+002
1.086463e+002, 1.571503e+002
1.091284e+002, 1.556678e+002
1.096105e+002, 1.535480e+002
1.100927e+002, 1.512842e+002
1.105748e+002, 1.493579e+002
1.110569e+002, 1.478202e+002
1.115390e+002, 1.465781e+002
1.120211e+002, 1.457766e+002
1.125032e+002, 1.456509e+002
1.129854e+002, 1.450888e+002
1.134675e+002, 1.437592e+002
1.139496e+002, 1.419456e+002
1.144317e+002, 1.400352e+002
1.149138e+002, 1.375980e+002
1.153959e+002, 1.354833e+002
1.158781e+002, 1.342217e+002
1.163602e+002, 1.344296e+002
1.168423e+002, 1.343272e+002
1.173244e+002, 1.330598e+002
1.178065e+002, 1.309778e+002
1.182886e+002, 1.289735e+002
1.187708e+002, 1.273368e+002
1.192529e+002, 1.259670e+002
1.197350e+002, 1.248193e+002
1.202171e+002, 1.239828e+002
1.206992e+002, 1.232377e+002
1.211813e+002, 1.224932e+002
1.216635e+002, 1.217413e+002
1.221456e+002, 1.209543e+002
1.226277e+002, 1.202741e+002
1.231098e+002, 1.195121e+002
1.235919e+002, 1.184126e+002
1.240740e+002, 1.165864e+002
1.245562e+002, 1.145559e+002
1.250383e+002, 1.127908e+002
1.255204e+002, 1.112819e+002
1.260025e+002, 1.101341e+002
1.264846e+002, 1.097938e+002
1.269667e+002, 1.099312e+002
1.274489e+002, 1.097217e+002
1.279310e+002, 1.085404e+002
1.284131e+002, 1.068150e+002
1.288952e+002, 1.053674e+002
1.293773e+002, 1.042338e+002
1.298594e+002, 1.032887e+002
1.303416e+002, 1.023090e+002
1.308237e+002, 1.013338e+002
1.313058e+002, 1.005816e+002
1.317879e+002, 1.004105e+002
1.322700e+002, 1.006462e+002
1.327521e+002, 1.003785e+002
1.332343e+002, 9.942271e+001
1.337164e+002, 9.813879e+001
1.341985e+002, 9.717705e+001
1.346806e+002, 9.656214e+001
1.351627e+002, 9.594017e+001
1.356448e+002, 9.504070e+001
1.361270e+002, 9.385429e+001
1.366091e+002, 9.278151e+001
1.370912e+002, 9.185857e+001
1.375733e+002, 9.109193e+001
1.380554e+002, 9.047381e+001
1.385375e+002, 9.004068e+001
1.390197e+002, 8.964552e+001
1.395018e+002, 8.916761e+001
1.399839e+002, 8.859592e+001
1.404660e+002, 8.801517e+001
1.409481e+002, 8.746104e+001
1.414302e+002, 8.692419e+001
1.419124e+002, 8.623892e+001
1.423945e+002, 8.535072e+001
1.428766e+002, 8.439451e+001
1.433587e+002, 8.348891e+001
1.438408e+002, 8.261956e+001
1.443229e+002, 8.184881e+001
1.448051e+002, 8.121888e+001
1.452872e+002, 8.074300e+001
1.457693e+002, 8.025705e+001
1.462514e+002, 7.977859e+001
1.467335e+002, 7.927361e+001
1.472156e+002, 7.868178e+001
1.476978e+002, 7.791464e+001
1.481799e+002, 7.717896e+001
1.486620e+002, 7.654527e+001
1.491441e+002, 7.611304e+001
1.496262e+002, 7.551941e+001
1.501083e+002, 7.451891e+001
1.505905e+002, 7.340446e+001
1.510726e+002, 7.268993e+001
1.515547e+002, 7.284428e+001
1.520368e+002, 7.299911e+001
1.525189e+002, 7.288229e+001
1.530010e+002, 7.230372e+001
1.534832e+002, 7.177314e+001
1.539653e+002, 7.139038e+001
1.544474e+002, 7.108128e+001
1.549295e+002, 7.066780e+001
1.554116e+002, 7.010954e+001
1.558937e+002, 6.945509e+001
1.563759e+002, 6.871657e+001
1.568580e+002, 6.771002e+001
1.573401e+002, 6.686976e+001
1.578222e+002, 6.628848e+001
1.583043e+002, 6.594150e+001
1.587864e+002, 6.573783e+001
1.592686e+002, 6.575626e+001
1.597507e+002, 6.585008e+001
1.602328e+002, 6.592698e+001
1.607149e+002, 6.604717e+001
1.611970e+002, 6.606509e+001
1.616791e+002, 6.591582e+001
1.621613e+002, 6.561438e+001
1.626434e+002, 6.524328e+001
1.631255e+002, 6.469014e+001
1.636076e+002, 6.414648e+001
1.640897e+002, 6.378289e+001
1.645718e+002, 6.408012e+001
1.650540e+002, 6.421839e+001
1.655361e+002, 6.356565e+001
1.660182e+002, 6.215772e+001
1.665003e+002, 6.100441e+001
1.669824e+002, 6.100771e+001
1.674645e+002, 6.147359e+001
1.679467e+002, 6.154582e+001
1.684288e+002, 6.028791e+001
1.689109e+002, 5.893935e+001
1.693930e+002, 5.846568e+001
1.698751e+002, 5.892720e+001
1.703572e+002, 5.955109e+001
1.708394e+002, 5.991894e+001
1.713215e+002, 6.008362e+001
1.718036e+002, 6.013111e+001
1.722857e+002, 6.013217e+001
1.727678e+002, 6.001953e+001
1.732499e+002, 5.961180e+001
1.737321e+002, 5.883788e+001
1.742142e+002, 5.820978e+001
1.746963e+002, 5.825859e+001
1.751784e+002, 5.878601e+001
1.756605e+002, 5.932460e+001
1.761426e+002, 5.948713e+001
1.766248e+002, 5.956588e+001
1.771069e+002, 6.006133e+001
1.775890e+002, 6.112107e+001
1.780711e+002, 6.216175e+001
1.785532e+002, 6.226234e+001
1.790353e+002, 6.171809e+001
1.795175e+002, 6.158187e+001
1.799996e+002, 6.294276e+001
1.804817e+002, 6.504620e+001
1.809638e+002, 6.636080e+001
1.814459e+002, 6.654307e+001
1.819280e+002, 6.635631e+001
1.824102e+002, 6.683023e+001
1.828923e+002, 6.787547e+001
1.833744e+002, 6.898381e+001
1.838565e+002, 6.984721e+001
1.843386e+002, 7.052163e+001
1.848207e+002, 7.111600e+001
1.853029e+002, 7.161452e+001
1.857850e+002, 7.210732e+001
1.862671e+002, 7.292461e+001
1.867492e+002, 7.403307e+001
1.872313e+002, 7.483073e+001
1.877134e+002, 7.454089e+001
1.881956e+002, 7.345305e+001
1.886777e+002, 7.304021e+001
1.891598e+002, 7.374500e+001
1.896419e+002, 7.499505e+001
1.901240e+002, 7.552067e+001
1.906061e+002, 7.529887e+001
1.910883e+002, 7.495361e+001
1.915704e+002, 7.500875e+001
1.920525e+002, 7.541456e+001
1.925346e+002, 7.564965e+001
1.930167e+002, 7.555214e+001
1.934988e+002, 7.522079e+001
1.939810e+002, 7.486201e+001
1.944631e+002, 7.443526e+001
1.949452e+002, 7.410110e+001
1.954273e+002, 7.363717e+001
1.959094e+002, 7.304816e+001
1.963915e+002, 7.265337e+001
1.968737e+002, 7.254734e+001
1.973558e+002, 7.265849e+001
1.978379e+002, 7.275526e+001
1.983200e+002, 7.283939e+001
1.988021e+002, 7.290914e+001
1.992842e+002, 7.297097e+001
1.997664e+002, 7.302933e+001
2.002485e+002, 7.303417e+001
2.007306e+002, 7.292430e+001
2.012127e+002, 7.275201e+001
2.016948e+002, 7.288269e+001
2.021769e+002, 7.342177e+001
2.026591e+002, 7.393980e+001
2.031412e+002, 7.391721e+001
2.036233e+002, 7.325301e+001
2.041054e+002, 7.284420e+001
2.045875e+002, 7.295608e+001
2.050696e+002, 7.352084e+001
2.055518e+002, 7.393262e+001
2.060339e+002, 7.414521e+001
2.065160e+002, 7.431109e+001
2.069981e+002, 7.465455e+001
2.074802e+002, 7.526608e+001
2.079623e+002, 7.560447e+001
2.084445e+002, 7.543086e+001
2.089266e+002, 7.477724e+001
2.094087e+002, 7.448573e+001
2.098908e+002, 7.463379e+001
2.103729e+002, 7.498459e+001
2.108550e+002, 7.533853e+001
2.113372e+002, 7.575352e+001
2.118193e+002, 7.595226e+001
2.123014e+002, 7.578606e+001
2.127835e+002, 7.525573e+001
2.132656e+002, 7.496288e+001
2.137477e+002, 7.497670e+001
2.142299e+002, 7.512566e+001
2.147120e+002, 7.518116e+001
2.151941e+002, 7.505227e+001
2.156762e+002, 7.508727e+001
2.161583e+002, 7.542988e+001
2.166404e+002, 7.609956e+001
2.171226e+002, 7.664275e+001
2.176047e+002, 7.710902e+001
2.180868e+002, 7.739382e+001
2.185689e+002, 7.731010e+001
2.190510e+002, 7.663787e+001
2.195331e+002, 7.611361e+001
2.200153e+002, 7.591462e+001
2.204974e+002, 7.605724e+001
2.209795e+002, 7.637190e+001
2.214616e+002, 7.698536e+001
2.219437e+002, 7.764366e+001
2.224258e+002, 7.802113e+001
2.229080e+002, 7.799622e+001
2.233901e+002, 7.794788e+001
2.238722e+002, 7.795885e+001
2.243543e+002, 7.802574e+001
2.248364e+002, 7.818997e+001
2.253185e+002, 7.854174e+001
2.258007e+002, 7.890272e+001
2.262828e+002, 7.902525e+001
2.267649e+002, 7.876334e+001
2.272470e+002, 7.854076e+001
2.277291e+002, 7.845296e+001
2.282112e+002, 7.849465e+001
2.286934e+002, 7.870537e+001
2.291755e+002, 7.919450e+001
2.296576e+002, 7.975538e+001
2.301397e+002, 8.009061e+001
2.306218e+002, 8.004389e+001
2.311039e+002, 8.007374e+001
2.315861e+002, 8.035354e+001
2.320682e+002, 8.096276e+001
2.325503e+002, 8.127894e+001
2.330324e+002, 8.112108e+001
2.335145e+002, 8.082764e+001
2.339966e+002, 8.083170e+001
2.344788e+002, 8.126371e+001
2.349609e+002, 8.176869e+001
2.354430e+002, 8.230038e+001
2.359251e+002, 8.289059e+001
2.364072e+002, 8.327665e+001
2.368893e+002, 8.336031e+001
2.373715e+002, 8.332047e+001
2.378536e+002, 8.337573e+001
2.383357e+002, 8.355726e+001
2.388178e+002, 8.377902e+001
2.392999e+002, 8.404160e+001
2.397820e+002, 8.435863e+001
2.402642e+002, 8.458371e+001
2.407463e+002, 8.469175e+001
2.412284e+002, 8.472581e+001
2.417105e+002, 8.470784e+001
2.421926e+002, 8.449743e+001
2.426747e+002, 8.449104e+001
2.431569e+002, 8.485153e+001
2.436390e+002, 8.564603e+001
2.441211e+002, 8.625741e+001
2.446032e+002, 8.664216e+001
2.450853e+002, 8.688889e+001
2.455674e+002, 8.709973e+001
2.460496e+002, 8.729414e+001
2.465317e+002, 8.741654e+001
2.470138e+002, 8.742813e+001
2.474959e+002, 8.731283e+001
2.479780e+002, 8.726900e+001
2.484601e+002, 8.721999e+001
2.489423e+002, 8.731767e+001
2.494244e+002, 8.778995e+001
2.499065e+002, 8.894165e+001
2.503886e+002, 8.985819e+001
2.508707e+002, 9.022212e+001
2.513528e+002, 8.998904e+001
2.518350e+002, 9.021281e+001
2.523171e+002, 9.115434e+001
2.527992e+002, 9.226418e+001
2.532813e+002, 9.294152e+001
2.537634e+002, 9.291537e+001
2.542455e+002, 9.303087e+001
2.547277e+002, 9.349643e+001
2.552098e+002, 9.432037e+001
2.556919e+002, 9.506316e+001
2.561740e+002, 9.573309e+001
2.566561e+002, 9.630827e+001
2.571382e+002, 9.673450e+001
2.576204e+002, 9.693176e+001
2.581025e+002, 9.717151e+001
2.585846e+002, 9.746054e+001
2.590667e+002, 9.780695e+001
2.595488e+002, 9.847281e+001
2.600309e+002, 9.971682e+001
2.605131e+002, 1.008855e+002
2.609952e+002, 1.012548e+002
2.614773e+002, 1.003781e+002
2.619594e+002, 9.997847e+001
2.624415e+002, 1.004346e+002
2.629236e+002, 1.016694e+002
2.634058e+002, 1.028118e+002
2.638879e+002, 1.037505e+002
2.643700e+002, 1.048071e+002
2.648521e+002, 1.063330e+002
2.653342e+002, 1.084918e+002
2.658163e+002, 1.105110e+002
2.662985e+002, 1.121927e+002
2.667806e+002, 1.136182e+002
2.672627e+002, 1.153320e+002
2.677448e+002, 1.174086e+002
2.682269e+002, 1.195943e+002
2.687090e+002, 1.217285e+002
2.691912e+002, 1.238519e+002
2.696733e+002, 1.258164e+002
2.701554e+002, 1.275445e+002
2.706375e+002, 1.291194e+002
2.711196e+002, 1.308742e+002
2.716017e+002, 1.329250e+002
2.720839e+002, 1.348260e+002
2.725660e+002, 1.362466e+002
2.730481e+002, 1.371689e+002
2.735302e+002, 1.377873e+002
2.740123e+002, 1.381147e+002
2.744944e+002, 1.381614e+002
2.749766e+002, 1.379664e+002
2.754587e+002, 1.375385e+002
2.759408e+002, 1.368482e+002
2.764229e+002, 1.359403e+002
2.769050e+002, 1.348342e+002
2.773871e+002, 1.331920e+002
2.778693e+002, 1.308371e+002
2.783514e+002, 1.281111e+002
2.788335e+002, 1.258197e+002
2.793156e+002, 1.240138e+002
2.797977e+002, 1.222162e+002
2.802798e+002, 1.200872e+002
2.807620e+002, 1.176418e+002
2.812441e+002, 1.153993e+002
2.817262e+002, 1.133985e+002
2.822083e+002, 1.115811e+002
2.826904e+002, 1.097718e+002
2.831725e+002, 1.079464e+002
2.836547e+002, 1.064594e+002
2.841368e+002, 1.055913e+002
2.846189e+002, 1.052986e+002
2.851010e+002, 1.049992e+002
2.855831e+002, 1.046922e+002
2.860652e+002, 1.043446e+002
2.865474e+002, 1.038170e+002
2.870295e+002, 1.031169e+002
2.875116e+002, 1.026102e+002
2.879937e+002, 1.024893e+002
2.884758e+002, 1.027126e+002
2.889579e+002, 1.030654e+002
2.894401e+002, 1.035688e+002
2.899222e+002, 1.041101e+002
2.904043e+002, 1.044879e+002
2.908864e+002, 1.047381e+002
2.913685e+002, 1.051481e+002
2.918506e+002, 1.058192e+002
2.923328e+002, 1.067317e+002
2.928149e+002, 1.078583e+002
2.932970e+002, 1.092167e+002
2.937791e+002, 1.106325e+002
2.942612e+002, 1.119288e+002
2.947433e+002, 1.131251e+002
2.952255e+002, 1.142714e+002
2.957076e+002, 1.153149e+002
2.961897e+002, 1.163502e+002
2.966718e+002, 1.175539e+002
2.971539e+002, 1.189175e+002
2.976360e+002, 1.203453e+002
2.981182e+002, 1.216623e+002
2.986003e+002, 1.229667e+002
2.990824e+002, 1.245793e+002
2.995645e+002, 1.267889e+002
3.000466e+002, 1.291311e+002
3.005287e+002, 1.309873e+002
3.010109e+002, 1.323795e+002
3.014930e+002, 1.335172e+002
3.019751e+002, 1.343889e+002
3.024572e+002, 1.351267e+002
3.029393e+002, 1.359536e+002
3.034214e+002, 1.369877e+002
3.039036e+002, 1.380165e+002
3.043857e+002, 1.388362e+002
3.048678e+002, 1.394633e+002
3.053499e+002, 1.399707e+002
3.058320e+002, 1.403275e+002
3.063141e+002, 1.406144e+002
3.067963e+002, 1.409389e+002
3.072784e+002, 1.413545e+002
3.077605e+002, 1.417138e+002
3.082426e+002, 1.418758e+002
3.087247e+002, 1.418847e+002
3.092068e+002, 1.418474e+002
3.096890e+002, 1.419677e+002
3.101711e+002, 1.419762e+002
3.106532e+002, 1.416513e+002
3.111353e+002, 1.409659e+002
3.116174e+002, 1.399589e+002
3.120995e+002, 1.385155e+002
3.125817e+002, 1.367934e+002
3.130638e+002, 1.350303e+002
3.135459e+002, 1.335102e+002
3.140280e+002, 1.318217e+002
3.145101e+002, 1.296476e+002
3.149922e+002, 1.269565e+002
3.154744e+002, 1.241658e+002
3.159565e+002, 1.213775e+002
3.164386e+002, 1.186444e+002
3.169207e+002, 1.160625e+002
3.174028e+002, 1.138911e+002
3.178849e+002, 1.116407e+002
3.183671e+002, 1.090602e+002
3.188492e+002, 1.061433e+002
3.193313e+002, 1.032811e+002
3.198134e+002, 1.004628e+002
3.202955e+002, 9.780945e+001
3.207776e+002, 9.544810e+001
3.212598e+002, 9.371725e+001
3.217419e+002, 9.191850e+001
3.222240e+002, 8.973292e+001
3.227061e+002, 8.727486e+001
3.231882e+002, 8.514977e+001
3.236703e+002, 8.361023e+001
3.241525e+002, 8.233260e+001
3.246346e+002, 8.116515e+001
3.251167e+002, 8.023331e+001
3.255988e+002, 7.920147e+001
3.260809e+002, 7.804327e+001
3.265630e+002, 7.676545e+001
3.270452e+002, 7.537993e+001
3.275273e+002, 7.365470e+001
3.280094e+002, 7.204076e+001
3.284915e+002, 7.069273e+001
3.289736e+002, 6.969292e+001
3.294557e+002, 6.881088e+001
3.299379e+002, 6.811433e+001
3.304200e+002, 6.751091e+001
3.309021e+002, 6.685834e+001
3.313842e+002, 6.606141e+001
3.318663e+002, 6.533646e+001
3.323484e+002, 6.479002e+001
3.328306e+002, 6.449502e+001
3.333127e+002, 6.394331e+001
3.337948e+002, 6.297103e+001
3.342769e+002, 6.188459e+001
3.347590e+002, 6.103833e+001
3.352411e+002, 6.051215e+001
3.357233e+002, 6.003555e+001
3.362054e+002, 5.957100e+001
3.366875e+002, 5.911451e+001
3.371696e+002, 5.864684e+001
3.376517e+002, 5.814104e+001
3.381339e+002, 5.767931e+001
3.386160e+002, 5.737624e+001
3.390981e+002, 5.728783e+001
3.395802e+002, 5.705160e+001
3.400623e+002, 5.655079e+001
3.405444e+002, 5.589571e+001
3.410266e+002, 5.552953e+001
3.415087e+002, 5.550656e+001
3.419908e+002, 5.548132e+001
3.424729e+002, 5.516453e+001
3.429550e+002, 5.456066e+001
3.434371e+002, 5.420496e+001
3.439193e+002, 5.422476e+001
3.444014e+002, 5.435356e+001
3.448835e+002, 5.403330e+001
3.453656e+002, 5.326812e+001
3.458477e+002, 5.258606e+001
3.463298e+002, 5.232699e+001
3.468120e+002, 5.238712e+001
3.472941e+002, 5.233173e+001
3.477762e+002, 5.214464e+001
3.482583e+002, 5.187639e+001
3.487404e+002, 5.150703e+001
3.492225e+002, 5.108192e+001
3.497047e+002, 5.079894e+001
3.501868e+002, 5.086960e+001
3.506689e+002, 5.106909e+001
3.511510e+002, 5.095690e+001
3.516331e+002, 5.053825e+001
3.521152e+002, 5.008565e+001
3.525974e+002, 4.981522e+001
3.530795e+002, 4.967200e+001
3.535616e+002, 4.956508e+001
3.540437e+002, 4.951904e+001
3.545258e+002, 4.943585e+001
3.550079e+002, 4.917888e+001
3.554901e+002, 4.878156e+001
3.559722e+002, 4.838963e+001
3.564543e+002, 4.802076e+001
3.569364e+002, 4.773798e+001
3.574185e+002, 4.764171e+001
3.579006e+002, 4.783659e+001
3.583828e+002, 4.798252e+001
3.588649e+002, 4.784437e+001
3.593470e+002, 4.750404e+001
3.598291e+002, 4.712751e+001
3.603112e+002, 4.660853e+001
3.607933e+002, 4.620912e+001
3.612755e+002, 4.617944e+001
3.617576e+002, 4.661477e+001
3.622397e+002, 4.687206e+001
3.627218e+002, 4.650826e+001
3.632039e+002, 4.590768e+001
3.636860e+002, 4.549942e+001
3.641682e+002, 4.557851e+001
3.646503e+002, 4.568656e+001
3.651324e+002, 4.568529e+001
3.656145e+002, 4.557523e+001
3.660966e+002, 4.545525e+001
3.665787e+002, 4.542342e+001
3.670609e+002, 4.533589e+001
3.675430e+002, 4.510054e+001
3.680251e+002, 4.436348e+001
3.685072e+002, 4.388809e+001
3.689893e+002, 4.389919e+001
3.694714e+002, 4.423699e+001
3.699536e+002, 4.437680e+001
3.704357e+002, 4.411946e+001
3.709178e+002, 4.387506e+001
3.713999e+002, 4.383763e+001
3.718820e+002, 4.418255e+001
3.723641e+002, 4.426431e+001
3.728463e+002, 4.393640e+001
3.733284e+002, 4.344116e+001
3.738105e+002, 4.315163e+001
3.742926e+002, 4.312578e+001
3.747747e+002, 4.317673e+001
3.752568e+002, 4.326206e+001
3.757390e+002, 4.338221e+001
3.762211e+002, 4.353300e+001
3.767032e+002, 4.375232e+001
3.771853e+002, 4.392508e+001
3.776674e+002, 4.393277e+001
3.781495e+002, 4.376115e+001
3.786317e+002, 4.353204e+001
3.791138e+002, 4.322597e+001
3.795959e+002, 4.290245e+001
3.800780e+002, 4.276693e+001
3.805601e+002, 4.283558e+001
3.810422e+002, 4.292556e+001
3.815244e+002, 4.287008e+001
3.820065e+002, 4.271083e+001
3.824886e+002, 4.271156e+001
3.829707e+002, 4.294179e+001
3.834528e+002, 4.321346e+001
3.839349e+002, 4.321261e+001
3.844171e+002, 4.299060e+001
3.848992e+002, 4.282698e+001
3.853813e+002, 4.292336e+001
3.858634e+002, 4.314465e+001
3.863455e+002, 4.324360e+001
3.868276e+002, 4.320748e+001
3.873098e+002, 4.317007e+001
3.877919e+002, 4.330886e+001
3.882740e+002, 4.351800e+001
3.887561e+002, 4.360530e+001
3.892382e+002, 4.343197e+001
3.897203e+002, 4.318631e+001
3.902025e+002, 4.296326e+001
3.906846e+002, 4.278195e+001
3.911667e+002, 4.273153e+001
3.916488e+002, 4.301385e+001
3.921309e+002, 4.336652e+001
3.926130e+002, 4.353306e+001
3.930952e+002, 4.331750e+001
3.935773e+002, 4.323440e+001
3.940594e+002, 4.372603e+001
3.945415e+002, 4.447999e+001
3.950236e+002, 4.491631e+001
3.955057e+002, 4.467041e+001
3.959879e+002, 4.424046e+001
3.964700e+002, 4.372428e+001
3.969521e+002, 4.307009e+001
3.974342e+002, 4.273671e+001
3.979163e+002, 4.291538e+001
3.983984e+002, 4.338802e+001
3.988806e+002, 4.395558e+001
3.993627e+002, 4.502328e+001
3.998448e+002, 4.570107e+001
4.003269e+002, 4.577359e+001
4.008090e+002, 4.531395e+001
4.012911e+002, 4.486674e+001
4.017733e+002, 4.434111e+001
4.022554e+002, 4.392970e+001
4.027375e+002, 4.374665e+001
4.032196e+002, 4.387857e+001
4.037017e+002, 4.402077e+001
4.041838e+002, 4.415168e+001
4.046660e+002, 4.430489e+001
4.051481e+002, 4.456255e+001
4.056302e+002, 4.496553e+001
4.061123e+002, 4.533141e+001
4.065944e+002, 4.562412e+001
4.070765e+002, 4.583920e+001
4.075587e+002, 4.579290e+001
4.080408e+002, 4.540375e+001
4.085229e+002, 4.506052e+001
4.090050e+002, 4.527637e+001
4.094871e+002, 4.600343e+001
4.099692e+002, 4.654715e+001
4.104514e+002, 4.670591e+001
4.109335e+002, 4.665536e+001
4.114156e+002, 4.670004e+001
4.118977e+002, 4.684264e+001
4.123798e+002, 4.712400e+001
4.128619e+002, 4.769412e+001
4.133441e+002, 4.839605e+001
4.138262e+002, 4.888781e+001
4.143083e+002, 4.909015e+001
4.147904e+002, 4.929683e+001
4.152725e+002, 4.988613e+001
4.157546e+002, 5.069214e+001
4.162368e+002, 5.138539e+001
4.167189e+002, 5.168172e+001
4.172010e+002, 5.189480e+001
4.176831e+002, 5.227839e+001
4.181652e+002, 5.282661e+001
4.186473e+002, 5.340937e+001
4.191295e+002, 5.396371e+001
4.196116e+002, 5.451252e+001
4.200937e+002, 5.506641e+001
4.205758e+002, 5.563006e+001
4.210579e+002, 5.620520e+001
4.215400e+002, 5.676061e+001
4.220222e+002, 5.733059e+001
4.225043e+002, 5.801587e+001
4.229864e+002, 5.891347e+001
4.234685e+002, 5.985766e+001
4.239506e+002, 6.078575e+001
4.244327e+002, 6.165954e+001
4.249149e+002, 6.262091e+001
4.253970e+002, 6.373389e+001
4.258791e+002, 6.490005e+001
4.263612e+002, 6.603873e+001
4.268433e+002, 6.713969e+001
4.273254e+002, 6.821347e+001
4.278076e+002, 6.923737e+001
4.282897e+002, 7.023212e+001
4.287718e+002, 7.128853e+001
4.292539e+002, 7.240189e+001
4.297360e+002, 7.355555e+001
4.302181e+002, 7.472488e+001
4.307003e+002, 7.590598e+001
4.311824e+002, 7.716183e+001
4.316645e+002, 7.856351e+001
4.321466e+002, 7.992027e+001
4.326287e+002, 8.082549e+001
4.331108e+002, 8.126426e+001
4.335930e+002, 8.169304e+001
4.340751e+002, 8.242812e+001
4.345572e+002, 8.326876e+001
4.350393e+002, 8.351437e+001
4.355214e+002, 8.316032e+001
4.360035e+002, 8.248962e+001
4.364857e+002, 8.158972e+001
4.369678e+002, 8.057345e+001
4.374499e+002, 7.974343e+001
4.379320e+002, 7.930077e+001
4.384141e+002, 7.879434e+001
4.388962e+002, 7.763098e+001
4.393784e+002, 7.597742e+001
4.398605e+002, 7.432421e+001
4.403426e+002, 7.284683e+001
4.408247e+002, 7.153957e+001
4.413068e+002, 7.036536e+001
4.417889e+002, 6.932774e+001
4.422711e+002, 6.847855e+001
4.427532e+002, 6.800955e+001
4.432353e+002, 6.767687e+001
4.437174e+002, 6.722731e+001
4.441995e+002, 6.632797e+001
4.446816e+002, 6.557817e+001
4.451638e+002, 6.519292e+001
4.456459e+002, 6.511330e+001
4.461280e+002, 6.504428e+001
4.466101e+002, 6.499600e+001
4.470922e+002, 6.490646e+001
4.475743e+002, 6.471356e+001
4.480565e+002, 6.427506e+001
4.485386e+002, 6.410666e+001
4.490207e+002, 6.439195e+001
4.495028e+002, 6.483302e+001
4.499849e+002, 6.502116e+001
4.504670e+002, 6.480814e+001
4.509492e+002, 6.468011e+001
4.514313e+002, 6.475137e+001
4.519134e+002, 6.500034e+001
4.523955e+002, 6.526535e+001
4.528776e+002, 6.552776e+001
4.533597e+002, 6.585523e+001
4.538419e+002, 6.635533e+001
4.543240e+002, 6.701679e+001
4.548061e+002, 6.748249e+001
4.552882e+002, 6.765453e+001
4.557703e+002, 6.779159e+001
4.562524e+002, 6.834550e+001
4.567346e+002, 6.926174e+001
4.572167e+002, 7.011899e+001
4.576988e+002, 7.066424e+001
4.581809e+002, 7.108238e+001
4.586630e+002, 7.173447e+001
4.591451e+002, 7.260159e+001
4.596273e+002, 7.348298e+001
4.601094e+002, 7.407011e+001
4.605915e+002, 7.462589e+001
4.610736e+002, 7.553282e+001
4.615557e+002, 7.704133e+001
4.620378e+002, 7.856636e+001
4.625200e+002, 7.974113e+001
4.630021e+002, 8.066873e+001
4.634842e+002, 8.152429e+001
4.639663e+002, 8.229607e+001
4.644484e+002, 8.308797e+001
4.649305e+002, 8.401692e+001
4.654127e+002, 8.510971e+001
4.658948e+002, 8.593577e+001
4.663769e+002, 8.625034e+001
4.668590e+002, 8.635439e+001
4.673411e+002, 8.646408e+001
4.678232e+002, 8.675848e+001
4.683054e+002, 8.684190e+001
4.687875e+002, 8.668007e+001
4.692696e+002, 8.630488e+001
4.697517e+002, 8.578634e+001
4.702338e+002, 8.513428e+001
4.707159e+002, 8.431829e+001
4.711981e+002, 8.328242e+001
4.716802e+002, 8.201451e+001
4.721623e+002, 8.083495e+001
4.726444e+002, 7.977616e+001
4.731265e+002, 7.875539e+001
4.736086e+002, 7.768938e+001
4.740908e+002, 7.658004e+001
4.745729e+002, 7.557419e+001
4.750550e+002, 7.473589e+001
4.755371e+002, 7.395362e+001
4.760192e+002, 7.299288e+001
4.765013e+002, 7.187122e+001
4.769835e+002, 7.076988e+001
4.774656e+002, 6.966684e+001
4.779477e+002, 6.867876e+001
4.784298e+002, 6.808353e+001
4.789119e+002, 6.790224e+001
4.793940e+002, 6.772713e+001
4.798762e+002, 6.712029e+001
4.803583e+002, 6.636320e+001
4.808404e+002, 6.584600e+001
4.813225e+002, 6.591586e+001
4.818046e+002, 6.592493e+001
4.822867e+002, 6.541302e+001
4.827689e+002, 6.457502e+001
4.832510e+002, 6.391098e+001
4.837331e+002, 6.384805e+001
4.842152e+002, 6.376958e+001
4.846973e+002, 6.333010e+001
4.851794e+002, 6.238353e+001
4.856616e+002, 6.170680e+001
4.861437e+002, 6.159133e+001
4.866258e+002, 6.163591e+001
4.871079e+002, 6.153209e+001
4.875900e+002, 6.117292e+001
4.880721e+002, 6.084603e+001
4.885543e+002, 6.056173e+001
4.890364e+002, 6.032933e+001
4.895185e+002, 6.021085e+001
4.900006e+002, 6.026267e+001
4.904827e+002, 6.024986e+001
4.909648e+002, 6.008576e+001
4.914470e+002, 5.977042e+001
4.919291e+002, 5.925318e+001
4.924112e+002, 5.849402e+001
4.928933e+002, 5.773932e+001
4.933754e+002, 5.729375e+001
4.938575e+002, 5.708549e+001
4.943397e+002, 5.677991e+001
4.948218e+002, 5.624565e+001
4.953039e+002, 5.570323e+001
4.957860e+002, 5.552040e+001
4.962681e+002, 5.560826e+001
4.967502e+002, 5.566193e+001
4.972324e+002, 5.547732e+001
4.977145e+002, 5.520862e+001
4.981966e+002, 5.495492e+001
4.986787e+002, 5.472023e+001
4.991608e+002, 5.461757e+001
4.996429e+002, 5.491341e+001
5.001251e+002, 5.525657e+001
5.006072e+002, 5.533257e+001
5.010893e+002, 5.483147e+001
5.015714e+002, 5.438583e+001
5.020535e+002, 5.416272e+001
5.025356e+002, 5.408644e+001
5.030178e+002, 5.398215e+001
5.034999e+002, 5.377866e+001
5.039820e+002, 5.360754e+001
5.044641e+002, 5.351335e+001
5.049462e+002, 5.349999e+001
5.054283e+002, 5.346128e+001
5.059105e+002, 5.336454e+001
5.063926e+002, 5.329583e+001
5.068747e+002, 5.336597e+001
5.073568e+002, 5.362270e+001
5.078389e+002, 5.365630e+001
5.083210e+002, 5.334498e+001
5.088032e+002, 5.294261e+001
5.092853e+002, 5.296877e+001
5.097674e+002, 5.339317e+001
5.102495e+002, 5.371449e+001
5.107316e+002, 5.367881e+001
5.112137e+002, 5.342415e+001
5.116959e+002, 5.323920e+001
5.121780e+002, 5.311945e+001
5.126601e+002, 5.299320e+001
5.131422e+002, 5.274737e+001
5.136243e+002, 5.248812e+001
5.141064e+002, 5.236391e+001
5.145886e+002, 5.242583e+001
5.150707e+002, 5.253133e+001
5.155528e+002, 5.268824e+001
5.160349e+002, 5.280961e+001
5.165170e+002, 5.277248e+001
5.169991e+002, 5.227691e+001
5.174813e+002, 5.188279e+001
5.179634e+002, 5.191407e+001
5.184455e+002, 5.229455e+001
5.189276e+002, 5.237684e+001
5.194097e+002, 5.155915e+001
5.198918e+002, 5.089677e+001
5.203740e+002, 5.091696e+001
5.208561e+002, 5.201430e+001
5.213382e+002, 5.246337e+001
5.218203e+002, 5.200709e+001
5.223024e+002, 5.119730e+001
5.227845e+002, 5.066071e+001
5.232667e+002, 5.044497e+001
5.237488e+002, 5.021481e+001
5.242309e+002, 4.986000e+001
5.247130e+002, 4.949426e+001
5.251951e+002, 4.947978e+001
5.256772e+002, 4.980812e+001
5.261594e+002, 5.007450e+001
5.266415e+002, 5.003679e+001
5.271236e+002, 4.977752e+001
5.276057e+002, 4.943990e+001
5.280878e+002, 4.902925e+001
5.285699e+002, 4.865102e+001
5.290521e+002, 4.844061e+001
5.295342e+002, 4.830415e+001
5.300163e+002, 4.811383e+001
5.304984e+002, 4.780804e+001
5.309805e+002, 4.749878e+001
5.314626e+002, 4.726748e+001
5.319448e+002, 4.707652e+001
5.324269e+002, 4.685398e+001
5.329090e+002, 4.649645e+001
5.333911e+002, 4.618114e+001
5.338732e+002, 4.599064e+001
5.343553e+002, 4.593403e+001
5.348375e+002, 4.582317e+001
5.353196e+002, 4.564291e+001
5.358017e+002, 4.541785e+001
5.362838e+002, 4.513446e+001
5.367659e+002, 4.469126e+001
5.372480e+002, 4.449337e+001
5.377302e+002, 4.463660e+001
5.382123e+002, 4.489758e+001
5.386944e+002, 4.496610e+001
5.391765e+002, 4.483839e+001
5.396586e+002, 4.455745e+001
5.401407e+002, 4.405556e+001
5.406229e+002, 4.348172e+001
5.411050e+002, 4.324386e+001
5.415871e+002, 4.331573e+001
5.420692e+002, 4.342891e+001
5.425513e+002, 4.349085e+001
5.430334e+002, 4.346043e+001
5.435156e+002, 4.320552e+001
5.439977e+002, 4.270697e+001
5.444798e+002, 4.228960e+001
5.449619e+002, 4.229922e+001
5.454440e+002, 4.246774e+001
5.459261e+002, 4.249160e+001
5.464083e+002, 4.212083e+001
5.468904e+002, 4.183718e+001
5.473725e+002, 4.187990e+001
5.478546e+002, 4.211860e+001
5.483367e+002, 4.227576e+001
5.488188e+002, 4.226524e+001
5.493010e+002, 4.221537e+001
5.497831e+002, 4.218025e+001
5.502652e+002, 4.215755e+001
5.507473e+002, 4.196281e+001
5.512294e+002, 4.145880e+001
5.517115e+002, 4.101471e+001
5.521937e+002, 4.090892e+001
5.526758e+002, 4.119185e+001
5.531579e+002, 4.132029e+001
5.536400e+002, 4.124021e+001
5.541221e+002, 4.109401e+001
5.546042e+002, 4.108905e+001
5.550864e+002, 4.119985e+001
5.555685e+002, 4.126324e+001
5.560506e+002, 4.121419e+001
5.565327e+002, 4.111403e+001
5.570148e+002, 4.102504e+001
5.574969e+002, 4.095314e+001
5.579791e+002, 4.092156e+001
5.584612e+002, 4.102322e+001
5.589433e+002, 4.111536e+001
5.594254e+002, 4.106904e+001
5.599075e+002, 4.087385e+001
5.603896e+002, 4.064890e+001
5.608718e+002, 4.029641e+001
5.613539e+002, 4.002461e+001
5.618360e+002, 4.000028e+001
5.623181e+002, 4.051045e+001
5.628002e+002, 4.087157e+001
5.632823e+002, 4.101938e+001
5.637645e+002, 4.101432e+001
5.642466e+002, 4.092119e+001
5.647287e+002, 4.065672e+001
5.652108e+002, 4.050208e+001
5.656929e+002, 4.055872e+001
5.661750e+002, 4.077015e+001
5.666572e+002, 4.086860e+001
5.671393e+002, 4.083624e+001
5.676214e+002, 4.081414e+001
5.681035e+002, 4.091180e+001
5.685856e+002, 4.109120e+001
5.690677e+002, 4.119947e+001
5.695499e+002, 4.122612e+001
5.700320e+002, 4.124691e+001
5.705141e+002, 4.134203e+001
5.709962e+002, 4.147538e+001
5.714783e+002, 4.158844e+001
5.719604e+002, 4.166546e+001
5.724426e+002, 4.172398e+001
5.729247e+002, 4.172932e+001
5.734068e+002, 4.173127e+001
5.738889e+002, 4.181920e+001
5.743710e+002, 4.222814e+001
5.748531e+002, 4.252141e+001
5.753353e+002, 4.239486e+001
5.758174e+002, 4.190223e+001
5.762995e+002, 4.184232e+001
5.767816e+002, 4.262661e+001
5.772637e+002, 4.337830e+001
5.777458e+002, 4.366727e+001
5.782280e+002, 4.335638e+001
5.787101e+002, 4.332853e+001
5.791922e+002, 4.366331e+001
5.796743e+002, 4.410589e+001
5.801564e+002, 4.439805e+001
5.806385e+002, 4.454514e+001
5.811207e+002, 4.464663e+001
5.816028e+002, 4.469461e+001
5.820849e+002, 4.475872e+001
5.825670e+002, 4.495318e+001
5.830491e+002, 4.525233e+001
5.835313e+002, 4.558469e+001
5.840134e+002, 4.595599e+001
5.844955e+002, 4.631330e+001
5.849776e+002, 4.658686e+001
5.854597e+002, 4.679274e+001
5.859418e+002, 4.702189e+001
5.864240e+002, 4.725847e+001
5.869061e+002, 4.757428e+001
5.873882e+002, 4.808607e+001
5.878703e+002, 4.892506e+001
5.883524e+002, 4.947109e+001
5.888345e+002, 4.938270e+001
5.893167e+002, 4.914759e+001
5.897988e+002, 4.914046e+001
5.902809e+002, 4.944699e+001
5.907630e+002, 4.978611e+001
5.912451e+002, 5.012960e+001
5.917272e+002, 5.050647e+001
5.922094e+002, 5.102751e+001
5.926915e+002, 5.170623e+001
5.931736e+002, 5.223688e+001
5.936557e+002, 5.244806e+001
5.941378e+002, 5.248853e+001
5.946199e+002, 5.271869e+001
5.951021e+002, 5.311942e+001
5.955842e+002, 5.354936e+001
5.960663e+002, 5.402418e+001
5.965484e+002, 5.442019e+001
5.970305e+002, 5.456374e+001
5.975126e+002, 5.443451e+001
5.979948e+002, 5.425700e+001
5.984769e+002, 5.414338e+001
5.989590e+002, 5.404581e+001
5.994411e+002, 5.392271e+001
5.999232e+002, 5.376023e+001
6.004053e+002, 5.358151e+001
6.008875e+002, 5.343769e+001
6.013696e+002, 5.326358e+001
6.018517e+002, 5.296838e+001
6.023338e+002, 5.254583e+001
6.028159e+002, 5.200152e+001
6.032980e+002, 5.124436e+001
6.037802e+002, 5.039269e+001
6.042623e+002, 4.990470e+001
6.047444e+002, 4.982608e+001
6.052265e+002, 4.975394e+001
6.057086e+002, 4.949399e+001
6.061907e+002, 4.907506e+001
6.066729e+002, 4.852116e+001
6.071550e+002, 4.783873e+001
6.076371e+002, 4.727196e+001
6.081192e+002, 4.712832e+001
6.086013e+002, 4.717756e+001
6.090834e+002, 4.712202e+001
6.095656e+002, 4.689381e+001
6.100477e+002, 4.663583e+001
6.105298e+002, 4.637880e+001
6.110119e+002, 4.615546e+001
6.114940e+002, 4.599994e+001
6.119761e+002, 4.601902e+001
6.124583e+002, 4.599328e+001
6.129404e+002, 4.586680e+001
6.134225e+002, 4.567952e+001
6.139046e+002, 4.551418e+001
6.143867e+002, 4.539022e+001
6.148688e+002, 4.524961e+001
6.153510e+002, 4.504249e+001
6.158331e+002, 4.479977e+001
6.163152e+002, 4.476703e+001
6.167973e+002, 4.497164e+001
6.172794e+002, 4.510941e+001
6.177615e+002, 4.484719e+001
6.182437e+002, 4.436506e+001
6.187258e+002, 4.420983e+001
6.192079e+002, 4.441779e+001
6.196900e+002, 4.467036e+001
6.201721e+002, 4.469813e+001
6.206542e+002, 4.461062e+001
6.211364e+002, 4.455027e+001
6.216185e+002, 4.457640e+001
6.221006e+002, 4.457125e+001
6.225827e+002, 4.438709e+001
6.230648e+002, 4.417026e+001
6.235469e+002, 4.412518e+001
6.240291e+002, 4.454419e+001
6.245112e+002, 4.482757e+001
6.249933e+002, 4.484411e+001
6.254754e+002, 4.467069e+001
6.259575e+002, 4.457499e+001
6.264396e+002, 4.459889e+001
6.269218e+002, 4.457331e+001
6.274039e+002, 4.438038e+001
6.278860e+002, 4.407473e+001
6.283681e+002, 4.404548e+001
6.288502e+002, 4.430352e+001
6.293323e+002, 4.454300e+001
6.298145e+002, 4.448028e+001
6.302966e+002, 4.425118e+001
6.307787e+002, 4.411656e+001
6.312608e+002, 4.410500e+001
6.317429e+002, 4.412781e+001
6.322250e+002, 4.419656e+001
6.327072e+002, 4.422865e+001
6.331893e+002, 4.412213e+001
6.336714e+002, 4.373108e+001
6.341535e+002, 4.340689e+001
6.346356e+002, 4.326746e+001
6.351177e+002, 4.324425e+001
6.355999e+002, 4.321877e+001
6.360820e+002, 4.311568e+001
6.365641e+002, 4.313972e+001
6.370462e+002, 4.341367e+001
6.375283e+002, 4.381304e+001
6.380104e+002, 4.387760e+001
6.384926e+002, 4.355078e+001
6.389747e+002, 4.325737e+001
6.394568e+002, 4.324162e+001
6.399389e+002, 4.339640e+001
6.404210e+002, 4.328524e+001
6.409031e+002, 4.292934e+001
6.413853e+002, 4.270360e+001
6.418674e+002, 4.309419e+001
6.423495e+002, 4.366197e+001
6.428316e+002, 4.380114e+001
6.433137e+002, 4.339787e+001
6.437958e+002, 4.309736e+001
6.442780e+002, 4.336095e+001
6.447601e+002, 4.379468e+001
6.452422e+002, 4.404706e+001
6.457243e+002, 4.385691e+001
6.462064e+002, 4.380006e+001
6.466885e+002, 4.400200e+001
6.471707e+002, 4.429126e+001
6.476528e+002, 4.442903e+001
6.481349e+002, 4.436548e+001
6.486170e+002, 4.431335e+001
6.490991e+002, 4.431511e+001
6.495812e+002, 4.434596e+001
6.500634e+002, 4.434691e+001
6.505455e+002, 4.431978e+001
6.510276e+002, 4.429018e+001
6.515097e+002, 4.424860e+001
6.519918e+002, 4.422457e+001
6.524739e+002, 4.433009e+001
6.529561e+002, 4.452292e+001
6.534382e+002, 4.458633e+001
6.539203e+002, 4.433207e+001
6.544024e+002, 4.394967e+001
6.548845e+002, 4.347935e+001
6.553666e+002, 4.289931e+001
6.558488e+002, 4.259749e+001
6.563309e+002, 4.297021e+001
6.568130e+002, 4.341285e+001
6.572951e+002, 4.355504e+001
6.577772e+002, 4.327810e+001
6.582593e+002, 4.301274e+001
6.587415e+002, 4.275217e+001
6.592236e+002, 4.251431e+001
6.597057e+002, 4.231609e+001
6.601878e+002, 4.215815e+001
6.606699e+002, 4.204909e+001
6.611520e+002, 4.199886e+001
6.616342e+002, 4.198214e+001
6.621163e+002, 4.201312e+001
6.625984e+002, 4.205184e+001
6.630805e+002, 4.198969e+001
6.635626e+002, 4.168905e+001
6.640447e+002, 4.136874e+001
6.645269e+002, 4.119041e+001
6.650090e+002, 4.111780e+001
6.654911e+002, 4.103961e+001
6.659732e+002, 4.085106e+001
6.664553e+002, 4.072113e+001
6.669374e+002, 4.074701e+001
6.674196e+002, 4.091498e+001
6.679017e+002, 4.103288e+001
6.683838e+002, 4.112296e+001
6.688659e+002, 4.112357e+001
6.693480e+002, 4.096367e+001
6.698301e+002, 4.064705e+001
6.703123e+002, 4.048243e+001
6.707944e+002, 4.049508e+001
6.712765e+002, 4.046158e+001
6.717586e+002, 4.004948e+001
6.722407e+002, 3.946178e+001
6.727228e+002, 3.919081e+001
6.732050e+002, 3.933545e+001
6.736871e+002, 3.956612e+001
6.741692e+002, 3.972646e+001
6.746513e+002, 3.979562e+001
6.751334e+002, 3.973597e+001
6.756155e+002, 3.935981e+001
6.760977e+002, 3.912251e+001
6.765798e+002, 3.932045e+001
6.770619e+002, 3.965415e+001
6.775440e+002, 3.965881e+001
6.780261e+002, 3.913334e+001
6.785082e+002, 3.870971e+001
6.789904e+002, 3.851796e+001
6.794725e+002, 3.847878e+001
6.799546e+002, 3.835895e+001
6.804367e+002, 3.815911e+001
6.809188e+002, 3.805310e+001
6.814009e+002, 3.817276e+001
6.818831e+002, 3.839620e+001
6.823652e+002, 3.850689e+001
6.828473e+002, 3.851809e+001
6.833294e+002, 3.848925e+001
6.838115e+002, 3.841735e+001
6.842936e+002, 3.834812e+001
6.847758e+002, 3.834503e+001
6.852579e+002, 3.840978e+001
6.857400e+002, 3.838031e+001
6.862221e+002, 3.809037e+001
6.867042e+002, 3.780012e+001
6.871863e+002, 3.764185e+001
6.876685e+002, 3.764205e+001
6.881506e+002, 3.767384e+001
6.886327e+002, 3.776089e+001
6.891148e+002, 3.783152e+001
6.895969e+002, 3.779168e+001
6.900790e+002, 3.765227e+001
6.905612e+002, 3.761353e+001
6.910433e+002, 3.771448e+001
6.915254e+002, 3.781786e+001
6.920075e+002, 3.773656e+001
6.924896e+002, 3.754840e+001
6.929717e+002, 3.740233e+001
6.934539e+002, 3.736997e+001
6.939360e+002, 3.732704e+001
6.944181e+002, 3.716036e+001
6.949002e+002, 3.694847e+001
6.953823e+002, 3.681288e+001
6.958644e+002, 3.688668e+001
6.963466e+002, 3.690985e+001
6.968287e+002, 3.682376e+001
6.973108e+002, 3.667073e+001
6.977929e+002, 3.654217e+001
6.982750e+002, 3.641302e+001
6.987571e+002, 3.641880e+001
6.992393e+002, 3.666784e+001
6.997214e+002, 3.704676e+001
7.002035e+002, 3.721248e+001
7.006856e+002, 3.717809e+001
7.011677e+002, 3.704398e+001
7.016498e+002, 3.673434e+001
7.021320e+002, 3.643864e+001
7.026141e+002, 3.646505e+001
7.030962e+002, 3.676959e+001
7.035783e+002, 3.692830e+001
7.040604e+002, 3.658294e+001
7.045425e+002, 3.616663e+001
7.050247e+002, 3.590734e+001
7.055068e+002, 3.583223e+001
7.059889e+002, 3.589451e+001
7.064710e+002, 3.622545e+001
7.069531e+002, 3.652086e+001
7.074352e+002, 3.653186e+001
7.079174e+002, 3.621684e+001
7.083995e+002, 3.614476e+001
7.088816e+002, 3.637803e+001
7.093637e+002, 3.660023e+001
7.098458e+002, 3.637742e+001
7.103279e+002, 3.589516e+001
7.108101e+002, 3.562082e+001
7.112922e+002, 3.566214e+001
7.117743e+002, 3.581481e+001
7.122564e+002, 3.605981e+001
7.127385e+002, 3.627279e+001
7.132206e+002, 3.629752e+001
7.137028e+002, 3.587267e+001
7.141849e+002, 3.556301e+001
7.146670e+002, 3.555458e+001
7.151491e+002, 3.568703e+001
7.156312e+002, 3.576089e+001
7.161133e+002, 3.578413e+001
7.165955e+002, 3.570662e+001
7.170776e+002, 3.546910e+001
7.175597e+002, 3.518649e+001
7.180418e+002, 3.513758e+001
7.185239e+002, 3.529982e+001
7.190060e+002, 3.545815e+001
7.194882e+002, 3.552059e+001
7.199703e+002, 3.554391e+001
7.204524e+002, 3.560862e+001
7.209345e+002, 3.569395e+001
7.214166e+002, 3.574143e+001
7.218987e+002, 3.567417e+001
7.223809e+002, 3.560860e+001
7.228630e+002, 3.562658e+001
7.233451e+002, 3.571260e+001
7.238272e+002, 3.571444e+001
7.243093e+002, 3.552858e+001
7.247914e+002, 3.540708e+001
7.252736e+002, 3.546917e+001
7.257557e+002, 3.569515e+001
7.262378e+002, 3.581736e+001
7.267199e+002, 3.582335e+001
7.272020e+002, 3.584869e+001
7.276841e+002, 3.607955e+001
7.281663e+002, 3.637416e+001
7.286484e+002, 3.634157e+001
7.291305e+002, 3.598434e+001
7.296126e+002, 3.568383e+001
7.300947e+002, 3.578373e+001
7.305768e+002, 3.599005e+001
7.310590e+002, 3.604541e+001
7.315411e+002, 3.587361e+001
7.320232e+002, 3.578416e+001
7.325053e+002, 3.588190e+001
7.329874e+002, 3.603812e+001
7.334695e+002, 3.619096e+001
7.339517e+002, 3.636029e+001
7.344338e+002, 3.646242e+001
7.349159e+002, 3.651345e+001
7.353980e+002, 3.645375e+001
7.358801e+002, 3.608012e+001
7.363622e+002, 3.551341e+001
7.368444e+002, 3.530843e+001
7.373265e+002, 3.560345e+001
7.378086e+002, 3.599897e+001
7.382907e+002, 3.620119e+001
7.387728e+002, 3.624548e+001
7.392549e+002, 3.615460e+001
7.397371e+002, 3.576811e+001
7.402192e+002, 3.553698e+001
7.407013e+002, 3.568472e+001
7.411834e+002, 3.601985e+001
7.416655e+002, 3.628670e+001
7.421476e+002, 3.646024e+001
7.426298e+002, 3.661812e+001
7.431119e+002, 3.676803e+001
7.435940e+002, 3.690669e+001
7.440761e+002, 3.703632e+001
7.445582e+002, 3.715267e+001
7.450403e+002, 3.722355e+001
7.455225e+002, 3.721984e+001
7.460046e+002, 3.719847e+001
7.464867e+002, 3.724868e+001
7.469688e+002, 3.733364e+001
7.474509e+002, 3.737386e+001
7.479330e+002, 3.732228e+001
7.484152e+002, 3.723458e+001
7.488973e+002, 3.708397e+001
7.493794e+002, 3.691041e+001
7.498615e+002, 3.684750e+001
7.503436e+002, 3.696278e+001
7.508257e+002, 3.707143e+001
7.513079e+002, 3.713761e+001
7.517900e+002, 3.716150e+001
7.522721e+002, 3.708728e+001
7.527542e+002, 3.691487e+001
7.532363e+002, 3.688565e+001
7.537184e+002, 3.729503e+001
7.542006e+002, 3.780303e+001
7.546827e+002, 3.774586e+001
7.551648e+002, 3.726819e+001
7.556469e+002, 3.697468e+001
7.561290e+002, 3.750880e+001
7.566111e+002, 3.800624e+001
7.570933e+002, 3.786246e+001
7.575754e+002, 3.711115e+001
7.580575e+002, 3.674833e+001
7.585396e+002, 3.702103e+001
7.590217e+002, 3.739156e+001
7.595038e+002, 3.769004e+001
7.599860e+002, 3.791315e+001
7.604681e+002, 3.803898e+001
7.609502e+002, 3.806138e+001
7.614323e+002, 3.804697e+001
7.619144e+002, 3.803991e+001
7.623965e+002, 3.802578e+001
7.628787e+002, 3.795255e+001
7.633608e+002, 3.782824e+001
7.638429e+002, 3.775438e+001
7.643250e+002, 3.777894e+001
7.648071e+002, 3.788662e+001
7.652892e+002, 3.812752e+001
7.657714e+002, 3.854937e+001
7.662535e+002, 3.872478e+001
7.667356e+002, 3.844890e+001
7.672177e+002, 3.816846e+001
7.676998e+002, 3.817857e+001
7.681819e+002, 3.851019e+001
7.686641e+002, 3.854646e+001
7.691462e+002, 3.825006e+001
7.696283e+002, 3.794278e+001
7.701104e+002, 3.791225e+001
7.705925e+002, 3.805747e+001
7.710746e+002, 3.820871e+001
7.715568e+002, 3.835119e+001
7.720389e+002, 3.844483e+001
7.725210e+002, 3.838586e+001
7.730031e+002, 3.832035e+001
7.734852e+002, 3.837317e+001
7.739673e+002, 3.860884e+001
7.744495e+002, 3.881676e+001
7.749316e+002, 3.906370e+001
7.754137e+002, 3.919090e+001
7.758958e+002, 3.899702e+001
7.763779e+002, 3.843510e+001
7.768600e+002, 3.820928e+001
7.773422e+002, 3.838212e+001
7.778243e+002, 3.864393e+001
7.783064e+002, 3.869033e+001
7.787885e+002, 3.860222e+001
7.792706e+002, 3.852543e+001
7.797527e+002, 3.848394e+001
7.802349e+002, 3.845639e+001
7.807170e+002, 3.842434e+001
7.811991e+002, 3.840522e+001
7.816812e+002, 3.842089e+001
7.821633e+002, 3.853594e+001
7.826454e+002, 3.855718e+001
7.831276e+002, 3.843169e+001
7.836097e+002, 3.827587e+001
7.840918e+002, 3.821724e+001
7.845739e+002, 3.825819e+001
7.850560e+002, 3.825420e+001
7.855381e+002, 3.818592e+001
7.860203e+002, 3.810129e+001
7.865024e+002, 3.799229e+001
7.869845e+002, 3.792054e+001
7.874666e+002, 3.802240e+001
7.879487e+002, 3.839803e+001
7.884308e+002, 3.872024e+001
7.889130e+002, 3.880795e+001
7.893951e+002, 3.877716e+001
7.898772e+002, 3.874664e+001
7.903593e+002, 3.874810e+001
7.908414e+002, 3.871400e+001
7.913235e+002, 3.864956e+001
7.918057e+002, 3.853998e+001
7.922878e+002, 3.829241e+001
7.927699e+002, 3.792711e+001
7.932520e+002, 3.787658e+001
7.937341e+002, 3.825843e+001
7.942162e+002, 3.870075e+001
7.946984e+002, 3.873997e+001
7.951805e+002, 3.859215e+001
7.956626e+002, 3.863176e+001
7.961447e+002, 3.911798e+001
7.966268e+002, 3.940981e+001
7.971089e+002, 3.909272e+001
7.975911e+002, 3.856031e+001
7.980732e+002, 3.825183e+001
7.985553e+002, 3.823322e+001
7.990374e+002, 3.831065e+001
7.995195e+002, 3.852248e+001
8.000016e+002, 3.874001e+001
8.004838e+002, 3.876164e+001
8.009659e+002, 3.862841e+001
8.014480e+002, 3.859410e+001
8.019301e+002, 3.873034e+001
8.024122e+002, 3.886919e+001
8.028943e+002, 3.883534e+001
8.033765e+002, 3.870949e+001
8.038586e+002, 3.859213e+001
8.043407e+002, 3.848207e+001
8.048228e+002, 3.842983e+001
8.053049e+002, 3.845144e+001
8.057870e+002, 3.853325e+001
8.062692e+002, 3.867927e+001
8.067513e+002, 3.892057e+001
8.072334e+002, 3.911422e+001
8.077155e+002, 3.926311e+001
8.081976e+002, 3.931252e+001
8.086797e+002, 3.906105e+001
8.091619e+002, 3.864956e+001
8.096440e+002, 3.853426e+001
8.101261e+002, 3.888674e+001
8.106082e+002, 3.925441e+001
8.110903e+002, 3.926812e+001
8.115724e+002, 3.913055e+001
8.120546e+002, 3.906361e+001
8.125367e+002, 3.918053e+001
8.130188e+002, 3.925647e+001
8.135009e+002, 3.927308e+001
8.139830e+002, 3.925493e+001
8.144651e+002, 3.919127e+001
8.149473e+002, 3.906975e+001
8.154294e+002, 3.915015e+001
8.159115e+002, 3.949532e+001
8.163936e+002, 3.987458e+001
8.168757e+002, 4.001240e+001
8.173578e+002, 4.000063e+001
8.178400e+002, 4.001896e+001
8.183221e+002, 4.014362e+001
8.188042e+002, 4.016217e+001
8.192863e+002, 3.973977e+001
8.197684e+002, 3.929524e+001
8.202505e+002, 3.926053e+001
8.207327e+002, 3.988900e+001
8.212148e+002, 4.039033e+001
8.216969e+002, 4.078843e+001
8.221790e+002, 4.101303e+001
8.226611e+002, 4.090155e+001
8.231432e+002, 4.051337e+001
8.236254e+002, 4.022668e+001
8.241075e+002, 4.008043e+001
8.245896e+002, 4.003549e+001
8.250717e+002, 4.010904e+001
8.255538e+002, 4.023835e+001
8.260359e+002, 4.035437e+001
8.265181e+002, 4.044378e+001
8.270002e+002, 4.052485e+001
8.274823e+002, 4.070061e+001
8.279644e+002, 4.079029e+001
8.284465e+002, 4.063594e+001
8.289286e+002, 4.015505e+001
8.294108e+002, 3.986690e+001
8.298929e+002, 3.980764e+001
8.303750e+002, 3.979728e+001
8.308571e+002, 3.958952e+001
8.313392e+002, 3.932539e+001
8.318214e+002, 3.937437e+001
8.323035e+002, 3.978522e+001
8.327856e+002, 4.013441e+001
8.332677e+002, 4.013332e+001
8.337498e+002, 3.997939e+001
8.342319e+002, 3.979604e+001
8.347141e+002, 3.957299e+001
8.351962e+002, 3.943058e+001
8.356783e+002, 3.940704e+001
8.361604e+002, 3.939785e+001
8.366425e+002, 3.933026e+001
8.371246e+002, 3.920891e+001
8.376068e+002, 3.907753e+001
8.380889e+002, 3.893561e+001
8.385710e+002, 3.890115e+001
8.390531e+002, 3.925763e+001
8.395352e+002, 3.965032e+001
8.400173e+002, 3.959520e+001
8.404995e+002, 3.907307e+001
8.409816e+002, 3.873689e+001
8.414637e+002, 3.895446e+001
8.419458e+002, 3.926661e+001
8.424279e+002, 3.950143e+001
8.429100e+002, 3.965779e+001
8.433922e+002, 3.964482e+001
8.438743e+002, 3.942603e+001
8.443564e+002, 3.923584e+001
8.448385e+002, 3.926995e+001
8.453206e+002, 3.941710e+001
8.458027e+002, 3.935804e+001
8.462849e+002, 3.914265e+001
8.467670e+002, 3.905426e+001
8.472491e+002, 3.938076e+001
8.477312e+002, 3.976124e+001
8.482133e+002, 4.003168e+001
8.486954e+002, 4.017852e+001
8.491776e+002, 4.019390e+001
8.496597e+002, 4.004307e+001
8.501418e+002, 3.983525e+001
8.506239e+002, 3.958493e+001
8.511060e+002, 3.931770e+001
8.515881e+002, 3.911885e+001
8.520703e+002, 3.898626e+001
8.525524e+002, 3.890092e+001
8.530345e+002, 3.888066e+001
8.535166e+002, 3.887906e+001
8.539987e+002, 3.878127e+001
8.544808e+002, 3.866746e+001
8.549630e+002, 3.874233e+001
8.554451e+002, 3.929599e+001
8.559272e+002, 3.976495e+001
8.564093e+002, 4.005393e+001
8.568914e+002, 4.018030e+001
8.573735e+002, 4.015350e+001
8.578557e+002, 3.995527e+001
8.583378e+002, 3.982807e+001
8.588199e+002, 3.985982e+001
8.593020e+002, 3.994126e+001
8.597841e+002, 3.990100e+001
8.602662e+002, 3.978932e+001
8.607484e+002, 3.971335e+001
8.612305e+002, 3.976324e+001
8.617126e+002, 3.977596e+001
8.621947e+002, 3.959289e+001
8.626768e+002, 3.938225e+001
8.631589e+002, 3.939179e+001
8.636411e+002, 3.973178e+001
8.641232e+002, 3.998754e+001
8.646053e+002, 4.013026e+001
8.650874e+002, 4.015998e+001
8.655695e+002, 3.996866e+001
8.660516e+002, 3.966127e+001
8.665338e+002, 3.960449e+001
8.670159e+002, 3.991331e+001
8.674980e+002, 4.022965e+001
8.679801e+002, 4.029656e+001
8.684622e+002, 4.025016e+001
8.689443e+002, 4.021911e+001
8.694265e+002, 4.021258e+001
8.699086e+002, 4.025321e+001
8.703907e+002, 4.037085e+001
8.708728e+002, 4.048860e+001
8.713549e+002, 4.052526e+001
8.718370e+002, 4.049184e+001
8.723192e+002, 4.054485e+001
8.728013e+002, 4.069365e+001
8.732834e+002, 4.078817e+001
8.737655e+002, 4.065862e+001
8.742476e+002, 4.044368e+001
8.747297e+002, 4.023266e+001
8.752119e+002, 4.002991e+001
8.756940e+002, 4.001024e+001
8.761761e+002, 4.049672e+001
8.766582e+002, 4.086389e+001
8.771403e+002, 4.071180e+001
8.776224e+002, 4.012561e+001
8.781046e+002, 4.050531e+001
8.785867e+002, 4.190772e+001
8.790688e+002, 4.301049e+001
8.795509e+002, 4.276300e+001
8.800330e+002, 4.187816e+001
8.805151e+002, 4.124642e+001
8.809973e+002, 4.084743e+001
8.814794e+002, 4.058422e+001
8.819615e+002, 4.048356e+001
8.824436e+002, 4.044178e+001
8.829257e+002, 4.044258e+001
8.834078e+002, 4.047083e+001
8.838900e+002, 4.049697e+001
8.843721e+002, 4.053011e+001
8.848542e+002, 4.049842e+001
8.853363e+002, 4.033862e+001
8.858184e+002, 4.017265e+001
8.863005e+002, 4.027564e+001
8.867827e+002, 4.054457e+001
8.872648e+002, 4.071190e+001
8.877469e+002, 4.061468e+001
8.882290e+002, 4.049511e+001
8.887111e+002, 4.043131e+001
8.891932e+002, 4.041991e+001
8.896754e+002, 4.045319e+001
8.901575e+002, 4.053074e+001
8.906396e+002, 4.067559e+001
8.911217e+002, 4.094122e+001
8.916038e+002, 4.114881e+001
8.920859e+002, 4.093768e+001
8.925681e+002, 4.048638e+001
8.930502e+002, 4.042342e+001
8.935323e+002, 4.091341e+001
8.940144e+002, 4.131419e+001
8.944965e+002, 4.102354e+001
8.949786e+002, 4.055084e+001
8.954608e+002, 4.032710e+001
8.959429e+002, 4.045956e+001
8.964250e+002, 4.066510e+001
8.969071e+002, 4.103460e+001
8.973892e+002, 4.129036e+001
8.978713e+002, 4.113828e+001
8.983535e+002, 4.067594e+001
8.988356e+002, 4.051738e+001
8.993177e+002, 4.064880e+001
8.997998e+002, 4.080599e+001
9.002819e+002, 4.070533e+001
9.007640e+002, 4.064954e+001
9.012462e+002, 4.099965e+001
9.017283e+002, 4.169544e+001
9.022104e+002, 4.203746e+001
9.026925e+002, 4.173673e+001
9.031746e+002, 4.144645e+001
9.036567e+002, 4.134153e+001
9.041389e+002, 4.138964e+001
9.046210e+002, 4.153918e+001
9.051031e+002, 4.177053e+001
9.055852e+002, 4.190116e+001
9.060673e+002, 4.173673e+001
9.065494e+002, 4.160725e+001
9.070316e+002, 4.198943e+001
9.075137e+002, 4.257863e+001
9.079958e+002, 4.284142e+001
9.084779e+002, 4.225950e+001
9.089600e+002, 4.186399e+001
9.094421e+002, 4.180466e+001
9.099243e+002, 4.190301e+001
9.104064e+002, 4.191509e+001
9.108885e+002, 4.184802e+001
9.113706e+002, 4.184073e+001
9.118527e+002, 4.192193e+001
9.123348e+002, 4.201271e+001
9.128170e+002, 4.192724e+001
9.132991e+002, 4.186808e+001
9.137812e+002, 4.214485e+001
9.142633e+002, 4.296404e+001
9.147454e+002, 4.343554e+001
9.152275e+002, 4.323799e+001
9.157097e+002, 4.289241e+001
9.161918e+002, 4.264469e+001
9.166739e+002, 4.249630e+001
9.171560e+002, 4.260711e+001
9.176381e+002, 4.297853e+001
9.181202e+002, 4.331953e+001
9.186024e+002, 4.329332e+001
9.190845e+002, 4.322446e+001
9.195666e+002, 4.357846e+001
9.200487e+002, 4.426027e+001
9.205308e+002, 4.469334e+001
9.210129e+002, 4.453588e+001
9.214951e+002, 4.430180e+001
9.219772e+002, 4.407723e+001
9.224593e+002, 4.388593e+001
9.229414e+002, 4.381335e+001
9.234235e+002, 4.385796e+001
9.239056e+002, 4.392818e+001
9.243878e+002, 4.399384e+001
9.248699e+002, 4.407322e+001
9.253520e+002, 4.417530e+001
9.258341e+002, 4.430944e+001
9.263162e+002, 4.449403e+001
9.267983e+002, 4.480058e+001
9.272805e+002, 4.505804e+001
9.277626e+002, 4.525022e+001
9.282447e+002, 4.539151e+001
9.287268e+002, 4.547901e+001
9.292089e+002, 4.551259e+001
9.296910e+002, 4.559001e+001
9.301732e+002, 4.572208e+001
9.306553e+002, 4.585254e+001
9.311374e+002, 4.585583e+001
9.316195e+002, 4.587367e+001
9.321016e+002, 4.611167e+001
9.325837e+002, 4.659943e+001
9.330659e+002, 4.700673e+001
9.335480e+002, 4.718443e+001
9.340301e+002, 4.734591e+001
9.345122e+002, 4.754442e+001
9.349943e+002, 4.779131e+001
9.354764e+002, 4.822194e+001
9.359586e+002, 4.883147e+001
9.364407e+002, 4.929922e+001
9.369228e+002, 4.936864e+001
9.374049e+002, 4.931948e+001
9.378870e+002, 4.938387e+001
9.383691e+002, 4.956109e+001
9.388513e+002, 4.984768e+001
9.393334e+002, 5.036286e+001
9.398155e+002, 5.083480e+001
9.402976e+002, 5.120273e+001
9.407797e+002, 5.153371e+001
9.412618e+002, 5.194207e+001
9.417440e+002, 5.241864e+001
9.422261e+002, 5.280556e+001
9.427082e+002, 5.306126e+001
9.431903e+002, 5.333506e+001
9.436724e+002, 5.378801e+001
9.441545e+002, 5.431907e+001
9.446367e+002, 5.480754e+001
9.451188e+002, 5.518447e+001
9.456009e+002, 5.572380e+001
9.460830e+002, 5.651141e+001
9.465651e+002, 5.734518e+001
9.470472e+002, 5.807987e+001
9.475294e+002, 5.874982e+001
9.480115e+002, 5.957577e+001
9.484936e+002, 6.055224e+001
9.489757e+002, 6.159304e+001
9.494578e+002, 6.268814e+001
9.499399e+002, 6.378765e+001
9.504221e+002, 6.477143e+001
9.509042e+002, 6.571855e+001
9.513863e+002, 6.692228e+001
9.518684e+002, 6.852211e+001
9.523505e+002, 7.015812e+001
9.528326e+002, 7.172106e+001
9.533148e+002, 7.335540e+001
9.537969e+002, 7.539944e+001
9.542790e+002, 7.777073e+001
9.547611e+002, 8.006261e+001
9.552432e+002, 8.205683e+001
9.557253e+002, 8.430910e+001
9.562075e+002, 8.738345e+001
9.566896e+002, 9.080680e+001
9.571717e+002, 9.410909e+001
9.576538e+002, 9.707536e+001
9.581359e+002, 1.004874e+002
9.586180e+002, 1.044118e+002
9.591002e+002, 1.086522e+002
9.595823e+002, 1.131114e+002
9.600644e+002, 1.177700e+002
9.605465e+002, 1.224223e+002
9.610286e+002, 1.271348e+002
9.615107e+002, 1.322492e+002
9.619929e+002, 1.381540e+002
9.624750e+002, 1.443824e+002
9.629571e+002, 1.509177e+002
9.634392e+002, 1.576061e+002
9.639213e+002, 1.640744e+002
9.644034e+002, 1.701194e+002
9.648856e+002, 1.765623e+002
9.653677e+002, 1.837137e+002
9.658498e+002, 1.911647e+002
9.663319e+002, 1.983069e+002
9.668140e+002, 2.053096e+002
9.672961e+002, 2.124173e+002
9.677783e+002, 2.199834e+002
9.682604e+002, 2.270657e+002
9.687425e+002, 2.338305e+002
9.692246e+002, 2.395911e+002
9.697067e+002, 2.439565e+002
9.701888e+002, 2.468216e+002
9.706710e+002, 2.486042e+002
9.711531e+002, 2.493122e+002
9.716352e+002, 2.487149e+002
9.721173e+002, 2.465550e+002
9.725994e+002, 2.430349e+002
9.730815e+002, 2.380556e+002
9.735637e+002, 2.318128e+002
9.740458e+002, 2.252698e+002
9.745279e+002, 2.188167e+002
9.750100e+002, 2.119912e+002
9.754921e+002, 2.044072e+002
9.759742e+002, 1.964996e+002
9.764564e+002, 1.893290e+002
9.769385e+002, 1.828111e+002
9.774206e+002, 1.763258e+002
9.779027e+002, 1.696660e+002
9.783848e+002, 1.633544e+002
9.788669e+002, 1.579233e+002
9.793491e+002, 1.530732e+002
9.798312e+002, 1.484282e+002
9.803133e+002, 1.439422e+002
9.807954e+002, 1.396445e+002
9.812775e+002, 1.354542e+002
9.817596e+002, 1.314978e+002
9.822418e+002, 1.279235e+002
9.827239e+002, 1.246317e+002
9.832060e+002, 1.211012e+002
9.836881e+002, 1.173418e+002
9.841702e+002, 1.134883e+002
9.846523e+002, 1.091667e+002
9.851345e+002, 1.052169e+002
9.856166e+002, 1.021277e+002
9.860987e+002, 9.983297e+001
9.865808e+002, 9.795616e+001
9.870629e+002, 9.672536e+001
9.875450e+002, 9.514149e+001
9.880272e+002, 9.292188e+001
9.885093e+002, 9.048160e+001
9.889914e+002, 8.865661e+001
9.894735e+002, 8.706351e+001
9.899556e+002, 8.484737e+001
9.904377e+002, 8.166355e+001
9.909199e+002, 7.855210e+001
9.914020e+002, 7.595263e+001
9.918841e+002, 7.357322e+001
9.923662e+002, 7.116475e+001
9.928483e+002, 6.875417e+001
9.933304e+002, 6.673188e+001
9.938126e+002, 6.511684e+001
9.942947e+002, 6.355454e+001
9.947768e+002, 6.164692e+001
9.952589e+002, 5.979870e+001
9.957410e+002, 5.849684e+001
9.962231e+002, 5.764521e+001
9.967053e+002, 5.691896e+001
9.971874e+002, 5.631870e+001
9.976695e+002, 5.572660e+001
9.981516e+002, 5.508978e+001
9.986337e+002, 5.449642e+001
9.991158e+002, 5.411967e+001
9.995980e+002, 5.391890e+001
1.000080e+003, 5.360604e+001
1.000562e+003, 5.311641e+001
1.001044e+003, 5.267626e+001
1.001526e+003, 5.261261e+001
1.002009e+003, 5.255532e+001
1.002491e+003, 5.210923e+001
1.002973e+003, 5.117971e+001
1.003455e+003, 5.065739e+001
1.003937e+003, 5.065922e+001
1.004419e+003, 5.070283e+001
1.004901e+003, 5.056280e+001
1.005383e+003, 5.032581e+001
1.005865e+003, 5.012674e+001
1.006348e+003, 4.998677e+001
1.006830e+003, 4.996135e+001
1.007312e+003, 5.024212e+001
1.007794e+003, 5.043470e+001
1.008276e+003, 5.025443e+001
1.008758e+003, 5.003054e+001
1.009240e+003, 5.015700e+001
1.009722e+003, 5.068196e+001
1.010205e+003, 5.106217e+001
1.010687e+003, 5.126628e+001
1.011169e+003, 5.133367e+001
1.011651e+003, 5.125922e+001
1.012133e+003, 5.109974e+001
1.012615e+003, 5.084942e+001
1.013097e+003, 5.052666e+001
1.013579e+003, 5.039827e+001
1.014061e+003, 5.058882e+001
1.014544e+003, 5.083489e+001
1.015026e+003, 5.107036e+001
1.015508e+003, 5.130582e+001
1.015990e+003, 5.157984e+001
1.016472e+003, 5.188335e+001
1.016954e+003, 5.218054e+001
1.017436e+003, 5.246959e+001
1.017918e+003, 5.273419e+001
1.018401e+003, 5.284361e+001
1.018883e+003, 5.300361e+001
1.019365e+003, 5.346532e+001
1.019847e+003, 5.434188e+001
1.020329e+003, 5.490371e+001
1.020811e+003, 5.507507e+001
1.021293e+003, 5.534777e+001
1.021775e+003, 5.619139e+001
1.022257e+003, 5.729364e+001
1.022740e+003, 5.812680e+001
1.023222e+003, 5.877904e+001
1.023704e+003, 5.961502e+001
1.024186e+003, 6.091243e+001
1.024668e+003, 6.221623e+001
1.025150e+003, 6.336926e+001
1.025632e+003, 6.452909e+001
1.026114e+003, 6.597050e+001
1.026596e+003, 6.765599e+001
1.027079e+003, 6.952516e+001
1.027561e+003, 7.159913e+001
1.028043e+003, 7.357767e+001
1.028525e+003, 7.494917e+001
1.029007e+003, 7.631981e+001
1.029489e+003, 7.826565e+001
1.029971e+003, 8.086342e+001
1.030453e+003, 8.332773e+001
1.030936e+003, 8.561024e+001
1.031418e+003, 8.796550e+001
1.031900e+003, 9.063693e+001
1.032382e+003, 9.334008e+001
1.032864e+003, 9.539796e+001
1.033346e+003, 9.702517e+001
1.033828e+003, 9.869807e+001
1.034310e+003, 1.009636e+002
1.034792e+003, 1.027000e+002
1.035275e+003, 1.034984e+002
1.035757e+003, 1.037810e+002
1.036239e+003, 1.039114e+002
1.036721e+003, 1.038900e+002
1.037203e+003, 1.034365e+002
1.037685e+003, 1.025506e+002
1.038167e+003, 1.012360e+002
1.038649e+003, 9.929921e+001
1.039132e+003, 9.710539e+001
1.039614e+003, 9.475969e+001
1.040096e+003, 9.236990e+001
1.040578e+003, 9.036421e+001
1.041060e+003, 8.891690e+001
1.041542e+003, 8.732977e+001
1.042024e+003, 8.534811e+001
1.042506e+003, 8.338050e+001
1.042989e+003, 8.202225e+001
1.043471e+003, 8.111675e+001
1.043953e+003, 8.032688e+001
1.044435e+003, 7.956655e+001
1.044917e+003, 7.898965e+001
1.045399e+003, 7.869731e+001
1.045881e+003, 7.856408e+001
1.046363e+003, 7.855382e+001
1.046845e+003, 7.865369e+001
1.047328e+003, 7.867652e+001
1.047810e+003, 7.864687e+001
1.048292e+003, 7.896276e+001
1.048774e+003, 8.007052e+001
1.049256e+003, 8.123212e+001
1.049738e+003, 8.181419e+001
1.050220e+003, 8.208036e+001
1.050702e+003, 8.245903e+001
1.051184e+003, 8.306147e+001
1.051667e+003, 8.364062e+001
1.052149e+003, 8.424432e+001
1.052631e+003, 8.465112e+001
1.053113e+003, 8.468147e+001
1.053595e+003, 8.437941e+001
1.054077e+003, 8.378665e+001
1.054559e+003, 8.292811e+001
1.055041e+003, 8.193980e+001
1.055523e+003, 8.095255e+001
1.056006e+003, 7.973316e+001
1.056488e+003, 7.821408e+001
1.056970e+003, 7.644764e+001
1.057452e+003, 7.447501e+001
1.057934e+003, 7.232239e+001
1.058416e+003, 7.018715e+001
1.058898e+003, 6.807993e+001
1.059380e+003, 6.616159e+001
1.059863e+003, 6.476061e+001
1.060345e+003, 6.350604e+001
1.060827e+003, 6.208527e+001
1.061309e+003, 6.047266e+001
1.061791e+003, 5.894904e+001
1.062273e+003, 5.751485e+001
1.062755e+003, 5.615672e+001
1.063237e+003, 5.486690e+001
1.063719e+003, 5.367307e+001
1.064202e+003, 5.260510e+001
1.064684e+003, 5.165515e+001
1.065166e+003, 5.080973e+001
1.065648e+003, 5.014178e+001
1.066130e+003, 4.945757e+001
1.066612e+003, 4.868740e+001
1.067094e+003, 4.796349e+001
1.067576e+003, 4.742087e+001
1.068059e+003, 4.702163e+001
1.068541e+003, 4.655941e+001
1.069023e+003, 4.604284e+001
1.069505e+003, 4.558116e+001
1.069987e+003, 4.539695e+001
1.070469e+003, 4.512114e+001
1.070951e+003, 4.441771e+001
1.071433e+003, 4.354535e+001
1.071916e+003, 4.299121e+001
1.072398e+003, 4.278272e+001
1.072880e+003, 4.270763e+001
1.073362e+003, 4.275307e+001
1.073844e+003, 4.283440e+001
1.074326e+003, 4.294663e+001
1.074808e+003, 4.299646e+001
1.075290e+003, 4.286962e+001
1.075772e+003, 4.255541e+001
1.076255e+003, 4.218556e+001
1.076737e+003, 4.172137e+001
1.077219e+003, 4.133572e+001
1.077701e+003, 4.110456e+001
1.078183e+003, 4.095954e+001
1.078665e+003, 4.075297e+001
1.079147e+003, 4.052808e+001
1.079629e+003, 4.039061e+001
1.080111e+003, 4.038667e+001
1.080594e+003, 4.041214e+001
1.081076e+003, 4.049852e+001
1.081558e+003, 4.053465e+001
1.082040e+003, 4.042653e+001
1.082522e+003, 4.019539e+001
1.083004e+003, 4.006477e+001
1.083486e+003, 4.002919e+001
1.083968e+003, 4.004877e+001
1.084450e+003, 4.022834e+001
1.084933e+003, 4.031718e+001
1.085415e+003, 4.001208e+001
1.085897e+003, 3.957378e+001
1.086379e+003, 3.943752e+001
1.086861e+003, 3.972840e+001
1.087343e+003, 3.982923e+001
1.087825e+003, 3.969017e+001
1.088307e+003, 3.951545e+001
1.088790e+003, 3.956278e+001
1.089272e+003, 3.962291e+001
1.089754e+003, 3.934605e+001
1.090236e+003, 3.880936e+001
1.090718e+003, 3.850805e+001
1.091200e+003, 3.868211e+001
1.091682e+003, 3.880967e+001
1.092164e+003, 3.876924e+001
1.092646e+003, 3.870872e+001
1.093129e+003, 3.895204e+001
1.093611e+003, 3.933694e+001
1.094093e+003, 3.941359e+001
1.094575e+003, 3.908997e+001
1.095057e+003, 3.884109e+001
1.095539e+003, 3.899549e+001
1.096021e+003, 3.914238e+001
1.096503e+003, 3.905780e+001
1.096986e+003, 3.884224e+001
1.097468e+003, 3.890923e+001
1.097950e+003, 3.922813e+001
1.098432e+003, 3.953968e+001
1.098914e+003, 3.978006e+001
1.099396e+003, 3.994639e+001
1.099878e+003, 4.003622e+001
1.100360e+003, 4.004866e+001
1.100843e+003, 3.995928e+001
1.101325e+003, 3.975042e+001
1.101807e+003, 3.967359e+001
1.102289e+003, 3.974520e+001
1.102771e+003, 3.976532e+001
1.103253e+003, 3.950242e+001
1.103735e+003, 3.924574e+001
1.104217e+003, 3.945658e+001
1.104699e+003, 3.989889e+001
1.105182e+003, 4.011903e+001
1.105664e+003, 3.980090e+001
1.106146e+003, 3.968909e+001
1.106628e+003, 3.983849e+001
1.107110e+003, 4.009462e+001
1.107592e+003, 4.041233e+001
1.108074e+003, 4.070138e+001
1.108556e+003, 4.072755e+001
1.109038e+003, 4.053516e+001
1.109521e+003, 4.039891e+001
1.110003e+003, 4.042640e+001
1.110485e+003, 4.052465e+001
1.110967e+003, 4.068622e+001
1.111449e+003, 4.088719e+001
1.111931e+003, 4.115860e+001
1.112413e+003, 4.144838e+001
1.112895e+003, 4.144674e+001
1.113377e+003, 4.111190e+001
1.113860e+003, 4.087891e+001
1.114342e+003, 4.122108e+001
1.114824e+003, 4.152185e+001
1.115306e+003, 4.135012e+001
1.115788e+003, 4.089135e+001
1.116270e+003, 4.075856e+001
1.116752e+003, 4.094672e+001
1.117234e+003, 4.125160e+001
1.117717e+003, 4.166511e+001
1.118199e+003, 4.200154e+001
1.118681e+003, 4.200251e+001
1.119163e+003, 4.191249e+001
1.119645e+003, 4.199657e+001
1.120127e+003, 4.227895e+001
1.120609e+003, 4.235534e+001
1.121091e+003, 4.218093e+001
1.121573e+003, 4.208913e+001
1.122056e+003, 4.227303e+001
1.122538e+003, 4.252417e+001
1.123020e+003, 4.252285e+001
1.123502e+003, 4.242739e+001
1.123984e+003, 4.249434e+001
1.124466e+003, 4.288499e+001
1.124948e+003, 4.319182e+001
1.125430e+003, 4.338915e+001
1.125913e+003, 4.355751e+001
1.126395e+003, 4.378980e+001
1.126877e+003, 4.401304e+001
1.127359e+003, 4.401012e+001
1.127841e+003, 4.385967e+001
1.128323e+003, 4.377907e+001
1.128805e+003, 4.383824e+001
1.129287e+003, 4.400837e+001
1.129770e+003, 4.436165e+001
1.130252e+003, 4.469770e+001
1.130734e+003, 4.478355e+001
1.131216e+003, 4.468570e+001
1.131698e+003, 4.469441e+001
1.132180e+003, 4.480204e+001
1.132662e+003, 4.486739e+001
1.133144e+003, 4.476533e+001
1.133626e+003, 4.466203e+001
1.134109e+003, 4.456986e+001
1.134591e+003, 4.454388e+001
1.135073e+003, 4.474912e+001
1.135555e+003, 4.514894e+001
1.136037e+003, 4.529509e+001
1.136519e+003, 4.513320e+001
1.137001e+003, 4.488387e+001
1.137483e+003, 4.458718e+001
1.137965e+003, 4.436944e+001
1.138448e+003, 4.443602e+001
1.138930e+003, 4.463702e+001
1.139412e+003, 4.444031e+001
1.139894e+003, 4.381469e+001
1.140376e+003, 4.343946e+001
1.140858e+003, 4.349429e+001
1.141340e+003, 4.362434e+001
1.141822e+003, 4.344800e+001
1.142304e+003, 4.322855e+001
1.142787e+003, 4.329972e+001
1.143269e+003, 4.366676e+001
1.143751e+003, 4.356744e+001
1.144233e+003, 4.288250e+001
1.144715e+003, 4.240792e+001
1.145197e+003, 4.248066e+001
1.145679e+003, 4.273820e+001
1.146161e+003, 4.280027e+001
1.146644e+003, 4.272100e+001
1.147126e+003, 4.253517e+001
1.147608e+003, 4.217782e+001
1.148090e+003, 4.206528e+001
1.148572e+003, 4.231814e+001
1.149054e+003, 4.244877e+001
1.149536e+003, 4.217115e+001
1.150018e+003, 4.168535e+001
1.150500e+003, 4.118798e+001
1.150983e+003, 4.078048e+001
1.151465e+003, 4.069408e+001
1.151947e+003, 4.134974e+001
1.152429e+003, 4.152442e+001
1.152911e+003, 4.093225e+001
1.153393e+003, 4.030375e+001
1.153875e+003, 4.016398e+001
1.154357e+003, 4.035870e+001
1.154840e+003, 4.055904e+001
1.155322e+003, 4.073576e+001
1.155804e+003, 4.078738e+001
1.156286e+003, 4.053502e+001
1.156768e+003, 4.035870e+001
1.157250e+003, 4.035712e+001
1.157732e+003, 4.037792e+001
1.158214e+003, 4.025564e+001
1.158697e+003, 4.003339e+001
1.159179e+003, 3.989981e+001
1.159661e+003, 3.984954e+001
1.160143e+003, 3.982398e+001
1.160625e+003, 3.981044e+001
1.161107e+003, 3.979650e+001
1.161589e+003, 3.978023e+001
1.162071e+003, 3.975946e+001
1.162553e+003, 3.973161e+001
1.163036e+003, 3.969659e+001
1.163518e+003, 3.967140e+001
1.164000e+003, 3.965293e+001
1.164482e+003, 3.956944e+001
1.164964e+003, 3.928524e+001
1.165446e+003, 3.902717e+001
1.165928e+003, 3.889365e+001
1.166410e+003, 3.886318e+001
1.166892e+003, 3.892982e+001
1.167375e+003, 3.908631e+001
1.167857e+003, 3.923706e+001
1.168339e+003, 3.937443e+001
1.168821e+003, 3.940920e+001
1.169303e+003, 3.915574e+001
1.169785e+003, 3.889333e+001
1.170267e+003, 3.881856e+001
1.170749e+003, 3.887495e+001
1.171231e+003, 3.890727e+001
1.171714e+003, 3.891556e+001
1.172196e+003, 3.895776e+001
1.172678e+003, 3.905520e+001
1.173160e+003, 3.912139e+001
1.173642e+003, 3.905653e+001
1.174124e+003, 3.895089e+001
1.174606e+003, 3.886986e+001
1.175088e+003, 3.881383e+001
1.175571e+003, 3.879741e+001
1.176053e+003, 3.882679e+001
1.176535e+003, 3.874435e+001
1.177017e+003, 3.845289e+001
1.177499e+003, 3.821928e+001
1.177981e+003, 3.834852e+001
1.178463e+003, 3.862693e+001
1.178945e+003, 3.890232e+001
1.179427e+003, 3.916041e+001
1.179910e+003, 3.915301e+001
1.180392e+003, 3.884972e+001
1.180874e+003, 3.858223e+001
1.181356e+003, 3.848234e+001
1.181838e+003, 3.844751e+001
1.182320e+003, 3.834062e+001
1.182802e+003, 3.825282e+001
1.183284e+003, 3.834625e+001
1.183767e+003, 3.868723e+001
1.184249e+003, 3.869452e+001
1.184731e+003, 3.830892e+001
1.185213e+003, 3.799861e+001
1.185695e+003, 3.802834e+001
1.186177e+003, 3.817585e+001
1.186659e+003, 3.820465e+001
1.187141e+003, 3.817552e+001
1.187624e+003, 3.818187e+001
1.188106e+003, 3.826445e+001
1.188588e+003, 3.824093e+001
1.189070e+003, 3.807671e+001
1.189552e+003, 3.801445e+001
1.190034e+003, 3.830993e+001
1.190516e+003, 3.865791e+001
1.190998e+003, 3.862356e+001
1.191480e+003, 3.838680e+001
1.191963e+003, 3.826929e+001
1.192445e+003, 3.845979e+001
1.192927e+003, 3.836523e+001
1.193409e+003, 3.791170e+001
1.193891e+003, 3.750764e+001
1.194373e+003, 3.742566e+001
1.194855e+003, 3.755652e+001
1.195337e+003, 3.786609e+001
1.195819e+003, 3.825776e+001
1.196302e+003, 3.851087e+001
1.196784e+003, 3.854692e+001
1.197266e+003, 3.855004e+001
1.197748e+003, 3.851936e+001
1.198230e+003, 3.847235e+001
1.198712e+003, 3.839337e+001
1.199194e+003, 3.832790e+001
1.199676e+003, 3.835915e+001
1.200158e+003, 3.845487e+001
1.200641e+003, 3.852460e+001
1.201123e+003, 3.853977e+001
1.201605e+003, 3.856307e+001
1.202087e+003, 3.859892e+001
1.202569e+003, 3.864051e+001
1.203051e+003, 3.876238e+001
1.203533e+003, 3.883065e+001
1.204015e+003, 3.854351e+001
1.204498e+003, 3.803696e+001
1.204980e+003, 3.781291e+001
1.205462e+003, 3.805900e+001
1.205944e+003, 3.830003e+001
1.206426e+003, 3.851056e+001
1.206908e+003, 3.866134e+001
1.207390e+003, 3.868074e+001
1.207872e+003, 3.865321e+001
1.208354e+003, 3.870060e+001
1.208837e+003, 3.880547e+001
1.209319e+003, 3.886426e+001
1.209801e+003, 3.887414e+001
1.210283e+003, 3.880943e+001
1.210765e+003, 3.864785e+001
1.211247e+003, 3.848151e+001
1.211729e+003, 3.834192e+001
1.212211e+003, 3.829447e+001
1.212694e+003, 3.848825e+001
1.213176e+003, 3.887830e+001
1.213658e+003, 3.918031e+001
1.214140e+003, 3.943659e+001
1.214622e+003, 3.938130e+001
1.215104e+003, 3.891418e+001
1.215586e+003, 3.839881e+001
1.216068e+003, 3.821196e+001
1.216551e+003, 3.820979e+001
1.217033e+003, 3.823820e+001
1.217515e+003, 3.828765e+001
1.217997e+003, 3.838179e+001
1.218479e+003, 3.854959e+001
1.218961e+003, 3.864467e+001
1.219443e+003, 3.861909e+001
1.219925e+003, 3.861782e+001
1.220407e+003, 3.888240e+001
1.220890e+003, 3.920627e+001
1.221372e+003, 3.937002e+001
1.221854e+003, 3.935434e+001
1.222336e+003, 3.922493e+001
1.222818e+003, 3.893912e+001
1.223300e+003, 3.872813e+001
1.223782e+003, 3.863150e+001
1.224264e+003, 3.864263e+001
1.224746e+003, 3.881737e+001
1.225229e+003, 3.905059e+001
1.225711e+003, 3.926436e+001
1.226193e+003, 3.943775e+001
1.226675e+003, 3.947753e+001
1.227157e+003, 3.934016e+001
1.227639e+003, 3.933018e+001
1.228121e+003, 3.954339e+001
1.228603e+003, 3.974878e+001
1.229085e+003, 3.965929e+001
1.229568e+003, 3.947416e+001
1.230050e+003, 3.937526e+001
1.230532e+003, 3.936933e+001
1.231014e+003, 3.938375e+001
1.231496e+003, 3.942713e+001
1.231978e+003, 3.939942e+001
1.232460e+003, 3.925958e+001
1.232942e+003, 3.913511e+001
1.233425e+003, 3.917303e+001
1.233907e+003, 3.926092e+001
1.234389e+003, 3.931737e+001
1.234871e+003, 3.933459e+001
1.235353e+003, 3.926459e+001
1.235835e+003, 3.909962e+001
1.236317e+003, 3.906571e+001
1.236799e+003, 3.924450e+001
1.237281e+003, 3.941487e+001
1.237764e+003, 3.932423e+001
1.238246e+003, 3.920635e+001
1.238728e+003, 3.929818e+001
1.239210e+003, 3.952939e+001
1.239692e+003, 3.955067e+001
1.240174e+003, 3.937403e+001
1.240656e+003, 3.935382e+001
1.241138e+003, 3.960497e+001
1.241621e+003, 3.983558e+001
1.242103e+003, 3.979354e+001
1.242585e+003, 3.968627e+001
1.243067e+003, 3.965807e+001
1.243549e+003, 3.967879e+001
1.244031e+003, 3.959559e+001
1.244513e+003, 3.943259e+001
1.244995e+003, 3.941975e+001
1.245478e+003, 3.964225e+001
1.245960e+003, 3.981289e+001
1.246442e+003, 3.972326e+001
1.246924e+003, 3.955635e+001
1.247406e+003, 3.936536e+001
1.247888e+003, 3.921077e+001
1.248370e+003, 3.936991e+001
1.248852e+003, 3.975085e+001
1.249334e+003, 3.993225e+001
1.249817e+003, 3.978086e+001
1.250299e+003, 3.969048e+001
1.250781e+003, 3.998732e+001
1.251263e+003, 4.021701e+001
1.251745e+003, 4.016804e+001
1.252227e+003, 3.996377e+001
1.252709e+003, 3.985928e+001
1.253191e+003, 3.985769e+001
1.253673e+003, 4.000982e+001
1.254156e+003, 4.036096e+001
1.254638e+003, 4.057587e+001
1.255120e+003, 4.045783e+001
1.255602e+003, 4.031938e+001
1.256084e+003, 4.024332e+001
1.256566e+003, 4.023111e+001
1.257048e+003, 4.034110e+001
1.257530e+003, 4.050034e+001
1.258012e+003, 4.053524e+001
1.258495e+003, 4.039793e+001
1.258977e+003, 4.035008e+001
1.259459e+003, 4.051319e+001
1.259941e+003, 4.054871e+001
1.260423e+003, 4.027259e+001
1.260905e+003, 3.997987e+001
1.261387e+003, 4.025926e+001
1.261869e+003, 4.077113e+001
1.262352e+003, 4.098953e+001
1.262834e+003, 4.081725e+001
1.263316e+003, 4.074978e+001
1.263798e+003, 4.085364e+001
1.264280e+003, 4.091125e+001
1.264762e+003, 4.084137e+001
1.265244e+003, 4.075645e+001
1.265726e+003, 4.086738e+001
1.266208e+003, 4.098969e+001
1.266691e+003, 4.085236e+001
1.267173e+003, 4.044597e+001
1.267655e+003, 4.029000e+001
1.268137e+003, 4.040792e+001
1.268619e+003, 4.058533e+001
1.269101e+003, 4.078063e+001
1.269583e+003, 4.095058e+001
1.270065e+003, 4.109423e+001
1.270548e+003, 4.116372e+001
1.271030e+003, 4.102993e+001
1.271512e+003, 4.077514e+001
1.271994e+003, 4.076220e+001
1.272476e+003, 4.098827e+001
1.272958e+003, 4.136504e+001
1.273440e+003, 4.192883e+001
1.273922e+003, 4.221659e+001
1.274405e+003, 4.151210e+001
1.274887e+003, 4.082727e+001
1.275369e+003, 4.083501e+001
1.275851e+003, 4.126524e+001
1.276333e+003, 4.131921e+001
1.276815e+003, 4.108800e+001
1.277297e+003, 4.109443e+001
1.277779e+003, 4.145782e+001
1.278261e+003, 4.168535e+001
1.278744e+003, 4.137877e+001
1.279226e+003, 4.104509e+001
1.279708e+003, 4.082283e+001
1.280190e+003, 4.073632e+001
1.280672e+003, 4.088948e+001
1.281154e+003, 4.119786e+001
1.281636e+003, 4.147496e+001
1.282118e+003, 4.169618e+001
1.282600e+003, 4.178461e+001
1.283083e+003, 4.163199e+001
1.283565e+003, 4.148289e+001
1.284047e+003, 4.137117e+001
1.284529e+003, 4.133431e+001
1.285011e+003, 4.148283e+001
1.285493e+003, 4.171166e+001
1.285975e+003, 4.186315e+001
1.286457e+003, 4.192485e+001
1.286939e+003, 4.196189e+001
1.287422e+003, 4.198855e+001
1.287904e+003, 4.196657e+001
1.288386e+003, 4.187599e+001
1.288868e+003, 4.179733e+001
1.289350e+003, 4.181402e+001
1.289832e+003, 4.188936e+001
1.290314e+003, 4.205073e+001
1.290796e+003, 4.223996e+001
1.291279e+003, 4.218092e+001
1.291761e+003, 4.182673e+001
1.292243e+003, 4.175341e+001
1.292725e+003, 4.205906e+001
1.293207e+003, 4.235508e+001
1.293689e+003, 4.225616e+001
1.294171e+003, 4.211403e+001
1.294653e+003, 4.218358e+001
1.295135e+003, 4.236269e+001
1.295618e+003, 4.247701e+001
1.296100e+003, 4.253633e+001
1.296582e+003, 4.265965e+001
1.297064e+003, 4.285578e+001
1.297546e+003, 4.299723e+001
1.298028e+003, 4.295903e+001
1.298510e+003, 4.289386e+001
1.298992e+003, 4.283238e+001
1.299475e+003, 4.280585e+001
1.299957e+003, 4.292677e+001
1.300439e+003, 4.310244e+001
1.300921e+003, 4.296275e+001
1.301403e+003, 4.257030e+001
1.301885e+003, 4.237464e+001
##END=



