##NAMES=Minasgeraisite-(Y)
##RRUFFID=R120134
##IDEAL CHEMISTRY=CaBe_2_Y_2_(SiO_4_)_2_O_2_
##LOCALITY=Jaguara√ßu, Minas Gerais, Brazil
##OWNER=RRUFF
##SOURCE=Luiz Menezes
##DESCRIPTION=Purple crystals on muscovite, associated with milarite R120135
##STATUS=The identification of this mineral has been confirmed only by single crystal X-ray diffraction.
##URL=rruff.info/R120134
8.936163e+001, 0.000000e+000
8.984375e+001, 1.446298e+002
9.032587e+001, 1.453865e+002
9.080798e+001, 1.455625e+002
9.129010e+001, 1.450230e+002
9.177222e+001, 1.440560e+002
9.225433e+001, 1.428201e+002
9.273645e+001, 1.413476e+002
9.321857e+001, 1.400488e+002
9.370068e+001, 1.396366e+002
9.418280e+001, 1.397702e+002
9.466492e+001, 1.393090e+002
9.514703e+001, 1.374111e+002
9.562915e+001, 1.347464e+002
9.611127e+001, 1.332580e+002
9.659338e+001, 1.330854e+002
9.707550e+001, 1.334450e+002
9.755762e+001, 1.334710e+002
9.803973e+001, 1.331581e+002
9.852185e+001, 1.327583e+002
9.900397e+001, 1.324492e+002
9.948608e+001, 1.322377e+002
9.996820e+001, 1.316632e+002
1.004503e+002, 1.307097e+002
1.009324e+002, 1.293991e+002
1.014146e+002, 1.276359e+002
1.018967e+002, 1.251783e+002
1.023788e+002, 1.229141e+002
1.028609e+002, 1.213029e+002
1.033430e+002, 1.204935e+002
1.038251e+002, 1.198955e+002
1.043073e+002, 1.194195e+002
1.047894e+002, 1.191207e+002
1.052715e+002, 1.193881e+002
1.057536e+002, 1.208674e+002
1.062357e+002, 1.222056e+002
1.067178e+002, 1.224402e+002
1.072000e+002, 1.208562e+002
1.076821e+002, 1.191979e+002
1.081642e+002, 1.176592e+002
1.086463e+002, 1.162463e+002
1.091284e+002, 1.148671e+002
1.096105e+002, 1.132951e+002
1.100927e+002, 1.118538e+002
1.105748e+002, 1.108599e+002
1.110569e+002, 1.110213e+002
1.115390e+002, 1.109687e+002
1.120211e+002, 1.103312e+002
1.125032e+002, 1.089245e+002
1.129854e+002, 1.075623e+002
1.134675e+002, 1.060507e+002
1.139496e+002, 1.047057e+002
1.144317e+002, 1.039676e+002
1.149138e+002, 1.044123e+002
1.153959e+002, 1.051479e+002
1.158781e+002, 1.058896e+002
1.163602e+002, 1.069325e+002
1.168423e+002, 1.072836e+002
1.173244e+002, 1.060875e+002
1.178065e+002, 1.038740e+002
1.182886e+002, 1.019916e+002
1.187708e+002, 1.013411e+002
1.192529e+002, 1.010769e+002
1.197350e+002, 1.005297e+002
1.202171e+002, 9.926317e+001
1.206992e+002, 9.798678e+001
1.211813e+002, 9.712845e+001
1.216635e+002, 9.665248e+001
1.221456e+002, 9.639251e+001
1.226277e+002, 9.657954e+001
1.231098e+002, 9.684457e+001
1.235919e+002, 9.669212e+001
1.240740e+002, 9.555542e+001
1.245562e+002, 9.415629e+001
1.250383e+002, 9.333020e+001
1.255204e+002, 9.306928e+001
1.260025e+002, 9.286324e+001
1.264846e+002, 9.204590e+001
1.269667e+002, 9.091111e+001
1.274489e+002, 9.019344e+001
1.279310e+002, 9.072172e+001
1.284131e+002, 9.179911e+001
1.288952e+002, 9.198572e+001
1.293773e+002, 9.114413e+001
1.298594e+002, 8.988535e+001
1.303416e+002, 8.878800e+001
1.308237e+002, 8.787069e+001
1.313058e+002, 8.719553e+001
1.317879e+002, 8.639295e+001
1.322700e+002, 8.572274e+001
1.327521e+002, 8.697582e+001
1.332343e+002, 9.112398e+001
1.337164e+002, 9.576842e+001
1.341985e+002, 9.602775e+001
1.346806e+002, 9.161294e+001
1.351627e+002, 8.661479e+001
1.356448e+002, 8.357079e+001
1.361270e+002, 8.248108e+001
1.366091e+002, 8.203676e+001
1.370912e+002, 8.223733e+001
1.375733e+002, 8.290675e+001
1.380554e+002, 8.354556e+001
1.385375e+002, 8.422245e+001
1.390197e+002, 8.466950e+001
1.395018e+002, 8.456167e+001
1.399839e+002, 8.371622e+001
1.404660e+002, 8.315649e+001
1.409481e+002, 8.323927e+001
1.414302e+002, 8.386966e+001
1.419124e+002, 8.376338e+001
1.423945e+002, 8.270298e+001
1.428766e+002, 8.121411e+001
1.433587e+002, 7.974673e+001
1.438408e+002, 7.818901e+001
1.443229e+002, 7.690646e+001
1.448051e+002, 7.598261e+001
1.452872e+002, 7.541573e+001
1.457693e+002, 7.516467e+001
1.462514e+002, 7.526907e+001
1.467335e+002, 7.565770e+001
1.472156e+002, 7.629683e+001
1.476978e+002, 7.776988e+001
1.481799e+002, 7.875917e+001
1.486620e+002, 7.878094e+001
1.491441e+002, 7.724590e+001
1.496262e+002, 7.634990e+001
1.501083e+002, 7.663362e+001
1.505905e+002, 7.748005e+001
1.510726e+002, 7.780819e+001
1.515547e+002, 7.696651e+001
1.520368e+002, 7.616822e+001
1.525189e+002, 7.573354e+001
1.530010e+002, 7.557162e+001
1.534832e+002, 7.596487e+001
1.539653e+002, 7.743700e+001
1.544474e+002, 7.950679e+001
1.549295e+002, 8.101909e+001
1.554116e+002, 8.130695e+001
1.558937e+002, 8.138722e+001
1.563759e+002, 8.168339e+001
1.568580e+002, 8.199014e+001
1.573401e+002, 8.287282e+001
1.578222e+002, 8.454049e+001
1.583043e+002, 8.689838e+001
1.587864e+002, 8.959689e+001
1.592686e+002, 9.254240e+001
1.597507e+002, 9.579839e+001
1.602328e+002, 9.939851e+001
1.607149e+002, 1.027671e+002
1.611970e+002, 1.070687e+002
1.616791e+002, 1.129473e+002
1.621613e+002, 1.201761e+002
1.626434e+002, 1.278408e+002
1.631255e+002, 1.353815e+002
1.636076e+002, 1.432082e+002
1.640897e+002, 1.516862e+002
1.645718e+002, 1.607138e+002
1.650540e+002, 1.706013e+002
1.655361e+002, 1.813524e+002
1.660182e+002, 1.930400e+002
1.665003e+002, 2.059860e+002
1.669824e+002, 2.207349e+002
1.674645e+002, 2.369177e+002
1.679467e+002, 2.538593e+002
1.684288e+002, 2.722437e+002
1.689109e+002, 2.908202e+002
1.693930e+002, 3.083761e+002
1.698751e+002, 3.248861e+002
1.703572e+002, 3.418842e+002
1.708394e+002, 3.615486e+002
1.713215e+002, 3.825564e+002
1.718036e+002, 4.023668e+002
1.722857e+002, 4.197165e+002
1.727678e+002, 4.356254e+002
1.732499e+002, 4.511986e+002
1.737321e+002, 4.667115e+002
1.742142e+002, 4.811070e+002
1.746963e+002, 4.933138e+002
1.751784e+002, 5.039615e+002
1.756605e+002, 5.145873e+002
1.761426e+002, 5.262510e+002
1.766248e+002, 5.381630e+002
1.771069e+002, 5.489651e+002
1.775890e+002, 5.583595e+002
1.780711e+002, 5.676035e+002
1.785532e+002, 5.775988e+002
1.790353e+002, 5.885314e+002
1.795175e+002, 6.006669e+002
1.799996e+002, 6.143104e+002
1.804817e+002, 6.292848e+002
1.809638e+002, 6.458285e+002
1.814459e+002, 6.644110e+002
1.819280e+002, 6.834838e+002
1.824102e+002, 7.009490e+002
1.828923e+002, 7.168598e+002
1.833744e+002, 7.336618e+002
1.838565e+002, 7.533094e+002
1.843386e+002, 7.750233e+002
1.848207e+002, 7.958174e+002
1.853029e+002, 8.152609e+002
1.857850e+002, 8.340654e+002
1.862671e+002, 8.539664e+002
1.867492e+002, 8.748312e+002
1.872313e+002, 8.956497e+002
1.877134e+002, 9.160255e+002
1.881956e+002, 9.359769e+002
1.886777e+002, 9.545429e+002
1.891598e+002, 9.716213e+002
1.896419e+002, 9.874845e+002
1.901240e+002, 1.002747e+003
1.906061e+002, 1.017601e+003
1.910883e+002, 1.031837e+003
1.915704e+002, 1.045801e+003
1.920525e+002, 1.059484e+003
1.925346e+002, 1.071325e+003
1.930167e+002, 1.080387e+003
1.934988e+002, 1.087135e+003
1.939810e+002, 1.091397e+003
1.944631e+002, 1.092354e+003
1.949452e+002, 1.093707e+003
1.954273e+002, 1.094420e+003
1.959094e+002, 1.094498e+003
1.963915e+002, 1.093137e+003
1.968737e+002, 1.089706e+003
1.973558e+002, 1.084990e+003
1.978379e+002, 1.081890e+003
1.983200e+002, 1.080736e+003
1.988021e+002, 1.079795e+003
1.992842e+002, 1.077099e+003
1.997664e+002, 1.072496e+003
2.002485e+002, 1.069360e+003
2.007306e+002, 1.068672e+003
2.012127e+002, 1.070004e+003
2.016948e+002, 1.071050e+003
2.021769e+002, 1.071881e+003
2.026591e+002, 1.072335e+003
2.031412e+002, 1.071809e+003
2.036233e+002, 1.069989e+003
2.041054e+002, 1.069585e+003
2.045875e+002, 1.071623e+003
2.050696e+002, 1.075752e+003
2.055518e+002, 1.078823e+003
2.060339e+002, 1.080629e+003
2.065160e+002, 1.081856e+003
2.069981e+002, 1.083169e+003
2.074802e+002, 1.084568e+003
2.079623e+002, 1.085917e+003
2.084445e+002, 1.087144e+003
2.089266e+002, 1.088253e+003
2.094087e+002, 1.089551e+003
2.098908e+002, 1.091269e+003
2.103729e+002, 1.092754e+003
2.108550e+002, 1.093164e+003
2.113372e+002, 1.092185e+003
2.118193e+002, 1.091221e+003
2.123014e+002, 1.090534e+003
2.127835e+002, 1.090123e+003
2.132656e+002, 1.090200e+003
2.137477e+002, 1.091053e+003
2.142299e+002, 1.091978e+003
2.147120e+002, 1.092089e+003
2.151941e+002, 1.091132e+003
2.156762e+002, 1.090039e+003
2.161583e+002, 1.088982e+003
2.166404e+002, 1.087955e+003
2.171226e+002, 1.087061e+003
2.176047e+002, 1.086417e+003
2.180868e+002, 1.085751e+003
2.185689e+002, 1.084610e+003
2.190510e+002, 1.082574e+003
2.195331e+002, 1.081056e+003
2.200153e+002, 1.080485e+003
2.204974e+002, 1.080960e+003
2.209795e+002, 1.081427e+003
2.214616e+002, 1.081961e+003
2.219437e+002, 1.082454e+003
2.224258e+002, 1.082650e+003
2.229080e+002, 1.082100e+003
2.233901e+002, 1.082269e+003
2.238722e+002, 1.083779e+003
2.243543e+002, 1.086882e+003
2.248364e+002, 1.089152e+003
2.253185e+002, 1.090156e+003
2.258007e+002, 1.090677e+003
2.262828e+002, 1.091725e+003
2.267649e+002, 1.093504e+003
2.272470e+002, 1.095305e+003
2.277291e+002, 1.096800e+003
2.282112e+002, 1.097880e+003
2.286934e+002, 1.099500e+003
2.291755e+002, 1.101796e+003
2.296576e+002, 1.104486e+003
2.301397e+002, 1.107424e+003
2.306218e+002, 1.111785e+003
2.311039e+002, 1.114262e+003
2.315861e+002, 1.113397e+003
2.320682e+002, 1.108446e+003
2.325503e+002, 1.105499e+003
2.330324e+002, 1.105135e+003
2.335145e+002, 1.106319e+003
2.339966e+002, 1.108006e+003
2.344788e+002, 1.111163e+003
2.349609e+002, 1.113086e+003
2.354430e+002, 1.112568e+003
2.359251e+002, 1.109008e+003
2.364072e+002, 1.107364e+003
2.368893e+002, 1.108357e+003
2.373715e+002, 1.110645e+003
2.378536e+002, 1.112547e+003
2.383357e+002, 1.113674e+003
2.388178e+002, 1.115086e+003
2.392999e+002, 1.117097e+003
2.397820e+002, 1.119754e+003
2.402642e+002, 1.122397e+003
2.407463e+002, 1.125085e+003
2.412284e+002, 1.127666e+003
2.417105e+002, 1.129982e+003
2.421926e+002, 1.132113e+003
2.426747e+002, 1.133758e+003
2.431569e+002, 1.134572e+003
2.436390e+002, 1.134338e+003
2.441211e+002, 1.135131e+003
2.446032e+002, 1.137651e+003
2.450853e+002, 1.140577e+003
2.455674e+002, 1.142257e+003
2.460496e+002, 1.141760e+003
2.465317e+002, 1.141821e+003
2.470138e+002, 1.143520e+003
2.474959e+002, 1.147186e+003
2.479780e+002, 1.148754e+003
2.484601e+002, 1.147129e+003
2.489423e+002, 1.144561e+003
2.494244e+002, 1.143518e+003
2.499065e+002, 1.144536e+003
2.503886e+002, 1.146122e+003
2.508707e+002, 1.148346e+003
2.513528e+002, 1.151289e+003
2.518350e+002, 1.152735e+003
2.523171e+002, 1.151896e+003
2.527992e+002, 1.150404e+003
2.532813e+002, 1.149932e+003
2.537634e+002, 1.150870e+003
2.542455e+002, 1.151960e+003
2.547277e+002, 1.153018e+003
2.552098e+002, 1.154035e+003
2.556919e+002, 1.154877e+003
2.561740e+002, 1.155873e+003
2.566561e+002, 1.156248e+003
2.571382e+002, 1.154921e+003
2.576204e+002, 1.150631e+003
2.581025e+002, 1.147741e+003
2.585846e+002, 1.147786e+003
2.590667e+002, 1.150534e+003
2.595488e+002, 1.150730e+003
2.600309e+002, 1.147255e+003
2.605131e+002, 1.142888e+003
2.609952e+002, 1.140258e+003
2.614773e+002, 1.140169e+003
2.619594e+002, 1.139503e+003
2.624415e+002, 1.137446e+003
2.629236e+002, 1.134219e+003
2.634058e+002, 1.132308e+003
2.638879e+002, 1.132205e+003
2.643700e+002, 1.132580e+003
2.648521e+002, 1.132526e+003
2.653342e+002, 1.132180e+003
2.658163e+002, 1.130858e+003
2.662985e+002, 1.127973e+003
2.667806e+002, 1.123983e+003
2.672627e+002, 1.121682e+003
2.677448e+002, 1.121770e+003
2.682269e+002, 1.122087e+003
2.687090e+002, 1.121006e+003
2.691912e+002, 1.118204e+003
2.696733e+002, 1.115128e+003
2.701554e+002, 1.111471e+003
2.706375e+002, 1.107744e+003
2.711196e+002, 1.106737e+003
2.716017e+002, 1.109562e+003
2.720839e+002, 1.112006e+003
2.725660e+002, 1.110588e+003
2.730481e+002, 1.104471e+003
2.735302e+002, 1.100123e+003
2.740123e+002, 1.098595e+003
2.744944e+002, 1.098916e+003
2.749766e+002, 1.098268e+003
2.754587e+002, 1.096525e+003
2.759408e+002, 1.094360e+003
2.764229e+002, 1.092029e+003
2.769050e+002, 1.089469e+003
2.773871e+002, 1.087489e+003
2.778693e+002, 1.086212e+003
2.783514e+002, 1.085484e+003
2.788335e+002, 1.085250e+003
2.793156e+002, 1.085700e+003
2.797977e+002, 1.085540e+003
2.802798e+002, 1.083561e+003
2.807620e+002, 1.079762e+003
2.812441e+002, 1.077293e+003
2.817262e+002, 1.076635e+003
2.822083e+002, 1.076739e+003
2.826904e+002, 1.075516e+003
2.831725e+002, 1.072835e+003
2.836547e+002, 1.070550e+003
2.841368e+002, 1.069933e+003
2.846189e+002, 1.070797e+003
2.851010e+002, 1.070775e+003
2.855831e+002, 1.069670e+003
2.860652e+002, 1.068077e+003
2.865474e+002, 1.066768e+003
2.870295e+002, 1.065743e+003
2.875116e+002, 1.064890e+003
2.879937e+002, 1.064205e+003
2.884758e+002, 1.063664e+003
2.889579e+002, 1.063067e+003
2.894401e+002, 1.062344e+003
2.899222e+002, 1.061900e+003
2.904043e+002, 1.062612e+003
2.908864e+002, 1.064293e+003
2.913685e+002, 1.065412e+003
2.918506e+002, 1.065114e+003
2.923328e+002, 1.063852e+003
2.928149e+002, 1.062873e+003
2.932970e+002, 1.062168e+003
2.937791e+002, 1.061761e+003
2.942612e+002, 1.061845e+003
2.947433e+002, 1.062301e+003
2.952255e+002, 1.062649e+003
2.957076e+002, 1.062670e+003
2.961897e+002, 1.062517e+003
2.966718e+002, 1.062414e+003
2.971539e+002, 1.062361e+003
2.976360e+002, 1.062509e+003
2.981182e+002, 1.063151e+003
2.986003e+002, 1.064096e+003
2.990824e+002, 1.064880e+003
2.995645e+002, 1.065326e+003
3.000466e+002, 1.065609e+003
3.005287e+002, 1.065961e+003
3.010109e+002, 1.066375e+003
3.014930e+002, 1.066807e+003
3.019751e+002, 1.066641e+003
3.024572e+002, 1.066582e+003
3.029393e+002, 1.067994e+003
3.034214e+002, 1.071693e+003
3.039036e+002, 1.076020e+003
3.043857e+002, 1.079613e+003
3.048678e+002, 1.082440e+003
3.053499e+002, 1.084428e+003
3.058320e+002, 1.084557e+003
3.063141e+002, 1.084182e+003
3.067963e+002, 1.085082e+003
3.072784e+002, 1.087901e+003
3.077605e+002, 1.091002e+003
3.082426e+002, 1.093097e+003
3.087247e+002, 1.094419e+003
3.092068e+002, 1.095535e+003
3.096890e+002, 1.095924e+003
3.101711e+002, 1.096669e+003
3.106532e+002, 1.098981e+003
3.111353e+002, 1.103252e+003
3.116174e+002, 1.107532e+003
3.120995e+002, 1.110686e+003
3.125817e+002, 1.112947e+003
3.130638e+002, 1.114749e+003
3.135459e+002, 1.115602e+003
3.140280e+002, 1.116567e+003
3.145101e+002, 1.118600e+003
3.149922e+002, 1.121853e+003
3.154744e+002, 1.124637e+003
3.159565e+002, 1.125449e+003
3.164386e+002, 1.125604e+003
3.169207e+002, 1.126588e+003
3.174028e+002, 1.130107e+003
3.178849e+002, 1.133461e+003
3.183671e+002, 1.135293e+003
3.188492e+002, 1.135692e+003
3.193313e+002, 1.136425e+003
3.198134e+002, 1.138067e+003
3.202955e+002, 1.140297e+003
3.207776e+002, 1.142832e+003
3.212598e+002, 1.146236e+003
3.217419e+002, 1.149267e+003
3.222240e+002, 1.151029e+003
3.227061e+002, 1.151903e+003
3.231882e+002, 1.153935e+003
3.236703e+002, 1.159109e+003
3.241525e+002, 1.164437e+003
3.246346e+002, 1.168220e+003
3.251167e+002, 1.169282e+003
3.255988e+002, 1.170207e+003
3.260809e+002, 1.170812e+003
3.265630e+002, 1.171412e+003
3.270452e+002, 1.172864e+003
3.275273e+002, 1.175762e+003
3.280094e+002, 1.179060e+003
3.284915e+002, 1.182525e+003
3.289736e+002, 1.186544e+003
3.294557e+002, 1.189794e+003
3.299379e+002, 1.191830e+003
3.304200e+002, 1.193242e+003
3.309021e+002, 1.194940e+003
3.313842e+002, 1.197122e+003
3.318663e+002, 1.199312e+003
3.323484e+002, 1.201342e+003
3.328306e+002, 1.203098e+003
3.333127e+002, 1.205174e+003
3.337948e+002, 1.207984e+003
3.342769e+002, 1.210737e+003
3.347590e+002, 1.212435e+003
3.352411e+002, 1.212529e+003
3.357233e+002, 1.212840e+003
3.362054e+002, 1.213728e+003
3.366875e+002, 1.215192e+003
3.371696e+002, 1.216997e+003
3.376517e+002, 1.219345e+003
3.381339e+002, 1.221691e+003
3.386160e+002, 1.223474e+003
3.390981e+002, 1.224556e+003
3.395802e+002, 1.225891e+003
3.400623e+002, 1.227699e+003
3.405444e+002, 1.229803e+003
3.410266e+002, 1.231568e+003
3.415087e+002, 1.233017e+003
3.419908e+002, 1.234042e+003
3.424729e+002, 1.234468e+003
3.429550e+002, 1.234278e+003
3.434371e+002, 1.233974e+003
3.439193e+002, 1.233531e+003
3.444014e+002, 1.233072e+003
3.448835e+002, 1.232957e+003
3.453656e+002, 1.233182e+003
3.458477e+002, 1.233191e+003
3.463298e+002, 1.232625e+003
3.468120e+002, 1.231609e+003
3.472941e+002, 1.230654e+003
3.477762e+002, 1.229781e+003
3.482583e+002, 1.228991e+003
3.487404e+002, 1.228502e+003
3.492225e+002, 1.228182e+003
3.497047e+002, 1.227393e+003
3.501868e+002, 1.225340e+003
3.506689e+002, 1.222924e+003
3.511510e+002, 1.222035e+003
3.516331e+002, 1.222639e+003
3.521152e+002, 1.223132e+003
3.525974e+002, 1.221889e+003
3.530795e+002, 1.219616e+003
3.535616e+002, 1.217651e+003
3.540437e+002, 1.216540e+003
3.545258e+002, 1.215648e+003
3.550079e+002, 1.214525e+003
3.554901e+002, 1.213125e+003
3.559722e+002, 1.211234e+003
3.564543e+002, 1.207674e+003
3.569364e+002, 1.204066e+003
3.574185e+002, 1.202336e+003
3.579006e+002, 1.203572e+003
3.583828e+002, 1.204707e+003
3.588649e+002, 1.203129e+003
3.593470e+002, 1.200082e+003
3.598291e+002, 1.198075e+003
3.603112e+002, 1.199200e+003
3.607933e+002, 1.200938e+003
3.612755e+002, 1.201807e+003
3.617576e+002, 1.201565e+003
3.622397e+002, 1.201132e+003
3.627218e+002, 1.200614e+003
3.632039e+002, 1.200161e+003
3.636860e+002, 1.199942e+003
3.641682e+002, 1.200677e+003
3.646503e+002, 1.200982e+003
3.651324e+002, 1.200201e+003
3.656145e+002, 1.198374e+003
3.660966e+002, 1.196738e+003
3.665787e+002, 1.194930e+003
3.670609e+002, 1.193736e+003
3.675430e+002, 1.193658e+003
3.680251e+002, 1.196955e+003
3.685072e+002, 1.198758e+003
3.689893e+002, 1.197911e+003
3.694714e+002, 1.195215e+003
3.699536e+002, 1.193250e+003
3.704357e+002, 1.192211e+003
3.709178e+002, 1.191709e+003
3.713999e+002, 1.191747e+003
3.718820e+002, 1.192898e+003
3.723641e+002, 1.193077e+003
3.728463e+002, 1.191926e+003
3.733284e+002, 1.190034e+003
3.738105e+002, 1.188249e+003
3.742926e+002, 1.186540e+003
3.747747e+002, 1.184966e+003
3.752568e+002, 1.183401e+003
3.757390e+002, 1.181826e+003
3.762211e+002, 1.181287e+003
3.767032e+002, 1.182273e+003
3.771853e+002, 1.183235e+003
3.776674e+002, 1.182378e+003
3.781495e+002, 1.179420e+003
3.786317e+002, 1.177147e+003
3.791138e+002, 1.176318e+003
3.795959e+002, 1.176375e+003
3.800780e+002, 1.175618e+003
3.805601e+002, 1.174036e+003
3.810422e+002, 1.171888e+003
3.815244e+002, 1.168933e+003
3.820065e+002, 1.165413e+003
3.824886e+002, 1.162773e+003
3.829707e+002, 1.161178e+003
3.834528e+002, 1.160414e+003
3.839349e+002, 1.160625e+003
3.844171e+002, 1.161591e+003
3.848992e+002, 1.162106e+003
3.853813e+002, 1.161153e+003
3.858634e+002, 1.159507e+003
3.863455e+002, 1.158487e+003
3.868276e+002, 1.158147e+003
3.873098e+002, 1.158026e+003
3.877919e+002, 1.157674e+003
3.882740e+002, 1.157255e+003
3.887561e+002, 1.157083e+003
3.892382e+002, 1.157583e+003
3.897203e+002, 1.158023e+003
3.902025e+002, 1.157601e+003
3.906846e+002, 1.156487e+003
3.911667e+002, 1.155514e+003
3.916488e+002, 1.155185e+003
3.921309e+002, 1.155177e+003
3.926130e+002, 1.155342e+003
3.930952e+002, 1.156031e+003
3.935773e+002, 1.156050e+003
3.940594e+002, 1.154077e+003
3.945415e+002, 1.151169e+003
3.950236e+002, 1.149284e+003
3.955057e+002, 1.150295e+003
3.959879e+002, 1.151345e+003
3.964700e+002, 1.151055e+003
3.969521e+002, 1.149032e+003
3.974342e+002, 1.147715e+003
3.979163e+002, 1.148577e+003
3.983984e+002, 1.149801e+003
3.988806e+002, 1.149727e+003
3.993627e+002, 1.146423e+003
3.998448e+002, 1.143909e+003
4.003269e+002, 1.142875e+003
4.008090e+002, 1.143125e+003
4.012911e+002, 1.143193e+003
4.017733e+002, 1.142599e+003
4.022554e+002, 1.142378e+003
4.027375e+002, 1.143238e+003
4.032196e+002, 1.146027e+003
4.037017e+002, 1.147761e+003
4.041838e+002, 1.148236e+003
4.046660e+002, 1.147768e+003
4.051481e+002, 1.146762e+003
4.056302e+002, 1.144986e+003
4.061123e+002, 1.143514e+003
4.065944e+002, 1.142656e+003
4.070765e+002, 1.142414e+003
4.075587e+002, 1.143053e+003
4.080408e+002, 1.144789e+003
4.085229e+002, 1.146565e+003
4.090050e+002, 1.147060e+003
4.094871e+002, 1.146371e+003
4.099692e+002, 1.146060e+003
4.104514e+002, 1.146545e+003
4.109335e+002, 1.147487e+003
4.114156e+002, 1.148139e+003
4.118977e+002, 1.148532e+003
4.123798e+002, 1.149159e+003
4.128619e+002, 1.150522e+003
4.133441e+002, 1.152314e+003
4.138262e+002, 1.153873e+003
4.143083e+002, 1.155060e+003
4.147904e+002, 1.156416e+003
4.152725e+002, 1.159069e+003
4.157546e+002, 1.162283e+003
4.162368e+002, 1.164583e+003
4.167189e+002, 1.164175e+003
4.172010e+002, 1.163376e+003
4.176831e+002, 1.164071e+003
4.181652e+002, 1.166227e+003
4.186473e+002, 1.168730e+003
4.191295e+002, 1.171560e+003
4.196116e+002, 1.174154e+003
4.200937e+002, 1.175893e+003
4.205758e+002, 1.175735e+003
4.210579e+002, 1.176033e+003
4.215400e+002, 1.177868e+003
4.220222e+002, 1.180736e+003
4.225043e+002, 1.183444e+003
4.229864e+002, 1.185599e+003
4.234685e+002, 1.187643e+003
4.239506e+002, 1.189761e+003
4.244327e+002, 1.191973e+003
4.249149e+002, 1.194231e+003
4.253970e+002, 1.196569e+003
4.258791e+002, 1.198930e+003
4.263612e+002, 1.201212e+003
4.268433e+002, 1.202599e+003
4.273254e+002, 1.205242e+003
4.278076e+002, 1.210093e+003
4.282897e+002, 1.216690e+003
4.287718e+002, 1.221333e+003
4.292539e+002, 1.223121e+003
4.297360e+002, 1.224621e+003
4.302181e+002, 1.227523e+003
4.307003e+002, 1.232152e+003
4.311824e+002, 1.235906e+003
4.316645e+002, 1.238540e+003
4.321466e+002, 1.240490e+003
4.326287e+002, 1.242228e+003
4.331108e+002, 1.243738e+003
4.335930e+002, 1.245668e+003
4.340751e+002, 1.248458e+003
4.345572e+002, 1.251855e+003
4.350393e+002, 1.254998e+003
4.355214e+002, 1.257882e+003
4.360035e+002, 1.260746e+003
4.364857e+002, 1.263787e+003
4.369678e+002, 1.266933e+003
4.374499e+002, 1.270029e+003
4.379320e+002, 1.272936e+003
4.384141e+002, 1.275979e+003
4.388962e+002, 1.279573e+003
4.393784e+002, 1.283596e+003
4.398605e+002, 1.287706e+003
4.403426e+002, 1.291841e+003
4.408247e+002, 1.295877e+003
4.413068e+002, 1.299759e+003
4.417889e+002, 1.303436e+003
4.422711e+002, 1.306999e+003
4.427532e+002, 1.310809e+003
4.432353e+002, 1.314383e+003
4.437174e+002, 1.317223e+003
4.441995e+002, 1.318349e+003
4.446816e+002, 1.319593e+003
4.451638e+002, 1.321574e+003
4.456459e+002, 1.324132e+003
4.461280e+002, 1.326602e+003
4.466101e+002, 1.328546e+003
4.470922e+002, 1.330663e+003
4.475743e+002, 1.333439e+003
4.480565e+002, 1.337603e+003
4.485386e+002, 1.340470e+003
4.490207e+002, 1.341080e+003
4.495028e+002, 1.340985e+003
4.499849e+002, 1.342275e+003
4.504670e+002, 1.345711e+003
4.509492e+002, 1.348855e+003
4.514313e+002, 1.351101e+003
4.519134e+002, 1.352597e+003
4.523955e+002, 1.354348e+003
4.528776e+002, 1.356486e+003
4.533597e+002, 1.358378e+003
4.538419e+002, 1.359282e+003
4.543240e+002, 1.359237e+003
4.548061e+002, 1.360206e+003
4.552882e+002, 1.362651e+003
4.557703e+002, 1.365340e+003
4.562524e+002, 1.365875e+003
4.567346e+002, 1.364641e+003
4.572167e+002, 1.364186e+003
4.576988e+002, 1.366779e+003
4.581809e+002, 1.370288e+003
4.586630e+002, 1.370645e+003
4.591451e+002, 1.368002e+003
4.596273e+002, 1.365048e+003
4.601094e+002, 1.363507e+003
4.605915e+002, 1.362994e+003
4.610736e+002, 1.363210e+003
4.615557e+002, 1.364637e+003
4.620378e+002, 1.365576e+003
4.625200e+002, 1.364987e+003
4.630021e+002, 1.363141e+003
4.634842e+002, 1.360564e+003
4.639663e+002, 1.356685e+003
4.644484e+002, 1.352806e+003
4.649305e+002, 1.349613e+003
4.654127e+002, 1.347171e+003
4.658948e+002, 1.344968e+003
4.663769e+002, 1.343000e+003
4.668590e+002, 1.341210e+003
4.673411e+002, 1.339575e+003
4.678232e+002, 1.339526e+003
4.683054e+002, 1.337641e+003
4.687875e+002, 1.332645e+003
4.692696e+002, 1.325972e+003
4.697517e+002, 1.321273e+003
4.702338e+002, 1.319701e+003
4.707159e+002, 1.317967e+003
4.711981e+002, 1.314581e+003
4.716802e+002, 1.309412e+003
4.721623e+002, 1.306068e+003
4.726444e+002, 1.305043e+003
4.731265e+002, 1.304584e+003
4.736086e+002, 1.303097e+003
4.740908e+002, 1.300587e+003
4.745729e+002, 1.297556e+003
4.750550e+002, 1.294003e+003
4.755371e+002, 1.290090e+003
4.760192e+002, 1.285722e+003
4.765013e+002, 1.281020e+003
4.769835e+002, 1.277153e+003
4.774656e+002, 1.275112e+003
4.779477e+002, 1.274143e+003
4.784298e+002, 1.273289e+003
4.789119e+002, 1.272519e+003
4.793940e+002, 1.271230e+003
4.798762e+002, 1.268534e+003
4.803583e+002, 1.265163e+003
4.808404e+002, 1.262134e+003
4.813225e+002, 1.260342e+003
4.818046e+002, 1.258136e+003
4.822867e+002, 1.254177e+003
4.827689e+002, 1.249139e+003
4.832510e+002, 1.244731e+003
4.837331e+002, 1.242439e+003
4.842152e+002, 1.240137e+003
4.846973e+002, 1.236672e+003
4.851794e+002, 1.231569e+003
4.856616e+002, 1.227339e+003
4.861437e+002, 1.224425e+003
4.866258e+002, 1.222341e+003
4.871079e+002, 1.220794e+003
4.875900e+002, 1.220566e+003
4.880721e+002, 1.219389e+003
4.885543e+002, 1.216611e+003
4.890364e+002, 1.212876e+003
4.895185e+002, 1.210156e+003
4.900006e+002, 1.208758e+003
4.904827e+002, 1.207391e+003
4.909648e+002, 1.205531e+003
4.914470e+002, 1.203180e+003
4.919291e+002, 1.200537e+003
4.924112e+002, 1.197523e+003
4.928933e+002, 1.194660e+003
4.933754e+002, 1.192822e+003
4.938575e+002, 1.191706e+003
4.943397e+002, 1.189825e+003
4.948218e+002, 1.186577e+003
4.953039e+002, 1.183044e+003
4.957860e+002, 1.180699e+003
4.962681e+002, 1.179369e+003
4.967502e+002, 1.178447e+003
4.972324e+002, 1.178208e+003
4.977145e+002, 1.177839e+003
4.981966e+002, 1.176276e+003
4.986787e+002, 1.173447e+003
4.991608e+002, 1.170986e+003
4.996429e+002, 1.170234e+003
5.001251e+002, 1.169951e+003
5.006072e+002, 1.168969e+003
5.010893e+002, 1.166138e+003
5.015714e+002, 1.163800e+003
5.020535e+002, 1.162500e+003
5.025356e+002, 1.162016e+003
5.030178e+002, 1.161847e+003
5.034999e+002, 1.162590e+003
5.039820e+002, 1.162953e+003
5.044641e+002, 1.162550e+003
5.049462e+002, 1.161367e+003
5.054283e+002, 1.160127e+003
5.059105e+002, 1.158533e+003
5.063926e+002, 1.157403e+003
5.068747e+002, 1.157687e+003
5.073568e+002, 1.159748e+003
5.078389e+002, 1.160656e+003
5.083210e+002, 1.159751e+003
5.088032e+002, 1.158269e+003
5.092853e+002, 1.158636e+003
5.097674e+002, 1.160720e+003
5.102495e+002, 1.162446e+003
5.107316e+002, 1.162643e+003
5.112137e+002, 1.162034e+003
5.116959e+002, 1.162256e+003
5.121780e+002, 1.163236e+003
5.126601e+002, 1.164230e+003
5.131422e+002, 1.164752e+003
5.136243e+002, 1.164928e+003
5.141064e+002, 1.164883e+003
5.145886e+002, 1.164593e+003
5.150707e+002, 1.164267e+003
5.155528e+002, 1.164114e+003
5.160349e+002, 1.164009e+003
5.165170e+002, 1.163766e+003
5.169991e+002, 1.162964e+003
5.174813e+002, 1.162419e+003
5.179634e+002, 1.162405e+003
5.184455e+002, 1.162916e+003
5.189276e+002, 1.163764e+003
5.194097e+002, 1.165104e+003
5.198918e+002, 1.166636e+003
5.203740e+002, 1.168240e+003
5.208561e+002, 1.169930e+003
5.213382e+002, 1.171731e+003
5.218203e+002, 1.174044e+003
5.223024e+002, 1.175961e+003
5.227845e+002, 1.176117e+003
5.232667e+002, 1.174053e+003
5.237488e+002, 1.172696e+003
5.242309e+002, 1.172672e+003
5.247130e+002, 1.173643e+003
5.251951e+002, 1.174953e+003
5.256772e+002, 1.176600e+003
5.261594e+002, 1.178252e+003
5.266415e+002, 1.179917e+003
5.271236e+002, 1.181452e+003
5.276057e+002, 1.182471e+003
5.280878e+002, 1.182969e+003
5.285699e+002, 1.183217e+003
5.290521e+002, 1.182820e+003
5.295342e+002, 1.182529e+003
5.300163e+002, 1.183517e+003
5.304984e+002, 1.186957e+003
5.309805e+002, 1.190131e+003
5.314626e+002, 1.190943e+003
5.319448e+002, 1.190459e+003
5.324269e+002, 1.190743e+003
5.329090e+002, 1.193261e+003
5.333911e+002, 1.195773e+003
5.338732e+002, 1.197110e+003
5.343553e+002, 1.197139e+003
5.348375e+002, 1.198776e+003
5.353196e+002, 1.204014e+003
5.358017e+002, 1.208878e+003
5.362838e+002, 1.210893e+003
5.367659e+002, 1.208476e+003
5.372480e+002, 1.207684e+003
5.377302e+002, 1.208897e+003
5.382123e+002, 1.211262e+003
5.386944e+002, 1.213615e+003
5.391765e+002, 1.215974e+003
5.396586e+002, 1.218462e+003
5.401407e+002, 1.221218e+003
5.406229e+002, 1.224036e+003
5.411050e+002, 1.226252e+003
5.415871e+002, 1.227930e+003
5.420692e+002, 1.229537e+003
5.425513e+002, 1.231086e+003
5.430334e+002, 1.232922e+003
5.435156e+002, 1.235759e+003
5.439977e+002, 1.239700e+003
5.444798e+002, 1.243617e+003
5.449619e+002, 1.246572e+003
5.454440e+002, 1.249102e+003
5.459261e+002, 1.251743e+003
5.464083e+002, 1.254179e+003
5.468904e+002, 1.257355e+003
5.473725e+002, 1.261853e+003
5.478546e+002, 1.267228e+003
5.483367e+002, 1.272644e+003
5.488188e+002, 1.278756e+003
5.493010e+002, 1.284008e+003
5.497831e+002, 1.288051e+003
5.502652e+002, 1.290880e+003
5.507473e+002, 1.292513e+003
5.512294e+002, 1.292186e+003
5.517115e+002, 1.291965e+003
5.521937e+002, 1.293330e+003
5.526758e+002, 1.296506e+003
5.531579e+002, 1.299322e+003
5.536400e+002, 1.301725e+003
5.541221e+002, 1.303741e+003
5.546042e+002, 1.305337e+003
5.550864e+002, 1.306553e+003
5.555685e+002, 1.307607e+003
5.560506e+002, 1.308619e+003
5.565327e+002, 1.309407e+003
5.570148e+002, 1.309537e+003
5.574969e+002, 1.309148e+003
5.579791e+002, 1.308806e+003
5.584612e+002, 1.309408e+003
5.589433e+002, 1.309767e+003
5.594254e+002, 1.308722e+003
5.599075e+002, 1.306167e+003
5.603896e+002, 1.303500e+003
5.608718e+002, 1.301500e+003
5.613539e+002, 1.299505e+003
5.618360e+002, 1.297030e+003
5.623181e+002, 1.293764e+003
5.628002e+002, 1.290425e+003
5.632823e+002, 1.288002e+003
5.637645e+002, 1.285188e+003
5.642466e+002, 1.279645e+003
5.647287e+002, 1.269797e+003
5.652108e+002, 1.261026e+003
5.656929e+002, 1.254950e+003
5.661750e+002, 1.250879e+003
5.666572e+002, 1.245188e+003
5.671393e+002, 1.237647e+003
5.676214e+002, 1.230291e+003
5.681035e+002, 1.224664e+003
5.685856e+002, 1.220232e+003
5.690677e+002, 1.214557e+003
5.695499e+002, 1.207523e+003
5.700320e+002, 1.200323e+003
5.705141e+002, 1.194406e+003
5.709962e+002, 1.189053e+003
5.714783e+002, 1.183083e+003
5.719604e+002, 1.175932e+003
5.724426e+002, 1.168557e+003
5.729247e+002, 1.161708e+003
5.734068e+002, 1.155016e+003
5.738889e+002, 1.147661e+003
5.743710e+002, 1.138007e+003
5.748531e+002, 1.129131e+003
5.753353e+002, 1.122523e+003
5.758174e+002, 1.118060e+003
5.762995e+002, 1.112948e+003
5.767816e+002, 1.107093e+003
5.772637e+002, 1.100696e+003
5.777458e+002, 1.093491e+003
5.782280e+002, 1.085090e+003
5.787101e+002, 1.078259e+003
5.791922e+002, 1.073333e+003
5.796743e+002, 1.069228e+003
5.801564e+002, 1.065063e+003
5.806385e+002, 1.060828e+003
5.811207e+002, 1.055804e+003
5.816028e+002, 1.049535e+003
5.820849e+002, 1.043251e+003
5.825670e+002, 1.039259e+003
5.830491e+002, 1.036939e+003
5.835313e+002, 1.034079e+003
5.840134e+002, 1.028578e+003
5.844955e+002, 1.022872e+003
5.849776e+002, 1.019691e+003
5.854597e+002, 1.018564e+003
5.859418e+002, 1.016779e+003
5.864240e+002, 1.012430e+003
5.869061e+002, 1.007542e+003
5.873882e+002, 1.003059e+003
5.878703e+002, 9.989940e+002
5.883524e+002, 9.958105e+002
5.888345e+002, 9.943056e+002
5.893167e+002, 9.932123e+002
5.897988e+002, 9.915153e+002
5.902809e+002, 9.887645e+002
5.907630e+002, 9.864650e+002
5.912451e+002, 9.848756e+002
5.917272e+002, 9.836179e+002
5.922094e+002, 9.819188e+002
5.926915e+002, 9.797610e+002
5.931736e+002, 9.776725e+002
5.936557e+002, 9.756306e+002
5.941378e+002, 9.739179e+002
5.946199e+002, 9.733780e+002
5.951021e+002, 9.739205e+002
5.955842e+002, 9.747474e+002
5.960663e+002, 9.754706e+002
5.965484e+002, 9.761285e+002
5.970305e+002, 9.765515e+002
5.975126e+002, 9.766968e+002
5.979948e+002, 9.775359e+002
5.984769e+002, 9.803203e+002
5.989590e+002, 9.836273e+002
5.994411e+002, 9.862106e+002
5.999232e+002, 9.870755e+002
6.004053e+002, 9.884688e+002
6.008875e+002, 9.909991e+002
6.013696e+002, 9.941379e+002
6.018517e+002, 9.971569e+002
6.023338e+002, 9.999052e+002
6.028159e+002, 1.002743e+003
6.032980e+002, 1.005528e+003
6.037802e+002, 1.008522e+003
6.042623e+002, 1.013129e+003
6.047444e+002, 1.019520e+003
6.052265e+002, 1.025701e+003
6.057086e+002, 1.030278e+003
6.061907e+002, 1.033801e+003
6.066729e+002, 1.038301e+003
6.071550e+002, 1.043736e+003
6.076371e+002, 1.049507e+003
6.081192e+002, 1.055372e+003
6.086013e+002, 1.061133e+003
6.090834e+002, 1.066455e+003
6.095656e+002, 1.071352e+003
6.100477e+002, 1.075765e+003
6.105298e+002, 1.079016e+003
6.110119e+002, 1.082043e+003
6.114940e+002, 1.085947e+003
6.119761e+002, 1.092197e+003
6.124583e+002, 1.097872e+003
6.129404e+002, 1.101896e+003
6.134225e+002, 1.105204e+003
6.139046e+002, 1.110160e+003
6.143867e+002, 1.117767e+003
6.148688e+002, 1.124745e+003
6.153510e+002, 1.129998e+003
6.158331e+002, 1.133823e+003
6.163152e+002, 1.138416e+003
6.167973e+002, 1.143857e+003
6.172794e+002, 1.148919e+003
6.177615e+002, 1.152090e+003
6.182437e+002, 1.154183e+003
6.187258e+002, 1.157911e+003
6.192079e+002, 1.163487e+003
6.196900e+002, 1.168935e+003
6.201721e+002, 1.172596e+003
6.206542e+002, 1.175135e+003
6.211364e+002, 1.177308e+003
6.216185e+002, 1.179114e+003
6.221006e+002, 1.181046e+003
6.225827e+002, 1.183590e+003
6.230648e+002, 1.186355e+003
6.235469e+002, 1.188792e+003
6.240291e+002, 1.191354e+003
6.245112e+002, 1.192952e+003
6.249933e+002, 1.193079e+003
6.254754e+002, 1.192209e+003
6.259575e+002, 1.191865e+003
6.264396e+002, 1.192155e+003
6.269218e+002, 1.192750e+003
6.274039e+002, 1.193809e+003
6.278860e+002, 1.195117e+003
6.283681e+002, 1.195168e+003
6.288502e+002, 1.193925e+003
6.293323e+002, 1.192368e+003
6.298145e+002, 1.191410e+003
6.302966e+002, 1.190601e+003
6.307787e+002, 1.188926e+003
6.312608e+002, 1.186229e+003
6.317429e+002, 1.183382e+003
6.322250e+002, 1.180832e+003
6.327072e+002, 1.178557e+003
6.331893e+002, 1.176549e+003
6.336714e+002, 1.175293e+003
6.341535e+002, 1.173490e+003
6.346356e+002, 1.170090e+003
6.351177e+002, 1.166135e+003
6.355999e+002, 1.163281e+003
6.360820e+002, 1.162555e+003
6.365641e+002, 1.161303e+003
6.370462e+002, 1.158975e+003
6.375283e+002, 1.155861e+003
6.380104e+002, 1.152958e+003
6.384926e+002, 1.150327e+003
6.389747e+002, 1.147406e+003
6.394568e+002, 1.143833e+003
6.399389e+002, 1.139773e+003
6.404210e+002, 1.135619e+003
6.409031e+002, 1.131383e+003
6.413853e+002, 1.127679e+003
6.418674e+002, 1.125360e+003
6.423495e+002, 1.123613e+003
6.428316e+002, 1.121345e+003
6.433137e+002, 1.118313e+003
6.437958e+002, 1.115849e+003
6.442780e+002, 1.115666e+003
6.447601e+002, 1.115724e+003
6.452422e+002, 1.114188e+003
6.457243e+002, 1.109232e+003
6.462064e+002, 1.104982e+003
6.466885e+002, 1.101719e+003
6.471707e+002, 1.099189e+003
6.476528e+002, 1.097289e+003
6.481349e+002, 1.096385e+003
6.486170e+002, 1.094781e+003
6.490991e+002, 1.091963e+003
6.495812e+002, 1.088432e+003
6.500634e+002, 1.085056e+003
6.505455e+002, 1.081841e+003
6.510276e+002, 1.079321e+003
6.515097e+002, 1.078414e+003
6.519918e+002, 1.077920e+003
6.524739e+002, 1.075588e+003
6.529561e+002, 1.071803e+003
6.534382e+002, 1.068393e+003
6.539203e+002, 1.067212e+003
6.544024e+002, 1.066237e+003
6.548845e+002, 1.063875e+003
6.553666e+002, 1.059847e+003
6.558488e+002, 1.056155e+003
6.563309e+002, 1.053262e+003
6.568130e+002, 1.050849e+003
6.572951e+002, 1.048878e+003
6.577772e+002, 1.048042e+003
6.582593e+002, 1.045544e+003
6.587415e+002, 1.040547e+003
6.592236e+002, 1.035242e+003
6.597057e+002, 1.032315e+003
6.601878e+002, 1.031725e+003
6.606699e+002, 1.031539e+003
6.611520e+002, 1.031810e+003
6.616342e+002, 1.031353e+003
6.621163e+002, 1.027463e+003
6.625984e+002, 1.021429e+003
6.630805e+002, 1.016675e+003
6.635626e+002, 1.015567e+003
6.640447e+002, 1.015197e+003
6.645269e+002, 1.013423e+003
6.650090e+002, 1.010735e+003
6.654911e+002, 1.008524e+003
6.659732e+002, 1.008076e+003
6.664553e+002, 1.007344e+003
6.669374e+002, 1.005432e+003
6.674196e+002, 1.002427e+003
6.679017e+002, 9.995491e+002
6.683838e+002, 9.965766e+002
6.688659e+002, 9.941506e+002
6.693480e+002, 9.929169e+002
6.698301e+002, 9.928509e+002
6.703123e+002, 9.915225e+002
6.707944e+002, 9.888109e+002
6.712765e+002, 9.857120e+002
6.717586e+002, 9.828594e+002
6.722407e+002, 9.802655e+002
6.727228e+002, 9.780922e+002
6.732050e+002, 9.763940e+002
6.736871e+002, 9.746800e+002
6.741692e+002, 9.723309e+002
6.746513e+002, 9.698103e+002
6.751334e+002, 9.676838e+002
6.756155e+002, 9.660947e+002
6.760977e+002, 9.648344e+002
6.765798e+002, 9.646320e+002
6.770619e+002, 9.644816e+002
6.775440e+002, 9.627936e+002
6.780261e+002, 9.586505e+002
6.785082e+002, 9.549526e+002
6.789904e+002, 9.521453e+002
6.794725e+002, 9.501475e+002
6.799546e+002, 9.489232e+002
6.804367e+002, 9.485123e+002
6.809188e+002, 9.478448e+002
6.814009e+002, 9.465920e+002
6.818831e+002, 9.447443e+002
6.823652e+002, 9.419061e+002
6.828473e+002, 9.383038e+002
6.833294e+002, 9.351756e+002
6.838115e+002, 9.332121e+002
6.842936e+002, 9.319891e+002
6.847758e+002, 9.314395e+002
6.852579e+002, 9.315425e+002
6.857400e+002, 9.311994e+002
6.862221e+002, 9.298979e+002
6.867042e+002, 9.282501e+002
6.871863e+002, 9.264472e+002
6.876685e+002, 9.243020e+002
6.881506e+002, 9.228837e+002
6.886327e+002, 9.223693e+002
6.891148e+002, 9.221480e+002
6.895969e+002, 9.219060e+002
6.900790e+002, 9.215805e+002
6.905612e+002, 9.202433e+002
6.910433e+002, 9.176603e+002
6.915254e+002, 9.147217e+002
6.920075e+002, 9.125139e+002
6.924896e+002, 9.107234e+002
6.929717e+002, 9.087472e+002
6.934539e+002, 9.061755e+002
6.939360e+002, 9.038733e+002
6.944181e+002, 9.024730e+002
6.949002e+002, 9.016566e+002
6.953823e+002, 9.009291e+002
6.958644e+002, 9.012759e+002
6.963466e+002, 9.003336e+002
6.968287e+002, 8.970701e+002
6.973108e+002, 8.925354e+002
6.977929e+002, 8.896972e+002
6.982750e+002, 8.891083e+002
6.987571e+002, 8.881941e+002
6.992393e+002, 8.858976e+002
6.997214e+002, 8.828412e+002
7.002035e+002, 8.811901e+002
7.006856e+002, 8.807637e+002
7.011677e+002, 8.800411e+002
7.016498e+002, 8.776830e+002
7.021320e+002, 8.748182e+002
7.026141e+002, 8.726531e+002
7.030962e+002, 8.711697e+002
7.035783e+002, 8.700105e+002
7.040604e+002, 8.691157e+002
7.045425e+002, 8.683544e+002
7.050247e+002, 8.677692e+002
7.055068e+002, 8.674612e+002
7.059889e+002, 8.665157e+002
7.064710e+002, 8.642861e+002
7.069531e+002, 8.622311e+002
7.074352e+002, 8.616623e+002
7.079174e+002, 8.628481e+002
7.083995e+002, 8.622569e+002
7.088816e+002, 8.595562e+002
7.093637e+002, 8.564371e+002
7.098458e+002, 8.546877e+002
7.103279e+002, 8.539073e+002
7.108101e+002, 8.530647e+002
7.112922e+002, 8.519980e+002
7.117743e+002, 8.508614e+002
7.122564e+002, 8.495818e+002
7.127385e+002, 8.483845e+002
7.132206e+002, 8.475627e+002
7.137028e+002, 8.480495e+002
7.141849e+002, 8.477556e+002
7.146670e+002, 8.453543e+002
7.151491e+002, 8.423548e+002
7.156312e+002, 8.409777e+002
7.161133e+002, 8.422166e+002
7.165955e+002, 8.421596e+002
7.170776e+002, 8.396144e+002
7.175597e+002, 8.360400e+002
7.180418e+002, 8.349106e+002
7.185239e+002, 8.359551e+002
7.190060e+002, 8.366454e+002
7.194882e+002, 8.356667e+002
7.199703e+002, 8.341661e+002
7.204524e+002, 8.337145e+002
7.209345e+002, 8.339343e+002
7.214166e+002, 8.337136e+002
7.218987e+002, 8.317828e+002
7.223809e+002, 8.299951e+002
7.228630e+002, 8.295816e+002
7.233451e+002, 8.303376e+002
7.238272e+002, 8.302910e+002
7.243093e+002, 8.291254e+002
7.247914e+002, 8.275302e+002
7.252736e+002, 8.256439e+002
7.257557e+002, 8.235155e+002
7.262378e+002, 8.215920e+002
7.267199e+002, 8.198329e+002
7.272020e+002, 8.185473e+002
7.276841e+002, 8.183360e+002
7.281663e+002, 8.186423e+002
7.286484e+002, 8.182322e+002
7.291305e+002, 8.170790e+002
7.296126e+002, 8.155938e+002
7.300947e+002, 8.134247e+002
7.305768e+002, 8.114590e+002
7.310590e+002, 8.107195e+002
7.315411e+002, 8.117411e+002
7.320232e+002, 8.117433e+002
7.325053e+002, 8.088785e+002
7.329874e+002, 8.059221e+002
7.334695e+002, 8.046613e+002
7.339517e+002, 8.057906e+002
7.344338e+002, 8.061672e+002
7.349159e+002, 8.057320e+002
7.353980e+002, 8.047002e+002
7.358801e+002, 8.029487e+002
7.363622e+002, 8.007332e+002
7.368444e+002, 7.992536e+002
7.373265e+002, 7.988361e+002
7.378086e+002, 7.984863e+002
7.382907e+002, 7.971055e+002
7.387728e+002, 7.953165e+002
7.392549e+002, 7.939783e+002
7.397371e+002, 7.938001e+002
7.402192e+002, 7.932889e+002
7.407013e+002, 7.915198e+002
7.411834e+002, 7.894178e+002
7.416655e+002, 7.882570e+002
7.421476e+002, 7.886769e+002
7.426298e+002, 7.884523e+002
7.431119e+002, 7.870613e+002
7.435940e+002, 7.852263e+002
7.440761e+002, 7.843972e+002
7.445582e+002, 7.844547e+002
7.450403e+002, 7.842087e+002
7.455225e+002, 7.832162e+002
7.460046e+002, 7.818771e+002
7.464867e+002, 7.804887e+002
7.469688e+002, 7.791339e+002
7.474509e+002, 7.780162e+002
7.479330e+002, 7.771957e+002
7.484152e+002, 7.766531e+002
7.488973e+002, 7.769717e+002
7.493794e+002, 7.776029e+002
7.498615e+002, 7.767250e+002
7.503436e+002, 7.732162e+002
7.508257e+002, 7.702399e+002
7.513079e+002, 7.688301e+002
7.517900e+002, 7.684501e+002
7.522721e+002, 7.671166e+002
7.527542e+002, 7.648359e+002
7.532363e+002, 7.626028e+002
7.537184e+002, 7.606174e+002
7.542006e+002, 7.591859e+002
7.546827e+002, 7.593470e+002
7.551648e+002, 7.606627e+002
7.556469e+002, 7.612924e+002
7.561290e+002, 7.594086e+002
7.566111e+002, 7.573885e+002
7.570933e+002, 7.567420e+002
7.575754e+002, 7.574230e+002
7.580575e+002, 7.572350e+002
7.585396e+002, 7.550289e+002
7.590217e+002, 7.535294e+002
7.595038e+002, 7.542678e+002
7.599860e+002, 7.568959e+002
7.604681e+002, 7.572048e+002
7.609502e+002, 7.550214e+002
7.614323e+002, 7.524578e+002
7.619144e+002, 7.504778e+002
7.623965e+002, 7.492217e+002
7.628787e+002, 7.493646e+002
7.633608e+002, 7.507752e+002
7.638429e+002, 7.518715e+002
7.643250e+002, 7.515675e+002
7.648071e+002, 7.507155e+002
7.652892e+002, 7.498428e+002
7.657714e+002, 7.489897e+002
7.662535e+002, 7.481060e+002
7.667356e+002, 7.470772e+002
7.672177e+002, 7.461730e+002
7.676998e+002, 7.456605e+002
7.681819e+002, 7.455908e+002
7.686641e+002, 7.449147e+002
7.691462e+002, 7.435767e+002
7.696283e+002, 7.421259e+002
7.701104e+002, 7.409047e+002
7.705925e+002, 7.399321e+002
7.710746e+002, 7.392726e+002
7.715568e+002, 7.389346e+002
7.720389e+002, 7.387727e+002
7.725210e+002, 7.386678e+002
7.730031e+002, 7.387131e+002
7.734852e+002, 7.391169e+002
7.739673e+002, 7.402848e+002
7.744495e+002, 7.404413e+002
7.749316e+002, 7.387923e+002
7.754137e+002, 7.370135e+002
7.758958e+002, 7.364540e+002
7.763779e+002, 7.372258e+002
7.768600e+002, 7.377637e+002
7.773422e+002, 7.380165e+002
7.778243e+002, 7.380555e+002
7.783064e+002, 7.380135e+002
7.787885e+002, 7.378035e+002
7.792706e+002, 7.371605e+002
7.797527e+002, 7.359756e+002
7.802349e+002, 7.348785e+002
7.807170e+002, 7.342228e+002
7.811991e+002, 7.338600e+002
7.816812e+002, 7.336701e+002
7.821633e+002, 7.336944e+002
7.826454e+002, 7.338858e+002
7.831276e+002, 7.346836e+002
7.836097e+002, 7.351261e+002
7.840918e+002, 7.338394e+002
7.845739e+002, 7.307773e+002
7.850560e+002, 7.289875e+002
7.855381e+002, 7.288629e+002
7.860203e+002, 7.295500e+002
7.865024e+002, 7.305699e+002
7.869845e+002, 7.316260e+002
7.874666e+002, 7.322640e+002
7.879487e+002, 7.324362e+002
7.884308e+002, 7.319922e+002
7.889130e+002, 7.299316e+002
7.893951e+002, 7.276967e+002
7.898772e+002, 7.268136e+002
7.903593e+002, 7.284938e+002
7.908414e+002, 7.294131e+002
7.913235e+002, 7.290685e+002
7.918057e+002, 7.286010e+002
7.922878e+002, 7.297377e+002
7.927699e+002, 7.323276e+002
7.932520e+002, 7.337643e+002
7.937341e+002, 7.335785e+002
7.942162e+002, 7.326486e+002
7.946984e+002, 7.317978e+002
7.951805e+002, 7.308731e+002
7.956626e+002, 7.295468e+002
7.961447e+002, 7.272864e+002
7.966268e+002, 7.256439e+002
7.971089e+002, 7.255676e+002
7.975911e+002, 7.261993e+002
7.980732e+002, 7.265733e+002
7.985553e+002, 7.266404e+002
7.990374e+002, 7.265515e+002
7.995195e+002, 7.262798e+002
8.000016e+002, 7.259447e+002
8.004838e+002, 7.258438e+002
8.009659e+002, 7.258708e+002
8.014480e+002, 7.252415e+002
8.019301e+002, 7.236417e+002
8.024122e+002, 7.221249e+002
8.028943e+002, 7.220394e+002
8.033765e+002, 7.225480e+002
8.038586e+002, 7.225032e+002
8.043407e+002, 7.211141e+002
8.048228e+002, 7.200730e+002
8.053049e+002, 7.199645e+002
8.057870e+002, 7.202148e+002
8.062692e+002, 7.202853e+002
8.067513e+002, 7.201393e+002
8.072334e+002, 7.198694e+002
8.077155e+002, 7.194036e+002
8.081976e+002, 7.190111e+002
8.086797e+002, 7.190726e+002
8.091619e+002, 7.194883e+002
8.096440e+002, 7.201502e+002
8.101261e+002, 7.212577e+002
8.106082e+002, 7.217120e+002
8.110903e+002, 7.198644e+002
8.115724e+002, 7.173268e+002
8.120546e+002, 7.158943e+002
8.125367e+002, 7.167988e+002
8.130188e+002, 7.174363e+002
8.135009e+002, 7.177479e+002
8.139830e+002, 7.177094e+002
8.144651e+002, 7.170773e+002
8.149473e+002, 7.157765e+002
8.154294e+002, 7.153920e+002
8.159115e+002, 7.162524e+002
8.163936e+002, 7.172753e+002
8.168757e+002, 7.173425e+002
8.173578e+002, 7.166635e+002
8.178400e+002, 7.154152e+002
8.183221e+002, 7.133055e+002
8.188042e+002, 7.117635e+002
8.192863e+002, 7.117694e+002
8.197684e+002, 7.124729e+002
8.202505e+002, 7.131058e+002
8.207327e+002, 7.136951e+002
8.212148e+002, 7.139552e+002
8.216969e+002, 7.137473e+002
8.221790e+002, 7.134207e+002
8.226611e+002, 7.135899e+002
8.231432e+002, 7.140629e+002
8.236254e+002, 7.133827e+002
8.241075e+002, 7.112475e+002
8.245896e+002, 7.092134e+002
8.250717e+002, 7.089241e+002
8.255538e+002, 7.094354e+002
8.260359e+002, 7.097436e+002
8.265181e+002, 7.096942e+002
8.270002e+002, 7.093876e+002
8.274823e+002, 7.086795e+002
8.279644e+002, 7.078851e+002
8.284465e+002, 7.072792e+002
8.289286e+002, 7.070419e+002
8.294108e+002, 7.060856e+002
8.298929e+002, 7.042529e+002
8.303750e+002, 7.024889e+002
8.308571e+002, 7.017079e+002
8.313392e+002, 7.016459e+002
8.318214e+002, 7.018526e+002
8.323035e+002, 7.022951e+002
8.327856e+002, 7.025648e+002
8.332677e+002, 7.022757e+002
8.337498e+002, 7.017870e+002
8.342319e+002, 7.013416e+002
8.347141e+002, 7.009518e+002
8.351962e+002, 7.005912e+002
8.356783e+002, 7.001846e+002
8.361604e+002, 6.998972e+002
8.366425e+002, 6.998437e+002
8.371246e+002, 7.000106e+002
8.376068e+002, 7.002935e+002
8.380889e+002, 7.006903e+002
8.385710e+002, 7.011583e+002
8.390531e+002, 7.020292e+002
8.395352e+002, 7.027328e+002
8.400173e+002, 7.024650e+002
8.404995e+002, 7.011991e+002
8.409816e+002, 7.001158e+002
8.414637e+002, 6.998411e+002
8.419458e+002, 6.996002e+002
8.424279e+002, 6.988182e+002
8.429100e+002, 6.975231e+002
8.433922e+002, 6.977187e+002
8.438743e+002, 6.997161e+002
8.443564e+002, 7.014603e+002
8.448385e+002, 7.016816e+002
8.453206e+002, 7.007691e+002
8.458027e+002, 6.990430e+002
8.462849e+002, 6.967805e+002
8.467670e+002, 6.956103e+002
8.472491e+002, 6.979299e+002
8.477312e+002, 7.002430e+002
8.482133e+002, 7.003273e+002
8.486954e+002, 6.983577e+002
8.491776e+002, 6.969016e+002
8.496597e+002, 6.961153e+002
8.501418e+002, 6.956978e+002
8.506239e+002, 6.956069e+002
8.511060e+002, 6.958048e+002
8.515881e+002, 6.963134e+002
8.520703e+002, 6.970722e+002
8.525524e+002, 6.975326e+002
8.530345e+002, 6.970908e+002
8.535166e+002, 6.965267e+002
8.539987e+002, 6.967045e+002
8.544808e+002, 6.973146e+002
8.549630e+002, 6.975821e+002
8.554451e+002, 6.966194e+002
8.559272e+002, 6.960990e+002
8.564093e+002, 6.966750e+002
8.568914e+002, 6.977169e+002
8.573735e+002, 6.975704e+002
8.578557e+002, 6.960754e+002
8.583378e+002, 6.953969e+002
8.588199e+002, 6.964377e+002
8.593020e+002, 6.978709e+002
8.597841e+002, 6.974916e+002
8.602662e+002, 6.960474e+002
8.607484e+002, 6.950977e+002
8.612305e+002, 6.955852e+002
8.617126e+002, 6.960629e+002
8.621947e+002, 6.957883e+002
8.626768e+002, 6.953005e+002
8.631589e+002, 6.953458e+002
8.636411e+002, 6.960510e+002
8.641232e+002, 6.970153e+002
8.646053e+002, 6.983353e+002
8.650874e+002, 6.995800e+002
8.655695e+002, 7.001705e+002
8.660516e+002, 7.002185e+002
8.665338e+002, 6.999299e+002
8.670159e+002, 6.991823e+002
8.674980e+002, 6.989162e+002
8.679801e+002, 7.006871e+002
8.684622e+002, 7.027507e+002
8.689443e+002, 7.033001e+002
8.694265e+002, 7.010323e+002
8.699086e+002, 6.997878e+002
8.703907e+002, 6.999429e+002
8.708728e+002, 7.005646e+002
8.713549e+002, 7.008130e+002
8.718370e+002, 7.007678e+002
8.723192e+002, 7.015281e+002
8.728013e+002, 7.031627e+002
8.732834e+002, 7.046266e+002
8.737655e+002, 7.050565e+002
8.742476e+002, 7.048887e+002
8.747297e+002, 7.042652e+002
8.752119e+002, 7.031732e+002
8.756940e+002, 7.028573e+002
8.761761e+002, 7.048102e+002
8.766582e+002, 7.062928e+002
8.771403e+002, 7.057800e+002
8.776224e+002, 7.035421e+002
8.781046e+002, 7.037080e+002
8.785867e+002, 7.063932e+002
8.790688e+002, 7.089529e+002
8.795509e+002, 7.095979e+002
8.800330e+002, 7.092665e+002
8.805151e+002, 7.088806e+002
8.809973e+002, 7.086085e+002
8.814794e+002, 7.090452e+002
8.819615e+002, 7.115352e+002
8.824436e+002, 7.136132e+002
8.829257e+002, 7.141425e+002
8.834078e+002, 7.135998e+002
8.838900e+002, 7.131755e+002
8.843721e+002, 7.127762e+002
8.848542e+002, 7.130155e+002
8.853363e+002, 7.141768e+002
8.858184e+002, 7.158801e+002
8.863005e+002, 7.177298e+002
8.867827e+002, 7.195792e+002
8.872648e+002, 7.210117e+002
8.877469e+002, 7.215000e+002
8.882290e+002, 7.220940e+002
8.887111e+002, 7.233626e+002
8.891932e+002, 7.249647e+002
8.896754e+002, 7.263948e+002
8.901575e+002, 7.275154e+002
8.906396e+002, 7.288278e+002
8.911217e+002, 7.304961e+002
8.916038e+002, 7.320475e+002
8.920859e+002, 7.325293e+002
8.925681e+002, 7.324227e+002
8.930502e+002, 7.332717e+002
8.935323e+002, 7.353912e+002
8.940144e+002, 7.379300e+002
8.944965e+002, 7.409723e+002
8.949786e+002, 7.437003e+002
8.954608e+002, 7.452588e+002
8.959429e+002, 7.450403e+002
8.964250e+002, 7.455309e+002
8.969071e+002, 7.467513e+002
8.973892e+002, 7.486195e+002
8.978713e+002, 7.513138e+002
8.983535e+002, 7.546706e+002
8.988356e+002, 7.578487e+002
8.993177e+002, 7.607953e+002
8.997998e+002, 7.628459e+002
9.002819e+002, 7.626083e+002
9.007640e+002, 7.621080e+002
9.012462e+002, 7.629803e+002
9.017283e+002, 7.651622e+002
9.022104e+002, 7.673041e+002
9.026925e+002, 7.693304e+002
9.031746e+002, 7.711298e+002
9.036567e+002, 7.726456e+002
9.041389e+002, 7.739386e+002
9.046210e+002, 7.752436e+002
9.051031e+002, 7.765472e+002
9.055852e+002, 7.777123e+002
9.060673e+002, 7.781913e+002
9.065494e+002, 7.791865e+002
9.070316e+002, 7.825698e+002
9.075137e+002, 7.870530e+002
9.079958e+002, 7.904129e+002
9.084779e+002, 7.910142e+002
9.089600e+002, 7.918655e+002
9.094421e+002, 7.934311e+002
9.099243e+002, 7.951331e+002
9.104064e+002, 7.961263e+002
9.108885e+002, 7.964550e+002
9.113706e+002, 7.970908e+002
9.118527e+002, 7.982521e+002
9.123348e+002, 7.992719e+002
9.128170e+002, 7.993770e+002
9.132991e+002, 7.990598e+002
9.137812e+002, 7.987248e+002
9.142633e+002, 7.982336e+002
9.147454e+002, 7.987087e+002
9.152275e+002, 8.012657e+002
9.157097e+002, 8.036771e+002
9.161918e+002, 8.044614e+002
9.166739e+002, 8.036552e+002
9.171560e+002, 8.038444e+002
9.176381e+002, 8.050391e+002
9.181202e+002, 8.057453e+002
9.186024e+002, 8.042200e+002
9.190845e+002, 8.021509e+002
9.195666e+002, 8.014096e+002
9.200487e+002, 8.018526e+002
9.205308e+002, 8.022803e+002
9.210129e+002, 8.026379e+002
9.214951e+002, 8.025235e+002
9.219772e+002, 8.015139e+002
9.224593e+002, 8.000936e+002
9.229414e+002, 8.001515e+002
9.234235e+002, 8.016330e+002
9.239056e+002, 8.018910e+002
9.243878e+002, 7.996467e+002
9.248699e+002, 7.966265e+002
9.253520e+002, 7.943828e+002
9.258341e+002, 7.928127e+002
9.263162e+002, 7.917313e+002
9.267983e+002, 7.915795e+002
9.272805e+002, 7.912068e+002
9.277626e+002, 7.907160e+002
9.282447e+002, 7.897606e+002
9.287268e+002, 7.877438e+002
9.292089e+002, 7.846760e+002
9.296910e+002, 7.822759e+002
9.301732e+002, 7.807130e+002
9.306553e+002, 7.796074e+002
9.311374e+002, 7.789057e+002
9.316195e+002, 7.783175e+002
9.321016e+002, 7.773479e+002
9.325837e+002, 7.759278e+002
9.330659e+002, 7.750507e+002
9.335480e+002, 7.758173e+002
9.340301e+002, 7.760853e+002
9.345122e+002, 7.747202e+002
9.349943e+002, 7.720574e+002
9.354764e+002, 7.706141e+002
9.359586e+002, 7.703370e+002
9.364407e+002, 7.703583e+002
9.369228e+002, 7.707918e+002
9.374049e+002, 7.707545e+002
9.378870e+002, 7.689021e+002
9.383691e+002, 7.658955e+002
9.388513e+002, 7.633127e+002
9.393334e+002, 7.617275e+002
9.398155e+002, 7.604274e+002
9.402976e+002, 7.594176e+002
9.407797e+002, 7.585828e+002
9.412618e+002, 7.578331e+002
9.417440e+002, 7.571633e+002
9.422261e+002, 7.563456e+002
9.427082e+002, 7.553450e+002
9.431903e+002, 7.541782e+002
9.436724e+002, 7.525955e+002
9.441545e+002, 7.510172e+002
9.446367e+002, 7.498294e+002
9.451188e+002, 7.490705e+002
9.456009e+002, 7.489085e+002
9.460830e+002, 7.500566e+002
9.465651e+002, 7.505986e+002
9.470472e+002, 7.489783e+002
9.475294e+002, 7.455518e+002
9.480115e+002, 7.436435e+002
9.484936e+002, 7.431506e+002
9.489757e+002, 7.430960e+002
9.494578e+002, 7.435545e+002
9.499399e+002, 7.436163e+002
9.504221e+002, 7.422006e+002
9.509042e+002, 7.397365e+002
9.513863e+002, 7.379565e+002
9.518684e+002, 7.374435e+002
9.523505e+002, 7.368792e+002
9.528326e+002, 7.360245e+002
9.533148e+002, 7.350701e+002
9.537969e+002, 7.345343e+002
9.542790e+002, 7.342506e+002
9.547611e+002, 7.332805e+002
9.552432e+002, 7.311020e+002
9.557253e+002, 7.293064e+002
9.562075e+002, 7.293940e+002
9.566896e+002, 7.302108e+002
9.571717e+002, 7.305395e+002
9.576538e+002, 7.299071e+002
9.581359e+002, 7.300292e+002
9.586180e+002, 7.312864e+002
9.591002e+002, 7.322795e+002
9.595823e+002, 7.314643e+002
9.600644e+002, 7.296194e+002
9.605465e+002, 7.294733e+002
9.610286e+002, 7.308199e+002
9.615107e+002, 7.317581e+002
9.619929e+002, 7.306680e+002
9.624750e+002, 7.294293e+002
9.629571e+002, 7.291208e+002
9.634392e+002, 7.295015e+002
9.639213e+002, 7.294902e+002
9.644034e+002, 7.288675e+002
9.648856e+002, 7.288795e+002
9.653677e+002, 7.301508e+002
9.658498e+002, 7.315289e+002
9.663319e+002, 7.306357e+002
9.668140e+002, 7.285603e+002
9.672961e+002, 7.277294e+002
9.677783e+002, 7.293731e+002
9.682604e+002, 7.306972e+002
9.687425e+002, 7.303370e+002
9.692246e+002, 7.294676e+002
9.697067e+002, 7.290312e+002
9.701888e+002, 7.291314e+002
9.706710e+002, 7.289528e+002
9.711531e+002, 7.284807e+002
9.716352e+002, 7.278378e+002
9.721173e+002, 7.271764e+002
9.725994e+002, 7.263622e+002
9.730815e+002, 7.249508e+002
9.735637e+002, 7.231075e+002
9.740458e+002, 7.217917e+002
9.745279e+002, 7.214615e+002
9.750100e+002, 7.215801e+002
9.754921e+002, 7.221908e+002
9.759742e+002, 7.230431e+002
9.764564e+002, 7.236766e+002
9.769385e+002, 7.240793e+002
9.774206e+002, 7.236357e+002
9.779027e+002, 7.219368e+002
9.783848e+002, 7.202129e+002
9.788669e+002, 7.198382e+002
9.793491e+002, 7.200313e+002
9.798312e+002, 7.197747e+002
9.803133e+002, 7.184323e+002
9.807954e+002, 7.179486e+002
9.812775e+002, 7.188274e+002
9.817596e+002, 7.197770e+002
9.822418e+002, 7.197903e+002
9.827239e+002, 7.190527e+002
9.832060e+002, 7.184275e+002
9.836881e+002, 7.179451e+002
9.841702e+002, 7.178971e+002
9.846523e+002, 7.193369e+002
9.851345e+002, 7.203925e+002
9.856166e+002, 7.194406e+002
9.860987e+002, 7.171204e+002
9.865808e+002, 7.159890e+002
9.870629e+002, 7.165432e+002
9.875450e+002, 7.167331e+002
9.880272e+002, 7.161503e+002
9.885093e+002, 7.150870e+002
9.889914e+002, 7.137004e+002
9.894735e+002, 7.122464e+002
9.899556e+002, 7.113494e+002
9.904377e+002, 7.113173e+002
9.909199e+002, 7.111290e+002
9.914020e+002, 7.099584e+002
9.918841e+002, 7.088578e+002
9.923662e+002, 7.086262e+002
9.928483e+002, 7.093079e+002
9.933304e+002, 7.094479e+002
9.938126e+002, 7.090187e+002
9.942947e+002, 7.085156e+002
9.947768e+002, 7.080805e+002
9.952589e+002, 7.078549e+002
9.957410e+002, 7.085604e+002
9.962231e+002, 7.096270e+002
9.967053e+002, 7.094476e+002
9.971874e+002, 7.059616e+002
9.976695e+002, 7.033217e+002
9.981516e+002, 7.021556e+002
9.986337e+002, 7.019733e+002
9.991158e+002, 7.022900e+002
9.995980e+002, 7.029955e+002
1.000080e+003, 7.034012e+002
1.000562e+003, 7.034476e+002
1.001044e+003, 7.028583e+002
1.001526e+003, 7.009593e+002
1.002009e+003, 6.986738e+002
1.002491e+003, 6.966824e+002
1.002973e+003, 6.950314e+002
1.003455e+003, 6.940096e+002
1.003937e+003, 6.938011e+002
1.004419e+003, 6.936820e+002
1.004901e+003, 6.933799e+002
1.005383e+003, 6.929046e+002
1.005865e+003, 6.921174e+002
1.006348e+003, 6.911618e+002
1.006830e+003, 6.904243e+002
1.007312e+003, 6.902751e+002
1.007794e+003, 6.901189e+002
1.008276e+003, 6.897927e+002
1.008758e+003, 6.893315e+002
1.009240e+003, 6.887198e+002
1.009722e+003, 6.879286e+002
1.010205e+003, 6.872393e+002
1.010687e+003, 6.866578e+002
1.011169e+003, 6.861840e+002
1.011651e+003, 6.858260e+002
1.012133e+003, 6.855605e+002
1.012615e+003, 6.854879e+002
1.013097e+003, 6.855813e+002
1.013579e+003, 6.852359e+002
1.014061e+003, 6.837784e+002
1.014544e+003, 6.829364e+002
1.015026e+003, 6.836446e+002
1.015508e+003, 6.848788e+002
1.015990e+003, 6.837337e+002
1.016472e+003, 6.807958e+002
1.016954e+003, 6.784659e+002
1.017436e+003, 6.775289e+002
1.017918e+003, 6.771800e+002
1.018401e+003, 6.774124e+002
1.018883e+003, 6.776663e+002
1.019365e+003, 6.773474e+002
1.019847e+003, 6.763203e+002
1.020329e+003, 6.754056e+002
1.020811e+003, 6.746406e+002
1.021293e+003, 6.738069e+002
1.021775e+003, 6.726127e+002
1.022257e+003, 6.713305e+002
1.022740e+003, 6.705157e+002
1.023222e+003, 6.700064e+002
1.023704e+003, 6.691703e+002
1.024186e+003, 6.672792e+002
1.024668e+003, 6.656697e+002
1.025150e+003, 6.645655e+002
1.025632e+003, 6.639045e+002
1.026114e+003, 6.637306e+002
1.026596e+003, 6.639763e+002
1.027079e+003, 6.640128e+002
1.027561e+003, 6.637164e+002
1.028043e+003, 6.633875e+002
1.028525e+003, 6.635944e+002
1.029007e+003, 6.636412e+002
1.029489e+003, 6.627033e+002
1.029971e+003, 6.606523e+002
1.030453e+003, 6.594099e+002
1.030936e+003, 6.591896e+002
1.031418e+003, 6.591144e+002
1.031900e+003, 6.589734e+002
1.032382e+003, 6.585633e+002
1.032864e+003, 6.569574e+002
1.033346e+003, 6.547988e+002
1.033828e+003, 6.537020e+002
1.034310e+003, 6.555540e+002
1.034792e+003, 6.564821e+002
1.035275e+003, 6.546047e+002
1.035757e+003, 6.522770e+002
1.036239e+003, 6.518779e+002
1.036721e+003, 6.534134e+002
1.037203e+003, 6.530027e+002
1.037685e+003, 6.505518e+002
1.038167e+003, 6.481978e+002
1.038649e+003, 6.475201e+002
1.039132e+003, 6.475892e+002
1.039614e+003, 6.479490e+002
1.040096e+003, 6.484439e+002
1.040578e+003, 6.484981e+002
1.041060e+003, 6.480099e+002
1.041542e+003, 6.472391e+002
1.042024e+003, 6.461008e+002
1.042506e+003, 6.449557e+002
1.042989e+003, 6.442577e+002
1.043471e+003, 6.439591e+002
1.043953e+003, 6.440662e+002
1.044435e+003, 6.446740e+002
1.044917e+003, 6.450513e+002
1.045399e+003, 6.449418e+002
1.045881e+003, 6.444512e+002
1.046363e+003, 6.433524e+002
1.046845e+003, 6.418580e+002
1.047328e+003, 6.420324e+002
1.047810e+003, 6.437608e+002
1.048292e+003, 6.449647e+002
1.048774e+003, 6.447781e+002
1.049256e+003, 6.436113e+002
1.049738e+003, 6.409247e+002
1.050220e+003, 6.377701e+002
1.050702e+003, 6.358866e+002
1.051184e+003, 6.358229e+002
1.051667e+003, 6.359359e+002
1.052149e+003, 6.361534e+002
1.052631e+003, 6.366644e+002
1.053113e+003, 6.379480e+002
1.053595e+003, 6.395205e+002
1.054077e+003, 6.407003e+002
1.054559e+003, 6.413616e+002
1.055041e+003, 6.410023e+002
1.055523e+003, 6.378291e+002
1.056006e+003, 6.356522e+002
1.056488e+003, 6.361151e+002
1.056970e+003, 6.376411e+002
1.057452e+003, 6.367772e+002
1.057934e+003, 6.338096e+002
1.058416e+003, 6.311760e+002
1.058898e+003, 6.292617e+002
1.059380e+003, 6.282917e+002
1.059863e+003, 6.296310e+002
1.060345e+003, 6.311434e+002
1.060827e+003, 6.305104e+002
1.061309e+003, 6.275374e+002
1.061791e+003, 6.268861e+002
1.062273e+003, 6.291342e+002
1.062755e+003, 6.309408e+002
1.063237e+003, 6.307657e+002
1.063719e+003, 6.294178e+002
1.064202e+003, 6.276895e+002
1.064684e+003, 6.258202e+002
1.065166e+003, 6.242755e+002
1.065648e+003, 6.234245e+002
1.066130e+003, 6.225163e+002
1.066612e+003, 6.212690e+002
1.067094e+003, 6.202302e+002
1.067576e+003, 6.198557e+002
1.068059e+003, 6.200829e+002
1.068541e+003, 6.207766e+002
1.069023e+003, 6.218465e+002
1.069505e+003, 6.226049e+002
1.069987e+003, 6.226132e+002
1.070469e+003, 6.222272e+002
1.070951e+003, 6.214665e+002
1.071433e+003, 6.204835e+002
1.071916e+003, 6.195573e+002
1.072398e+003, 6.187125e+002
1.072880e+003, 6.176095e+002
1.073362e+003, 6.161044e+002
1.073844e+003, 6.150590e+002
1.074326e+003, 6.160656e+002
1.074808e+003, 6.175395e+002
1.075290e+003, 6.177637e+002
1.075772e+003, 6.165711e+002
1.076255e+003, 6.151360e+002
1.076737e+003, 6.130895e+002
1.077219e+003, 6.120161e+002
1.077701e+003, 6.127319e+002
1.078183e+003, 6.142805e+002
1.078665e+003, 6.151428e+002
1.079147e+003, 6.152974e+002
1.079629e+003, 6.145350e+002
1.080111e+003, 6.123260e+002
1.080594e+003, 6.106053e+002
1.081076e+003, 6.101924e+002
1.081558e+003, 6.103572e+002
1.082040e+003, 6.109903e+002
1.082522e+003, 6.119528e+002
1.083004e+003, 6.114006e+002
1.083486e+003, 6.095320e+002
1.083968e+003, 6.083167e+002
1.084450e+003, 6.097717e+002
1.084933e+003, 6.111891e+002
1.085415e+003, 6.105773e+002
1.085897e+003, 6.089240e+002
1.086379e+003, 6.078421e+002
1.086861e+003, 6.075302e+002
1.087343e+003, 6.071339e+002
1.087825e+003, 6.065912e+002
1.088307e+003, 6.061682e+002
1.088790e+003, 6.061216e+002
1.089272e+003, 6.063199e+002
1.089754e+003, 6.069717e+002
1.090236e+003, 6.078422e+002
1.090718e+003, 6.076169e+002
1.091200e+003, 6.051240e+002
1.091682e+003, 6.032765e+002
1.092164e+003, 6.026900e+002
1.092646e+003, 6.027178e+002
1.093129e+003, 6.022424e+002
1.093611e+003, 6.016185e+002
1.094093e+003, 6.020120e+002
1.094575e+003, 6.037032e+002
1.095057e+003, 6.046325e+002
1.095539e+003, 6.032656e+002
1.096021e+003, 6.015397e+002
1.096503e+003, 6.002504e+002
1.096986e+003, 5.992873e+002
1.097468e+003, 5.979664e+002
1.097950e+003, 5.964120e+002
1.098432e+003, 5.958498e+002
1.098914e+003, 5.971116e+002
1.099396e+003, 5.982507e+002
1.099878e+003, 5.976977e+002
1.100360e+003, 5.964264e+002
1.100843e+003, 5.952356e+002
1.101325e+003, 5.940576e+002
1.101807e+003, 5.941190e+002
1.102289e+003, 5.955590e+002
1.102771e+003, 5.967516e+002
1.103253e+003, 5.967068e+002
1.103735e+003, 5.959936e+002
1.104217e+003, 5.949109e+002
1.104699e+003, 5.937419e+002
1.105182e+003, 5.930336e+002
1.105664e+003, 5.933837e+002
1.106146e+003, 5.932432e+002
1.106628e+003, 5.924182e+002
1.107110e+003, 5.915208e+002
1.107592e+003, 5.911332e+002
1.108074e+003, 5.910486e+002
1.108556e+003, 5.908503e+002
1.109038e+003, 5.905341e+002
1.109521e+003, 5.901740e+002
1.110003e+003, 5.891458e+002
1.110485e+003, 5.890613e+002
1.110967e+003, 5.908162e+002
1.111449e+003, 5.929324e+002
1.111931e+003, 5.928307e+002
1.112413e+003, 5.910690e+002
1.112895e+003, 5.903133e+002
1.113377e+003, 5.908893e+002
1.113860e+003, 5.913900e+002
1.114342e+003, 5.906534e+002
1.114824e+003, 5.899295e+002
1.115306e+003, 5.900930e+002
1.115788e+003, 5.907776e+002
1.116270e+003, 5.905314e+002
1.116752e+003, 5.893852e+002
1.117234e+003, 5.891570e+002
1.117717e+003, 5.905505e+002
1.118199e+003, 5.919560e+002
1.118681e+003, 5.918150e+002
1.119163e+003, 5.910905e+002
1.119645e+003, 5.906683e+002
1.120127e+003, 5.906148e+002
1.120609e+003, 5.903844e+002
1.121091e+003, 5.898925e+002
1.121573e+003, 5.897454e+002
1.122056e+003, 5.903512e+002
1.122538e+003, 5.911740e+002
1.123020e+003, 5.917375e+002
1.123502e+003, 5.919803e+002
1.123984e+003, 5.918099e+002
1.124466e+003, 5.911243e+002
1.124948e+003, 5.900026e+002
1.125430e+003, 5.879872e+002
1.125913e+003, 5.867657e+002
1.126395e+003, 5.881276e+002
1.126877e+003, 5.907733e+002
1.127359e+003, 5.919268e+002
1.127841e+003, 5.918735e+002
1.128323e+003, 5.913683e+002
1.128805e+003, 5.898400e+002
1.129287e+003, 5.891529e+002
1.129770e+003, 5.898014e+002
1.130252e+003, 5.908923e+002
1.130734e+003, 5.915502e+002
1.131216e+003, 5.918995e+002
1.131698e+003, 5.927585e+002
1.132180e+003, 5.939888e+002
1.132662e+003, 5.944033e+002
1.133144e+003, 5.925712e+002
1.133626e+003, 5.907122e+002
1.134109e+003, 5.894206e+002
1.134591e+003, 5.886774e+002
1.135073e+003, 5.886638e+002
1.135555e+003, 5.893007e+002
1.136037e+003, 5.896633e+002
1.136519e+003, 5.896490e+002
1.137001e+003, 5.894334e+002
1.137483e+003, 5.888916e+002
1.137965e+003, 5.884470e+002
1.138448e+003, 5.886628e+002
1.138930e+003, 5.891848e+002
1.139412e+003, 5.887058e+002
1.139894e+003, 5.871534e+002
1.140376e+003, 5.862013e+002
1.140858e+003, 5.862272e+002
1.141340e+003, 5.868082e+002
1.141822e+003, 5.880597e+002
1.142304e+003, 5.893123e+002
1.142787e+003, 5.899538e+002
1.143269e+003, 5.899254e+002
1.143751e+003, 5.894887e+002
1.144233e+003, 5.884570e+002
1.144715e+003, 5.881120e+002
1.145197e+003, 5.891596e+002
1.145679e+003, 5.904259e+002
1.146161e+003, 5.902614e+002
1.146644e+003, 5.894366e+002
1.147126e+003, 5.890299e+002
1.147608e+003, 5.894708e+002
1.148090e+003, 5.891263e+002
1.148572e+003, 5.875712e+002
1.149054e+003, 5.865328e+002
1.149536e+003, 5.872244e+002
1.150018e+003, 5.885212e+002
1.150500e+003, 5.883658e+002
1.150983e+003, 5.873422e+002
1.151465e+003, 5.865903e+002
1.151947e+003, 5.863893e+002
1.152429e+003, 5.866695e+002
1.152911e+003, 5.876836e+002
1.153393e+003, 5.886008e+002
1.153875e+003, 5.888736e+002
1.154357e+003, 5.886114e+002
1.154840e+003, 5.879169e+002
1.155322e+003, 5.869241e+002
1.155804e+003, 5.860945e+002
1.156286e+003, 5.851240e+002
1.156768e+003, 5.851356e+002
1.157250e+003, 5.868352e+002
1.157732e+003, 5.886228e+002
1.158214e+003, 5.889885e+002
1.158697e+003, 5.881691e+002
1.159179e+003, 5.867527e+002
1.159661e+003, 5.849772e+002
1.160143e+003, 5.840863e+002
1.160625e+003, 5.859938e+002
1.161107e+003, 5.871766e+002
1.161589e+003, 5.858150e+002
1.162071e+003, 5.839775e+002
1.162553e+003, 5.847906e+002
1.163036e+003, 5.877213e+002
1.163518e+003, 5.888693e+002
1.164000e+003, 5.880370e+002
1.164482e+003, 5.867687e+002
1.164964e+003, 5.856193e+002
1.165446e+003, 5.846849e+002
1.165928e+003, 5.839758e+002
1.166410e+003, 5.835439e+002
1.166892e+003, 5.836072e+002
1.167375e+003, 5.841355e+002
1.167857e+003, 5.847709e+002
1.168339e+003, 5.854989e+002
1.168821e+003, 5.856608e+002
1.169303e+003, 5.837946e+002
1.169785e+003, 5.821426e+002
1.170267e+003, 5.824313e+002
1.170749e+003, 5.840334e+002
1.171231e+003, 5.854838e+002
1.171714e+003, 5.867790e+002
1.172196e+003, 5.870182e+002
1.172678e+003, 5.858649e+002
1.173160e+003, 5.845826e+002
1.173642e+003, 5.838046e+002
1.174124e+003, 5.837045e+002
1.174606e+003, 5.849225e+002
1.175088e+003, 5.870897e+002
1.175571e+003, 5.879525e+002
1.176053e+003, 5.874434e+002
1.176535e+003, 5.872076e+002
1.177017e+003, 5.877806e+002
1.177499e+003, 5.885303e+002
1.177981e+003, 5.891071e+002
1.178463e+003, 5.893781e+002
1.178945e+003, 5.890759e+002
1.179427e+003, 5.882064e+002
1.179910e+003, 5.875909e+002
1.180392e+003, 5.872371e+002
1.180874e+003, 5.869937e+002
1.181356e+003, 5.868332e+002
1.181838e+003, 5.866829e+002
1.182320e+003, 5.864973e+002
1.182802e+003, 5.862598e+002
1.183284e+003, 5.858226e+002
1.183767e+003, 5.850586e+002
1.184249e+003, 5.853695e+002
1.184731e+003, 5.870140e+002
1.185213e+003, 5.879423e+002
1.185695e+003, 5.867127e+002
1.186177e+003, 5.850397e+002
1.186659e+003, 5.851217e+002
1.187141e+003, 5.859682e+002
1.187624e+003, 5.860994e+002
1.188106e+003, 5.850605e+002
1.188588e+003, 5.844111e+002
1.189070e+003, 5.842037e+002
1.189552e+003, 5.841436e+002
1.190034e+003, 5.839233e+002
1.190516e+003, 5.839183e+002
1.190998e+003, 5.850568e+002
1.191480e+003, 5.865940e+002
1.191963e+003, 5.872338e+002
1.192445e+003, 5.865898e+002
1.192927e+003, 5.852436e+002
1.193409e+003, 5.828618e+002
1.193891e+003, 5.812599e+002
1.194373e+003, 5.823294e+002
1.194855e+003, 5.843754e+002
1.195337e+003, 5.852966e+002
1.195819e+003, 5.854311e+002
1.196302e+003, 5.854837e+002
1.196784e+003, 5.852421e+002
1.197266e+003, 5.857715e+002
1.197748e+003, 5.872538e+002
1.198230e+003, 5.888091e+002
1.198712e+003, 5.899092e+002
1.199194e+003, 5.905345e+002
1.199676e+003, 5.906432e+002
1.200158e+003, 5.902509e+002
1.200641e+003, 5.892767e+002
1.201123e+003, 5.869667e+002
1.201605e+003, 5.861060e+002
1.202087e+003, 5.871869e+002
1.202569e+003, 5.883465e+002
1.203051e+003, 5.871660e+002
1.203533e+003, 5.855606e+002
1.204015e+003, 5.868111e+002
1.204498e+003, 5.899323e+002
1.204980e+003, 5.910983e+002
1.205462e+003, 5.887592e+002
1.205944e+003, 5.869042e+002
1.206426e+003, 5.857855e+002
1.206908e+003, 5.854513e+002
1.207390e+003, 5.864369e+002
1.207872e+003, 5.878856e+002
1.208354e+003, 5.886027e+002
1.208837e+003, 5.887370e+002
1.209319e+003, 5.892983e+002
1.209801e+003, 5.910012e+002
1.210283e+003, 5.913572e+002
1.210765e+003, 5.897070e+002
1.211247e+003, 5.880729e+002
1.211729e+003, 5.891038e+002
1.212211e+003, 5.910175e+002
1.212694e+003, 5.915375e+002
1.213176e+003, 5.907526e+002
1.213658e+003, 5.899447e+002
1.214140e+003, 5.891527e+002
1.214622e+003, 5.887491e+002
1.215104e+003, 5.889111e+002
1.215586e+003, 5.889874e+002
1.216068e+003, 5.881404e+002
1.216551e+003, 5.869029e+002
1.217033e+003, 5.858275e+002
1.217515e+003, 5.849623e+002
1.217997e+003, 5.842669e+002
1.218479e+003, 5.835096e+002
1.218961e+003, 5.837338e+002
1.219443e+003, 5.852814e+002
1.219925e+003, 5.871426e+002
1.220407e+003, 5.883287e+002
1.220890e+003, 5.890936e+002
1.221372e+003, 5.896969e+002
1.221854e+003, 5.901316e+002
1.222336e+003, 5.903246e+002
1.222818e+003, 5.902162e+002
1.223300e+003, 5.901058e+002
1.223782e+003, 5.900755e+002
1.224264e+003, 5.899328e+002
1.224746e+003, 5.889625e+002
1.225229e+003, 5.881384e+002
1.225711e+003, 5.888931e+002
1.226193e+003, 5.910775e+002
1.226675e+003, 5.919032e+002
1.227157e+003, 5.911199e+002
1.227639e+003, 5.902233e+002
1.228121e+003, 5.895010e+002
1.228603e+003, 5.889040e+002
1.229085e+003, 5.882458e+002
1.229568e+003, 5.877975e+002
1.230050e+003, 5.879366e+002
1.230532e+003, 5.886125e+002
1.231014e+003, 5.890744e+002
1.231496e+003, 5.892648e+002
1.231978e+003, 5.898398e+002
1.232460e+003, 5.910754e+002
1.232942e+003, 5.920923e+002
1.233425e+003, 5.917647e+002
1.233907e+003, 5.910759e+002
1.234389e+003, 5.909598e+002
1.234871e+003, 5.913243e+002
1.235353e+003, 5.913864e+002
1.235835e+003, 5.911507e+002
1.236317e+003, 5.904752e+002
1.236799e+003, 5.892326e+002
1.237281e+003, 5.880966e+002
1.237764e+003, 5.873545e+002
1.238246e+003, 5.871951e+002
1.238728e+003, 5.881409e+002
1.239210e+003, 5.898127e+002
1.239692e+003, 5.907758e+002
1.240174e+003, 5.910255e+002
1.240656e+003, 5.905980e+002
1.241138e+003, 5.893109e+002
1.241621e+003, 5.885068e+002
1.242103e+003, 5.895989e+002
1.242585e+003, 5.911476e+002
1.243067e+003, 5.922911e+002
1.243549e+003, 5.930516e+002
1.244031e+003, 5.935106e+002
1.244513e+003, 5.936872e+002
1.244995e+003, 5.937284e+002
1.245478e+003, 5.936573e+002
1.245960e+003, 5.935068e+002
1.246442e+003, 5.931826e+002
1.246924e+003, 5.929065e+002
1.247406e+003, 5.928288e+002
1.247888e+003, 5.928663e+002
1.248370e+003, 5.925229e+002
1.248852e+003, 5.920363e+002
1.249334e+003, 5.927487e+002
1.249817e+003, 5.952761e+002
1.250299e+003, 5.968099e+002
1.250781e+003, 5.945428e+002
1.251263e+003, 5.927657e+002
1.251745e+003, 5.934326e+002
1.252227e+003, 5.954886e+002
1.252709e+003, 5.966401e+002
1.253191e+003, 5.969822e+002
1.253673e+003, 5.966301e+002
1.254156e+003, 5.954809e+002
1.254638e+003, 5.946856e+002
1.255120e+003, 5.946514e+002
1.255602e+003, 5.949983e+002
1.256084e+003, 5.957773e+002
1.256566e+003, 5.966226e+002
1.257048e+003, 5.965988e+002
1.257530e+003, 5.961422e+002
1.258012e+003, 5.961518e+002
1.258495e+003, 5.968058e+002
1.258977e+003, 5.976549e+002
1.259459e+003, 5.988184e+002
1.259941e+003, 5.996865e+002
1.260423e+003, 6.000466e+002
1.260905e+003, 6.000430e+002
1.261387e+003, 5.997654e+002
1.261869e+003, 5.993484e+002
1.262352e+003, 5.988692e+002
1.262834e+003, 5.983245e+002
1.263316e+003, 5.985449e+002
1.263798e+003, 5.999183e+002
1.264280e+003, 6.006791e+002
1.264762e+003, 6.001465e+002
1.265244e+003, 5.993191e+002
1.265726e+003, 5.993430e+002
1.266208e+003, 5.997917e+002
1.266691e+003, 6.002168e+002
1.267173e+003, 6.005817e+002
1.267655e+003, 6.010867e+002
1.268137e+003, 6.017797e+002
1.268619e+003, 6.022783e+002
1.269101e+003, 6.025314e+002
1.269583e+003, 6.023131e+002
1.270065e+003, 6.009044e+002
1.270548e+003, 5.993267e+002
1.271030e+003, 5.984694e+002
1.271512e+003, 5.982641e+002
1.271994e+003, 5.986387e+002
1.272476e+003, 5.995729e+002
1.272958e+003, 5.999807e+002
1.273440e+003, 5.995595e+002
1.273922e+003, 5.991033e+002
1.274405e+003, 5.991326e+002
1.274887e+003, 5.994059e+002
1.275369e+003, 6.001174e+002
1.275851e+003, 6.007859e+002
1.276333e+003, 5.993804e+002
1.276815e+003, 5.965477e+002
1.277297e+003, 5.959960e+002
1.277779e+003, 5.985863e+002
1.278261e+003, 6.006672e+002
1.278744e+003, 5.994368e+002
1.279226e+003, 5.984506e+002
1.279708e+003, 5.991611e+002
1.280190e+003, 6.006252e+002
1.280672e+003, 6.010967e+002
1.281154e+003, 6.008457e+002
1.281636e+003, 6.004944e+002
1.282118e+003, 6.001233e+002
1.282600e+003, 5.999592e+002
1.283083e+003, 6.001611e+002
1.283565e+003, 6.004637e+002
1.284047e+003, 6.009283e+002
1.284529e+003, 6.011991e+002
1.285011e+003, 6.005191e+002
1.285493e+003, 5.994501e+002
1.285975e+003, 5.987613e+002
1.286457e+003, 5.985521e+002
1.286939e+003, 5.989535e+002
1.287422e+003, 6.002855e+002
1.287904e+003, 6.009737e+002
1.288386e+003, 6.005980e+002
1.288868e+003, 6.001063e+002
1.289350e+003, 6.005641e+002
1.289832e+003, 6.013893e+002
1.290314e+003, 6.020641e+002
1.290796e+003, 6.025568e+002
1.291279e+003, 6.030557e+002
1.291761e+003, 6.036009e+002
1.292243e+003, 6.034827e+002
1.292725e+003, 6.025551e+002
1.293207e+003, 6.015848e+002
1.293689e+003, 6.011025e+002
1.294171e+003, 6.008530e+002
1.294653e+003, 6.006228e+002
1.295135e+003, 6.005314e+002
1.295618e+003, 6.008615e+002
1.296100e+003, 6.015828e+002
1.296582e+003, 6.026578e+002
1.297064e+003, 6.040861e+002
1.297546e+003, 6.048818e+002
1.298028e+003, 6.035258e+002
1.298510e+003, 6.024232e+002
1.298992e+003, 6.024950e+002
1.299475e+003, 6.030364e+002
1.299957e+003, 6.030148e+002
1.300439e+003, 6.027609e+002
1.300921e+003, 6.031310e+002
1.301403e+003, 6.041650e+002
1.301885e+003, 6.055903e+002
##END=



