##NAMES=Moissanite
##RRUFFID=R150016
##IDEAL CHEMISTRY=SiC
##LOCALITY=China
##OWNER=RRUFF
##SOURCE=Rob Lavinsky
##DESCRIPTION=Semi-metallic hexagonal plates
##STATUS=The identification of this mineral has been confirmed by single-crystal X-ray diffraction.
##URL=rruff.info/R150016
9.059570e+001, 6.497327e+002
9.107782e+001, 6.258047e+002
9.155994e+001, 6.173276e+002
9.204205e+001, 6.357237e+002
9.252417e+001, 6.618211e+002
9.300629e+001, 6.893290e+002
9.348840e+001, 7.123831e+002
9.397052e+001, 7.261515e+002
9.445264e+001, 7.284958e+002
9.493475e+001, 7.282360e+002
9.541687e+001, 7.272874e+002
9.589898e+001, 7.266862e+002
9.638110e+001, 7.259283e+002
9.686321e+001, 7.244703e+002
9.734533e+001, 7.216013e+002
9.782745e+001, 7.162990e+002
9.830956e+001, 7.116800e+002
9.879168e+001, 7.079636e+002
9.927380e+001, 7.047540e+002
9.975591e+001, 7.020273e+002
1.002380e+002, 6.995671e+002
1.007201e+002, 6.969178e+002
1.012023e+002, 6.935338e+002
1.016844e+002, 6.898043e+002
1.021665e+002, 6.871246e+002
1.026486e+002, 6.860557e+002
1.031307e+002, 6.855174e+002
1.036128e+002, 6.844592e+002
1.040950e+002, 6.827231e+002
1.045771e+002, 6.810768e+002
1.050592e+002, 6.796432e+002
1.055413e+002, 6.784500e+002
1.060234e+002, 6.777152e+002
1.065055e+002, 6.778474e+002
1.069877e+002, 6.785277e+002
1.074698e+002, 6.784686e+002
1.079519e+002, 6.771313e+002
1.084340e+002, 6.755622e+002
1.089161e+002, 6.742066e+002
1.093982e+002, 6.729783e+002
1.098804e+002, 6.716414e+002
1.103625e+002, 6.698668e+002
1.108446e+002, 6.674562e+002
1.113267e+002, 6.656501e+002
1.118088e+002, 6.646683e+002
1.122909e+002, 6.640283e+002
1.127731e+002, 6.637120e+002
1.132552e+002, 6.636139e+002
1.137373e+002, 6.634406e+002
1.142194e+002, 6.627548e+002
1.147015e+002, 6.610616e+002
1.151836e+002, 6.596992e+002
1.156658e+002, 6.590875e+002
1.161479e+002, 6.585955e+002
1.166300e+002, 6.574567e+002
1.171121e+002, 6.553565e+002
1.175942e+002, 6.528593e+002
1.180763e+002, 6.514363e+002
1.185584e+002, 6.516337e+002
1.190406e+002, 6.515059e+002
1.195227e+002, 6.500946e+002
1.200048e+002, 6.478600e+002
1.204869e+002, 6.461165e+002
1.209690e+002, 6.456661e+002
1.214511e+002, 6.459114e+002
1.219333e+002, 6.455235e+002
1.224154e+002, 6.442261e+002
1.228975e+002, 6.427585e+002
1.233796e+002, 6.418861e+002
1.238617e+002, 6.417020e+002
1.243438e+002, 6.412701e+002
1.248260e+002, 6.397177e+002
1.253081e+002, 6.378291e+002
1.257902e+002, 6.362913e+002
1.262723e+002, 6.353841e+002
1.267544e+002, 6.349190e+002
1.272365e+002, 6.344945e+002
1.277187e+002, 6.340733e+002
1.282008e+002, 6.337718e+002
1.286829e+002, 6.337576e+002
1.291650e+002, 6.338395e+002
1.296471e+002, 6.336982e+002
1.301292e+002, 6.330411e+002
1.306114e+002, 6.319531e+002
1.310935e+002, 6.316767e+002
1.315756e+002, 6.338809e+002
1.320577e+002, 6.353346e+002
1.325398e+002, 6.350031e+002
1.330219e+002, 6.331955e+002
1.335041e+002, 6.307568e+002
1.339862e+002, 6.283112e+002
1.344683e+002, 6.257253e+002
1.349504e+002, 6.241984e+002
1.354325e+002, 6.243137e+002
1.359146e+002, 6.247902e+002
1.363968e+002, 6.248908e+002
1.368789e+002, 6.245489e+002
1.373610e+002, 6.241795e+002
1.378431e+002, 6.243049e+002
1.383252e+002, 6.250735e+002
1.388073e+002, 6.255574e+002
1.392895e+002, 6.254200e+002
1.397716e+002, 6.250822e+002
1.402537e+002, 6.251436e+002
1.407358e+002, 6.258312e+002
1.412179e+002, 6.265364e+002
1.417000e+002, 6.261732e+002
1.421821e+002, 6.248278e+002
1.426643e+002, 6.239689e+002
1.431464e+002, 6.242745e+002
1.436285e+002, 6.255693e+002
1.441106e+002, 6.273578e+002
1.445927e+002, 6.301852e+002
1.450748e+002, 6.326817e+002
1.455570e+002, 6.333347e+002
1.460391e+002, 6.321555e+002
1.465212e+002, 6.311422e+002
1.470033e+002, 6.316212e+002
1.474854e+002, 6.335489e+002
1.479675e+002, 6.374671e+002
1.484497e+002, 6.460851e+002
1.489318e+002, 6.552102e+002
1.494139e+002, 6.651904e+002
1.498960e+002, 6.754714e+002
1.503781e+002, 6.807130e+002
1.508602e+002, 6.707974e+002
1.513424e+002, 6.350673e+002
1.518245e+002, 6.071052e+002
1.523066e+002, 5.908420e+002
1.527887e+002, 5.813456e+002
1.532708e+002, 5.756334e+002
1.537529e+002, 5.724723e+002
1.542351e+002, 5.711454e+002
1.547172e+002, 5.699044e+002
1.551993e+002, 5.686029e+002
1.556814e+002, 5.676124e+002
1.561635e+002, 5.672632e+002
1.566456e+002, 5.671373e+002
1.571278e+002, 5.667142e+002
1.576099e+002, 5.657209e+002
1.580920e+002, 5.643071e+002
1.585741e+002, 5.631072e+002
1.590562e+002, 5.619871e+002
1.595383e+002, 5.611765e+002
1.600205e+002, 5.611013e+002
1.605026e+002, 5.614144e+002
1.609847e+002, 5.612733e+002
1.614668e+002, 5.600966e+002
1.619489e+002, 5.581377e+002
1.624310e+002, 5.566522e+002
1.629131e+002, 5.560121e+002
1.633953e+002, 5.554511e+002
1.638774e+002, 5.545285e+002
1.643595e+002, 5.532726e+002
1.648416e+002, 5.519611e+002
1.653237e+002, 5.506864e+002
1.658058e+002, 5.495032e+002
1.662880e+002, 5.485173e+002
1.667701e+002, 5.478792e+002
1.672522e+002, 5.473289e+002
1.677343e+002, 5.465488e+002
1.682164e+002, 5.454902e+002
1.686985e+002, 5.444409e+002
1.691807e+002, 5.436577e+002
1.696628e+002, 5.429695e+002
1.701449e+002, 5.421412e+002
1.706270e+002, 5.410012e+002
1.711091e+002, 5.397196e+002
1.715912e+002, 5.387335e+002
1.720734e+002, 5.382703e+002
1.725555e+002, 5.376835e+002
1.730376e+002, 5.367531e+002
1.735197e+002, 5.355573e+002
1.740018e+002, 5.341790e+002
1.744839e+002, 5.326368e+002
1.749661e+002, 5.309623e+002
1.754482e+002, 5.293552e+002
1.759303e+002, 5.277933e+002
1.764124e+002, 5.263442e+002
1.768945e+002, 5.249807e+002
1.773766e+002, 5.237423e+002
1.778588e+002, 5.227507e+002
1.783409e+002, 5.221521e+002
1.788230e+002, 5.219517e+002
1.793051e+002, 5.212396e+002
1.797872e+002, 5.195315e+002
1.802693e+002, 5.177892e+002
1.807515e+002, 5.160409e+002
1.812336e+002, 5.144594e+002
1.817157e+002, 5.134618e+002
1.821978e+002, 5.135415e+002
1.826799e+002, 5.149373e+002
1.831620e+002, 5.149009e+002
1.836441e+002, 5.122604e+002
1.841263e+002, 5.095638e+002
1.846084e+002, 5.081667e+002
1.850905e+002, 5.080054e+002
1.855726e+002, 5.081129e+002
1.860547e+002, 5.076225e+002
1.865368e+002, 5.064308e+002
1.870190e+002, 5.052857e+002
1.875011e+002, 5.041923e+002
1.879832e+002, 5.031505e+002
1.884653e+002, 5.020820e+002
1.889474e+002, 5.009974e+002
1.894296e+002, 5.001586e+002
1.899117e+002, 5.001049e+002
1.903938e+002, 5.007764e+002
1.908759e+002, 5.005051e+002
1.913580e+002, 4.982712e+002
1.918401e+002, 4.953964e+002
1.923223e+002, 4.934376e+002
1.928044e+002, 4.926839e+002
1.932865e+002, 4.922294e+002
1.937686e+002, 4.911496e+002
1.942507e+002, 4.896376e+002
1.947328e+002, 4.882793e+002
1.952150e+002, 4.873388e+002
1.956971e+002, 4.866520e+002
1.961792e+002, 4.859121e+002
1.966613e+002, 4.851119e+002
1.971434e+002, 4.842099e+002
1.976255e+002, 4.829583e+002
1.981077e+002, 4.815400e+002
1.985898e+002, 4.804970e+002
1.990719e+002, 4.806112e+002
1.995540e+002, 4.814549e+002
2.000361e+002, 4.810478e+002
2.005182e+002, 4.783607e+002
2.010004e+002, 4.757665e+002
2.014825e+002, 4.746749e+002
2.019646e+002, 4.746853e+002
2.024467e+002, 4.748016e+002
2.029288e+002, 4.743882e+002
2.034109e+002, 4.734679e+002
2.038930e+002, 4.723696e+002
2.043752e+002, 4.705272e+002
2.048573e+002, 4.691424e+002
2.053394e+002, 4.691239e+002
2.058215e+002, 4.699839e+002
2.063036e+002, 4.705381e+002
2.067857e+002, 4.696924e+002
2.072679e+002, 4.673524e+002
2.077500e+002, 4.654709e+002
2.082321e+002, 4.643550e+002
2.087142e+002, 4.634470e+002
2.091963e+002, 4.628456e+002
2.096784e+002, 4.623548e+002
2.101606e+002, 4.615471e+002
2.106427e+002, 4.599546e+002
2.111248e+002, 4.574374e+002
2.116069e+002, 4.554644e+002
2.120890e+002, 4.541857e+002
2.125711e+002, 4.532470e+002
2.130533e+002, 4.526589e+002
2.135354e+002, 4.523223e+002
2.140175e+002, 4.520323e+002
2.144996e+002, 4.516158e+002
2.149817e+002, 4.510734e+002
2.154638e+002, 4.503618e+002
2.159460e+002, 4.494295e+002
2.164281e+002, 4.484168e+002
2.169102e+002, 4.473048e+002
2.173923e+002, 4.461472e+002
2.178744e+002, 4.451065e+002
2.183565e+002, 4.443848e+002
2.188387e+002, 4.440497e+002
2.193208e+002, 4.433184e+002
2.198029e+002, 4.416359e+002
2.202850e+002, 4.400482e+002
2.207671e+002, 4.392433e+002
2.212492e+002, 4.392101e+002
2.217314e+002, 4.394703e+002
2.222135e+002, 4.396991e+002
2.226956e+002, 4.398770e+002
2.231777e+002, 4.397427e+002
2.236598e+002, 4.391474e+002
2.241419e+002, 4.383558e+002
2.246240e+002, 4.375085e+002
2.251062e+002, 4.366235e+002
2.255883e+002, 4.357892e+002
2.260704e+002, 4.351695e+002
2.265525e+002, 4.346938e+002
2.270346e+002, 4.338658e+002
2.275167e+002, 4.322218e+002
2.279989e+002, 4.304857e+002
2.284810e+002, 4.293287e+002
2.289631e+002, 4.287910e+002
2.294452e+002, 4.285795e+002
2.299273e+002, 4.287406e+002
2.304094e+002, 4.290716e+002
2.308916e+002, 4.290014e+002
2.313737e+002, 4.276754e+002
2.318558e+002, 4.263279e+002
2.323379e+002, 4.267704e+002
2.328200e+002, 4.293147e+002
2.333021e+002, 4.314512e+002
2.337843e+002, 4.309328e+002
2.342664e+002, 4.290715e+002
2.347485e+002, 4.278306e+002
2.352306e+002, 4.279452e+002
2.357127e+002, 4.286817e+002
2.361948e+002, 4.291475e+002
2.366770e+002, 4.293642e+002
2.371591e+002, 4.292191e+002
2.376412e+002, 4.279332e+002
2.381233e+002, 4.264735e+002
2.386054e+002, 4.259743e+002
2.390875e+002, 4.269024e+002
2.395697e+002, 4.287711e+002
2.400518e+002, 4.315309e+002
2.405339e+002, 4.363062e+002
2.410160e+002, 4.382799e+002
2.414981e+002, 4.339516e+002
2.419802e+002, 4.267471e+002
2.424624e+002, 4.193154e+002
2.429445e+002, 4.123027e+002
2.434266e+002, 4.062630e+002
2.439087e+002, 4.023496e+002
2.443908e+002, 4.011800e+002
2.448729e+002, 4.005322e+002
2.453550e+002, 4.001328e+002
2.458372e+002, 3.997705e+002
2.463193e+002, 3.992277e+002
2.468014e+002, 3.984191e+002
2.472835e+002, 3.975283e+002
2.477656e+002, 3.968849e+002
2.482477e+002, 3.966241e+002
2.487299e+002, 3.962915e+002
2.492120e+002, 3.960363e+002
2.496941e+002, 3.955638e+002
2.501762e+002, 3.943946e+002
2.506583e+002, 3.924219e+002
2.511404e+002, 3.903813e+002
2.516226e+002, 3.896869e+002
2.521047e+002, 3.913760e+002
2.525868e+002, 3.920455e+002
2.530689e+002, 3.905429e+002
2.535510e+002, 3.886377e+002
2.540331e+002, 3.876664e+002
2.545153e+002, 3.879289e+002
2.549974e+002, 3.886661e+002
2.554795e+002, 3.886839e+002
2.559616e+002, 3.875172e+002
2.564437e+002, 3.866234e+002
2.569258e+002, 3.862646e+002
2.574080e+002, 3.859713e+002
2.578901e+002, 3.853993e+002
2.583722e+002, 3.845068e+002
2.588543e+002, 3.835237e+002
2.593364e+002, 3.827621e+002
2.598185e+002, 3.823121e+002
2.603007e+002, 3.818694e+002
2.607828e+002, 3.812823e+002
2.612649e+002, 3.808076e+002
2.617470e+002, 3.806373e+002
2.622291e+002, 3.807697e+002
2.627112e+002, 3.810538e+002
2.631934e+002, 3.813383e+002
2.636755e+002, 3.816660e+002
2.641576e+002, 3.818132e+002
2.646397e+002, 3.818684e+002
2.651218e+002, 3.817119e+002
2.656039e+002, 3.812769e+002
2.660861e+002, 3.805641e+002
2.665682e+002, 3.795968e+002
2.670503e+002, 3.783691e+002
2.675324e+002, 3.768302e+002
2.680145e+002, 3.753640e+002
2.684966e+002, 3.738262e+002
2.689788e+002, 3.724693e+002
2.694609e+002, 3.714582e+002
2.699430e+002, 3.707590e+002
2.704251e+002, 3.702392e+002
2.709072e+002, 3.698182e+002
2.713893e+002, 3.695070e+002
2.718715e+002, 3.690280e+002
2.723536e+002, 3.678609e+002
2.728357e+002, 3.670639e+002
2.733178e+002, 3.673678e+002
2.737999e+002, 3.684594e+002
2.742820e+002, 3.695062e+002
2.747642e+002, 3.699937e+002
2.752463e+002, 3.699261e+002
2.757284e+002, 3.692823e+002
2.762105e+002, 3.673277e+002
2.766926e+002, 3.657240e+002
2.771747e+002, 3.651967e+002
2.776568e+002, 3.654416e+002
2.781389e+002, 3.657846e+002
2.786211e+002, 3.658819e+002
2.791032e+002, 3.657685e+002
2.795853e+002, 3.655748e+002
2.800674e+002, 3.652607e+002
2.805495e+002, 3.649332e+002
2.810316e+002, 3.646811e+002
2.815138e+002, 3.644277e+002
2.819959e+002, 3.640229e+002
2.824780e+002, 3.633936e+002
2.829601e+002, 3.626089e+002
2.834422e+002, 3.618327e+002
2.839243e+002, 3.609337e+002
2.844065e+002, 3.602698e+002
2.848886e+002, 3.599673e+002
2.853707e+002, 3.599312e+002
2.858528e+002, 3.600972e+002
2.863349e+002, 3.604743e+002
2.868170e+002, 3.608613e+002
2.872992e+002, 3.608493e+002
2.877813e+002, 3.602482e+002
2.882634e+002, 3.599256e+002
2.887455e+002, 3.604303e+002
2.892276e+002, 3.611190e+002
2.897097e+002, 3.610917e+002
2.901919e+002, 3.601223e+002
2.906740e+002, 3.589052e+002
2.911561e+002, 3.582770e+002
2.916382e+002, 3.583134e+002
2.921203e+002, 3.584062e+002
2.926024e+002, 3.585989e+002
2.930846e+002, 3.587652e+002
2.935667e+002, 3.588072e+002
2.940488e+002, 3.587100e+002
2.945309e+002, 3.584349e+002
2.950130e+002, 3.578623e+002
2.954951e+002, 3.569942e+002
2.959773e+002, 3.563804e+002
2.964594e+002, 3.562242e+002
2.969415e+002, 3.561934e+002
2.974236e+002, 3.559390e+002
2.979057e+002, 3.554864e+002
2.983878e+002, 3.552914e+002
2.988700e+002, 3.558474e+002
2.993521e+002, 3.569504e+002
2.998342e+002, 3.573422e+002
3.003163e+002, 3.562574e+002
3.007984e+002, 3.551683e+002
3.012805e+002, 3.550717e+002
3.017627e+002, 3.557747e+002
3.022448e+002, 3.563896e+002
3.027269e+002, 3.565139e+002
3.032090e+002, 3.561725e+002
3.036911e+002, 3.554807e+002
3.041732e+002, 3.540873e+002
3.046554e+002, 3.529368e+002
3.051375e+002, 3.526043e+002
3.056196e+002, 3.528479e+002
3.061017e+002, 3.530585e+002
3.065838e+002, 3.530254e+002
3.070659e+002, 3.528259e+002
3.075481e+002, 3.525864e+002
3.080302e+002, 3.522945e+002
3.085123e+002, 3.520247e+002
3.089944e+002, 3.518339e+002
3.094765e+002, 3.516749e+002
3.099586e+002, 3.514033e+002
3.104408e+002, 3.509351e+002
3.109229e+002, 3.505576e+002
3.114050e+002, 3.507659e+002
3.118871e+002, 3.515739e+002
3.123692e+002, 3.522523e+002
3.128513e+002, 3.528420e+002
3.133335e+002, 3.531405e+002
3.138156e+002, 3.526346e+002
3.142977e+002, 3.512090e+002
3.147798e+002, 3.499846e+002
3.152619e+002, 3.502403e+002
3.157440e+002, 3.518561e+002
3.162262e+002, 3.527824e+002
3.167083e+002, 3.523517e+002
3.171904e+002, 3.515262e+002
3.176725e+002, 3.511234e+002
3.181546e+002, 3.511401e+002
3.186367e+002, 3.510506e+002
3.191188e+002, 3.503752e+002
3.196010e+002, 3.493277e+002
3.200831e+002, 3.488813e+002
3.205652e+002, 3.495634e+002
3.210473e+002, 3.503006e+002
3.215294e+002, 3.503957e+002
3.220115e+002, 3.500276e+002
3.224937e+002, 3.499073e+002
3.229758e+002, 3.505158e+002
3.234579e+002, 3.513893e+002
3.239400e+002, 3.512730e+002
3.244221e+002, 3.497233e+002
3.249042e+002, 3.483421e+002
3.253864e+002, 3.477452e+002
3.258685e+002, 3.476922e+002
3.263506e+002, 3.477986e+002
3.268327e+002, 3.479972e+002
3.273148e+002, 3.481286e+002
3.277969e+002, 3.478142e+002
3.282791e+002, 3.469092e+002
3.287612e+002, 3.464433e+002
3.292433e+002, 3.470197e+002
3.297254e+002, 3.479449e+002
3.302075e+002, 3.484137e+002
3.306896e+002, 3.482873e+002
3.311718e+002, 3.478976e+002
3.316539e+002, 3.475245e+002
3.321360e+002, 3.471705e+002
3.326181e+002, 3.468697e+002
3.331002e+002, 3.467221e+002
3.335823e+002, 3.465549e+002
3.340645e+002, 3.460949e+002
3.345466e+002, 3.454115e+002
3.350287e+002, 3.450191e+002
3.355108e+002, 3.453743e+002
3.359929e+002, 3.463368e+002
3.364750e+002, 3.468271e+002
3.369572e+002, 3.466336e+002
3.374393e+002, 3.462572e+002
3.379214e+002, 3.457364e+002
3.384035e+002, 3.451851e+002
3.388856e+002, 3.449055e+002
3.393677e+002, 3.450736e+002
3.398499e+002, 3.455108e+002
3.403320e+002, 3.457411e+002
3.408141e+002, 3.457310e+002
3.412962e+002, 3.456142e+002
3.417783e+002, 3.454101e+002
3.422604e+002, 3.451139e+002
3.427426e+002, 3.446646e+002
3.432247e+002, 3.440461e+002
3.437068e+002, 3.434326e+002
3.441889e+002, 3.430809e+002
3.446710e+002, 3.431208e+002
3.451531e+002, 3.430731e+002
3.456353e+002, 3.428259e+002
3.461174e+002, 3.425694e+002
3.465995e+002, 3.424652e+002
3.470816e+002, 3.425169e+002
3.475637e+002, 3.426270e+002
3.480458e+002, 3.427440e+002
3.485280e+002, 3.428763e+002
3.490101e+002, 3.426922e+002
3.494922e+002, 3.419780e+002
3.499743e+002, 3.412232e+002
3.504564e+002, 3.404877e+002
3.509385e+002, 3.398780e+002
3.514207e+002, 3.396467e+002
3.519028e+002, 3.399873e+002
3.523849e+002, 3.407227e+002
3.528670e+002, 3.410886e+002
3.533491e+002, 3.406806e+002
3.538312e+002, 3.404076e+002
3.543134e+002, 3.405561e+002
3.547955e+002, 3.408269e+002
3.552776e+002, 3.408845e+002
3.557597e+002, 3.406096e+002
3.562418e+002, 3.400797e+002
3.567239e+002, 3.393957e+002
3.572061e+002, 3.383376e+002
3.576882e+002, 3.375946e+002
3.581703e+002, 3.372317e+002
3.586524e+002, 3.370979e+002
3.591345e+002, 3.372204e+002
3.596166e+002, 3.375203e+002
3.600987e+002, 3.377398e+002
3.605808e+002, 3.376106e+002
3.610630e+002, 3.370888e+002
3.615451e+002, 3.366265e+002
3.620272e+002, 3.361763e+002
3.625093e+002, 3.358280e+002
3.629914e+002, 3.356043e+002
3.634735e+002, 3.355055e+002
3.639557e+002, 3.355934e+002
3.644378e+002, 3.359389e+002
3.649199e+002, 3.363996e+002
3.654020e+002, 3.363519e+002
3.658841e+002, 3.353777e+002
3.663662e+002, 3.344383e+002
3.668484e+002, 3.335183e+002
3.673305e+002, 3.327528e+002
3.678126e+002, 3.323447e+002
3.682947e+002, 3.323380e+002
3.687768e+002, 3.324721e+002
3.692589e+002, 3.323165e+002
3.697411e+002, 3.317178e+002
3.702232e+002, 3.312483e+002
3.707053e+002, 3.311004e+002
3.711874e+002, 3.309317e+002
3.716695e+002, 3.304529e+002
3.721516e+002, 3.297384e+002
3.726338e+002, 3.291450e+002
3.731159e+002, 3.290526e+002
3.735980e+002, 3.294397e+002
3.740801e+002, 3.295931e+002
3.745622e+002, 3.293909e+002
3.750443e+002, 3.290789e+002
3.755265e+002, 3.287538e+002
3.760086e+002, 3.283778e+002
3.764907e+002, 3.278737e+002
3.769728e+002, 3.271778e+002
3.774549e+002, 3.263872e+002
3.779370e+002, 3.256640e+002
3.784192e+002, 3.249168e+002
3.789013e+002, 3.245091e+002
3.793834e+002, 3.250660e+002
3.798655e+002, 3.256806e+002
3.803476e+002, 3.255101e+002
3.808297e+002, 3.243992e+002
3.813119e+002, 3.231634e+002
3.817940e+002, 3.227423e+002
3.822761e+002, 3.231137e+002
3.827582e+002, 3.231352e+002
3.832403e+002, 3.223656e+002
3.837224e+002, 3.215667e+002
3.842046e+002, 3.212643e+002
3.846867e+002, 3.213701e+002
3.851688e+002, 3.215391e+002
3.856509e+002, 3.217455e+002
3.861330e+002, 3.218601e+002
3.866151e+002, 3.214767e+002
3.870973e+002, 3.204299e+002
3.875794e+002, 3.194826e+002
3.880615e+002, 3.192187e+002
3.885436e+002, 3.192855e+002
3.890257e+002, 3.192015e+002
3.895078e+002, 3.188556e+002
3.899900e+002, 3.183754e+002
3.904721e+002, 3.177774e+002
3.909542e+002, 3.170920e+002
3.914363e+002, 3.165877e+002
3.919184e+002, 3.163650e+002
3.924005e+002, 3.163545e+002
3.928827e+002, 3.165612e+002
3.933648e+002, 3.170323e+002
3.938469e+002, 3.171964e+002
3.943290e+002, 3.166723e+002
3.948111e+002, 3.157556e+002
3.952932e+002, 3.148853e+002
3.957754e+002, 3.141146e+002
3.962575e+002, 3.134125e+002
3.967396e+002, 3.126800e+002
3.972217e+002, 3.119673e+002
3.977038e+002, 3.116322e+002
3.981859e+002, 3.122307e+002
3.986681e+002, 3.127357e+002
3.991501e+002, 3.123143e+002
3.996323e+002, 3.111834e+002
4.001144e+002, 3.101641e+002
4.005965e+002, 3.096724e+002
4.010786e+002, 3.095451e+002
4.015607e+002, 3.093347e+002
4.020428e+002, 3.090143e+002
4.025250e+002, 3.086687e+002
4.030071e+002, 3.083227e+002
4.034892e+002, 3.079518e+002
4.039713e+002, 3.075359e+002
4.044534e+002, 3.070700e+002
4.049355e+002, 3.065362e+002
4.054177e+002, 3.058841e+002
4.058998e+002, 3.050473e+002
4.063819e+002, 3.044734e+002
4.068640e+002, 3.044478e+002
4.073461e+002, 3.043823e+002
4.078282e+002, 3.039264e+002
4.083104e+002, 3.031862e+002
4.087925e+002, 3.024351e+002
4.092746e+002, 3.018147e+002
4.097567e+002, 3.013696e+002
4.102388e+002, 3.013078e+002
4.107209e+002, 3.024048e+002
4.112031e+002, 3.028615e+002
4.116852e+002, 3.019599e+002
4.121673e+002, 3.006775e+002
4.126494e+002, 3.000493e+002
4.131315e+002, 3.002962e+002
4.136136e+002, 3.007388e+002
4.140958e+002, 3.004162e+002
4.145779e+002, 2.990714e+002
4.150600e+002, 2.979864e+002
4.155421e+002, 2.970332e+002
4.160242e+002, 2.964808e+002
4.165063e+002, 2.968913e+002
4.169885e+002, 2.978150e+002
4.174706e+002, 2.981538e+002
4.179527e+002, 2.969914e+002
4.184348e+002, 2.949348e+002
4.189169e+002, 2.941978e+002
4.193990e+002, 2.955201e+002
4.198812e+002, 2.965345e+002
4.203633e+002, 2.963776e+002
4.208454e+002, 2.956764e+002
4.213275e+002, 2.948871e+002
4.218096e+002, 2.941094e+002
4.222917e+002, 2.934671e+002
4.227739e+002, 2.931649e+002
4.232560e+002, 2.931823e+002
4.237381e+002, 2.930903e+002
4.242202e+002, 2.927944e+002
4.247023e+002, 2.924104e+002
4.251844e+002, 2.919780e+002
4.256666e+002, 2.915252e+002
4.261487e+002, 2.911567e+002
4.266308e+002, 2.909357e+002
4.271129e+002, 2.908149e+002
4.275950e+002, 2.906477e+002
4.280771e+002, 2.904124e+002
4.285593e+002, 2.905485e+002
4.290414e+002, 2.917138e+002
4.295235e+002, 2.931715e+002
4.300056e+002, 2.933158e+002
4.304877e+002, 2.916187e+002
4.309698e+002, 2.898049e+002
4.314520e+002, 2.886587e+002
4.319341e+002, 2.880130e+002
4.324162e+002, 2.876308e+002
4.328983e+002, 2.875001e+002
4.333804e+002, 2.873079e+002
4.338625e+002, 2.866281e+002
4.343447e+002, 2.853722e+002
4.348268e+002, 2.843480e+002
4.353089e+002, 2.836055e+002
4.357910e+002, 2.830799e+002
4.362731e+002, 2.828385e+002
4.367552e+002, 2.827992e+002
4.372374e+002, 2.827480e+002
4.377195e+002, 2.825796e+002
4.382016e+002, 2.822692e+002
4.386837e+002, 2.817211e+002
4.391658e+002, 2.804970e+002
4.396479e+002, 2.795971e+002
4.401301e+002, 2.792592e+002
4.406122e+002, 2.791806e+002
4.410943e+002, 2.791543e+002
4.415764e+002, 2.791036e+002
4.420585e+002, 2.789606e+002
4.425406e+002, 2.786342e+002
4.430227e+002, 2.780958e+002
4.435049e+002, 2.775869e+002
4.439870e+002, 2.770851e+002
4.444691e+002, 2.766406e+002
4.449512e+002, 2.762505e+002
4.454333e+002, 2.759362e+002
4.459154e+002, 2.757709e+002
4.463976e+002, 2.758190e+002
4.468797e+002, 2.759080e+002
4.473618e+002, 2.755718e+002
4.478439e+002, 2.745571e+002
4.483260e+002, 2.738740e+002
4.488081e+002, 2.741436e+002
4.492903e+002, 2.744814e+002
4.497724e+002, 2.742879e+002
4.502545e+002, 2.735565e+002
4.507366e+002, 2.727363e+002
4.512187e+002, 2.720655e+002
4.517008e+002, 2.715685e+002
4.521830e+002, 2.714897e+002
4.526651e+002, 2.720962e+002
4.531472e+002, 2.724593e+002
4.536293e+002, 2.717804e+002
4.541114e+002, 2.705673e+002
4.545935e+002, 2.694696e+002
4.550757e+002, 2.685468e+002
4.555578e+002, 2.679221e+002
4.560399e+002, 2.679226e+002
4.565220e+002, 2.683724e+002
4.570041e+002, 2.684365e+002
4.574862e+002, 2.677521e+002
4.579684e+002, 2.668749e+002
4.584505e+002, 2.666196e+002
4.589326e+002, 2.669828e+002
4.594147e+002, 2.671234e+002
4.598968e+002, 2.666813e+002
4.603789e+002, 2.661107e+002
4.608611e+002, 2.658268e+002
4.613432e+002, 2.658083e+002
4.618253e+002, 2.657804e+002
4.623074e+002, 2.655629e+002
4.627895e+002, 2.652195e+002
4.632716e+002, 2.650112e+002
4.637538e+002, 2.652785e+002
4.642359e+002, 2.652292e+002
4.647180e+002, 2.645068e+002
4.652001e+002, 2.635675e+002
4.656822e+002, 2.629042e+002
4.661643e+002, 2.625941e+002
4.666465e+002, 2.623553e+002
4.671286e+002, 2.618691e+002
4.676107e+002, 2.610944e+002
4.680928e+002, 2.604200e+002
4.685749e+002, 2.600327e+002
4.690570e+002, 2.595410e+002
4.695392e+002, 2.587201e+002
4.700213e+002, 2.577594e+002
4.705034e+002, 2.569503e+002
4.709855e+002, 2.564222e+002
4.714676e+002, 2.560604e+002
4.719497e+002, 2.556074e+002
4.724319e+002, 2.549615e+002
4.729140e+002, 2.546869e+002
4.733961e+002, 2.554387e+002
4.738782e+002, 2.560954e+002
4.743603e+002, 2.559843e+002
4.748424e+002, 2.551882e+002
4.753246e+002, 2.541838e+002
4.758067e+002, 2.530321e+002
4.762888e+002, 2.519445e+002
4.767709e+002, 2.514706e+002
4.772530e+002, 2.517105e+002
4.777351e+002, 2.519480e+002
4.782173e+002, 2.518267e+002
4.786994e+002, 2.515171e+002
4.791815e+002, 2.513326e+002
4.796636e+002, 2.513614e+002
4.801457e+002, 2.512349e+002
4.806278e+002, 2.506406e+002
4.811100e+002, 2.497969e+002
4.815920e+002, 2.490410e+002
4.820742e+002, 2.484241e+002
4.825563e+002, 2.480725e+002
4.830384e+002, 2.482632e+002
4.835205e+002, 2.489552e+002
4.840026e+002, 2.488651e+002
4.844847e+002, 2.472163e+002
4.849669e+002, 2.456778e+002
4.854490e+002, 2.449212e+002
4.859311e+002, 2.447331e+002
4.864132e+002, 2.447747e+002
4.868953e+002, 2.449144e+002
4.873774e+002, 2.450668e+002
4.878596e+002, 2.451074e+002
4.883417e+002, 2.450918e+002
4.888238e+002, 2.447896e+002
4.893059e+002, 2.438034e+002
4.897880e+002, 2.429598e+002
4.902701e+002, 2.427857e+002
4.907523e+002, 2.430793e+002
4.912344e+002, 2.433413e+002
4.917165e+002, 2.432766e+002
4.921986e+002, 2.429688e+002
4.926807e+002, 2.426242e+002
4.931628e+002, 2.422117e+002
4.936450e+002, 2.418538e+002
4.941271e+002, 2.417311e+002
4.946092e+002, 2.415621e+002
4.950913e+002, 2.410882e+002
4.955734e+002, 2.403313e+002
4.960555e+002, 2.396089e+002
4.965377e+002, 2.391035e+002
4.970198e+002, 2.388057e+002
4.975019e+002, 2.388315e+002
4.979840e+002, 2.393198e+002
4.984661e+002, 2.394514e+002
4.989482e+002, 2.384192e+002
4.994304e+002, 2.368694e+002
4.999125e+002, 2.360850e+002
5.003946e+002, 2.364007e+002
5.008767e+002, 2.368109e+002
5.013588e+002, 2.368122e+002
5.018409e+002, 2.365741e+002
5.023231e+002, 2.363648e+002
5.028052e+002, 2.362384e+002
5.032873e+002, 2.362314e+002
5.037694e+002, 2.364467e+002
5.042515e+002, 2.368971e+002
5.047336e+002, 2.369257e+002
5.052158e+002, 2.359922e+002
5.056979e+002, 2.352889e+002
5.061800e+002, 2.356749e+002
5.066621e+002, 2.364332e+002
5.071442e+002, 2.363320e+002
5.076263e+002, 2.349604e+002
5.081085e+002, 2.331325e+002
5.085906e+002, 2.321375e+002
5.090727e+002, 2.322580e+002
5.095548e+002, 2.321840e+002
5.100369e+002, 2.316926e+002
5.105190e+002, 2.312272e+002
5.110012e+002, 2.309320e+002
5.114833e+002, 2.307883e+002
5.119654e+002, 2.307841e+002
5.124475e+002, 2.309642e+002
5.129296e+002, 2.311116e+002
5.134117e+002, 2.307611e+002
5.138939e+002, 2.298335e+002
5.143760e+002, 2.290089e+002
5.148581e+002, 2.284377e+002
5.153402e+002, 2.280173e+002
5.158223e+002, 2.277594e+002
5.163044e+002, 2.276139e+002
5.167866e+002, 2.272663e+002
5.172687e+002, 2.262902e+002
5.177508e+002, 2.252082e+002
5.182329e+002, 2.248312e+002
5.187150e+002, 2.251065e+002
5.191971e+002, 2.251693e+002
5.196793e+002, 2.245359e+002
5.201614e+002, 2.235357e+002
5.206435e+002, 2.229095e+002
5.211256e+002, 2.226645e+002
5.216077e+002, 2.226505e+002
5.220898e+002, 2.232590e+002
5.225720e+002, 2.237993e+002
5.230541e+002, 2.234655e+002
5.235362e+002, 2.223771e+002
5.240183e+002, 2.213956e+002
5.245004e+002, 2.211709e+002
5.249825e+002, 2.215323e+002
5.254647e+002, 2.215887e+002
5.259468e+002, 2.211044e+002
5.264289e+002, 2.206356e+002
5.269110e+002, 2.202005e+002
5.273931e+002, 2.198195e+002
5.278752e+002, 2.195637e+002
5.283574e+002, 2.194063e+002
5.288395e+002, 2.191850e+002
5.293216e+002, 2.187025e+002
5.298037e+002, 2.180241e+002
5.302858e+002, 2.175384e+002
5.307679e+002, 2.172614e+002
5.312501e+002, 2.171458e+002
5.317322e+002, 2.174597e+002
5.322143e+002, 2.177868e+002
5.326964e+002, 2.176019e+002
5.331785e+002, 2.167510e+002
5.336606e+002, 2.159219e+002
5.341428e+002, 2.156424e+002
5.346249e+002, 2.156876e+002
5.351070e+002, 2.155344e+002
5.355891e+002, 2.150983e+002
5.360712e+002, 2.147053e+002
5.365533e+002, 2.146056e+002
5.370355e+002, 2.147656e+002
5.375176e+002, 2.149331e+002
5.379997e+002, 2.152332e+002
5.384818e+002, 2.153896e+002
5.389639e+002, 2.153538e+002
5.394460e+002, 2.151187e+002
5.399282e+002, 2.146096e+002
5.404103e+002, 2.138438e+002
5.408924e+002, 2.130061e+002
5.413745e+002, 2.122697e+002
5.418566e+002, 2.116308e+002
5.423387e+002, 2.112300e+002
5.428209e+002, 2.115970e+002
5.433029e+002, 2.115618e+002
5.437850e+002, 2.105342e+002
5.442672e+002, 2.091586e+002
5.447493e+002, 2.081926e+002
5.452314e+002, 2.078284e+002
5.457135e+002, 2.076387e+002
5.461956e+002, 2.071157e+002
5.466777e+002, 2.063024e+002
5.471599e+002, 2.057606e+002
5.476420e+002, 2.056189e+002
5.481241e+002, 2.055399e+002
5.486062e+002, 2.053091e+002
5.490883e+002, 2.050046e+002
5.495704e+002, 2.047285e+002
5.500526e+002, 2.044427e+002
5.505347e+002, 2.043088e+002
5.510168e+002, 2.047405e+002
5.514989e+002, 2.053419e+002
5.519810e+002, 2.051392e+002
5.524631e+002, 2.039120e+002
5.529453e+002, 2.025391e+002
5.534274e+002, 2.018483e+002
5.539095e+002, 2.018424e+002
5.543916e+002, 2.017303e+002
5.548737e+002, 2.014261e+002
5.553558e+002, 2.011342e+002
5.558380e+002, 2.010387e+002
5.563201e+002, 2.009268e+002
5.568022e+002, 2.003835e+002
5.572843e+002, 1.993740e+002
5.577664e+002, 1.984982e+002
5.582485e+002, 1.985916e+002
5.587307e+002, 1.997127e+002
5.592128e+002, 2.001104e+002
5.596949e+002, 1.993658e+002
5.601770e+002, 1.984622e+002
5.606591e+002, 1.975229e+002
5.611412e+002, 1.967229e+002
5.616234e+002, 1.963281e+002
5.621055e+002, 1.964347e+002
5.625876e+002, 1.966417e+002
5.630697e+002, 1.964524e+002
5.635518e+002, 1.960718e+002
5.640339e+002, 1.963743e+002
5.645161e+002, 1.976436e+002
5.649982e+002, 1.986371e+002
5.654803e+002, 1.982729e+002
5.659624e+002, 1.968825e+002
5.664445e+002, 1.960623e+002
5.669266e+002, 1.961376e+002
5.674088e+002, 1.963125e+002
5.678909e+002, 1.962696e+002
5.683730e+002, 1.961987e+002
5.688551e+002, 1.964710e+002
5.693372e+002, 1.970805e+002
5.698193e+002, 1.975015e+002
5.703015e+002, 1.971839e+002
5.707836e+002, 1.961812e+002
5.712657e+002, 1.955705e+002
5.717478e+002, 1.957598e+002
5.722299e+002, 1.957989e+002
5.727120e+002, 1.953786e+002
5.731942e+002, 1.948504e+002
5.736763e+002, 1.945579e+002
5.741584e+002, 1.945429e+002
5.746405e+002, 1.945857e+002
5.751226e+002, 1.944621e+002
5.756047e+002, 1.942322e+002
5.760869e+002, 1.941990e+002
5.765690e+002, 1.944383e+002
5.770511e+002, 1.945431e+002
5.775332e+002, 1.941858e+002
5.780153e+002, 1.936571e+002
5.784974e+002, 1.934840e+002
5.789796e+002, 1.937941e+002
5.794617e+002, 1.939185e+002
5.799438e+002, 1.932798e+002
5.804259e+002, 1.925178e+002
5.809080e+002, 1.925437e+002
5.813901e+002, 1.932847e+002
5.818723e+002, 1.938097e+002
5.823544e+002, 1.934904e+002
5.828365e+002, 1.926015e+002
5.833186e+002, 1.920766e+002
5.838007e+002, 1.921945e+002
5.842828e+002, 1.922688e+002
5.847650e+002, 1.923163e+002
5.852471e+002, 1.922976e+002
5.857292e+002, 1.921883e+002
5.862113e+002, 1.919901e+002
5.866934e+002, 1.916944e+002
5.871755e+002, 1.912553e+002
5.876577e+002, 1.907922e+002
5.881398e+002, 1.906076e+002
5.886219e+002, 1.907382e+002
5.891040e+002, 1.909032e+002
5.895861e+002, 1.910901e+002
5.900682e+002, 1.912278e+002
5.905504e+002, 1.912096e+002
5.910325e+002, 1.910659e+002
5.915146e+002, 1.910010e+002
5.919967e+002, 1.912067e+002
5.924788e+002, 1.914052e+002
5.929609e+002, 1.912867e+002
5.934431e+002, 1.909593e+002
5.939252e+002, 1.907688e+002
5.944073e+002, 1.908486e+002
5.948894e+002, 1.910292e+002
5.953715e+002, 1.910808e+002
5.958536e+002, 1.909877e+002
5.963358e+002, 1.908294e+002
5.968179e+002, 1.904204e+002
5.973000e+002, 1.901613e+002
5.977821e+002, 1.902258e+002
5.982642e+002, 1.905162e+002
5.987463e+002, 1.909402e+002
5.992285e+002, 1.914568e+002
5.997106e+002, 1.919230e+002
6.001927e+002, 1.920498e+002
6.006748e+002, 1.918623e+002
6.011569e+002, 1.921314e+002
6.016390e+002, 1.931268e+002
6.021212e+002, 1.940723e+002
6.026033e+002, 1.946882e+002
6.030854e+002, 1.949138e+002
6.035675e+002, 1.945288e+002
6.040496e+002, 1.933254e+002
6.045317e+002, 1.920532e+002
6.050139e+002, 1.910326e+002
6.054960e+002, 1.901954e+002
6.059781e+002, 1.893799e+002
6.064602e+002, 1.885987e+002
6.069423e+002, 1.881557e+002
6.074244e+002, 1.883332e+002
6.079066e+002, 1.889614e+002
6.083887e+002, 1.892716e+002
6.088708e+002, 1.890783e+002
6.093529e+002, 1.888105e+002
6.098350e+002, 1.883853e+002
6.103171e+002, 1.879761e+002
6.107993e+002, 1.877056e+002
6.112814e+002, 1.875659e+002
6.117635e+002, 1.874876e+002
6.122456e+002, 1.874448e+002
6.127277e+002, 1.874068e+002
6.132098e+002, 1.872883e+002
6.136920e+002, 1.870768e+002
6.141741e+002, 1.869117e+002
6.146562e+002, 1.867908e+002
6.151383e+002, 1.867737e+002
6.156204e+002, 1.870509e+002
6.161025e+002, 1.875452e+002
6.165847e+002, 1.877397e+002
6.170668e+002, 1.874225e+002
6.175489e+002, 1.868816e+002
6.180310e+002, 1.859727e+002
6.185131e+002, 1.850329e+002
6.189952e+002, 1.849202e+002
6.194774e+002, 1.858533e+002
6.199595e+002, 1.868681e+002
6.204416e+002, 1.867365e+002
6.209237e+002, 1.853363e+002
6.214058e+002, 1.846604e+002
6.218879e+002, 1.854382e+002
6.223701e+002, 1.860686e+002
6.228522e+002, 1.861978e+002
6.233343e+002, 1.860371e+002
6.238164e+002, 1.857504e+002
6.242985e+002, 1.853917e+002
6.247806e+002, 1.850626e+002
6.252628e+002, 1.847588e+002
6.257448e+002, 1.845604e+002
6.262269e+002, 1.848029e+002
6.267090e+002, 1.855436e+002
6.271912e+002, 1.860820e+002
6.276733e+002, 1.859899e+002
6.281554e+002, 1.856170e+002
6.286375e+002, 1.857047e+002
6.291196e+002, 1.864059e+002
6.296017e+002, 1.867631e+002
6.300839e+002, 1.863107e+002
6.305660e+002, 1.857609e+002
6.310481e+002, 1.856569e+002
6.315302e+002, 1.858558e+002
6.320123e+002, 1.859020e+002
6.324944e+002, 1.855857e+002
6.329766e+002, 1.851731e+002
6.334587e+002, 1.851740e+002
6.339408e+002, 1.857195e+002
6.344229e+002, 1.859843e+002
6.349050e+002, 1.856513e+002
6.353871e+002, 1.854386e+002
6.358693e+002, 1.858333e+002
6.363514e+002, 1.864779e+002
6.368335e+002, 1.867320e+002
6.373156e+002, 1.863113e+002
6.377977e+002, 1.861063e+002
6.382798e+002, 1.873017e+002
6.387620e+002, 1.889806e+002
6.392441e+002, 1.891889e+002
6.397262e+002, 1.877538e+002
6.402083e+002, 1.862119e+002
6.406904e+002, 1.855204e+002
6.411725e+002, 1.855041e+002
6.416547e+002, 1.855789e+002
6.421368e+002, 1.857659e+002
6.426189e+002, 1.860212e+002
6.431010e+002, 1.867492e+002
6.435831e+002, 1.871867e+002
6.440652e+002, 1.865882e+002
6.445474e+002, 1.852987e+002
6.450295e+002, 1.842122e+002
6.455116e+002, 1.837937e+002
6.459937e+002, 1.838243e+002
6.464758e+002, 1.840702e+002
6.469579e+002, 1.845282e+002
6.474401e+002, 1.848136e+002
6.479222e+002, 1.848993e+002
6.484043e+002, 1.847335e+002
6.488864e+002, 1.840000e+002
6.493685e+002, 1.829780e+002
6.498506e+002, 1.825887e+002
6.503328e+002, 1.833650e+002
6.508149e+002, 1.840650e+002
6.512970e+002, 1.841140e+002
6.517791e+002, 1.838738e+002
6.522612e+002, 1.837382e+002
6.527433e+002, 1.837672e+002
6.532255e+002, 1.838870e+002
6.537076e+002, 1.840665e+002
6.541897e+002, 1.842427e+002
6.546718e+002, 1.841552e+002
6.551539e+002, 1.836633e+002
6.556360e+002, 1.832455e+002
6.561182e+002, 1.828770e+002
6.566003e+002, 1.826800e+002
6.570824e+002, 1.827750e+002
6.575645e+002, 1.831061e+002
6.580466e+002, 1.835270e+002
6.585287e+002, 1.841230e+002
6.590109e+002, 1.845630e+002
6.594930e+002, 1.844292e+002
6.599751e+002, 1.838912e+002
6.604572e+002, 1.833592e+002
6.609393e+002, 1.829156e+002
6.614214e+002, 1.827089e+002
6.619036e+002, 1.829455e+002
6.623857e+002, 1.835558e+002
6.628678e+002, 1.837784e+002
6.633499e+002, 1.832847e+002
6.638320e+002, 1.828345e+002
6.643141e+002, 1.824660e+002
6.647963e+002, 1.821852e+002
6.652784e+002, 1.820505e+002
6.657605e+002, 1.820161e+002
6.662426e+002, 1.819280e+002
6.667247e+002, 1.816743e+002
6.672068e+002, 1.813412e+002
6.676890e+002, 1.811150e+002
6.681711e+002, 1.809895e+002
6.686532e+002, 1.806763e+002
6.691353e+002, 1.799888e+002
6.696174e+002, 1.794025e+002
6.700995e+002, 1.794667e+002
6.705817e+002, 1.801065e+002
6.710638e+002, 1.804795e+002
6.715459e+002, 1.804182e+002
6.720280e+002, 1.802773e+002
6.725101e+002, 1.800206e+002
6.729922e+002, 1.798266e+002
6.734744e+002, 1.800336e+002
6.739565e+002, 1.805674e+002
6.744386e+002, 1.808804e+002
6.749207e+002, 1.805004e+002
6.754028e+002, 1.796839e+002
6.758849e+002, 1.792199e+002
6.763671e+002, 1.790938e+002
6.768492e+002, 1.794512e+002
6.773313e+002, 1.809894e+002
6.778134e+002, 1.822580e+002
6.782955e+002, 1.816519e+002
6.787776e+002, 1.797728e+002
6.792598e+002, 1.788308e+002
6.797419e+002, 1.803477e+002
6.802240e+002, 1.816114e+002
6.807061e+002, 1.804993e+002
6.811882e+002, 1.783064e+002
6.816703e+002, 1.771529e+002
6.821525e+002, 1.773387e+002
6.826346e+002, 1.776857e+002
6.831167e+002, 1.771908e+002
6.835988e+002, 1.761085e+002
6.840809e+002, 1.757683e+002
6.845630e+002, 1.767471e+002
6.850452e+002, 1.772074e+002
6.855273e+002, 1.762563e+002
6.860094e+002, 1.752920e+002
6.864915e+002, 1.752319e+002
6.869736e+002, 1.758391e+002
6.874557e+002, 1.763083e+002
6.879379e+002, 1.763470e+002
6.884200e+002, 1.761342e+002
6.889021e+002, 1.756481e+002
6.893842e+002, 1.750589e+002
6.898663e+002, 1.748211e+002
6.903484e+002, 1.750081e+002
6.908306e+002, 1.752712e+002
6.913127e+002, 1.753538e+002
6.917948e+002, 1.752736e+002
6.922769e+002, 1.751193e+002
6.927590e+002, 1.748655e+002
6.932411e+002, 1.745758e+002
6.937233e+002, 1.741858e+002
6.942054e+002, 1.738297e+002
6.946875e+002, 1.734961e+002
6.951696e+002, 1.732693e+002
6.956517e+002, 1.733951e+002
6.961339e+002, 1.741086e+002
6.966160e+002, 1.748120e+002
6.970981e+002, 1.747102e+002
6.975802e+002, 1.740337e+002
6.980623e+002, 1.736051e+002
6.985444e+002, 1.735589e+002
6.990266e+002, 1.735968e+002
6.995087e+002, 1.734872e+002
6.999908e+002, 1.733135e+002
7.004729e+002, 1.734049e+002
7.009550e+002, 1.742515e+002
7.014371e+002, 1.745987e+002
7.019193e+002, 1.739783e+002
7.024014e+002, 1.732720e+002
7.028835e+002, 1.729422e+002
7.033656e+002, 1.729656e+002
7.038477e+002, 1.732247e+002
7.043298e+002, 1.736912e+002
7.048120e+002, 1.741699e+002
7.052941e+002, 1.744314e+002
7.057762e+002, 1.744948e+002
7.062583e+002, 1.744350e+002
7.067404e+002, 1.742495e+002
7.072225e+002, 1.740159e+002
7.077046e+002, 1.737999e+002
7.081867e+002, 1.735479e+002
7.086688e+002, 1.730679e+002
7.091509e+002, 1.720839e+002
7.096331e+002, 1.715834e+002
7.101152e+002, 1.721202e+002
7.105973e+002, 1.726770e+002
7.110794e+002, 1.724424e+002
7.115615e+002, 1.718516e+002
7.120436e+002, 1.718048e+002
7.125258e+002, 1.726181e+002
7.130079e+002, 1.736510e+002
7.134900e+002, 1.741810e+002
7.139721e+002, 1.742818e+002
7.144542e+002, 1.743420e+002
7.149363e+002, 1.743541e+002
7.154185e+002, 1.744395e+002
7.159006e+002, 1.746581e+002
7.163827e+002, 1.749756e+002
7.168648e+002, 1.753715e+002
7.173469e+002, 1.758786e+002
7.178290e+002, 1.762612e+002
7.183112e+002, 1.764337e+002
7.187933e+002, 1.765470e+002
7.192754e+002, 1.766228e+002
7.197575e+002, 1.767086e+002
7.202396e+002, 1.768135e+002
7.207217e+002, 1.769642e+002
7.212039e+002, 1.773109e+002
7.216860e+002, 1.781047e+002
7.221681e+002, 1.791921e+002
7.226502e+002, 1.799440e+002
7.231323e+002, 1.803349e+002
7.236144e+002, 1.806362e+002
7.240966e+002, 1.809030e+002
7.245787e+002, 1.811542e+002
7.250608e+002, 1.813073e+002
7.255429e+002, 1.813753e+002
7.260250e+002, 1.819046e+002
7.265071e+002, 1.835712e+002
7.269893e+002, 1.849335e+002
7.274714e+002, 1.852426e+002
7.279535e+002, 1.851138e+002
7.284356e+002, 1.852500e+002
7.289177e+002, 1.857148e+002
7.293998e+002, 1.861030e+002
7.298820e+002, 1.860664e+002
7.303641e+002, 1.858531e+002
7.308462e+002, 1.861424e+002
7.313283e+002, 1.869613e+002
7.318104e+002, 1.874394e+002
7.322925e+002, 1.873556e+002
7.327747e+002, 1.870130e+002
7.332568e+002, 1.865461e+002
7.337389e+002, 1.860124e+002
7.342210e+002, 1.856959e+002
7.347031e+002, 1.856571e+002
7.351852e+002, 1.857380e+002
7.356674e+002, 1.859773e+002
7.361495e+002, 1.862665e+002
7.366316e+002, 1.864982e+002
7.371137e+002, 1.867011e+002
7.375958e+002, 1.870494e+002
7.380779e+002, 1.876621e+002
7.385601e+002, 1.881633e+002
7.390422e+002, 1.878020e+002
7.395243e+002, 1.867067e+002
7.400064e+002, 1.861596e+002
7.404885e+002, 1.863505e+002
7.409706e+002, 1.867077e+002
7.414528e+002, 1.870117e+002
7.419349e+002, 1.872138e+002
7.424170e+002, 1.871898e+002
7.428991e+002, 1.869118e+002
7.433812e+002, 1.865380e+002
7.438633e+002, 1.859644e+002
7.443455e+002, 1.854208e+002
7.448276e+002, 1.848803e+002
7.453097e+002, 1.845074e+002
7.457918e+002, 1.847129e+002
7.462739e+002, 1.855355e+002
7.467560e+002, 1.862092e+002
7.472382e+002, 1.858519e+002
7.477203e+002, 1.847930e+002
7.482024e+002, 1.840452e+002
7.486845e+002, 1.836154e+002
7.491666e+002, 1.831644e+002
7.496487e+002, 1.825457e+002
7.501309e+002, 1.819424e+002
7.506130e+002, 1.815429e+002
7.510951e+002, 1.813519e+002
7.515772e+002, 1.813746e+002
7.520593e+002, 1.816267e+002
7.525414e+002, 1.820476e+002
7.530236e+002, 1.825574e+002
7.535057e+002, 1.832768e+002
7.539878e+002, 1.844474e+002
7.544699e+002, 1.859565e+002
7.549520e+002, 1.873886e+002
7.554341e+002, 1.885496e+002
7.559163e+002, 1.894442e+002
7.563984e+002, 1.900359e+002
7.568805e+002, 1.903596e+002
7.573626e+002, 1.904911e+002
7.578447e+002, 1.904244e+002
7.583268e+002, 1.904346e+002
7.588090e+002, 1.906512e+002
7.592911e+002, 1.911579e+002
7.597732e+002, 1.922421e+002
7.602553e+002, 1.942125e+002
7.607374e+002, 1.962316e+002
7.612195e+002, 1.981190e+002
7.617017e+002, 2.002385e+002
7.621838e+002, 2.023878e+002
7.626659e+002, 2.050146e+002
7.631480e+002, 2.088779e+002
7.636301e+002, 2.142003e+002
7.641122e+002, 2.202390e+002
7.645944e+002, 2.262297e+002
7.650765e+002, 2.327034e+002
7.655586e+002, 2.410926e+002
7.660407e+002, 2.510082e+002
7.665228e+002, 2.606100e+002
7.670049e+002, 2.694210e+002
7.674871e+002, 2.752611e+002
7.679692e+002, 2.751846e+002
7.684513e+002, 2.690626e+002
7.689334e+002, 2.595965e+002
7.694155e+002, 2.440527e+002
7.698976e+002, 2.295316e+002
7.703798e+002, 2.165069e+002
7.708619e+002, 2.058448e+002
7.713440e+002, 1.988537e+002
7.718261e+002, 1.951591e+002
7.723082e+002, 1.927811e+002
7.727903e+002, 1.914990e+002
7.732725e+002, 1.907066e+002
7.737546e+002, 1.896008e+002
7.742367e+002, 1.888893e+002
7.747188e+002, 1.898644e+002
7.752009e+002, 1.925292e+002
7.756830e+002, 1.958609e+002
7.761652e+002, 1.992539e+002
7.766473e+002, 2.026392e+002
7.771294e+002, 2.059550e+002
7.776115e+002, 2.093193e+002
7.780936e+002, 2.118394e+002
7.785757e+002, 2.132107e+002
7.790579e+002, 2.141744e+002
7.795400e+002, 2.144896e+002
7.800221e+002, 2.149245e+002
7.805042e+002, 2.167261e+002
7.809863e+002, 2.200449e+002
7.814684e+002, 2.242161e+002
7.819506e+002, 2.290202e+002
7.824327e+002, 2.346778e+002
7.829148e+002, 2.406522e+002
7.833969e+002, 2.478544e+002
7.838790e+002, 2.576299e+002
7.843611e+002, 2.703425e+002
7.848433e+002, 2.854948e+002
7.853254e+002, 3.024187e+002
7.858075e+002, 3.215724e+002
7.862896e+002, 3.443559e+002
7.867717e+002, 3.707075e+002
7.872538e+002, 4.001799e+002
7.877360e+002, 4.343094e+002
7.882181e+002, 4.670959e+002
7.887002e+002, 4.960666e+002
7.891823e+002, 5.194846e+002
7.896644e+002, 5.214200e+002
7.901465e+002, 4.906693e+002
7.906286e+002, 4.556035e+002
7.911107e+002, 4.119499e+002
7.915928e+002, 3.704380e+002
7.920750e+002, 3.370083e+002
7.925571e+002, 3.112286e+002
7.930392e+002, 2.907267e+002
7.935213e+002, 2.748644e+002
7.940034e+002, 2.631616e+002
7.944855e+002, 2.552706e+002
7.949677e+002, 2.512104e+002
7.954498e+002, 2.517011e+002
7.959319e+002, 2.564105e+002
7.964140e+002, 2.641187e+002
7.968961e+002, 2.747272e+002
7.973782e+002, 2.842589e+002
7.978604e+002, 2.876401e+002
7.983425e+002, 2.848859e+002
7.988246e+002, 2.746705e+002
7.993067e+002, 2.524320e+002
7.997888e+002, 2.309178e+002
8.002709e+002, 2.119129e+002
8.007531e+002, 1.958973e+002
8.012352e+002, 1.837853e+002
8.017173e+002, 1.752955e+002
8.021994e+002, 1.693407e+002
8.026815e+002, 1.667383e+002
8.031636e+002, 1.649955e+002
8.036458e+002, 1.629692e+002
8.041279e+002, 1.610442e+002
8.046100e+002, 1.596827e+002
8.050921e+002, 1.588789e+002
8.055742e+002, 1.584254e+002
8.060563e+002, 1.582311e+002
8.065385e+002, 1.581470e+002
8.070206e+002, 1.579146e+002
8.075027e+002, 1.575521e+002
8.079848e+002, 1.573211e+002
8.084669e+002, 1.572498e+002
8.089490e+002, 1.572082e+002
8.094312e+002, 1.571047e+002
8.099133e+002, 1.570492e+002
8.103954e+002, 1.572274e+002
8.108775e+002, 1.576833e+002
8.113596e+002, 1.580975e+002
8.118417e+002, 1.586057e+002
8.123239e+002, 1.589007e+002
8.128060e+002, 1.586394e+002
8.132881e+002, 1.583129e+002
8.137702e+002, 1.584558e+002
8.142523e+002, 1.590067e+002
8.147344e+002, 1.594575e+002
8.152166e+002, 1.594835e+002
8.156987e+002, 1.594658e+002
8.161808e+002, 1.598137e+002
8.166629e+002, 1.604123e+002
8.171450e+002, 1.610576e+002
8.176271e+002, 1.617046e+002
8.181093e+002, 1.622428e+002
8.185914e+002, 1.625972e+002
8.190735e+002, 1.628729e+002
8.195556e+002, 1.632570e+002
8.200377e+002, 1.637402e+002
8.205198e+002, 1.644179e+002
8.210020e+002, 1.654855e+002
8.214841e+002, 1.663821e+002
8.219662e+002, 1.667633e+002
8.224483e+002, 1.669604e+002
8.229304e+002, 1.673575e+002
8.234125e+002, 1.679495e+002
8.238947e+002, 1.684286e+002
8.243768e+002, 1.686535e+002
8.248589e+002, 1.688511e+002
8.253410e+002, 1.690412e+002
8.258231e+002, 1.693118e+002
8.263052e+002, 1.698403e+002
8.267874e+002, 1.705568e+002
8.272695e+002, 1.711736e+002
8.277516e+002, 1.715313e+002
8.282337e+002, 1.717281e+002
8.287158e+002, 1.718838e+002
8.291979e+002, 1.719978e+002
8.296801e+002, 1.720210e+002
8.301622e+002, 1.719475e+002
8.306443e+002, 1.720250e+002
8.311264e+002, 1.724093e+002
8.316085e+002, 1.729114e+002
8.320906e+002, 1.732243e+002
8.325728e+002, 1.733232e+002
8.330549e+002, 1.734028e+002
8.335370e+002, 1.736147e+002
8.340191e+002, 1.735765e+002
8.345012e+002, 1.727964e+002
8.349833e+002, 1.720713e+002
8.354655e+002, 1.722644e+002
8.359476e+002, 1.731743e+002
8.364297e+002, 1.736635e+002
8.369118e+002, 1.732347e+002
8.373939e+002, 1.725707e+002
8.378760e+002, 1.718932e+002
8.383582e+002, 1.712798e+002
8.388403e+002, 1.707784e+002
8.393224e+002, 1.704249e+002
8.398045e+002, 1.703738e+002
8.402866e+002, 1.707020e+002
8.407687e+002, 1.710043e+002
8.412509e+002, 1.705547e+002
8.417330e+002, 1.695430e+002
8.422151e+002, 1.691131e+002
8.426972e+002, 1.693121e+002
8.431793e+002, 1.696891e+002
8.436614e+002, 1.701855e+002
8.441436e+002, 1.704951e+002
8.446257e+002, 1.701840e+002
8.451078e+002, 1.692715e+002
8.455899e+002, 1.686714e+002
8.460720e+002, 1.687162e+002
8.465541e+002, 1.685878e+002
8.470363e+002, 1.680031e+002
8.475184e+002, 1.674267e+002
8.480005e+002, 1.671377e+002
8.484826e+002, 1.670820e+002
8.489647e+002, 1.671455e+002
8.494468e+002, 1.673657e+002
8.499290e+002, 1.674049e+002
8.504111e+002, 1.668904e+002
8.508932e+002, 1.662593e+002
8.513753e+002, 1.659869e+002
8.518574e+002, 1.659613e+002
8.523395e+002, 1.659041e+002
8.528217e+002, 1.657140e+002
8.533038e+002, 1.653551e+002
8.537859e+002, 1.647618e+002
8.542680e+002, 1.640034e+002
8.547501e+002, 1.631872e+002
8.552322e+002, 1.623120e+002
8.557144e+002, 1.620414e+002
8.561965e+002, 1.626555e+002
8.566786e+002, 1.632523e+002
8.571607e+002, 1.631690e+002
8.576428e+002, 1.625487e+002
8.581249e+002, 1.618281e+002
8.586071e+002, 1.608715e+002
8.590892e+002, 1.601135e+002
8.595713e+002, 1.597368e+002
8.600534e+002, 1.593376e+002
8.605355e+002, 1.585269e+002
8.610176e+002, 1.577530e+002
8.614998e+002, 1.577281e+002
8.619819e+002, 1.584708e+002
8.624640e+002, 1.589041e+002
8.629461e+002, 1.583569e+002
8.634282e+002, 1.576174e+002
8.639103e+002, 1.571756e+002
8.643925e+002, 1.569036e+002
8.648746e+002, 1.566159e+002
8.653567e+002, 1.563018e+002
8.658388e+002, 1.560820e+002
8.663209e+002, 1.560372e+002
8.668030e+002, 1.560381e+002
8.672852e+002, 1.558200e+002
8.677673e+002, 1.554571e+002
8.682494e+002, 1.554235e+002
8.687315e+002, 1.557610e+002
8.692136e+002, 1.559166e+002
8.696957e+002, 1.556374e+002
8.701779e+002, 1.551541e+002
8.706600e+002, 1.547439e+002
8.711421e+002, 1.544049e+002
8.716242e+002, 1.542660e+002
8.721063e+002, 1.544245e+002
8.725884e+002, 1.546111e+002
8.730705e+002, 1.549230e+002
8.735526e+002, 1.551170e+002
8.740347e+002, 1.549618e+002
8.745168e+002, 1.545847e+002
8.749990e+002, 1.542764e+002
8.754811e+002, 1.540456e+002
8.759632e+002, 1.540070e+002
8.764453e+002, 1.545129e+002
8.769274e+002, 1.549259e+002
8.774095e+002, 1.545831e+002
8.778917e+002, 1.538852e+002
8.783738e+002, 1.536031e+002
8.788559e+002, 1.538687e+002
8.793380e+002, 1.541021e+002
8.798201e+002, 1.537363e+002
8.803022e+002, 1.532175e+002
8.807844e+002, 1.534043e+002
8.812665e+002, 1.540796e+002
8.817486e+002, 1.543680e+002
8.822307e+002, 1.541566e+002
8.827128e+002, 1.540856e+002
8.831949e+002, 1.545940e+002
8.836771e+002, 1.553375e+002
8.841592e+002, 1.555661e+002
8.846413e+002, 1.551990e+002
8.851234e+002, 1.549554e+002
8.856055e+002, 1.549752e+002
8.860876e+002, 1.547529e+002
8.865698e+002, 1.539465e+002
8.870519e+002, 1.529922e+002
8.875340e+002, 1.523683e+002
8.880161e+002, 1.520578e+002
8.884982e+002, 1.517624e+002
8.889803e+002, 1.514084e+002
8.894625e+002, 1.511617e+002
8.899446e+002, 1.511031e+002
8.904267e+002, 1.511111e+002
8.909088e+002, 1.511497e+002
8.913909e+002, 1.511794e+002
8.918730e+002, 1.511648e+002
8.923552e+002, 1.511009e+002
8.928373e+002, 1.508983e+002
8.933194e+002, 1.503383e+002
8.938015e+002, 1.497478e+002
8.942836e+002, 1.494982e+002
8.947657e+002, 1.494854e+002
8.952479e+002, 1.495493e+002
8.957300e+002, 1.496114e+002
8.962121e+002, 1.494622e+002
8.966942e+002, 1.488862e+002
8.971763e+002, 1.482118e+002
8.976584e+002, 1.481525e+002
8.981406e+002, 1.486506e+002
8.986227e+002, 1.492317e+002
8.991048e+002, 1.498896e+002
8.995869e+002, 1.500861e+002
9.000690e+002, 1.494483e+002
9.005511e+002, 1.485625e+002
9.010333e+002, 1.483492e+002
9.015154e+002, 1.488558e+002
9.019975e+002, 1.489364e+002
9.024796e+002, 1.482883e+002
9.029617e+002, 1.477766e+002
9.034438e+002, 1.476434e+002
9.039260e+002, 1.476163e+002
9.044081e+002, 1.474753e+002
9.048902e+002, 1.473010e+002
9.053723e+002, 1.473690e+002
9.058544e+002, 1.479518e+002
9.063365e+002, 1.480788e+002
9.068187e+002, 1.469966e+002
9.073008e+002, 1.459403e+002
9.077829e+002, 1.457318e+002
9.082650e+002, 1.459699e+002
9.087471e+002, 1.460792e+002
9.092292e+002, 1.459619e+002
9.097114e+002, 1.458399e+002
9.101935e+002, 1.458975e+002
9.106756e+002, 1.459181e+002
9.111577e+002, 1.455689e+002
9.116398e+002, 1.450700e+002
9.121219e+002, 1.448664e+002
9.126041e+002, 1.449458e+002
9.130862e+002, 1.449839e+002
9.135683e+002, 1.448273e+002
9.140504e+002, 1.446564e+002
9.145325e+002, 1.447563e+002
9.150146e+002, 1.450597e+002
9.154968e+002, 1.451655e+002
9.159789e+002, 1.450694e+002
9.164610e+002, 1.449075e+002
9.169431e+002, 1.446900e+002
9.174252e+002, 1.445511e+002
9.179073e+002, 1.446868e+002
9.183895e+002, 1.449132e+002
9.188716e+002, 1.444913e+002
9.193537e+002, 1.429026e+002
9.198358e+002, 1.419951e+002
9.203179e+002, 1.422189e+002
9.208000e+002, 1.424812e+002
9.212822e+002, 1.422774e+002
9.217643e+002, 1.419446e+002
9.222464e+002, 1.419173e+002
9.227285e+002, 1.421769e+002
9.232106e+002, 1.421777e+002
9.236927e+002, 1.416867e+002
9.241749e+002, 1.411409e+002
9.246570e+002, 1.403981e+002
9.251391e+002, 1.398826e+002
9.256212e+002, 1.401055e+002
9.261033e+002, 1.407729e+002
9.265854e+002, 1.412779e+002
9.270676e+002, 1.414440e+002
9.275497e+002, 1.414382e+002
9.280318e+002, 1.413396e+002
9.285139e+002, 1.411512e+002
9.289960e+002, 1.408652e+002
9.294781e+002, 1.404949e+002
9.299603e+002, 1.400332e+002
9.304424e+002, 1.395010e+002
9.309245e+002, 1.389635e+002
9.314066e+002, 1.384407e+002
9.318887e+002, 1.380574e+002
9.323708e+002, 1.381650e+002
9.328530e+002, 1.385917e+002
9.333351e+002, 1.386070e+002
9.338172e+002, 1.381866e+002
9.342993e+002, 1.375742e+002
9.347814e+002, 1.368363e+002
9.352635e+002, 1.362112e+002
9.357457e+002, 1.359786e+002
9.362278e+002, 1.360761e+002
9.367099e+002, 1.361472e+002
9.371920e+002, 1.361842e+002
9.376741e+002, 1.362231e+002
9.381563e+002, 1.362607e+002
9.386384e+002, 1.363205e+002
9.391205e+002, 1.364558e+002
9.396026e+002, 1.365888e+002
9.400847e+002, 1.365643e+002
9.405668e+002, 1.363443e+002
9.410490e+002, 1.361944e+002
9.415311e+002, 1.360237e+002
9.420132e+002, 1.360451e+002
9.424953e+002, 1.365022e+002
9.429774e+002, 1.369830e+002
9.434595e+002, 1.372412e+002
9.439417e+002, 1.372741e+002
9.444238e+002, 1.370344e+002
9.449059e+002, 1.363376e+002
9.453880e+002, 1.360485e+002
9.458701e+002, 1.368173e+002
9.463522e+002, 1.377273e+002
9.468344e+002, 1.381496e+002
9.473165e+002, 1.383463e+002
9.477986e+002, 1.386349e+002
9.482807e+002, 1.391039e+002
9.487628e+002, 1.397911e+002
9.492449e+002, 1.407171e+002
9.497271e+002, 1.418708e+002
9.502092e+002, 1.433793e+002
9.506913e+002, 1.450351e+002
9.511734e+002, 1.463133e+002
9.516555e+002, 1.474476e+002
9.521376e+002, 1.493026e+002
9.526198e+002, 1.521464e+002
9.531019e+002, 1.554076e+002
9.535840e+002, 1.584544e+002
9.540661e+002, 1.616651e+002
9.545482e+002, 1.660389e+002
9.550303e+002, 1.714690e+002
9.555124e+002, 1.772522e+002
9.559945e+002, 1.833218e+002
9.564766e+002, 1.898406e+002
9.569587e+002, 1.969698e+002
9.574409e+002, 2.043726e+002
9.579230e+002, 2.114398e+002
9.584051e+002, 2.182284e+002
9.588872e+002, 2.251707e+002
9.593693e+002, 2.322891e+002
9.598514e+002, 2.394628e+002
9.603336e+002, 2.462493e+002
9.608157e+002, 2.540024e+002
9.612978e+002, 2.636918e+002
9.617799e+002, 2.750225e+002
9.622620e+002, 2.871104e+002
9.627441e+002, 2.995591e+002
9.632263e+002, 3.139290e+002
9.637084e+002, 3.300970e+002
9.641905e+002, 3.483403e+002
9.646726e+002, 3.686870e+002
9.651547e+002, 3.910404e+002
9.656368e+002, 4.163502e+002
9.661190e+002, 4.438802e+002
9.666011e+002, 4.706315e+002
9.670832e+002, 4.988564e+002
9.675653e+002, 5.211245e+002
9.680474e+002, 5.398608e+002
9.685295e+002, 5.479088e+002
9.690117e+002, 5.404735e+002
9.694938e+002, 5.202026e+002
9.699759e+002, 4.879377e+002
9.704580e+002, 4.455871e+002
9.709401e+002, 4.020761e+002
9.714222e+002, 3.588951e+002
9.719044e+002, 3.197037e+002
9.723865e+002, 2.865466e+002
9.728686e+002, 2.587296e+002
9.733507e+002, 2.366315e+002
9.738328e+002, 2.191995e+002
9.743149e+002, 2.046704e+002
9.747971e+002, 1.924324e+002
9.752792e+002, 1.822608e+002
9.757613e+002, 1.744055e+002
9.762434e+002, 1.681525e+002
9.767255e+002, 1.627259e+002
9.772076e+002, 1.581200e+002
9.776898e+002, 1.544272e+002
9.781719e+002, 1.515189e+002
9.786540e+002, 1.489444e+002
9.791361e+002, 1.464716e+002
9.796182e+002, 1.441850e+002
9.801003e+002, 1.422378e+002
9.805825e+002, 1.405331e+002
9.810646e+002, 1.387009e+002
9.815467e+002, 1.368098e+002
9.820288e+002, 1.354738e+002
9.825109e+002, 1.348185e+002
9.829930e+002, 1.342829e+002
9.834752e+002, 1.335220e+002
9.839573e+002, 1.325893e+002
9.844394e+002, 1.315304e+002
9.849215e+002, 1.303442e+002
9.854036e+002, 1.294317e+002
9.858857e+002, 1.288238e+002
9.863679e+002, 1.283292e+002
9.868500e+002, 1.279214e+002
9.873321e+002, 1.275311e+002
9.878142e+002, 1.270890e+002
9.882963e+002, 1.266327e+002
9.887784e+002, 1.262869e+002
9.892606e+002, 1.260904e+002
9.897427e+002, 1.258819e+002
9.902248e+002, 1.257359e+002
9.907069e+002, 1.254142e+002
9.911890e+002, 1.246107e+002
9.916711e+002, 1.238559e+002
9.921533e+002, 1.237272e+002
9.926354e+002, 1.241148e+002
9.931175e+002, 1.243715e+002
9.935996e+002, 1.245189e+002
9.940817e+002, 1.244984e+002
9.945638e+002, 1.242183e+002
9.950460e+002, 1.238790e+002
9.955281e+002, 1.234162e+002
9.960102e+002, 1.230319e+002
9.964923e+002, 1.230676e+002
9.969744e+002, 1.234427e+002
9.974565e+002, 1.235045e+002
9.979387e+002, 1.228548e+002
9.984208e+002, 1.223449e+002
9.989029e+002, 1.223099e+002
9.993850e+002, 1.223524e+002
9.998671e+002, 1.221877e+002
1.000349e+003, 1.219632e+002
1.000831e+003, 1.220048e+002
1.001313e+003, 1.222944e+002
1.001796e+003, 1.222962e+002
1.002278e+003, 1.215242e+002
1.002760e+003, 1.208186e+002
1.003242e+003, 1.205755e+002
1.003724e+003, 1.206598e+002
1.004206e+003, 1.212304e+002
1.004688e+003, 1.219321e+002
1.005170e+003, 1.220659e+002
1.005653e+003, 1.215118e+002
1.006135e+003, 1.209260e+002
1.006617e+003, 1.207076e+002
1.007099e+003, 1.206456e+002
1.007581e+003, 1.206438e+002
1.008063e+003, 1.206110e+002
1.008545e+003, 1.203253e+002
1.009027e+003, 1.198960e+002
1.009509e+003, 1.196872e+002
1.009992e+003, 1.198130e+002
1.010474e+003, 1.199965e+002
1.010956e+003, 1.199992e+002
1.011438e+003, 1.199143e+002
1.011920e+003, 1.198611e+002
1.012402e+003, 1.198369e+002
1.012884e+003, 1.198169e+002
1.013366e+003, 1.198141e+002
1.013849e+003, 1.199475e+002
1.014331e+003, 1.202619e+002
1.014813e+003, 1.204715e+002
1.015295e+003, 1.201580e+002
1.015777e+003, 1.195793e+002
1.016259e+003, 1.193712e+002
1.016741e+003, 1.194848e+002
1.017223e+003, 1.198114e+002
1.017705e+003, 1.202872e+002
1.018188e+003, 1.204382e+002
1.018670e+003, 1.200066e+002
1.019152e+003, 1.193807e+002
1.019634e+003, 1.190812e+002
1.020116e+003, 1.190549e+002
1.020598e+003, 1.190611e+002
1.021080e+003, 1.190980e+002
1.021562e+003, 1.190973e+002
1.022044e+003, 1.190410e+002
1.022527e+003, 1.191030e+002
1.023009e+003, 1.194120e+002
1.023491e+003, 1.197531e+002
1.023973e+003, 1.197627e+002
1.024455e+003, 1.194623e+002
1.024937e+003, 1.191753e+002
1.025419e+003, 1.188813e+002
1.025901e+003, 1.188118e+002
1.026384e+003, 1.190521e+002
1.026866e+003, 1.193386e+002
1.027348e+003, 1.195218e+002
1.027830e+003, 1.196188e+002
1.028312e+003, 1.196427e+002
1.028794e+003, 1.195871e+002
1.029276e+003, 1.196528e+002
1.029758e+003, 1.199047e+002
1.030240e+003, 1.200554e+002
1.030723e+003, 1.200582e+002
1.031205e+003, 1.199185e+002
1.031687e+003, 1.195565e+002
1.032169e+003, 1.191458e+002
1.032651e+003, 1.190656e+002
1.033133e+003, 1.193737e+002
1.033615e+003, 1.195062e+002
1.034097e+003, 1.193182e+002
1.034579e+003, 1.192782e+002
1.035062e+003, 1.195808e+002
1.035544e+003, 1.198868e+002
1.036026e+003, 1.199637e+002
1.036508e+003, 1.198958e+002
1.036990e+003, 1.198689e+002
1.037472e+003, 1.199121e+002
1.037954e+003, 1.198281e+002
1.038436e+003, 1.195380e+002
1.038919e+003, 1.192457e+002
1.039401e+003, 1.189197e+002
1.039883e+003, 1.186752e+002
1.040365e+003, 1.185149e+002
1.040847e+003, 1.185124e+002
1.041329e+003, 1.189319e+002
1.041811e+003, 1.199623e+002
1.042293e+003, 1.204244e+002
1.042776e+003, 1.197421e+002
1.043258e+003, 1.192742e+002
1.043740e+003, 1.194187e+002
1.044222e+003, 1.197043e+002
1.044704e+003, 1.198641e+002
1.045186e+003, 1.199371e+002
1.045668e+003, 1.199926e+002
1.046150e+003, 1.200185e+002
1.046632e+003, 1.201431e+002
1.047115e+003, 1.206296e+002
1.047597e+003, 1.208705e+002
1.048079e+003, 1.205246e+002
1.048561e+003, 1.200717e+002
1.049043e+003, 1.197885e+002
1.049525e+003, 1.196547e+002
1.050007e+003, 1.196179e+002
1.050489e+003, 1.196825e+002
1.050971e+003, 1.197247e+002
1.051454e+003, 1.196998e+002
1.051936e+003, 1.196773e+002
1.052418e+003, 1.196958e+002
1.052900e+003, 1.197059e+002
1.053382e+003, 1.197199e+002
1.053864e+003, 1.196806e+002
1.054346e+003, 1.193721e+002
1.054828e+003, 1.187479e+002
1.055311e+003, 1.185879e+002
1.055793e+003, 1.196750e+002
1.056275e+003, 1.204757e+002
1.056757e+003, 1.202532e+002
1.057239e+003, 1.197619e+002
1.057721e+003, 1.194123e+002
1.058203e+003, 1.192677e+002
1.058685e+003, 1.194380e+002
1.059167e+003, 1.199247e+002
1.059650e+003, 1.202324e+002
1.060132e+003, 1.201844e+002
1.060614e+003, 1.199507e+002
1.061096e+003, 1.192196e+002
1.061578e+003, 1.186933e+002
1.062060e+003, 1.191469e+002
1.062542e+003, 1.200656e+002
1.063024e+003, 1.205560e+002
1.063506e+003, 1.204954e+002
1.063989e+003, 1.204011e+002
1.064471e+003, 1.204790e+002
1.064953e+003, 1.205296e+002
1.065435e+003, 1.204240e+002
1.065917e+003, 1.203060e+002
1.066399e+003, 1.203670e+002
1.066881e+003, 1.204490e+002
1.067363e+003, 1.202155e+002
1.067846e+003, 1.196798e+002
1.068328e+003, 1.193601e+002
1.068810e+003, 1.196120e+002
1.069292e+003, 1.198298e+002
1.069774e+003, 1.196513e+002
1.070256e+003, 1.194315e+002
1.070738e+003, 1.194449e+002
1.071220e+003, 1.195846e+002
1.071703e+003, 1.196830e+002
1.072185e+003, 1.197206e+002
1.072667e+003, 1.197567e+002
1.073149e+003, 1.197736e+002
1.073631e+003, 1.198823e+002
1.074113e+003, 1.202791e+002
1.074595e+003, 1.206346e+002
1.075077e+003, 1.207076e+002
1.075559e+003, 1.205951e+002
1.076042e+003, 1.203429e+002
1.076524e+003, 1.200369e+002
1.077006e+003, 1.199660e+002
1.077488e+003, 1.203232e+002
1.077970e+003, 1.206159e+002
1.078452e+003, 1.205487e+002
1.078934e+003, 1.204136e+002
1.079416e+003, 1.204074e+002
1.079898e+003, 1.204476e+002
1.080380e+003, 1.203704e+002
1.080863e+003, 1.202339e+002
1.081345e+003, 1.203318e+002
1.081827e+003, 1.208498e+002
1.082309e+003, 1.211171e+002
1.082791e+003, 1.205465e+002
1.083273e+003, 1.199660e+002
1.083755e+003, 1.198789e+002
1.084237e+003, 1.200469e+002
1.084720e+003, 1.203339e+002
1.085202e+003, 1.206084e+002
1.085684e+003, 1.205720e+002
1.086166e+003, 1.200989e+002
1.086648e+003, 1.198025e+002
1.087130e+003, 1.201437e+002
1.087612e+003, 1.204751e+002
1.088094e+003, 1.203451e+002
1.088577e+003, 1.201517e+002
1.089059e+003, 1.204287e+002
1.089541e+003, 1.208969e+002
1.090023e+003, 1.208249e+002
1.090505e+003, 1.200609e+002
1.090987e+003, 1.195190e+002
1.091469e+003, 1.197406e+002
1.091951e+003, 1.199875e+002
1.092433e+003, 1.199021e+002
1.092916e+003, 1.197624e+002
1.093398e+003, 1.198505e+002
1.093880e+003, 1.200140e+002
1.094362e+003, 1.199163e+002
1.094844e+003, 1.195407e+002
1.095326e+003, 1.193332e+002
1.095808e+003, 1.195943e+002
1.096290e+003, 1.198075e+002
1.096772e+003, 1.197754e+002
1.097255e+003, 1.196737e+002
1.097737e+003, 1.195375e+002
1.098219e+003, 1.194465e+002
1.098701e+003, 1.195255e+002
1.099183e+003, 1.197555e+002
1.099665e+003, 1.199567e+002
1.100147e+003, 1.201279e+002
1.100629e+003, 1.201803e+002
1.101112e+003, 1.199219e+002
1.101594e+003, 1.197378e+002
1.102076e+003, 1.198851e+002
1.102558e+003, 1.201497e+002
1.103040e+003, 1.203247e+002
1.103522e+003, 1.204075e+002
1.104004e+003, 1.204773e+002
1.104486e+003, 1.206103e+002
1.104969e+003, 1.205225e+002
1.105451e+003, 1.198589e+002
1.105933e+003, 1.193638e+002
1.106415e+003, 1.193989e+002
1.106897e+003, 1.196071e+002
1.107379e+003, 1.197167e+002
1.107861e+003, 1.197662e+002
1.108343e+003, 1.199278e+002
1.108825e+003, 1.202864e+002
1.109307e+003, 1.203369e+002
1.109790e+003, 1.196515e+002
1.110272e+003, 1.192015e+002
1.110754e+003, 1.193239e+002
1.111236e+003, 1.195850e+002
1.111718e+003, 1.198602e+002
1.112200e+003, 1.200437e+002
1.112682e+003, 1.199016e+002
1.113164e+003, 1.194090e+002
1.113647e+003, 1.191042e+002
1.114129e+003, 1.189876e+002
1.114611e+003, 1.190685e+002
1.115093e+003, 1.195857e+002
1.115575e+003, 1.199771e+002
1.116057e+003, 1.199647e+002
1.116539e+003, 1.197414e+002
1.117021e+003, 1.194397e+002
1.117504e+003, 1.191060e+002
1.117986e+003, 1.191036e+002
1.118468e+003, 1.196518e+002
1.118950e+003, 1.200208e+002
1.119432e+003, 1.202717e+002
1.119914e+003, 1.201622e+002
1.120396e+003, 1.193210e+002
1.120878e+003, 1.185925e+002
1.121360e+003, 1.188164e+002
1.121843e+003, 1.196209e+002
1.122325e+003, 1.198745e+002
1.122807e+003, 1.194374e+002
1.123289e+003, 1.193232e+002
1.123771e+003, 1.196373e+002
1.124253e+003, 1.199391e+002
1.124735e+003, 1.201901e+002
1.125217e+003, 1.202254e+002
1.125699e+003, 1.198781e+002
1.126182e+003, 1.193879e+002
1.126664e+003, 1.191725e+002
1.127146e+003, 1.192171e+002
1.127628e+003, 1.192655e+002
1.128110e+003, 1.193249e+002
1.128592e+003, 1.193004e+002
1.129074e+003, 1.191621e+002
1.129556e+003, 1.190653e+002
1.130039e+003, 1.190770e+002
1.130521e+003, 1.191902e+002
1.131003e+003, 1.194346e+002
1.131485e+003, 1.197165e+002
1.131967e+003, 1.196455e+002
1.132449e+003, 1.192493e+002
1.132931e+003, 1.189960e+002
1.133413e+003, 1.189150e+002
1.133896e+003, 1.191389e+002
1.134378e+003, 1.197068e+002
1.134860e+003, 1.201089e+002
1.135342e+003, 1.199182e+002
1.135824e+003, 1.194939e+002
1.136306e+003, 1.195590e+002
1.136788e+003, 1.199403e+002
1.137270e+003, 1.199395e+002
1.137752e+003, 1.196204e+002
1.138234e+003, 1.192934e+002
1.138717e+003, 1.190385e+002
1.139199e+003, 1.190023e+002
1.139681e+003, 1.192618e+002
1.140163e+003, 1.193669e+002
1.140645e+003, 1.185957e+002
1.141127e+003, 1.175389e+002
1.141609e+003, 1.172552e+002
1.142091e+003, 1.175356e+002
1.142574e+003, 1.181081e+002
1.143056e+003, 1.187918e+002
1.143538e+003, 1.191668e+002
1.144020e+003, 1.191282e+002
1.144502e+003, 1.189989e+002
1.144984e+003, 1.189936e+002
1.145466e+003, 1.190243e+002
1.145948e+003, 1.189434e+002
1.146431e+003, 1.188893e+002
1.146913e+003, 1.191983e+002
1.147395e+003, 1.195942e+002
1.147877e+003, 1.194465e+002
1.148359e+003, 1.188153e+002
1.148841e+003, 1.184250e+002
1.149323e+003, 1.186156e+002
1.149805e+003, 1.188530e+002
1.150287e+003, 1.188363e+002
1.150770e+003, 1.187052e+002
1.151252e+003, 1.185617e+002
1.151734e+003, 1.183576e+002
1.152216e+003, 1.178011e+002
1.152698e+003, 1.172058e+002
1.153180e+003, 1.174282e+002
1.153662e+003, 1.186396e+002
1.154144e+003, 1.194238e+002
1.154626e+003, 1.189067e+002
1.155109e+003, 1.184611e+002
1.155591e+003, 1.186927e+002
1.156073e+003, 1.189654e+002
1.156555e+003, 1.189435e+002
1.157037e+003, 1.186889e+002
1.157519e+003, 1.181183e+002
1.158001e+003, 1.173527e+002
1.158483e+003, 1.171706e+002
1.158966e+003, 1.180226e+002
1.159448e+003, 1.186424e+002
1.159930e+003, 1.190308e+002
1.160412e+003, 1.190622e+002
1.160894e+003, 1.183837e+002
1.161376e+003, 1.176986e+002
1.161858e+003, 1.175426e+002
1.162340e+003, 1.177379e+002
1.162822e+003, 1.179284e+002
1.163305e+003, 1.181287e+002
1.163787e+003, 1.181456e+002
1.164269e+003, 1.178492e+002
1.164751e+003, 1.177735e+002
1.165233e+003, 1.180788e+002
1.165715e+003, 1.183288e+002
1.166197e+003, 1.182787e+002
1.166679e+003, 1.181986e+002
1.167161e+003, 1.184478e+002
1.167644e+003, 1.188932e+002
1.168126e+003, 1.189404e+002
1.168608e+003, 1.185715e+002
1.169090e+003, 1.183846e+002
1.169572e+003, 1.184121e+002
1.170054e+003, 1.183210e+002
1.170536e+003, 1.180158e+002
1.171018e+003, 1.178307e+002
1.171500e+003, 1.180076e+002
1.171983e+003, 1.183551e+002
1.172465e+003, 1.186533e+002
1.172947e+003, 1.188396e+002
1.173429e+003, 1.185722e+002
1.173911e+003, 1.180096e+002
1.174393e+003, 1.177727e+002
1.174875e+003, 1.178873e+002
1.175357e+003, 1.179230e+002
1.175840e+003, 1.177579e+002
1.176322e+003, 1.180585e+002
1.176804e+003, 1.197089e+002
1.177286e+003, 1.213368e+002
1.177768e+003, 1.210334e+002
1.178250e+003, 1.197697e+002
1.178732e+003, 1.185877e+002
1.179214e+003, 1.177258e+002
1.179697e+003, 1.175706e+002
1.180179e+003, 1.180062e+002
1.180661e+003, 1.184008e+002
1.181143e+003, 1.185072e+002
1.181625e+003, 1.184335e+002
1.182107e+003, 1.180193e+002
1.182589e+003, 1.177179e+002
1.183071e+003, 1.180225e+002
1.183553e+003, 1.184065e+002
1.184036e+003, 1.182759e+002
1.184518e+003, 1.178768e+002
1.185000e+003, 1.177348e+002
1.185482e+003, 1.179172e+002
1.185964e+003, 1.181289e+002
1.186446e+003, 1.182235e+002
1.186928e+003, 1.184725e+002
1.187410e+003, 1.193657e+002
1.187892e+003, 1.198696e+002
1.188375e+003, 1.191042e+002
1.188857e+003, 1.181485e+002
1.189339e+003, 1.181002e+002
1.189821e+003, 1.186203e+002
1.190303e+003, 1.187101e+002
1.190785e+003, 1.182599e+002
1.191267e+003, 1.180331e+002
1.191749e+003, 1.180901e+002
1.192232e+003, 1.182189e+002
1.192714e+003, 1.184324e+002
1.193196e+003, 1.185787e+002
1.193678e+003, 1.185844e+002
1.194160e+003, 1.184643e+002
1.194642e+003, 1.181958e+002
1.195124e+003, 1.178651e+002
1.195606e+003, 1.178445e+002
1.196089e+003, 1.181211e+002
1.196571e+003, 1.184258e+002
1.197053e+003, 1.187333e+002
1.197535e+003, 1.187824e+002
1.198017e+003, 1.185262e+002
1.198499e+003, 1.183731e+002
1.198981e+003, 1.185871e+002
1.199463e+003, 1.188698e+002
1.199945e+003, 1.188081e+002
1.200427e+003, 1.185500e+002
1.200910e+003, 1.183233e+002
1.201392e+003, 1.181602e+002
1.201874e+003, 1.181319e+002
1.202356e+003, 1.182315e+002
1.202838e+003, 1.184945e+002
1.203320e+003, 1.188758e+002
1.203802e+003, 1.190182e+002
1.204284e+003, 1.186112e+002
1.204767e+003, 1.182190e+002
1.205249e+003, 1.183829e+002
1.205731e+003, 1.186165e+002
1.206213e+003, 1.184846e+002
1.206695e+003, 1.182092e+002
1.207177e+003, 1.181043e+002
1.207659e+003, 1.181039e+002
1.208141e+003, 1.178518e+002
1.208624e+003, 1.172375e+002
1.209106e+003, 1.171287e+002
1.209588e+003, 1.183221e+002
1.210070e+003, 1.191557e+002
1.210552e+003, 1.191740e+002
1.211034e+003, 1.188899e+002
1.211516e+003, 1.182745e+002
1.211998e+003, 1.177245e+002
1.212480e+003, 1.177018e+002
1.212963e+003, 1.180590e+002
1.213445e+003, 1.182366e+002
1.213927e+003, 1.181929e+002
1.214409e+003, 1.181898e+002
1.214891e+003, 1.182812e+002
1.215373e+003, 1.181435e+002
1.215855e+003, 1.176353e+002
1.216337e+003, 1.173051e+002
1.216819e+003, 1.174656e+002
1.217302e+003, 1.178348e+002
1.217784e+003, 1.180965e+002
1.218266e+003, 1.182478e+002
1.218748e+003, 1.182102e+002
1.219230e+003, 1.180473e+002
1.219712e+003, 1.181364e+002
1.220194e+003, 1.184259e+002
1.220676e+003, 1.185418e+002
1.221159e+003, 1.184125e+002
1.221641e+003, 1.181844e+002
1.222123e+003, 1.179322e+002
1.222605e+003, 1.176960e+002
1.223087e+003, 1.173849e+002
1.223569e+003, 1.172406e+002
1.224051e+003, 1.177329e+002
1.224533e+003, 1.184110e+002
1.225016e+003, 1.186610e+002
1.225498e+003, 1.186246e+002
1.225980e+003, 1.187039e+002
1.226462e+003, 1.189317e+002
1.226944e+003, 1.189952e+002
1.227426e+003, 1.186762e+002
1.227908e+003, 1.185070e+002
1.228390e+003, 1.188122e+002
1.228872e+003, 1.191142e+002
1.229354e+003, 1.192732e+002
1.229837e+003, 1.192918e+002
1.230319e+003, 1.190421e+002
1.230801e+003, 1.187269e+002
1.231283e+003, 1.187744e+002
1.231765e+003, 1.191646e+002
1.232247e+003, 1.191242e+002
1.232729e+003, 1.183372e+002
1.233211e+003, 1.181595e+002
1.233694e+003, 1.188793e+002
1.234176e+003, 1.193626e+002
1.234658e+003, 1.192221e+002
1.235140e+003, 1.190139e+002
1.235622e+003, 1.191793e+002
1.236104e+003, 1.193424e+002
1.236586e+003, 1.187282e+002
1.237068e+003, 1.176267e+002
1.237551e+003, 1.172721e+002
1.238033e+003, 1.175363e+002
1.238515e+003, 1.179907e+002
1.238997e+003, 1.184928e+002
1.239479e+003, 1.186419e+002
1.239961e+003, 1.183644e+002
1.240443e+003, 1.180327e+002
1.240925e+003, 1.178717e+002
1.241407e+003, 1.177898e+002
1.241890e+003, 1.177005e+002
1.242372e+003, 1.176458e+002
1.242854e+003, 1.176582e+002
1.243336e+003, 1.177373e+002
1.243818e+003, 1.179016e+002
1.244300e+003, 1.181234e+002
1.244782e+003, 1.184442e+002
1.245264e+003, 1.188308e+002
1.245746e+003, 1.188034e+002
1.246229e+003, 1.177445e+002
1.246711e+003, 1.171788e+002
1.247193e+003, 1.177005e+002
1.247675e+003, 1.183024e+002
1.248157e+003, 1.189053e+002
1.248639e+003, 1.191388e+002
1.249121e+003, 1.184914e+002
1.249603e+003, 1.175517e+002
1.250085e+003, 1.174198e+002
1.250568e+003, 1.180430e+002
1.251050e+003, 1.185718e+002
1.251532e+003, 1.190454e+002
1.252014e+003, 1.187322e+002
1.252496e+003, 1.175178e+002
1.252978e+003, 1.174998e+002
1.253460e+003, 1.192981e+002
1.253942e+003, 1.206431e+002
1.254425e+003, 1.199270e+002
1.254907e+003, 1.184463e+002
1.255389e+003, 1.179755e+002
1.255871e+003, 1.180009e+002
1.256353e+003, 1.174013e+002
1.256835e+003, 1.166713e+002
1.257317e+003, 1.169228e+002
1.257799e+003, 1.178201e+002
1.258281e+003, 1.183773e+002
1.258764e+003, 1.183969e+002
1.259246e+003, 1.182133e+002
1.259728e+003, 1.178735e+002
1.260210e+003, 1.177121e+002
1.260692e+003, 1.180440e+002
1.261174e+003, 1.183818e+002
1.261656e+003, 1.184763e+002
1.262138e+003, 1.185079e+002
1.262620e+003, 1.185912e+002
1.263103e+003, 1.187223e+002
1.263585e+003, 1.189185e+002
1.264067e+003, 1.191581e+002
1.264549e+003, 1.192691e+002
1.265031e+003, 1.192916e+002
1.265513e+003, 1.189653e+002
1.265995e+003, 1.181117e+002
1.266477e+003, 1.177784e+002
1.266960e+003, 1.182804e+002
1.267442e+003, 1.187329e+002
1.267924e+003, 1.186285e+002
1.268406e+003, 1.183894e+002
1.268888e+003, 1.185321e+002
1.269370e+003, 1.188806e+002
1.269852e+003, 1.190649e+002
1.270334e+003, 1.191149e+002
1.270817e+003, 1.190633e+002
1.271299e+003, 1.189567e+002
1.271781e+003, 1.188499e+002
1.272263e+003, 1.187985e+002
1.272745e+003, 1.190324e+002
1.273227e+003, 1.196408e+002
1.273709e+003, 1.199332e+002
1.274191e+003, 1.191117e+002
1.274673e+003, 1.184125e+002
1.275156e+003, 1.185166e+002
1.275638e+003, 1.188745e+002
1.276120e+003, 1.193228e+002
1.276602e+003, 1.196634e+002
1.277084e+003, 1.196308e+002
1.277566e+003, 1.193284e+002
1.278048e+003, 1.190892e+002
1.278530e+003, 1.188967e+002
1.279012e+003, 1.189523e+002
1.279495e+003, 1.193313e+002
1.279977e+003, 1.197016e+002
1.280459e+003, 1.200861e+002
1.280941e+003, 1.201202e+002
1.281423e+003, 1.196261e+002
1.281905e+003, 1.191559e+002
1.282387e+003, 1.191484e+002
1.282869e+003, 1.194009e+002
1.283352e+003, 1.196488e+002
1.283834e+003, 1.198407e+002
1.284316e+003, 1.198565e+002
1.284798e+003, 1.197020e+002
##END=



