##NAMES=Molybdofornacite
##RRUFFID=R130755
##IDEAL CHEMISTRY=Cu^2+^Pb^2+^_2_Mo^6+^O_4_As^5+^O_4_(OH)
##LOCALITY=30 level South 110, Tsumeb, Namibia
##OWNER=RRUFF
##SOURCE=Bill Pinch
##DESCRIPTION=Pale green prismatic crystals associated with dioptase
##STATUS=The identification of this mineral has been confirmed by single-crystal X-ray diffraction.
##URL=rruff.info/R130755
8.813672e+001, 3.174509e+002
8.861884e+001, 3.211585e+002
8.910095e+001, 3.250326e+002
8.958307e+001, 3.310027e+002
9.006519e+001, 3.379262e+002
9.054730e+001, 3.434189e+002
9.102942e+001, 3.475264e+002
9.151154e+001, 3.503434e+002
9.199365e+001, 3.518789e+002
9.247577e+001, 3.523146e+002
9.295789e+001, 3.519839e+002
9.344000e+001, 3.507593e+002
9.392212e+001, 3.486481e+002
9.440424e+001, 3.464792e+002
9.488635e+001, 3.450451e+002
9.536847e+001, 3.440545e+002
9.585059e+001, 3.425777e+002
9.633270e+001, 3.405134e+002
9.681482e+001, 3.387586e+002
9.729694e+001, 3.381310e+002
9.777905e+001, 3.385963e+002
9.826117e+001, 3.397466e+002
9.874329e+001, 3.417633e+002
9.922540e+001, 3.444338e+002
9.970752e+001, 3.462835e+002
1.001896e+002, 3.471764e+002
1.006718e+002, 3.474500e+002
1.011539e+002, 3.474064e+002
1.016360e+002, 3.468929e+002
1.021181e+002, 3.466488e+002
1.026002e+002, 3.469633e+002
1.030823e+002, 3.479315e+002
1.035645e+002, 3.488800e+002
1.040466e+002, 3.498178e+002
1.045287e+002, 3.507696e+002
1.050108e+002, 3.517884e+002
1.054929e+002, 3.528468e+002
1.059750e+002, 3.540624e+002
1.064572e+002, 3.555878e+002
1.069393e+002, 3.582578e+002
1.074214e+002, 3.597666e+002
1.079035e+002, 3.594511e+002
1.083856e+002, 3.579229e+002
1.088677e+002, 3.573014e+002
1.093499e+002, 3.579649e+002
1.098320e+002, 3.592654e+002
1.103141e+002, 3.609246e+002
1.107962e+002, 3.631671e+002
1.112783e+002, 3.655504e+002
1.117604e+002, 3.679852e+002
1.122426e+002, 3.705274e+002
1.127247e+002, 3.733885e+002
1.132068e+002, 3.769070e+002
1.136889e+002, 3.805998e+002
1.141710e+002, 3.840969e+002
1.146531e+002, 3.876761e+002
1.151353e+002, 3.906949e+002
1.156174e+002, 3.926990e+002
1.160995e+002, 3.936794e+002
1.165816e+002, 3.949439e+002
1.170637e+002, 3.975799e+002
1.175458e+002, 4.005425e+002
1.180280e+002, 4.027287e+002
1.185101e+002, 4.027502e+002
1.189922e+002, 4.025150e+002
1.194743e+002, 4.030985e+002
1.199564e+002, 4.046036e+002
1.204385e+002, 4.065859e+002
1.209207e+002, 4.088257e+002
1.214028e+002, 4.113494e+002
1.218849e+002, 4.141940e+002
1.223670e+002, 4.182251e+002
1.228491e+002, 4.222408e+002
1.233312e+002, 4.246782e+002
1.238134e+002, 4.250154e+002
1.242955e+002, 4.251414e+002
1.247776e+002, 4.267907e+002
1.252597e+002, 4.297182e+002
1.257418e+002, 4.330826e+002
1.262239e+002, 4.367475e+002
1.267061e+002, 4.404914e+002
1.271882e+002, 4.437798e+002
1.276703e+002, 4.465418e+002
1.281524e+002, 4.488943e+002
1.286345e+002, 4.507222e+002
1.291166e+002, 4.520932e+002
1.295988e+002, 4.537260e+002
1.300809e+002, 4.566184e+002
1.305630e+002, 4.603649e+002
1.310451e+002, 4.632486e+002
1.315272e+002, 4.647625e+002
1.320093e+002, 4.652677e+002
1.324915e+002, 4.655476e+002
1.329736e+002, 4.655849e+002
1.334557e+002, 4.654029e+002
1.339378e+002, 4.651455e+002
1.344199e+002, 4.647878e+002
1.349020e+002, 4.638053e+002
1.353842e+002, 4.620470e+002
1.358663e+002, 4.595399e+002
1.363484e+002, 4.561326e+002
1.368305e+002, 4.515778e+002
1.373126e+002, 4.467401e+002
1.377947e+002, 4.427676e+002
1.382769e+002, 4.398917e+002
1.387590e+002, 4.365605e+002
1.392411e+002, 4.323464e+002
1.397232e+002, 4.271818e+002
1.402053e+002, 4.218058e+002
1.406874e+002, 4.159794e+002
1.411696e+002, 4.101624e+002
1.416517e+002, 4.051263e+002
1.421338e+002, 4.011950e+002
1.426159e+002, 3.972811e+002
1.430980e+002, 3.929912e+002
1.435801e+002, 3.882368e+002
1.440623e+002, 3.837285e+002
1.445444e+002, 3.793931e+002
1.450265e+002, 3.753693e+002
1.455086e+002, 3.720177e+002
1.459907e+002, 3.697333e+002
1.464728e+002, 3.675838e+002
1.469550e+002, 3.652393e+002
1.474371e+002, 3.625739e+002
1.479192e+002, 3.600468e+002
1.484013e+002, 3.576766e+002
1.488834e+002, 3.554518e+002
1.493655e+002, 3.533082e+002
1.498477e+002, 3.512233e+002
1.503298e+002, 3.492500e+002
1.508119e+002, 3.474367e+002
1.512940e+002, 3.459950e+002
1.517761e+002, 3.443880e+002
1.522583e+002, 3.423701e+002
1.527404e+002, 3.401608e+002
1.532225e+002, 3.383735e+002
1.537046e+002, 3.374714e+002
1.541867e+002, 3.367196e+002
1.546688e+002, 3.357926e+002
1.551510e+002, 3.346653e+002
1.556331e+002, 3.333302e+002
1.561152e+002, 3.314505e+002
1.565973e+002, 3.292579e+002
1.570794e+002, 3.277119e+002
1.575615e+002, 3.273931e+002
1.580437e+002, 3.275433e+002
1.585258e+002, 3.276966e+002
1.590079e+002, 3.281104e+002
1.594900e+002, 3.281469e+002
1.599721e+002, 3.272055e+002
1.604542e+002, 3.255236e+002
1.609364e+002, 3.244807e+002
1.614185e+002, 3.250822e+002
1.619006e+002, 3.262823e+002
1.623827e+002, 3.272391e+002
1.628648e+002, 3.274224e+002
1.633469e+002, 3.275597e+002
1.638291e+002, 3.279065e+002
1.643112e+002, 3.284623e+002
1.647933e+002, 3.292324e+002
1.652754e+002, 3.304293e+002
1.657575e+002, 3.317682e+002
1.662396e+002, 3.329499e+002
1.667218e+002, 3.335288e+002
1.672039e+002, 3.341705e+002
1.676860e+002, 3.355274e+002
1.681681e+002, 3.375638e+002
1.686502e+002, 3.393109e+002
1.691323e+002, 3.400608e+002
1.696145e+002, 3.401528e+002
1.700966e+002, 3.400407e+002
1.705787e+002, 3.396105e+002
1.710608e+002, 3.392338e+002
1.715429e+002, 3.394216e+002
1.720250e+002, 3.402171e+002
1.725072e+002, 3.407896e+002
1.729893e+002, 3.404316e+002
1.734714e+002, 3.394168e+002
1.739535e+002, 3.382494e+002
1.744356e+002, 3.370171e+002
1.749177e+002, 3.358126e+002
1.753999e+002, 3.347685e+002
1.758820e+002, 3.338965e+002
1.763641e+002, 3.330224e+002
1.768462e+002, 3.319660e+002
1.773283e+002, 3.307579e+002
1.778104e+002, 3.294756e+002
1.782926e+002, 3.281940e+002
1.787747e+002, 3.268557e+002
1.792568e+002, 3.253781e+002
1.797389e+002, 3.237689e+002
1.802210e+002, 3.219961e+002
1.807031e+002, 3.200446e+002
1.811853e+002, 3.179229e+002
1.816674e+002, 3.157138e+002
1.821495e+002, 3.136939e+002
1.826316e+002, 3.116114e+002
1.831137e+002, 3.087877e+002
1.835958e+002, 3.050371e+002
1.840780e+002, 3.010827e+002
1.845601e+002, 2.978815e+002
1.850422e+002, 2.953799e+002
1.855243e+002, 2.927888e+002
1.860064e+002, 2.896465e+002
1.864885e+002, 2.860840e+002
1.869707e+002, 2.826239e+002
1.874528e+002, 2.792244e+002
1.879349e+002, 2.760514e+002
1.884170e+002, 2.734753e+002
1.888991e+002, 2.714619e+002
1.893812e+002, 2.694328e+002
1.898634e+002, 2.669401e+002
1.903455e+002, 2.640917e+002
1.908276e+002, 2.614734e+002
1.913097e+002, 2.590507e+002
1.917918e+002, 2.569502e+002
1.922739e+002, 2.555821e+002
1.927561e+002, 2.549595e+002
1.932382e+002, 2.542183e+002
1.937203e+002, 2.527662e+002
1.942024e+002, 2.506657e+002
1.946845e+002, 2.486207e+002
1.951666e+002, 2.466171e+002
1.956488e+002, 2.448152e+002
1.961309e+002, 2.437085e+002
1.966130e+002, 2.433822e+002
1.970951e+002, 2.429492e+002
1.975772e+002, 2.418692e+002
1.980593e+002, 2.401371e+002
1.985415e+002, 2.382709e+002
1.990236e+002, 2.362403e+002
1.995057e+002, 2.341761e+002
1.999878e+002, 2.324219e+002
2.004699e+002, 2.310014e+002
2.009520e+002, 2.297684e+002
2.014342e+002, 2.288163e+002
2.019163e+002, 2.282066e+002
2.023984e+002, 2.270402e+002
2.028805e+002, 2.251401e+002
2.033626e+002, 2.227551e+002
2.038447e+002, 2.204036e+002
2.043269e+002, 2.180070e+002
2.048090e+002, 2.159156e+002
2.052911e+002, 2.144395e+002
2.057732e+002, 2.136691e+002
2.062553e+002, 2.128436e+002
2.067374e+002, 2.118970e+002
2.072196e+002, 2.108818e+002
2.077017e+002, 2.099149e+002
2.081838e+002, 2.089642e+002
2.086659e+002, 2.081491e+002
2.091480e+002, 2.076528e+002
2.096301e+002, 2.076316e+002
2.101123e+002, 2.071665e+002
2.105944e+002, 2.060875e+002
2.110765e+002, 2.045933e+002
2.115586e+002, 2.031870e+002
2.120407e+002, 2.017767e+002
2.125228e+002, 2.006588e+002
2.130050e+002, 2.000967e+002
2.134871e+002, 2.002888e+002
2.139692e+002, 2.002931e+002
2.144513e+002, 2.000110e+002
2.149334e+002, 1.995255e+002
2.154155e+002, 1.990681e+002
2.158977e+002, 1.986330e+002
2.163798e+002, 1.982292e+002
2.168619e+002, 1.978822e+002
2.173440e+002, 1.976407e+002
2.178261e+002, 1.972832e+002
2.183082e+002, 1.967253e+002
2.187904e+002, 1.960668e+002
2.192725e+002, 1.956590e+002
2.197546e+002, 1.956712e+002
2.202367e+002, 1.956363e+002
2.207188e+002, 1.952594e+002
2.212009e+002, 1.942902e+002
2.216831e+002, 1.936710e+002
2.221652e+002, 1.935640e+002
2.226473e+002, 1.937897e+002
2.231294e+002, 1.938007e+002
2.236115e+002, 1.934425e+002
2.240936e+002, 1.931348e+002
2.245758e+002, 1.931415e+002
2.250579e+002, 1.937607e+002
2.255400e+002, 1.939363e+002
2.260221e+002, 1.934703e+002
2.265042e+002, 1.926006e+002
2.269863e+002, 1.919734e+002
2.274685e+002, 1.915761e+002
2.279506e+002, 1.914308e+002
2.284327e+002, 1.916336e+002
2.289148e+002, 1.925816e+002
2.293969e+002, 1.929019e+002
2.298790e+002, 1.922128e+002
2.303612e+002, 1.909976e+002
2.308433e+002, 1.905322e+002
2.313254e+002, 1.912342e+002
2.318075e+002, 1.920424e+002
2.322896e+002, 1.924613e+002
2.327717e+002, 1.921853e+002
2.332539e+002, 1.922795e+002
2.337360e+002, 1.929038e+002
2.342181e+002, 1.938352e+002
2.347002e+002, 1.945649e+002
2.351823e+002, 1.949673e+002
2.356644e+002, 1.953464e+002
2.361466e+002, 1.958936e+002
2.366287e+002, 1.968922e+002
2.371108e+002, 1.972295e+002
2.375929e+002, 1.965067e+002
2.380750e+002, 1.952845e+002
2.385571e+002, 1.947647e+002
2.390393e+002, 1.953709e+002
2.395214e+002, 1.960145e+002
2.400035e+002, 1.963032e+002
2.404856e+002, 1.961395e+002
2.409677e+002, 1.959052e+002
2.414498e+002, 1.954254e+002
2.419320e+002, 1.949721e+002
2.424141e+002, 1.951016e+002
2.428962e+002, 1.963308e+002
2.433783e+002, 1.973051e+002
2.438604e+002, 1.974456e+002
2.443425e+002, 1.963660e+002
2.448247e+002, 1.959087e+002
2.453068e+002, 1.962940e+002
2.457889e+002, 1.971653e+002
2.462710e+002, 1.980047e+002
2.467531e+002, 1.989143e+002
2.472352e+002, 1.996145e+002
2.477174e+002, 2.000036e+002
2.481995e+002, 2.000376e+002
2.486816e+002, 1.999365e+002
2.491637e+002, 1.995968e+002
2.496458e+002, 1.991944e+002
2.501279e+002, 1.989799e+002
2.506101e+002, 1.989905e+002
2.510922e+002, 1.991160e+002
2.515743e+002, 1.993753e+002
2.520564e+002, 1.998109e+002
2.525385e+002, 2.000166e+002
2.530206e+002, 1.997739e+002
2.535028e+002, 1.995032e+002
2.539849e+002, 1.997619e+002
2.544670e+002, 2.008270e+002
2.549491e+002, 2.018415e+002
2.554312e+002, 2.026322e+002
2.559133e+002, 2.031914e+002
2.563955e+002, 2.035067e+002
2.568776e+002, 2.033206e+002
2.573597e+002, 2.031808e+002
2.578418e+002, 2.037700e+002
2.583239e+002, 2.055542e+002
2.588061e+002, 2.069517e+002
2.592882e+002, 2.075141e+002
2.597703e+002, 2.072600e+002
2.602524e+002, 2.073976e+002
2.607345e+002, 2.080320e+002
2.612166e+002, 2.089102e+002
2.616988e+002, 2.098311e+002
2.621809e+002, 2.107668e+002
2.626630e+002, 2.117814e+002
2.631451e+002, 2.128964e+002
2.636272e+002, 2.141086e+002
2.641093e+002, 2.152571e+002
2.645915e+002, 2.162679e+002
2.650736e+002, 2.173665e+002
2.655557e+002, 2.188161e+002
2.660378e+002, 2.207341e+002
2.665199e+002, 2.224782e+002
2.670020e+002, 2.238442e+002
2.674842e+002, 2.249652e+002
2.679663e+002, 2.264497e+002
2.684484e+002, 2.283317e+002
2.689305e+002, 2.304836e+002
2.694126e+002, 2.328206e+002
2.698947e+002, 2.354056e+002
2.703769e+002, 2.380376e+002
2.708590e+002, 2.407241e+002
2.713411e+002, 2.434556e+002
2.718232e+002, 2.460313e+002
2.723053e+002, 2.483099e+002
2.727874e+002, 2.508459e+002
2.732696e+002, 2.540394e+002
2.737517e+002, 2.579665e+002
2.742338e+002, 2.620691e+002
2.747159e+002, 2.663539e+002
2.751980e+002, 2.707910e+002
2.756801e+002, 2.751497e+002
2.761623e+002, 2.793626e+002
2.766444e+002, 2.838077e+002
2.771265e+002, 2.885780e+002
2.776086e+002, 2.937209e+002
2.780907e+002, 2.995653e+002
2.785728e+002, 3.063243e+002
2.790550e+002, 3.135220e+002
2.795371e+002, 3.200193e+002
2.800192e+002, 3.256166e+002
2.805013e+002, 3.321510e+002
2.809834e+002, 3.407182e+002
2.814655e+002, 3.512660e+002
2.819477e+002, 3.616678e+002
2.824298e+002, 3.716672e+002
2.829119e+002, 3.819085e+002
2.833940e+002, 3.932873e+002
2.838761e+002, 4.058150e+002
2.843582e+002, 4.188062e+002
2.848404e+002, 4.321977e+002
2.853225e+002, 4.458771e+002
2.858046e+002, 4.591088e+002
2.862867e+002, 4.716561e+002
2.867688e+002, 4.842570e+002
2.872509e+002, 4.978765e+002
2.877331e+002, 5.124296e+002
2.882152e+002, 5.267577e+002
2.886973e+002, 5.405250e+002
2.891794e+002, 5.538592e+002
2.896615e+002, 5.669724e+002
2.901436e+002, 5.800143e+002
2.906258e+002, 5.924635e+002
2.911079e+002, 6.038799e+002
2.915900e+002, 6.143838e+002
2.920721e+002, 6.245762e+002
2.925542e+002, 6.343436e+002
2.930363e+002, 6.440086e+002
2.935185e+002, 6.541771e+002
2.940006e+002, 6.649378e+002
2.944827e+002, 6.757846e+002
2.949648e+002, 6.868138e+002
2.954469e+002, 6.978959e+002
2.959290e+002, 7.083681e+002
2.964112e+002, 7.180919e+002
2.968933e+002, 7.273718e+002
2.973754e+002, 7.368713e+002
2.978575e+002, 7.463834e+002
2.983396e+002, 7.549467e+002
2.988217e+002, 7.620674e+002
2.993039e+002, 7.677092e+002
2.997860e+002, 7.714661e+002
3.002681e+002, 7.731005e+002
3.007502e+002, 7.735397e+002
3.012323e+002, 7.739044e+002
3.017144e+002, 7.739924e+002
3.021966e+002, 7.731205e+002
3.026787e+002, 7.703131e+002
3.031608e+002, 7.665631e+002
3.036429e+002, 7.631077e+002
3.041250e+002, 7.600843e+002
3.046071e+002, 7.572921e+002
3.050893e+002, 7.543602e+002
3.055714e+002, 7.515334e+002
3.060535e+002, 7.494306e+002
3.065356e+002, 7.483085e+002
3.070177e+002, 7.480077e+002
3.074998e+002, 7.483531e+002
3.079820e+002, 7.493431e+002
3.084641e+002, 7.511732e+002
3.089462e+002, 7.540704e+002
3.094283e+002, 7.578849e+002
3.099104e+002, 7.623894e+002
3.103925e+002, 7.674037e+002
3.108747e+002, 7.731186e+002
3.113568e+002, 7.797758e+002
3.118389e+002, 7.873052e+002
3.123210e+002, 7.951135e+002
3.128031e+002, 8.023544e+002
3.132852e+002, 8.100385e+002
3.137674e+002, 8.192709e+002
3.142495e+002, 8.310890e+002
3.147316e+002, 8.433791e+002
3.152137e+002, 8.549852e+002
3.156958e+002, 8.661119e+002
3.161779e+002, 8.774503e+002
3.166601e+002, 8.891169e+002
3.171422e+002, 9.012051e+002
3.176243e+002, 9.137659e+002
3.181064e+002, 9.268906e+002
3.185885e+002, 9.400033e+002
3.190706e+002, 9.531368e+002
3.195528e+002, 9.660889e+002
3.200349e+002, 9.784756e+002
3.205170e+002, 9.891422e+002
3.209991e+002, 1.000068e+003
3.214812e+002, 1.012497e+003
3.219633e+002, 1.027339e+003
3.224455e+002, 1.040784e+003
3.229276e+002, 1.050869e+003
3.234097e+002, 1.059634e+003
3.238918e+002, 1.069587e+003
3.243739e+002, 1.083026e+003
3.248560e+002, 1.095824e+003
3.253382e+002, 1.106780e+003
3.258203e+002, 1.115727e+003
3.263024e+002, 1.124546e+003
3.267845e+002, 1.134174e+003
3.272666e+002, 1.143379e+003
3.277487e+002, 1.151214e+003
3.282309e+002, 1.157810e+003
3.287130e+002, 1.162809e+003
3.291951e+002, 1.166839e+003
3.296772e+002, 1.169646e+003
3.301593e+002, 1.168559e+003
3.306414e+002, 1.162179e+003
3.311236e+002, 1.153256e+003
3.316057e+002, 1.143229e+003
3.320878e+002, 1.132663e+003
3.325699e+002, 1.119879e+003
3.330520e+002, 1.104786e+003
3.335341e+002, 1.087516e+003
3.340163e+002, 1.068341e+003
3.344984e+002, 1.046624e+003
3.349805e+002, 1.024354e+003
3.354626e+002, 1.002123e+003
3.359447e+002, 9.797822e+002
3.364268e+002, 9.578719e+002
3.369090e+002, 9.364995e+002
3.373911e+002, 9.151915e+002
3.378732e+002, 8.932204e+002
3.383553e+002, 8.701869e+002
3.388374e+002, 8.480204e+002
3.393195e+002, 8.272363e+002
3.398017e+002, 8.079697e+002
3.402838e+002, 7.887981e+002
3.407659e+002, 7.694871e+002
3.412480e+002, 7.507656e+002
3.417301e+002, 7.329042e+002
3.422122e+002, 7.159507e+002
3.426944e+002, 7.005277e+002
3.431765e+002, 6.873154e+002
3.436586e+002, 6.754354e+002
3.441407e+002, 6.620447e+002
3.446228e+002, 6.470289e+002
3.451049e+002, 6.323793e+002
3.455871e+002, 6.200167e+002
3.460692e+002, 6.095236e+002
3.465513e+002, 5.993067e+002
3.470334e+002, 5.891874e+002
3.475155e+002, 5.790336e+002
3.479977e+002, 5.686776e+002
3.484798e+002, 5.581013e+002
3.489619e+002, 5.479348e+002
3.494440e+002, 5.387689e+002
3.499261e+002, 5.302286e+002
3.504082e+002, 5.214374e+002
3.508904e+002, 5.123098e+002
3.513725e+002, 5.031938e+002
3.518546e+002, 4.943865e+002
3.523367e+002, 4.858172e+002
3.528188e+002, 4.771996e+002
3.533009e+002, 4.683665e+002
3.537831e+002, 4.594408e+002
3.542652e+002, 4.503982e+002
3.547473e+002, 4.412637e+002
3.552294e+002, 4.325467e+002
3.557115e+002, 4.250156e+002
3.561936e+002, 4.180045e+002
3.566758e+002, 4.106238e+002
3.571579e+002, 4.020598e+002
3.576400e+002, 3.936358e+002
3.581221e+002, 3.862971e+002
3.586042e+002, 3.799236e+002
3.590863e+002, 3.738232e+002
3.595685e+002, 3.677059e+002
3.600506e+002, 3.617141e+002
3.605327e+002, 3.559365e+002
3.610148e+002, 3.503606e+002
3.614969e+002, 3.450774e+002
3.619790e+002, 3.399029e+002
3.624612e+002, 3.350948e+002
3.629433e+002, 3.309899e+002
3.634254e+002, 3.281111e+002
3.639075e+002, 3.255889e+002
3.643896e+002, 3.230835e+002
3.648717e+002, 3.205461e+002
3.653539e+002, 3.181914e+002
3.658360e+002, 3.160340e+002
3.663181e+002, 3.140970e+002
3.668002e+002, 3.123472e+002
3.672823e+002, 3.105794e+002
3.677644e+002, 3.092177e+002
3.682466e+002, 3.085223e+002
3.687287e+002, 3.084212e+002
3.692108e+002, 3.080782e+002
3.696929e+002, 3.069765e+002
3.701750e+002, 3.060816e+002
3.706571e+002, 3.059155e+002
3.711393e+002, 3.069828e+002
3.716214e+002, 3.078921e+002
3.721035e+002, 3.085133e+002
3.725856e+002, 3.090214e+002
3.730677e+002, 3.098579e+002
3.735498e+002, 3.113268e+002
3.740320e+002, 3.125555e+002
3.745141e+002, 3.131027e+002
3.749962e+002, 3.128417e+002
3.754783e+002, 3.131574e+002
3.759604e+002, 3.144362e+002
3.764425e+002, 3.156566e+002
3.769247e+002, 3.154805e+002
3.774068e+002, 3.137250e+002
3.778889e+002, 3.117355e+002
3.783710e+002, 3.099208e+002
3.788531e+002, 3.081317e+002
3.793352e+002, 3.056997e+002
3.798174e+002, 3.026367e+002
3.802995e+002, 2.989897e+002
3.807816e+002, 2.946791e+002
3.812637e+002, 2.897406e+002
3.817458e+002, 2.847522e+002
3.822279e+002, 2.796421e+002
3.827101e+002, 2.746896e+002
3.831922e+002, 2.701656e+002
3.836743e+002, 2.660416e+002
3.841564e+002, 2.624172e+002
3.846385e+002, 2.596579e+002
3.851206e+002, 2.573366e+002
3.856028e+002, 2.544159e+002
3.860849e+002, 2.507903e+002
3.865670e+002, 2.473063e+002
3.870491e+002, 2.445282e+002
3.875312e+002, 2.424553e+002
3.880133e+002, 2.410713e+002
3.884955e+002, 2.407147e+002
3.889776e+002, 2.407495e+002
3.894597e+002, 2.405707e+002
3.899418e+002, 2.402385e+002
3.904239e+002, 2.401186e+002
3.909060e+002, 2.404948e+002
3.913882e+002, 2.411494e+002
3.918703e+002, 2.418626e+002
3.923524e+002, 2.425117e+002
3.928345e+002, 2.433967e+002
3.933166e+002, 2.445807e+002
3.937987e+002, 2.461140e+002
3.942809e+002, 2.480710e+002
3.947630e+002, 2.508392e+002
3.952451e+002, 2.537278e+002
3.957272e+002, 2.564142e+002
3.962093e+002, 2.587907e+002
3.966914e+002, 2.614021e+002
3.971736e+002, 2.646895e+002
3.976557e+002, 2.680976e+002
3.981378e+002, 2.711281e+002
3.986199e+002, 2.731790e+002
3.991020e+002, 2.754256e+002
3.995841e+002, 2.782274e+002
4.000663e+002, 2.814434e+002
4.005484e+002, 2.841412e+002
4.010305e+002, 2.861487e+002
4.015126e+002, 2.878243e+002
4.019947e+002, 2.893107e+002
4.024768e+002, 2.904715e+002
4.029590e+002, 2.917884e+002
4.034411e+002, 2.935037e+002
4.039232e+002, 2.952052e+002
4.044053e+002, 2.961231e+002
4.048874e+002, 2.961006e+002
4.053695e+002, 2.957904e+002
4.058517e+002, 2.954143e+002
4.063338e+002, 2.949613e+002
4.068159e+002, 2.941280e+002
4.072980e+002, 2.928659e+002
4.077801e+002, 2.913939e+002
4.082622e+002, 2.900787e+002
4.087444e+002, 2.888836e+002
4.092265e+002, 2.870176e+002
4.097086e+002, 2.841741e+002
4.101907e+002, 2.807626e+002
4.106728e+002, 2.775617e+002
4.111549e+002, 2.745396e+002
4.116371e+002, 2.715131e+002
4.121192e+002, 2.684144e+002
4.126013e+002, 2.652444e+002
4.130834e+002, 2.619602e+002
4.135655e+002, 2.585434e+002
4.140476e+002, 2.552577e+002
4.145298e+002, 2.524958e+002
4.150119e+002, 2.500328e+002
4.154940e+002, 2.473361e+002
4.159761e+002, 2.434423e+002
4.164582e+002, 2.398238e+002
4.169403e+002, 2.381803e+002
4.174225e+002, 2.382100e+002
4.179046e+002, 2.381137e+002
4.183867e+002, 2.367341e+002
4.188688e+002, 2.348675e+002
4.193509e+002, 2.331910e+002
4.198330e+002, 2.318925e+002
4.203152e+002, 2.306497e+002
4.207973e+002, 2.290187e+002
4.212794e+002, 2.273900e+002
4.217615e+002, 2.264559e+002
4.222436e+002, 2.266631e+002
4.227257e+002, 2.273408e+002
4.232079e+002, 2.284299e+002
4.236900e+002, 2.300007e+002
4.241721e+002, 2.312949e+002
4.246542e+002, 2.318781e+002
4.251363e+002, 2.324025e+002
4.256184e+002, 2.333600e+002
4.261006e+002, 2.349394e+002
4.265827e+002, 2.366231e+002
4.270648e+002, 2.382868e+002
4.275469e+002, 2.400328e+002
4.280290e+002, 2.421878e+002
4.285111e+002, 2.448604e+002
4.289933e+002, 2.477092e+002
4.294754e+002, 2.505869e+002
4.299575e+002, 2.535089e+002
4.304396e+002, 2.563912e+002
4.309217e+002, 2.592242e+002
4.314038e+002, 2.620527e+002
4.318860e+002, 2.649556e+002
4.323681e+002, 2.679442e+002
4.328502e+002, 2.707026e+002
4.333323e+002, 2.731478e+002
4.338144e+002, 2.753131e+002
4.342965e+002, 2.776338e+002
4.347787e+002, 2.800947e+002
4.352608e+002, 2.814332e+002
4.357429e+002, 2.799175e+002
4.362250e+002, 2.766472e+002
4.367071e+002, 2.744909e+002
4.371892e+002, 2.739873e+002
4.376714e+002, 2.737592e+002
4.381535e+002, 2.724781e+002
4.386356e+002, 2.703592e+002
4.391177e+002, 2.678783e+002
4.395998e+002, 2.649320e+002
4.400819e+002, 2.619304e+002
4.405641e+002, 2.591877e+002
4.410462e+002, 2.566973e+002
4.415283e+002, 2.543645e+002
4.420104e+002, 2.521628e+002
4.424925e+002, 2.500925e+002
4.429746e+002, 2.481397e+002
4.434568e+002, 2.460247e+002
4.439389e+002, 2.444897e+002
4.444210e+002, 2.438860e+002
4.449031e+002, 2.440036e+002
4.453852e+002, 2.444443e+002
4.458673e+002, 2.454316e+002
4.463495e+002, 2.464413e+002
4.468316e+002, 2.471718e+002
4.473137e+002, 2.474905e+002
4.477958e+002, 2.485443e+002
4.482779e+002, 2.508202e+002
4.487600e+002, 2.534162e+002
4.492422e+002, 2.556127e+002
4.497243e+002, 2.569662e+002
4.502064e+002, 2.589086e+002
4.506885e+002, 2.617340e+002
4.511706e+002, 2.651707e+002
4.516527e+002, 2.684430e+002
4.521349e+002, 2.715529e+002
4.526170e+002, 2.745567e+002
4.530991e+002, 2.773032e+002
4.535812e+002, 2.798553e+002
4.540633e+002, 2.830787e+002
4.545454e+002, 2.871258e+002
4.550276e+002, 2.912585e+002
4.555097e+002, 2.946740e+002
4.559918e+002, 2.974609e+002
4.564739e+002, 2.999475e+002
4.569560e+002, 3.022216e+002
4.574381e+002, 3.042663e+002
4.579203e+002, 3.061214e+002
4.584024e+002, 3.077534e+002
4.588845e+002, 3.090453e+002
4.593666e+002, 3.102422e+002
4.598488e+002, 3.108998e+002
4.603309e+002, 3.104058e+002
4.608130e+002, 3.086887e+002
4.612951e+002, 3.061948e+002
4.617772e+002, 3.033513e+002
4.622593e+002, 2.999007e+002
4.627415e+002, 2.955833e+002
4.632236e+002, 2.900826e+002
4.637057e+002, 2.839406e+002
4.641878e+002, 2.772666e+002
4.646699e+002, 2.701566e+002
4.651520e+002, 2.627558e+002
4.656342e+002, 2.551761e+002
4.661163e+002, 2.474438e+002
4.665984e+002, 2.394189e+002
4.670805e+002, 2.308897e+002
4.675626e+002, 2.228089e+002
4.680447e+002, 2.152551e+002
4.685269e+002, 2.081491e+002
4.690090e+002, 2.013235e+002
4.694911e+002, 1.947529e+002
4.699732e+002, 1.885780e+002
4.704553e+002, 1.828208e+002
4.709374e+002, 1.774589e+002
4.714196e+002, 1.722140e+002
4.719017e+002, 1.670208e+002
4.723838e+002, 1.622341e+002
4.728659e+002, 1.580795e+002
4.733480e+002, 1.545415e+002
4.738301e+002, 1.513526e+002
4.743123e+002, 1.485155e+002
4.747944e+002, 1.459190e+002
4.752765e+002, 1.434736e+002
4.757586e+002, 1.411662e+002
4.762407e+002, 1.389258e+002
4.767228e+002, 1.367138e+002
4.772050e+002, 1.345705e+002
4.776871e+002, 1.325405e+002
4.781692e+002, 1.306364e+002
4.786513e+002, 1.289619e+002
4.791334e+002, 1.276796e+002
4.796155e+002, 1.266127e+002
4.800977e+002, 1.256000e+002
4.805798e+002, 1.246330e+002
4.810619e+002, 1.236507e+002
4.815440e+002, 1.225284e+002
4.820261e+002, 1.214154e+002
4.825082e+002, 1.204751e+002
4.829904e+002, 1.201691e+002
4.834725e+002, 1.196124e+002
4.839546e+002, 1.183416e+002
4.844367e+002, 1.165284e+002
4.849188e+002, 1.149694e+002
4.854009e+002, 1.137366e+002
4.858831e+002, 1.128102e+002
4.863652e+002, 1.122382e+002
4.868473e+002, 1.121964e+002
4.873294e+002, 1.118754e+002
4.878115e+002, 1.111646e+002
4.882936e+002, 1.102734e+002
4.887758e+002, 1.093703e+002
4.892579e+002, 1.083889e+002
4.897400e+002, 1.076006e+002
4.902221e+002, 1.070739e+002
4.907042e+002, 1.067506e+002
4.911863e+002, 1.064759e+002
4.916685e+002, 1.062455e+002
4.921506e+002, 1.060937e+002
4.926327e+002, 1.061785e+002
4.931148e+002, 1.063922e+002
4.935969e+002, 1.061322e+002
4.940790e+002, 1.053466e+002
4.945612e+002, 1.045400e+002
4.950433e+002, 1.042212e+002
4.955254e+002, 1.042498e+002
4.960075e+002, 1.043464e+002
4.964896e+002, 1.045666e+002
4.969717e+002, 1.046154e+002
4.974539e+002, 1.039423e+002
4.979360e+002, 1.028447e+002
4.984181e+002, 1.021206e+002
4.989002e+002, 1.025030e+002
4.993823e+002, 1.030951e+002
4.998644e+002, 1.033146e+002
5.003466e+002, 1.030897e+002
5.008287e+002, 1.029217e+002
5.013108e+002, 1.031036e+002
5.017929e+002, 1.033175e+002
5.022750e+002, 1.033212e+002
5.027571e+002, 1.027144e+002
5.032393e+002, 1.023694e+002
5.037214e+002, 1.024870e+002
5.042035e+002, 1.028468e+002
5.046856e+002, 1.029666e+002
5.051677e+002, 1.026625e+002
5.056498e+002, 1.024583e+002
5.061320e+002, 1.025457e+002
5.066141e+002, 1.029119e+002
5.070962e+002, 1.031612e+002
5.075783e+002, 1.032607e+002
5.080604e+002, 1.033583e+002
5.085425e+002, 1.036378e+002
5.090247e+002, 1.040735e+002
5.095068e+002, 1.042627e+002
5.099889e+002, 1.040856e+002
5.104710e+002, 1.038801e+002
5.109531e+002, 1.041659e+002
5.114352e+002, 1.048421e+002
5.119174e+002, 1.055389e+002
5.123995e+002, 1.061416e+002
5.128816e+002, 1.066516e+002
5.133637e+002, 1.069985e+002
5.138458e+002, 1.072209e+002
5.143279e+002, 1.075553e+002
5.148101e+002, 1.081565e+002
5.152922e+002, 1.089146e+002
5.157743e+002, 1.097825e+002
5.162564e+002, 1.108120e+002
5.167385e+002, 1.117313e+002
5.172206e+002, 1.124497e+002
5.177028e+002, 1.129982e+002
5.181849e+002, 1.134075e+002
5.186670e+002, 1.134850e+002
5.191491e+002, 1.136541e+002
5.196312e+002, 1.140856e+002
5.201133e+002, 1.146781e+002
5.205955e+002, 1.149983e+002
5.210776e+002, 1.149228e+002
5.215597e+002, 1.147838e+002
5.220418e+002, 1.147326e+002
5.225239e+002, 1.147890e+002
5.230060e+002, 1.147899e+002
5.234882e+002, 1.148094e+002
5.239703e+002, 1.145794e+002
5.244524e+002, 1.136823e+002
5.249345e+002, 1.121706e+002
5.254166e+002, 1.107820e+002
5.258987e+002, 1.096889e+002
5.263809e+002, 1.086826e+002
5.268630e+002, 1.073780e+002
5.273451e+002, 1.058338e+002
5.278272e+002, 1.043301e+002
5.283093e+002, 1.029332e+002
5.287914e+002, 1.016726e+002
5.292736e+002, 1.007041e+002
5.297557e+002, 9.998499e+001
5.302378e+002, 9.906838e+001
5.307199e+002, 9.737388e+001
5.312020e+002, 9.554678e+001
5.316841e+002, 9.415273e+001
5.321663e+002, 9.341976e+001
5.326484e+002, 9.280775e+001
5.331305e+002, 9.222777e+001
5.336126e+002, 9.166298e+001
5.340947e+002, 9.107604e+001
5.345768e+002, 9.033378e+001
5.350590e+002, 8.974142e+001
5.355411e+002, 8.939833e+001
5.360232e+002, 8.926119e+001
5.365053e+002, 8.909297e+001
5.369874e+002, 8.891286e+001
5.374695e+002, 8.866856e+001
5.379517e+002, 8.826986e+001
5.384338e+002, 8.769349e+001
5.389159e+002, 8.743603e+001
5.393980e+002, 8.755132e+001
5.398801e+002, 8.777172e+001
5.403622e+002, 8.778072e+001
5.408444e+002, 8.762630e+001
5.413265e+002, 8.753739e+001
5.418086e+002, 8.757040e+001
5.422907e+002, 8.767387e+001
5.427728e+002, 8.781400e+001
5.432549e+002, 8.797409e+001
5.437371e+002, 8.810384e+001
5.442192e+002, 8.827898e+001
5.447013e+002, 8.833740e+001
5.451834e+002, 8.797053e+001
5.456655e+002, 8.722414e+001
5.461476e+002, 8.686496e+001
5.466298e+002, 8.769277e+001
5.471119e+002, 8.869046e+001
5.475940e+002, 8.915627e+001
5.480761e+002, 8.866010e+001
5.485582e+002, 8.832890e+001
5.490403e+002, 8.844194e+001
5.495225e+002, 8.867004e+001
5.500046e+002, 8.858778e+001
5.504867e+002, 8.792847e+001
5.509688e+002, 8.751512e+001
5.514509e+002, 8.757590e+001
5.519330e+002, 8.795682e+001
5.524152e+002, 8.808072e+001
5.528973e+002, 8.791032e+001
5.533794e+002, 8.770749e+001
5.538615e+002, 8.761692e+001
5.543436e+002, 8.761143e+001
5.548257e+002, 8.751415e+001
5.553079e+002, 8.731685e+001
5.557900e+002, 8.717494e+001
5.562721e+002, 8.731567e+001
5.567542e+002, 8.759544e+001
5.572363e+002, 8.774570e+001
5.577184e+002, 8.768942e+001
5.582006e+002, 8.755757e+001
5.586827e+002, 8.740445e+001
5.591648e+002, 8.725491e+001
5.596469e+002, 8.714734e+001
5.601290e+002, 8.719231e+001
5.606111e+002, 8.718948e+001
5.610933e+002, 8.702317e+001
5.615754e+002, 8.672073e+001
5.620575e+002, 8.647222e+001
5.625396e+002, 8.632056e+001
5.630217e+002, 8.621363e+001
5.635038e+002, 8.615374e+001
5.639860e+002, 8.617616e+001
5.644681e+002, 8.605225e+001
5.649502e+002, 8.569030e+001
5.654323e+002, 8.532339e+001
5.659144e+002, 8.523344e+001
5.663965e+002, 8.545509e+001
5.668787e+002, 8.552666e+001
5.673608e+002, 8.536919e+001
5.678429e+002, 8.506498e+001
5.683250e+002, 8.470885e+001
5.688071e+002, 8.431734e+001
5.692892e+002, 8.399805e+001
5.697714e+002, 8.385694e+001
5.702535e+002, 8.377905e+001
5.707356e+002, 8.361005e+001
5.712177e+002, 8.335970e+001
5.716998e+002, 8.310219e+001
5.721819e+002, 8.272904e+001
5.726641e+002, 8.246078e+001
5.731462e+002, 8.257180e+001
5.736283e+002, 8.321164e+001
5.741104e+002, 8.357330e+001
5.745925e+002, 8.305498e+001
5.750746e+002, 8.234064e+001
5.755568e+002, 8.204915e+001
5.760389e+002, 8.260210e+001
5.765210e+002, 8.308076e+001
5.770031e+002, 8.350920e+001
5.774852e+002, 8.382056e+001
5.779673e+002, 8.382483e+001
5.784495e+002, 8.338670e+001
5.789316e+002, 8.308757e+001
5.794137e+002, 8.318260e+001
5.798958e+002, 8.354346e+001
5.803779e+002, 8.355309e+001
5.808600e+002, 8.319573e+001
5.813422e+002, 8.289214e+001
5.818243e+002, 8.301413e+001
5.823064e+002, 8.338927e+001
5.827885e+002, 8.364680e+001
5.832706e+002, 8.376167e+001
5.837527e+002, 8.373669e+001
5.842349e+002, 8.344526e+001
5.847170e+002, 8.306463e+001
5.851991e+002, 8.282669e+001
5.856812e+002, 8.287720e+001
5.861633e+002, 8.292451e+001
5.866454e+002, 8.275130e+001
5.871276e+002, 8.250361e+001
5.876097e+002, 8.244901e+001
5.880918e+002, 8.295615e+001
5.885739e+002, 8.329936e+001
5.890560e+002, 8.326794e+001
5.895381e+002, 8.291859e+001
5.900203e+002, 8.265597e+001
5.905024e+002, 8.248576e+001
5.909845e+002, 8.239294e+001
5.914666e+002, 8.238670e+001
5.919487e+002, 8.246864e+001
5.924308e+002, 8.256339e+001
5.929130e+002, 8.267918e+001
5.933951e+002, 8.277245e+001
5.938772e+002, 8.273410e+001
5.943593e+002, 8.263114e+001
5.948414e+002, 8.273705e+001
5.953235e+002, 8.317488e+001
5.958057e+002, 8.357161e+001
5.962878e+002, 8.344516e+001
5.967699e+002, 8.301572e+001
5.972520e+002, 8.269772e+001
5.977341e+002, 8.261443e+001
5.982162e+002, 8.271800e+001
5.986984e+002, 8.316055e+001
5.991805e+002, 8.380595e+001
5.996626e+002, 8.418180e+001
6.001447e+002, 8.389944e+001
6.006268e+002, 8.359718e+001
6.011089e+002, 8.355717e+001
6.015911e+002, 8.381934e+001
6.020732e+002, 8.382217e+001
6.025553e+002, 8.341159e+001
6.030374e+002, 8.298754e+001
6.035195e+002, 8.286871e+001
6.040016e+002, 8.308492e+001
6.044838e+002, 8.321801e+001
6.049659e+002, 8.323329e+001
6.054480e+002, 8.320335e+001
6.059301e+002, 8.319748e+001
6.064122e+002, 8.322080e+001
6.068943e+002, 8.330629e+001
6.073765e+002, 8.350896e+001
6.078586e+002, 8.369646e+001
6.083407e+002, 8.368149e+001
6.088228e+002, 8.353212e+001
6.093049e+002, 8.341586e+001
6.097870e+002, 8.342939e+001
6.102692e+002, 8.347720e+001
6.107513e+002, 8.356403e+001
6.112334e+002, 8.367146e+001
6.117155e+002, 8.362299e+001
6.121976e+002, 8.318040e+001
6.126797e+002, 8.275382e+001
6.131619e+002, 8.253040e+001
6.136440e+002, 8.254668e+001
6.141261e+002, 8.260865e+001
6.146082e+002, 8.277207e+001
6.150903e+002, 8.289538e+001
6.155724e+002, 8.277717e+001
6.160546e+002, 8.240062e+001
6.165367e+002, 8.228716e+001
6.170188e+002, 8.254593e+001
6.175009e+002, 8.296117e+001
6.179830e+002, 8.328510e+001
6.184651e+002, 8.351084e+001
6.189473e+002, 8.361301e+001
6.194294e+002, 8.356524e+001
6.199115e+002, 8.341000e+001
6.203936e+002, 8.304089e+001
6.208757e+002, 8.257646e+001
6.213578e+002, 8.236462e+001
6.218400e+002, 8.285247e+001
6.223221e+002, 8.337440e+001
6.228042e+002, 8.358217e+001
6.232863e+002, 8.345699e+001
6.237684e+002, 8.331225e+001
6.242505e+002, 8.311111e+001
6.247327e+002, 8.296465e+001
6.252148e+002, 8.293011e+001
6.256969e+002, 8.302089e+001
6.261790e+002, 8.321537e+001
6.266611e+002, 8.360751e+001
6.271432e+002, 8.390430e+001
6.276254e+002, 8.360331e+001
6.281075e+002, 8.276830e+001
6.285896e+002, 8.247604e+001
6.290717e+002, 8.300115e+001
6.295538e+002, 8.385229e+001
6.300359e+002, 8.455603e+001
6.305181e+002, 8.506379e+001
6.310002e+002, 8.526286e+001
6.314823e+002, 8.480302e+001
6.319644e+002, 8.431799e+001
6.324465e+002, 8.432630e+001
6.329286e+002, 8.468803e+001
6.334108e+002, 8.496361e+001
6.338929e+002, 8.494670e+001
6.343750e+002, 8.487186e+001
6.348571e+002, 8.485203e+001
6.353392e+002, 8.489662e+001
6.358214e+002, 8.479328e+001
6.363035e+002, 8.433378e+001
6.367856e+002, 8.402132e+001
6.372677e+002, 8.427121e+001
6.377498e+002, 8.522862e+001
6.382319e+002, 8.553602e+001
6.387141e+002, 8.506205e+001
6.391962e+002, 8.445654e+001
6.396783e+002, 8.438103e+001
6.401604e+002, 8.474582e+001
6.406425e+002, 8.524802e+001
6.411246e+002, 8.589555e+001
6.416068e+002, 8.647054e+001
6.420889e+002, 8.659545e+001
6.425710e+002, 8.652205e+001
6.430531e+002, 8.667982e+001
6.435352e+002, 8.760716e+001
6.440173e+002, 8.840801e+001
6.444995e+002, 8.862074e+001
6.449816e+002, 8.841555e+001
6.454637e+002, 8.829426e+001
6.459458e+002, 8.823445e+001
6.464279e+002, 8.839356e+001
6.469100e+002, 8.893945e+001
6.473922e+002, 8.981942e+001
6.478743e+002, 9.025701e+001
6.483564e+002, 9.015627e+001
6.488385e+002, 8.990764e+001
6.493206e+002, 8.965562e+001
6.498027e+002, 8.942010e+001
6.502849e+002, 8.942112e+001
6.507670e+002, 8.966393e+001
6.512491e+002, 9.004025e+001
6.517312e+002, 9.062392e+001
6.522133e+002, 9.122020e+001
6.526954e+002, 9.145088e+001
6.531776e+002, 9.114771e+001
6.536597e+002, 9.090281e+001
6.541418e+002, 9.114816e+001
6.546239e+002, 9.162342e+001
6.551060e+002, 9.202569e+001
6.555881e+002, 9.230772e+001
6.560703e+002, 9.247977e+001
6.565524e+002, 9.238862e+001
6.570345e+002, 9.223012e+001
6.575166e+002, 9.240150e+001
6.579987e+002, 9.313587e+001
6.584808e+002, 9.359151e+001
6.589630e+002, 9.346754e+001
6.594451e+002, 9.297852e+001
6.599272e+002, 9.288679e+001
6.604093e+002, 9.319329e+001
6.608914e+002, 9.354619e+001
6.613735e+002, 9.382896e+001
6.618557e+002, 9.400557e+001
6.623378e+002, 9.391638e+001
6.628199e+002, 9.360152e+001
6.633020e+002, 9.341080e+001
6.637841e+002, 9.366343e+001
6.642662e+002, 9.406767e+001
6.647484e+002, 9.444939e+001
6.652305e+002, 9.481272e+001
6.657126e+002, 9.495106e+001
6.661947e+002, 9.456273e+001
6.666768e+002, 9.410283e+001
6.671589e+002, 9.390023e+001
6.676411e+002, 9.409645e+001
6.681232e+002, 9.424268e+001
6.686053e+002, 9.432235e+001
6.690874e+002, 9.437117e+001
6.695695e+002, 9.440913e+001
6.700516e+002, 9.443618e+001
6.705338e+002, 9.456026e+001
6.710159e+002, 9.481512e+001
6.714980e+002, 9.514548e+001
6.719801e+002, 9.559994e+001
6.724622e+002, 9.607240e+001
6.729443e+002, 9.625680e+001
6.734265e+002, 9.582388e+001
6.739086e+002, 9.525796e+001
6.743907e+002, 9.475750e+001
6.748728e+002, 9.437225e+001
6.753549e+002, 9.425922e+001
6.758370e+002, 9.471126e+001
6.763192e+002, 9.519801e+001
6.768013e+002, 9.557967e+001
6.772834e+002, 9.585500e+001
6.777655e+002, 9.589071e+001
6.782476e+002, 9.551781e+001
6.787297e+002, 9.525655e+001
6.792119e+002, 9.543420e+001
6.796940e+002, 9.602238e+001
6.801761e+002, 9.649760e+001
6.806582e+002, 9.686539e+001
6.811403e+002, 9.701939e+001
6.816224e+002, 9.647877e+001
6.821046e+002, 9.575740e+001
6.825867e+002, 9.603871e+001
6.830688e+002, 9.759901e+001
6.835509e+002, 9.902465e+001
6.840330e+002, 9.931082e+001
6.845151e+002, 9.899588e+001
6.849973e+002, 9.861650e+001
6.854794e+002, 9.813055e+001
6.859615e+002, 9.783887e+001
6.864436e+002, 9.783224e+001
6.869257e+002, 9.802412e+001
6.874078e+002, 9.837608e+001
6.878900e+002, 9.907991e+001
6.883721e+002, 9.938354e+001
6.888542e+002, 9.900857e+001
6.893363e+002, 9.838901e+001
6.898184e+002, 9.856109e+001
6.903005e+002, 9.944830e+001
6.907827e+002, 1.000863e+002
6.912648e+002, 9.989855e+001
6.917469e+002, 9.947440e+001
6.922290e+002, 9.977502e+001
6.927111e+002, 1.005842e+002
6.931932e+002, 1.011945e+002
6.936754e+002, 1.009320e+002
6.941575e+002, 1.006483e+002
6.946396e+002, 1.008946e+002
6.951217e+002, 1.016362e+002
6.956038e+002, 1.022386e+002
6.960859e+002, 1.023782e+002
6.965681e+002, 1.025957e+002
6.970502e+002, 1.031653e+002
6.975323e+002, 1.041142e+002
6.980144e+002, 1.047067e+002
6.984965e+002, 1.049031e+002
6.989786e+002, 1.048878e+002
6.994608e+002, 1.046714e+002
6.999429e+002, 1.043360e+002
7.004250e+002, 1.042348e+002
7.009071e+002, 1.043862e+002
7.013892e+002, 1.047836e+002
7.018713e+002, 1.056951e+002
7.023535e+002, 1.067307e+002
7.028356e+002, 1.073726e+002
7.033177e+002, 1.074152e+002
7.037998e+002, 1.073952e+002
7.042819e+002, 1.073589e+002
7.047640e+002, 1.074433e+002
7.052462e+002, 1.078155e+002
7.057283e+002, 1.086918e+002
7.062104e+002, 1.094760e+002
7.066925e+002, 1.101062e+002
7.071746e+002, 1.106685e+002
7.076567e+002, 1.113148e+002
7.081389e+002, 1.120502e+002
7.086210e+002, 1.127341e+002
7.091031e+002, 1.133380e+002
7.095852e+002, 1.138768e+002
7.100673e+002, 1.142843e+002
7.105494e+002, 1.146340e+002
7.110316e+002, 1.151624e+002
7.115137e+002, 1.160720e+002
7.119958e+002, 1.171032e+002
7.124779e+002, 1.181333e+002
7.129600e+002, 1.191608e+002
7.134421e+002, 1.201601e+002
7.139243e+002, 1.211385e+002
7.144064e+002, 1.220848e+002
7.148885e+002, 1.229417e+002
7.153706e+002, 1.237436e+002
7.158527e+002, 1.246991e+002
7.163348e+002, 1.258001e+002
7.168170e+002, 1.270677e+002
7.172991e+002, 1.285005e+002
7.177812e+002, 1.301056e+002
7.182633e+002, 1.319297e+002
7.187454e+002, 1.339863e+002
7.192275e+002, 1.359364e+002
7.197097e+002, 1.374297e+002
7.201918e+002, 1.387854e+002
7.206739e+002, 1.404476e+002
7.211560e+002, 1.424389e+002
7.216381e+002, 1.444441e+002
7.221202e+002, 1.463154e+002
7.226024e+002, 1.481286e+002
7.230845e+002, 1.498998e+002
7.235666e+002, 1.515441e+002
7.240487e+002, 1.534469e+002
7.245308e+002, 1.557347e+002
7.250129e+002, 1.581443e+002
7.254951e+002, 1.604824e+002
7.259772e+002, 1.627695e+002
7.264593e+002, 1.649261e+002
7.269414e+002, 1.669141e+002
7.274235e+002, 1.689218e+002
7.279056e+002, 1.712827e+002
7.283878e+002, 1.738091e+002
7.288699e+002, 1.760538e+002
7.293520e+002, 1.778468e+002
7.298341e+002, 1.796082e+002
7.303162e+002, 1.818263e+002
7.307983e+002, 1.841027e+002
7.312805e+002, 1.859676e+002
7.317626e+002, 1.865826e+002
7.322447e+002, 1.877408e+002
7.327268e+002, 1.898970e+002
7.332089e+002, 1.925062e+002
7.336910e+002, 1.946203e+002
7.341732e+002, 1.960731e+002
7.346553e+002, 1.977954e+002
7.351374e+002, 1.999800e+002
7.356195e+002, 2.025041e+002
7.361016e+002, 2.053053e+002
7.365837e+002, 2.082768e+002
7.370659e+002, 2.109433e+002
7.375480e+002, 2.128770e+002
7.380301e+002, 2.146694e+002
7.385122e+002, 2.168199e+002
7.389943e+002, 2.192349e+002
7.394764e+002, 2.216561e+002
7.399586e+002, 2.237684e+002
7.404407e+002, 2.261080e+002
7.409228e+002, 2.290726e+002
7.414049e+002, 2.324613e+002
7.418870e+002, 2.353730e+002
7.423691e+002, 2.375472e+002
7.428513e+002, 2.398057e+002
7.433334e+002, 2.425352e+002
7.438155e+002, 2.455737e+002
7.442976e+002, 2.481848e+002
7.447797e+002, 2.504020e+002
7.452618e+002, 2.525993e+002
7.457440e+002, 2.552061e+002
7.462261e+002, 2.578278e+002
7.467082e+002, 2.599639e+002
7.471903e+002, 2.616370e+002
7.476724e+002, 2.633506e+002
7.481545e+002, 2.653278e+002
7.486367e+002, 2.673988e+002
7.491188e+002, 2.695315e+002
7.496009e+002, 2.717575e+002
7.500830e+002, 2.737676e+002
7.505651e+002, 2.753120e+002
7.510472e+002, 2.771414e+002
7.515294e+002, 2.797772e+002
7.520115e+002, 2.832119e+002
7.524936e+002, 2.865119e+002
7.529757e+002, 2.896815e+002
7.534578e+002, 2.928968e+002
7.539399e+002, 2.959845e+002
7.544221e+002, 2.992911e+002
7.549042e+002, 3.033976e+002
7.553863e+002, 3.084623e+002
7.558684e+002, 3.134834e+002
7.563505e+002, 3.176307e+002
7.568326e+002, 3.218058e+002
7.573148e+002, 3.267072e+002
7.577969e+002, 3.325049e+002
7.582790e+002, 3.388546e+002
7.587611e+002, 3.460673e+002
7.592432e+002, 3.535136e+002
7.597253e+002, 3.606397e+002
7.602075e+002, 3.674943e+002
7.606896e+002, 3.744381e+002
7.611717e+002, 3.816438e+002
7.616538e+002, 3.886099e+002
7.621359e+002, 3.948975e+002
7.626180e+002, 4.006761e+002
7.631002e+002, 4.060754e+002
7.635823e+002, 4.110356e+002
7.640644e+002, 4.159271e+002
7.645465e+002, 4.215115e+002
7.650286e+002, 4.269369e+002
7.655107e+002, 4.312379e+002
7.659929e+002, 4.334358e+002
7.664750e+002, 4.358777e+002
7.669571e+002, 4.389420e+002
7.674392e+002, 4.419144e+002
7.679213e+002, 4.437466e+002
7.684034e+002, 4.443903e+002
7.688856e+002, 4.451864e+002
7.693677e+002, 4.463055e+002
7.698498e+002, 4.477319e+002
7.703319e+002, 4.495535e+002
7.708140e+002, 4.516601e+002
7.712961e+002, 4.538505e+002
7.717783e+002, 4.561143e+002
7.722604e+002, 4.583398e+002
7.727425e+002, 4.599667e+002
7.732246e+002, 4.616579e+002
7.737067e+002, 4.644763e+002
7.741888e+002, 4.692617e+002
7.746710e+002, 4.740921e+002
7.751531e+002, 4.786712e+002
7.756352e+002, 4.833394e+002
7.761173e+002, 4.887311e+002
7.765994e+002, 4.948364e+002
7.770815e+002, 5.013370e+002
7.775637e+002, 5.081746e+002
7.780458e+002, 5.154257e+002
7.785279e+002, 5.233661e+002
7.790100e+002, 5.317955e+002
7.794921e+002, 5.402882e+002
7.799742e+002, 5.482187e+002
7.804564e+002, 5.565719e+002
7.809385e+002, 5.659352e+002
7.814206e+002, 5.760535e+002
7.819027e+002, 5.864344e+002
7.823848e+002, 5.968261e+002
7.828669e+002, 6.076378e+002
7.833491e+002, 6.189886e+002
7.838312e+002, 6.308008e+002
7.843133e+002, 6.429328e+002
7.847954e+002, 6.553243e+002
7.852775e+002, 6.671578e+002
7.857596e+002, 6.775834e+002
7.862418e+002, 6.879180e+002
7.867239e+002, 7.002100e+002
7.872060e+002, 7.137735e+002
7.876881e+002, 7.273171e+002
7.881702e+002, 7.398045e+002
7.886523e+002, 7.522538e+002
7.891345e+002, 7.645797e+002
7.896166e+002, 7.771000e+002
7.900987e+002, 7.911804e+002
7.905808e+002, 8.076555e+002
7.910629e+002, 8.237476e+002
7.915450e+002, 8.385536e+002
7.920272e+002, 8.526799e+002
7.925093e+002, 8.669503e+002
7.929914e+002, 8.815443e+002
7.934735e+002, 8.964999e+002
7.939556e+002, 9.120743e+002
7.944377e+002, 9.280223e+002
7.949199e+002, 9.439684e+002
7.954020e+002, 9.602343e+002
7.958841e+002, 9.769652e+002
7.963662e+002, 9.951102e+002
7.968483e+002, 1.012992e+003
7.973304e+002, 1.029697e+003
7.978126e+002, 1.045650e+003
7.982947e+002, 1.061610e+003
7.987768e+002, 1.077602e+003
7.992589e+002, 1.093544e+003
7.997410e+002, 1.109422e+003
8.002231e+002, 1.125236e+003
8.007053e+002, 1.140871e+003
8.011874e+002, 1.156330e+003
8.016695e+002, 1.172075e+003
8.021516e+002, 1.188429e+003
8.026337e+002, 1.204893e+003
8.031158e+002, 1.220517e+003
8.035980e+002, 1.235735e+003
8.040801e+002, 1.252442e+003
8.045622e+002, 1.271960e+003
8.050443e+002, 1.291989e+003
8.055264e+002, 1.311657e+003
8.060085e+002, 1.331398e+003
8.064907e+002, 1.352599e+003
8.069728e+002, 1.375346e+003
8.074549e+002, 1.399406e+003
8.079370e+002, 1.424634e+003
8.084191e+002, 1.451481e+003
8.089012e+002, 1.480736e+003
8.093834e+002, 1.512397e+003
8.098655e+002, 1.546464e+003
8.103476e+002, 1.583269e+003
8.108297e+002, 1.622325e+003
8.113118e+002, 1.662583e+003
8.117939e+002, 1.704607e+003
8.122761e+002, 1.749664e+003
8.127582e+002, 1.798401e+003
8.132403e+002, 1.849629e+003
8.137224e+002, 1.903100e+003
8.142045e+002, 1.958959e+003
8.146866e+002, 2.018550e+003
8.151688e+002, 2.080955e+003
8.156509e+002, 2.144418e+003
8.161330e+002, 2.208406e+003
8.166151e+002, 2.272665e+003
8.170972e+002, 2.338028e+003
8.175793e+002, 2.403113e+003
8.180615e+002, 2.466219e+003
8.185436e+002, 2.528815e+003
8.190257e+002, 2.586039e+003
8.195078e+002, 2.635698e+003
8.199899e+002, 2.677841e+003
8.204720e+002, 2.713572e+003
8.209542e+002, 2.743752e+003
8.214363e+002, 2.764529e+003
8.219184e+002, 2.774677e+003
8.224005e+002, 2.775284e+003
8.228826e+002, 2.768493e+003
8.233647e+002, 2.754390e+003
8.238469e+002, 2.733839e+003
8.243290e+002, 2.706938e+003
8.248111e+002, 2.673828e+003
8.252932e+002, 2.632771e+003
8.257753e+002, 2.585241e+003
8.262574e+002, 2.535554e+003
8.267396e+002, 2.483965e+003
8.272217e+002, 2.430343e+003
8.277038e+002, 2.373784e+003
8.281859e+002, 2.315482e+003
8.286681e+002, 2.256265e+003
8.291502e+002, 2.196647e+003
8.296323e+002, 2.135627e+003
8.301144e+002, 2.072754e+003
8.305966e+002, 2.009819e+003
8.310787e+002, 1.947043e+003
8.315608e+002, 1.885244e+003
8.320429e+002, 1.824688e+003
8.325250e+002, 1.765809e+003
8.330071e+002, 1.708829e+003
8.334893e+002, 1.652948e+003
8.339714e+002, 1.598999e+003
8.344535e+002, 1.547073e+003
8.349356e+002, 1.496640e+003
8.354177e+002, 1.449008e+003
8.358998e+002, 1.404677e+003
8.363820e+002, 1.363328e+003
8.368641e+002, 1.324121e+003
8.373462e+002, 1.287168e+003
8.378283e+002, 1.251990e+003
8.383104e+002, 1.218949e+003
8.387925e+002, 1.187357e+003
8.392747e+002, 1.155914e+003
8.397568e+002, 1.125517e+003
8.402389e+002, 1.097270e+003
8.407210e+002, 1.072038e+003
8.412031e+002, 1.047839e+003
8.416852e+002, 1.024856e+003
8.421674e+002, 1.002570e+003
8.426495e+002, 9.805407e+002
8.431316e+002, 9.586611e+002
8.436137e+002, 9.378524e+002
8.440958e+002, 9.180671e+002
8.445779e+002, 8.990897e+002
8.450601e+002, 8.806707e+002
8.455422e+002, 8.628430e+002
8.460243e+002, 8.452627e+002
8.465064e+002, 8.277812e+002
8.469885e+002, 8.107966e+002
8.474706e+002, 7.944407e+002
8.479528e+002, 7.785252e+002
8.484349e+002, 7.628328e+002
8.489170e+002, 7.469582e+002
8.493991e+002, 7.322802e+002
8.498812e+002, 7.189324e+002
8.503633e+002, 7.063029e+002
8.508455e+002, 6.939783e+002
8.513276e+002, 6.818969e+002
8.518097e+002, 6.699590e+002
8.522918e+002, 6.580526e+002
8.527739e+002, 6.467993e+002
8.532560e+002, 6.369238e+002
8.537382e+002, 6.276583e+002
8.542203e+002, 6.180291e+002
8.547024e+002, 6.078559e+002
8.551845e+002, 5.983963e+002
8.556666e+002, 5.905287e+002
8.561487e+002, 5.828771e+002
8.566309e+002, 5.745687e+002
8.571130e+002, 5.657581e+002
8.575951e+002, 5.584683e+002
8.580772e+002, 5.527813e+002
8.585593e+002, 5.473073e+002
8.590414e+002, 5.407053e+002
8.595236e+002, 5.338177e+002
8.600057e+002, 5.281790e+002
8.604878e+002, 5.236606e+002
8.609699e+002, 5.191738e+002
8.614520e+002, 5.137238e+002
8.619341e+002, 5.086187e+002
8.624163e+002, 5.044770e+002
8.628984e+002, 5.011879e+002
8.633805e+002, 4.983544e+002
8.638626e+002, 4.960459e+002
8.643447e+002, 4.938394e+002
8.648268e+002, 4.914448e+002
8.653090e+002, 4.890977e+002
8.657911e+002, 4.873604e+002
8.662732e+002, 4.862148e+002
8.667553e+002, 4.856597e+002
8.672374e+002, 4.862158e+002
8.677195e+002, 4.868315e+002
8.682017e+002, 4.864187e+002
8.686838e+002, 4.855429e+002
8.691659e+002, 4.859469e+002
8.696480e+002, 4.884263e+002
8.701301e+002, 4.908650e+002
8.706122e+002, 4.928266e+002
8.710944e+002, 4.945787e+002
8.715765e+002, 4.967660e+002
8.720586e+002, 4.993234e+002
8.725407e+002, 5.016745e+002
8.730228e+002, 5.034890e+002
8.735049e+002, 5.054110e+002
8.739871e+002, 5.077487e+002
8.744692e+002, 5.107299e+002
8.749513e+002, 5.147034e+002
8.754334e+002, 5.204211e+002
8.759155e+002, 5.262916e+002
8.763976e+002, 5.320801e+002
8.768798e+002, 5.380353e+002
8.773619e+002, 5.442480e+002
8.778440e+002, 5.506165e+002
8.783261e+002, 5.587054e+002
8.788082e+002, 5.687612e+002
8.792903e+002, 5.803297e+002
8.797725e+002, 5.926604e+002
8.802546e+002, 6.064249e+002
8.807367e+002, 6.227600e+002
8.812188e+002, 6.421129e+002
8.817009e+002, 6.627695e+002
8.821830e+002, 6.838824e+002
8.826652e+002, 7.064380e+002
8.831473e+002, 7.303982e+002
8.836294e+002, 7.554615e+002
8.841115e+002, 7.845190e+002
8.845936e+002, 8.178088e+002
8.850757e+002, 8.544832e+002
8.855579e+002, 8.944544e+002
8.860400e+002, 9.375510e+002
8.865221e+002, 9.835322e+002
8.870042e+002, 1.032064e+003
8.874863e+002, 1.083763e+003
8.879684e+002, 1.140135e+003
8.884506e+002, 1.198627e+003
8.889327e+002, 1.259539e+003
8.894148e+002, 1.322534e+003
8.898969e+002, 1.383421e+003
8.903790e+002, 1.443009e+003
8.908611e+002, 1.497068e+003
8.913433e+002, 1.545823e+003
8.918254e+002, 1.586918e+003
8.923075e+002, 1.617191e+003
8.927896e+002, 1.635854e+003
8.932717e+002, 1.639258e+003
8.937538e+002, 1.625338e+003
8.942360e+002, 1.595797e+003
8.947181e+002, 1.548912e+003
8.952002e+002, 1.487507e+003
8.956823e+002, 1.418508e+003
8.961644e+002, 1.340901e+003
8.966465e+002, 1.260631e+003
8.971287e+002, 1.178001e+003
8.976108e+002, 1.095169e+003
8.980929e+002, 1.016678e+003
8.985750e+002, 9.426666e+002
8.990571e+002, 8.739457e+002
8.995392e+002, 8.100457e+002
9.000214e+002, 7.516521e+002
9.005035e+002, 6.987610e+002
9.009856e+002, 6.512678e+002
9.014677e+002, 6.080390e+002
9.019498e+002, 5.705048e+002
9.024319e+002, 5.365538e+002
9.029141e+002, 5.064280e+002
9.033962e+002, 4.790596e+002
9.038783e+002, 4.528592e+002
9.043604e+002, 4.280930e+002
9.048425e+002, 4.066670e+002
9.053246e+002, 3.885113e+002
9.058068e+002, 3.723163e+002
9.062889e+002, 3.569834e+002
9.067710e+002, 3.428149e+002
9.072531e+002, 3.301161e+002
9.077352e+002, 3.190439e+002
9.082173e+002, 3.083804e+002
9.086995e+002, 2.976353e+002
9.091816e+002, 2.876295e+002
9.096637e+002, 2.790289e+002
9.101458e+002, 2.716225e+002
9.106279e+002, 2.641456e+002
9.111100e+002, 2.566322e+002
9.115922e+002, 2.497916e+002
9.120743e+002, 2.443477e+002
9.125564e+002, 2.394358e+002
9.130385e+002, 2.339101e+002
9.135206e+002, 2.281634e+002
9.140027e+002, 2.232478e+002
9.144849e+002, 2.203317e+002
9.149670e+002, 2.171636e+002
9.154491e+002, 2.131045e+002
9.159312e+002, 2.087238e+002
9.164133e+002, 2.052177e+002
9.168954e+002, 2.025641e+002
9.173776e+002, 2.002639e+002
9.178597e+002, 1.982294e+002
9.183418e+002, 1.963463e+002
9.188239e+002, 1.945280e+002
9.193060e+002, 1.927654e+002
9.197881e+002, 1.910424e+002
9.202703e+002, 1.893231e+002
9.207524e+002, 1.877058e+002
9.212345e+002, 1.863241e+002
9.217166e+002, 1.849208e+002
9.221987e+002, 1.832796e+002
9.226808e+002, 1.813931e+002
9.231630e+002, 1.793986e+002
9.236451e+002, 1.772731e+002
9.241272e+002, 1.753058e+002
9.246093e+002, 1.736867e+002
9.250914e+002, 1.723907e+002
9.255735e+002, 1.716249e+002
9.260557e+002, 1.713770e+002
9.265378e+002, 1.706149e+002
9.270199e+002, 1.684824e+002
9.275020e+002, 1.664108e+002
9.279841e+002, 1.650232e+002
9.284662e+002, 1.641225e+002
9.289484e+002, 1.622726e+002
9.294305e+002, 1.594820e+002
9.299126e+002, 1.571186e+002
9.303947e+002, 1.562659e+002
9.308768e+002, 1.557213e+002
9.313589e+002, 1.538721e+002
9.318411e+002, 1.512713e+002
9.323232e+002, 1.491739e+002
9.328053e+002, 1.485461e+002
9.332874e+002, 1.477002e+002
9.337695e+002, 1.463052e+002
9.342516e+002, 1.446497e+002
9.347338e+002, 1.431956e+002
9.352159e+002, 1.419307e+002
9.356980e+002, 1.405977e+002
9.361801e+002, 1.391407e+002
9.366622e+002, 1.376877e+002
9.371443e+002, 1.362992e+002
9.376265e+002, 1.350214e+002
9.381086e+002, 1.339951e+002
9.385907e+002, 1.333459e+002
9.390728e+002, 1.324321e+002
9.395549e+002, 1.307633e+002
9.400370e+002, 1.293014e+002
9.405192e+002, 1.287762e+002
9.410013e+002, 1.291132e+002
9.414834e+002, 1.288007e+002
9.419655e+002, 1.278444e+002
9.424476e+002, 1.267107e+002
9.429297e+002, 1.255728e+002
9.434119e+002, 1.245109e+002
9.438940e+002, 1.235860e+002
9.443761e+002, 1.228031e+002
9.448582e+002, 1.221789e+002
9.453403e+002, 1.221388e+002
9.458224e+002, 1.216442e+002
9.463046e+002, 1.202760e+002
9.467867e+002, 1.184990e+002
9.472688e+002, 1.175101e+002
9.477509e+002, 1.172051e+002
9.482330e+002, 1.167658e+002
9.487151e+002, 1.159528e+002
9.491973e+002, 1.149679e+002
9.496794e+002, 1.138763e+002
9.501615e+002, 1.127745e+002
9.506436e+002, 1.117675e+002
9.511257e+002, 1.108285e+002
9.516078e+002, 1.101439e+002
9.520900e+002, 1.098151e+002
9.525721e+002, 1.095733e+002
9.530542e+002, 1.092116e+002
9.535363e+002, 1.087404e+002
9.540184e+002, 1.082333e+002
9.545005e+002, 1.076945e+002
9.549827e+002, 1.070597e+002
9.554648e+002, 1.061020e+002
9.559469e+002, 1.051825e+002
9.564290e+002, 1.045882e+002
9.569111e+002, 1.043150e+002
9.573932e+002, 1.040553e+002
9.578754e+002, 1.037843e+002
9.583575e+002, 1.035385e+002
9.588396e+002, 1.033327e+002
9.593217e+002, 1.031553e+002
9.598038e+002, 1.030604e+002
9.602859e+002, 1.029857e+002
9.607681e+002, 1.027059e+002
9.612502e+002, 1.020684e+002
9.617323e+002, 1.013167e+002
9.622144e+002, 1.003296e+002
9.626965e+002, 9.943422e+001
9.631786e+002, 9.913313e+001
9.636608e+002, 9.988449e+001
9.641429e+002, 9.986343e+001
9.646250e+002, 9.881712e+001
9.651071e+002, 9.764131e+001
9.655892e+002, 9.736837e+001
9.660714e+002, 9.760023e+001
9.665535e+002, 9.743559e+001
9.670356e+002, 9.681151e+001
9.675177e+002, 9.614918e+001
9.679998e+002, 9.552737e+001
9.684819e+002, 9.505883e+001
9.689641e+002, 9.485805e+001
9.694462e+002, 9.487718e+001
9.699283e+002, 9.477451e+001
9.704104e+002, 9.452593e+001
9.708925e+002, 9.434744e+001
9.713746e+002, 9.441134e+001
9.718568e+002, 9.446568e+001
9.723389e+002, 9.401083e+001
9.728210e+002, 9.326264e+001
9.733031e+002, 9.267715e+001
9.737852e+002, 9.242440e+001
9.742673e+002, 9.234570e+001
9.747495e+002, 9.253532e+001
9.752316e+002, 9.277515e+001
9.757137e+002, 9.284305e+001
9.761958e+002, 9.273594e+001
9.766779e+002, 9.258255e+001
9.771600e+002, 9.240263e+001
9.776422e+002, 9.205877e+001
9.781243e+002, 9.109756e+001
9.786064e+002, 9.011694e+001
9.790885e+002, 8.987053e+001
9.795706e+002, 9.043043e+001
9.800527e+002, 9.077448e+001
9.805349e+002, 9.066584e+001
9.810170e+002, 9.043367e+001
9.814991e+002, 9.020304e+001
9.819812e+002, 8.992573e+001
9.824633e+002, 8.927551e+001
9.829454e+002, 8.835503e+001
9.834276e+002, 8.781387e+001
9.839097e+002, 8.815543e+001
9.843918e+002, 8.861867e+001
9.848739e+002, 8.873124e+001
9.853560e+002, 8.858926e+001
9.858381e+002, 8.830458e+001
9.863203e+002, 8.765467e+001
9.868024e+002, 8.747192e+001
9.872845e+002, 8.796185e+001
9.877666e+002, 8.848089e+001
9.882487e+002, 8.821602e+001
9.887308e+002, 8.748326e+001
9.892130e+002, 8.721349e+001
9.896951e+002, 8.746220e+001
9.901772e+002, 8.742764e+001
9.906593e+002, 8.624728e+001
9.911414e+002, 8.507182e+001
9.916235e+002, 8.454831e+001
9.921057e+002, 8.458578e+001
9.925878e+002, 8.473740e+001
9.930699e+002, 8.504348e+001
9.935520e+002, 8.513700e+001
9.940341e+002, 8.482516e+001
9.945162e+002, 8.433977e+001
9.949984e+002, 8.387469e+001
9.954805e+002, 8.351241e+001
9.959626e+002, 8.341971e+001
9.964447e+002, 8.394981e+001
9.969268e+002, 8.424301e+001
9.974089e+002, 8.405178e+001
9.978911e+002, 8.371751e+001
9.983732e+002, 8.358316e+001
9.988553e+002, 8.363741e+001
9.993374e+002, 8.337071e+001
9.998195e+002, 8.276054e+001
1.000302e+003, 8.226842e+001
1.000784e+003, 8.239552e+001
1.001266e+003, 8.266259e+001
1.001748e+003, 8.263856e+001
1.002230e+003, 8.234055e+001
1.002712e+003, 8.219450e+001
1.003194e+003, 8.235249e+001
1.003676e+003, 8.235353e+001
1.004159e+003, 8.197729e+001
1.004641e+003, 8.150977e+001
1.005123e+003, 8.169341e+001
1.005605e+003, 8.227801e+001
1.006087e+003, 8.245885e+001
1.006569e+003, 8.182523e+001
1.007051e+003, 8.123241e+001
1.007533e+003, 8.124902e+001
1.008016e+003, 8.139040e+001
1.008498e+003, 8.117665e+001
1.008980e+003, 8.049424e+001
1.009462e+003, 8.012789e+001
1.009944e+003, 8.010426e+001
1.010426e+003, 8.018504e+001
1.010908e+003, 8.030064e+001
1.011390e+003, 8.034709e+001
1.011872e+003, 8.009081e+001
1.012355e+003, 7.961198e+001
1.012837e+003, 7.927357e+001
1.013319e+003, 7.945010e+001
1.013801e+003, 7.941115e+001
1.014283e+003, 7.884818e+001
1.014765e+003, 7.814407e+001
1.015247e+003, 7.814487e+001
1.015729e+003, 7.872949e+001
1.016211e+003, 7.891335e+001
1.016694e+003, 7.842771e+001
1.017176e+003, 7.791579e+001
1.017658e+003, 7.791887e+001
1.018140e+003, 7.812520e+001
1.018622e+003, 7.826194e+001
1.019104e+003, 7.829469e+001
1.019586e+003, 7.834656e+001
1.020068e+003, 7.845741e+001
1.020551e+003, 7.845602e+001
1.021033e+003, 7.818483e+001
1.021515e+003, 7.778050e+001
1.021997e+003, 7.754735e+001
1.022479e+003, 7.744209e+001
1.022961e+003, 7.734065e+001
1.023443e+003, 7.713929e+001
1.023925e+003, 7.699783e+001
1.024407e+003, 7.698286e+001
1.024890e+003, 7.703480e+001
1.025372e+003, 7.708487e+001
1.025854e+003, 7.713126e+001
1.026336e+003, 7.722128e+001
1.026818e+003, 7.736556e+001
1.027300e+003, 7.748193e+001
1.027782e+003, 7.751486e+001
1.028264e+003, 7.747388e+001
1.028746e+003, 7.730027e+001
1.029229e+003, 7.699748e+001
1.029711e+003, 7.693740e+001
1.030193e+003, 7.727982e+001
1.030675e+003, 7.755605e+001
1.031157e+003, 7.762483e+001
1.031639e+003, 7.751653e+001
1.032121e+003, 7.722729e+001
1.032603e+003, 7.681540e+001
1.033086e+003, 7.646697e+001
1.033568e+003, 7.621921e+001
1.034050e+003, 7.608191e+001
1.034532e+003, 7.613930e+001
1.035014e+003, 7.625854e+001
1.035496e+003, 7.631179e+001
1.035978e+003, 7.627779e+001
1.036460e+003, 7.635007e+001
1.036943e+003, 7.653523e+001
1.037425e+003, 7.671024e+001
1.037907e+003, 7.682076e+001
1.038389e+003, 7.684645e+001
1.038871e+003, 7.668526e+001
1.039353e+003, 7.640243e+001
1.039835e+003, 7.626660e+001
1.040317e+003, 7.641794e+001
1.040799e+003, 7.658409e+001
1.041281e+003, 7.677432e+001
1.041764e+003, 7.688391e+001
1.042246e+003, 7.661758e+001
1.042728e+003, 7.613038e+001
1.043210e+003, 7.599822e+001
1.043692e+003, 7.637068e+001
1.044174e+003, 7.665614e+001
1.044656e+003, 7.641304e+001
1.045138e+003, 7.606617e+001
1.045621e+003, 7.589211e+001
1.046103e+003, 7.588023e+001
1.046585e+003, 7.587557e+001
1.047067e+003, 7.589057e+001
1.047549e+003, 7.571080e+001
1.048031e+003, 7.511000e+001
1.048513e+003, 7.445049e+001
1.048995e+003, 7.416147e+001
1.049478e+003, 7.412570e+001
1.049960e+003, 7.414385e+001
1.050442e+003, 7.418989e+001
1.050924e+003, 7.428394e+001
1.051406e+003, 7.453072e+001
1.051888e+003, 7.463451e+001
1.052370e+003, 7.421057e+001
1.052852e+003, 7.342886e+001
1.053334e+003, 7.286348e+001
1.053817e+003, 7.252444e+001
1.054299e+003, 7.224753e+001
1.054781e+003, 7.192075e+001
1.055263e+003, 7.166018e+001
1.055745e+003, 7.155070e+001
1.056227e+003, 7.153287e+001
1.056709e+003, 7.145525e+001
1.057191e+003, 7.130900e+001
1.057673e+003, 7.131119e+001
1.058156e+003, 7.155978e+001
1.058638e+003, 7.173608e+001
1.059120e+003, 7.137852e+001
1.059602e+003, 7.084978e+001
1.060084e+003, 7.055280e+001
1.060566e+003, 7.058669e+001
1.061048e+003, 7.061182e+001
1.061530e+003, 7.060603e+001
1.062013e+003, 7.061648e+001
1.062495e+003, 7.073238e+001
1.062977e+003, 7.082891e+001
1.063459e+003, 7.050719e+001
1.063941e+003, 6.990342e+001
1.064423e+003, 6.940012e+001
1.064905e+003, 6.918078e+001
1.065387e+003, 6.904040e+001
1.065870e+003, 6.904378e+001
1.066352e+003, 6.900095e+001
1.066834e+003, 6.867434e+001
1.067316e+003, 6.806281e+001
1.067798e+003, 6.769504e+001
1.068280e+003, 6.758807e+001
1.068762e+003, 6.754186e+001
1.069244e+003, 6.742290e+001
1.069726e+003, 6.729102e+001
1.070208e+003, 6.718022e+001
1.070691e+003, 6.709844e+001
1.071173e+003, 6.708099e+001
1.071655e+003, 6.717210e+001
1.072137e+003, 6.720193e+001
1.072619e+003, 6.716590e+001
1.073101e+003, 6.697977e+001
1.073583e+003, 6.632481e+001
1.074065e+003, 6.552710e+001
1.074548e+003, 6.515363e+001
1.075030e+003, 6.534808e+001
1.075512e+003, 6.553256e+001
1.075994e+003, 6.561720e+001
1.076476e+003, 6.557650e+001
1.076958e+003, 6.534026e+001
1.077440e+003, 6.499220e+001
1.077922e+003, 6.485674e+001
1.078405e+003, 6.490041e+001
1.078887e+003, 6.495818e+001
1.079369e+003, 6.494914e+001
1.079851e+003, 6.497012e+001
1.080333e+003, 6.518625e+001
1.080815e+003, 6.538750e+001
1.081297e+003, 6.532935e+001
1.081779e+003, 6.494762e+001
1.082261e+003, 6.463509e+001
1.082744e+003, 6.437893e+001
1.083226e+003, 6.432458e+001
1.083708e+003, 6.480650e+001
1.084190e+003, 6.536241e+001
1.084672e+003, 6.553793e+001
1.085154e+003, 6.537402e+001
1.085636e+003, 6.502270e+001
1.086118e+003, 6.436121e+001
1.086601e+003, 6.382755e+001
1.087083e+003, 6.347237e+001
1.087565e+003, 6.325975e+001
1.088047e+003, 6.317341e+001
1.088529e+003, 6.318747e+001
1.089011e+003, 6.327071e+001
1.089493e+003, 6.341804e+001
1.089975e+003, 6.353021e+001
1.090458e+003, 6.318845e+001
1.090940e+003, 6.330929e+001
1.091422e+003, 6.456876e+001
1.091904e+003, 6.632558e+001
1.092386e+003, 6.632095e+001
1.092868e+003, 6.484563e+001
1.093350e+003, 6.374280e+001
1.093832e+003, 6.362828e+001
1.094314e+003, 6.372604e+001
1.094797e+003, 6.357030e+001
1.095279e+003, 6.333242e+001
1.095761e+003, 6.318083e+001
1.096243e+003, 6.313280e+001
1.096725e+003, 6.298647e+001
1.097207e+003, 6.273126e+001
1.097689e+003, 6.250378e+001
1.098171e+003, 6.236109e+001
1.098653e+003, 6.230449e+001
1.099136e+003, 6.236512e+001
1.099618e+003, 6.250449e+001
1.100100e+003, 6.264985e+001
1.100582e+003, 6.280604e+001
1.101064e+003, 6.294578e+001
1.101546e+003, 6.310756e+001
1.102028e+003, 6.314882e+001
1.102510e+003, 6.282961e+001
1.102993e+003, 6.233123e+001
1.103475e+003, 6.205794e+001
1.103957e+003, 6.199279e+001
1.104439e+003, 6.192965e+001
1.104921e+003, 6.169696e+001
1.105403e+003, 6.156989e+001
1.105885e+003, 6.158460e+001
1.106367e+003, 6.176508e+001
1.106849e+003, 6.236929e+001
1.107332e+003, 6.323142e+001
1.107814e+003, 6.332619e+001
1.108296e+003, 6.244115e+001
1.108778e+003, 6.163898e+001
1.109260e+003, 6.179794e+001
1.109742e+003, 6.207180e+001
1.110224e+003, 6.179038e+001
1.110706e+003, 6.112761e+001
1.111188e+003, 6.116043e+001
1.111671e+003, 6.190915e+001
1.112153e+003, 6.233678e+001
1.112635e+003, 6.201244e+001
1.113117e+003, 6.151310e+001
1.113599e+003, 6.141398e+001
1.114081e+003, 6.146173e+001
1.114563e+003, 6.132669e+001
1.115045e+003, 6.088529e+001
1.115528e+003, 6.074420e+001
1.116010e+003, 6.094212e+001
1.116492e+003, 6.128115e+001
1.116974e+003, 6.176611e+001
1.117456e+003, 6.222294e+001
1.117938e+003, 6.236573e+001
1.118420e+003, 6.226411e+001
1.118902e+003, 6.206632e+001
1.119385e+003, 6.165632e+001
1.119867e+003, 6.141309e+001
1.120349e+003, 6.142387e+001
1.120831e+003, 6.146486e+001
1.121313e+003, 6.125095e+001
1.121795e+003, 6.092154e+001
1.122277e+003, 6.101181e+001
1.122759e+003, 6.143233e+001
1.123241e+003, 6.158017e+001
1.123724e+003, 6.054554e+001
1.124206e+003, 6.003604e+001
1.124688e+003, 6.087346e+001
1.125170e+003, 6.213034e+001
1.125652e+003, 6.220461e+001
1.126134e+003, 6.130264e+001
1.126616e+003, 6.091076e+001
1.127098e+003, 6.121772e+001
1.127580e+003, 6.159106e+001
1.128063e+003, 6.163623e+001
1.128545e+003, 6.158266e+001
1.129027e+003, 6.155675e+001
1.129509e+003, 6.155243e+001
1.129991e+003, 6.153283e+001
1.130473e+003, 6.149805e+001
1.130955e+003, 6.148023e+001
1.131437e+003, 6.150243e+001
1.131920e+003, 6.148635e+001
1.132402e+003, 6.130322e+001
1.132884e+003, 6.108221e+001
1.133366e+003, 6.096232e+001
1.133848e+003, 6.096242e+001
1.134330e+003, 6.089093e+001
1.134812e+003, 6.071556e+001
1.135294e+003, 6.065437e+001
1.135776e+003, 6.085945e+001
1.136259e+003, 6.113234e+001
1.136741e+003, 6.119437e+001
1.137223e+003, 6.114778e+001
1.137705e+003, 6.116693e+001
1.138187e+003, 6.140723e+001
1.138669e+003, 6.138977e+001
1.139151e+003, 6.099299e+001
1.139633e+003, 6.064459e+001
1.140115e+003, 6.067817e+001
1.140598e+003, 6.093547e+001
1.141080e+003, 6.118280e+001
1.141562e+003, 6.137247e+001
1.142044e+003, 6.137800e+001
1.142526e+003, 6.088428e+001
1.143008e+003, 6.060498e+001
1.143490e+003, 6.069632e+001
1.143972e+003, 6.089128e+001
1.144455e+003, 6.091922e+001
1.144937e+003, 6.083243e+001
1.145419e+003, 6.078575e+001
1.145901e+003, 6.078920e+001
1.146383e+003, 6.085189e+001
1.146865e+003, 6.107527e+001
1.147347e+003, 6.123200e+001
1.147829e+003, 6.121009e+001
1.148312e+003, 6.113518e+001
1.148794e+003, 6.128289e+001
1.149276e+003, 6.158705e+001
1.149758e+003, 6.151034e+001
1.150240e+003, 6.098413e+001
1.150722e+003, 6.055577e+001
1.151204e+003, 6.069316e+001
1.151686e+003, 6.090911e+001
1.152168e+003, 6.091789e+001
1.152651e+003, 6.079934e+001
1.153133e+003, 6.081479e+001
1.153615e+003, 6.095543e+001
1.154097e+003, 6.098341e+001
1.154579e+003, 6.081068e+001
1.155061e+003, 6.069891e+001
1.155543e+003, 6.097180e+001
1.156025e+003, 6.130879e+001
1.156507e+003, 6.137561e+001
1.156990e+003, 6.121291e+001
1.157472e+003, 6.135717e+001
1.157954e+003, 6.184199e+001
1.158436e+003, 6.207344e+001
1.158918e+003, 6.170950e+001
1.159400e+003, 6.135714e+001
1.159882e+003, 6.188721e+001
1.160364e+003, 6.262663e+001
1.160847e+003, 6.272096e+001
1.161329e+003, 6.198483e+001
1.161811e+003, 6.137963e+001
1.162293e+003, 6.088759e+001
1.162775e+003, 6.068250e+001
1.163257e+003, 6.102656e+001
1.163739e+003, 6.149339e+001
1.164221e+003, 6.155119e+001
1.164703e+003, 6.135514e+001
1.165186e+003, 6.115060e+001
1.165668e+003, 6.089433e+001
1.166150e+003, 6.087969e+001
1.166632e+003, 6.117651e+001
1.167114e+003, 6.145576e+001
1.167596e+003, 6.146783e+001
1.168078e+003, 6.131741e+001
1.168560e+003, 6.109007e+001
1.169042e+003, 6.084589e+001
1.169525e+003, 6.074736e+001
1.170007e+003, 6.108751e+001
1.170489e+003, 6.110360e+001
1.170971e+003, 6.059919e+001
1.171453e+003, 6.017186e+001
1.171935e+003, 6.057530e+001
1.172417e+003, 6.138180e+001
1.172899e+003, 6.177833e+001
1.173382e+003, 6.178866e+001
1.173864e+003, 6.169168e+001
1.174346e+003, 6.140847e+001
1.174828e+003, 6.127932e+001
1.175310e+003, 6.138811e+001
1.175792e+003, 6.159387e+001
1.176274e+003, 6.179124e+001
1.176756e+003, 6.192493e+001
1.177239e+003, 6.177503e+001
1.177721e+003, 6.135830e+001
1.178203e+003, 6.114354e+001
1.178685e+003, 6.153769e+001
1.179167e+003, 6.187579e+001
1.179649e+003, 6.200156e+001
1.180131e+003, 6.198877e+001
1.180613e+003, 6.193272e+001
1.181095e+003, 6.185291e+001
1.181578e+003, 6.182399e+001
1.182060e+003, 6.186116e+001
1.182542e+003, 6.184566e+001
1.183024e+003, 6.159381e+001
1.183506e+003, 6.144799e+001
1.183988e+003, 6.156922e+001
1.184470e+003, 6.183958e+001
1.184952e+003, 6.197064e+001
1.185434e+003, 6.199052e+001
1.185917e+003, 6.199993e+001
1.186399e+003, 6.202572e+001
1.186881e+003, 6.202251e+001
1.187363e+003, 6.197021e+001
1.187845e+003, 6.187450e+001
1.188327e+003, 6.171009e+001
1.188809e+003, 6.151699e+001
1.189291e+003, 6.146008e+001
1.189774e+003, 6.151536e+001
1.190256e+003, 6.157397e+001
1.190738e+003, 6.160909e+001
1.191220e+003, 6.161821e+001
1.191702e+003, 6.156112e+001
1.192184e+003, 6.151586e+001
1.192666e+003, 6.153793e+001
1.193148e+003, 6.161530e+001
1.193630e+003, 6.170502e+001
1.194113e+003, 6.178796e+001
1.194595e+003, 6.172989e+001
1.195077e+003, 6.131064e+001
1.195559e+003, 6.104974e+001
1.196041e+003, 6.143179e+001
1.196523e+003, 6.188926e+001
1.197005e+003, 6.195746e+001
1.197487e+003, 6.166402e+001
1.197969e+003, 6.140510e+001
1.198452e+003, 6.120503e+001
1.198934e+003, 6.123842e+001
1.199416e+003, 6.190814e+001
1.199898e+003, 6.243459e+001
1.200380e+003, 6.236198e+001
1.200862e+003, 6.201569e+001
1.201344e+003, 6.167228e+001
1.201826e+003, 6.132944e+001
1.202309e+003, 6.108493e+001
1.202791e+003, 6.093930e+001
1.203273e+003, 6.090992e+001
1.203755e+003, 6.123040e+001
1.204237e+003, 6.141288e+001
1.204719e+003, 6.090179e+001
1.205201e+003, 6.031411e+001
1.205683e+003, 6.053663e+001
1.206166e+003, 6.154348e+001
1.206648e+003, 6.184578e+001
1.207130e+003, 6.142316e+001
1.207612e+003, 6.099260e+001
1.208094e+003, 6.097365e+001
1.208576e+003, 6.111754e+001
1.209058e+003, 6.144987e+001
1.209540e+003, 6.177758e+001
1.210022e+003, 6.180888e+001
1.210505e+003, 6.155347e+001
1.210987e+003, 6.126078e+001
1.211469e+003, 6.095039e+001
1.211951e+003, 6.071923e+001
1.212433e+003, 6.054994e+001
1.212915e+003, 6.056591e+001
1.213397e+003, 6.103784e+001
1.213879e+003, 6.163611e+001
1.214361e+003, 6.177901e+001
1.214844e+003, 6.149412e+001
1.215326e+003, 6.116651e+001
1.215808e+003, 6.083911e+001
1.216290e+003, 6.057566e+001
1.216772e+003, 6.039318e+001
1.217254e+003, 6.031915e+001
1.217736e+003, 6.042652e+001
1.218218e+003, 6.061890e+001
1.218701e+003, 6.070502e+001
1.219183e+003, 6.069173e+001
1.219665e+003, 6.065177e+001
1.220147e+003, 6.059212e+001
1.220629e+003, 6.058387e+001
1.221111e+003, 6.083278e+001
1.221593e+003, 6.096446e+001
1.222075e+003, 6.066700e+001
1.222557e+003, 6.017226e+001
1.223040e+003, 6.014151e+001
1.223522e+003, 6.050014e+001
1.224004e+003, 6.063160e+001
1.224486e+003, 6.040185e+001
1.224968e+003, 6.020410e+001
1.225450e+003, 6.038733e+001
1.225932e+003, 6.054661e+001
1.226414e+003, 6.043032e+001
1.226896e+003, 6.016263e+001
1.227379e+003, 6.013425e+001
1.227861e+003, 6.030457e+001
1.228343e+003, 6.045835e+001
1.228825e+003, 6.054982e+001
1.229307e+003, 6.061182e+001
1.229789e+003, 6.063850e+001
1.230271e+003, 6.066695e+001
1.230753e+003, 6.073226e+001
1.231236e+003, 6.080387e+001
1.231718e+003, 6.071336e+001
1.232200e+003, 6.052943e+001
1.232682e+003, 6.057203e+001
1.233164e+003, 6.097718e+001
1.233646e+003, 6.133601e+001
1.234128e+003, 6.158460e+001
1.234610e+003, 6.155220e+001
1.235093e+003, 6.103811e+001
1.235575e+003, 6.026923e+001
1.236057e+003, 5.999070e+001
1.236539e+003, 6.009724e+001
1.237021e+003, 6.026922e+001
1.237503e+003, 6.044839e+001
1.237985e+003, 6.056776e+001
1.238467e+003, 6.050322e+001
1.238949e+003, 6.050547e+001
1.239432e+003, 6.076463e+001
1.239914e+003, 6.111430e+001
1.240396e+003, 6.093299e+001
1.240878e+003, 6.042499e+001
1.241360e+003, 6.019811e+001
1.241842e+003, 6.056466e+001
1.242324e+003, 6.075130e+001
1.242806e+003, 6.047844e+001
1.243288e+003, 6.016988e+001
1.243771e+003, 6.000467e+001
1.244253e+003, 5.997076e+001
1.244735e+003, 6.017849e+001
1.245217e+003, 6.046759e+001
1.245699e+003, 6.042612e+001
1.246181e+003, 5.976388e+001
1.246663e+003, 5.925857e+001
1.247145e+003, 5.893982e+001
1.247628e+003, 5.890160e+001
1.248110e+003, 5.931800e+001
1.248592e+003, 5.992422e+001
1.249074e+003, 6.021136e+001
1.249556e+003, 6.024181e+001
1.250038e+003, 6.012896e+001
1.250520e+003, 5.981608e+001
1.251002e+003, 5.956417e+001
1.251484e+003, 5.937219e+001
1.251967e+003, 5.927684e+001
1.252449e+003, 5.932223e+001
1.252931e+003, 5.945440e+001
1.253413e+003, 5.958831e+001
1.253895e+003, 5.974585e+001
1.254377e+003, 5.999648e+001
1.254859e+003, 6.053006e+001
1.255341e+003, 6.057158e+001
1.255823e+003, 6.001966e+001
1.256306e+003, 5.945003e+001
1.256788e+003, 5.918548e+001
1.257270e+003, 5.910350e+001
1.257752e+003, 5.906855e+001
1.258234e+003, 5.911249e+001
1.258716e+003, 5.933884e+001
1.259198e+003, 5.988786e+001
1.259680e+003, 5.997959e+001
1.260163e+003, 5.956200e+001
1.260645e+003, 5.919764e+001
1.261127e+003, 5.924581e+001
1.261609e+003, 5.943264e+001
1.262091e+003, 5.960978e+001
1.262573e+003, 5.971665e+001
1.263055e+003, 5.965747e+001
1.263537e+003, 5.940631e+001
1.264020e+003, 5.918691e+001
1.264502e+003, 5.899828e+001
1.264984e+003, 5.888240e+001
1.265466e+003, 5.887387e+001
1.265948e+003, 5.893319e+001
1.266430e+003, 5.912910e+001
1.266912e+003, 5.931140e+001
1.267394e+003, 5.928968e+001
1.267876e+003, 5.905984e+001
1.268359e+003, 5.898109e+001
1.268841e+003, 5.903170e+001
1.269323e+003, 5.901283e+001
1.269805e+003, 5.866840e+001
1.270287e+003, 5.843154e+001
1.270769e+003, 5.861721e+001
1.271251e+003, 5.889161e+001
1.271733e+003, 5.896275e+001
1.272215e+003, 5.887474e+001
1.272698e+003, 5.905620e+001
1.273180e+003, 5.943583e+001
1.273662e+003, 5.967434e+001
1.274144e+003, 5.950010e+001
1.274626e+003, 5.931524e+001
1.275108e+003, 5.902833e+001
1.275590e+003, 5.901445e+001
1.276072e+003, 5.995324e+001
1.276555e+003, 6.133038e+001
1.277037e+003, 6.123883e+001
1.277519e+003, 6.005074e+001
1.278001e+003, 5.885298e+001
1.278483e+003, 5.770060e+001
1.278965e+003, 5.724081e+001
1.279447e+003, 5.773258e+001
1.279929e+003, 5.831661e+001
1.280411e+003, 5.824746e+001
1.280894e+003, 5.787979e+001
1.281376e+003, 5.783118e+001
1.281858e+003, 5.801491e+001
1.282340e+003, 5.823703e+001
1.282822e+003, 5.857311e+001
1.283304e+003, 5.868984e+001
1.283786e+003, 5.856368e+001
1.284268e+003, 5.833588e+001
1.284750e+003, 5.789512e+001
1.285233e+003, 5.758606e+001
1.285715e+003, 5.801353e+001
1.286197e+003, 5.878057e+001
1.286679e+003, 5.920305e+001
1.287161e+003, 5.922424e+001
1.287643e+003, 5.892527e+001
1.288125e+003, 5.828894e+001
1.288607e+003, 5.776570e+001
1.289090e+003, 5.774199e+001
1.289572e+003, 5.781777e+001
1.290054e+003, 5.762599e+001
1.290536e+003, 5.743447e+001
1.291018e+003, 5.761998e+001
1.291500e+003, 5.820607e+001
1.291982e+003, 5.843648e+001
1.292464e+003, 5.833897e+001
1.292947e+003, 5.818106e+001
1.293429e+003, 5.807041e+001
1.293911e+003, 5.797276e+001
1.294393e+003, 5.786128e+001
1.294875e+003, 5.777394e+001
1.295357e+003, 5.777232e+001
1.295839e+003, 5.782265e+001
1.296321e+003, 5.769250e+001
1.296803e+003, 5.744217e+001
1.297286e+003, 5.728314e+001
1.297768e+003, 5.724003e+001
1.298250e+003, 5.743720e+001
1.298732e+003, 5.802446e+001
1.299214e+003, 5.856281e+001
1.299696e+003, 5.873637e+001
1.300178e+003, 5.864880e+001
1.300660e+003, 5.852095e+001
##END=



