##NAMES=Molybdomenite
##RRUFFID=R140388
##IDEAL CHEMISTRY=Pb^2+^Se^4+^O_3_
##LOCALITY=Virgen de Surumi mine, Pakajake Canyon, Chayanta Province, Potos√≠ Department, Bolivia
##OWNER=RRUFF
##SOURCE=Rock Currier
##DESCRIPTION=Yellowish white tabular crystal with good cleavage, associated with calcite
##STATUS=The identification of this mineral has been confirmed by single-crystal X-ray diffraction.
##URL=rruff.info/R140388
8.758203e+001, 2.821305e+003
8.806415e+001, 2.735249e+003
8.854626e+001, 2.720074e+003
8.902838e+001, 2.796196e+003
8.951050e+001, 2.903949e+003
8.999261e+001, 3.031336e+003
9.047473e+001, 3.173379e+003
9.095685e+001, 3.314382e+003
9.143896e+001, 3.439031e+003
9.192108e+001, 3.547110e+003
9.240320e+001, 3.657846e+003
9.288531e+001, 3.730252e+003
9.336743e+001, 3.734885e+003
9.384955e+001, 3.684343e+003
9.433167e+001, 3.633140e+003
9.481378e+001, 3.573727e+003
9.529590e+001, 3.526598e+003
9.577802e+001, 3.491039e+003
9.626013e+001, 3.462651e+003
9.674225e+001, 3.437879e+003
9.722437e+001, 3.416007e+003
9.770648e+001, 3.399918e+003
9.818860e+001, 3.390480e+003
9.867072e+001, 3.385666e+003
9.915283e+001, 3.384539e+003
9.963495e+001, 3.386626e+003
1.001171e+002, 3.391365e+003
1.005992e+002, 3.397038e+003
1.010813e+002, 3.399452e+003
1.015634e+002, 3.412605e+003
1.020455e+002, 3.436968e+003
1.025277e+002, 3.468018e+003
1.030098e+002, 3.501777e+003
1.034919e+002, 3.536677e+003
1.039740e+002, 3.574341e+003
1.044561e+002, 3.620218e+003
1.049382e+002, 3.677023e+003
1.054204e+002, 3.738856e+003
1.059025e+002, 3.803804e+003
1.063846e+002, 3.873214e+003
1.068667e+002, 3.948866e+003
1.073488e+002, 4.031835e+003
1.078309e+002, 4.122385e+003
1.083131e+002, 4.219794e+003
1.087952e+002, 4.324390e+003
1.092773e+002, 4.434224e+003
1.097594e+002, 4.549148e+003
1.102415e+002, 4.669017e+003
1.107236e+002, 4.789228e+003
1.112058e+002, 4.909517e+003
1.116879e+002, 5.027468e+003
1.121700e+002, 5.134882e+003
1.126521e+002, 5.234692e+003
1.131342e+002, 5.321705e+003
1.136163e+002, 5.388249e+003
1.140985e+002, 5.435917e+003
1.145806e+002, 5.455543e+003
1.150627e+002, 5.442944e+003
1.155448e+002, 5.402652e+003
1.160269e+002, 5.342206e+003
1.165090e+002, 5.264260e+003
1.169912e+002, 5.169138e+003
1.174733e+002, 5.062106e+003
1.179554e+002, 4.928705e+003
1.184375e+002, 4.794167e+003
1.189196e+002, 4.666086e+003
1.194017e+002, 4.545693e+003
1.198839e+002, 4.432348e+003
1.203660e+002, 4.324561e+003
1.208481e+002, 4.221995e+003
1.213302e+002, 4.127562e+003
1.218123e+002, 4.039669e+003
1.222944e+002, 3.958743e+003
1.227766e+002, 3.884954e+003
1.232587e+002, 3.818382e+003
1.237408e+002, 3.757366e+003
1.242229e+002, 3.699350e+003
1.247050e+002, 3.643712e+003
1.251871e+002, 3.592261e+003
1.256693e+002, 3.546635e+003
1.261514e+002, 3.504723e+003
1.266335e+002, 3.463716e+003
1.271156e+002, 3.421863e+003
1.275977e+002, 3.381038e+003
1.280798e+002, 3.347406e+003
1.285620e+002, 3.324147e+003
1.290441e+002, 3.300708e+003
1.295262e+002, 3.271304e+003
1.300083e+002, 3.237510e+003
1.304904e+002, 3.206459e+003
1.309725e+002, 3.182403e+003
1.314547e+002, 3.163515e+003
1.319368e+002, 3.145053e+003
1.324189e+002, 3.126620e+003
1.329010e+002, 3.108835e+003
1.333831e+002, 3.092616e+003
1.338652e+002, 3.078292e+003
1.343474e+002, 3.063982e+003
1.348295e+002, 3.048110e+003
1.353116e+002, 3.031958e+003
1.357937e+002, 3.016732e+003
1.362758e+002, 3.002644e+003
1.367579e+002, 2.989948e+003
1.372401e+002, 2.979677e+003
1.377222e+002, 2.973924e+003
1.382043e+002, 2.967378e+003
1.386864e+002, 2.956984e+003
1.391685e+002, 2.944889e+003
1.396507e+002, 2.934435e+003
1.401328e+002, 2.928320e+003
1.406149e+002, 2.926310e+003
1.410970e+002, 2.922091e+003
1.415791e+002, 2.912038e+003
1.420612e+002, 2.903073e+003
1.425434e+002, 2.897568e+003
1.430255e+002, 2.894877e+003
1.435076e+002, 2.892946e+003
1.439897e+002, 2.890003e+003
1.444718e+002, 2.886004e+003
1.449539e+002, 2.880994e+003
1.454361e+002, 2.873407e+003
1.459182e+002, 2.866247e+003
1.464003e+002, 2.860835e+003
1.468824e+002, 2.857445e+003
1.473645e+002, 2.855983e+003
1.478466e+002, 2.856474e+003
1.483288e+002, 2.859474e+003
1.488109e+002, 2.863166e+003
1.492930e+002, 2.868022e+003
1.497751e+002, 2.873329e+003
1.502572e+002, 2.878452e+003
1.507393e+002, 2.883298e+003
1.512215e+002, 2.887688e+003
1.517036e+002, 2.890923e+003
1.521857e+002, 2.893003e+003
1.526678e+002, 2.895687e+003
1.531499e+002, 2.899436e+003
1.536320e+002, 2.904189e+003
1.541142e+002, 2.909738e+003
1.545963e+002, 2.915841e+003
1.550784e+002, 2.923152e+003
1.555605e+002, 2.932465e+003
1.560426e+002, 2.943724e+003
1.565247e+002, 2.955319e+003
1.570069e+002, 2.965767e+003
1.574890e+002, 2.975116e+003
1.579711e+002, 2.985527e+003
1.584532e+002, 2.998135e+003
1.589353e+002, 3.011586e+003
1.594174e+002, 3.025027e+003
1.598996e+002, 3.038374e+003
1.603817e+002, 3.051767e+003
1.608638e+002, 3.065372e+003
1.613459e+002, 3.079042e+003
1.618280e+002, 3.093396e+003
1.623102e+002, 3.107336e+003
1.627923e+002, 3.122524e+003
1.632744e+002, 3.140474e+003
1.637565e+002, 3.161608e+003
1.642386e+002, 3.184345e+003
1.647207e+002, 3.206295e+003
1.652029e+002, 3.227825e+003
1.656850e+002, 3.247353e+003
1.661671e+002, 3.262782e+003
1.666492e+002, 3.277209e+003
1.671313e+002, 3.294226e+003
1.676134e+002, 3.315223e+003
1.680956e+002, 3.338186e+003
1.685777e+002, 3.357210e+003
1.690598e+002, 3.367730e+003
1.695419e+002, 3.379300e+003
1.700240e+002, 3.394207e+003
1.705061e+002, 3.410292e+003
1.709883e+002, 3.424788e+003
1.714704e+002, 3.436398e+003
1.719525e+002, 3.445243e+003
1.724346e+002, 3.451355e+003
1.729167e+002, 3.454066e+003
1.733988e+002, 3.455619e+003
1.738810e+002, 3.456156e+003
1.743631e+002, 3.455973e+003
1.748452e+002, 3.456054e+003
1.753273e+002, 3.457443e+003
1.758094e+002, 3.459055e+003
1.762915e+002, 3.457564e+003
1.767737e+002, 3.452583e+003
1.772558e+002, 3.445305e+003
1.777379e+002, 3.435633e+003
1.782200e+002, 3.423781e+003
1.787021e+002, 3.411759e+003
1.791842e+002, 3.400836e+003
1.796664e+002, 3.390377e+003
1.801485e+002, 3.379130e+003
1.806306e+002, 3.366710e+003
1.811127e+002, 3.353697e+003
1.815948e+002, 3.340531e+003
1.820769e+002, 3.327018e+003
1.825591e+002, 3.314357e+003
1.830412e+002, 3.302360e+003
1.835233e+002, 3.291821e+003
1.840054e+002, 3.284078e+003
1.844875e+002, 3.280267e+003
1.849696e+002, 3.278759e+003
1.854518e+002, 3.277043e+003
1.859339e+002, 3.275853e+003
1.864160e+002, 3.272569e+003
1.868981e+002, 3.264843e+003
1.873802e+002, 3.255230e+003
1.878623e+002, 3.246688e+003
1.883445e+002, 3.240898e+003
1.888266e+002, 3.236924e+003
1.893087e+002, 3.231656e+003
1.897908e+002, 3.223946e+003
1.902729e+002, 3.216452e+003
1.907550e+002, 3.210139e+003
1.912372e+002, 3.204376e+003
1.917193e+002, 3.198458e+003
1.922014e+002, 3.192044e+003
1.926835e+002, 3.185075e+003
1.931656e+002, 3.177119e+003
1.936477e+002, 3.166914e+003
1.941299e+002, 3.156997e+003
1.946120e+002, 3.148939e+003
1.950941e+002, 3.141352e+003
1.955762e+002, 3.132126e+003
1.960583e+002, 3.119833e+003
1.965404e+002, 3.104561e+003
1.970226e+002, 3.087712e+003
1.975047e+002, 3.067729e+003
1.979868e+002, 3.047973e+003
1.984689e+002, 3.030159e+003
1.989510e+002, 3.013375e+003
1.994331e+002, 2.995477e+003
1.999153e+002, 2.974663e+003
2.003974e+002, 2.951040e+003
2.008795e+002, 2.929103e+003
2.013616e+002, 2.910484e+003
2.018437e+002, 2.891580e+003
2.023258e+002, 2.870578e+003
2.028080e+002, 2.847780e+003
2.032901e+002, 2.824615e+003
2.037722e+002, 2.801893e+003
2.042543e+002, 2.779585e+003
2.047364e+002, 2.756314e+003
2.052185e+002, 2.731488e+003
2.057007e+002, 2.706300e+003
2.061828e+002, 2.681426e+003
2.066649e+002, 2.656950e+003
2.071470e+002, 2.633048e+003
2.076291e+002, 2.609221e+003
2.081112e+002, 2.586331e+003
2.085934e+002, 2.566823e+003
2.090755e+002, 2.553809e+003
2.095576e+002, 2.542308e+003
2.100397e+002, 2.528087e+003
2.105218e+002, 2.511010e+003
2.110039e+002, 2.493198e+003
2.114861e+002, 2.475199e+003
2.119682e+002, 2.457531e+003
2.124503e+002, 2.441023e+003
2.129324e+002, 2.425944e+003
2.134145e+002, 2.412089e+003
2.138967e+002, 2.399271e+003
2.143788e+002, 2.387459e+003
2.148609e+002, 2.376701e+003
2.153430e+002, 2.367340e+003
2.158251e+002, 2.358910e+003
2.163072e+002, 2.351090e+003
2.167894e+002, 2.344059e+003
2.172715e+002, 2.337198e+003
2.177536e+002, 2.329014e+003
2.182357e+002, 2.318609e+003
2.187178e+002, 2.309420e+003
2.191999e+002, 2.303516e+003
2.196821e+002, 2.299319e+003
2.201642e+002, 2.295212e+003
2.206463e+002, 2.290537e+003
2.211284e+002, 2.285588e+003
2.216105e+002, 2.280691e+003
2.220926e+002, 2.274968e+003
2.225748e+002, 2.271331e+003
2.230569e+002, 2.272211e+003
2.235390e+002, 2.274783e+003
2.240211e+002, 2.275469e+003
2.245032e+002, 2.272196e+003
2.249853e+002, 2.267192e+003
2.254675e+002, 2.266846e+003
2.259496e+002, 2.274037e+003
2.264317e+002, 2.281710e+003
2.269138e+002, 2.288750e+003
2.273959e+002, 2.295235e+003
2.278780e+002, 2.300714e+003
2.283602e+002, 2.304798e+003
2.288423e+002, 2.308742e+003
2.293244e+002, 2.316998e+003
2.298065e+002, 2.335440e+003
2.302886e+002, 2.350017e+003
2.307707e+002, 2.359063e+003
2.312529e+002, 2.363581e+003
2.317350e+002, 2.364844e+003
2.322171e+002, 2.363453e+003
2.326992e+002, 2.359153e+003
2.331813e+002, 2.351107e+003
2.336634e+002, 2.334772e+003
2.341456e+002, 2.319709e+003
2.346277e+002, 2.308658e+003
2.351098e+002, 2.298504e+003
2.355919e+002, 2.285205e+003
2.360740e+002, 2.266894e+003
2.365561e+002, 2.245464e+003
2.370383e+002, 2.226461e+003
2.375204e+002, 2.213958e+003
2.380025e+002, 2.199354e+003
2.384846e+002, 2.180666e+003
2.389667e+002, 2.160120e+003
2.394488e+002, 2.139899e+003
2.399310e+002, 2.120755e+003
2.404131e+002, 2.103491e+003
2.408952e+002, 2.090235e+003
2.413773e+002, 2.083339e+003
2.418594e+002, 2.077163e+003
2.423415e+002, 2.071599e+003
2.428237e+002, 2.066393e+003
2.433058e+002, 2.061247e+003
2.437879e+002, 2.056023e+003
2.442700e+002, 2.050777e+003
2.447521e+002, 2.045538e+003
2.452342e+002, 2.040070e+003
2.457164e+002, 2.035014e+003
2.461985e+002, 2.030944e+003
2.466806e+002, 2.027156e+003
2.471627e+002, 2.022623e+003
2.476448e+002, 2.016922e+003
2.481269e+002, 2.010643e+003
2.486091e+002, 2.004607e+003
2.490912e+002, 1.998564e+003
2.495733e+002, 1.993419e+003
2.500554e+002, 1.989040e+003
2.505375e+002, 1.985719e+003
2.510196e+002, 1.984485e+003
2.515018e+002, 1.985989e+003
2.519839e+002, 1.987924e+003
2.524660e+002, 1.986513e+003
2.529481e+002, 1.981692e+003
2.534302e+002, 1.977078e+003
2.539123e+002, 1.973498e+003
2.543945e+002, 1.970718e+003
2.548766e+002, 1.968405e+003
2.553587e+002, 1.966525e+003
2.558408e+002, 1.965011e+003
2.563229e+002, 1.964013e+003
2.568051e+002, 1.963453e+003
2.572872e+002, 1.962642e+003
2.577693e+002, 1.961243e+003
2.582514e+002, 1.959492e+003
2.587335e+002, 1.957618e+003
2.592156e+002, 1.955517e+003
2.596978e+002, 1.953730e+003
2.601799e+002, 1.953330e+003
2.606620e+002, 1.953820e+003
2.611441e+002, 1.953514e+003
2.616262e+002, 1.950725e+003
2.621083e+002, 1.947153e+003
2.625905e+002, 1.945863e+003
2.630726e+002, 1.947584e+003
2.635547e+002, 1.949580e+003
2.640368e+002, 1.950433e+003
2.645189e+002, 1.950054e+003
2.650010e+002, 1.947718e+003
2.654832e+002, 1.941057e+003
2.659653e+002, 1.933154e+003
2.664474e+002, 1.929495e+003
2.669295e+002, 1.931241e+003
2.674116e+002, 1.933061e+003
2.678937e+002, 1.931045e+003
2.683759e+002, 1.927152e+003
2.688580e+002, 1.923919e+003
2.693401e+002, 1.922143e+003
2.698222e+002, 1.921398e+003
2.703043e+002, 1.921348e+003
2.707864e+002, 1.922249e+003
2.712686e+002, 1.922758e+003
2.717507e+002, 1.922833e+003
2.722328e+002, 1.921922e+003
2.727149e+002, 1.918884e+003
2.731970e+002, 1.912693e+003
2.736791e+002, 1.905758e+003
2.741613e+002, 1.901340e+003
2.746434e+002, 1.899720e+003
2.751255e+002, 1.898939e+003
2.756076e+002, 1.899120e+003
2.760897e+002, 1.899425e+003
2.765718e+002, 1.899101e+003
2.770540e+002, 1.897910e+003
2.775361e+002, 1.896507e+003
2.780182e+002, 1.895477e+003
2.785003e+002, 1.894768e+003
2.789824e+002, 1.894870e+003
2.794645e+002, 1.897002e+003
2.799467e+002, 1.899332e+003
2.804288e+002, 1.901078e+003
2.809109e+002, 1.902079e+003
2.813930e+002, 1.901557e+003
2.818751e+002, 1.897137e+003
2.823572e+002, 1.888158e+003
2.828394e+002, 1.883634e+003
2.833215e+002, 1.890155e+003
2.838036e+002, 1.897493e+003
2.842857e+002, 1.899836e+003
2.847678e+002, 1.897099e+003
2.852499e+002, 1.892605e+003
2.857321e+002, 1.888571e+003
2.862142e+002, 1.884973e+003
2.866963e+002, 1.883037e+003
2.871784e+002, 1.884035e+003
2.876605e+002, 1.885595e+003
2.881426e+002, 1.886829e+003
2.886248e+002, 1.887661e+003
2.891069e+002, 1.888144e+003
2.895890e+002, 1.888479e+003
2.900711e+002, 1.888592e+003
2.905532e+002, 1.887508e+003
2.910353e+002, 1.883936e+003
2.915175e+002, 1.880691e+003
2.919996e+002, 1.878530e+003
2.924817e+002, 1.877472e+003
2.929638e+002, 1.877545e+003
2.934459e+002, 1.878919e+003
2.939280e+002, 1.881398e+003
2.944102e+002, 1.884306e+003
2.948923e+002, 1.889316e+003
2.953744e+002, 1.891984e+003
2.958565e+002, 1.890512e+003
2.963386e+002, 1.886481e+003
2.968207e+002, 1.881511e+003
2.973029e+002, 1.876098e+003
2.977850e+002, 1.871045e+003
2.982671e+002, 1.868770e+003
2.987492e+002, 1.871412e+003
2.992313e+002, 1.872574e+003
2.997134e+002, 1.869991e+003
3.001956e+002, 1.865930e+003
3.006777e+002, 1.861878e+003
3.011598e+002, 1.858292e+003
3.016419e+002, 1.856161e+003
3.021240e+002, 1.857901e+003
3.026061e+002, 1.865667e+003
3.030883e+002, 1.871144e+003
3.035704e+002, 1.871985e+003
3.040525e+002, 1.871051e+003
3.045346e+002, 1.869616e+003
3.050167e+002, 1.868108e+003
3.054988e+002, 1.867052e+003
3.059810e+002, 1.867261e+003
3.064631e+002, 1.869041e+003
3.069452e+002, 1.870593e+003
3.074273e+002, 1.871151e+003
3.079094e+002, 1.871956e+003
3.083915e+002, 1.873804e+003
3.088737e+002, 1.876546e+003
3.093558e+002, 1.879358e+003
3.098379e+002, 1.881204e+003
3.103200e+002, 1.881980e+003
3.108021e+002, 1.884041e+003
3.112842e+002, 1.889878e+003
3.117664e+002, 1.894458e+003
3.122485e+002, 1.895841e+003
3.127306e+002, 1.894580e+003
3.132127e+002, 1.891977e+003
3.136948e+002, 1.888545e+003
3.141769e+002, 1.884575e+003
3.146591e+002, 1.881870e+003
3.151412e+002, 1.881255e+003
3.156233e+002, 1.880880e+003
3.161054e+002, 1.879719e+003
3.165875e+002, 1.878593e+003
3.170696e+002, 1.878664e+003
3.175518e+002, 1.880563e+003
3.180339e+002, 1.883763e+003
3.185160e+002, 1.887337e+003
3.189981e+002, 1.892892e+003
3.194802e+002, 1.895360e+003
3.199623e+002, 1.890809e+003
3.204445e+002, 1.884733e+003
3.209266e+002, 1.882392e+003
3.214087e+002, 1.885362e+003
3.218908e+002, 1.890456e+003
3.223729e+002, 1.892569e+003
3.228550e+002, 1.890430e+003
3.233372e+002, 1.889850e+003
3.238193e+002, 1.893212e+003
3.243014e+002, 1.897127e+003
3.247835e+002, 1.899965e+003
3.252656e+002, 1.901407e+003
3.257477e+002, 1.901747e+003
3.262299e+002, 1.900839e+003
3.267120e+002, 1.898466e+003
3.271941e+002, 1.896885e+003
3.276762e+002, 1.895523e+003
3.281583e+002, 1.895674e+003
3.286404e+002, 1.898611e+003
3.291226e+002, 1.903601e+003
3.296047e+002, 1.908653e+003
3.300868e+002, 1.912147e+003
3.305689e+002, 1.914426e+003
3.310510e+002, 1.917769e+003
3.315331e+002, 1.922071e+003
3.320153e+002, 1.927797e+003
3.324974e+002, 1.937056e+003
3.329795e+002, 1.947204e+003
3.334616e+002, 1.953952e+003
3.339437e+002, 1.954464e+003
3.344258e+002, 1.952014e+003
3.349080e+002, 1.954501e+003
3.353901e+002, 1.964399e+003
3.358722e+002, 1.972932e+003
3.363543e+002, 1.974905e+003
3.368365e+002, 1.975905e+003
3.373186e+002, 1.981034e+003
3.378007e+002, 1.991782e+003
3.382828e+002, 2.005162e+003
3.387649e+002, 2.017602e+003
3.392470e+002, 2.028803e+003
3.397292e+002, 2.040958e+003
3.402113e+002, 2.054895e+003
3.406934e+002, 2.069587e+003
3.411755e+002, 2.083955e+003
3.416576e+002, 2.098079e+003
3.421397e+002, 2.113566e+003
3.426219e+002, 2.131264e+003
3.431040e+002, 2.151197e+003
3.435861e+002, 2.173765e+003
3.440682e+002, 2.198441e+003
3.445503e+002, 2.226891e+003
3.450324e+002, 2.261009e+003
3.455146e+002, 2.299077e+003
3.459967e+002, 2.336711e+003
3.464788e+002, 2.368793e+003
3.469609e+002, 2.399608e+003
3.474430e+002, 2.439974e+003
3.479251e+002, 2.491960e+003
3.484073e+002, 2.548045e+003
3.488894e+002, 2.603122e+003
3.493715e+002, 2.660665e+003
3.498536e+002, 2.725675e+003
3.503357e+002, 2.799525e+003
3.508178e+002, 2.881553e+003
3.513000e+002, 2.972343e+003
3.517821e+002, 3.072163e+003
3.522642e+002, 3.175478e+003
3.527463e+002, 3.280797e+003
3.532284e+002, 3.389693e+003
3.537105e+002, 3.502973e+003
3.541927e+002, 3.620627e+003
3.546748e+002, 3.743553e+003
3.551569e+002, 3.878928e+003
3.556390e+002, 4.022211e+003
3.561211e+002, 4.155506e+003
3.566032e+002, 4.278772e+003
3.570854e+002, 4.385250e+003
3.575675e+002, 4.472711e+003
3.580496e+002, 4.542200e+003
3.585317e+002, 4.587930e+003
3.590138e+002, 4.606373e+003
3.594959e+002, 4.600503e+003
3.599781e+002, 4.571004e+003
3.604602e+002, 4.515817e+003
3.609423e+002, 4.451936e+003
3.614244e+002, 4.388821e+003
3.619065e+002, 4.326269e+003
3.623886e+002, 4.263358e+003
3.628708e+002, 4.199670e+003
3.633529e+002, 4.136141e+003
3.638350e+002, 4.074516e+003
3.643171e+002, 4.014507e+003
3.647992e+002, 3.953926e+003
3.652813e+002, 3.894316e+003
3.657635e+002, 3.831314e+003
3.662456e+002, 3.756441e+003
3.667277e+002, 3.669237e+003
3.672098e+002, 3.575236e+003
3.676919e+002, 3.474107e+003
3.681740e+002, 3.368157e+003
3.686562e+002, 3.260553e+003
3.691383e+002, 3.151401e+003
3.696204e+002, 3.044066e+003
3.701025e+002, 2.941913e+003
3.705846e+002, 2.845046e+003
3.710667e+002, 2.755785e+003
3.715489e+002, 2.674471e+003
3.720310e+002, 2.600804e+003
3.725131e+002, 2.536506e+003
3.729952e+002, 2.480816e+003
3.734773e+002, 2.429215e+003
3.739594e+002, 2.378481e+003
3.744416e+002, 2.328753e+003
3.749237e+002, 2.283680e+003
3.754058e+002, 2.240981e+003
3.758879e+002, 2.204693e+003
3.763700e+002, 2.179718e+003
3.768521e+002, 2.162098e+003
3.773343e+002, 2.143763e+003
3.778164e+002, 2.120910e+003
3.782985e+002, 2.096151e+003
3.787806e+002, 2.075681e+003
3.792627e+002, 2.061894e+003
3.797448e+002, 2.048431e+003
3.802270e+002, 2.034983e+003
3.807091e+002, 2.021686e+003
3.811912e+002, 2.008320e+003
3.816733e+002, 1.994935e+003
3.821554e+002, 1.982349e+003
3.826375e+002, 1.971462e+003
3.831197e+002, 1.962749e+003
3.836018e+002, 1.953417e+003
3.840839e+002, 1.942151e+003
3.845660e+002, 1.931658e+003
3.850481e+002, 1.923631e+003
3.855302e+002, 1.917418e+003
3.860124e+002, 1.911323e+003
3.864945e+002, 1.904227e+003
3.869766e+002, 1.896364e+003
3.874587e+002, 1.888868e+003
3.879408e+002, 1.880902e+003
3.884229e+002, 1.874459e+003
3.889051e+002, 1.870680e+003
3.893872e+002, 1.868070e+003
3.898693e+002, 1.865244e+003
3.903514e+002, 1.861719e+003
3.908335e+002, 1.857617e+003
3.913156e+002, 1.853047e+003
3.917978e+002, 1.847660e+003
3.922799e+002, 1.842754e+003
3.927620e+002, 1.838704e+003
3.932441e+002, 1.834771e+003
3.937262e+002, 1.830764e+003
3.942083e+002, 1.826540e+003
3.946905e+002, 1.821816e+003
3.951726e+002, 1.816058e+003
3.956547e+002, 1.809478e+003
3.961368e+002, 1.804342e+003
3.966189e+002, 1.801465e+003
3.971010e+002, 1.798992e+003
3.975832e+002, 1.796050e+003
3.980653e+002, 1.793191e+003
3.985474e+002, 1.791510e+003
3.990295e+002, 1.791683e+003
3.995116e+002, 1.791976e+003
3.999937e+002, 1.788900e+003
4.004759e+002, 1.781473e+003
4.009580e+002, 1.775843e+003
4.014401e+002, 1.775210e+003
4.019222e+002, 1.775694e+003
4.024043e+002, 1.774755e+003
4.028864e+002, 1.772229e+003
4.033686e+002, 1.769256e+003
4.038507e+002, 1.767013e+003
4.043328e+002, 1.765102e+003
4.048149e+002, 1.761020e+003
4.052970e+002, 1.752648e+003
4.057791e+002, 1.746349e+003
4.062613e+002, 1.749372e+003
4.067434e+002, 1.757411e+003
4.072255e+002, 1.761629e+003
4.077076e+002, 1.757413e+003
4.081897e+002, 1.750087e+003
4.086718e+002, 1.745132e+003
4.091540e+002, 1.742486e+003
4.096361e+002, 1.741122e+003
4.101182e+002, 1.741424e+003
4.106003e+002, 1.742091e+003
4.110824e+002, 1.740752e+003
4.115645e+002, 1.736884e+003
4.120467e+002, 1.733165e+003
4.125288e+002, 1.730572e+003
4.130109e+002, 1.728933e+003
4.134930e+002, 1.728065e+003
4.139751e+002, 1.727974e+003
4.144572e+002, 1.728282e+003
4.149394e+002, 1.728569e+003
4.154215e+002, 1.728844e+003
4.159036e+002, 1.729713e+003
4.163857e+002, 1.732503e+003
4.168678e+002, 1.734776e+003
4.173499e+002, 1.734345e+003
4.178321e+002, 1.731873e+003
4.183142e+002, 1.729974e+003
4.187963e+002, 1.730294e+003
4.192784e+002, 1.731896e+003
4.197605e+002, 1.731489e+003
4.202426e+002, 1.726391e+003
4.207248e+002, 1.723048e+003
4.212069e+002, 1.722919e+003
4.216890e+002, 1.724483e+003
4.221711e+002, 1.726662e+003
4.226532e+002, 1.729025e+003
4.231353e+002, 1.730832e+003
4.236175e+002, 1.730826e+003
4.240996e+002, 1.727962e+003
4.245817e+002, 1.728803e+003
4.250638e+002, 1.735767e+003
4.255459e+002, 1.743454e+003
4.260280e+002, 1.749815e+003
4.265102e+002, 1.755258e+003
4.269923e+002, 1.760847e+003
4.274744e+002, 1.767125e+003
4.279565e+002, 1.774255e+003
4.284386e+002, 1.782797e+003
4.289207e+002, 1.794073e+003
4.294029e+002, 1.804412e+003
4.298850e+002, 1.810397e+003
4.303671e+002, 1.817269e+003
4.308492e+002, 1.829370e+003
4.313313e+002, 1.847331e+003
4.318134e+002, 1.868234e+003
4.322956e+002, 1.890467e+003
4.327777e+002, 1.914205e+003
4.332598e+002, 1.933979e+003
4.337419e+002, 1.949966e+003
4.342241e+002, 1.960924e+003
4.347062e+002, 1.965931e+003
4.351883e+002, 1.966246e+003
4.356704e+002, 1.964268e+003
4.361525e+002, 1.961256e+003
4.366346e+002, 1.956176e+003
4.371168e+002, 1.947119e+003
4.375989e+002, 1.933918e+003
4.380810e+002, 1.918799e+003
4.385631e+002, 1.902515e+003
4.390452e+002, 1.884524e+003
4.395273e+002, 1.863637e+003
4.400095e+002, 1.839515e+003
4.404916e+002, 1.816223e+003
4.409737e+002, 1.795227e+003
4.414558e+002, 1.776669e+003
4.419379e+002, 1.761631e+003
4.424200e+002, 1.750584e+003
4.429022e+002, 1.740398e+003
4.433843e+002, 1.727751e+003
4.438664e+002, 1.713517e+003
4.443485e+002, 1.702527e+003
4.448306e+002, 1.696962e+003
4.453127e+002, 1.692790e+003
4.457949e+002, 1.688026e+003
4.462770e+002, 1.682822e+003
4.467591e+002, 1.677427e+003
4.472412e+002, 1.671782e+003
4.477233e+002, 1.666580e+003
4.482054e+002, 1.663173e+003
4.486876e+002, 1.662206e+003
4.491697e+002, 1.661703e+003
4.496518e+002, 1.662889e+003
4.501339e+002, 1.663581e+003
4.506160e+002, 1.661734e+003
4.510981e+002, 1.657573e+003
4.515803e+002, 1.652739e+003
4.520624e+002, 1.648361e+003
4.525445e+002, 1.644556e+003
4.530266e+002, 1.643009e+003
4.535087e+002, 1.648081e+003
4.539908e+002, 1.650393e+003
4.544730e+002, 1.646336e+003
4.549551e+002, 1.639850e+003
4.554372e+002, 1.635406e+003
4.559193e+002, 1.634366e+003
4.564014e+002, 1.634773e+003
4.568835e+002, 1.633585e+003
4.573657e+002, 1.630005e+003
4.578478e+002, 1.628446e+003
4.583299e+002, 1.630743e+003
4.588120e+002, 1.633521e+003
4.592941e+002, 1.636177e+003
4.597762e+002, 1.638212e+003
4.602584e+002, 1.638726e+003
4.607405e+002, 1.636982e+003
4.612226e+002, 1.633695e+003
4.617047e+002, 1.629947e+003
4.621868e+002, 1.625371e+003
4.626689e+002, 1.622123e+003
4.631511e+002, 1.622456e+003
4.636332e+002, 1.623495e+003
4.641153e+002, 1.621855e+003
4.645974e+002, 1.617090e+003
4.650795e+002, 1.613316e+003
4.655616e+002, 1.614148e+003
4.660438e+002, 1.617581e+003
4.665259e+002, 1.618760e+003
4.670080e+002, 1.616781e+003
4.674901e+002, 1.614761e+003
4.679722e+002, 1.615865e+003
4.684543e+002, 1.619078e+003
4.689365e+002, 1.619448e+003
4.694186e+002, 1.613466e+003
4.699007e+002, 1.607964e+003
4.703828e+002, 1.607051e+003
4.708649e+002, 1.609206e+003
4.713470e+002, 1.611460e+003
4.718292e+002, 1.612862e+003
4.723113e+002, 1.613120e+003
4.727934e+002, 1.611473e+003
4.732755e+002, 1.606422e+003
4.737576e+002, 1.604021e+003
4.742397e+002, 1.606963e+003
4.747219e+002, 1.610068e+003
4.752040e+002, 1.609842e+003
4.756861e+002, 1.607011e+003
4.761682e+002, 1.604210e+003
4.766503e+002, 1.603067e+003
4.771324e+002, 1.603409e+003
4.776146e+002, 1.604886e+003
4.780967e+002, 1.610764e+003
4.785788e+002, 1.612281e+003
4.790609e+002, 1.605432e+003
4.795430e+002, 1.596640e+003
4.800251e+002, 1.589885e+003
4.805073e+002, 1.586237e+003
4.809894e+002, 1.585821e+003
4.814715e+002, 1.590423e+003
4.819536e+002, 1.599412e+003
4.824357e+002, 1.603846e+003
4.829178e+002, 1.602016e+003
4.834000e+002, 1.598466e+003
4.838821e+002, 1.593073e+003
4.843642e+002, 1.588024e+003
4.848463e+002, 1.586818e+003
4.853284e+002, 1.591239e+003
4.858105e+002, 1.596672e+003
4.862927e+002, 1.598979e+003
4.867748e+002, 1.598411e+003
4.872569e+002, 1.596158e+003
4.877390e+002, 1.591613e+003
4.882211e+002, 1.587175e+003
4.887032e+002, 1.585915e+003
4.891854e+002, 1.587267e+003
4.896675e+002, 1.588462e+003
4.901496e+002, 1.588963e+003
4.906317e+002, 1.589129e+003
4.911138e+002, 1.589048e+003
4.915959e+002, 1.588844e+003
4.920781e+002, 1.589020e+003
4.925602e+002, 1.589933e+003
4.930423e+002, 1.591060e+003
4.935244e+002, 1.591251e+003
4.940065e+002, 1.590314e+003
4.944886e+002, 1.588719e+003
4.949708e+002, 1.585290e+003
4.954529e+002, 1.582092e+003
4.959350e+002, 1.580963e+003
4.964171e+002, 1.581654e+003
4.968992e+002, 1.582405e+003
4.973813e+002, 1.581764e+003
4.978635e+002, 1.580120e+003
4.983456e+002, 1.580132e+003
4.988277e+002, 1.584118e+003
4.993098e+002, 1.586189e+003
4.997919e+002, 1.584838e+003
5.002740e+002, 1.581792e+003
5.007562e+002, 1.577925e+003
5.012383e+002, 1.573682e+003
5.017204e+002, 1.570244e+003
5.022025e+002, 1.569812e+003
5.026846e+002, 1.571941e+003
5.031667e+002, 1.570800e+003
5.036489e+002, 1.564484e+003
5.041310e+002, 1.558474e+003
5.046131e+002, 1.555795e+003
5.050952e+002, 1.555258e+003
5.055773e+002, 1.555366e+003
5.060594e+002, 1.555937e+003
5.065416e+002, 1.556744e+003
5.070237e+002, 1.557905e+003
5.075058e+002, 1.559192e+003
5.079879e+002, 1.559745e+003
5.084700e+002, 1.559286e+003
5.089521e+002, 1.558334e+003
5.094343e+002, 1.557324e+003
5.099164e+002, 1.556258e+003
5.103985e+002, 1.555301e+003
5.108806e+002, 1.554751e+003
5.113627e+002, 1.554041e+003
5.118448e+002, 1.552950e+003
5.123270e+002, 1.551449e+003
5.128091e+002, 1.549386e+003
5.132912e+002, 1.546686e+003
5.137733e+002, 1.543674e+003
5.142554e+002, 1.540698e+003
5.147375e+002, 1.536303e+003
5.152197e+002, 1.535684e+003
5.157018e+002, 1.542823e+003
5.161839e+002, 1.549474e+003
5.166660e+002, 1.551021e+003
5.171481e+002, 1.548516e+003
5.176302e+002, 1.545258e+003
5.181124e+002, 1.543103e+003
5.185945e+002, 1.541727e+003
5.190766e+002, 1.540053e+003
5.195587e+002, 1.537377e+003
5.200408e+002, 1.536591e+003
5.205229e+002, 1.540432e+003
5.210051e+002, 1.544774e+003
5.214872e+002, 1.547134e+003
5.219693e+002, 1.547441e+003
5.224514e+002, 1.546638e+003
5.229335e+002, 1.544649e+003
5.234156e+002, 1.542121e+003
5.238978e+002, 1.540301e+003
5.243799e+002, 1.539239e+003
5.248620e+002, 1.538483e+003
5.253441e+002, 1.538199e+003
5.258262e+002, 1.537850e+003
5.263083e+002, 1.536263e+003
5.267905e+002, 1.533155e+003
5.272726e+002, 1.530043e+003
5.277547e+002, 1.527213e+003
5.282368e+002, 1.524741e+003
5.287189e+002, 1.522733e+003
5.292010e+002, 1.521196e+003
5.296832e+002, 1.520100e+003
5.301653e+002, 1.519460e+003
5.306474e+002, 1.519200e+003
5.311295e+002, 1.518803e+003
5.316116e+002, 1.517691e+003
5.320938e+002, 1.517124e+003
5.325759e+002, 1.516823e+003
5.330580e+002, 1.517298e+003
5.335401e+002, 1.519944e+003
5.340222e+002, 1.524340e+003
5.345043e+002, 1.527591e+003
5.349865e+002, 1.526573e+003
5.354686e+002, 1.521674e+003
5.359507e+002, 1.517637e+003
5.364328e+002, 1.515054e+003
5.369149e+002, 1.512194e+003
5.373970e+002, 1.506804e+003
5.378792e+002, 1.501640e+003
5.383613e+002, 1.500503e+003
5.388434e+002, 1.504496e+003
5.393255e+002, 1.508278e+003
5.398076e+002, 1.506791e+003
5.402897e+002, 1.502115e+003
5.407719e+002, 1.500014e+003
5.412540e+002, 1.501468e+003
5.417361e+002, 1.503564e+003
5.422182e+002, 1.504255e+003
5.427003e+002, 1.503846e+003
5.431824e+002, 1.503977e+003
5.436646e+002, 1.505518e+003
5.441467e+002, 1.506447e+003
5.446288e+002, 1.504936e+003
5.451109e+002, 1.502880e+003
5.455930e+002, 1.503385e+003
5.460751e+002, 1.506862e+003
5.465573e+002, 1.510375e+003
5.470394e+002, 1.510805e+003
5.475215e+002, 1.508038e+003
5.480036e+002, 1.506088e+003
5.484857e+002, 1.505307e+003
5.489678e+002, 1.504954e+003
5.494500e+002, 1.505757e+003
5.499321e+002, 1.506483e+003
5.504142e+002, 1.505444e+003
5.508963e+002, 1.502319e+003
5.513784e+002, 1.498938e+003
5.518605e+002, 1.497529e+003
5.523427e+002, 1.497925e+003
5.528248e+002, 1.497518e+003
5.533069e+002, 1.495748e+003
5.537890e+002, 1.494160e+003
5.542711e+002, 1.494016e+003
5.547532e+002, 1.494505e+003
5.552354e+002, 1.494298e+003
5.557175e+002, 1.492686e+003
5.561996e+002, 1.491704e+003
5.566817e+002, 1.493932e+003
5.571638e+002, 1.497457e+003
5.576459e+002, 1.498017e+003
5.581281e+002, 1.494800e+003
5.586102e+002, 1.490672e+003
5.590923e+002, 1.488073e+003
5.595744e+002, 1.486912e+003
5.600565e+002, 1.485238e+003
5.605386e+002, 1.481409e+003
5.610208e+002, 1.479183e+003
5.615029e+002, 1.481412e+003
5.619850e+002, 1.484691e+003
5.624671e+002, 1.484663e+003
5.629492e+002, 1.480705e+003
5.634313e+002, 1.475977e+003
5.639135e+002, 1.473728e+003
5.643956e+002, 1.473911e+003
5.648777e+002, 1.474618e+003
5.653598e+002, 1.476602e+003
5.658419e+002, 1.477888e+003
5.663240e+002, 1.477542e+003
5.668062e+002, 1.476462e+003
5.672883e+002, 1.475624e+003
5.677704e+002, 1.475249e+003
5.682525e+002, 1.474700e+003
5.687346e+002, 1.473053e+003
5.692167e+002, 1.470881e+003
5.696989e+002, 1.469933e+003
5.701810e+002, 1.470486e+003
5.706631e+002, 1.471246e+003
5.711452e+002, 1.471454e+003
5.716273e+002, 1.471233e+003
5.721094e+002, 1.471063e+003
5.725916e+002, 1.471208e+003
5.730737e+002, 1.470934e+003
5.735558e+002, 1.469360e+003
5.740379e+002, 1.467662e+003
5.745200e+002, 1.467519e+003
5.750021e+002, 1.468830e+003
5.754843e+002, 1.469726e+003
5.759664e+002, 1.468579e+003
5.764485e+002, 1.465839e+003
5.769306e+002, 1.464369e+003
5.774127e+002, 1.465186e+003
5.778948e+002, 1.465648e+003
5.783770e+002, 1.465744e+003
5.788591e+002, 1.465125e+003
5.793412e+002, 1.462558e+003
5.798233e+002, 1.458581e+003
5.803054e+002, 1.456170e+003
5.807875e+002, 1.458748e+003
5.812697e+002, 1.463957e+003
5.817518e+002, 1.465832e+003
5.822339e+002, 1.464159e+003
5.827161e+002, 1.460892e+003
5.831982e+002, 1.455417e+003
5.836803e+002, 1.450037e+003
5.841624e+002, 1.448775e+003
5.846445e+002, 1.452127e+003
5.851266e+002, 1.454274e+003
5.856088e+002, 1.452945e+003
5.860909e+002, 1.450390e+003
5.865730e+002, 1.448335e+003
5.870551e+002, 1.446836e+003
5.875372e+002, 1.445356e+003
5.880193e+002, 1.443585e+003
5.885015e+002, 1.442036e+003
5.889836e+002, 1.441982e+003
5.894657e+002, 1.444677e+003
5.899478e+002, 1.446147e+003
5.904299e+002, 1.445716e+003
5.909120e+002, 1.444867e+003
5.913942e+002, 1.444169e+003
5.918763e+002, 1.443617e+003
5.923584e+002, 1.442804e+003
5.928405e+002, 1.441273e+003
5.933226e+002, 1.440396e+003
5.938047e+002, 1.443302e+003
5.942869e+002, 1.449881e+003
5.947690e+002, 1.453505e+003
5.952511e+002, 1.452008e+003
5.957332e+002, 1.449055e+003
5.962153e+002, 1.447438e+003
5.966974e+002, 1.446914e+003
5.971796e+002, 1.446878e+003
5.976617e+002, 1.447722e+003
5.981438e+002, 1.448499e+003
5.986259e+002, 1.448676e+003
5.991080e+002, 1.448448e+003
5.995901e+002, 1.448211e+003
6.000723e+002, 1.448056e+003
6.005544e+002, 1.447666e+003
6.010365e+002, 1.446652e+003
6.015186e+002, 1.445005e+003
6.020007e+002, 1.443658e+003
6.024828e+002, 1.443871e+003
6.029650e+002, 1.442837e+003
6.034471e+002, 1.438986e+003
6.039292e+002, 1.434351e+003
6.044113e+002, 1.430377e+003
6.048934e+002, 1.427589e+003
6.053755e+002, 1.426735e+003
6.058577e+002, 1.429753e+003
6.063398e+002, 1.435310e+003
6.068219e+002, 1.438463e+003
6.073040e+002, 1.438978e+003
6.077861e+002, 1.438179e+003
6.082682e+002, 1.435691e+003
6.087504e+002, 1.432898e+003
6.092325e+002, 1.432600e+003
6.097146e+002, 1.435537e+003
6.101967e+002, 1.436809e+003
6.106788e+002, 1.433273e+003
6.111609e+002, 1.428929e+003
6.116431e+002, 1.427774e+003
6.121252e+002, 1.429133e+003
6.126073e+002, 1.429706e+003
6.130894e+002, 1.427684e+003
6.135715e+002, 1.424600e+003
6.140536e+002, 1.423991e+003
6.145358e+002, 1.427392e+003
6.150179e+002, 1.429514e+003
6.155000e+002, 1.429547e+003
6.159821e+002, 1.429118e+003
6.164642e+002, 1.429263e+003
6.169464e+002, 1.429380e+003
6.174285e+002, 1.428009e+003
6.179106e+002, 1.424227e+003
6.183927e+002, 1.420209e+003
6.188748e+002, 1.418530e+003
6.193569e+002, 1.418837e+003
6.198391e+002, 1.419308e+003
6.203212e+002, 1.419734e+003
6.208033e+002, 1.419982e+003
6.212854e+002, 1.420012e+003
6.217675e+002, 1.419753e+003
6.222496e+002, 1.418959e+003
6.227318e+002, 1.416505e+003
6.232139e+002, 1.414965e+003
6.236960e+002, 1.415981e+003
6.241781e+002, 1.417694e+003
6.246602e+002, 1.417648e+003
6.251423e+002, 1.415927e+003
6.256245e+002, 1.414983e+003
6.261066e+002, 1.417045e+003
6.265887e+002, 1.421141e+003
6.270708e+002, 1.422636e+003
6.275529e+002, 1.420017e+003
6.280350e+002, 1.418459e+003
6.285172e+002, 1.420098e+003
6.289993e+002, 1.422318e+003
6.294814e+002, 1.424118e+003
6.299635e+002, 1.425165e+003
6.304456e+002, 1.424422e+003
6.309277e+002, 1.419805e+003
6.314099e+002, 1.414584e+003
6.318920e+002, 1.412838e+003
6.323741e+002, 1.413768e+003
6.328562e+002, 1.414035e+003
6.333383e+002, 1.412563e+003
6.338204e+002, 1.410449e+003
6.343026e+002, 1.408854e+003
6.347847e+002, 1.407734e+003
6.352668e+002, 1.407624e+003
6.357489e+002, 1.409872e+003
6.362310e+002, 1.411356e+003
6.367131e+002, 1.410099e+003
6.371953e+002, 1.408115e+003
6.376774e+002, 1.408254e+003
6.381595e+002, 1.410832e+003
6.386416e+002, 1.413114e+003
6.391237e+002, 1.411908e+003
6.396058e+002, 1.408100e+003
6.400880e+002, 1.406549e+003
6.405701e+002, 1.407895e+003
6.410522e+002, 1.408918e+003
6.415343e+002, 1.408017e+003
6.420164e+002, 1.406444e+003
6.424985e+002, 1.406281e+003
6.429807e+002, 1.407732e+003
6.434628e+002, 1.407743e+003
6.439449e+002, 1.403996e+003
6.444270e+002, 1.399744e+003
6.449091e+002, 1.397228e+003
6.453912e+002, 1.396435e+003
6.458734e+002, 1.397200e+003
6.463555e+002, 1.399450e+003
6.468376e+002, 1.402251e+003
6.473197e+002, 1.403981e+003
6.478018e+002, 1.404216e+003
6.482839e+002, 1.405908e+003
6.487661e+002, 1.412372e+003
6.492482e+002, 1.416134e+003
6.497303e+002, 1.412683e+003
6.502124e+002, 1.406415e+003
6.506945e+002, 1.402871e+003
6.511766e+002, 1.403331e+003
6.516588e+002, 1.404657e+003
6.521409e+002, 1.403455e+003
6.526230e+002, 1.401775e+003
6.531051e+002, 1.405016e+003
6.535872e+002, 1.413281e+003
6.540693e+002, 1.420032e+003
6.545515e+002, 1.421776e+003
6.550336e+002, 1.420087e+003
6.555157e+002, 1.418070e+003
6.559978e+002, 1.415078e+003
6.564799e+002, 1.413398e+003
6.569620e+002, 1.414106e+003
6.574442e+002, 1.415091e+003
6.579263e+002, 1.414914e+003
6.584084e+002, 1.414272e+003
6.588905e+002, 1.414653e+003
6.593726e+002, 1.416648e+003
6.598547e+002, 1.419216e+003
6.603369e+002, 1.421596e+003
6.608190e+002, 1.423646e+003
6.613011e+002, 1.422689e+003
6.617832e+002, 1.417183e+003
6.622653e+002, 1.412604e+003
6.627474e+002, 1.412169e+003
6.632296e+002, 1.414618e+003
6.637117e+002, 1.417490e+003
6.641938e+002, 1.421094e+003
6.646759e+002, 1.423983e+003
6.651580e+002, 1.425987e+003
6.656401e+002, 1.426881e+003
6.661223e+002, 1.425303e+003
6.666044e+002, 1.422329e+003
6.670865e+002, 1.421387e+003
6.675686e+002, 1.424315e+003
6.680507e+002, 1.429105e+003
6.685328e+002, 1.431603e+003
6.690150e+002, 1.430708e+003
6.694971e+002, 1.432414e+003
6.699792e+002, 1.439479e+003
6.704613e+002, 1.445762e+003
6.709434e+002, 1.447890e+003
6.714255e+002, 1.447900e+003
6.719077e+002, 1.448939e+003
6.723898e+002, 1.451834e+003
6.728719e+002, 1.454914e+003
6.733540e+002, 1.456715e+003
6.738361e+002, 1.458230e+003
6.743182e+002, 1.460756e+003
6.748004e+002, 1.464466e+003
6.752825e+002, 1.469807e+003
6.757646e+002, 1.477326e+003
6.762467e+002, 1.485699e+003
6.767288e+002, 1.491728e+003
6.772109e+002, 1.493342e+003
6.776931e+002, 1.497548e+003
6.781752e+002, 1.506399e+003
6.786573e+002, 1.515461e+003
6.791394e+002, 1.522460e+003
6.796215e+002, 1.528477e+003
6.801036e+002, 1.535073e+003
6.805858e+002, 1.542666e+003
6.810679e+002, 1.551810e+003
6.815500e+002, 1.564013e+003
6.820321e+002, 1.578003e+003
6.825142e+002, 1.589730e+003
6.829963e+002, 1.598640e+003
6.834785e+002, 1.609376e+003
6.839606e+002, 1.625834e+003
6.844427e+002, 1.644257e+003
6.849248e+002, 1.655667e+003
6.854069e+002, 1.655892e+003
6.858890e+002, 1.658759e+003
6.863712e+002, 1.666459e+003
6.868533e+002, 1.675000e+003
6.873354e+002, 1.684058e+003
6.878175e+002, 1.691976e+003
6.882996e+002, 1.696424e+003
6.887817e+002, 1.696542e+003
6.892639e+002, 1.693163e+003
6.897460e+002, 1.686243e+003
6.902281e+002, 1.676340e+003
6.907102e+002, 1.667696e+003
6.911923e+002, 1.660984e+003
6.916744e+002, 1.653414e+003
6.921566e+002, 1.643495e+003
6.926387e+002, 1.631973e+003
6.931208e+002, 1.620002e+003
6.936029e+002, 1.606829e+003
6.940850e+002, 1.596195e+003
6.945671e+002, 1.591140e+003
6.950493e+002, 1.586468e+003
6.955314e+002, 1.579277e+003
6.960135e+002, 1.569831e+003
6.964956e+002, 1.558425e+003
6.969777e+002, 1.545365e+003
6.974598e+002, 1.532719e+003
6.979420e+002, 1.523549e+003
6.984241e+002, 1.517703e+003
6.989062e+002, 1.511081e+003
6.993883e+002, 1.502926e+003
6.998704e+002, 1.496152e+003
7.003525e+002, 1.492718e+003
7.008347e+002, 1.490931e+003
7.013168e+002, 1.488372e+003
7.017989e+002, 1.484933e+003
7.022810e+002, 1.482146e+003
7.027631e+002, 1.480347e+003
7.032452e+002, 1.479443e+003
7.037274e+002, 1.479682e+003
7.042095e+002, 1.480706e+003
7.046916e+002, 1.481869e+003
7.051737e+002, 1.482952e+003
7.056558e+002, 1.484121e+003
7.061379e+002, 1.485495e+003
7.066201e+002, 1.487089e+003
7.071022e+002, 1.489197e+003
7.075843e+002, 1.491540e+003
7.080664e+002, 1.495066e+003
7.085485e+002, 1.501150e+003
7.090306e+002, 1.507757e+003
7.095128e+002, 1.512382e+003
7.099949e+002, 1.515256e+003
7.104770e+002, 1.519906e+003
7.109591e+002, 1.528801e+003
7.114412e+002, 1.538586e+003
7.119233e+002, 1.545821e+003
7.124055e+002, 1.552428e+003
7.128876e+002, 1.562908e+003
7.133697e+002, 1.577971e+003
7.138518e+002, 1.593145e+003
7.143339e+002, 1.603717e+003
7.148160e+002, 1.610570e+003
7.152982e+002, 1.619859e+003
7.157803e+002, 1.631688e+003
7.162624e+002, 1.645868e+003
7.167445e+002, 1.665426e+003
7.172266e+002, 1.684663e+003
7.177087e+002, 1.699920e+003
7.181909e+002, 1.711497e+003
7.186730e+002, 1.720967e+003
7.191551e+002, 1.727324e+003
7.196372e+002, 1.733665e+003
7.201193e+002, 1.744034e+003
7.206014e+002, 1.755110e+003
7.210836e+002, 1.761510e+003
7.215657e+002, 1.762312e+003
7.220478e+002, 1.758873e+003
7.225299e+002, 1.751876e+003
7.230120e+002, 1.742147e+003
7.234941e+002, 1.732891e+003
7.239763e+002, 1.724491e+003
7.244584e+002, 1.715448e+003
7.249405e+002, 1.706372e+003
7.254226e+002, 1.695737e+003
7.259047e+002, 1.682034e+003
7.263868e+002, 1.666402e+003
7.268690e+002, 1.650853e+003
7.273511e+002, 1.635474e+003
7.278332e+002, 1.621583e+003
7.283153e+002, 1.611352e+003
7.287974e+002, 1.602421e+003
7.292795e+002, 1.590973e+003
7.297617e+002, 1.577332e+003
7.302438e+002, 1.564705e+003
7.307259e+002, 1.554763e+003
7.312080e+002, 1.546941e+003
7.316901e+002, 1.540102e+003
7.321722e+002, 1.534267e+003
7.326544e+002, 1.529433e+003
7.331365e+002, 1.525840e+003
7.336186e+002, 1.522905e+003
7.341007e+002, 1.520712e+003
7.345828e+002, 1.518836e+003
7.350649e+002, 1.517107e+003
7.355471e+002, 1.515629e+003
7.360292e+002, 1.512616e+003
7.365113e+002, 1.504880e+003
7.369934e+002, 1.497106e+003
7.374755e+002, 1.494973e+003
7.379576e+002, 1.496753e+003
7.384398e+002, 1.496388e+003
7.389219e+002, 1.491827e+003
7.394040e+002, 1.487829e+003
7.398861e+002, 1.490980e+003
7.403682e+002, 1.501106e+003
7.408503e+002, 1.506788e+003
7.413325e+002, 1.505728e+003
7.418146e+002, 1.505027e+003
7.422967e+002, 1.507619e+003
7.427788e+002, 1.510622e+003
7.432609e+002, 1.511068e+003
7.437430e+002, 1.509324e+003
7.442252e+002, 1.508970e+003
7.447073e+002, 1.511646e+003
7.451894e+002, 1.515439e+003
7.456715e+002, 1.519501e+003
7.461536e+002, 1.523721e+003
7.466357e+002, 1.527712e+003
7.471179e+002, 1.531555e+003
7.476000e+002, 1.536086e+003
7.480821e+002, 1.542212e+003
7.485642e+002, 1.549126e+003
7.490463e+002, 1.554073e+003
7.495284e+002, 1.556637e+003
7.500106e+002, 1.559101e+003
7.504927e+002, 1.560345e+003
7.509748e+002, 1.563570e+003
7.514569e+002, 1.573322e+003
7.519390e+002, 1.586293e+003
7.524211e+002, 1.594998e+003
7.529033e+002, 1.596614e+003
7.533854e+002, 1.598804e+003
7.538675e+002, 1.604224e+003
7.543496e+002, 1.611534e+003
7.548317e+002, 1.619806e+003
7.553138e+002, 1.628826e+003
7.557960e+002, 1.638755e+003
7.562781e+002, 1.649675e+003
7.567602e+002, 1.660429e+003
7.572423e+002, 1.668955e+003
7.577244e+002, 1.675304e+003
7.582065e+002, 1.683312e+003
7.586887e+002, 1.693320e+003
7.591708e+002, 1.703790e+003
7.596529e+002, 1.713954e+003
7.601350e+002, 1.724273e+003
7.606171e+002, 1.735879e+003
7.610992e+002, 1.748977e+003
7.615814e+002, 1.760811e+003
7.620635e+002, 1.769364e+003
7.625456e+002, 1.778491e+003
7.630277e+002, 1.789564e+003
7.635098e+002, 1.802515e+003
7.639919e+002, 1.817474e+003
7.644741e+002, 1.834246e+003
7.649562e+002, 1.852043e+003
7.654383e+002, 1.870439e+003
7.659204e+002, 1.889042e+003
7.664025e+002, 1.905787e+003
7.668846e+002, 1.920788e+003
7.673668e+002, 1.939305e+003
7.678489e+002, 1.962541e+003
7.683310e+002, 1.989130e+003
7.688131e+002, 2.018267e+003
7.692952e+002, 2.049797e+003
7.697773e+002, 2.083138e+003
7.702595e+002, 2.118598e+003
7.707416e+002, 2.155543e+003
7.712237e+002, 2.190477e+003
7.717058e+002, 2.229974e+003
7.721879e+002, 2.277865e+003
7.726700e+002, 2.333370e+003
7.731522e+002, 2.394398e+003
7.736343e+002, 2.459935e+003
7.741164e+002, 2.531763e+003
7.745985e+002, 2.612474e+003
7.750806e+002, 2.700474e+003
7.755627e+002, 2.789903e+003
7.760449e+002, 2.881401e+003
7.765270e+002, 2.984952e+003
7.770091e+002, 3.104602e+003
7.774912e+002, 3.240083e+003
7.779733e+002, 3.390101e+003
7.784554e+002, 3.556157e+003
7.789376e+002, 3.733882e+003
7.794197e+002, 3.916897e+003
7.799019e+002, 4.122343e+003
7.803840e+002, 4.353819e+003
7.808661e+002, 4.609030e+003
7.813482e+002, 4.883077e+003
7.818303e+002, 5.177927e+003
7.823124e+002, 5.499642e+003
7.827946e+002, 5.859125e+003
7.832767e+002, 6.238715e+003
7.837588e+002, 6.628761e+003
7.842409e+002, 7.027663e+003
7.847230e+002, 7.440608e+003
7.852051e+002, 7.862728e+003
7.856873e+002, 8.274002e+003
7.861694e+002, 8.662011e+003
7.866515e+002, 9.015611e+003
7.871336e+002, 9.313249e+003
7.876157e+002, 9.560489e+003
7.880978e+002, 9.714674e+003
7.885800e+002, 9.772299e+003
7.890621e+002, 9.736535e+003
7.895442e+002, 9.596255e+003
7.900263e+002, 9.366849e+003
7.905084e+002, 9.062806e+003
7.909905e+002, 8.677425e+003
7.914727e+002, 8.262220e+003
7.919548e+002, 7.811603e+003
7.924369e+002, 7.356418e+003
7.929190e+002, 6.901917e+003
7.934011e+002, 6.457716e+003
7.938832e+002, 6.031375e+003
7.943654e+002, 5.626146e+003
7.948475e+002, 5.246567e+003
7.953296e+002, 4.896913e+003
7.958117e+002, 4.575428e+003
7.962938e+002, 4.281242e+003
7.967759e+002, 4.014379e+003
7.972581e+002, 3.778448e+003
7.977402e+002, 3.578529e+003
7.982223e+002, 3.398384e+003
7.987044e+002, 3.225507e+003
7.991865e+002, 3.061305e+003
7.996686e+002, 2.916124e+003
8.001508e+002, 2.798732e+003
8.006329e+002, 2.687823e+003
8.011150e+002, 2.582086e+003
8.015971e+002, 2.483871e+003
8.020792e+002, 2.393595e+003
8.025613e+002, 2.311777e+003
8.030435e+002, 2.239179e+003
8.035256e+002, 2.176732e+003
8.040077e+002, 2.118976e+003
8.044898e+002, 2.062098e+003
8.049719e+002, 2.007884e+003
8.054540e+002, 1.958885e+003
8.059362e+002, 1.914789e+003
8.064183e+002, 1.873636e+003
8.069004e+002, 1.834728e+003
8.073825e+002, 1.798208e+003
8.078646e+002, 1.764396e+003
8.083467e+002, 1.733159e+003
8.088289e+002, 1.702370e+003
8.093110e+002, 1.670348e+003
8.097931e+002, 1.643401e+003
8.102752e+002, 1.625334e+003
8.107573e+002, 1.610231e+003
8.112394e+002, 1.594495e+003
8.117216e+002, 1.577970e+003
8.122037e+002, 1.560121e+003
8.126858e+002, 1.538731e+003
8.131679e+002, 1.519761e+003
8.136500e+002, 1.506429e+003
8.141321e+002, 1.495371e+003
8.146143e+002, 1.484358e+003
8.150964e+002, 1.473120e+003
8.155785e+002, 1.461458e+003
8.160606e+002, 1.449346e+003
8.165427e+002, 1.438033e+003
8.170248e+002, 1.429757e+003
8.175070e+002, 1.423410e+003
8.179891e+002, 1.414650e+003
8.184712e+002, 1.403385e+003
8.189533e+002, 1.393333e+003
8.194354e+002, 1.386057e+003
8.199175e+002, 1.379569e+003
8.203997e+002, 1.371403e+003
8.208818e+002, 1.361617e+003
8.213639e+002, 1.353573e+003
8.218460e+002, 1.347252e+003
8.223281e+002, 1.342814e+003
8.228102e+002, 1.342672e+003
8.232924e+002, 1.342131e+003
8.237745e+002, 1.337977e+003
8.242566e+002, 1.330976e+003
8.247387e+002, 1.323147e+003
8.252208e+002, 1.314274e+003
8.257029e+002, 1.307224e+003
8.261851e+002, 1.305676e+003
8.266672e+002, 1.305550e+003
8.271493e+002, 1.301565e+003
8.276314e+002, 1.294607e+003
8.281135e+002, 1.288723e+003
8.285956e+002, 1.285439e+003
8.290778e+002, 1.282908e+003
8.295599e+002, 1.278723e+003
8.300420e+002, 1.273266e+003
8.305241e+002, 1.268945e+003
8.310062e+002, 1.265750e+003
8.314883e+002, 1.264109e+003
8.319705e+002, 1.264851e+003
8.324526e+002, 1.265782e+003
8.329347e+002, 1.264901e+003
8.334168e+002, 1.262317e+003
8.338989e+002, 1.259158e+003
8.343810e+002, 1.254039e+003
8.348632e+002, 1.250388e+003
8.353453e+002, 1.250017e+003
8.358274e+002, 1.249729e+003
8.363095e+002, 1.247162e+003
8.367916e+002, 1.243281e+003
8.372737e+002, 1.240373e+003
8.377559e+002, 1.239174e+003
8.382380e+002, 1.237576e+003
8.387201e+002, 1.232583e+003
8.392022e+002, 1.227255e+003
8.396843e+002, 1.227051e+003
8.401664e+002, 1.230217e+003
8.406486e+002, 1.230343e+003
8.411307e+002, 1.225635e+003
8.416128e+002, 1.220217e+003
8.420949e+002, 1.218349e+003
8.425770e+002, 1.219045e+003
8.430591e+002, 1.217609e+003
8.435413e+002, 1.213523e+003
8.440234e+002, 1.209888e+003
8.445055e+002, 1.207208e+003
8.449876e+002, 1.204981e+003
8.454697e+002, 1.202791e+003
8.459518e+002, 1.200813e+003
8.464340e+002, 1.199576e+003
8.469161e+002, 1.199329e+003
8.473982e+002, 1.199138e+003
8.478803e+002, 1.199293e+003
8.483624e+002, 1.199071e+003
8.488445e+002, 1.198428e+003
8.493267e+002, 1.197041e+003
8.498088e+002, 1.194093e+003
8.502909e+002, 1.189681e+003
8.507730e+002, 1.185642e+003
8.512551e+002, 1.183379e+003
8.517372e+002, 1.181880e+003
8.522194e+002, 1.179672e+003
8.527015e+002, 1.177287e+003
8.531836e+002, 1.176211e+003
8.536657e+002, 1.176592e+003
8.541478e+002, 1.177366e+003
8.546299e+002, 1.177915e+003
8.551121e+002, 1.177961e+003
8.555942e+002, 1.176760e+003
8.560763e+002, 1.174170e+003
8.565584e+002, 1.171286e+003
8.570405e+002, 1.167538e+003
8.575226e+002, 1.165105e+003
8.580048e+002, 1.165363e+003
8.584869e+002, 1.167034e+003
8.589690e+002, 1.168651e+003
8.594511e+002, 1.170287e+003
8.599332e+002, 1.170659e+003
8.604153e+002, 1.168707e+003
8.608975e+002, 1.166790e+003
8.613796e+002, 1.165780e+003
8.618617e+002, 1.164888e+003
8.623438e+002, 1.163248e+003
8.628259e+002, 1.161093e+003
8.633080e+002, 1.159356e+003
8.637902e+002, 1.158505e+003
8.642723e+002, 1.157797e+003
8.647544e+002, 1.156233e+003
8.652365e+002, 1.154621e+003
8.657186e+002, 1.155016e+003
8.662007e+002, 1.156658e+003
8.666829e+002, 1.155938e+003
8.671650e+002, 1.151589e+003
8.676471e+002, 1.146633e+003
8.681292e+002, 1.144548e+003
8.686113e+002, 1.145047e+003
8.690934e+002, 1.147043e+003
8.695756e+002, 1.151034e+003
8.700577e+002, 1.152623e+003
8.705398e+002, 1.150033e+003
8.710219e+002, 1.146828e+003
8.715040e+002, 1.145900e+003
8.719861e+002, 1.146546e+003
8.724683e+002, 1.146078e+003
8.729504e+002, 1.143196e+003
8.734325e+002, 1.141652e+003
8.739146e+002, 1.143505e+003
8.743967e+002, 1.144406e+003
8.748788e+002, 1.141107e+003
8.753610e+002, 1.136558e+003
8.758431e+002, 1.134973e+003
8.763252e+002, 1.136714e+003
8.768073e+002, 1.137982e+003
8.772894e+002, 1.136526e+003
8.777715e+002, 1.134397e+003
8.782537e+002, 1.132361e+003
8.787358e+002, 1.131085e+003
8.792179e+002, 1.132760e+003
8.797000e+002, 1.136532e+003
8.801821e+002, 1.137762e+003
8.806642e+002, 1.133621e+003
8.811464e+002, 1.127706e+003
8.816285e+002, 1.125425e+003
8.821106e+002, 1.126267e+003
8.825927e+002, 1.128062e+003
8.830748e+002, 1.130794e+003
8.835569e+002, 1.130958e+003
8.840391e+002, 1.126690e+003
8.845212e+002, 1.121393e+003
8.850033e+002, 1.119102e+003
8.854854e+002, 1.119657e+003
8.859675e+002, 1.119592e+003
8.864496e+002, 1.118378e+003
8.869318e+002, 1.117619e+003
8.874139e+002, 1.118853e+003
8.878960e+002, 1.119172e+003
8.883781e+002, 1.115483e+003
8.888602e+002, 1.110157e+003
8.893423e+002, 1.108297e+003
8.898245e+002, 1.111481e+003
8.903066e+002, 1.113456e+003
8.907887e+002, 1.111611e+003
8.912708e+002, 1.109056e+003
8.917529e+002, 1.108187e+003
8.922350e+002, 1.107450e+003
8.927172e+002, 1.103253e+003
8.931993e+002, 1.096266e+003
8.936814e+002, 1.092668e+003
8.941635e+002, 1.097663e+003
8.946456e+002, 1.104622e+003
8.951277e+002, 1.105286e+003
8.956099e+002, 1.101894e+003
8.960920e+002, 1.099105e+003
8.965741e+002, 1.097436e+003
8.970562e+002, 1.096530e+003
8.975383e+002, 1.096251e+003
8.980204e+002, 1.095419e+003
8.985026e+002, 1.091444e+003
8.989847e+002, 1.084913e+003
8.994668e+002, 1.084683e+003
8.999489e+002, 1.092443e+003
9.004310e+002, 1.096738e+003
9.009131e+002, 1.093687e+003
9.013953e+002, 1.088589e+003
9.018774e+002, 1.085474e+003
9.023595e+002, 1.084150e+003
9.028416e+002, 1.083840e+003
9.033237e+002, 1.085703e+003
9.038058e+002, 1.086505e+003
9.042880e+002, 1.085910e+003
9.047701e+002, 1.084730e+003
9.052522e+002, 1.082604e+003
9.057343e+002, 1.080480e+003
9.062164e+002, 1.079694e+003
9.066985e+002, 1.080292e+003
9.071807e+002, 1.080760e+003
9.076628e+002, 1.080569e+003
9.081449e+002, 1.080089e+003
9.086270e+002, 1.079487e+003
9.091091e+002, 1.078712e+003
9.095912e+002, 1.077937e+003
9.100734e+002, 1.076917e+003
9.105555e+002, 1.074534e+003
9.110376e+002, 1.070200e+003
9.115197e+002, 1.066651e+003
9.120018e+002, 1.067640e+003
9.124839e+002, 1.071150e+003
9.129661e+002, 1.073083e+003
9.134482e+002, 1.073594e+003
9.139303e+002, 1.073947e+003
9.144124e+002, 1.074512e+003
9.148945e+002, 1.075350e+003
9.153766e+002, 1.076740e+003
9.158588e+002, 1.077967e+003
9.163409e+002, 1.076086e+003
9.168230e+002, 1.070506e+003
9.173051e+002, 1.067821e+003
9.177872e+002, 1.069380e+003
9.182693e+002, 1.071312e+003
9.187515e+002, 1.072121e+003
9.192336e+002, 1.071774e+003
9.197157e+002, 1.070055e+003
9.201978e+002, 1.066807e+003
9.206799e+002, 1.063641e+003
9.211620e+002, 1.058140e+003
9.216442e+002, 1.056134e+003
9.221263e+002, 1.062921e+003
9.226084e+002, 1.069222e+003
9.230905e+002, 1.066939e+003
9.235726e+002, 1.059685e+003
9.240547e+002, 1.056673e+003
9.245369e+002, 1.060710e+003
9.250190e+002, 1.064325e+003
9.255011e+002, 1.065330e+003
9.259832e+002, 1.064588e+003
9.264653e+002, 1.060822e+003
9.269474e+002, 1.056660e+003
9.274296e+002, 1.056901e+003
9.279117e+002, 1.061100e+003
9.283938e+002, 1.062993e+003
9.288759e+002, 1.058019e+003
9.293580e+002, 1.051474e+003
9.298401e+002, 1.048950e+003
9.303223e+002, 1.049144e+003
9.308044e+002, 1.049772e+003
9.312865e+002, 1.050685e+003
9.317686e+002, 1.052835e+003
9.322507e+002, 1.056530e+003
9.327328e+002, 1.059645e+003
9.332150e+002, 1.059409e+003
9.336971e+002, 1.056813e+003
9.341792e+002, 1.055574e+003
9.346613e+002, 1.055693e+003
9.351434e+002, 1.056898e+003
9.356255e+002, 1.059350e+003
9.361077e+002, 1.061508e+003
9.365898e+002, 1.062502e+003
9.370719e+002, 1.062278e+003
9.375540e+002, 1.060567e+003
9.380361e+002, 1.057014e+003
9.385182e+002, 1.053910e+003
9.390004e+002, 1.051006e+003
9.394825e+002, 1.049050e+003
9.399646e+002, 1.048506e+003
9.404467e+002, 1.048726e+003
9.409288e+002, 1.049366e+003
9.414109e+002, 1.050308e+003
9.418931e+002, 1.051048e+003
9.423752e+002, 1.051852e+003
9.428573e+002, 1.051933e+003
9.433394e+002, 1.050604e+003
9.438215e+002, 1.049188e+003
9.443036e+002, 1.048433e+003
9.447858e+002, 1.047955e+003
9.452679e+002, 1.047410e+003
9.457500e+002, 1.046667e+003
9.462321e+002, 1.045181e+003
9.467142e+002, 1.041383e+003
9.471964e+002, 1.038526e+003
9.476785e+002, 1.039865e+003
9.481606e+002, 1.042223e+003
9.486427e+002, 1.041485e+003
9.491248e+002, 1.038648e+003
9.496069e+002, 1.037242e+003
9.500891e+002, 1.038547e+003
9.505712e+002, 1.040872e+003
9.510533e+002, 1.043681e+003
9.515354e+002, 1.045881e+003
9.520175e+002, 1.045441e+003
9.524996e+002, 1.042911e+003
9.529818e+002, 1.039131e+003
9.534639e+002, 1.034642e+003
9.539460e+002, 1.031867e+003
9.544281e+002, 1.032402e+003
9.549102e+002, 1.034797e+003
9.553923e+002, 1.036618e+003
9.558745e+002, 1.037984e+003
9.563566e+002, 1.040251e+003
9.568387e+002, 1.043532e+003
9.573208e+002, 1.045500e+003
9.578029e+002, 1.045305e+003
9.582850e+002, 1.044390e+003
9.587672e+002, 1.043951e+003
9.592493e+002, 1.043996e+003
9.597314e+002, 1.044703e+003
9.602135e+002, 1.046494e+003
9.606956e+002, 1.047365e+003
9.611777e+002, 1.046970e+003
9.616599e+002, 1.046112e+003
9.621420e+002, 1.044379e+003
9.626241e+002, 1.043094e+003
9.631062e+002, 1.044721e+003
9.635883e+002, 1.049231e+003
9.640704e+002, 1.050383e+003
9.645526e+002, 1.045927e+003
9.650347e+002, 1.041585e+003
9.655168e+002, 1.036625e+003
9.659989e+002, 1.033175e+003
9.664810e+002, 1.033563e+003
9.669631e+002, 1.035673e+003
9.674453e+002, 1.036475e+003
9.679274e+002, 1.035612e+003
9.684095e+002, 1.033315e+003
9.688916e+002, 1.028334e+003
9.693737e+002, 1.023594e+003
9.698558e+002, 1.019665e+003
9.703380e+002, 1.017137e+003
9.708201e+002, 1.017379e+003
9.713022e+002, 1.019357e+003
9.717843e+002, 1.020661e+003
9.722664e+002, 1.020500e+003
9.727485e+002, 1.019698e+003
9.732307e+002, 1.018400e+003
9.737128e+002, 1.017099e+003
9.741949e+002, 1.016803e+003
9.746770e+002, 1.016619e+003
9.751591e+002, 1.014328e+003
9.756412e+002, 1.010311e+003
9.761234e+002, 1.007857e+003
9.766055e+002, 1.008936e+003
9.770876e+002, 1.010758e+003
9.775698e+002, 1.008779e+003
9.780519e+002, 1.005547e+003
9.785340e+002, 1.008025e+003
9.790161e+002, 1.014648e+003
9.794982e+002, 1.017878e+003
9.799803e+002, 1.015872e+003
9.804625e+002, 1.012114e+003
9.809446e+002, 1.009202e+003
9.814267e+002, 1.006986e+003
9.819088e+002, 1.005294e+003
9.823909e+002, 1.004063e+003
9.828730e+002, 1.002388e+003
9.833552e+002, 1.000189e+003
9.838373e+002, 9.992513e+002
9.843194e+002, 1.000341e+003
9.848015e+002, 1.002274e+003
9.852836e+002, 1.003946e+003
9.857657e+002, 1.005291e+003
9.862479e+002, 1.005951e+003
9.867300e+002, 1.005905e+003
9.872121e+002, 1.005212e+003
9.876942e+002, 1.003493e+003
9.881763e+002, 1.002451e+003
9.886584e+002, 1.003680e+003
9.891406e+002, 1.004657e+003
9.896227e+002, 1.001167e+003
9.901048e+002, 9.932703e+002
9.905869e+002, 9.904552e+002
9.910690e+002, 9.965296e+002
9.915511e+002, 1.000224e+003
9.920333e+002, 9.991136e+002
9.925154e+002, 9.970778e+002
9.929975e+002, 9.965856e+002
9.934796e+002, 9.962172e+002
9.939617e+002, 9.929698e+002
9.944438e+002, 9.862703e+002
9.949260e+002, 9.828766e+002
9.954081e+002, 9.853586e+002
9.958902e+002, 9.881848e+002
9.963723e+002, 9.903444e+002
9.968544e+002, 9.923525e+002
9.973365e+002, 9.954984e+002
9.978187e+002, 9.984595e+002
9.983008e+002, 9.982020e+002
9.987829e+002, 9.939152e+002
9.992650e+002, 9.905211e+002
9.997471e+002, 9.900029e+002
1.000229e+003, 9.900726e+002
1.000711e+003, 9.891962e+002
1.001193e+003, 9.887848e+002
1.001676e+003, 9.913944e+002
1.002158e+003, 9.954802e+002
1.002640e+003, 9.964708e+002
1.003122e+003, 9.926498e+002
1.003604e+003, 9.895804e+002
1.004086e+003, 9.921134e+002
1.004568e+003, 9.948572e+002
1.005050e+003, 9.928045e+002
1.005533e+003, 9.886416e+002
1.006015e+003, 9.859951e+002
1.006497e+003, 9.851135e+002
1.006979e+003, 9.846141e+002
1.007461e+003, 9.838942e+002
1.007943e+003, 9.833485e+002
1.008425e+003, 9.832977e+002
1.008907e+003, 9.836443e+002
1.009389e+003, 9.841293e+002
1.009872e+003, 9.849594e+002
1.010354e+003, 9.874280e+002
1.010836e+003, 9.910027e+002
1.011318e+003, 9.920586e+002
1.011800e+003, 9.882198e+002
1.012282e+003, 9.834132e+002
1.012764e+003, 9.825350e+002
1.013246e+003, 9.842543e+002
1.013729e+003, 9.863708e+002
1.014211e+003, 9.884357e+002
1.014693e+003, 9.891483e+002
1.015175e+003, 9.882572e+002
1.015657e+003, 9.862580e+002
1.016139e+003, 9.833241e+002
1.016621e+003, 9.805090e+002
1.017103e+003, 9.800558e+002
1.017585e+003, 9.813268e+002
1.018068e+003, 9.814390e+002
1.018550e+003, 9.803898e+002
1.019032e+003, 9.786720e+002
1.019514e+003, 9.764446e+002
1.019996e+003, 9.759604e+002
1.020478e+003, 9.793766e+002
1.020960e+003, 9.845764e+002
1.021442e+003, 9.865392e+002
1.021924e+003, 9.853712e+002
1.022407e+003, 9.839597e+002
1.022889e+003, 9.823962e+002
1.023371e+003, 9.804156e+002
1.023853e+003, 9.777632e+002
1.024335e+003, 9.757800e+002
1.024817e+003, 9.757795e+002
1.025299e+003, 9.771405e+002
1.025781e+003, 9.778881e+002
1.026264e+003, 9.778934e+002
1.026746e+003, 9.786221e+002
1.027228e+003, 9.805560e+002
1.027710e+003, 9.807874e+002
1.028192e+003, 9.774230e+002
1.028674e+003, 9.748122e+002
1.029156e+003, 9.778817e+002
1.029638e+003, 9.846105e+002
1.030120e+003, 9.863923e+002
1.030603e+003, 9.811986e+002
1.031085e+003, 9.787407e+002
1.031567e+003, 9.801868e+002
1.032049e+003, 9.819952e+002
1.032531e+003, 9.834559e+002
1.033013e+003, 9.840370e+002
1.033495e+003, 9.831546e+002
1.033977e+003, 9.809396e+002
1.034459e+003, 9.778221e+002
1.034942e+003, 9.718465e+002
1.035424e+003, 9.698340e+002
1.035906e+003, 9.749863e+002
1.036388e+003, 9.786566e+002
1.036870e+003, 9.768187e+002
1.037352e+003, 9.734085e+002
1.037834e+003, 9.725543e+002
1.038316e+003, 9.736310e+002
1.038799e+003, 9.728340e+002
1.039281e+003, 9.681045e+002
1.039763e+003, 9.655154e+002
1.040245e+003, 9.669884e+002
1.040727e+003, 9.681151e+002
1.041209e+003, 9.672886e+002
1.041691e+003, 9.656444e+002
1.042173e+003, 9.641543e+002
1.042656e+003, 9.627676e+002
1.043138e+003, 9.611702e+002
1.043620e+003, 9.584440e+002
1.044102e+003, 9.573257e+002
1.044584e+003, 9.588934e+002
1.045066e+003, 9.609478e+002
1.045548e+003, 9.631769e+002
1.046030e+003, 9.651488e+002
1.046512e+003, 9.668044e+002
1.046995e+003, 9.679046e+002
1.047477e+003, 9.673807e+002
1.047959e+003, 9.641998e+002
1.048441e+003, 9.615433e+002
1.048923e+003, 9.595043e+002
1.049405e+003, 9.585671e+002
1.049887e+003, 9.595267e+002
1.050369e+003, 9.612445e+002
1.050851e+003, 9.631748e+002
1.051334e+003, 9.648834e+002
1.051816e+003, 9.648412e+002
1.052298e+003, 9.617441e+002
1.052780e+003, 9.598145e+002
1.053262e+003, 9.614422e+002
1.053744e+003, 9.626881e+002
1.054226e+003, 9.610163e+002
1.054708e+003, 9.586210e+002
1.055191e+003, 9.575913e+002
1.055673e+003, 9.578995e+002
1.056155e+003, 9.588698e+002
1.056637e+003, 9.607500e+002
1.057119e+003, 9.618892e+002
1.057601e+003, 9.605926e+002
1.058083e+003, 9.598635e+002
1.058565e+003, 9.623148e+002
1.059047e+003, 9.651893e+002
1.059530e+003, 9.657654e+002
1.060012e+003, 9.642401e+002
1.060494e+003, 9.618307e+002
1.060976e+003, 9.584301e+002
1.061458e+003, 9.561090e+002
1.061940e+003, 9.564821e+002
1.062422e+003, 9.570336e+002
1.062904e+003, 9.557648e+002
1.063386e+003, 9.545643e+002
1.063869e+003, 9.565493e+002
1.064351e+003, 9.601078e+002
1.064833e+003, 9.601976e+002
1.065315e+003, 9.550690e+002
1.065797e+003, 9.503633e+002
1.066279e+003, 9.472025e+002
1.066761e+003, 9.464923e+002
1.067243e+003, 9.518265e+002
1.067726e+003, 9.573289e+002
1.068208e+003, 9.560954e+002
1.068690e+003, 9.504949e+002
1.069172e+003, 9.472176e+002
1.069654e+003, 9.480252e+002
1.070136e+003, 9.493551e+002
1.070618e+003, 9.508422e+002
1.071100e+003, 9.510201e+002
1.071583e+003, 9.476837e+002
1.072065e+003, 9.438889e+002
1.072547e+003, 9.420758e+002
1.073029e+003, 9.422327e+002
1.073511e+003, 9.443636e+002
1.073993e+003, 9.483981e+002
1.074475e+003, 9.509242e+002
1.074957e+003, 9.490715e+002
1.075439e+003, 9.470801e+002
1.075922e+003, 9.464138e+002
1.076404e+003, 9.471508e+002
1.076886e+003, 9.509728e+002
1.077368e+003, 9.555775e+002
1.077850e+003, 9.564137e+002
1.078332e+003, 9.529227e+002
1.078814e+003, 9.497757e+002
1.079296e+003, 9.488488e+002
1.079779e+003, 9.489150e+002
1.080261e+003, 9.504460e+002
1.080743e+003, 9.517308e+002
1.081225e+003, 9.505780e+002
1.081707e+003, 9.486028e+002
1.082189e+003, 9.490599e+002
1.082671e+003, 9.519354e+002
1.083153e+003, 9.530203e+002
1.083635e+003, 9.492884e+002
1.084118e+003, 9.461570e+002
1.084600e+003, 9.464789e+002
1.085082e+003, 9.478756e+002
1.085564e+003, 9.499621e+002
1.086046e+003, 9.512355e+002
1.086528e+003, 9.487782e+002
1.087010e+003, 9.433644e+002
1.087492e+003, 9.402609e+002
1.087974e+003, 9.420977e+002
1.088457e+003, 9.439479e+002
1.088939e+003, 9.435178e+002
1.089421e+003, 9.427394e+002
1.089903e+003, 9.428812e+002
1.090385e+003, 9.433101e+002
1.090867e+003, 9.429689e+002
1.091349e+003, 9.421448e+002
1.091831e+003, 9.424290e+002
1.092314e+003, 9.448829e+002
1.092796e+003, 9.457531e+002
1.093278e+003, 9.415831e+002
1.093760e+003, 9.379901e+002
1.094242e+003, 9.385277e+002
1.094724e+003, 9.404396e+002
1.095206e+003, 9.412811e+002
1.095688e+003, 9.410931e+002
1.096171e+003, 9.406683e+002
1.096653e+003, 9.401520e+002
1.097135e+003, 9.394537e+002
1.097617e+003, 9.376942e+002
1.098099e+003, 9.368607e+002
1.098581e+003, 9.388395e+002
1.099063e+003, 9.410040e+002
1.099545e+003, 9.412216e+002
1.100027e+003, 9.401021e+002
1.100510e+003, 9.388993e+002
1.100992e+003, 9.377888e+002
1.101474e+003, 9.368698e+002
1.101956e+003, 9.364194e+002
1.102438e+003, 9.358231e+002
1.102920e+003, 9.347469e+002
1.103402e+003, 9.336821e+002
1.103884e+003, 9.325145e+002
1.104366e+003, 9.317936e+002
1.104849e+003, 9.327386e+002
1.105331e+003, 9.352111e+002
1.105813e+003, 9.364016e+002
1.106295e+003, 9.349045e+002
1.106777e+003, 9.336576e+002
1.107259e+003, 9.332411e+002
1.107741e+003, 9.329102e+002
1.108223e+003, 9.321556e+002
1.108706e+003, 9.314367e+002
1.109188e+003, 9.308436e+002
1.109670e+003, 9.306393e+002
1.110152e+003, 9.323136e+002
1.110634e+003, 9.381012e+002
1.111116e+003, 9.409010e+002
1.111598e+003, 9.387061e+002
1.112080e+003, 9.356935e+002
1.112563e+003, 9.315016e+002
1.113045e+003, 9.283754e+002
1.113527e+003, 9.292882e+002
1.114009e+003, 9.323704e+002
1.114491e+003, 9.323724e+002
1.114973e+003, 9.282458e+002
1.115455e+003, 9.255594e+002
1.115937e+003, 9.241211e+002
1.116419e+003, 9.245746e+002
1.116901e+003, 9.286854e+002
1.117384e+003, 9.323667e+002
1.117866e+003, 9.327194e+002
1.118348e+003, 9.315262e+002
1.118830e+003, 9.318996e+002
1.119312e+003, 9.338983e+002
1.119794e+003, 9.347505e+002
1.120276e+003, 9.337565e+002
1.120758e+003, 9.335360e+002
1.121241e+003, 9.352971e+002
1.121723e+003, 9.355043e+002
1.122205e+003, 9.316964e+002
1.122687e+003, 9.271450e+002
1.123169e+003, 9.259122e+002
1.123651e+003, 9.273439e+002
1.124133e+003, 9.275605e+002
1.124615e+003, 9.261229e+002
1.125098e+003, 9.258654e+002
1.125580e+003, 9.273777e+002
1.126062e+003, 9.281237e+002
1.126544e+003, 9.272913e+002
1.127026e+003, 9.253566e+002
1.127508e+003, 9.223533e+002
1.127990e+003, 9.192819e+002
1.128472e+003, 9.190432e+002
1.128954e+003, 9.217648e+002
1.129437e+003, 9.221714e+002
1.129919e+003, 9.200205e+002
1.130401e+003, 9.196820e+002
1.130883e+003, 9.222303e+002
1.131365e+003, 9.244233e+002
1.131847e+003, 9.242523e+002
1.132329e+003, 9.231556e+002
1.132811e+003, 9.235914e+002
1.133293e+003, 9.248051e+002
1.133776e+003, 9.220992e+002
1.134258e+003, 9.162617e+002
1.134740e+003, 9.154928e+002
1.135222e+003, 9.203204e+002
1.135704e+003, 9.242993e+002
1.136186e+003, 9.248032e+002
1.136668e+003, 9.241261e+002
1.137150e+003, 9.242987e+002
1.137633e+003, 9.252687e+002
1.138115e+003, 9.273927e+002
1.138597e+003, 9.301341e+002
1.139079e+003, 9.320085e+002
1.139561e+003, 9.329352e+002
1.140043e+003, 9.332223e+002
1.140525e+003, 9.328494e+002
1.141007e+003, 9.306349e+002
1.141490e+003, 9.254505e+002
1.141972e+003, 9.210758e+002
1.142454e+003, 9.236398e+002
1.142936e+003, 9.288377e+002
1.143418e+003, 9.293652e+002
1.143900e+003, 9.271554e+002
1.144382e+003, 9.266575e+002
1.144864e+003, 9.278973e+002
1.145346e+003, 9.280713e+002
1.145828e+003, 9.261266e+002
1.146311e+003, 9.244381e+002
1.146793e+003, 9.259860e+002
1.147275e+003, 9.272891e+002
1.147757e+003, 9.235546e+002
1.148239e+003, 9.190277e+002
1.148721e+003, 9.192274e+002
1.149203e+003, 9.224795e+002
1.149685e+003, 9.250695e+002
1.150168e+003, 9.260926e+002
1.150650e+003, 9.259335e+002
1.151132e+003, 9.240060e+002
1.151614e+003, 9.226823e+002
1.152096e+003, 9.236437e+002
1.152578e+003, 9.250958e+002
1.153060e+003, 9.266381e+002
1.153542e+003, 9.273610e+002
1.154025e+003, 9.254551e+002
1.154507e+003, 9.219072e+002
1.154989e+003, 9.203424e+002
1.155471e+003, 9.220685e+002
1.155953e+003, 9.227859e+002
1.156435e+003, 9.190997e+002
1.156917e+003, 9.175443e+002
1.157399e+003, 9.227474e+002
1.157881e+003, 9.281810e+002
1.158364e+003, 9.292821e+002
1.158846e+003, 9.276652e+002
1.159328e+003, 9.259833e+002
1.159810e+003, 9.243378e+002
1.160292e+003, 9.228094e+002
1.160774e+003, 9.209152e+002
1.161256e+003, 9.200553e+002
1.161738e+003, 9.207718e+002
1.162220e+003, 9.218312e+002
1.162703e+003, 9.234984e+002
1.163185e+003, 9.242186e+002
1.163667e+003, 9.215592e+002
1.164149e+003, 9.173486e+002
1.164631e+003, 9.183337e+002
1.165113e+003, 9.261765e+002
1.165595e+003, 9.282192e+002
1.166077e+003, 9.224274e+002
1.166560e+003, 9.204349e+002
1.167042e+003, 9.257582e+002
1.167524e+003, 9.298307e+002
1.168006e+003, 9.272958e+002
1.168488e+003, 9.217902e+002
1.168970e+003, 9.183063e+002
1.169452e+003, 9.168898e+002
1.169934e+003, 9.189777e+002
1.170417e+003, 9.241190e+002
1.170899e+003, 9.250674e+002
1.171381e+003, 9.214626e+002
1.171863e+003, 9.189777e+002
1.172345e+003, 9.195184e+002
1.172827e+003, 9.209814e+002
1.173309e+003, 9.217172e+002
1.173791e+003, 9.221683e+002
1.174273e+003, 9.231366e+002
1.174755e+003, 9.243643e+002
1.175238e+003, 9.249826e+002
1.175720e+003, 9.253881e+002
1.176202e+003, 9.277733e+002
1.176684e+003, 9.314006e+002
1.177166e+003, 9.310773e+002
1.177648e+003, 9.246393e+002
1.178130e+003, 9.185483e+002
1.178612e+003, 9.191931e+002
1.179095e+003, 9.216855e+002
1.179577e+003, 9.209131e+002
1.180059e+003, 9.193073e+002
1.180541e+003, 9.202996e+002
1.181023e+003, 9.226345e+002
1.181505e+003, 9.232046e+002
1.181987e+003, 9.217707e+002
1.182469e+003, 9.208621e+002
1.182952e+003, 9.219281e+002
1.183434e+003, 9.223226e+002
1.183916e+003, 9.202516e+002
1.184398e+003, 9.179099e+002
1.184880e+003, 9.150623e+002
1.185362e+003, 9.137501e+002
1.185844e+003, 9.174695e+002
1.186326e+003, 9.238167e+002
1.186808e+003, 9.266166e+002
1.187291e+003, 9.247535e+002
1.187773e+003, 9.240589e+002
1.188255e+003, 9.262930e+002
1.188737e+003, 9.278610e+002
1.189219e+003, 9.287188e+002
1.189701e+003, 9.283602e+002
1.190183e+003, 9.257943e+002
1.190665e+003, 9.228303e+002
1.191147e+003, 9.214215e+002
1.191630e+003, 9.212804e+002
1.192112e+003, 9.212935e+002
1.192594e+003, 9.216421e+002
1.193076e+003, 9.209920e+002
1.193558e+003, 9.188636e+002
1.194040e+003, 9.183370e+002
1.194522e+003, 9.202903e+002
1.195004e+003, 9.231317e+002
1.195487e+003, 9.262563e+002
1.195969e+003, 9.278078e+002
1.196451e+003, 9.243727e+002
1.196933e+003, 9.179759e+002
1.197415e+003, 9.170301e+002
1.197897e+003, 9.203932e+002
1.198379e+003, 9.214891e+002
1.198861e+003, 9.201407e+002
1.199344e+003, 9.190958e+002
1.199826e+003, 9.191452e+002
1.200308e+003, 9.193427e+002
1.200790e+003, 9.190160e+002
1.201272e+003, 9.187432e+002
1.201754e+003, 9.194142e+002
1.202236e+003, 9.204074e+002
1.202718e+003, 9.211061e+002
1.203200e+003, 9.213327e+002
1.203682e+003, 9.202692e+002
1.204165e+003, 9.185833e+002
1.204647e+003, 9.184795e+002
1.205129e+003, 9.204136e+002
1.205611e+003, 9.215858e+002
1.206093e+003, 9.200215e+002
1.206575e+003, 9.181732e+002
1.207057e+003, 9.170835e+002
1.207539e+003, 9.163818e+002
1.208022e+003, 9.152061e+002
1.208504e+003, 9.147124e+002
1.208986e+003, 9.172527e+002
1.209468e+003, 9.216776e+002
1.209950e+003, 9.235541e+002
1.210432e+003, 9.217249e+002
1.210914e+003, 9.201859e+002
1.211396e+003, 9.186796e+002
1.211879e+003, 9.184203e+002
1.212361e+003, 9.210234e+002
1.212843e+003, 9.225903e+002
1.213325e+003, 9.205594e+002
1.213807e+003, 9.173231e+002
1.214289e+003, 9.155672e+002
1.214771e+003, 9.152118e+002
1.215253e+003, 9.159880e+002
1.215735e+003, 9.179841e+002
1.216218e+003, 9.207222e+002
1.216700e+003, 9.244183e+002
1.217182e+003, 9.253983e+002
1.217664e+003, 9.227118e+002
1.218146e+003, 9.196807e+002
1.218628e+003, 9.182103e+002
1.219110e+003, 9.179280e+002
1.219592e+003, 9.185453e+002
1.220074e+003, 9.197425e+002
1.220557e+003, 9.214093e+002
1.221039e+003, 9.228185e+002
1.221521e+003, 9.210778e+002
1.222003e+003, 9.173831e+002
1.222485e+003, 9.164709e+002
1.222967e+003, 9.189025e+002
1.223449e+003, 9.205236e+002
1.223931e+003, 9.188896e+002
1.224414e+003, 9.172928e+002
1.224896e+003, 9.200604e+002
1.225378e+003, 9.219156e+002
1.225860e+003, 9.159312e+002
1.226342e+003, 9.090674e+002
1.226824e+003, 9.101859e+002
1.227306e+003, 9.156608e+002
1.227788e+003, 9.171891e+002
1.228271e+003, 9.138480e+002
1.228753e+003, 9.108220e+002
1.229235e+003, 9.083249e+002
1.229717e+003, 9.077667e+002
1.230199e+003, 9.112054e+002
1.230681e+003, 9.140926e+002
1.231163e+003, 9.144294e+002
1.231645e+003, 9.145106e+002
1.232127e+003, 9.160723e+002
1.232609e+003, 9.184822e+002
1.233092e+003, 9.208429e+002
1.233574e+003, 9.230863e+002
1.234056e+003, 9.216694e+002
1.234538e+003, 9.156533e+002
1.235020e+003, 9.145296e+002
1.235502e+003, 9.195881e+002
1.235984e+003, 9.222948e+002
1.236466e+003, 9.196152e+002
1.236949e+003, 9.171434e+002
1.237431e+003, 9.194308e+002
1.237913e+003, 9.231340e+002
1.238395e+003, 9.219318e+002
1.238877e+003, 9.185428e+002
1.239359e+003, 9.206579e+002
1.239841e+003, 9.254722e+002
1.240323e+003, 9.255243e+002
1.240806e+003, 9.217153e+002
1.241288e+003, 9.201547e+002
1.241770e+003, 9.222422e+002
1.242252e+003, 9.233673e+002
1.242734e+003, 9.200970e+002
1.243216e+003, 9.175887e+002
1.243698e+003, 9.205870e+002
1.244180e+003, 9.238782e+002
1.244662e+003, 9.233662e+002
1.245145e+003, 9.217169e+002
1.245627e+003, 9.219452e+002
1.246109e+003, 9.232932e+002
1.246591e+003, 9.235201e+002
1.247073e+003, 9.223438e+002
1.247555e+003, 9.213192e+002
1.248037e+003, 9.208273e+002
1.248519e+003, 9.197995e+002
1.249001e+003, 9.169294e+002
1.249484e+003, 9.163303e+002
1.249966e+003, 9.202840e+002
1.250448e+003, 9.246874e+002
1.250930e+003, 9.263666e+002
1.251412e+003, 9.262964e+002
1.251894e+003, 9.261859e+002
1.252376e+003, 9.260864e+002
1.252858e+003, 9.265539e+002
1.253341e+003, 9.274709e+002
1.253823e+003, 9.277303e+002
1.254305e+003, 9.273109e+002
1.254787e+003, 9.263626e+002
1.255269e+003, 9.252360e+002
1.255751e+003, 9.270673e+002
1.256233e+003, 9.346857e+002
1.256715e+003, 9.410635e+002
1.257198e+003, 9.362505e+002
1.257680e+003, 9.285934e+002
1.258162e+003, 9.275602e+002
1.258644e+003, 9.294147e+002
1.259126e+003, 9.290787e+002
1.259608e+003, 9.274889e+002
1.260090e+003, 9.277654e+002
1.260572e+003, 9.302819e+002
1.261054e+003, 9.330563e+002
1.261536e+003, 9.362438e+002
1.262019e+003, 9.381285e+002
1.262501e+003, 9.374076e+002
1.262983e+003, 9.366540e+002
1.263465e+003, 9.363060e+002
1.263947e+003, 9.365856e+002
1.264429e+003, 9.379894e+002
1.264911e+003, 9.396683e+002
1.265393e+003, 9.403591e+002
1.265876e+003, 9.401608e+002
1.266358e+003, 9.399633e+002
1.266840e+003, 9.398391e+002
1.267322e+003, 9.375487e+002
1.267804e+003, 9.330583e+002
1.268286e+003, 9.320591e+002
1.268768e+003, 9.356864e+002
1.269250e+003, 9.392753e+002
1.269733e+003, 9.402712e+002
1.270215e+003, 9.389600e+002
1.270697e+003, 9.340203e+002
1.271179e+003, 9.293043e+002
1.271661e+003, 9.322634e+002
1.272143e+003, 9.374518e+002
1.272625e+003, 9.354121e+002
1.273107e+003, 9.304810e+002
1.273589e+003, 9.328539e+002
1.274072e+003, 9.412151e+002
1.274554e+003, 9.446268e+002
1.275036e+003, 9.392459e+002
1.275518e+003, 9.356362e+002
1.276000e+003, 9.396380e+002
1.276482e+003, 9.419813e+002
1.276964e+003, 9.371328e+002
1.277446e+003, 9.342003e+002
1.277929e+003, 9.387354e+002
1.278411e+003, 9.451584e+002
1.278893e+003, 9.486686e+002
1.279375e+003, 9.496351e+002
1.279857e+003, 9.487318e+002
1.280339e+003, 9.459351e+002
1.280821e+003, 9.433949e+002
1.281303e+003, 9.411906e+002
1.281786e+003, 9.419020e+002
1.282268e+003, 9.458535e+002
##END=



