##NAMES=Molybdenum
##RRUFFID=R100216
##IDEAL CHEMISTRY=Mo
##LOCALITY=Mining concentrate
##OWNER=RRUFF
##SOURCE=Mike Carducci, Climax Molybdenum Technology Center
##DESCRIPTION=Black unconsolidated powder
##STATUS=The identification of this mineral has been confirmed by X-ray diffraction.
##URL=rruff.info/R100216
166.7798, 72.80875
167.2620, 70.39896
167.7441, 68.66767
168.2262, 68.36516
168.7083, 69.01998
169.1904, 69.29092
169.6725, 68.82456
170.1547, 68.66634
170.6368, 69.73718
171.1189, 71.58723
171.6010, 72.56115
172.0831, 71.49938
172.5652, 69.41280
173.0474, 68.44276
173.5295, 68.94527
174.0116, 69.87376
174.4937, 70.69096
174.9758, 71.39922
175.4579, 71.51480
175.9401, 70.15900
176.4222, 68.41013
176.9043, 67.44865
177.3864, 67.58401
177.8685, 68.30878
178.3506, 69.04620
178.8327, 69.80772
179.3149, 70.54481
179.7970, 71.34228
180.2791, 72.06734
180.7612, 72.62630
181.2433, 73.00871
181.7254, 73.13314
182.2076, 72.74262
182.6897, 71.38675
183.1718, 70.34532
183.6539, 69.87405
184.1360, 69.78842
184.6181, 69.97156
185.1003, 70.38364
185.5824, 70.92428
186.0645, 71.21795
186.5466, 70.78533
187.0287, 70.70336
187.5108, 71.74541
187.9930, 73.04816
188.4751, 73.40260
188.9572, 72.08382
189.4393, 69.46719
189.9214, 67.65788
190.4035, 67.09027
190.8857, 66.84745
191.3678, 66.91706
191.8499, 67.19465
192.3320, 67.59103
192.8141, 68.09686
193.2962, 68.64265
193.7784, 68.64674
194.2605, 67.38705
194.7426, 66.47813
195.2247, 66.84805
195.7068, 68.08595
196.1889, 68.96269
196.6711, 68.64144
197.1532, 67.37291
197.6353, 66.58907
198.1174, 66.28172
198.5995, 66.39396
199.0816, 67.20934
199.5638, 68.59452
200.0459, 69.60343
200.5280, 69.40111
201.0101, 68.50157
201.4922, 68.47114
201.9743, 70.19166
202.4565, 71.96053
202.9386, 72.17667
203.4207, 70.80250
203.9028, 69.29675
204.3849, 68.44289
204.8670, 67.94241
205.3492, 67.30614
205.8313, 66.15113
206.3134, 65.21758
206.7955, 65.81893
207.2776, 68.42794
207.7597, 70.36260
208.2419, 69.45122
208.7240, 67.58640
209.2061, 66.60914
209.6882, 67.26586
210.1703, 68.72627
210.6524, 69.66081
211.1346, 70.07255
211.6167, 69.88294
212.0988, 68.54047
212.5809, 66.88123
213.0630, 65.67990
213.5451, 65.25693
214.0273, 65.41896
214.5094, 65.79402
214.9915, 66.58865
215.4736, 67.21830
215.9557, 67.79413
216.4378, 68.09334
216.9200, 67.71745
217.4021, 66.46041
217.8842, 64.81126
218.3663, 64.20300
218.8484, 65.65247
219.3305, 66.72887
219.8126, 67.10862
220.2948, 67.02558
220.7769, 66.59123
221.2590, 65.85517
221.7411, 65.06203
222.2232, 64.95645
222.7053, 66.91303
223.1875, 67.89438
223.6696, 66.83394
224.1517, 65.02654
224.6338, 63.97350
225.1159, 64.34090
225.5980, 65.72032
226.0802, 66.94460
226.5623, 68.59151
227.0444, 69.35493
227.5265, 68.43470
228.0086, 66.77231
228.4907, 65.62240
228.9729, 65.53074
229.4550, 66.05117
229.9371, 66.01119
230.4192, 64.75912
230.9013, 63.99108
231.3834, 64.41209
231.8656, 65.37675
232.3477, 65.82813
232.8298, 65.29243
233.3119, 64.35526
233.7940, 64.43552
234.2761, 66.06184
234.7583, 67.18240
235.2404, 66.95173
235.7225, 65.93192
236.2046, 65.06209
236.6867, 64.62524
237.1688, 64.50353
237.6510, 64.57138
238.1331, 64.87142
238.6152, 65.07289
239.0973, 65.03575
239.5794, 64.82341
240.0615, 64.55494
240.5436, 64.23731
241.0258, 63.92036
241.5079, 63.53444
241.9900, 63.04299
242.4721, 63.01145
242.9542, 64.41883
243.4363, 66.48348
243.9185, 66.93901
244.4006, 64.67764
244.8827, 61.95379
245.3648, 61.19763
245.8469, 62.15220
246.3290, 63.12319
246.8112, 63.08674
247.2933, 62.41119
247.7754, 62.28782
248.2575, 63.12744
248.7396, 64.10074
249.2217, 64.60518
249.7039, 64.71707
250.1860, 64.65473
250.6681, 64.42718
251.1502, 64.09963
251.6323, 63.89331
252.1144, 63.76805
252.5966, 63.87153
253.0787, 64.67954
253.5608, 65.77598
254.0429, 66.17632
254.5250, 64.75590
255.0071, 62.17413
255.4893, 61.10677
255.9714, 62.40753
256.4535, 63.93741
256.9356, 64.89221
257.4177, 65.37090
257.8998, 65.51703
258.3820, 65.34908
258.8641, 64.92892
259.3462, 64.40511
259.8283, 63.43919
260.3104, 62.97584
260.7925, 63.78834
261.2747, 65.06672
261.7568, 65.60990
262.2389, 64.64449
262.7210, 62.90893
263.2031, 62.71990
263.6852, 65.45753
264.1674, 67.38559
264.6495, 67.05236
265.1316, 65.82596
265.6137, 65.15584
266.0958, 65.67637
266.5779, 66.95530
267.0601, 68.01109
267.5422, 68.83907
268.0243, 69.40593
268.5064, 69.74600
268.9885, 69.85935
269.4706, 69.65081
269.9528, 69.10181
270.4349, 68.44563
270.9170, 68.15825
271.3991, 68.52303
271.8812, 68.70703
272.3633, 68.76196
272.8454, 68.58341
273.3275, 67.91678
273.8097, 66.77175
274.2918, 65.59528
274.7739, 65.14684
275.2560, 66.03425
275.7381, 66.34811
276.2202, 65.59069
276.7024, 64.75463
277.1845, 64.57354
277.6666, 65.08041
278.1487, 65.70135
278.6308, 65.72427
279.1129, 64.94743
279.5951, 64.25137
280.0772, 63.33807
280.5593, 62.73056
281.0414, 63.01366
281.5235, 63.98275
282.0056, 64.76576
282.4878, 64.42307
282.9699, 62.67091
283.4520, 61.87050
283.9341, 62.88944
284.4162, 63.86953
284.8983, 64.04533
285.3805, 63.53402
285.8626, 62.82388
286.3447, 62.27039
286.8268, 61.87412
287.3089, 61.54252
287.7910, 61.42255
288.2732, 61.20736
288.7553, 60.76029
289.2374, 60.15653
289.7195, 59.52493
290.2016, 58.93124
290.6837, 58.39677
291.1659, 58.03924
291.6480, 57.74395
292.1301, 57.75868
292.6122, 58.34718
293.0943, 59.21680
293.5764, 60.00592
294.0586, 60.55709
294.5407, 60.86949
295.0228, 60.94047
295.5049, 60.49324
295.9870, 60.13149
296.4691, 59.98520
296.9513, 59.88762
297.4334, 59.58058
297.9155, 58.99529
298.3976, 58.41137
298.8797, 58.33976
299.3618, 59.43116
299.8440, 59.77171
300.3261, 58.72674
300.8082, 57.34464
301.2903, 56.34737
301.7724, 55.91693
302.2545, 55.98635
302.7367, 56.55143
303.2188, 57.83931
303.7009, 58.71487
304.1830, 59.02139
304.6651, 59.09242
305.1472, 58.97530
305.6294, 58.76461
306.1115, 58.75720
306.5936, 59.26427
307.0757, 60.33383
307.5578, 60.95542
308.0399, 61.17540
308.5221, 61.00248
309.0042, 60.17265
309.4863, 58.92281
309.9684, 57.75500
310.4505, 56.93170
310.9326, 56.50831
311.4148, 56.96493
311.8969, 59.46565
312.3790, 61.36853
312.8611, 61.79652
313.3432, 61.25864
313.8253, 60.53339
314.3074, 59.95668
314.7896, 59.50669
315.2717, 59.12465
315.7538, 58.62444
316.2359, 58.46734
316.7180, 59.37457
317.2001, 60.34417
317.6823, 59.83167
318.1644, 57.45715
318.6465, 54.89693
319.1286, 54.76848
319.6107, 58.64446
320.0928, 61.29992
320.5750, 62.22689
321.0571, 62.33907
321.5392, 62.24611
322.0213, 62.05409
322.5034, 61.57303
322.9855, 60.49765
323.4677, 58.61702
323.9498, 57.82906
324.4319, 59.48985
324.9140, 60.81630
325.3961, 59.99304
325.8782, 57.53905
326.3604, 55.25884
326.8425, 54.42368
327.3246, 54.91068
327.8067, 55.32995
328.2888, 55.51510
328.7709, 55.83044
329.2531, 56.49984
329.7352, 57.33752
330.2173, 58.10068
330.6994, 58.68740
331.1815, 59.02742
331.6636, 58.92207
332.1458, 57.63292
332.6279, 56.80824
333.1100, 56.60140
333.5921, 56.83129
334.0742, 57.57817
334.5563, 58.78590
335.0385, 59.83990
335.5206, 59.73897
336.0027, 57.60785
336.4848, 56.60643
336.9669, 57.59174
337.4490, 58.89482
337.9312, 59.56739
338.4133, 59.49667
338.8954, 58.91184
339.3775, 57.92888
339.8596, 56.45422
340.3417, 55.75816
340.8239, 56.49081
341.3060, 57.21359
341.7881, 57.33400
342.2702, 57.05848
342.7523, 56.92974
343.2344, 57.31356
343.7166, 58.02893
344.1987, 58.18803
344.6808, 57.07481
345.1629, 56.18924
345.6450, 55.61300
346.1271, 55.35654
346.6093, 55.48101
347.0914, 55.99484
347.5735, 56.74910
348.0556, 57.46553
348.5377, 58.17151
349.0198, 58.78613
349.5020, 59.57972
349.9841, 60.10609
350.4662, 59.82487
350.9483, 58.82416
351.4304, 57.82881
351.9125, 57.72498
352.3947, 58.75621
352.8768, 59.04465
353.3589, 57.60437
353.8410, 56.40657
354.3231, 56.39818
354.8052, 57.17316
355.2873, 57.74831
355.7694, 57.40165
356.2516, 56.36464
356.7337, 55.96727
357.2158, 56.65899
357.6979, 57.43089
358.1800, 58.30769
358.6621, 59.07696
359.1443, 59.53247
359.6264, 59.59748
360.1085, 59.30290
360.5906, 58.51337
361.0727, 56.64431
361.5548, 55.85236
362.0370, 57.45711
362.5191, 59.29511
363.0012, 59.99660
363.4833, 59.47982
363.9654, 58.57726
364.4475, 57.99614
364.9297, 57.73030
365.4118, 57.92787
365.8939, 59.30518
366.3760, 60.35417
366.8581, 60.31432
367.3402, 59.51373
367.8224, 58.66291
368.3045, 58.20501
368.7866, 57.96367
369.2687, 57.32490
369.7508, 55.94213
370.2329, 54.94944
370.7151, 54.96739
371.1972, 55.41321
371.6793, 55.71573
372.1614, 55.69300
372.6435, 55.64416
373.1256, 56.04781
373.6078, 56.95763
374.0899, 57.54151
374.5720, 57.54980
375.0541, 57.21026
375.5362, 56.54396
376.0183, 55.61253
376.5005, 54.85265
376.9826, 54.69556
377.4647, 54.95912
377.9468, 54.91859
378.4289, 54.37302
378.9110, 53.87543
379.3932, 54.09601
379.8753, 54.61039
380.3574, 54.52458
380.8395, 53.03928
381.3216, 51.31221
381.8037, 51.03283
382.2859, 52.23776
382.7680, 53.01141
383.2501, 52.11769
383.7322, 50.57587
384.2143, 50.04548
384.6964, 50.77236
385.1786, 51.75716
385.6607, 52.62148
386.1428, 53.31032
386.6249, 53.67547
387.1070, 53.67073
387.5891, 53.36045
388.0713, 52.50399
388.5534, 51.16810
389.0355, 50.54602
389.5176, 51.50357
389.9997, 52.89618
390.4818, 53.59136
390.9640, 53.54528
391.4461, 53.28701
391.9282, 53.18196
392.4103, 53.15088
392.8924, 52.80725
393.3745, 51.61321
393.8567, 50.71851
394.3387, 50.83272
394.8209, 51.53584
395.3030, 52.00511
395.7851, 51.92686
396.2672, 51.55597
396.7493, 51.32454
397.2314, 51.24049
397.7136, 51.30042
398.1957, 51.55376
398.6778, 51.91847
399.1599, 52.48349
399.6420, 53.16982
400.1241, 53.57910
400.6063, 53.31482
401.0884, 52.35083
401.5705, 51.56720
402.0526, 50.98433
402.5347, 50.52866
403.0168, 50.17332
403.4990, 49.93181
403.9811, 49.84473
404.4632, 49.93288
404.9453, 50.15214
405.4274, 50.35674
405.9095, 50.12239
406.3917, 50.64868
406.8738, 53.25924
407.3559, 55.63180
407.8380, 55.77893
408.3201, 53.70397
408.8022, 51.10931
409.2844, 49.59642
409.7665, 49.21301
410.2486, 49.31417
410.7307, 50.32537
411.2128, 51.38902
411.6949, 52.53413
412.1771, 53.50610
412.6592, 53.87082
413.1413, 53.34420
413.6234, 52.33475
414.1055, 51.74164
414.5876, 51.71877
415.0698, 51.63613
415.5519, 51.13732
416.0340, 50.66907
416.5161, 50.69765
416.9982, 51.22797
417.4803, 51.58942
417.9625, 50.98215
418.4446, 49.59752
418.9267, 48.74182
419.4088, 48.57876
419.8909, 48.83896
420.3730, 49.67868
420.8552, 50.76934
421.3373, 51.43053
421.8194, 51.49529
422.3015, 50.97468
422.7836, 49.45235
423.2657, 46.95368
423.7479, 45.24463
424.2300, 45.23550
424.7121, 46.24973
425.1942, 47.27435
425.6763, 48.40307
426.1584, 49.08341
426.6406, 48.72141
427.1227, 47.85849
427.6048, 47.36348
428.0869, 47.37567
428.5690, 47.79661
429.0511, 48.73541
429.5333, 50.16092
430.0154, 50.88230
430.4975, 50.44954
430.9796, 49.73176
431.4617, 48.94387
431.9438, 48.24951
432.4260, 48.03738
432.9081, 48.51844
433.3902, 49.48470
433.8723, 50.48253
434.3544, 51.95002
434.8365, 52.67311
435.3186, 52.14262
435.8008, 51.16460
436.2829, 50.27043
436.7650, 49.59189
437.2471, 49.13912
437.7292, 48.93373
438.2113, 48.97902
438.6935, 49.11756
439.1756, 49.58664
439.6577, 49.88470
440.1398, 49.89658
440.6219, 49.66905
441.1040, 49.14488
441.5862, 48.30585
442.0683, 47.51185
442.5504, 47.51174
443.0325, 48.63099
443.5146, 49.54670
443.9967, 50.24820
444.4789, 50.63043
444.9610, 50.56439
445.4431, 50.09912
445.9252, 49.38722
446.4073, 48.35269
446.8894, 47.18673
447.3716, 46.69481
447.8537, 47.10804
448.3358, 47.62152
448.8179, 47.96561
449.3000, 48.18764
449.7821, 48.29406
450.2643, 48.25582
450.7464, 48.24644
451.2285, 48.38042
451.7106, 48.66163
452.1927, 49.24723
452.6748, 50.46082
453.1570, 51.37388
453.6391, 50.57642
454.1212, 48.47728
454.6033, 46.95695
455.0854, 46.83559
455.5675, 47.19349
456.0497, 47.20285
456.5318, 46.91300
457.0139, 46.81154
457.4960, 47.23820
457.9781, 47.89907
458.4602, 47.92859
458.9424, 46.93774
459.4245, 46.24100
459.9066, 46.03374
460.3887, 46.25050
460.8708, 47.06536
461.3529, 48.38770
461.8351, 49.55137
462.3172, 49.89235
462.7993, 49.37581
463.2814, 49.05366
463.7635, 49.11309
464.2456, 49.13758
464.7278, 48.87652
465.2099, 48.56590
465.6920, 48.64912
466.1741, 49.27944
466.6562, 49.99054
467.1383, 49.95912
467.6205, 48.94247
468.1026, 47.92972
468.5847, 46.43703
469.0668, 45.42550
469.5489, 45.81099
470.0310, 47.09798
470.5132, 47.90662
470.9953, 47.18779
471.4774, 45.62153
471.9595, 45.01663
472.4416, 45.61814
472.9237, 46.26976
473.4059, 46.51620
473.8880, 46.66286
474.3701, 47.03489
474.8522, 47.67628
475.3343, 48.22657
475.8164, 48.62228
476.2985, 48.73539
476.7806, 48.00900
477.2628, 46.18595
477.7449, 44.60742
478.2270, 44.47591
478.7091, 45.46847
479.1912, 46.10090
479.6733, 46.08575
480.1555, 45.93466
480.6376, 45.74467
481.1197, 45.62607
481.6018, 45.92984
482.0839, 46.80219
482.5660, 47.72544
483.0482, 47.93509
483.5303, 47.13509
484.0124, 46.67088
484.4945, 46.99147
484.9766, 47.20679
485.4587, 46.58555
485.9409, 45.46840
486.4230, 44.74714
486.9051, 44.93721
487.3872, 45.74017
487.8693, 46.32703
488.3514, 46.81530
488.8336, 46.83740
489.3157, 45.82903
489.7978, 44.84526
490.2799, 44.73403
490.7620, 45.40515
491.2441, 46.08479
491.7263, 46.13103
492.2084, 45.67333
492.6905, 45.31386
493.1726, 45.03595
493.6547, 44.89970
494.1368, 45.35353
494.6190, 45.75696
495.1011, 45.14680
495.5832, 43.17506
496.0653, 41.64505
496.5474, 42.40546
497.0295, 44.71226
497.5117, 46.38218
497.9938, 47.11251
498.4759, 47.12114
498.9580, 46.31841
499.4401, 44.85771
499.9222, 43.63561
500.4044, 42.24350
500.8865, 41.57014
501.3686, 42.70300
501.8507, 44.80208
502.3328, 46.09838
502.8149, 45.97252
503.2971, 45.17159
503.7792, 44.71335
504.2613, 44.65116
504.7434, 44.78242
505.2255, 45.47736
505.7076, 45.98138
506.1898, 45.81401
506.6719, 45.19236
507.1540, 44.51470
507.6361, 43.97146
508.1182, 43.68024
508.6003, 44.04957
509.0825, 45.57334
509.5646, 46.42949
510.0467, 45.99790
510.5288, 45.23478
511.0109, 44.48863
511.4930, 43.84285
511.9752, 43.37016
512.4573, 43.07363
512.9394, 43.00782
513.4215, 43.38353
513.9036, 44.28070
514.3857, 45.13985
514.8679, 45.90091
515.3500, 46.38866
515.8321, 46.32544
516.3142, 45.63966
516.7963, 45.01615
517.2784, 44.79044
517.7606, 44.77884
518.2427, 44.85536
518.7248, 44.97895
519.2069, 44.68225
519.6890, 43.40014
520.1711, 41.53417
520.6533, 41.18287
521.1354, 43.89545
521.6175, 45.80922
522.0996, 45.89019
522.5817, 45.10856
523.0638, 44.09600
523.5460, 43.14428
524.0281, 42.81380
524.5102, 43.86204
524.9923, 46.21100
525.4744, 47.03267
525.9565, 44.97435
526.4387, 43.08289
526.9208, 41.49421
527.4029, 40.60982
527.8850, 41.26634
528.3671, 43.56287
528.8492, 45.79575
529.3314, 45.84126
529.8135, 43.97786
530.2956, 43.01382
530.7777, 43.40602
531.2598, 44.07865
531.7419, 44.58613
532.2241, 44.88346
532.7062, 44.81003
533.1883, 44.12295
533.6704, 43.49550
534.1525, 43.30347
534.6346, 43.51977
535.1168, 44.35437
535.5989, 45.94783
536.0810, 47.10643
536.5631, 46.35675
537.0452, 43.57978
537.5273, 42.17380
538.0094, 43.04674
538.4915, 44.13800
538.9736, 44.91069
539.4557, 45.34972
539.9379, 45.40609
540.4200, 45.09156
540.9021, 44.66928
541.3842, 44.53777
541.8663, 44.79060
542.3484, 44.79765
542.8306, 44.01106
543.3127, 43.58388
543.7948, 44.36825
544.2769, 45.60003
544.7590, 45.94281
545.2411, 44.79145
545.7233, 43.47956
546.2054, 44.05970
546.6875, 46.34798
547.1696, 47.43477
547.6517, 46.37523
548.1339, 45.00405
548.6160, 45.00082
549.0981, 45.93294
549.5802, 46.63358
550.0623, 46.73016
550.5444, 46.70466
551.0266, 46.90795
551.5087, 47.22027
551.9908, 47.40609
552.4729, 47.39997
552.9550, 47.12312
553.4371, 46.39347
553.9193, 45.03884
554.4014, 44.29740
554.8835, 44.54625
555.3656, 44.89583
555.8477, 44.97400
556.3298, 44.96438
556.8120, 45.28991
557.2941, 46.08002
557.7762, 46.80748
558.2583, 46.48503
558.7404, 44.87885
559.2225, 44.26632
559.7047, 45.66153
560.1868, 46.80878
560.6689, 46.30493
561.1510, 44.96141
561.6331, 44.17777
562.1152, 44.48022
562.5974, 45.13856
563.0795, 45.61098
563.5616, 45.89593
564.0437, 45.89106
564.5258, 45.48959
565.0079, 45.22274
565.4901, 45.74676
565.9722, 46.98662
566.4543, 47.50333
566.9364, 46.64587
567.4185, 45.81746
567.9006, 45.62309
568.3828, 45.75563
568.8649, 45.75163
569.3470, 45.49858
569.8291, 45.21838
570.3112, 45.17699
570.7933, 45.38956
571.2755, 45.57123
571.7576, 45.82473
572.2397, 45.90675
572.7218, 45.54314
573.2039, 45.09179
573.6860, 45.11204
574.1682, 45.71874
574.6503, 46.11045
575.1324, 45.05422
575.6145, 43.04451
576.0966, 42.44988
576.5787, 43.70218
577.0609, 45.25710
577.5430, 46.41095
578.0251, 47.12592
578.5072, 47.42217
578.9893, 47.36987
579.4714, 46.74018
579.9536, 44.62256
580.4357, 42.30927
580.9178, 41.63787
581.3999, 42.65674
581.8820, 43.84310
582.3641, 44.02657
582.8463, 43.40303
583.3284, 43.13073
583.8105, 43.74055
584.2926, 43.92442
584.7747, 43.04694
585.2568, 42.13628
585.7390, 42.05614
586.2211, 42.76040
586.7032, 43.59276
587.1853, 44.16605
587.6674, 44.47546
588.1495, 44.31697
588.6317, 43.52692
589.1138, 43.32986
589.5959, 44.46925
590.0780, 46.05544
590.5601, 47.21058
591.0422, 47.94292
591.5244, 47.96101
592.0065, 46.23219
592.4886, 44.48716
592.9707, 44.71325
593.4528, 46.36960
593.9349, 47.36969
594.4171, 46.74583
594.8992, 45.39610
595.3813, 44.91920
595.8634, 45.75118
596.3455, 46.17156
596.8276, 45.79973
597.3098, 45.47554
597.7919, 45.76560
598.2740, 46.28965
598.7561, 46.25646
599.2382, 45.31452
599.7203, 44.27802
600.2025, 44.42377
600.6846, 45.70927
601.1667, 46.51408
601.6488, 46.60872
602.1309, 46.34271
602.6130, 45.54647
603.0952, 44.61095
603.5773, 44.43603
604.0594, 45.51575
604.5415, 46.64316
605.0236, 47.23319
605.5057, 47.47107
605.9879, 47.69262
606.4700, 47.92851
606.9521, 47.83187
607.4342, 47.03068
607.9163, 45.67295
608.3984, 44.87496
608.8806, 44.82732
609.3627, 45.13141
609.8448, 46.23551
610.3269, 47.30707
610.8090, 47.66365
611.2911, 47.32277
611.7733, 46.73936
612.2554, 46.11645
612.7375, 45.56434
613.2196, 45.42027
613.7017, 45.73466
614.1838, 45.90867
614.6660, 45.71616
615.1481, 45.36687
615.6302, 45.02052
616.1123, 44.68207
616.5944, 44.59820
617.0765, 45.17413
617.5587, 45.68476
618.0408, 45.54800
618.5229, 44.98198
619.0050, 44.37589
619.4871, 43.87844
619.9692, 43.72995
620.4513, 44.31733
620.9334, 45.76403
621.4155, 47.03774
621.8976, 48.72227
622.3798, 49.48533
622.8619, 48.18291
623.3440, 46.18970
623.8261, 45.08408
624.3082, 45.23763
624.7903, 45.85838
625.2725, 46.54376
625.7546, 47.15570
626.2367, 47.23607
626.7188, 46.72648
627.2009, 46.06428
627.6830, 45.32148
628.1652, 44.68858
628.6473, 44.63232
629.1294, 45.19035
629.6115, 46.04423
630.0936, 47.85854
630.5757, 49.34998
631.0579, 49.36220
631.5400, 48.25957
632.0221, 47.06450
632.5042, 46.28841
632.9863, 45.88378
633.4684, 45.83373
633.9506, 46.22908
634.4327, 46.54144
634.9148, 46.86004
635.3969, 46.93008
635.8790, 46.38364
636.3611, 45.59154
636.8433, 45.25914
637.3254, 45.71516
637.8075, 46.15703
638.2896, 45.83056
638.7717, 45.13301
639.2538, 44.78883
639.7360, 44.90397
640.2181, 45.39960
640.7002, 46.31682
641.1823, 47.48619
641.6644, 48.22128
642.1465, 47.87939
642.6287, 47.98643
643.1108, 49.32236
643.5929, 50.45744
644.0750, 50.23127
644.5571, 48.95527
645.0392, 47.68053
645.5214, 46.95690
646.0035, 46.64909
646.4856, 46.58749
646.9677, 46.77150
647.4498, 47.08750
647.9319, 47.63803
648.4141, 48.05949
648.8962, 47.88999
649.3783, 47.31999
649.8604, 47.07207
650.3425, 47.18664
650.8246, 47.65061
651.3068, 49.03411
651.7889, 50.46383
652.2710, 50.55379
652.7531, 49.34288
653.2352, 48.32337
653.7173, 48.76641
654.1995, 50.15679
654.6816, 50.14009
655.1637, 47.67622
655.6458, 46.29919
656.1279, 47.74743
656.6100, 49.45957
657.0922, 49.92516
657.5743, 49.38714
658.0564, 48.93400
658.5385, 49.15242
659.0206, 49.38226
659.5027, 48.71962
659.9849, 47.56592
660.4670, 47.12493
660.9491, 47.68653
661.4312, 48.61863
661.9133, 49.42128
662.3954, 50.08405
662.8776, 50.44202
663.3597, 50.66455
663.8418, 50.34076
664.3239, 48.91094
664.8060, 47.30651
665.2881, 46.06166
665.7703, 45.34222
666.2524, 45.36198
666.7345, 46.49264
667.2166, 48.08022
667.6987, 48.97682
668.1808, 49.19183
668.6630, 48.99666
669.1451, 48.30662
669.6272, 47.56893
670.1093, 47.17979
670.5914, 47.14165
671.0735, 47.30465
671.5557, 48.13693
672.0378, 48.59331
672.5199, 47.64387
673.0020, 46.54903
673.4841, 47.00133
673.9662, 48.95409
674.4484, 50.85873
674.9305, 51.56367
675.4126, 51.26463
675.8947, 50.43137
676.3768, 48.81154
676.8589, 47.78501
677.3411, 47.78744
677.8232, 48.30239
678.3053, 49.32014
678.7874, 50.54814
679.2695, 50.84248
679.7516, 49.04946
680.2338, 47.39243
680.7159, 47.36977
681.1980, 48.25657
681.6801, 49.11399
682.1622, 49.68632
682.6443, 49.71243
683.1265, 48.86398
683.6086, 47.43141
684.0907, 46.87068
684.5728, 47.62322
685.0549, 48.28263
685.5370, 48.81173
686.0192, 49.06015
686.5013, 48.82407
686.9834, 48.22511
687.4655, 47.57226
687.9476, 46.83839
688.4297, 46.34832
688.9119, 46.63133
689.3940, 47.33945
689.8761, 47.59703
690.3582, 47.26114
690.8403, 46.89376
691.3224, 46.93200
691.8046, 47.29328
692.2867, 47.58638
692.7688, 47.75116
693.2509, 47.94489
693.7330, 48.24700
694.2151, 48.51059
694.6973, 48.71021
695.1794, 48.79591
695.6615, 48.64228
696.1436, 48.14190
696.6257, 47.57434
697.1078, 47.09507
697.5900, 46.79488
698.0721, 47.22408
698.5542, 48.53076
699.0363, 49.41542
699.5184, 48.83733
700.0005, 47.28357
700.4827, 46.46902
700.9648, 46.86303
701.4469, 47.26021
701.9290, 47.78099
702.4111, 48.17424
702.8932, 48.22203
703.3753, 48.03850
703.8574, 47.87246
704.3395, 47.82960
704.8217, 47.79710
705.3038, 47.52253
705.7859, 47.11580
706.2680, 47.21824
706.7501, 47.97008
707.2322, 48.55709
707.7144, 48.38724
708.1965, 47.88478
708.6786, 48.13797
709.1607, 49.66789
709.6428, 50.38790
710.1249, 49.48479
710.6071, 48.41391
711.0892, 47.97129
711.5713, 47.94581
712.0534, 47.87677
712.5355, 47.61054
713.0176, 47.36346
713.4998, 47.33229
713.9819, 47.52113
714.4640, 48.03854
714.9461, 48.95614
715.4282, 49.77815
715.9103, 50.48906
716.3925, 50.77208
716.8746, 49.70049
717.3567, 46.95080
717.8388, 45.78329
718.3209, 48.14494
718.8030, 50.31940
719.2852, 50.23918
719.7673, 49.04588
720.2494, 48.38491
720.7315, 48.61936
721.2136, 49.00106
721.6957, 48.80229
722.1779, 48.22686
722.6600, 48.05074
723.1421, 48.32681
723.6242, 48.51479
724.1063, 48.39724
724.5884, 48.23583
725.0706, 48.23371
725.5527, 48.40594
726.0348, 48.93850
726.5169, 50.38086
726.9990, 51.52410
727.4811, 51.84517
727.9633, 51.74180
728.4454, 51.59448
728.9275, 51.46010
729.4096, 51.20604
729.8917, 50.69996
730.3738, 50.12948
730.8560, 49.89345
731.3381, 49.99824
731.8202, 50.33687
732.3023, 51.12241
732.7844, 51.57348
733.2665, 50.95461
733.7487, 49.53408
734.2308, 48.34193
734.7129, 47.06197
735.1950, 46.60888
735.6771, 47.90016
736.1592, 49.46858
736.6414, 50.36035
737.1235, 50.53158
737.6056, 50.03174
738.0877, 48.85815
738.5698, 47.71040
739.0519, 47.63692
739.5341, 48.52767
740.0162, 49.46348
740.4983, 50.45646
740.9804, 51.22635
741.4625, 51.68824
741.9446, 51.79630
742.4268, 51.37807
742.9089, 50.33281
743.3910, 49.34765
743.8731, 48.03796
744.3552, 47.27547
744.8373, 47.84695
745.3195, 49.06403
745.8016, 50.11643
746.2837, 50.73752
746.7658, 50.85540
747.2479, 50.24454
747.7300, 49.16393
748.2122, 48.18721
748.6943, 47.30776
749.1764, 47.04006
749.6585, 47.66697
750.1406, 48.59209
750.6227, 49.25726
751.1049, 49.66303
751.5870, 50.01258
752.0691, 50.64997
752.5512, 50.77584
753.0333, 49.31474
753.5154, 48.01796
753.9976, 48.77966
754.4797, 51.07622
754.9618, 52.83590
755.4439, 52.93459
755.9260, 52.31852
756.4081, 52.29077
756.8903, 52.63066
757.3724, 52.26059
757.8545, 50.99818
758.3366, 49.99644
758.8187, 50.10006
759.3008, 50.75306
759.7830, 50.50836
760.2651, 48.60986
760.7472, 47.61021
761.2293, 48.08983
761.7114, 48.75697
762.1935, 49.18542
762.6757, 49.44276
763.1578, 49.64690
763.6399, 49.82763
764.1220, 50.00074
764.6041, 50.11546
765.0862, 50.26533
765.5684, 50.75951
766.0505, 51.46685
766.5326, 51.55527
767.0147, 50.71308
767.4968, 50.06416
767.9789, 51.06493
768.4611, 53.58577
768.9432, 54.34123
769.4253, 52.02834
769.9074, 50.17179
770.3895, 49.24914
770.8716, 48.97663
771.3538, 49.58574
771.8359, 50.72353
772.3180, 51.33488
772.8001, 50.82780
773.2822, 50.24886
773.7643, 50.56959
774.2465, 51.12973
774.7286, 50.75073
775.2107, 49.53605
775.6928, 48.58186
776.1749, 48.49348
776.6570, 49.02752
777.1392, 49.77922
777.6213, 50.78942
778.1034, 51.72790
778.5855, 52.54682
779.0676, 53.39344
779.5497, 54.63584
780.0319, 55.74901
780.5140, 55.93544
780.9961, 55.11781
781.4782, 54.40079
781.9603, 54.49205
782.4424, 54.28611
782.9246, 52.40580
783.4067, 50.14751
783.8888, 49.74526
784.3709, 51.35626
784.8530, 52.98085
785.3351, 52.95937
785.8172, 51.95655
786.2993, 51.56811
786.7814, 51.79613
787.2635, 52.22411
787.7457, 52.82292
788.2278, 53.48790
788.7099, 54.28082
789.1920, 55.04321
789.6741, 55.08372
790.1563, 53.64977
790.6384, 52.91209
791.1205, 53.59464
791.6026, 54.38812
792.0847, 54.38166
792.5668, 54.04179
793.0490, 54.34524
793.5311, 55.56166
794.0132, 56.69723
794.4953, 56.90812
794.9774, 56.51572
795.4595, 55.89721
795.9417, 55.14537
796.4238, 54.68462
796.9059, 54.64629
797.3880, 55.04950
797.8701, 56.02208
798.3522, 57.49821
798.8344, 58.27939
799.3165, 57.79233
799.7986, 57.71732
800.2807, 58.89945
800.7628, 60.04297
801.2449, 60.22162
801.7271, 59.74993
802.2092, 59.55868
802.6913, 60.02749
803.1734, 60.38564
803.6555, 59.98593
804.1376, 59.45708
804.6198, 59.43369
805.1019, 59.90143
805.5840, 60.75092
806.0661, 61.91861
806.5482, 62.98690
807.0303, 63.28819
807.5125, 62.92507
807.9946, 62.89846
808.4767, 63.28185
808.9588, 63.64425
809.4409, 64.03191
809.9230, 64.01144
810.4052, 62.70194
810.8873, 60.12163
811.3694, 59.11627
811.8515, 61.02209
812.3336, 62.66091
812.8157, 63.37593
813.2979, 63.61826
813.7800, 63.61362
814.2621, 63.46017
814.7442, 63.29229
815.2263, 63.18478
815.7084, 62.98304
816.1906, 62.52600
816.6727, 61.87163
817.1548, 60.87990
817.6369, 59.68834
818.1190, 59.38854
818.6011, 60.53818
819.0833, 62.05013
819.5654, 62.31975
820.0475, 61.29663
820.5296, 60.42750
821.0117, 59.70348
821.4938, 59.14067
821.9760, 58.86115
822.4581, 58.64615
822.9402, 58.19659
823.4223, 57.62280
823.9044, 57.46564
824.3865, 58.23272
824.8687, 58.81718
825.3508, 58.74245
825.8329, 58.32801
826.3150, 57.74369
826.7971, 57.10951
827.2792, 56.58298
827.7614, 56.22997
828.2435, 56.11416
828.7256, 56.63222
829.2077, 57.45559
829.6898, 57.14257
830.1719, 55.66338
830.6541, 54.27473
831.1362, 53.43424
831.6183, 52.87337
832.1004, 52.22017
832.5825, 52.13699
833.0646, 51.36030
833.5468, 52.33941
834.0289, 53.16532
834.5110, 53.61087
834.9931, 53.93667
835.4752, 54.40173
835.9573, 54.87077
836.4395, 54.94215
836.9216, 54.36808
837.4037, 53.88506
837.8858, 53.97394
838.3679, 54.27452
838.8500, 54.54786
839.3322, 54.69159
839.8143, 54.39795
840.2964, 53.61501
840.7785, 53.00256
841.2606, 53.48330
841.7427, 54.65327
842.2249, 54.78479
842.7070, 53.82818
843.1891, 53.00681
843.6712, 52.60235
844.1533, 52.46461
844.6354, 52.53828
845.1176, 52.76105
845.5997, 52.81855
846.0818, 52.23243
846.5639, 52.25412
847.0460, 53.73303
847.5281, 54.88389
848.0103, 54.61759
848.4924, 53.60074
848.9745, 52.76061
849.4566, 52.28054
849.9387, 52.17717
850.4208, 52.87909
850.9030, 53.57866
851.3851, 53.34330
851.8672, 52.62442
852.3493, 52.32416
852.8314, 52.58973
853.3135, 52.97852
853.7957, 53.16557
854.2778, 53.22496
854.7599, 53.48537
855.2420, 53.92836
855.7241, 53.32882
856.2062, 51.26730
856.6884, 49.62913
857.1705, 49.54248
857.6526, 50.35093
858.1347, 50.85734
858.6168, 50.94810
859.0989, 51.24519
859.5811, 52.28289
860.0632, 52.83202
860.5453, 51.90757
861.0274, 50.91522
861.5095, 51.41536
861.9916, 53.09809
862.4738, 54.18675
862.9559, 53.95953
863.4380, 53.21168
863.9201, 51.99615
864.4022, 50.84885
864.8843, 50.51507
865.3665, 50.86883
865.8486, 51.42484
866.3307, 51.96276
866.8128, 52.31200
867.2949, 52.16418
867.7770, 51.64902
868.2591, 51.37922
868.7412, 51.36075
869.2233, 51.17102
869.7054, 50.65409
870.1876, 50.07204
870.6697, 49.59170
871.1518, 49.27960
871.6339, 49.55909
872.1160, 50.95545
872.5981, 51.93323
873.0803, 52.63163
873.5624, 52.65789
874.0445, 51.05071
874.5266, 49.02785
875.0087, 48.32580
875.4908, 49.20675
875.9730, 50.62230
876.4551, 53.50272
876.9372, 55.40523
877.4193, 53.94129
877.9014, 51.06549
878.3835, 49.14594
878.8657, 48.57818
879.3478, 48.98851
879.8299, 50.38830
880.3120, 51.74137
880.7941, 51.19375
881.2762, 49.45353
881.7584, 48.98748
882.2405, 49.87585
882.7226, 50.55819
883.2047, 50.34051
883.6868, 49.62243
884.1689, 48.82903
884.6511, 47.98519
885.1332, 48.13252
885.6153, 49.89796
886.0974, 50.89343
886.5795, 50.27564
887.0616, 49.24767
887.5438, 48.54993
888.0259, 48.16471
888.5080, 48.03846
888.9901, 48.23447
889.4722, 48.53304
889.9543, 49.19289
890.4365, 49.63408
890.9186, 49.42036
891.4007, 48.86879
891.8828, 48.27508
892.3649, 47.76146
892.8470, 47.66454
893.3292, 48.60640
893.8113, 49.49859
894.2934, 48.87143
894.7755, 47.64870
895.2576, 47.74018
895.7397, 49.02169
896.2219, 49.70404
896.7040, 48.83522
897.1861, 47.34057
897.6682, 46.39408
898.1503, 46.01105
898.6324, 46.55770
899.1146, 48.13303
899.5967, 49.00557
900.0788, 48.48965
900.5609, 47.68351
901.0430, 47.64695
901.5251, 48.26309
902.0073, 48.85540
902.4894, 49.86000
902.9715, 49.93304
903.4536, 48.14960
903.9357, 46.42026
904.4178, 45.54140
904.9000, 45.23991
905.3821, 45.24392
905.8642, 45.54869
906.3463, 45.77907
906.8284, 45.51112
907.3105, 45.55177
907.7927, 46.76953
908.2748, 48.12201
908.7569, 48.46055
909.2390, 47.89814
909.7211, 47.19541
910.2032, 46.65041
910.6854, 46.28932
911.1675, 46.16982
911.6496, 46.22873
912.1317, 46.35301
912.6138, 46.56044
913.0959, 47.06858
913.5781, 47.89588
914.0602, 48.44207
914.5423, 48.07934
915.0244, 47.12584
915.5065, 46.47839
915.9886, 46.13696
916.4708, 46.12892
916.9529, 46.50934
917.4350, 46.96684
917.9171, 47.39331
918.3992, 47.69405
918.8813, 47.71847
919.3635, 47.47438
919.8456, 46.84036
920.3277, 45.03473
920.8098, 44.12616
921.2919, 45.42152
921.7740, 46.97884
922.2562, 47.43816
922.7383, 47.06782
923.2204, 46.70298
923.7025, 46.38060
924.1846, 46.22007
924.6667, 46.56807
925.1489, 46.75110
925.6310, 45.94269
926.1131, 44.94090
926.5952, 45.09776
927.0773, 46.40536
927.5594, 47.28120
928.0416, 46.47599
928.5237, 45.51979
929.0058, 46.16837
929.4879, 47.39012
929.9700, 47.35667
930.4521, 46.26781
930.9343, 45.50986
931.4164, 45.66999
931.8985, 46.30898
932.3806, 47.09035
932.8627, 47.87362
933.3448, 48.17696
933.8270, 48.02523
934.3091, 47.62081
934.7912, 46.99085
935.2733, 46.47251
935.7554, 46.37729
936.2375, 46.36774
936.7197, 45.37538
937.2018, 42.90852
937.6839, 42.47158
938.1660, 45.00436
938.6481, 47.21982
939.1302, 48.17860
939.6124, 48.22025
940.0945, 47.28439
940.5766, 45.56933
941.0587, 44.95844
941.5408, 46.61296
942.0229, 47.54686
942.5051, 47.40860
942.9872, 46.75570
943.4693, 45.10157
943.9514, 43.49315
944.4335, 43.69848
944.9156, 45.82761
945.3978, 47.24937
945.8799, 46.42600
946.3620, 45.46434
946.8441, 45.49118
947.3262, 45.87128
947.8083, 45.94006
948.2905, 45.77340
948.7726, 45.82577
949.2547, 46.26821
949.7368, 46.61648
950.2189, 46.22660
950.7010, 45.68803
951.1831, 46.02116
951.6652, 46.80544
952.1473, 46.89607
952.6295, 46.18089
953.1116, 45.47923
953.5937, 45.31545
954.0758, 45.44326
954.5579, 45.50060
955.0400, 45.48990
955.5222, 45.28693
956.0043, 44.90675
956.4864, 45.24721
956.9685, 46.70868
957.4506, 47.89573
957.9327, 47.30582
958.4149, 45.48891
958.8970, 44.90846
959.3791, 45.90914
959.8612, 46.30903
960.3433, 45.59864
960.8254, 45.28526
961.3076, 46.32007
961.7897, 47.78864
962.2718, 48.49733
962.7539, 48.43813
963.2360, 48.05566
963.7181, 46.81945
964.2003, 46.08594
964.6824, 46.48581
965.1645, 46.86650
965.6466, 46.38725
966.1287, 45.57406
966.6108, 45.41127
967.0930, 46.06095
967.5751, 46.53572
968.0572, 46.38787
968.5393, 46.33187
969.0214, 46.58327
969.5035, 47.10421
969.9857, 48.25258
970.4678, 49.57567
970.9499, 49.82636
971.4320, 48.45008
971.9141, 47.29782
972.3962, 48.15767
972.8784, 49.02328
973.3605, 47.40342
973.8426, 44.94203
974.3247, 44.59639
974.8068, 46.34198
975.2889, 47.83373
975.7711, 47.76849
976.2532, 47.08550
976.7353, 46.45364
977.2174, 46.12012
977.6995, 46.81896
978.1816, 48.23833
978.6638, 49.21067
979.1459, 49.44283
979.6280, 49.46343
980.1101, 49.69570
980.5922, 50.00029
981.0743, 50.11076
981.5565, 50.03363
982.0386, 49.62159
982.5207, 48.89394
983.0028, 48.98330
983.4849, 50.43583
983.9670, 51.70134
984.4492, 50.88692
984.9313, 48.62811
985.4134, 48.10503
985.8955, 49.62053
986.3776, 50.60382
986.8597, 50.73927
987.3419, 50.53868
987.8240, 50.13767
988.3061, 49.73339
988.7882, 49.63354
989.2703, 49.83598
989.7524, 49.90759
990.2346, 49.88176
990.7167, 49.62973
991.1988, 48.87897
991.6809, 48.26213
992.1630, 48.20532
992.6451, 48.47203
993.1273, 48.74666
993.6094, 49.10511
994.0915, 48.91680
994.5736, 47.47765
995.0557, 46.45921
995.5378, 46.52665
996.0200, 46.77092
996.5021, 46.65166
996.9842, 46.24580
997.4663, 45.71894
997.9484, 45.06306
998.4305, 44.52229
998.9127, 43.88385
999.3948, 43.71632
999.8769, 44.57290
1000.359, 45.76402
1000.841, 46.88214
1001.323, 47.73890
1001.805, 47.99685
1002.287, 47.49202
1002.770, 46.90033
1003.252, 46.37185
1003.734, 46.09087
1004.216, 46.56427
1004.698, 47.13467
1005.180, 46.85960
1005.662, 45.81903
1006.144, 44.60595
1006.627, 43.36873
1007.109, 42.79182
1007.591, 44.12216
1008.073, 45.85327
1008.555, 45.99715
1009.037, 45.25461
1009.519, 45.12405
1010.001, 45.78413
1010.483, 46.55458
1010.966, 47.08676
1011.448, 47.27993
1011.930, 46.86432
1012.412, 46.09669
1012.894, 45.29402
1013.376, 44.60165
1013.858, 44.60927
1014.340, 45.32804
1014.823, 45.75772
1015.305, 45.15559
1015.787, 44.12857
1016.269, 43.63923
1016.751, 43.58128
1017.233, 43.59282
1017.715, 43.65584
1018.197, 43.72029
1018.679, 43.77789
1019.162, 44.12256
1019.644, 45.09346
1020.126, 46.15426
1020.608, 45.83934
1021.090, 44.29842
1021.572, 43.69884
1022.054, 44.15485
1022.536, 44.50454
1023.018, 44.38767
1023.501, 43.90948
1023.983, 43.02594
1024.465, 42.11483
1024.947, 42.64719
1025.429, 44.84187
1025.911, 45.66136
1026.393, 44.69557
1026.875, 44.06891
1027.358, 44.64925
1027.840, 45.33558
1028.322, 45.00856
1028.804, 43.94843
1029.286, 43.26523
1029.768, 42.90662
1030.250, 43.18797
1030.732, 44.31561
1031.214, 45.63012
1031.697, 47.33431
1032.179, 48.31753
1032.661, 47.05046
1033.143, 44.17574
1033.625, 43.04778
1034.107, 44.67846
1034.589, 45.42851
1035.071, 44.31610
1035.553, 44.15356
1036.036, 47.13188
1036.518, 50.07769
1037.000, 49.32126
1037.482, 45.61315
1037.964, 43.32865
1038.446, 43.06950
1038.928, 43.08440
1039.410, 43.35861
1039.893, 43.93064
1040.375, 45.51990
1040.857, 46.85350
1041.339, 46.26939
1041.821, 44.21483
1042.303, 43.13979
1042.785, 43.48576
1043.267, 44.02497
1043.750, 44.80474
1044.232, 45.64963
1044.714, 46.73793
1045.196, 47.67495
1045.678, 48.01990
1046.160, 47.85636
1046.642, 47.62911
1047.124, 47.36729
1047.606, 47.06990
1048.089, 46.71305
1048.571, 46.35036
1049.053, 45.99347
1049.535, 45.64782
1050.017, 45.20444
1050.499, 44.76485
1050.981, 44.77380
1051.463, 45.67933
1051.945, 46.00995
1052.428, 45.06828
1052.910, 43.95801
1053.392, 42.67263
1053.874, 41.85107
1054.356, 42.55500
1054.838, 44.26568
1055.320, 45.09061
1055.802, 44.40282
1056.285, 43.68382
1056.767, 42.90948
1057.249, 42.73472
1057.731, 44.19056
1058.213, 45.84295
1058.695, 46.07143
1059.177, 45.24829
1059.659, 44.89303
1060.141, 45.49696
1060.624, 45.89475
1061.106, 45.48344
1061.588, 45.00753
1062.070, 44.75235
1062.552, 44.69175
1063.034, 44.85400
1063.516, 45.16349
1063.998, 45.52176
1064.480, 45.96048
1064.963, 46.00566
1065.445, 45.14468
1065.927, 44.24040
1066.409, 43.59419
1066.891, 43.24335
1067.373, 43.38498
1067.855, 43.80123
1068.337, 43.97333
1068.820, 43.75953
1069.302, 43.67305
1069.784, 44.03759
1070.266, 44.45299
1070.748, 44.83355
1071.230, 45.06240
1071.712, 44.87477
1072.194, 44.50797
1072.677, 44.52452
1073.159, 45.03467
1073.641, 45.35669
1074.123, 44.79082
1074.605, 44.48042
1075.087, 45.48251
1075.569, 46.55639
1076.051, 46.41109
1076.533, 45.60500
1077.016, 45.36397
1077.498, 45.86665
1077.980, 46.18159
1078.462, 45.83504
1078.944, 45.33495
1079.426, 44.85874
1079.908, 44.39358
1080.390, 43.52411
1080.872, 42.86044
1081.354, 43.68775
1081.837, 45.91369
1082.319, 47.51646
1082.801, 47.59151
1083.283, 47.19930
1083.765, 46.44479
1084.247, 45.80308
1084.729, 45.87051
1085.211, 46.11592
1085.694, 45.75065
1086.176, 44.79704
1086.658, 43.90968
1087.140, 43.37685
1087.622, 42.71926
1088.104, 40.85084
1088.586, 39.77384
1089.068, 41.53961
1089.551, 44.24852
1090.033, 45.99216
1090.515, 46.56907
1090.997, 46.08587
1091.479, 44.27935
1091.961, 42.76174
1092.443, 42.27448
1092.925, 42.06479
1093.407, 41.90585
1093.890, 41.71159
1094.372, 40.88243
1094.854, 40.07766
1095.336, 41.25727
1095.818, 45.14305
1096.300, 47.72286
1096.782, 46.58236
1097.264, 45.41748
1097.746, 45.97007
1098.229, 46.79517
1098.711, 46.85608
1099.193, 46.27551
1099.675, 45.19683
1100.157, 43.64846
1100.639, 42.85973
1101.121, 43.82105
1101.603, 44.60174
1102.086, 44.48651
1102.568, 44.24624
1103.050, 44.62805
1103.532, 45.02625
1104.014, 44.19239
1104.496, 42.26849
1104.978, 41.54812
1105.460, 43.28315
1105.943, 44.77716
1106.425, 45.71888
1106.907, 46.21089
1107.389, 45.94385
1107.871, 45.51963
1108.353, 45.76405
1108.835, 46.45239
1109.317, 46.36914
1109.799, 44.78694
1110.281, 44.01876
1110.764, 45.22777
1111.246, 45.94423
1111.728, 44.74438
1112.210, 43.45327
1112.692, 43.59766
1113.174, 44.73505
1113.656, 45.83171
1114.138, 47.06469
1114.621, 47.42694
1115.103, 46.45942
1115.585, 45.34275
1116.067, 43.76560
1116.549, 42.75785
1117.031, 43.27646
1117.513, 44.44403
1117.995, 44.73849
1118.478, 44.13983
1118.960, 44.40296
1119.442, 46.30773
1119.924, 47.16306
1120.406, 46.24441
1120.888, 45.25811
1121.370, 44.80831
1121.852, 44.86213
1122.334, 45.61481
1122.817, 46.78193
1123.299, 46.63739
1123.781, 44.60733
1124.263, 43.78629
1124.745, 44.69912
1125.227, 45.08237
1125.709, 44.00937
1126.191, 42.98638
1126.673, 43.30124
1127.156, 44.48111
1127.638, 45.50814
1128.120, 46.39955
1128.602, 46.27755
1129.084, 44.98354
1129.566, 44.42604
1130.048, 45.07570
1130.530, 45.63434
1131.013, 45.31620
1131.495, 44.71552
1131.977, 44.78529
1132.459, 44.31099
1132.941, 44.96208
1133.423, 43.87198
1133.905, 43.31712
1134.387, 43.43990
1134.870, 44.23419
1135.352, 45.69751
1135.834, 46.58911
1136.316, 45.57853
1136.798, 43.59289
1137.280, 42.44216
1137.762, 42.01780
1138.244, 42.04513
1138.726, 42.43921
1139.208, 42.98959
1139.691, 43.60772
1140.173, 44.07636
1140.655, 44.24814
1141.137, 44.36028
1141.619, 44.80741
1142.101, 45.33875
1142.583, 45.59465
1143.065, 45.54458
1143.548, 44.85569
1144.030, 43.79848
1144.512, 43.43171
1144.994, 44.14188
1145.476, 45.14343
1145.958, 46.13384
1146.440, 46.70340
1146.922, 46.13625
1147.405, 45.13625
1147.887, 44.38142
1148.369, 43.99902
1148.851, 44.12239
1149.333, 44.71637
1149.815, 45.55282
1150.297, 46.89374
1150.779, 47.44543
1151.261, 45.60178
1151.744, 43.62250
1152.226, 43.29799
1152.708, 43.68817
1153.190, 43.49603
1153.672, 42.91024
1154.154, 43.03001
1154.636, 44.25132
1155.118, 45.09656
1155.600, 44.85624
1156.083, 44.54863
1156.565, 44.27878
1157.047, 44.31511
1157.529, 45.28726
1158.011, 46.45617
1158.493, 46.43671
1158.975, 45.19728
1159.457, 44.61064
1159.939, 44.86034
1160.422, 45.67350
1160.904, 47.93570
1161.386, 49.45886
1161.868, 49.34747
1162.350, 48.34875
1162.832, 46.81871
1163.314, 45.07706
1163.796, 44.17476
1164.279, 44.28318
1164.761, 44.28014
1165.243, 44.09947
1165.725, 44.04835
1166.207, 44.21236
1166.689, 44.40687
1167.171, 44.49851
1167.653, 44.65298
1168.135, 45.13514
1168.618, 45.87621
1169.100, 46.55365
1169.582, 47.16163
1170.064, 47.38463
1170.546, 47.20008
1171.028, 46.82964
1171.510, 46.34640
1171.992, 45.77514
1172.474, 45.06842
1172.957, 44.62526
1173.439, 45.61097
1173.921, 47.27323
1174.403, 46.87791
1174.885, 45.22803
1175.367, 45.65675
1175.849, 48.06260
1176.331, 48.89637
1176.814, 46.68158
1177.296, 44.27242
1177.778, 44.43243
1178.260, 45.37474
1178.742, 45.05119
1179.224, 44.20800
1179.706, 43.69803
1180.188, 43.55708
1180.671, 43.76925
1181.153, 44.24318
1181.635, 44.64857
1182.117, 44.85443
1182.599, 44.92778
1183.081, 44.58612
1183.563, 44.50003
1184.045, 45.44195
1184.527, 46.53987
1185.010, 46.99385
1185.492, 46.88348
1185.974, 46.45968
1186.456, 45.72905
1186.938, 45.27298
1187.420, 45.40777
1187.902, 45.48455
1188.384, 45.48734
1188.866, 45.29853
1189.349, 44.53795
1189.831, 43.88459
1190.313, 44.13850
1190.795, 45.07550
1191.277, 45.85798
1191.759, 46.58094
1192.241, 46.63104
1192.723, 45.73114
1193.206, 45.09011
1193.688, 44.88366
1194.170, 45.41116
1194.652, 47.10307
1195.134, 48.61523
1195.616, 47.77686
1196.098, 48.55343
1196.580, 48.41780
1197.063, 47.49300
1197.545, 47.69035
1198.027, 45.98133
1198.509, 44.93123
1198.991, 45.24220
1199.473, 45.81700
1199.955, 45.92270
1200.437, 45.75269
1200.919, 45.30072
1201.401, 44.92681
1201.884, 45.50583
1202.366, 46.51678
1202.848, 47.01737
1203.330, 46.95239
1203.812, 46.33418
1204.294, 45.29902
1204.776, 45.01308
1205.258, 46.59314
1205.741, 48.23503
1206.223, 48.94376
1206.705, 49.09468
1207.187, 48.71297
1207.669, 48.14237
1208.151, 47.72154
1208.633, 47.46599
1209.115, 47.31265
1209.598, 47.29464
1210.080, 47.13078
1210.562, 46.30381
1211.044, 46.03127
1211.526, 47.41888
1212.008, 48.31963
1212.490, 47.42096
1212.972, 45.86845
1213.454, 44.90255
1213.937, 44.47321
1214.419, 44.33086
1214.901, 44.44540
1215.383, 45.07232
1215.865, 46.31639
1216.347, 47.57168
1216.829, 48.79142
1217.311, 49.11832
1217.793, 47.97927
1218.276, 46.21827
1218.758, 44.80901
1219.240, 43.86039
1219.722, 43.91461
1220.204, 43.56532
1220.686, 44.83757
1221.168, 44.61233
1221.650, 45.34253
1222.133, 47.07262
1222.615, 47.77932
1223.097, 46.17048
1223.579, 44.71878
1224.061, 46.66682
1224.543, 48.77730
1225.025, 46.97345
1225.507, 44.25550
1225.990, 44.52205
1226.472, 46.64516
1226.954, 47.91420
1227.436, 47.85650
1227.918, 47.25564
1228.400, 45.76527
1228.882, 44.96727
1229.364, 45.64462
1229.846, 46.53531
1230.328, 47.95654
1230.811, 48.55914
1231.293, 46.55127
1231.775, 43.59094
1232.257, 42.89093
1232.739, 44.43313
1233.221, 45.55695
1233.703, 46.26789
1234.185, 46.44827
1234.668, 45.95128
1235.150, 45.81799
1235.632, 46.46283
1236.114, 46.85823
1236.596, 46.12465
1237.078, 45.07684
1237.560, 45.19374
1238.042, 46.13124
1238.524, 46.96298
1239.007, 47.59245
1239.489, 47.65719
1239.971, 47.22192
1240.453, 46.50527
1240.935, 45.66977
1241.417, 45.31030
1241.899, 45.96294
1242.381, 46.60313
1242.864, 46.24733
1243.346, 45.72599
1243.828, 45.72670
1244.310, 45.95016
1244.792, 45.83600
1245.274, 45.70774
1245.756, 46.56144
1246.238, 48.52188
1246.720, 49.72409
1247.203, 49.80834
1247.685, 49.19613
1248.167, 46.86864
1248.649, 45.52116
1249.131, 46.34941
1249.613, 47.84996
1250.095, 49.16449
1250.577, 49.99483
1251.059, 49.63370
1251.542, 48.20951
1252.024, 47.29053
1252.506, 46.87012
1252.988, 46.18594
1253.470, 45.23788
1253.952, 45.58743
1254.434, 47.61139
1254.916, 49.46964
1255.399, 49.88211
1255.881, 49.43637
1256.363, 48.19887
1256.845, 47.12852
1257.327, 48.26823
1257.809, 50.09145
1258.291, 50.02766
1258.773, 48.72331
1259.255, 48.27728
1259.738, 48.92107
1260.220, 48.90620
1260.702, 47.13608
1261.184, 45.99627
1261.666, 46.95105
1262.148, 47.73591
1262.630, 47.24124
1263.112, 46.48960
1263.594, 46.19763
1264.077, 46.11956
1264.559, 45.80211
1265.041, 46.07249
1265.523, 45.66957
1266.005, 46.93950
1266.487, 48.11273
1266.969, 49.20369
1267.451, 49.75697
1267.934, 49.66255
1268.416, 48.97137
1268.898, 47.66404
1269.380, 46.59733
1269.862, 46.94094
1270.344, 46.50175
1270.826, 47.84961
1271.308, 47.47408
1271.791, 48.50094
1272.273, 50.09748
1272.755, 49.95319
1273.237, 48.34192
1273.719, 47.95852
1274.201, 49.82225
1274.683, 51.08488
1275.165, 50.09285
1275.647, 48.81036
1276.130, 47.63068
1276.612, 46.76873
1277.094, 46.36232
1277.576, 46.33318
1278.058, 46.81550
1278.540, 47.49815
1279.022, 47.41166
1279.504, 46.44355
1279.986, 46.42273
1280.469, 47.52959
1280.951, 48.37076
1281.433, 48.79289
1281.915, 48.65590
1282.397, 47.90330
1282.879, 47.32051
1283.361, 47.57258
1283.843, 48.01578
1284.326, 47.88831
1284.808, 47.18373
##END=



