##NAMES=Molybdofornacite
##RRUFFID=R130755
##IDEAL CHEMISTRY=Cu^2+^Pb^2+^_2_Mo^6+^O_4_As^5+^O_4_(OH)
##LOCALITY=30 level South 110, Tsumeb, Namibia
##OWNER=RRUFF
##SOURCE=Bill Pinch
##DESCRIPTION=Pale green prismatic crystals associated with dioptase
##STATUS=The identification of this mineral has been confirmed by single-crystal X-ray diffraction.
##URL=rruff.info/R130755
8.806445e+001, 1.245411e+003
8.854657e+001, 1.217800e+003
8.902869e+001, 1.208265e+003
8.951080e+001, 1.224922e+003
8.999292e+001, 1.255947e+003
9.047504e+001, 1.290933e+003
9.095715e+001, 1.328077e+003
9.143927e+001, 1.365668e+003
9.192139e+001, 1.401893e+003
9.240350e+001, 1.436826e+003
9.288562e+001, 1.470323e+003
9.336774e+001, 1.492256e+003
9.384985e+001, 1.493141e+003
9.433197e+001, 1.474178e+003
9.481409e+001, 1.456016e+003
9.529620e+001, 1.434221e+003
9.577832e+001, 1.413740e+003
9.626044e+001, 1.395410e+003
9.674255e+001, 1.379232e+003
9.722467e+001, 1.364980e+003
9.770679e+001, 1.352468e+003
9.818890e+001, 1.341215e+003
9.867102e+001, 1.331440e+003
9.915314e+001, 1.322148e+003
9.963525e+001, 1.312221e+003
1.001174e+002, 1.301052e+003
1.005995e+002, 1.289183e+003
1.010816e+002, 1.278689e+003
1.015637e+002, 1.269126e+003
1.020458e+002, 1.261282e+003
1.025280e+002, 1.255444e+003
1.030101e+002, 1.251004e+003
1.034922e+002, 1.247034e+003
1.039743e+002, 1.242835e+003
1.044564e+002, 1.238357e+003
1.049385e+002, 1.235551e+003
1.054207e+002, 1.235436e+003
1.059028e+002, 1.235520e+003
1.063849e+002, 1.235285e+003
1.068670e+002, 1.234437e+003
1.073491e+002, 1.231487e+003
1.078312e+002, 1.223816e+003
1.083134e+002, 1.211745e+003
1.087955e+002, 1.202003e+003
1.092776e+002, 1.196531e+003
1.097597e+002, 1.193499e+003
1.102418e+002, 1.190397e+003
1.107239e+002, 1.186889e+003
1.112061e+002, 1.183268e+003
1.116882e+002, 1.179666e+003
1.121703e+002, 1.176093e+003
1.126524e+002, 1.172873e+003
1.131345e+002, 1.170591e+003
1.136166e+002, 1.169137e+003
1.140988e+002, 1.166732e+003
1.145809e+002, 1.162328e+003
1.150630e+002, 1.157508e+003
1.155451e+002, 1.152941e+003
1.160272e+002, 1.148718e+003
1.165093e+002, 1.144891e+003
1.169915e+002, 1.141657e+003
1.174736e+002, 1.139430e+003
1.179557e+002, 1.136657e+003
1.184378e+002, 1.132417e+003
1.189199e+002, 1.128169e+003
1.194020e+002, 1.125007e+003
1.198842e+002, 1.123266e+003
1.203663e+002, 1.122417e+003
1.208484e+002, 1.121256e+003
1.213305e+002, 1.119027e+003
1.218126e+002, 1.117323e+003
1.222947e+002, 1.116602e+003
1.227769e+002, 1.116328e+003
1.232590e+002, 1.115934e+003
1.237411e+002, 1.115177e+003
1.242232e+002, 1.113976e+003
1.247053e+002, 1.111827e+003
1.251874e+002, 1.107772e+003
1.256696e+002, 1.104032e+003
1.261517e+002, 1.101393e+003
1.266338e+002, 1.099756e+003
1.271159e+002, 1.098689e+003
1.275980e+002, 1.098301e+003
1.280801e+002, 1.098210e+003
1.285623e+002, 1.097227e+003
1.290444e+002, 1.094473e+003
1.295265e+002, 1.091406e+003
1.300086e+002, 1.089703e+003
1.304907e+002, 1.089690e+003
1.309728e+002, 1.089428e+003
1.314550e+002, 1.087066e+003
1.319371e+002, 1.083752e+003
1.324192e+002, 1.081047e+003
1.329013e+002, 1.079760e+003
1.333834e+002, 1.079492e+003
1.338655e+002, 1.079103e+003
1.343477e+002, 1.078626e+003
1.348298e+002, 1.077942e+003
1.353119e+002, 1.076945e+003
1.357940e+002, 1.075744e+003
1.362761e+002, 1.074498e+003
1.367582e+002, 1.073164e+003
1.372404e+002, 1.071721e+003
1.377225e+002, 1.071262e+003
1.382046e+002, 1.073989e+003
1.386867e+002, 1.075792e+003
1.391688e+002, 1.074934e+003
1.396509e+002, 1.071763e+003
1.401331e+002, 1.067799e+003
1.406152e+002, 1.064457e+003
1.410973e+002, 1.061701e+003
1.415794e+002, 1.060014e+003
1.420615e+002, 1.060632e+003
1.425436e+002, 1.061196e+003
1.430258e+002, 1.059844e+003
1.435079e+002, 1.056420e+003
1.439900e+002, 1.052608e+003
1.444721e+002, 1.050774e+003
1.449542e+002, 1.052081e+003
1.454363e+002, 1.052468e+003
1.459185e+002, 1.050901e+003
1.464006e+002, 1.048678e+003
1.468827e+002, 1.047552e+003
1.473648e+002, 1.048194e+003
1.478469e+002, 1.049220e+003
1.483290e+002, 1.047935e+003
1.488112e+002, 1.044166e+003
1.492933e+002, 1.040734e+003
1.497754e+002, 1.038756e+003
1.502575e+002, 1.037911e+003
1.507396e+002, 1.037309e+003
1.512217e+002, 1.036893e+003
1.517039e+002, 1.036380e+003
1.521860e+002, 1.035452e+003
1.526681e+002, 1.034070e+003
1.531502e+002, 1.032580e+003
1.536323e+002, 1.031256e+003
1.541144e+002, 1.030115e+003
1.545966e+002, 1.028891e+003
1.550787e+002, 1.027272e+003
1.555608e+002, 1.025709e+003
1.560429e+002, 1.024689e+003
1.565250e+002, 1.024329e+003
1.570071e+002, 1.023997e+003
1.574893e+002, 1.022705e+003
1.579714e+002, 1.020005e+003
1.584535e+002, 1.017530e+003
1.589356e+002, 1.015197e+003
1.594177e+002, 1.013343e+003
1.598998e+002, 1.012510e+003
1.603820e+002, 1.012891e+003
1.608641e+002, 1.013829e+003
1.613462e+002, 1.013755e+003
1.618283e+002, 1.011922e+003
1.623104e+002, 1.010001e+003
1.627925e+002, 1.008066e+003
1.632747e+002, 1.006168e+003
1.637568e+002, 1.004317e+003
1.642389e+002, 1.002529e+003
1.647210e+002, 1.000825e+003
1.652031e+002, 9.993008e+002
1.656852e+002, 9.981688e+002
1.661674e+002, 9.969893e+002
1.666495e+002, 9.956238e+002
1.671316e+002, 9.941721e+002
1.676137e+002, 9.927987e+002
1.680958e+002, 9.915726e+002
1.685779e+002, 9.905198e+002
1.690601e+002, 9.897639e+002
1.695422e+002, 9.895627e+002
1.700243e+002, 9.893309e+002
1.705064e+002, 9.887117e+002
1.709885e+002, 9.878134e+002
1.714706e+002, 9.871080e+002
1.719528e+002, 9.870057e+002
1.724349e+002, 9.873060e+002
1.729170e+002, 9.871324e+002
1.733991e+002, 9.863894e+002
1.738812e+002, 9.852523e+002
1.743633e+002, 9.836016e+002
1.748455e+002, 9.814138e+002
1.753276e+002, 9.795306e+002
1.758097e+002, 9.787444e+002
1.762918e+002, 9.785726e+002
1.767739e+002, 9.781503e+002
1.772560e+002, 9.770909e+002
1.777382e+002, 9.758599e+002
1.782203e+002, 9.752689e+002
1.787024e+002, 9.756126e+002
1.791845e+002, 9.756277e+002
1.796666e+002, 9.742288e+002
1.801487e+002, 9.722191e+002
1.806309e+002, 9.705933e+002
1.811130e+002, 9.697697e+002
1.815951e+002, 9.695953e+002
1.820772e+002, 9.697938e+002
1.825593e+002, 9.710139e+002
1.830414e+002, 9.714555e+002
1.835236e+002, 9.700946e+002
1.840057e+002, 9.677773e+002
1.844878e+002, 9.657037e+002
1.849699e+002, 9.646278e+002
1.854520e+002, 9.643666e+002
1.859341e+002, 9.637704e+002
1.864163e+002, 9.627849e+002
1.868984e+002, 9.614540e+002
1.873805e+002, 9.592495e+002
1.878626e+002, 9.567474e+002
1.883447e+002, 9.548958e+002
1.888268e+002, 9.543943e+002
1.893090e+002, 9.552074e+002
1.897911e+002, 9.560311e+002
1.902732e+002, 9.573630e+002
1.907553e+002, 9.582170e+002
1.912374e+002, 9.580421e+002
1.917195e+002, 9.571479e+002
1.922017e+002, 9.563210e+002
1.926838e+002, 9.562607e+002
1.931659e+002, 9.570525e+002
1.936480e+002, 9.563749e+002
1.941301e+002, 9.528178e+002
1.946122e+002, 9.494948e+002
1.950944e+002, 9.478179e+002
1.955765e+002, 9.476148e+002
1.960586e+002, 9.479195e+002
1.965407e+002, 9.480438e+002
1.970228e+002, 9.479628e+002
1.975049e+002, 9.475956e+002
1.979871e+002, 9.465174e+002
1.984692e+002, 9.455142e+002
1.989513e+002, 9.451732e+002
1.994334e+002, 9.454648e+002
1.999155e+002, 9.458244e+002
2.003976e+002, 9.457850e+002
2.008798e+002, 9.453672e+002
2.013619e+002, 9.450945e+002
2.018440e+002, 9.449512e+002
2.023261e+002, 9.449830e+002
2.028082e+002, 9.455576e+002
2.032903e+002, 9.467385e+002
2.037725e+002, 9.473298e+002
2.042546e+002, 9.458079e+002
2.047367e+002, 9.429022e+002
2.052188e+002, 9.407035e+002
2.057009e+002, 9.398959e+002
2.061830e+002, 9.398733e+002
2.066652e+002, 9.399208e+002
2.071473e+002, 9.400563e+002
2.076294e+002, 9.401696e+002
2.081115e+002, 9.401417e+002
2.085936e+002, 9.400467e+002
2.090757e+002, 9.400028e+002
2.095579e+002, 9.401256e+002
2.100400e+002, 9.402942e+002
2.105221e+002, 9.402448e+002
2.110042e+002, 9.398926e+002
2.114863e+002, 9.394974e+002
2.119685e+002, 9.392213e+002
2.124506e+002, 9.389804e+002
2.129327e+002, 9.386534e+002
2.134148e+002, 9.381716e+002
2.138969e+002, 9.375645e+002
2.143790e+002, 9.369582e+002
2.148612e+002, 9.364968e+002
2.153433e+002, 9.357637e+002
2.158254e+002, 9.340170e+002
2.163075e+002, 9.320833e+002
2.167896e+002, 9.311098e+002
2.172717e+002, 9.318037e+002
2.177539e+002, 9.338984e+002
2.182360e+002, 9.363531e+002
2.187181e+002, 9.406932e+002
2.192002e+002, 9.432094e+002
2.196823e+002, 9.421130e+002
2.201644e+002, 9.389814e+002
2.206466e+002, 9.359183e+002
2.211287e+002, 9.341651e+002
2.216108e+002, 9.335264e+002
2.220929e+002, 9.329182e+002
2.225750e+002, 9.319586e+002
2.230571e+002, 9.314955e+002
2.235393e+002, 9.323790e+002
2.240214e+002, 9.337145e+002
2.245035e+002, 9.340543e+002
2.249856e+002, 9.324343e+002
2.254677e+002, 9.293328e+002
2.259498e+002, 9.278037e+002
2.264320e+002, 9.299703e+002
2.269141e+002, 9.314384e+002
2.273962e+002, 9.308820e+002
2.278783e+002, 9.292549e+002
2.283604e+002, 9.281660e+002
2.288425e+002, 9.285950e+002
2.293247e+002, 9.301797e+002
2.298068e+002, 9.308170e+002
2.302889e+002, 9.293210e+002
2.307710e+002, 9.282938e+002
2.312531e+002, 9.285657e+002
2.317352e+002, 9.296383e+002
2.322174e+002, 9.306723e+002
2.326995e+002, 9.312502e+002
2.331816e+002, 9.313909e+002
2.336637e+002, 9.311282e+002
2.341458e+002, 9.297319e+002
2.346279e+002, 9.288288e+002
2.351101e+002, 9.292243e+002
2.355922e+002, 9.303849e+002
2.360743e+002, 9.312516e+002
2.365564e+002, 9.312869e+002
2.370385e+002, 9.307331e+002
2.375206e+002, 9.303740e+002
2.380028e+002, 9.303972e+002
2.384849e+002, 9.302900e+002
2.389670e+002, 9.297027e+002
2.394491e+002, 9.288591e+002
2.399312e+002, 9.282528e+002
2.404133e+002, 9.281022e+002
2.408955e+002, 9.283150e+002
2.413776e+002, 9.287249e+002
2.418597e+002, 9.294659e+002
2.423418e+002, 9.300518e+002
2.428239e+002, 9.302151e+002
2.433060e+002, 9.300585e+002
2.437882e+002, 9.298351e+002
2.442703e+002, 9.295792e+002
2.447524e+002, 9.293748e+002
2.452345e+002, 9.293864e+002
2.457166e+002, 9.296608e+002
2.461987e+002, 9.298782e+002
2.466809e+002, 9.298109e+002
2.471630e+002, 9.295457e+002
2.476451e+002, 9.293729e+002
2.481272e+002, 9.293796e+002
2.486093e+002, 9.295026e+002
2.490914e+002, 9.298398e+002
2.495736e+002, 9.304216e+002
2.500557e+002, 9.305088e+002
2.505378e+002, 9.292054e+002
2.510199e+002, 9.269337e+002
2.515020e+002, 9.254875e+002
2.519841e+002, 9.255429e+002
2.524663e+002, 9.260675e+002
2.529484e+002, 9.259352e+002
2.534305e+002, 9.252491e+002
2.539126e+002, 9.249409e+002
2.543947e+002, 9.258240e+002
2.548768e+002, 9.276352e+002
2.553590e+002, 9.291331e+002
2.558411e+002, 9.301982e+002
2.563232e+002, 9.308781e+002
2.568053e+002, 9.312585e+002
2.572874e+002, 9.313580e+002
2.577695e+002, 9.312352e+002
2.582516e+002, 9.308313e+002
2.587338e+002, 9.302014e+002
2.592159e+002, 9.296106e+002
2.596980e+002, 9.288729e+002
2.601801e+002, 9.284961e+002
2.606622e+002, 9.288283e+002
2.611443e+002, 9.296662e+002
2.616265e+002, 9.305703e+002
2.621086e+002, 9.313289e+002
2.625907e+002, 9.319432e+002
2.630728e+002, 9.323946e+002
2.635549e+002, 9.326139e+002
2.640370e+002, 9.327567e+002
2.645192e+002, 9.327224e+002
2.650013e+002, 9.326857e+002
2.654834e+002, 9.329939e+002
2.659655e+002, 9.340081e+002
2.664476e+002, 9.353920e+002
2.669297e+002, 9.358748e+002
2.674119e+002, 9.347600e+002
2.678940e+002, 9.338539e+002
2.683761e+002, 9.338766e+002
2.688582e+002, 9.343457e+002
2.693403e+002, 9.346263e+002
2.698224e+002, 9.343712e+002
2.703046e+002, 9.338577e+002
2.707867e+002, 9.338666e+002
2.712688e+002, 9.346722e+002
2.717509e+002, 9.355559e+002
2.722330e+002, 9.365449e+002
2.727151e+002, 9.374446e+002
2.731973e+002, 9.380236e+002
2.736794e+002, 9.381812e+002
2.741615e+002, 9.381057e+002
2.746436e+002, 9.381105e+002
2.751257e+002, 9.378456e+002
2.756078e+002, 9.384182e+002
2.760900e+002, 9.409832e+002
2.765721e+002, 9.436829e+002
2.770542e+002, 9.447491e+002
2.775363e+002, 9.437336e+002
2.780184e+002, 9.418393e+002
2.785005e+002, 9.410563e+002
2.789827e+002, 9.417482e+002
2.794648e+002, 9.428217e+002
2.799469e+002, 9.447177e+002
2.804290e+002, 9.465610e+002
2.809111e+002, 9.476913e+002
2.813932e+002, 9.480325e+002
2.818754e+002, 9.480380e+002
2.823575e+002, 9.482601e+002
2.828396e+002, 9.487072e+002
2.833217e+002, 9.493784e+002
2.838038e+002, 9.502914e+002
2.842859e+002, 9.513828e+002
2.847681e+002, 9.526749e+002
2.852502e+002, 9.541345e+002
2.857323e+002, 9.556493e+002
2.862144e+002, 9.570842e+002
2.866965e+002, 9.583912e+002
2.871786e+002, 9.599219e+002
2.876608e+002, 9.621708e+002
2.881429e+002, 9.641727e+002
2.886250e+002, 9.655297e+002
2.891071e+002, 9.662877e+002
2.895892e+002, 9.666447e+002
2.900714e+002, 9.666765e+002
2.905535e+002, 9.663693e+002
2.910356e+002, 9.667504e+002
2.915177e+002, 9.684560e+002
2.919998e+002, 9.701814e+002
2.924819e+002, 9.714908e+002
2.929641e+002, 9.725720e+002
2.934462e+002, 9.738298e+002
2.939283e+002, 9.755406e+002
2.944104e+002, 9.776385e+002
2.948925e+002, 9.797406e+002
2.953746e+002, 9.821170e+002
2.958568e+002, 9.841783e+002
2.963389e+002, 9.856483e+002
2.968210e+002, 9.868066e+002
2.973031e+002, 9.879971e+002
2.977852e+002, 9.893864e+002
2.982673e+002, 9.909510e+002
2.987495e+002, 9.926088e+002
2.992316e+002, 9.944483e+002
2.997137e+002, 9.962881e+002
3.001958e+002, 9.981439e+002
3.006779e+002, 9.999849e+002
3.011600e+002, 1.001758e+003
3.016422e+002, 1.003456e+003
3.021243e+002, 1.005145e+003
3.026064e+002, 1.006956e+003
3.030885e+002, 1.009131e+003
3.035706e+002, 1.010971e+003
3.040527e+002, 1.012289e+003
3.045349e+002, 1.013425e+003
3.050170e+002, 1.014655e+003
3.054991e+002, 1.016012e+003
3.059812e+002, 1.017303e+003
3.064633e+002, 1.018258e+003
3.069454e+002, 1.018695e+003
3.074276e+002, 1.019451e+003
3.079097e+002, 1.020691e+003
3.083918e+002, 1.022051e+003
3.088739e+002, 1.023476e+003
3.093560e+002, 1.024877e+003
3.098381e+002, 1.026033e+003
3.103203e+002, 1.026734e+003
3.108024e+002, 1.026939e+003
3.112845e+002, 1.027280e+003
3.117666e+002, 1.027667e+003
3.122487e+002, 1.028257e+003
3.127308e+002, 1.029466e+003
3.132130e+002, 1.030927e+003
3.136951e+002, 1.031865e+003
3.141772e+002, 1.031755e+003
3.146593e+002, 1.030737e+003
3.151414e+002, 1.029776e+003
3.156235e+002, 1.028920e+003
3.161057e+002, 1.028046e+003
3.165878e+002, 1.027222e+003
3.170699e+002, 1.026338e+003
3.175520e+002, 1.025228e+003
3.180341e+002, 1.023821e+003
3.185162e+002, 1.022198e+003
3.189984e+002, 1.020587e+003
3.194805e+002, 1.019007e+003
3.199626e+002, 1.017417e+003
3.204447e+002, 1.015971e+003
3.209268e+002, 1.014437e+003
3.214089e+002, 1.012474e+003
3.218911e+002, 1.010034e+003
3.223732e+002, 1.007540e+003
3.228553e+002, 1.005567e+003
3.233374e+002, 1.004197e+003
3.238195e+002, 1.003279e+003
3.243016e+002, 1.003555e+003
3.247838e+002, 1.003654e+003
3.252659e+002, 1.002601e+003
3.257480e+002, 1.000422e+003
3.262301e+002, 9.978593e+002
3.267122e+002, 9.956022e+002
3.271943e+002, 9.936947e+002
3.276765e+002, 9.917669e+002
3.281586e+002, 9.895735e+002
3.286407e+002, 9.875956e+002
3.291228e+002, 9.859936e+002
3.296049e+002, 9.847421e+002
3.300870e+002, 9.838094e+002
3.305692e+002, 9.832243e+002
3.310513e+002, 9.828867e+002
3.315334e+002, 9.820515e+002
3.320155e+002, 9.799666e+002
3.324976e+002, 9.782051e+002
3.329797e+002, 9.771199e+002
3.334619e+002, 9.764529e+002
3.339440e+002, 9.760010e+002
3.344261e+002, 9.756747e+002
3.349082e+002, 9.752267e+002
3.353904e+002, 9.740378e+002
3.358725e+002, 9.717777e+002
3.363546e+002, 9.692406e+002
3.368367e+002, 9.658381e+002
3.373188e+002, 9.625851e+002
3.378009e+002, 9.603572e+002
3.382831e+002, 9.593179e+002
3.387652e+002, 9.589950e+002
3.392473e+002, 9.589218e+002
3.397294e+002, 9.595121e+002
3.402115e+002, 9.589904e+002
3.406936e+002, 9.562510e+002
3.411758e+002, 9.535244e+002
3.416579e+002, 9.520078e+002
3.421400e+002, 9.515468e+002
3.426221e+002, 9.512496e+002
3.431042e+002, 9.503285e+002
3.435863e+002, 9.487813e+002
3.440685e+002, 9.475675e+002
3.445506e+002, 9.468585e+002
3.450327e+002, 9.463436e+002
3.455148e+002, 9.459977e+002
3.459969e+002, 9.457990e+002
3.464790e+002, 9.458212e+002
3.469612e+002, 9.461481e+002
3.474433e+002, 9.465340e+002
3.479254e+002, 9.461233e+002
3.484075e+002, 9.441928e+002
3.488896e+002, 9.426341e+002
3.493717e+002, 9.419305e+002
3.498539e+002, 9.415566e+002
3.503360e+002, 9.411725e+002
3.508181e+002, 9.406457e+002
3.513002e+002, 9.398066e+002
3.517823e+002, 9.381624e+002
3.522644e+002, 9.351331e+002
3.527466e+002, 9.332343e+002
3.532287e+002, 9.337359e+002
3.537108e+002, 9.344464e+002
3.541929e+002, 9.343549e+002
3.546750e+002, 9.333987e+002
3.551571e+002, 9.319514e+002
3.556393e+002, 9.300065e+002
3.561214e+002, 9.275709e+002
3.566035e+002, 9.266392e+002
3.570856e+002, 9.290801e+002
3.575677e+002, 9.308211e+002
3.580498e+002, 9.301250e+002
3.585320e+002, 9.278199e+002
3.590141e+002, 9.253177e+002
3.594962e+002, 9.233004e+002
3.599783e+002, 9.216954e+002
3.604604e+002, 9.203743e+002
3.609425e+002, 9.194225e+002
3.614247e+002, 9.185458e+002
3.619068e+002, 9.175195e+002
3.623889e+002, 9.165880e+002
3.628710e+002, 9.160724e+002
3.633531e+002, 9.160714e+002
3.638352e+002, 9.161575e+002
3.643174e+002, 9.156380e+002
3.647995e+002, 9.143901e+002
3.652816e+002, 9.138026e+002
3.657637e+002, 9.147776e+002
3.662458e+002, 9.159094e+002
3.667279e+002, 9.162754e+002
3.672101e+002, 9.159164e+002
3.676922e+002, 9.154047e+002
3.681743e+002, 9.152178e+002
3.686564e+002, 9.152315e+002
3.691385e+002, 9.148432e+002
3.696206e+002, 9.138749e+002
3.701028e+002, 9.127968e+002
3.705849e+002, 9.117691e+002
3.710670e+002, 9.108476e+002
3.715491e+002, 9.101801e+002
3.720312e+002, 9.099218e+002
3.725133e+002, 9.098282e+002
3.729955e+002, 9.095172e+002
3.734776e+002, 9.089590e+002
3.739597e+002, 9.084718e+002
3.744418e+002, 9.081799e+002
3.749239e+002, 9.080411e+002
3.754060e+002, 9.078928e+002
3.758882e+002, 9.076091e+002
3.763703e+002, 9.077969e+002
3.768524e+002, 9.093535e+002
3.773345e+002, 9.118578e+002
3.778166e+002, 9.136876e+002
3.782987e+002, 9.146567e+002
3.787809e+002, 9.144890e+002
3.792630e+002, 9.121638e+002
3.797451e+002, 9.079931e+002
3.802272e+002, 9.047686e+002
3.807093e+002, 9.039459e+002
3.811914e+002, 9.043275e+002
3.816736e+002, 9.044245e+002
3.821557e+002, 9.041163e+002
3.826378e+002, 9.037098e+002
3.831199e+002, 9.033313e+002
3.836020e+002, 9.030441e+002
3.840841e+002, 9.030370e+002
3.845663e+002, 9.036461e+002
3.850484e+002, 9.041998e+002
3.855305e+002, 9.043571e+002
3.860126e+002, 9.041473e+002
3.864947e+002, 9.036324e+002
3.869768e+002, 9.027916e+002
3.874590e+002, 9.017480e+002
3.879411e+002, 9.005809e+002
3.884232e+002, 8.987869e+002
3.889053e+002, 8.982460e+002
3.893874e+002, 9.006766e+002
3.898695e+002, 9.039111e+002
3.903517e+002, 9.053538e+002
3.908338e+002, 9.045577e+002
3.913159e+002, 9.029002e+002
3.917980e+002, 9.016486e+002
3.922801e+002, 9.008251e+002
3.927622e+002, 9.005795e+002
3.932444e+002, 9.018264e+002
3.937265e+002, 9.027363e+002
3.942086e+002, 9.018939e+002
3.946907e+002, 8.999090e+002
3.951728e+002, 8.984963e+002
3.956549e+002, 8.987148e+002
3.961371e+002, 9.001137e+002
3.966192e+002, 9.008828e+002
3.971013e+002, 9.004982e+002
3.975834e+002, 9.001106e+002
3.980655e+002, 8.998040e+002
3.985476e+002, 8.995287e+002
3.990298e+002, 8.992615e+002
3.995119e+002, 8.989850e+002
3.999940e+002, 8.986301e+002
4.004761e+002, 8.980480e+002
4.009582e+002, 8.970261e+002
4.014403e+002, 8.965489e+002
4.019225e+002, 8.968849e+002
4.024046e+002, 8.974324e+002
4.028867e+002, 8.982195e+002
4.033688e+002, 8.990009e+002
4.038509e+002, 8.992792e+002
4.043330e+002, 8.986483e+002
4.048152e+002, 8.972846e+002
4.052973e+002, 8.961752e+002
4.057794e+002, 8.951209e+002
4.062615e+002, 8.946735e+002
4.067436e+002, 8.953508e+002
4.072257e+002, 8.964024e+002
4.077079e+002, 8.970561e+002
4.081900e+002, 8.970818e+002
4.086721e+002, 8.968563e+002
4.091542e+002, 8.969890e+002
4.096363e+002, 8.976306e+002
4.101184e+002, 8.977717e+002
4.106006e+002, 8.968948e+002
4.110827e+002, 8.958489e+002
4.115648e+002, 8.950169e+002
4.120469e+002, 8.943871e+002
4.125290e+002, 8.938058e+002
4.130111e+002, 8.929886e+002
4.134933e+002, 8.921780e+002
4.139754e+002, 8.923476e+002
4.144575e+002, 8.939903e+002
4.149396e+002, 8.953098e+002
4.154217e+002, 8.951125e+002
4.159038e+002, 8.942366e+002
4.163860e+002, 8.935517e+002
4.168681e+002, 8.932221e+002
4.173502e+002, 8.931962e+002
4.178323e+002, 8.935851e+002
4.183144e+002, 8.943243e+002
4.187965e+002, 8.948658e+002
4.192787e+002, 8.950797e+002
4.197608e+002, 8.950275e+002
4.202429e+002, 8.945071e+002
4.207250e+002, 8.935811e+002
4.212071e+002, 8.933275e+002
4.216892e+002, 8.949468e+002
4.221714e+002, 8.970538e+002
4.226535e+002, 8.976304e+002
4.231356e+002, 8.965260e+002
4.236177e+002, 8.951066e+002
4.240998e+002, 8.940739e+002
4.245819e+002, 8.935068e+002
4.250641e+002, 8.935244e+002
4.255462e+002, 8.945114e+002
4.260283e+002, 8.955864e+002
4.265104e+002, 8.965836e+002
4.269925e+002, 8.973813e+002
4.274746e+002, 8.976476e+002
4.279568e+002, 8.972373e+002
4.284389e+002, 8.965745e+002
4.289210e+002, 8.963554e+002
4.294031e+002, 8.969880e+002
4.298852e+002, 8.968279e+002
4.303673e+002, 8.950671e+002
4.308495e+002, 8.931559e+002
4.313316e+002, 8.919606e+002
4.318137e+002, 8.915409e+002
4.322958e+002, 8.916885e+002
4.327779e+002, 8.923132e+002
4.332600e+002, 8.933367e+002
4.337422e+002, 8.941194e+002
4.342243e+002, 8.949161e+002
4.347064e+002, 8.951295e+002
4.351885e+002, 8.940372e+002
4.356706e+002, 8.926156e+002
4.361527e+002, 8.920428e+002
4.366349e+002, 8.926180e+002
4.371170e+002, 8.935495e+002
4.375991e+002, 8.935516e+002
4.380812e+002, 8.920670e+002
4.385633e+002, 8.917053e+002
4.390454e+002, 8.938441e+002
4.395276e+002, 8.958223e+002
4.400097e+002, 8.966566e+002
4.404918e+002, 8.964810e+002
4.409739e+002, 8.957336e+002
4.414560e+002, 8.945024e+002
4.419381e+002, 8.931104e+002
4.424203e+002, 8.925586e+002
4.429024e+002, 8.931559e+002
4.433845e+002, 8.937945e+002
4.438666e+002, 8.941624e+002
4.443487e+002, 8.944266e+002
4.448308e+002, 8.947291e+002
4.453130e+002, 8.950950e+002
4.457951e+002, 8.954217e+002
4.462772e+002, 8.956592e+002
4.467593e+002, 8.957966e+002
4.472414e+002, 8.957039e+002
4.477235e+002, 8.952062e+002
4.482057e+002, 8.948148e+002
4.486878e+002, 8.951174e+002
4.491699e+002, 8.958295e+002
4.496520e+002, 8.962736e+002
4.501341e+002, 8.960863e+002
4.506162e+002, 8.957408e+002
4.510984e+002, 8.956374e+002
4.515805e+002, 8.957554e+002
4.520626e+002, 8.960416e+002
4.525447e+002, 8.966130e+002
4.530268e+002, 8.971409e+002
4.535089e+002, 8.967764e+002
4.539911e+002, 8.952157e+002
4.544732e+002, 8.943193e+002
4.549553e+002, 8.949984e+002
4.554374e+002, 8.962519e+002
4.559195e+002, 8.970598e+002
4.564016e+002, 8.973194e+002
4.568838e+002, 8.974174e+002
4.573659e+002, 8.976418e+002
4.578480e+002, 8.979880e+002
4.583301e+002, 8.983883e+002
4.588122e+002, 8.991204e+002
4.592943e+002, 8.995744e+002
4.597765e+002, 8.993282e+002
4.602586e+002, 8.988215e+002
4.607407e+002, 8.988186e+002
4.612228e+002, 8.995237e+002
4.617049e+002, 9.001810e+002
4.621870e+002, 8.995290e+002
4.626692e+002, 8.969089e+002
4.631513e+002, 8.951115e+002
4.636334e+002, 8.944367e+002
4.641155e+002, 8.942506e+002
4.645976e+002, 8.945334e+002
4.650797e+002, 8.950956e+002
4.655619e+002, 8.956115e+002
4.660440e+002, 8.958748e+002
4.665261e+002, 8.959890e+002
4.670082e+002, 8.962723e+002
4.674903e+002, 8.968618e+002
4.679724e+002, 8.972474e+002
4.684546e+002, 8.973248e+002
4.689367e+002, 8.971291e+002
4.694188e+002, 8.963801e+002
4.699009e+002, 8.951335e+002
4.703830e+002, 8.943506e+002
4.708651e+002, 8.952166e+002
4.713473e+002, 8.971797e+002
4.718294e+002, 8.981594e+002
4.723115e+002, 8.978088e+002
4.727936e+002, 8.971723e+002
4.732757e+002, 8.969066e+002
4.737578e+002, 8.968167e+002
4.742400e+002, 8.965064e+002
4.747221e+002, 8.956671e+002
4.752042e+002, 8.950012e+002
4.756863e+002, 8.950226e+002
4.761684e+002, 8.956034e+002
4.766505e+002, 8.965002e+002
4.771327e+002, 8.977514e+002
4.776148e+002, 8.988760e+002
4.780969e+002, 8.992816e+002
4.785790e+002, 8.988994e+002
4.790611e+002, 8.981284e+002
4.795432e+002, 8.966840e+002
4.800254e+002, 8.951347e+002
4.805075e+002, 8.935655e+002
4.809896e+002, 8.921758e+002
4.814717e+002, 8.914234e+002
4.819538e+002, 8.915657e+002
4.824359e+002, 8.924791e+002
4.829181e+002, 8.938512e+002
4.834002e+002, 8.968835e+002
4.838823e+002, 8.985630e+002
4.843644e+002, 8.977940e+002
4.848465e+002, 8.965304e+002
4.853286e+002, 8.964269e+002
4.858108e+002, 8.973729e+002
4.862929e+002, 8.978646e+002
4.867750e+002, 8.963094e+002
4.872571e+002, 8.931229e+002
4.877392e+002, 8.921307e+002
4.882213e+002, 8.949729e+002
4.887035e+002, 8.973464e+002
4.891856e+002, 8.977886e+002
4.896677e+002, 8.974023e+002
4.901498e+002, 8.973167e+002
4.906319e+002, 8.978065e+002
4.911140e+002, 8.983439e+002
4.915962e+002, 8.983476e+002
4.920783e+002, 8.978880e+002
4.925604e+002, 8.975740e+002
4.930425e+002, 8.975688e+002
4.935246e+002, 8.975187e+002
4.940067e+002, 8.972048e+002
4.944889e+002, 8.966558e+002
4.949710e+002, 8.958410e+002
4.954531e+002, 8.942123e+002
4.959352e+002, 8.929490e+002
4.964173e+002, 8.934725e+002
4.968994e+002, 8.952567e+002
4.973816e+002, 8.962844e+002
4.978637e+002, 8.957776e+002
4.983458e+002, 8.946147e+002
4.988279e+002, 8.940566e+002
4.993100e+002, 8.942757e+002
4.997921e+002, 8.942406e+002
5.002743e+002, 8.933708e+002
5.007564e+002, 8.926785e+002
5.012385e+002, 8.931531e+002
5.017206e+002, 8.944228e+002
5.022027e+002, 8.952576e+002
5.026848e+002, 8.949245e+002
5.031670e+002, 8.938746e+002
5.036491e+002, 8.934717e+002
5.041312e+002, 8.944397e+002
5.046133e+002, 8.948768e+002
5.050954e+002, 8.940333e+002
5.055775e+002, 8.932408e+002
5.060597e+002, 8.935499e+002
5.065418e+002, 8.948483e+002
5.070239e+002, 8.962867e+002
5.075060e+002, 8.973423e+002
5.079881e+002, 8.979417e+002
5.084702e+002, 8.976041e+002
5.089524e+002, 8.958636e+002
5.094345e+002, 8.942440e+002
5.099166e+002, 8.929564e+002
5.103987e+002, 8.921876e+002
5.108808e+002, 8.923708e+002
5.113629e+002, 8.935764e+002
5.118451e+002, 8.947822e+002
5.123271e+002, 8.951642e+002
5.128093e+002, 8.949626e+002
5.132914e+002, 8.948344e+002
5.137735e+002, 8.948455e+002
5.142556e+002, 8.949102e+002
5.147377e+002, 8.950778e+002
5.152198e+002, 8.952343e+002
5.157020e+002, 8.950114e+002
5.161841e+002, 8.939512e+002
5.166662e+002, 8.931555e+002
5.171483e+002, 8.932709e+002
5.176304e+002, 8.939180e+002
5.181125e+002, 8.945369e+002
5.185947e+002, 8.949818e+002
5.190768e+002, 8.952916e+002
5.195589e+002, 8.955808e+002
5.200410e+002, 8.959341e+002
5.205231e+002, 8.953926e+002
5.210052e+002, 8.925979e+002
5.214874e+002, 8.905761e+002
5.219695e+002, 8.905457e+002
5.224516e+002, 8.917836e+002
5.229337e+002, 8.934957e+002
5.234158e+002, 8.953384e+002
5.238979e+002, 8.968036e+002
5.243801e+002, 8.968492e+002
5.248622e+002, 8.950112e+002
5.253443e+002, 8.942491e+002
5.258264e+002, 8.958406e+002
5.263085e+002, 8.972235e+002
5.267906e+002, 8.968045e+002
5.272728e+002, 8.954642e+002
5.277549e+002, 8.950760e+002
5.282370e+002, 8.967916e+002
5.287191e+002, 8.988593e+002
5.292012e+002, 8.986653e+002
5.296833e+002, 8.963965e+002
5.301655e+002, 8.949469e+002
5.306476e+002, 8.953255e+002
5.311297e+002, 8.962568e+002
5.316118e+002, 8.963664e+002
5.320939e+002, 8.957631e+002
5.325760e+002, 8.950424e+002
5.330582e+002, 8.941091e+002
5.335403e+002, 8.932814e+002
5.340224e+002, 8.928521e+002
5.345045e+002, 8.927437e+002
5.349866e+002, 8.926550e+002
5.354688e+002, 8.924330e+002
5.359509e+002, 8.923222e+002
5.364330e+002, 8.928138e+002
5.369151e+002, 8.942903e+002
5.373972e+002, 8.954832e+002
5.378793e+002, 8.965641e+002
5.383615e+002, 8.972419e+002
5.388436e+002, 8.972508e+002
5.393257e+002, 8.967261e+002
5.398078e+002, 8.958158e+002
5.402899e+002, 8.945144e+002
5.407720e+002, 8.933445e+002
5.412542e+002, 8.937814e+002
5.417363e+002, 8.965375e+002
5.422184e+002, 8.984673e+002
5.427005e+002, 8.983715e+002
5.431826e+002, 8.979011e+002
5.436647e+002, 8.979271e+002
5.441469e+002, 8.984092e+002
5.446290e+002, 8.989775e+002
5.451111e+002, 8.996956e+002
5.455932e+002, 9.002098e+002
5.460753e+002, 8.996571e+002
5.465574e+002, 8.980945e+002
5.470396e+002, 8.972432e+002
5.475217e+002, 8.980689e+002
5.480038e+002, 8.994802e+002
5.484859e+002, 8.996104e+002
5.489680e+002, 8.983412e+002
5.494501e+002, 8.974548e+002
5.499323e+002, 8.976320e+002
5.504144e+002, 8.980230e+002
5.508965e+002, 8.979645e+002
5.513786e+002, 8.975181e+002
5.518607e+002, 8.970093e+002
5.523428e+002, 8.965925e+002
5.528250e+002, 8.963382e+002
5.533071e+002, 8.964611e+002
5.537892e+002, 8.974566e+002
5.542713e+002, 8.979241e+002
5.547534e+002, 8.973508e+002
5.552355e+002, 8.967913e+002
5.557177e+002, 8.970039e+002
5.561998e+002, 8.977539e+002
5.566819e+002, 8.982043e+002
5.571640e+002, 8.976962e+002
5.576461e+002, 8.969396e+002
5.581282e+002, 8.979192e+002
5.586104e+002, 9.011284e+002
5.590925e+002, 9.028035e+002
5.595746e+002, 9.008650e+002
5.600567e+002, 8.982268e+002
5.605388e+002, 8.976005e+002
5.610209e+002, 8.987395e+002
5.615031e+002, 8.997870e+002
5.619852e+002, 9.000410e+002
5.624673e+002, 8.998936e+002
5.629494e+002, 8.995850e+002
5.634315e+002, 8.991879e+002
5.639136e+002, 8.990941e+002
5.643958e+002, 8.995554e+002
5.648779e+002, 9.000912e+002
5.653600e+002, 8.998301e+002
5.658421e+002, 8.983467e+002
5.663242e+002, 8.972569e+002
5.668063e+002, 8.962567e+002
5.672885e+002, 8.959179e+002
5.677706e+002, 8.973040e+002
5.682527e+002, 8.995173e+002
5.687348e+002, 9.005380e+002
5.692169e+002, 8.993461e+002
5.696990e+002, 8.972164e+002
5.701812e+002, 8.967097e+002
5.706633e+002, 8.982634e+002
5.711454e+002, 8.997042e+002
5.716275e+002, 9.012086e+002
5.721096e+002, 9.022008e+002
5.725917e+002, 9.020187e+002
5.730739e+002, 9.011394e+002
5.735560e+002, 9.006295e+002
5.740381e+002, 9.008810e+002
5.745202e+002, 9.016869e+002
5.750023e+002, 9.032347e+002
5.754844e+002, 9.052866e+002
5.759666e+002, 9.063923e+002
5.764487e+002, 9.060478e+002
5.769308e+002, 9.051709e+002
5.774129e+002, 9.046764e+002
5.778950e+002, 9.045748e+002
5.783771e+002, 9.043450e+002
5.788593e+002, 9.035389e+002
5.793414e+002, 9.030670e+002
5.798235e+002, 9.035688e+002
5.803056e+002, 9.046026e+002
5.807877e+002, 9.055521e+002
5.812698e+002, 9.062015e+002
5.817520e+002, 9.064854e+002
5.822341e+002, 9.062381e+002
5.827162e+002, 9.053602e+002
5.831984e+002, 9.048938e+002
5.836805e+002, 9.053415e+002
5.841626e+002, 9.055771e+002
5.846447e+002, 9.047858e+002
5.851268e+002, 9.038436e+002
5.856089e+002, 9.040625e+002
5.860911e+002, 9.058102e+002
5.865732e+002, 9.075416e+002
5.870553e+002, 9.076536e+002
5.875374e+002, 9.065505e+002
5.880195e+002, 9.057591e+002
5.885016e+002, 9.054340e+002
5.889838e+002, 9.052692e+002
5.894659e+002, 9.050850e+002
5.899480e+002, 9.049269e+002
5.904301e+002, 9.049456e+002
5.909122e+002, 9.053894e+002
5.913943e+002, 9.055228e+002
5.918765e+002, 9.044999e+002
5.923586e+002, 9.034297e+002
5.928407e+002, 9.036664e+002
5.933228e+002, 9.052131e+002
5.938049e+002, 9.071998e+002
5.942870e+002, 9.091507e+002
5.947692e+002, 9.107748e+002
5.952513e+002, 9.105382e+002
5.957334e+002, 9.064465e+002
5.962155e+002, 9.040602e+002
5.966976e+002, 9.050663e+002
5.971797e+002, 9.068333e+002
5.976619e+002, 9.076780e+002
5.981440e+002, 9.076028e+002
5.986261e+002, 9.074764e+002
5.991082e+002, 9.078457e+002
5.995903e+002, 9.084560e+002
6.000724e+002, 9.088510e+002
6.005546e+002, 9.090254e+002
6.010367e+002, 9.091406e+002
6.015188e+002, 9.092355e+002
6.020009e+002, 9.092943e+002
6.024830e+002, 9.092419e+002
6.029651e+002, 9.090748e+002
6.034473e+002, 9.090710e+002
6.039294e+002, 9.092510e+002
6.044115e+002, 9.096191e+002
6.048936e+002, 9.105993e+002
6.053757e+002, 9.117000e+002
6.058578e+002, 9.115432e+002
6.063400e+002, 9.096849e+002
6.068221e+002, 9.079490e+002
6.073042e+002, 9.093058e+002
6.077863e+002, 9.146073e+002
6.082684e+002, 9.174544e+002
6.087505e+002, 9.160486e+002
6.092327e+002, 9.141953e+002
6.097148e+002, 9.125865e+002
6.101969e+002, 9.113588e+002
6.106790e+002, 9.107360e+002
6.111611e+002, 9.107986e+002
6.116432e+002, 9.109584e+002
6.121254e+002, 9.105530e+002
6.126075e+002, 9.098275e+002
6.130896e+002, 9.096865e+002
6.135717e+002, 9.102893e+002
6.140538e+002, 9.106729e+002
6.145359e+002, 9.100883e+002
6.150181e+002, 9.089445e+002
6.155002e+002, 9.084679e+002
6.159823e+002, 9.088513e+002
6.164644e+002, 9.093390e+002
6.169465e+002, 9.098598e+002
6.174286e+002, 9.103567e+002
6.179108e+002, 9.108938e+002
6.183929e+002, 9.113764e+002
6.188750e+002, 9.114315e+002
6.193571e+002, 9.107640e+002
6.198392e+002, 9.098182e+002
6.203214e+002, 9.098278e+002
6.208035e+002, 9.111080e+002
6.212856e+002, 9.123984e+002
6.217677e+002, 9.139971e+002
6.222498e+002, 9.151566e+002
6.227319e+002, 9.152855e+002
6.232141e+002, 9.146749e+002
6.236962e+002, 9.140662e+002
6.241783e+002, 9.137203e+002
6.246604e+002, 9.135040e+002
6.251425e+002, 9.132895e+002
6.256246e+002, 9.130959e+002
6.261068e+002, 9.129868e+002
6.265889e+002, 9.129767e+002
6.270710e+002, 9.130464e+002
6.275531e+002, 9.132049e+002
6.280352e+002, 9.134427e+002
6.285173e+002, 9.135557e+002
6.289995e+002, 9.134938e+002
6.294816e+002, 9.133834e+002
6.299637e+002, 9.129583e+002
6.304458e+002, 9.126731e+002
6.309279e+002, 9.130475e+002
6.314100e+002, 9.140768e+002
6.318922e+002, 9.153418e+002
6.323743e+002, 9.166306e+002
6.328564e+002, 9.177833e+002
6.333385e+002, 9.180591e+002
6.338206e+002, 9.171631e+002
6.343027e+002, 9.165942e+002
6.347849e+002, 9.171160e+002
6.352670e+002, 9.177982e+002
6.357491e+002, 9.174602e+002
6.362312e+002, 9.162574e+002
6.367133e+002, 9.158370e+002
6.371954e+002, 9.175909e+002
6.376776e+002, 9.195301e+002
6.381597e+002, 9.201085e+002
6.386418e+002, 9.196098e+002
6.391239e+002, 9.186046e+002
6.396060e+002, 9.172901e+002
6.400881e+002, 9.161377e+002
6.405703e+002, 9.158035e+002
6.410524e+002, 9.163870e+002
6.415345e+002, 9.166944e+002
6.420166e+002, 9.161467e+002
6.424987e+002, 9.160340e+002
6.429808e+002, 9.173157e+002
6.434630e+002, 9.187548e+002
6.439451e+002, 9.188165e+002
6.444272e+002, 9.173526e+002
6.449093e+002, 9.159697e+002
6.453914e+002, 9.160053e+002
6.458735e+002, 9.170311e+002
6.463557e+002, 9.182148e+002
6.468378e+002, 9.195767e+002
6.473199e+002, 9.202903e+002
6.478020e+002, 9.197401e+002
6.482841e+002, 9.187574e+002
6.487662e+002, 9.188044e+002
6.492484e+002, 9.201513e+002
6.497305e+002, 9.209348e+002
6.502126e+002, 9.206497e+002
6.506947e+002, 9.201192e+002
6.511768e+002, 9.196332e+002
6.516589e+002, 9.192628e+002
6.521411e+002, 9.189482e+002
6.526232e+002, 9.187027e+002
6.531053e+002, 9.189435e+002
6.535874e+002, 9.206666e+002
6.540695e+002, 9.239033e+002
6.545516e+002, 9.250582e+002
6.550338e+002, 9.230651e+002
6.555159e+002, 9.211026e+002
6.559980e+002, 9.205074e+002
6.564801e+002, 9.206981e+002
6.569622e+002, 9.212757e+002
6.574443e+002, 9.222673e+002
6.579265e+002, 9.229291e+002
6.584086e+002, 9.225346e+002
6.588907e+002, 9.219119e+002
6.593728e+002, 9.221225e+002
6.598549e+002, 9.229923e+002
6.603370e+002, 9.235751e+002
6.608192e+002, 9.234258e+002
6.613013e+002, 9.228694e+002
6.617834e+002, 9.224233e+002
6.622655e+002, 9.219928e+002
6.627476e+002, 9.220256e+002
6.632297e+002, 9.229972e+002
6.637119e+002, 9.239210e+002
6.641940e+002, 9.247408e+002
6.646761e+002, 9.252389e+002
6.651582e+002, 9.249524e+002
6.656403e+002, 9.237598e+002
6.661224e+002, 9.226700e+002
6.666046e+002, 9.225629e+002
6.670867e+002, 9.231677e+002
6.675688e+002, 9.240858e+002
6.680509e+002, 9.252952e+002
6.685330e+002, 9.258668e+002
6.690151e+002, 9.251893e+002
6.694973e+002, 9.238240e+002
6.699794e+002, 9.228319e+002
6.704615e+002, 9.222100e+002
6.709436e+002, 9.220443e+002
6.714257e+002, 9.225492e+002
6.719078e+002, 9.232926e+002
6.723900e+002, 9.242899e+002
6.728721e+002, 9.252966e+002
6.733542e+002, 9.259208e+002
6.738363e+002, 9.260291e+002
6.743184e+002, 9.259124e+002
6.748005e+002, 9.257596e+002
6.752827e+002, 9.256188e+002
6.757648e+002, 9.260430e+002
6.762469e+002, 9.271424e+002
6.767290e+002, 9.284930e+002
6.772111e+002, 9.304368e+002
6.776932e+002, 9.321547e+002
6.781754e+002, 9.320620e+002
6.786575e+002, 9.297482e+002
6.791396e+002, 9.279508e+002
6.796217e+002, 9.275472e+002
6.801038e+002, 9.276671e+002
6.805859e+002, 9.278437e+002
6.810681e+002, 9.279947e+002
6.815502e+002, 9.280582e+002
6.820323e+002, 9.280126e+002
6.825144e+002, 9.278817e+002
6.829965e+002, 9.275284e+002
6.834786e+002, 9.268781e+002
6.839608e+002, 9.274167e+002
6.844429e+002, 9.301291e+002
6.849250e+002, 9.322410e+002
6.854071e+002, 9.322596e+002
6.858892e+002, 9.312902e+002
6.863713e+002, 9.302415e+002
6.868535e+002, 9.291718e+002
6.873356e+002, 9.286591e+002
6.878177e+002, 9.290845e+002
6.882998e+002, 9.300873e+002
6.887819e+002, 9.317198e+002
6.892640e+002, 9.336400e+002
6.897462e+002, 9.347324e+002
6.902283e+002, 9.345585e+002
6.907104e+002, 9.338990e+002
6.911925e+002, 9.338725e+002
6.916746e+002, 9.345623e+002
6.921567e+002, 9.351761e+002
6.926389e+002, 9.361755e+002
6.931210e+002, 9.364483e+002
6.936031e+002, 9.351080e+002
6.940852e+002, 9.333318e+002
6.945673e+002, 9.321205e+002
6.950494e+002, 9.316501e+002
6.955316e+002, 9.320110e+002
6.960137e+002, 9.340133e+002
6.964958e+002, 9.363968e+002
6.969779e+002, 9.375384e+002
6.974600e+002, 9.375509e+002
6.979421e+002, 9.369964e+002
6.984243e+002, 9.360336e+002
6.989064e+002, 9.348485e+002
6.993885e+002, 9.335587e+002
6.998706e+002, 9.320834e+002
7.003527e+002, 9.315727e+002
7.008348e+002, 9.328533e+002
7.013170e+002, 9.341125e+002
7.017991e+002, 9.351365e+002
7.022812e+002, 9.359341e+002
7.027633e+002, 9.365045e+002
7.032454e+002, 9.368616e+002
7.037275e+002, 9.370440e+002
7.042097e+002, 9.368658e+002
7.046918e+002, 9.367097e+002
7.051739e+002, 9.372761e+002
7.056560e+002, 9.384584e+002
7.061381e+002, 9.395620e+002
7.066202e+002, 9.403965e+002
7.071024e+002, 9.410868e+002
7.075845e+002, 9.417360e+002
7.080666e+002, 9.423458e+002
7.085487e+002, 9.429761e+002
7.090308e+002, 9.438818e+002
7.095129e+002, 9.444559e+002
7.099951e+002, 9.440670e+002
7.104772e+002, 9.437150e+002
7.109593e+002, 9.445411e+002
7.114414e+002, 9.462767e+002
7.119235e+002, 9.475812e+002
7.124056e+002, 9.476822e+002
7.128878e+002, 9.469642e+002
7.133699e+002, 9.455020e+002
7.138520e+002, 9.435432e+002
7.143341e+002, 9.431671e+002
7.148162e+002, 9.450455e+002
7.152983e+002, 9.470889e+002
7.157805e+002, 9.475602e+002
7.162626e+002, 9.467656e+002
7.167447e+002, 9.464531e+002
7.172268e+002, 9.466238e+002
7.177089e+002, 9.472471e+002
7.181910e+002, 9.491201e+002
7.186732e+002, 9.507693e+002
7.191553e+002, 9.506617e+002
7.196374e+002, 9.494766e+002
7.201195e+002, 9.491623e+002
7.206016e+002, 9.507552e+002
7.210837e+002, 9.528595e+002
7.215659e+002, 9.533617e+002
7.220480e+002, 9.526397e+002
7.225301e+002, 9.530163e+002
7.230122e+002, 9.549445e+002
7.234943e+002, 9.565170e+002
7.239764e+002, 9.564161e+002
7.244586e+002, 9.553348e+002
7.249407e+002, 9.550388e+002
7.254228e+002, 9.557491e+002
7.259049e+002, 9.566694e+002
7.263870e+002, 9.581331e+002
7.268691e+002, 9.594170e+002
7.273513e+002, 9.600829e+002
7.278334e+002, 9.603038e+002
7.283155e+002, 9.603215e+002
7.287976e+002, 9.602343e+002
7.292797e+002, 9.602359e+002
7.297618e+002, 9.605918e+002
7.302440e+002, 9.612062e+002
7.307261e+002, 9.617077e+002
7.312082e+002, 9.620769e+002
7.316903e+002, 9.625563e+002
7.321724e+002, 9.633269e+002
7.326545e+002, 9.641063e+002
7.331367e+002, 9.644198e+002
7.336188e+002, 9.641267e+002
7.341009e+002, 9.641846e+002
7.345830e+002, 9.648597e+002
7.350651e+002, 9.655604e+002
7.355472e+002, 9.661107e+002
7.360294e+002, 9.665611e+002
7.365115e+002, 9.668712e+002
7.369936e+002, 9.671050e+002
7.374757e+002, 9.675724e+002
7.379578e+002, 9.685912e+002
7.384399e+002, 9.699061e+002
7.389221e+002, 9.710991e+002
7.394042e+002, 9.721554e+002
7.398863e+002, 9.728558e+002
7.403684e+002, 9.730800e+002
7.408505e+002, 9.731856e+002
7.413326e+002, 9.735101e+002
7.418148e+002, 9.740254e+002
7.422969e+002, 9.744146e+002
7.427790e+002, 9.745205e+002
7.432611e+002, 9.747300e+002
7.437432e+002, 9.749632e+002
7.442253e+002, 9.754217e+002
7.447075e+002, 9.766298e+002
7.451896e+002, 9.781854e+002
7.456717e+002, 9.789640e+002
7.461538e+002, 9.783073e+002
7.466359e+002, 9.772620e+002
7.471180e+002, 9.770441e+002
7.476002e+002, 9.774904e+002
7.480823e+002, 9.780301e+002
7.485644e+002, 9.786027e+002
7.490465e+002, 9.792992e+002
7.495286e+002, 9.802726e+002
7.500107e+002, 9.812629e+002
7.504929e+002, 9.816082e+002
7.509750e+002, 9.808146e+002
7.514571e+002, 9.806072e+002
7.519392e+002, 9.813864e+002
7.524213e+002, 9.822531e+002
7.529034e+002, 9.829191e+002
7.533856e+002, 9.834260e+002
7.538677e+002, 9.838875e+002
7.543498e+002, 9.843228e+002
7.548319e+002, 9.845940e+002
7.553140e+002, 9.841420e+002
7.557961e+002, 9.836974e+002
7.562783e+002, 9.848233e+002
7.567604e+002, 9.872198e+002
7.572425e+002, 9.889719e+002
7.577246e+002, 9.893710e+002
7.582067e+002, 9.896219e+002
7.586888e+002, 9.913048e+002
7.591710e+002, 9.943996e+002
7.596531e+002, 9.957515e+002
7.601352e+002, 9.936395e+002
7.606173e+002, 9.923878e+002
7.610994e+002, 9.929200e+002
7.615815e+002, 9.942129e+002
7.620637e+002, 9.960836e+002
7.625458e+002, 9.980965e+002
7.630279e+002, 9.989946e+002
7.635100e+002, 9.977190e+002
7.639921e+002, 9.962309e+002
7.644742e+002, 9.964825e+002
7.649564e+002, 9.975283e+002
7.654385e+002, 9.974881e+002
7.659206e+002, 9.962576e+002
7.664027e+002, 9.949644e+002
7.668848e+002, 9.942564e+002
7.673669e+002, 9.942659e+002
7.678491e+002, 9.955811e+002
7.683312e+002, 9.989137e+002
7.688133e+002, 1.000845e+003
7.692954e+002, 1.000452e+003
7.697775e+002, 9.998444e+002
7.702596e+002, 9.997959e+002
7.707418e+002, 1.000149e+003
7.712239e+002, 1.000829e+003
7.717060e+002, 1.001884e+003
7.721881e+002, 1.002668e+003
7.726702e+002, 1.002807e+003
7.731523e+002, 1.002698e+003
7.736345e+002, 1.002368e+003
7.741166e+002, 1.002104e+003
7.745987e+002, 1.002454e+003
7.750808e+002, 1.003554e+003
7.755629e+002, 1.005149e+003
7.760450e+002, 1.007200e+003
7.765272e+002, 1.009417e+003
7.770093e+002, 1.010171e+003
7.774914e+002, 1.009103e+003
7.779735e+002, 1.008589e+003
7.784556e+002, 1.009495e+003
7.789377e+002, 1.010607e+003
7.794199e+002, 1.010660e+003
7.799020e+002, 1.009951e+003
7.803841e+002, 1.009980e+003
7.808662e+002, 1.011399e+003
7.813483e+002, 1.012659e+003
7.818304e+002, 1.013492e+003
7.823126e+002, 1.013939e+003
7.827947e+002, 1.013526e+003
7.832768e+002, 1.012797e+003
7.837589e+002, 1.013169e+003
7.842410e+002, 1.015315e+003
7.847231e+002, 1.017851e+003
7.852053e+002, 1.019036e+003
7.856874e+002, 1.019176e+003
7.861695e+002, 1.019415e+003
7.866516e+002, 1.019806e+003
7.871337e+002, 1.020492e+003
7.876158e+002, 1.021620e+003
7.880980e+002, 1.022879e+003
7.885801e+002, 1.023757e+003
7.890622e+002, 1.024136e+003
7.895443e+002, 1.024919e+003
7.900264e+002, 1.026782e+003
7.905085e+002, 1.028177e+003
7.909907e+002, 1.028092e+003
7.914728e+002, 1.027891e+003
7.919549e+002, 1.029000e+003
7.924370e+002, 1.031282e+003
7.929191e+002, 1.033461e+003
7.934012e+002, 1.034992e+003
7.938834e+002, 1.036013e+003
7.943655e+002, 1.036206e+003
7.948476e+002, 1.036096e+003
7.953297e+002, 1.037008e+003
7.958118e+002, 1.039011e+003
7.962939e+002, 1.040892e+003
7.967761e+002, 1.041850e+003
7.972582e+002, 1.042230e+003
7.977403e+002, 1.042946e+003
7.982224e+002, 1.044284e+003
7.987045e+002, 1.044688e+003
7.991866e+002, 1.043431e+003
7.996688e+002, 1.042336e+003
8.001509e+002, 1.041877e+003
8.006330e+002, 1.042235e+003
8.011151e+002, 1.044030e+003
8.015972e+002, 1.047435e+003
8.020793e+002, 1.050282e+003
8.025615e+002, 1.051717e+003
8.030436e+002, 1.052697e+003
8.035257e+002, 1.053527e+003
8.040078e+002, 1.054416e+003
8.044899e+002, 1.055751e+003
8.049720e+002, 1.057498e+003
8.054542e+002, 1.059094e+003
8.059363e+002, 1.060087e+003
8.064184e+002, 1.060639e+003
8.069005e+002, 1.060998e+003
8.073826e+002, 1.061176e+003
8.078647e+002, 1.061676e+003
8.083469e+002, 1.062654e+003
8.088290e+002, 1.063586e+003
8.093111e+002, 1.064059e+003
8.097932e+002, 1.064247e+003
8.102753e+002, 1.064667e+003
8.107574e+002, 1.065253e+003
8.112396e+002, 1.066236e+003
8.117217e+002, 1.067963e+003
8.122038e+002, 1.069698e+003
8.126859e+002, 1.071304e+003
8.131680e+002, 1.072660e+003
8.136501e+002, 1.073659e+003
8.141323e+002, 1.074283e+003
8.146144e+002, 1.074481e+003
8.150965e+002, 1.073651e+003
8.155786e+002, 1.072835e+003
8.160607e+002, 1.073455e+003
8.165428e+002, 1.075050e+003
8.170250e+002, 1.076373e+003
8.175071e+002, 1.077146e+003
8.179892e+002, 1.077957e+003
8.184713e+002, 1.079392e+003
8.189534e+002, 1.081077e+003
8.194355e+002, 1.081489e+003
8.199177e+002, 1.080197e+003
8.203998e+002, 1.079663e+003
8.208819e+002, 1.080615e+003
8.213640e+002, 1.081564e+003
8.218461e+002, 1.081596e+003
8.223282e+002, 1.081022e+003
8.228104e+002, 1.080393e+003
8.232925e+002, 1.079629e+003
8.237746e+002, 1.079202e+003
8.242567e+002, 1.079479e+003
8.247388e+002, 1.079843e+003
8.252209e+002, 1.080184e+003
8.257031e+002, 1.080283e+003
8.261852e+002, 1.079771e+003
8.266673e+002, 1.078641e+003
8.271494e+002, 1.077339e+003
8.276315e+002, 1.076081e+003
8.281136e+002, 1.074993e+003
8.285958e+002, 1.074258e+003
8.290779e+002, 1.073862e+003
8.295600e+002, 1.073868e+003
8.300421e+002, 1.074297e+003
8.305242e+002, 1.074540e+003
8.310063e+002, 1.074131e+003
8.314885e+002, 1.073228e+003
8.319706e+002, 1.072309e+003
8.324527e+002, 1.071291e+003
8.329348e+002, 1.070450e+003
8.334169e+002, 1.069881e+003
8.338990e+002, 1.069368e+003
8.343812e+002, 1.068433e+003
8.348633e+002, 1.067709e+003
8.353454e+002, 1.068302e+003
8.358275e+002, 1.070355e+003
8.363096e+002, 1.071690e+003
8.367917e+002, 1.070877e+003
8.372739e+002, 1.069905e+003
8.377560e+002, 1.070289e+003
8.382381e+002, 1.071153e+003
8.387202e+002, 1.071171e+003
8.392023e+002, 1.070243e+003
8.396844e+002, 1.069166e+003
8.401666e+002, 1.068473e+003
8.406487e+002, 1.067934e+003
8.411308e+002, 1.067005e+003
8.416129e+002, 1.065809e+003
8.420950e+002, 1.065363e+003
8.425771e+002, 1.065840e+003
8.430593e+002, 1.066128e+003
8.435414e+002, 1.065497e+003
8.440235e+002, 1.064601e+003
8.445056e+002, 1.064709e+003
8.449877e+002, 1.066119e+003
8.454698e+002, 1.067030e+003
8.459520e+002, 1.066766e+003
8.464341e+002, 1.066910e+003
8.469162e+002, 1.068537e+003
8.473983e+002, 1.070171e+003
8.478804e+002, 1.070170e+003
8.483625e+002, 1.068837e+003
8.488447e+002, 1.068217e+003
8.493268e+002, 1.069386e+003
8.498089e+002, 1.070731e+003
8.502910e+002, 1.071145e+003
8.507731e+002, 1.071384e+003
8.512552e+002, 1.072309e+003
8.517374e+002, 1.073900e+003
8.522195e+002, 1.075903e+003
8.527016e+002, 1.078202e+003
8.531837e+002, 1.080271e+003
8.536658e+002, 1.081259e+003
8.541479e+002, 1.081402e+003
8.546301e+002, 1.081934e+003
8.551122e+002, 1.082878e+003
8.555943e+002, 1.083315e+003
8.560764e+002, 1.082608e+003
8.565585e+002, 1.082577e+003
8.570406e+002, 1.085556e+003
8.575228e+002, 1.091151e+003
8.580049e+002, 1.094730e+003
8.584870e+002, 1.094664e+003
8.589691e+002, 1.095321e+003
8.594512e+002, 1.097785e+003
8.599333e+002, 1.100316e+003
8.604155e+002, 1.101938e+003
8.608976e+002, 1.103015e+003
8.613797e+002, 1.104251e+003
8.618618e+002, 1.105752e+003
8.623439e+002, 1.107555e+003
8.628260e+002, 1.109981e+003
8.633082e+002, 1.112429e+003
8.637903e+002, 1.114631e+003
8.642724e+002, 1.116431e+003
8.647545e+002, 1.117374e+003
8.652366e+002, 1.117539e+003
8.657188e+002, 1.117945e+003
8.662009e+002, 1.119497e+003
8.666830e+002, 1.121573e+003
8.671651e+002, 1.123308e+003
8.676472e+002, 1.124573e+003
8.681293e+002, 1.124292e+003
8.686115e+002, 1.122234e+003
8.690936e+002, 1.120058e+003
8.695757e+002, 1.118703e+003
8.700578e+002, 1.117984e+003
8.705399e+002, 1.117680e+003
8.710220e+002, 1.118144e+003
8.715042e+002, 1.117184e+003
8.719863e+002, 1.113973e+003
8.724684e+002, 1.110689e+003
8.729505e+002, 1.107849e+003
8.734326e+002, 1.105340e+003
8.739147e+002, 1.103283e+003
8.743969e+002, 1.101567e+003
8.748790e+002, 1.099509e+003
8.753611e+002, 1.096386e+003
8.758432e+002, 1.093766e+003
8.763253e+002, 1.092650e+003
8.768074e+002, 1.091886e+003
8.772896e+002, 1.090223e+003
8.777717e+002, 1.088095e+003
8.782538e+002, 1.086764e+003
8.787359e+002, 1.086678e+003
8.792180e+002, 1.086959e+003
8.797001e+002, 1.087069e+003
8.801823e+002, 1.086846e+003
8.806644e+002, 1.085717e+003
8.811465e+002, 1.083929e+003
8.816286e+002, 1.082517e+003
8.821107e+002, 1.081758e+003
8.825928e+002, 1.081537e+003
8.830750e+002, 1.081834e+003
8.835571e+002, 1.082453e+003
8.840392e+002, 1.082804e+003
8.845213e+002, 1.082923e+003
8.850034e+002, 1.082511e+003
8.854855e+002, 1.081419e+003
8.859677e+002, 1.080043e+003
8.864498e+002, 1.078230e+003
8.869319e+002, 1.076529e+003
8.874140e+002, 1.075916e+003
8.878961e+002, 1.076508e+003
8.883782e+002, 1.077480e+003
8.888604e+002, 1.079696e+003
8.893425e+002, 1.081163e+003
8.898246e+002, 1.080678e+003
8.903067e+002, 1.079771e+003
8.907888e+002, 1.080023e+003
8.912709e+002, 1.081081e+003
8.917531e+002, 1.081417e+003
8.922352e+002, 1.080394e+003
8.927173e+002, 1.078884e+003
8.931994e+002, 1.077358e+003
8.936815e+002, 1.075759e+003
8.941636e+002, 1.073764e+003
8.946458e+002, 1.071659e+003
8.951279e+002, 1.070343e+003
8.956100e+002, 1.070022e+003
8.960921e+002, 1.069822e+003
8.965742e+002, 1.068905e+003
8.970563e+002, 1.067473e+003
8.975385e+002, 1.065901e+003
8.980206e+002, 1.064224e+003
8.985027e+002, 1.063167e+003
8.989848e+002, 1.062934e+003
8.994669e+002, 1.062345e+003
8.999490e+002, 1.060491e+003
9.004312e+002, 1.058039e+003
9.009133e+002, 1.056595e+003
9.013954e+002, 1.056502e+003
9.018775e+002, 1.055765e+003
9.023596e+002, 1.053634e+003
9.028417e+002, 1.052144e+003
9.033239e+002, 1.052455e+003
9.038060e+002, 1.053246e+003
9.042881e+002, 1.053360e+003
9.047702e+002, 1.052852e+003
9.052523e+002, 1.052116e+003
9.057344e+002, 1.050956e+003
9.062166e+002, 1.049943e+003
9.066987e+002, 1.049255e+003
9.071808e+002, 1.048718e+003
9.076629e+002, 1.048165e+003
9.081450e+002, 1.047688e+003
9.086271e+002, 1.047643e+003
9.091093e+002, 1.048081e+003
9.095914e+002, 1.048111e+003
9.100735e+002, 1.046634e+003
9.105556e+002, 1.044847e+003
9.110377e+002, 1.043994e+003
9.115198e+002, 1.043865e+003
9.120020e+002, 1.044240e+003
9.124841e+002, 1.044927e+003
9.129662e+002, 1.045263e+003
9.134483e+002, 1.044798e+003
9.139304e+002, 1.044008e+003
9.144125e+002, 1.043631e+003
9.148947e+002, 1.043656e+003
9.153768e+002, 1.044136e+003
9.158589e+002, 1.045118e+003
9.163410e+002, 1.045528e+003
9.168231e+002, 1.044875e+003
9.173052e+002, 1.043946e+003
9.177874e+002, 1.043649e+003
9.182695e+002, 1.043896e+003
9.187516e+002, 1.043763e+003
9.192337e+002, 1.042839e+003
9.197158e+002, 1.042566e+003
9.201979e+002, 1.043793e+003
9.206801e+002, 1.044774e+003
9.211622e+002, 1.044196e+003
9.216443e+002, 1.042901e+003
9.221264e+002, 1.042143e+003
9.226085e+002, 1.041968e+003
9.230906e+002, 1.042245e+003
9.235728e+002, 1.043191e+003
9.240549e+002, 1.044279e+003
9.245370e+002, 1.045939e+003
9.250191e+002, 1.047157e+003
9.255012e+002, 1.046477e+003
9.259833e+002, 1.044487e+003
9.264655e+002, 1.043104e+003
9.269476e+002, 1.042952e+003
9.274297e+002, 1.043887e+003
9.279118e+002, 1.046834e+003
9.283939e+002, 1.049993e+003
9.288760e+002, 1.051302e+003
9.293582e+002, 1.051160e+003
9.298403e+002, 1.050571e+003
9.303224e+002, 1.049887e+003
9.308045e+002, 1.049235e+003
9.312866e+002, 1.048681e+003
9.317687e+002, 1.048309e+003
9.322509e+002, 1.048253e+003
9.327330e+002, 1.048524e+003
9.332151e+002, 1.049425e+003
9.336972e+002, 1.050928e+003
9.341793e+002, 1.051529e+003
9.346614e+002, 1.050356e+003
9.351436e+002, 1.048897e+003
9.356257e+002, 1.049528e+003
9.361078e+002, 1.052085e+003
9.365899e+002, 1.053018e+003
9.370720e+002, 1.051903e+003
9.375541e+002, 1.050840e+003
9.380363e+002, 1.050225e+003
9.385184e+002, 1.049771e+003
9.390005e+002, 1.049125e+003
9.394826e+002, 1.048543e+003
9.399647e+002, 1.048800e+003
9.404468e+002, 1.050249e+003
9.409290e+002, 1.051546e+003
9.414111e+002, 1.053215e+003
9.418932e+002, 1.054074e+003
9.423753e+002, 1.052808e+003
9.428574e+002, 1.051329e+003
9.433395e+002, 1.051807e+003
9.438217e+002, 1.053818e+003
9.443038e+002, 1.054796e+003
9.447859e+002, 1.053267e+003
9.452680e+002, 1.052416e+003
9.457501e+002, 1.054218e+003
9.462322e+002, 1.056324e+003
9.467144e+002, 1.056976e+003
9.471965e+002, 1.056663e+003
9.476786e+002, 1.056387e+003
9.481607e+002, 1.056365e+003
9.486428e+002, 1.056174e+003
9.491249e+002, 1.055178e+003
9.496071e+002, 1.054369e+003
9.500892e+002, 1.054967e+003
9.505713e+002, 1.056344e+003
9.510534e+002, 1.057637e+003
9.515355e+002, 1.058658e+003
9.520176e+002, 1.059123e+003
9.524998e+002, 1.058924e+003
9.529819e+002, 1.058923e+003
9.534640e+002, 1.060747e+003
9.539461e+002, 1.063356e+003
9.544282e+002, 1.062961e+003
9.549103e+002, 1.060059e+003
9.553925e+002, 1.058664e+003
9.558746e+002, 1.059613e+003
9.563567e+002, 1.061198e+003
9.568388e+002, 1.062332e+003
9.573209e+002, 1.062981e+003
9.578030e+002, 1.063072e+003
9.582852e+002, 1.062594e+003
9.587673e+002, 1.061557e+003
9.592494e+002, 1.059714e+003
9.597315e+002, 1.058294e+003
9.602136e+002, 1.057653e+003
9.606957e+002, 1.057608e+003
9.611779e+002, 1.058076e+003
9.616600e+002, 1.058985e+003
9.621421e+002, 1.059953e+003
9.626242e+002, 1.061301e+003
9.631063e+002, 1.062072e+003
9.635884e+002, 1.061706e+003
9.640706e+002, 1.061459e+003
9.645527e+002, 1.061701e+003
9.650348e+002, 1.062351e+003
9.655169e+002, 1.063480e+003
9.659990e+002, 1.065029e+003
9.664811e+002, 1.066313e+003
9.669633e+002, 1.067260e+003
9.674454e+002, 1.067883e+003
9.679275e+002, 1.067962e+003
9.684096e+002, 1.067935e+003
9.688917e+002, 1.068066e+003
9.693738e+002, 1.068309e+003
9.698560e+002, 1.068531e+003
9.703381e+002, 1.068709e+003
9.708202e+002, 1.069033e+003
9.713023e+002, 1.069822e+003
9.717844e+002, 1.070526e+003
9.722665e+002, 1.070947e+003
9.727487e+002, 1.070964e+003
9.732308e+002, 1.069979e+003
9.737129e+002, 1.068501e+003
9.741950e+002, 1.068046e+003
9.746771e+002, 1.069196e+003
9.751592e+002, 1.070491e+003
9.756414e+002, 1.070378e+003
9.761235e+002, 1.069817e+003
9.766056e+002, 1.070173e+003
9.770877e+002, 1.071184e+003
9.775698e+002, 1.072041e+003
9.780519e+002, 1.072740e+003
9.785341e+002, 1.074422e+003
9.790162e+002, 1.077889e+003
9.794983e+002, 1.081148e+003
9.799804e+002, 1.080786e+003
9.804625e+002, 1.077787e+003
9.809446e+002, 1.075789e+003
9.814268e+002, 1.074826e+003
9.819089e+002, 1.074522e+003
9.823910e+002, 1.074783e+003
9.828731e+002, 1.074950e+003
9.833552e+002, 1.074403e+003
9.838373e+002, 1.073683e+003
9.843195e+002, 1.074296e+003
9.848016e+002, 1.076318e+003
9.852837e+002, 1.078025e+003
9.857658e+002, 1.079374e+003
9.862479e+002, 1.080253e+003
9.867300e+002, 1.080446e+003
9.872122e+002, 1.080699e+003
9.876943e+002, 1.081972e+003
9.881764e+002, 1.083889e+003
9.886585e+002, 1.084297e+003
9.891406e+002, 1.082432e+003
9.896227e+002, 1.081225e+003
9.901049e+002, 1.080608e+003
9.905870e+002, 1.081067e+003
9.910691e+002, 1.083894e+003
9.915512e+002, 1.086836e+003
9.920333e+002, 1.086558e+003
9.925154e+002, 1.083228e+003
9.929976e+002, 1.082227e+003
9.934797e+002, 1.086112e+003
9.939618e+002, 1.088422e+003
9.944439e+002, 1.087481e+003
9.949260e+002, 1.086428e+003
9.954081e+002, 1.086953e+003
9.958903e+002, 1.088139e+003
9.963724e+002, 1.088749e+003
9.968545e+002, 1.088697e+003
9.973366e+002, 1.088452e+003
9.978187e+002, 1.087722e+003
9.983008e+002, 1.087325e+003
9.987830e+002, 1.087911e+003
9.992651e+002, 1.088493e+003
9.997472e+002, 1.088006e+003
1.000229e+003, 1.087146e+003
1.000711e+003, 1.087198e+003
1.001194e+003, 1.088401e+003
1.001676e+003, 1.089933e+003
1.002158e+003, 1.092193e+003
1.002640e+003, 1.093789e+003
1.003122e+003, 1.093285e+003
1.003604e+003, 1.092221e+003
1.004086e+003, 1.092383e+003
1.004568e+003, 1.093339e+003
1.005050e+003, 1.093458e+003
1.005533e+003, 1.092261e+003
1.006015e+003, 1.091512e+003
1.006497e+003, 1.093180e+003
1.006979e+003, 1.095142e+003
1.007461e+003, 1.094981e+003
1.007943e+003, 1.093922e+003
1.008425e+003, 1.093786e+003
1.008907e+003, 1.094670e+003
1.009390e+003, 1.096079e+003
1.009872e+003, 1.097796e+003
1.010354e+003, 1.099138e+003
1.010836e+003, 1.099147e+003
1.011318e+003, 1.098558e+003
1.011800e+003, 1.098650e+003
1.012282e+003, 1.099093e+003
1.012764e+003, 1.098859e+003
1.013246e+003, 1.097982e+003
1.013729e+003, 1.097623e+003
1.014211e+003, 1.098413e+003
1.014693e+003, 1.099501e+003
1.015175e+003, 1.099740e+003
1.015657e+003, 1.099413e+003
1.016139e+003, 1.099178e+003
1.016621e+003, 1.099118e+003
1.017103e+003, 1.099824e+003
1.017586e+003, 1.101341e+003
1.018068e+003, 1.102661e+003
1.018550e+003, 1.103155e+003
1.019032e+003, 1.103180e+003
1.019514e+003, 1.103152e+003
1.019996e+003, 1.103152e+003
1.020478e+003, 1.104109e+003
1.020960e+003, 1.105972e+003
1.021442e+003, 1.106194e+003
1.021925e+003, 1.104063e+003
1.022407e+003, 1.102801e+003
1.022889e+003, 1.104929e+003
1.023371e+003, 1.108220e+003
1.023853e+003, 1.107783e+003
1.024335e+003, 1.103564e+003
1.024817e+003, 1.101371e+003
1.025299e+003, 1.101330e+003
1.025781e+003, 1.102493e+003
1.026264e+003, 1.104910e+003
1.026746e+003, 1.107293e+003
1.027228e+003, 1.108655e+003
1.027710e+003, 1.109349e+003
1.028192e+003, 1.110277e+003
1.028674e+003, 1.111547e+003
1.029156e+003, 1.112057e+003
1.029638e+003, 1.111598e+003
1.030120e+003, 1.111024e+003
1.030603e+003, 1.110396e+003
1.031085e+003, 1.110022e+003
1.031567e+003, 1.110063e+003
1.032049e+003, 1.110605e+003
1.032531e+003, 1.111975e+003
1.033013e+003, 1.114517e+003
1.033495e+003, 1.116421e+003
1.033977e+003, 1.117888e+003
1.034460e+003, 1.118221e+003
1.034942e+003, 1.116440e+003
1.035424e+003, 1.114651e+003
1.035906e+003, 1.114799e+003
1.036388e+003, 1.116087e+003
1.036870e+003, 1.116005e+003
1.037352e+003, 1.113459e+003
1.037834e+003, 1.113425e+003
1.038317e+003, 1.118354e+003
1.038799e+003, 1.122028e+003
1.039281e+003, 1.122423e+003
1.039763e+003, 1.121704e+003
1.040245e+003, 1.121186e+003
1.040727e+003, 1.120864e+003
1.041209e+003, 1.120723e+003
1.041691e+003, 1.120815e+003
1.042173e+003, 1.120917e+003
1.042656e+003, 1.121208e+003
1.043138e+003, 1.121255e+003
1.043620e+003, 1.120552e+003
1.044102e+003, 1.119928e+003
1.044584e+003, 1.119926e+003
1.045066e+003, 1.120498e+003
1.045548e+003, 1.121698e+003
1.046030e+003, 1.123989e+003
1.046512e+003, 1.125040e+003
1.046995e+003, 1.122700e+003
1.047477e+003, 1.121609e+003
1.047959e+003, 1.124711e+003
1.048441e+003, 1.128145e+003
1.048923e+003, 1.128455e+003
1.049405e+003, 1.126781e+003
1.049887e+003, 1.126105e+003
1.050369e+003, 1.126912e+003
1.050852e+003, 1.128035e+003
1.051334e+003, 1.129901e+003
1.051816e+003, 1.131205e+003
1.052298e+003, 1.130961e+003
1.052780e+003, 1.130471e+003
1.053262e+003, 1.131077e+003
1.053744e+003, 1.132199e+003
1.054226e+003, 1.132241e+003
1.054708e+003, 1.130751e+003
1.055191e+003, 1.129848e+003
1.055673e+003, 1.130491e+003
1.056155e+003, 1.131299e+003
1.056637e+003, 1.131419e+003
1.057119e+003, 1.131770e+003
1.057601e+003, 1.133873e+003
1.058083e+003, 1.136572e+003
1.058565e+003, 1.137194e+003
1.059047e+003, 1.135115e+003
1.059530e+003, 1.133384e+003
1.060012e+003, 1.133383e+003
1.060494e+003, 1.133442e+003
1.060976e+003, 1.132196e+003
1.061458e+003, 1.131332e+003
1.061940e+003, 1.132809e+003
1.062422e+003, 1.135540e+003
1.062904e+003, 1.137372e+003
1.063387e+003, 1.137889e+003
1.063869e+003, 1.137804e+003
1.064351e+003, 1.136909e+003
1.064833e+003, 1.136091e+003
1.065315e+003, 1.135767e+003
1.065797e+003, 1.135672e+003
1.066279e+003, 1.135580e+003
1.066761e+003, 1.135560e+003
1.067244e+003, 1.135582e+003
1.067726e+003, 1.135707e+003
1.068208e+003, 1.136717e+003
1.068690e+003, 1.140141e+003
1.069172e+003, 1.142890e+003
1.069654e+003, 1.143169e+003
1.070136e+003, 1.142579e+003
1.070618e+003, 1.141846e+003
1.071100e+003, 1.141412e+003
1.071583e+003, 1.142177e+003
1.072065e+003, 1.144028e+003
1.072547e+003, 1.145021e+003
1.073029e+003, 1.144010e+003
1.073511e+003, 1.142622e+003
1.073993e+003, 1.140868e+003
1.074475e+003, 1.139784e+003
1.074957e+003, 1.140671e+003
1.075439e+003, 1.142476e+003
1.075922e+003, 1.143623e+003
1.076404e+003, 1.143993e+003
1.076886e+003, 1.144560e+003
1.077368e+003, 1.145821e+003
1.077850e+003, 1.147019e+003
1.078332e+003, 1.148203e+003
1.078814e+003, 1.148786e+003
1.079297e+003, 1.147688e+003
1.079779e+003, 1.146137e+003
1.080261e+003, 1.145649e+003
1.080743e+003, 1.146314e+003
1.081225e+003, 1.147684e+003
1.081707e+003, 1.150072e+003
1.082189e+003, 1.151559e+003
1.082671e+003, 1.150409e+003
1.083153e+003, 1.149031e+003
1.083635e+003, 1.148712e+003
1.084118e+003, 1.149232e+003
1.084600e+003, 1.150741e+003
1.085082e+003, 1.152742e+003
1.085564e+003, 1.153821e+003
1.086046e+003, 1.153427e+003
1.086528e+003, 1.152953e+003
1.087010e+003, 1.152809e+003
1.087492e+003, 1.152965e+003
1.087975e+003, 1.153702e+003
1.088457e+003, 1.154500e+003
1.088939e+003, 1.154844e+003
1.089421e+003, 1.154817e+003
1.089903e+003, 1.154655e+003
1.090385e+003, 1.154374e+003
1.090867e+003, 1.154467e+003
1.091349e+003, 1.155993e+003
1.091832e+003, 1.156809e+003
1.092314e+003, 1.155270e+003
1.092796e+003, 1.153202e+003
1.093278e+003, 1.151747e+003
1.093760e+003, 1.151109e+003
1.094242e+003, 1.151591e+003
1.094724e+003, 1.153213e+003
1.095206e+003, 1.154731e+003
1.095688e+003, 1.155438e+003
1.096171e+003, 1.156398e+003
1.096653e+003, 1.158814e+003
1.097135e+003, 1.160745e+003
1.097617e+003, 1.160089e+003
1.098099e+003, 1.158489e+003
1.098581e+003, 1.158736e+003
1.099063e+003, 1.160882e+003
1.099545e+003, 1.162077e+003
1.100027e+003, 1.160893e+003
1.100510e+003, 1.159960e+003
1.100992e+003, 1.159965e+003
1.101474e+003, 1.160361e+003
1.101956e+003, 1.160460e+003
1.102438e+003, 1.161061e+003
1.102920e+003, 1.163581e+003
1.103402e+003, 1.167582e+003
1.103884e+003, 1.170788e+003
1.104367e+003, 1.173321e+003
1.104849e+003, 1.173847e+003
1.105331e+003, 1.170423e+003
1.105813e+003, 1.167102e+003
1.106295e+003, 1.165012e+003
1.106777e+003, 1.164056e+003
1.107259e+003, 1.164816e+003
1.107741e+003, 1.166533e+003
1.108224e+003, 1.167039e+003
1.108706e+003, 1.165760e+003
1.109188e+003, 1.164892e+003
1.109670e+003, 1.165011e+003
1.110152e+003, 1.165028e+003
1.110634e+003, 1.164145e+003
1.111116e+003, 1.163641e+003
1.111598e+003, 1.165069e+003
1.112080e+003, 1.167193e+003
1.112563e+003, 1.167228e+003
1.113045e+003, 1.164698e+003
1.113527e+003, 1.164292e+003
1.114009e+003, 1.168509e+003
1.114491e+003, 1.170753e+003
1.114973e+003, 1.168681e+003
1.115455e+003, 1.166847e+003
1.115937e+003, 1.167783e+003
1.116419e+003, 1.169780e+003
1.116902e+003, 1.170561e+003
1.117384e+003, 1.170274e+003
1.117866e+003, 1.170715e+003
1.118348e+003, 1.172202e+003
1.118830e+003, 1.173730e+003
1.119312e+003, 1.175577e+003
1.119794e+003, 1.176807e+003
1.120276e+003, 1.176827e+003
1.120759e+003, 1.176505e+003
1.121241e+003, 1.176654e+003
1.121723e+003, 1.177112e+003
1.122205e+003, 1.177280e+003
1.122687e+003, 1.176986e+003
1.123169e+003, 1.177184e+003
1.123651e+003, 1.177984e+003
1.124133e+003, 1.178922e+003
1.124615e+003, 1.179953e+003
1.125098e+003, 1.180850e+003
1.125580e+003, 1.181358e+003
1.126062e+003, 1.181841e+003
1.126544e+003, 1.183112e+003
1.127026e+003, 1.185141e+003
1.127508e+003, 1.186580e+003
1.127990e+003, 1.187484e+003
1.128472e+003, 1.187074e+003
1.128954e+003, 1.184974e+003
1.129437e+003, 1.183474e+003
1.129919e+003, 1.183731e+003
1.130401e+003, 1.184907e+003
1.130883e+003, 1.186053e+003
1.131365e+003, 1.187155e+003
1.131847e+003, 1.188201e+003
1.132329e+003, 1.189185e+003
1.132811e+003, 1.190024e+003
1.133294e+003, 1.190704e+003
1.133776e+003, 1.190685e+003
1.134258e+003, 1.189781e+003
1.134740e+003, 1.189760e+003
1.135222e+003, 1.192365e+003
1.135704e+003, 1.195674e+003
1.136186e+003, 1.195112e+003
1.136668e+003, 1.192061e+003
1.137151e+003, 1.192584e+003
1.137633e+003, 1.195975e+003
1.138115e+003, 1.197993e+003
1.138597e+003, 1.197854e+003
1.139079e+003, 1.197051e+003
1.139561e+003, 1.196391e+003
1.140043e+003, 1.196060e+003
1.140525e+003, 1.196361e+003
1.141007e+003, 1.197080e+003
1.141490e+003, 1.198027e+003
1.141972e+003, 1.198976e+003
1.142454e+003, 1.199010e+003
1.142936e+003, 1.198529e+003
1.143418e+003, 1.199550e+003
1.143900e+003, 1.202537e+003
1.144382e+003, 1.204976e+003
1.144864e+003, 1.204843e+003
1.145346e+003, 1.203536e+003
1.145829e+003, 1.201742e+003
1.146311e+003, 1.200296e+003
1.146793e+003, 1.200580e+003
1.147275e+003, 1.201928e+003
1.147757e+003, 1.202909e+003
1.148239e+003, 1.203393e+003
1.148721e+003, 1.204277e+003
1.149203e+003, 1.206081e+003
1.149686e+003, 1.207817e+003
1.150168e+003, 1.209207e+003
1.150650e+003, 1.209911e+003
1.151132e+003, 1.208942e+003
1.151614e+003, 1.207734e+003
1.152096e+003, 1.208127e+003
1.152578e+003, 1.209614e+003
1.153060e+003, 1.210621e+003
1.153542e+003, 1.210785e+003
1.154025e+003, 1.210690e+003
1.154507e+003, 1.210144e+003
1.154989e+003, 1.209900e+003
1.155471e+003, 1.210249e+003
1.155953e+003, 1.210933e+003
1.156435e+003, 1.212049e+003
1.156917e+003, 1.213224e+003
1.157399e+003, 1.213998e+003
1.157881e+003, 1.214348e+003
1.158364e+003, 1.214422e+003
1.158846e+003, 1.213597e+003
1.159328e+003, 1.213713e+003
1.159810e+003, 1.215747e+003
1.160292e+003, 1.217582e+003
1.160774e+003, 1.218661e+003
1.161256e+003, 1.219271e+003
1.161738e+003, 1.219354e+003
1.162221e+003, 1.219280e+003
1.162703e+003, 1.220054e+003
1.163185e+003, 1.221882e+003
1.163667e+003, 1.222837e+003
1.164149e+003, 1.222583e+003
1.164631e+003, 1.222370e+003
1.165113e+003, 1.222166e+003
1.165595e+003, 1.222769e+003
1.166078e+003, 1.224909e+003
1.166560e+003, 1.227232e+003
1.167042e+003, 1.228051e+003
1.167524e+003, 1.227623e+003
1.168006e+003, 1.226941e+003
1.168488e+003, 1.225956e+003
1.168970e+003, 1.226138e+003
1.169452e+003, 1.227604e+003
1.169934e+003, 1.228611e+003
1.170417e+003, 1.228640e+003
1.170899e+003, 1.228686e+003
1.171381e+003, 1.229461e+003
1.171863e+003, 1.230748e+003
1.172345e+003, 1.232504e+003
1.172827e+003, 1.234401e+003
1.173309e+003, 1.235178e+003
1.173791e+003, 1.235035e+003
1.174273e+003, 1.234481e+003
1.174756e+003, 1.233776e+003
1.175238e+003, 1.233710e+003
1.175720e+003, 1.234561e+003
1.176202e+003, 1.235630e+003
1.176684e+003, 1.236403e+003
1.177166e+003, 1.236918e+003
1.177648e+003, 1.237152e+003
1.178130e+003, 1.237221e+003
1.178613e+003, 1.237391e+003
1.179095e+003, 1.237501e+003
1.179577e+003, 1.236843e+003
1.180059e+003, 1.235690e+003
1.180541e+003, 1.235781e+003
1.181023e+003, 1.238124e+003
1.181505e+003, 1.240112e+003
1.181987e+003, 1.239777e+003
1.182469e+003, 1.239028e+003
1.182952e+003, 1.238838e+003
1.183434e+003, 1.239117e+003
1.183916e+003, 1.239869e+003
1.184398e+003, 1.240933e+003
1.184880e+003, 1.242118e+003
1.185362e+003, 1.243378e+003
1.185844e+003, 1.244375e+003
1.186326e+003, 1.244724e+003
1.186808e+003, 1.245269e+003
1.187291e+003, 1.246342e+003
1.187773e+003, 1.247400e+003
1.188255e+003, 1.248385e+003
1.188737e+003, 1.249089e+003
1.189219e+003, 1.249150e+003
1.189701e+003, 1.248826e+003
1.190183e+003, 1.248987e+003
1.190665e+003, 1.249870e+003
1.191148e+003, 1.249894e+003
1.191630e+003, 1.248364e+003
1.192112e+003, 1.248029e+003
1.192594e+003, 1.249715e+003
1.193076e+003, 1.251604e+003
1.193558e+003, 1.252814e+003
1.194040e+003, 1.253629e+003
1.194522e+003, 1.254444e+003
1.195005e+003, 1.255122e+003
1.195487e+003, 1.254922e+003
1.195969e+003, 1.253893e+003
1.196451e+003, 1.253309e+003
1.196933e+003, 1.253223e+003
1.197415e+003, 1.253113e+003
1.197897e+003, 1.252876e+003
1.198379e+003, 1.253498e+003
1.198861e+003, 1.255700e+003
1.199344e+003, 1.257963e+003
1.199826e+003, 1.257694e+003
1.200308e+003, 1.256401e+003
1.200790e+003, 1.257612e+003
1.201272e+003, 1.260076e+003
1.201754e+003, 1.260830e+003
1.202236e+003, 1.260197e+003
1.202718e+003, 1.260369e+003
1.203200e+003, 1.261815e+003
1.203683e+003, 1.262744e+003
1.204165e+003, 1.261649e+003
1.204647e+003, 1.260958e+003
1.205129e+003, 1.263051e+003
1.205611e+003, 1.265743e+003
1.206093e+003, 1.267775e+003
1.206575e+003, 1.268842e+003
1.207057e+003, 1.268193e+003
1.207540e+003, 1.266464e+003
1.208022e+003, 1.265151e+003
1.208504e+003, 1.264513e+003
1.208986e+003, 1.264879e+003
1.209468e+003, 1.267758e+003
1.209950e+003, 1.269504e+003
1.210432e+003, 1.268197e+003
1.210914e+003, 1.266901e+003
1.211396e+003, 1.267237e+003
1.211879e+003, 1.268277e+003
1.212361e+003, 1.269048e+003
1.212843e+003, 1.269720e+003
1.213325e+003, 1.271123e+003
1.213807e+003, 1.273751e+003
1.214289e+003, 1.274526e+003
1.214771e+003, 1.272833e+003
1.215253e+003, 1.271764e+003
1.215735e+003, 1.271951e+003
1.216218e+003, 1.272772e+003
1.216700e+003, 1.273956e+003
1.217182e+003, 1.275317e+003
1.217664e+003, 1.276687e+003
1.218146e+003, 1.277971e+003
1.218628e+003, 1.278901e+003
1.219110e+003, 1.279494e+003
1.219592e+003, 1.279911e+003
1.220075e+003, 1.280101e+003
1.220557e+003, 1.279351e+003
1.221039e+003, 1.277809e+003
1.221521e+003, 1.277703e+003
1.222003e+003, 1.280345e+003
1.222485e+003, 1.282927e+003
1.222967e+003, 1.281816e+003
1.223449e+003, 1.279930e+003
1.223932e+003, 1.281026e+003
1.224414e+003, 1.283096e+003
1.224896e+003, 1.283455e+003
1.225378e+003, 1.282671e+003
1.225860e+003, 1.282387e+003
1.226342e+003, 1.282799e+003
1.226824e+003, 1.282921e+003
1.227306e+003, 1.282172e+003
1.227788e+003, 1.281806e+003
1.228271e+003, 1.282319e+003
1.228753e+003, 1.283200e+003
1.229235e+003, 1.284482e+003
1.229717e+003, 1.285791e+003
1.230199e+003, 1.286865e+003
1.230681e+003, 1.287738e+003
1.231163e+003, 1.288436e+003
1.231645e+003, 1.288964e+003
1.232127e+003, 1.289822e+003
1.232610e+003, 1.291252e+003
1.233092e+003, 1.292294e+003
1.233574e+003, 1.292977e+003
1.234056e+003, 1.292879e+003
1.234538e+003, 1.291669e+003
1.235020e+003, 1.290650e+003
1.235502e+003, 1.290855e+003
1.235984e+003, 1.291547e+003
1.236467e+003, 1.291517e+003
1.236949e+003, 1.290850e+003
1.237431e+003, 1.289248e+003
1.237913e+003, 1.287308e+003
1.238395e+003, 1.288321e+003
1.238877e+003, 1.291868e+003
1.239359e+003, 1.294386e+003
1.239841e+003, 1.294914e+003
1.240323e+003, 1.295227e+003
1.240806e+003, 1.296460e+003
1.241288e+003, 1.297821e+003
1.241770e+003, 1.298407e+003
1.242252e+003, 1.298894e+003
1.242734e+003, 1.300024e+003
1.243216e+003, 1.301391e+003
1.243698e+003, 1.302402e+003
1.244180e+003, 1.303242e+003
1.244662e+003, 1.304635e+003
1.245145e+003, 1.306597e+003
1.245627e+003, 1.307699e+003
1.246109e+003, 1.307219e+003
1.246591e+003, 1.306517e+003
1.247073e+003, 1.305492e+003
1.247555e+003, 1.304741e+003
1.248037e+003, 1.304354e+003
1.248519e+003, 1.304505e+003
1.249002e+003, 1.305775e+003
1.249484e+003, 1.307221e+003
1.249966e+003, 1.306972e+003
1.250448e+003, 1.305159e+003
1.250930e+003, 1.303964e+003
1.251412e+003, 1.303353e+003
1.251894e+003, 1.303770e+003
1.252376e+003, 1.305261e+003
1.252859e+003, 1.307597e+003
1.253341e+003, 1.310689e+003
1.253823e+003, 1.313736e+003
1.254305e+003, 1.316253e+003
1.254787e+003, 1.317773e+003
1.255269e+003, 1.316642e+003
1.255751e+003, 1.314851e+003
1.256233e+003, 1.317066e+003
1.256715e+003, 1.320840e+003
1.257198e+003, 1.321076e+003
1.257680e+003, 1.318974e+003
1.258162e+003, 1.318765e+003
1.258644e+003, 1.321008e+003
1.259126e+003, 1.322839e+003
1.259608e+003, 1.322798e+003
1.260090e+003, 1.323214e+003
1.260572e+003, 1.326135e+003
1.261054e+003, 1.328503e+003
1.261537e+003, 1.328820e+003
1.262019e+003, 1.328071e+003
1.262501e+003, 1.326151e+003
1.262983e+003, 1.324204e+003
1.263465e+003, 1.323932e+003
1.263947e+003, 1.325222e+003
1.264429e+003, 1.327240e+003
1.264911e+003, 1.330439e+003
1.265394e+003, 1.332794e+003
1.265876e+003, 1.334246e+003
1.266358e+003, 1.334977e+003
1.266840e+003, 1.334940e+003
1.267322e+003, 1.334643e+003
1.267804e+003, 1.334319e+003
1.268286e+003, 1.334189e+003
1.268768e+003, 1.334380e+003
1.269250e+003, 1.335230e+003
1.269733e+003, 1.338207e+003
1.270215e+003, 1.342157e+003
1.270697e+003, 1.344484e+003
1.271179e+003, 1.345185e+003
1.271661e+003, 1.343864e+003
1.272143e+003, 1.341393e+003
1.272625e+003, 1.341097e+003
1.273107e+003, 1.344217e+003
1.273589e+003, 1.347096e+003
1.274072e+003, 1.347253e+003
1.274554e+003, 1.347033e+003
1.275036e+003, 1.348091e+003
1.275518e+003, 1.348597e+003
1.276000e+003, 1.346484e+003
1.276482e+003, 1.343809e+003
1.276964e+003, 1.343045e+003
1.277446e+003, 1.343866e+003
1.277929e+003, 1.344274e+003
1.278411e+003, 1.344138e+003
1.278893e+003, 1.345134e+003
1.279375e+003, 1.347867e+003
1.279857e+003, 1.349436e+003
1.280339e+003, 1.349272e+003
1.280821e+003, 1.349593e+003
1.281303e+003, 1.351314e+003
1.281786e+003, 1.353708e+003
1.282268e+003, 1.356091e+003
##END=



