##NAMES=Monazite-(Ce)
##RRUFFID=R120081
##IDEAL CHEMISTRY=CePO_4_
##LOCALITY=Hinman mine, Jefferson County, Colorado, USA
##OWNER=RRUFF
##SOURCE=Rudy Bolona
##DESCRIPTION=Reddish-brown massive
##STATUS=The identification of this mineral has been confirmed only by single crystal X-ray diffraction.
##URL=rruff.info/R120081
9.112140e+001, 0.000000e+000
9.160352e+001, 2.356597e+003
9.208563e+001, 2.290932e+003
9.256775e+001, 2.282943e+003
9.304987e+001, 2.362266e+003
9.353198e+001, 2.461234e+003
9.401410e+001, 2.530881e+003
9.449622e+001, 2.571926e+003
9.497833e+001, 2.597474e+003
9.546045e+001, 2.618468e+003
9.594257e+001, 2.634828e+003
9.642468e+001, 2.647158e+003
9.690680e+001, 2.656665e+003
9.738892e+001, 2.665491e+003
9.787103e+001, 2.674653e+003
9.835315e+001, 2.680957e+003
9.883527e+001, 2.682543e+003
9.931738e+001, 2.685074e+003
9.979950e+001, 2.689572e+003
1.002816e+002, 2.695471e+003
1.007637e+002, 2.701308e+003
1.012458e+002, 2.708134e+003
1.017280e+002, 2.717157e+003
1.022101e+002, 2.728779e+003
1.026922e+002, 2.741578e+003
1.031743e+002, 2.752587e+003
1.036564e+002, 2.760974e+003
1.041385e+002, 2.772013e+003
1.046207e+002, 2.789465e+003
1.051028e+002, 2.811301e+003
1.055849e+002, 2.830718e+003
1.060670e+002, 2.843355e+003
1.065491e+002, 2.853543e+003
1.070313e+002, 2.865656e+003
1.075134e+002, 2.879717e+003
1.079955e+002, 2.896218e+003
1.084776e+002, 2.917000e+003
1.089597e+002, 2.943655e+003
1.094418e+002, 2.967103e+003
1.099240e+002, 2.982426e+003
1.104061e+002, 2.994825e+003
1.108882e+002, 3.007340e+003
1.113703e+002, 3.021038e+003
1.118524e+002, 3.036158e+003
1.123345e+002, 3.053644e+003
1.128167e+002, 3.076984e+003
1.132988e+002, 3.098066e+003
1.137809e+002, 3.113842e+003
1.142630e+002, 3.127141e+003
1.147451e+002, 3.141498e+003
1.152272e+002, 3.158914e+003
1.157094e+002, 3.179481e+003
1.161915e+002, 3.202577e+003
1.166736e+002, 3.233416e+003
1.171557e+002, 3.261437e+003
1.176378e+002, 3.280873e+003
1.181199e+002, 3.293547e+003
1.186021e+002, 3.306177e+003
1.190842e+002, 3.324425e+003
1.195663e+002, 3.348866e+003
1.200484e+002, 3.372065e+003
1.205305e+002, 3.392783e+003
1.210126e+002, 3.413074e+003
1.214948e+002, 3.434205e+003
1.219769e+002, 3.456218e+003
1.224590e+002, 3.479881e+003
1.229411e+002, 3.507317e+003
1.234232e+002, 3.537412e+003
1.239053e+002, 3.566476e+003
1.243875e+002, 3.593917e+003
1.248696e+002, 3.619417e+003
1.253517e+002, 3.641148e+003
1.258338e+002, 3.655829e+003
1.263159e+002, 3.671157e+003
1.267980e+002, 3.693310e+003
1.272802e+002, 3.721208e+003
1.277623e+002, 3.749380e+003
1.282444e+002, 3.772765e+003
1.287265e+002, 3.790554e+003
1.292086e+002, 3.811156e+003
1.296907e+002, 3.837572e+003
1.301729e+002, 3.865475e+003
1.306550e+002, 3.893809e+003
1.311371e+002, 3.922053e+003
1.316192e+002, 3.949384e+003
1.321013e+002, 3.974053e+003
1.325834e+002, 3.993181e+003
1.330656e+002, 4.016053e+003
1.335477e+002, 4.044356e+003
1.340298e+002, 4.074821e+003
1.345119e+002, 4.105079e+003
1.349940e+002, 4.134256e+003
1.354761e+002, 4.163145e+003
1.359583e+002, 4.193265e+003
1.364404e+002, 4.226021e+003
1.369225e+002, 4.258218e+003
1.374046e+002, 4.289365e+003
1.378867e+002, 4.320049e+003
1.383688e+002, 4.350604e+003
1.388510e+002, 4.381306e+003
1.393331e+002, 4.412196e+003
1.398152e+002, 4.442984e+003
1.402973e+002, 4.472045e+003
1.407794e+002, 4.503214e+003
1.412615e+002, 4.540435e+003
1.417437e+002, 4.582001e+003
1.422258e+002, 4.620718e+003
1.427079e+002, 4.650920e+003
1.431900e+002, 4.676376e+003
1.436721e+002, 4.705630e+003
1.441542e+002, 4.740288e+003
1.446364e+002, 4.777386e+003
1.451185e+002, 4.814437e+003
1.456006e+002, 4.851438e+003
1.460827e+002, 4.888289e+003
1.465648e+002, 4.924995e+003
1.470469e+002, 4.961699e+003
1.475291e+002, 4.998650e+003
1.480112e+002, 5.035948e+003
1.484933e+002, 5.073563e+003
1.489754e+002, 5.111563e+003
1.494575e+002, 5.151178e+003
1.499396e+002, 5.189333e+003
1.504218e+002, 5.222668e+003
1.509039e+002, 5.254905e+003
1.513860e+002, 5.291031e+003
1.518681e+002, 5.334613e+003
1.523502e+002, 5.384899e+003
1.528323e+002, 5.432772e+003
1.533145e+002, 5.477753e+003
1.537966e+002, 5.520435e+003
1.542787e+002, 5.559948e+003
1.547608e+002, 5.597328e+003
1.552429e+002, 5.634539e+003
1.557250e+002, 5.673250e+003
1.562072e+002, 5.713402e+003
1.566893e+002, 5.754493e+003
1.571714e+002, 5.796477e+003
1.576535e+002, 5.839303e+003
1.581356e+002, 5.883595e+003
1.586177e+002, 5.929013e+003
1.590999e+002, 5.974729e+003
1.595820e+002, 6.020044e+003
1.600641e+002, 6.065115e+003
1.605462e+002, 6.109005e+003
1.610283e+002, 6.150061e+003
1.615104e+002, 6.190897e+003
1.619926e+002, 6.233575e+003
1.624747e+002, 6.278279e+003
1.629568e+002, 6.323903e+003
1.634389e+002, 6.368985e+003
1.639210e+002, 6.413667e+003
1.644031e+002, 6.457888e+003
1.648853e+002, 6.501436e+003
1.653674e+002, 6.544597e+003
1.658495e+002, 6.586837e+003
1.663316e+002, 6.628039e+003
1.668137e+002, 6.669115e+003
1.672958e+002, 6.711663e+003
1.677780e+002, 6.755234e+003
1.682601e+002, 6.797555e+003
1.687422e+002, 6.836160e+003
1.692243e+002, 6.872304e+003
1.697064e+002, 6.910405e+003
1.701885e+002, 6.951776e+003
1.706707e+002, 6.994216e+003
1.711528e+002, 7.037339e+003
1.716349e+002, 7.080601e+003
1.721170e+002, 7.122291e+003
1.725991e+002, 7.161259e+003
1.730812e+002, 7.197495e+003
1.735634e+002, 7.231110e+003
1.740455e+002, 7.257683e+003
1.745276e+002, 7.285285e+003
1.750097e+002, 7.318331e+003
1.754918e+002, 7.356216e+003
1.759739e+002, 7.394665e+003
1.764561e+002, 7.428415e+003
1.769382e+002, 7.455897e+003
1.774203e+002, 7.484706e+003
1.779024e+002, 7.515521e+003
1.783845e+002, 7.546862e+003
1.788666e+002, 7.578563e+003
1.793488e+002, 7.610094e+003
1.798309e+002, 7.640566e+003
1.803130e+002, 7.668038e+003
1.807951e+002, 7.690026e+003
1.812772e+002, 7.714541e+003
1.817593e+002, 7.743072e+003
1.822415e+002, 7.772751e+003
1.827236e+002, 7.802501e+003
1.832057e+002, 7.831737e+003
1.836878e+002, 7.858582e+003
1.841699e+002, 7.879470e+003
1.846520e+002, 7.886991e+003
1.851342e+002, 7.904219e+003
1.856163e+002, 7.941392e+003
1.860984e+002, 7.984350e+003
1.865805e+002, 8.017821e+003
1.870626e+002, 8.037130e+003
1.875447e+002, 8.048392e+003
1.880269e+002, 8.060306e+003
1.885090e+002, 8.072029e+003
1.889911e+002, 8.087174e+003
1.894732e+002, 8.109965e+003
1.899553e+002, 8.136178e+003
1.904374e+002, 8.157485e+003
1.909196e+002, 8.170384e+003
1.914017e+002, 8.180439e+003
1.918838e+002, 8.196043e+003
1.923659e+002, 8.217126e+003
1.928480e+002, 8.239068e+003
1.933301e+002, 8.261901e+003
1.938123e+002, 8.284322e+003
1.942944e+002, 8.300742e+003
1.947765e+002, 8.305166e+003
1.952586e+002, 8.308623e+003
1.957407e+002, 8.324182e+003
1.962228e+002, 8.352029e+003
1.967050e+002, 8.379029e+003
1.971871e+002, 8.393291e+003
1.976692e+002, 8.395568e+003
1.981513e+002, 8.402952e+003
1.986334e+002, 8.422989e+003
1.991155e+002, 8.445942e+003
1.995977e+002, 8.465196e+003
2.000798e+002, 8.480471e+003
2.005619e+002, 8.495112e+003
2.010440e+002, 8.512100e+003
2.015261e+002, 8.531662e+003
2.020082e+002, 8.553092e+003
2.024904e+002, 8.578826e+003
2.029725e+002, 8.604861e+003
2.034546e+002, 8.628885e+003
2.039367e+002, 8.650824e+003
2.044188e+002, 8.672751e+003
2.049009e+002, 8.696676e+003
2.053831e+002, 8.722051e+003
2.058652e+002, 8.751293e+003
2.063473e+002, 8.789108e+003
2.068294e+002, 8.826917e+003
2.073115e+002, 8.860211e+003
2.077936e+002, 8.887939e+003
2.082758e+002, 8.911377e+003
2.087579e+002, 8.931149e+003
2.092400e+002, 8.942593e+003
2.097221e+002, 8.960954e+003
2.102042e+002, 8.987172e+003
2.106863e+002, 9.018100e+003
2.111685e+002, 9.053486e+003
2.116506e+002, 9.092491e+003
2.121327e+002, 9.132064e+003
2.126148e+002, 9.167949e+003
2.130969e+002, 9.197160e+003
2.135790e+002, 9.228104e+003
2.140612e+002, 9.260996e+003
2.145433e+002, 9.295189e+003
2.150254e+002, 9.330576e+003
2.155075e+002, 9.366862e+003
2.159896e+002, 9.404408e+003
2.164717e+002, 9.443550e+003
2.169539e+002, 9.485685e+003
2.174360e+002, 9.526487e+003
2.179181e+002, 9.566255e+003
2.184002e+002, 9.604553e+003
2.188823e+002, 9.640604e+003
2.193644e+002, 9.674096e+003
2.198466e+002, 9.707080e+003
2.203287e+002, 9.742429e+003
2.208108e+002, 9.780780e+003
2.212929e+002, 9.818884e+003
2.217750e+002, 9.858552e+003
2.222571e+002, 9.896934e+003
2.227393e+002, 9.929875e+003
2.232214e+002, 9.956084e+003
2.237035e+002, 9.979276e+003
2.241856e+002, 1.000436e+004
2.246677e+002, 1.003118e+004
2.251498e+002, 1.005445e+004
2.256320e+002, 1.006795e+004
2.261141e+002, 1.007822e+004
2.265962e+002, 1.009780e+004
2.270783e+002, 1.013152e+004
2.275604e+002, 1.016638e+004
2.280425e+002, 1.018710e+004
2.285247e+002, 1.019692e+004
2.290068e+002, 1.020940e+004
2.294889e+002, 1.023022e+004
2.299710e+002, 1.025714e+004
2.304531e+002, 1.028592e+004
2.309352e+002, 1.031701e+004
2.314174e+002, 1.034791e+004
2.318995e+002, 1.037523e+004
2.323816e+002, 1.040047e+004
2.328637e+002, 1.042793e+004
2.333458e+002, 1.046175e+004
2.338279e+002, 1.049960e+004
2.343101e+002, 1.053423e+004
2.347922e+002, 1.056349e+004
2.352743e+002, 1.059231e+004
2.357564e+002, 1.062229e+004
2.362385e+002, 1.065381e+004
2.367206e+002, 1.068819e+004
2.372028e+002, 1.072800e+004
2.376849e+002, 1.077122e+004
2.381670e+002, 1.081002e+004
2.386491e+002, 1.084402e+004
2.391312e+002, 1.087336e+004
2.396133e+002, 1.089606e+004
2.400955e+002, 1.091530e+004
2.405776e+002, 1.093639e+004
2.410597e+002, 1.096193e+004
2.415418e+002, 1.099191e+004
2.420239e+002, 1.102656e+004
2.425060e+002, 1.107287e+004
2.429882e+002, 1.111417e+004
2.434703e+002, 1.114279e+004
2.439524e+002, 1.116449e+004
2.444345e+002, 1.118729e+004
2.449166e+002, 1.121546e+004
2.453987e+002, 1.124867e+004
2.458809e+002, 1.128519e+004
2.463630e+002, 1.132866e+004
2.468451e+002, 1.137080e+004
2.473272e+002, 1.141264e+004
2.478093e+002, 1.145158e+004
2.482914e+002, 1.148375e+004
2.487736e+002, 1.150683e+004
2.492557e+002, 1.152264e+004
2.497378e+002, 1.153813e+004
2.502199e+002, 1.155036e+004
2.507020e+002, 1.156635e+004
2.511841e+002, 1.159229e+004
2.516663e+002, 1.162063e+004
2.521484e+002, 1.164113e+004
2.526305e+002, 1.164881e+004
2.531126e+002, 1.164842e+004
2.535947e+002, 1.165515e+004
2.540768e+002, 1.167533e+004
2.545590e+002, 1.169577e+004
2.550411e+002, 1.171585e+004
2.555232e+002, 1.173572e+004
2.560053e+002, 1.175530e+004
2.564874e+002, 1.177452e+004
2.569695e+002, 1.179433e+004
2.574517e+002, 1.181694e+004
2.579338e+002, 1.184359e+004
2.584159e+002, 1.187214e+004
2.588980e+002, 1.190493e+004
2.593801e+002, 1.193859e+004
2.598622e+002, 1.197059e+004
2.603444e+002, 1.199994e+004
2.608265e+002, 1.202590e+004
2.613086e+002, 1.204675e+004
2.617907e+002, 1.205623e+004
2.622728e+002, 1.207055e+004
2.627549e+002, 1.209516e+004
2.632371e+002, 1.212215e+004
2.637192e+002, 1.214201e+004
2.642013e+002, 1.215250e+004
2.646834e+002, 1.216082e+004
2.651655e+002, 1.217785e+004
2.656476e+002, 1.220791e+004
2.661298e+002, 1.223719e+004
2.666119e+002, 1.226720e+004
2.670940e+002, 1.229555e+004
2.675761e+002, 1.231933e+004
2.680582e+002, 1.233822e+004
2.685403e+002, 1.235481e+004
2.690225e+002, 1.237219e+004
2.695046e+002, 1.239092e+004
2.699867e+002, 1.240770e+004
2.704688e+002, 1.241496e+004
2.709509e+002, 1.242496e+004
2.714330e+002, 1.245177e+004
2.719152e+002, 1.249615e+004
2.723973e+002, 1.254248e+004
2.728794e+002, 1.257510e+004
2.733615e+002, 1.259275e+004
2.738436e+002, 1.261482e+004
2.743257e+002, 1.264524e+004
2.748079e+002, 1.267772e+004
2.752900e+002, 1.270566e+004
2.757721e+002, 1.272927e+004
2.762542e+002, 1.275528e+004
2.767363e+002, 1.278923e+004
2.772184e+002, 1.283070e+004
2.777006e+002, 1.287258e+004
2.781827e+002, 1.291624e+004
2.786648e+002, 1.295885e+004
2.791469e+002, 1.299636e+004
2.796290e+002, 1.302953e+004
2.801111e+002, 1.306513e+004
2.805933e+002, 1.310692e+004
2.810754e+002, 1.315478e+004
2.815575e+002, 1.320648e+004
2.820396e+002, 1.326928e+004
2.825217e+002, 1.332713e+004
2.830038e+002, 1.336759e+004
2.834860e+002, 1.339336e+004
2.839681e+002, 1.341841e+004
2.844502e+002, 1.344753e+004
2.849323e+002, 1.348131e+004
2.854144e+002, 1.351964e+004
2.858965e+002, 1.356261e+004
2.863787e+002, 1.360941e+004
2.868608e+002, 1.366131e+004
2.873429e+002, 1.371701e+004
2.878250e+002, 1.377243e+004
2.883071e+002, 1.382592e+004
2.887892e+002, 1.387897e+004
2.892714e+002, 1.393467e+004
2.897535e+002, 1.399349e+004
2.902356e+002, 1.404983e+004
2.907177e+002, 1.410656e+004
2.911998e+002, 1.415908e+004
2.916819e+002, 1.419335e+004
2.921641e+002, 1.420090e+004
2.926462e+002, 1.419978e+004
2.931283e+002, 1.420616e+004
2.936104e+002, 1.421951e+004
2.940925e+002, 1.424414e+004
2.945746e+002, 1.428812e+004
2.950568e+002, 1.434347e+004
2.955389e+002, 1.439478e+004
2.960210e+002, 1.444020e+004
2.965031e+002, 1.448178e+004
2.969852e+002, 1.451962e+004
2.974673e+002, 1.455494e+004
2.979495e+002, 1.459127e+004
2.984316e+002, 1.463096e+004
2.989137e+002, 1.467172e+004
2.993958e+002, 1.471011e+004
2.998779e+002, 1.474588e+004
3.003600e+002, 1.478005e+004
3.008422e+002, 1.480978e+004
3.013243e+002, 1.483882e+004
3.018064e+002, 1.487369e+004
3.022885e+002, 1.491771e+004
3.027706e+002, 1.496679e+004
3.032527e+002, 1.501682e+004
3.037349e+002, 1.506798e+004
3.042170e+002, 1.512050e+004
3.046991e+002, 1.517550e+004
3.051812e+002, 1.523155e+004
3.056633e+002, 1.528717e+004
3.061454e+002, 1.534293e+004
3.066276e+002, 1.539600e+004
3.071097e+002, 1.544265e+004
3.075918e+002, 1.548318e+004
3.080739e+002, 1.552397e+004
3.085560e+002, 1.556597e+004
3.090381e+002, 1.560980e+004
3.095203e+002, 1.565478e+004
3.100024e+002, 1.570083e+004
3.104845e+002, 1.575075e+004
3.109666e+002, 1.581086e+004
3.114487e+002, 1.587795e+004
3.119308e+002, 1.593409e+004
3.124130e+002, 1.596877e+004
3.128951e+002, 1.600123e+004
3.133772e+002, 1.605059e+004
3.138593e+002, 1.611445e+004
3.143414e+002, 1.617642e+004
3.148235e+002, 1.622601e+004
3.153057e+002, 1.626784e+004
3.157878e+002, 1.631607e+004
3.162699e+002, 1.637537e+004
3.167520e+002, 1.643198e+004
3.172341e+002, 1.647386e+004
3.177162e+002, 1.650540e+004
3.181984e+002, 1.653538e+004
3.186805e+002, 1.656491e+004
3.191626e+002, 1.659555e+004
3.196447e+002, 1.662981e+004
3.201268e+002, 1.666804e+004
3.206089e+002, 1.670863e+004
3.210911e+002, 1.675462e+004
3.215732e+002, 1.680167e+004
3.220553e+002, 1.684275e+004
3.225374e+002, 1.687440e+004
3.230195e+002, 1.690354e+004
3.235016e+002, 1.693781e+004
3.239838e+002, 1.697746e+004
3.244659e+002, 1.701478e+004
3.249480e+002, 1.704364e+004
3.254301e+002, 1.707085e+004
3.259122e+002, 1.710493e+004
3.263943e+002, 1.714777e+004
3.268765e+002, 1.719137e+004
3.273586e+002, 1.723304e+004
3.278407e+002, 1.727182e+004
3.283228e+002, 1.730053e+004
3.288049e+002, 1.731341e+004
3.292870e+002, 1.732101e+004
3.297692e+002, 1.733519e+004
3.302513e+002, 1.735520e+004
3.307334e+002, 1.737270e+004
3.312155e+002, 1.737786e+004
3.316976e+002, 1.737807e+004
3.321797e+002, 1.739277e+004
3.326619e+002, 1.742820e+004
3.331440e+002, 1.746625e+004
3.336261e+002, 1.749186e+004
3.341082e+002, 1.750866e+004
3.345903e+002, 1.752437e+004
3.350724e+002, 1.753815e+004
3.355546e+002, 1.755345e+004
3.360367e+002, 1.757730e+004
3.365188e+002, 1.761076e+004
3.370009e+002, 1.764096e+004
3.374830e+002, 1.766143e+004
3.379651e+002, 1.767295e+004
3.384473e+002, 1.767633e+004
3.389294e+002, 1.766649e+004
3.394115e+002, 1.765671e+004
3.398936e+002, 1.766140e+004
3.403757e+002, 1.767802e+004
3.408578e+002, 1.768588e+004
3.413400e+002, 1.767157e+004
3.418221e+002, 1.765077e+004
3.423042e+002, 1.764850e+004
3.427863e+002, 1.766767e+004
3.432684e+002, 1.768733e+004
3.437505e+002, 1.769599e+004
3.442327e+002, 1.769759e+004
3.447148e+002, 1.770195e+004
3.451969e+002, 1.771169e+004
3.456790e+002, 1.772293e+004
3.461611e+002, 1.773076e+004
3.466432e+002, 1.773575e+004
3.471254e+002, 1.774168e+004
3.476075e+002, 1.775497e+004
3.480896e+002, 1.776704e+004
3.485717e+002, 1.776495e+004
3.490538e+002, 1.774717e+004
3.495359e+002, 1.772680e+004
3.500181e+002, 1.771178e+004
3.505002e+002, 1.770229e+004
3.509823e+002, 1.769700e+004
3.514644e+002, 1.770111e+004
3.519465e+002, 1.770498e+004
3.524286e+002, 1.770057e+004
3.529108e+002, 1.768960e+004
3.533929e+002, 1.768031e+004
3.538750e+002, 1.767686e+004
3.543571e+002, 1.767751e+004
3.548392e+002, 1.767721e+004
3.553214e+002, 1.767307e+004
3.558035e+002, 1.767409e+004
3.562856e+002, 1.769085e+004
3.567677e+002, 1.771361e+004
3.572498e+002, 1.772376e+004
3.577319e+002, 1.771516e+004
3.582141e+002, 1.769763e+004
3.586962e+002, 1.768266e+004
3.591783e+002, 1.766959e+004
3.596604e+002, 1.766325e+004
3.601425e+002, 1.767013e+004
3.606246e+002, 1.768037e+004
3.611068e+002, 1.768556e+004
3.615889e+002, 1.768478e+004
3.620710e+002, 1.768018e+004
3.625531e+002, 1.767366e+004
3.630352e+002, 1.766493e+004
3.635173e+002, 1.765196e+004
3.639995e+002, 1.762862e+004
3.644816e+002, 1.760744e+004
3.649637e+002, 1.759433e+004
3.654458e+002, 1.758820e+004
3.659279e+002, 1.758562e+004
3.664100e+002, 1.758476e+004
3.668922e+002, 1.758626e+004
3.673743e+002, 1.759259e+004
3.678564e+002, 1.760376e+004
3.683385e+002, 1.761912e+004
3.688206e+002, 1.764519e+004
3.693027e+002, 1.767259e+004
3.697849e+002, 1.769136e+004
3.702670e+002, 1.769848e+004
3.707491e+002, 1.769500e+004
3.712312e+002, 1.768104e+004
3.717133e+002, 1.765094e+004
3.721954e+002, 1.762767e+004
3.726776e+002, 1.761408e+004
3.731597e+002, 1.760440e+004
3.736418e+002, 1.759674e+004
3.741239e+002, 1.759003e+004
3.746060e+002, 1.758190e+004
3.750881e+002, 1.756959e+004
3.755703e+002, 1.755354e+004
3.760524e+002, 1.754627e+004
3.765345e+002, 1.755897e+004
3.770166e+002, 1.756761e+004
3.774987e+002, 1.756409e+004
3.779808e+002, 1.755389e+004
3.784630e+002, 1.754471e+004
3.789451e+002, 1.754006e+004
3.794272e+002, 1.753925e+004
3.799093e+002, 1.754103e+004
3.803914e+002, 1.754924e+004
3.808735e+002, 1.755347e+004
3.813557e+002, 1.754774e+004
3.818378e+002, 1.754216e+004
3.823199e+002, 1.754613e+004
3.828020e+002, 1.755975e+004
3.832841e+002, 1.757419e+004
3.837662e+002, 1.757849e+004
3.842484e+002, 1.757028e+004
3.847305e+002, 1.756825e+004
3.852126e+002, 1.758043e+004
3.856947e+002, 1.759111e+004
3.861768e+002, 1.759259e+004
3.866589e+002, 1.758883e+004
3.871411e+002, 1.758906e+004
3.876232e+002, 1.759990e+004
3.881053e+002, 1.761700e+004
3.885874e+002, 1.762523e+004
3.890695e+002, 1.762445e+004
3.895516e+002, 1.761398e+004
3.900338e+002, 1.758244e+004
3.905159e+002, 1.754868e+004
3.909980e+002, 1.753164e+004
3.914801e+002, 1.753646e+004
3.919622e+002, 1.755027e+004
3.924443e+002, 1.755483e+004
3.929265e+002, 1.754784e+004
3.934086e+002, 1.755520e+004
3.938907e+002, 1.759919e+004
3.943728e+002, 1.764036e+004
3.948549e+002, 1.765554e+004
3.953370e+002, 1.764772e+004
3.958192e+002, 1.763208e+004
3.963013e+002, 1.761654e+004
3.967834e+002, 1.760060e+004
3.972655e+002, 1.758263e+004
3.977476e+002, 1.756236e+004
3.982297e+002, 1.754088e+004
3.987119e+002, 1.751332e+004
3.991940e+002, 1.748640e+004
3.996761e+002, 1.747105e+004
4.001582e+002, 1.747394e+004
4.006403e+002, 1.748015e+004
4.011224e+002, 1.747302e+004
4.016046e+002, 1.745333e+004
4.020867e+002, 1.743658e+004
4.025688e+002, 1.742858e+004
4.030509e+002, 1.742411e+004
4.035330e+002, 1.741530e+004
4.040151e+002, 1.740190e+004
4.044973e+002, 1.739304e+004
4.049794e+002, 1.740108e+004
4.054615e+002, 1.741392e+004
4.059436e+002, 1.740860e+004
4.064257e+002, 1.738119e+004
4.069078e+002, 1.734683e+004
4.073900e+002, 1.731648e+004
4.078721e+002, 1.728959e+004
4.083542e+002, 1.726196e+004
4.088363e+002, 1.723097e+004
4.093184e+002, 1.720149e+004
4.098005e+002, 1.717785e+004
4.102827e+002, 1.715880e+004
4.107648e+002, 1.714050e+004
4.112469e+002, 1.712166e+004
4.117290e+002, 1.710189e+004
4.122111e+002, 1.707943e+004
4.126932e+002, 1.705122e+004
4.131754e+002, 1.702813e+004
4.136575e+002, 1.701890e+004
4.141396e+002, 1.701196e+004
4.146217e+002, 1.699316e+004
4.151038e+002, 1.696085e+004
4.155859e+002, 1.692643e+004
4.160681e+002, 1.690217e+004
4.165502e+002, 1.688980e+004
4.170323e+002, 1.686715e+004
4.175144e+002, 1.682398e+004
4.179965e+002, 1.678286e+004
4.184786e+002, 1.675220e+004
4.189608e+002, 1.673043e+004
4.194429e+002, 1.671397e+004
4.199250e+002, 1.670123e+004
4.204071e+002, 1.669073e+004
4.208892e+002, 1.667823e+004
4.213713e+002, 1.666247e+004
4.218535e+002, 1.664674e+004
4.223356e+002, 1.663467e+004
4.228177e+002, 1.662030e+004
4.232998e+002, 1.659810e+004
4.237819e+002, 1.656797e+004
4.242640e+002, 1.653473e+004
4.247462e+002, 1.650247e+004
4.252283e+002, 1.647080e+004
4.257104e+002, 1.644398e+004
4.261925e+002, 1.642421e+004
4.266746e+002, 1.640742e+004
4.271567e+002, 1.639632e+004
4.276389e+002, 1.638649e+004
4.281210e+002, 1.636966e+004
4.286031e+002, 1.634039e+004
4.290852e+002, 1.630813e+004
4.295673e+002, 1.629554e+004
4.300494e+002, 1.631087e+004
4.305316e+002, 1.631620e+004
4.310137e+002, 1.629355e+004
4.314958e+002, 1.626400e+004
4.319779e+002, 1.624003e+004
4.324600e+002, 1.622262e+004
4.329421e+002, 1.620633e+004
4.334243e+002, 1.618687e+004
4.339064e+002, 1.616511e+004
4.343885e+002, 1.614492e+004
4.348706e+002, 1.612696e+004
4.353527e+002, 1.610925e+004
4.358348e+002, 1.608874e+004
4.363170e+002, 1.606779e+004
4.367991e+002, 1.605139e+004
4.372812e+002, 1.604594e+004
4.377633e+002, 1.603807e+004
4.382454e+002, 1.600985e+004
4.387275e+002, 1.596485e+004
4.392097e+002, 1.593017e+004
4.396918e+002, 1.591840e+004
4.401739e+002, 1.591629e+004
4.406560e+002, 1.590364e+004
4.411381e+002, 1.587979e+004
4.416202e+002, 1.585729e+004
4.421024e+002, 1.584027e+004
4.425845e+002, 1.582610e+004
4.430666e+002, 1.581443e+004
4.435487e+002, 1.580450e+004
4.440308e+002, 1.578859e+004
4.445129e+002, 1.575836e+004
4.449951e+002, 1.571647e+004
4.454772e+002, 1.568700e+004
4.459593e+002, 1.567905e+004
4.464414e+002, 1.567120e+004
4.469235e+002, 1.566012e+004
4.474056e+002, 1.564419e+004
4.478878e+002, 1.561817e+004
4.483699e+002, 1.558063e+004
4.488520e+002, 1.554172e+004
4.493341e+002, 1.551756e+004
4.498162e+002, 1.551554e+004
4.502983e+002, 1.550800e+004
4.507805e+002, 1.549375e+004
4.512626e+002, 1.547605e+004
4.517447e+002, 1.545404e+004
4.522268e+002, 1.542985e+004
4.527089e+002, 1.540883e+004
4.531910e+002, 1.539556e+004
4.536732e+002, 1.538640e+004
4.541553e+002, 1.536458e+004
4.546374e+002, 1.531551e+004
4.551195e+002, 1.527887e+004
4.556016e+002, 1.527303e+004
4.560837e+002, 1.527283e+004
4.565659e+002, 1.525441e+004
4.570480e+002, 1.521449e+004
4.575301e+002, 1.517229e+004
4.580122e+002, 1.514989e+004
4.584943e+002, 1.514671e+004
4.589764e+002, 1.513699e+004
4.594586e+002, 1.511829e+004
4.599407e+002, 1.509510e+004
4.604228e+002, 1.506819e+004
4.609049e+002, 1.503933e+004
4.613870e+002, 1.501181e+004
4.618691e+002, 1.498733e+004
4.623513e+002, 1.496375e+004
4.628334e+002, 1.493877e+004
4.633155e+002, 1.491244e+004
4.637976e+002, 1.488563e+004
4.642797e+002, 1.485859e+004
4.647618e+002, 1.483123e+004
4.652440e+002, 1.480227e+004
4.657261e+002, 1.477150e+004
4.662082e+002, 1.474446e+004
4.666903e+002, 1.472575e+004
4.671724e+002, 1.471024e+004
4.676545e+002, 1.469069e+004
4.681367e+002, 1.466697e+004
4.686188e+002, 1.464593e+004
4.691009e+002, 1.463444e+004
4.695830e+002, 1.462888e+004
4.700651e+002, 1.461047e+004
4.705472e+002, 1.456504e+004
4.710294e+002, 1.452656e+004
4.715115e+002, 1.450764e+004
4.719936e+002, 1.449873e+004
4.724757e+002, 1.448722e+004
4.729578e+002, 1.447010e+004
4.734399e+002, 1.445414e+004
4.739221e+002, 1.444976e+004
4.744042e+002, 1.446279e+004
4.748863e+002, 1.445240e+004
4.753684e+002, 1.440164e+004
4.758505e+002, 1.434819e+004
4.763326e+002, 1.430325e+004
4.768148e+002, 1.426577e+004
4.772969e+002, 1.423250e+004
4.777790e+002, 1.420221e+004
4.782611e+002, 1.417402e+004
4.787432e+002, 1.414558e+004
4.792253e+002, 1.411413e+004
4.797075e+002, 1.409085e+004
4.801896e+002, 1.408906e+004
4.806717e+002, 1.408596e+004
4.811538e+002, 1.406659e+004
4.816359e+002, 1.403336e+004
4.821180e+002, 1.400028e+004
4.826002e+002, 1.397755e+004
4.830823e+002, 1.396171e+004
4.835644e+002, 1.394312e+004
4.840465e+002, 1.392221e+004
4.845286e+002, 1.389712e+004
4.850107e+002, 1.386329e+004
4.854929e+002, 1.382667e+004
4.859750e+002, 1.379322e+004
4.864571e+002, 1.376336e+004
4.869392e+002, 1.373884e+004
4.874213e+002, 1.372582e+004
4.879034e+002, 1.371817e+004
4.883856e+002, 1.370060e+004
4.888677e+002, 1.366938e+004
4.893498e+002, 1.363765e+004
4.898319e+002, 1.361784e+004
4.903140e+002, 1.360888e+004
4.907961e+002, 1.359438e+004
4.912783e+002, 1.356878e+004
4.917604e+002, 1.354348e+004
4.922425e+002, 1.352505e+004
4.927246e+002, 1.351027e+004
4.932067e+002, 1.349263e+004
4.936888e+002, 1.346993e+004
4.941710e+002, 1.344491e+004
4.946531e+002, 1.342188e+004
4.951352e+002, 1.340095e+004
4.956173e+002, 1.338214e+004
4.960994e+002, 1.336802e+004
4.965815e+002, 1.335322e+004
4.970637e+002, 1.333592e+004
4.975458e+002, 1.331586e+004
4.980279e+002, 1.329283e+004
4.985100e+002, 1.326644e+004
4.989921e+002, 1.323804e+004
4.994742e+002, 1.321071e+004
4.999564e+002, 1.318536e+004
5.004385e+002, 1.315874e+004
5.009206e+002, 1.312276e+004
5.014027e+002, 1.309110e+004
5.018848e+002, 1.307591e+004
5.023669e+002, 1.307495e+004
5.028491e+002, 1.307395e+004
5.033312e+002, 1.306382e+004
5.038133e+002, 1.304645e+004
5.042954e+002, 1.302727e+004
5.047775e+002, 1.300711e+004
5.052596e+002, 1.298125e+004
5.057418e+002, 1.294106e+004
5.062239e+002, 1.289772e+004
5.067060e+002, 1.286764e+004
5.071881e+002, 1.285428e+004
5.076702e+002, 1.284363e+004
5.081523e+002, 1.282700e+004
5.086345e+002, 1.280912e+004
5.091166e+002, 1.280173e+004
5.095987e+002, 1.280660e+004
5.100808e+002, 1.280530e+004
5.105629e+002, 1.278046e+004
5.110450e+002, 1.273458e+004
5.115272e+002, 1.269804e+004
5.120093e+002, 1.267744e+004
5.124914e+002, 1.265673e+004
5.129735e+002, 1.262953e+004
5.134556e+002, 1.260009e+004
5.139377e+002, 1.257254e+004
5.144199e+002, 1.254867e+004
5.149020e+002, 1.253062e+004
5.153841e+002, 1.252392e+004
5.158662e+002, 1.253287e+004
5.163483e+002, 1.252398e+004
5.168304e+002, 1.247901e+004
5.173126e+002, 1.243512e+004
5.177947e+002, 1.240062e+004
5.182768e+002, 1.237444e+004
5.187589e+002, 1.235629e+004
5.192410e+002, 1.234656e+004
5.197231e+002, 1.233706e+004
5.202053e+002, 1.231270e+004
5.206874e+002, 1.227183e+004
5.211695e+002, 1.224096e+004
5.216516e+002, 1.222848e+004
5.221337e+002, 1.222062e+004
5.226158e+002, 1.221074e+004
5.230980e+002, 1.219782e+004
5.235801e+002, 1.217850e+004
5.240622e+002, 1.214773e+004
5.245443e+002, 1.211397e+004
5.250264e+002, 1.208547e+004
5.255085e+002, 1.206175e+004
5.259907e+002, 1.204217e+004
5.264728e+002, 1.202789e+004
5.269549e+002, 1.201447e+004
5.274370e+002, 1.199498e+004
5.279191e+002, 1.196855e+004
5.284012e+002, 1.194161e+004
5.288834e+002, 1.191321e+004
5.293655e+002, 1.188590e+004
5.298476e+002, 1.186137e+004
5.303297e+002, 1.183938e+004
5.308118e+002, 1.181971e+004
5.312939e+002, 1.180235e+004
5.317761e+002, 1.178599e+004
5.322582e+002, 1.176713e+004
5.327403e+002, 1.174319e+004
5.332224e+002, 1.172124e+004
5.337045e+002, 1.170178e+004
5.341866e+002, 1.168356e+004
5.346688e+002, 1.166757e+004
5.351509e+002, 1.165217e+004
5.356330e+002, 1.163301e+004
5.361151e+002, 1.160629e+004
5.365972e+002, 1.157516e+004
5.370793e+002, 1.154837e+004
5.375615e+002, 1.152756e+004
5.380436e+002, 1.150512e+004
5.385257e+002, 1.147774e+004
5.390078e+002, 1.144911e+004
5.394899e+002, 1.142325e+004
5.399720e+002, 1.140008e+004
5.404542e+002, 1.137520e+004
5.409363e+002, 1.134537e+004
5.414184e+002, 1.131333e+004
5.419005e+002, 1.128276e+004
5.423826e+002, 1.125379e+004
5.428647e+002, 1.122544e+004
5.433469e+002, 1.119654e+004
5.438290e+002, 1.116834e+004
5.443111e+002, 1.114440e+004
5.447932e+002, 1.112649e+004
5.452753e+002, 1.110797e+004
5.457574e+002, 1.108777e+004
5.462396e+002, 1.106642e+004
5.467217e+002, 1.104526e+004
5.472038e+002, 1.102358e+004
5.476859e+002, 1.099839e+004
5.481680e+002, 1.096690e+004
5.486501e+002, 1.093128e+004
5.491323e+002, 1.090135e+004
5.496144e+002, 1.088024e+004
5.500965e+002, 1.085986e+004
5.505786e+002, 1.083851e+004
5.510607e+002, 1.081795e+004
5.515428e+002, 1.080086e+004
5.520250e+002, 1.078648e+004
5.525071e+002, 1.077037e+004
5.529892e+002, 1.074834e+004
5.534713e+002, 1.072249e+004
5.539534e+002, 1.069912e+004
5.544355e+002, 1.067903e+004
5.549177e+002, 1.065736e+004
5.553998e+002, 1.063151e+004
5.558819e+002, 1.060330e+004
5.563640e+002, 1.057488e+004
5.568461e+002, 1.054612e+004
5.573282e+002, 1.051831e+004
5.578104e+002, 1.049057e+004
5.582925e+002, 1.046465e+004
5.587746e+002, 1.044440e+004
5.592567e+002, 1.042897e+004
5.597388e+002, 1.041261e+004
5.602209e+002, 1.039206e+004
5.607031e+002, 1.036754e+004
5.611852e+002, 1.033971e+004
5.616673e+002, 1.030494e+004
5.621494e+002, 1.027147e+004
5.626315e+002, 1.023649e+004
5.631136e+002, 1.020516e+004
5.635958e+002, 1.018328e+004
5.640779e+002, 1.016892e+004
5.645600e+002, 1.015571e+004
5.650421e+002, 1.013976e+004
5.655242e+002, 1.012040e+004
5.660063e+002, 1.009403e+004
5.664885e+002, 1.005735e+004
5.669706e+002, 1.002365e+004
5.674527e+002, 9.998306e+003
5.679348e+002, 9.975522e+003
5.684169e+002, 9.952148e+003
5.688990e+002, 9.928005e+003
5.693812e+002, 9.902860e+003
5.698633e+002, 9.875510e+003
5.703454e+002, 9.847944e+003
5.708275e+002, 9.824404e+003
5.713096e+002, 9.804518e+003
5.717917e+002, 9.781254e+003
5.722739e+002, 9.749852e+003
5.727560e+002, 9.716002e+003
5.732381e+002, 9.690664e+003
5.737202e+002, 9.676625e+003
5.742023e+002, 9.659281e+003
5.746844e+002, 9.634511e+003
5.751666e+002, 9.608379e+003
5.756487e+002, 9.583396e+003
5.761308e+002, 9.560564e+003
5.766129e+002, 9.542357e+003
5.770950e+002, 9.530250e+003
5.775771e+002, 9.520129e+003
5.780593e+002, 9.502553e+003
5.785414e+002, 9.475021e+003
5.790235e+002, 9.446696e+003
5.795056e+002, 9.415223e+003
5.799877e+002, 9.385503e+003
5.804698e+002, 9.360880e+003
5.809520e+002, 9.339730e+003
5.814341e+002, 9.317797e+003
5.819162e+002, 9.292740e+003
5.823983e+002, 9.266961e+003
5.828804e+002, 9.244158e+003
5.833625e+002, 9.223947e+003
5.838447e+002, 9.202765e+003
5.843268e+002, 9.178986e+003
5.848089e+002, 9.156030e+003
5.852910e+002, 9.139604e+003
5.857731e+002, 9.128716e+003
5.862552e+002, 9.112529e+003
5.867374e+002, 9.086896e+003
5.872195e+002, 9.059189e+003
5.877016e+002, 9.030379e+003
5.881837e+002, 9.002961e+003
5.886658e+002, 8.981753e+003
5.891479e+002, 8.967999e+003
5.896301e+002, 8.957774e+003
5.901122e+002, 8.946680e+003
5.905943e+002, 8.934947e+003
5.910764e+002, 8.919842e+003
5.915585e+002, 8.899009e+003
5.920406e+002, 8.877195e+003
5.925228e+002, 8.854616e+003
5.930049e+002, 8.832007e+003
5.934870e+002, 8.809271e+003
5.939691e+002, 8.786419e+003
5.944512e+002, 8.766961e+003
5.949333e+002, 8.757534e+003
5.954155e+002, 8.754809e+003
5.958976e+002, 8.742951e+003
5.963797e+002, 8.719063e+003
5.968618e+002, 8.695529e+003
5.973439e+002, 8.681714e+003
5.978260e+002, 8.672396e+003
5.983082e+002, 8.654551e+003
5.987903e+002, 8.624286e+003
5.992724e+002, 8.595482e+003
5.997545e+002, 8.572459e+003
6.002366e+002, 8.553210e+003
6.007188e+002, 8.537643e+003
6.012009e+002, 8.524479e+003
6.016830e+002, 8.509012e+003
6.021651e+002, 8.487678e+003
6.026472e+002, 8.462284e+003
6.031293e+002, 8.439372e+003
6.036115e+002, 8.418417e+003
6.040936e+002, 8.401078e+003
6.045757e+002, 8.390504e+003
6.050578e+002, 8.380502e+003
6.055399e+002, 8.369835e+003
6.060220e+002, 8.356618e+003
6.065042e+002, 8.335935e+003
6.069863e+002, 8.302304e+003
6.074684e+002, 8.264102e+003
6.079505e+002, 8.233627e+003
6.084326e+002, 8.210820e+003
6.089147e+002, 8.195258e+003
6.093969e+002, 8.189548e+003
6.098790e+002, 8.186153e+003
6.103611e+002, 8.178417e+003
6.108432e+002, 8.166335e+003
6.113253e+002, 8.147936e+003
6.118074e+002, 8.117080e+003
6.122896e+002, 8.086045e+003
6.127717e+002, 8.061751e+003
6.132538e+002, 8.041518e+003
6.137359e+002, 8.020665e+003
6.142180e+002, 7.997725e+003
6.147001e+002, 7.974055e+003
6.151823e+002, 7.950824e+003
6.156644e+002, 7.927916e+003
6.161465e+002, 7.907526e+003
6.166286e+002, 7.892069e+003
6.171107e+002, 7.875912e+003
6.175928e+002, 7.857206e+003
6.180750e+002, 7.837456e+003
6.185571e+002, 7.817734e+003
6.190392e+002, 7.798392e+003
6.195213e+002, 7.780562e+003
6.200034e+002, 7.766457e+003
6.204855e+002, 7.754216e+003
6.209677e+002, 7.739310e+003
6.214498e+002, 7.721538e+003
6.219319e+002, 7.703705e+003
6.224140e+002, 7.688314e+003
6.228961e+002, 7.672587e+003
6.233782e+002, 7.648677e+003
6.238604e+002, 7.611604e+003
6.243425e+002, 7.583174e+003
6.248246e+002, 7.573895e+003
6.253067e+002, 7.567033e+003
6.257888e+002, 7.550452e+003
6.262709e+002, 7.526901e+003
6.267531e+002, 7.504417e+003
6.272352e+002, 7.487000e+003
6.277173e+002, 7.473758e+003
6.281994e+002, 7.464532e+003
6.286815e+002, 7.460772e+003
6.291636e+002, 7.452794e+003
6.296458e+002, 7.440631e+003
6.301279e+002, 7.423089e+003
6.306100e+002, 7.395565e+003
6.310921e+002, 7.363757e+003
6.315742e+002, 7.338101e+003
6.320563e+002, 7.322081e+003
6.325385e+002, 7.309795e+003
6.330206e+002, 7.297052e+003
6.335027e+002, 7.285062e+003
6.339848e+002, 7.278057e+003
6.344669e+002, 7.276432e+003
6.349490e+002, 7.271688e+003
6.354312e+002, 7.257185e+003
6.359133e+002, 7.234833e+003
6.363954e+002, 7.213358e+003
6.368775e+002, 7.190192e+003
6.373596e+002, 7.171840e+003
6.378417e+002, 7.162427e+003
6.383239e+002, 7.154807e+003
6.388060e+002, 7.144315e+003
6.392881e+002, 7.130938e+003
6.397702e+002, 7.116841e+003
6.402523e+002, 7.103413e+003
6.407344e+002, 7.089733e+003
6.412166e+002, 7.072765e+003
6.416987e+002, 7.052069e+003
6.421808e+002, 7.037327e+003
6.426629e+002, 7.034162e+003
6.431450e+002, 7.031182e+003
6.436271e+002, 7.016229e+003
6.441093e+002, 6.992462e+003
6.445914e+002, 6.971333e+003
6.450735e+002, 6.954268e+003
6.455556e+002, 6.940423e+003
6.460377e+002, 6.933136e+003
6.465198e+002, 6.927319e+003
6.470020e+002, 6.913899e+003
6.474841e+002, 6.892249e+003
6.479662e+002, 6.871278e+003
6.484483e+002, 6.859197e+003
6.489304e+002, 6.854755e+003
6.494125e+002, 6.848752e+003
6.498947e+002, 6.841904e+003
6.503768e+002, 6.832091e+003
6.508589e+002, 6.816112e+003
6.513410e+002, 6.799482e+003
6.518231e+002, 6.787444e+003
6.523052e+002, 6.778892e+003
6.527874e+002, 6.767036e+003
6.532695e+002, 6.746341e+003
6.537516e+002, 6.722660e+003
6.542337e+002, 6.702560e+003
6.547158e+002, 6.685763e+003
6.551979e+002, 6.670770e+003
6.556801e+002, 6.656981e+003
6.561622e+002, 6.646370e+003
6.566443e+002, 6.643065e+003
6.571264e+002, 6.648092e+003
6.576085e+002, 6.640382e+003
6.580906e+002, 6.607330e+003
6.585728e+002, 6.579216e+003
6.590549e+002, 6.565156e+003
6.595370e+002, 6.558243e+003
6.600191e+002, 6.554044e+003
6.605012e+002, 6.549930e+003
6.609833e+002, 6.540128e+003
6.614655e+002, 6.518094e+003
6.619476e+002, 6.487784e+003
6.624297e+002, 6.460726e+003
6.629118e+002, 6.436500e+003
6.633939e+002, 6.419935e+003
6.638760e+002, 6.416703e+003
6.643582e+002, 6.416905e+003
6.648403e+002, 6.408242e+003
6.653224e+002, 6.391494e+003
6.658045e+002, 6.375431e+003
6.662866e+002, 6.360181e+003
6.667687e+002, 6.347257e+003
6.672509e+002, 6.339463e+003
6.677330e+002, 6.333992e+003
6.682151e+002, 6.326621e+003
6.686972e+002, 6.316116e+003
6.691793e+002, 6.303340e+003
6.696614e+002, 6.288864e+003
6.701436e+002, 6.272761e+003
6.706257e+002, 6.255890e+003
6.711078e+002, 6.236642e+003
6.715899e+002, 6.219850e+003
6.720720e+002, 6.208537e+003
6.725541e+002, 6.198884e+003
6.730363e+002, 6.188382e+003
6.735184e+002, 6.176775e+003
6.740005e+002, 6.163811e+003
6.744826e+002, 6.147151e+003
6.749647e+002, 6.130689e+003
6.754468e+002, 6.119417e+003
6.759290e+002, 6.111571e+003
6.764111e+002, 6.101056e+003
6.768932e+002, 6.085918e+003
6.773753e+002, 6.070989e+003
6.778574e+002, 6.062675e+003
6.783395e+002, 6.061431e+003
6.788217e+002, 6.055260e+003
6.793038e+002, 6.038688e+003
6.797859e+002, 6.024117e+003
6.802680e+002, 6.014901e+003
6.807501e+002, 6.007840e+003
6.812322e+002, 6.001405e+003
6.817144e+002, 5.994695e+003
6.821965e+002, 5.984762e+003
6.826786e+002, 5.966885e+003
6.831607e+002, 5.946671e+003
6.836428e+002, 5.935073e+003
6.841249e+002, 5.930845e+003
6.846071e+002, 5.922922e+003
6.850892e+002, 5.906957e+003
6.855713e+002, 5.889751e+003
6.860534e+002, 5.879455e+003
6.865355e+002, 5.876669e+003
6.870176e+002, 5.870419e+003
6.874998e+002, 5.859327e+003
6.879819e+002, 5.846827e+003
6.884640e+002, 5.832087e+003
6.889461e+002, 5.817412e+003
6.894282e+002, 5.804835e+003
6.899103e+002, 5.794711e+003
6.903925e+002, 5.786378e+003
6.908746e+002, 5.779835e+003
6.913567e+002, 5.774359e+003
6.918388e+002, 5.768591e+003
6.923209e+002, 5.762608e+003
6.928030e+002, 5.755079e+003
6.932852e+002, 5.745414e+003
6.937673e+002, 5.734625e+003
6.942494e+002, 5.723811e+003
6.947315e+002, 5.712858e+003
6.952136e+002, 5.700534e+003
6.956957e+002, 5.684976e+003
6.961779e+002, 5.670193e+003
6.966600e+002, 5.656304e+003
6.971421e+002, 5.644631e+003
6.976242e+002, 5.636505e+003
6.981063e+002, 5.632161e+003
6.985884e+002, 5.631601e+003
6.990706e+002, 5.635561e+003
6.995527e+002, 5.641998e+003
7.000348e+002, 5.645755e+003
7.005169e+002, 5.647116e+003
7.009990e+002, 5.643486e+003
7.014811e+002, 5.633147e+003
7.019633e+002, 5.619337e+003
7.024454e+002, 5.603427e+003
7.029275e+002, 5.586113e+003
7.034096e+002, 5.569300e+003
7.038917e+002, 5.551108e+003
7.043738e+002, 5.536380e+003
7.048560e+002, 5.528276e+003
7.053381e+002, 5.523931e+003
7.058202e+002, 5.520975e+003
7.063023e+002, 5.518396e+003
7.067844e+002, 5.514172e+003
7.072665e+002, 5.506611e+003
7.077487e+002, 5.497559e+003
7.082308e+002, 5.492680e+003
7.087129e+002, 5.493120e+003
7.091950e+002, 5.492460e+003
7.096771e+002, 5.490459e+003
7.101592e+002, 5.486521e+003
7.106414e+002, 5.481173e+003
7.111235e+002, 5.473644e+003
7.116056e+002, 5.461237e+003
7.120877e+002, 5.440180e+003
7.125698e+002, 5.422179e+003
7.130519e+002, 5.415056e+003
7.135341e+002, 5.412959e+003
7.140162e+002, 5.409961e+003
7.144983e+002, 5.405291e+003
7.149804e+002, 5.399507e+003
7.154625e+002, 5.392874e+003
7.159446e+002, 5.385481e+003
7.164268e+002, 5.377131e+003
7.169089e+002, 5.367181e+003
7.173910e+002, 5.359407e+003
7.178731e+002, 5.357821e+003
7.183552e+002, 5.352814e+003
7.188373e+002, 5.335828e+003
7.193195e+002, 5.314466e+003
7.198016e+002, 5.299753e+003
7.202837e+002, 5.293792e+003
7.207658e+002, 5.290942e+003
7.212479e+002, 5.290666e+003
7.217300e+002, 5.290611e+003
7.222122e+002, 5.289149e+003
7.226943e+002, 5.285648e+003
7.231764e+002, 5.277723e+003
7.236585e+002, 5.264247e+003
7.241406e+002, 5.249748e+003
7.246227e+002, 5.241461e+003
7.251049e+002, 5.240022e+003
7.255870e+002, 5.238423e+003
7.260691e+002, 5.237389e+003
7.265512e+002, 5.234970e+003
7.270333e+002, 5.231169e+003
7.275154e+002, 5.225297e+003
7.279976e+002, 5.214968e+003
7.284797e+002, 5.200256e+003
7.289618e+002, 5.188896e+003
7.294439e+002, 5.184421e+003
7.299260e+002, 5.184475e+003
7.304081e+002, 5.190865e+003
7.308903e+002, 5.199636e+003
7.313724e+002, 5.200685e+003
7.318545e+002, 5.191405e+003
7.323366e+002, 5.179396e+003
7.328187e+002, 5.173047e+003
7.333008e+002, 5.171550e+003
7.337830e+002, 5.164342e+003
7.342651e+002, 5.147918e+003
7.347472e+002, 5.133403e+003
7.352293e+002, 5.124567e+003
7.357114e+002, 5.117455e+003
7.361935e+002, 5.108157e+003
7.366757e+002, 5.097862e+003
7.371578e+002, 5.092224e+003
7.376399e+002, 5.097587e+003
7.381220e+002, 5.102079e+003
7.386041e+002, 5.097390e+003
7.390862e+002, 5.086799e+003
7.395684e+002, 5.073349e+003
7.400505e+002, 5.058751e+003
7.405326e+002, 5.048532e+003
7.410147e+002, 5.047426e+003
7.414968e+002, 5.051519e+003
7.419789e+002, 5.048742e+003
7.424611e+002, 5.037597e+003
7.429432e+002, 5.024624e+003
7.434253e+002, 5.005644e+003
7.439074e+002, 4.991126e+003
7.443895e+002, 4.989780e+003
7.448716e+002, 4.995968e+003
7.453538e+002, 4.999839e+003
7.458359e+002, 5.000375e+003
7.463180e+002, 4.996937e+003
7.468001e+002, 4.986779e+003
7.472822e+002, 4.974342e+003
7.477643e+002, 4.963198e+003
7.482465e+002, 4.953956e+003
7.487286e+002, 4.947707e+003
7.492107e+002, 4.944990e+003
7.496928e+002, 4.941925e+003
7.501749e+002, 4.931771e+003
7.506570e+002, 4.914042e+003
7.511392e+002, 4.898984e+003
7.516213e+002, 4.886592e+003
7.521034e+002, 4.876862e+003
7.525855e+002, 4.872485e+003
7.530676e+002, 4.868900e+003
7.535497e+002, 4.859606e+003
7.540319e+002, 4.844298e+003
7.545140e+002, 4.831727e+003
7.549961e+002, 4.825601e+003
7.554782e+002, 4.821051e+003
7.559603e+002, 4.817277e+003
7.564424e+002, 4.812309e+003
7.569246e+002, 4.802675e+003
7.574067e+002, 4.788067e+003
7.578888e+002, 4.771774e+003
7.583709e+002, 4.755897e+003
7.588530e+002, 4.741047e+003
7.593351e+002, 4.730047e+003
7.598173e+002, 4.723564e+003
7.602994e+002, 4.715504e+003
7.607815e+002, 4.704176e+003
7.612636e+002, 4.691929e+003
7.617457e+002, 4.681188e+003
7.622278e+002, 4.671356e+003
7.627100e+002, 4.659382e+003
7.631921e+002, 4.643309e+003
7.636742e+002, 4.628165e+003
7.641563e+002, 4.615085e+003
7.646384e+002, 4.603524e+003
7.651205e+002, 4.592216e+003
7.656027e+002, 4.582048e+003
7.660848e+002, 4.576190e+003
7.665669e+002, 4.576334e+003
7.670490e+002, 4.577336e+003
7.675311e+002, 4.573949e+003
7.680132e+002, 4.565782e+003
7.684954e+002, 4.548946e+003
7.689775e+002, 4.522079e+003
7.694596e+002, 4.495858e+003
7.699417e+002, 4.475142e+003
7.704238e+002, 4.458125e+003
7.709059e+002, 4.441712e+003
7.713881e+002, 4.425686e+003
7.718702e+002, 4.411456e+003
7.723523e+002, 4.400362e+003
7.728344e+002, 4.389297e+003
7.733165e+002, 4.378133e+003
7.737986e+002, 4.365931e+003
7.742808e+002, 4.350709e+003
7.747629e+002, 4.332872e+003
7.752450e+002, 4.316140e+003
7.757271e+002, 4.303982e+003
7.762092e+002, 4.293476e+003
7.766913e+002, 4.279594e+003
7.771735e+002, 4.263462e+003
7.776556e+002, 4.250611e+003
7.781377e+002, 4.242402e+003
7.786198e+002, 4.233804e+003
7.791019e+002, 4.220429e+003
7.795840e+002, 4.203154e+003
7.800662e+002, 4.186507e+003
7.805483e+002, 4.170233e+003
7.810304e+002, 4.155052e+003
7.815125e+002, 4.144451e+003
7.819946e+002, 4.131504e+003
7.824767e+002, 4.110119e+003
7.829589e+002, 4.084548e+003
7.834410e+002, 4.063493e+003
7.839231e+002, 4.049817e+003
7.844052e+002, 4.036422e+003
7.848873e+002, 4.017969e+003
7.853694e+002, 3.998155e+003
7.858516e+002, 3.981698e+003
7.863337e+002, 3.968184e+003
7.868158e+002, 3.955133e+003
7.872979e+002, 3.941553e+003
7.877800e+002, 3.928157e+003
7.882621e+002, 3.916519e+003
7.887443e+002, 3.906497e+003
7.892264e+002, 3.889930e+003
7.897085e+002, 3.862501e+003
7.901906e+002, 3.840722e+003
7.906727e+002, 3.832219e+003
7.911548e+002, 3.828409e+003
7.916370e+002, 3.820878e+003
7.921191e+002, 3.810153e+003
7.926012e+002, 3.800124e+003
7.930833e+002, 3.792707e+003
7.935654e+002, 3.784305e+003
7.940475e+002, 3.774560e+003
7.945297e+002, 3.762513e+003
7.950118e+002, 3.747332e+003
7.954939e+002, 3.728825e+003
7.959760e+002, 3.706096e+003
7.964581e+002, 3.678015e+003
7.969402e+002, 3.649521e+003
7.974224e+002, 3.628705e+003
7.979045e+002, 3.614447e+003
7.983866e+002, 3.600192e+003
7.988687e+002, 3.585572e+003
7.993508e+002, 3.569657e+003
7.998329e+002, 3.551386e+003
8.003151e+002, 3.532477e+003
8.007972e+002, 3.516633e+003
8.012793e+002, 3.505064e+003
8.017614e+002, 3.491604e+003
8.022435e+002, 3.475164e+003
8.027256e+002, 3.458347e+003
8.032078e+002, 3.440146e+003
8.036899e+002, 3.423117e+003
8.041720e+002, 3.410480e+003
8.046541e+002, 3.402038e+003
8.051362e+002, 3.393839e+003
8.056183e+002, 3.385279e+003
8.061005e+002, 3.374387e+003
8.065826e+002, 3.357581e+003
8.070647e+002, 3.337267e+003
8.075468e+002, 3.318773e+003
8.080289e+002, 3.302930e+003
8.085110e+002, 3.288046e+003
8.089932e+002, 3.272809e+003
8.094753e+002, 3.257933e+003
8.099574e+002, 3.245315e+003
8.104395e+002, 3.235342e+003
8.109216e+002, 3.225898e+003
8.114037e+002, 3.218577e+003
8.118859e+002, 3.209012e+003
8.123680e+002, 3.193387e+003
8.128501e+002, 3.174918e+003
8.133322e+002, 3.157736e+003
8.138143e+002, 3.141900e+003
8.142964e+002, 3.128420e+003
8.147786e+002, 3.120174e+003
8.152607e+002, 3.111440e+003
8.157428e+002, 3.097521e+003
8.162249e+002, 3.081693e+003
8.167070e+002, 3.069596e+003
8.171891e+002, 3.061620e+003
8.176713e+002, 3.052642e+003
8.181534e+002, 3.038250e+003
8.186355e+002, 3.021325e+003
8.191176e+002, 3.006975e+003
8.195997e+002, 2.995114e+003
8.200818e+002, 2.985787e+003
8.205640e+002, 2.979341e+003
8.210461e+002, 2.972261e+003
8.215282e+002, 2.961991e+003
8.220103e+002, 2.949324e+003
8.224924e+002, 2.936934e+003
8.229745e+002, 2.926097e+003
8.234567e+002, 2.912425e+003
8.239388e+002, 2.891471e+003
8.244209e+002, 2.872740e+003
8.249030e+002, 2.862503e+003
8.253851e+002, 2.854851e+003
8.258672e+002, 2.840387e+003
8.263494e+002, 2.818025e+003
8.268315e+002, 2.800774e+003
8.273136e+002, 2.799710e+003
8.277957e+002, 2.801520e+003
8.282778e+002, 2.796343e+003
8.287599e+002, 2.785506e+003
8.292421e+002, 2.769687e+003
8.297242e+002, 2.750391e+003
8.302063e+002, 2.734131e+003
8.306884e+002, 2.726273e+003
8.311705e+002, 2.723470e+003
8.316526e+002, 2.717713e+003
8.321348e+002, 2.708978e+003
8.326169e+002, 2.698499e+003
8.330990e+002, 2.686018e+003
8.335811e+002, 2.672691e+003
8.340632e+002, 2.657451e+003
8.345453e+002, 2.643028e+003
8.350275e+002, 2.636240e+003
8.355096e+002, 2.641833e+003
8.359917e+002, 2.640774e+003
8.364738e+002, 2.628262e+003
8.369559e+002, 2.614583e+003
8.374380e+002, 2.602606e+003
8.379202e+002, 2.591990e+003
8.384023e+002, 2.581931e+003
8.388844e+002, 2.572453e+003
8.393665e+002, 2.564442e+003
8.398486e+002, 2.560229e+003
8.403307e+002, 2.555343e+003
8.408129e+002, 2.544092e+003
8.412950e+002, 2.529249e+003
8.417771e+002, 2.516032e+003
8.422592e+002, 2.505293e+003
8.427413e+002, 2.496141e+003
8.432234e+002, 2.488232e+003
8.437056e+002, 2.480823e+003
8.441877e+002, 2.471928e+003
8.446698e+002, 2.461257e+003
8.451519e+002, 2.453786e+003
8.456340e+002, 2.451518e+003
8.461161e+002, 2.447093e+003
8.465983e+002, 2.436148e+003
8.470804e+002, 2.422597e+003
8.475625e+002, 2.411786e+003
8.480446e+002, 2.403817e+003
8.485267e+002, 2.396036e+003
8.490089e+002, 2.387421e+003
8.494910e+002, 2.380157e+003
8.499731e+002, 2.376239e+003
8.504552e+002, 2.372829e+003
8.509373e+002, 2.367759e+003
8.514194e+002, 2.360839e+003
8.519016e+002, 2.352498e+003
8.523837e+002, 2.342723e+003
8.528658e+002, 2.332144e+003
8.533479e+002, 2.320368e+003
8.538300e+002, 2.308536e+003
8.543121e+002, 2.298322e+003
8.547943e+002, 2.290009e+003
8.552764e+002, 2.284646e+003
8.557585e+002, 2.282762e+003
8.562406e+002, 2.281452e+003
8.567227e+002, 2.276734e+003
8.572048e+002, 2.268919e+003
8.576870e+002, 2.262007e+003
8.581691e+002, 2.256625e+003
8.586512e+002, 2.249432e+003
8.591333e+002, 2.238017e+003
8.596154e+002, 2.227072e+003
8.600975e+002, 2.221282e+003
8.605797e+002, 2.219684e+003
8.610618e+002, 2.216600e+003
8.615439e+002, 2.212505e+003
8.620260e+002, 2.206219e+003
8.625081e+002, 2.195165e+003
8.629902e+002, 2.184346e+003
8.634724e+002, 2.178197e+003
8.639545e+002, 2.173769e+003
8.644366e+002, 2.165227e+003
8.649187e+002, 2.151254e+003
8.654008e+002, 2.138280e+003
8.658829e+002, 2.130281e+003
8.663651e+002, 2.125669e+003
8.668472e+002, 2.124342e+003
8.673293e+002, 2.124542e+003
8.678114e+002, 2.122272e+003
8.682935e+002, 2.116683e+003
8.687756e+002, 2.108920e+003
8.692578e+002, 2.099684e+003
8.697399e+002, 2.089479e+003
8.702220e+002, 2.078948e+003
8.707041e+002, 2.067941e+003
8.711862e+002, 2.060722e+003
8.716683e+002, 2.058827e+003
8.721505e+002, 2.056206e+003
8.726326e+002, 2.048911e+003
8.731147e+002, 2.040130e+003
8.735968e+002, 2.035693e+003
8.740789e+002, 2.037037e+003
8.745610e+002, 2.034937e+003
8.750432e+002, 2.027807e+003
8.755253e+002, 2.019531e+003
8.760074e+002, 2.010151e+003
8.764895e+002, 2.000650e+003
8.769716e+002, 1.991559e+003
8.774537e+002, 1.983003e+003
8.779359e+002, 1.974939e+003
8.784180e+002, 1.967054e+003
8.789001e+002, 1.960336e+003
8.793822e+002, 1.956684e+003
8.798643e+002, 1.953557e+003
8.803464e+002, 1.947647e+003
8.808286e+002, 1.939691e+003
8.813107e+002, 1.932016e+003
8.817928e+002, 1.925558e+003
8.822749e+002, 1.920391e+003
8.827570e+002, 1.917445e+003
8.832391e+002, 1.915505e+003
8.837213e+002, 1.910039e+003
8.842034e+002, 1.901334e+003
8.846855e+002, 1.894509e+003
8.851676e+002, 1.891001e+003
8.856497e+002, 1.887845e+003
8.861318e+002, 1.882870e+003
8.866140e+002, 1.876246e+003
8.870961e+002, 1.868177e+003
8.875782e+002, 1.856539e+003
8.880603e+002, 1.848998e+003
8.885424e+002, 1.848384e+003
8.890245e+002, 1.848027e+003
8.895067e+002, 1.845228e+003
8.899888e+002, 1.841273e+003
8.904709e+002, 1.837637e+003
8.909530e+002, 1.834358e+003
8.914351e+002, 1.830623e+003
8.919172e+002, 1.825256e+003
8.923994e+002, 1.820626e+003
8.928815e+002, 1.818171e+003
8.933636e+002, 1.816538e+003
8.938457e+002, 1.815218e+003
8.943278e+002, 1.813450e+003
8.948099e+002, 1.809424e+003
8.952921e+002, 1.802135e+003
8.957742e+002, 1.794476e+003
8.962563e+002, 1.788957e+003
8.967384e+002, 1.785031e+003
8.972205e+002, 1.782363e+003
8.977026e+002, 1.780557e+003
8.981848e+002, 1.778400e+003
8.986669e+002, 1.775497e+003
8.991490e+002, 1.772077e+003
8.996311e+002, 1.768301e+003
9.001132e+002, 1.764226e+003
9.005953e+002, 1.760115e+003
9.010775e+002, 1.755985e+003
9.015596e+002, 1.751659e+003
9.020417e+002, 1.747101e+003
9.025238e+002, 1.742223e+003
9.030059e+002, 1.736235e+003
9.034880e+002, 1.730658e+003
9.039702e+002, 1.729111e+003
9.044523e+002, 1.733448e+003
9.049344e+002, 1.734306e+003
9.054165e+002, 1.727462e+003
9.058986e+002, 1.722584e+003
9.063807e+002, 1.723202e+003
9.068629e+002, 1.725502e+003
9.073450e+002, 1.726898e+003
9.078271e+002, 1.727043e+003
9.083092e+002, 1.725603e+003
9.087913e+002, 1.722221e+003
9.092734e+002, 1.717794e+003
9.097556e+002, 1.711770e+003
9.102377e+002, 1.705681e+003
9.107198e+002, 1.700643e+003
9.112019e+002, 1.696686e+003
9.116840e+002, 1.693844e+003
9.121661e+002, 1.692041e+003
9.126483e+002, 1.690470e+003
9.131304e+002, 1.688423e+003
9.136125e+002, 1.686239e+003
9.140946e+002, 1.684893e+003
9.145767e+002, 1.683878e+003
9.150588e+002, 1.680624e+003
9.155410e+002, 1.675127e+003
9.160231e+002, 1.672424e+003
9.165052e+002, 1.676099e+003
9.169873e+002, 1.682017e+003
9.174694e+002, 1.681663e+003
9.179515e+002, 1.674750e+003
9.184337e+002, 1.668983e+003
9.189158e+002, 1.664109e+003
9.193979e+002, 1.661964e+003
9.198800e+002, 1.664192e+003
9.203621e+002, 1.667410e+003
9.208442e+002, 1.668141e+003
9.213264e+002, 1.666568e+003
9.218085e+002, 1.664647e+003
9.222906e+002, 1.662574e+003
9.227727e+002, 1.659810e+003
9.232548e+002, 1.654782e+003
9.237369e+002, 1.650785e+003
9.242191e+002, 1.649809e+003
9.247012e+002, 1.650670e+003
9.251833e+002, 1.652285e+003
9.256654e+002, 1.654660e+003
9.261475e+002, 1.654379e+003
9.266296e+002, 1.646292e+003
9.271118e+002, 1.640172e+003
9.275939e+002, 1.644461e+003
9.280760e+002, 1.650831e+003
9.285581e+002, 1.648494e+003
9.290402e+002, 1.639344e+003
9.295223e+002, 1.633493e+003
9.300045e+002, 1.635685e+003
9.304866e+002, 1.639995e+003
9.309687e+002, 1.641137e+003
9.314508e+002, 1.640875e+003
9.319329e+002, 1.642197e+003
9.324150e+002, 1.644568e+003
9.328972e+002, 1.646305e+003
9.333793e+002, 1.646784e+003
9.338614e+002, 1.645004e+003
9.343435e+002, 1.639514e+003
9.348256e+002, 1.632494e+003
9.353077e+002, 1.629624e+003
9.357899e+002, 1.630632e+003
9.362720e+002, 1.631730e+003
9.367541e+002, 1.632592e+003
9.372362e+002, 1.632380e+003
9.377183e+002, 1.630310e+003
9.382004e+002, 1.628187e+003
9.386826e+002, 1.629094e+003
9.391647e+002, 1.633156e+003
9.396468e+002, 1.634256e+003
9.401289e+002, 1.630668e+003
9.406110e+002, 1.628300e+003
9.410931e+002, 1.628380e+003
9.415753e+002, 1.629859e+003
9.420574e+002, 1.634197e+003
9.425395e+002, 1.638984e+003
9.430216e+002, 1.636935e+003
9.435037e+002, 1.624023e+003
9.439858e+002, 1.616611e+003
9.444680e+002, 1.619024e+003
9.449501e+002, 1.623468e+003
9.454322e+002, 1.628826e+003
9.459143e+002, 1.633528e+003
9.463964e+002, 1.635780e+003
9.468785e+002, 1.635912e+003
9.473607e+002, 1.636065e+003
9.478428e+002, 1.637247e+003
9.483249e+002, 1.637920e+003
9.488070e+002, 1.635642e+003
9.492891e+002, 1.633841e+003
9.497712e+002, 1.636967e+003
9.502534e+002, 1.642745e+003
9.507355e+002, 1.646519e+003
9.512176e+002, 1.647020e+003
9.516997e+002, 1.645633e+003
9.521818e+002, 1.641976e+003
9.526639e+002, 1.638818e+003
9.531461e+002, 1.641129e+003
9.536282e+002, 1.646594e+003
9.541103e+002, 1.649664e+003
9.545924e+002, 1.650005e+003
9.550745e+002, 1.650284e+003
9.555566e+002, 1.651828e+003
9.560388e+002, 1.653952e+003
9.565209e+002, 1.655698e+003
9.570030e+002, 1.657229e+003
9.574851e+002, 1.658896e+003
9.579672e+002, 1.660735e+003
9.584493e+002, 1.665692e+003
9.589315e+002, 1.674990e+003
9.594136e+002, 1.683200e+003
9.598957e+002, 1.686247e+003
9.603778e+002, 1.685629e+003
9.608599e+002, 1.684792e+003
9.613420e+002, 1.683193e+003
9.618242e+002, 1.684299e+003
9.623063e+002, 1.688970e+003
9.627884e+002, 1.694356e+003
9.632705e+002, 1.700549e+003
9.637526e+002, 1.705729e+003
9.642347e+002, 1.707619e+003
9.647169e+002, 1.706697e+003
9.651990e+002, 1.706524e+003
9.656811e+002, 1.704083e+003
9.661632e+002, 1.707144e+003
9.666453e+002, 1.720918e+003
9.671274e+002, 1.734224e+003
9.676096e+002, 1.742835e+003
9.680917e+002, 1.748130e+003
9.685738e+002, 1.751729e+003
9.690559e+002, 1.753830e+003
9.695380e+002, 1.754653e+003
9.700201e+002, 1.752714e+003
9.705023e+002, 1.751573e+003
9.709844e+002, 1.753531e+003
9.714665e+002, 1.755842e+003
9.719486e+002, 1.756244e+003
9.724307e+002, 1.755271e+003
9.729128e+002, 1.754402e+003
9.733950e+002, 1.754021e+003
9.738771e+002, 1.753343e+003
9.743592e+002, 1.752508e+003
9.748413e+002, 1.750556e+003
9.753234e+002, 1.746068e+003
9.758055e+002, 1.740240e+003
9.762877e+002, 1.733883e+003
9.767698e+002, 1.727912e+003
9.772519e+002, 1.724704e+003
9.777340e+002, 1.725439e+003
9.782161e+002, 1.727271e+003
9.786982e+002, 1.727444e+003
9.791804e+002, 1.726440e+003
9.796625e+002, 1.724521e+003
9.801446e+002, 1.722240e+003
9.806267e+002, 1.721813e+003
9.811088e+002, 1.723443e+003
9.815909e+002, 1.724437e+003
9.820731e+002, 1.722847e+003
9.825552e+002, 1.720148e+003
9.830373e+002, 1.719115e+003
9.835194e+002, 1.719478e+003
9.840015e+002, 1.719345e+003
9.844836e+002, 1.718655e+003
9.849658e+002, 1.717082e+003
9.854479e+002, 1.714313e+003
9.859300e+002, 1.712631e+003
9.864121e+002, 1.714262e+003
9.868942e+002, 1.718469e+003
9.873763e+002, 1.722897e+003
9.878585e+002, 1.727830e+003
9.883406e+002, 1.730904e+003
9.888227e+002, 1.731390e+003
9.893048e+002, 1.732291e+003
9.897869e+002, 1.735481e+003
9.902690e+002, 1.738306e+003
9.907512e+002, 1.737030e+003
9.912333e+002, 1.732163e+003
9.917154e+002, 1.730341e+003
9.921975e+002, 1.733130e+003
9.926796e+002, 1.735607e+003
9.931617e+002, 1.736412e+003
9.936439e+002, 1.738302e+003
9.941260e+002, 1.743830e+003
9.946081e+002, 1.750499e+003
9.950902e+002, 1.754641e+003
9.955723e+002, 1.756175e+003
9.960544e+002, 1.757819e+003
9.965366e+002, 1.759528e+003
9.970187e+002, 1.761589e+003
9.975008e+002, 1.764255e+003
9.979829e+002, 1.767085e+003
9.984650e+002, 1.768818e+003
9.989471e+002, 1.770954e+003
9.994293e+002, 1.777217e+003
9.999114e+002, 1.788454e+003
1.000393e+003, 1.795553e+003
1.000876e+003, 1.793085e+003
1.001358e+003, 1.789674e+003
1.001840e+003, 1.786664e+003
1.002322e+003, 1.786152e+003
1.002804e+003, 1.791597e+003
1.003286e+003, 1.800613e+003
1.003768e+003, 1.807486e+003
1.004250e+003, 1.810491e+003
1.004733e+003, 1.814119e+003
1.005215e+003, 1.822379e+003
1.005697e+003, 1.830405e+003
1.006179e+003, 1.834098e+003
1.006661e+003, 1.835632e+003
1.007143e+003, 1.837683e+003
1.007625e+003, 1.840419e+003
1.008107e+003, 1.842242e+003
1.008589e+003, 1.842210e+003
1.009072e+003, 1.844911e+003
1.009554e+003, 1.857751e+003
1.010036e+003, 1.872448e+003
1.010518e+003, 1.877845e+003
1.011000e+003, 1.877885e+003
1.011482e+003, 1.881163e+003
1.011964e+003, 1.888436e+003
1.012446e+003, 1.894502e+003
1.012929e+003, 1.896278e+003
1.013411e+003, 1.898644e+003
1.013893e+003, 1.909553e+003
1.014375e+003, 1.924261e+003
1.014857e+003, 1.932648e+003
1.015339e+003, 1.936147e+003
1.015821e+003, 1.940771e+003
1.016303e+003, 1.947796e+003
1.016785e+003, 1.955267e+003
1.017268e+003, 1.962019e+003
1.017750e+003, 1.967530e+003
1.018232e+003, 1.970845e+003
1.018714e+003, 1.972238e+003
1.019196e+003, 1.971405e+003
1.019678e+003, 1.969081e+003
1.020160e+003, 1.972017e+003
1.020642e+003, 1.982066e+003
1.021125e+003, 1.994353e+003
1.021607e+003, 2.005494e+003
1.022089e+003, 2.014581e+003
1.022571e+003, 2.018169e+003
1.023053e+003, 2.016757e+003
1.023535e+003, 2.019615e+003
1.024017e+003, 2.027130e+003
1.024499e+003, 2.038342e+003
1.024981e+003, 2.053679e+003
1.025464e+003, 2.067224e+003
1.025946e+003, 2.072911e+003
1.026428e+003, 2.073839e+003
1.026910e+003, 2.080583e+003
1.027392e+003, 2.094206e+003
1.027874e+003, 2.102715e+003
1.028356e+003, 2.104339e+003
1.028838e+003, 2.107369e+003
1.029321e+003, 2.114471e+003
1.029803e+003, 2.124715e+003
1.030285e+003, 2.138052e+003
1.030767e+003, 2.153353e+003
1.031249e+003, 2.165255e+003
1.031731e+003, 2.172527e+003
1.032213e+003, 2.181531e+003
1.032695e+003, 2.193929e+003
1.033177e+003, 2.204021e+003
1.033660e+003, 2.208344e+003
1.034142e+003, 2.211686e+003
1.034624e+003, 2.218831e+003
1.035106e+003, 2.229428e+003
1.035588e+003, 2.241002e+003
1.036070e+003, 2.253750e+003
1.036552e+003, 2.267151e+003
1.037034e+003, 2.282532e+003
1.037516e+003, 2.296283e+003
1.037999e+003, 2.306793e+003
1.038481e+003, 2.315172e+003
1.038963e+003, 2.321775e+003
1.039445e+003, 2.327029e+003
1.039927e+003, 2.334262e+003
1.040409e+003, 2.344777e+003
1.040891e+003, 2.355023e+003
1.041373e+003, 2.365589e+003
1.041855e+003, 2.375071e+003
1.042338e+003, 2.380207e+003
1.042820e+003, 2.385929e+003
1.043302e+003, 2.397970e+003
1.043784e+003, 2.415579e+003
1.044266e+003, 2.433207e+003
1.044748e+003, 2.454476e+003
1.045230e+003, 2.469311e+003
1.045712e+003, 2.470932e+003
1.046195e+003, 2.473490e+003
1.046677e+003, 2.482896e+003
1.047159e+003, 2.495863e+003
1.047641e+003, 2.509263e+003
1.048123e+003, 2.522890e+003
1.048605e+003, 2.536877e+003
1.049087e+003, 2.551830e+003
1.049569e+003, 2.566180e+003
1.050052e+003, 2.579578e+003
1.050534e+003, 2.592375e+003
1.051016e+003, 2.603164e+003
1.051498e+003, 2.614497e+003
1.051980e+003, 2.630113e+003
1.052462e+003, 2.649236e+003
1.052944e+003, 2.666507e+003
1.053426e+003, 2.680443e+003
1.053908e+003, 2.693680e+003
1.054391e+003, 2.705302e+003
1.054873e+003, 2.718004e+003
1.055355e+003, 2.734118e+003
1.055837e+003, 2.751423e+003
1.056319e+003, 2.767270e+003
1.056801e+003, 2.781850e+003
1.057283e+003, 2.797548e+003
1.057765e+003, 2.815480e+003
1.058248e+003, 2.833056e+003
1.058730e+003, 2.849378e+003
1.059212e+003, 2.865431e+003
1.059694e+003, 2.882166e+003
1.060176e+003, 2.898678e+003
1.060658e+003, 2.914162e+003
1.061140e+003, 2.928514e+003
1.061622e+003, 2.941526e+003
1.062104e+003, 2.951917e+003
1.062587e+003, 2.964338e+003
1.063069e+003, 2.979718e+003
1.063551e+003, 2.998345e+003
1.064033e+003, 3.022984e+003
1.064515e+003, 3.049159e+003
1.064997e+003, 3.071848e+003
1.065479e+003, 3.091244e+003
1.065961e+003, 3.110449e+003
1.066443e+003, 3.130214e+003
1.066926e+003, 3.150040e+003
1.067408e+003, 3.170927e+003
1.067890e+003, 3.190386e+003
1.068372e+003, 3.204530e+003
1.068854e+003, 3.218250e+003
1.069336e+003, 3.239031e+003
1.069818e+003, 3.264491e+003
1.070300e+003, 3.284583e+003
1.070782e+003, 3.294926e+003
1.071265e+003, 3.307754e+003
1.071747e+003, 3.331648e+003
1.072229e+003, 3.356087e+003
1.072711e+003, 3.373292e+003
1.073193e+003, 3.388830e+003
1.073675e+003, 3.409350e+003
1.074157e+003, 3.433576e+003
1.074639e+003, 3.456021e+003
1.075122e+003, 3.474920e+003
1.075604e+003, 3.494137e+003
1.076086e+003, 3.516770e+003
1.076568e+003, 3.538698e+003
1.077050e+003, 3.555304e+003
1.077532e+003, 3.571759e+003
1.078014e+003, 3.595290e+003
1.078496e+003, 3.622874e+003
1.078979e+003, 3.644019e+003
1.079461e+003, 3.655420e+003
1.079943e+003, 3.673278e+003
1.080425e+003, 3.712175e+003
1.080907e+003, 3.750475e+003
1.081389e+003, 3.774443e+003
1.081871e+003, 3.793539e+003
1.082353e+003, 3.816444e+003
1.082835e+003, 3.842063e+003
1.083318e+003, 3.864624e+003
1.083800e+003, 3.882928e+003
1.084282e+003, 3.906765e+003
1.084764e+003, 3.944867e+003
1.085246e+003, 3.983809e+003
1.085728e+003, 4.019139e+003
1.086210e+003, 4.050424e+003
1.086692e+003, 4.075693e+003
1.087175e+003, 4.097413e+003
1.087657e+003, 4.118444e+003
1.088139e+003, 4.139696e+003
1.088621e+003, 4.164354e+003
1.089103e+003, 4.195226e+003
1.089585e+003, 4.227559e+003
1.090067e+003, 4.261645e+003
1.090549e+003, 4.294104e+003
1.091031e+003, 4.320882e+003
1.091514e+003, 4.344865e+003
1.091996e+003, 4.368933e+003
1.092478e+003, 4.394330e+003
1.092960e+003, 4.425419e+003
1.093442e+003, 4.470167e+003
1.093924e+003, 4.508527e+003
1.094406e+003, 4.527934e+003
1.094888e+003, 4.544484e+003
1.095370e+003, 4.567676e+003
1.095853e+003, 4.595043e+003
1.096335e+003, 4.622967e+003
1.096817e+003, 4.651247e+003
1.097299e+003, 4.681196e+003
1.097781e+003, 4.714866e+003
1.098263e+003, 4.746007e+003
1.098745e+003, 4.770070e+003
1.099227e+003, 4.794245e+003
1.099709e+003, 4.820600e+003
1.100192e+003, 4.850399e+003
1.100674e+003, 4.886474e+003
1.101156e+003, 4.926838e+003
1.101638e+003, 4.964780e+003
1.102120e+003, 4.998655e+003
1.102602e+003, 5.031568e+003
1.103084e+003, 5.063923e+003
1.103566e+003, 5.095964e+003
1.104049e+003, 5.126853e+003
1.104531e+003, 5.158332e+003
1.105013e+003, 5.192683e+003
1.105495e+003, 5.228705e+003
1.105977e+003, 5.262653e+003
1.106459e+003, 5.293089e+003
1.106941e+003, 5.329026e+003
1.107423e+003, 5.375886e+003
1.107906e+003, 5.423029e+003
1.108388e+003, 5.468542e+003
1.108870e+003, 5.512364e+003
1.109352e+003, 5.555161e+003
1.109834e+003, 5.595830e+003
1.110316e+003, 5.632187e+003
1.110798e+003, 5.664378e+003
1.111280e+003, 5.693435e+003
1.111762e+003, 5.717986e+003
1.112245e+003, 5.741926e+003
1.112727e+003, 5.762575e+003
1.113209e+003, 5.786548e+003
1.113691e+003, 5.816746e+003
1.114173e+003, 5.852106e+003
1.114655e+003, 5.893097e+003
1.115137e+003, 5.938984e+003
1.115619e+003, 5.982474e+003
1.116102e+003, 6.021415e+003
1.116584e+003, 6.061425e+003
1.117066e+003, 6.102153e+003
1.117548e+003, 6.144483e+003
1.118030e+003, 6.190993e+003
1.118512e+003, 6.236967e+003
1.118994e+003, 6.277746e+003
1.119476e+003, 6.314540e+003
1.119958e+003, 6.351966e+003
1.120441e+003, 6.388702e+003
1.120923e+003, 6.430771e+003
1.121405e+003, 6.481228e+003
1.121887e+003, 6.529931e+003
1.122369e+003, 6.573196e+003
1.122851e+003, 6.615744e+003
1.123333e+003, 6.661219e+003
1.123815e+003, 6.708336e+003
1.124297e+003, 6.755151e+003
1.124780e+003, 6.802133e+003
1.125262e+003, 6.838185e+003
1.125744e+003, 6.853680e+003
1.126226e+003, 6.898407e+003
1.126708e+003, 6.992902e+003
1.127190e+003, 7.075370e+003
1.127672e+003, 7.106917e+003
1.128154e+003, 7.120448e+003
1.128636e+003, 7.164998e+003
1.129119e+003, 7.236022e+003
1.129601e+003, 7.294256e+003
1.130083e+003, 7.338907e+003
1.130565e+003, 7.381299e+003
1.131047e+003, 7.421590e+003
1.131529e+003, 7.467706e+003
1.132011e+003, 7.523397e+003
1.132493e+003, 7.579757e+003
1.132976e+003, 7.626960e+003
1.133458e+003, 7.669627e+003
1.133940e+003, 7.722638e+003
1.134422e+003, 7.784989e+003
1.134904e+003, 7.842300e+003
1.135386e+003, 7.894160e+003
1.135868e+003, 7.946963e+003
1.136350e+003, 8.002523e+003
1.136833e+003, 8.062054e+003
1.137315e+003, 8.127165e+003
1.137797e+003, 8.193933e+003
1.138279e+003, 8.255963e+003
1.138761e+003, 8.314009e+003
1.139243e+003, 8.367509e+003
1.139725e+003, 8.418855e+003
1.140207e+003, 8.481698e+003
1.140689e+003, 8.555389e+003
1.141172e+003, 8.618373e+003
1.141654e+003, 8.660789e+003
1.142136e+003, 8.701055e+003
1.142618e+003, 8.758714e+003
1.143100e+003, 8.826286e+003
1.143582e+003, 8.891140e+003
1.144064e+003, 8.956135e+003
1.144546e+003, 9.027235e+003
1.145029e+003, 9.104405e+003
1.145511e+003, 9.186584e+003
1.145993e+003, 9.272924e+003
1.146475e+003, 9.359119e+003
1.146957e+003, 9.444759e+003
1.147439e+003, 9.522756e+003
1.147921e+003, 9.583030e+003
1.148403e+003, 9.634392e+003
1.148885e+003, 9.680041e+003
1.149368e+003, 9.727580e+003
1.149850e+003, 9.788924e+003
1.150332e+003, 9.864067e+003
1.150814e+003, 9.946627e+003
1.151296e+003, 1.003442e+004
1.151778e+003, 1.012329e+004
1.152260e+003, 1.021099e+004
1.152742e+003, 1.029785e+004
1.153224e+003, 1.038497e+004
1.153707e+003, 1.047180e+004
1.154189e+003, 1.055972e+004
1.154671e+003, 1.064668e+004
1.155153e+003, 1.072764e+004
1.155635e+003, 1.080188e+004
1.156117e+003, 1.087512e+004
1.156599e+003, 1.094662e+004
1.157081e+003, 1.102114e+004
1.157563e+003, 1.109877e+004
1.158046e+003, 1.118135e+004
1.158528e+003, 1.127022e+004
1.159010e+003, 1.136410e+004
1.159492e+003, 1.146438e+004
1.159974e+003, 1.156921e+004
1.160456e+003, 1.166874e+004
1.160938e+003, 1.175728e+004
1.161420e+003, 1.184968e+004
1.161903e+003, 1.194258e+004
1.162385e+003, 1.204479e+004
1.162867e+003, 1.216916e+004
1.163349e+003, 1.229142e+004
1.163831e+003, 1.239008e+004
1.164313e+003, 1.247446e+004
1.164795e+003, 1.256506e+004
1.165277e+003, 1.266179e+004
1.165760e+003, 1.276952e+004
1.166242e+003, 1.289294e+004
1.166724e+003, 1.301222e+004
1.167206e+003, 1.312223e+004
1.167688e+003, 1.323240e+004
1.168170e+003, 1.334643e+004
1.168652e+003, 1.346533e+004
1.169134e+003, 1.359162e+004
1.169616e+003, 1.372183e+004
1.170099e+003, 1.383597e+004
1.170581e+003, 1.393396e+004
1.171063e+003, 1.403926e+004
1.171545e+003, 1.415371e+004
1.172027e+003, 1.427346e+004
1.172509e+003, 1.439832e+004
1.172991e+003, 1.452889e+004
1.173473e+003, 1.466713e+004
1.173956e+003, 1.480442e+004
1.174438e+003, 1.492034e+004
1.174920e+003, 1.502465e+004
1.175402e+003, 1.514778e+004
1.175884e+003, 1.528652e+004
1.176366e+003, 1.543117e+004
1.176848e+003, 1.557874e+004
1.177330e+003, 1.572272e+004
1.177813e+003, 1.586068e+004
1.178295e+003, 1.599331e+004
1.178777e+003, 1.611658e+004
1.179259e+003, 1.624486e+004
1.179741e+003, 1.640105e+004
1.180223e+003, 1.656976e+004
1.180705e+003, 1.673502e+004
1.181187e+003, 1.689140e+004
1.181669e+003, 1.702458e+004
1.182151e+003, 1.713690e+004
1.182634e+003, 1.725314e+004
1.183116e+003, 1.738382e+004
1.183598e+003, 1.752020e+004
1.184080e+003, 1.765343e+004
1.184562e+003, 1.779409e+004
1.185044e+003, 1.795337e+004
1.185526e+003, 1.811997e+004
1.186008e+003, 1.828406e+004
1.186490e+003, 1.844571e+004
1.186973e+003, 1.861088e+004
1.187455e+003, 1.878062e+004
1.187937e+003, 1.893944e+004
1.188419e+003, 1.906661e+004
1.188901e+003, 1.921018e+004
1.189383e+003, 1.938886e+004
1.189865e+003, 1.957596e+004
1.190347e+003, 1.976406e+004
1.190830e+003, 1.994814e+004
1.191312e+003, 2.012190e+004
1.191794e+003, 2.028684e+004
1.192276e+003, 2.045144e+004
1.192758e+003, 2.061557e+004
1.193240e+003, 2.077993e+004
1.193722e+003, 2.093887e+004
1.194204e+003, 2.111565e+004
1.194687e+003, 2.132019e+004
1.195169e+003, 2.153021e+004
1.195651e+003, 2.173557e+004
1.196133e+003, 2.193044e+004
1.196615e+003, 2.210653e+004
1.197097e+003, 2.226387e+004
1.197579e+003, 2.239614e+004
1.198061e+003, 2.250706e+004
1.198543e+003, 2.266021e+004
1.199026e+003, 2.285903e+004
1.199508e+003, 2.305489e+004
1.199990e+003, 2.323079e+004
1.200472e+003, 2.341268e+004
1.200954e+003, 2.362172e+004
1.201436e+003, 2.383543e+004
1.201918e+003, 2.401976e+004
1.202400e+003, 2.418558e+004
1.202883e+003, 2.434723e+004
1.203365e+003, 2.451011e+004
1.203847e+003, 2.468622e+004
1.204329e+003, 2.487410e+004
1.204811e+003, 2.506687e+004
1.205293e+003, 2.526085e+004
1.205775e+003, 2.544552e+004
1.206257e+003, 2.560571e+004
1.206740e+003, 2.576525e+004
1.207222e+003, 2.594183e+004
1.207704e+003, 2.612527e+004
1.208186e+003, 2.630571e+004
1.208668e+003, 2.648714e+004
1.209150e+003, 2.668479e+004
1.209632e+003, 2.689275e+004
1.210114e+003, 2.707694e+004
1.210596e+003, 2.721911e+004
1.211078e+003, 2.737097e+004
1.211561e+003, 2.754679e+004
1.212043e+003, 2.773001e+004
1.212525e+003, 2.792354e+004
1.213007e+003, 2.811447e+004
1.213489e+003, 2.830021e+004
1.213971e+003, 2.847403e+004
1.214453e+003, 2.861788e+004
1.214935e+003, 2.873450e+004
1.215417e+003, 2.888135e+004
1.215900e+003, 2.907095e+004
1.216382e+003, 2.924112e+004
1.216864e+003, 2.938456e+004
1.217346e+003, 2.952008e+004
1.217828e+003, 2.965181e+004
1.218310e+003, 2.978771e+004
1.218792e+003, 2.993676e+004
1.219274e+003, 3.008901e+004
1.219757e+003, 3.022946e+004
1.220239e+003, 3.035794e+004
1.220721e+003, 3.046760e+004
1.221203e+003, 3.056557e+004
1.221685e+003, 3.068904e+004
1.222167e+003, 3.083778e+004
1.222649e+003, 3.098604e+004
1.223131e+003, 3.112373e+004
1.223614e+003, 3.124318e+004
1.224096e+003, 3.133495e+004
1.224578e+003, 3.141767e+004
1.225060e+003, 3.150625e+004
1.225542e+003, 3.160210e+004
1.226024e+003, 3.172176e+004
1.226506e+003, 3.184003e+004
1.226988e+003, 3.191346e+004
1.227470e+003, 3.194945e+004
1.227953e+003, 3.198329e+004
1.228435e+003, 3.202414e+004
1.228917e+003, 3.206683e+004
1.229399e+003, 3.211329e+004
1.229881e+003, 3.215497e+004
1.230363e+003, 3.218550e+004
1.230845e+003, 3.221484e+004
1.231327e+003, 3.224537e+004
1.231810e+003, 3.228041e+004
1.232292e+003, 3.233074e+004
1.232774e+003, 3.238896e+004
1.233256e+003, 3.242479e+004
1.233738e+003, 3.243426e+004
1.234220e+003, 3.243663e+004
1.234702e+003, 3.242713e+004
1.235184e+003, 3.242728e+004
1.235667e+003, 3.244411e+004
1.236149e+003, 3.245999e+004
1.236631e+003, 3.246707e+004
1.237113e+003, 3.246391e+004
1.237595e+003, 3.244854e+004
1.238077e+003, 3.242187e+004
1.238559e+003, 3.238806e+004
1.239041e+003, 3.234527e+004
1.239523e+003, 3.227277e+004
1.240005e+003, 3.217981e+004
1.240488e+003, 3.211799e+004
1.240970e+003, 3.209393e+004
1.241452e+003, 3.207570e+004
1.241934e+003, 3.204733e+004
1.242416e+003, 3.201898e+004
1.242898e+003, 3.201096e+004
1.243380e+003, 3.199467e+004
1.243862e+003, 3.193189e+004
1.244344e+003, 3.185286e+004
1.244827e+003, 3.178309e+004
1.245309e+003, 3.172657e+004
1.245791e+003, 3.169242e+004
1.246273e+003, 3.167416e+004
1.246755e+003, 3.163998e+004
1.247237e+003, 3.157991e+004
1.247719e+003, 3.151011e+004
1.248201e+003, 3.142107e+004
1.248684e+003, 3.134089e+004
1.249166e+003, 3.128545e+004
1.249648e+003, 3.123287e+004
1.250130e+003, 3.117011e+004
1.250612e+003, 3.110476e+004
1.251094e+003, 3.104746e+004
1.251576e+003, 3.099655e+004
1.252058e+003, 3.094267e+004
1.252541e+003, 3.088722e+004
1.253023e+003, 3.081487e+004
1.253505e+003, 3.072210e+004
1.253987e+003, 3.064541e+004
1.254469e+003, 3.059297e+004
1.254951e+003, 3.056254e+004
1.255433e+003, 3.055417e+004
1.255915e+003, 3.054195e+004
1.256397e+003, 3.049023e+004
1.256880e+003, 3.041916e+004
1.257362e+003, 3.036434e+004
1.257844e+003, 3.032226e+004
1.258326e+003, 3.028766e+004
1.258808e+003, 3.025963e+004
1.259290e+003, 3.023729e+004
1.259772e+003, 3.022054e+004
1.260254e+003, 3.020997e+004
1.260737e+003, 3.020657e+004
1.261219e+003, 3.020458e+004
1.261701e+003, 3.021191e+004
1.262183e+003, 3.020547e+004
1.262665e+003, 3.015583e+004
1.263147e+003, 3.010766e+004
1.263629e+003, 3.009771e+004
1.264111e+003, 3.010650e+004
1.264594e+003, 3.011136e+004
1.265076e+003, 3.010873e+004
1.265558e+003, 3.008240e+004
1.266040e+003, 3.001554e+004
1.266522e+003, 2.998634e+004
1.267004e+003, 3.000176e+004
1.267486e+003, 3.003315e+004
1.267968e+003, 3.008040e+004
1.268450e+003, 3.011691e+004
1.268932e+003, 3.012860e+004
1.269415e+003, 3.012619e+004
1.269897e+003, 3.011778e+004
1.270379e+003, 3.011352e+004
1.270861e+003, 3.014503e+004
1.271343e+003, 3.019874e+004
1.271825e+003, 3.022823e+004
1.272307e+003, 3.024391e+004
1.272789e+003, 3.028771e+004
1.273271e+003, 3.035732e+004
1.273754e+003, 3.040918e+004
1.274236e+003, 3.042788e+004
1.274718e+003, 3.045288e+004
1.275200e+003, 3.051286e+004
1.275682e+003, 3.058306e+004
1.276164e+003, 3.065234e+004
1.276646e+003, 3.072251e+004
1.277128e+003, 3.079929e+004
1.277611e+003, 3.087430e+004
1.278093e+003, 3.093209e+004
1.278575e+003, 3.098039e+004
1.279057e+003, 3.104400e+004
1.279539e+003, 3.112594e+004
1.280021e+003, 3.121694e+004
1.280503e+003, 3.131544e+004
1.280985e+003, 3.140757e+004
1.281468e+003, 3.149607e+004
1.281950e+003, 3.160040e+004
1.282432e+003, 3.172905e+004
1.282914e+003, 3.186280e+004
1.283396e+003, 3.198830e+004
1.283878e+003, 3.210416e+004
1.284360e+003, 3.220107e+004
1.284842e+003, 3.227501e+004
1.285324e+003, 3.231934e+004
##END=



