##NAMES=Monazite-(Ce)
##RRUFFID=R120146
##IDEAL CHEMISTRY=CePO_4_
##LOCALITY=Zagi Mountain, Hameed Abad Kafoor Dheri, Peshawar, Khyber Pakhtunkhwa, Pakistan
##OWNER=RRUFF
##SOURCE=Ikram Mineralogy
##DESCRIPTION=Brown bladed crystals
##STATUS=The identification of this mineral has been determined by Raman spectroscopy and chemical analysis
##URL=rruff.info/R120146
##MEASURED CHEMISTRY=(Ce_0.47_La_0.23_Nd_0.19_Pr_0.05_Sm_0.03_Gd_0.01_Y_0.01_Eu_0.01_Th_0.01_)_∑=1.00_(P_0.98_Si_0.01_)_∑=0.99_O_4_
6.998577e+001, 1.326596e+002
7.046789e+001, 1.362414e+002
7.095000e+001, 1.412609e+002
7.143212e+001, 1.457503e+002
7.191424e+001, 1.504292e+002
7.239635e+001, 1.527941e+002
7.287847e+001, 1.510961e+002
7.336059e+001, 1.483835e+002
7.384270e+001, 1.470357e+002
7.432482e+001, 1.480448e+002
7.480694e+001, 1.508333e+002
7.528905e+001, 1.536913e+002
7.577117e+001, 1.565227e+002
7.625329e+001, 1.595553e+002
7.673540e+001, 1.628841e+002
7.721752e+001, 1.664618e+002
7.769964e+001, 1.702144e+002
7.818176e+001, 1.742036e+002
7.866387e+001, 1.783098e+002
7.914599e+001, 1.821004e+002
7.962811e+001, 1.849996e+002
8.011022e+001, 1.880985e+002
8.059234e+001, 1.922472e+002
8.107446e+001, 1.973871e+002
8.155657e+001, 2.038508e+002
8.203869e+001, 2.123094e+002
8.252081e+001, 2.220051e+002
8.300292e+001, 2.321766e+002
8.348504e+001, 2.422713e+002
8.396716e+001, 2.525358e+002
8.444927e+001, 2.642106e+002
8.493139e+001, 2.787612e+002
8.541351e+001, 2.931591e+002
8.589562e+001, 3.052376e+002
8.637774e+001, 3.164313e+002
8.685986e+001, 3.295974e+002
8.734197e+001, 3.477957e+002
8.782409e+001, 3.724659e+002
8.830621e+001, 3.941091e+002
8.878832e+001, 4.102362e+002
8.927044e+001, 4.261141e+002
8.975256e+001, 4.440435e+002
9.023467e+001, 4.645061e+002
9.071680e+001, 4.841284e+002
9.119891e+001, 4.887087e+002
9.168103e+001, 4.942567e+002
9.216315e+001, 4.980536e+002
9.264526e+001, 4.976985e+002
9.312738e+001, 4.965601e+002
9.360950e+001, 4.997249e+002
9.409161e+001, 5.094778e+002
9.457373e+001, 5.204679e+002
9.505585e+001, 5.263185e+002
9.553796e+001, 5.275181e+002
9.602008e+001, 5.280209e+002
9.650220e+001, 5.293998e+002
9.698431e+001, 5.316403e+002
9.746643e+001, 5.355919e+002
9.794855e+001, 5.427867e+002
9.843066e+001, 5.508164e+002
9.891278e+001, 5.583314e+002
9.939490e+001, 5.651256e+002
9.987701e+001, 5.714064e+002
1.003591e+002, 5.775565e+002
1.008412e+002, 5.842410e+002
1.013234e+002, 5.892212e+002
1.018055e+002, 5.929915e+002
1.022876e+002, 5.950575e+002
1.027697e+002, 5.944343e+002
1.032518e+002, 5.907478e+002
1.037339e+002, 5.850659e+002
1.042161e+002, 5.811165e+002
1.046982e+002, 5.810500e+002
1.051803e+002, 5.802542e+002
1.056624e+002, 5.768198e+002
1.061445e+002, 5.723799e+002
1.066266e+002, 5.699657e+002
1.071088e+002, 5.716970e+002
1.075909e+002, 5.768014e+002
1.080730e+002, 5.801127e+002
1.085551e+002, 5.800887e+002
1.090372e+002, 5.799540e+002
1.095193e+002, 5.810618e+002
1.100015e+002, 5.834419e+002
1.104836e+002, 5.873358e+002
1.109657e+002, 5.941219e+002
1.114478e+002, 6.023830e+002
1.119299e+002, 6.090601e+002
1.124120e+002, 6.125556e+002
1.128942e+002, 6.145820e+002
1.133763e+002, 6.178224e+002
1.138584e+002, 6.226713e+002
1.143405e+002, 6.279068e+002
1.148226e+002, 6.325776e+002
1.153047e+002, 6.372098e+002
1.157869e+002, 6.428128e+002
1.162690e+002, 6.506390e+002
1.167511e+002, 6.602354e+002
1.172332e+002, 6.671479e+002
1.177153e+002, 6.677207e+002
1.181974e+002, 6.689809e+002
1.186796e+002, 6.728517e+002
1.191617e+002, 6.790156e+002
1.196438e+002, 6.864863e+002
1.201259e+002, 6.946664e+002
1.206080e+002, 7.042081e+002
1.210901e+002, 7.106907e+002
1.215723e+002, 7.108810e+002
1.220544e+002, 7.113982e+002
1.225365e+002, 7.157996e+002
1.230186e+002, 7.242836e+002
1.235007e+002, 7.347182e+002
1.239828e+002, 7.447577e+002
1.244650e+002, 7.545101e+002
1.249471e+002, 7.630966e+002
1.254292e+002, 7.693424e+002
1.259113e+002, 7.749657e+002
1.263934e+002, 7.822468e+002
1.268755e+002, 7.920975e+002
1.273577e+002, 8.018848e+002
1.278398e+002, 8.072389e+002
1.283219e+002, 8.087416e+002
1.288040e+002, 8.109545e+002
1.292861e+002, 8.148956e+002
1.297682e+002, 8.207910e+002
1.302504e+002, 8.301175e+002
1.307325e+002, 8.462527e+002
1.312146e+002, 8.621608e+002
1.316967e+002, 8.716119e+002
1.321788e+002, 8.750443e+002
1.326609e+002, 8.779069e+002
1.331431e+002, 8.853739e+002
1.336252e+002, 8.981613e+002
1.341073e+002, 9.098718e+002
1.345894e+002, 9.188595e+002
1.350715e+002, 9.271697e+002
1.355536e+002, 9.352048e+002
1.360358e+002, 9.432911e+002
1.365179e+002, 9.522505e+002
1.370000e+002, 9.636043e+002
1.374821e+002, 9.795588e+002
1.379642e+002, 9.936320e+002
1.384464e+002, 1.003498e+003
1.389285e+002, 1.013085e+003
1.394106e+002, 1.026276e+003
1.398927e+002, 1.044029e+003
1.403748e+002, 1.063626e+003
1.408569e+002, 1.079126e+003
1.413391e+002, 1.085878e+003
1.418212e+002, 1.094896e+003
1.423033e+002, 1.107180e+003
1.427854e+002, 1.121880e+003
1.432675e+002, 1.138351e+003
1.437496e+002, 1.156612e+003
1.442318e+002, 1.175644e+003
1.447139e+002, 1.192411e+003
1.451960e+002, 1.205195e+003
1.456781e+002, 1.220208e+003
1.461602e+002, 1.241782e+003
1.466423e+002, 1.268075e+003
1.471245e+002, 1.292447e+003
1.476066e+002, 1.311450e+003
1.480887e+002, 1.327674e+003
1.485708e+002, 1.344806e+003
1.490529e+002, 1.362628e+003
1.495350e+002, 1.382366e+003
1.500172e+002, 1.405732e+003
1.504993e+002, 1.433077e+003
1.509814e+002, 1.460186e+003
1.514635e+002, 1.484154e+003
1.519456e+002, 1.508005e+003
1.524277e+002, 1.534493e+003
1.529099e+002, 1.564414e+003
1.533920e+002, 1.595471e+003
1.538741e+002, 1.624023e+003
1.543562e+002, 1.647650e+003
1.548383e+002, 1.674121e+003
1.553204e+002, 1.705929e+003
1.558026e+002, 1.740066e+003
1.562847e+002, 1.774024e+003
1.567668e+002, 1.806688e+003
1.572489e+002, 1.839020e+003
1.577310e+002, 1.873547e+003
1.582132e+002, 1.910701e+003
1.586953e+002, 1.949898e+003
1.591774e+002, 1.992476e+003
1.596595e+002, 2.036559e+003
1.601416e+002, 2.080751e+003
1.606237e+002, 2.124368e+003
1.611059e+002, 2.167236e+003
1.615880e+002, 2.207925e+003
1.620701e+002, 2.242996e+003
1.625522e+002, 2.280565e+003
1.630343e+002, 2.322487e+003
1.635164e+002, 2.367958e+003
1.639986e+002, 2.414731e+003
1.644807e+002, 2.461553e+003
1.649628e+002, 2.509450e+003
1.654449e+002, 2.562422e+003
1.659270e+002, 2.626635e+003
1.664091e+002, 2.687061e+003
1.668913e+002, 2.735106e+003
1.673734e+002, 2.772532e+003
1.678555e+002, 2.807294e+003
1.683376e+002, 2.841502e+003
1.688197e+002, 2.876545e+003
1.693018e+002, 2.914697e+003
1.697840e+002, 2.957092e+003
1.702661e+002, 3.000805e+003
1.707482e+002, 3.043785e+003
1.712303e+002, 3.086185e+003
1.717124e+002, 3.126202e+003
1.721945e+002, 3.162164e+003
1.726767e+002, 3.195559e+003
1.731588e+002, 3.227310e+003
1.736409e+002, 3.257631e+003
1.741230e+002, 3.286491e+003
1.746051e+002, 3.314667e+003
1.750872e+002, 3.344507e+003
1.755694e+002, 3.366919e+003
1.760515e+002, 3.374894e+003
1.765336e+002, 3.377551e+003
1.770157e+002, 3.383122e+003
1.774978e+002, 3.395014e+003
1.779799e+002, 3.409206e+003
1.784621e+002, 3.415732e+003
1.789442e+002, 3.407903e+003
1.794263e+002, 3.402260e+003
1.799084e+002, 3.404042e+003
1.803905e+002, 3.407515e+003
1.808726e+002, 3.407091e+003
1.813548e+002, 3.400156e+003
1.818369e+002, 3.387869e+003
1.823190e+002, 3.373975e+003
1.828011e+002, 3.354042e+003
1.832832e+002, 3.337517e+003
1.837653e+002, 3.329292e+003
1.842475e+002, 3.323745e+003
1.847296e+002, 3.313183e+003
1.852117e+002, 3.293667e+003
1.856938e+002, 3.267639e+003
1.861759e+002, 3.243939e+003
1.866580e+002, 3.223953e+003
1.871402e+002, 3.203814e+003
1.876223e+002, 3.183544e+003
1.881044e+002, 3.162519e+003
1.885865e+002, 3.138874e+003
1.890686e+002, 3.110493e+003
1.895507e+002, 3.080795e+003
1.900329e+002, 3.059431e+003
1.905150e+002, 3.050875e+003
1.909971e+002, 3.040610e+003
1.914792e+002, 3.019868e+003
1.919613e+002, 2.991284e+003
1.924434e+002, 2.964688e+003
1.929256e+002, 2.943831e+003
1.934077e+002, 2.927893e+003
1.938898e+002, 2.915247e+003
1.943719e+002, 2.907229e+003
1.948540e+002, 2.898003e+003
1.953361e+002, 2.881118e+003
1.958183e+002, 2.856934e+003
1.963004e+002, 2.836968e+003
1.967825e+002, 2.828499e+003
1.972646e+002, 2.823373e+003
1.977467e+002, 2.814422e+003
1.982288e+002, 2.800716e+003
1.987110e+002, 2.785511e+003
1.991931e+002, 2.772234e+003
1.996752e+002, 2.761144e+003
2.001573e+002, 2.750017e+003
2.006394e+002, 2.737022e+003
2.011215e+002, 2.724726e+003
2.016037e+002, 2.715363e+003
2.020858e+002, 2.709070e+003
2.025679e+002, 2.703532e+003
2.030500e+002, 2.695341e+003
2.035321e+002, 2.682781e+003
2.040142e+002, 2.672496e+003
2.044964e+002, 2.666877e+003
2.049785e+002, 2.662015e+003
2.054606e+002, 2.654783e+003
2.059427e+002, 2.644974e+003
2.064248e+002, 2.635580e+003
2.069069e+002, 2.631213e+003
2.073891e+002, 2.635106e+003
2.078712e+002, 2.637193e+003
2.083533e+002, 2.636030e+003
2.088354e+002, 2.634427e+003
2.093175e+002, 2.634709e+003
2.097996e+002, 2.637093e+003
2.102818e+002, 2.639591e+003
2.107639e+002, 2.639094e+003
2.112460e+002, 2.632466e+003
2.117281e+002, 2.631049e+003
2.122102e+002, 2.640286e+003
2.126923e+002, 2.650797e+003
2.131745e+002, 2.653270e+003
2.136566e+002, 2.646679e+003
2.141387e+002, 2.640091e+003
2.146208e+002, 2.645351e+003
2.151029e+002, 2.667149e+003
2.155850e+002, 2.685638e+003
2.160672e+002, 2.699256e+003
2.165493e+002, 2.710172e+003
2.170314e+002, 2.718481e+003
2.175135e+002, 2.724226e+003
2.179956e+002, 2.732237e+003
2.184777e+002, 2.750057e+003
2.189599e+002, 2.777497e+003
2.194420e+002, 2.799388e+003
2.199241e+002, 2.808048e+003
2.204062e+002, 2.812694e+003
2.208883e+002, 2.824475e+003
2.213704e+002, 2.845256e+003
2.218526e+002, 2.868849e+003
2.223347e+002, 2.890943e+003
2.228168e+002, 2.911714e+003
2.232989e+002, 2.931080e+003
2.237810e+002, 2.946926e+003
2.242631e+002, 2.962162e+003
2.247453e+002, 2.981411e+003
2.252274e+002, 3.005729e+003
2.257095e+002, 3.031538e+003
2.261916e+002, 3.058614e+003
2.266737e+002, 3.085386e+003
2.271558e+002, 3.109065e+003
2.276380e+002, 3.126903e+003
2.281201e+002, 3.141954e+003
2.286022e+002, 3.160440e+003
2.290843e+002, 3.183050e+003
2.295664e+002, 3.207433e+003
2.300485e+002, 3.233397e+003
2.305307e+002, 3.260056e+003
2.310128e+002, 3.286065e+003
2.314949e+002, 3.310212e+003
2.319770e+002, 3.334261e+003
2.324591e+002, 3.363066e+003
2.329412e+002, 3.400436e+003
2.334234e+002, 3.434536e+003
2.339055e+002, 3.460503e+003
2.343876e+002, 3.482859e+003
2.348697e+002, 3.506077e+003
2.353518e+002, 3.532093e+003
2.358340e+002, 3.559246e+003
2.363161e+002, 3.583844e+003
2.367982e+002, 3.602520e+003
2.372803e+002, 3.624886e+003
2.377624e+002, 3.652630e+003
2.382445e+002, 3.683749e+003
2.387267e+002, 3.718282e+003
2.392088e+002, 3.755708e+003
2.396909e+002, 3.793411e+003
2.401730e+002, 3.825140e+003
2.406551e+002, 3.844858e+003
2.411372e+002, 3.868652e+003
2.416194e+002, 3.900229e+003
2.421015e+002, 3.933928e+003
2.425836e+002, 3.964646e+003
2.430657e+002, 3.991134e+003
2.435478e+002, 4.016465e+003
2.440299e+002, 4.045991e+003
2.445121e+002, 4.084657e+003
2.449942e+002, 4.118573e+003
2.454763e+002, 4.147388e+003
2.459584e+002, 4.172175e+003
2.464405e+002, 4.192500e+003
2.469226e+002, 4.208737e+003
2.474048e+002, 4.223687e+003
2.478869e+002, 4.241169e+003
2.483690e+002, 4.263510e+003
2.488511e+002, 4.281291e+003
2.493332e+002, 4.289344e+003
2.498153e+002, 4.296533e+003
2.502975e+002, 4.310322e+003
2.507796e+002, 4.331375e+003
2.512617e+002, 4.354074e+003
2.517438e+002, 4.373440e+003
2.522259e+002, 4.389054e+003
2.527080e+002, 4.399143e+003
2.531902e+002, 4.398455e+003
2.536723e+002, 4.396221e+003
2.541544e+002, 4.400664e+003
2.546365e+002, 4.411689e+003
2.551186e+002, 4.421482e+003
2.556007e+002, 4.423006e+003
2.560829e+002, 4.416297e+003
2.565650e+002, 4.411844e+003
2.570471e+002, 4.411788e+003
2.575292e+002, 4.412339e+003
2.580113e+002, 4.412829e+003
2.584934e+002, 4.412684e+003
2.589756e+002, 4.406192e+003
2.594577e+002, 4.384704e+003
2.599398e+002, 4.355329e+003
2.604219e+002, 4.342258e+003
2.609040e+002, 4.357801e+003
2.613861e+002, 4.376159e+003
2.618683e+002, 4.378644e+003
2.623504e+002, 4.366625e+003
2.628325e+002, 4.351808e+003
2.633146e+002, 4.337235e+003
2.637967e+002, 4.324543e+003
2.642788e+002, 4.316208e+003
2.647610e+002, 4.313852e+003
2.652431e+002, 4.311616e+003
2.657252e+002, 4.304400e+003
2.662073e+002, 4.292913e+003
2.666894e+002, 4.283745e+003
2.671715e+002, 4.281793e+003
2.676537e+002, 4.279925e+003
2.681358e+002, 4.269197e+003
2.686179e+002, 4.249021e+003
2.691000e+002, 4.229381e+003
2.695821e+002, 4.217426e+003
2.700642e+002, 4.212215e+003
2.705464e+002, 4.207894e+003
2.710285e+002, 4.205046e+003
2.715106e+002, 4.200781e+003
2.719927e+002, 4.192146e+003
2.724748e+002, 4.179996e+003
2.729569e+002, 4.168546e+003
2.734391e+002, 4.159993e+003
2.739212e+002, 4.154284e+003
2.744033e+002, 4.151759e+003
2.748854e+002, 4.155267e+003
2.753675e+002, 4.157814e+003
2.758496e+002, 4.155826e+003
2.763318e+002, 4.150298e+003
2.768139e+002, 4.142996e+003
2.772960e+002, 4.133801e+003
2.777781e+002, 4.123875e+003
2.782602e+002, 4.116955e+003
2.787423e+002, 4.112651e+003
2.792245e+002, 4.112618e+003
2.797066e+002, 4.119900e+003
2.801887e+002, 4.130313e+003
2.806708e+002, 4.138267e+003
2.811529e+002, 4.140888e+003
2.816350e+002, 4.140672e+003
2.821172e+002, 4.143120e+003
2.825993e+002, 4.148694e+003
2.830814e+002, 4.156179e+003
2.835635e+002, 4.166533e+003
2.840456e+002, 4.177692e+003
2.845277e+002, 4.186543e+003
2.850099e+002, 4.192190e+003
2.854920e+002, 4.199246e+003
2.859741e+002, 4.216769e+003
2.864562e+002, 4.250469e+003
2.869383e+002, 4.278887e+003
2.874204e+002, 4.294470e+003
2.879026e+002, 4.308325e+003
2.883847e+002, 4.327376e+003
2.888668e+002, 4.352595e+003
2.893489e+002, 4.380454e+003
2.898310e+002, 4.407205e+003
2.903131e+002, 4.432534e+003
2.907953e+002, 4.457523e+003
2.912774e+002, 4.480555e+003
2.917595e+002, 4.504598e+003
2.922416e+002, 4.529213e+003
2.927237e+002, 4.555692e+003
2.932058e+002, 4.586919e+003
2.936880e+002, 4.625812e+003
2.941701e+002, 4.672467e+003
2.946522e+002, 4.722238e+003
2.951343e+002, 4.785507e+003
2.956164e+002, 4.841370e+003
2.960985e+002, 4.880652e+003
2.965807e+002, 4.908822e+003
2.970628e+002, 4.935725e+003
2.975449e+002, 4.967095e+003
2.980270e+002, 5.003173e+003
2.985091e+002, 5.046231e+003
2.989912e+002, 5.104255e+003
2.994734e+002, 5.160506e+003
2.999555e+002, 5.213687e+003
3.004376e+002, 5.263478e+003
3.009197e+002, 5.308509e+003
3.014018e+002, 5.348325e+003
3.018839e+002, 5.385550e+003
3.023661e+002, 5.426553e+003
3.028482e+002, 5.472021e+003
3.033303e+002, 5.520707e+003
3.038124e+002, 5.573613e+003
3.042945e+002, 5.629099e+003
3.047766e+002, 5.688193e+003
3.052588e+002, 5.750136e+003
3.057409e+002, 5.810023e+003
3.062230e+002, 5.860789e+003
3.067051e+002, 5.900100e+003
3.071872e+002, 5.936328e+003
3.076693e+002, 5.964002e+003
3.081515e+002, 5.993673e+003
3.086336e+002, 6.033921e+003
3.091157e+002, 6.083089e+003
3.095978e+002, 6.132302e+003
3.100799e+002, 6.173800e+003
3.105620e+002, 6.207240e+003
3.110442e+002, 6.234774e+003
3.115263e+002, 6.253412e+003
3.120084e+002, 6.270101e+003
3.124905e+002, 6.287277e+003
3.129726e+002, 6.304245e+003
3.134547e+002, 6.319184e+003
3.139369e+002, 6.331048e+003
3.144190e+002, 6.339857e+003
3.149011e+002, 6.345339e+003
3.153832e+002, 6.342360e+003
3.158653e+002, 6.342212e+003
3.163474e+002, 6.351572e+003
3.168296e+002, 6.362812e+003
3.173117e+002, 6.366864e+003
3.177938e+002, 6.360185e+003
3.182759e+002, 6.344790e+003
3.187580e+002, 6.324380e+003
3.192401e+002, 6.294076e+003
3.197223e+002, 6.266632e+003
3.202044e+002, 6.246522e+003
3.206865e+002, 6.226291e+003
3.211686e+002, 6.198080e+003
3.216507e+002, 6.161267e+003
3.221328e+002, 6.123348e+003
3.226150e+002, 6.093534e+003
3.230971e+002, 6.075564e+003
3.235792e+002, 6.046792e+003
3.240613e+002, 5.996687e+003
3.245434e+002, 5.947059e+003
3.250255e+002, 5.913180e+003
3.255077e+002, 5.891162e+003
3.259898e+002, 5.865596e+003
3.264719e+002, 5.825115e+003
3.269540e+002, 5.770853e+003
3.274361e+002, 5.717483e+003
3.279182e+002, 5.661583e+003
3.284004e+002, 5.609879e+003
3.288825e+002, 5.565468e+003
3.293646e+002, 5.526298e+003
3.298467e+002, 5.489833e+003
3.303288e+002, 5.454995e+003
3.308109e+002, 5.420703e+003
3.312931e+002, 5.383514e+003
3.317752e+002, 5.338482e+003
3.322573e+002, 5.297761e+003
3.327394e+002, 5.264663e+003
3.332215e+002, 5.234469e+003
3.337036e+002, 5.202445e+003
3.341858e+002, 5.167538e+003
3.346679e+002, 5.131619e+003
3.351500e+002, 5.096518e+003
3.356321e+002, 5.062144e+003
3.361142e+002, 5.030060e+003
3.365963e+002, 4.998508e+003
3.370785e+002, 4.970346e+003
3.375606e+002, 4.949958e+003
3.380427e+002, 4.935311e+003
3.385248e+002, 4.918964e+003
3.390069e+002, 4.894719e+003
3.394890e+002, 4.863187e+003
3.399712e+002, 4.837074e+003
3.404533e+002, 4.815991e+003
3.409354e+002, 4.799799e+003
3.414175e+002, 4.791962e+003
3.418996e+002, 4.788295e+003
3.423817e+002, 4.781365e+003
3.428639e+002, 4.767596e+003
3.433460e+002, 4.751077e+003
3.438281e+002, 4.741720e+003
3.443102e+002, 4.749127e+003
3.447923e+002, 4.750520e+003
3.452744e+002, 4.740189e+003
3.457566e+002, 4.727125e+003
3.462387e+002, 4.718267e+003
3.467208e+002, 4.715370e+003
3.472029e+002, 4.717448e+003
3.476850e+002, 4.723612e+003
3.481671e+002, 4.734500e+003
3.486493e+002, 4.747050e+003
3.491314e+002, 4.764548e+003
3.496135e+002, 4.780447e+003
3.500956e+002, 4.788519e+003
3.505777e+002, 4.791728e+003
3.510598e+002, 4.798432e+003
3.515420e+002, 4.814574e+003
3.520241e+002, 4.839104e+003
3.525062e+002, 4.864472e+003
3.529883e+002, 4.893906e+003
3.534704e+002, 4.920247e+003
3.539525e+002, 4.938503e+003
3.544347e+002, 4.954343e+003
3.549168e+002, 4.974805e+003
3.553989e+002, 5.002563e+003
3.558810e+002, 5.035603e+003
3.563631e+002, 5.070583e+003
3.568452e+002, 5.110694e+003
3.573274e+002, 5.146060e+003
3.578095e+002, 5.170294e+003
3.582916e+002, 5.195164e+003
3.587737e+002, 5.229903e+003
3.592559e+002, 5.274412e+003
3.597380e+002, 5.322269e+003
3.602201e+002, 5.366767e+003
3.607022e+002, 5.407744e+003
3.611843e+002, 5.452153e+003
3.616664e+002, 5.504267e+003
3.621486e+002, 5.555062e+003
3.626307e+002, 5.598946e+003
3.631128e+002, 5.639918e+003
3.635949e+002, 5.684840e+003
3.640770e+002, 5.737617e+003
3.645591e+002, 5.796086e+003
3.650413e+002, 5.853399e+003
3.655234e+002, 5.908343e+003
3.660055e+002, 5.963782e+003
3.664876e+002, 6.018249e+003
3.669697e+002, 6.074011e+003
3.674518e+002, 6.134842e+003
3.679340e+002, 6.200620e+003
3.684161e+002, 6.265696e+003
3.688982e+002, 6.322200e+003
3.693803e+002, 6.367242e+003
3.698624e+002, 6.415568e+003
3.703445e+002, 6.471407e+003
3.708267e+002, 6.526020e+003
3.713088e+002, 6.572413e+003
3.717909e+002, 6.614603e+003
3.722730e+002, 6.662374e+003
3.727551e+002, 6.723595e+003
3.732372e+002, 6.795077e+003
3.737194e+002, 6.859925e+003
3.742015e+002, 6.917987e+003
3.746836e+002, 6.968861e+003
3.751657e+002, 7.010342e+003
3.756478e+002, 7.046164e+003
3.761299e+002, 7.078569e+003
3.766121e+002, 7.108751e+003
3.770942e+002, 7.139102e+003
3.775763e+002, 7.174418e+003
3.780584e+002, 7.217625e+003
3.785405e+002, 7.255769e+003
3.790226e+002, 7.281456e+003
3.795048e+002, 7.307922e+003
3.799869e+002, 7.344648e+003
3.804690e+002, 7.388431e+003
3.809511e+002, 7.428385e+003
3.814332e+002, 7.456409e+003
3.819153e+002, 7.473272e+003
3.823975e+002, 7.484883e+003
3.828796e+002, 7.488509e+003
3.833617e+002, 7.490721e+003
3.838438e+002, 7.491881e+003
3.843259e+002, 7.493639e+003
3.848080e+002, 7.498340e+003
3.852902e+002, 7.506973e+003
3.857723e+002, 7.517160e+003
3.862544e+002, 7.525830e+003
3.867365e+002, 7.533278e+003
3.872186e+002, 7.537651e+003
3.877007e+002, 7.537456e+003
3.881829e+002, 7.534681e+003
3.886650e+002, 7.529800e+003
3.891471e+002, 7.523115e+003
3.896292e+002, 7.515482e+003
3.901113e+002, 7.508080e+003
3.905934e+002, 7.500444e+003
3.910756e+002, 7.490174e+003
3.915577e+002, 7.477488e+003
3.920398e+002, 7.461466e+003
3.925219e+002, 7.440628e+003
3.930040e+002, 7.416724e+003
3.934861e+002, 7.391350e+003
3.939683e+002, 7.364252e+003
3.944504e+002, 7.337642e+003
3.949325e+002, 7.315385e+003
3.954146e+002, 7.297745e+003
3.958967e+002, 7.276709e+003
3.963788e+002, 7.248147e+003
3.968610e+002, 7.217077e+003
3.973431e+002, 7.189228e+003
3.978252e+002, 7.164316e+003
3.983073e+002, 7.136677e+003
3.987894e+002, 7.100286e+003
3.992715e+002, 7.059098e+003
3.997537e+002, 7.023170e+003
4.002358e+002, 6.993967e+003
4.007179e+002, 6.967452e+003
4.012000e+002, 6.943273e+003
4.016821e+002, 6.919589e+003
4.021642e+002, 6.892522e+003
4.026464e+002, 6.860668e+003
4.031285e+002, 6.826516e+003
4.036106e+002, 6.790516e+003
4.040927e+002, 6.753473e+003
4.045748e+002, 6.720605e+003
4.050569e+002, 6.695747e+003
4.055391e+002, 6.673185e+003
4.060212e+002, 6.643237e+003
4.065033e+002, 6.605390e+003
4.069854e+002, 6.570005e+003
4.074675e+002, 6.539939e+003
4.079496e+002, 6.514094e+003
4.084318e+002, 6.491509e+003
4.089139e+002, 6.472004e+003
4.093960e+002, 6.454161e+003
4.098781e+002, 6.437501e+003
4.103602e+002, 6.421568e+003
4.108423e+002, 6.403432e+003
4.113245e+002, 6.382451e+003
4.118066e+002, 6.359966e+003
4.122887e+002, 6.335395e+003
4.127708e+002, 6.309840e+003
4.132529e+002, 6.285504e+003
4.137350e+002, 6.263234e+003
4.142172e+002, 6.242578e+003
4.146993e+002, 6.223360e+003
4.151814e+002, 6.206872e+003
4.156635e+002, 6.187876e+003
4.161456e+002, 6.165968e+003
4.166277e+002, 6.141801e+003
4.171099e+002, 6.114668e+003
4.175920e+002, 6.085503e+003
4.180741e+002, 6.056747e+003
4.185562e+002, 6.029925e+003
4.190383e+002, 6.005386e+003
4.195204e+002, 5.987039e+003
4.200026e+002, 5.986065e+003
4.204847e+002, 5.977164e+003
4.209668e+002, 5.946946e+003
4.214489e+002, 5.910399e+003
4.219310e+002, 5.886757e+003
4.224131e+002, 5.881346e+003
4.228953e+002, 5.882206e+003
4.233774e+002, 5.871471e+003
4.238595e+002, 5.843296e+003
4.243416e+002, 5.823784e+003
4.248237e+002, 5.822933e+003
4.253058e+002, 5.819835e+003
4.257880e+002, 5.802833e+003
4.262701e+002, 5.776253e+003
4.267522e+002, 5.750540e+003
4.272343e+002, 5.732203e+003
4.277164e+002, 5.719827e+003
4.281985e+002, 5.707880e+003
4.286807e+002, 5.694082e+003
4.291628e+002, 5.685330e+003
4.296449e+002, 5.687108e+003
4.301270e+002, 5.690312e+003
4.306091e+002, 5.687310e+003
4.310912e+002, 5.677282e+003
4.315734e+002, 5.665228e+003
4.320555e+002, 5.656788e+003
4.325376e+002, 5.651958e+003
4.330197e+002, 5.643340e+003
4.335018e+002, 5.625715e+003
4.339839e+002, 5.611658e+003
4.344661e+002, 5.610220e+003
4.349482e+002, 5.614083e+003
4.354303e+002, 5.611132e+003
4.359124e+002, 5.595136e+003
4.363945e+002, 5.575178e+003
4.368766e+002, 5.564722e+003
4.373588e+002, 5.564445e+003
4.378409e+002, 5.564988e+003
4.383230e+002, 5.566095e+003
4.388051e+002, 5.565165e+003
4.392872e+002, 5.560354e+003
4.397693e+002, 5.551775e+003
4.402515e+002, 5.540630e+003
4.407336e+002, 5.523402e+003
4.412157e+002, 5.505187e+003
4.416978e+002, 5.498031e+003
4.421799e+002, 5.503899e+003
4.426620e+002, 5.508185e+003
4.431442e+002, 5.501709e+003
4.436263e+002, 5.488500e+003
4.441084e+002, 5.477288e+003
4.445905e+002, 5.469393e+003
4.450726e+002, 5.461106e+003
4.455547e+002, 5.448058e+003
4.460369e+002, 5.433419e+003
4.465190e+002, 5.424974e+003
4.470011e+002, 5.425065e+003
4.474832e+002, 5.427698e+003
4.479653e+002, 5.428175e+003
4.484474e+002, 5.426185e+003
4.489296e+002, 5.417635e+003
4.494117e+002, 5.392123e+003
4.498938e+002, 5.369573e+003
4.503759e+002, 5.365511e+003
4.508580e+002, 5.374286e+003
4.513401e+002, 5.379986e+003
4.518223e+002, 5.375177e+003
4.523044e+002, 5.363856e+003
4.527865e+002, 5.354554e+003
4.532686e+002, 5.349521e+003
4.537507e+002, 5.342078e+003
4.542328e+002, 5.328890e+003
4.547150e+002, 5.315710e+003
4.551971e+002, 5.308521e+003
4.556792e+002, 5.306015e+003
4.561613e+002, 5.300421e+003
4.566434e+002, 5.284729e+003
4.571255e+002, 5.261270e+003
4.576077e+002, 5.248589e+003
4.580898e+002, 5.261324e+003
4.585719e+002, 5.266673e+003
4.590540e+002, 5.255730e+003
4.595361e+002, 5.239071e+003
4.600182e+002, 5.227142e+003
4.605004e+002, 5.222086e+003
4.609825e+002, 5.218511e+003
4.614646e+002, 5.209701e+003
4.619467e+002, 5.194882e+003
4.624288e+002, 5.182977e+003
4.629109e+002, 5.175946e+003
4.633931e+002, 5.169848e+003
4.638752e+002, 5.163557e+003
4.643573e+002, 5.157271e+003
4.648394e+002, 5.151975e+003
4.653215e+002, 5.148473e+003
4.658036e+002, 5.143937e+003
4.662858e+002, 5.133636e+003
4.667679e+002, 5.117005e+003
4.672500e+002, 5.099632e+003
4.677321e+002, 5.081228e+003
4.682142e+002, 5.063660e+003
4.686964e+002, 5.048667e+003
4.691785e+002, 5.035671e+003
4.696606e+002, 5.022599e+003
4.701427e+002, 5.010718e+003
4.706248e+002, 4.996997e+003
4.711069e+002, 4.974200e+003
4.715891e+002, 4.941942e+003
4.720712e+002, 4.913831e+003
4.725533e+002, 4.896981e+003
4.730354e+002, 4.887372e+003
4.735175e+002, 4.878292e+003
4.739996e+002, 4.870183e+003
4.744818e+002, 4.860455e+003
4.749639e+002, 4.848342e+003
4.754460e+002, 4.834025e+003
4.759281e+002, 4.816019e+003
4.764102e+002, 4.794536e+003
4.768923e+002, 4.775858e+003
4.773745e+002, 4.765825e+003
4.778566e+002, 4.762777e+003
4.783387e+002, 4.754619e+003
4.788208e+002, 4.736070e+003
4.793029e+002, 4.719618e+003
4.797850e+002, 4.708720e+003
4.802672e+002, 4.701625e+003
4.807493e+002, 4.697315e+003
4.812314e+002, 4.695072e+003
4.817135e+002, 4.691890e+003
4.821956e+002, 4.684000e+003
4.826777e+002, 4.670557e+003
4.831599e+002, 4.658882e+003
4.836420e+002, 4.651990e+003
4.841241e+002, 4.643423e+003
4.846062e+002, 4.627573e+003
4.850883e+002, 4.610032e+003
4.855704e+002, 4.599803e+003
4.860526e+002, 4.600349e+003
4.865347e+002, 4.605636e+003
4.870168e+002, 4.606036e+003
4.874989e+002, 4.601021e+003
4.879810e+002, 4.593312e+003
4.884631e+002, 4.576446e+003
4.889453e+002, 4.563116e+003
4.894274e+002, 4.561163e+003
4.899095e+002, 4.566516e+003
4.903916e+002, 4.569926e+003
4.908737e+002, 4.566158e+003
4.913558e+002, 4.558979e+003
4.918380e+002, 4.555995e+003
4.923201e+002, 4.558120e+003
4.928022e+002, 4.556163e+003
4.932843e+002, 4.541837e+003
4.937664e+002, 4.528318e+003
4.942485e+002, 4.529831e+003
4.947307e+002, 4.544483e+003
4.952128e+002, 4.555550e+003
4.956949e+002, 4.552779e+003
4.961770e+002, 4.543553e+003
4.966591e+002, 4.537683e+003
4.971412e+002, 4.535399e+003
4.976234e+002, 4.535087e+003
4.981055e+002, 4.536505e+003
4.985876e+002, 4.538976e+003
4.990697e+002, 4.541079e+003
4.995518e+002, 4.542911e+003
5.000339e+002, 4.544267e+003
5.005161e+002, 4.544307e+003
5.009982e+002, 4.544360e+003
5.014803e+002, 4.546945e+003
5.019624e+002, 4.551648e+003
5.024445e+002, 4.554130e+003
5.029266e+002, 4.550764e+003
5.034088e+002, 4.542898e+003
5.038909e+002, 4.538352e+003
5.043730e+002, 4.538712e+003
5.048551e+002, 4.540364e+003
5.053372e+002, 4.543944e+003
5.058193e+002, 4.548073e+003
5.063015e+002, 4.551523e+003
5.067836e+002, 4.554112e+003
5.072657e+002, 4.556637e+003
5.077478e+002, 4.560470e+003
5.082299e+002, 4.565278e+003
5.087120e+002, 4.563757e+003
5.091942e+002, 4.548644e+003
5.096763e+002, 4.537700e+003
5.101584e+002, 4.536030e+003
5.106405e+002, 4.539347e+003
5.111226e+002, 4.544790e+003
5.116047e+002, 4.551266e+003
5.120869e+002, 4.555960e+003
5.125690e+002, 4.555098e+003
5.130511e+002, 4.549346e+003
5.135332e+002, 4.544464e+003
5.140153e+002, 4.540200e+003
5.144974e+002, 4.537806e+003
5.149796e+002, 4.540683e+003
5.154617e+002, 4.545077e+003
5.159438e+002, 4.545514e+003
5.164259e+002, 4.540479e+003
5.169080e+002, 4.533013e+003
5.173901e+002, 4.524455e+003
5.178723e+002, 4.515182e+003
5.183544e+002, 4.505118e+003
5.188365e+002, 4.493763e+003
5.193186e+002, 4.485427e+003
5.198007e+002, 4.485863e+003
5.202828e+002, 4.494058e+003
5.207650e+002, 4.495979e+003
5.212471e+002, 4.488819e+003
5.217292e+002, 4.478739e+003
5.222113e+002, 4.465951e+003
5.226934e+002, 4.452595e+003
5.231755e+002, 4.441698e+003
5.236577e+002, 4.434191e+003
5.241398e+002, 4.429746e+003
5.246219e+002, 4.428820e+003
5.251040e+002, 4.432708e+003
5.255861e+002, 4.429458e+003
5.260682e+002, 4.411095e+003
5.265504e+002, 4.395103e+003
5.270325e+002, 4.387801e+003
5.275146e+002, 4.385011e+003
5.279967e+002, 4.381124e+003
5.284788e+002, 4.374228e+003
5.289609e+002, 4.365966e+003
5.294431e+002, 4.358498e+003
5.299252e+002, 4.351896e+003
5.304073e+002, 4.344860e+003
5.308894e+002, 4.337237e+003
5.313715e+002, 4.329277e+003
5.318536e+002, 4.320392e+003
5.323358e+002, 4.311470e+003
5.328179e+002, 4.304405e+003
5.333000e+002, 4.300422e+003
5.337821e+002, 4.295775e+003
5.342642e+002, 4.287001e+003
5.347463e+002, 4.274422e+003
5.352285e+002, 4.258280e+003
5.357106e+002, 4.237275e+003
5.361927e+002, 4.217056e+003
5.366748e+002, 4.203383e+003
5.371569e+002, 4.194985e+003
5.376390e+002, 4.185934e+003
5.381212e+002, 4.175323e+003
5.386033e+002, 4.164517e+003
5.390854e+002, 4.155287e+003
5.395675e+002, 4.146116e+003
5.400496e+002, 4.134058e+003
5.405317e+002, 4.118286e+003
5.410139e+002, 4.100524e+003
5.414960e+002, 4.082542e+003
5.419781e+002, 4.064336e+003
5.424602e+002, 4.045863e+003
5.429423e+002, 4.023604e+003
5.434244e+002, 4.005017e+003
5.439066e+002, 3.994167e+003
5.443887e+002, 3.987190e+003
5.448708e+002, 3.980190e+003
5.453529e+002, 3.971661e+003
5.458350e+002, 3.960731e+003
5.463171e+002, 3.946093e+003
5.467993e+002, 3.927654e+003
5.472814e+002, 3.908012e+003
5.477635e+002, 3.885386e+003
5.482456e+002, 3.864214e+003
5.487277e+002, 3.846716e+003
5.492098e+002, 3.831230e+003
5.496920e+002, 3.815335e+003
5.501741e+002, 3.798247e+003
5.506562e+002, 3.782767e+003
5.511383e+002, 3.774037e+003
5.516204e+002, 3.769316e+003
5.521025e+002, 3.757067e+003
5.525847e+002, 3.734290e+003
5.530668e+002, 3.712192e+003
5.535489e+002, 3.699422e+003
5.540310e+002, 3.693290e+003
5.545131e+002, 3.684997e+003
5.549952e+002, 3.674707e+003
5.554774e+002, 3.661607e+003
5.559595e+002, 3.643223e+003
5.564416e+002, 3.622741e+003
5.569237e+002, 3.604825e+003
5.574058e+002, 3.589908e+003
5.578879e+002, 3.575128e+003
5.583701e+002, 3.557750e+003
5.588522e+002, 3.538294e+003
5.593343e+002, 3.520820e+003
5.598164e+002, 3.509216e+003
5.602985e+002, 3.494541e+003
5.607806e+002, 3.473379e+003
5.612628e+002, 3.450736e+003
5.617449e+002, 3.430281e+003
5.622270e+002, 3.412678e+003
5.627091e+002, 3.396971e+003
5.631912e+002, 3.382719e+003
5.636733e+002, 3.369579e+003
5.641555e+002, 3.356472e+003
5.646376e+002, 3.344046e+003
5.651197e+002, 3.329897e+003
5.656018e+002, 3.309759e+003
5.660839e+002, 3.290068e+003
5.665660e+002, 3.276862e+003
5.670482e+002, 3.270042e+003
5.675303e+002, 3.263492e+003
5.680124e+002, 3.254751e+003
5.684945e+002, 3.244013e+003
5.689766e+002, 3.230371e+003
5.694587e+002, 3.214169e+003
5.699409e+002, 3.200168e+003
5.704230e+002, 3.191484e+003
5.709051e+002, 3.184391e+003
5.713872e+002, 3.171794e+003
5.718693e+002, 3.152549e+003
5.723514e+002, 3.133663e+003
5.728336e+002, 3.114489e+003
5.733157e+002, 3.097042e+003
5.737978e+002, 3.083512e+003
5.742799e+002, 3.072675e+003
5.747620e+002, 3.061921e+003
5.752441e+002, 3.050062e+003
5.757263e+002, 3.036743e+003
5.762084e+002, 3.020766e+003
5.766905e+002, 3.000102e+003
5.771726e+002, 2.983038e+003
5.776547e+002, 2.970895e+003
5.781368e+002, 2.961207e+003
5.786190e+002, 2.956709e+003
5.791011e+002, 2.953122e+003
5.795832e+002, 2.942720e+003
5.800653e+002, 2.921888e+003
5.805474e+002, 2.899041e+003
5.810295e+002, 2.884466e+003
5.815117e+002, 2.877259e+003
5.819938e+002, 2.868992e+003
5.824759e+002, 2.857755e+003
5.829580e+002, 2.847686e+003
5.834401e+002, 2.843191e+003
5.839222e+002, 2.841904e+003
5.844044e+002, 2.837850e+003
5.848865e+002, 2.829861e+003
5.853686e+002, 2.820341e+003
5.858507e+002, 2.809405e+003
5.863328e+002, 2.798023e+003
5.868149e+002, 2.787548e+003
5.872971e+002, 2.778251e+003
5.877792e+002, 2.769854e+003
5.882613e+002, 2.762207e+003
5.887434e+002, 2.755262e+003
5.892255e+002, 2.748588e+003
5.897076e+002, 2.741920e+003
5.901898e+002, 2.736015e+003
5.906719e+002, 2.732785e+003
5.911540e+002, 2.728907e+003
5.916361e+002, 2.721552e+003
5.921182e+002, 2.711031e+003
5.926003e+002, 2.699528e+003
5.930825e+002, 2.688067e+003
5.935646e+002, 2.677207e+003
5.940467e+002, 2.668144e+003
5.945288e+002, 2.660719e+003
5.950109e+002, 2.656026e+003
5.954930e+002, 2.657786e+003
5.959752e+002, 2.658553e+003
5.964573e+002, 2.650801e+003
5.969394e+002, 2.636224e+003
5.974215e+002, 2.622919e+003
5.979036e+002, 2.612121e+003
5.983857e+002, 2.604754e+003
5.988679e+002, 2.604694e+003
5.993500e+002, 2.608714e+003
5.998321e+002, 2.607053e+003
6.003142e+002, 2.596573e+003
6.007963e+002, 2.583490e+003
6.012784e+002, 2.574652e+003
6.017606e+002, 2.570322e+003
6.022427e+002, 2.566722e+003
6.027248e+002, 2.564299e+003
6.032069e+002, 2.561938e+003
6.036890e+002, 2.558892e+003
6.041711e+002, 2.556001e+003
6.046533e+002, 2.555094e+003
6.051354e+002, 2.555963e+003
6.056176e+002, 2.555288e+003
6.060997e+002, 2.548858e+003
6.065818e+002, 2.538128e+003
6.070639e+002, 2.532287e+003
6.075460e+002, 2.532450e+003
6.080281e+002, 2.534417e+003
6.085103e+002, 2.539062e+003
6.089924e+002, 2.543322e+003
6.094745e+002, 2.544128e+003
6.099566e+002, 2.541501e+003
6.104387e+002, 2.538211e+003
6.109208e+002, 2.534647e+003
6.114030e+002, 2.531623e+003
6.118851e+002, 2.530110e+003
6.123672e+002, 2.529979e+003
6.128493e+002, 2.530321e+003
6.133314e+002, 2.530649e+003
6.138135e+002, 2.532114e+003
6.142957e+002, 2.536821e+003
6.147778e+002, 2.545880e+003
6.152599e+002, 2.552437e+003
6.157420e+002, 2.554325e+003
6.162241e+002, 2.556368e+003
6.167062e+002, 2.560991e+003
6.171884e+002, 2.566547e+003
6.176705e+002, 2.570273e+003
6.181526e+002, 2.571619e+003
6.186347e+002, 2.573300e+003
6.191168e+002, 2.579599e+003
6.195989e+002, 2.589766e+003
6.200811e+002, 2.594176e+003
6.205632e+002, 2.592459e+003
6.210453e+002, 2.585884e+003
6.215274e+002, 2.570577e+003
6.220095e+002, 2.553165e+003
6.224916e+002, 2.540912e+003
6.229738e+002, 2.534381e+003
6.234559e+002, 2.527948e+003
6.239380e+002, 2.518266e+003
6.244201e+002, 2.508025e+003
6.249022e+002, 2.500447e+003
6.253843e+002, 2.495125e+003
6.258665e+002, 2.489296e+003
6.263486e+002, 2.481693e+003
6.268307e+002, 2.473772e+003
6.273128e+002, 2.468036e+003
6.277949e+002, 2.465188e+003
6.282770e+002, 2.461603e+003
6.287592e+002, 2.455490e+003
6.292413e+002, 2.450792e+003
6.297234e+002, 2.450738e+003
6.302055e+002, 2.452142e+003
6.306876e+002, 2.450378e+003
6.311697e+002, 2.444386e+003
6.316519e+002, 2.437629e+003
6.321340e+002, 2.434109e+003
6.326161e+002, 2.433223e+003
6.330982e+002, 2.430933e+003
6.335803e+002, 2.427282e+003
6.340624e+002, 2.422067e+003
6.345446e+002, 2.413567e+003
6.350267e+002, 2.404670e+003
6.355088e+002, 2.399694e+003
6.359909e+002, 2.399022e+003
6.364730e+002, 2.397232e+003
6.369551e+002, 2.390413e+003
6.374373e+002, 2.383636e+003
6.379194e+002, 2.382813e+003
6.384015e+002, 2.385742e+003
6.388836e+002, 2.385546e+003
6.393657e+002, 2.379492e+003
6.398478e+002, 2.370697e+003
6.403300e+002, 2.363536e+003
6.408121e+002, 2.358283e+003
6.412942e+002, 2.352668e+003
6.417763e+002, 2.346880e+003
6.422584e+002, 2.340433e+003
6.427405e+002, 2.331139e+003
6.432227e+002, 2.322253e+003
6.437048e+002, 2.318233e+003
6.441869e+002, 2.319444e+003
6.446690e+002, 2.321012e+003
6.451511e+002, 2.319744e+003
6.456332e+002, 2.315884e+003
6.461154e+002, 2.309580e+003
6.465975e+002, 2.300776e+003
6.470796e+002, 2.290955e+003
6.475617e+002, 2.279924e+003
6.480438e+002, 2.269296e+003
6.485259e+002, 2.262241e+003
6.490081e+002, 2.259365e+003
6.494902e+002, 2.252809e+003
6.499723e+002, 2.236948e+003
6.504544e+002, 2.222647e+003
6.509365e+002, 2.216329e+003
6.514186e+002, 2.214659e+003
6.519008e+002, 2.212627e+003
6.523829e+002, 2.208700e+003
6.528650e+002, 2.203863e+003
6.533471e+002, 2.199443e+003
6.538292e+002, 2.195148e+003
6.543113e+002, 2.187458e+003
6.547935e+002, 2.174142e+003
6.552756e+002, 2.162362e+003
6.557577e+002, 2.155011e+003
6.562398e+002, 2.149471e+003
6.567219e+002, 2.144549e+003
6.572040e+002, 2.139934e+003
6.576862e+002, 2.134478e+003
6.581683e+002, 2.127554e+003
6.586504e+002, 2.119695e+003
6.591325e+002, 2.111000e+003
6.596146e+002, 2.101832e+003
6.600967e+002, 2.093331e+003
6.605789e+002, 2.085822e+003
6.610610e+002, 2.079334e+003
6.615431e+002, 2.074301e+003
6.620252e+002, 2.070680e+003
6.625073e+002, 2.064447e+003
6.629894e+002, 2.052226e+003
6.634716e+002, 2.041753e+003
6.639537e+002, 2.036403e+003
6.644358e+002, 2.031347e+003
6.649179e+002, 2.020768e+003
6.654000e+002, 2.006071e+003
6.658821e+002, 1.994800e+003
6.663643e+002, 1.993086e+003
6.668464e+002, 1.995393e+003
6.673285e+002, 1.990864e+003
6.678106e+002, 1.979807e+003
6.682927e+002, 1.970913e+003
6.687748e+002, 1.966458e+003
6.692570e+002, 1.963491e+003
6.697391e+002, 1.960697e+003
6.702212e+002, 1.957325e+003
6.707033e+002, 1.949766e+003
6.711854e+002, 1.933561e+003
6.716675e+002, 1.919185e+003
6.721497e+002, 1.910695e+003
6.726318e+002, 1.904717e+003
6.731139e+002, 1.897589e+003
6.735960e+002, 1.889394e+003
6.740781e+002, 1.882945e+003
6.745602e+002, 1.880263e+003
6.750424e+002, 1.879328e+003
6.755245e+002, 1.874847e+003
6.760066e+002, 1.865757e+003
6.764887e+002, 1.858852e+003
6.769708e+002, 1.857787e+003
6.774529e+002, 1.854989e+003
6.779351e+002, 1.843886e+003
6.784172e+002, 1.828991e+003
6.788993e+002, 1.818244e+003
6.793814e+002, 1.813952e+003
6.798635e+002, 1.811044e+003
6.803456e+002, 1.806451e+003
6.808278e+002, 1.801662e+003
6.813099e+002, 1.799581e+003
6.817920e+002, 1.799703e+003
6.822741e+002, 1.798166e+003
6.827562e+002, 1.792863e+003
6.832383e+002, 1.784831e+003
6.837205e+002, 1.775619e+003
6.842026e+002, 1.763449e+003
6.846847e+002, 1.755811e+003
6.851668e+002, 1.758218e+003
6.856489e+002, 1.759030e+003
6.861310e+002, 1.752850e+003
6.866132e+002, 1.743823e+003
6.870953e+002, 1.737915e+003
6.875774e+002, 1.736324e+003
6.880595e+002, 1.734104e+003
6.885416e+002, 1.725588e+003
6.890237e+002, 1.714642e+003
6.895059e+002, 1.709578e+003
6.899880e+002, 1.710138e+003
6.904701e+002, 1.709573e+003
6.909522e+002, 1.705470e+003
6.914343e+002, 1.698273e+003
6.919164e+002, 1.687222e+003
6.923986e+002, 1.670710e+003
6.928807e+002, 1.662990e+003
6.933628e+002, 1.671978e+003
6.938449e+002, 1.679199e+003
6.943270e+002, 1.679193e+003
6.948091e+002, 1.674918e+003
6.952913e+002, 1.668503e+003
6.957734e+002, 1.661088e+003
6.962555e+002, 1.654935e+003
6.967376e+002, 1.652787e+003
6.972197e+002, 1.651754e+003
6.977018e+002, 1.643844e+003
6.981840e+002, 1.628885e+003
6.986661e+002, 1.617649e+003
6.991482e+002, 1.613750e+003
6.996303e+002, 1.611668e+003
7.001124e+002, 1.606620e+003
7.005945e+002, 1.599003e+003
7.010767e+002, 1.591773e+003
7.015588e+002, 1.583795e+003
7.020409e+002, 1.577887e+003
7.025230e+002, 1.576944e+003
7.030051e+002, 1.576914e+003
7.034872e+002, 1.574880e+003
7.039694e+002, 1.570155e+003
7.044515e+002, 1.561781e+003
7.049336e+002, 1.548922e+003
7.054157e+002, 1.534841e+003
7.058978e+002, 1.525855e+003
7.063799e+002, 1.522213e+003
7.068621e+002, 1.520031e+003
7.073442e+002, 1.520066e+003
7.078263e+002, 1.519456e+003
7.083084e+002, 1.516256e+003
7.087905e+002, 1.511520e+003
7.092726e+002, 1.506821e+003
7.097548e+002, 1.502218e+003
7.102369e+002, 1.497789e+003
7.107190e+002, 1.493828e+003
7.112011e+002, 1.489816e+003
7.116832e+002, 1.484707e+003
7.121653e+002, 1.479257e+003
7.126475e+002, 1.476490e+003
7.131296e+002, 1.477208e+003
7.136117e+002, 1.475885e+003
7.140938e+002, 1.463825e+003
7.145759e+002, 1.441448e+003
7.150580e+002, 1.430761e+003
7.155402e+002, 1.437600e+003
7.160223e+002, 1.443047e+003
7.165044e+002, 1.441453e+003
7.169865e+002, 1.436085e+003
7.174686e+002, 1.427278e+003
7.179507e+002, 1.416246e+003
7.184329e+002, 1.409915e+003
7.189150e+002, 1.414396e+003
7.193971e+002, 1.420285e+003
7.198792e+002, 1.421400e+003
7.203613e+002, 1.419355e+003
7.208434e+002, 1.416981e+003
7.213256e+002, 1.414724e+003
7.218077e+002, 1.411144e+003
7.222898e+002, 1.404919e+003
7.227719e+002, 1.396921e+003
7.232540e+002, 1.389732e+003
7.237361e+002, 1.382362e+003
7.242183e+002, 1.378710e+003
7.247004e+002, 1.383200e+003
7.251825e+002, 1.386961e+003
7.256646e+002, 1.384969e+003
7.261467e+002, 1.379506e+003
7.266288e+002, 1.374199e+003
7.271110e+002, 1.369285e+003
7.275931e+002, 1.366954e+003
7.280752e+002, 1.370883e+003
7.285573e+002, 1.376622e+003
7.290394e+002, 1.378046e+003
7.295215e+002, 1.375722e+003
7.300037e+002, 1.373892e+003
7.304858e+002, 1.374473e+003
7.309679e+002, 1.375386e+003
7.314500e+002, 1.372986e+003
7.319321e+002, 1.366572e+003
7.324142e+002, 1.365355e+003
7.328964e+002, 1.373549e+003
7.333785e+002, 1.380481e+003
7.338606e+002, 1.383567e+003
7.343427e+002, 1.384225e+003
7.348248e+002, 1.382395e+003
7.353069e+002, 1.378799e+003
7.357891e+002, 1.377084e+003
7.362712e+002, 1.380352e+003
7.367533e+002, 1.384346e+003
7.372354e+002, 1.384637e+003
7.377175e+002, 1.383055e+003
7.381996e+002, 1.383596e+003
7.386818e+002, 1.386958e+003
7.391639e+002, 1.391698e+003
7.396460e+002, 1.397037e+003
7.401281e+002, 1.402237e+003
7.406102e+002, 1.404160e+003
7.410923e+002, 1.400281e+003
7.415745e+002, 1.399447e+003
7.420566e+002, 1.403599e+003
7.425387e+002, 1.409407e+003
7.430208e+002, 1.416448e+003
7.435029e+002, 1.423849e+003
7.439850e+002, 1.430358e+003
7.444672e+002, 1.435702e+003
7.449493e+002, 1.440551e+003
7.454314e+002, 1.444272e+003
7.459135e+002, 1.448390e+003
7.463956e+002, 1.456429e+003
7.468777e+002, 1.466737e+003
7.473599e+002, 1.472445e+003
7.478420e+002, 1.470985e+003
7.483241e+002, 1.468050e+003
7.488062e+002, 1.470936e+003
7.492883e+002, 1.479503e+003
7.497704e+002, 1.485502e+003
7.502526e+002, 1.486111e+003
7.507347e+002, 1.489403e+003
7.512168e+002, 1.501117e+003
7.516989e+002, 1.512691e+003
7.521810e+002, 1.516978e+003
7.526631e+002, 1.515838e+003
7.531453e+002, 1.517057e+003
7.536274e+002, 1.524303e+003
7.541095e+002, 1.532145e+003
7.545916e+002, 1.536448e+003
7.550737e+002, 1.539290e+003
7.555558e+002, 1.544480e+003
7.560380e+002, 1.551758e+003
7.565201e+002, 1.556708e+003
7.570022e+002, 1.556572e+003
7.574843e+002, 1.555179e+003
7.579664e+002, 1.561392e+003
7.584485e+002, 1.577934e+003
7.589307e+002, 1.586228e+003
7.594128e+002, 1.581046e+003
7.598949e+002, 1.576348e+003
7.603770e+002, 1.578496e+003
7.608591e+002, 1.583370e+003
7.613412e+002, 1.586905e+003
7.618234e+002, 1.588871e+003
7.623055e+002, 1.591285e+003
7.627876e+002, 1.596298e+003
7.632697e+002, 1.600478e+003
7.637518e+002, 1.599601e+003
7.642339e+002, 1.596932e+003
7.647161e+002, 1.599464e+003
7.651982e+002, 1.607400e+003
7.656803e+002, 1.612781e+003
7.661624e+002, 1.608856e+003
7.666445e+002, 1.599453e+003
7.671266e+002, 1.596187e+003
7.676088e+002, 1.600504e+003
7.680909e+002, 1.602043e+003
7.685730e+002, 1.599128e+003
7.690551e+002, 1.594211e+003
7.695372e+002, 1.586934e+003
7.700193e+002, 1.579270e+003
7.705015e+002, 1.575484e+003
7.709836e+002, 1.577037e+003
7.714657e+002, 1.576901e+003
7.719478e+002, 1.571606e+003
7.724299e+002, 1.565589e+003
7.729120e+002, 1.562639e+003
7.733942e+002, 1.560975e+003
7.738763e+002, 1.556783e+003
7.743584e+002, 1.549342e+003
7.748405e+002, 1.541785e+003
7.753226e+002, 1.537290e+003
7.758047e+002, 1.534745e+003
7.762869e+002, 1.530255e+003
7.767690e+002, 1.523631e+003
7.772511e+002, 1.517887e+003
7.777332e+002, 1.514291e+003
7.782153e+002, 1.510150e+003
7.786974e+002, 1.503382e+003
7.791796e+002, 1.494206e+003
7.796617e+002, 1.483588e+003
7.801438e+002, 1.469056e+003
7.806259e+002, 1.457779e+003
7.811080e+002, 1.454619e+003
7.815901e+002, 1.451233e+003
7.820723e+002, 1.440952e+003
7.825544e+002, 1.426932e+003
7.830365e+002, 1.415646e+003
7.835186e+002, 1.409020e+003
7.840007e+002, 1.403221e+003
7.844828e+002, 1.394208e+003
7.849650e+002, 1.383452e+003
7.854471e+002, 1.374804e+003
7.859292e+002, 1.368145e+003
7.864113e+002, 1.361742e+003
7.868934e+002, 1.355155e+003
7.873755e+002, 1.348474e+003
7.878577e+002, 1.342251e+003
7.883398e+002, 1.336108e+003
7.888219e+002, 1.326382e+003
7.893040e+002, 1.308732e+003
7.897861e+002, 1.294023e+003
7.902682e+002, 1.284037e+003
7.907504e+002, 1.275802e+003
7.912325e+002, 1.269097e+003
7.917146e+002, 1.262432e+003
7.921967e+002, 1.252552e+003
7.926788e+002, 1.238189e+003
7.931609e+002, 1.224930e+003
7.936431e+002, 1.219140e+003
7.941252e+002, 1.215473e+003
7.946073e+002, 1.204332e+003
7.950894e+002, 1.188001e+003
7.955715e+002, 1.177484e+003
7.960536e+002, 1.176454e+003
7.965358e+002, 1.177283e+003
7.970179e+002, 1.171633e+003
7.975000e+002, 1.160202e+003
7.979821e+002, 1.148856e+003
7.984642e+002, 1.136725e+003
7.989464e+002, 1.127048e+003
7.994285e+002, 1.122984e+003
7.999106e+002, 1.118520e+003
8.003927e+002, 1.108791e+003
8.008748e+002, 1.096094e+003
8.013569e+002, 1.085673e+003
8.018391e+002, 1.078820e+003
8.023212e+002, 1.072553e+003
8.028033e+002, 1.066757e+003
8.032854e+002, 1.060263e+003
8.037675e+002, 1.050581e+003
8.042496e+002, 1.039738e+003
8.047318e+002, 1.032290e+003
8.052139e+002, 1.029426e+003
8.056960e+002, 1.027735e+003
8.061781e+002, 1.024348e+003
8.066602e+002, 1.019057e+003
8.071423e+002, 1.010149e+003
8.076245e+002, 9.972219e+002
8.081066e+002, 9.870163e+002
8.085887e+002, 9.817621e+002
8.090708e+002, 9.771548e+002
8.095529e+002, 9.693298e+002
8.100350e+002, 9.594552e+002
8.105172e+002, 9.526733e+002
8.109993e+002, 9.513781e+002
8.114814e+002, 9.483226e+002
8.119635e+002, 9.421283e+002
8.124456e+002, 9.351735e+002
8.129277e+002, 9.283722e+002
8.134099e+002, 9.217861e+002
8.138920e+002, 9.153923e+002
8.143741e+002, 9.091624e+002
8.148562e+002, 9.030146e+002
8.153383e+002, 8.968826e+002
8.158204e+002, 8.908402e+002
8.163026e+002, 8.845931e+002
8.167847e+002, 8.785179e+002
8.172668e+002, 8.742648e+002
8.177489e+002, 8.720757e+002
8.182310e+002, 8.696530e+002
8.187131e+002, 8.650999e+002
8.191953e+002, 8.593905e+002
8.196774e+002, 8.554222e+002
8.201595e+002, 8.538724e+002
8.206416e+002, 8.518400e+002
8.211237e+002, 8.489514e+002
8.216058e+002, 8.460070e+002
8.220880e+002, 8.431650e+002
8.225701e+002, 8.405218e+002
8.230522e+002, 8.390341e+002
8.235343e+002, 8.387117e+002
8.240164e+002, 8.351463e+002
8.244985e+002, 8.226755e+002
8.249807e+002, 8.116075e+002
8.254628e+002, 8.091112e+002
8.259449e+002, 8.105311e+002
8.264270e+002, 8.105297e+002
8.269091e+002, 8.082764e+002
8.273912e+002, 8.045895e+002
8.278734e+002, 7.997530e+002
8.283555e+002, 7.951582e+002
8.288376e+002, 7.933386e+002
8.293197e+002, 7.938431e+002
8.298018e+002, 7.941879e+002
8.302839e+002, 7.943651e+002
8.307661e+002, 7.921976e+002
8.312482e+002, 7.858369e+002
8.317303e+002, 7.788904e+002
8.322124e+002, 7.765957e+002
8.326945e+002, 7.793290e+002
8.331766e+002, 7.797396e+002
8.336588e+002, 7.760132e+002
8.341409e+002, 7.723732e+002
8.346230e+002, 7.685715e+002
8.351051e+002, 7.656364e+002
8.355872e+002, 7.649706e+002
8.360693e+002, 7.656201e+002
8.365515e+002, 7.652819e+002
8.370336e+002, 7.631329e+002
8.375157e+002, 7.606979e+002
8.379978e+002, 7.597480e+002
8.384799e+002, 7.584488e+002
8.389620e+002, 7.538474e+002
8.394442e+002, 7.470842e+002
8.399263e+002, 7.408839e+002
8.404084e+002, 7.363116e+002
8.408905e+002, 7.347319e+002
8.413726e+002, 7.383654e+002
8.418547e+002, 7.449630e+002
8.423369e+002, 7.458851e+002
8.428190e+002, 7.405724e+002
8.433011e+002, 7.344672e+002
8.437832e+002, 7.277486e+002
8.442653e+002, 7.220657e+002
8.447474e+002, 7.184010e+002
8.452296e+002, 7.165710e+002
8.457117e+002, 7.164210e+002
8.461938e+002, 7.187502e+002
8.466759e+002, 7.199709e+002
8.471580e+002, 7.186776e+002
8.476401e+002, 7.177958e+002
8.481223e+002, 7.190143e+002
8.486044e+002, 7.207902e+002
8.490865e+002, 7.216891e+002
8.495686e+002, 7.214904e+002
8.500507e+002, 7.202623e+002
8.505328e+002, 7.174758e+002
8.510150e+002, 7.149222e+002
8.514971e+002, 7.152335e+002
8.519792e+002, 7.165347e+002
8.524613e+002, 7.147699e+002
8.529434e+002, 7.103093e+002
8.534255e+002, 7.070184e+002
8.539077e+002, 7.066838e+002
8.543898e+002, 7.074961e+002
8.548719e+002, 7.068767e+002
8.553540e+002, 7.050266e+002
8.558361e+002, 7.049686e+002
8.563182e+002, 7.074609e+002
8.568004e+002, 7.085334e+002
8.572825e+002, 7.068878e+002
8.577646e+002, 7.041464e+002
8.582467e+002, 7.008673e+002
8.587288e+002, 6.975856e+002
8.592109e+002, 6.962587e+002
8.596931e+002, 6.973215e+002
8.601752e+002, 6.993092e+002
8.606573e+002, 7.037487e+002
8.611394e+002, 7.072219e+002
8.616215e+002, 7.083002e+002
8.621036e+002, 7.072137e+002
8.625858e+002, 7.029342e+002
8.630679e+002, 6.962450e+002
8.635500e+002, 6.926005e+002
8.640321e+002, 6.974923e+002
8.645142e+002, 7.035408e+002
8.649963e+002, 7.015115e+002
8.654785e+002, 6.952811e+002
8.659606e+002, 6.933663e+002
8.664427e+002, 6.960365e+002
8.669248e+002, 6.971985e+002
8.674069e+002, 6.935156e+002
8.678890e+002, 6.887922e+002
8.683712e+002, 6.896061e+002
8.688533e+002, 6.957228e+002
8.693354e+002, 6.992422e+002
8.698175e+002, 6.999055e+002
8.702996e+002, 6.988023e+002
8.707817e+002, 6.952062e+002
8.712639e+002, 6.917118e+002
8.717460e+002, 6.906229e+002
8.722281e+002, 6.916783e+002
8.727102e+002, 6.935470e+002
8.731923e+002, 6.978488e+002
8.736744e+002, 6.999427e+002
8.741566e+002, 6.982595e+002
8.746387e+002, 6.957211e+002
8.751208e+002, 6.934696e+002
8.756029e+002, 6.914056e+002
8.760850e+002, 6.889853e+002
8.765671e+002, 6.862612e+002
8.770493e+002, 6.844272e+002
8.775314e+002, 6.845148e+002
8.780135e+002, 6.852530e+002
8.784956e+002, 6.854359e+002
8.789777e+002, 6.855532e+002
8.794598e+002, 6.869398e+002
8.799420e+002, 6.892236e+002
8.804241e+002, 6.902323e+002
8.809062e+002, 6.888589e+002
8.813883e+002, 6.862606e+002
8.818704e+002, 6.833616e+002
8.823525e+002, 6.805412e+002
8.828347e+002, 6.813527e+002
8.833168e+002, 6.862381e+002
8.837989e+002, 6.886398e+002
8.842810e+002, 6.860939e+002
8.847631e+002, 6.828981e+002
8.852452e+002, 6.830237e+002
8.857274e+002, 6.855238e+002
8.862095e+002, 6.863001e+002
8.866916e+002, 6.843050e+002
8.871737e+002, 6.826816e+002
8.876558e+002, 6.801514e+002
8.881379e+002, 6.795054e+002
8.886201e+002, 6.836563e+002
8.891022e+002, 6.889561e+002
8.895843e+002, 6.909022e+002
8.900664e+002, 6.895298e+002
8.905485e+002, 6.889176e+002
8.910306e+002, 6.906567e+002
8.915128e+002, 6.930867e+002
8.919949e+002, 6.957726e+002
8.924770e+002, 6.984061e+002
8.929591e+002, 7.010693e+002
8.934412e+002, 7.033214e+002
8.939233e+002, 7.037565e+002
8.944055e+002, 7.019565e+002
8.948876e+002, 7.004205e+002
8.953697e+002, 7.023254e+002
8.958518e+002, 7.059210e+002
8.963339e+002, 7.072325e+002
8.968160e+002, 7.066681e+002
8.972982e+002, 7.059967e+002
8.977803e+002, 7.056136e+002
8.982624e+002, 7.068721e+002
8.987445e+002, 7.110095e+002
8.992266e+002, 7.165004e+002
8.997087e+002, 7.198929e+002
9.001909e+002, 7.210724e+002
9.006730e+002, 7.206418e+002
9.011551e+002, 7.173071e+002
9.016372e+002, 7.156339e+002
9.021193e+002, 7.186414e+002
9.026014e+002, 7.221617e+002
9.030836e+002, 7.211271e+002
9.035657e+002, 7.164898e+002
9.040478e+002, 7.146688e+002
9.045299e+002, 7.169433e+002
9.050120e+002, 7.201024e+002
9.054941e+002, 7.247287e+002
9.059763e+002, 7.290808e+002
9.064584e+002, 7.326854e+002
9.069405e+002, 7.351320e+002
9.074226e+002, 7.348306e+002
9.079047e+002, 7.321603e+002
9.083868e+002, 7.320865e+002
9.088690e+002, 7.399725e+002
9.093511e+002, 7.477472e+002
9.098332e+002, 7.467633e+002
9.103153e+002, 7.428162e+002
9.107974e+002, 7.447745e+002
9.112795e+002, 7.520639e+002
9.117617e+002, 7.594815e+002
9.122438e+002, 7.646848e+002
9.127259e+002, 7.674039e+002
9.132080e+002, 7.664568e+002
9.136901e+002, 7.631232e+002
9.141722e+002, 7.608696e+002
9.146544e+002, 7.598243e+002
9.151365e+002, 7.625420e+002
9.156186e+002, 7.698992e+002
9.161007e+002, 7.757970e+002
9.165828e+002, 7.755365e+002
9.170649e+002, 7.718865e+002
9.175471e+002, 7.709188e+002
9.180292e+002, 7.725083e+002
9.185113e+002, 7.779034e+002
9.189934e+002, 7.900909e+002
9.194755e+002, 7.997040e+002
9.199576e+002, 8.028318e+002
9.204398e+002, 8.037152e+002
9.209219e+002, 8.068284e+002
9.214040e+002, 8.110175e+002
9.218861e+002, 8.113737e+002
9.223682e+002, 8.035704e+002
9.228503e+002, 8.007277e+002
9.233325e+002, 8.078755e+002
9.238146e+002, 8.167596e+002
9.242967e+002, 8.247676e+002
9.247788e+002, 8.312211e+002
9.252609e+002, 8.350250e+002
9.257430e+002, 8.365588e+002
9.262252e+002, 8.383851e+002
9.267073e+002, 8.421195e+002
9.271894e+002, 8.454891e+002
9.276715e+002, 8.462697e+002
9.281536e+002, 8.461600e+002
9.286357e+002, 8.464753e+002
9.291179e+002, 8.478417e+002
9.296000e+002, 8.523425e+002
9.300821e+002, 8.600828e+002
9.305642e+002, 8.659655e+002
9.310463e+002, 8.642291e+002
9.315284e+002, 8.593968e+002
9.320106e+002, 8.610475e+002
9.324927e+002, 8.678893e+002
9.329748e+002, 8.744170e+002
9.334569e+002, 8.798371e+002
9.339391e+002, 8.838351e+002
9.344212e+002, 8.861055e+002
9.349033e+002, 8.880056e+002
9.353854e+002, 8.917637e+002
9.358676e+002, 8.971646e+002
9.363497e+002, 8.999957e+002
9.368318e+002, 8.990939e+002
9.373139e+002, 9.006093e+002
9.377960e+002, 9.063690e+002
9.382781e+002, 9.133445e+002
9.387603e+002, 9.205731e+002
9.392424e+002, 9.269017e+002
9.397245e+002, 9.291743e+002
9.402066e+002, 9.253903e+002
9.406887e+002, 9.259937e+002
9.411708e+002, 9.357448e+002
9.416530e+002, 9.432494e+002
9.421351e+002, 9.438557e+002
9.426172e+002, 9.434885e+002
9.430993e+002, 9.463057e+002
9.435814e+002, 9.517480e+002
9.440635e+002, 9.578714e+002
9.445457e+002, 9.643743e+002
9.450278e+002, 9.712714e+002
9.455099e+002, 9.799699e+002
9.459920e+002, 9.874408e+002
9.464741e+002, 9.900447e+002
9.469562e+002, 9.914208e+002
9.474384e+002, 9.965941e+002
9.479205e+002, 1.005224e+003
9.484026e+002, 1.013534e+003
9.488847e+002, 1.019830e+003
9.493668e+002, 1.024844e+003
9.498489e+002, 1.029018e+003
9.503311e+002, 1.032443e+003
9.508132e+002, 1.034466e+003
9.512953e+002, 1.035987e+003
9.517774e+002, 1.039535e+003
9.522595e+002, 1.045479e+003
9.527416e+002, 1.051898e+003
9.532238e+002, 1.057394e+003
9.537059e+002, 1.062408e+003
9.541880e+002, 1.066755e+003
9.546701e+002, 1.071135e+003
9.551522e+002, 1.080684e+003
9.556343e+002, 1.095428e+003
9.561165e+002, 1.107759e+003
9.565986e+002, 1.114842e+003
9.570807e+002, 1.120983e+003
9.575628e+002, 1.130413e+003
9.580449e+002, 1.142218e+003
9.585270e+002, 1.152395e+003
9.590092e+002, 1.159572e+003
9.594913e+002, 1.173405e+003
9.599734e+002, 1.198573e+003
9.604555e+002, 1.218666e+003
9.609376e+002, 1.223816e+003
9.614197e+002, 1.225699e+003
9.619019e+002, 1.237389e+003
9.623840e+002, 1.258339e+003
9.628661e+002, 1.280752e+003
9.633482e+002, 1.306836e+003
9.638303e+002, 1.330723e+003
9.643124e+002, 1.346102e+003
9.647946e+002, 1.366543e+003
9.652767e+002, 1.400117e+003
9.657588e+002, 1.440046e+003
9.662409e+002, 1.478146e+003
9.667230e+002, 1.514219e+003
9.672051e+002, 1.554065e+003
9.676873e+002, 1.596170e+003
9.681694e+002, 1.646004e+003
9.686515e+002, 1.710086e+003
9.691336e+002, 1.777858e+003
9.696157e+002, 1.847019e+003
9.700978e+002, 1.912133e+003
9.705800e+002, 1.968628e+003
9.710621e+002, 2.014080e+003
9.715442e+002, 2.040786e+003
9.720263e+002, 2.044686e+003
9.725084e+002, 2.028678e+003
9.729905e+002, 1.990945e+003
9.734727e+002, 1.937570e+003
9.739548e+002, 1.870205e+003
9.744369e+002, 1.794460e+003
9.749190e+002, 1.718761e+003
9.754011e+002, 1.646867e+003
9.758832e+002, 1.581460e+003
9.763654e+002, 1.523057e+003
9.768475e+002, 1.474460e+003
9.773296e+002, 1.442731e+003
9.778117e+002, 1.423281e+003
9.782938e+002, 1.406145e+003
9.787759e+002, 1.390257e+003
9.792581e+002, 1.376903e+003
9.797402e+002, 1.366604e+003
9.802223e+002, 1.359429e+003
9.807044e+002, 1.355444e+003
9.811865e+002, 1.354579e+003
9.816686e+002, 1.357373e+003
9.821508e+002, 1.363539e+003
9.826329e+002, 1.370181e+003
9.831150e+002, 1.377048e+003
9.835971e+002, 1.380887e+003
9.840792e+002, 1.379589e+003
9.845613e+002, 1.378371e+003
9.850435e+002, 1.384244e+003
9.855256e+002, 1.396051e+003
9.860077e+002, 1.405616e+003
9.864898e+002, 1.412791e+003
9.869719e+002, 1.418206e+003
9.874540e+002, 1.421234e+003
9.879362e+002, 1.424358e+003
9.884183e+002, 1.428188e+003
9.889004e+002, 1.433781e+003
9.893825e+002, 1.443689e+003
9.898646e+002, 1.457632e+003
9.903467e+002, 1.465730e+003
9.908289e+002, 1.463954e+003
9.913110e+002, 1.464293e+003
9.917931e+002, 1.469383e+003
9.922752e+002, 1.474532e+003
9.927573e+002, 1.477914e+003
9.932394e+002, 1.479879e+003
9.937216e+002, 1.480126e+003
9.942037e+002, 1.478758e+003
9.946858e+002, 1.479635e+003
9.951679e+002, 1.485157e+003
9.956500e+002, 1.489761e+003
9.961321e+002, 1.491444e+003
9.966143e+002, 1.493375e+003
9.970964e+002, 1.498073e+003
9.975785e+002, 1.503653e+003
9.980606e+002, 1.506661e+003
9.985427e+002, 1.507271e+003
9.990248e+002, 1.510480e+003
9.995070e+002, 1.520175e+003
9.999891e+002, 1.528952e+003
1.000471e+003, 1.534019e+003
1.000953e+003, 1.537252e+003
1.001435e+003, 1.538288e+003
1.001918e+003, 1.539296e+003
1.002400e+003, 1.543723e+003
1.002882e+003, 1.551713e+003
1.003364e+003, 1.560077e+003
1.003846e+003, 1.567810e+003
1.004328e+003, 1.574433e+003
1.004810e+003, 1.578921e+003
1.005292e+003, 1.582702e+003
1.005774e+003, 1.585540e+003
1.006257e+003, 1.589510e+003
1.006739e+003, 1.600226e+003
1.007221e+003, 1.617248e+003
1.007703e+003, 1.630932e+003
1.008185e+003, 1.634270e+003
1.008667e+003, 1.634876e+003
1.009149e+003, 1.640950e+003
1.009631e+003, 1.649475e+003
1.010114e+003, 1.655440e+003
1.010596e+003, 1.659702e+003
1.011078e+003, 1.665837e+003
1.011560e+003, 1.674482e+003
1.012042e+003, 1.682931e+003
1.012524e+003, 1.689056e+003
1.013006e+003, 1.695105e+003
1.013488e+003, 1.704118e+003
1.013970e+003, 1.715714e+003
1.014453e+003, 1.730106e+003
1.014935e+003, 1.746304e+003
1.015417e+003, 1.761110e+003
1.015899e+003, 1.773352e+003
1.016381e+003, 1.780374e+003
1.016863e+003, 1.779490e+003
1.017345e+003, 1.776469e+003
1.017827e+003, 1.782606e+003
1.018310e+003, 1.796303e+003
1.018792e+003, 1.809236e+003
1.019274e+003, 1.821111e+003
1.019756e+003, 1.832101e+003
1.020238e+003, 1.842257e+003
1.020720e+003, 1.850397e+003
1.021202e+003, 1.855095e+003
1.021684e+003, 1.859482e+003
1.022166e+003, 1.870570e+003
1.022649e+003, 1.888281e+003
1.023131e+003, 1.905073e+003
1.023613e+003, 1.920975e+003
1.024095e+003, 1.935619e+003
1.024577e+003, 1.948974e+003
1.025059e+003, 1.960307e+003
1.025541e+003, 1.968583e+003
1.026023e+003, 1.975667e+003
1.026505e+003, 1.985468e+003
1.026988e+003, 1.998096e+003
1.027470e+003, 2.009547e+003
1.027952e+003, 2.019498e+003
1.028434e+003, 2.029647e+003
1.028916e+003, 2.040586e+003
1.029398e+003, 2.051029e+003
1.029880e+003, 2.059942e+003
1.030362e+003, 2.068339e+003
1.030844e+003, 2.078013e+003
1.031327e+003, 2.088914e+003
1.031809e+003, 2.102407e+003
1.032291e+003, 2.120970e+003
1.032773e+003, 2.135389e+003
1.033255e+003, 2.141780e+003
1.033737e+003, 2.148402e+003
1.034219e+003, 2.159150e+003
1.034701e+003, 2.173519e+003
1.035184e+003, 2.191811e+003
1.035666e+003, 2.214169e+003
1.036148e+003, 2.231422e+003
1.036630e+003, 2.239688e+003
1.037112e+003, 2.250246e+003
1.037594e+003, 2.265708e+003
1.038076e+003, 2.281260e+003
1.038558e+003, 2.294760e+003
1.039041e+003, 2.307007e+003
1.039523e+003, 2.317913e+003
1.040005e+003, 2.327739e+003
1.040487e+003, 2.341650e+003
1.040969e+003, 2.364969e+003
1.041451e+003, 2.383962e+003
1.041933e+003, 2.393853e+003
1.042415e+003, 2.404909e+003
1.042897e+003, 2.421769e+003
1.043380e+003, 2.441164e+003
1.043862e+003, 2.459932e+003
1.044344e+003, 2.478224e+003
1.044826e+003, 2.497763e+003
1.045308e+003, 2.520877e+003
1.045790e+003, 2.540400e+003
1.046272e+003, 2.552837e+003
1.046754e+003, 2.565217e+003
1.047236e+003, 2.576917e+003
1.047719e+003, 2.592467e+003
1.048201e+003, 2.619590e+003
1.048683e+003, 2.653797e+003
1.049165e+003, 2.680222e+003
1.049647e+003, 2.694174e+003
1.050129e+003, 2.710840e+003
1.050611e+003, 2.732743e+003
1.051093e+003, 2.758027e+003
1.051576e+003, 2.787886e+003
1.052058e+003, 2.818981e+003
1.052540e+003, 2.849948e+003
1.053022e+003, 2.879628e+003
1.053504e+003, 2.904125e+003
1.053986e+003, 2.921690e+003
1.054468e+003, 2.946756e+003
1.054950e+003, 2.993983e+003
1.055432e+003, 3.034477e+003
1.055915e+003, 3.051812e+003
1.056397e+003, 3.064763e+003
1.056879e+003, 3.089596e+003
1.057361e+003, 3.119586e+003
1.057843e+003, 3.141097e+003
1.058325e+003, 3.152534e+003
1.058807e+003, 3.164246e+003
1.059289e+003, 3.179666e+003
1.059771e+003, 3.195708e+003
1.060254e+003, 3.208836e+003
1.060736e+003, 3.224947e+003
1.061218e+003, 3.250938e+003
1.061700e+003, 3.280909e+003
1.062182e+003, 3.306917e+003
1.062664e+003, 3.328094e+003
1.063146e+003, 3.346633e+003
1.063628e+003, 3.360029e+003
1.064111e+003, 3.378133e+003
##END=



