##NAMES=Monazite-(Ce)
##RRUFFID=R120081
##IDEAL CHEMISTRY=CePO_4_
##LOCALITY=Hinman mine, Jefferson County, Colorado, USA
##OWNER=RRUFF
##SOURCE=Rudy Bolona
##DESCRIPTION=Reddish-brown massive
##STATUS=The identification of this mineral has been confirmed only by single crystal X-ray diffraction.
##URL=rruff.info/R120081
9.001007e+001, 0.000000e+000
9.049219e+001, 9.284167e+001
9.097430e+001, 1.000077e+002
9.145642e+001, 9.756721e+001
9.193854e+001, 8.648081e+001
9.242065e+001, 7.475356e+001
9.290277e+001, 6.850300e+001
9.338489e+001, 6.640392e+001
9.386700e+001, 6.553954e+001
9.434912e+001, 6.582124e+001
9.483124e+001, 6.643747e+001
9.531335e+001, 6.534675e+001
9.579547e+001, 6.234227e+001
9.627759e+001, 5.908302e+001
9.675970e+001, 5.758753e+001
9.724182e+001, 5.775200e+001
9.772394e+001, 5.800988e+001
9.820605e+001, 5.776041e+001
9.868817e+001, 5.702238e+001
9.917029e+001, 5.595598e+001
9.965240e+001, 5.438826e+001
1.001345e+002, 5.276501e+001
1.006166e+002, 5.216803e+001
1.010988e+002, 5.286195e+001
1.015809e+002, 5.339912e+001
1.020630e+002, 5.273187e+001
1.025451e+002, 5.042069e+001
1.030272e+002, 4.918408e+001
1.035093e+002, 4.965118e+001
1.039915e+002, 5.126872e+001
1.044736e+002, 5.156295e+001
1.049557e+002, 4.971278e+001
1.054378e+002, 4.772240e+001
1.059199e+002, 4.707884e+001
1.064020e+002, 4.884566e+001
1.068842e+002, 4.996332e+001
1.073663e+002, 4.983675e+001
1.078484e+002, 4.844660e+001
1.083305e+002, 4.748681e+001
1.088126e+002, 4.737584e+001
1.092947e+002, 4.746505e+001
1.097769e+002, 4.715936e+001
1.102590e+002, 4.614599e+001
1.107411e+002, 4.505298e+001
1.112232e+002, 4.384113e+001
1.117053e+002, 4.234383e+001
1.121874e+002, 4.147430e+001
1.126696e+002, 4.197492e+001
1.131517e+002, 4.297374e+001
1.136338e+002, 4.334096e+001
1.141159e+002, 4.207201e+001
1.145980e+002, 4.083195e+001
1.150801e+002, 4.032812e+001
1.155623e+002, 4.111138e+001
1.160444e+002, 4.149907e+001
1.165265e+002, 4.077549e+001
1.170086e+002, 3.933461e+001
1.174907e+002, 3.802242e+001
1.179728e+002, 3.698524e+001
1.184550e+002, 3.625325e+001
1.189371e+002, 3.591595e+001
1.194192e+002, 3.636842e+001
1.199013e+002, 3.663607e+001
1.203834e+002, 3.603230e+001
1.208655e+002, 3.475300e+001
1.213477e+002, 3.355975e+001
1.218298e+002, 3.265033e+001
1.223119e+002, 3.213350e+001
1.227940e+002, 3.218029e+001
1.232761e+002, 3.348911e+001
1.237582e+002, 3.480030e+001
1.242404e+002, 3.491252e+001
1.247225e+002, 3.389954e+001
1.252046e+002, 3.266766e+001
1.256867e+002, 3.174408e+001
1.261688e+002, 3.110163e+001
1.266509e+002, 3.070205e+001
1.271331e+002, 3.082946e+001
1.276152e+002, 3.108846e+001
1.280973e+002, 3.067200e+001
1.285794e+002, 2.950942e+001
1.290615e+002, 2.852853e+001
1.295436e+002, 2.918341e+001
1.300258e+002, 3.105857e+001
1.305079e+002, 3.232245e+001
1.309900e+002, 3.161958e+001
1.314721e+002, 2.961692e+001
1.319542e+002, 2.840297e+001
1.324363e+002, 2.815528e+001
1.329185e+002, 2.835733e+001
1.334006e+002, 2.823145e+001
1.338827e+002, 2.777771e+001
1.343648e+002, 2.742746e+001
1.348469e+002, 2.750504e+001
1.353290e+002, 2.797106e+001
1.358112e+002, 2.829482e+001
1.362933e+002, 2.850134e+001
1.367754e+002, 2.846821e+001
1.372575e+002, 2.763685e+001
1.377396e+002, 2.574536e+001
1.382217e+002, 2.422677e+001
1.387039e+002, 2.434566e+001
1.391860e+002, 2.647637e+001
1.396681e+002, 2.751547e+001
1.401502e+002, 2.682177e+001
1.406323e+002, 2.483680e+001
1.411144e+002, 2.341086e+001
1.415966e+002, 2.258904e+001
1.420787e+002, 2.223968e+001
1.425608e+002, 2.240749e+001
1.430429e+002, 2.343453e+001
1.435250e+002, 2.399504e+001
1.440071e+002, 2.375640e+001
1.444893e+002, 2.275909e+001
1.449714e+002, 2.196696e+001
1.454535e+002, 2.142658e+001
1.459356e+002, 2.105215e+001
1.464177e+002, 2.078857e+001
1.468998e+002, 2.070929e+001
1.473820e+002, 2.061320e+001
1.478641e+002, 2.039233e+001
1.483462e+002, 1.998214e+001
1.488283e+002, 1.993471e+001
1.493104e+002, 2.075152e+001
1.497925e+002, 2.169632e+001
1.502747e+002, 2.189556e+001
1.507568e+002, 1.983169e+001
1.512389e+002, 1.858143e+001
1.517210e+002, 1.924362e+001
1.522031e+002, 2.292990e+001
1.526852e+002, 2.498005e+001
1.531674e+002, 2.411145e+001
1.536495e+002, 2.184579e+001
1.541316e+002, 2.038618e+001
1.546137e+002, 2.048355e+001
1.550958e+002, 2.090500e+001
1.555779e+002, 2.127616e+001
1.560601e+002, 2.149676e+001
1.565422e+002, 2.183307e+001
1.570243e+002, 2.264170e+001
1.575064e+002, 2.357669e+001
1.579885e+002, 2.396811e+001
1.584706e+002, 2.330132e+001
1.589528e+002, 2.232995e+001
1.594349e+002, 2.133856e+001
1.599170e+002, 2.012099e+001
1.603991e+002, 1.933162e+001
1.608812e+002, 1.932132e+001
1.613633e+002, 1.989762e+001
1.618455e+002, 2.055530e+001
1.623276e+002, 2.127894e+001
1.628097e+002, 2.192657e+001
1.632918e+002, 2.239539e+001
1.637739e+002, 2.241857e+001
1.642560e+002, 2.258665e+001
1.647382e+002, 2.317983e+001
1.652203e+002, 2.413907e+001
1.657024e+002, 2.523834e+001
1.661845e+002, 2.637745e+001
1.666666e+002, 2.761053e+001
1.671487e+002, 2.898283e+001
1.676309e+002, 3.070142e+001
1.681130e+002, 3.238008e+001
1.685951e+002, 3.374099e+001
1.690772e+002, 3.482443e+001
1.695593e+002, 3.583285e+001
1.700414e+002, 3.669012e+001
1.705236e+002, 3.760186e+001
1.710057e+002, 3.881227e+001
1.714878e+002, 4.080720e+001
1.719699e+002, 4.283521e+001
1.724520e+002, 4.420948e+001
1.729341e+002, 4.497162e+001
1.734163e+002, 4.554802e+001
1.738984e+002, 4.605300e+001
1.743805e+002, 4.660604e+001
1.748626e+002, 4.738452e+001
1.753447e+002, 4.859919e+001
1.758268e+002, 5.000743e+001
1.763090e+002, 5.127235e+001
1.767911e+002, 5.238007e+001
1.772732e+002, 5.367812e+001
1.777553e+002, 5.545060e+001
1.782374e+002, 5.738830e+001
1.787195e+002, 5.904527e+001
1.792017e+002, 6.044300e+001
1.796838e+002, 6.142730e+001
1.801659e+002, 6.145414e+001
1.806480e+002, 6.046127e+001
1.811301e+002, 5.952459e+001
1.816122e+002, 5.980593e+001
1.820944e+002, 6.103685e+001
1.825765e+002, 6.233192e+001
1.830586e+002, 6.334381e+001
1.835407e+002, 6.415029e+001
1.840228e+002, 6.501899e+001
1.845049e+002, 6.598564e+001
1.849871e+002, 6.680456e+001
1.854692e+002, 6.678207e+001
1.859513e+002, 6.614799e+001
1.864334e+002, 6.616651e+001
1.869155e+002, 6.791890e+001
1.873976e+002, 7.083687e+001
1.878798e+002, 7.308796e+001
1.883619e+002, 7.458183e+001
1.888440e+002, 7.551784e+001
1.893261e+002, 7.589150e+001
1.898082e+002, 7.575822e+001
1.902903e+002, 7.581227e+001
1.907725e+002, 7.641315e+001
1.912546e+002, 7.751442e+001
1.917367e+002, 7.885951e+001
1.922188e+002, 8.049597e+001
1.927009e+002, 8.222477e+001
1.931830e+002, 8.346152e+001
1.936652e+002, 8.419080e+001
1.941473e+002, 8.543226e+001
1.946294e+002, 8.854858e+001
1.951115e+002, 9.325459e+001
1.955936e+002, 9.551972e+001
1.960757e+002, 9.464628e+001
1.965579e+002, 9.209584e+001
1.970400e+002, 9.049799e+001
1.975221e+002, 8.989487e+001
1.980042e+002, 8.972350e+001
1.984863e+002, 8.957146e+001
1.989684e+002, 8.943015e+001
1.994506e+002, 9.014177e+001
1.999327e+002, 9.202526e+001
2.004148e+002, 9.443861e+001
2.008969e+002, 9.597725e+001
2.013790e+002, 9.657993e+001
2.018611e+002, 9.674577e+001
2.023433e+002, 9.655336e+001
2.028254e+002, 9.592644e+001
2.033075e+002, 9.589842e+001
2.037896e+002, 9.669343e+001
2.042717e+002, 9.799348e+001
2.047538e+002, 9.889651e+001
2.052360e+002, 9.923534e+001
2.057181e+002, 9.978539e+001
2.062002e+002, 1.011045e+002
2.066823e+002, 1.033251e+002
2.071644e+002, 1.054551e+002
2.076465e+002, 1.074789e+002
2.081287e+002, 1.093239e+002
2.086108e+002, 1.108259e+002
2.090929e+002, 1.119642e+002
2.095750e+002, 1.128241e+002
2.100571e+002, 1.132607e+002
2.105392e+002, 1.130336e+002
2.110214e+002, 1.135893e+002
2.115035e+002, 1.153508e+002
2.119856e+002, 1.178777e+002
2.124677e+002, 1.196683e+002
2.129498e+002, 1.205454e+002
2.134319e+002, 1.211045e+002
2.139140e+002, 1.215609e+002
2.143962e+002, 1.216822e+002
2.148783e+002, 1.226285e+002
2.153604e+002, 1.248680e+002
2.158425e+002, 1.279556e+002
2.163246e+002, 1.299128e+002
2.168067e+002, 1.303109e+002
2.172889e+002, 1.304441e+002
2.177710e+002, 1.311134e+002
2.182531e+002, 1.324931e+002
2.187352e+002, 1.338881e+002
2.192173e+002, 1.352067e+002
2.196994e+002, 1.365104e+002
2.201816e+002, 1.380714e+002
2.206637e+002, 1.401246e+002
2.211458e+002, 1.420669e+002
2.216279e+002, 1.435079e+002
2.221100e+002, 1.443867e+002
2.225921e+002, 1.449826e+002
2.230743e+002, 1.454497e+002
2.235564e+002, 1.456661e+002
2.240385e+002, 1.449718e+002
2.245206e+002, 1.430264e+002
2.250027e+002, 1.407507e+002
2.254848e+002, 1.387005e+002
2.259670e+002, 1.370126e+002
2.264491e+002, 1.352463e+002
2.269312e+002, 1.332364e+002
2.274133e+002, 1.311113e+002
2.278954e+002, 1.294165e+002
2.283775e+002, 1.283530e+002
2.288597e+002, 1.274730e+002
2.293418e+002, 1.265198e+002
2.298239e+002, 1.254264e+002
2.303060e+002, 1.244192e+002
2.307881e+002, 1.235453e+002
2.312702e+002, 1.227706e+002
2.317524e+002, 1.219478e+002
2.322345e+002, 1.209414e+002
2.327166e+002, 1.200844e+002
2.331987e+002, 1.196116e+002
2.336808e+002, 1.197160e+002
2.341629e+002, 1.197635e+002
2.346451e+002, 1.196529e+002
2.351272e+002, 1.194487e+002
2.356093e+002, 1.194815e+002
2.360914e+002, 1.200256e+002
2.365735e+002, 1.204311e+002
2.370556e+002, 1.202135e+002
2.375378e+002, 1.186807e+002
2.380199e+002, 1.181127e+002
2.385020e+002, 1.191891e+002
2.389841e+002, 1.213397e+002
2.394662e+002, 1.221104e+002
2.399483e+002, 1.206334e+002
2.404305e+002, 1.189743e+002
2.409126e+002, 1.182613e+002
2.413947e+002, 1.190425e+002
2.418768e+002, 1.195693e+002
2.423589e+002, 1.197257e+002
2.428410e+002, 1.195807e+002
2.433232e+002, 1.194186e+002
2.438053e+002, 1.195241e+002
2.442874e+002, 1.192147e+002
2.447695e+002, 1.180289e+002
2.452516e+002, 1.152726e+002
2.457337e+002, 1.131861e+002
2.462159e+002, 1.120213e+002
2.466980e+002, 1.115384e+002
2.471801e+002, 1.109662e+002
2.476622e+002, 1.100800e+002
2.481443e+002, 1.094304e+002
2.486264e+002, 1.093602e+002
2.491086e+002, 1.102735e+002
2.495907e+002, 1.107860e+002
2.500728e+002, 1.107815e+002
2.505549e+002, 1.103921e+002
2.510370e+002, 1.099343e+002
2.515191e+002, 1.092956e+002
2.520013e+002, 1.087697e+002
2.524834e+002, 1.085414e+002
2.529655e+002, 1.088662e+002
2.534476e+002, 1.087899e+002
2.539297e+002, 1.080440e+002
2.544118e+002, 1.070194e+002
2.548940e+002, 1.065880e+002
2.553761e+002, 1.069207e+002
2.558582e+002, 1.075479e+002
2.563403e+002, 1.084036e+002
2.568224e+002, 1.097707e+002
2.573046e+002, 1.103646e+002
2.577867e+002, 1.098651e+002
2.582688e+002, 1.087897e+002
2.587509e+002, 1.081491e+002
2.592330e+002, 1.081087e+002
2.597151e+002, 1.081728e+002
2.601973e+002, 1.081533e+002
2.606794e+002, 1.080148e+002
2.611615e+002, 1.079281e+002
2.616436e+002, 1.078243e+002
2.621257e+002, 1.078321e+002
2.626078e+002, 1.082680e+002
2.630900e+002, 1.094106e+002
2.635721e+002, 1.103061e+002
2.640542e+002, 1.105079e+002
2.645363e+002, 1.098559e+002
2.650184e+002, 1.096198e+002
2.655005e+002, 1.098639e+002
2.659827e+002, 1.104419e+002
2.664648e+002, 1.111944e+002
2.669469e+002, 1.121830e+002
2.674290e+002, 1.131599e+002
2.679111e+002, 1.140929e+002
2.683932e+002, 1.149860e+002
2.688754e+002, 1.156268e+002
2.693575e+002, 1.158893e+002
2.698396e+002, 1.160877e+002
2.703217e+002, 1.166646e+002
2.708038e+002, 1.177320e+002
2.712859e+002, 1.187195e+002
2.717681e+002, 1.194245e+002
2.722502e+002, 1.198560e+002
2.727323e+002, 1.204069e+002
2.732144e+002, 1.210688e+002
2.736965e+002, 1.218464e+002
2.741786e+002, 1.227726e+002
2.746608e+002, 1.238895e+002
2.751429e+002, 1.249720e+002
2.756250e+002, 1.259456e+002
2.761071e+002, 1.268291e+002
2.765892e+002, 1.278617e+002
2.770714e+002, 1.291114e+002
2.775535e+002, 1.302709e+002
2.780356e+002, 1.309263e+002
2.785177e+002, 1.310022e+002
2.789998e+002, 1.313470e+002
2.794819e+002, 1.321493e+002
2.799641e+002, 1.333487e+002
2.804462e+002, 1.347677e+002
2.809283e+002, 1.365007e+002
2.814104e+002, 1.380621e+002
2.818925e+002, 1.389091e+002
2.823746e+002, 1.390281e+002
2.828568e+002, 1.394980e+002
2.833389e+002, 1.406265e+002
2.838210e+002, 1.421181e+002
2.843031e+002, 1.431194e+002
2.847852e+002, 1.435960e+002
2.852673e+002, 1.439368e+002
2.857495e+002, 1.443040e+002
2.862316e+002, 1.447209e+002
2.867137e+002, 1.455835e+002
2.871958e+002, 1.471501e+002
2.876779e+002, 1.488820e+002
2.881600e+002, 1.495634e+002
2.886422e+002, 1.491809e+002
2.891243e+002, 1.486021e+002
2.896064e+002, 1.482696e+002
2.900885e+002, 1.481736e+002
2.905706e+002, 1.484086e+002
2.910527e+002, 1.491161e+002
2.915349e+002, 1.498173e+002
2.920170e+002, 1.497100e+002
2.924991e+002, 1.488374e+002
2.929812e+002, 1.476890e+002
2.934633e+002, 1.464810e+002
2.939454e+002, 1.452074e+002
2.944276e+002, 1.438381e+002
2.949097e+002, 1.423684e+002
2.953918e+002, 1.408796e+002
2.958739e+002, 1.394987e+002
2.963560e+002, 1.382122e+002
2.968381e+002, 1.368880e+002
2.973203e+002, 1.353132e+002
2.978024e+002, 1.337023e+002
2.982845e+002, 1.326532e+002
2.987666e+002, 1.322406e+002
2.992487e+002, 1.317065e+002
2.997308e+002, 1.300158e+002
3.002130e+002, 1.275299e+002
3.006951e+002, 1.253164e+002
3.011772e+002, 1.239875e+002
3.016593e+002, 1.230861e+002
3.021414e+002, 1.219099e+002
3.026235e+002, 1.204760e+002
3.031057e+002, 1.190994e+002
3.035878e+002, 1.182447e+002
3.040699e+002, 1.176222e+002
3.045520e+002, 1.167007e+002
3.050341e+002, 1.151074e+002
3.055162e+002, 1.133308e+002
3.059984e+002, 1.118143e+002
3.064805e+002, 1.105569e+002
3.069626e+002, 1.094513e+002
3.074447e+002, 1.085784e+002
3.079268e+002, 1.077772e+002
3.084089e+002, 1.068226e+002
3.088911e+002, 1.055057e+002
3.093732e+002, 1.042530e+002
3.098553e+002, 1.035292e+002
3.103374e+002, 1.031925e+002
3.108195e+002, 1.027474e+002
3.113016e+002, 1.017148e+002
3.117838e+002, 1.005587e+002
3.122659e+002, 9.970409e+001
3.127480e+002, 9.932634e+001
3.132301e+002, 9.904428e+001
3.137122e+002, 9.859887e+001
3.141943e+002, 9.807695e+001
3.146765e+002, 9.767191e+001
3.151586e+002, 9.788722e+001
3.156407e+002, 9.795696e+001
3.161228e+002, 9.717290e+001
3.166049e+002, 9.514112e+001
3.170870e+002, 9.359516e+001
3.175692e+002, 9.377132e+001
3.180513e+002, 9.480173e+001
3.185334e+002, 9.547439e+001
3.190155e+002, 9.520493e+001
3.194976e+002, 9.466240e+001
3.199797e+002, 9.404560e+001
3.204619e+002, 9.335325e+001
3.209440e+002, 9.280199e+001
3.214261e+002, 9.250601e+001
3.219082e+002, 9.236265e+001
3.223903e+002, 9.227654e+001
3.228724e+002, 9.219131e+001
3.233546e+002, 9.219530e+001
3.238367e+002, 9.245073e+001
3.243188e+002, 9.293534e+001
3.248009e+002, 9.307518e+001
3.252830e+002, 9.249937e+001
3.257651e+002, 9.172326e+001
3.262473e+002, 9.108151e+001
3.267294e+002, 9.068933e+001
3.272115e+002, 9.033897e+001
3.276936e+002, 8.991930e+001
3.281757e+002, 8.949697e+001
3.286578e+002, 8.938069e+001
3.291400e+002, 9.003722e+001
3.296221e+002, 9.061504e+001
3.301042e+002, 9.073216e+001
3.305863e+002, 8.989782e+001
3.310684e+002, 8.942479e+001
3.315505e+002, 8.956696e+001
3.320327e+002, 9.002377e+001
3.325148e+002, 9.009966e+001
3.329969e+002, 8.939140e+001
3.334790e+002, 8.884208e+001
3.339611e+002, 8.887168e+001
3.344432e+002, 8.976669e+001
3.349254e+002, 9.003676e+001
3.354075e+002, 8.938381e+001
3.358896e+002, 8.835071e+001
3.363717e+002, 8.766734e+001
3.368538e+002, 8.739913e+001
3.373359e+002, 8.734518e+001
3.378180e+002, 8.752496e+001
3.383001e+002, 8.793204e+001
3.387823e+002, 8.816548e+001
3.392644e+002, 8.817777e+001
3.397465e+002, 8.811045e+001
3.402286e+002, 8.810974e+001
3.407107e+002, 8.819814e+001
3.411928e+002, 8.823652e+001
3.416750e+002, 8.821479e+001
3.421571e+002, 8.812133e+001
3.426392e+002, 8.790249e+001
3.431213e+002, 8.755090e+001
3.436034e+002, 8.710975e+001
3.440855e+002, 8.644721e+001
3.445677e+002, 8.559463e+001
3.450498e+002, 8.528085e+001
3.455319e+002, 8.573490e+001
3.460140e+002, 8.653658e+001
3.464961e+002, 8.690307e+001
3.469782e+002, 8.684556e+001
3.474604e+002, 8.664552e+001
3.479425e+002, 8.635592e+001
3.484246e+002, 8.603561e+001
3.489067e+002, 8.594317e+001
3.493888e+002, 8.612072e+001
3.498709e+002, 8.638339e+001
3.503531e+002, 8.645461e+001
3.508352e+002, 8.640446e+001
3.513173e+002, 8.649283e+001
3.517994e+002, 8.700066e+001
3.522815e+002, 8.766063e+001
3.527636e+002, 8.798416e+001
3.532458e+002, 8.797053e+001
3.537279e+002, 8.792017e+001
3.542100e+002, 8.824130e+001
3.546921e+002, 8.867535e+001
3.551742e+002, 8.873115e+001
3.556563e+002, 8.783765e+001
3.561385e+002, 8.695337e+001
3.566206e+002, 8.712733e+001
3.571027e+002, 8.818700e+001
3.575848e+002, 8.926262e+001
3.580669e+002, 9.000733e+001
3.585490e+002, 9.044414e+001
3.590312e+002, 9.055655e+001
3.595133e+002, 9.024142e+001
3.599954e+002, 8.984004e+001
3.604775e+002, 8.946281e+001
3.609596e+002, 8.914297e+001
3.614417e+002, 8.895490e+001
3.619239e+002, 8.881003e+001
3.624060e+002, 8.889293e+001
3.628881e+002, 8.937947e+001
3.633702e+002, 9.036751e+001
3.638523e+002, 9.132491e+001
3.643344e+002, 9.225359e+001
3.648166e+002, 9.300061e+001
3.652987e+002, 9.339446e+001
3.657808e+002, 9.280200e+001
3.662629e+002, 9.243514e+001
3.667450e+002, 9.296394e+001
3.672271e+002, 9.437968e+001
3.677093e+002, 9.490471e+001
3.681914e+002, 9.305580e+001
3.686735e+002, 9.105419e+001
3.691556e+002, 9.034462e+001
3.696377e+002, 9.209649e+001
3.701198e+002, 9.378039e+001
3.706020e+002, 9.572069e+001
3.710841e+002, 9.758582e+001
3.715662e+002, 9.805403e+001
3.720483e+002, 9.568332e+001
3.725304e+002, 9.366441e+001
3.730125e+002, 9.348003e+001
3.734947e+002, 9.605776e+001
3.739768e+002, 9.779479e+001
3.744589e+002, 9.845132e+001
3.749410e+002, 9.847899e+001
3.754231e+002, 9.850204e+001
3.759052e+002, 9.839420e+001
3.763874e+002, 9.865427e+001
3.768695e+002, 9.955653e+001
3.773516e+002, 1.010922e+002
3.778337e+002, 1.023113e+002
3.783158e+002, 1.032323e+002
3.787979e+002, 1.038489e+002
3.792801e+002, 1.040468e+002
3.797622e+002, 1.038061e+002
3.802443e+002, 1.036115e+002
3.807264e+002, 1.034734e+002
3.812085e+002, 1.035087e+002
3.816906e+002, 1.041132e+002
3.821728e+002, 1.052904e+002
3.826549e+002, 1.066095e+002
3.831370e+002, 1.077048e+002
3.836191e+002, 1.086797e+002
3.841012e+002, 1.100307e+002
3.845833e+002, 1.119618e+002
3.850655e+002, 1.137882e+002
3.855476e+002, 1.143248e+002
3.860297e+002, 1.139011e+002
3.865118e+002, 1.136881e+002
3.869939e+002, 1.142883e+002
3.874760e+002, 1.154215e+002
3.879582e+002, 1.167687e+002
3.884403e+002, 1.183354e+002
3.889224e+002, 1.199266e+002
3.894045e+002, 1.214011e+002
3.898866e+002, 1.227836e+002
3.903687e+002, 1.241085e+002
3.908509e+002, 1.252314e+002
3.913330e+002, 1.264502e+002
3.918151e+002, 1.282221e+002
3.922972e+002, 1.303575e+002
3.927793e+002, 1.321138e+002
3.932614e+002, 1.327815e+002
3.937436e+002, 1.331431e+002
3.942257e+002, 1.337535e+002
3.947078e+002, 1.347268e+002
3.951899e+002, 1.358981e+002
3.956720e+002, 1.371796e+002
3.961541e+002, 1.386252e+002
3.966363e+002, 1.403222e+002
3.971184e+002, 1.426862e+002
3.976005e+002, 1.449359e+002
3.980826e+002, 1.467892e+002
3.985647e+002, 1.481965e+002
3.990468e+002, 1.495071e+002
3.995290e+002, 1.508739e+002
4.000111e+002, 1.520869e+002
4.004932e+002, 1.529776e+002
4.009753e+002, 1.533018e+002
4.014574e+002, 1.536269e+002
4.019395e+002, 1.539272e+002
4.024217e+002, 1.542499e+002
4.029038e+002, 1.548731e+002
4.033859e+002, 1.561663e+002
4.038680e+002, 1.572199e+002
4.043501e+002, 1.575705e+002
4.048322e+002, 1.570624e+002
4.053144e+002, 1.563244e+002
4.057965e+002, 1.552021e+002
4.062786e+002, 1.540429e+002
4.067607e+002, 1.535917e+002
4.072428e+002, 1.540620e+002
4.077249e+002, 1.540449e+002
4.082071e+002, 1.528763e+002
4.086892e+002, 1.507799e+002
4.091713e+002, 1.493518e+002
4.096534e+002, 1.487197e+002
4.101355e+002, 1.479694e+002
4.106176e+002, 1.460054e+002
4.110998e+002, 1.430613e+002
4.115819e+002, 1.405900e+002
4.120640e+002, 1.389817e+002
4.125461e+002, 1.377789e+002
4.130282e+002, 1.362645e+002
4.135103e+002, 1.344715e+002
4.139925e+002, 1.325729e+002
4.144746e+002, 1.305522e+002
4.149567e+002, 1.285056e+002
4.154388e+002, 1.265743e+002
4.159209e+002, 1.247402e+002
4.164030e+002, 1.231297e+002
4.168852e+002, 1.221880e+002
4.173673e+002, 1.214658e+002
4.178494e+002, 1.202318e+002
4.183315e+002, 1.175578e+002
4.188136e+002, 1.148079e+002
4.192957e+002, 1.128237e+002
4.197779e+002, 1.115512e+002
4.202600e+002, 1.104738e+002
4.207421e+002, 1.093955e+002
4.212242e+002, 1.084117e+002
4.217063e+002, 1.076261e+002
4.221884e+002, 1.071085e+002
4.226706e+002, 1.066625e+002
4.231527e+002, 1.064543e+002
4.236348e+002, 1.062588e+002
4.241169e+002, 1.056553e+002
4.245990e+002, 1.038699e+002
4.250811e+002, 1.023409e+002
4.255633e+002, 1.016113e+002
4.260454e+002, 1.018222e+002
4.265275e+002, 1.018264e+002
4.270096e+002, 1.015497e+002
4.274917e+002, 1.011204e+002
4.279738e+002, 1.006272e+002
4.284560e+002, 1.000123e+002
4.289381e+002, 9.946126e+001
4.294202e+002, 9.904749e+001
4.299023e+002, 9.870654e+001
4.303844e+002, 9.813651e+001
4.308665e+002, 9.721703e+001
4.313487e+002, 9.642171e+001
4.318308e+002, 9.603065e+001
4.323129e+002, 9.606519e+001
4.327950e+002, 9.614954e+001
4.332771e+002, 9.635690e+001
4.337592e+002, 9.640726e+001
4.342414e+002, 9.566918e+001
4.347235e+002, 9.424278e+001
4.352056e+002, 9.335960e+001
4.356877e+002, 9.358617e+001
4.361698e+002, 9.447471e+001
4.366519e+002, 9.518387e+001
4.371341e+002, 9.571245e+001
4.376162e+002, 9.605856e+001
4.380983e+002, 9.621301e+001
4.385804e+002, 9.619279e+001
4.390625e+002, 9.597849e+001
4.395446e+002, 9.550432e+001
4.400268e+002, 9.505113e+001
4.405089e+002, 9.470130e+001
4.409910e+002, 9.456178e+001
4.414731e+002, 9.485121e+001
4.419552e+002, 9.643520e+001
4.424373e+002, 9.787392e+001
4.429195e+002, 9.802499e+001
4.434016e+002, 9.689248e+001
4.438837e+002, 9.593271e+001
4.443658e+002, 9.595644e+001
4.448479e+002, 9.627406e+001
4.453300e+002, 9.633865e+001
4.458122e+002, 9.569432e+001
4.462943e+002, 9.524446e+001
4.467764e+002, 9.531473e+001
4.472585e+002, 9.569221e+001
4.477406e+002, 9.583211e+001
4.482227e+002, 9.538540e+001
4.487049e+002, 9.500599e+001
4.491870e+002, 9.484539e+001
4.496691e+002, 9.489476e+001
4.501512e+002, 9.527302e+001
4.506333e+002, 9.626987e+001
4.511154e+002, 9.727821e+001
4.515976e+002, 9.766033e+001
4.520797e+002, 9.719686e+001
4.525618e+002, 9.681867e+001
4.530439e+002, 9.661765e+001
4.535260e+002, 9.662239e+001
4.540081e+002, 9.700045e+001
4.544903e+002, 9.781775e+001
4.549724e+002, 9.859245e+001
4.554545e+002, 9.913905e+001
4.559366e+002, 9.943949e+001
4.564187e+002, 9.923913e+001
4.569008e+002, 9.842870e+001
4.573830e+002, 9.767850e+001
4.578651e+002, 9.800495e+001
4.583472e+002, 9.908687e+001
4.588293e+002, 9.985715e+001
4.593114e+002, 9.978981e+001
4.597935e+002, 9.943105e+001
4.602757e+002, 9.943066e+001
4.607578e+002, 9.974676e+001
4.612399e+002, 1.001667e+002
4.617220e+002, 1.008330e+002
4.622041e+002, 1.013915e+002
4.626862e+002, 1.014115e+002
4.631684e+002, 1.007140e+002
4.636505e+002, 1.000246e+002
4.641326e+002, 9.960906e+001
4.646147e+002, 9.945882e+001
4.650968e+002, 9.956023e+001
4.655789e+002, 1.006942e+002
4.660611e+002, 1.012857e+002
4.665432e+002, 1.004139e+002
4.670253e+002, 9.826266e+001
4.675074e+002, 9.691647e+001
4.679895e+002, 9.718797e+001
4.684716e+002, 9.785957e+001
4.689538e+002, 9.837765e+001
4.694359e+002, 9.867558e+001
4.699180e+002, 9.899004e+001
4.704001e+002, 9.959380e+001
4.708822e+002, 1.000258e+002
4.713643e+002, 9.939866e+001
4.718465e+002, 9.713683e+001
4.723286e+002, 9.551620e+001
4.728107e+002, 9.531756e+001
4.732928e+002, 9.626132e+001
4.737749e+002, 9.673676e+001
4.742570e+002, 9.669929e+001
4.747392e+002, 9.640321e+001
4.752213e+002, 9.582037e+001
4.757034e+002, 9.505125e+001
4.761855e+002, 9.491981e+001
4.766676e+002, 9.566663e+001
4.771497e+002, 9.653489e+001
4.776319e+002, 9.635111e+001
4.781140e+002, 9.540323e+001
4.785961e+002, 9.462679e+001
4.790782e+002, 9.454550e+001
4.795603e+002, 9.477621e+001
4.800424e+002, 9.494060e+001
4.805246e+002, 9.503763e+001
4.810067e+002, 9.505590e+001
4.814888e+002, 9.488565e+001
4.819709e+002, 9.468996e+001
4.824530e+002, 9.464714e+001
4.829352e+002, 9.490154e+001
4.834173e+002, 9.503049e+001
4.838994e+002, 9.465974e+001
4.843815e+002, 9.410194e+001
4.848636e+002, 9.383719e+001
4.853457e+002, 9.420737e+001
4.858279e+002, 9.463957e+001
4.863100e+002, 9.501770e+001
4.867921e+002, 9.533790e+001
4.872742e+002, 9.559390e+001
4.877563e+002, 9.586982e+001
4.882384e+002, 9.600218e+001
4.887206e+002, 9.586034e+001
4.892027e+002, 9.526993e+001
4.896848e+002, 9.490812e+001
4.901669e+002, 9.489590e+001
4.906490e+002, 9.499440e+001
4.911311e+002, 9.476885e+001
4.916133e+002, 9.415905e+001
4.920954e+002, 9.365351e+001
4.925775e+002, 9.339897e+001
4.930596e+002, 9.336398e+001
4.935417e+002, 9.347270e+001
4.940238e+002, 9.372569e+001
4.945060e+002, 9.397935e+001
4.949881e+002, 9.414844e+001
4.954702e+002, 9.423206e+001
4.959523e+002, 9.425166e+001
4.964344e+002, 9.422332e+001
4.969165e+002, 9.405740e+001
4.973987e+002, 9.350971e+001
4.978808e+002, 9.277276e+001
4.983629e+002, 9.222099e+001
4.988450e+002, 9.201926e+001
4.993271e+002, 9.204402e+001
4.998092e+002, 9.240652e+001
5.002914e+002, 9.301278e+001
5.007735e+002, 9.332732e+001
5.012556e+002, 9.316155e+001
5.017377e+002, 9.263905e+001
5.022198e+002, 9.170076e+001
5.027019e+002, 8.991756e+001
5.031841e+002, 8.881607e+001
5.036662e+002, 8.913355e+001
5.041483e+002, 9.000385e+001
5.046304e+002, 9.042322e+001
5.051125e+002, 9.015369e+001
5.055946e+002, 8.980833e+001
5.060768e+002, 8.943906e+001
5.065589e+002, 8.906074e+001
5.070410e+002, 8.876367e+001
5.075231e+002, 8.859531e+001
5.080052e+002, 8.837346e+001
5.084873e+002, 8.776455e+001
5.089695e+002, 8.676629e+001
5.094516e+002, 8.700269e+001
5.099337e+002, 8.876628e+001
5.104158e+002, 9.057622e+001
5.108979e+002, 9.054762e+001
5.113800e+002, 8.902352e+001
5.118622e+002, 8.749422e+001
5.123443e+002, 8.622209e+001
5.128264e+002, 8.532301e+001
5.133085e+002, 8.510416e+001
5.137906e+002, 8.542105e+001
5.142728e+002, 8.575486e+001
5.147549e+002, 8.581252e+001
5.152370e+002, 8.576274e+001
5.157191e+002, 8.578981e+001
5.162012e+002, 8.591870e+001
5.166833e+002, 8.589056e+001
5.171655e+002, 8.560387e+001
5.176476e+002, 8.510043e+001
5.181297e+002, 8.440808e+001
5.186118e+002, 8.304933e+001
5.190939e+002, 8.210582e+001
5.195760e+002, 8.206699e+001
5.200582e+002, 8.254488e+001
5.205403e+002, 8.259518e+001
5.210224e+002, 8.190242e+001
5.215045e+002, 8.120627e+001
5.219866e+002, 8.057883e+001
5.224688e+002, 8.002091e+001
5.229509e+002, 8.026053e+001
5.234330e+002, 8.164912e+001
5.239151e+002, 8.301888e+001
5.243972e+002, 8.335190e+001
5.248793e+002, 8.261971e+001
5.253615e+002, 8.204845e+001
5.258436e+002, 8.170944e+001
5.263257e+002, 8.165022e+001
5.268078e+002, 8.215645e+001
5.272899e+002, 8.308496e+001
5.277720e+002, 8.374548e+001
5.282542e+002, 8.379693e+001
5.287363e+002, 8.348098e+001
5.292184e+002, 8.302507e+001
5.297005e+002, 8.245745e+001
5.301826e+002, 8.190980e+001
5.306647e+002, 8.139602e+001
5.311469e+002, 8.098129e+001
5.316290e+002, 8.070911e+001
5.321111e+002, 8.058633e+001
5.325932e+002, 8.062101e+001
5.330753e+002, 8.087724e+001
5.335574e+002, 8.126751e+001
5.340396e+002, 8.169662e+001
5.345217e+002, 8.249747e+001
5.350038e+002, 8.293021e+001
5.354859e+002, 8.272505e+001
5.359680e+002, 8.207292e+001
5.364501e+002, 8.154881e+001
5.369323e+002, 8.111545e+001
5.374144e+002, 8.087621e+001
5.378965e+002, 8.090942e+001
5.383786e+002, 8.122038e+001
5.388607e+002, 8.155090e+001
5.393428e+002, 8.194189e+001
5.398250e+002, 8.221468e+001
5.403071e+002, 8.215234e+001
5.407892e+002, 8.178648e+001
5.412713e+002, 8.138152e+001
5.417534e+002, 8.094672e+001
5.422355e+002, 8.057293e+001
5.427177e+002, 8.040954e+001
5.431998e+002, 8.041674e+001
5.436819e+002, 8.047340e+001
5.441640e+002, 8.049773e+001
5.446461e+002, 8.056300e+001
5.451282e+002, 8.094135e+001
5.456104e+002, 8.152360e+001
5.460925e+002, 8.165233e+001
5.465746e+002, 8.040935e+001
5.470567e+002, 7.900506e+001
5.475388e+002, 7.823292e+001
5.480209e+002, 7.830218e+001
5.485031e+002, 7.869619e+001
5.489852e+002, 7.959751e+001
5.494673e+002, 8.063597e+001
5.499494e+002, 8.142772e+001
5.504315e+002, 8.195390e+001
5.509136e+002, 8.224123e+001
5.513958e+002, 8.219209e+001
5.518779e+002, 8.192896e+001
5.523600e+002, 8.181655e+001
5.528421e+002, 8.187680e+001
5.533242e+002, 8.200943e+001
5.538063e+002, 8.222234e+001
5.542885e+002, 8.248875e+001
5.547706e+002, 8.252204e+001
5.552527e+002, 8.229237e+001
5.557348e+002, 8.214652e+001
5.562169e+002, 8.248891e+001
5.566990e+002, 8.314600e+001
5.571812e+002, 8.371511e+001
5.576633e+002, 8.416464e+001
5.581454e+002, 8.439482e+001
5.586275e+002, 8.412455e+001
5.591096e+002, 8.359512e+001
5.595917e+002, 8.322555e+001
5.600739e+002, 8.324702e+001
5.605560e+002, 8.341507e+001
5.610381e+002, 8.379147e+001
5.615202e+002, 8.426649e+001
5.620023e+002, 8.438577e+001
5.624844e+002, 8.341744e+001
5.629666e+002, 8.259646e+001
5.634487e+002, 8.255887e+001
5.639308e+002, 8.348915e+001
5.644129e+002, 8.430103e+001
5.648950e+002, 8.512612e+001
5.653771e+002, 8.568694e+001
5.658593e+002, 8.564065e+001
5.663414e+002, 8.475350e+001
5.668235e+002, 8.424706e+001
5.673056e+002, 8.423719e+001
5.677877e+002, 8.465456e+001
5.682698e+002, 8.571146e+001
5.687520e+002, 8.734090e+001
5.692341e+002, 8.820625e+001
5.697162e+002, 8.732202e+001
5.701983e+002, 8.569396e+001
5.706804e+002, 8.514305e+001
5.711625e+002, 8.557465e+001
5.716447e+002, 8.629129e+001
5.721268e+002, 8.718546e+001
5.726089e+002, 8.794616e+001
5.730910e+002, 8.816093e+001
5.735731e+002, 8.771449e+001
5.740552e+002, 8.731361e+001
5.745374e+002, 8.728162e+001
5.750195e+002, 8.744444e+001
5.755016e+002, 8.763782e+001
5.759837e+002, 8.764426e+001
5.764658e+002, 8.791091e+001
5.769479e+002, 8.865312e+001
5.774301e+002, 8.963783e+001
5.779122e+002, 9.041021e+001
5.783943e+002, 9.088433e+001
5.788764e+002, 9.133620e+001
5.793585e+002, 9.190899e+001
5.798406e+002, 9.253666e+001
5.803228e+002, 9.270007e+001
5.808049e+002, 9.234343e+001
5.812870e+002, 9.188245e+001
5.817691e+002, 9.143213e+001
5.822512e+002, 9.108457e+001
5.827333e+002, 9.131169e+001
5.832155e+002, 9.219289e+001
5.836975e+002, 9.315331e+001
5.841796e+002, 9.359912e+001
5.846617e+002, 9.378562e+001
5.851439e+002, 9.418388e+001
5.856260e+002, 9.516022e+001
5.861081e+002, 9.594769e+001
5.865902e+002, 9.567505e+001
5.870723e+002, 9.492387e+001
5.875544e+002, 9.481585e+001
5.880366e+002, 9.605063e+001
5.885187e+002, 9.758899e+001
5.890008e+002, 9.935411e+001
5.894829e+002, 1.012846e+002
5.899650e+002, 1.025536e+002
5.904471e+002, 1.027716e+002
5.909293e+002, 1.028254e+002
5.914114e+002, 1.030849e+002
5.918935e+002, 1.035496e+002
5.923756e+002, 1.042981e+002
5.928577e+002, 1.054669e+002
5.933398e+002, 1.065525e+002
5.938220e+002, 1.069133e+002
5.943041e+002, 1.066518e+002
5.947862e+002, 1.065735e+002
5.952683e+002, 1.068462e+002
5.957504e+002, 1.072958e+002
5.962325e+002, 1.078377e+002
5.967147e+002, 1.083898e+002
5.971968e+002, 1.087290e+002
5.976789e+002, 1.084050e+002
5.981610e+002, 1.081342e+002
5.986431e+002, 1.085027e+002
5.991252e+002, 1.094041e+002
5.996074e+002, 1.103254e+002
6.000895e+002, 1.112779e+002
6.005716e+002, 1.120492e+002
6.010537e+002, 1.124944e+002
6.015358e+002, 1.125205e+002
6.020179e+002, 1.125670e+002
6.025001e+002, 1.124403e+002
6.029822e+002, 1.125345e+002
6.034643e+002, 1.132470e+002
6.039464e+002, 1.148531e+002
6.044285e+002, 1.160150e+002
6.049106e+002, 1.166298e+002
6.053928e+002, 1.168409e+002
6.058749e+002, 1.167812e+002
6.063570e+002, 1.164700e+002
6.068391e+002, 1.161891e+002
6.073212e+002, 1.161085e+002
6.078033e+002, 1.159949e+002
6.082855e+002, 1.152299e+002
6.087676e+002, 1.140516e+002
6.092497e+002, 1.133123e+002
6.097318e+002, 1.139383e+002
6.102139e+002, 1.148634e+002
6.106960e+002, 1.152809e+002
6.111782e+002, 1.151582e+002
6.116603e+002, 1.148838e+002
6.121424e+002, 1.146327e+002
6.126245e+002, 1.142427e+002
6.131066e+002, 1.135186e+002
6.135887e+002, 1.119186e+002
6.140709e+002, 1.112851e+002
6.145530e+002, 1.123986e+002
6.150351e+002, 1.137743e+002
6.155172e+002, 1.136849e+002
6.159993e+002, 1.116739e+002
6.164814e+002, 1.102882e+002
6.169636e+002, 1.099767e+002
6.174457e+002, 1.103302e+002
6.179278e+002, 1.107083e+002
6.184099e+002, 1.110931e+002
6.188920e+002, 1.113188e+002
6.193741e+002, 1.113199e+002
6.198563e+002, 1.111222e+002
6.203384e+002, 1.107083e+002
6.208205e+002, 1.101064e+002
6.213026e+002, 1.094633e+002
6.217847e+002, 1.085577e+002
6.222668e+002, 1.078597e+002
6.227490e+002, 1.079105e+002
6.232311e+002, 1.088408e+002
6.237132e+002, 1.094529e+002
6.241953e+002, 1.091679e+002
6.246774e+002, 1.086351e+002
6.251595e+002, 1.083120e+002
6.256417e+002, 1.083659e+002
6.261238e+002, 1.083198e+002
6.266059e+002, 1.081352e+002
6.270880e+002, 1.078983e+002
6.275701e+002, 1.077401e+002
6.280522e+002, 1.076764e+002
6.285344e+002, 1.075231e+002
6.290165e+002, 1.071856e+002
6.294986e+002, 1.068210e+002
6.299807e+002, 1.067543e+002
6.304628e+002, 1.069482e+002
6.309449e+002, 1.072004e+002
6.314271e+002, 1.073869e+002
6.319092e+002, 1.075951e+002
6.323913e+002, 1.080084e+002
6.328734e+002, 1.085746e+002
6.333555e+002, 1.089624e+002
6.338376e+002, 1.087247e+002
6.343198e+002, 1.084803e+002
6.348019e+002, 1.086730e+002
6.352840e+002, 1.094701e+002
6.357661e+002, 1.100395e+002
6.362482e+002, 1.101504e+002
6.367303e+002, 1.101350e+002
6.372125e+002, 1.101907e+002
6.376946e+002, 1.102742e+002
6.381767e+002, 1.105652e+002
6.386588e+002, 1.110781e+002
6.391409e+002, 1.117861e+002
6.396230e+002, 1.129024e+002
6.401052e+002, 1.143639e+002
6.405873e+002, 1.149729e+002
6.410694e+002, 1.140774e+002
6.415515e+002, 1.127852e+002
6.420336e+002, 1.127875e+002
6.425157e+002, 1.137878e+002
6.429979e+002, 1.149279e+002
6.434800e+002, 1.160459e+002
6.439621e+002, 1.169278e+002
6.444442e+002, 1.172174e+002
6.449263e+002, 1.170406e+002
6.454084e+002, 1.171202e+002
6.458906e+002, 1.180646e+002
6.463727e+002, 1.189881e+002
6.468548e+002, 1.194324e+002
6.473369e+002, 1.193258e+002
6.478190e+002, 1.192477e+002
6.483011e+002, 1.190076e+002
6.487833e+002, 1.190845e+002
6.492654e+002, 1.200989e+002
6.497475e+002, 1.222110e+002
6.502296e+002, 1.232852e+002
6.507117e+002, 1.230702e+002
6.511938e+002, 1.223526e+002
6.516760e+002, 1.219828e+002
6.521581e+002, 1.218982e+002
6.526402e+002, 1.219208e+002
6.531223e+002, 1.220099e+002
6.536044e+002, 1.221770e+002
6.540865e+002, 1.226671e+002
6.545687e+002, 1.232171e+002
6.550508e+002, 1.233278e+002
6.555329e+002, 1.221740e+002
6.560150e+002, 1.212054e+002
6.564971e+002, 1.211440e+002
6.569792e+002, 1.217953e+002
6.574614e+002, 1.220987e+002
6.579435e+002, 1.219124e+002
6.584256e+002, 1.215006e+002
6.589077e+002, 1.207885e+002
6.593898e+002, 1.198127e+002
6.598719e+002, 1.196125e+002
6.603541e+002, 1.203405e+002
6.608362e+002, 1.211270e+002
6.613183e+002, 1.214020e+002
6.618004e+002, 1.212328e+002
6.622825e+002, 1.208769e+002
6.627646e+002, 1.203442e+002
6.632468e+002, 1.196991e+002
6.637289e+002, 1.187879e+002
6.642110e+002, 1.178817e+002
6.646931e+002, 1.174190e+002
6.651752e+002, 1.177534e+002
6.656573e+002, 1.178483e+002
6.661395e+002, 1.169882e+002
6.666216e+002, 1.157368e+002
6.671037e+002, 1.147871e+002
6.675858e+002, 1.145062e+002
6.680679e+002, 1.141910e+002
6.685500e+002, 1.137472e+002
6.690322e+002, 1.132596e+002
6.695143e+002, 1.129964e+002
6.699964e+002, 1.130594e+002
6.704785e+002, 1.128220e+002
6.709606e+002, 1.119943e+002
6.714427e+002, 1.108008e+002
6.719249e+002, 1.097601e+002
6.724070e+002, 1.088871e+002
6.728891e+002, 1.083514e+002
6.733712e+002, 1.087380e+002
6.738533e+002, 1.092341e+002
6.743354e+002, 1.086184e+002
6.748176e+002, 1.070018e+002
6.752997e+002, 1.058141e+002
6.757818e+002, 1.063540e+002
6.762639e+002, 1.071186e+002
6.767460e+002, 1.070854e+002
6.772281e+002, 1.058313e+002
6.777103e+002, 1.050667e+002
6.781924e+002, 1.053581e+002
6.786745e+002, 1.056433e+002
6.791566e+002, 1.049797e+002
6.796387e+002, 1.030002e+002
6.801208e+002, 1.019259e+002
6.806030e+002, 1.020659e+002
6.810851e+002, 1.025783e+002
6.815672e+002, 1.023740e+002
6.820493e+002, 1.016057e+002
6.825314e+002, 1.009310e+002
6.830135e+002, 1.005526e+002
6.834957e+002, 1.002250e+002
6.839778e+002, 9.962216e+001
6.844599e+002, 9.889440e+001
6.849420e+002, 9.834734e+001
6.854241e+002, 9.828072e+001
6.859063e+002, 9.820545e+001
6.863884e+002, 9.782143e+001
6.868705e+002, 9.726611e+001
6.873526e+002, 9.703213e+001
6.878347e+002, 9.745779e+001
6.883168e+002, 9.774631e+001
6.887990e+002, 9.767891e+001
6.892811e+002, 9.729444e+001
6.897632e+002, 9.678603e+001
6.902453e+002, 9.612086e+001
6.907274e+002, 9.557049e+001
6.912095e+002, 9.541028e+001
6.916917e+002, 9.548340e+001
6.921738e+002, 9.531881e+001
6.926559e+002, 9.491772e+001
6.931380e+002, 9.440463e+001
6.936201e+002, 9.379884e+001
6.941022e+002, 9.316886e+001
6.945844e+002, 9.253889e+001
6.950665e+002, 9.189275e+001
6.955486e+002, 9.140777e+001
6.960307e+002, 9.125947e+001
6.965128e+002, 9.122287e+001
6.969949e+002, 9.112614e+001
6.974771e+002, 9.099747e+001
6.979592e+002, 9.070531e+001
6.984413e+002, 9.008606e+001
6.989234e+002, 8.951968e+001
6.994055e+002, 8.964749e+001
6.998876e+002, 9.049228e+001
7.003698e+002, 9.082719e+001
7.008519e+002, 9.039922e+001
7.013340e+002, 8.950700e+001
7.018161e+002, 8.828524e+001
7.022982e+002, 8.692832e+001
7.027803e+002, 8.591164e+001
7.032625e+002, 8.530588e+001
7.037446e+002, 8.522889e+001
7.042267e+002, 8.629053e+001
7.047088e+002, 8.791377e+001
7.051909e+002, 8.882041e+001
7.056730e+002, 8.824926e+001
7.061552e+002, 8.735943e+001
7.066373e+002, 8.617493e+001
7.071194e+002, 8.486450e+001
7.076015e+002, 8.428587e+001
7.080836e+002, 8.466150e+001
7.085657e+002, 8.510206e+001
7.090479e+002, 8.522290e+001
7.095300e+002, 8.511803e+001
7.100121e+002, 8.524464e+001
7.104942e+002, 8.558991e+001
7.109763e+002, 8.584634e+001
7.114584e+002, 8.589497e+001
7.119406e+002, 8.569009e+001
7.124227e+002, 8.504321e+001
7.129048e+002, 8.396593e+001
7.133869e+002, 8.303568e+001
7.138690e+002, 8.250066e+001
7.143511e+002, 8.223585e+001
7.148333e+002, 8.220728e+001
7.153154e+002, 8.254336e+001
7.157975e+002, 8.269683e+001
7.162796e+002, 8.264659e+001
7.167617e+002, 8.244252e+001
7.172438e+002, 8.208785e+001
7.177260e+002, 8.156911e+001
7.182081e+002, 8.105502e+001
7.186902e+002, 8.052914e+001
7.191723e+002, 8.013652e+001
7.196544e+002, 8.007407e+001
7.201365e+002, 8.028251e+001
7.206187e+002, 8.068966e+001
7.211008e+002, 8.142361e+001
7.215829e+002, 8.191512e+001
7.220650e+002, 8.152077e+001
7.225471e+002, 8.069962e+001
7.230292e+002, 8.005836e+001
7.235114e+002, 7.981646e+001
7.239935e+002, 7.972544e+001
7.244756e+002, 7.991439e+001
7.249577e+002, 8.016855e+001
7.254398e+002, 8.009928e+001
7.259219e+002, 7.959083e+001
7.264041e+002, 7.910322e+001
7.268862e+002, 7.872562e+001
7.273683e+002, 7.843637e+001
7.278504e+002, 7.815220e+001
7.283325e+002, 7.789684e+001
7.288146e+002, 7.784668e+001
7.292968e+002, 7.819198e+001
7.297789e+002, 7.869015e+001
7.302610e+002, 7.923935e+001
7.307431e+002, 7.973930e+001
7.312252e+002, 7.985751e+001
7.317073e+002, 7.889043e+001
7.321895e+002, 7.805328e+001
7.326716e+002, 7.804961e+001
7.331537e+002, 7.881516e+001
7.336358e+002, 7.911362e+001
7.341179e+002, 7.878383e+001
7.346000e+002, 7.825048e+001
7.350822e+002, 7.757457e+001
7.355643e+002, 7.680674e+001
7.360464e+002, 7.656697e+001
7.365285e+002, 7.687840e+001
7.370106e+002, 7.726440e+001
7.374927e+002, 7.740649e+001
7.379749e+002, 7.739077e+001
7.384570e+002, 7.727686e+001
7.389391e+002, 7.708070e+001
7.394212e+002, 7.708846e+001
7.399033e+002, 7.788208e+001
7.403854e+002, 7.864783e+001
7.408676e+002, 7.872359e+001
7.413497e+002, 7.781063e+001
7.418318e+002, 7.709930e+001
7.423139e+002, 7.669921e+001
7.427960e+002, 7.647156e+001
7.432781e+002, 7.634005e+001
7.437603e+002, 7.631654e+001
7.442424e+002, 7.630344e+001
7.447245e+002, 7.629522e+001
7.452066e+002, 7.631307e+001
7.456887e+002, 7.658080e+001
7.461708e+002, 7.688071e+001
7.466530e+002, 7.644154e+001
7.471351e+002, 7.493229e+001
7.476172e+002, 7.376038e+001
7.480993e+002, 7.436964e+001
7.485814e+002, 7.570928e+001
7.490635e+002, 7.659337e+001
7.495457e+002, 7.647086e+001
7.500278e+002, 7.634679e+001
7.505099e+002, 7.641586e+001
7.509920e+002, 7.650105e+001
7.514741e+002, 7.635838e+001
7.519562e+002, 7.589555e+001
7.524384e+002, 7.558927e+001
7.529205e+002, 7.550502e+001
7.534026e+002, 7.559753e+001
7.538847e+002, 7.588158e+001
7.543668e+002, 7.629974e+001
7.548489e+002, 7.663416e+001
7.553311e+002, 7.682269e+001
7.558132e+002, 7.689544e+001
7.562953e+002, 7.680871e+001
7.567774e+002, 7.663525e+001
7.572595e+002, 7.650484e+001
7.577416e+002, 7.644012e+001
7.582238e+002, 7.644436e+001
7.587059e+002, 7.654427e+001
7.591880e+002, 7.670852e+001
7.596701e+002, 7.690610e+001
7.601522e+002, 7.721008e+001
7.606343e+002, 7.730505e+001
7.611165e+002, 7.705080e+001
7.615986e+002, 7.660296e+001
7.620807e+002, 7.634633e+001
7.625628e+002, 7.625061e+001
7.630449e+002, 7.613330e+001
7.635270e+002, 7.576060e+001
7.640092e+002, 7.546104e+001
7.644913e+002, 7.560860e+001
7.649734e+002, 7.609326e+001
7.654555e+002, 7.657386e+001
7.659376e+002, 7.714214e+001
7.664197e+002, 7.745232e+001
7.669019e+002, 7.722129e+001
7.673840e+002, 7.659362e+001
7.678661e+002, 7.621642e+001
7.683482e+002, 7.612429e+001
7.688303e+002, 7.619141e+001
7.693124e+002, 7.644456e+001
7.697946e+002, 7.679372e+001
7.702767e+002, 7.688225e+001
7.707588e+002, 7.673849e+001
7.712409e+002, 7.662760e+001
7.717230e+002, 7.662452e+001
7.722051e+002, 7.679274e+001
7.726873e+002, 7.735304e+001
7.731694e+002, 7.822694e+001
7.736515e+002, 7.883129e+001
7.741336e+002, 7.869786e+001
7.746157e+002, 7.851193e+001
7.750978e+002, 7.859164e+001
7.755800e+002, 7.892634e+001
7.760621e+002, 7.914784e+001
7.765442e+002, 7.923448e+001
7.770263e+002, 7.927137e+001
7.775084e+002, 7.933030e+001
7.779905e+002, 7.938075e+001
7.784727e+002, 7.921172e+001
7.789548e+002, 7.883823e+001
7.794369e+002, 7.853639e+001
7.799190e+002, 7.839796e+001
7.804011e+002, 7.849538e+001
7.808832e+002, 7.917249e+001
7.813654e+002, 8.041714e+001
7.818475e+002, 8.098702e+001
7.823296e+002, 7.957995e+001
7.828117e+002, 7.821790e+001
7.832938e+002, 7.796960e+001
7.837759e+002, 7.895708e+001
7.842581e+002, 7.968534e+001
7.847402e+002, 8.012877e+001
7.852223e+002, 8.038069e+001
7.857044e+002, 8.051249e+001
7.861865e+002, 8.051012e+001
7.866686e+002, 8.018723e+001
7.871508e+002, 7.954710e+001
7.876329e+002, 7.912434e+001
7.881150e+002, 7.964787e+001
7.885971e+002, 8.036893e+001
7.890792e+002, 8.046587e+001
7.895613e+002, 7.976336e+001
7.900435e+002, 7.930708e+001
7.905256e+002, 7.957865e+001
7.910077e+002, 7.995595e+001
7.914898e+002, 8.010133e+001
7.919719e+002, 7.996169e+001
7.924540e+002, 7.993642e+001
7.929362e+002, 8.002382e+001
7.934183e+002, 8.022796e+001
7.939004e+002, 8.059779e+001
7.943825e+002, 8.108315e+001
7.948646e+002, 8.164539e+001
7.953467e+002, 8.229134e+001
7.958289e+002, 8.258055e+001
7.963110e+002, 8.178777e+001
7.967931e+002, 8.077109e+001
7.972752e+002, 8.031172e+001
7.977573e+002, 8.066885e+001
7.982394e+002, 8.083977e+001
7.987216e+002, 8.062254e+001
7.992037e+002, 8.029267e+001
7.996858e+002, 7.992447e+001
8.001679e+002, 7.944301e+001
8.006500e+002, 7.964857e+001
8.011321e+002, 8.064867e+001
8.016143e+002, 8.167812e+001
8.020964e+002, 8.192897e+001
8.025785e+002, 8.174695e+001
8.030606e+002, 8.181744e+001
8.035427e+002, 8.223216e+001
8.040248e+002, 8.264381e+001
8.045070e+002, 8.273312e+001
8.049891e+002, 8.281726e+001
8.054712e+002, 8.321471e+001
8.059533e+002, 8.422005e+001
8.064354e+002, 8.463635e+001
8.069175e+002, 8.415260e+001
8.073997e+002, 8.352442e+001
8.078818e+002, 8.331940e+001
8.083639e+002, 8.352894e+001
8.088460e+002, 8.369942e+001
8.093281e+002, 8.381553e+001
8.098102e+002, 8.389566e+001
8.102924e+002, 8.393747e+001
8.107745e+002, 8.396264e+001
8.112566e+002, 8.402235e+001
8.117387e+002, 8.413445e+001
8.122208e+002, 8.416346e+001
8.127029e+002, 8.386888e+001
8.131851e+002, 8.361317e+001
8.136672e+002, 8.369742e+001
8.141493e+002, 8.425894e+001
8.146314e+002, 8.456886e+001
8.151135e+002, 8.460496e+001
8.155956e+002, 8.443774e+001
8.160778e+002, 8.393896e+001
8.165599e+002, 8.324923e+001
8.170420e+002, 8.310082e+001
8.175241e+002, 8.354039e+001
8.180062e+002, 8.411476e+001
8.184883e+002, 8.472665e+001
8.189705e+002, 8.514156e+001
8.194526e+002, 8.500371e+001
8.199347e+002, 8.416959e+001
8.204168e+002, 8.359177e+001
8.208989e+002, 8.363489e+001
8.213810e+002, 8.383714e+001
8.218632e+002, 8.399339e+001
8.223453e+002, 8.410455e+001
8.228274e+002, 8.416350e+001
8.233095e+002, 8.416747e+001
8.237916e+002, 8.413980e+001
8.242737e+002, 8.416280e+001
8.247559e+002, 8.415107e+001
8.252380e+002, 8.373158e+001
8.257201e+002, 8.291746e+001
8.262022e+002, 8.256512e+001
8.266843e+002, 8.392480e+001
8.271664e+002, 8.535828e+001
8.276486e+002, 8.564217e+001
8.281307e+002, 8.445925e+001
8.286128e+002, 8.363161e+001
8.290949e+002, 8.326259e+001
8.295770e+002, 8.307108e+001
8.300591e+002, 8.284801e+001
8.305413e+002, 8.262980e+001
8.310234e+002, 8.291505e+001
8.315055e+002, 8.369669e+001
8.319876e+002, 8.447778e+001
8.324697e+002, 8.507381e+001
8.329518e+002, 8.537861e+001
8.334340e+002, 8.510133e+001
8.339161e+002, 8.428596e+001
8.343982e+002, 8.371689e+001
8.348803e+002, 8.386942e+001
8.353624e+002, 8.413841e+001
8.358445e+002, 8.431160e+001
8.363267e+002, 8.438470e+001
8.368088e+002, 8.421957e+001
8.372909e+002, 8.378622e+001
8.377730e+002, 8.324923e+001
8.382551e+002, 8.247758e+001
8.387372e+002, 8.173669e+001
8.392194e+002, 8.190831e+001
8.397015e+002, 8.283497e+001
8.401836e+002, 8.360292e+001
8.406657e+002, 8.347291e+001
8.411478e+002, 8.320974e+001
8.416299e+002, 8.336342e+001
8.421121e+002, 8.387691e+001
8.425942e+002, 8.405392e+001
8.430763e+002, 8.360749e+001
8.435584e+002, 8.327218e+001
8.440405e+002, 8.331788e+001
8.445226e+002, 8.363628e+001
8.450048e+002, 8.379886e+001
8.454869e+002, 8.381490e+001
8.459690e+002, 8.383644e+001
8.464511e+002, 8.395905e+001
8.469332e+002, 8.410842e+001
8.474153e+002, 8.441760e+001
8.478975e+002, 8.470302e+001
8.483796e+002, 8.444447e+001
8.488617e+002, 8.261924e+001
8.493438e+002, 8.119868e+001
8.498259e+002, 8.085657e+001
8.503080e+002, 8.126618e+001
8.507902e+002, 8.163050e+001
8.512723e+002, 8.192112e+001
8.517544e+002, 8.234077e+001
8.522365e+002, 8.300560e+001
8.527186e+002, 8.373788e+001
8.532007e+002, 8.440891e+001
8.536829e+002, 8.489097e+001
8.541650e+002, 8.482101e+001
8.546471e+002, 8.341409e+001
8.551292e+002, 8.225066e+001
8.556113e+002, 8.220683e+001
8.560934e+002, 8.288980e+001
8.565756e+002, 8.362025e+001
8.570577e+002, 8.468419e+001
8.575398e+002, 8.507001e+001
8.580219e+002, 8.449209e+001
8.585040e+002, 8.347645e+001
8.589861e+002, 8.284324e+001
8.594683e+002, 8.253378e+001
8.599504e+002, 8.221213e+001
8.604325e+002, 8.173759e+001
8.609146e+002, 8.144968e+001
8.613967e+002, 8.197786e+001
8.618788e+002, 8.274120e+001
8.623610e+002, 8.300767e+001
8.628431e+002, 8.225375e+001
8.633252e+002, 8.160348e+001
8.638073e+002, 8.102380e+001
8.642894e+002, 8.071364e+001
8.647715e+002, 8.102475e+001
8.652537e+002, 8.200986e+001
8.657358e+002, 8.255510e+001
8.662179e+002, 8.256747e+001
8.667000e+002, 8.225355e+001
8.671821e+002, 8.162089e+001
8.676642e+002, 8.088345e+001
8.681464e+002, 8.032072e+001
8.686285e+002, 7.995173e+001
8.691106e+002, 7.989243e+001
8.695927e+002, 8.060593e+001
8.700748e+002, 8.129520e+001
8.705569e+002, 8.139119e+001
8.710391e+002, 8.077563e+001
8.715212e+002, 8.032405e+001
8.720033e+002, 8.000315e+001
8.724854e+002, 7.998621e+001
8.729675e+002, 8.069643e+001
8.734496e+002, 8.173940e+001
8.739318e+002, 8.209594e+001
8.744139e+002, 8.177583e+001
8.748960e+002, 8.132711e+001
8.753781e+002, 8.078224e+001
8.758602e+002, 8.046127e+001
8.763423e+002, 8.077164e+001
8.768245e+002, 8.170391e+001
8.773066e+002, 8.200996e+001
8.777887e+002, 8.141460e+001
8.782708e+002, 8.082307e+001
8.787529e+002, 8.059737e+001
8.792350e+002, 8.065607e+001
8.797172e+002, 8.085633e+001
8.801993e+002, 8.114086e+001
8.806814e+002, 8.114674e+001
8.811635e+002, 8.029470e+001
8.816456e+002, 7.943435e+001
8.821277e+002, 7.922862e+001
8.826099e+002, 7.952835e+001
8.830920e+002, 7.988254e+001
8.835741e+002, 8.040472e+001
8.840562e+002, 8.066747e+001
8.845383e+002, 8.048225e+001
8.850204e+002, 8.009931e+001
8.855026e+002, 8.011917e+001
8.859847e+002, 8.050937e+001
8.864668e+002, 8.082276e+001
8.869489e+002, 8.096205e+001
8.874310e+002, 8.090047e+001
8.879131e+002, 8.052203e+001
8.883953e+002, 7.995251e+001
8.888774e+002, 7.936927e+001
8.893595e+002, 7.863917e+001
8.898416e+002, 7.819353e+001
8.903237e+002, 7.825785e+001
8.908058e+002, 7.848246e+001
8.912880e+002, 7.849799e+001
8.917701e+002, 7.828469e+001
8.922522e+002, 7.810870e+001
8.927343e+002, 7.798682e+001
8.932164e+002, 7.793275e+001
8.936985e+002, 7.814669e+001
8.941807e+002, 7.835828e+001
8.946628e+002, 7.803297e+001
8.951449e+002, 7.697021e+001
8.956270e+002, 7.628471e+001
8.961091e+002, 7.666399e+001
8.965912e+002, 7.730178e+001
8.970734e+002, 7.772974e+001
8.975555e+002, 7.792970e+001
8.980376e+002, 7.812325e+001
8.985197e+002, 7.832204e+001
8.990018e+002, 7.844268e+001
8.994839e+002, 7.856646e+001
8.999661e+002, 7.851508e+001
9.004482e+002, 7.771362e+001
9.009303e+002, 7.630209e+001
9.014124e+002, 7.523961e+001
9.018945e+002, 7.513528e+001
9.023766e+002, 7.533938e+001
9.028588e+002, 7.563139e+001
9.033409e+002, 7.597941e+001
9.038230e+002, 7.636238e+001
9.043051e+002, 7.687706e+001
9.047872e+002, 7.701804e+001
9.052693e+002, 7.648348e+001
9.057515e+002, 7.564194e+001
9.062336e+002, 7.516710e+001
9.067157e+002, 7.500997e+001
9.071978e+002, 7.503386e+001
9.076799e+002, 7.529903e+001
9.081620e+002, 7.558392e+001
9.086442e+002, 7.588657e+001
9.091263e+002, 7.611118e+001
9.096084e+002, 7.609049e+001
9.100905e+002, 7.569184e+001
9.105726e+002, 7.540189e+001
9.110547e+002, 7.525695e+001
9.115369e+002, 7.524223e+001
9.120190e+002, 7.551720e+001
9.125011e+002, 7.589799e+001
9.129832e+002, 7.576577e+001
9.134653e+002, 7.493056e+001
9.139474e+002, 7.415391e+001
9.144296e+002, 7.377785e+001
9.149117e+002, 7.376326e+001
9.153938e+002, 7.417481e+001
9.158759e+002, 7.516960e+001
9.163580e+002, 7.586903e+001
9.168401e+002, 7.627061e+001
9.173223e+002, 7.637888e+001
9.178044e+002, 7.596074e+001
9.182865e+002, 7.525190e+001
9.187686e+002, 7.520040e+001
9.192507e+002, 7.575579e+001
9.197328e+002, 7.637402e+001
9.202150e+002, 7.687879e+001
9.206971e+002, 7.719242e+001
9.211792e+002, 7.721810e+001
9.216613e+002, 7.698261e+001
9.221434e+002, 7.671387e+001
9.226255e+002, 7.633053e+001
9.231077e+002, 7.614777e+001
9.235898e+002, 7.636885e+001
9.240719e+002, 7.672509e+001
9.245540e+002, 7.645780e+001
9.250361e+002, 7.573642e+001
9.255182e+002, 7.527023e+001
9.260004e+002, 7.544463e+001
9.264825e+002, 7.573665e+001
9.269646e+002, 7.581775e+001
9.274467e+002, 7.580652e+001
9.279288e+002, 7.587918e+001
9.284109e+002, 7.603719e+001
9.288931e+002, 7.631602e+001
9.293752e+002, 7.676734e+001
9.298573e+002, 7.723247e+001
9.303394e+002, 7.758323e+001
9.308215e+002, 7.780180e+001
9.313036e+002, 7.772199e+001
9.317858e+002, 7.729337e+001
9.322679e+002, 7.709243e+001
9.327500e+002, 7.791568e+001
9.332321e+002, 7.883218e+001
9.337142e+002, 7.909538e+001
9.341964e+002, 7.854733e+001
9.346785e+002, 7.805355e+001
9.351606e+002, 7.760445e+001
9.356427e+002, 7.723990e+001
9.361248e+002, 7.692432e+001
9.366069e+002, 7.672861e+001
9.370891e+002, 7.691201e+001
9.375712e+002, 7.745057e+001
9.380533e+002, 7.822147e+001
9.385354e+002, 7.969446e+001
9.390175e+002, 8.084093e+001
9.394996e+002, 8.092085e+001
9.399818e+002, 8.019932e+001
9.404639e+002, 7.942264e+001
9.409460e+002, 7.839126e+001
9.414281e+002, 7.798225e+001
9.419102e+002, 7.852968e+001
9.423923e+002, 7.942603e+001
9.428745e+002, 7.962069e+001
9.433566e+002, 7.935281e+001
9.438387e+002, 7.939411e+001
9.443208e+002, 8.009547e+001
9.448029e+002, 8.050366e+001
9.452850e+002, 7.941006e+001
9.457672e+002, 7.819667e+001
9.462493e+002, 7.828191e+001
9.467314e+002, 8.008716e+001
9.472135e+002, 8.162230e+001
9.476956e+002, 8.299583e+001
9.481777e+002, 8.372996e+001
9.486599e+002, 8.278931e+001
9.491420e+002, 8.108257e+001
9.496241e+002, 8.104507e+001
9.501062e+002, 8.253701e+001
9.505883e+002, 8.394055e+001
9.510704e+002, 8.435817e+001
9.515526e+002, 8.449776e+001
9.520347e+002, 8.455343e+001
9.525168e+002, 8.461269e+001
9.529989e+002, 8.500645e+001
9.534810e+002, 8.580279e+001
9.539631e+002, 8.664305e+001
9.544453e+002, 8.750921e+001
9.549274e+002, 8.821361e+001
9.554095e+002, 8.817332e+001
9.558916e+002, 8.777080e+001
9.563737e+002, 8.783440e+001
9.568558e+002, 8.874790e+001
9.573380e+002, 8.993349e+001
9.578201e+002, 9.160065e+001
9.583022e+002, 9.318314e+001
9.587843e+002, 9.406402e+001
9.592664e+002, 9.404945e+001
9.597485e+002, 9.448621e+001
9.602307e+002, 9.545288e+001
9.607128e+002, 9.656165e+001
9.611949e+002, 9.757600e+001
9.616770e+002, 9.846397e+001
9.621591e+002, 9.912290e+001
9.626412e+002, 9.956552e+001
9.631234e+002, 1.000043e+002
9.636055e+002, 1.002842e+002
9.640876e+002, 1.008584e+002
9.645697e+002, 1.020364e+002
9.650518e+002, 1.036089e+002
9.655339e+002, 1.046190e+002
9.660161e+002, 1.050691e+002
9.664982e+002, 1.056095e+002
9.669803e+002, 1.065441e+002
9.674624e+002, 1.075867e+002
9.679445e+002, 1.083638e+002
9.684266e+002, 1.090306e+002
9.689088e+002, 1.098273e+002
9.693909e+002, 1.112897e+002
9.698730e+002, 1.121836e+002
9.703551e+002, 1.122168e+002
9.708372e+002, 1.119696e+002
9.713193e+002, 1.120811e+002
9.718015e+002, 1.124981e+002
9.722836e+002, 1.128168e+002
9.727657e+002, 1.130158e+002
9.732478e+002, 1.127381e+002
9.737299e+002, 1.111851e+002
9.742120e+002, 1.094261e+002
9.746942e+002, 1.084376e+002
9.751763e+002, 1.083015e+002
9.756584e+002, 1.079057e+002
9.761405e+002, 1.071041e+002
9.766226e+002, 1.062355e+002
9.771047e+002, 1.054073e+002
9.775869e+002, 1.046054e+002
9.780690e+002, 1.038140e+002
9.785511e+002, 1.030377e+002
9.790332e+002, 1.022757e+002
9.795153e+002, 1.015480e+002
9.799974e+002, 1.007912e+002
9.804796e+002, 9.981563e+001
9.809617e+002, 9.886221e+001
9.814438e+002, 9.828860e+001
9.819259e+002, 9.826261e+001
9.824080e+002, 9.808767e+001
9.828901e+002, 9.771249e+001
9.833723e+002, 9.725761e+001
9.838544e+002, 9.683041e+001
9.843365e+002, 9.641580e+001
9.848186e+002, 9.595505e+001
9.853007e+002, 9.544711e+001
9.857828e+002, 9.503991e+001
9.862650e+002, 9.514493e+001
9.867471e+002, 9.497104e+001
9.872292e+002, 9.395853e+001
9.877113e+002, 9.237325e+001
9.881934e+002, 9.177487e+001
9.886755e+002, 9.221395e+001
9.891577e+002, 9.243250e+001
9.896398e+002, 9.193685e+001
9.901219e+002, 9.101897e+001
9.906040e+002, 8.960817e+001
9.910861e+002, 8.813164e+001
9.915682e+002, 8.732668e+001
9.920504e+002, 8.823846e+001
9.925325e+002, 8.851932e+001
9.930146e+002, 8.771237e+001
9.934967e+002, 8.661613e+001
9.939788e+002, 8.592252e+001
9.944609e+002, 8.560400e+001
9.949431e+002, 8.548106e+001
9.954252e+002, 8.554278e+001
9.959073e+002, 8.556145e+001
9.963894e+002, 8.534506e+001
9.968715e+002, 8.504329e+001
9.973536e+002, 8.472881e+001
9.978358e+002, 8.442034e+001
9.983179e+002, 8.419545e+001
9.988000e+002, 8.406325e+001
9.992821e+002, 8.399211e+001
9.997642e+002, 8.397195e+001
1.000246e+003, 8.400794e+001
1.000728e+003, 8.419729e+001
1.001211e+003, 8.444672e+001
1.001693e+003, 8.450693e+001
1.002175e+003, 8.427251e+001
1.002657e+003, 8.390495e+001
1.003139e+003, 8.330307e+001
1.003621e+003, 8.272114e+001
1.004103e+003, 8.238962e+001
1.004585e+003, 8.233670e+001
1.005068e+003, 8.237476e+001
1.005550e+003, 8.250345e+001
1.006032e+003, 8.272332e+001
1.006514e+003, 8.330120e+001
1.006996e+003, 8.379776e+001
1.007478e+003, 8.352122e+001
1.007960e+003, 8.259155e+001
1.008442e+003, 8.181371e+001
1.008924e+003, 8.131978e+001
1.009407e+003, 8.113205e+001
1.009889e+003, 8.132544e+001
1.010371e+003, 8.176085e+001
1.010853e+003, 8.226358e+001
1.011335e+003, 8.278904e+001
1.011817e+003, 8.297057e+001
1.012299e+003, 8.267431e+001
1.012781e+003, 8.226011e+001
1.013263e+003, 8.181184e+001
1.013746e+003, 8.149580e+001
1.014228e+003, 8.155099e+001
1.014710e+003, 8.210835e+001
1.015192e+003, 8.232536e+001
1.015674e+003, 8.208897e+001
1.016156e+003, 8.188933e+001
1.016638e+003, 8.229874e+001
1.017120e+003, 8.282174e+001
1.017603e+003, 8.194495e+001
1.018085e+003, 8.014816e+001
1.018567e+003, 7.915709e+001
1.019049e+003, 8.072709e+001
1.019531e+003, 8.200904e+001
1.020013e+003, 8.188736e+001
1.020495e+003, 8.118961e+001
1.020977e+003, 8.117134e+001
1.021459e+003, 8.185411e+001
1.021942e+003, 8.214855e+001
1.022424e+003, 8.186866e+001
1.022906e+003, 8.158144e+001
1.023388e+003, 8.202136e+001
1.023870e+003, 8.258324e+001
1.024352e+003, 8.260897e+001
1.024834e+003, 8.198886e+001
1.025316e+003, 8.143251e+001
1.025799e+003, 8.088351e+001
1.026281e+003, 8.062811e+001
1.026763e+003, 8.081807e+001
1.027245e+003, 8.134969e+001
1.027727e+003, 8.206874e+001
1.028209e+003, 8.291287e+001
1.028691e+003, 8.368066e+001
1.029173e+003, 8.437920e+001
1.029656e+003, 8.484984e+001
1.030138e+003, 8.476964e+001
1.030620e+003, 8.457085e+001
1.031102e+003, 8.482033e+001
1.031584e+003, 8.573676e+001
1.032066e+003, 8.572695e+001
1.032548e+003, 8.467807e+001
1.033030e+003, 8.346842e+001
1.033512e+003, 8.254707e+001
1.033995e+003, 8.206458e+001
1.034477e+003, 8.256332e+001
1.034959e+003, 8.382785e+001
1.035441e+003, 8.446083e+001
1.035923e+003, 8.355088e+001
1.036405e+003, 8.289007e+001
1.036887e+003, 8.289461e+001
1.037369e+003, 8.325546e+001
1.037851e+003, 8.343522e+001
1.038334e+003, 8.344873e+001
1.038816e+003, 8.329530e+001
1.039298e+003, 8.288972e+001
1.039780e+003, 8.271742e+001
1.040262e+003, 8.332932e+001
1.040744e+003, 8.410501e+001
1.041226e+003, 8.455887e+001
1.041708e+003, 8.467776e+001
1.042191e+003, 8.472099e+001
1.042673e+003, 8.470506e+001
1.043155e+003, 8.447486e+001
1.043637e+003, 8.368182e+001
1.044119e+003, 8.285442e+001
1.044601e+003, 8.286662e+001
1.045083e+003, 8.340339e+001
1.045565e+003, 8.374220e+001
1.046047e+003, 8.359630e+001
1.046530e+003, 8.331528e+001
1.047012e+003, 8.283231e+001
1.047494e+003, 8.237566e+001
1.047976e+003, 8.211948e+001
1.048458e+003, 8.209949e+001
1.048940e+003, 8.262767e+001
1.049422e+003, 8.370926e+001
1.049904e+003, 8.469936e+001
1.050386e+003, 8.528159e+001
1.050869e+003, 8.557547e+001
1.051351e+003, 8.547448e+001
1.051833e+003, 8.512862e+001
1.052315e+003, 8.511093e+001
1.052797e+003, 8.544773e+001
1.053279e+003, 8.599539e+001
1.053761e+003, 8.687820e+001
1.054243e+003, 8.753738e+001
1.054726e+003, 8.698606e+001
1.055208e+003, 8.588502e+001
1.055690e+003, 8.509311e+001
1.056172e+003, 8.468520e+001
1.056654e+003, 8.504775e+001
1.057136e+003, 8.664299e+001
1.057618e+003, 8.814222e+001
1.058100e+003, 8.868562e+001
1.058583e+003, 8.850558e+001
1.059065e+003, 8.857565e+001
1.059547e+003, 8.878683e+001
1.060029e+003, 8.863136e+001
1.060511e+003, 8.726681e+001
1.060993e+003, 8.615694e+001
1.061475e+003, 8.620473e+001
1.061957e+003, 8.672441e+001
1.062439e+003, 8.676501e+001
1.062922e+003, 8.625963e+001
1.063404e+003, 8.584340e+001
1.063886e+003, 8.555888e+001
1.064368e+003, 8.545821e+001
1.064850e+003, 8.577966e+001
1.065332e+003, 8.616871e+001
1.065814e+003, 8.624632e+001
1.066296e+003, 8.600783e+001
1.066778e+003, 8.575954e+001
1.067261e+003, 8.542003e+001
1.067743e+003, 8.533116e+001
1.068225e+003, 8.565121e+001
1.068707e+003, 8.614378e+001
1.069189e+003, 8.637038e+001
1.069671e+003, 8.642042e+001
1.070153e+003, 8.651395e+001
1.070635e+003, 8.673627e+001
1.071118e+003, 8.687743e+001
1.071600e+003, 8.685258e+001
1.072082e+003, 8.670939e+001
1.072564e+003, 8.642869e+001
1.073046e+003, 8.603510e+001
1.073528e+003, 8.582594e+001
1.074010e+003, 8.579166e+001
1.074492e+003, 8.574985e+001
1.074974e+003, 8.543169e+001
1.075457e+003, 8.526995e+001
1.075939e+003, 8.603501e+001
1.076421e+003, 8.701858e+001
1.076903e+003, 8.688234e+001
1.077385e+003, 8.488007e+001
1.077867e+003, 8.399987e+001
1.078349e+003, 8.454502e+001
1.078831e+003, 8.548536e+001
1.079313e+003, 8.621912e+001
1.079796e+003, 8.654855e+001
1.080278e+003, 8.581567e+001
1.080760e+003, 8.421366e+001
1.081242e+003, 8.322690e+001
1.081724e+003, 8.415342e+001
1.082206e+003, 8.459949e+001
1.082688e+003, 8.388035e+001
1.083170e+003, 8.270567e+001
1.083652e+003, 8.238726e+001
1.084135e+003, 8.274716e+001
1.084617e+003, 8.322908e+001
1.085099e+003, 8.379205e+001
1.085581e+003, 8.397932e+001
1.086063e+003, 8.321757e+001
1.086545e+003, 8.226392e+001
1.087027e+003, 8.151604e+001
1.087509e+003, 8.098879e+001
1.087992e+003, 8.079760e+001
1.088474e+003, 8.094457e+001
1.088956e+003, 8.128223e+001
1.089438e+003, 8.189529e+001
1.089920e+003, 8.242199e+001
1.090402e+003, 8.219683e+001
1.090884e+003, 8.180473e+001
1.091366e+003, 8.215441e+001
1.091849e+003, 8.401779e+001
1.092331e+003, 8.473617e+001
1.092813e+003, 8.405211e+001
1.093295e+003, 8.309365e+001
1.093777e+003, 8.280659e+001
1.094259e+003, 8.274978e+001
1.094741e+003, 8.177325e+001
1.095223e+003, 8.023936e+001
1.095705e+003, 7.943719e+001
1.096188e+003, 8.053219e+001
1.096670e+003, 8.150027e+001
1.097152e+003, 8.203506e+001
1.097634e+003, 8.227306e+001
1.098116e+003, 8.239410e+001
1.098598e+003, 8.237939e+001
1.099080e+003, 8.212063e+001
1.099562e+003, 8.160993e+001
1.100044e+003, 8.098949e+001
1.100527e+003, 7.995924e+001
1.101009e+003, 7.924319e+001
1.101491e+003, 7.940516e+001
1.101973e+003, 8.015160e+001
1.102455e+003, 8.068255e+001
1.102937e+003, 8.100456e+001
1.103419e+003, 8.088227e+001
1.103901e+003, 8.017498e+001
1.104384e+003, 7.934994e+001
1.104866e+003, 7.859310e+001
1.105348e+003, 7.812873e+001
1.105830e+003, 7.831178e+001
1.106312e+003, 7.928089e+001
1.106794e+003, 7.986928e+001
1.107276e+003, 8.001265e+001
1.107758e+003, 8.002932e+001
1.108240e+003, 8.006694e+001
1.108723e+003, 8.005959e+001
1.109205e+003, 7.977086e+001
1.109687e+003, 7.938761e+001
1.110169e+003, 7.929031e+001
1.110651e+003, 7.998655e+001
1.111133e+003, 8.019436e+001
1.111615e+003, 7.968447e+001
1.112097e+003, 7.895356e+001
1.112579e+003, 7.813686e+001
1.113062e+003, 7.743257e+001
1.113544e+003, 7.790388e+001
1.114026e+003, 7.925969e+001
1.114508e+003, 8.005417e+001
1.114990e+003, 7.890508e+001
1.115472e+003, 7.792686e+001
1.115954e+003, 7.786380e+001
1.116436e+003, 7.825262e+001
1.116919e+003, 7.862513e+001
1.117401e+003, 7.896671e+001
1.117883e+003, 7.898771e+001
1.118365e+003, 7.866369e+001
1.118847e+003, 7.820488e+001
1.119329e+003, 7.750683e+001
1.119811e+003, 7.696352e+001
1.120293e+003, 7.691854e+001
1.120776e+003, 7.724985e+001
1.121258e+003, 7.756705e+001
1.121740e+003, 7.787499e+001
1.122222e+003, 7.813456e+001
1.122704e+003, 7.836038e+001
1.123186e+003, 7.842953e+001
1.123668e+003, 7.787498e+001
1.124150e+003, 7.731760e+001
1.124632e+003, 7.769380e+001
1.125115e+003, 7.924999e+001
1.125597e+003, 7.934139e+001
1.126079e+003, 7.734020e+001
1.126561e+003, 7.595379e+001
1.127043e+003, 7.650549e+001
1.127525e+003, 7.773399e+001
1.128007e+003, 7.745496e+001
1.128489e+003, 7.639779e+001
1.128971e+003, 7.583233e+001
1.129454e+003, 7.628227e+001
1.129936e+003, 7.666654e+001
1.130418e+003, 7.688884e+001
1.130900e+003, 7.701097e+001
1.131382e+003, 7.707642e+001
1.131864e+003, 7.707066e+001
1.132346e+003, 7.683081e+001
1.132828e+003, 7.646776e+001
1.133311e+003, 7.634797e+001
1.133793e+003, 7.719859e+001
1.134275e+003, 7.751083e+001
1.134757e+003, 7.644392e+001
1.135239e+003, 7.527168e+001
1.135721e+003, 7.533257e+001
1.136203e+003, 7.645012e+001
1.136685e+003, 7.718913e+001
1.137167e+003, 7.751515e+001
1.137650e+003, 7.753242e+001
1.138132e+003, 7.694051e+001
1.138614e+003, 7.645494e+001
1.139096e+003, 7.657436e+001
1.139578e+003, 7.695683e+001
1.140060e+003, 7.699052e+001
1.140542e+003, 7.666185e+001
1.141024e+003, 7.688967e+001
1.141506e+003, 7.781357e+001
1.141989e+003, 7.848165e+001
1.142471e+003, 7.756543e+001
1.142953e+003, 7.660802e+001
1.143435e+003, 7.705801e+001
1.143917e+003, 7.857827e+001
1.144399e+003, 7.936520e+001
1.144881e+003, 7.939239e+001
1.145363e+003, 7.865923e+001
1.145846e+003, 7.697484e+001
1.146328e+003, 7.540070e+001
1.146810e+003, 7.520451e+001
1.147292e+003, 7.569917e+001
1.147774e+003, 7.631023e+001
1.148256e+003, 7.698186e+001
1.148738e+003, 7.709251e+001
1.149220e+003, 7.639391e+001
1.149703e+003, 7.606117e+001
1.150185e+003, 7.669938e+001
1.150667e+003, 7.751527e+001
1.151149e+003, 7.706409e+001
1.151631e+003, 7.608924e+001
1.152113e+003, 7.586340e+001
1.152595e+003, 7.701299e+001
1.153077e+003, 7.756351e+001
1.153559e+003, 7.712119e+001
1.154042e+003, 7.673276e+001
1.154524e+003, 7.707076e+001
1.155006e+003, 7.772684e+001
1.155488e+003, 7.772780e+001
1.155970e+003, 7.731062e+001
1.156452e+003, 7.705031e+001
1.156934e+003, 7.722517e+001
1.157416e+003, 7.742969e+001
1.157898e+003, 7.777481e+001
1.158381e+003, 7.787730e+001
1.158863e+003, 7.709096e+001
1.159345e+003, 7.583572e+001
1.159827e+003, 7.604864e+001
1.160309e+003, 7.739738e+001
1.160791e+003, 7.853683e+001
1.161273e+003, 7.886607e+001
1.161755e+003, 7.884978e+001
1.162238e+003, 7.835076e+001
1.162720e+003, 7.785631e+001
1.163202e+003, 7.800261e+001
1.163684e+003, 7.865701e+001
1.164166e+003, 7.893331e+001
1.164648e+003, 7.882579e+001
1.165130e+003, 7.867149e+001
1.165612e+003, 7.890304e+001
1.166094e+003, 7.883113e+001
1.166577e+003, 7.780344e+001
1.167059e+003, 7.654964e+001
1.167541e+003, 7.627095e+001
1.168023e+003, 7.689764e+001
1.168505e+003, 7.771664e+001
1.168987e+003, 7.866204e+001
1.169469e+003, 7.916479e+001
1.169951e+003, 7.832244e+001
1.170433e+003, 7.741589e+001
1.170916e+003, 7.722802e+001
1.171398e+003, 7.755868e+001
1.171880e+003, 7.801906e+001
1.172362e+003, 7.860674e+001
1.172844e+003, 7.898752e+001
1.173326e+003, 7.909182e+001
1.173808e+003, 7.901375e+001
1.174290e+003, 7.839164e+001
1.174773e+003, 7.798262e+001
1.175255e+003, 7.869553e+001
1.175737e+003, 8.023058e+001
1.176219e+003, 8.099184e+001
1.176701e+003, 8.095755e+001
1.177183e+003, 8.066505e+001
1.177665e+003, 8.017660e+001
1.178147e+003, 7.977453e+001
1.178630e+003, 7.966364e+001
1.179112e+003, 7.981573e+001
1.179594e+003, 8.034177e+001
1.180076e+003, 8.123007e+001
1.180558e+003, 8.167545e+001
1.181040e+003, 8.163805e+001
1.181522e+003, 8.159126e+001
1.182004e+003, 8.175373e+001
1.182486e+003, 8.190063e+001
1.182969e+003, 8.171519e+001
1.183451e+003, 8.141433e+001
1.183933e+003, 8.128691e+001
1.184415e+003, 8.140971e+001
1.184897e+003, 8.136749e+001
1.185379e+003, 8.114513e+001
1.185861e+003, 8.081592e+001
1.186343e+003, 8.019810e+001
1.186825e+003, 7.979008e+001
1.187308e+003, 8.053587e+001
1.187790e+003, 8.176302e+001
1.188272e+003, 8.234478e+001
1.188754e+003, 8.174995e+001
1.189236e+003, 8.174198e+001
1.189718e+003, 8.243649e+001
1.190200e+003, 8.312551e+001
1.190682e+003, 8.342483e+001
1.191165e+003, 8.340205e+001
1.191647e+003, 8.289858e+001
1.192129e+003, 8.219571e+001
1.192611e+003, 8.188171e+001
1.193093e+003, 8.233410e+001
1.193575e+003, 8.255725e+001
1.194057e+003, 8.251211e+001
1.194539e+003, 8.234407e+001
1.195021e+003, 8.198847e+001
1.195504e+003, 8.170148e+001
1.195986e+003, 8.217358e+001
1.196468e+003, 8.300346e+001
1.196950e+003, 8.293119e+001
1.197432e+003, 8.087533e+001
1.197914e+003, 7.996149e+001
1.198396e+003, 8.057146e+001
1.198878e+003, 8.163137e+001
1.199360e+003, 8.217121e+001
1.199843e+003, 8.249079e+001
1.200325e+003, 8.309545e+001
1.200807e+003, 8.388117e+001
1.201289e+003, 8.430799e+001
1.201771e+003, 8.397543e+001
1.202253e+003, 8.403667e+001
1.202735e+003, 8.472519e+001
1.203217e+003, 8.549136e+001
1.203700e+003, 8.567915e+001
1.204182e+003, 8.558244e+001
1.204664e+003, 8.551948e+001
1.205146e+003, 8.554836e+001
1.205628e+003, 8.591855e+001
1.206110e+003, 8.703751e+001
1.206592e+003, 8.759734e+001
1.207074e+003, 8.728108e+001
1.207557e+003, 8.667473e+001
1.208039e+003, 8.637509e+001
1.208521e+003, 8.633229e+001
1.209003e+003, 8.662817e+001
1.209485e+003, 8.721947e+001
1.209967e+003, 8.736540e+001
1.210449e+003, 8.679893e+001
1.210931e+003, 8.619032e+001
1.211413e+003, 8.554737e+001
1.211896e+003, 8.526087e+001
1.212378e+003, 8.631672e+001
1.212860e+003, 8.781522e+001
1.213342e+003, 8.826842e+001
1.213824e+003, 8.751807e+001
1.214306e+003, 8.728824e+001
1.214788e+003, 8.803865e+001
1.215270e+003, 8.850308e+001
1.215752e+003, 8.827019e+001
1.216235e+003, 8.781319e+001
1.216717e+003, 8.776693e+001
1.217199e+003, 8.795750e+001
1.217681e+003, 8.817622e+001
1.218163e+003, 8.840423e+001
1.218645e+003, 8.846873e+001
1.219127e+003, 8.833542e+001
1.219609e+003, 8.808397e+001
1.220092e+003, 8.760204e+001
1.220574e+003, 8.732240e+001
1.221056e+003, 8.822917e+001
1.221538e+003, 8.958538e+001
1.222020e+003, 9.024629e+001
1.222502e+003, 8.988888e+001
1.222984e+003, 9.001516e+001
1.223466e+003, 9.092947e+001
1.223948e+003, 9.142677e+001
1.224431e+003, 9.083412e+001
1.224913e+003, 9.008836e+001
1.225395e+003, 9.071229e+001
1.225877e+003, 9.197935e+001
1.226359e+003, 9.300242e+001
1.226841e+003, 9.368940e+001
1.227323e+003, 9.346982e+001
1.227805e+003, 9.209808e+001
1.228287e+003, 9.078589e+001
1.228770e+003, 8.988497e+001
1.229252e+003, 8.957642e+001
1.229734e+003, 9.070712e+001
1.230216e+003, 9.229166e+001
1.230698e+003, 9.283736e+001
1.231180e+003, 9.178523e+001
1.231662e+003, 9.170361e+001
1.232144e+003, 9.280331e+001
1.232627e+003, 9.362791e+001
1.233109e+003, 9.331399e+001
1.233591e+003, 9.274756e+001
1.234073e+003, 9.311846e+001
1.234555e+003, 9.383286e+001
1.235037e+003, 9.396987e+001
1.235519e+003, 9.324162e+001
1.236001e+003, 9.339365e+001
1.236484e+003, 9.453468e+001
1.236966e+003, 9.560853e+001
1.237448e+003, 9.620843e+001
1.237930e+003, 9.630923e+001
1.238412e+003, 9.531886e+001
1.238894e+003, 9.410374e+001
1.239376e+003, 9.392976e+001
1.239858e+003, 9.494096e+001
1.240340e+003, 9.610275e+001
1.240823e+003, 9.741646e+001
1.241305e+003, 9.839768e+001
1.241787e+003, 9.860171e+001
1.242269e+003, 9.860905e+001
1.242751e+003, 9.890709e+001
1.243233e+003, 9.928600e+001
1.243715e+003, 9.939655e+001
1.244197e+003, 9.914798e+001
1.244679e+003, 9.977407e+001
1.245162e+003, 1.012513e+002
1.245644e+003, 1.021834e+002
1.246126e+003, 1.013901e+002
1.246608e+003, 1.003892e+002
1.247090e+003, 1.001080e+002
1.247572e+003, 1.002505e+002
1.248054e+003, 1.003927e+002
1.248536e+003, 1.005220e+002
1.249019e+003, 1.013093e+002
1.249501e+003, 1.026698e+002
1.249983e+003, 1.036913e+002
1.250465e+003, 1.034430e+002
1.250947e+003, 1.032526e+002
1.251429e+003, 1.038885e+002
1.251911e+003, 1.048456e+002
1.252393e+003, 1.058063e+002
1.252875e+003, 1.067338e+002
1.253358e+003, 1.067348e+002
1.253840e+003, 1.059671e+002
1.254322e+003, 1.055010e+002
1.254804e+003, 1.063321e+002
1.255286e+003, 1.069812e+002
1.255768e+003, 1.066740e+002
1.256250e+003, 1.062608e+002
1.256732e+003, 1.064480e+002
1.257214e+003, 1.071595e+002
1.257697e+003, 1.080685e+002
1.258179e+003, 1.091019e+002
1.258661e+003, 1.099135e+002
1.259143e+003, 1.102369e+002
1.259625e+003, 1.104812e+002
1.260107e+003, 1.106831e+002
1.260589e+003, 1.109132e+002
1.261071e+003, 1.111026e+002
1.261554e+003, 1.113953e+002
1.262036e+003, 1.127258e+002
1.262518e+003, 1.146068e+002
1.263000e+003, 1.154259e+002
1.263482e+003, 1.131798e+002
1.263964e+003, 1.120379e+002
1.264446e+003, 1.126407e+002
1.264928e+003, 1.136870e+002
1.265411e+003, 1.140071e+002
1.265893e+003, 1.140599e+002
1.266375e+003, 1.148158e+002
1.266857e+003, 1.160545e+002
1.267339e+003, 1.171634e+002
1.267821e+003, 1.180814e+002
1.268303e+003, 1.186365e+002
1.268785e+003, 1.187573e+002
1.269267e+003, 1.187994e+002
1.269750e+003, 1.190458e+002
1.270232e+003, 1.193739e+002
1.270714e+003, 1.196841e+002
1.271196e+003, 1.199423e+002
1.271678e+003, 1.200285e+002
1.272160e+003, 1.197610e+002
1.272642e+003, 1.199730e+002
1.273124e+003, 1.207474e+002
1.273606e+003, 1.214343e+002
1.274089e+003, 1.214818e+002
1.274571e+003, 1.213093e+002
1.275053e+003, 1.210776e+002
1.275535e+003, 1.209806e+002
1.276017e+003, 1.213124e+002
1.276499e+003, 1.220906e+002
1.276981e+003, 1.233862e+002
1.277463e+003, 1.251814e+002
1.277946e+003, 1.264109e+002
1.278428e+003, 1.257310e+002
1.278910e+003, 1.249762e+002
1.279392e+003, 1.253500e+002
1.279874e+003, 1.262454e+002
1.280356e+003, 1.270241e+002
1.280838e+003, 1.276737e+002
1.281320e+003, 1.279180e+002
1.281802e+003, 1.278373e+002
1.282285e+003, 1.281253e+002
1.282767e+003, 1.298338e+002
1.283249e+003, 1.311016e+002
1.283731e+003, 1.310043e+002
1.284213e+003, 1.304743e+002
1.284695e+003, 1.300317e+002
1.285177e+003, 1.298299e+002
1.285659e+003, 1.309905e+002
1.286141e+003, 1.331554e+002
1.286624e+003, 1.348162e+002
1.287106e+003, 1.349047e+002
1.287588e+003, 1.350411e+002
1.288070e+003, 1.354465e+002
1.288552e+003, 1.359440e+002
1.289034e+003, 1.364744e+002
1.289516e+003, 1.369474e+002
1.289998e+003, 1.369402e+002
1.290481e+003, 1.367236e+002
1.290963e+003, 1.369969e+002
1.291445e+003, 1.382156e+002
1.291927e+003, 1.396071e+002
1.292409e+003, 1.413119e+002
1.292891e+003, 1.426237e+002
1.293373e+003, 1.428506e+002
1.293855e+003, 1.425492e+002
1.294338e+003, 1.422000e+002
1.294820e+003, 1.419103e+002
1.295302e+003, 1.418999e+002
1.295784e+003, 1.421685e+002
1.296266e+003, 1.427146e+002
1.296748e+003, 1.435510e+002
1.297230e+003, 1.444274e+002
1.297712e+003, 1.452412e+002
1.298194e+003, 1.459762e+002
1.298677e+003, 1.466812e+002
1.299159e+003, 1.472303e+002
1.299641e+003, 1.474114e+002
1.300123e+003, 1.472056e+002
1.300605e+003, 1.474171e+002
1.301087e+003, 1.480023e+002
1.301569e+003, 1.485886e+002
1.302051e+003, 1.490681e+002
1.302533e+003, 1.493319e+002
1.303016e+003, 1.493198e+002
##END=



