##NAMES=Monazite-(Ce)
##RRUFFID=R120146
##IDEAL CHEMISTRY=CePO_4_
##LOCALITY=Zagi Mountain, Hameed Abad Kafoor Dheri, Peshawar, Khyber Pakhtunkhwa, Pakistan
##OWNER=RRUFF
##SOURCE=Ikram Mineralogy
##DESCRIPTION=Brown bladed crystals
##STATUS=The identification of this mineral has been determined by Raman spectroscopy and chemical analysis
##URL=rruff.info/R120146
##MEASURED CHEMISTRY=(Ce_0.47_La_0.23_Nd_0.19_Pr_0.05_Sm_0.03_Gd_0.01_Y_0.01_Eu_0.01_Th_0.01_)_∑=1.00_(P_0.98_Si_0.01_)_∑=0.99_O_4_
8.936163e+001, 0.000000e+000
8.984375e+001, 2.224612e+001
9.032587e+001, 2.221497e+001
9.080798e+001, 2.220992e+001
9.129010e+001, 2.224078e+001
9.177222e+001, 2.228634e+001
9.225433e+001, 2.238685e+001
9.273645e+001, 2.252723e+001
9.321857e+001, 2.253076e+001
9.370068e+001, 2.213175e+001
9.418280e+001, 2.144813e+001
9.466492e+001, 2.086496e+001
9.514703e+001, 2.051383e+001
9.562915e+001, 2.034998e+001
9.611127e+001, 2.027625e+001
9.659338e+001, 2.031203e+001
9.707550e+001, 2.034252e+001
9.755762e+001, 2.020679e+001
9.803973e+001, 1.990090e+001
9.852185e+001, 1.959377e+001
9.900397e+001, 1.935195e+001
9.948608e+001, 1.917585e+001
9.996820e+001, 1.901885e+001
1.004503e+002, 1.889896e+001
1.009324e+002, 1.877468e+001
1.014146e+002, 1.853444e+001
1.018967e+002, 1.812564e+001
1.023788e+002, 1.774507e+001
1.028609e+002, 1.750425e+001
1.033430e+002, 1.745227e+001
1.038251e+002, 1.738641e+001
1.043073e+002, 1.727690e+001
1.047894e+002, 1.714093e+001
1.052715e+002, 1.708164e+001
1.057536e+002, 1.718806e+001
1.062357e+002, 1.727273e+001
1.067178e+002, 1.719729e+001
1.072000e+002, 1.682723e+001
1.076821e+002, 1.649304e+001
1.081642e+002, 1.624648e+001
1.086463e+002, 1.609411e+001
1.091284e+002, 1.593850e+001
1.096105e+002, 1.577378e+001
1.100927e+002, 1.560803e+001
1.105748e+002, 1.545057e+001
1.110569e+002, 1.525985e+001
1.115390e+002, 1.511651e+001
1.120211e+002, 1.507484e+001
1.125032e+002, 1.519428e+001
1.129854e+002, 1.519807e+001
1.134675e+002, 1.493302e+001
1.139496e+002, 1.455245e+001
1.144317e+002, 1.427465e+001
1.149138e+002, 1.427857e+001
1.153959e+002, 1.430366e+001
1.158781e+002, 1.422000e+001
1.163602e+002, 1.394090e+001
1.168423e+002, 1.369092e+001
1.173244e+002, 1.357025e+001
1.178065e+002, 1.353966e+001
1.182886e+002, 1.349935e+001
1.187708e+002, 1.337609e+001
1.192529e+002, 1.324191e+001
1.197350e+002, 1.316106e+001
1.202171e+002, 1.321427e+001
1.206992e+002, 1.324676e+001
1.211813e+002, 1.312454e+001
1.216635e+002, 1.287496e+001
1.221456e+002, 1.265138e+001
1.226277e+002, 1.259962e+001
1.231098e+002, 1.261946e+001
1.235919e+002, 1.257723e+001
1.240740e+002, 1.235281e+001
1.245562e+002, 1.208864e+001
1.250383e+002, 1.193767e+001
1.255204e+002, 1.189845e+001
1.260025e+002, 1.190817e+001
1.264846e+002, 1.197002e+001
1.269667e+002, 1.204598e+001
1.274489e+002, 1.204105e+001
1.279310e+002, 1.184122e+001
1.284131e+002, 1.154451e+001
1.288952e+002, 1.134802e+001
1.293773e+002, 1.126663e+001
1.298594e+002, 1.123673e+001
1.303416e+002, 1.118788e+001
1.308237e+002, 1.112245e+001
1.313058e+002, 1.105440e+001
1.317879e+002, 1.100732e+001
1.322700e+002, 1.096958e+001
1.327521e+002, 1.086742e+001
1.332343e+002, 1.066721e+001
1.337164e+002, 1.044970e+001
1.341985e+002, 1.037482e+001
1.346806e+002, 1.045172e+001
1.351627e+002, 1.055064e+001
1.356448e+002, 1.060129e+001
1.361270e+002, 1.060415e+001
1.366091e+002, 1.055332e+001
1.370912e+002, 1.043132e+001
1.375733e+002, 1.026329e+001
1.380554e+002, 1.011226e+001
1.385375e+002, 9.965015e+000
1.390197e+002, 9.873020e+000
1.395018e+002, 9.909031e+000
1.399839e+002, 1.012132e+001
1.404660e+002, 1.024550e+001
1.409481e+002, 1.021582e+001
1.414302e+002, 1.004497e+001
1.419124e+002, 9.899272e+000
1.423945e+002, 9.780768e+000
1.428766e+002, 9.685011e+000
1.433587e+002, 9.609073e+000
1.438408e+002, 9.556833e+000
1.443229e+002, 9.519073e+000
1.448051e+002, 9.504294e+000
1.452872e+002, 9.520669e+000
1.457693e+002, 9.489930e+000
1.462514e+002, 9.361117e+000
1.467335e+002, 9.216572e+000
1.472156e+002, 9.168174e+000
1.476978e+002, 9.344712e+000
1.481799e+002, 9.458518e+000
1.486620e+002, 9.418028e+000
1.491441e+002, 9.140079e+000
1.496262e+002, 8.933805e+000
1.501083e+002, 8.812761e+000
1.505905e+002, 8.763484e+000
1.510726e+002, 8.764002e+000
1.515547e+002, 8.914072e+000
1.520368e+002, 9.027868e+000
1.525189e+002, 9.044961e+000
1.530010e+002, 8.903227e+000
1.534832e+002, 8.769711e+000
1.539653e+002, 8.618238e+000
1.544474e+002, 8.479862e+000
1.549295e+002, 8.429120e+000
1.554116e+002, 8.583695e+000
1.558937e+002, 8.749408e+000
1.563759e+002, 8.834423e+000
1.568580e+002, 8.749009e+000
1.573401e+002, 8.686371e+000
1.578222e+002, 8.703892e+000
1.583043e+002, 8.779130e+000
1.587864e+002, 8.829309e+000
1.592686e+002, 8.774714e+000
1.597507e+002, 8.721418e+000
1.602328e+002, 8.737310e+000
1.607149e+002, 8.877880e+000
1.611970e+002, 9.049969e+000
1.616791e+002, 9.214057e+000
1.621613e+002, 9.375796e+000
1.626434e+002, 9.589275e+000
1.631255e+002, 9.942236e+000
1.636076e+002, 1.032688e+001
1.640897e+002, 1.064718e+001
1.645718e+002, 1.075250e+001
1.650540e+002, 1.088521e+001
1.655361e+002, 1.115054e+001
1.660182e+002, 1.155087e+001
1.665003e+002, 1.206407e+001
1.669824e+002, 1.266326e+001
1.674645e+002, 1.337877e+001
1.679467e+002, 1.423788e+001
1.684288e+002, 1.533020e+001
1.689109e+002, 1.652286e+001
1.693930e+002, 1.769940e+001
1.698751e+002, 1.885667e+001
1.703572e+002, 2.011604e+001
1.708394e+002, 2.158706e+001
1.713215e+002, 2.323185e+001
1.718036e+002, 2.496103e+001
1.722857e+002, 2.678139e+001
1.727678e+002, 2.865998e+001
1.732499e+002, 3.056540e+001
1.737321e+002, 3.251177e+001
1.742142e+002, 3.447388e+001
1.746963e+002, 3.656126e+001
1.751784e+002, 3.869537e+001
1.756605e+002, 4.069847e+001
1.761426e+002, 4.237568e+001
1.766248e+002, 4.388552e+001
1.771069e+002, 4.543699e+001
1.775890e+002, 4.706693e+001
1.780711e+002, 4.868766e+001
1.785532e+002, 5.016632e+001
1.790353e+002, 5.155544e+001
1.795175e+002, 5.298490e+001
1.799996e+002, 5.456114e+001
1.804817e+002, 5.623015e+001
1.809638e+002, 5.793938e+001
1.814459e+002, 5.971105e+001
1.819280e+002, 6.145516e+001
1.824102e+002, 6.305739e+001
1.828923e+002, 6.451376e+001
1.833744e+002, 6.599223e+001
1.838565e+002, 6.756699e+001
1.843386e+002, 6.923647e+001
1.848207e+002, 7.096017e+001
1.853029e+002, 7.277641e+001
1.857850e+002, 7.459476e+001
1.862671e+002, 7.618537e+001
1.867492e+002, 7.756296e+001
1.872313e+002, 7.916368e+001
1.877134e+002, 8.145123e+001
1.881956e+002, 8.429208e+001
1.886777e+002, 8.693346e+001
1.891598e+002, 8.925867e+001
1.896419e+002, 9.136122e+001
1.901240e+002, 9.333217e+001
1.906061e+002, 9.518220e+001
1.910883e+002, 9.724467e+001
1.915704e+002, 9.998557e+001
1.920525e+002, 1.033376e+002
1.925346e+002, 1.063694e+002
1.930167e+002, 1.088411e+002
1.934988e+002, 1.108667e+002
1.939810e+002, 1.125348e+002
1.944631e+002, 1.137410e+002
1.949452e+002, 1.149383e+002
1.954273e+002, 1.161202e+002
1.959094e+002, 1.172849e+002
1.963915e+002, 1.181311e+002
1.968737e+002, 1.184736e+002
1.973558e+002, 1.185147e+002
1.978379e+002, 1.190651e+002
1.983200e+002, 1.202229e+002
1.988021e+002, 1.214250e+002
1.992842e+002, 1.221608e+002
1.997664e+002, 1.224273e+002
2.002485e+002, 1.225659e+002
2.007306e+002, 1.225928e+002
2.012127e+002, 1.225524e+002
2.016948e+002, 1.226868e+002
2.021769e+002, 1.230069e+002
2.026591e+002, 1.234642e+002
2.031412e+002, 1.240661e+002
2.036233e+002, 1.248524e+002
2.041054e+002, 1.254968e+002
2.045875e+002, 1.258250e+002
2.050696e+002, 1.259067e+002
2.055518e+002, 1.264302e+002
2.060339e+002, 1.274852e+002
2.065160e+002, 1.287597e+002
2.069981e+002, 1.299001e+002
2.074802e+002, 1.308177e+002
2.079623e+002, 1.319434e+002
2.084445e+002, 1.333478e+002
2.089266e+002, 1.350365e+002
2.094087e+002, 1.370848e+002
2.098908e+002, 1.395773e+002
2.103729e+002, 1.422849e+002
2.108550e+002, 1.449841e+002
2.113372e+002, 1.476418e+002
2.118193e+002, 1.502981e+002
2.123014e+002, 1.528594e+002
2.127835e+002, 1.552992e+002
2.132656e+002, 1.583898e+002
2.137477e+002, 1.623259e+002
2.142299e+002, 1.666449e+002
2.147120e+002, 1.707737e+002
2.151941e+002, 1.747207e+002
2.156762e+002, 1.785446e+002
2.161583e+002, 1.822221e+002
2.166404e+002, 1.856936e+002
2.171226e+002, 1.895571e+002
2.176047e+002, 1.940800e+002
2.180868e+002, 1.986785e+002
2.185689e+002, 2.027174e+002
2.190510e+002, 2.061377e+002
2.195331e+002, 2.092001e+002
2.200153e+002, 2.120971e+002
2.204974e+002, 2.148987e+002
2.209795e+002, 2.169011e+002
2.214616e+002, 2.180041e+002
2.219437e+002, 2.184573e+002
2.224258e+002, 2.185837e+002
2.229080e+002, 2.184457e+002
2.233901e+002, 2.178431e+002
2.238722e+002, 2.166075e+002
2.243543e+002, 2.146178e+002
2.248364e+002, 2.129702e+002
2.253185e+002, 2.118242e+002
2.258007e+002, 2.108811e+002
2.262828e+002, 2.097972e+002
2.267649e+002, 2.087017e+002
2.272470e+002, 2.072009e+002
2.277291e+002, 2.051323e+002
2.282112e+002, 2.023734e+002
2.286934e+002, 1.998071e+002
2.291755e+002, 1.977378e+002
2.296576e+002, 1.955943e+002
2.301397e+002, 1.926724e+002
2.306218e+002, 1.887378e+002
2.311039e+002, 1.843732e+002
2.315861e+002, 1.796567e+002
2.320682e+002, 1.744160e+002
2.325503e+002, 1.696091e+002
2.330324e+002, 1.654023e+002
2.335145e+002, 1.615101e+002
2.339966e+002, 1.575150e+002
2.344788e+002, 1.533498e+002
2.349609e+002, 1.492469e+002
2.354430e+002, 1.452140e+002
2.359251e+002, 1.412073e+002
2.364072e+002, 1.375869e+002
2.368893e+002, 1.345037e+002
2.373715e+002, 1.316754e+002
2.378536e+002, 1.287379e+002
2.383357e+002, 1.254535e+002
2.388178e+002, 1.224104e+002
2.392999e+002, 1.197437e+002
2.397820e+002, 1.174932e+002
2.402642e+002, 1.154850e+002
2.407463e+002, 1.138054e+002
2.412284e+002, 1.122901e+002
2.417105e+002, 1.107203e+002
2.421926e+002, 1.089648e+002
2.426747e+002, 1.073942e+002
2.431569e+002, 1.061312e+002
2.436390e+002, 1.052007e+002
2.441211e+002, 1.043017e+002
2.446032e+002, 1.032411e+002
2.450853e+002, 1.023720e+002
2.455674e+002, 1.022427e+002
2.460496e+002, 1.036216e+002
2.465317e+002, 1.042910e+002
2.470138e+002, 1.034384e+002
2.474959e+002, 1.008348e+002
2.479780e+002, 9.942757e+001
2.484601e+002, 9.988721e+001
2.489423e+002, 1.008676e+002
2.494244e+002, 1.008293e+002
2.499065e+002, 9.918767e+001
2.503886e+002, 9.768401e+001
2.508707e+002, 9.666348e+001
2.513528e+002, 9.614195e+001
2.518350e+002, 9.593214e+001
2.523171e+002, 9.619060e+001
2.527992e+002, 9.659119e+001
2.532813e+002, 9.678768e+001
2.537634e+002, 9.665686e+001
2.542455e+002, 9.658675e+001
2.547277e+002, 9.669531e+001
2.552098e+002, 9.698708e+001
2.556919e+002, 9.710195e+001
2.561740e+002, 9.697762e+001
2.566561e+002, 9.675137e+001
2.571382e+002, 9.658329e+001
2.576204e+002, 9.658499e+001
2.581025e+002, 9.636205e+001
2.585846e+002, 9.579229e+001
2.590667e+002, 9.489165e+001
2.595488e+002, 9.403870e+001
2.600309e+002, 9.328219e+001
2.605131e+002, 9.252855e+001
2.609952e+002, 9.167979e+001
2.614773e+002, 9.063770e+001
2.619594e+002, 8.976235e+001
2.624415e+002, 8.913243e+001
2.629236e+002, 8.873038e+001
2.634058e+002, 8.844761e+001
2.638879e+002, 8.833235e+001
2.643700e+002, 8.825158e+001
2.648521e+002, 8.805676e+001
2.653342e+002, 8.765468e+001
2.658163e+002, 8.747724e+001
2.662985e+002, 8.767705e+001
2.667806e+002, 8.816234e+001
2.672627e+002, 8.838489e+001
2.677448e+002, 8.824264e+001
2.682269e+002, 8.804674e+001
2.687090e+002, 8.801878e+001
2.691912e+002, 8.818255e+001
2.696733e+002, 8.840111e+001
2.701554e+002, 8.863241e+001
2.706375e+002, 8.891115e+001
2.711196e+002, 8.944389e+001
2.716017e+002, 9.035944e+001
2.720839e+002, 9.116904e+001
2.725660e+002, 9.146613e+001
2.730481e+002, 9.116326e+001
2.735302e+002, 9.095155e+001
2.740123e+002, 9.093407e+001
2.744944e+002, 9.102455e+001
2.749766e+002, 9.093925e+001
2.754587e+002, 9.062842e+001
2.759408e+002, 9.034029e+001
2.764229e+002, 9.031669e+001
2.769050e+002, 9.060353e+001
2.773871e+002, 9.054053e+001
2.778693e+002, 8.996655e+001
2.783514e+002, 8.915120e+001
2.788335e+002, 8.877316e+001
2.793156e+002, 8.891956e+001
2.797977e+002, 8.896764e+001
2.802798e+002, 8.852795e+001
2.807620e+002, 8.760188e+001
2.812441e+002, 8.666398e+001
2.817262e+002, 8.571263e+001
2.822083e+002, 8.479891e+001
2.826904e+002, 8.406436e+001
2.831725e+002, 8.352517e+001
2.836547e+002, 8.292358e+001
2.841368e+002, 8.206733e+001
2.846189e+002, 8.099361e+001
2.851010e+002, 8.003466e+001
2.855831e+002, 7.917666e+001
2.860652e+002, 7.849216e+001
2.865474e+002, 7.821885e+001
2.870295e+002, 7.834560e+001
2.875116e+002, 7.832397e+001
2.879937e+002, 7.782522e+001
2.884758e+002, 7.693489e+001
2.889579e+002, 7.618694e+001
2.894401e+002, 7.558570e+001
2.899222e+002, 7.506087e+001
2.904043e+002, 7.453996e+001
2.908864e+002, 7.402396e+001
2.913685e+002, 7.351489e+001
2.918506e+002, 7.297336e+001
2.923328e+002, 7.244520e+001
2.928149e+002, 7.212270e+001
2.932970e+002, 7.201762e+001
2.937791e+002, 7.194754e+001
2.942612e+002, 7.174315e+001
2.947433e+002, 7.142004e+001
2.952255e+002, 7.103283e+001
2.957076e+002, 7.054978e+001
2.961897e+002, 7.004390e+001
2.966718e+002, 6.970756e+001
2.971539e+002, 6.953732e+001
2.976360e+002, 6.935254e+001
2.981182e+002, 6.892245e+001
2.986003e+002, 6.835768e+001
2.990824e+002, 6.793520e+001
2.995645e+002, 6.778669e+001
3.000466e+002, 6.775267e+001
3.005287e+002, 6.761651e+001
3.010109e+002, 6.738826e+001
3.014930e+002, 6.713123e+001
3.019751e+002, 6.685304e+001
3.024572e+002, 6.658534e+001
3.029393e+002, 6.639864e+001
3.034214e+002, 6.633829e+001
3.039036e+002, 6.630376e+001
3.043857e+002, 6.619682e+001
3.048678e+002, 6.602682e+001
3.053499e+002, 6.582334e+001
3.058320e+002, 6.553735e+001
3.063141e+002, 6.525558e+001
3.067963e+002, 6.510520e+001
3.072784e+002, 6.514034e+001
3.077605e+002, 6.520406e+001
3.082426e+002, 6.520521e+001
3.087247e+002, 6.513681e+001
3.092068e+002, 6.498264e+001
3.096890e+002, 6.467246e+001
3.101711e+002, 6.430627e+001
3.106532e+002, 6.392016e+001
3.111353e+002, 6.348036e+001
3.116174e+002, 6.322431e+001
3.120995e+002, 6.353088e+001
3.125817e+002, 6.409251e+001
3.130638e+002, 6.441743e+001
3.135459e+002, 6.410253e+001
3.140280e+002, 6.364269e+001
3.145101e+002, 6.335045e+001
3.149922e+002, 6.325952e+001
3.154744e+002, 6.314513e+001
3.159565e+002, 6.284626e+001
3.164386e+002, 6.248674e+001
3.169207e+002, 6.221114e+001
3.174028e+002, 6.213422e+001
3.178849e+002, 6.208526e+001
3.183671e+002, 6.202898e+001
3.188492e+002, 6.195964e+001
3.193313e+002, 6.180619e+001
3.198134e+002, 6.140442e+001
3.202955e+002, 6.098046e+001
3.207776e+002, 6.071828e+001
3.212598e+002, 6.085056e+001
3.217419e+002, 6.093829e+001
3.222240e+002, 6.083976e+001
3.227061e+002, 6.059261e+001
3.231882e+002, 6.039935e+001
3.236703e+002, 6.035894e+001
3.241525e+002, 6.033966e+001
3.246346e+002, 6.027086e+001
3.251167e+002, 6.013330e+001
3.255988e+002, 5.996160e+001
3.260809e+002, 5.970221e+001
3.265630e+002, 5.940593e+001
3.270452e+002, 5.921083e+001
3.275273e+002, 5.940126e+001
3.280094e+002, 5.945840e+001
3.284915e+002, 5.914799e+001
3.289736e+002, 5.815664e+001
3.294557e+002, 5.750723e+001
3.299379e+002, 5.740129e+001
3.304200e+002, 5.757300e+001
3.309021e+002, 5.759841e+001
3.313842e+002, 5.738210e+001
3.318663e+002, 5.714619e+001
3.323484e+002, 5.696310e+001
3.328306e+002, 5.686016e+001
3.333127e+002, 5.661720e+001
3.337948e+002, 5.601434e+001
3.342769e+002, 5.546733e+001
3.347590e+002, 5.553226e+001
3.352411e+002, 5.665232e+001
3.357233e+002, 5.738314e+001
3.362054e+002, 5.733755e+001
3.366875e+002, 5.656720e+001
3.371696e+002, 5.589618e+001
3.376517e+002, 5.531044e+001
3.381339e+002, 5.485388e+001
3.386160e+002, 5.459489e+001
3.390981e+002, 5.456718e+001
3.395802e+002, 5.457114e+001
3.400623e+002, 5.460777e+001
3.405444e+002, 5.464273e+001
3.410266e+002, 5.453148e+001
3.415087e+002, 5.423903e+001
3.419908e+002, 5.395767e+001
3.424729e+002, 5.381351e+001
3.429550e+002, 5.380626e+001
3.434371e+002, 5.381797e+001
3.439193e+002, 5.385523e+001
3.444014e+002, 5.387634e+001
3.448835e+002, 5.380077e+001
3.453656e+002, 5.362905e+001
3.458477e+002, 5.341758e+001
3.463298e+002, 5.313071e+001
3.468120e+002, 5.281231e+001
3.472941e+002, 5.271524e+001
3.477762e+002, 5.288197e+001
3.482583e+002, 5.306954e+001
3.487404e+002, 5.295508e+001
3.492225e+002, 5.259921e+001
3.497047e+002, 5.225734e+001
3.501868e+002, 5.203710e+001
3.506689e+002, 5.188837e+001
3.511510e+002, 5.171437e+001
3.516331e+002, 5.151655e+001
3.521152e+002, 5.134105e+001
3.525974e+002, 5.122084e+001
3.530795e+002, 5.115024e+001
3.535616e+002, 5.112250e+001
3.540437e+002, 5.115260e+001
3.545258e+002, 5.120248e+001
3.550079e+002, 5.123715e+001
3.554901e+002, 5.125906e+001
3.559722e+002, 5.127960e+001
3.564543e+002, 5.137025e+001
3.569364e+002, 5.143321e+001
3.574185e+002, 5.133666e+001
3.579006e+002, 5.098429e+001
3.583828e+002, 5.067221e+001
3.588649e+002, 5.064076e+001
3.593470e+002, 5.078126e+001
3.598291e+002, 5.087255e+001
3.603112e+002, 5.075672e+001
3.607933e+002, 5.060867e+001
3.612755e+002, 5.053621e+001
3.617576e+002, 5.055919e+001
3.622397e+002, 5.058220e+001
3.627218e+002, 5.053767e+001
3.632039e+002, 5.048456e+001
3.636860e+002, 5.048877e+001
3.641682e+002, 5.067590e+001
3.646503e+002, 5.081734e+001
3.651324e+002, 5.079008e+001
3.656145e+002, 5.060327e+001
3.660966e+002, 5.051429e+001
3.665787e+002, 5.065680e+001
3.670609e+002, 5.085333e+001
3.675430e+002, 5.099026e+001
3.680251e+002, 5.099382e+001
3.685072e+002, 5.101433e+001
3.689893e+002, 5.106417e+001
3.694714e+002, 5.113850e+001
3.699536e+002, 5.121026e+001
3.704357e+002, 5.107696e+001
3.709178e+002, 5.115905e+001
3.713999e+002, 5.169516e+001
3.718820e+002, 5.304712e+001
3.723641e+002, 5.390129e+001
3.728463e+002, 5.399512e+001
3.733284e+002, 5.375544e+001
3.738105e+002, 5.383954e+001
3.742926e+002, 5.433101e+001
3.747747e+002, 5.496423e+001
3.752568e+002, 5.568814e+001
3.757390e+002, 5.650644e+001
3.762211e+002, 5.734419e+001
3.767032e+002, 5.821100e+001
3.771853e+002, 5.909413e+001
3.776674e+002, 5.997917e+001
3.781495e+002, 6.085674e+001
3.786317e+002, 6.184815e+001
3.791138e+002, 6.298103e+001
3.795959e+002, 6.424611e+001
3.800780e+002, 6.565831e+001
3.805601e+002, 6.721345e+001
3.810422e+002, 6.890087e+001
3.815244e+002, 7.072362e+001
3.820065e+002, 7.268717e+001
3.824886e+002, 7.474061e+001
3.829707e+002, 7.692346e+001
3.834528e+002, 7.912290e+001
3.839349e+002, 8.112146e+001
3.844171e+002, 8.298765e+001
3.848992e+002, 8.505538e+001
3.853813e+002, 8.751737e+001
3.858634e+002, 9.030394e+001
3.863455e+002, 9.335310e+001
3.868276e+002, 9.665046e+001
3.873098e+002, 1.002063e+002
3.877919e+002, 1.041404e+002
3.882740e+002, 1.083714e+002
3.887561e+002, 1.127157e+002
3.892382e+002, 1.171008e+002
3.897203e+002, 1.216327e+002
3.902025e+002, 1.262636e+002
3.906846e+002, 1.310154e+002
3.911667e+002, 1.361376e+002
3.916488e+002, 1.422241e+002
3.921309e+002, 1.484354e+002
3.926130e+002, 1.541341e+002
3.930952e+002, 1.591820e+002
3.935773e+002, 1.635669e+002
3.940594e+002, 1.671042e+002
3.945415e+002, 1.699447e+002
3.950236e+002, 1.723677e+002
3.955057e+002, 1.750782e+002
3.959879e+002, 1.768496e+002
3.964700e+002, 1.771955e+002
3.969521e+002, 1.760352e+002
3.974342e+002, 1.737667e+002
3.979163e+002, 1.700229e+002
3.983984e+002, 1.654067e+002
3.988806e+002, 1.604680e+002
3.993627e+002, 1.548448e+002
3.998448e+002, 1.493500e+002
4.003269e+002, 1.439452e+002
4.008090e+002, 1.386640e+002
4.012911e+002, 1.339496e+002
4.017733e+002, 1.297862e+002
4.022554e+002, 1.261570e+002
4.027375e+002, 1.230617e+002
4.032196e+002, 1.205333e+002
4.037017e+002, 1.184542e+002
4.041838e+002, 1.168628e+002
4.046660e+002, 1.157050e+002
4.051481e+002, 1.149254e+002
4.056302e+002, 1.145343e+002
4.061123e+002, 1.144604e+002
4.065944e+002, 1.146770e+002
4.070765e+002, 1.151884e+002
4.075587e+002, 1.160594e+002
4.080408e+002, 1.173317e+002
4.085229e+002, 1.188140e+002
4.090050e+002, 1.202249e+002
4.094871e+002, 1.215918e+002
4.099692e+002, 1.234164e+002
4.104514e+002, 1.259346e+002
4.109335e+002, 1.288435e+002
4.114156e+002, 1.315873e+002
4.118977e+002, 1.341486e+002
4.123798e+002, 1.366211e+002
4.128619e+002, 1.393202e+002
4.133441e+002, 1.418941e+002
4.138262e+002, 1.437022e+002
4.143083e+002, 1.446692e+002
4.147904e+002, 1.449053e+002
4.152725e+002, 1.446802e+002
4.157546e+002, 1.438155e+002
4.162368e+002, 1.419281e+002
4.167189e+002, 1.386807e+002
4.172010e+002, 1.344891e+002
4.176831e+002, 1.293240e+002
4.181652e+002, 1.232962e+002
4.186473e+002, 1.172779e+002
4.191295e+002, 1.116504e+002
4.196116e+002, 1.063398e+002
4.200937e+002, 1.013724e+002
4.205758e+002, 9.672240e+001
4.210579e+002, 9.237244e+001
4.215400e+002, 8.820650e+001
4.220222e+002, 8.429367e+001
4.225043e+002, 8.068370e+001
4.229864e+002, 7.742226e+001
4.234685e+002, 7.448875e+001
4.239506e+002, 7.186140e+001
4.244327e+002, 6.958488e+001
4.249149e+002, 6.752469e+001
4.253970e+002, 6.565218e+001
4.258791e+002, 6.400452e+001
4.263612e+002, 6.262064e+001
4.268433e+002, 6.172756e+001
4.273254e+002, 6.074525e+001
4.278076e+002, 5.953863e+001
4.282897e+002, 5.814621e+001
4.287718e+002, 5.690326e+001
4.292539e+002, 5.580837e+001
4.297360e+002, 5.489100e+001
4.302181e+002, 5.423061e+001
4.307003e+002, 5.387560e+001
4.311824e+002, 5.343217e+001
4.316645e+002, 5.283896e+001
4.321466e+002, 5.223034e+001
4.326287e+002, 5.191431e+001
4.331108e+002, 5.190199e+001
4.335930e+002, 5.175894e+001
4.340751e+002, 5.120950e+001
4.345572e+002, 5.041838e+001
4.350393e+002, 4.987887e+001
4.355214e+002, 4.959040e+001
4.360035e+002, 4.959887e+001
4.364857e+002, 5.031424e+001
4.369678e+002, 5.135360e+001
4.374499e+002, 5.172077e+001
4.379320e+002, 5.095787e+001
4.384141e+002, 4.993294e+001
4.388962e+002, 4.955962e+001
4.393784e+002, 4.970179e+001
4.398605e+002, 4.996082e+001
4.403426e+002, 5.023282e+001
4.408247e+002, 5.045890e+001
4.413068e+002, 5.057723e+001
4.417889e+002, 5.057434e+001
4.422711e+002, 5.055077e+001
4.427532e+002, 5.051632e+001
4.432353e+002, 5.050335e+001
4.437174e+002, 5.054549e+001
4.441995e+002, 5.071426e+001
4.446816e+002, 5.087370e+001
4.451638e+002, 5.092620e+001
4.456459e+002, 5.091755e+001
4.461280e+002, 5.105947e+001
4.466101e+002, 5.151015e+001
4.470922e+002, 5.201222e+001
4.475743e+002, 5.244947e+001
4.480565e+002, 5.275484e+001
4.485386e+002, 5.315377e+001
4.490207e+002, 5.370340e+001
4.495028e+002, 5.430864e+001
4.499849e+002, 5.480226e+001
4.504670e+002, 5.502748e+001
4.509492e+002, 5.552079e+001
4.514313e+002, 5.650132e+001
4.519134e+002, 5.787545e+001
4.523955e+002, 5.883498e+001
4.528776e+002, 5.919760e+001
4.533597e+002, 5.971486e+001
4.538419e+002, 6.115742e+001
4.543240e+002, 6.347700e+001
4.548061e+002, 6.505826e+001
4.552882e+002, 6.562142e+001
4.557703e+002, 6.575784e+001
4.562524e+002, 6.624035e+001
4.567346e+002, 6.706132e+001
4.572167e+002, 6.811237e+001
4.576988e+002, 6.951890e+001
4.581809e+002, 7.106312e+001
4.586630e+002, 7.236559e+001
4.591451e+002, 7.342953e+001
4.596273e+002, 7.450060e+001
4.601094e+002, 7.575231e+001
4.605915e+002, 7.711293e+001
4.610736e+002, 7.850106e+001
4.615557e+002, 7.995358e+001
4.620378e+002, 8.134262e+001
4.625200e+002, 8.261967e+001
4.630021e+002, 8.378136e+001
4.634842e+002, 8.479351e+001
4.639663e+002, 8.569438e+001
4.644484e+002, 8.640690e+001
4.649305e+002, 8.690047e+001
4.654127e+002, 8.718021e+001
4.658948e+002, 8.718002e+001
4.663769e+002, 8.678903e+001
4.668590e+002, 8.616959e+001
4.673411e+002, 8.544140e+001
4.678232e+002, 8.472673e+001
4.683054e+002, 8.373100e+001
4.687875e+002, 8.238606e+001
4.692696e+002, 8.077691e+001
4.697517e+002, 7.907932e+001
4.702338e+002, 7.725172e+001
4.707159e+002, 7.542992e+001
4.711981e+002, 7.365900e+001
4.716802e+002, 7.193967e+001
4.721623e+002, 7.024344e+001
4.726444e+002, 6.860244e+001
4.731265e+002, 6.695344e+001
4.736086e+002, 6.519197e+001
4.740908e+002, 6.332344e+001
4.745729e+002, 6.170667e+001
4.750550e+002, 6.045013e+001
4.755371e+002, 5.940711e+001
4.760192e+002, 5.831245e+001
4.765013e+002, 5.717300e+001
4.769835e+002, 5.608804e+001
4.774656e+002, 5.520584e+001
4.779477e+002, 5.436979e+001
4.784298e+002, 5.323424e+001
4.789119e+002, 5.177423e+001
4.793940e+002, 5.043150e+001
4.798762e+002, 4.962922e+001
4.803583e+002, 4.912959e+001
4.808404e+002, 4.861141e+001
4.813225e+002, 4.790717e+001
4.818046e+002, 4.725988e+001
4.822867e+002, 4.686863e+001
4.827689e+002, 4.663746e+001
4.832510e+002, 4.631843e+001
4.837331e+002, 4.572729e+001
4.842152e+002, 4.511911e+001
4.846973e+002, 4.461057e+001
4.851794e+002, 4.422514e+001
4.856616e+002, 4.384670e+001
4.861437e+002, 4.345763e+001
4.866258e+002, 4.307720e+001
4.871079e+002, 4.271389e+001
4.875900e+002, 4.234411e+001
4.880721e+002, 4.203183e+001
4.885543e+002, 4.179726e+001
4.890364e+002, 4.161807e+001
4.895185e+002, 4.143951e+001
4.900006e+002, 4.126833e+001
4.904827e+002, 4.107719e+001
4.909648e+002, 4.083747e+001
4.914470e+002, 4.055317e+001
4.919291e+002, 4.035510e+001
4.924112e+002, 4.026233e+001
4.928933e+002, 4.016856e+001
4.933754e+002, 3.995702e+001
4.938575e+002, 3.964869e+001
4.943397e+002, 3.931987e+001
4.948218e+002, 3.895540e+001
4.953039e+002, 3.864563e+001
4.957860e+002, 3.857728e+001
4.962681e+002, 3.868829e+001
4.967502e+002, 3.876559e+001
4.972324e+002, 3.868179e+001
4.977145e+002, 3.852032e+001
4.981966e+002, 3.834544e+001
4.986787e+002, 3.815943e+001
4.991608e+002, 3.798253e+001
4.996429e+002, 3.780499e+001
5.001251e+002, 3.765002e+001
5.006072e+002, 3.753669e+001
5.010893e+002, 3.753003e+001
5.015714e+002, 3.748179e+001
5.020535e+002, 3.730341e+001
5.025356e+002, 3.706231e+001
5.030178e+002, 3.691261e+001
5.034999e+002, 3.700576e+001
5.039820e+002, 3.703400e+001
5.044641e+002, 3.686562e+001
5.049462e+002, 3.648458e+001
5.054283e+002, 3.635246e+001
5.059105e+002, 3.661686e+001
5.063926e+002, 3.690447e+001
5.068747e+002, 3.689740e+001
5.073568e+002, 3.653817e+001
5.078389e+002, 3.629464e+001
5.083210e+002, 3.624270e+001
5.088032e+002, 3.627119e+001
5.092853e+002, 3.616367e+001
5.097674e+002, 3.593085e+001
5.102495e+002, 3.575512e+001
5.107316e+002, 3.572726e+001
5.112137e+002, 3.579763e+001
5.116959e+002, 3.589075e+001
5.121780e+002, 3.600021e+001
5.126601e+002, 3.605844e+001
5.131422e+002, 3.599287e+001
5.136243e+002, 3.585531e+001
5.141064e+002, 3.570614e+001
5.145886e+002, 3.555098e+001
5.150707e+002, 3.540353e+001
5.155528e+002, 3.524365e+001
5.160349e+002, 3.510509e+001
5.165170e+002, 3.503365e+001
5.169991e+002, 3.515139e+001
5.174813e+002, 3.523099e+001
5.179634e+002, 3.515697e+001
5.184455e+002, 3.495401e+001
5.189276e+002, 3.483000e+001
5.194097e+002, 3.489026e+001
5.198918e+002, 3.496429e+001
5.203740e+002, 3.497388e+001
5.208561e+002, 3.487310e+001
5.213382e+002, 3.486296e+001
5.218203e+002, 3.497903e+001
5.223024e+002, 3.514355e+001
5.227845e+002, 3.525640e+001
5.232667e+002, 3.529730e+001
5.237488e+002, 3.540052e+001
5.242309e+002, 3.560189e+001
5.247130e+002, 3.587045e+001
5.251951e+002, 3.614600e+001
5.256772e+002, 3.642910e+001
5.261594e+002, 3.669341e+001
5.266415e+002, 3.689168e+001
5.271236e+002, 3.707027e+001
5.276057e+002, 3.733670e+001
5.280878e+002, 3.769408e+001
5.285699e+002, 3.808843e+001
5.290521e+002, 3.840476e+001
5.295342e+002, 3.875068e+001
5.300163e+002, 3.928590e+001
5.304984e+002, 4.013412e+001
5.309805e+002, 4.101930e+001
5.314626e+002, 4.175249e+001
5.319448e+002, 4.241245e+001
5.324269e+002, 4.314856e+001
5.329090e+002, 4.419477e+001
5.333911e+002, 4.514464e+001
5.338732e+002, 4.580041e+001
5.343553e+002, 4.613638e+001
5.348375e+002, 4.664791e+001
5.353196e+002, 4.768309e+001
5.358017e+002, 4.855396e+001
5.362838e+002, 4.888886e+001
5.367659e+002, 4.861678e+001
5.372480e+002, 4.798122e+001
5.377302e+002, 4.691643e+001
5.382123e+002, 4.558413e+001
5.386944e+002, 4.416093e+001
5.391765e+002, 4.261500e+001
5.396586e+002, 4.126958e+001
5.401407e+002, 4.025529e+001
5.406229e+002, 3.947233e+001
5.411050e+002, 3.873489e+001
5.415871e+002, 3.804654e+001
5.420692e+002, 3.744080e+001
5.425513e+002, 3.692549e+001
5.430334e+002, 3.650466e+001
5.435156e+002, 3.622107e+001
5.439977e+002, 3.608222e+001
5.444798e+002, 3.593592e+001
5.449619e+002, 3.559822e+001
5.454440e+002, 3.523013e+001
5.459261e+002, 3.501548e+001
5.464083e+002, 3.512561e+001
5.468904e+002, 3.521776e+001
5.473725e+002, 3.514772e+001
5.478546e+002, 3.498013e+001
5.483367e+002, 3.485255e+001
5.488188e+002, 3.474355e+001
5.493010e+002, 3.472264e+001
5.497831e+002, 3.484462e+001
5.502652e+002, 3.510614e+001
5.507473e+002, 3.529293e+001
5.512294e+002, 3.545304e+001
5.517115e+002, 3.545683e+001
5.521937e+002, 3.510463e+001
5.526758e+002, 3.431352e+001
5.531579e+002, 3.403659e+001
5.536400e+002, 3.443151e+001
5.541221e+002, 3.501833e+001
5.546042e+002, 3.507561e+001
5.550864e+002, 3.470226e+001
5.555685e+002, 3.453297e+001
5.560506e+002, 3.485321e+001
5.565327e+002, 3.534726e+001
5.570148e+002, 3.559669e+001
5.574969e+002, 3.563710e+001
5.579791e+002, 3.560299e+001
5.584612e+002, 3.545054e+001
5.589433e+002, 3.533708e+001
5.594254e+002, 3.544583e+001
5.599075e+002, 3.579272e+001
5.603896e+002, 3.606528e+001
5.608718e+002, 3.607927e+001
5.613539e+002, 3.600254e+001
5.618360e+002, 3.595367e+001
5.623181e+002, 3.589665e+001
5.628002e+002, 3.595388e+001
5.632823e+002, 3.618329e+001
5.637645e+002, 3.650494e+001
5.642466e+002, 3.678790e+001
5.647287e+002, 3.696944e+001
5.652108e+002, 3.725355e+001
5.656929e+002, 3.771644e+001
5.661750e+002, 3.831252e+001
5.666572e+002, 3.887654e+001
5.671393e+002, 3.941160e+001
5.676214e+002, 3.986771e+001
5.681035e+002, 4.015305e+001
5.685856e+002, 4.032763e+001
5.690677e+002, 4.066588e+001
5.695499e+002, 4.118326e+001
5.700320e+002, 4.171016e+001
5.705141e+002, 4.224599e+001
5.709962e+002, 4.264069e+001
5.714783e+002, 4.262347e+001
5.719604e+002, 4.201907e+001
5.724426e+002, 4.121983e+001
5.729247e+002, 4.036874e+001
5.734068e+002, 3.951215e+001
5.738889e+002, 3.871363e+001
5.743710e+002, 3.794246e+001
5.748531e+002, 3.729491e+001
5.753353e+002, 3.683039e+001
5.758174e+002, 3.654314e+001
5.762995e+002, 3.628932e+001
5.767816e+002, 3.602843e+001
5.772637e+002, 3.584623e+001
5.777458e+002, 3.579380e+001
5.782280e+002, 3.589940e+001
5.787101e+002, 3.598617e+001
5.791922e+002, 3.604713e+001
5.796743e+002, 3.610440e+001
5.801564e+002, 3.614924e+001
5.806385e+002, 3.618772e+001
5.811207e+002, 3.635930e+001
5.816028e+002, 3.671151e+001
5.820849e+002, 3.715188e+001
5.825670e+002, 3.757189e+001
5.830491e+002, 3.796438e+001
5.835313e+002, 3.832747e+001
5.840134e+002, 3.858569e+001
5.844955e+002, 3.886206e+001
5.849776e+002, 3.926489e+001
5.854597e+002, 3.978674e+001
5.859418e+002, 4.038153e+001
5.864240e+002, 4.099657e+001
5.869061e+002, 4.169838e+001
5.873882e+002, 4.259557e+001
5.878703e+002, 4.379609e+001
5.883524e+002, 4.478481e+001
5.888345e+002, 4.545861e+001
5.893167e+002, 4.592323e+001
5.897988e+002, 4.627430e+001
5.902809e+002, 4.662527e+001
5.907630e+002, 4.659484e+001
5.912451e+002, 4.612391e+001
5.917272e+002, 4.529398e+001
5.922094e+002, 4.415788e+001
5.926915e+002, 4.270042e+001
5.931736e+002, 4.132761e+001
5.936557e+002, 4.014994e+001
5.941378e+002, 3.916679e+001
5.946199e+002, 3.840836e+001
5.951021e+002, 3.786741e+001
5.955842e+002, 3.743043e+001
5.960663e+002, 3.702169e+001
5.965484e+002, 3.668084e+001
5.970305e+002, 3.646104e+001
5.975126e+002, 3.636876e+001
5.979948e+002, 3.632745e+001
5.984769e+002, 3.628497e+001
5.989590e+002, 3.628067e+001
5.994411e+002, 3.635767e+001
5.999232e+002, 3.663009e+001
6.004053e+002, 3.681006e+001
6.008875e+002, 3.668631e+001
6.013696e+002, 3.650552e+001
6.018517e+002, 3.662330e+001
6.023338e+002, 3.716951e+001
6.028159e+002, 3.776589e+001
6.032980e+002, 3.838701e+001
6.037802e+002, 3.899723e+001
6.042623e+002, 3.941970e+001
6.047444e+002, 3.961018e+001
6.052265e+002, 3.995691e+001
6.057086e+002, 4.075792e+001
6.061907e+002, 4.187560e+001
6.066729e+002, 4.281636e+001
6.071550e+002, 4.358026e+001
6.076371e+002, 4.438762e+001
6.081192e+002, 4.541378e+001
6.086013e+002, 4.658052e+001
6.090834e+002, 4.775100e+001
6.095656e+002, 4.888784e+001
6.100477e+002, 5.014319e+001
6.105298e+002, 5.152040e+001
6.110119e+002, 5.308985e+001
6.114940e+002, 5.495097e+001
6.119761e+002, 5.721761e+001
6.124583e+002, 5.964545e+001
6.129404e+002, 6.229134e+001
6.134225e+002, 6.506744e+001
6.139046e+002, 6.783983e+001
6.143867e+002, 7.042772e+001
6.148688e+002, 7.328777e+001
6.153510e+002, 7.657617e+001
6.158331e+002, 8.026150e+001
6.163152e+002, 8.433286e+001
6.167973e+002, 8.881944e+001
6.172794e+002, 9.324784e+001
6.177615e+002, 9.737219e+001
6.182437e+002, 1.011298e+002
6.187258e+002, 1.045784e+002
6.192079e+002, 1.077654e+002
6.196900e+002, 1.101576e+002
6.201721e+002, 1.116233e+002
6.206542e+002, 1.119141e+002
6.211364e+002, 1.106477e+002
6.216185e+002, 1.074168e+002
6.221006e+002, 1.033109e+002
6.225827e+002, 9.843642e+001
6.230648e+002, 9.307060e+001
6.235469e+002, 8.760008e+001
6.240291e+002, 8.159666e+001
6.245112e+002, 7.609898e+001
6.249933e+002, 7.127367e+001
6.254754e+002, 6.703573e+001
6.259575e+002, 6.320720e+001
6.264396e+002, 5.980003e+001
6.269218e+002, 5.669849e+001
6.274039e+002, 5.385657e+001
6.278860e+002, 5.128100e+001
6.283681e+002, 4.902190e+001
6.288502e+002, 4.707954e+001
6.293323e+002, 4.542234e+001
6.298145e+002, 4.413191e+001
6.302966e+002, 4.308758e+001
6.307787e+002, 4.201764e+001
6.312608e+002, 4.088816e+001
6.317429e+002, 3.984724e+001
6.322250e+002, 3.901491e+001
6.327072e+002, 3.832670e+001
6.331893e+002, 3.770245e+001
6.336714e+002, 3.714378e+001
6.341535e+002, 3.662505e+001
6.346356e+002, 3.621214e+001
6.351177e+002, 3.581689e+001
6.355999e+002, 3.527954e+001
6.360820e+002, 3.440931e+001
6.365641e+002, 3.371108e+001
6.370462e+002, 3.332091e+001
6.375283e+002, 3.314370e+001
6.380104e+002, 3.283047e+001
6.384926e+002, 3.234352e+001
6.389747e+002, 3.195048e+001
6.394568e+002, 3.185036e+001
6.399389e+002, 3.192096e+001
6.404210e+002, 3.167273e+001
6.409031e+002, 3.112749e+001
6.413853e+002, 3.069278e+001
6.418674e+002, 3.081514e+001
6.423495e+002, 3.113880e+001
6.428316e+002, 3.123479e+001
6.433137e+002, 3.104212e+001
6.437958e+002, 3.077699e+001
6.442780e+002, 3.042772e+001
6.447601e+002, 3.011895e+001
6.452422e+002, 2.996876e+001
6.457243e+002, 3.015834e+001
6.462064e+002, 3.025458e+001
6.466885e+002, 3.018591e+001
6.471707e+002, 3.004340e+001
6.476528e+002, 2.995234e+001
6.481349e+002, 2.993537e+001
6.486170e+002, 2.989712e+001
6.490991e+002, 2.982971e+001
6.495812e+002, 2.971984e+001
6.500634e+002, 2.949745e+001
6.505455e+002, 2.917162e+001
6.510276e+002, 2.890037e+001
6.515097e+002, 2.874903e+001
6.519918e+002, 2.869789e+001
6.524739e+002, 2.876339e+001
6.529561e+002, 2.891948e+001
6.534382e+002, 2.903357e+001
6.539203e+002, 2.904023e+001
6.544024e+002, 2.896733e+001
6.548845e+002, 2.877113e+001
6.553666e+002, 2.842475e+001
6.558488e+002, 2.825920e+001
6.563309e+002, 2.859487e+001
6.568130e+002, 2.894518e+001
6.572951e+002, 2.899787e+001
6.577772e+002, 2.858733e+001
6.582593e+002, 2.833000e+001
6.587415e+002, 2.826385e+001
6.592236e+002, 2.828970e+001
6.597057e+002, 2.832284e+001
6.601878e+002, 2.836183e+001
6.606699e+002, 2.830895e+001
6.611520e+002, 2.811307e+001
6.616342e+002, 2.790743e+001
6.621163e+002, 2.789145e+001
6.625984e+002, 2.801878e+001
6.630805e+002, 2.817151e+001
6.635626e+002, 2.840154e+001
6.640447e+002, 2.853711e+001
6.645269e+002, 2.836325e+001
6.650090e+002, 2.798770e+001
6.654911e+002, 2.772170e+001
6.659732e+002, 2.770186e+001
6.664553e+002, 2.776799e+001
6.669374e+002, 2.791725e+001
6.674196e+002, 2.813672e+001
6.679017e+002, 2.822387e+001
6.683838e+002, 2.811489e+001
6.688659e+002, 2.799569e+001
6.693480e+002, 2.797071e+001
6.698301e+002, 2.803815e+001
6.703123e+002, 2.804406e+001
6.707944e+002, 2.798114e+001
6.712765e+002, 2.791227e+001
6.717586e+002, 2.789483e+001
6.722407e+002, 2.791182e+001
6.727228e+002, 2.793043e+001
6.732050e+002, 2.794851e+001
6.736871e+002, 2.795107e+001
6.741692e+002, 2.792817e+001
6.746513e+002, 2.788221e+001
6.751334e+002, 2.781178e+001
6.756155e+002, 2.765029e+001
6.760977e+002, 2.756260e+001
6.765798e+002, 2.765313e+001
6.770619e+002, 2.781812e+001
6.775440e+002, 2.789323e+001
6.780261e+002, 2.779219e+001
6.785082e+002, 2.779987e+001
6.789904e+002, 2.803751e+001
6.794725e+002, 2.836240e+001
6.799546e+002, 2.833905e+001
6.804367e+002, 2.796414e+001
6.809188e+002, 2.768219e+001
6.814009e+002, 2.774448e+001
6.818831e+002, 2.797883e+001
6.823652e+002, 2.807145e+001
6.828473e+002, 2.804634e+001
6.833294e+002, 2.801762e+001
6.838115e+002, 2.806470e+001
6.842936e+002, 2.812393e+001
6.847758e+002, 2.814462e+001
6.852579e+002, 2.812366e+001
6.857400e+002, 2.811259e+001
6.862221e+002, 2.815246e+001
6.867042e+002, 2.818096e+001
6.871863e+002, 2.815025e+001
6.876685e+002, 2.802230e+001
6.881506e+002, 2.802106e+001
6.886327e+002, 2.820750e+001
6.891148e+002, 2.839596e+001
6.895969e+002, 2.838858e+001
6.900790e+002, 2.820123e+001
6.905612e+002, 2.808713e+001
6.910433e+002, 2.807651e+001
6.915254e+002, 2.811429e+001
6.920075e+002, 2.816109e+001
6.924896e+002, 2.820638e+001
6.929717e+002, 2.822437e+001
6.934539e+002, 2.818089e+001
6.939360e+002, 2.816282e+001
6.944181e+002, 2.830524e+001
6.949002e+002, 2.848429e+001
6.953823e+002, 2.850767e+001
6.958644e+002, 2.810200e+001
6.963466e+002, 2.782895e+001
6.968287e+002, 2.786177e+001
6.973108e+002, 2.805430e+001
6.977929e+002, 2.797920e+001
6.982750e+002, 2.752620e+001
6.987571e+002, 2.723462e+001
6.992393e+002, 2.734701e+001
6.997214e+002, 2.770358e+001
7.002035e+002, 2.782206e+001
7.006856e+002, 2.772089e+001
7.011677e+002, 2.755029e+001
7.016498e+002, 2.731268e+001
7.021320e+002, 2.710474e+001
7.026141e+002, 2.708086e+001
7.030962e+002, 2.721967e+001
7.035783e+002, 2.731474e+001
7.040604e+002, 2.720332e+001
7.045425e+002, 2.707483e+001
7.050247e+002, 2.704274e+001
7.055068e+002, 2.713542e+001
7.059889e+002, 2.721969e+001
7.064710e+002, 2.733749e+001
7.069531e+002, 2.739005e+001
7.074352e+002, 2.728139e+001
7.079174e+002, 2.698992e+001
7.083995e+002, 2.680322e+001
7.088816e+002, 2.674146e+001
7.093637e+002, 2.671144e+001
7.098458e+002, 2.659732e+001
7.103279e+002, 2.644138e+001
7.108101e+002, 2.635169e+001
7.112922e+002, 2.635727e+001
7.117743e+002, 2.639068e+001
7.122564e+002, 2.644000e+001
7.127385e+002, 2.647230e+001
7.132206e+002, 2.644724e+001
7.137028e+002, 2.632800e+001
7.141849e+002, 2.618772e+001
7.146670e+002, 2.604403e+001
7.151491e+002, 2.588569e+001
7.156312e+002, 2.568147e+001
7.161133e+002, 2.538847e+001
7.165955e+002, 2.518302e+001
7.170776e+002, 2.512679e+001
7.175597e+002, 2.513804e+001
7.180418e+002, 2.502488e+001
7.185239e+002, 2.480115e+001
7.190060e+002, 2.461796e+001
7.194882e+002, 2.456623e+001
7.199703e+002, 2.454920e+001
7.204524e+002, 2.444948e+001
7.209345e+002, 2.428425e+001
7.214166e+002, 2.410183e+001
7.218987e+002, 2.390965e+001
7.223809e+002, 2.372038e+001
7.228630e+002, 2.354013e+001
7.233451e+002, 2.337020e+001
7.238272e+002, 2.321512e+001
7.243093e+002, 2.305996e+001
7.247914e+002, 2.294521e+001
7.252736e+002, 2.290329e+001
7.257557e+002, 2.292527e+001
7.262378e+002, 2.288704e+001
7.267199e+002, 2.278065e+001
7.272020e+002, 2.268040e+001
7.276841e+002, 2.266736e+001
7.281663e+002, 2.268794e+001
7.286484e+002, 2.259101e+001
7.291305e+002, 2.237836e+001
7.296126e+002, 2.221431e+001
7.300947e+002, 2.226657e+001
7.305768e+002, 2.237554e+001
7.310590e+002, 2.241635e+001
7.315411e+002, 2.236631e+001
7.320232e+002, 2.228304e+001
7.325053e+002, 2.214382e+001
7.329874e+002, 2.200062e+001
7.334695e+002, 2.187539e+001
7.339517e+002, 2.175292e+001
7.344338e+002, 2.172827e+001
7.349159e+002, 2.184157e+001
7.353980e+002, 2.193788e+001
7.358801e+002, 2.178580e+001
7.363622e+002, 2.146080e+001
7.368444e+002, 2.129445e+001
7.373265e+002, 2.135797e+001
7.378086e+002, 2.148354e+001
7.382907e+002, 2.153340e+001
7.387728e+002, 2.154261e+001
7.392549e+002, 2.156074e+001
7.397371e+002, 2.164363e+001
7.402192e+002, 2.166352e+001
7.407013e+002, 2.152474e+001
7.411834e+002, 2.132812e+001
7.416655e+002, 2.120543e+001
7.421476e+002, 2.117695e+001
7.426298e+002, 2.117395e+001
7.431119e+002, 2.118101e+001
7.435940e+002, 2.121914e+001
7.440761e+002, 2.137853e+001
7.445582e+002, 2.163613e+001
7.450403e+002, 2.176428e+001
7.455225e+002, 2.166220e+001
7.460046e+002, 2.145570e+001
7.464867e+002, 2.121268e+001
7.469688e+002, 2.098905e+001
7.474509e+002, 2.090868e+001
7.479330e+002, 2.124734e+001
7.484152e+002, 2.150198e+001
7.488973e+002, 2.139646e+001
7.493794e+002, 2.104462e+001
7.498615e+002, 2.083359e+001
7.503436e+002, 2.081749e+001
7.508257e+002, 2.086412e+001
7.513079e+002, 2.097127e+001
7.517900e+002, 2.110700e+001
7.522721e+002, 2.113277e+001
7.527542e+002, 2.104917e+001
7.532363e+002, 2.098483e+001
7.537184e+002, 2.105105e+001
7.542006e+002, 2.114306e+001
7.546827e+002, 2.105844e+001
7.551648e+002, 2.083994e+001
7.556469e+002, 2.066895e+001
7.561290e+002, 2.065685e+001
7.566111e+002, 2.069910e+001
7.570933e+002, 2.076193e+001
7.575754e+002, 2.083831e+001
7.580575e+002, 2.087147e+001
7.585396e+002, 2.081447e+001
7.590217e+002, 2.078102e+001
7.595038e+002, 2.082770e+001
7.599860e+002, 2.094382e+001
7.604681e+002, 2.101008e+001
7.609502e+002, 2.102368e+001
7.614323e+002, 2.101387e+001
7.619144e+002, 2.101218e+001
7.623965e+002, 2.099569e+001
7.628787e+002, 2.088229e+001
7.633608e+002, 2.068459e+001
7.638429e+002, 2.056144e+001
7.643250e+002, 2.065222e+001
7.648071e+002, 2.081876e+001
7.652892e+002, 2.099194e+001
7.657714e+002, 2.117831e+001
7.662535e+002, 2.126587e+001
7.667356e+002, 2.118231e+001
7.672177e+002, 2.108982e+001
7.676998e+002, 2.108309e+001
7.681819e+002, 2.116846e+001
7.686641e+002, 2.122289e+001
7.691462e+002, 2.123958e+001
7.696283e+002, 2.127421e+001
7.701104e+002, 2.146639e+001
7.705925e+002, 2.168337e+001
7.710746e+002, 2.160592e+001
7.715568e+002, 2.119240e+001
7.720389e+002, 2.083332e+001
7.725210e+002, 2.080485e+001
7.730031e+002, 2.090684e+001
7.734852e+002, 2.099349e+001
7.739673e+002, 2.105374e+001
7.744495e+002, 2.106374e+001
7.749316e+002, 2.095921e+001
7.754137e+002, 2.088205e+001
7.758958e+002, 2.098461e+001
7.763779e+002, 2.129506e+001
7.768600e+002, 2.136697e+001
7.773422e+002, 2.114744e+001
7.778243e+002, 2.092710e+001
7.783064e+002, 2.105893e+001
7.787885e+002, 2.138340e+001
7.792706e+002, 2.161354e+001
7.797527e+002, 2.170322e+001
7.802349e+002, 2.168899e+001
7.807170e+002, 2.148985e+001
7.811991e+002, 2.125656e+001
7.816812e+002, 2.112533e+001
7.821633e+002, 2.118142e+001
7.826454e+002, 2.122208e+001
7.831276e+002, 2.125950e+001
7.836097e+002, 2.126694e+001
7.840918e+002, 2.119265e+001
7.845739e+002, 2.103412e+001
7.850560e+002, 2.094967e+001
7.855381e+002, 2.095551e+001
7.860203e+002, 2.103379e+001
7.865024e+002, 2.126867e+001
7.869845e+002, 2.153427e+001
7.874666e+002, 2.157774e+001
7.879487e+002, 2.125366e+001
7.884308e+002, 2.099890e+001
7.889130e+002, 2.110908e+001
7.893951e+002, 2.135005e+001
7.898772e+002, 2.148218e+001
7.903593e+002, 2.144493e+001
7.908414e+002, 2.136343e+001
7.913235e+002, 2.120466e+001
7.918057e+002, 2.104922e+001
7.922878e+002, 2.101140e+001
7.927699e+002, 2.108250e+001
7.932520e+002, 2.112898e+001
7.937341e+002, 2.112358e+001
7.942162e+002, 2.112875e+001
7.946984e+002, 2.125010e+001
7.951805e+002, 2.141633e+001
7.956626e+002, 2.151502e+001
7.961447e+002, 2.151220e+001
7.966268e+002, 2.145960e+001
7.971089e+002, 2.126727e+001
7.975911e+002, 2.109279e+001
7.980732e+002, 2.112317e+001
7.985553e+002, 2.150647e+001
7.990374e+002, 2.174669e+001
7.995195e+002, 2.180103e+001
8.000016e+002, 2.174105e+001
8.004838e+002, 2.163019e+001
8.009659e+002, 2.147902e+001
8.014480e+002, 2.134062e+001
8.019301e+002, 2.122127e+001
8.024122e+002, 2.113365e+001
8.028943e+002, 2.109428e+001
8.033765e+002, 2.109433e+001
8.038586e+002, 2.111111e+001
8.043407e+002, 2.105503e+001
8.048228e+002, 2.116832e+001
8.053049e+002, 2.177279e+001
8.057870e+002, 2.240905e+001
8.062692e+002, 2.258122e+001
8.067513e+002, 2.213913e+001
8.072334e+002, 2.183589e+001
8.077155e+002, 2.176548e+001
8.081976e+002, 2.177029e+001
8.086797e+002, 2.164020e+001
8.091619e+002, 2.141955e+001
8.096440e+002, 2.122522e+001
8.101261e+002, 2.106795e+001
8.106082e+002, 2.099559e+001
8.110903e+002, 2.113373e+001
8.115724e+002, 2.133380e+001
8.120546e+002, 2.143030e+001
8.125367e+002, 2.130150e+001
8.130188e+002, 2.121247e+001
8.135009e+002, 2.116853e+001
8.139830e+002, 2.117614e+001
8.144651e+002, 2.126516e+001
8.149473e+002, 2.144498e+001
8.154294e+002, 2.156185e+001
8.159115e+002, 2.159792e+001
8.163936e+002, 2.158484e+001
8.168757e+002, 2.154473e+001
8.173578e+002, 2.148486e+001
8.178400e+002, 2.140778e+001
8.183221e+002, 2.129739e+001
8.188042e+002, 2.122785e+001
8.192863e+002, 2.126190e+001
8.197684e+002, 2.133712e+001
8.202505e+002, 2.140079e+001
8.207327e+002, 2.149299e+001
8.212148e+002, 2.146394e+001
8.216969e+002, 2.126282e+001
8.221790e+002, 2.103055e+001
8.226611e+002, 2.091371e+001
8.231432e+002, 2.090076e+001
8.236254e+002, 2.094780e+001
8.241075e+002, 2.105734e+001
8.245896e+002, 2.115882e+001
8.250717e+002, 2.117124e+001
8.255538e+002, 2.114743e+001
8.260359e+002, 2.115198e+001
8.265181e+002, 2.121197e+001
8.270002e+002, 2.124597e+001
8.274823e+002, 2.116255e+001
8.279644e+002, 2.110752e+001
8.284465e+002, 2.119563e+001
8.289286e+002, 2.147342e+001
8.294108e+002, 2.167904e+001
8.298929e+002, 2.181854e+001
8.303750e+002, 2.185310e+001
8.308571e+002, 2.166233e+001
8.313392e+002, 2.136005e+001
8.318214e+002, 2.119190e+001
8.323035e+002, 2.118666e+001
8.327856e+002, 2.123804e+001
8.332677e+002, 2.131215e+001
8.337498e+002, 2.139394e+001
8.342319e+002, 2.148913e+001
8.347141e+002, 2.162488e+001
8.351962e+002, 2.162565e+001
8.356783e+002, 2.139269e+001
8.361604e+002, 2.119059e+001
8.366425e+002, 2.123601e+001
8.371246e+002, 2.150577e+001
8.376068e+002, 2.163946e+001
8.380889e+002, 2.163448e+001
8.385710e+002, 2.159230e+001
8.390531e+002, 2.157519e+001
8.395352e+002, 2.157203e+001
8.400173e+002, 2.157099e+001
8.404995e+002, 2.157134e+001
8.409816e+002, 2.157907e+001
8.414637e+002, 2.165328e+001
8.419458e+002, 2.167555e+001
8.424279e+002, 2.156083e+001
8.429100e+002, 2.131386e+001
8.433922e+002, 2.122314e+001
8.438743e+002, 2.131190e+001
8.443564e+002, 2.142856e+001
8.448385e+002, 2.147266e+001
8.453206e+002, 2.148246e+001
8.458027e+002, 2.155534e+001
8.462849e+002, 2.168083e+001
8.467670e+002, 2.179935e+001
8.472491e+002, 2.190598e+001
8.477312e+002, 2.197011e+001
8.482133e+002, 2.195774e+001
8.486954e+002, 2.187642e+001
8.491776e+002, 2.180563e+001
8.496597e+002, 2.173203e+001
8.501418e+002, 2.170232e+001
8.506239e+002, 2.174462e+001
8.511060e+002, 2.183624e+001
8.515881e+002, 2.190826e+001
8.520703e+002, 2.196048e+001
8.525524e+002, 2.198913e+001
8.530345e+002, 2.195765e+001
8.535166e+002, 2.193349e+001
8.539987e+002, 2.199755e+001
8.544808e+002, 2.211750e+001
8.549630e+002, 2.221188e+001
8.554451e+002, 2.220601e+001
8.559272e+002, 2.223491e+001
8.564093e+002, 2.235454e+001
8.568914e+002, 2.251007e+001
8.573735e+002, 2.255346e+001
8.578557e+002, 2.246836e+001
8.583378e+002, 2.248877e+001
8.588199e+002, 2.272280e+001
8.593020e+002, 2.299641e+001
8.597841e+002, 2.303646e+001
8.602662e+002, 2.292176e+001
8.607484e+002, 2.280598e+001
8.612305e+002, 2.266007e+001
8.617126e+002, 2.264572e+001
8.621947e+002, 2.296589e+001
8.626768e+002, 2.339454e+001
8.631589e+002, 2.360758e+001
8.636411e+002, 2.353732e+001
8.641232e+002, 2.342774e+001
8.646053e+002, 2.326571e+001
8.650874e+002, 2.315396e+001
8.655695e+002, 2.333077e+001
8.660516e+002, 2.367270e+001
8.665338e+002, 2.377164e+001
8.670159e+002, 2.352073e+001
8.674980e+002, 2.318761e+001
8.679801e+002, 2.283820e+001
8.684622e+002, 2.256892e+001
8.689443e+002, 2.247851e+001
8.694265e+002, 2.266168e+001
8.699086e+002, 2.285402e+001
8.703907e+002, 2.311057e+001
8.708728e+002, 2.328683e+001
8.713549e+002, 2.320065e+001
8.718370e+002, 2.288390e+001
8.723192e+002, 2.274866e+001
8.728013e+002, 2.281210e+001
8.732834e+002, 2.288109e+001
8.737655e+002, 2.276808e+001
8.742476e+002, 2.260003e+001
8.747297e+002, 2.249496e+001
8.752119e+002, 2.246377e+001
8.756940e+002, 2.248018e+001
8.761761e+002, 2.260108e+001
8.766582e+002, 2.270138e+001
8.771403e+002, 2.272874e+001
8.776224e+002, 2.268774e+001
8.781046e+002, 2.262601e+001
8.785867e+002, 2.254115e+001
8.790688e+002, 2.249220e+001
8.795509e+002, 2.257781e+001
8.800330e+002, 2.268477e+001
8.805151e+002, 2.261274e+001
8.809973e+002, 2.241002e+001
8.814794e+002, 2.226292e+001
8.819615e+002, 2.229818e+001
8.824436e+002, 2.235041e+001
8.829257e+002, 2.232302e+001
8.834078e+002, 2.226954e+001
8.838900e+002, 2.237940e+001
8.843721e+002, 2.270064e+001
8.848542e+002, 2.292124e+001
8.853363e+002, 2.291669e+001
8.858184e+002, 2.282173e+001
8.863005e+002, 2.289896e+001
8.867827e+002, 2.307643e+001
8.872648e+002, 2.316366e+001
8.877469e+002, 2.300251e+001
8.882290e+002, 2.287177e+001
8.887111e+002, 2.294863e+001
8.891932e+002, 2.310719e+001
8.896754e+002, 2.315462e+001
8.901575e+002, 2.301377e+001
8.906396e+002, 2.296646e+001
8.911217e+002, 2.306063e+001
8.916038e+002, 2.319132e+001
8.920859e+002, 2.321933e+001
8.925681e+002, 2.317700e+001
8.930502e+002, 2.316682e+001
8.935323e+002, 2.320953e+001
8.940144e+002, 2.325339e+001
8.944965e+002, 2.326438e+001
8.949786e+002, 2.325939e+001
8.954608e+002, 2.324315e+001
8.959429e+002, 2.319697e+001
8.964250e+002, 2.322430e+001
8.969071e+002, 2.335194e+001
8.973892e+002, 2.349848e+001
8.978713e+002, 2.361479e+001
8.983535e+002, 2.370270e+001
8.988356e+002, 2.377074e+001
8.993177e+002, 2.381806e+001
8.997998e+002, 2.383162e+001
9.002819e+002, 2.376267e+001
9.007640e+002, 2.368994e+001
9.012462e+002, 2.364898e+001
9.017283e+002, 2.364927e+001
9.022104e+002, 2.376447e+001
9.026925e+002, 2.416681e+001
9.031746e+002, 2.438358e+001
9.036567e+002, 2.417909e+001
9.041389e+002, 2.374598e+001
9.046210e+002, 2.376329e+001
9.051031e+002, 2.417850e+001
9.055852e+002, 2.451643e+001
9.060673e+002, 2.454338e+001
9.065494e+002, 2.446799e+001
9.070316e+002, 2.439503e+001
9.075137e+002, 2.437168e+001
9.079958e+002, 2.448165e+001
9.084779e+002, 2.495042e+001
9.089600e+002, 2.527172e+001
9.094421e+002, 2.537449e+001
9.099243e+002, 2.534297e+001
9.104064e+002, 2.523072e+001
9.108885e+002, 2.505183e+001
9.113706e+002, 2.507318e+001
9.118527e+002, 2.535532e+001
9.123348e+002, 2.570436e+001
9.128170e+002, 2.595840e+001
9.132991e+002, 2.616245e+001
9.137812e+002, 2.637127e+001
9.142633e+002, 2.660492e+001
9.147454e+002, 2.679926e+001
9.152275e+002, 2.701181e+001
9.157097e+002, 2.710378e+001
9.161918e+002, 2.691055e+001
9.166739e+002, 2.644132e+001
9.171560e+002, 2.632474e+001
9.176381e+002, 2.656325e+001
9.181202e+002, 2.695275e+001
9.186024e+002, 2.751886e+001
9.190845e+002, 2.804510e+001
9.195666e+002, 2.823719e+001
9.200487e+002, 2.814566e+001
9.205308e+002, 2.810707e+001
9.210129e+002, 2.819690e+001
9.214951e+002, 2.838894e+001
9.219772e+002, 2.873903e+001
9.224593e+002, 2.915874e+001
9.229414e+002, 2.935584e+001
9.234235e+002, 2.933285e+001
9.239056e+002, 2.931498e+001
9.243878e+002, 2.937256e+001
9.248699e+002, 2.947104e+001
9.253520e+002, 2.953945e+001
9.258341e+002, 2.963143e+001
9.263162e+002, 2.983634e+001
9.267983e+002, 3.029736e+001
9.272805e+002, 3.069303e+001
9.277626e+002, 3.095566e+001
9.282447e+002, 3.117941e+001
9.287268e+002, 3.146540e+001
9.292089e+002, 3.181361e+001
9.296910e+002, 3.211418e+001
9.301732e+002, 3.235249e+001
9.306553e+002, 3.259977e+001
9.311374e+002, 3.298146e+001
9.316195e+002, 3.337043e+001
9.321016e+002, 3.357904e+001
9.325837e+002, 3.357161e+001
9.330659e+002, 3.370889e+001
9.335480e+002, 3.419225e+001
9.340301e+002, 3.469317e+001
9.345122e+002, 3.507379e+001
9.349943e+002, 3.535974e+001
9.354764e+002, 3.570953e+001
9.359586e+002, 3.612519e+001
9.364407e+002, 3.654344e+001
9.369228e+002, 3.692558e+001
9.374049e+002, 3.731210e+001
9.378870e+002, 3.774541e+001
9.383691e+002, 3.821870e+001
9.388513e+002, 3.870522e+001
9.393334e+002, 3.909150e+001
9.398155e+002, 3.966560e+001
9.402976e+002, 4.054473e+001
9.407797e+002, 4.153423e+001
9.412618e+002, 4.229077e+001
9.417440e+002, 4.283434e+001
9.422261e+002, 4.339964e+001
9.427082e+002, 4.401411e+001
9.431903e+002, 4.476231e+001
9.436724e+002, 4.574604e+001
9.441545e+002, 4.688164e+001
9.446367e+002, 4.810033e+001
9.451188e+002, 4.939311e+001
9.456009e+002, 5.074443e+001
9.460830e+002, 5.223853e+001
9.465651e+002, 5.364526e+001
9.470472e+002, 5.474445e+001
9.475294e+002, 5.561335e+001
9.480115e+002, 5.679057e+001
9.484936e+002, 5.826494e+001
9.489757e+002, 5.987590e+001
9.494578e+002, 6.158942e+001
9.499399e+002, 6.334065e+001
9.504221e+002, 6.502470e+001
9.509042e+002, 6.670239e+001
9.513863e+002, 6.857882e+001
9.518684e+002, 7.074783e+001
9.523505e+002, 7.297411e+001
9.528326e+002, 7.515999e+001
9.533148e+002, 7.746410e+001
9.537969e+002, 8.023037e+001
9.542790e+002, 8.339011e+001
9.547611e+002, 8.660972e+001
9.552432e+002, 8.969959e+001
9.557253e+002, 9.311832e+001
9.562075e+002, 9.734361e+001
9.566896e+002, 1.019600e+002
9.571717e+002, 1.065217e+002
9.576538e+002, 1.106544e+002
9.581359e+002, 1.158529e+002
9.586180e+002, 1.222852e+002
9.591002e+002, 1.294288e+002
9.595823e+002, 1.367678e+002
9.600644e+002, 1.445329e+002
9.605465e+002, 1.534692e+002
9.610286e+002, 1.635473e+002
9.615107e+002, 1.740845e+002
9.619929e+002, 1.848288e+002
9.624750e+002, 1.959251e+002
9.629571e+002, 2.074464e+002
9.634392e+002, 2.194346e+002
9.639213e+002, 2.323132e+002
9.644034e+002, 2.459324e+002
9.648856e+002, 2.604607e+002
9.653677e+002, 2.757323e+002
9.658498e+002, 2.924868e+002
9.663319e+002, 3.114048e+002
9.668140e+002, 3.329266e+002
9.672961e+002, 3.575466e+002
9.677783e+002, 3.858432e+002
9.682604e+002, 4.166542e+002
9.687425e+002, 4.506261e+002
9.692246e+002, 4.865101e+002
9.697067e+002, 5.247301e+002
9.701888e+002, 5.656497e+002
9.706710e+002, 6.034722e+002
9.711531e+002, 6.385773e+002
9.716352e+002, 6.640816e+002
9.721173e+002, 6.770579e+002
9.725994e+002, 6.754282e+002
9.730815e+002, 6.541615e+002
9.735637e+002, 6.147623e+002
9.740458e+002, 5.662978e+002
9.745279e+002, 5.032224e+002
9.750100e+002, 4.416451e+002
9.754921e+002, 3.833943e+002
9.759742e+002, 3.299909e+002
9.764564e+002, 2.848088e+002
9.769385e+002, 2.474085e+002
9.774206e+002, 2.164377e+002
9.779027e+002, 1.922896e+002
9.783848e+002, 1.729903e+002
9.788669e+002, 1.579270e+002
9.793491e+002, 1.458842e+002
9.798312e+002, 1.353417e+002
9.803133e+002, 1.260270e+002
9.807954e+002, 1.185263e+002
9.812775e+002, 1.131274e+002
9.817596e+002, 1.088434e+002
9.822418e+002, 1.049597e+002
9.827239e+002, 1.015251e+002
9.832060e+002, 9.886289e+001
9.836881e+002, 9.694160e+001
9.841702e+002, 9.548586e+001
9.846523e+002, 9.441405e+001
9.851345e+002, 9.367072e+001
9.856166e+002, 9.336327e+001
9.860987e+002, 9.336492e+001
9.865808e+002, 9.316553e+001
9.870629e+002, 9.259695e+001
9.875450e+002, 9.241004e+001
9.880272e+002, 9.286359e+001
9.885093e+002, 9.348775e+001
9.889914e+002, 9.367878e+001
9.894735e+002, 9.348121e+001
9.899556e+002, 9.297251e+001
9.904377e+002, 9.216399e+001
9.909199e+002, 9.107528e+001
9.914020e+002, 8.976168e+001
9.918841e+002, 8.810738e+001
9.923662e+002, 8.599106e+001
9.928483e+002, 8.343407e+001
9.933304e+002, 8.086381e+001
9.938126e+002, 7.828027e+001
9.942947e+002, 7.567634e+001
9.947768e+002, 7.309332e+001
9.952589e+002, 7.045578e+001
9.957410e+002, 6.747056e+001
9.962231e+002, 6.432911e+001
9.967053e+002, 6.149312e+001
9.971874e+002, 5.928053e+001
9.976695e+002, 5.719027e+001
9.981516e+002, 5.507631e+001
9.986337e+002, 5.314515e+001
9.991158e+002, 5.179835e+001
9.995980e+002, 5.093520e+001
1.000080e+003, 4.988784e+001
1.000562e+003, 4.851163e+001
1.001044e+003, 4.722511e+001
1.001526e+003, 4.632666e+001
1.002009e+003, 4.565245e+001
1.002491e+003, 4.509657e+001
1.002973e+003, 4.465026e+001
1.003455e+003, 4.429497e+001
1.003937e+003, 4.406943e+001
1.004419e+003, 4.380675e+001
1.004901e+003, 4.336087e+001
1.005383e+003, 4.288655e+001
1.005865e+003, 4.274773e+001
1.006348e+003, 4.286085e+001
1.006830e+003, 4.298365e+001
1.007312e+003, 4.303008e+001
1.007794e+003, 4.304722e+001
1.008276e+003, 4.298773e+001
1.008758e+003, 4.294567e+001
1.009240e+003, 4.307074e+001
1.009722e+003, 4.339974e+001
1.010205e+003, 4.344263e+001
1.010687e+003, 4.313592e+001
1.011169e+003, 4.286091e+001
1.011651e+003, 4.298529e+001
1.012133e+003, 4.329861e+001
1.012615e+003, 4.357348e+001
1.013097e+003, 4.379958e+001
1.013579e+003, 4.414325e+001
1.014061e+003, 4.469913e+001
1.014544e+003, 4.525080e+001
1.015026e+003, 4.570452e+001
1.015508e+003, 4.614075e+001
1.015990e+003, 4.678939e+001
1.016472e+003, 4.761124e+001
1.016954e+003, 4.843694e+001
1.017436e+003, 4.919851e+001
1.017918e+003, 5.001581e+001
1.018401e+003, 5.103365e+001
1.018883e+003, 5.210007e+001
1.019365e+003, 5.302953e+001
1.019847e+003, 5.370937e+001
1.020329e+003, 5.481247e+001
1.020811e+003, 5.638955e+001
1.021293e+003, 5.811475e+001
1.021775e+003, 5.980848e+001
1.022257e+003, 6.146960e+001
1.022740e+003, 6.310442e+001
1.023222e+003, 6.472657e+001
1.023704e+003, 6.638522e+001
1.024186e+003, 6.816817e+001
1.024668e+003, 6.990365e+001
1.025150e+003, 7.160532e+001
1.025632e+003, 7.319698e+001
1.026114e+003, 7.470848e+001
1.026596e+003, 7.605206e+001
1.027079e+003, 7.657418e+001
1.027561e+003, 7.611732e+001
1.028043e+003, 7.526677e+001
1.028525e+003, 7.443044e+001
1.029007e+003, 7.345389e+001
1.029489e+003, 7.213784e+001
1.029971e+003, 7.044905e+001
1.030453e+003, 6.895242e+001
1.030936e+003, 6.770370e+001
1.031418e+003, 6.644583e+001
1.031900e+003, 6.502707e+001
1.032382e+003, 6.355606e+001
1.032864e+003, 6.218800e+001
1.033346e+003, 6.095476e+001
1.033828e+003, 5.996864e+001
1.034310e+003, 5.939370e+001
1.034792e+003, 5.888433e+001
1.035275e+003, 5.844593e+001
1.035757e+003, 5.796161e+001
1.036239e+003, 5.722003e+001
1.036721e+003, 5.622709e+001
1.037203e+003, 5.574089e+001
1.037685e+003, 5.578991e+001
1.038167e+003, 5.591890e+001
1.038649e+003, 5.571588e+001
1.039132e+003, 5.552683e+001
1.039614e+003, 5.565284e+001
1.040096e+003, 5.605558e+001
1.040578e+003, 5.645694e+001
1.041060e+003, 5.680945e+001
1.041542e+003, 5.720693e+001
1.042024e+003, 5.759158e+001
1.042506e+003, 5.821519e+001
1.042989e+003, 5.968684e+001
1.043471e+003, 6.164010e+001
1.043953e+003, 6.323200e+001
1.044435e+003, 6.421346e+001
1.044917e+003, 6.549298e+001
1.045399e+003, 6.741289e+001
1.045881e+003, 6.977535e+001
1.046363e+003, 7.251865e+001
1.046845e+003, 7.560795e+001
1.047328e+003, 7.871275e+001
1.047810e+003, 8.188554e+001
1.048292e+003, 8.532813e+001
1.048774e+003, 8.911147e+001
1.049256e+003, 9.327525e+001
1.049738e+003, 9.782783e+001
1.050220e+003, 1.028322e+002
1.050702e+003, 1.084445e+002
1.051184e+003, 1.146526e+002
1.051667e+003, 1.214401e+002
1.052149e+003, 1.288557e+002
1.052631e+003, 1.367268e+002
1.053113e+003, 1.450841e+002
1.053595e+003, 1.538972e+002
1.054077e+003, 1.635588e+002
1.054559e+003, 1.738545e+002
1.055041e+003, 1.833803e+002
1.055523e+003, 1.921582e+002
1.056006e+003, 1.992964e+002
1.056488e+003, 2.050048e+002
1.056970e+003, 2.088559e+002
1.057452e+003, 2.099189e+002
1.057934e+003, 2.082699e+002
1.058416e+003, 2.043465e+002
1.058898e+003, 1.980566e+002
1.059380e+003, 1.906211e+002
1.059863e+003, 1.823765e+002
1.060345e+003, 1.740747e+002
1.060827e+003, 1.664236e+002
1.061309e+003, 1.594594e+002
1.061791e+003, 1.525783e+002
1.062273e+003, 1.456449e+002
1.062755e+003, 1.393907e+002
1.063237e+003, 1.341305e+002
1.063719e+003, 1.298284e+002
1.064202e+003, 1.265568e+002
1.064684e+003, 1.241247e+002
1.065166e+003, 1.221611e+002
1.065648e+003, 1.205384e+002
1.066130e+003, 1.195199e+002
1.066612e+003, 1.193001e+002
1.067094e+003, 1.193649e+002
1.067576e+003, 1.192385e+002
1.068059e+003, 1.190114e+002
1.068541e+003, 1.193770e+002
1.069023e+003, 1.202505e+002
1.069505e+003, 1.208760e+002
1.069987e+003, 1.205915e+002
1.070469e+003, 1.201624e+002
1.070951e+003, 1.200550e+002
1.071433e+003, 1.200502e+002
1.071916e+003, 1.196977e+002
1.072398e+003, 1.189542e+002
1.072880e+003, 1.183419e+002
1.073362e+003, 1.179904e+002
1.073844e+003, 1.174159e+002
1.074326e+003, 1.162162e+002
1.074808e+003, 1.144867e+002
1.075290e+003, 1.122849e+002
1.075772e+003, 1.096230e+002
1.076255e+003, 1.066511e+002
1.076737e+003, 1.035045e+002
1.077219e+003, 9.983680e+001
1.077701e+003, 9.538696e+001
1.078183e+003, 9.062218e+001
1.078665e+003, 8.636215e+001
1.079147e+003, 8.252657e+001
1.079629e+003, 7.893360e+001
1.080111e+003, 7.546347e+001
1.080594e+003, 7.233559e+001
1.081076e+003, 6.989693e+001
1.081558e+003, 6.755698e+001
1.082040e+003, 6.499635e+001
1.082522e+003, 6.225022e+001
1.083004e+003, 5.978574e+001
1.083486e+003, 5.757835e+001
1.083968e+003, 5.558638e+001
1.084450e+003, 5.382360e+001
1.084933e+003, 5.222187e+001
1.085415e+003, 5.078508e+001
1.085897e+003, 4.947828e+001
1.086379e+003, 4.816546e+001
1.086861e+003, 4.677482e+001
1.087343e+003, 4.571998e+001
1.087825e+003, 4.505314e+001
1.088307e+003, 4.449813e+001
1.088790e+003, 4.384444e+001
1.089272e+003, 4.314611e+001
1.089754e+003, 4.241760e+001
1.090236e+003, 4.168449e+001
1.090718e+003, 4.107391e+001
1.091200e+003, 4.067920e+001
1.091682e+003, 4.027879e+001
1.092164e+003, 3.984144e+001
1.092646e+003, 3.937140e+001
1.093129e+003, 3.883376e+001
1.093611e+003, 3.827721e+001
1.094093e+003, 3.780859e+001
1.094575e+003, 3.744553e+001
1.095057e+003, 3.714877e+001
1.095539e+003, 3.694193e+001
1.096021e+003, 3.676393e+001
1.096503e+003, 3.662144e+001
1.096986e+003, 3.647697e+001
1.097468e+003, 3.610474e+001
1.097950e+003, 3.554733e+001
1.098432e+003, 3.520504e+001
1.098914e+003, 3.528823e+001
1.099396e+003, 3.538548e+001
1.099878e+003, 3.518618e+001
1.100360e+003, 3.486147e+001
1.100843e+003, 3.456781e+001
1.101325e+003, 3.430613e+001
1.101807e+003, 3.410237e+001
1.102289e+003, 3.395535e+001
1.102771e+003, 3.387114e+001
1.103253e+003, 3.395716e+001
1.103735e+003, 3.400655e+001
1.104217e+003, 3.367124e+001
1.104699e+003, 3.314463e+001
1.105182e+003, 3.279253e+001
1.105664e+003, 3.278988e+001
1.106146e+003, 3.277818e+001
1.106628e+003, 3.274389e+001
1.107110e+003, 3.271556e+001
1.107592e+003, 3.275478e+001
1.108074e+003, 3.280412e+001
1.108556e+003, 3.271343e+001
1.109038e+003, 3.250776e+001
1.109521e+003, 3.234418e+001
1.110003e+003, 3.238231e+001
1.110485e+003, 3.232285e+001
1.110967e+003, 3.203999e+001
1.111449e+003, 3.170938e+001
1.111931e+003, 3.162104e+001
1.112413e+003, 3.172249e+001
1.112895e+003, 3.179696e+001
1.113377e+003, 3.182011e+001
1.113860e+003, 3.175792e+001
1.114342e+003, 3.147897e+001
1.114824e+003, 3.122338e+001
1.115306e+003, 3.116810e+001
1.115788e+003, 3.123232e+001
1.116270e+003, 3.112559e+001
1.116752e+003, 3.085143e+001
1.117234e+003, 3.064698e+001
1.117717e+003, 3.057764e+001
1.118199e+003, 3.056891e+001
1.118681e+003, 3.059127e+001
1.119163e+003, 3.061705e+001
1.119645e+003, 3.061973e+001
1.120127e+003, 3.059735e+001
1.120609e+003, 3.055981e+001
1.121091e+003, 3.050303e+001
1.121573e+003, 3.045960e+001
1.122056e+003, 3.046700e+001
1.122538e+003, 3.045584e+001
1.123020e+003, 3.031438e+001
1.123502e+003, 3.010066e+001
1.123984e+003, 2.990841e+001
1.124466e+003, 2.979457e+001
1.124948e+003, 2.959143e+001
1.125430e+003, 2.923567e+001
1.125913e+003, 2.895217e+001
1.126395e+003, 2.894775e+001
1.126877e+003, 2.909479e+001
1.127359e+003, 2.912500e+001
1.127841e+003, 2.906078e+001
1.128323e+003, 2.896238e+001
1.128805e+003, 2.879472e+001
1.129287e+003, 2.867798e+001
1.129770e+003, 2.863199e+001
1.130252e+003, 2.862896e+001
1.130734e+003, 2.867960e+001
1.131216e+003, 2.875009e+001
1.131698e+003, 2.867334e+001
1.132180e+003, 2.846400e+001
1.132662e+003, 2.828069e+001
1.133144e+003, 2.818031e+001
1.133626e+003, 2.815572e+001
1.134109e+003, 2.819992e+001
1.134591e+003, 2.831272e+001
1.135073e+003, 2.858142e+001
1.135555e+003, 2.897007e+001
1.136037e+003, 2.900529e+001
1.136519e+003, 2.862523e+001
1.137001e+003, 2.823412e+001
1.137483e+003, 2.809105e+001
1.137965e+003, 2.806207e+001
1.138448e+003, 2.812654e+001
1.138930e+003, 2.823082e+001
1.139412e+003, 2.820602e+001
1.139894e+003, 2.804494e+001
1.140376e+003, 2.790775e+001
1.140858e+003, 2.783041e+001
1.141340e+003, 2.777237e+001
1.141822e+003, 2.765844e+001
1.142304e+003, 2.757267e+001
1.142787e+003, 2.765872e+001
1.143269e+003, 2.791340e+001
1.143751e+003, 2.784825e+001
1.144233e+003, 2.737602e+001
1.144715e+003, 2.708446e+001
1.145197e+003, 2.723446e+001
1.145679e+003, 2.751542e+001
1.146161e+003, 2.754386e+001
1.146644e+003, 2.744992e+001
1.147126e+003, 2.741004e+001
1.147608e+003, 2.748389e+001
1.148090e+003, 2.747952e+001
1.148572e+003, 2.736545e+001
1.149054e+003, 2.726406e+001
1.149536e+003, 2.724520e+001
1.150018e+003, 2.726375e+001
1.150500e+003, 2.725587e+001
1.150983e+003, 2.722175e+001
1.151465e+003, 2.716239e+001
1.151947e+003, 2.708336e+001
1.152429e+003, 2.694754e+001
1.152911e+003, 2.667706e+001
1.153393e+003, 2.651147e+001
1.153875e+003, 2.670195e+001
1.154357e+003, 2.708954e+001
1.154840e+003, 2.726354e+001
1.155322e+003, 2.725961e+001
1.155804e+003, 2.718448e+001
1.156286e+003, 2.696430e+001
1.156768e+003, 2.684911e+001
1.157250e+003, 2.690118e+001
1.157732e+003, 2.701484e+001
1.158214e+003, 2.712483e+001
1.158697e+003, 2.721389e+001
1.159179e+003, 2.717220e+001
1.159661e+003, 2.702273e+001
1.160143e+003, 2.691164e+001
1.160625e+003, 2.693562e+001
1.161107e+003, 2.697948e+001
1.161589e+003, 2.700034e+001
1.162071e+003, 2.702914e+001
1.162553e+003, 2.714078e+001
1.163036e+003, 2.730912e+001
1.163518e+003, 2.733743e+001
1.164000e+003, 2.721801e+001
1.164482e+003, 2.706407e+001
1.164964e+003, 2.689145e+001
1.165446e+003, 2.676040e+001
1.165928e+003, 2.671958e+001
1.166410e+003, 2.672791e+001
1.166892e+003, 2.669508e+001
1.167375e+003, 2.662991e+001
1.167857e+003, 2.670053e+001
1.168339e+003, 2.693751e+001
1.168821e+003, 2.710715e+001
1.169303e+003, 2.703418e+001
1.169785e+003, 2.684314e+001
1.170267e+003, 2.653423e+001
1.170749e+003, 2.618415e+001
1.171231e+003, 2.600349e+001
1.171714e+003, 2.599009e+001
1.172196e+003, 2.605105e+001
1.172678e+003, 2.617537e+001
1.173160e+003, 2.631469e+001
1.173642e+003, 2.645146e+001
1.174124e+003, 2.656569e+001
1.174606e+003, 2.666463e+001
1.175088e+003, 2.673379e+001
1.175571e+003, 2.663041e+001
1.176053e+003, 2.634224e+001
1.176535e+003, 2.611367e+001
1.177017e+003, 2.601383e+001
1.177499e+003, 2.598777e+001
1.177981e+003, 2.601753e+001
1.178463e+003, 2.606945e+001
1.178945e+003, 2.610917e+001
1.179427e+003, 2.613453e+001
1.179910e+003, 2.619486e+001
1.180392e+003, 2.630063e+001
1.180874e+003, 2.633133e+001
1.181356e+003, 2.621573e+001
1.181838e+003, 2.606835e+001
1.182320e+003, 2.598690e+001
1.182802e+003, 2.595707e+001
1.183284e+003, 2.599252e+001
1.183767e+003, 2.611969e+001
1.184249e+003, 2.603932e+001
1.184731e+003, 2.570489e+001
1.185213e+003, 2.548196e+001
1.185695e+003, 2.558917e+001
1.186177e+003, 2.582159e+001
1.186659e+003, 2.600180e+001
1.187141e+003, 2.612718e+001
1.187624e+003, 2.618897e+001
1.188106e+003, 2.618973e+001
1.188588e+003, 2.610188e+001
1.189070e+003, 2.590683e+001
1.189552e+003, 2.573498e+001
1.190034e+003, 2.565516e+001
1.190516e+003, 2.564605e+001
1.190998e+003, 2.569565e+001
1.191480e+003, 2.579186e+001
1.191963e+003, 2.592613e+001
1.192445e+003, 2.616367e+001
1.192927e+003, 2.623079e+001
1.193409e+003, 2.608526e+001
1.193891e+003, 2.596176e+001
1.194373e+003, 2.604459e+001
1.194855e+003, 2.622386e+001
1.195337e+003, 2.641334e+001
1.195819e+003, 2.657642e+001
1.196302e+003, 2.662097e+001
1.196784e+003, 2.644735e+001
1.197266e+003, 2.636562e+001
1.197748e+003, 2.639616e+001
1.198230e+003, 2.645526e+001
1.198712e+003, 2.630712e+001
1.199194e+003, 2.626756e+001
1.199676e+003, 2.707499e+001
1.200158e+003, 2.832750e+001
1.200641e+003, 2.887811e+001
1.201123e+003, 2.824551e+001
1.201605e+003, 2.760940e+001
1.202087e+003, 2.699416e+001
1.202569e+003, 2.652637e+001
1.203051e+003, 2.641815e+001
1.203533e+003, 2.646437e+001
1.204015e+003, 2.634343e+001
1.204498e+003, 2.613180e+001
1.204980e+003, 2.615032e+001
1.205462e+003, 2.662370e+001
1.205944e+003, 2.685837e+001
1.206426e+003, 2.675209e+001
1.206908e+003, 2.658043e+001
1.207390e+003, 2.663650e+001
1.207872e+003, 2.677469e+001
1.208354e+003, 2.679745e+001
1.208837e+003, 2.672525e+001
1.209319e+003, 2.669967e+001
1.209801e+003, 2.677808e+001
1.210283e+003, 2.677795e+001
1.210765e+003, 2.664990e+001
1.211247e+003, 2.654736e+001
1.211729e+003, 2.666208e+001
1.212211e+003, 2.687402e+001
1.212694e+003, 2.707129e+001
1.213176e+003, 2.723239e+001
1.213658e+003, 2.726653e+001
1.214140e+003, 2.712303e+001
1.214622e+003, 2.700474e+001
1.215104e+003, 2.693985e+001
1.215586e+003, 2.691205e+001
1.216068e+003, 2.693987e+001
1.216551e+003, 2.697024e+001
1.217033e+003, 2.689882e+001
1.217515e+003, 2.674974e+001
1.217997e+003, 2.674588e+001
1.218479e+003, 2.694335e+001
1.218961e+003, 2.712712e+001
1.219443e+003, 2.726711e+001
1.219925e+003, 2.736297e+001
1.220407e+003, 2.740912e+001
1.220890e+003, 2.741504e+001
1.221372e+003, 2.737194e+001
1.221854e+003, 2.728928e+001
1.222336e+003, 2.724697e+001
1.222818e+003, 2.725081e+001
1.223300e+003, 2.728481e+001
1.223782e+003, 2.735185e+001
1.224264e+003, 2.742047e+001
1.224746e+003, 2.741982e+001
1.225229e+003, 2.742894e+001
1.225711e+003, 2.758726e+001
1.226193e+003, 2.786954e+001
1.226675e+003, 2.792872e+001
1.227157e+003, 2.771376e+001
1.227639e+003, 2.753294e+001
1.228121e+003, 2.744418e+001
1.228603e+003, 2.744414e+001
1.229085e+003, 2.759640e+001
1.229568e+003, 2.778451e+001
1.230050e+003, 2.793722e+001
1.230532e+003, 2.802663e+001
1.231014e+003, 2.787917e+001
1.231496e+003, 2.744516e+001
1.231978e+003, 2.722913e+001
1.232460e+003, 2.737919e+001
1.232942e+003, 2.760653e+001
1.233425e+003, 2.764109e+001
1.233907e+003, 2.762171e+001
1.234389e+003, 2.770346e+001
1.234871e+003, 2.785650e+001
1.235353e+003, 2.780972e+001
1.235835e+003, 2.754680e+001
1.236317e+003, 2.752062e+001
1.236799e+003, 2.789554e+001
1.237281e+003, 2.821936e+001
1.237764e+003, 2.799520e+001
1.238246e+003, 2.766263e+001
1.238728e+003, 2.758654e+001
1.239210e+003, 2.771218e+001
1.239692e+003, 2.782147e+001
1.240174e+003, 2.791127e+001
1.240656e+003, 2.792645e+001
1.241138e+003, 2.783890e+001
1.241621e+003, 2.776353e+001
1.242103e+003, 2.782313e+001
1.242585e+003, 2.788710e+001
1.243067e+003, 2.784605e+001
1.243549e+003, 2.774355e+001
1.244031e+003, 2.776668e+001
1.244513e+003, 2.789398e+001
1.244995e+003, 2.794596e+001
1.245478e+003, 2.787007e+001
1.245960e+003, 2.778548e+001
1.246442e+003, 2.776059e+001
1.246924e+003, 2.775164e+001
1.247406e+003, 2.772923e+001
1.247888e+003, 2.770553e+001
1.248370e+003, 2.773297e+001
1.248852e+003, 2.779554e+001
1.249334e+003, 2.781843e+001
1.249817e+003, 2.777738e+001
1.250299e+003, 2.774841e+001
1.250781e+003, 2.777263e+001
1.251263e+003, 2.781421e+001
1.251745e+003, 2.786352e+001
1.252227e+003, 2.791562e+001
1.252709e+003, 2.796707e+001
1.253191e+003, 2.801081e+001
1.253673e+003, 2.802220e+001
1.254156e+003, 2.799215e+001
1.254638e+003, 2.796552e+001
1.255120e+003, 2.800636e+001
1.255602e+003, 2.796402e+001
1.256084e+003, 2.773796e+001
1.256566e+003, 2.747198e+001
1.257048e+003, 2.749310e+001
1.257530e+003, 2.768152e+001
1.258012e+003, 2.778741e+001
1.258495e+003, 2.775805e+001
1.258977e+003, 2.775633e+001
1.259459e+003, 2.782846e+001
1.259941e+003, 2.787666e+001
1.260423e+003, 2.785889e+001
1.260905e+003, 2.782513e+001
1.261387e+003, 2.787899e+001
1.261869e+003, 2.795721e+001
1.262352e+003, 2.797463e+001
1.262834e+003, 2.791634e+001
1.263316e+003, 2.776427e+001
1.263798e+003, 2.746212e+001
1.264280e+003, 2.728860e+001
1.264762e+003, 2.735047e+001
1.265244e+003, 2.749756e+001
1.265726e+003, 2.759889e+001
1.266208e+003, 2.765021e+001
1.266691e+003, 2.760840e+001
1.267173e+003, 2.747936e+001
1.267655e+003, 2.751911e+001
1.268137e+003, 2.776330e+001
1.268619e+003, 2.785785e+001
1.269101e+003, 2.767147e+001
1.269583e+003, 2.748078e+001
1.270065e+003, 2.754051e+001
1.270548e+003, 2.771879e+001
1.271030e+003, 2.797059e+001
1.271512e+003, 2.824176e+001
1.271994e+003, 2.828163e+001
1.272476e+003, 2.809476e+001
1.272958e+003, 2.788989e+001
1.273440e+003, 2.770142e+001
1.273922e+003, 2.759424e+001
1.274405e+003, 2.767468e+001
1.274887e+003, 2.779640e+001
1.275369e+003, 2.790708e+001
1.275851e+003, 2.797437e+001
1.276333e+003, 2.785461e+001
1.276815e+003, 2.759838e+001
1.277297e+003, 2.747317e+001
1.277779e+003, 2.753560e+001
1.278261e+003, 2.762820e+001
1.278744e+003, 2.767384e+001
1.279226e+003, 2.773663e+001
1.279708e+003, 2.787480e+001
1.280190e+003, 2.799892e+001
1.280672e+003, 2.788379e+001
1.281154e+003, 2.762876e+001
1.281636e+003, 2.750352e+001
1.282118e+003, 2.754397e+001
1.282600e+003, 2.755968e+001
1.283083e+003, 2.743819e+001
1.283565e+003, 2.739210e+001
1.284047e+003, 2.748981e+001
1.284529e+003, 2.763420e+001
1.285011e+003, 2.769502e+001
1.285493e+003, 2.770687e+001
1.285975e+003, 2.772512e+001
1.286457e+003, 2.775220e+001
1.286939e+003, 2.771790e+001
1.287422e+003, 2.754088e+001
1.287904e+003, 2.761476e+001
1.288386e+003, 2.807743e+001
1.288868e+003, 2.850912e+001
1.289350e+003, 2.836508e+001
1.289832e+003, 2.803254e+001
1.290314e+003, 2.785134e+001
1.290796e+003, 2.784667e+001
1.291279e+003, 2.799761e+001
1.291761e+003, 2.833834e+001
1.292243e+003, 2.843679e+001
1.292725e+003, 2.821921e+001
1.293207e+003, 2.796810e+001
1.293689e+003, 2.786882e+001
1.294171e+003, 2.785401e+001
1.294653e+003, 2.791160e+001
1.295135e+003, 2.800830e+001
1.295618e+003, 2.810201e+001
1.296100e+003, 2.819186e+001
1.296582e+003, 2.829408e+001
1.297064e+003, 2.840712e+001
1.297546e+003, 2.842610e+001
1.298028e+003, 2.816506e+001
1.298510e+003, 2.795250e+001
1.298992e+003, 2.790732e+001
1.299475e+003, 2.793627e+001
1.299957e+003, 2.791315e+001
1.300439e+003, 2.786803e+001
1.300921e+003, 2.789164e+001
1.301403e+003, 2.798066e+001
1.301885e+003, 2.807587e+001
##END=



