##NAMES=Montroydite
##RRUFFID=R140877
##IDEAL CHEMISTRY=Hg^2+^O
##LOCALITY=Terlingua, Texas, USA
##OWNER=RRUFF
##SOURCE=Tom Loomis
##DESCRIPTION=Red crystals with good cleavage, associated with yellow terlinguaite (R130878).
##STATUS=The identification of this mineral has been confirmed by single-crystal X-ray diffraction.
##URL=rruff.info/R140877
9.059570e+001, 9.822276e+000
9.107782e+001, 9.732359e+000
9.155994e+001, 9.700865e+000
9.204205e+001, 9.705408e+000
9.252417e+001, 9.786935e+000
9.300629e+001, 9.988593e+000
9.348840e+001, 1.025519e+001
9.397052e+001, 1.047350e+001
9.445264e+001, 1.055068e+001
9.493475e+001, 1.067961e+001
9.541687e+001, 1.070508e+001
9.589898e+001, 1.054043e+001
9.638110e+001, 1.034569e+001
9.686321e+001, 1.028573e+001
9.734533e+001, 1.042383e+001
9.782745e+001, 1.065739e+001
9.830956e+001, 1.074732e+001
9.879168e+001, 1.059684e+001
9.927380e+001, 1.046894e+001
9.975591e+001, 1.040006e+001
1.002380e+002, 1.039322e+001
1.007201e+002, 1.046988e+001
1.012023e+002, 1.065734e+001
1.016844e+002, 1.094226e+001
1.021665e+002, 1.122395e+001
1.026486e+002, 1.149923e+001
1.031307e+002, 1.177390e+001
1.036128e+002, 1.206386e+001
1.040950e+002, 1.237985e+001
1.045771e+002, 1.266170e+001
1.050592e+002, 1.279276e+001
1.055413e+002, 1.286555e+001
1.060234e+002, 1.303124e+001
1.065055e+002, 1.344197e+001
1.069877e+002, 1.401167e+001
1.074698e+002, 1.437004e+001
1.079519e+002, 1.431977e+001
1.084340e+002, 1.428905e+001
1.089161e+002, 1.448209e+001
1.093982e+002, 1.484366e+001
1.098804e+002, 1.522166e+001
1.103625e+002, 1.546291e+001
1.108446e+002, 1.551798e+001
1.113267e+002, 1.569228e+001
1.118088e+002, 1.605688e+001
1.122909e+002, 1.647033e+001
1.127731e+002, 1.688092e+001
1.132552e+002, 1.727397e+001
1.137373e+002, 1.766080e+001
1.142194e+002, 1.805375e+001
1.147015e+002, 1.846941e+001
1.151836e+002, 1.886590e+001
1.156658e+002, 1.921343e+001
1.161479e+002, 1.955714e+001
1.166300e+002, 1.994051e+001
1.171121e+002, 2.038033e+001
1.175942e+002, 2.086428e+001
1.180763e+002, 2.137102e+001
1.185584e+002, 2.192582e+001
1.190406e+002, 2.245016e+001
1.195227e+002, 2.289637e+001
1.200048e+002, 2.328955e+001
1.204869e+002, 2.370456e+001
1.209690e+002, 2.417957e+001
1.214511e+002, 2.469127e+001
1.219333e+002, 2.517937e+001
1.224154e+002, 2.561665e+001
1.228975e+002, 2.607581e+001
1.233796e+002, 2.664794e+001
1.238617e+002, 2.735382e+001
1.243438e+002, 2.800602e+001
1.248260e+002, 2.847161e+001
1.253081e+002, 2.884740e+001
1.257902e+002, 2.921562e+001
1.262723e+002, 2.961019e+001
1.267544e+002, 2.999975e+001
1.272365e+002, 3.032008e+001
1.277187e+002, 3.060769e+001
1.282008e+002, 3.074330e+001
1.286829e+002, 3.070453e+001
1.291650e+002, 3.052168e+001
1.296471e+002, 3.023099e+001
1.301292e+002, 2.985102e+001
1.306114e+002, 2.938360e+001
1.310935e+002, 2.885191e+001
1.315756e+002, 2.834430e+001
1.320577e+002, 2.767578e+001
1.325398e+002, 2.669007e+001
1.330219e+002, 2.548331e+001
1.335041e+002, 2.429368e+001
1.339862e+002, 2.334011e+001
1.344683e+002, 2.268163e+001
1.349504e+002, 2.183483e+001
1.354325e+002, 2.067116e+001
1.359146e+002, 1.946012e+001
1.363968e+002, 1.835439e+001
1.368789e+002, 1.736988e+001
1.373610e+002, 1.642960e+001
1.378431e+002, 1.544553e+001
1.383252e+002, 1.438472e+001
1.388073e+002, 1.347004e+001
1.392895e+002, 1.278208e+001
1.397716e+002, 1.221697e+001
1.402537e+002, 1.164597e+001
1.407358e+002, 1.103453e+001
1.412179e+002, 1.045400e+001
1.417000e+002, 1.002342e+001
1.421821e+002, 9.727647e+000
1.426643e+002, 9.449233e+000
1.431464e+002, 9.134171e+000
1.436285e+002, 8.796953e+000
1.441106e+002, 8.483120e+000
1.445927e+002, 8.184451e+000
1.450748e+002, 7.941733e+000
1.455570e+002, 7.799521e+000
1.460391e+002, 7.757064e+000
1.465212e+002, 7.720110e+000
1.470033e+002, 7.601326e+000
1.474854e+002, 7.391217e+000
1.479675e+002, 7.189947e+000
1.484497e+002, 7.019836e+000
1.489318e+002, 6.860459e+000
1.494139e+002, 6.693219e+000
1.498960e+002, 6.516777e+000
1.503781e+002, 6.354799e+000
1.508602e+002, 6.247262e+000
1.513424e+002, 6.215264e+000
1.518245e+002, 6.194211e+000
1.523066e+002, 6.184196e+000
1.527887e+002, 6.176246e+000
1.532708e+002, 6.162176e+000
1.537529e+002, 6.139188e+000
1.542351e+002, 6.111669e+000
1.547172e+002, 6.090567e+000
1.551993e+002, 6.078887e+000
1.556814e+002, 6.071354e+000
1.561635e+002, 6.085739e+000
1.566456e+002, 6.098952e+000
1.571278e+002, 6.075731e+000
1.576099e+002, 5.995947e+000
1.580920e+002, 5.879612e+000
1.585741e+002, 5.813967e+000
1.590562e+002, 5.818306e+000
1.595383e+002, 5.842378e+000
1.600205e+002, 5.872131e+000
1.605026e+002, 5.912719e+000
1.609847e+002, 5.981890e+000
1.614668e+002, 6.098012e+000
1.619489e+002, 6.245545e+000
1.624310e+002, 6.352053e+000
1.629131e+002, 6.333420e+000
1.633953e+002, 6.354387e+000
1.638774e+002, 6.534913e+000
1.643595e+002, 6.861547e+000
1.648416e+002, 7.204063e+000
1.653237e+002, 7.515459e+000
1.658058e+002, 7.774361e+000
1.662880e+002, 7.952543e+000
1.667701e+002, 8.098672e+000
1.672522e+002, 8.122210e+000
1.677343e+002, 7.860502e+000
1.682164e+002, 7.253037e+000
1.686985e+002, 6.650107e+000
1.691807e+002, 6.266718e+000
1.696628e+002, 6.009337e+000
1.701449e+002, 5.773108e+000
1.706270e+002, 5.503168e+000
1.711091e+002, 5.241392e+000
1.715912e+002, 5.101149e+000
1.720734e+002, 5.160481e+000
1.725555e+002, 5.200829e+000
1.730376e+002, 5.114533e+000
1.735197e+002, 4.962287e+000
1.740018e+002, 4.829083e+000
1.744839e+002, 4.766907e+000
1.749661e+002, 4.764580e+000
1.754482e+002, 4.758001e+000
1.759303e+002, 4.780356e+000
1.764124e+002, 4.755595e+000
1.768945e+002, 4.603815e+000
1.773766e+002, 4.394544e+000
1.778588e+002, 4.254478e+000
1.783409e+002, 4.288440e+000
1.788230e+002, 4.498573e+000
1.793051e+002, 4.620234e+000
1.797872e+002, 4.592371e+000
1.802693e+002, 4.537441e+000
1.807515e+002, 4.458207e+000
1.812336e+002, 4.376951e+000
1.817157e+002, 4.339418e+000
1.821978e+002, 4.394075e+000
1.826799e+002, 4.558846e+000
1.831620e+002, 4.632424e+000
1.836441e+002, 4.568295e+000
1.841263e+002, 4.477212e+000
1.846084e+002, 4.391304e+000
1.850905e+002, 4.322226e+000
1.855726e+002, 4.290930e+000
1.860547e+002, 4.325572e+000
1.865368e+002, 4.439010e+000
1.870190e+002, 4.508710e+000
1.875011e+002, 4.506232e+000
1.879832e+002, 4.481968e+000
1.884653e+002, 4.472282e+000
1.889474e+002, 4.481027e+000
1.894296e+002, 4.489126e+000
1.899117e+002, 4.467689e+000
1.903938e+002, 4.419574e+000
1.908759e+002, 4.414872e+000
1.913580e+002, 4.524709e+000
1.918401e+002, 4.652517e+000
1.923223e+002, 4.663443e+000
1.928044e+002, 4.520700e+000
1.932865e+002, 4.375479e+000
1.937686e+002, 4.431849e+000
1.942507e+002, 4.622136e+000
1.947328e+002, 4.729475e+000
1.952150e+002, 4.599774e+000
1.956971e+002, 4.356778e+000
1.961792e+002, 4.256588e+000
1.966613e+002, 4.363955e+000
1.971434e+002, 4.519539e+000
1.976255e+002, 4.632212e+000
1.981077e+002, 4.702747e+000
1.985898e+002, 4.720710e+000
1.990719e+002, 4.632802e+000
1.995540e+002, 4.475579e+000
2.000361e+002, 4.417046e+000
2.005182e+002, 4.531783e+000
2.010004e+002, 4.649714e+000
2.014825e+002, 4.683402e+000
2.019646e+002, 4.648848e+000
2.024467e+002, 4.586058e+000
2.029288e+002, 4.501150e+000
2.034109e+002, 4.398557e+000
2.038930e+002, 4.362933e+000
2.043752e+002, 4.473929e+000
2.048573e+002, 4.572688e+000
2.053394e+002, 4.587628e+000
2.058215e+002, 4.539858e+000
2.063036e+002, 4.481792e+000
2.067857e+002, 4.433069e+000
2.072679e+002, 4.386544e+000
2.077500e+002, 4.490608e+000
2.082321e+002, 5.090800e+000
2.087142e+002, 5.530566e+000
2.091963e+002, 5.477358e+000
2.096784e+002, 5.054695e+000
2.101606e+002, 4.626635e+000
2.106427e+002, 4.533111e+000
2.111248e+002, 4.828315e+000
2.116069e+002, 4.979251e+000
2.120890e+002, 4.885628e+000
2.125711e+002, 4.756841e+000
2.130533e+002, 4.639803e+000
2.135354e+002, 4.555070e+000
2.140175e+002, 4.529516e+000
2.144996e+002, 4.601598e+000
2.149817e+002, 4.801448e+000
2.154638e+002, 4.877253e+000
2.159460e+002, 4.712572e+000
2.164281e+002, 4.555971e+000
2.169102e+002, 4.552775e+000
2.173923e+002, 4.686722e+000
2.178744e+002, 4.835055e+000
2.183565e+002, 4.886655e+000
2.188387e+002, 4.827842e+000
2.193208e+002, 4.766388e+000
2.198029e+002, 4.675866e+000
2.202850e+002, 4.603533e+000
2.207671e+002, 4.577285e+000
2.212492e+002, 4.597922e+000
2.217314e+002, 4.653240e+000
2.222135e+002, 4.741011e+000
2.226956e+002, 4.863403e+000
2.231777e+002, 4.962230e+000
2.236598e+002, 5.058770e+000
2.241419e+002, 5.117569e+000
2.246240e+002, 5.086306e+000
2.251062e+002, 4.968240e+000
2.255883e+002, 4.855788e+000
2.260704e+002, 4.832038e+000
2.265525e+002, 4.886811e+000
2.270346e+002, 4.916136e+000
2.275167e+002, 4.875106e+000
2.279989e+002, 4.830301e+000
2.284810e+002, 4.854233e+000
2.289631e+002, 4.952137e+000
2.294452e+002, 5.048668e+000
2.299273e+002, 5.035537e+000
2.304094e+002, 4.981244e+000
2.308916e+002, 5.078073e+000
2.313737e+002, 5.585983e+000
2.318558e+002, 6.132576e+000
2.323379e+002, 6.236435e+000
2.328200e+002, 5.839273e+000
2.333021e+002, 5.407422e+000
2.337843e+002, 5.205994e+000
2.342664e+002, 5.168313e+000
2.347485e+002, 5.221497e+000
2.352306e+002, 5.411337e+000
2.357127e+002, 5.630687e+000
2.361948e+002, 5.714448e+000
2.366770e+002, 5.627318e+000
2.371591e+002, 5.552940e+000
2.376412e+002, 5.594693e+000
2.381233e+002, 5.699538e+000
2.386054e+002, 5.825795e+000
2.390875e+002, 5.982129e+000
2.395697e+002, 6.123331e+000
2.400518e+002, 6.157755e+000
2.405339e+002, 6.044867e+000
2.410160e+002, 5.955739e+000
2.414981e+002, 5.968331e+000
2.419802e+002, 6.030736e+000
2.424624e+002, 6.098907e+000
2.429445e+002, 6.157583e+000
2.434266e+002, 6.216834e+000
2.439087e+002, 6.303608e+000
2.443908e+002, 6.442599e+000
2.448729e+002, 6.539225e+000
2.453550e+002, 6.510459e+000
2.458372e+002, 6.460345e+000
2.463193e+002, 6.484954e+000
2.468014e+002, 6.619287e+000
2.472835e+002, 6.807591e+000
2.477656e+002, 6.955533e+000
2.482477e+002, 7.044197e+000
2.487299e+002, 7.135564e+000
2.492120e+002, 7.218802e+000
2.496941e+002, 7.320328e+000
2.501762e+002, 7.486169e+000
2.506583e+002, 7.726482e+000
2.511404e+002, 7.966840e+000
2.516226e+002, 8.065969e+000
2.521047e+002, 7.924403e+000
2.525868e+002, 7.866896e+000
2.530689e+002, 7.930304e+000
2.535510e+002, 8.067174e+000
2.540331e+002, 8.288001e+000
2.545153e+002, 8.579054e+000
2.549974e+002, 8.853571e+000
2.554795e+002, 8.962916e+000
2.559616e+002, 8.791235e+000
2.564437e+002, 8.702078e+000
2.569258e+002, 8.741168e+000
2.574080e+002, 8.820211e+000
2.578901e+002, 8.895797e+000
2.583722e+002, 8.953279e+000
2.588543e+002, 8.987745e+000
2.593364e+002, 8.979589e+000
2.598185e+002, 8.864658e+000
2.603007e+002, 8.879237e+000
2.607828e+002, 9.130412e+000
2.612649e+002, 9.400737e+000
2.617470e+002, 9.552180e+000
2.622291e+002, 9.574401e+000
2.627112e+002, 9.545483e+000
2.631934e+002, 9.549968e+000
2.636755e+002, 9.585855e+000
2.641576e+002, 9.670502e+000
2.646397e+002, 9.908182e+000
2.651218e+002, 1.009916e+001
2.656039e+002, 1.007219e+001
2.660861e+002, 9.862514e+000
2.665682e+002, 9.671021e+000
2.670503e+002, 9.706768e+000
2.675324e+002, 1.002173e+001
2.680145e+002, 1.023367e+001
2.684966e+002, 1.030629e+001
2.689788e+002, 1.033281e+001
2.694609e+002, 1.034273e+001
2.699430e+002, 1.034419e+001
2.704251e+002, 1.034463e+001
2.709072e+002, 1.035242e+001
2.713893e+002, 1.036866e+001
2.718715e+002, 1.035391e+001
2.723536e+002, 1.023715e+001
2.728357e+002, 1.016479e+001
2.733178e+002, 1.022711e+001
2.737999e+002, 1.038991e+001
2.742820e+002, 1.056290e+001
2.747642e+002, 1.069457e+001
2.752463e+002, 1.078143e+001
2.757284e+002, 1.076821e+001
2.762105e+002, 1.055737e+001
2.766926e+002, 1.037672e+001
2.771747e+002, 1.028699e+001
2.776568e+002, 1.028439e+001
2.781389e+002, 1.036418e+001
2.786211e+002, 1.053412e+001
2.791032e+002, 1.076914e+001
2.795853e+002, 1.096277e+001
2.800674e+002, 1.113904e+001
2.805495e+002, 1.125811e+001
2.810316e+002, 1.127372e+001
2.815138e+002, 1.122963e+001
2.819959e+002, 1.120294e+001
2.824780e+002, 1.122746e+001
2.829601e+002, 1.128543e+001
2.834422e+002, 1.132855e+001
2.839243e+002, 1.132452e+001
2.844065e+002, 1.136649e+001
2.848886e+002, 1.146743e+001
2.853707e+002, 1.162730e+001
2.858528e+002, 1.186952e+001
2.863349e+002, 1.221216e+001
2.868170e+002, 1.257680e+001
2.872992e+002, 1.281034e+001
2.877813e+002, 1.284293e+001
2.882634e+002, 1.298746e+001
2.887455e+002, 1.335506e+001
2.892276e+002, 1.383460e+001
2.897097e+002, 1.430071e+001
2.901919e+002, 1.472592e+001
2.906740e+002, 1.512359e+001
2.911561e+002, 1.550643e+001
2.916382e+002, 1.586867e+001
2.921203e+002, 1.625383e+001
2.926024e+002, 1.662024e+001
2.930846e+002, 1.703755e+001
2.935667e+002, 1.758805e+001
2.940488e+002, 1.828304e+001
2.945309e+002, 1.903436e+001
2.950130e+002, 1.973218e+001
2.954951e+002, 2.038872e+001
2.959773e+002, 2.125936e+001
2.964594e+002, 2.250832e+001
2.969415e+002, 2.386247e+001
2.974236e+002, 2.513217e+001
2.979057e+002, 2.630441e+001
2.983878e+002, 2.741372e+001
2.988700e+002, 2.839838e+001
2.993521e+002, 2.934506e+001
2.998342e+002, 3.067276e+001
3.003163e+002, 3.252405e+001
3.007984e+002, 3.460191e+001
3.012805e+002, 3.680016e+001
3.017627e+002, 3.910294e+001
3.022448e+002, 4.144538e+001
3.027269e+002, 4.372366e+001
3.032090e+002, 4.610205e+001
3.036911e+002, 4.903699e+001
3.041732e+002, 5.274072e+001
3.046554e+002, 5.660072e+001
3.051375e+002, 6.022150e+001
3.056196e+002, 6.378351e+001
3.061017e+002, 6.774180e+001
3.065838e+002, 7.224857e+001
3.070659e+002, 7.726391e+001
3.075481e+002, 8.273507e+001
3.080302e+002, 8.866871e+001
3.085123e+002, 9.483071e+001
3.089944e+002, 1.011742e+002
3.094765e+002, 1.076825e+002
3.099586e+002, 1.141968e+002
3.104408e+002, 1.206021e+002
3.109229e+002, 1.272260e+002
3.114050e+002, 1.345590e+002
3.118871e+002, 1.426227e+002
3.123692e+002, 1.507119e+002
3.128513e+002, 1.586151e+002
3.133335e+002, 1.664997e+002
3.138156e+002, 1.745420e+002
3.142977e+002, 1.827366e+002
3.147798e+002, 1.912912e+002
3.152619e+002, 2.004559e+002
3.157440e+002, 2.102665e+002
3.162262e+002, 2.204402e+002
3.167083e+002, 2.306888e+002
3.171904e+002, 2.414836e+002
3.176725e+002, 2.532620e+002
3.181546e+002, 2.660512e+002
3.186367e+002, 2.793655e+002
3.191188e+002, 2.928109e+002
3.196010e+002, 3.065908e+002
3.200831e+002, 3.215067e+002
3.205652e+002, 3.380552e+002
3.210473e+002, 3.552664e+002
3.215294e+002, 3.728037e+002
3.220115e+002, 3.905775e+002
3.224937e+002, 4.086184e+002
3.229758e+002, 4.268756e+002
3.234579e+002, 4.453356e+002
3.239400e+002, 4.636095e+002
3.244221e+002, 4.820528e+002
3.249042e+002, 4.997786e+002
3.253864e+002, 5.175393e+002
3.258685e+002, 5.342665e+002
3.263506e+002, 5.483870e+002
3.268327e+002, 5.596017e+002
3.273148e+002, 5.673663e+002
3.277969e+002, 5.702029e+002
3.282791e+002, 5.680110e+002
3.287612e+002, 5.634330e+002
3.292433e+002, 5.576622e+002
3.297254e+002, 5.494056e+002
3.302075e+002, 5.367843e+002
3.306896e+002, 5.194747e+002
3.311718e+002, 4.993427e+002
3.316539e+002, 4.777064e+002
3.321360e+002, 4.544362e+002
3.326181e+002, 4.308106e+002
3.331002e+002, 4.063711e+002
3.335823e+002, 3.821205e+002
3.340645e+002, 3.583043e+002
3.345466e+002, 3.352129e+002
3.350287e+002, 3.133436e+002
3.355108e+002, 2.932173e+002
3.359929e+002, 2.747595e+002
3.364750e+002, 2.573956e+002
3.369572e+002, 2.407139e+002
3.374393e+002, 2.251961e+002
3.379214e+002, 2.111145e+002
3.384035e+002, 1.983014e+002
3.388856e+002, 1.865929e+002
3.393677e+002, 1.759856e+002
3.398499e+002, 1.662733e+002
3.403320e+002, 1.570270e+002
3.408141e+002, 1.482158e+002
3.412962e+002, 1.398489e+002
3.417783e+002, 1.317166e+002
3.422604e+002, 1.240967e+002
3.427426e+002, 1.175044e+002
3.432247e+002, 1.121122e+002
3.437068e+002, 1.074281e+002
3.441889e+002, 1.028136e+002
3.446710e+002, 9.823244e+001
3.451531e+002, 9.389990e+001
3.456353e+002, 8.983678e+001
3.461174e+002, 8.604502e+001
3.465995e+002, 8.256133e+001
3.470816e+002, 7.939025e+001
3.475637e+002, 7.641307e+001
3.480458e+002, 7.356484e+001
3.485280e+002, 7.083820e+001
3.490101e+002, 6.832019e+001
3.494922e+002, 6.610208e+001
3.499743e+002, 6.396230e+001
3.504564e+002, 6.181416e+001
3.509385e+002, 5.968852e+001
3.514207e+002, 5.762864e+001
3.519028e+002, 5.565442e+001
3.523849e+002, 5.380668e+001
3.528670e+002, 5.225608e+001
3.533491e+002, 5.137432e+001
3.538312e+002, 5.033150e+001
3.543134e+002, 4.887646e+001
3.547955e+002, 4.727087e+001
3.552776e+002, 4.581281e+001
3.557597e+002, 4.460769e+001
3.562418e+002, 4.355407e+001
3.567239e+002, 4.246600e+001
3.572061e+002, 4.126152e+001
3.576882e+002, 4.020322e+001
3.581703e+002, 3.939606e+001
3.586524e+002, 3.864020e+001
3.591345e+002, 3.777587e+001
3.596166e+002, 3.680597e+001
3.600987e+002, 3.588226e+001
3.605808e+002, 3.517032e+001
3.610630e+002, 3.471058e+001
3.615451e+002, 3.406355e+001
3.620272e+002, 3.298953e+001
3.625093e+002, 3.199091e+001
3.629914e+002, 3.129331e+001
3.634735e+002, 3.078806e+001
3.639557e+002, 3.025271e+001
3.644378e+002, 2.954270e+001
3.649199e+002, 2.872220e+001
3.654020e+002, 2.807001e+001
3.658841e+002, 2.774735e+001
3.663662e+002, 2.738083e+001
3.668484e+002, 2.695150e+001
3.673305e+002, 2.645007e+001
3.678126e+002, 2.581721e+001
3.682947e+002, 2.505129e+001
3.687768e+002, 2.429204e+001
3.692589e+002, 2.379962e+001
3.697411e+002, 2.375495e+001
3.702232e+002, 2.348061e+001
3.707053e+002, 2.272925e+001
3.711874e+002, 2.194585e+001
3.716695e+002, 2.136302e+001
3.721516e+002, 2.097791e+001
3.726338e+002, 2.063806e+001
3.731159e+002, 2.022118e+001
3.735980e+002, 1.972980e+001
3.740801e+002, 1.921195e+001
3.745622e+002, 1.859206e+001
3.750443e+002, 1.804279e+001
3.755265e+002, 1.767432e+001
3.760086e+002, 1.739609e+001
3.764907e+002, 1.705664e+001
3.769728e+002, 1.655850e+001
3.774549e+002, 1.600929e+001
3.779370e+002, 1.568671e+001
3.784192e+002, 1.571483e+001
3.789013e+002, 1.561589e+001
3.793834e+002, 1.513884e+001
3.798655e+002, 1.455793e+001
3.803476e+002, 1.406086e+001
3.808297e+002, 1.368624e+001
3.813119e+002, 1.340114e+001
3.817940e+002, 1.321943e+001
3.822761e+002, 1.313724e+001
3.827582e+002, 1.296374e+001
3.832403e+002, 1.260757e+001
3.837224e+002, 1.223207e+001
3.842046e+002, 1.195224e+001
3.846867e+002, 1.174945e+001
3.851688e+002, 1.154488e+001
3.856509e+002, 1.127082e+001
3.861330e+002, 1.097244e+001
3.866151e+002, 1.076220e+001
3.870973e+002, 1.066253e+001
3.875794e+002, 1.057244e+001
3.880615e+002, 1.043047e+001
3.885436e+002, 1.026262e+001
3.890257e+002, 1.010256e+001
3.895078e+002, 9.952903e+000
3.899900e+002, 9.818899e+000
3.904721e+002, 9.728710e+000
3.909542e+002, 9.671322e+000
3.914363e+002, 9.557755e+000
3.919184e+002, 9.338809e+000
3.924005e+002, 9.074728e+000
3.928827e+002, 8.830271e+000
3.933648e+002, 8.598109e+000
3.938469e+002, 8.440135e+000
3.943290e+002, 8.431598e+000
3.948111e+002, 8.496455e+000
3.952932e+002, 8.515653e+000
3.957754e+002, 8.470603e+000
3.962575e+002, 8.400979e+000
3.967396e+002, 8.340820e+000
3.972217e+002, 8.287152e+000
3.977038e+002, 8.212359e+000
3.981859e+002, 8.129291e+000
3.986681e+002, 8.011687e+000
3.991501e+002, 7.792192e+000
3.996323e+002, 7.511371e+000
4.001144e+002, 7.323577e+000
4.005965e+002, 7.323286e+000
4.010786e+002, 7.437896e+000
4.015607e+002, 7.457396e+000
4.020428e+002, 7.352643e+000
4.025250e+002, 7.222234e+000
4.030071e+002, 7.043704e+000
4.034892e+002, 6.865979e+000
4.039713e+002, 6.762564e+000
4.044534e+002, 6.745854e+000
4.049355e+002, 6.741103e+000
4.054177e+002, 6.650857e+000
4.058998e+002, 6.439279e+000
4.063819e+002, 6.333063e+000
4.068640e+002, 6.407762e+000
4.073461e+002, 6.501660e+000
4.078282e+002, 6.562690e+000
4.083104e+002, 6.577703e+000
4.087925e+002, 6.528903e+000
4.092746e+002, 6.398446e+000
4.097567e+002, 6.210073e+000
4.102388e+002, 6.069816e+000
4.107209e+002, 5.961233e+000
4.112031e+002, 5.931961e+000
4.116852e+002, 6.063913e+000
4.121673e+002, 6.232512e+000
4.126494e+002, 6.328552e+000
4.131315e+002, 6.320753e+000
4.136136e+002, 6.236977e+000
4.140958e+002, 6.099429e+000
4.145779e+002, 5.883168e+000
4.150600e+002, 5.711158e+000
4.155421e+002, 5.588233e+000
4.160242e+002, 5.507926e+000
4.165063e+002, 5.497668e+000
4.169885e+002, 5.530177e+000
4.174706e+002, 5.545269e+000
4.179527e+002, 5.499678e+000
4.184348e+002, 5.413100e+000
4.189169e+002, 5.354311e+000
4.193990e+002, 5.337751e+000
4.198812e+002, 5.317838e+000
4.203633e+002, 5.277330e+000
4.208454e+002, 5.229261e+000
4.213275e+002, 5.183490e+000
4.218096e+002, 5.142210e+000
4.222917e+002, 5.107911e+000
4.227739e+002, 5.088587e+000
4.232560e+002, 5.083048e+000
4.237381e+002, 5.064265e+000
4.242202e+002, 5.017630e+000
4.247023e+002, 4.971629e+000
4.251844e+002, 4.950562e+000
4.256666e+002, 4.948641e+000
4.261487e+002, 4.944898e+000
4.266308e+002, 4.947870e+000
4.271129e+002, 4.936102e+000
4.275950e+002, 4.855446e+000
4.280771e+002, 4.699205e+000
4.285593e+002, 4.583543e+000
4.290414e+002, 4.591370e+000
4.295235e+002, 4.671107e+000
4.300056e+002, 4.698535e+000
4.304877e+002, 4.648522e+000
4.309698e+002, 4.602746e+000
4.314520e+002, 4.624535e+000
4.319341e+002, 4.675692e+000
4.324162e+002, 4.664673e+000
4.328983e+002, 4.561033e+000
4.333804e+002, 4.450705e+000
4.338625e+002, 4.443994e+000
4.343447e+002, 4.559887e+000
4.348268e+002, 4.626602e+000
4.353089e+002, 4.613344e+000
4.357910e+002, 4.570820e+000
4.362731e+002, 4.526170e+000
4.367552e+002, 4.480635e+000
4.372374e+002, 4.424562e+000
4.377195e+002, 4.348472e+000
4.382016e+002, 4.265423e+000
4.386837e+002, 4.227125e+000
4.391658e+002, 4.270600e+000
4.396479e+002, 4.312355e+000
4.401301e+002, 4.366526e+000
4.406122e+002, 4.405518e+000
4.410943e+002, 4.387976e+000
4.415764e+002, 4.313673e+000
4.420585e+002, 4.236577e+000
4.425406e+002, 4.227370e+000
4.430227e+002, 4.305077e+000
4.435049e+002, 4.311090e+000
4.439870e+002, 4.163900e+000
4.444691e+002, 4.028686e+000
4.449512e+002, 3.931623e+000
4.454333e+002, 3.886049e+000
4.459154e+002, 3.923417e+000
4.463976e+002, 4.070322e+000
4.468797e+002, 4.256116e+000
4.473618e+002, 4.306598e+000
4.478439e+002, 4.158444e+000
4.483260e+002, 4.063849e+000
4.488081e+002, 4.156252e+000
4.492903e+002, 4.252610e+000
4.497724e+002, 4.220160e+000
4.502545e+002, 4.061223e+000
4.507366e+002, 3.893184e+000
4.512187e+002, 3.789175e+000
4.517008e+002, 3.747111e+000
4.521830e+002, 3.776394e+000
4.526651e+002, 3.908877e+000
4.531472e+002, 4.032836e+000
4.536293e+002, 4.060308e+000
4.541114e+002, 4.042743e+000
4.545935e+002, 4.056897e+000
4.550757e+002, 4.140951e+000
4.555578e+002, 4.216295e+000
4.560399e+002, 4.205553e+000
4.565220e+002, 4.126711e+000
4.570041e+002, 4.056392e+000
4.574862e+002, 4.014221e+000
4.579684e+002, 3.991943e+000
4.584505e+002, 3.983889e+000
4.589326e+002, 3.989672e+000
4.594147e+002, 3.995657e+000
4.598968e+002, 3.972690e+000
4.603789e+002, 3.968308e+000
4.608611e+002, 4.048398e+000
4.613432e+002, 4.197500e+000
4.618253e+002, 4.323005e+000
4.623074e+002, 4.367129e+000
4.627895e+002, 4.345991e+000
4.632716e+002, 4.326355e+000
4.637538e+002, 4.304540e+000
4.642359e+002, 4.288867e+000
4.647180e+002, 4.259490e+000
4.652001e+002, 4.247805e+000
4.656822e+002, 4.314585e+000
4.661643e+002, 4.457167e+000
4.666465e+002, 4.577807e+000
4.671286e+002, 4.557299e+000
4.676107e+002, 4.372304e+000
4.680928e+002, 4.270348e+000
4.685749e+002, 4.381363e+000
4.690570e+002, 4.436706e+000
4.695392e+002, 4.307217e+000
4.700213e+002, 4.091688e+000
4.705034e+002, 3.948651e+000
4.709855e+002, 3.950135e+000
4.714676e+002, 4.012892e+000
4.719497e+002, 3.975293e+000
4.724319e+002, 3.799742e+000
4.729140e+002, 3.690177e+000
4.733961e+002, 3.734214e+000
4.738782e+002, 3.804569e+000
4.743603e+002, 3.835392e+000
4.748424e+002, 3.828494e+000
4.753246e+002, 3.812077e+000
4.758067e+002, 3.804349e+000
4.762888e+002, 3.797699e+000
4.767709e+002, 3.782012e+000
4.772530e+002, 3.761601e+000
4.777351e+002, 3.701013e+000
4.782173e+002, 3.533090e+000
4.786994e+002, 3.343475e+000
4.791815e+002, 3.278480e+000
4.796636e+002, 3.381002e+000
4.801457e+002, 3.471461e+000
4.806278e+002, 3.431720e+000
4.811100e+002, 3.326388e+000
4.815920e+002, 3.277769e+000
4.820742e+002, 3.308843e+000
4.825563e+002, 3.358020e+000
4.830384e+002, 3.370631e+000
4.835205e+002, 3.347053e+000
4.840026e+002, 3.338714e+000
4.844847e+002, 3.374169e+000
4.849669e+002, 3.393100e+000
4.854490e+002, 3.358257e+000
4.859311e+002, 3.292812e+000
4.864132e+002, 3.238169e+000
4.868953e+002, 3.209608e+000
4.873774e+002, 3.193021e+000
4.878596e+002, 3.164680e+000
4.883417e+002, 3.115364e+000
4.888238e+002, 3.079331e+000
4.893059e+002, 3.034329e+000
4.897880e+002, 3.021047e+000
4.902701e+002, 3.082161e+000
4.907523e+002, 3.190404e+000
4.912344e+002, 3.287833e+000
4.917165e+002, 3.340942e+000
4.921986e+002, 3.355670e+000
4.926807e+002, 3.338993e+000
4.931628e+002, 3.267385e+000
4.936450e+002, 3.229676e+000
4.941271e+002, 3.297035e+000
4.946092e+002, 3.366681e+000
4.950913e+002, 3.358293e+000
4.955734e+002, 3.274105e+000
4.960555e+002, 3.190333e+000
4.965377e+002, 3.170582e+000
4.970198e+002, 3.190641e+000
4.975019e+002, 3.180990e+000
4.979840e+002, 3.133635e+000
4.984661e+002, 3.086946e+000
4.989482e+002, 3.052190e+000
4.994304e+002, 3.036091e+000
4.999125e+002, 3.054970e+000
5.003946e+002, 3.130921e+000
5.008767e+002, 3.189687e+000
5.013588e+002, 3.173311e+000
5.018409e+002, 3.120778e+000
5.023231e+002, 3.102945e+000
5.028052e+002, 3.134492e+000
5.032873e+002, 3.185187e+000
5.037694e+002, 3.229332e+000
5.042515e+002, 3.266966e+000
5.047336e+002, 3.296035e+000
5.052158e+002, 3.336581e+000
5.056979e+002, 3.347645e+000
5.061800e+002, 3.265646e+000
5.066621e+002, 3.159403e+000
5.071442e+002, 3.159523e+000
5.076263e+002, 3.306907e+000
5.081085e+002, 3.480437e+000
5.085906e+002, 3.476893e+000
5.090727e+002, 3.219456e+000
5.095548e+002, 3.062937e+000
5.100369e+002, 3.065314e+000
5.105190e+002, 3.111658e+000
5.110012e+002, 3.183719e+000
5.114833e+002, 3.264914e+000
5.119654e+002, 3.331736e+000
5.124475e+002, 3.370619e+000
5.129296e+002, 3.396104e+000
5.134117e+002, 3.440394e+000
5.138939e+002, 3.509490e+000
5.143760e+002, 3.549835e+000
5.148581e+002, 3.520980e+000
5.153402e+002, 3.489027e+000
5.158223e+002, 3.520446e+000
5.163044e+002, 3.604546e+000
5.167866e+002, 3.667483e+000
5.172687e+002, 3.666565e+000
5.177508e+002, 3.634671e+000
5.182329e+002, 3.601837e+000
5.187150e+002, 3.570893e+000
5.191971e+002, 3.573341e+000
5.196793e+002, 3.639053e+000
5.201614e+002, 3.729272e+000
5.206435e+002, 3.743784e+000
5.211256e+002, 3.645428e+000
5.216077e+002, 3.595571e+000
5.220898e+002, 3.647348e+000
5.225720e+002, 3.740101e+000
5.230541e+002, 3.837490e+000
5.235362e+002, 3.927307e+000
5.240183e+002, 3.992267e+000
5.245004e+002, 4.017768e+000
5.249825e+002, 4.010232e+000
5.254647e+002, 4.001918e+000
5.259468e+002, 3.977401e+000
5.264289e+002, 3.975860e+000
5.269110e+002, 4.011525e+000
5.273931e+002, 4.062493e+000
5.278752e+002, 4.114388e+000
5.283574e+002, 4.163571e+000
5.288395e+002, 4.209341e+000
5.293216e+002, 4.244801e+000
5.298037e+002, 4.275171e+000
5.302858e+002, 4.341257e+000
5.307679e+002, 4.468785e+000
5.312501e+002, 4.571680e+000
5.317322e+002, 4.565355e+000
5.322143e+002, 4.538061e+000
5.326964e+002, 4.589872e+000
5.331785e+002, 4.744781e+000
5.336606e+002, 4.913732e+000
5.341428e+002, 5.066639e+000
5.346249e+002, 5.187126e+000
5.351070e+002, 5.211408e+000
5.355891e+002, 5.121840e+000
5.360712e+002, 5.063989e+000
5.365533e+002, 5.151519e+000
5.370355e+002, 5.368030e+000
5.375176e+002, 5.586975e+000
5.379997e+002, 5.896943e+000
5.384818e+002, 6.102860e+000
5.389639e+002, 6.044340e+000
5.394460e+002, 5.900586e+000
5.399282e+002, 5.882411e+000
5.404103e+002, 6.037379e+000
5.408924e+002, 6.311250e+000
5.413745e+002, 6.662868e+000
5.418566e+002, 7.096320e+000
5.423387e+002, 7.466524e+000
5.428209e+002, 7.746291e+000
5.433029e+002, 7.987188e+000
5.437850e+002, 8.103801e+000
5.442672e+002, 8.232279e+000
5.447493e+002, 8.524436e+000
5.452314e+002, 9.018986e+000
5.457135e+002, 9.638058e+000
5.461956e+002, 1.028982e+001
5.466777e+002, 1.098218e+001
5.471599e+002, 1.178543e+001
5.476420e+002, 1.272332e+001
5.481241e+002, 1.372536e+001
5.486062e+002, 1.475611e+001
5.490883e+002, 1.581954e+001
5.495704e+002, 1.695110e+001
5.500526e+002, 1.819643e+001
5.505347e+002, 1.941537e+001
5.510168e+002, 2.056377e+001
5.514989e+002, 2.161898e+001
5.519810e+002, 2.249335e+001
5.524631e+002, 2.316401e+001
5.529453e+002, 2.381838e+001
5.534274e+002, 2.461182e+001
5.539095e+002, 2.554881e+001
5.543916e+002, 2.664026e+001
5.548737e+002, 2.789963e+001
5.553558e+002, 2.927023e+001
5.558380e+002, 3.070256e+001
5.563201e+002, 3.226139e+001
5.568022e+002, 3.401069e+001
5.572843e+002, 3.597353e+001
5.577664e+002, 3.809768e+001
5.582485e+002, 4.030823e+001
5.587307e+002, 4.258171e+001
5.592128e+002, 4.522521e+001
5.596949e+002, 4.821341e+001
5.601770e+002, 5.161913e+001
5.606591e+002, 5.561544e+001
5.611412e+002, 5.992041e+001
5.616234e+002, 6.423608e+001
5.621055e+002, 6.847460e+001
5.625876e+002, 7.273619e+001
5.630697e+002, 7.745077e+001
5.635518e+002, 8.228152e+001
5.640339e+002, 8.624200e+001
5.645161e+002, 8.933450e+001
5.649982e+002, 9.104233e+001
5.654803e+002, 9.101369e+001
5.659624e+002, 8.917105e+001
5.664445e+002, 8.586349e+001
5.669266e+002, 8.064763e+001
5.674088e+002, 7.462682e+001
5.678909e+002, 6.762653e+001
5.683730e+002, 6.029331e+001
5.688551e+002, 5.323415e+001
5.693372e+002, 4.666471e+001
5.698193e+002, 4.062286e+001
5.703015e+002, 3.520250e+001
5.707836e+002, 3.039307e+001
5.712657e+002, 2.639018e+001
5.717478e+002, 2.355605e+001
5.722299e+002, 2.108532e+001
5.727120e+002, 1.888764e+001
5.731942e+002, 1.694577e+001
5.736763e+002, 1.527086e+001
5.741584e+002, 1.384575e+001
5.746405e+002, 1.260738e+001
5.751226e+002, 1.151712e+001
5.756047e+002, 1.056805e+001
5.760869e+002, 9.741626e+000
5.765690e+002, 9.051183e+000
5.770511e+002, 8.431396e+000
5.775332e+002, 7.868759e+000
5.780153e+002, 7.360405e+000
5.784974e+002, 6.890990e+000
5.789796e+002, 6.453910e+000
5.794617e+002, 6.085048e+000
5.799438e+002, 5.851153e+000
5.804259e+002, 5.661341e+000
5.809080e+002, 5.389518e+000
5.813901e+002, 5.043970e+000
5.818723e+002, 4.737546e+000
5.823544e+002, 4.544908e+000
5.828365e+002, 4.437540e+000
5.833186e+002, 4.318503e+000
5.838007e+002, 4.196454e+000
5.842828e+002, 4.046629e+000
5.847650e+002, 3.813567e+000
5.852471e+002, 3.599834e+000
5.857292e+002, 3.489305e+000
5.862113e+002, 3.461392e+000
5.866934e+002, 3.432702e+000
5.871755e+002, 3.346811e+000
5.876577e+002, 3.235789e+000
5.881398e+002, 3.178962e+000
5.886219e+002, 3.184951e+000
5.891040e+002, 3.189439e+000
5.895861e+002, 3.203614e+000
5.900682e+002, 3.179858e+000
5.905504e+002, 3.048913e+000
5.910325e+002, 2.830926e+000
5.915146e+002, 2.659414e+000
5.919967e+002, 2.600866e+000
5.924788e+002, 2.583225e+000
5.929609e+002, 2.549371e+000
5.934431e+002, 2.506722e+000
5.939252e+002, 2.480808e+000
5.944073e+002, 2.481311e+000
5.948894e+002, 2.499141e+000
5.953715e+002, 2.526988e+000
5.958536e+002, 2.577654e+000
5.963358e+002, 2.577706e+000
5.968179e+002, 2.481225e+000
5.973000e+002, 2.392921e+000
5.977821e+002, 2.346946e+000
5.982642e+002, 2.332959e+000
5.987463e+002, 2.336092e+000
5.992285e+002, 2.350677e+000
5.997106e+002, 2.371111e+000
6.001927e+002, 2.393111e+000
6.006748e+002, 2.416461e+000
6.011569e+002, 2.433891e+000
6.016390e+002, 2.447387e+000
6.021212e+002, 2.449903e+000
6.026033e+002, 2.431012e+000
6.030854e+002, 2.400211e+000
6.035675e+002, 2.367163e+000
6.040496e+002, 2.323655e+000
6.045317e+002, 2.305409e+000
6.050139e+002, 2.372027e+000
6.054960e+002, 2.456634e+000
6.059781e+002, 2.440997e+000
6.064602e+002, 2.321904e+000
6.069423e+002, 2.211628e+000
6.074244e+002, 2.195055e+000
6.079066e+002, 2.247957e+000
6.083887e+002, 2.259555e+000
6.088708e+002, 2.166651e+000
6.093529e+002, 2.123376e+000
6.098350e+002, 2.174133e+000
6.103171e+002, 2.243177e+000
6.107993e+002, 2.283260e+000
6.112814e+002, 2.292210e+000
6.117635e+002, 2.285779e+000
6.122456e+002, 2.270197e+000
6.127277e+002, 2.251441e+000
6.132098e+002, 2.248108e+000
6.136920e+002, 2.263365e+000
6.141741e+002, 2.254054e+000
6.146562e+002, 2.199691e+000
6.151383e+002, 2.130216e+000
6.156204e+002, 2.060099e+000
6.161025e+002, 1.994010e+000
6.165847e+002, 1.972247e+000
6.170668e+002, 2.057236e+000
6.175489e+002, 2.135209e+000
6.180310e+002, 2.114136e+000
6.185131e+002, 2.036642e+000
6.189952e+002, 1.990859e+000
6.194774e+002, 2.002830e+000
6.199595e+002, 2.038824e+000
6.204416e+002, 2.058399e+000
6.209237e+002, 2.059295e+000
6.214058e+002, 2.079924e+000
6.218879e+002, 2.146659e+000
6.223701e+002, 2.200963e+000
6.228522e+002, 2.258138e+000
6.233343e+002, 2.281841e+000
6.238164e+002, 2.202637e+000
6.242985e+002, 2.019951e+000
6.247806e+002, 1.866204e+000
6.252628e+002, 1.874676e+000
6.257448e+002, 1.990725e+000
6.262269e+002, 2.075697e+000
6.267090e+002, 2.126706e+000
6.271912e+002, 2.147150e+000
6.276733e+002, 2.137294e+000
6.281554e+002, 2.099225e+000
6.286375e+002, 2.023011e+000
6.291196e+002, 1.892523e+000
6.296017e+002, 1.805472e+000
6.300839e+002, 1.791371e+000
6.305660e+002, 1.811167e+000
6.310481e+002, 1.854377e+000
6.315302e+002, 1.907846e+000
6.320123e+002, 1.951149e+000
6.324944e+002, 1.974775e+000
6.329766e+002, 1.979448e+000
6.334587e+002, 1.962139e+000
6.339408e+002, 1.916882e+000
6.344229e+002, 1.879521e+000
6.349050e+002, 1.849793e+000
6.353871e+002, 1.829884e+000
6.358693e+002, 1.821768e+000
6.363514e+002, 1.822604e+000
6.368335e+002, 1.830782e+000
6.373156e+002, 1.848868e+000
6.377977e+002, 1.860591e+000
6.382798e+002, 1.858548e+000
6.387620e+002, 1.840931e+000
6.392441e+002, 1.794744e+000
6.397262e+002, 1.720419e+000
6.402083e+002, 1.655580e+000
6.406904e+002, 1.625412e+000
6.411725e+002, 1.621961e+000
6.416547e+002, 1.618885e+000
6.421368e+002, 1.632429e+000
6.426189e+002, 1.620909e+000
6.431010e+002, 1.544621e+000
6.435831e+002, 1.478642e+000
6.440652e+002, 1.481908e+000
6.445474e+002, 1.535386e+000
6.450295e+002, 1.584768e+000
6.455116e+002, 1.602945e+000
6.459937e+002, 1.597091e+000
6.464758e+002, 1.568239e+000
6.469579e+002, 1.516768e+000
6.474401e+002, 1.490378e+000
6.479222e+002, 1.500432e+000
6.484043e+002, 1.528268e+000
6.488864e+002, 1.580647e+000
6.493685e+002, 1.639732e+000
6.498506e+002, 1.643763e+000
6.503328e+002, 1.526363e+000
6.508149e+002, 1.449105e+000
6.512970e+002, 1.520972e+000
6.517791e+002, 1.642298e+000
6.522612e+002, 1.693240e+000
6.527433e+002, 1.663376e+000
6.532255e+002, 1.608905e+000
6.537076e+002, 1.569387e+000
6.541897e+002, 1.541948e+000
6.546718e+002, 1.517398e+000
6.551539e+002, 1.501990e+000
6.556360e+002, 1.474353e+000
6.561182e+002, 1.405230e+000
6.566003e+002, 1.345990e+000
6.570824e+002, 1.322583e+000
6.575645e+002, 1.332911e+000
6.580466e+002, 1.368708e+000
6.585287e+002, 1.443053e+000
6.590109e+002, 1.515785e+000
6.594930e+002, 1.559503e+000
6.599751e+002, 1.570922e+000
6.604572e+002, 1.523085e+000
6.609393e+002, 1.407959e+000
6.614214e+002, 1.309633e+000
6.619036e+002, 1.311574e+000
6.623857e+002, 1.400151e+000
6.628678e+002, 1.427620e+000
6.633499e+002, 1.340438e+000
6.638320e+002, 1.261905e+000
6.643141e+002, 1.187972e+000
6.647963e+002, 1.137255e+000
6.652784e+002, 1.134726e+000
6.657605e+002, 1.171045e+000
6.662426e+002, 1.210382e+000
6.667247e+002, 1.234071e+000
6.672068e+002, 1.242629e+000
6.676890e+002, 1.231317e+000
6.681711e+002, 1.200935e+000
6.686532e+002, 1.181856e+000
6.691353e+002, 1.186620e+000
6.696174e+002, 1.189851e+000
6.700995e+002, 1.158922e+000
6.705817e+002, 1.100124e+000
6.710638e+002, 1.075819e+000
6.715459e+002, 1.124832e+000
6.720280e+002, 1.161767e+000
6.725101e+002, 1.145695e+000
6.729922e+002, 1.112118e+000
6.734744e+002, 1.100302e+000
6.739565e+002, 1.113668e+000
6.744386e+002, 1.130956e+000
6.749207e+002, 1.135389e+000
6.754028e+002, 1.132809e+000
6.758849e+002, 1.143089e+000
6.763671e+002, 1.168775e+000
6.768492e+002, 1.197841e+000
6.773313e+002, 1.245808e+000
6.778134e+002, 1.275704e+000
6.782955e+002, 1.243114e+000
6.787776e+002, 1.167128e+000
6.792598e+002, 1.117372e+000
6.797419e+002, 1.133989e+000
6.802240e+002, 1.149312e+000
6.807061e+002, 1.090819e+000
6.811882e+002, 1.017867e+000
6.816703e+002, 1.052142e+000
6.821525e+002, 1.198718e+000
6.826346e+002, 1.320168e+000
6.831167e+002, 1.295891e+000
6.835988e+002, 1.162763e+000
6.840809e+002, 1.109022e+000
6.845630e+002, 1.190575e+000
6.850452e+002, 1.229324e+000
6.855273e+002, 1.133142e+000
6.860094e+002, 1.048380e+000
6.864915e+002, 1.087209e+000
6.869736e+002, 1.209753e+000
6.874557e+002, 1.286812e+000
6.879379e+002, 1.253928e+000
6.884200e+002, 1.188756e+000
6.889021e+002, 1.151693e+000
6.893842e+002, 1.136272e+000
6.898663e+002, 1.127232e+000
6.903484e+002, 1.121877e+000
6.908306e+002, 1.130051e+000
6.913127e+002, 1.164227e+000
6.917948e+002, 1.214814e+000
6.922769e+002, 1.232405e+000
6.927590e+002, 1.176552e+000
6.932411e+002, 1.152669e+000
6.937233e+002, 1.199217e+000
6.942054e+002, 1.246379e+000
6.946875e+002, 1.256947e+000
6.951696e+002, 1.232731e+000
6.956517e+002, 1.181224e+000
6.961339e+002, 1.093560e+000
6.966160e+002, 1.018054e+000
6.970981e+002, 1.027076e+000
6.975802e+002, 1.094426e+000
6.980623e+002, 1.119328e+000
6.985444e+002, 1.083367e+000
6.990266e+002, 1.055556e+000
6.995087e+002, 1.090234e+000
6.999908e+002, 1.166699e+000
7.004729e+002, 1.205161e+000
7.009550e+002, 1.158234e+000
7.014371e+002, 1.145610e+000
7.019193e+002, 1.208007e+000
7.024014e+002, 1.268735e+000
7.028835e+002, 1.278925e+000
7.033656e+002, 1.250609e+000
7.038477e+002, 1.212525e+000
7.043298e+002, 1.174941e+000
7.048120e+002, 1.151335e+000
7.052941e+002, 1.173258e+000
7.057762e+002, 1.227384e+000
7.062583e+002, 1.241397e+000
7.067404e+002, 1.202310e+000
7.072225e+002, 1.168288e+000
7.077046e+002, 1.177805e+000
7.081867e+002, 1.211522e+000
7.086688e+002, 1.219273e+000
7.091509e+002, 1.189947e+000
7.096331e+002, 1.164632e+000
7.101152e+002, 1.130802e+000
7.105973e+002, 1.116388e+000
7.110794e+002, 1.160896e+000
7.115615e+002, 1.230366e+000
7.120436e+002, 1.256825e+000
7.125258e+002, 1.216933e+000
7.130079e+002, 1.168724e+000
7.134900e+002, 1.200608e+000
7.139721e+002, 1.289016e+000
7.144542e+002, 1.287881e+000
7.149363e+002, 1.176513e+000
7.154185e+002, 1.081119e+000
7.159006e+002, 1.059494e+000
7.163827e+002, 1.085417e+000
7.168648e+002, 1.120610e+000
7.173469e+002, 1.166901e+000
7.178290e+002, 1.209743e+000
7.183112e+002, 1.282818e+000
7.187933e+002, 1.314741e+000
7.192754e+002, 1.219766e+000
7.197575e+002, 1.082260e+000
7.202396e+002, 1.032374e+000
7.207217e+002, 1.097731e+000
7.212039e+002, 1.190177e+000
7.216860e+002, 1.229707e+000
7.221681e+002, 1.225381e+000
7.226502e+002, 1.209967e+000
7.231323e+002, 1.182584e+000
7.236144e+002, 1.151468e+000
7.240966e+002, 1.122225e+000
7.245787e+002, 1.085339e+000
7.250608e+002, 1.011523e+000
7.255429e+002, 9.023327e-001
7.260250e+002, 8.664168e-001
7.265071e+002, 9.731753e-001
7.269893e+002, 1.077529e+000
7.274714e+002, 1.132557e+000
7.279535e+002, 1.154691e+000
7.284356e+002, 1.151071e+000
7.289177e+002, 1.131592e+000
7.293998e+002, 1.124303e+000
7.298820e+002, 1.155041e+000
7.303641e+002, 1.201572e+000
7.308462e+002, 1.207960e+000
7.313283e+002, 1.172491e+000
7.318104e+002, 1.145049e+000
7.322925e+002, 1.134960e+000
7.327747e+002, 1.135928e+000
7.332568e+002, 1.152046e+000
7.337389e+002, 1.176041e+000
7.342210e+002, 1.171211e+000
7.347031e+002, 1.101143e+000
7.351852e+002, 1.058737e+000
7.356674e+002, 1.080210e+000
7.361495e+002, 1.122385e+000
7.366316e+002, 1.161610e+000
7.371137e+002, 1.189246e+000
7.375958e+002, 1.193058e+000
7.380779e+002, 1.165433e+000
7.385601e+002, 1.127029e+000
7.390422e+002, 1.113658e+000
7.395243e+002, 1.120998e+000
7.400064e+002, 1.100506e+000
7.404885e+002, 1.039985e+000
7.409706e+002, 9.903214e-001
7.414528e+002, 9.796064e-001
7.419349e+002, 9.980919e-001
7.424170e+002, 1.033586e+000
7.428991e+002, 1.107273e+000
7.433812e+002, 1.125438e+000
7.438633e+002, 1.018430e+000
7.443455e+002, 9.187862e-001
7.448276e+002, 8.959063e-001
7.453097e+002, 9.266418e-001
7.457918e+002, 9.837011e-001
7.462739e+002, 1.053423e+000
7.467560e+002, 1.100912e+000
7.472382e+002, 1.067993e+000
7.477203e+002, 9.904716e-001
7.482024e+002, 9.927424e-001
7.486845e+002, 1.077327e+000
7.491666e+002, 1.135592e+000
7.496487e+002, 1.127164e+000
7.501309e+002, 1.088537e+000
7.506130e+002, 1.056109e+000
7.510951e+002, 1.029557e+000
7.515772e+002, 1.024083e+000
7.520593e+002, 1.051191e+000
7.525414e+002, 1.082518e+000
7.530236e+002, 1.118778e+000
7.535057e+002, 1.151732e+000
7.539878e+002, 1.179639e+000
7.544699e+002, 1.198037e+000
7.549520e+002, 1.192815e+000
7.554341e+002, 1.146643e+000
7.559163e+002, 1.092802e+000
7.563984e+002, 1.085755e+000
7.568805e+002, 1.113272e+000
7.573626e+002, 1.116992e+000
7.578447e+002, 1.085662e+000
7.583268e+002, 1.061988e+000
7.588090e+002, 1.082010e+000
7.592911e+002, 1.126712e+000
7.597732e+002, 1.131133e+000
7.602553e+002, 1.059008e+000
7.607374e+002, 1.012507e+000
7.612195e+002, 1.001248e+000
7.617017e+002, 1.003668e+000
7.621838e+002, 1.010563e+000
7.626659e+002, 1.024032e+000
7.631480e+002, 1.057325e+000
7.636301e+002, 1.115692e+000
7.641122e+002, 1.152427e+000
7.645944e+002, 1.128086e+000
7.650765e+002, 1.062815e+000
7.655586e+002, 9.623827e-001
7.660407e+002, 8.426317e-001
7.665228e+002, 7.902435e-001
7.670049e+002, 8.416874e-001
7.674871e+002, 9.279954e-001
7.679692e+002, 9.557787e-001
7.684513e+002, 9.216524e-001
7.689334e+002, 9.234180e-001
7.694155e+002, 1.004971e+000
7.698976e+002, 1.050286e+000
7.703798e+002, 9.906734e-001
7.708619e+002, 9.211414e-001
7.713440e+002, 9.238337e-001
7.718261e+002, 9.886482e-001
7.723082e+002, 1.042341e+000
7.727903e+002, 1.054174e+000
7.732725e+002, 1.054545e+000
7.737546e+002, 1.068305e+000
7.742367e+002, 1.082491e+000
7.747188e+002, 1.063144e+000
7.752009e+002, 1.016068e+000
7.756830e+002, 9.990590e-001
7.761652e+002, 1.053528e+000
7.766473e+002, 1.146392e+000
7.771294e+002, 1.210256e+000
7.776115e+002, 1.252247e+000
7.780936e+002, 1.204827e+000
7.785757e+002, 9.896155e-001
7.790579e+002, 8.223029e-001
7.795400e+002, 8.711315e-001
7.800221e+002, 1.019983e+000
7.805042e+002, 1.071077e+000
7.809863e+002, 9.995326e-001
7.814684e+002, 9.291685e-001
7.819506e+002, 8.838430e-001
7.824327e+002, 8.548377e-001
7.829148e+002, 8.255633e-001
7.833969e+002, 8.125151e-001
7.838790e+002, 8.612083e-001
7.843611e+002, 9.732302e-001
7.848433e+002, 1.070995e+000
7.853254e+002, 1.071755e+000
7.858075e+002, 1.010815e+000
7.862896e+002, 9.922807e-001
7.867717e+002, 1.016623e+000
7.872538e+002, 1.059495e+000
7.877360e+002, 1.123153e+000
7.882181e+002, 1.180069e+000
7.887002e+002, 1.210243e+000
7.891823e+002, 1.212144e+000
7.896644e+002, 1.171364e+000
7.901465e+002, 1.031153e+000
7.906286e+002, 9.316645e-001
7.911107e+002, 9.047528e-001
7.915928e+002, 9.016571e-001
7.920750e+002, 8.830371e-001
7.925571e+002, 8.646468e-001
7.930392e+002, 8.920552e-001
7.935213e+002, 9.865938e-001
7.940034e+002, 1.084406e+000
7.944855e+002, 1.138536e+000
7.949677e+002, 1.154190e+000
7.954498e+002, 1.127058e+000
7.959319e+002, 1.064586e+000
7.964140e+002, 1.012301e+000
7.968961e+002, 9.889924e-001
7.973782e+002, 9.820253e-001
7.978604e+002, 9.750579e-001
7.983425e+002, 9.680484e-001
7.988246e+002, 9.598182e-001
7.993067e+002, 9.405024e-001
7.997888e+002, 9.377652e-001
8.002709e+002, 9.694971e-001
8.007531e+002, 1.011825e+000
8.012352e+002, 1.062266e+000
8.017173e+002, 1.111469e+000
8.021994e+002, 1.117835e+000
8.026815e+002, 1.041312e+000
8.031636e+002, 9.626342e-001
8.036458e+002, 9.027438e-001
8.041279e+002, 8.771921e-001
8.046100e+002, 9.341754e-001
8.050921e+002, 1.047107e+000
8.055742e+002, 1.119133e+000
8.060563e+002, 1.095928e+000
8.065385e+002, 1.027543e+000
8.070206e+002, 9.856282e-001
8.075027e+002, 9.696729e-001
8.079848e+002, 9.846731e-001
8.084669e+002, 1.042405e+000
8.089490e+002, 1.066583e+000
8.094312e+002, 1.003777e+000
8.099133e+002, 9.168465e-001
8.103954e+002, 9.025488e-001
8.108775e+002, 9.739981e-001
8.113596e+002, 1.036521e+000
8.118417e+002, 1.125248e+000
8.123239e+002, 1.160644e+000
8.128060e+002, 1.049886e+000
8.132881e+002, 9.270924e-001
8.137702e+002, 9.467559e-001
8.142523e+002, 1.085377e+000
8.147344e+002, 1.181414e+000
8.152166e+002, 1.140653e+000
8.156987e+002, 1.056206e+000
8.161808e+002, 1.020385e+000
8.166629e+002, 1.015230e+000
8.171450e+002, 9.988187e-001
8.176271e+002, 9.681485e-001
8.181093e+002, 9.472577e-001
8.185914e+002, 9.503145e-001
8.190735e+002, 9.684549e-001
8.195556e+002, 9.881066e-001
8.200377e+002, 1.013090e+000
8.205198e+002, 1.012565e+000
8.210020e+002, 9.681666e-001
8.214841e+002, 9.331020e-001
8.219662e+002, 9.380914e-001
8.224483e+002, 9.545830e-001
8.229304e+002, 9.486893e-001
8.234125e+002, 9.210506e-001
8.238947e+002, 9.016224e-001
8.243768e+002, 8.767173e-001
8.248589e+002, 8.846934e-001
8.253410e+002, 9.867461e-001
8.258231e+002, 1.101490e+000
8.263052e+002, 1.130014e+000
8.267874e+002, 1.078448e+000
8.272695e+002, 1.016422e+000
8.277516e+002, 9.793364e-001
8.282337e+002, 9.647982e-001
8.287158e+002, 9.770239e-001
8.291979e+002, 1.009522e+000
8.296801e+002, 1.036276e+000
8.301622e+002, 1.054879e+000
8.306443e+002, 1.070510e+000
8.311264e+002, 1.088934e+000
8.316085e+002, 1.094298e+000
8.320906e+002, 1.051476e+000
8.325728e+002, 9.444094e-001
8.330549e+002, 9.090598e-001
8.335370e+002, 1.012080e+000
8.340191e+002, 1.091417e+000
8.345012e+002, 1.081408e+000
8.349833e+002, 1.058199e+000
8.354655e+002, 1.108873e+000
8.359476e+002, 1.210888e+000
8.364297e+002, 1.238396e+000
8.369118e+002, 1.096952e+000
8.373939e+002, 9.641000e-001
8.378760e+002, 9.363109e-001
8.383582e+002, 9.688628e-001
8.388403e+002, 1.041175e+000
8.393224e+002, 1.124914e+000
8.398045e+002, 1.150762e+000
8.402866e+002, 1.085684e+000
8.407687e+002, 9.909098e-001
8.412509e+002, 9.524538e-001
8.417330e+002, 9.596793e-001
8.422151e+002, 9.455961e-001
8.426972e+002, 9.064679e-001
8.431793e+002, 8.969492e-001
8.436614e+002, 9.469743e-001
8.441436e+002, 1.003863e+000
8.446257e+002, 1.000250e+000
8.451078e+002, 9.383522e-001
8.455899e+002, 9.160276e-001
8.460720e+002, 9.521378e-001
8.465541e+002, 1.001591e+000
8.470363e+002, 1.096250e+000
8.475184e+002, 1.168960e+000
8.480005e+002, 1.163810e+000
8.484826e+002, 1.106959e+000
8.489647e+002, 1.063686e+000
8.494468e+002, 1.057000e+000
8.499290e+002, 1.035386e+000
8.504111e+002, 9.291583e-001
8.508932e+002, 8.278524e-001
8.513753e+002, 8.473413e-001
8.518574e+002, 9.423777e-001
8.523395e+002, 1.004872e+000
8.528217e+002, 9.995881e-001
8.533038e+002, 9.444497e-001
8.537859e+002, 8.346552e-001
8.542680e+002, 7.079554e-001
8.547501e+002, 6.959919e-001
8.552322e+002, 7.985303e-001
8.557144e+002, 9.125033e-001
8.561965e+002, 1.025860e+000
8.566786e+002, 1.109434e+000
8.571607e+002, 1.137181e+000
8.576428e+002, 1.120937e+000
8.581249e+002, 1.096310e+000
8.586071e+002, 1.044640e+000
8.590892e+002, 1.025739e+000
8.595713e+002, 1.105870e+000
8.600534e+002, 1.140605e+000
8.605355e+002, 1.042273e+000
8.610176e+002, 8.916528e-001
8.614998e+002, 7.718089e-001
8.619819e+002, 6.956149e-001
8.624640e+002, 6.745706e-001
8.629461e+002, 7.548931e-001
8.634282e+002, 8.466669e-001
8.639103e+002, 8.881238e-001
8.643925e+002, 9.028751e-001
8.648746e+002, 9.288627e-001
8.653567e+002, 9.648525e-001
8.658388e+002, 9.768633e-001
8.663209e+002, 9.431379e-001
8.668030e+002, 8.925188e-001
8.672852e+002, 8.626090e-001
8.677673e+002, 8.540033e-001
8.682494e+002, 8.775552e-001
8.687315e+002, 9.350107e-001
8.692136e+002, 9.842390e-001
8.696957e+002, 1.006790e+000
8.701779e+002, 1.019060e+000
8.706600e+002, 1.048187e+000
8.711421e+002, 1.094857e+000
8.716242e+002, 1.081984e+000
8.721063e+002, 9.418928e-001
8.725884e+002, 8.615043e-001
8.730705e+002, 9.329479e-001
8.735526e+002, 1.016028e+000
8.740347e+002, 1.006295e+000
8.745168e+002, 9.462739e-001
8.749990e+002, 9.542769e-001
8.754811e+002, 1.086207e+000
8.759632e+002, 1.171762e+000
8.764453e+002, 1.124855e+000
8.769274e+002, 1.035899e+000
8.774095e+002, 9.454852e-001
8.778917e+002, 8.704761e-001
8.783738e+002, 8.347829e-001
8.788559e+002, 8.400362e-001
8.793380e+002, 8.558303e-001
8.798201e+002, 8.597345e-001
8.803022e+002, 8.592417e-001
8.807844e+002, 8.636940e-001
8.812665e+002, 8.743160e-001
8.817486e+002, 9.021271e-001
8.822307e+002, 9.470151e-001
8.827128e+002, 9.785213e-001
8.831949e+002, 9.767854e-001
8.836771e+002, 9.518490e-001
8.841592e+002, 9.206879e-001
8.846413e+002, 8.798739e-001
8.851234e+002, 8.598059e-001
8.856055e+002, 8.687239e-001
8.860876e+002, 8.780916e-001
8.865698e+002, 8.775359e-001
8.870519e+002, 8.736063e-001
8.875340e+002, 8.694422e-001
8.880161e+002, 8.661242e-001
8.884982e+002, 8.796732e-001
8.889803e+002, 9.372477e-001
8.894625e+002, 9.739660e-001
8.899446e+002, 9.631203e-001
8.904267e+002, 9.427996e-001
8.909088e+002, 9.343159e-001
8.913909e+002, 9.376972e-001
8.918730e+002, 9.592904e-001
8.923552e+002, 1.003265e+000
8.928373e+002, 1.009547e+000
8.933194e+002, 8.905001e-001
8.938015e+002, 7.560158e-001
8.942836e+002, 7.391593e-001
8.947657e+002, 7.941407e-001
8.952479e+002, 8.134977e-001
8.957300e+002, 7.804925e-001
8.962121e+002, 7.651991e-001
8.966942e+002, 8.266736e-001
8.971763e+002, 9.130872e-001
8.976584e+002, 8.967835e-001
8.981406e+002, 7.941292e-001
8.986227e+002, 7.860383e-001
8.991048e+002, 8.976543e-001
8.995869e+002, 9.941923e-001
9.000690e+002, 1.013569e+000
9.005511e+002, 9.809316e-001
9.010333e+002, 9.263474e-001
9.015154e+002, 8.473678e-001
9.019975e+002, 8.015205e-001
9.024796e+002, 7.909494e-001
9.029617e+002, 8.101260e-001
9.034438e+002, 8.958603e-001
9.039260e+002, 9.740708e-001
9.044081e+002, 9.950837e-001
9.048902e+002, 9.701613e-001
9.053723e+002, 9.271621e-001
9.058544e+002, 8.678658e-001
9.063365e+002, 7.940000e-001
9.068187e+002, 6.493307e-001
9.073008e+002, 5.504667e-001
9.077829e+002, 5.997476e-001
9.082650e+002, 7.222567e-001
9.087471e+002, 8.272846e-001
9.092292e+002, 8.922696e-001
9.097114e+002, 9.191303e-001
9.101935e+002, 8.949903e-001
9.106756e+002, 8.549258e-001
9.111577e+002, 8.268855e-001
9.116398e+002, 8.115966e-001
9.121219e+002, 8.193224e-001
9.126041e+002, 8.434414e-001
9.130862e+002, 8.453093e-001
9.135683e+002, 8.065337e-001
9.140504e+002, 7.776263e-001
9.145325e+002, 8.432542e-001
9.150146e+002, 9.799451e-001
9.154968e+002, 1.061236e+000
9.159789e+002, 1.087383e+000
9.164610e+002, 1.033423e+000
9.169431e+002, 8.727530e-001
9.174252e+002, 7.222130e-001
9.179073e+002, 6.779467e-001
9.183895e+002, 7.193161e-001
9.188716e+002, 7.780194e-001
9.193537e+002, 8.930611e-001
9.198358e+002, 9.209594e-001
9.203179e+002, 7.603158e-001
9.208000e+002, 6.582328e-001
9.212822e+002, 7.882249e-001
9.217643e+002, 9.761835e-001
9.222464e+002, 1.024882e+000
9.227285e+002, 9.370973e-001
9.232106e+002, 8.618945e-001
9.236927e+002, 8.094558e-001
9.241749e+002, 7.858053e-001
9.246570e+002, 8.083279e-001
9.251391e+002, 8.466038e-001
9.256212e+002, 8.796602e-001
9.261033e+002, 9.087288e-001
9.265854e+002, 9.518782e-001
9.270676e+002, 1.015876e+000
9.275497e+002, 1.039302e+000
9.280318e+002, 9.329492e-001
9.285139e+002, 8.098907e-001
9.289960e+002, 8.083007e-001
9.294781e+002, 8.675345e-001
9.299603e+002, 8.535524e-001
9.304424e+002, 7.581905e-001
9.309245e+002, 6.809990e-001
9.314066e+002, 6.851922e-001
9.318887e+002, 7.401729e-001
9.323708e+002, 8.178422e-001
9.328530e+002, 9.056833e-001
9.333351e+002, 9.526790e-001
9.338172e+002, 9.565111e-001
9.342993e+002, 9.122927e-001
9.347814e+002, 8.112633e-001
9.352635e+002, 7.421286e-001
9.357457e+002, 8.206779e-001
9.362278e+002, 1.004357e+000
9.367099e+002, 1.018228e+000
9.371920e+002, 7.994851e-001
9.376741e+002, 6.924816e-001
9.381563e+002, 7.747994e-001
9.386384e+002, 8.880515e-001
9.391205e+002, 9.638901e-001
9.396026e+002, 1.003262e+000
9.400847e+002, 1.004312e+000
9.405668e+002, 9.608589e-001
9.410490e+002, 9.157818e-001
9.415311e+002, 8.458258e-001
9.420132e+002, 8.058363e-001
9.424953e+002, 8.434110e-001
9.429774e+002, 8.807676e-001
9.434595e+002, 8.438758e-001
9.439417e+002, 7.630139e-001
9.444238e+002, 7.255862e-001
9.449059e+002, 7.614368e-001
9.453880e+002, 7.906841e-001
9.458701e+002, 7.664751e-001
9.463522e+002, 7.462187e-001
9.468344e+002, 7.808167e-001
9.473165e+002, 8.356591e-001
9.477986e+002, 8.620026e-001
9.482807e+002, 8.556288e-001
9.487628e+002, 8.417866e-001
9.492449e+002, 8.288146e-001
9.497271e+002, 8.263312e-001
9.502092e+002, 8.431059e-001
9.506913e+002, 8.764669e-001
9.511734e+002, 9.346127e-001
9.516555e+002, 1.005543e+000
9.521376e+002, 1.054785e+000
9.526198e+002, 1.070677e+000
9.531019e+002, 1.065291e+000
9.535840e+002, 1.048701e+000
9.540661e+002, 1.020905e+000
9.545482e+002, 9.770869e-001
9.550303e+002, 9.204036e-001
9.555124e+002, 8.697889e-001
9.559945e+002, 8.277429e-001
9.564766e+002, 7.984555e-001
9.569587e+002, 7.839460e-001
9.574409e+002, 7.836424e-001
9.579230e+002, 7.978051e-001
9.584051e+002, 8.263497e-001
9.588872e+002, 8.605122e-001
9.593693e+002, 9.050631e-001
9.598514e+002, 9.330980e-001
9.603336e+002, 9.310372e-001
9.608157e+002, 9.297487e-001
9.612978e+002, 9.567192e-001
9.617799e+002, 9.986794e-001
9.622620e+002, 1.017379e+000
9.627441e+002, 1.003713e+000
9.632263e+002, 9.948463e-001
9.637084e+002, 9.908047e-001
9.641905e+002, 9.916841e-001
9.646726e+002, 1.018571e+000
9.651547e+002, 1.033238e+000
9.656368e+002, 9.880335e-001
9.661190e+002, 8.985612e-001
9.666011e+002, 8.373639e-001
9.670832e+002, 8.131354e-001
9.675653e+002, 8.174707e-001
9.680474e+002, 8.669544e-001
9.685295e+002, 9.247736e-001
9.690117e+002, 9.877238e-001
9.694938e+002, 1.036025e+000
9.699759e+002, 1.038677e+000
9.704580e+002, 9.975424e-001
9.709401e+002, 9.522431e-001
9.714222e+002, 9.027236e-001
9.719044e+002, 8.818972e-001
9.723865e+002, 9.442650e-001
9.728686e+002, 1.019397e+000
9.733507e+002, 1.034159e+000
9.738328e+002, 9.972538e-001
9.743149e+002, 9.270219e-001
9.747971e+002, 8.367979e-001
9.752792e+002, 7.859185e-001
9.757613e+002, 8.436739e-001
9.762434e+002, 9.421310e-001
9.767255e+002, 9.996826e-001
9.772076e+002, 1.025373e+000
9.776898e+002, 1.036267e+000
9.781719e+002, 1.035731e+000
9.786540e+002, 1.018903e+000
9.791361e+002, 9.835790e-001
9.796182e+002, 9.575446e-001
9.801003e+002, 9.820083e-001
9.805825e+002, 1.041143e+000
9.810646e+002, 1.096668e+000
9.815467e+002, 1.142528e+000
9.820288e+002, 1.114759e+000
9.825109e+002, 1.001106e+000
9.829930e+002, 8.869424e-001
9.834752e+002, 8.263836e-001
9.839573e+002, 8.066490e-001
9.844394e+002, 8.073922e-001
9.849215e+002, 8.287057e-001
9.854036e+002, 8.533501e-001
9.858857e+002, 8.813491e-001
9.863679e+002, 9.167954e-001
9.868500e+002, 9.692803e-001
9.873321e+002, 9.992788e-001
9.878142e+002, 9.621515e-001
9.882963e+002, 8.894806e-001
9.887784e+002, 8.830941e-001
9.892606e+002, 9.619033e-001
9.897427e+002, 1.046235e+000
9.902248e+002, 1.178218e+000
9.907069e+002, 1.229230e+000
9.911890e+002, 1.091747e+000
9.916711e+002, 9.320247e-001
9.921533e+002, 9.233881e-001
9.926354e+002, 1.037272e+000
9.931175e+002, 1.104436e+000
9.935996e+002, 1.113756e+000
9.940817e+002, 1.096489e+000
9.945638e+002, 1.018091e+000
9.950460e+002, 9.549214e-001
9.955281e+002, 9.497485e-001
9.960102e+002, 9.652489e-001
9.964923e+002, 9.572201e-001
9.969744e+002, 9.287151e-001
9.974565e+002, 9.195920e-001
9.979387e+002, 9.563541e-001
9.984208e+002, 9.812012e-001
9.989029e+002, 9.701272e-001
9.993850e+002, 9.527104e-001
9.998671e+002, 9.445578e-001
1.000349e+003, 9.433421e-001
1.000831e+003, 9.450057e-001
1.001313e+003, 9.485186e-001
1.001796e+003, 9.520431e-001
1.002278e+003, 9.475441e-001
1.002760e+003, 9.539859e-001
1.003242e+003, 1.001594e+000
1.003724e+003, 1.047512e+000
1.004206e+003, 1.053094e+000
1.004688e+003, 1.025015e+000
1.005170e+003, 9.688008e-001
1.005653e+003, 8.931978e-001
1.006135e+003, 8.525559e-001
1.006617e+003, 8.995529e-001
1.007099e+003, 9.708375e-001
1.007581e+003, 1.012144e+000
1.008063e+003, 1.037012e+000
1.008545e+003, 1.076413e+000
1.009027e+003, 1.116083e+000
1.009509e+003, 1.094015e+000
1.009992e+003, 9.956124e-001
1.010474e+003, 9.173352e-001
1.010956e+003, 9.635050e-001
1.011438e+003, 1.057532e+000
1.011920e+003, 1.095002e+000
1.012402e+003, 1.086602e+000
1.012884e+003, 1.039628e+000
1.013366e+003, 9.690300e-001
1.013849e+003, 9.257680e-001
1.014331e+003, 9.320876e-001
1.014813e+003, 9.747371e-001
1.015295e+003, 1.067083e+000
1.015777e+003, 1.162473e+000
1.016259e+003, 1.110290e+000
1.016741e+003, 9.494123e-001
1.017223e+003, 8.672972e-001
1.017705e+003, 8.874334e-001
1.018188e+003, 9.357839e-001
1.018670e+003, 9.763517e-001
1.019152e+003, 9.917603e-001
1.019634e+003, 9.433442e-001
1.020116e+003, 8.533236e-001
1.020598e+003, 8.498514e-001
1.021080e+003, 9.276108e-001
1.021562e+003, 9.224790e-001
1.022044e+003, 7.997668e-001
1.022527e+003, 7.245742e-001
1.023009e+003, 8.021582e-001
1.023491e+003, 9.277347e-001
1.023973e+003, 9.206514e-001
1.024455e+003, 7.932485e-001
1.024937e+003, 7.678153e-001
1.025419e+003, 8.624203e-001
1.025901e+003, 8.980763e-001
1.026384e+003, 8.271832e-001
1.026866e+003, 7.627173e-001
1.027348e+003, 7.796695e-001
1.027830e+003, 8.357455e-001
1.028312e+003, 8.525659e-001
1.028794e+003, 8.284892e-001
1.029276e+003, 8.098000e-001
1.029758e+003, 8.018845e-001
1.030240e+003, 7.756093e-001
1.030723e+003, 7.083588e-001
1.031205e+003, 6.636437e-001
1.031687e+003, 6.919729e-001
1.032169e+003, 7.603187e-001
1.032651e+003, 8.026112e-001
1.033133e+003, 8.162893e-001
1.033615e+003, 8.249547e-001
1.034097e+003, 8.285983e-001
1.034579e+003, 8.261082e-001
1.035062e+003, 8.071851e-001
1.035544e+003, 7.980409e-001
1.036026e+003, 8.255324e-001
1.036508e+003, 8.687314e-001
1.036990e+003, 8.795303e-001
1.037472e+003, 8.469843e-001
1.037954e+003, 8.440990e-001
1.038436e+003, 8.999835e-001
1.038919e+003, 9.387115e-001
1.039401e+003, 9.388323e-001
1.039883e+003, 9.273353e-001
1.040365e+003, 9.192671e-001
1.040847e+003, 9.123256e-001
1.041329e+003, 9.022481e-001
1.041811e+003, 8.893747e-001
1.042293e+003, 8.714864e-001
1.042776e+003, 8.185921e-001
1.043258e+003, 8.026838e-001
1.043740e+003, 8.741801e-001
1.044222e+003, 9.494746e-001
1.044704e+003, 9.738929e-001
1.045186e+003, 9.641323e-001
1.045668e+003, 9.596501e-001
1.046150e+003, 9.696362e-001
1.046632e+003, 9.362277e-001
1.047115e+003, 7.537691e-001
1.047597e+003, 6.647813e-001
1.048079e+003, 8.397447e-001
1.048561e+003, 1.018743e+000
1.049043e+003, 9.864605e-001
1.049525e+003, 8.435227e-001
1.050007e+003, 8.035650e-001
1.050489e+003, 9.028338e-001
1.050971e+003, 9.493096e-001
1.051454e+003, 8.572381e-001
1.051936e+003, 7.742827e-001
1.052418e+003, 7.344761e-001
1.052900e+003, 7.282441e-001
1.053382e+003, 7.819647e-001
1.053864e+003, 8.502719e-001
1.054346e+003, 8.387606e-001
1.054828e+003, 7.314746e-001
1.055311e+003, 6.697544e-001
1.055793e+003, 7.423334e-001
1.056275e+003, 7.964706e-001
1.056757e+003, 7.430116e-001
1.057239e+003, 6.880320e-001
1.057721e+003, 7.309683e-001
1.058203e+003, 8.211288e-001
1.058685e+003, 8.689245e-001
1.059167e+003, 8.598498e-001
1.059650e+003, 8.171230e-001
1.060132e+003, 6.642608e-001
1.060614e+003, 5.924444e-001
1.061096e+003, 7.696860e-001
1.061578e+003, 9.615893e-001
1.062060e+003, 9.736938e-001
1.062542e+003, 8.828067e-001
1.063024e+003, 8.227417e-001
1.063506e+003, 8.172600e-001
1.063989e+003, 8.450545e-001
1.064471e+003, 9.646115e-001
1.064953e+003, 1.022049e+000
1.065435e+003, 8.877106e-001
1.065917e+003, 7.330670e-001
1.066399e+003, 6.896725e-001
1.066881e+003, 7.146310e-001
1.067363e+003, 7.308589e-001
1.067846e+003, 7.275998e-001
1.068328e+003, 7.379103e-001
1.068810e+003, 7.887472e-001
1.069292e+003, 8.295822e-001
1.069774e+003, 8.158162e-001
1.070256e+003, 8.059441e-001
1.070738e+003, 8.674864e-001
1.071220e+003, 9.478257e-001
1.071703e+003, 9.692504e-001
1.072185e+003, 9.265467e-001
1.072667e+003, 8.647453e-001
1.073149e+003, 7.803896e-001
1.073631e+003, 7.253619e-001
1.074113e+003, 7.370496e-001
1.074595e+003, 7.730375e-001
1.075077e+003, 8.157140e-001
1.075559e+003, 8.555647e-001
1.076042e+003, 8.863611e-001
1.076524e+003, 9.054639e-001
1.077006e+003, 9.042531e-001
1.077488e+003, 8.677396e-001
1.077970e+003, 8.498709e-001
1.078452e+003, 9.153875e-001
1.078934e+003, 9.644704e-001
1.079416e+003, 8.951874e-001
1.079898e+003, 7.950991e-001
1.080380e+003, 7.778463e-001
1.080863e+003, 8.323096e-001
1.081345e+003, 8.784376e-001
1.081827e+003, 8.954565e-001
1.082309e+003, 8.833855e-001
1.082791e+003, 7.968518e-001
1.083273e+003, 7.338871e-001
1.083755e+003, 7.842634e-001
1.084237e+003, 8.665168e-001
1.084720e+003, 8.787373e-001
1.085202e+003, 8.463145e-001
1.085684e+003, 8.723761e-001
1.086166e+003, 9.930847e-001
1.086648e+003, 1.075533e+000
1.087130e+003, 1.039493e+000
1.087612e+003, 9.810356e-001
1.088094e+003, 9.498674e-001
1.088577e+003, 9.191894e-001
1.089059e+003, 8.406459e-001
1.089541e+003, 7.485905e-001
1.090023e+003, 7.263567e-001
1.090505e+003, 7.910528e-001
1.090987e+003, 8.479922e-001
1.091469e+003, 8.459350e-001
1.091951e+003, 8.502510e-001
1.092433e+003, 9.227353e-001
1.092916e+003, 9.797619e-001
1.093398e+003, 9.280970e-001
1.093880e+003, 8.264204e-001
1.094362e+003, 7.790499e-001
1.094844e+003, 7.984484e-001
1.095326e+003, 8.206197e-001
1.095808e+003, 8.272900e-001
1.096290e+003, 8.312148e-001
1.096772e+003, 8.262017e-001
1.097255e+003, 8.308520e-001
1.097737e+003, 8.896621e-001
1.098219e+003, 9.453908e-001
1.098701e+003, 8.998053e-001
1.099183e+003, 7.657936e-001
1.099665e+003, 6.833169e-001
1.100147e+003, 7.122673e-001
1.100629e+003, 7.362610e-001
1.101112e+003, 7.072344e-001
1.101594e+003, 6.881450e-001
1.102076e+003, 7.096871e-001
1.102558e+003, 7.570248e-001
1.103040e+003, 8.313383e-001
1.103522e+003, 9.167008e-001
1.104004e+003, 9.590212e-001
1.104486e+003, 9.353558e-001
1.104969e+003, 9.176157e-001
1.105451e+003, 9.203015e-001
1.105933e+003, 9.283649e-001
1.106415e+003, 9.534951e-001
1.106897e+003, 9.665283e-001
1.107379e+003, 9.432338e-001
1.107861e+003, 8.898575e-001
1.108343e+003, 8.115104e-001
1.108825e+003, 6.923839e-001
1.109307e+003, 6.422221e-001
1.109790e+003, 7.330314e-001
1.110272e+003, 8.045371e-001
1.110754e+003, 8.047169e-001
1.111236e+003, 7.979702e-001
1.111718e+003, 8.413404e-001
1.112200e+003, 8.943310e-001
1.112682e+003, 8.681631e-001
1.113164e+003, 7.540733e-001
1.113647e+003, 7.360528e-001
1.114129e+003, 9.309139e-001
1.114611e+003, 1.026142e+000
1.115093e+003, 9.239109e-001
1.115575e+003, 8.243281e-001
1.116057e+003, 8.192140e-001
1.116539e+003, 8.514902e-001
1.117021e+003, 8.510069e-001
1.117504e+003, 8.265148e-001
1.117986e+003, 8.478506e-001
1.118468e+003, 9.673985e-001
1.118950e+003, 1.002356e+000
1.119432e+003, 8.954883e-001
1.119914e+003, 8.178324e-001
1.120396e+003, 8.398989e-001
1.120878e+003, 8.810129e-001
1.121360e+003, 8.748695e-001
1.121843e+003, 8.323095e-001
1.122325e+003, 7.781478e-001
1.122807e+003, 6.992940e-001
1.123289e+003, 6.986008e-001
1.123771e+003, 8.107229e-001
1.124253e+003, 8.815867e-001
1.124735e+003, 8.727207e-001
1.125217e+003, 8.336868e-001
1.125699e+003, 7.929784e-001
1.126182e+003, 7.450247e-001
1.126664e+003, 6.697626e-001
1.127146e+003, 5.733239e-001
1.127628e+003, 5.860968e-001
1.128110e+003, 7.259468e-001
1.128592e+003, 8.129560e-001
1.129074e+003, 8.211563e-001
1.129556e+003, 7.832752e-001
1.130039e+003, 7.037552e-001
1.130521e+003, 6.492752e-001
1.131003e+003, 7.097380e-001
1.131485e+003, 8.355984e-001
1.131967e+003, 8.293626e-001
1.132449e+003, 7.025985e-001
1.132931e+003, 6.698916e-001
1.133413e+003, 7.414751e-001
1.133896e+003, 8.309277e-001
1.134378e+003, 9.116450e-001
1.134860e+003, 9.465826e-001
1.135342e+003, 8.998493e-001
1.135824e+003, 8.278600e-001
1.136306e+003, 8.373638e-001
1.136788e+003, 9.087012e-001
1.137270e+003, 9.864222e-001
1.137752e+003, 1.057196e+000
1.138234e+003, 1.044286e+000
1.138717e+003, 9.483855e-001
1.139199e+003, 8.787321e-001
1.139681e+003, 8.911235e-001
1.140163e+003, 9.367639e-001
1.140645e+003, 9.742245e-001
1.141127e+003, 9.961044e-001
1.141609e+003, 9.851096e-001
1.142091e+003, 9.499564e-001
1.142574e+003, 8.905265e-001
1.143056e+003, 8.262022e-001
1.143538e+003, 8.265944e-001
1.144020e+003, 9.034954e-001
1.144502e+003, 9.634457e-001
1.144984e+003, 9.372452e-001
1.145466e+003, 8.746210e-001
1.145948e+003, 7.988905e-001
1.146431e+003, 7.401346e-001
1.146913e+003, 7.564434e-001
1.147395e+003, 8.096711e-001
1.147877e+003, 8.211943e-001
1.148359e+003, 7.905791e-001
1.148841e+003, 7.870191e-001
1.149323e+003, 8.487917e-001
1.149805e+003, 8.835631e-001
1.150287e+003, 8.041838e-001
1.150770e+003, 7.098313e-001
1.151252e+003, 6.632707e-001
1.151734e+003, 6.468636e-001
1.152216e+003, 6.378689e-001
1.152698e+003, 6.413234e-001
1.153180e+003, 6.822702e-001
1.153662e+003, 7.655581e-001
1.154144e+003, 8.314415e-001
1.154626e+003, 8.470291e-001
1.155109e+003, 8.607931e-001
1.155591e+003, 9.079471e-001
1.156073e+003, 9.370350e-001
1.156555e+003, 8.940800e-001
1.157037e+003, 8.284826e-001
1.157519e+003, 8.039224e-001
1.158001e+003, 8.198746e-001
1.158483e+003, 8.433056e-001
1.158966e+003, 8.903370e-001
1.159448e+003, 9.036868e-001
1.159930e+003, 8.370793e-001
1.160412e+003, 7.956704e-001
1.160894e+003, 8.354495e-001
1.161376e+003, 8.767227e-001
1.161858e+003, 8.400818e-001
1.162340e+003, 7.759603e-001
1.162822e+003, 8.062447e-001
1.163305e+003, 9.471248e-001
1.163787e+003, 1.004267e+000
1.164269e+003, 9.455063e-001
1.164751e+003, 8.967634e-001
1.165233e+003, 8.787060e-001
1.165715e+003, 8.587421e-001
1.166197e+003, 8.194315e-001
1.166679e+003, 7.752808e-001
1.167161e+003, 7.393584e-001
1.167644e+003, 7.170125e-001
1.168126e+003, 7.393236e-001
1.168608e+003, 8.088118e-001
1.169090e+003, 8.473758e-001
1.169572e+003, 8.517371e-001
1.170054e+003, 8.034496e-001
1.170536e+003, 6.953147e-001
1.171018e+003, 6.417229e-001
1.171500e+003, 7.283230e-001
1.171983e+003, 8.650491e-001
1.172465e+003, 9.087764e-001
1.172947e+003, 8.840694e-001
1.173429e+003, 8.594852e-001
1.173911e+003, 8.405094e-001
1.174393e+003, 8.634518e-001
1.174875e+003, 9.179104e-001
1.175357e+003, 9.258200e-001
1.175840e+003, 8.615317e-001
1.176322e+003, 7.935569e-001
1.176804e+003, 7.755546e-001
1.177286e+003, 7.877874e-001
1.177768e+003, 8.181565e-001
1.178250e+003, 8.539631e-001
1.178732e+003, 8.887283e-001
1.179214e+003, 9.090960e-001
1.179697e+003, 8.746547e-001
1.180179e+003, 7.991616e-001
1.180661e+003, 7.605811e-001
1.181143e+003, 7.938293e-001
1.181625e+003, 8.433657e-001
1.182107e+003, 9.102493e-001
1.182589e+003, 9.402437e-001
1.183071e+003, 8.652074e-001
1.183553e+003, 7.652976e-001
1.184036e+003, 7.167419e-001
1.184518e+003, 7.021630e-001
1.185000e+003, 6.619682e-001
1.185482e+003, 5.933467e-001
1.185964e+003, 5.979062e-001
1.186446e+003, 7.795410e-001
1.186928e+003, 9.046119e-001
1.187410e+003, 9.002459e-001
1.187892e+003, 8.746151e-001
1.188375e+003, 8.700791e-001
1.188857e+003, 8.665326e-001
1.189339e+003, 8.397872e-001
1.189821e+003, 8.000556e-001
1.190303e+003, 7.747745e-001
1.190785e+003, 7.607883e-001
1.191267e+003, 7.844489e-001
1.191749e+003, 8.710324e-001
1.192232e+003, 9.218811e-001
1.192714e+003, 9.126390e-001
1.193196e+003, 8.932479e-001
1.193678e+003, 8.917997e-001
1.194160e+003, 8.796484e-001
1.194642e+003, 8.123769e-001
1.195124e+003, 7.166966e-001
1.195606e+003, 7.064472e-001
1.196089e+003, 7.780226e-001
1.196571e+003, 8.433991e-001
1.197053e+003, 8.973840e-001
1.197535e+003, 9.281734e-001
1.198017e+003, 9.331557e-001
1.198499e+003, 9.236911e-001
1.198981e+003, 9.068877e-001
1.199463e+003, 8.770612e-001
1.199945e+003, 8.099952e-001
1.200427e+003, 7.377306e-001
1.200910e+003, 7.352561e-001
1.201392e+003, 7.730100e-001
1.201874e+003, 7.919978e-001
1.202356e+003, 7.878009e-001
1.202838e+003, 7.616646e-001
1.203320e+003, 7.209600e-001
1.203802e+003, 7.112656e-001
1.204284e+003, 7.779856e-001
1.204767e+003, 8.255364e-001
1.205249e+003, 7.458475e-001
1.205731e+003, 6.552686e-001
1.206213e+003, 6.444622e-001
1.206695e+003, 6.842743e-001
1.207177e+003, 7.645109e-001
1.207659e+003, 8.527263e-001
1.208141e+003, 8.735412e-001
1.208624e+003, 8.075094e-001
1.209106e+003, 7.585002e-001
1.209588e+003, 7.829939e-001
1.210070e+003, 7.794560e-001
1.210552e+003, 6.608520e-001
1.211034e+003, 5.876353e-001
1.211516e+003, 6.705021e-001
1.211998e+003, 8.122081e-001
1.212480e+003, 9.423562e-001
1.212963e+003, 1.045984e+000
1.213445e+003, 1.060627e+000
1.213927e+003, 9.712330e-001
1.214409e+003, 8.586668e-001
1.214891e+003, 7.008128e-001
1.215373e+003, 6.132346e-001
1.215855e+003, 6.272168e-001
1.216337e+003, 6.680411e-001
1.216819e+003, 6.981909e-001
1.217302e+003, 7.273059e-001
1.217784e+003, 7.696589e-001
1.218266e+003, 8.160326e-001
1.218748e+003, 8.351657e-001
1.219230e+003, 8.319654e-001
1.219712e+003, 8.203055e-001
1.220194e+003, 8.089473e-001
1.220676e+003, 8.683094e-001
1.221159e+003, 9.886835e-001
1.221641e+003, 9.861205e-001
1.222123e+003, 7.555019e-001
1.222605e+003, 5.229590e-001
1.223087e+003, 5.517890e-001
1.223569e+003, 6.624916e-001
1.224051e+003, 6.393184e-001
1.224533e+003, 5.805867e-001
1.225016e+003, 6.455391e-001
1.225498e+003, 7.665118e-001
1.225980e+003, 7.573580e-001
1.226462e+003, 6.223513e-001
1.226944e+003, 6.009350e-001
1.227426e+003, 8.460208e-001
1.227908e+003, 1.001581e+000
1.228390e+003, 8.697757e-001
1.228872e+003, 7.233057e-001
1.229354e+003, 6.264334e-001
1.229837e+003, 6.083196e-001
1.230319e+003, 7.694904e-001
1.230801e+003, 9.823892e-001
1.231283e+003, 1.007040e+000
1.231765e+003, 8.505040e-001
1.232247e+003, 7.544855e-001
1.232729e+003, 7.265020e-001
1.233211e+003, 7.461933e-001
1.233694e+003, 8.407534e-001
1.234176e+003, 8.745593e-001
1.234658e+003, 7.918535e-001
1.235140e+003, 7.073228e-001
1.235622e+003, 7.048907e-001
1.236104e+003, 7.442005e-001
1.236586e+003, 7.535238e-001
1.237068e+003, 7.466721e-001
1.237551e+003, 7.973059e-001
1.238033e+003, 8.851808e-001
1.238515e+003, 9.211946e-001
1.238997e+003, 9.020421e-001
1.239479e+003, 8.465360e-001
1.239961e+003, 7.712711e-001
1.240443e+003, 7.445291e-001
1.240925e+003, 8.200799e-001
1.241407e+003, 9.028418e-001
1.241890e+003, 9.041842e-001
1.242372e+003, 8.657448e-001
1.242854e+003, 8.007721e-001
1.243336e+003, 7.422374e-001
1.243818e+003, 7.486022e-001
1.244300e+003, 7.848866e-001
1.244782e+003, 7.547549e-001
1.245264e+003, 6.517116e-001
1.245746e+003, 6.117288e-001
1.246229e+003, 7.218419e-001
1.246711e+003, 8.012117e-001
1.247193e+003, 8.080364e-001
1.247675e+003, 7.947074e-001
1.248157e+003, 7.681808e-001
1.248639e+003, 7.394838e-001
1.249121e+003, 7.051777e-001
1.249603e+003, 6.853737e-001
1.250085e+003, 7.256197e-001
1.250568e+003, 8.198210e-001
1.251050e+003, 8.591489e-001
1.251532e+003, 8.385836e-001
1.252014e+003, 8.084695e-001
1.252496e+003, 7.708083e-001
1.252978e+003, 7.887594e-001
1.253460e+003, 8.807889e-001
1.253942e+003, 9.447187e-001
1.254425e+003, 9.076224e-001
1.254907e+003, 8.341492e-001
1.255389e+003, 8.131994e-001
1.255871e+003, 8.184757e-001
1.256353e+003, 8.066062e-001
1.256835e+003, 7.810346e-001
1.257317e+003, 7.414936e-001
1.257799e+003, 6.962336e-001
1.258281e+003, 6.543874e-001
1.258764e+003, 6.237177e-001
1.259246e+003, 6.319552e-001
1.259728e+003, 7.061134e-001
1.260210e+003, 7.617129e-001
1.260692e+003, 7.546405e-001
1.261174e+003, 7.262004e-001
1.261656e+003, 6.561444e-001
1.262138e+003, 6.126903e-001
1.262620e+003, 6.816910e-001
1.263103e+003, 7.913639e-001
1.263585e+003, 8.237418e-001
1.264067e+003, 7.869671e-001
1.264549e+003, 7.537180e-001
1.265031e+003, 7.317067e-001
1.265513e+003, 6.757363e-001
1.265995e+003, 5.611881e-001
1.266477e+003, 5.363358e-001
1.266960e+003, 6.485900e-001
1.267442e+003, 7.510679e-001
1.267924e+003, 7.598737e-001
1.268406e+003, 7.418281e-001
1.268888e+003, 7.797421e-001
1.269370e+003, 8.428553e-001
1.269852e+003, 8.632088e-001
1.270334e+003, 8.508015e-001
1.270817e+003, 8.177759e-001
1.271299e+003, 7.779162e-001
1.271781e+003, 7.689203e-001
1.272263e+003, 7.871561e-001
1.272745e+003, 8.031178e-001
1.273227e+003, 8.055370e-001
1.273709e+003, 7.547110e-001
1.274191e+003, 5.281810e-001
1.274673e+003, 3.798229e-001
1.275156e+003, 5.160592e-001
1.275638e+003, 6.816249e-001
1.276120e+003, 7.144356e-001
1.276602e+003, 6.779895e-001
1.277084e+003, 6.257611e-001
1.277566e+003, 5.779858e-001
1.278048e+003, 5.960664e-001
1.278530e+003, 6.959625e-001
1.279012e+003, 7.017751e-001
1.279495e+003, 5.605307e-001
1.279977e+003, 5.312648e-001
1.280459e+003, 6.674379e-001
1.280941e+003, 7.689758e-001
1.281423e+003, 7.585101e-001
1.281905e+003, 7.459524e-001
1.282387e+003, 8.223243e-001
1.282869e+003, 9.264998e-001
1.283352e+003, 6.942108e-001
1.283834e+003, 5.492200e-001
1.284316e+003, 1.400861e+000
1.284798e+003, 3.250395e+000
##END=



