##NAMES=Monticellite
##RRUFFID=R100106
##IDEAL CHEMISTRY=CaMgSiO_4_
##LOCALITY=Crestmore, Riverside County, California, USA
##OWNER=RRUFF
##SOURCE=American Museum of Natural History
##DESCRIPTION=Colorless to light gray translucent crystals associated with pale yellow vesuvianite
##STATUS=The identification of this mineral is confirmed by single-crystal X-ray diffraction and chemical analysis.
##URL=rruff.info/R100106
##MEASURED CHEMISTRY=(Ca_1.017_Mg_0.916_Fe^+2^_0.070_Mn^+2^_0.006_Zn_0.001_)_Î£=2.010_Si_0.995_O_4_
90.01007, 0.0000000E+00
90.49219, 19.16655
90.97430, 18.25348
91.45642, 17.92942
91.93854, 18.62277
92.42065, 19.78203
92.90277, 20.63568
93.38489, 21.13701
93.86700, 21.36377
94.34912, 21.34151
94.83124, 21.09284
95.31335, 20.74377
95.79547, 20.35117
96.27759, 19.91836
96.75970, 19.41028
97.24182, 18.76358
97.72394, 18.11807
98.20605, 17.80722
98.68817, 17.85841
99.17029, 18.01951
99.65240, 18.13632
100.1345, 18.21293
100.6166, 18.18188
101.0988, 18.03048
101.5809, 17.75981
102.0630, 17.31815
102.5451, 16.57658
103.0272, 15.88599
103.5093, 15.66184
103.9915, 16.05351
104.4736, 16.54188
104.9557, 17.08070
105.4378, 17.76299
105.9199, 17.95227
106.4020, 17.47040
106.8842, 16.58525
107.3663, 15.72072
107.8484, 14.69665
108.3305, 13.91234
108.8126, 13.54383
109.2947, 13.97942
109.7769, 14.18343
110.2590, 13.82485
110.7411, 13.17667
111.2232, 13.09630
111.7053, 14.48320
112.1874, 15.81890
112.6696, 16.41072
113.1517, 15.14396
113.6338, 14.26016
114.1159, 14.35567
114.5980, 15.26535
115.0801, 15.79754
115.5623, 15.22597
116.0444, 14.38318
116.5265, 13.91462
117.0086, 14.34352
117.4907, 14.85854
117.9728, 15.30180
118.4550, 15.67272
118.9371, 15.59349
119.4192, 14.08832
119.9013, 12.21089
120.3834, 11.33038
120.8655, 13.19285
121.3477, 15.49990
121.8298, 16.52287
122.3119, 15.96982
122.7940, 15.03317
123.2761, 14.39267
123.7582, 13.98734
124.2404, 13.68139
124.7225, 13.44675
125.2046, 13.25512
125.6867, 13.02519
126.1688, 12.66275
126.6509, 12.45725
127.1331, 12.98136
127.6152, 14.06957
128.0973, 14.89931
128.5794, 14.49042
129.0615, 13.39275
129.5436, 12.94637
130.0258, 13.58467
130.5079, 14.85081
130.9900, 16.19096
131.4721, 17.59328
131.9542, 18.60593
132.4363, 18.32295
132.9185, 17.01589
133.4006, 16.60849
133.8827, 17.94925
134.3648, 20.52004
134.8469, 22.49164
135.3290, 23.75147
135.8112, 24.91249
136.2933, 26.73091
136.7754, 29.26024
137.2575, 31.71124
137.7396, 33.65784
138.2217, 35.09802
138.7039, 37.32746
139.1860, 40.50903
139.6681, 44.23297
140.1502, 47.94165
140.6323, 51.53069
141.1144, 55.33018
141.5966, 59.54063
142.0787, 64.25994
142.5608, 68.88196
143.0429, 73.46025
143.5250, 77.90257
144.0071, 82.00331
144.4893, 85.83224
144.9714, 89.14690
145.4535, 91.63811
145.9356, 92.39438
146.4177, 94.25163
146.8998, 97.79383
147.3820, 102.5384
147.8641, 106.6336
148.3462, 109.6582
148.8283, 112.3787
149.3104, 115.1889
149.7925, 117.2637
150.2747, 120.5018
150.7568, 125.3956
151.2389, 131.7980
151.7210, 137.9819
152.2031, 143.9734
152.6852, 149.6708
153.1674, 155.0767
153.6495, 159.7927
154.1316, 164.5804
154.6137, 169.5772
155.0958, 174.7892
155.5779, 179.9753
156.0601, 185.6857
156.5422, 191.1138
157.0243, 195.4986
157.5064, 197.8306
157.9885, 199.9234
158.4706, 202.1853
158.9528, 204.6333
159.4349, 207.3436
159.9170, 210.3877
160.3991, 213.6895
160.8812, 217.1611
161.3633, 220.5739
161.8455, 224.3141
162.3276, 228.5732
162.8097, 233.3340
163.2918, 238.5048
163.7739, 244.5182
164.2560, 250.5521
164.7382, 254.1575
165.2203, 256.7645
165.7024, 258.4084
166.1845, 258.5367
166.6666, 256.6912
167.1487, 254.7328
167.6309, 253.2308
168.1130, 252.3133
168.5951, 252.2881
169.0772, 253.4650
169.5593, 255.4570
170.0414, 257.9790
170.5236, 261.0590
171.0057, 264.4644
171.4878, 268.7982
171.9699, 273.5456
172.4520, 277.0381
172.9341, 279.1128
173.4163, 279.2296
173.8984, 276.4146
174.3805, 269.3155
174.8626, 261.1519
175.3447, 254.3878
175.8268, 248.9283
176.3090, 244.3902
176.7911, 240.7331
177.2732, 237.8038
177.7553, 235.3944
178.2374, 233.4248
178.7195, 231.9560
179.2017, 231.2605
179.6838, 231.2630
180.1659, 231.3397
180.6480, 230.8785
181.1301, 230.1213
181.6122, 229.6273
182.0944, 229.5991
182.5765, 229.8846
183.0586, 230.3373
183.5407, 230.9470
184.0228, 231.4722
184.5049, 231.3912
184.9871, 230.9579
185.4692, 231.1628
185.9513, 232.9722
186.4334, 235.3770
186.9155, 235.7050
187.3976, 233.8122
187.8798, 231.5196
188.3619, 230.7143
188.8440, 231.2037
189.3261, 231.8192
189.8082, 232.1973
190.2903, 232.3991
190.7725, 232.6335
191.2546, 232.9014
191.7367, 233.2125
192.2188, 233.5908
192.7009, 234.0364
193.1830, 234.4918
193.6652, 234.7603
194.1473, 234.9587
194.6294, 236.0697
195.1115, 238.3550
195.5936, 240.6830
196.0757, 241.5101
196.5579, 240.8062
197.0400, 239.6091
197.5221, 237.9995
198.0042, 236.0554
198.4863, 235.0149
198.9684, 235.0328
199.4506, 235.6283
199.9327, 236.1604
200.4148, 236.6316
200.8969, 237.0457
201.3790, 237.4055
201.8611, 237.7083
202.3433, 237.9363
202.8254, 238.0417
203.3075, 238.1411
203.7896, 238.3532
204.2717, 238.6201
204.7538, 239.2607
205.2360, 240.7466
205.7181, 243.2988
206.2002, 244.5100
206.6823, 244.0015
207.1644, 242.6117
207.6465, 241.8385
208.1287, 241.7635
208.6108, 242.0377
209.0929, 242.5893
209.5750, 243.4937
210.0571, 244.2878
210.5392, 244.9290
211.0214, 245.5133
211.5035, 246.2742
211.9856, 247.2953
212.4677, 248.2567
212.9498, 248.9821
213.4319, 249.3841
213.9140, 249.8902
214.3962, 250.4853
214.8783, 251.1996
215.3604, 252.1418
215.8425, 253.4575
216.3246, 254.6815
216.8067, 255.5804
217.2889, 256.0287
217.7710, 256.6276
218.2531, 257.7543
218.7352, 258.8398
219.2173, 258.3327
219.6994, 255.3843
220.1816, 252.4482
220.6637, 250.6153
221.1458, 250.2235
221.6279, 249.9585
222.1100, 249.7764
222.5921, 249.7217
223.0743, 249.9185
223.5564, 250.4266
224.0385, 251.0934
224.5206, 251.8806
225.0027, 252.9294
225.4848, 253.7382
225.9670, 254.1392
226.4491, 254.3459
226.9312, 254.9436
227.4133, 256.0781
227.8954, 257.3629
228.3775, 258.6272
228.8597, 259.9750
229.3418, 261.0623
229.8239, 261.7457
230.3060, 262.1945
230.7881, 262.9098
231.2702, 264.1781
231.7524, 265.2741
232.2345, 265.8279
232.7166, 265.5983
233.1987, 265.3904
233.6808, 265.1830
234.1629, 265.0065
234.6451, 264.9680
235.1272, 265.2243
235.6093, 265.3983
236.0914, 265.2189
236.5735, 264.1325
237.0556, 264.0337
237.5378, 265.3651
238.0199, 267.5646
238.5020, 269.1049
238.9841, 269.2876
239.4662, 269.8813
239.9483, 271.7343
240.4305, 275.4542
240.9126, 278.9842
241.3947, 282.4193
241.8768, 285.6320
242.3589, 288.2255
242.8410, 289.7106
243.3232, 291.3095
243.8053, 293.6295
244.2874, 297.3114
244.7695, 300.1342
245.2516, 301.8276
245.7337, 302.7878
246.2159, 303.8094
246.6980, 304.5810
247.1801, 305.9141
247.6622, 308.2183
248.1443, 311.8833
248.6264, 315.4521
249.1086, 318.8488
249.5907, 322.2138
250.0728, 325.9283
250.5549, 330.4737
251.0370, 334.5453
251.5191, 337.3311
252.0013, 337.8573
252.4834, 340.3128
252.9655, 345.1640
253.4476, 351.6223
253.9297, 358.2050
254.4118, 364.4884
254.8940, 371.5414
255.3761, 379.8891
255.8582, 389.9579
256.3403, 399.8179
256.8224, 409.6032
257.3046, 419.0917
257.7867, 428.1890
258.2688, 438.4884
258.7509, 445.2907
259.2330, 447.3804
259.7151, 445.0158
260.1973, 436.1155
260.6794, 418.6935
261.1615, 396.8882
261.6436, 376.7076
262.1257, 357.7197
262.6078, 340.9921
263.0900, 327.0643
263.5721, 315.8978
264.0542, 306.7374
264.5363, 299.5654
265.0184, 294.3022
265.5005, 291.0029
265.9827, 290.4411
266.4648, 289.6343
266.9469, 287.5384
267.4290, 284.1120
267.9111, 281.7270
268.3932, 280.7164
268.8754, 280.2572
269.3575, 279.3867
269.8396, 277.9253
270.3217, 276.6968
270.8038, 275.9752
271.2859, 275.7240
271.7681, 275.3013
272.2502, 274.6567
272.7323, 273.9501
273.2144, 273.3141
273.6965, 272.7152
274.1786, 272.3615
274.6608, 272.3665
275.1429, 272.6706
275.6250, 272.8834
276.1071, 273.0460
276.5892, 273.0052
277.0714, 272.5411
277.5535, 271.5993
278.0356, 270.7504
278.5177, 270.1642
278.9998, 269.7375
279.4819, 269.0949
279.9641, 268.2588
280.4462, 267.0993
280.9283, 265.2470
281.4104, 262.6783
281.8925, 260.7420
282.3746, 259.7757
282.8568, 259.4733
283.3389, 258.9710
283.8210, 258.2365
284.3031, 257.5367
284.7852, 256.9889
285.2673, 256.6022
285.7495, 256.5251
286.2316, 256.7973
286.7137, 257.3454
287.1958, 258.1084
287.6779, 259.0914
288.1600, 260.0200
288.6422, 260.6897
289.1243, 261.1370
289.6064, 261.5592
290.0885, 261.9382
290.5706, 262.3969
291.0527, 263.1783
291.5349, 264.2680
292.0170, 265.4269
292.4991, 266.5880
292.9812, 267.7269
293.4633, 268.7151
293.9454, 269.5598
294.4276, 270.2413
294.9097, 270.6246
295.3918, 270.7694
295.8739, 270.9782
296.3560, 271.1066
296.8381, 271.4302
297.3203, 272.8547
297.8024, 275.4967
298.2845, 278.2233
298.7666, 279.7445
299.2487, 280.3361
299.7308, 280.8907
300.2130, 281.5508
300.6951, 282.4807
301.1772, 284.0218
301.6593, 286.1655
302.1414, 288.6002
302.6235, 291.2484
303.1057, 293.9760
303.5878, 296.4284
304.0699, 298.2994
304.5520, 300.0305
305.0341, 302.2399
305.5162, 304.8585
305.9984, 307.3896
306.4805, 309.7734
306.9626, 311.7500
307.4447, 312.9561
307.9268, 313.5115
308.4089, 312.9888
308.8911, 310.6845
309.3732, 306.8565
309.8553, 302.5758
310.3374, 298.3160
310.8195, 293.9746
311.3016, 289.4118
311.7838, 284.3474
312.2659, 279.6129
312.7480, 275.5973
313.2301, 272.3740
313.7122, 270.0243
314.1943, 269.3573
314.6765, 269.0689
315.1586, 268.1358
315.6407, 266.1837
316.1228, 264.4191
316.6049, 263.2619
317.0870, 262.6987
317.5692, 262.7166
318.0513, 263.9019
318.5334, 265.1731
319.0155, 265.9556
319.4976, 266.1360
319.9797, 266.3322
320.4619, 266.9824
320.9440, 267.6679
321.4261, 267.9151
321.9082, 266.7827
322.3903, 265.9930
322.8724, 266.3340
323.3546, 267.8510
323.8367, 268.9542
324.3188, 268.7553
324.8009, 268.3587
325.2830, 268.6096
325.7651, 270.6064
326.2473, 272.1633
326.7294, 272.7111
327.2115, 272.4042
327.6936, 272.4583
328.1757, 272.9239
328.6578, 273.7844
329.1400, 275.0502
329.6221, 277.3598
330.1042, 279.1858
330.5863, 280.3343
331.0684, 280.9873
331.5505, 281.6532
332.0327, 282.2764
332.5148, 282.9787
332.9969, 283.9565
333.4790, 285.7149
333.9611, 286.2341
334.4432, 284.9428
334.9254, 282.7328
335.4075, 281.2126
335.8896, 280.8749
336.3717, 280.1923
336.8538, 278.5121
337.3359, 275.6585
337.8180, 273.6291
338.3001, 272.6424
338.7823, 272.1520
339.2644, 271.6408
339.7465, 271.1560
340.2286, 270.3885
340.7107, 269.0361
341.1928, 267.2825
341.6750, 266.7539
342.1571, 267.7445
342.6392, 268.8224
343.1213, 268.5618
343.6034, 266.9352
344.0855, 265.8906
344.5677, 265.8956
345.0498, 266.5165
345.5319, 266.6745
346.0140, 266.3527
346.4961, 266.0438
346.9782, 266.0853
347.4604, 266.4226
347.9425, 266.8621
348.4246, 267.4776
348.9067, 267.9401
349.3888, 267.4780
349.8709, 266.2965
350.3531, 265.5208
350.8352, 266.2228
351.3173, 267.6068
351.7994, 267.9958
352.2815, 267.2638
352.7636, 266.3765
353.2458, 266.2770
353.7279, 266.7155
354.2100, 267.1491
354.6921, 267.1830
355.1742, 267.2350
355.6563, 268.0071
356.1385, 269.3979
356.6206, 270.4123
357.1027, 270.2097
357.5848, 269.3027
358.0669, 268.1981
358.5490, 266.5265
359.0312, 265.4382
359.5133, 266.0933
359.9954, 268.0106
360.4775, 269.7004
360.9596, 270.1878
361.4417, 270.3689
361.9239, 270.9137
362.4060, 272.1071
362.8881, 273.1258
363.3702, 273.4646
363.8523, 273.4713
364.3344, 273.6794
364.8166, 274.5736
365.2987, 275.4017
365.7808, 275.8159
366.2629, 275.7542
366.7450, 275.7420
367.2271, 275.7746
367.7093, 275.9392
368.1914, 276.3129
368.6735, 277.3928
369.1556, 278.1461
369.6377, 278.3228
370.1198, 277.9894
370.6020, 277.6538
371.0841, 277.0472
371.5662, 276.6877
372.0483, 276.8766
372.5304, 277.9096
373.0125, 278.9442
373.4947, 279.9879
373.9768, 281.0033
374.4589, 281.9258
374.9410, 282.7787
375.4231, 283.4890
375.9052, 283.9773
376.3874, 284.1927
376.8695, 284.6039
377.3516, 285.2259
377.8337, 286.0274
378.3158, 286.9245
378.7979, 287.8803
379.2801, 289.3020
379.7622, 291.5566
380.2443, 294.3395
380.7264, 296.2921
381.2085, 297.3215
381.6906, 298.0914
382.1728, 299.0201
382.6549, 300.1333
383.1370, 301.5389
383.6191, 303.2672
384.1012, 305.2936
384.5833, 307.7235
385.0655, 310.5167
385.5476, 313.3309
386.0297, 316.2866
386.5118, 319.0931
386.9939, 321.0975
387.4760, 322.1237
387.9582, 323.1315
388.4403, 325.0329
388.9224, 327.6055
389.4045, 330.3590
389.8866, 333.3661
390.3687, 336.3067
390.8509, 338.7024
391.3330, 340.6049
391.8151, 342.7404
392.2972, 345.7419
392.7793, 349.0645
393.2614, 352.1738
393.7436, 354.5932
394.2257, 357.2006
394.7078, 360.1800
395.1899, 363.5922
395.6720, 367.5965
396.1541, 372.6252
396.6363, 377.9581
397.1184, 383.2579
397.6005, 388.4369
398.0826, 393.7595
398.5647, 398.9280
399.0468, 404.3785
399.5290, 410.6392
400.0111, 419.5839
400.4932, 427.3478
400.9753, 432.9469
401.4574, 436.4070
401.9395, 440.0597
402.4217, 444.4160
402.9038, 448.4547
403.3859, 451.2835
403.8680, 451.8376
404.3501, 453.9083
404.8322, 458.6530
405.3144, 464.6291
405.7965, 467.6695
406.2786, 467.1075
406.7607, 465.9023
407.2428, 465.5667
407.7249, 466.1615
408.2071, 465.3365
408.6892, 462.9301
409.1713, 459.5805
409.6534, 456.1877
410.1355, 452.7173
410.6176, 448.2101
411.0998, 442.0205
411.5819, 434.8161
412.0640, 428.0528
412.5461, 421.7811
413.0282, 415.7900
413.5103, 410.9172
413.9925, 406.1794
414.4746, 399.0570
414.9567, 388.4505
415.4388, 377.3847
415.9209, 368.8110
416.4030, 362.1781
416.8852, 355.8710
417.3673, 349.1924
417.8494, 342.5333
418.3315, 335.9969
418.8136, 329.6423
419.2957, 323.8513
419.7779, 318.7544
420.2600, 314.4134
420.7421, 310.9748
421.2242, 309.3372
421.7063, 307.6654
422.1884, 304.9786
422.6706, 301.6719
423.1527, 299.1280
423.6348, 298.5581
424.1169, 298.1416
424.5990, 296.9688
425.0811, 294.4423
425.5633, 292.4032
426.0454, 291.1498
426.5275, 290.3185
427.0096, 289.4706
427.4917, 288.8415
427.9738, 287.8067
428.4560, 285.8991
428.9381, 283.1933
429.4202, 281.9011
429.9023, 282.5446
430.3844, 283.6513
430.8665, 284.1798
431.3487, 284.0443
431.8308, 283.8540
432.3129, 283.6913
432.7950, 283.4533
433.2771, 282.7506
433.7592, 281.5539
434.2414, 280.7308
434.7235, 280.9301
435.2056, 281.8615
435.6877, 282.3033
436.1698, 282.2202
436.6519, 282.0512
437.1341, 282.3026
437.6162, 282.8132
438.0983, 283.2120
438.5804, 283.5544
439.0625, 283.5216
439.5446, 282.3582
440.0268, 280.3930
440.5089, 278.8218
440.9910, 278.6139
441.4731, 278.9550
441.9552, 279.2193
442.4373, 279.3737
442.9195, 279.2055
443.4016, 278.0320
443.8837, 276.6625
444.3658, 276.0809
444.8479, 277.4393
445.3300, 278.7630
445.8122, 279.5145
446.2943, 279.6973
446.7764, 279.5458
447.2585, 278.5690
447.7406, 277.6660
448.2227, 277.2821
448.7049, 277.5393
449.1870, 278.1393
449.6691, 279.6915
450.1512, 281.2792
450.6333, 281.2470
451.1154, 278.5998
451.5976, 276.4775
452.0797, 275.8300
452.5618, 276.5472
453.0439, 277.0680
453.5260, 277.2726
454.0081, 277.6201
454.4903, 278.8301
454.9724, 280.8667
455.4545, 281.6398
455.9366, 280.5599
456.4187, 278.8089
456.9008, 278.4333
457.3830, 279.2971
457.8651, 280.3574
458.3472, 281.2758
458.8293, 282.0215
459.3114, 282.5988
459.7935, 283.0013
460.2757, 283.1046
460.7578, 282.4295
461.2399, 281.5028
461.7220, 281.1241
462.2041, 281.8641
462.6862, 282.5655
463.1684, 282.2295
463.6505, 281.2728
464.1326, 280.6685
464.6147, 281.0164
465.0968, 281.6381
465.5789, 282.2233
466.0611, 282.7424
466.5432, 283.2387
467.0253, 284.1371
467.5074, 284.7836
467.9895, 284.6176
468.4716, 282.1046
468.9538, 280.7318
469.4359, 281.3755
469.9180, 283.2992
470.4001, 284.0767
470.8822, 283.0693
471.3643, 282.0513
471.8465, 281.8107
472.3286, 282.4548
472.8107, 282.8130
473.2928, 282.9024
473.7749, 282.6767
474.2570, 281.7830
474.7392, 280.2332
475.2213, 279.4914
475.7034, 280.1161
476.1855, 281.4362
476.6676, 282.0438
477.1497, 282.0068
477.6319, 281.9573
478.1140, 282.4563
478.5961, 283.1296
479.0782, 283.2335
479.5603, 282.6736
480.0424, 282.1596
480.5246, 282.2801
481.0067, 282.8044
481.4888, 283.4115
481.9709, 284.1271
482.4530, 284.7542
482.9352, 285.3222
483.4173, 285.7431
483.8994, 285.7407
484.3815, 284.4737
484.8636, 283.3726
485.3457, 283.3080
485.8279, 284.7722
486.3100, 285.6115
486.7921, 285.0455
487.2742, 284.1061
487.7563, 283.7018
488.2384, 284.2026
488.7206, 284.5929
489.2027, 284.6467
489.6848, 284.5274
490.1669, 284.9847
490.6490, 286.3642
491.1311, 287.2596
491.6133, 286.6353
492.0954, 284.5295
492.5775, 283.6207
493.0596, 284.1084
493.5417, 284.9831
494.0238, 285.1924
494.5060, 284.8404
494.9881, 284.3618
495.4702, 283.7904
495.9523, 283.2649
496.4344, 282.8573
496.9165, 282.6346
497.3987, 282.8478
497.8808, 284.1699
498.3629, 285.6756
498.8450, 286.3730
499.3271, 286.1603
499.8092, 285.9382
500.2914, 286.2370
500.7735, 286.7285
501.2556, 287.1123
501.7377, 287.4453
502.2198, 287.4937
502.7019, 286.8616
503.1841, 285.8857
503.6662, 285.4821
504.1483, 286.1063
504.6304, 286.9169
505.1125, 287.8903
505.5946, 289.1232
506.0768, 289.2239
506.5589, 287.4630
507.0410, 285.6589
507.5231, 285.5491
508.0052, 287.5048
508.4873, 288.5755
508.9695, 288.1004
509.4516, 287.1127
509.9337, 287.9220
510.4158, 290.4058
510.8979, 292.2329
511.3800, 291.8917
511.8622, 290.3576
512.3443, 289.7884
512.8264, 290.1564
513.3085, 290.8947
513.7906, 291.9074
514.2728, 292.9075
514.7549, 293.4412
515.2370, 293.2556
515.7191, 293.1120
516.2012, 293.6514
516.6833, 294.5071
517.1655, 295.1243
517.6476, 294.7663
518.1297, 294.6984
518.6118, 295.4771
519.0939, 297.0432
519.5760, 298.5993
520.0582, 300.2666
520.5403, 301.7110
521.0224, 302.7696
521.5045, 303.4012
521.9866, 303.6870
522.4688, 303.1793
522.9509, 302.8156
523.4330, 304.0703
523.9151, 307.3844
524.3972, 309.7775
524.8793, 310.2425
525.3615, 309.6763
525.8436, 310.5469
526.3257, 312.8413
526.8078, 315.2936
527.2899, 317.0462
527.7720, 318.4708
528.2542, 320.3902
528.7363, 322.8383
529.2184, 325.5775
529.7005, 328.5175
530.1826, 331.5607
530.6647, 334.6294
531.1469, 337.9919
531.6290, 340.8409
532.1111, 342.2995
532.5932, 342.9231
533.0753, 343.8396
533.5574, 346.2794
534.0396, 348.2051
534.5217, 348.9889
535.0038, 348.5654
535.4859, 347.2422
535.9680, 344.9732
536.4501, 341.8855
536.9323, 337.9115
537.4144, 332.4556
537.8965, 327.6774
538.3786, 323.7223
538.8607, 320.3132
539.3428, 317.1996
539.8250, 314.3764
540.3071, 311.5049
540.7892, 308.2509
541.2713, 305.1044
541.7534, 303.6287
542.2355, 303.7013
542.7177, 304.0132
543.1998, 303.8470
543.6819, 303.3488
544.1640, 302.7775
544.6461, 302.1624
545.1282, 301.2979
545.6104, 299.6129
546.0925, 297.7785
546.5746, 296.5482
547.0567, 296.2666
547.5388, 296.4174
548.0209, 297.2987
548.5031, 298.4702
548.9852, 298.9842
549.4673, 297.8047
549.9494, 296.8975
550.4315, 296.8637
550.9136, 297.6987
551.3958, 298.2569
551.8779, 298.4210
552.3600, 298.5085
552.8421, 298.6887
553.3242, 298.9543
553.8063, 299.4213
554.2885, 300.1461
554.7706, 300.9309
555.2527, 301.6359
555.7348, 302.2163
556.2169, 302.3317
556.6990, 301.6254
557.1812, 300.7339
557.6633, 300.7205
558.1454, 301.3574
558.6275, 301.7890
559.1096, 300.9476
559.5917, 300.0963
560.0739, 300.3695
560.5560, 301.8570
561.0381, 303.5325
561.5202, 305.5567
562.0023, 307.2387
562.4844, 308.0131
562.9666, 306.7604
563.4487, 306.1826
563.9308, 306.8981
564.4129, 308.1516
564.8950, 308.7379
565.3771, 308.2190
565.8593, 307.9889
566.3414, 308.3351
566.8235, 309.2049
567.3056, 310.6443
567.7877, 312.7898
568.2698, 314.4309
568.7520, 314.3516
569.2341, 313.1214
569.7162, 313.1087
570.1983, 314.4503
570.6804, 315.9463
571.1625, 316.5099
571.6447, 316.4655
572.1268, 316.2944
572.6089, 316.0200
573.0910, 315.8507
573.5731, 315.8523
574.0552, 316.0618
574.5374, 316.5437
575.0195, 317.4910
575.5016, 318.5441
575.9837, 319.8045
576.4658, 321.1975
576.9479, 321.9332
577.4301, 321.4983
577.9122, 320.9947
578.3943, 320.8732
578.8764, 321.1768
579.3585, 321.7897
579.8406, 323.0189
580.3228, 323.8724
580.8049, 322.7358
581.2870, 319.7858
581.7691, 318.4242
582.2512, 319.6905
582.7333, 321.6898
583.2155, 321.2220
583.6975, 319.0439
584.1796, 317.5213
584.6617, 318.6527
585.1439, 320.2733
585.6260, 320.1828
586.1081, 318.7184
586.5902, 317.6170
587.0723, 318.1744
587.5544, 318.9489
588.0366, 319.0570
588.5187, 318.2114
589.0008, 317.5620
589.4829, 317.3239
589.9650, 317.2860
590.4471, 317.3969
590.9293, 318.1412
591.4114, 317.7979
591.8935, 315.7982
592.3756, 313.1634
592.8577, 311.8445
593.3398, 311.9312
593.8220, 311.9897
594.3041, 311.5258
594.7862, 310.7618
595.2683, 310.1811
595.7504, 309.7746
596.2325, 309.4401
596.7147, 309.0567
597.1968, 308.7446
597.6789, 308.8210
598.1610, 309.3210
598.6431, 309.3905
599.1252, 307.7740
599.6074, 305.9846
600.0895, 305.3445
600.5716, 307.0956
601.0537, 308.2475
601.5358, 307.7723
602.0179, 306.6879
602.5001, 306.3108
602.9822, 306.9948
603.4643, 307.7082
603.9464, 308.3832
604.4285, 308.9251
604.9106, 308.9664
605.3928, 308.4540
605.8749, 307.8812
606.3570, 307.3519
606.8391, 306.9568
607.3212, 307.0733
607.8033, 307.6824
608.2855, 308.3988
608.7676, 309.1951
609.2497, 309.8034
609.7318, 309.7786
610.2139, 308.9439
610.6960, 308.0413
611.1782, 307.0820
611.6603, 306.4414
612.1424, 306.5127
612.6245, 308.0319
613.1066, 309.4957
613.5887, 311.1220
614.0709, 312.4964
614.5530, 312.6143
615.0351, 310.6058
615.5172, 309.2281
615.9993, 309.4137
616.4814, 310.8311
616.9636, 311.6015
617.4457, 311.6600
617.9278, 311.8047
618.4099, 312.6543
618.8920, 313.9630
619.3741, 315.1750
619.8563, 316.2842
620.3384, 317.0585
620.8205, 317.1010
621.3026, 316.7909
621.7847, 316.5661
622.2668, 316.4991
622.7490, 316.5665
623.2311, 316.9860
623.7132, 317.4515
624.1953, 317.5722
624.6774, 316.7307
625.1595, 316.2143
625.6417, 316.1674
626.1238, 316.5478
626.6059, 317.4847
627.0880, 319.5602
627.5701, 320.3636
628.0522, 318.2850
628.5344, 314.2554
629.0165, 313.2694
629.4986, 315.3834
629.9807, 318.0745
630.4628, 319.8770
630.9449, 320.9173
631.4271, 321.3306
631.9092, 321.1073
632.3913, 320.7448
632.8734, 320.3714
633.3555, 320.1541
633.8376, 320.3717
634.3198, 321.6922
634.8019, 322.2239
635.2840, 320.6512
635.7661, 318.2836
636.2482, 316.9656
636.7303, 317.4840
637.2125, 317.8013
637.6946, 317.6195
638.1767, 317.0734
638.6588, 316.4997
639.1409, 315.8796
639.6230, 315.3527
640.1052, 314.9988
640.5873, 314.7712
641.0694, 314.6204
641.5515, 314.5269
642.0336, 314.2319
642.5157, 313.2812
642.9979, 312.1878
643.4800, 311.6517
643.9621, 311.7551
644.4442, 311.7702
644.9263, 311.3814
645.4084, 310.7216
645.8906, 309.8496
646.3727, 308.3575
646.8548, 307.4220
647.3369, 307.2367
647.8190, 307.5090
648.3011, 307.9713
648.7833, 308.7597
649.2654, 309.2648
649.7475, 309.3769
650.2296, 309.1729
650.7117, 308.7031
651.1938, 307.9948
651.6760, 307.4434
652.1581, 307.2850
652.6402, 307.3145
653.1223, 307.1422
653.6044, 306.8575
654.0865, 306.8234
654.5687, 307.4970
655.0508, 308.2956
655.5329, 308.8718
656.0150, 309.1942
656.4971, 309.4039
656.9792, 309.6893
657.4614, 309.7291
657.9435, 309.2099
658.4256, 307.6805
658.9077, 307.3037
659.3898, 308.5908
659.8719, 310.1250
660.3541, 310.1952
660.8362, 308.8629
661.3183, 308.2944
661.8004, 308.9772
662.2825, 309.9688
662.7646, 309.8735
663.2468, 309.1153
663.7289, 308.7782
664.2110, 309.8375
664.6931, 310.7099
665.1752, 309.7234
665.6573, 307.7148
666.1395, 306.6392
666.6216, 307.7931
667.1037, 309.2430
667.5858, 310.6562
668.0679, 311.9526
668.5500, 312.4405
669.0322, 311.7569
669.5143, 310.9769
669.9964, 310.4802
670.4785, 310.2716
670.9606, 310.5921
671.4427, 311.4966
671.9249, 312.3712
672.4070, 312.7219
672.8891, 312.6868
673.3712, 312.4858
673.8533, 312.1176
674.3354, 311.8511
674.8176, 311.7858
675.2997, 311.9683
675.7818, 312.4962
676.2639, 313.7336
676.7460, 314.6839
677.2281, 314.9116
677.7103, 314.8133
678.1924, 314.8581
678.6745, 315.0931
679.1566, 315.3392
679.6387, 315.4438
680.1208, 315.6660
680.6030, 316.8861
681.0851, 319.0745
681.5672, 320.6114
682.0493, 320.4748
682.5314, 319.7368
683.0135, 320.4525
683.4957, 322.2671
683.9778, 323.7615
684.4599, 323.9343
684.9420, 323.7065
685.4241, 323.5655
685.9063, 323.5589
686.3884, 323.8795
686.8705, 324.4318
687.3526, 325.4872
687.8347, 327.4550
688.3168, 330.6602
688.7990, 332.3236
689.2811, 331.9772
689.7632, 331.2111
690.2453, 331.4517
690.7274, 332.5717
691.2095, 332.7435
691.6917, 331.7564
692.1738, 330.5169
692.6559, 330.0712
693.1380, 330.0187
693.6201, 329.6386
694.1022, 328.6192
694.5844, 327.6563
695.0665, 327.3551
695.5486, 327.2731
696.0307, 326.8426
696.5128, 325.5787
696.9949, 324.4115
697.4771, 323.2823
697.9592, 322.3617
698.4413, 322.1645
698.9234, 322.9895
699.4055, 323.3204
699.8876, 322.6257
700.3698, 321.3109
700.8519, 320.3537
701.3340, 319.7206
701.8161, 319.2097
702.2982, 318.6214
702.7803, 318.1701
703.2625, 318.2509
703.7446, 318.7460
704.2267, 319.0470
704.7088, 318.9462
705.1909, 318.5331
705.6730, 317.6494
706.1552, 316.2208
706.6373, 315.4503
707.1194, 315.5868
707.6015, 316.0394
708.0836, 316.5956
708.5657, 317.2733
709.0479, 317.5527
709.5300, 317.4046
710.0121, 316.9936
710.4942, 316.2415
710.9763, 315.3657
711.4584, 314.8385
711.9406, 314.7191
712.4227, 314.9706
712.9048, 316.3267
713.3869, 317.6672
713.8690, 317.6943
714.3511, 314.9342
714.8333, 313.0144
715.3154, 313.2860
715.7975, 314.3945
716.2796, 314.9760
716.7617, 314.9564
717.2438, 314.5512
717.7260, 313.5547
718.2081, 312.5651
718.6902, 312.9521
719.1723, 314.5077
719.6544, 315.5519
720.1365, 315.4318
720.6187, 314.7677
721.1008, 313.9208
721.5829, 313.1025
722.0650, 312.7911
722.5471, 313.7079
723.0292, 314.6542
723.5114, 315.0042
723.9935, 314.9081
724.4756, 315.0916
724.9577, 315.8086
725.4398, 316.4481
725.9219, 316.8920
726.4041, 317.1138
726.8862, 316.7856
727.3683, 315.8341
727.8504, 315.1647
728.3325, 315.4505
728.8146, 316.3228
729.2968, 317.1073
729.7789, 317.7895
730.2610, 318.2752
730.7431, 318.2316
731.2252, 318.1755
731.7073, 318.7343
732.1895, 320.0656
732.6716, 320.5034
733.1537, 318.6881
733.6358, 316.8585
734.1179, 316.1410
734.6000, 316.7476
735.0822, 317.2616
735.5643, 317.6660
736.0464, 318.0333
736.5285, 318.2676
737.0106, 318.5008
737.4927, 319.5333
737.9749, 321.5786
738.4570, 323.0945
738.9391, 322.0860
739.4212, 320.0996
739.9033, 318.8643
740.3854, 318.8470
740.8676, 319.3672
741.3497, 320.9881
741.8318, 322.6464
742.3139, 323.2050
742.7960, 322.0151
743.2781, 321.3788
743.7603, 321.5761
744.2424, 322.1285
744.7245, 322.2778
745.2066, 322.0919
745.6887, 322.2793
746.1708, 323.1821
746.6530, 324.0320
747.1351, 323.6710
747.6172, 322.6796
748.0993, 322.0859
748.5814, 322.8552
749.0635, 323.3999
749.5457, 322.6944
750.0278, 321.4705
750.5099, 321.3547
750.9920, 323.2446
751.4741, 324.5663
751.9562, 324.7263
752.4384, 324.1442
752.9205, 323.7788
753.4026, 323.6298
753.8847, 323.7310
754.3668, 324.2922
754.8489, 324.8904
755.3311, 324.7031
755.8132, 324.0145
756.2953, 323.6610
756.7774, 324.3781
757.2595, 325.1795
757.7416, 325.7324
758.2238, 325.9890
758.7059, 325.8188
759.1880, 324.9247
759.6701, 324.0756
760.1522, 323.3815
760.6343, 322.9139
761.1165, 323.0924
761.5986, 323.9346
762.0807, 325.0555
762.5628, 326.6922
763.0449, 328.2721
763.5270, 328.5584
764.0092, 327.7627
764.4913, 327.0306
764.9734, 327.0222
765.4555, 327.2516
765.9376, 327.4634
766.4197, 327.6448
766.9019, 327.8213
767.3840, 327.6530
767.8661, 328.0011
768.3482, 329.6593
768.8303, 332.5188
769.3124, 333.1017
769.7946, 331.2255
770.2767, 329.2776
770.7588, 329.2522
771.2409, 330.1810
771.7230, 330.1892
772.2051, 329.2565
772.6873, 328.6153
773.1694, 329.2569
773.6515, 330.2344
774.1336, 330.9125
774.6157, 331.1639
775.0978, 331.4931
775.5800, 331.7939
776.0621, 332.3408
776.5442, 333.5316
777.0263, 335.4413
777.5084, 336.1408
777.9905, 335.5367
778.4727, 334.6706
778.9548, 334.1728
779.4369, 334.1087
779.9190, 334.8276
780.4011, 336.4008
780.8832, 337.6891
781.3654, 337.7139
781.8475, 337.4253
782.3296, 337.5338
782.8117, 338.2781
783.2938, 338.9274
783.7759, 339.3183
784.2581, 339.8545
784.7402, 341.0069
785.2223, 342.7745
785.7044, 343.9281
786.1865, 344.3717
786.6686, 344.5535
787.1508, 344.6400
787.6329, 344.8270
788.1150, 345.4392
788.5971, 346.5562
789.0792, 347.9034
789.5613, 349.5643
790.0435, 351.2680
790.5256, 352.8700
791.0077, 354.5639
791.4898, 355.4399
791.9719, 354.9768
792.4540, 354.5544
792.9362, 355.5069
793.4183, 357.7477
793.9004, 360.2051
794.3825, 362.8447
794.8646, 365.4700
795.3467, 367.9628
795.8289, 370.3514
796.3110, 372.5989
796.7931, 374.6703
797.2752, 376.9023
797.7573, 379.0763
798.2394, 381.7393
798.7216, 385.3102
799.2037, 389.9499
799.6858, 395.1896
800.1679, 401.1436
800.6500, 407.4411
801.1321, 413.5724
801.6143, 419.7598
802.0964, 427.2234
802.5785, 436.0780
803.0606, 446.0643
803.5427, 457.1608
804.0248, 469.0191
804.5070, 481.3515
804.9891, 493.9567
805.4712, 507.4103
805.9533, 522.7069
806.4354, 538.4149
806.9175, 553.3193
807.3997, 566.8285
807.8818, 582.3035
808.3639, 599.9082
808.8460, 618.6452
809.3281, 636.9621
809.8102, 655.6026
810.2924, 676.5638
810.7745, 700.1993
811.2566, 725.4649
811.7387, 750.8168
812.2208, 777.6622
812.7029, 807.2064
813.1851, 839.9835
813.6672, 874.6676
814.1493, 911.0757
814.6314, 949.4793
815.1135, 990.7910
815.5956, 1035.620
816.0778, 1076.672
816.5599, 1113.939
817.0420, 1146.762
817.5241, 1176.390
818.0062, 1200.350
818.4883, 1216.320
818.9705, 1224.393
819.4526, 1220.264
819.9347, 1199.599
820.4168, 1167.792
820.8989, 1127.204
821.3810, 1077.222
821.8632, 1024.595
822.3453, 967.7199
822.8274, 911.3162
823.3095, 859.5781
823.7916, 811.9669
824.2737, 769.6494
824.7559, 732.4788
825.2380, 699.2108
825.7201, 669.5845
826.2022, 643.2116
826.6843, 620.3192
827.1664, 601.0403
827.6486, 584.0533
828.1307, 569.4080
828.6128, 556.5964
829.0949, 545.3988
829.5770, 535.9490
830.0591, 527.3357
830.5413, 519.5430
831.0234, 512.9645
831.5055, 507.7774
831.9876, 504.0576
832.4697, 501.8851
832.9518, 501.2825
833.4340, 502.2534
833.9161, 504.8149
834.3982, 508.9464
834.8803, 514.5383
835.3624, 521.6565
835.8445, 530.7643
836.3267, 541.7672
836.8088, 554.9142
837.2909, 570.6719
837.7730, 588.6527
838.2551, 606.4305
838.7372, 624.0783
839.2194, 642.6903
839.7015, 663.6736
840.1836, 685.4672
840.6657, 706.1379
841.1478, 726.1331
841.6299, 747.2912
842.1121, 768.9523
842.5942, 793.4275
843.0763, 821.7343
843.5584, 853.5143
844.0405, 886.0937
844.5226, 918.9056
845.0048, 956.6796
845.4869, 1002.795
845.9690, 1054.249
846.4511, 1104.462
846.9332, 1154.406
847.4153, 1206.686
847.8975, 1264.772
848.3796, 1323.218
848.8617, 1382.701
849.3438, 1440.672
849.8259, 1489.949
850.3080, 1536.261
850.7902, 1562.456
851.2723, 1564.711
851.7544, 1544.691
852.2365, 1503.269
852.7186, 1441.719
853.2007, 1365.968
853.6829, 1272.810
854.1650, 1176.346
854.6471, 1083.451
855.1292, 996.3178
855.6113, 918.3408
856.0934, 853.6329
856.5756, 795.6945
857.0577, 743.3764
857.5398, 697.4425
858.0219, 657.7016
858.5040, 624.1103
858.9861, 595.6877
859.4683, 572.5429
859.9504, 552.6318
860.4325, 534.0593
860.9146, 516.9443
861.3967, 501.8753
861.8788, 489.2311
862.3610, 478.0279
862.8431, 468.3186
863.3252, 459.8171
863.8073, 452.3701
864.2894, 446.2985
864.7715, 440.0711
865.2537, 433.5737
865.7358, 427.2550
866.2179, 421.3053
866.7000, 415.8695
867.1821, 411.3471
867.6642, 407.7571
868.1464, 404.7159
868.6285, 402.2603
869.1106, 399.9964
869.5927, 397.5417
870.0748, 394.7350
870.5569, 392.3631
871.0391, 390.5914
871.5212, 388.9465
872.0033, 387.0178
872.4854, 384.9201
872.9675, 383.8422
873.4496, 383.6931
873.9318, 383.3627
874.4139, 381.6942
874.8960, 379.8024
875.3781, 378.7753
875.8602, 378.5184
876.3423, 378.0697
876.8245, 376.6293
877.3066, 375.6868
877.7887, 375.8241
878.2708, 376.7423
878.7529, 377.1937
879.2350, 377.1818
879.7172, 377.1039
880.1993, 377.2114
880.6814, 377.2562
881.1635, 376.8028
881.6456, 376.0387
882.1277, 375.3973
882.6099, 375.3610
883.0920, 375.0882
883.5741, 374.0763
884.0562, 372.8241
884.5383, 372.0087
885.0204, 371.5879
885.5026, 371.9072
885.9847, 373.0903
886.4668, 374.8452
886.9489, 377.0255
887.4310, 379.4386
887.9131, 381.6082
888.3953, 383.2266
888.8774, 385.1147
889.3595, 387.8741
889.8416, 390.9204
890.3237, 393.7042
890.8058, 396.0935
891.2880, 398.4146
891.7701, 400.5264
892.2522, 402.9591
892.7343, 406.1510
893.2164, 410.0680
893.6985, 414.4778
894.1807, 419.3368
894.6628, 425.4075
895.1449, 434.3565
895.6270, 443.6348
896.1091, 451.5040
896.5912, 457.6704
897.0734, 464.2443
897.5555, 471.2862
898.0376, 478.5644
898.5197, 486.8181
899.0018, 494.9162
899.4839, 498.9886
899.9661, 499.0709
900.4482, 495.3834
900.9303, 487.4159
901.4124, 476.3144
901.8945, 460.6627
902.3766, 442.3109
902.8588, 426.7661
903.3409, 415.6173
903.8230, 405.6895
904.3051, 396.4410
904.7872, 388.0095
905.2693, 380.1926
905.7515, 373.1786
906.2336, 368.0389
906.7157, 365.4268
907.1978, 363.7507
907.6799, 362.0260
908.1620, 360.2749
908.6442, 358.4785
909.1263, 356.2697
909.6084, 354.7930
910.0905, 354.5584
910.5726, 354.3802
911.0547, 352.8693
911.5369, 350.2135
912.0190, 348.6462
912.5011, 348.3258
912.9832, 348.3446
913.4653, 348.2924
913.9474, 347.9969
914.4296, 347.0984
914.9117, 345.5311
915.3938, 344.4827
915.8759, 344.2413
916.3580, 344.3680
916.8401, 344.7568
917.3223, 345.3648
917.8044, 346.1368
918.2865, 347.0260
918.7686, 347.4104
919.2507, 346.3326
919.7328, 345.1314
920.2150, 345.5216
920.6971, 346.8149
921.1792, 347.3096
921.6613, 345.8847
922.1434, 344.4570
922.6255, 343.1030
923.1077, 342.0599
923.5898, 341.8128
924.0719, 342.3330
924.5540, 343.1634
925.0361, 344.3305
925.5182, 345.2982
926.0004, 345.4251
926.4825, 345.0974
926.9646, 344.7430
927.4467, 344.3524
927.9288, 344.1927
928.4109, 344.2157
928.8931, 344.5375
929.3752, 345.4599
929.8573, 346.9553
930.3394, 347.4668
930.8215, 346.9935
931.3036, 346.4805
931.7858, 346.6881
932.2679, 347.1511
932.7500, 347.1924
933.2321, 346.9445
933.7142, 347.5307
934.1964, 349.9929
934.6785, 352.2824
935.1606, 353.8936
935.6427, 354.9787
936.1248, 355.7401
936.6069, 356.2416
937.0891, 357.2062
937.5712, 359.0866
938.0533, 361.1451
938.5354, 362.4010
939.0175, 363.4614
939.4996, 365.1931
939.9818, 368.5329
940.4639, 371.5331
940.9460, 374.0949
941.4281, 376.2802
941.9102, 377.7584
942.3923, 378.7019
942.8745, 380.8027
943.3566, 384.2188
943.8387, 388.2215
944.3208, 392.3055
944.8029, 396.5894
945.2850, 401.1558
945.7672, 405.9932
946.2493, 411.4185
946.7314, 417.9445
947.2135, 424.1423
947.6956, 429.5690
948.1777, 434.2367
948.6599, 438.4095
949.1420, 441.8300
949.6241, 442.8942
950.1062, 440.8458
950.5883, 436.1967
951.0704, 428.1179
951.5526, 417.9091
952.0347, 408.0475
952.5168, 397.8742
952.9989, 389.8965
953.4810, 384.8462
953.9631, 380.9515
954.4453, 375.7519
954.9274, 369.8346
955.4095, 365.4069
955.8916, 362.8773
956.3737, 360.6951
956.8558, 357.3717
957.3380, 354.3743
957.8201, 353.1949
958.3022, 354.0519
958.7843, 353.3164
959.2664, 350.3944
959.7485, 347.7433
960.2307, 346.8307
960.7128, 346.8421
961.1949, 345.7684
961.6770, 343.9167
962.1591, 342.3915
962.6412, 341.8323
963.1234, 341.5507
963.6055, 341.2536
964.0876, 341.0769
964.5697, 341.3364
965.0518, 342.2301
965.5339, 342.6424
966.0161, 342.4111
966.4982, 341.7813
966.9803, 340.8357
967.4624, 339.7675
967.9445, 338.8559
968.4266, 338.1067
968.9088, 337.7569
969.3909, 338.3748
969.8730, 338.9336
970.3551, 338.8001
970.8372, 338.0322
971.3193, 337.7230
971.8015, 337.8798
972.2836, 338.2422
972.7657, 338.8164
973.2478, 339.3844
973.7299, 339.8251
974.2120, 340.0512
974.6942, 339.8564
975.1763, 338.3300
975.6584, 337.5821
976.1405, 338.1829
976.6226, 339.3294
977.1047, 339.9017
977.5869, 339.9467
978.0690, 339.8888
978.5511, 339.7807
979.0332, 339.6473
979.5153, 339.6258
979.9974, 339.5110
980.4796, 338.9669
980.9617, 337.8485
981.4438, 337.4171
981.9259, 337.9710
982.4080, 338.6491
982.8901, 339.0853
983.3723, 339.3447
983.8544, 339.8608
984.3365, 340.4424
984.8186, 340.2987
985.3007, 337.8893
985.7828, 335.9280
986.2650, 336.0607
986.7471, 337.3603
987.2292, 338.2574
987.7113, 338.7426
988.1934, 338.7494
988.6755, 338.1827
989.1577, 337.4689
989.6398, 336.9585
990.1219, 336.6772
990.6040, 336.8373
991.0861, 337.4707
991.5682, 337.7539
992.0504, 336.9030
992.5325, 336.1231
993.0146, 336.1187
993.4967, 336.6610
993.9788, 336.1920
994.4609, 334.7216
994.9431, 333.8842
995.4252, 334.7783
995.9073, 335.9638
996.3894, 335.7070
996.8715, 334.7154
997.3536, 334.1442
997.8358, 334.8772
998.3179, 335.1235
998.8000, 334.5349
999.2821, 333.9238
999.7642, 334.1894
1000.246, 335.1555
1000.728, 335.8979
1001.211, 336.3710
1001.693, 336.6251
1002.175, 336.3493
1002.657, 336.1734
1003.139, 336.6048
1003.621, 337.5654
1004.103, 338.4211
1004.585, 339.2978
1005.068, 339.5101
1005.550, 338.6613
1006.032, 337.4751
1006.514, 337.0092
1006.996, 337.1011
1007.478, 337.4741
1007.960, 338.2612
1008.442, 338.7916
1008.924, 338.4784
1009.407, 338.1769
1009.889, 338.5039
1010.371, 339.4858
1010.853, 340.3500
1011.335, 341.1059
1011.817, 341.6068
1012.299, 341.6377
1012.781, 341.4788
1013.263, 341.2782
1013.746, 341.0955
1014.228, 341.1360
1014.710, 341.7885
1015.192, 341.9307
1015.674, 341.1630
1016.156, 340.2162
1016.638, 340.3587
1017.120, 341.2358
1017.603, 341.7445
1018.085, 341.6832
1018.567, 341.4061
1019.049, 340.7923
1019.531, 340.3198
1020.013, 340.4447
1020.495, 341.1247
1020.977, 341.1628
1021.459, 340.4461
1021.942, 340.0992
1022.424, 340.9325
1022.906, 342.0892
1023.388, 342.5491
1023.870, 342.4290
1024.352, 341.9550
1024.834, 340.4056
1025.316, 339.7328
1025.799, 340.6259
1026.281, 341.7032
1026.763, 341.2508
1027.245, 339.6030
1027.727, 339.0497
1028.209, 339.6790
1028.691, 340.3450
1029.173, 340.0915
1029.656, 339.7629
1030.138, 340.1390
1030.620, 340.9937
1031.102, 340.9082
1031.584, 339.4087
1032.066, 339.0211
1032.548, 340.7323
1033.030, 342.9182
1033.512, 343.1454
1033.995, 342.1535
1034.477, 341.1245
1034.959, 340.2392
1035.441, 339.6324
1035.923, 339.3651
1036.405, 339.3628
1036.887, 339.6985
1037.369, 340.3058
1037.851, 340.5378
1038.334, 340.4342
1038.816, 340.3770
1039.298, 341.0793
1039.780, 341.4061
1040.262, 340.1307
1040.744, 338.0630
1041.226, 336.8412
1041.708, 336.7921
1042.191, 336.7476
1042.673, 336.5866
1043.155, 336.5648
1043.637, 337.3467
1044.119, 338.2788
1044.601, 337.9498
1045.083, 336.3350
1045.565, 335.2550
1046.047, 335.7902
1046.530, 336.4717
1047.012, 336.9018
1047.494, 337.1175
1047.976, 337.1990
1048.458, 337.1533
1048.940, 336.9629
1049.422, 336.4735
1049.904, 336.3242
1050.386, 337.5490
1050.869, 339.0153
1051.351, 339.4182
1051.833, 338.4412
1052.315, 338.1774
1052.797, 338.8007
1053.279, 339.3329
1053.761, 339.0671
1054.243, 338.4362
1054.726, 338.1042
1055.208, 338.0249
1055.690, 338.0804
1056.172, 338.6954
1056.654, 338.7392
1057.136, 337.7728
1057.618, 336.5931
1058.100, 336.1294
1058.583, 336.3012
1059.065, 336.6459
1059.547, 337.1246
1060.029, 337.5605
1060.511, 337.9090
1060.993, 338.0970
1061.475, 338.0531
1061.957, 337.8041
1062.439, 337.3383
1062.922, 336.5393
1063.404, 336.3722
1063.886, 337.2908
1064.368, 338.2865
1064.850, 337.9677
1065.332, 337.0186
1065.814, 336.3663
1066.296, 336.2619
1066.778, 336.0895
1067.261, 335.5680
1067.743, 335.3702
1068.225, 335.9894
1068.707, 337.1207
1069.189, 337.7551
1069.671, 337.9936
1070.153, 338.1825
1070.635, 338.4238
1071.118, 338.7140
1071.600, 339.2755
1072.082, 339.7240
1072.564, 339.5114
1073.046, 338.5294
1073.528, 338.3643
1074.010, 339.0846
1074.492, 339.9399
1074.974, 340.6081
1075.457, 340.9326
1075.939, 340.5363
1076.421, 339.6360
1076.903, 339.1126
1077.385, 339.0848
1077.867, 339.2506
1078.349, 339.5931
1078.831, 340.0236
1079.313, 340.3907
1079.796, 340.7758
1080.278, 341.5374
1080.760, 342.7827
1081.242, 343.2279
1081.724, 341.2113
1082.206, 339.7975
1082.688, 340.3661
1083.170, 342.1570
1083.652, 342.7188
1084.135, 342.2552
1084.617, 341.7365
1085.099, 341.3857
1085.581, 341.3022
1086.063, 341.8436
1086.545, 342.4754
1087.027, 342.6860
1087.509, 342.4194
1087.992, 342.3510
1088.474, 342.4997
1088.956, 342.6181
1089.438, 342.6212
1089.920, 342.4604
1090.402, 341.8046
1090.884, 340.9881
1091.366, 340.7533
1091.849, 341.5735
1092.331, 342.2526
1092.813, 342.7581
1093.295, 343.0155
1093.777, 342.8726
1094.259, 342.4499
1094.741, 341.7526
1095.223, 340.9058
1095.705, 340.7141
1096.188, 342.5171
1096.670, 343.6964
1097.152, 343.3232
1097.634, 342.2804
1098.116, 342.2260
1098.598, 342.9865
1099.080, 343.5711
1099.562, 343.8144
1100.044, 344.0042
1100.527, 344.5321
1101.009, 344.8859
1101.491, 344.6348
1101.973, 343.8901
1102.455, 343.1979
1102.937, 342.5382
1103.419, 342.3598
1103.901, 342.9689
1104.384, 343.7121
1104.866, 343.8067
1105.348, 343.6899
1105.830, 343.9622
1106.312, 344.9120
1106.794, 345.2679
1107.276, 344.9153
1107.758, 344.3490
1108.240, 343.7300
1108.723, 343.1728
1109.205, 342.9219
1109.687, 342.8720
1110.169, 342.7775
1110.651, 342.0894
1111.133, 342.1758
1111.615, 343.6691
1112.097, 345.0491
1112.579, 344.7235
1113.062, 343.1434
1113.544, 341.5896
1114.026, 340.2333
1114.508, 339.9151
1114.990, 342.7638
1115.472, 344.6616
1115.954, 343.5368
1116.436, 341.0701
1116.919, 339.4423
1117.401, 338.6559
1117.883, 339.2757
1118.365, 341.4103
1118.847, 343.4786
1119.329, 344.5712
1119.811, 344.9266
1120.293, 344.2138
1120.776, 342.8603
1121.258, 342.6750
1121.740, 343.8425
1122.222, 344.3579
1122.704, 343.6245
1123.186, 342.6493
1123.668, 342.5387
1124.150, 342.7248
1124.632, 342.6035
1125.115, 342.0679
1125.597, 341.3067
1126.079, 340.0053
1126.561, 339.6555
1127.043, 341.2806
1127.525, 343.4716
1128.007, 343.9023
1128.489, 343.2458
1128.971, 342.6202
1129.454, 342.2945
1129.936, 341.9913
1130.418, 341.5714
1130.900, 341.3693
1131.382, 341.7121
1131.864, 342.3560
1132.346, 342.6495
1132.828, 342.6294
1133.311, 342.4048
1133.793, 341.2193
1134.275, 341.0412
1134.757, 343.1722
1135.239, 345.4262
1135.721, 345.6995
1136.203, 344.2726
1136.685, 343.4311
1137.167, 343.1637
1137.650, 343.0186
1138.132, 342.8617
1138.614, 342.6221
1139.096, 342.2970
1139.578, 341.8463
1140.060, 341.0677
1140.542, 339.9448
1141.024, 339.4611
1141.506, 339.6996
1141.989, 340.3371
1142.471, 341.3791
1142.953, 342.5060
1143.435, 343.8191
1143.917, 345.0049
1144.399, 344.9646
1144.881, 343.4492
1145.363, 342.7783
1145.846, 343.5205
1146.328, 344.1361
1146.810, 342.3215
1147.292, 340.1734
1147.774, 339.9688
1148.256, 341.8390
1148.738, 343.0142
1149.220, 343.4041
1149.703, 343.1914
1150.185, 342.2202
1150.667, 341.2414
1151.149, 341.1349
1151.631, 341.6917
1152.113, 342.8488
1152.595, 344.7717
1153.077, 345.7444
1153.559, 345.4075
1154.042, 344.8055
1154.524, 344.1807
1155.006, 343.7805
1155.488, 344.4209
1155.970, 345.5375
1156.452, 345.9885
1156.934, 345.3032
1157.416, 344.4930
1157.898, 343.5082
1158.381, 342.7841
1158.863, 342.6489
1159.345, 342.8994
1159.827, 343.0092
1160.309, 343.0148
1160.791, 343.0277
1161.273, 343.3531
1161.755, 343.1767
1162.238, 341.8532
1162.720, 340.6722
1163.202, 340.6914
1163.684, 341.6904
1164.166, 342.5658
1164.648, 343.3378
1165.130, 344.0740
1165.612, 344.9138
1166.094, 345.5818
1166.577, 346.0924
1167.059, 346.2790
1167.541, 345.7216
1168.023, 344.5551
1168.505, 344.2159
1168.987, 344.6524
1169.469, 345.0995
1169.951, 345.1335
1170.433, 345.0464
1170.916, 344.9909
1171.398, 344.8727
1171.880, 344.4597
1172.362, 343.7848
1172.844, 343.6075
1173.326, 343.9756
1173.808, 344.2514
1174.290, 343.8630
1174.773, 343.3965
1175.255, 343.0871
1175.737, 342.9878
1176.219, 343.2730
1176.701, 343.9494
1177.183, 344.6115
1177.665, 345.2230
1178.147, 345.6598
1178.630, 345.9421
1179.112, 345.9089
1179.594, 345.0226
1180.076, 343.7525
1180.558, 343.8292
1181.040, 345.3603
1181.522, 345.9569
1182.004, 345.0510
1182.486, 343.9235
1182.969, 343.4640
1183.451, 343.4638
1183.933, 343.9330
1184.415, 344.7548
1184.897, 345.3448
1185.379, 345.7222
1185.861, 345.5610
1186.343, 344.6252
1186.825, 343.7856
1187.308, 344.0514
1187.790, 344.7215
1188.272, 345.1935
1188.754, 345.4248
1189.236, 345.3697
1189.718, 344.9724
1190.200, 344.9261
1190.682, 345.5972
1191.165, 346.2944
1191.647, 346.2722
1192.129, 345.8876
1192.611, 345.4858
1193.093, 345.1029
1193.575, 344.6503
1194.057, 344.0592
1194.539, 343.9328
1195.021, 344.7614
1195.504, 345.6110
1195.986, 344.9760
1196.468, 343.9629
1196.950, 344.1341
1197.432, 345.8662
1197.914, 347.1127
1198.396, 347.8603
1198.878, 348.1734
1199.360, 347.9599
1199.843, 347.5128
1200.325, 347.1744
1200.807, 346.8308
1201.289, 346.2282
1201.771, 345.1417
1202.253, 344.9832
1202.735, 345.9698
1203.217, 346.4842
1203.700, 345.2004
1204.182, 343.4982
1204.664, 342.7692
1205.146, 342.7787
1205.628, 343.2521
1206.110, 344.4775
1206.592, 344.8227
1207.074, 344.1021
1207.557, 343.6841
1208.039, 344.8152
1208.521, 346.3345
1209.003, 347.1582
1209.485, 347.3866
1209.967, 347.1143
1210.449, 346.0880
1210.931, 345.3379
1211.413, 344.8075
1211.896, 344.9056
1212.378, 346.7086
1212.860, 348.5937
1213.342, 348.5092
1213.824, 347.2764
1214.306, 346.5546
1214.788, 346.4683
1215.270, 347.0486
1215.752, 348.4230
1216.235, 349.4192
1216.717, 348.8589
1217.199, 347.7729
1217.681, 347.1840
1218.163, 346.8612
1218.645, 346.1828
1219.127, 344.8105
1219.609, 344.4463
1220.092, 345.2511
1220.574, 346.1821
1221.056, 346.3702
1221.538, 346.3480
1222.020, 346.8170
1222.502, 347.3931
1222.984, 347.0478
1223.466, 345.3440
1223.948, 344.9898
1224.431, 346.2525
1224.913, 347.4270
1225.395, 347.1361
1225.877, 346.1866
1226.359, 344.4922
1226.841, 342.8688
1227.323, 343.2698
1227.805, 346.1387
1228.287, 347.9803
1228.770, 348.5272
1229.252, 348.4362
1229.734, 347.9487
1230.216, 347.2890
1230.698, 346.5867
1231.180, 345.8341
1231.662, 344.8861
1232.144, 343.6611
1232.627, 343.4810
1233.109, 344.4851
1233.591, 345.3488
1234.073, 344.7217
1234.555, 343.9893
1235.037, 344.1199
1235.519, 344.7670
1236.001, 345.2630
1236.484, 345.6068
1236.966, 346.1994
1237.448, 347.0727
1237.930, 347.6506
1238.412, 347.3395
1238.894, 346.8411
1239.376, 346.5680
1239.858, 346.3531
1240.340, 345.7271
1240.823, 344.7917
1241.305, 344.8490
1241.787, 345.9800
1242.269, 346.8990
1242.751, 346.4097
1243.233, 345.9987
1243.715, 346.5090
1244.197, 347.2959
1244.679, 347.2770
1245.162, 346.6170
1245.644, 346.0802
1246.126, 345.7518
1246.608, 345.8276
1247.090, 346.8074
1247.572, 347.7176
1248.054, 348.2806
1248.536, 348.5751
1249.019, 348.7157
1249.501, 348.6714
1249.983, 348.1207
1250.465, 347.1244
1250.947, 346.6844
1251.429, 347.9781
1251.911, 348.8128
1252.393, 348.6237
1252.875, 348.0065
1253.358, 347.5717
1253.840, 347.3869
1254.322, 347.8610
1254.804, 348.8878
1255.286, 349.2797
1255.768, 348.1104
1256.250, 347.3558
1256.732, 347.4286
1257.214, 347.7207
1257.697, 347.5023
1258.179, 347.0013
1258.661, 346.4087
1259.143, 345.8271
1259.625, 345.7790
1260.107, 346.1710
1260.589, 347.7675
1261.071, 351.1683
1261.554, 353.7258
1262.036, 351.2847
1262.518, 347.3804
1263.000, 346.2312
1263.482, 347.4673
1263.964, 348.0497
1264.446, 347.7518
1264.928, 346.9326
1265.411, 345.4978
1265.893, 344.6773
1266.375, 346.1352
1266.857, 348.1796
1267.339, 349.3228
1267.821, 349.8542
1268.303, 351.0346
1268.785, 353.0094
1269.267, 353.7046
1269.750, 352.8741
1270.232, 351.4727
1270.714, 348.9382
1271.196, 347.3700
1271.678, 349.5535
1272.160, 352.9015
1272.642, 352.8228
1273.124, 349.6483
1273.606, 348.3526
1274.089, 349.2367
1274.571, 350.1240
1275.053, 349.5755
1275.535, 348.9567
1276.017, 348.7617
1276.499, 348.7809
1276.981, 348.7915
1277.463, 348.7733
1277.946, 348.4790
1278.428, 347.9933
1278.910, 347.9807
1279.392, 349.7218
1279.874, 350.4095
1280.356, 349.0785
1280.838, 347.5379
1281.320, 348.1715
1281.802, 349.8658
1282.285, 350.4479
1282.767, 349.9348
1283.249, 348.7998
1283.731, 346.0177
1284.213, 345.0807
1284.695, 346.6407
1285.177, 348.6137
1285.659, 349.1054
1286.141, 348.8990
1286.624, 348.8015
1287.106, 348.8435
1287.588, 349.0630
1288.070, 349.5935
1288.552, 349.6523
1289.034, 349.1534
1289.516, 348.7557
1289.998, 349.0436
1290.481, 349.5544
1290.963, 350.0583
1291.445, 350.4566
1291.927, 350.6868
1292.409, 350.7638
1292.891, 350.1004
1293.373, 348.7615
1293.855, 347.8434
1294.338, 348.1952
1294.820, 348.8940
1295.302, 349.8092
1295.784, 350.6188
1296.266, 350.8728
1296.748, 350.7230
1297.230, 351.4086
1297.712, 352.7077
1298.194, 353.5555
1298.677, 352.6889
1299.159, 352.3273
1299.641, 352.9149
1300.123, 353.7748
1300.605, 354.7984
1301.087, 355.4903
1301.569, 353.8707
1302.051, 351.0102
1302.533, 349.3131
1303.016, 349.0945
##END=



