##NAMES=Monteregianite-(Y)
##RRUFFID=R130052
##IDEAL CHEMISTRY=KNa_2_YSi_8_O_19_&#183;5H_2_O
##LOCALITY=Mont Saint-Hilaire, Rouville RCM, Monteregie, Quebec, Canada
##OWNER=RRUFF
##SOURCE=Don Doell
##DESCRIPTION=Single bladed pale pink crystal, cell parameters are significantly different than those reported
##STATUS=The identification of this mineral has been confirmed only by single crystal X-ray diffraction.
##URL=rruff.info/R130052
8.975323e+001, 0.000000e+000
9.023535e+001, 7.832786e+002
9.071747e+001, 7.862698e+002
9.119958e+001, 7.843471e+002
9.168170e+001, 7.885242e+002
9.216382e+001, 7.867219e+002
9.264594e+001, 7.784932e+002
9.312805e+001, 7.669993e+002
9.361017e+001, 7.545587e+002
9.409229e+001, 7.400826e+002
9.457440e+001, 7.209515e+002
9.505651e+001, 7.042268e+002
9.553863e+001, 6.909982e+002
9.602074e+001, 6.798441e+002
9.650286e+001, 6.697225e+002
9.698498e+001, 6.597553e+002
9.746709e+001, 6.486080e+002
9.794921e+001, 6.374586e+002
9.843133e+001, 6.256569e+002
9.891344e+001, 6.146478e+002
9.939556e+001, 6.044868e+002
9.987768e+001, 5.951139e+002
1.003598e+002, 5.867326e+002
1.008419e+002, 5.794991e+002
1.013240e+002, 5.733776e+002
1.018061e+002, 5.676932e+002
1.022883e+002, 5.621301e+002
1.027704e+002, 5.570668e+002
1.032525e+002, 5.529302e+002
1.037346e+002, 5.497315e+002
1.042167e+002, 5.470919e+002
1.046988e+002, 5.452137e+002
1.051810e+002, 5.435313e+002
1.056631e+002, 5.411472e+002
1.061452e+002, 5.374601e+002
1.066273e+002, 5.327074e+002
1.071094e+002, 5.278093e+002
1.075915e+002, 5.223350e+002
1.080737e+002, 5.172336e+002
1.085558e+002, 5.128435e+002
1.090379e+002, 5.090820e+002
1.095200e+002, 5.057704e+002
1.100021e+002, 5.027377e+002
1.104842e+002, 4.999679e+002
1.109664e+002, 4.976474e+002
1.114485e+002, 4.957905e+002
1.119306e+002, 4.943097e+002
1.124127e+002, 4.932845e+002
1.128948e+002, 4.926725e+002
1.133769e+002, 4.922728e+002
1.138591e+002, 4.918193e+002
1.143412e+002, 4.913616e+002
1.148233e+002, 4.907054e+002
1.153054e+002, 4.901929e+002
1.157875e+002, 4.893438e+002
1.162696e+002, 4.874975e+002
1.167517e+002, 4.843662e+002
1.172339e+002, 4.805612e+002
1.177160e+002, 4.775248e+002
1.181981e+002, 4.752300e+002
1.186802e+002, 4.734391e+002
1.191623e+002, 4.720912e+002
1.196444e+002, 4.711926e+002
1.201266e+002, 4.709544e+002
1.206087e+002, 4.720953e+002
1.210908e+002, 4.733882e+002
1.215729e+002, 4.726292e+002
1.220550e+002, 4.692416e+002
1.225371e+002, 4.648016e+002
1.230193e+002, 4.602002e+002
1.235014e+002, 4.552842e+002
1.239835e+002, 4.514023e+002
1.244656e+002, 4.502870e+002
1.249477e+002, 4.502052e+002
1.254298e+002, 4.496232e+002
1.259120e+002, 4.478610e+002
1.263941e+002, 4.455197e+002
1.268762e+002, 4.441033e+002
1.273583e+002, 4.445511e+002
1.278404e+002, 4.443199e+002
1.283225e+002, 4.424098e+002
1.288047e+002, 4.395304e+002
1.292868e+002, 4.366890e+002
1.297689e+002, 4.346122e+002
1.302510e+002, 4.331856e+002
1.307331e+002, 4.306953e+002
1.312152e+002, 4.255268e+002
1.316974e+002, 4.207716e+002
1.321795e+002, 4.172389e+002
1.326616e+002, 4.147788e+002
1.331437e+002, 4.128923e+002
1.336258e+002, 4.111957e+002
1.341079e+002, 4.097594e+002
1.345901e+002, 4.079417e+002
1.350722e+002, 4.053950e+002
1.355543e+002, 4.028193e+002
1.360364e+002, 4.006878e+002
1.365185e+002, 3.990190e+002
1.370006e+002, 3.974494e+002
1.374828e+002, 3.956276e+002
1.379649e+002, 3.935181e+002
1.384470e+002, 3.911475e+002
1.389291e+002, 3.882784e+002
1.394112e+002, 3.852356e+002
1.398933e+002, 3.823319e+002
1.403755e+002, 3.796147e+002
1.408576e+002, 3.771748e+002
1.413397e+002, 3.754286e+002
1.418218e+002, 3.743290e+002
1.423039e+002, 3.728087e+002
1.427860e+002, 3.697786e+002
1.432681e+002, 3.658203e+002
1.437503e+002, 3.632021e+002
1.442324e+002, 3.634072e+002
1.447145e+002, 3.639854e+002
1.451966e+002, 3.625251e+002
1.456787e+002, 3.590166e+002
1.461608e+002, 3.553510e+002
1.466430e+002, 3.533823e+002
1.471251e+002, 3.533391e+002
1.476072e+002, 3.527231e+002
1.480893e+002, 3.502333e+002
1.485714e+002, 3.475263e+002
1.490535e+002, 3.455513e+002
1.495357e+002, 3.444993e+002
1.500178e+002, 3.437966e+002
1.504999e+002, 3.425970e+002
1.509820e+002, 3.406292e+002
1.514641e+002, 3.387070e+002
1.519462e+002, 3.367846e+002
1.524284e+002, 3.349912e+002
1.529105e+002, 3.333934e+002
1.533926e+002, 3.320290e+002
1.538747e+002, 3.309074e+002
1.543568e+002, 3.300809e+002
1.548389e+002, 3.304233e+002
1.553211e+002, 3.299718e+002
1.558032e+002, 3.278433e+002
1.562853e+002, 3.251105e+002
1.567674e+002, 3.231797e+002
1.572495e+002, 3.227953e+002
1.577316e+002, 3.234850e+002
1.582138e+002, 3.232227e+002
1.586959e+002, 3.212437e+002
1.591780e+002, 3.193232e+002
1.596601e+002, 3.178925e+002
1.601422e+002, 3.168394e+002
1.606243e+002, 3.159266e+002
1.611065e+002, 3.150911e+002
1.615886e+002, 3.142480e+002
1.620707e+002, 3.131039e+002
1.625528e+002, 3.117321e+002
1.630349e+002, 3.100424e+002
1.635170e+002, 3.075495e+002
1.639991e+002, 3.043846e+002
1.644813e+002, 3.019633e+002
1.649634e+002, 3.016736e+002
1.654455e+002, 3.026624e+002
1.659276e+002, 3.028716e+002
1.664097e+002, 3.017008e+002
1.668918e+002, 2.999710e+002
1.673740e+002, 2.986110e+002
1.678561e+002, 2.977070e+002
1.683382e+002, 2.967737e+002
1.688203e+002, 2.954581e+002
1.693024e+002, 2.939663e+002
1.697845e+002, 2.925324e+002
1.702667e+002, 2.912707e+002
1.707488e+002, 2.901108e+002
1.712309e+002, 2.888615e+002
1.717130e+002, 2.873832e+002
1.721951e+002, 2.860900e+002
1.726772e+002, 2.850853e+002
1.731594e+002, 2.843304e+002
1.736415e+002, 2.838080e+002
1.741236e+002, 2.835952e+002
1.746057e+002, 2.836003e+002
1.750878e+002, 2.832460e+002
1.755699e+002, 2.821446e+002
1.760521e+002, 2.810965e+002
1.765342e+002, 2.805308e+002
1.770163e+002, 2.801639e+002
1.774984e+002, 2.794477e+002
1.779805e+002, 2.778935e+002
1.784626e+002, 2.754871e+002
1.789448e+002, 2.737598e+002
1.794269e+002, 2.733301e+002
1.799090e+002, 2.729614e+002
1.803911e+002, 2.722209e+002
1.808732e+002, 2.712175e+002
1.813553e+002, 2.703389e+002
1.818375e+002, 2.699415e+002
1.823196e+002, 2.700984e+002
1.828017e+002, 2.700104e+002
1.832838e+002, 2.697639e+002
1.837659e+002, 2.692636e+002
1.842480e+002, 2.682313e+002
1.847301e+002, 2.667918e+002
1.852123e+002, 2.655162e+002
1.856944e+002, 2.649997e+002
1.861765e+002, 2.653867e+002
1.866586e+002, 2.653529e+002
1.871407e+002, 2.644257e+002
1.876228e+002, 2.634290e+002
1.881050e+002, 2.632156e+002
1.885871e+002, 2.638310e+002
1.890692e+002, 2.642140e+002
1.895513e+002, 2.630664e+002
1.900334e+002, 2.604459e+002
1.905155e+002, 2.585148e+002
1.909977e+002, 2.578251e+002
1.914798e+002, 2.577957e+002
1.919619e+002, 2.578817e+002
1.924440e+002, 2.580624e+002
1.929261e+002, 2.581488e+002
1.934082e+002, 2.578963e+002
1.938904e+002, 2.573894e+002
1.943725e+002, 2.568231e+002
1.948546e+002, 2.562677e+002
1.953367e+002, 2.556897e+002
1.958188e+002, 2.549734e+002
1.963009e+002, 2.540074e+002
1.967831e+002, 2.531357e+002
1.972652e+002, 2.525997e+002
1.977473e+002, 2.523357e+002
1.982294e+002, 2.522307e+002
1.987115e+002, 2.523859e+002
1.991936e+002, 2.526928e+002
1.996758e+002, 2.526282e+002
2.001579e+002, 2.518288e+002
2.006400e+002, 2.511502e+002
2.011221e+002, 2.512380e+002
2.016042e+002, 2.518164e+002
2.020863e+002, 2.521904e+002
2.025685e+002, 2.516865e+002
2.030506e+002, 2.503832e+002
2.035327e+002, 2.496858e+002
2.040148e+002, 2.503040e+002
2.044969e+002, 2.508257e+002
2.049790e+002, 2.505543e+002
2.054612e+002, 2.497298e+002
2.059433e+002, 2.490011e+002
2.064254e+002, 2.489959e+002
2.069075e+002, 2.497764e+002
2.073896e+002, 2.500559e+002
2.078717e+002, 2.493390e+002
2.083539e+002, 2.485412e+002
2.088360e+002, 2.478715e+002
2.093181e+002, 2.473577e+002
2.098002e+002, 2.469647e+002
2.102823e+002, 2.466650e+002
2.107644e+002, 2.464626e+002
2.112466e+002, 2.463445e+002
2.117287e+002, 2.464608e+002
2.122108e+002, 2.465175e+002
2.126929e+002, 2.464245e+002
2.131750e+002, 2.461706e+002
2.136571e+002, 2.457422e+002
2.141393e+002, 2.450767e+002
2.146214e+002, 2.440743e+002
2.151035e+002, 2.435942e+002
2.155856e+002, 2.444161e+002
2.160677e+002, 2.449596e+002
2.165498e+002, 2.441150e+002
2.170320e+002, 2.421003e+002
2.175141e+002, 2.401389e+002
2.179962e+002, 2.394289e+002
2.184783e+002, 2.401884e+002
2.189604e+002, 2.402165e+002
2.194425e+002, 2.388356e+002
2.199247e+002, 2.373642e+002
2.204068e+002, 2.366858e+002
2.208889e+002, 2.367807e+002
2.213710e+002, 2.369787e+002
2.218531e+002, 2.367209e+002
2.223352e+002, 2.359591e+002
2.228174e+002, 2.351883e+002
2.232995e+002, 2.343772e+002
2.237816e+002, 2.335777e+002
2.242637e+002, 2.328404e+002
2.247458e+002, 2.321640e+002
2.252279e+002, 2.314891e+002
2.257100e+002, 2.306815e+002
2.261922e+002, 2.298156e+002
2.266743e+002, 2.293260e+002
2.271564e+002, 2.296342e+002
2.276385e+002, 2.300865e+002
2.281206e+002, 2.300527e+002
2.286027e+002, 2.294939e+002
2.290849e+002, 2.288087e+002
2.295670e+002, 2.281439e+002
2.300491e+002, 2.275846e+002
2.305312e+002, 2.273622e+002
2.310133e+002, 2.279269e+002
2.314954e+002, 2.286213e+002
2.319776e+002, 2.286244e+002
2.324597e+002, 2.278491e+002
2.329418e+002, 2.269934e+002
2.334239e+002, 2.264722e+002
2.339060e+002, 2.261608e+002
2.343881e+002, 2.258977e+002
2.348703e+002, 2.256983e+002
2.353524e+002, 2.254825e+002
2.358345e+002, 2.250591e+002
2.363166e+002, 2.243277e+002
2.367987e+002, 2.237977e+002
2.372808e+002, 2.239340e+002
2.377630e+002, 2.243546e+002
2.382451e+002, 2.246645e+002
2.387272e+002, 2.247394e+002
2.392093e+002, 2.246559e+002
2.396914e+002, 2.245661e+002
2.401735e+002, 2.245342e+002
2.406557e+002, 2.242774e+002
2.411378e+002, 2.236822e+002
2.416199e+002, 2.228244e+002
2.421020e+002, 2.215882e+002
2.425841e+002, 2.197917e+002
2.430662e+002, 2.180628e+002
2.435484e+002, 2.177013e+002
2.440305e+002, 2.193892e+002
2.445126e+002, 2.205791e+002
2.449947e+002, 2.205218e+002
2.454768e+002, 2.197461e+002
2.459589e+002, 2.184834e+002
2.464410e+002, 2.167734e+002
2.469232e+002, 2.150326e+002
2.474053e+002, 2.140648e+002
2.478874e+002, 2.143427e+002
2.483695e+002, 2.142664e+002
2.488516e+002, 2.133260e+002
2.493337e+002, 2.121067e+002
2.498159e+002, 2.109705e+002
2.502980e+002, 2.100387e+002
2.507801e+002, 2.093471e+002
2.512622e+002, 2.090233e+002
2.517443e+002, 2.093676e+002
2.522264e+002, 2.093909e+002
2.527086e+002, 2.089342e+002
2.531907e+002, 2.082304e+002
2.536728e+002, 2.073383e+002
2.541549e+002, 2.063116e+002
2.546370e+002, 2.053185e+002
2.551191e+002, 2.045815e+002
2.556013e+002, 2.040345e+002
2.560834e+002, 2.039516e+002
2.565655e+002, 2.049531e+002
2.570476e+002, 2.058923e+002
2.575297e+002, 2.059714e+002
2.580118e+002, 2.050737e+002
2.584940e+002, 2.036663e+002
2.589761e+002, 2.022734e+002
2.594582e+002, 2.005458e+002
2.599403e+002, 1.998141e+002
2.604224e+002, 2.009683e+002
2.609045e+002, 2.022136e+002
2.613867e+002, 2.023488e+002
2.618688e+002, 2.013159e+002
2.623509e+002, 1.999158e+002
2.628330e+002, 1.990340e+002
2.633151e+002, 1.987479e+002
2.637972e+002, 1.987711e+002
2.642794e+002, 1.994714e+002
2.647615e+002, 2.001133e+002
2.652436e+002, 2.002143e+002
2.657257e+002, 1.998151e+002
2.662078e+002, 1.993285e+002
2.666899e+002, 1.991858e+002
2.671721e+002, 1.994979e+002
2.676542e+002, 1.994115e+002
2.681363e+002, 1.985127e+002
2.686184e+002, 1.976750e+002
2.691005e+002, 1.974433e+002
2.695826e+002, 1.977052e+002
2.700648e+002, 1.979221e+002
2.705469e+002, 1.976134e+002
2.710290e+002, 1.967490e+002
2.715111e+002, 1.963259e+002
2.719932e+002, 1.965681e+002
2.724753e+002, 1.969263e+002
2.729575e+002, 1.973081e+002
2.734396e+002, 1.976320e+002
2.739217e+002, 1.977144e+002
2.744038e+002, 1.973904e+002
2.748859e+002, 1.967089e+002
2.753680e+002, 1.962897e+002
2.758501e+002, 1.962188e+002
2.763322e+002, 1.962436e+002
2.768144e+002, 1.965278e+002
2.772965e+002, 1.968500e+002
2.777786e+002, 1.966196e+002
2.782607e+002, 1.953957e+002
2.787428e+002, 1.935504e+002
2.792249e+002, 1.927358e+002
2.797071e+002, 1.936095e+002
2.801892e+002, 1.945047e+002
2.806713e+002, 1.952210e+002
2.811534e+002, 1.956576e+002
2.816355e+002, 1.955294e+002
2.821176e+002, 1.946432e+002
2.825998e+002, 1.933517e+002
2.830819e+002, 1.925874e+002
2.835640e+002, 1.924801e+002
2.840461e+002, 1.925358e+002
2.845282e+002, 1.927798e+002
2.850103e+002, 1.930974e+002
2.854925e+002, 1.933150e+002
2.859746e+002, 1.933726e+002
2.864567e+002, 1.933402e+002
2.869388e+002, 1.933306e+002
2.874209e+002, 1.933537e+002
2.879030e+002, 1.933659e+002
2.883852e+002, 1.932844e+002
2.888673e+002, 1.932190e+002
2.893494e+002, 1.934254e+002
2.898315e+002, 1.939798e+002
2.903136e+002, 1.944124e+002
2.907957e+002, 1.939885e+002
2.912779e+002, 1.925367e+002
2.917600e+002, 1.916168e+002
2.922421e+002, 1.918034e+002
2.927242e+002, 1.923505e+002
2.932063e+002, 1.925712e+002
2.936884e+002, 1.923748e+002
2.941706e+002, 1.919530e+002
2.946527e+002, 1.913651e+002
2.951348e+002, 1.906298e+002
2.956169e+002, 1.903043e+002
2.960990e+002, 1.906020e+002
2.965811e+002, 1.911763e+002
2.970633e+002, 1.919337e+002
2.975454e+002, 1.928159e+002
2.980275e+002, 1.934175e+002
2.985096e+002, 1.933324e+002
2.989917e+002, 1.926949e+002
2.994738e+002, 1.924586e+002
2.999560e+002, 1.927626e+002
3.004381e+002, 1.933291e+002
3.009202e+002, 1.941985e+002
3.014023e+002, 1.952670e+002
3.018844e+002, 1.960735e+002
3.023665e+002, 1.963340e+002
3.028487e+002, 1.961893e+002
3.033308e+002, 1.961086e+002
3.038129e+002, 1.961384e+002
3.042950e+002, 1.961489e+002
3.047771e+002, 1.958835e+002
3.052592e+002, 1.955393e+002
3.057414e+002, 1.957596e+002
3.062235e+002, 1.969811e+002
3.067056e+002, 1.985159e+002
3.071877e+002, 1.988957e+002
3.076698e+002, 1.978787e+002
3.081519e+002, 1.969915e+002
3.086341e+002, 1.965822e+002
3.091162e+002, 1.966487e+002
3.095983e+002, 1.973366e+002
3.100804e+002, 1.987778e+002
3.105625e+002, 2.004264e+002
3.110446e+002, 2.015951e+002
3.115268e+002, 2.023141e+002
3.120089e+002, 2.026988e+002
3.124910e+002, 2.025893e+002
3.129731e+002, 2.022379e+002
3.134552e+002, 2.018330e+002
3.139373e+002, 2.013891e+002
3.144195e+002, 2.011927e+002
3.149016e+002, 2.016596e+002
3.153837e+002, 2.027339e+002
3.158658e+002, 2.034683e+002
3.163479e+002, 2.034319e+002
3.168300e+002, 2.032793e+002
3.173121e+002, 2.037227e+002
3.177943e+002, 2.047195e+002
3.182764e+002, 2.054372e+002
3.187585e+002, 2.053095e+002
3.192406e+002, 2.044089e+002
3.197227e+002, 2.033845e+002
3.202048e+002, 2.020137e+002
3.206870e+002, 2.007388e+002
3.211691e+002, 1.998146e+002
3.216512e+002, 1.991936e+002
3.221333e+002, 1.987149e+002
3.226154e+002, 1.983493e+002
3.230975e+002, 1.980348e+002
3.235797e+002, 1.976162e+002
3.240618e+002, 1.970467e+002
3.245439e+002, 1.964941e+002
3.250260e+002, 1.959765e+002
3.255081e+002, 1.955206e+002
3.259902e+002, 1.951539e+002
3.264724e+002, 1.948720e+002
3.269545e+002, 1.947355e+002
3.274366e+002, 1.949828e+002
3.279187e+002, 1.957644e+002
3.284008e+002, 1.960452e+002
3.288829e+002, 1.951347e+002
3.293651e+002, 1.938527e+002
3.298472e+002, 1.931643e+002
3.303293e+002, 1.932356e+002
3.308114e+002, 1.936175e+002
3.312935e+002, 1.938391e+002
3.317756e+002, 1.938865e+002
3.322578e+002, 1.943465e+002
3.327399e+002, 1.956165e+002
3.332220e+002, 1.970122e+002
3.337041e+002, 1.979446e+002
3.341862e+002, 1.984565e+002
3.346683e+002, 1.991409e+002
3.351505e+002, 2.005099e+002
3.356326e+002, 2.024032e+002
3.361147e+002, 2.036272e+002
3.365968e+002, 2.037208e+002
3.370789e+002, 2.037319e+002
3.375610e+002, 2.041652e+002
3.380432e+002, 2.048573e+002
3.385253e+002, 2.053784e+002
3.390074e+002, 2.055058e+002
3.394895e+002, 2.054027e+002
3.399716e+002, 2.055554e+002
3.404537e+002, 2.064524e+002
3.409359e+002, 2.067093e+002
3.414180e+002, 2.057224e+002
3.419001e+002, 2.040744e+002
3.423822e+002, 2.024265e+002
3.428643e+002, 2.009726e+002
3.433464e+002, 1.997217e+002
3.438286e+002, 1.987152e+002
3.443107e+002, 1.980686e+002
3.447928e+002, 1.973553e+002
3.452749e+002, 1.964192e+002
3.457570e+002, 1.955281e+002
3.462391e+002, 1.949224e+002
3.467213e+002, 1.946033e+002
3.472034e+002, 1.943694e+002
3.476855e+002, 1.940448e+002
3.481676e+002, 1.936209e+002
3.486497e+002, 1.932986e+002
3.491318e+002, 1.933553e+002
3.496140e+002, 1.932232e+002
3.500961e+002, 1.924766e+002
3.505782e+002, 1.913470e+002
3.510603e+002, 1.903543e+002
3.515424e+002, 1.897988e+002
3.520245e+002, 1.896274e+002
3.525067e+002, 1.896238e+002
3.529888e+002, 1.899823e+002
3.534709e+002, 1.902667e+002
3.539530e+002, 1.903791e+002
3.544351e+002, 1.904068e+002
3.549172e+002, 1.904742e+002
3.553994e+002, 1.906203e+002
3.558815e+002, 1.907503e+002
3.563636e+002, 1.906894e+002
3.568457e+002, 1.902479e+002
3.573278e+002, 1.900033e+002
3.578099e+002, 1.903206e+002
3.582920e+002, 1.905445e+002
3.587741e+002, 1.900354e+002
3.592563e+002, 1.888678e+002
3.597384e+002, 1.877344e+002
3.602205e+002, 1.873063e+002
3.607026e+002, 1.876375e+002
3.611847e+002, 1.881798e+002
3.616668e+002, 1.894002e+002
3.621490e+002, 1.903357e+002
3.626311e+002, 1.906421e+002
3.631132e+002, 1.904268e+002
3.635953e+002, 1.898435e+002
3.640774e+002, 1.889397e+002
3.645595e+002, 1.878789e+002
3.650417e+002, 1.873703e+002
3.655238e+002, 1.878174e+002
3.660059e+002, 1.883065e+002
3.664880e+002, 1.889495e+002
3.669701e+002, 1.894704e+002
3.674522e+002, 1.894917e+002
3.679344e+002, 1.889269e+002
3.684165e+002, 1.881898e+002
3.688986e+002, 1.879440e+002
3.693807e+002, 1.883847e+002
3.698628e+002, 1.888001e+002
3.703449e+002, 1.893062e+002
3.708271e+002, 1.896706e+002
3.713092e+002, 1.896841e+002
3.717913e+002, 1.894061e+002
3.722734e+002, 1.891108e+002
3.727555e+002, 1.890513e+002
3.732376e+002, 1.892195e+002
3.737198e+002, 1.893304e+002
3.742019e+002, 1.894150e+002
3.746840e+002, 1.893929e+002
3.751661e+002, 1.891949e+002
3.756482e+002, 1.888917e+002
3.761303e+002, 1.885804e+002
3.766125e+002, 1.882966e+002
3.770946e+002, 1.880540e+002
3.775767e+002, 1.878688e+002
3.780588e+002, 1.877135e+002
3.785409e+002, 1.876960e+002
3.790230e+002, 1.880306e+002
3.795052e+002, 1.884001e+002
3.799873e+002, 1.885827e+002
3.804694e+002, 1.885321e+002
3.809515e+002, 1.882817e+002
3.814336e+002, 1.878000e+002
3.819157e+002, 1.870913e+002
3.823979e+002, 1.864096e+002
3.828800e+002, 1.856393e+002
3.833621e+002, 1.851008e+002
3.838442e+002, 1.852142e+002
3.843263e+002, 1.857675e+002
3.848084e+002, 1.859986e+002
3.852906e+002, 1.853810e+002
3.857727e+002, 1.841775e+002
3.862548e+002, 1.829112e+002
3.867369e+002, 1.815365e+002
3.872190e+002, 1.802791e+002
3.877011e+002, 1.793370e+002
3.881833e+002, 1.785746e+002
3.886654e+002, 1.778078e+002
3.891475e+002, 1.769822e+002
3.896296e+002, 1.761834e+002
3.901117e+002, 1.755862e+002
3.905938e+002, 1.751396e+002
3.910760e+002, 1.743654e+002
3.915581e+002, 1.727897e+002
3.920402e+002, 1.712322e+002
3.925223e+002, 1.709958e+002
3.930044e+002, 1.721805e+002
3.934865e+002, 1.731082e+002
3.939687e+002, 1.729851e+002
3.944508e+002, 1.722443e+002
3.949329e+002, 1.714736e+002
3.954150e+002, 1.707292e+002
3.958971e+002, 1.701833e+002
3.963792e+002, 1.700861e+002
3.968614e+002, 1.703889e+002
3.973435e+002, 1.704557e+002
3.978256e+002, 1.701338e+002
3.983077e+002, 1.696769e+002
3.987898e+002, 1.692240e+002
3.992719e+002, 1.687717e+002
3.997540e+002, 1.682171e+002
4.002361e+002, 1.674174e+002
4.007183e+002, 1.666281e+002
4.012004e+002, 1.667150e+002
4.016825e+002, 1.685180e+002
4.021646e+002, 1.695921e+002
4.026467e+002, 1.688803e+002
4.031288e+002, 1.675111e+002
4.036110e+002, 1.667427e+002
4.040931e+002, 1.668694e+002
4.045752e+002, 1.675003e+002
4.050573e+002, 1.682855e+002
4.055394e+002, 1.693906e+002
4.060215e+002, 1.696848e+002
4.065037e+002, 1.686621e+002
4.069858e+002, 1.674254e+002
4.074679e+002, 1.662104e+002
4.079500e+002, 1.652197e+002
4.084321e+002, 1.648123e+002
4.089142e+002, 1.652457e+002
4.093964e+002, 1.663516e+002
4.098785e+002, 1.673724e+002
4.103606e+002, 1.687132e+002
4.108427e+002, 1.693833e+002
4.113248e+002, 1.687438e+002
4.118069e+002, 1.677163e+002
4.122891e+002, 1.671632e+002
4.127712e+002, 1.673093e+002
4.132533e+002, 1.678108e+002
4.137354e+002, 1.682462e+002
4.142175e+002, 1.686189e+002
4.146996e+002, 1.689164e+002
4.151818e+002, 1.689557e+002
4.156639e+002, 1.690894e+002
4.161460e+002, 1.695874e+002
4.166281e+002, 1.703000e+002
4.171102e+002, 1.708356e+002
4.175923e+002, 1.708872e+002
4.180745e+002, 1.706370e+002
4.185566e+002, 1.706819e+002
4.190387e+002, 1.709885e+002
4.195208e+002, 1.716845e+002
4.200029e+002, 1.733631e+002
4.204850e+002, 1.751244e+002
4.209672e+002, 1.761110e+002
4.214493e+002, 1.761124e+002
4.219314e+002, 1.755796e+002
4.224135e+002, 1.747463e+002
4.228956e+002, 1.736453e+002
4.233777e+002, 1.729411e+002
4.238599e+002, 1.728666e+002
4.243420e+002, 1.730435e+002
4.248241e+002, 1.732106e+002
4.253062e+002, 1.733709e+002
4.257883e+002, 1.735362e+002
4.262704e+002, 1.738020e+002
4.267526e+002, 1.740356e+002
4.272347e+002, 1.740163e+002
4.277168e+002, 1.737339e+002
4.281989e+002, 1.733682e+002
4.286810e+002, 1.729951e+002
4.291631e+002, 1.726052e+002
4.296453e+002, 1.722067e+002
4.301274e+002, 1.718579e+002
4.306095e+002, 1.713662e+002
4.310916e+002, 1.703694e+002
4.315737e+002, 1.692034e+002
4.320558e+002, 1.686736e+002
4.325380e+002, 1.690527e+002
4.330201e+002, 1.695676e+002
4.335022e+002, 1.692410e+002
4.339843e+002, 1.679151e+002
4.344664e+002, 1.670177e+002
4.349485e+002, 1.669149e+002
4.354307e+002, 1.669808e+002
4.359128e+002, 1.668709e+002
4.363949e+002, 1.665776e+002
4.368770e+002, 1.661714e+002
4.373591e+002, 1.656844e+002
4.378412e+002, 1.651347e+002
4.383234e+002, 1.645993e+002
4.388055e+002, 1.637471e+002
4.392876e+002, 1.633439e+002
4.397697e+002, 1.637688e+002
4.402518e+002, 1.644819e+002
4.407339e+002, 1.650955e+002
4.412160e+002, 1.654722e+002
4.416982e+002, 1.655027e+002
4.421803e+002, 1.649618e+002
4.426624e+002, 1.636900e+002
4.431445e+002, 1.630112e+002
4.436266e+002, 1.633033e+002
4.441087e+002, 1.638112e+002
4.445909e+002, 1.645885e+002
4.450730e+002, 1.653733e+002
4.455551e+002, 1.657685e+002
4.460372e+002, 1.655451e+002
4.465193e+002, 1.649303e+002
4.470014e+002, 1.644066e+002
4.474836e+002, 1.639911e+002
4.479657e+002, 1.636184e+002
4.484478e+002, 1.629950e+002
4.489299e+002, 1.626194e+002
4.494120e+002, 1.629535e+002
4.498941e+002, 1.639536e+002
4.503763e+002, 1.650428e+002
4.508584e+002, 1.659659e+002
4.513405e+002, 1.666495e+002
4.518226e+002, 1.665737e+002
4.523047e+002, 1.653201e+002
4.527868e+002, 1.643335e+002
4.532690e+002, 1.649400e+002
4.537511e+002, 1.662400e+002
4.542332e+002, 1.669264e+002
4.547153e+002, 1.664946e+002
4.551974e+002, 1.658425e+002
4.556795e+002, 1.655446e+002
4.561617e+002, 1.656161e+002
4.566438e+002, 1.662265e+002
4.571259e+002, 1.676118e+002
4.576080e+002, 1.691570e+002
4.580901e+002, 1.700936e+002
4.585722e+002, 1.704595e+002
4.590544e+002, 1.704567e+002
4.595365e+002, 1.696732e+002
4.600186e+002, 1.688562e+002
4.605007e+002, 1.687198e+002
4.609828e+002, 1.692095e+002
4.614649e+002, 1.697919e+002
4.619471e+002, 1.701384e+002
4.624292e+002, 1.703341e+002
4.629113e+002, 1.707471e+002
4.633934e+002, 1.718463e+002
4.638755e+002, 1.725372e+002
4.643576e+002, 1.723111e+002
4.648398e+002, 1.718311e+002
4.653219e+002, 1.718217e+002
4.658040e+002, 1.723954e+002
4.662861e+002, 1.731039e+002
4.667682e+002, 1.734251e+002
4.672503e+002, 1.732871e+002
4.677325e+002, 1.734759e+002
4.682146e+002, 1.744581e+002
4.686967e+002, 1.752688e+002
4.691788e+002, 1.755086e+002
4.696609e+002, 1.754489e+002
4.701430e+002, 1.755131e+002
4.706252e+002, 1.758914e+002
4.711073e+002, 1.764067e+002
4.715894e+002, 1.766870e+002
4.720715e+002, 1.766116e+002
4.725536e+002, 1.768362e+002
4.730357e+002, 1.777085e+002
4.735179e+002, 1.787017e+002
4.740000e+002, 1.795334e+002
4.744821e+002, 1.802155e+002
4.749642e+002, 1.809063e+002
4.754463e+002, 1.818725e+002
4.759284e+002, 1.828444e+002
4.764106e+002, 1.831160e+002
4.768927e+002, 1.825635e+002
4.773748e+002, 1.820754e+002
4.778569e+002, 1.819960e+002
4.783390e+002, 1.822817e+002
4.788211e+002, 1.828918e+002
4.793033e+002, 1.839390e+002
4.797854e+002, 1.848847e+002
4.802675e+002, 1.852598e+002
4.807496e+002, 1.854002e+002
4.812317e+002, 1.860670e+002
4.817138e+002, 1.874221e+002
4.821959e+002, 1.886317e+002
4.826780e+002, 1.888552e+002
4.831602e+002, 1.881061e+002
4.836423e+002, 1.878134e+002
4.841244e+002, 1.882169e+002
4.846065e+002, 1.887834e+002
4.850886e+002, 1.895583e+002
4.855707e+002, 1.902953e+002
4.860529e+002, 1.905002e+002
4.865350e+002, 1.899957e+002
4.870171e+002, 1.891967e+002
4.874992e+002, 1.887864e+002
4.879813e+002, 1.888936e+002
4.884634e+002, 1.890480e+002
4.889456e+002, 1.895439e+002
4.894277e+002, 1.898028e+002
4.899098e+002, 1.893897e+002
4.903919e+002, 1.885162e+002
4.908740e+002, 1.876962e+002
4.913561e+002, 1.872575e+002
4.918383e+002, 1.870292e+002
4.923204e+002, 1.865326e+002
4.928025e+002, 1.856892e+002
4.932846e+002, 1.847997e+002
4.937667e+002, 1.836695e+002
4.942488e+002, 1.827086e+002
4.947310e+002, 1.823377e+002
4.952131e+002, 1.825110e+002
4.956952e+002, 1.826387e+002
4.961773e+002, 1.822224e+002
4.966594e+002, 1.814597e+002
4.971415e+002, 1.809221e+002
4.976237e+002, 1.806748e+002
4.981058e+002, 1.803872e+002
4.985879e+002, 1.797978e+002
4.990700e+002, 1.790785e+002
4.995521e+002, 1.786316e+002
5.000342e+002, 1.787250e+002
5.005164e+002, 1.784787e+002
5.009985e+002, 1.770189e+002
5.014806e+002, 1.750376e+002
5.019627e+002, 1.738559e+002
5.024448e+002, 1.737541e+002
5.029269e+002, 1.739026e+002
5.034091e+002, 1.735718e+002
5.038912e+002, 1.727380e+002
5.043733e+002, 1.716246e+002
5.048554e+002, 1.696015e+002
5.053375e+002, 1.680320e+002
5.058196e+002, 1.679001e+002
5.063018e+002, 1.683827e+002
5.067839e+002, 1.681502e+002
5.072660e+002, 1.667445e+002
5.077481e+002, 1.648599e+002
5.082302e+002, 1.635671e+002
5.087123e+002, 1.630197e+002
5.091945e+002, 1.625053e+002
5.096766e+002, 1.622386e+002
5.101587e+002, 1.617897e+002
5.106408e+002, 1.609442e+002
5.111229e+002, 1.597983e+002
5.116050e+002, 1.584862e+002
5.120872e+002, 1.570069e+002
5.125693e+002, 1.556107e+002
5.130514e+002, 1.548579e+002
5.135335e+002, 1.548550e+002
5.140156e+002, 1.546428e+002
5.144977e+002, 1.538383e+002
5.149799e+002, 1.529311e+002
5.154620e+002, 1.523089e+002
5.159441e+002, 1.519524e+002
5.164262e+002, 1.516994e+002
5.169083e+002, 1.516606e+002
5.173904e+002, 1.515838e+002
5.178726e+002, 1.510753e+002
5.183547e+002, 1.501607e+002
5.188368e+002, 1.492159e+002
5.193189e+002, 1.483467e+002
5.198010e+002, 1.476357e+002
5.202831e+002, 1.473860e+002
5.207653e+002, 1.478452e+002
5.212474e+002, 1.479490e+002
5.217295e+002, 1.472287e+002
5.222116e+002, 1.462850e+002
5.226937e+002, 1.455972e+002
5.231758e+002, 1.452090e+002
5.236580e+002, 1.449870e+002
5.241401e+002, 1.448563e+002
5.246222e+002, 1.447895e+002
5.251043e+002, 1.446377e+002
5.255864e+002, 1.443517e+002
5.260685e+002, 1.440470e+002
5.265507e+002, 1.436983e+002
5.270328e+002, 1.433597e+002
5.275149e+002, 1.430657e+002
5.279970e+002, 1.428261e+002
5.284791e+002, 1.426487e+002
5.289612e+002, 1.425677e+002
5.294434e+002, 1.425596e+002
5.299255e+002, 1.424897e+002
5.304076e+002, 1.423846e+002
5.308897e+002, 1.421563e+002
5.313718e+002, 1.415605e+002
5.318539e+002, 1.409221e+002
5.323361e+002, 1.405777e+002
5.328182e+002, 1.405936e+002
5.333003e+002, 1.407983e+002
5.337824e+002, 1.413585e+002
5.342645e+002, 1.419751e+002
5.347466e+002, 1.418065e+002
5.352288e+002, 1.406762e+002
5.357109e+002, 1.397254e+002
5.361930e+002, 1.399316e+002
5.366751e+002, 1.410756e+002
5.371572e+002, 1.417104e+002
5.376393e+002, 1.415212e+002
5.381215e+002, 1.412603e+002
5.386036e+002, 1.411707e+002
5.390857e+002, 1.411119e+002
5.395678e+002, 1.407873e+002
5.400499e+002, 1.401932e+002
5.405320e+002, 1.397838e+002
5.410142e+002, 1.401021e+002
5.414963e+002, 1.411796e+002
5.419784e+002, 1.418839e+002
5.424604e+002, 1.421568e+002
5.429426e+002, 1.420796e+002
5.434247e+002, 1.414896e+002
5.439068e+002, 1.406435e+002
5.443889e+002, 1.396749e+002
5.448710e+002, 1.386536e+002
5.453531e+002, 1.379694e+002
5.458353e+002, 1.382703e+002
5.463174e+002, 1.394518e+002
5.467995e+002, 1.402806e+002
5.472816e+002, 1.407068e+002
5.477637e+002, 1.407464e+002
5.482458e+002, 1.402152e+002
5.487280e+002, 1.393398e+002
5.492101e+002, 1.383814e+002
5.496922e+002, 1.371601e+002
5.501743e+002, 1.363473e+002
5.506564e+002, 1.367064e+002
5.511385e+002, 1.377156e+002
5.516207e+002, 1.382754e+002
5.521028e+002, 1.381529e+002
5.525849e+002, 1.377599e+002
5.530670e+002, 1.374474e+002
5.535491e+002, 1.372158e+002
5.540313e+002, 1.370235e+002
5.545134e+002, 1.371118e+002
5.549955e+002, 1.369494e+002
5.554776e+002, 1.360463e+002
5.559597e+002, 1.349669e+002
5.564418e+002, 1.344249e+002
5.569240e+002, 1.345893e+002
5.574061e+002, 1.351216e+002
5.578882e+002, 1.357231e+002
5.583703e+002, 1.364067e+002
5.588524e+002, 1.367153e+002
5.593345e+002, 1.365863e+002
5.598167e+002, 1.361323e+002
5.602988e+002, 1.349444e+002
5.607809e+002, 1.336917e+002
5.612630e+002, 1.332754e+002
5.617451e+002, 1.339762e+002
5.622272e+002, 1.349323e+002
5.627094e+002, 1.353782e+002
5.631915e+002, 1.354717e+002
5.636736e+002, 1.357878e+002
5.641557e+002, 1.364469e+002
5.646378e+002, 1.370529e+002
5.651199e+002, 1.372894e+002
5.656021e+002, 1.372338e+002
5.660842e+002, 1.372871e+002
5.665663e+002, 1.377375e+002
5.670484e+002, 1.378907e+002
5.675305e+002, 1.370307e+002
5.680126e+002, 1.359721e+002
5.684948e+002, 1.359098e+002
5.689769e+002, 1.369522e+002
5.694590e+002, 1.380912e+002
5.699411e+002, 1.383038e+002
5.704232e+002, 1.376789e+002
5.709053e+002, 1.379353e+002
5.713875e+002, 1.404933e+002
5.718696e+002, 1.420040e+002
5.723517e+002, 1.411109e+002
5.728338e+002, 1.395231e+002
5.733159e+002, 1.388107e+002
5.737980e+002, 1.392115e+002
5.742802e+002, 1.399506e+002
5.747623e+002, 1.403727e+002
5.752444e+002, 1.405740e+002
5.757265e+002, 1.410617e+002
5.762086e+002, 1.419895e+002
5.766907e+002, 1.425342e+002
5.771729e+002, 1.420129e+002
5.776550e+002, 1.410345e+002
5.781371e+002, 1.406077e+002
5.786192e+002, 1.408549e+002
5.791013e+002, 1.411732e+002
5.795834e+002, 1.413177e+002
5.800656e+002, 1.414253e+002
5.805477e+002, 1.416911e+002
5.810298e+002, 1.420998e+002
5.815119e+002, 1.424346e+002
5.819940e+002, 1.425244e+002
5.824761e+002, 1.425048e+002
5.829583e+002, 1.428501e+002
5.834404e+002, 1.440141e+002
5.839225e+002, 1.448544e+002
5.844046e+002, 1.450178e+002
5.848867e+002, 1.451532e+002
5.853688e+002, 1.457769e+002
5.858510e+002, 1.467741e+002
5.863331e+002, 1.476619e+002
5.868152e+002, 1.481188e+002
5.872973e+002, 1.483131e+002
5.877794e+002, 1.485945e+002
5.882615e+002, 1.489603e+002
5.887437e+002, 1.494301e+002
5.892258e+002, 1.499683e+002
5.897079e+002, 1.506700e+002
5.901900e+002, 1.516878e+002
5.906721e+002, 1.529666e+002
5.911542e+002, 1.541372e+002
5.916364e+002, 1.548592e+002
5.921185e+002, 1.556198e+002
5.926006e+002, 1.569043e+002
5.930827e+002, 1.585661e+002
5.935648e+002, 1.601451e+002
5.940469e+002, 1.614615e+002
5.945291e+002, 1.627404e+002
5.950112e+002, 1.643161e+002
5.954933e+002, 1.662780e+002
5.959754e+002, 1.681557e+002
5.964575e+002, 1.698181e+002
5.969396e+002, 1.715560e+002
5.974218e+002, 1.733428e+002
5.979039e+002, 1.753243e+002
5.983860e+002, 1.777671e+002
5.988681e+002, 1.807530e+002
5.993502e+002, 1.839220e+002
5.998323e+002, 1.868930e+002
6.003145e+002, 1.896785e+002
6.007966e+002, 1.923020e+002
6.012787e+002, 1.946553e+002
6.017608e+002, 1.970534e+002
6.022429e+002, 1.996292e+002
6.027250e+002, 2.023755e+002
6.032072e+002, 2.052638e+002
6.036893e+002, 2.083346e+002
6.041714e+002, 2.114489e+002
6.046535e+002, 2.145979e+002
6.051356e+002, 2.177387e+002
6.056177e+002, 2.208658e+002
6.060999e+002, 2.239436e+002
6.065820e+002, 2.266872e+002
6.070641e+002, 2.287545e+002
6.075462e+002, 2.304384e+002
6.080283e+002, 2.331217e+002
6.085104e+002, 2.379126e+002
6.089926e+002, 2.421302e+002
6.094747e+002, 2.456347e+002
6.099568e+002, 2.485882e+002
6.104389e+002, 2.509539e+002
6.109210e+002, 2.528587e+002
6.114031e+002, 2.546339e+002
6.118853e+002, 2.565387e+002
6.123674e+002, 2.583617e+002
6.128495e+002, 2.596662e+002
6.133316e+002, 2.604398e+002
6.138137e+002, 2.609453e+002
6.142958e+002, 2.613842e+002
6.147780e+002, 2.613893e+002
6.152601e+002, 2.604966e+002
6.157422e+002, 2.588180e+002
6.162243e+002, 2.568932e+002
6.167064e+002, 2.548372e+002
6.171885e+002, 2.525648e+002
6.176707e+002, 2.500660e+002
6.181528e+002, 2.473018e+002
6.186349e+002, 2.441313e+002
6.191170e+002, 2.405228e+002
6.195991e+002, 2.367032e+002
6.200812e+002, 2.329353e+002
6.205634e+002, 2.292088e+002
6.210455e+002, 2.254562e+002
6.215276e+002, 2.211268e+002
6.220097e+002, 2.174787e+002
6.224918e+002, 2.152394e+002
6.229739e+002, 2.135440e+002
6.234561e+002, 2.115525e+002
6.239382e+002, 2.091062e+002
6.244203e+002, 2.065315e+002
6.249023e+002, 2.041929e+002
6.253845e+002, 2.019258e+002
6.258666e+002, 1.991920e+002
6.263487e+002, 1.959256e+002
6.268308e+002, 1.928050e+002
6.273129e+002, 1.900948e+002
6.277950e+002, 1.877348e+002
6.282772e+002, 1.856144e+002
6.287593e+002, 1.837286e+002
6.292414e+002, 1.820369e+002
6.297235e+002, 1.804544e+002
6.302056e+002, 1.791262e+002
6.306877e+002, 1.784770e+002
6.311699e+002, 1.781322e+002
6.316520e+002, 1.771386e+002
6.321341e+002, 1.750625e+002
6.326162e+002, 1.725726e+002
6.330983e+002, 1.708478e+002
6.335804e+002, 1.700564e+002
6.340626e+002, 1.691564e+002
6.345447e+002, 1.683479e+002
6.350268e+002, 1.671332e+002
6.355089e+002, 1.648438e+002
6.359910e+002, 1.622053e+002
6.364731e+002, 1.604363e+002
6.369553e+002, 1.600117e+002
6.374374e+002, 1.596390e+002
6.379195e+002, 1.583161e+002
6.384016e+002, 1.564463e+002
6.388837e+002, 1.548041e+002
6.393658e+002, 1.534738e+002
6.398480e+002, 1.519874e+002
6.403301e+002, 1.499551e+002
6.408122e+002, 1.476403e+002
6.412943e+002, 1.459125e+002
6.417764e+002, 1.450739e+002
6.422585e+002, 1.444305e+002
6.427407e+002, 1.443036e+002
6.432228e+002, 1.440869e+002
6.437049e+002, 1.433232e+002
6.441870e+002, 1.421440e+002
6.446691e+002, 1.409317e+002
6.451512e+002, 1.398771e+002
6.456334e+002, 1.389525e+002
6.461155e+002, 1.381737e+002
6.465976e+002, 1.375389e+002
6.470797e+002, 1.367274e+002
6.475618e+002, 1.355406e+002
6.480439e+002, 1.345064e+002
6.485261e+002, 1.342656e+002
6.490082e+002, 1.345070e+002
6.494903e+002, 1.342425e+002
6.499724e+002, 1.330198e+002
6.504545e+002, 1.318705e+002
6.509366e+002, 1.311712e+002
6.514188e+002, 1.307803e+002
6.519009e+002, 1.306414e+002
6.523830e+002, 1.306778e+002
6.528651e+002, 1.306502e+002
6.533472e+002, 1.303774e+002
6.538293e+002, 1.299113e+002
6.543115e+002, 1.294474e+002
6.547936e+002, 1.290227e+002
6.552757e+002, 1.285101e+002
6.557578e+002, 1.276698e+002
6.562399e+002, 1.269299e+002
6.567220e+002, 1.264340e+002
6.572042e+002, 1.262324e+002
6.576863e+002, 1.264986e+002
6.581684e+002, 1.276963e+002
6.586505e+002, 1.287453e+002
6.591326e+002, 1.282424e+002
6.596147e+002, 1.267860e+002
6.600969e+002, 1.261722e+002
6.605790e+002, 1.268082e+002
6.610611e+002, 1.276149e+002
6.615432e+002, 1.276427e+002
6.620253e+002, 1.269705e+002
6.625074e+002, 1.264530e+002
6.629896e+002, 1.263059e+002
6.634717e+002, 1.260299e+002
6.639538e+002, 1.255797e+002
6.644359e+002, 1.249868e+002
6.649180e+002, 1.240473e+002
6.654001e+002, 1.229502e+002
6.658823e+002, 1.223536e+002
6.663644e+002, 1.228497e+002
6.668465e+002, 1.237579e+002
6.673286e+002, 1.236780e+002
6.678107e+002, 1.226498e+002
6.682928e+002, 1.221177e+002
6.687750e+002, 1.225310e+002
6.692571e+002, 1.232124e+002
6.697392e+002, 1.236222e+002
6.702213e+002, 1.237498e+002
6.707034e+002, 1.236369e+002
6.711855e+002, 1.229609e+002
6.716677e+002, 1.224413e+002
6.721498e+002, 1.224626e+002
6.726319e+002, 1.226638e+002
6.731140e+002, 1.225395e+002
6.735961e+002, 1.221216e+002
6.740782e+002, 1.219928e+002
6.745604e+002, 1.227078e+002
6.750425e+002, 1.238541e+002
6.755246e+002, 1.239618e+002
6.760067e+002, 1.227353e+002
6.764888e+002, 1.217927e+002
6.769709e+002, 1.216023e+002
6.774531e+002, 1.216124e+002
6.779352e+002, 1.213010e+002
6.784173e+002, 1.208015e+002
6.788994e+002, 1.206103e+002
6.793815e+002, 1.211018e+002
6.798636e+002, 1.215934e+002
6.803458e+002, 1.216020e+002
6.808279e+002, 1.213833e+002
6.813100e+002, 1.213868e+002
6.817921e+002, 1.216612e+002
6.822742e+002, 1.218568e+002
6.827563e+002, 1.216488e+002
6.832385e+002, 1.211716e+002
6.837206e+002, 1.211391e+002
6.842027e+002, 1.219073e+002
6.846848e+002, 1.223385e+002
6.851669e+002, 1.219110e+002
6.856490e+002, 1.214283e+002
6.861312e+002, 1.214200e+002
6.866133e+002, 1.217464e+002
6.870954e+002, 1.219322e+002
6.875775e+002, 1.217880e+002
6.880596e+002, 1.214675e+002
6.885417e+002, 1.209575e+002
6.890239e+002, 1.203996e+002
6.895060e+002, 1.201881e+002
6.899881e+002, 1.203850e+002
6.904702e+002, 1.206273e+002
6.909523e+002, 1.206308e+002
6.914344e+002, 1.204433e+002
6.919166e+002, 1.203064e+002
6.923987e+002, 1.203216e+002
6.928808e+002, 1.202227e+002
6.933629e+002, 1.198719e+002
6.938450e+002, 1.195267e+002
6.943271e+002, 1.194034e+002
6.948093e+002, 1.194111e+002
6.952914e+002, 1.192591e+002
6.957735e+002, 1.187407e+002
6.962556e+002, 1.182662e+002
6.967377e+002, 1.185019e+002
6.972198e+002, 1.191772e+002
6.977020e+002, 1.192412e+002
6.981841e+002, 1.184991e+002
6.986662e+002, 1.177193e+002
6.991483e+002, 1.174977e+002
6.996304e+002, 1.176183e+002
7.001125e+002, 1.172573e+002
7.005947e+002, 1.159235e+002
7.010768e+002, 1.148589e+002
7.015589e+002, 1.140084e+002
7.020410e+002, 1.134971e+002
7.025231e+002, 1.135639e+002
7.030052e+002, 1.140058e+002
7.034874e+002, 1.143955e+002
7.039695e+002, 1.145387e+002
7.044516e+002, 1.146695e+002
7.049337e+002, 1.152566e+002
7.054158e+002, 1.161223e+002
7.058979e+002, 1.162974e+002
7.063801e+002, 1.156043e+002
7.068622e+002, 1.148186e+002
7.073442e+002, 1.143477e+002
7.078264e+002, 1.141127e+002
7.083085e+002, 1.139146e+002
7.087906e+002, 1.137165e+002
7.092727e+002, 1.136417e+002
7.097548e+002, 1.137662e+002
7.102369e+002, 1.139485e+002
7.107191e+002, 1.142158e+002
7.112012e+002, 1.144498e+002
7.116833e+002, 1.144282e+002
7.121654e+002, 1.140752e+002
7.126475e+002, 1.136187e+002
7.131296e+002, 1.132983e+002
7.136118e+002, 1.131009e+002
7.140939e+002, 1.129503e+002
7.145760e+002, 1.128484e+002
7.150581e+002, 1.127852e+002
7.155402e+002, 1.127930e+002
7.160223e+002, 1.128018e+002
7.165045e+002, 1.126580e+002
7.169866e+002, 1.123157e+002
7.174687e+002, 1.121127e+002
7.179508e+002, 1.121939e+002
7.184329e+002, 1.122963e+002
7.189150e+002, 1.123041e+002
7.193972e+002, 1.122437e+002
7.198793e+002, 1.121491e+002
7.203614e+002, 1.120361e+002
7.208435e+002, 1.119280e+002
7.213256e+002, 1.118005e+002
7.218077e+002, 1.117060e+002
7.222899e+002, 1.119000e+002
7.227720e+002, 1.124230e+002
7.232541e+002, 1.129133e+002
7.237362e+002, 1.132832e+002
7.242183e+002, 1.135357e+002
7.247004e+002, 1.137108e+002
7.251826e+002, 1.138051e+002
7.256647e+002, 1.135894e+002
7.261468e+002, 1.126265e+002
7.266289e+002, 1.118614e+002
7.271110e+002, 1.118352e+002
7.275931e+002, 1.120670e+002
7.280753e+002, 1.119751e+002
7.285574e+002, 1.115305e+002
7.290395e+002, 1.111070e+002
7.295216e+002, 1.109464e+002
7.300037e+002, 1.110425e+002
7.304858e+002, 1.115072e+002
7.309680e+002, 1.123624e+002
7.314501e+002, 1.128691e+002
7.319322e+002, 1.127562e+002
7.324143e+002, 1.125701e+002
7.328964e+002, 1.127944e+002
7.333785e+002, 1.133330e+002
7.338607e+002, 1.136612e+002
7.343428e+002, 1.136801e+002
7.348249e+002, 1.136409e+002
7.353070e+002, 1.135730e+002
7.357891e+002, 1.134825e+002
7.362712e+002, 1.133151e+002
7.367534e+002, 1.131308e+002
7.372355e+002, 1.131598e+002
7.377176e+002, 1.135516e+002
7.381997e+002, 1.138562e+002
7.386818e+002, 1.131116e+002
7.391639e+002, 1.114994e+002
7.396461e+002, 1.109164e+002
7.401282e+002, 1.117267e+002
7.406103e+002, 1.125822e+002
7.410924e+002, 1.127008e+002
7.415745e+002, 1.124129e+002
7.420566e+002, 1.124934e+002
7.425388e+002, 1.131368e+002
7.430209e+002, 1.134509e+002
7.435030e+002, 1.130656e+002
7.439851e+002, 1.126450e+002
7.444672e+002, 1.123960e+002
7.449493e+002, 1.123981e+002
7.454315e+002, 1.128927e+002
7.459136e+002, 1.138776e+002
7.463957e+002, 1.147156e+002
7.468778e+002, 1.145444e+002
7.473599e+002, 1.137851e+002
7.478420e+002, 1.138775e+002
7.483242e+002, 1.148486e+002
7.488063e+002, 1.155476e+002
7.492884e+002, 1.155749e+002
7.497705e+002, 1.152145e+002
7.502526e+002, 1.146848e+002
7.507347e+002, 1.139602e+002
7.512169e+002, 1.136763e+002
7.516990e+002, 1.142002e+002
7.521811e+002, 1.146488e+002
7.526632e+002, 1.148422e+002
7.531453e+002, 1.148709e+002
7.536274e+002, 1.147828e+002
7.541096e+002, 1.146120e+002
7.545917e+002, 1.144066e+002
7.550738e+002, 1.141552e+002
7.555559e+002, 1.139639e+002
7.560380e+002, 1.139193e+002
7.565201e+002, 1.140533e+002
7.570023e+002, 1.146430e+002
7.574844e+002, 1.157751e+002
7.579665e+002, 1.167190e+002
7.584486e+002, 1.169475e+002
7.589307e+002, 1.166079e+002
7.594128e+002, 1.161684e+002
7.598950e+002, 1.151820e+002
7.603771e+002, 1.149285e+002
7.608592e+002, 1.162255e+002
7.613413e+002, 1.173430e+002
7.618234e+002, 1.172725e+002
7.623055e+002, 1.165488e+002
7.627877e+002, 1.159866e+002
7.632698e+002, 1.158000e+002
7.637519e+002, 1.160157e+002
7.642340e+002, 1.168798e+002
7.647161e+002, 1.180407e+002
7.651982e+002, 1.191328e+002
7.656804e+002, 1.200527e+002
7.661625e+002, 1.202044e+002
7.666446e+002, 1.193050e+002
7.671267e+002, 1.182922e+002
7.676088e+002, 1.184876e+002
7.680909e+002, 1.199644e+002
7.685731e+002, 1.207633e+002
7.690552e+002, 1.204016e+002
7.695373e+002, 1.201508e+002
7.700194e+002, 1.202621e+002
7.705015e+002, 1.206017e+002
7.709836e+002, 1.213205e+002
7.714658e+002, 1.222461e+002
7.719479e+002, 1.225907e+002
7.724300e+002, 1.215621e+002
7.729121e+002, 1.205700e+002
7.733942e+002, 1.206676e+002
7.738763e+002, 1.214058e+002
7.743585e+002, 1.222533e+002
7.748406e+002, 1.230449e+002
7.753227e+002, 1.234850e+002
7.758048e+002, 1.233321e+002
7.762869e+002, 1.229430e+002
7.767690e+002, 1.233302e+002
7.772512e+002, 1.247360e+002
7.777333e+002, 1.251851e+002
7.782154e+002, 1.238495e+002
7.786975e+002, 1.228608e+002
7.791796e+002, 1.238770e+002
7.796617e+002, 1.257509e+002
7.801439e+002, 1.265119e+002
7.806260e+002, 1.258945e+002
7.811081e+002, 1.252451e+002
7.815902e+002, 1.247973e+002
7.820723e+002, 1.245067e+002
7.825544e+002, 1.244898e+002
7.830366e+002, 1.245551e+002
7.835187e+002, 1.243857e+002
7.840008e+002, 1.239107e+002
7.844829e+002, 1.233094e+002
7.849650e+002, 1.226468e+002
7.854471e+002, 1.220444e+002
7.859293e+002, 1.219784e+002
7.864114e+002, 1.224590e+002
7.868935e+002, 1.227697e+002
7.873756e+002, 1.226771e+002
7.878577e+002, 1.225479e+002
7.883398e+002, 1.227574e+002
7.888220e+002, 1.232464e+002
7.893040e+002, 1.235009e+002
7.897861e+002, 1.233195e+002
7.902682e+002, 1.232079e+002
7.907504e+002, 1.236370e+002
7.912325e+002, 1.237460e+002
7.917146e+002, 1.226673e+002
7.921967e+002, 1.208939e+002
7.926788e+002, 1.194495e+002
7.931609e+002, 1.186940e+002
7.936431e+002, 1.184131e+002
7.941252e+002, 1.185290e+002
7.946073e+002, 1.189458e+002
7.950894e+002, 1.196415e+002
7.955715e+002, 1.205294e+002
7.960536e+002, 1.210921e+002
7.965358e+002, 1.211122e+002
7.970179e+002, 1.207695e+002
7.975000e+002, 1.202467e+002
7.979821e+002, 1.195184e+002
7.984642e+002, 1.191949e+002
7.989464e+002, 1.195284e+002
7.994285e+002, 1.198070e+002
7.999106e+002, 1.198879e+002
8.003927e+002, 1.198241e+002
8.008748e+002, 1.195349e+002
8.013569e+002, 1.191007e+002
8.018391e+002, 1.188892e+002
8.023212e+002, 1.190704e+002
8.028033e+002, 1.193849e+002
8.032854e+002, 1.198424e+002
8.037675e+002, 1.202698e+002
8.042496e+002, 1.204190e+002
8.047318e+002, 1.203302e+002
8.052139e+002, 1.202567e+002
8.056960e+002, 1.203429e+002
8.061781e+002, 1.204021e+002
8.066602e+002, 1.200674e+002
8.071423e+002, 1.193766e+002
8.076245e+002, 1.188065e+002
8.081066e+002, 1.183235e+002
8.085887e+002, 1.182716e+002
8.090708e+002, 1.189820e+002
8.095529e+002, 1.199628e+002
8.100350e+002, 1.205170e+002
8.105172e+002, 1.206121e+002
8.109993e+002, 1.204155e+002
8.114814e+002, 1.195969e+002
8.119635e+002, 1.189130e+002
8.124456e+002, 1.186902e+002
8.129277e+002, 1.186082e+002
8.134099e+002, 1.182112e+002
8.138920e+002, 1.176254e+002
8.143741e+002, 1.175327e+002
8.148562e+002, 1.184481e+002
8.153383e+002, 1.196094e+002
8.158204e+002, 1.204289e+002
8.163026e+002, 1.208352e+002
8.167847e+002, 1.203489e+002
8.172668e+002, 1.190810e+002
8.177489e+002, 1.183859e+002
8.182310e+002, 1.190987e+002
8.187131e+002, 1.204547e+002
8.191953e+002, 1.209243e+002
8.196774e+002, 1.203175e+002
8.201595e+002, 1.200317e+002
8.206416e+002, 1.202295e+002
8.211237e+002, 1.204435e+002
8.216058e+002, 1.207391e+002
8.220880e+002, 1.207889e+002
8.225701e+002, 1.200119e+002
8.230522e+002, 1.184505e+002
8.235343e+002, 1.174109e+002
8.240164e+002, 1.174329e+002
8.244985e+002, 1.176925e+002
8.249807e+002, 1.181320e+002
8.254628e+002, 1.184255e+002
8.259449e+002, 1.179886e+002
8.264270e+002, 1.170182e+002
8.269091e+002, 1.164111e+002
8.273912e+002, 1.167158e+002
8.278734e+002, 1.173709e+002
8.283555e+002, 1.176224e+002
8.288376e+002, 1.175409e+002
8.293197e+002, 1.173472e+002
8.298018e+002, 1.170599e+002
8.302839e+002, 1.170069e+002
8.307661e+002, 1.174235e+002
8.312482e+002, 1.179452e+002
8.317303e+002, 1.179511e+002
8.322124e+002, 1.173578e+002
8.326945e+002, 1.168425e+002
8.331766e+002, 1.161252e+002
8.336588e+002, 1.159118e+002
8.341409e+002, 1.170837e+002
8.346230e+002, 1.182140e+002
8.351051e+002, 1.178271e+002
8.355872e+002, 1.162319e+002
8.360693e+002, 1.152351e+002
8.365515e+002, 1.157178e+002
8.370336e+002, 1.163640e+002
8.375157e+002, 1.164558e+002
8.379978e+002, 1.163283e+002
8.384799e+002, 1.163853e+002
8.389620e+002, 1.165991e+002
8.394442e+002, 1.167681e+002
8.399263e+002, 1.167990e+002
8.404084e+002, 1.166046e+002
8.408905e+002, 1.158090e+002
8.413726e+002, 1.146193e+002
8.418547e+002, 1.144736e+002
8.423369e+002, 1.154843e+002
8.428190e+002, 1.159610e+002
8.433011e+002, 1.151268e+002
8.437832e+002, 1.140236e+002
8.442653e+002, 1.139070e+002
8.447474e+002, 1.147460e+002
8.452296e+002, 1.152325e+002
8.457117e+002, 1.152457e+002
8.461938e+002, 1.150658e+002
8.466759e+002, 1.145899e+002
8.471580e+002, 1.140539e+002
8.476401e+002, 1.135618e+002
8.481223e+002, 1.131295e+002
8.486044e+002, 1.127685e+002
8.490865e+002, 1.124859e+002
8.495686e+002, 1.122562e+002
8.500507e+002, 1.120712e+002
8.505328e+002, 1.119276e+002
8.510150e+002, 1.117935e+002
8.514971e+002, 1.117021e+002
8.519792e+002, 1.118675e+002
8.524613e+002, 1.122892e+002
8.529434e+002, 1.123628e+002
8.534255e+002, 1.112329e+002
8.539077e+002, 1.095272e+002
8.543898e+002, 1.095510e+002
8.548719e+002, 1.113023e+002
8.553540e+002, 1.121256e+002
8.558361e+002, 1.113034e+002
8.563182e+002, 1.103164e+002
8.568004e+002, 1.102928e+002
8.572825e+002, 1.109256e+002
8.577646e+002, 1.112330e+002
8.582467e+002, 1.111089e+002
8.587288e+002, 1.108809e+002
8.592109e+002, 1.104685e+002
8.596931e+002, 1.100492e+002
8.601752e+002, 1.096373e+002
8.606573e+002, 1.092783e+002
8.611394e+002, 1.089695e+002
8.616215e+002, 1.087268e+002
8.621036e+002, 1.087544e+002
8.625858e+002, 1.094572e+002
8.630679e+002, 1.101110e+002
8.635500e+002, 1.101323e+002
8.640321e+002, 1.098446e+002
8.645142e+002, 1.097191e+002
8.649963e+002, 1.097727e+002
8.654785e+002, 1.097671e+002
8.659606e+002, 1.095788e+002
8.664427e+002, 1.091506e+002
8.669248e+002, 1.080750e+002
8.674069e+002, 1.066135e+002
8.678890e+002, 1.064598e+002
8.683712e+002, 1.077636e+002
8.688533e+002, 1.084804e+002
8.693354e+002, 1.076615e+002
8.698175e+002, 1.062382e+002
8.702996e+002, 1.054200e+002
8.707817e+002, 1.052091e+002
8.712639e+002, 1.051434e+002
8.717459e+002, 1.054705e+002
8.722280e+002, 1.055066e+002
8.727101e+002, 1.046308e+002
8.731923e+002, 1.039089e+002
8.736744e+002, 1.042659e+002
8.741565e+002, 1.052353e+002
8.746386e+002, 1.056045e+002
8.751207e+002, 1.049414e+002
8.756028e+002, 1.044065e+002
8.760850e+002, 1.045509e+002
8.765671e+002, 1.048270e+002
8.770492e+002, 1.049961e+002
8.775313e+002, 1.049450e+002
8.780134e+002, 1.043969e+002
8.784955e+002, 1.033810e+002
8.789777e+002, 1.025076e+002
8.794598e+002, 1.023259e+002
8.799419e+002, 1.024730e+002
8.804240e+002, 1.023486e+002
8.809061e+002, 1.020350e+002
8.813882e+002, 1.018374e+002
8.818704e+002, 1.018020e+002
8.823525e+002, 1.018584e+002
8.828346e+002, 1.019959e+002
8.833167e+002, 1.020495e+002
8.837988e+002, 1.015152e+002
8.842809e+002, 1.001816e+002
8.847631e+002, 9.998138e+001
8.852452e+002, 1.015610e+002
8.857273e+002, 1.026636e+002
8.862094e+002, 1.023086e+002
8.866915e+002, 1.013466e+002
8.871736e+002, 1.005934e+002
8.876558e+002, 1.000537e+002
8.881379e+002, 9.975408e+001
8.886200e+002, 1.001122e+002
8.891021e+002, 1.001217e+002
8.895842e+002, 9.910227e+001
8.900663e+002, 9.815766e+001
8.905485e+002, 9.824353e+001
8.910306e+002, 9.892905e+001
8.915127e+002, 9.924870e+001
8.919948e+002, 9.892488e+001
8.924769e+002, 9.859376e+001
8.929590e+002, 9.874203e+001
8.934412e+002, 9.901815e+001
8.939233e+002, 9.916686e+001
8.944054e+002, 9.911884e+001
8.948875e+002, 9.857830e+001
8.953696e+002, 9.760609e+001
8.958517e+002, 9.690572e+001
8.963339e+002, 9.703679e+001
8.968160e+002, 9.764092e+001
8.972981e+002, 9.809422e+001
8.977802e+002, 9.838554e+001
8.982623e+002, 9.830347e+001
8.987444e+002, 9.777746e+001
8.992266e+002, 9.754595e+001
8.997087e+002, 9.801367e+001
9.001908e+002, 9.880944e+001
9.006729e+002, 9.946611e+001
9.011550e+002, 1.000067e+002
9.016371e+002, 9.982720e+001
9.021193e+002, 9.838547e+001
9.026014e+002, 9.722795e+001
9.030835e+002, 9.680313e+001
9.035656e+002, 9.659072e+001
9.040477e+002, 9.620495e+001
9.045298e+002, 9.576088e+001
9.050120e+002, 9.557584e+001
9.054941e+002, 9.574512e+001
9.059762e+002, 9.599897e+001
9.064583e+002, 9.642170e+001
9.069404e+002, 9.675340e+001
9.074225e+002, 9.686002e+001
9.079047e+002, 9.676517e+001
9.083868e+002, 9.633270e+001
9.088689e+002, 9.566866e+001
9.093510e+002, 9.543314e+001
9.098331e+002, 9.632722e+001
9.103152e+002, 9.731572e+001
9.107974e+002, 9.722646e+001
9.112795e+002, 9.652710e+001
9.117616e+002, 9.595759e+001
9.122437e+002, 9.564391e+001
9.127258e+002, 9.566331e+001
9.132079e+002, 9.605342e+001
9.136901e+002, 9.651114e+001
9.141722e+002, 9.664502e+001
9.146543e+002, 9.648678e+001
9.151364e+002, 9.614567e+001
9.156185e+002, 9.560641e+001
9.161006e+002, 9.535268e+001
9.165828e+002, 9.555582e+001
9.170649e+002, 9.583723e+001
9.175470e+002, 9.590013e+001
9.180291e+002, 9.578066e+001
9.185112e+002, 9.559867e+001
9.189933e+002, 9.528746e+001
9.194755e+002, 9.508443e+001
9.199576e+002, 9.504240e+001
9.204397e+002, 9.503554e+001
9.209218e+002, 9.509425e+001
9.214039e+002, 9.511284e+001
9.218860e+002, 9.489914e+001
9.223682e+002, 9.447153e+001
9.228503e+002, 9.426308e+001
9.233324e+002, 9.445638e+001
9.238145e+002, 9.470898e+001
9.242966e+002, 9.511312e+001
9.247787e+002, 9.537366e+001
9.252609e+002, 9.506649e+001
9.257430e+002, 9.448289e+001
9.262251e+002, 9.432199e+001
9.267072e+002, 9.480362e+001
9.271893e+002, 9.513528e+001
9.276714e+002, 9.447024e+001
9.281536e+002, 9.369052e+001
9.286357e+002, 9.379310e+001
9.291178e+002, 9.441727e+001
9.295999e+002, 9.490824e+001
9.300820e+002, 9.512024e+001
9.305641e+002, 9.508703e+001
9.310463e+002, 9.480063e+001
9.315284e+002, 9.445677e+001
9.320105e+002, 9.445176e+001
9.324926e+002, 9.466172e+001
9.329747e+002, 9.445708e+001
9.334568e+002, 9.384500e+001
9.339390e+002, 9.353391e+001
9.344211e+002, 9.379940e+001
9.349032e+002, 9.436877e+001
9.353853e+002, 9.504688e+001
9.358674e+002, 9.570692e+001
9.363495e+002, 9.545252e+001
9.368317e+002, 9.394516e+001
9.373138e+002, 9.304597e+001
9.377959e+002, 9.318990e+001
9.382780e+002, 9.343768e+001
9.387601e+002, 9.313808e+001
9.392422e+002, 9.274133e+001
9.397244e+002, 9.316625e+001
9.402065e+002, 9.465970e+001
9.406886e+002, 9.550677e+001
9.411707e+002, 9.556127e+001
9.416528e+002, 9.519761e+001
9.421349e+002, 9.397669e+001
9.426171e+002, 9.281767e+001
9.430992e+002, 9.260119e+001
9.435813e+002, 9.295954e+001
9.440634e+002, 9.277989e+001
9.445455e+002, 9.156307e+001
9.450276e+002, 9.090430e+001
9.455098e+002, 9.193323e+001
9.459919e+002, 9.310231e+001
9.464740e+002, 9.330672e+001
9.469561e+002, 9.305956e+001
9.474382e+002, 9.307314e+001
9.479203e+002, 9.344689e+001
9.484025e+002, 9.397295e+001
9.488846e+002, 9.469328e+001
9.493667e+002, 9.512974e+001
9.498488e+002, 9.452834e+001
9.503309e+002, 9.352165e+001
9.508130e+002, 9.298549e+001
9.512952e+002, 9.296233e+001
9.517773e+002, 9.348076e+001
9.522594e+002, 9.447163e+001
9.527415e+002, 9.515135e+001
9.532236e+002, 9.461344e+001
9.537057e+002, 9.342834e+001
9.541878e+002, 9.293763e+001
9.546699e+002, 9.307933e+001
9.551520e+002, 9.356650e+001
9.556342e+002, 9.435745e+001
9.561163e+002, 9.493012e+001
9.565984e+002, 9.498598e+001
9.570805e+002, 9.478845e+001
9.575626e+002, 9.473228e+001
9.580447e+002, 9.481752e+001
9.585269e+002, 9.506434e+001
9.590090e+002, 9.553305e+001
9.594911e+002, 9.592917e+001
9.599732e+002, 9.624177e+001
9.604553e+002, 9.633574e+001
9.609374e+002, 9.601455e+001
9.614196e+002, 9.545199e+001
9.619017e+002, 9.512305e+001
9.623838e+002, 9.501360e+001
9.628659e+002, 9.518211e+001
9.633480e+002, 9.583159e+001
9.638301e+002, 9.648315e+001
9.643123e+002, 9.686192e+001
9.647944e+002, 9.730645e+001
9.652765e+002, 9.832384e+001
9.657586e+002, 9.970849e+001
9.662407e+002, 1.004835e+002
9.667228e+002, 1.001303e+002
9.672050e+002, 9.998106e+001
9.676871e+002, 1.003059e+002
9.681692e+002, 1.009240e+002
9.686513e+002, 1.021049e+002
9.691334e+002, 1.033054e+002
9.696155e+002, 1.036460e+002
9.700977e+002, 1.031677e+002
9.705798e+002, 1.030002e+002
9.710619e+002, 1.038741e+002
9.715440e+002, 1.048021e+002
9.720261e+002, 1.048906e+002
9.725082e+002, 1.049323e+002
9.729904e+002, 1.059679e+002
9.734725e+002, 1.076260e+002
9.739546e+002, 1.089215e+002
9.744367e+002, 1.095706e+002
9.749188e+002, 1.100480e+002
9.754009e+002, 1.106576e+002
9.758831e+002, 1.113701e+002
9.763652e+002, 1.123024e+002
9.768473e+002, 1.132548e+002
9.773294e+002, 1.136953e+002
9.778115e+002, 1.136797e+002
9.782936e+002, 1.137896e+002
9.787758e+002, 1.143022e+002
9.792579e+002, 1.149593e+002
9.797400e+002, 1.154404e+002
9.802221e+002, 1.158099e+002
9.807042e+002, 1.163640e+002
9.811863e+002, 1.170422e+002
9.816685e+002, 1.173337e+002
9.821506e+002, 1.171379e+002
9.826327e+002, 1.166358e+002
9.831148e+002, 1.158896e+002
9.835969e+002, 1.151760e+002
9.840790e+002, 1.151174e+002
9.845612e+002, 1.157210e+002
9.850433e+002, 1.158980e+002
9.855254e+002, 1.155823e+002
9.860075e+002, 1.152186e+002
9.864896e+002, 1.149125e+002
9.869717e+002, 1.146267e+002
9.874539e+002, 1.143749e+002
9.879360e+002, 1.140774e+002
9.884181e+002, 1.134318e+002
9.889002e+002, 1.122162e+002
9.893823e+002, 1.114710e+002
9.898644e+002, 1.114577e+002
9.903466e+002, 1.114100e+002
9.908287e+002, 1.110830e+002
9.913108e+002, 1.106311e+002
9.917929e+002, 1.101376e+002
9.922750e+002, 1.096343e+002
9.927571e+002, 1.093210e+002
9.932393e+002, 1.093428e+002
9.937214e+002, 1.092954e+002
9.942035e+002, 1.092082e+002
9.946856e+002, 1.090097e+002
9.951677e+002, 1.083882e+002
9.956498e+002, 1.078396e+002
9.961320e+002, 1.081827e+002
9.966141e+002, 1.092347e+002
9.970962e+002, 1.094793e+002
9.975783e+002, 1.077823e+002
9.980604e+002, 1.066771e+002
9.985425e+002, 1.072774e+002
9.990247e+002, 1.081606e+002
9.995068e+002, 1.086442e+002
9.999889e+002, 1.087334e+002
1.000471e+003, 1.083221e+002
1.000953e+003, 1.075116e+002
1.001435e+003, 1.070973e+002
1.001917e+003, 1.076302e+002
1.002399e+003, 1.082955e+002
1.002882e+003, 1.087288e+002
1.003364e+003, 1.090236e+002
1.003846e+003, 1.093021e+002
1.004328e+003, 1.095025e+002
1.004810e+003, 1.094148e+002
1.005292e+003, 1.090327e+002
1.005774e+003, 1.087683e+002
1.006256e+003, 1.088323e+002
1.006739e+003, 1.091894e+002
1.007221e+003, 1.101615e+002
1.007703e+003, 1.111830e+002
1.008185e+003, 1.112330e+002
1.008667e+003, 1.106016e+002
1.009149e+003, 1.104102e+002
1.009631e+003, 1.110152e+002
1.010113e+003, 1.116243e+002
1.010595e+003, 1.114341e+002
1.011078e+003, 1.109614e+002
1.011560e+003, 1.109363e+002
1.012042e+003, 1.112530e+002
1.012524e+003, 1.117824e+002
1.013006e+003, 1.124211e+002
1.013488e+003, 1.128337e+002
1.013970e+003, 1.128787e+002
1.014452e+003, 1.127962e+002
1.014935e+003, 1.128274e+002
1.015417e+003, 1.129537e+002
1.015899e+003, 1.130907e+002
1.016381e+003, 1.132755e+002
1.016863e+003, 1.138827e+002
1.017345e+003, 1.148763e+002
1.017827e+003, 1.152115e+002
1.018309e+003, 1.143214e+002
1.018791e+003, 1.130474e+002
1.019274e+003, 1.125215e+002
1.019756e+003, 1.126223e+002
1.020238e+003, 1.128358e+002
1.020720e+003, 1.131505e+002
1.021202e+003, 1.132065e+002
1.021684e+003, 1.129255e+002
1.022166e+003, 1.126774e+002
1.022648e+003, 1.126600e+002
1.023130e+003, 1.128772e+002
1.023613e+003, 1.134217e+002
1.024095e+003, 1.142485e+002
1.024577e+003, 1.145539e+002
1.025059e+003, 1.142807e+002
1.025541e+003, 1.139332e+002
1.026023e+003, 1.135781e+002
1.026505e+003, 1.132814e+002
1.026987e+003, 1.131259e+002
1.027469e+003, 1.129560e+002
1.027952e+003, 1.124480e+002
1.028434e+003, 1.115738e+002
1.028916e+003, 1.109885e+002
1.029398e+003, 1.107915e+002
1.029880e+003, 1.105670e+002
1.030362e+003, 1.103715e+002
1.030844e+003, 1.097667e+002
1.031326e+003, 1.081980e+002
1.031809e+003, 1.063326e+002
1.032291e+003, 1.056033e+002
1.032773e+003, 1.062033e+002
1.033255e+003, 1.063012e+002
1.033737e+003, 1.056328e+002
1.034219e+003, 1.050473e+002
1.034701e+003, 1.047756e+002
1.035183e+003, 1.045045e+002
1.035666e+003, 1.039377e+002
1.036148e+003, 1.032899e+002
1.036630e+003, 1.030509e+002
1.037112e+003, 1.033254e+002
1.037594e+003, 1.034208e+002
1.038076e+003, 1.033402e+002
1.038558e+003, 1.030652e+002
1.039040e+003, 1.023533e+002
1.039522e+003, 1.017066e+002
1.040005e+003, 1.016308e+002
1.040487e+003, 1.017888e+002
1.040969e+003, 1.014177e+002
1.041451e+003, 1.003726e+002
1.041933e+003, 9.955970e+001
1.042415e+003, 9.921290e+001
1.042897e+003, 9.879078e+001
1.043379e+003, 9.795520e+001
1.043861e+003, 9.725356e+001
1.044344e+003, 9.715721e+001
1.044826e+003, 9.740947e+001
1.045308e+003, 9.752816e+001
1.045790e+003, 9.748096e+001
1.046272e+003, 9.732085e+001
1.046754e+003, 9.681497e+001
1.047236e+003, 9.652866e+001
1.047718e+003, 9.669611e+001
1.048201e+003, 9.703551e+001
1.048683e+003, 9.757322e+001
1.049165e+003, 9.806144e+001
1.049647e+003, 9.798160e+001
1.050129e+003, 9.721306e+001
1.050611e+003, 9.664731e+001
1.051093e+003, 9.652394e+001
1.051575e+003, 9.653254e+001
1.052057e+003, 9.647250e+001
1.052540e+003, 9.661685e+001
1.053022e+003, 9.743542e+001
1.053504e+003, 9.849490e+001
1.053986e+003, 9.891867e+001
1.054468e+003, 9.856632e+001
1.054950e+003, 9.843005e+001
1.055432e+003, 9.900427e+001
1.055914e+003, 9.951992e+001
1.056396e+003, 9.962036e+001
1.056879e+003, 9.965881e+001
1.057361e+003, 9.993435e+001
1.057843e+003, 1.003241e+002
1.058325e+003, 1.006546e+002
1.058807e+003, 1.008887e+002
1.059289e+003, 1.008105e+002
1.059771e+003, 1.000066e+002
1.060253e+003, 9.934255e+001
1.060736e+003, 9.932246e+001
1.061218e+003, 9.939108e+001
1.061700e+003, 9.929308e+001
1.062182e+003, 9.890673e+001
1.062664e+003, 9.784439e+001
1.063146e+003, 9.615628e+001
1.063628e+003, 9.512230e+001
1.064110e+003, 9.588349e+001
1.064593e+003, 9.641286e+001
1.065075e+003, 9.550901e+001
1.065557e+003, 9.442311e+001
1.066039e+003, 9.419072e+001
1.066521e+003, 9.438492e+001
1.067003e+003, 9.418460e+001
1.067485e+003, 9.353421e+001
1.067967e+003, 9.316425e+001
1.068449e+003, 9.377222e+001
1.068932e+003, 9.396217e+001
1.069414e+003, 9.242214e+001
1.069896e+003, 9.092693e+001
1.070378e+003, 9.120621e+001
1.070860e+003, 9.216087e+001
1.071342e+003, 9.198299e+001
1.071824e+003, 9.064346e+001
1.072306e+003, 8.967156e+001
1.072788e+003, 8.973460e+001
1.073271e+003, 8.999361e+001
1.073753e+003, 8.998084e+001
1.074235e+003, 9.010604e+001
1.074717e+003, 9.096591e+001
1.075199e+003, 9.195771e+001
1.075681e+003, 9.214156e+001
1.076163e+003, 9.161724e+001
1.076645e+003, 9.138297e+001
1.077127e+003, 9.188068e+001
1.077610e+003, 9.236948e+001
1.078092e+003, 9.250056e+001
1.078574e+003, 9.251299e+001
1.079056e+003, 9.248878e+001
1.079538e+003, 9.249639e+001
1.080020e+003, 9.259395e+001
1.080502e+003, 9.278910e+001
1.080984e+003, 9.311280e+001
1.081467e+003, 9.363016e+001
1.081949e+003, 9.398969e+001
1.082431e+003, 9.377274e+001
1.082913e+003, 9.365524e+001
1.083395e+003, 9.426335e+001
1.083877e+003, 9.502031e+001
1.084359e+003, 9.508491e+001
1.084841e+003, 9.477615e+001
1.085323e+003, 9.526302e+001
1.085806e+003, 9.698268e+001
1.086288e+003, 9.811663e+001
1.086770e+003, 9.749260e+001
1.087252e+003, 9.659121e+001
1.087734e+003, 9.610006e+001
1.088216e+003, 9.575195e+001
1.088698e+003, 9.513133e+001
1.089180e+003, 9.448386e+001
1.089662e+003, 9.445183e+001
1.090145e+003, 9.516845e+001
1.090627e+003, 9.578845e+001
1.091109e+003, 9.596055e+001
1.091591e+003, 9.602183e+001
1.092073e+003, 9.582593e+001
1.092555e+003, 9.585640e+001
1.093037e+003, 9.678465e+001
1.093519e+003, 9.807259e+001
1.094002e+003, 9.883167e+001
1.094484e+003, 9.894175e+001
1.094966e+003, 9.880064e+001
1.095448e+003, 9.797568e+001
1.095930e+003, 9.774251e+001
1.096412e+003, 9.891984e+001
1.096894e+003, 1.003851e+002
1.097376e+003, 1.015799e+002
1.097859e+003, 1.025394e+002
1.098341e+003, 1.033578e+002
1.098823e+003, 1.040492e+002
1.099305e+003, 1.045976e+002
1.099787e+003, 1.046791e+002
1.100269e+003, 1.052923e+002
1.100751e+003, 1.071386e+002
1.101233e+003, 1.090420e+002
1.101715e+003, 1.107582e+002
1.102198e+003, 1.119941e+002
1.102680e+003, 1.119802e+002
1.103162e+003, 1.112155e+002
1.103644e+003, 1.116720e+002
1.104126e+003, 1.142537e+002
1.104608e+003, 1.160723e+002
1.105090e+003, 1.160788e+002
1.105572e+003, 1.159464e+002
1.106054e+003, 1.159968e+002
1.106537e+003, 1.163733e+002
1.107019e+003, 1.175491e+002
1.107501e+003, 1.190482e+002
1.107983e+003, 1.196786e+002
1.108465e+003, 1.191997e+002
1.108947e+003, 1.187602e+002
1.109429e+003, 1.182084e+002
1.109911e+003, 1.180612e+002
1.110394e+003, 1.189927e+002
1.110876e+003, 1.197550e+002
1.111358e+003, 1.194498e+002
1.111840e+003, 1.185650e+002
1.112322e+003, 1.179382e+002
1.112804e+003, 1.176067e+002
1.113286e+003, 1.169600e+002
1.113768e+003, 1.160020e+002
1.114250e+003, 1.147102e+002
1.114733e+003, 1.125347e+002
1.115215e+003, 1.107849e+002
1.115697e+003, 1.102419e+002
1.116179e+003, 1.101995e+002
1.116661e+003, 1.099762e+002
1.117143e+003, 1.095459e+002
1.117625e+003, 1.086951e+002
1.118107e+003, 1.072699e+002
1.118589e+003, 1.057594e+002
1.119072e+003, 1.038128e+002
1.119554e+003, 1.025596e+002
1.120036e+003, 1.027641e+002
1.120518e+003, 1.030690e+002
1.121000e+003, 1.021148e+002
1.121482e+003, 1.005126e+002
1.121964e+003, 1.002097e+002
1.122446e+003, 1.016106e+002
1.122929e+003, 1.017118e+002
1.123411e+003, 9.996940e+001
1.123893e+003, 9.885103e+001
1.124375e+003, 9.911458e+001
1.124857e+003, 9.935856e+001
1.125339e+003, 9.864310e+001
1.125821e+003, 9.748072e+001
1.126303e+003, 9.671286e+001
1.126786e+003, 9.633588e+001
1.127268e+003, 9.638740e+001
1.127750e+003, 9.695383e+001
1.128232e+003, 9.710999e+001
1.128714e+003, 9.667673e+001
1.129196e+003, 9.632516e+001
1.129678e+003, 9.640044e+001
1.130160e+003, 9.640988e+001
1.130642e+003, 9.570576e+001
1.131125e+003, 9.461619e+001
1.131607e+003, 9.439871e+001
1.132089e+003, 9.499364e+001
1.132571e+003, 9.538391e+001
1.133053e+003, 9.550793e+001
1.133535e+003, 9.524609e+001
1.134017e+003, 9.456396e+001
1.134499e+003, 9.410225e+001
1.134981e+003, 9.442699e+001
1.135464e+003, 9.490414e+001
1.135946e+003, 9.415723e+001
1.136428e+003, 9.260335e+001
1.136910e+003, 9.187852e+001
1.137392e+003, 9.187047e+001
1.137874e+003, 9.185109e+001
1.138356e+003, 9.174034e+001
1.138838e+003, 9.220090e+001
1.139321e+003, 9.357886e+001
1.139803e+003, 9.476950e+001
1.140285e+003, 9.430821e+001
1.140767e+003, 9.305988e+001
1.141249e+003, 9.263805e+001
1.141731e+003, 9.265947e+001
1.142213e+003, 9.226645e+001
1.142695e+003, 9.149181e+001
1.143177e+003, 9.075249e+001
1.143660e+003, 9.019803e+001
1.144142e+003, 8.980251e+001
1.144624e+003, 8.950198e+001
1.145106e+003, 8.945980e+001
1.145588e+003, 9.015705e+001
1.146070e+003, 9.096033e+001
1.146552e+003, 9.095882e+001
1.147034e+003, 9.050058e+001
1.147516e+003, 9.027547e+001
1.147999e+003, 9.036735e+001
1.148481e+003, 9.050698e+001
1.148963e+003, 9.059402e+001
1.149445e+003, 9.063200e+001
1.149927e+003, 9.061857e+001
1.150409e+003, 9.056044e+001
1.150891e+003, 9.037611e+001
1.151373e+003, 9.021835e+001
1.151856e+003, 9.041782e+001
1.152338e+003, 9.073255e+001
1.152820e+003, 9.042829e+001
1.153302e+003, 8.935908e+001
1.153784e+003, 8.886612e+001
1.154266e+003, 9.009425e+001
1.154748e+003, 9.097775e+001
1.155230e+003, 9.032150e+001
1.155713e+003, 8.968017e+001
1.156195e+003, 9.028497e+001
1.156677e+003, 9.130544e+001
1.157159e+003, 9.155537e+001
1.157641e+003, 9.109751e+001
1.158123e+003, 9.090702e+001
1.158605e+003, 9.135854e+001
1.159087e+003, 9.147073e+001
1.159569e+003, 9.060855e+001
1.160052e+003, 9.020454e+001
1.160534e+003, 9.123011e+001
1.161016e+003, 9.216174e+001
1.161498e+003, 9.165058e+001
1.161980e+003, 9.038229e+001
1.162462e+003, 8.986541e+001
1.162944e+003, 9.017466e+001
1.163426e+003, 9.042458e+001
1.163908e+003, 9.062060e+001
1.164391e+003, 9.070933e+001
1.164873e+003, 9.058894e+001
1.165355e+003, 9.066483e+001
1.165837e+003, 9.121137e+001
1.166319e+003, 9.181636e+001
1.166801e+003, 9.196627e+001
1.167283e+003, 9.179513e+001
1.167765e+003, 9.186950e+001
1.168247e+003, 9.219845e+001
1.168730e+003, 9.253799e+001
1.169212e+003, 9.288362e+001
1.169694e+003, 9.291673e+001
1.170176e+003, 9.254067e+001
1.170658e+003, 9.228146e+001
1.171140e+003, 9.251381e+001
1.171622e+003, 9.297900e+001
1.172104e+003, 9.329924e+001
1.172587e+003, 9.349825e+001
1.173069e+003, 9.368204e+001
1.173551e+003, 9.381573e+001
1.174033e+003, 9.359641e+001
1.174515e+003, 9.314426e+001
1.174997e+003, 9.327129e+001
1.175479e+003, 9.424486e+001
1.175961e+003, 9.536447e+001
1.176443e+003, 9.617339e+001
1.176926e+003, 9.657601e+001
1.177408e+003, 9.622295e+001
1.177890e+003, 9.555767e+001
1.178372e+003, 9.513262e+001
1.178854e+003, 9.494803e+001
1.179336e+003, 9.493658e+001
1.179818e+003, 9.506285e+001
1.180300e+003, 9.526631e+001
1.180782e+003, 9.551806e+001
1.181265e+003, 9.587542e+001
1.181747e+003, 9.646342e+001
1.182229e+003, 9.705856e+001
1.182711e+003, 9.777208e+001
1.183193e+003, 9.819064e+001
1.183675e+003, 9.753487e+001
1.184157e+003, 9.645907e+001
1.184639e+003, 9.635224e+001
1.185122e+003, 9.733817e+001
1.185604e+003, 9.785014e+001
1.186086e+003, 9.706648e+001
1.186568e+003, 9.654451e+001
1.187050e+003, 9.690047e+001
1.187532e+003, 9.712037e+001
1.188014e+003, 9.648497e+001
1.188496e+003, 9.578489e+001
1.188979e+003, 9.589425e+001
1.189461e+003, 9.647786e+001
1.189943e+003, 9.655135e+001
1.190425e+003, 9.601796e+001
1.190907e+003, 9.552944e+001
1.191389e+003, 9.504235e+001
1.191871e+003, 9.474624e+001
1.192353e+003, 9.473899e+001
1.192835e+003, 9.473316e+001
1.193318e+003, 9.459468e+001
1.193800e+003, 9.436526e+001
1.194282e+003, 9.409924e+001
1.194764e+003, 9.378207e+001
1.195246e+003, 9.326603e+001
1.195728e+003, 9.257365e+001
1.196210e+003, 9.242250e+001
1.196692e+003, 9.281629e+001
1.197174e+003, 9.319603e+001
1.197657e+003, 9.340391e+001
1.198139e+003, 9.319397e+001
1.198621e+003, 9.237675e+001
1.199103e+003, 9.159974e+001
1.199585e+003, 9.194605e+001
1.200067e+003, 9.276569e+001
1.200549e+003, 9.268385e+001
1.201031e+003, 9.208390e+001
1.201514e+003, 9.171364e+001
1.201996e+003, 9.164919e+001
1.202478e+003, 9.189126e+001
1.202960e+003, 9.237293e+001
1.203442e+003, 9.270403e+001
1.203924e+003, 9.262719e+001
1.204406e+003, 9.242977e+001
1.204888e+003, 9.221640e+001
1.205370e+003, 9.209464e+001
1.205853e+003, 9.219267e+001
1.206335e+003, 9.240858e+001
1.206817e+003, 9.263420e+001
1.207299e+003, 9.286353e+001
1.207781e+003, 9.323132e+001
1.208263e+003, 9.380254e+001
1.208745e+003, 9.379509e+001
1.209227e+003, 9.204655e+001
1.209709e+003, 9.116556e+001
1.210192e+003, 9.253197e+001
1.210674e+003, 9.388734e+001
1.211156e+003, 9.402983e+001
1.211638e+003, 9.367673e+001
1.212120e+003, 9.335177e+001
1.212602e+003, 9.316920e+001
1.213084e+003, 9.366743e+001
1.213566e+003, 9.514939e+001
1.214049e+003, 9.567826e+001
1.214531e+003, 9.490723e+001
1.215013e+003, 9.460410e+001
1.215495e+003, 9.518844e+001
1.215977e+003, 9.585088e+001
1.216459e+003, 9.617993e+001
1.216941e+003, 9.627488e+001
1.217423e+003, 9.618740e+001
1.217906e+003, 9.607697e+001
1.218388e+003, 9.659964e+001
1.218870e+003, 9.755863e+001
1.219352e+003, 9.786098e+001
1.219834e+003, 9.759591e+001
1.220316e+003, 9.762386e+001
1.220798e+003, 9.805919e+001
1.221280e+003, 9.817582e+001
1.221762e+003, 9.756713e+001
1.222245e+003, 9.690180e+001
1.222727e+003, 9.674719e+001
1.223209e+003, 9.699615e+001
1.223691e+003, 9.776073e+001
1.224173e+003, 9.867461e+001
1.224655e+003, 9.921959e+001
1.225137e+003, 9.953822e+001
1.225619e+003, 1.001105e+002
1.226101e+003, 1.008995e+002
1.226584e+003, 1.011854e+002
1.227066e+003, 1.005236e+002
1.227548e+003, 9.992072e+001
1.228030e+003, 9.988975e+001
1.228512e+003, 9.976724e+001
1.228994e+003, 9.889872e+001
1.229476e+003, 9.820249e+001
1.229958e+003, 9.863164e+001
1.230441e+003, 9.961411e+001
1.230923e+003, 1.001393e+002
1.231405e+003, 1.002173e+002
1.231887e+003, 1.001123e+002
1.232369e+003, 9.965383e+001
1.232851e+003, 9.956161e+001
1.233333e+003, 9.997368e+001
1.233815e+003, 1.003594e+002
1.234297e+003, 1.005458e+002
1.234780e+003, 1.007452e+002
1.235262e+003, 1.011326e+002
1.235744e+003, 1.015379e+002
1.236226e+003, 1.016423e+002
1.236708e+003, 1.015287e+002
1.237190e+003, 1.014691e+002
1.237672e+003, 1.015117e+002
1.238154e+003, 1.020895e+002
1.238636e+003, 1.030306e+002
1.239119e+003, 1.033696e+002
1.239601e+003, 1.028625e+002
1.240083e+003, 1.018919e+002
1.240565e+003, 1.005249e+002
1.241047e+003, 9.970791e+001
1.241529e+003, 1.009193e+002
1.242011e+003, 1.025218e+002
1.242493e+003, 1.030289e+002
1.242975e+003, 1.028859e+002
1.243458e+003, 1.024130e+002
1.243940e+003, 1.019038e+002
1.244422e+003, 1.019112e+002
1.244904e+003, 1.024622e+002
1.245386e+003, 1.026826e+002
1.245868e+003, 1.020982e+002
1.246350e+003, 1.016303e+002
1.246832e+003, 1.015196e+002
1.247315e+003, 1.014280e+002
1.247797e+003, 1.011116e+002
1.248279e+003, 1.009372e+002
1.248761e+003, 1.012422e+002
1.249243e+003, 1.017831e+002
1.249725e+003, 1.021608e+002
1.250207e+003, 1.023653e+002
1.250689e+003, 1.021844e+002
1.251172e+003, 1.015563e+002
1.251654e+003, 1.012071e+002
1.252136e+003, 1.011949e+002
1.252618e+003, 1.014115e+002
1.253100e+003, 1.018210e+002
1.253582e+003, 1.018867e+002
1.254064e+003, 1.012063e+002
1.254546e+003, 1.003641e+002
1.255028e+003, 1.002561e+002
1.255510e+003, 1.004893e+002
1.255993e+003, 1.003280e+002
1.256475e+003, 9.995908e+001
1.256957e+003, 9.962313e+001
1.257439e+003, 9.942495e+001
1.257921e+003, 9.960577e+001
1.258403e+003, 1.001233e+002
1.258885e+003, 1.004812e+002
1.259367e+003, 1.004305e+002
1.259850e+003, 1.003472e+002
1.260332e+003, 1.006172e+002
1.260814e+003, 1.006180e+002
1.261296e+003, 9.968430e+001
1.261778e+003, 9.874413e+001
1.262260e+003, 9.851506e+001
1.262742e+003, 9.874694e+001
1.263224e+003, 9.905589e+001
1.263707e+003, 9.942261e+001
1.264189e+003, 9.977991e+001
1.264671e+003, 1.003988e+002
1.265153e+003, 9.988591e+001
1.265635e+003, 9.775994e+001
1.266117e+003, 9.673234e+001
1.266599e+003, 9.752393e+001
1.267081e+003, 9.876518e+001
1.267563e+003, 9.975589e+001
1.268046e+003, 1.002465e+002
1.268528e+003, 9.978626e+001
1.269010e+003, 9.891206e+001
1.269492e+003, 9.907763e+001
1.269974e+003, 9.973429e+001
1.270456e+003, 9.919123e+001
1.270938e+003, 9.798778e+001
1.271420e+003, 9.803841e+001
1.271902e+003, 9.922979e+001
1.272385e+003, 9.967583e+001
1.272867e+003, 9.865354e+001
1.273349e+003, 9.769137e+001
1.273831e+003, 9.767223e+001
1.274313e+003, 9.797969e+001
1.274795e+003, 9.866837e+001
1.275277e+003, 9.916744e+001
1.275759e+003, 9.888066e+001
1.276242e+003, 9.837292e+001
1.276724e+003, 9.824516e+001
1.277206e+003, 9.846445e+001
1.277688e+003, 9.888543e+001
1.278170e+003, 9.958533e+001
1.278652e+003, 9.970750e+001
1.279134e+003, 9.901939e+001
1.279616e+003, 9.857124e+001
1.280099e+003, 9.844834e+001
1.280581e+003, 9.880918e+001
1.281063e+003, 9.979088e+001
1.281545e+003, 1.005103e+002
1.282027e+003, 1.002352e+002
1.282509e+003, 9.950095e+001
1.282991e+003, 9.923385e+001
1.283473e+003, 9.918330e+001
1.283955e+003, 9.883489e+001
##END=



