##NAMES=Montroydite
##RRUFFID=R140877
##IDEAL CHEMISTRY=Hg^2+^O
##LOCALITY=Terlingua, Texas, USA
##OWNER=RRUFF
##SOURCE=Tom Loomis
##DESCRIPTION=Red crystals with good cleavage, associated with yellow terlinguaite (R130878).
##STATUS=The identification of this mineral has been confirmed by single-crystal X-ray diffraction.
##URL=rruff.info/R140877
8.930109e+001, 0.000000e+000
8.978320e+001, 8.871540e+001
9.026532e+001, 8.838191e+001
9.074744e+001, 8.842718e+001
9.122955e+001, 8.901137e+001
9.171167e+001, 8.985378e+001
9.219379e+001, 9.063287e+001
9.267590e+001, 9.138228e+001
9.315802e+001, 9.191544e+001
9.364014e+001, 9.199306e+001
9.412225e+001, 9.175241e+001
9.460437e+001, 9.151830e+001
9.508649e+001, 9.133386e+001
9.556860e+001, 9.120094e+001
9.605072e+001, 9.124251e+001
9.653284e+001, 9.154504e+001
9.701495e+001, 9.193045e+001
9.749707e+001, 9.214880e+001
9.797919e+001, 9.220267e+001
9.846130e+001, 9.242168e+001
9.894342e+001, 9.299709e+001
9.942554e+001, 9.388716e+001
9.990765e+001, 9.444323e+001
1.003898e+002, 9.456069e+001
1.008719e+002, 9.458273e+001
1.013540e+002, 9.503806e+001
1.018361e+002, 9.602274e+001
1.023182e+002, 9.704675e+001
1.028004e+002, 9.794860e+001
1.032825e+002, 9.870631e+001
1.037646e+002, 9.942232e+001
1.042467e+002, 1.000046e+002
1.047288e+002, 1.005882e+002
1.052109e+002, 1.015188e+002
1.056931e+002, 1.030147e+002
1.061752e+002, 1.045452e+002
1.066573e+002, 1.058964e+002
1.071394e+002, 1.069589e+002
1.076215e+002, 1.080441e+002
1.081036e+002, 1.092350e+002
1.085858e+002, 1.104891e+002
1.090679e+002, 1.115414e+002
1.095500e+002, 1.121712e+002
1.100321e+002, 1.127762e+002
1.105142e+002, 1.135625e+002
1.109963e+002, 1.148447e+002
1.114785e+002, 1.159645e+002
1.119606e+002, 1.167218e+002
1.124427e+002, 1.171391e+002
1.129248e+002, 1.177898e+002
1.134069e+002, 1.189410e+002
1.138890e+002, 1.202550e+002
1.143712e+002, 1.214743e+002
1.148533e+002, 1.225789e+002
1.153354e+002, 1.235470e+002
1.158175e+002, 1.242331e+002
1.162996e+002, 1.245981e+002
1.167817e+002, 1.252684e+002
1.172639e+002, 1.268898e+002
1.177460e+002, 1.288433e+002
1.182281e+002, 1.303429e+002
1.187102e+002, 1.306286e+002
1.191923e+002, 1.307095e+002
1.196744e+002, 1.312366e+002
1.201566e+002, 1.323738e+002
1.206387e+002, 1.335079e+002
1.211208e+002, 1.342260e+002
1.216029e+002, 1.346571e+002
1.220850e+002, 1.350538e+002
1.225671e+002, 1.356454e+002
1.230493e+002, 1.362172e+002
1.235314e+002, 1.365103e+002
1.240135e+002, 1.363994e+002
1.244956e+002, 1.362017e+002
1.249777e+002, 1.363077e+002
1.254598e+002, 1.366176e+002
1.259420e+002, 1.367605e+002
1.264241e+002, 1.365154e+002
1.269062e+002, 1.359329e+002
1.273883e+002, 1.350689e+002
1.278704e+002, 1.338263e+002
1.283525e+002, 1.324477e+002
1.288347e+002, 1.312742e+002
1.293168e+002, 1.302966e+002
1.297989e+002, 1.294401e+002
1.302810e+002, 1.285936e+002
1.307631e+002, 1.277994e+002
1.312452e+002, 1.272227e+002
1.317274e+002, 1.270207e+002
1.322095e+002, 1.270111e+002
1.326916e+002, 1.266449e+002
1.331737e+002, 1.258752e+002
1.336558e+002, 1.250620e+002
1.341379e+002, 1.245997e+002
1.346201e+002, 1.244825e+002
1.351022e+002, 1.242760e+002
1.355843e+002, 1.238412e+002
1.360664e+002, 1.232033e+002
1.365485e+002, 1.225097e+002
1.370306e+002, 1.216959e+002
1.375128e+002, 1.209744e+002
1.379949e+002, 1.206360e+002
1.384770e+002, 1.207552e+002
1.389591e+002, 1.208845e+002
1.394412e+002, 1.208469e+002
1.399233e+002, 1.206179e+002
1.404055e+002, 1.205773e+002
1.408876e+002, 1.208326e+002
1.413697e+002, 1.211611e+002
1.418518e+002, 1.211616e+002
1.423339e+002, 1.206814e+002
1.428160e+002, 1.202141e+002
1.432982e+002, 1.199339e+002
1.437803e+002, 1.198796e+002
1.442624e+002, 1.199013e+002
1.447445e+002, 1.200269e+002
1.452266e+002, 1.202210e+002
1.457087e+002, 1.203839e+002
1.461909e+002, 1.204231e+002
1.466730e+002, 1.205541e+002
1.471551e+002, 1.208826e+002
1.476372e+002, 1.216142e+002
1.481193e+002, 1.221951e+002
1.486014e+002, 1.226045e+002
1.490836e+002, 1.228624e+002
1.495657e+002, 1.230472e+002
1.500478e+002, 1.230546e+002
1.505299e+002, 1.230693e+002
1.510120e+002, 1.231720e+002
1.514941e+002, 1.234824e+002
1.519763e+002, 1.237361e+002
1.524584e+002, 1.238493e+002
1.529405e+002, 1.238690e+002
1.534226e+002, 1.240381e+002
1.539047e+002, 1.245028e+002
1.543868e+002, 1.250368e+002
1.548690e+002, 1.255167e+002
1.553511e+002, 1.260391e+002
1.558332e+002, 1.263880e+002
1.563153e+002, 1.263534e+002
1.567974e+002, 1.260092e+002
1.572795e+002, 1.259512e+002
1.577617e+002, 1.266547e+002
1.582438e+002, 1.275090e+002
1.587259e+002, 1.280736e+002
1.592080e+002, 1.278212e+002
1.596901e+002, 1.276785e+002
1.601722e+002, 1.280255e+002
1.606544e+002, 1.288387e+002
1.611365e+002, 1.295467e+002
1.616186e+002, 1.298481e+002
1.621007e+002, 1.299900e+002
1.625828e+002, 1.302080e+002
1.630649e+002, 1.305552e+002
1.635471e+002, 1.310076e+002
1.640292e+002, 1.316083e+002
1.645113e+002, 1.323574e+002
1.649934e+002, 1.330524e+002
1.654755e+002, 1.335554e+002
1.659576e+002, 1.339560e+002
1.664398e+002, 1.343593e+002
1.669219e+002, 1.351592e+002
1.674040e+002, 1.357312e+002
1.678861e+002, 1.354632e+002
1.683682e+002, 1.342785e+002
1.688503e+002, 1.331777e+002
1.693325e+002, 1.328692e+002
1.698146e+002, 1.330629e+002
1.702967e+002, 1.332914e+002
1.707788e+002, 1.334177e+002
1.712609e+002, 1.334526e+002
1.717430e+002, 1.333544e+002
1.722252e+002, 1.331012e+002
1.727073e+002, 1.328996e+002
1.731894e+002, 1.329821e+002
1.736715e+002, 1.332467e+002
1.741536e+002, 1.334617e+002
1.746357e+002, 1.334294e+002
1.751179e+002, 1.333247e+002
1.756000e+002, 1.333551e+002
1.760821e+002, 1.335421e+002
1.765642e+002, 1.338347e+002
1.770463e+002, 1.342574e+002
1.775284e+002, 1.347645e+002
1.780106e+002, 1.352087e+002
1.784927e+002, 1.354985e+002
1.789748e+002, 1.356802e+002
1.794569e+002, 1.357901e+002
1.799390e+002, 1.358038e+002
1.804211e+002, 1.358613e+002
1.809033e+002, 1.361719e+002
1.813854e+002, 1.366957e+002
1.818675e+002, 1.372286e+002
1.823496e+002, 1.376899e+002
1.828317e+002, 1.380739e+002
1.833138e+002, 1.383688e+002
1.837960e+002, 1.385465e+002
1.842781e+002, 1.387005e+002
1.847602e+002, 1.389866e+002
1.852423e+002, 1.393894e+002
1.857244e+002, 1.397606e+002
1.862065e+002, 1.399790e+002
1.866887e+002, 1.400860e+002
1.871708e+002, 1.402347e+002
1.876529e+002, 1.404332e+002
1.881350e+002, 1.406928e+002
1.886171e+002, 1.410590e+002
1.890992e+002, 1.415315e+002
1.895814e+002, 1.419975e+002
1.900635e+002, 1.424070e+002
1.905456e+002, 1.427607e+002
1.910277e+002, 1.430074e+002
1.915098e+002, 1.431102e+002
1.919919e+002, 1.431575e+002
1.924741e+002, 1.433450e+002
1.929562e+002, 1.436781e+002
1.934383e+002, 1.440186e+002
1.939204e+002, 1.442237e+002
1.944025e+002, 1.443079e+002
1.948846e+002, 1.445614e+002
1.953668e+002, 1.450856e+002
1.958489e+002, 1.457209e+002
1.963310e+002, 1.460435e+002
1.968131e+002, 1.460159e+002
1.972952e+002, 1.459585e+002
1.977773e+002, 1.460571e+002
1.982595e+002, 1.463123e+002
1.987416e+002, 1.467446e+002
1.992237e+002, 1.474246e+002
1.997058e+002, 1.482244e+002
2.001879e+002, 1.487563e+002
2.006700e+002, 1.489840e+002
2.011522e+002, 1.491361e+002
2.016343e+002, 1.494198e+002
2.021164e+002, 1.498706e+002
2.025985e+002, 1.500475e+002
2.030806e+002, 1.497584e+002
2.035627e+002, 1.492346e+002
2.040449e+002, 1.492742e+002
2.045270e+002, 1.499930e+002
2.050091e+002, 1.508906e+002
2.054912e+002, 1.516966e+002
2.059733e+002, 1.524412e+002
2.064554e+002, 1.528587e+002
2.069376e+002, 1.527605e+002
2.074197e+002, 1.523572e+002
2.079018e+002, 1.525142e+002
2.083839e+002, 1.534065e+002
2.088660e+002, 1.544191e+002
2.093481e+002, 1.551254e+002
2.098303e+002, 1.554787e+002
2.103124e+002, 1.557493e+002
2.107945e+002, 1.559159e+002
2.112766e+002, 1.560314e+002
2.117587e+002, 1.563479e+002
2.122408e+002, 1.569564e+002
2.127230e+002, 1.575783e+002
2.132051e+002, 1.578479e+002
2.136872e+002, 1.573731e+002
2.141693e+002, 1.580682e+002
2.146514e+002, 1.608259e+002
2.151335e+002, 1.649001e+002
2.156157e+002, 1.664455e+002
2.160978e+002, 1.644030e+002
2.165799e+002, 1.617988e+002
2.170620e+002, 1.606495e+002
2.175441e+002, 1.614954e+002
2.180262e+002, 1.622317e+002
2.185084e+002, 1.626682e+002
2.189905e+002, 1.628449e+002
2.194726e+002, 1.629303e+002
2.199547e+002, 1.628718e+002
2.204368e+002, 1.628175e+002
2.209189e+002, 1.628496e+002
2.214011e+002, 1.629520e+002
2.218832e+002, 1.632144e+002
2.223653e+002, 1.637590e+002
2.228474e+002, 1.644758e+002
2.233295e+002, 1.648285e+002
2.238116e+002, 1.645488e+002
2.242938e+002, 1.643183e+002
2.247759e+002, 1.646158e+002
2.252580e+002, 1.657903e+002
2.257401e+002, 1.666164e+002
2.262222e+002, 1.668564e+002
2.267043e+002, 1.666805e+002
2.271865e+002, 1.668464e+002
2.276686e+002, 1.675420e+002
2.281507e+002, 1.682912e+002
2.286328e+002, 1.687938e+002
2.291149e+002, 1.688848e+002
2.295970e+002, 1.691169e+002
2.300792e+002, 1.695555e+002
2.305613e+002, 1.701605e+002
2.310434e+002, 1.707738e+002
2.315255e+002, 1.714402e+002
2.320076e+002, 1.720450e+002
2.324897e+002, 1.725020e+002
2.329719e+002, 1.727106e+002
2.334540e+002, 1.730007e+002
2.339361e+002, 1.733803e+002
2.344182e+002, 1.738549e+002
2.349003e+002, 1.744890e+002
2.353824e+002, 1.755129e+002
2.358646e+002, 1.763673e+002
2.363467e+002, 1.766776e+002
2.368288e+002, 1.758955e+002
2.373109e+002, 1.758243e+002
2.377930e+002, 1.768243e+002
2.382751e+002, 1.785132e+002
2.387573e+002, 1.796869e+002
2.392394e+002, 1.800826e+002
2.397215e+002, 1.803339e+002
2.402036e+002, 1.807173e+002
2.406857e+002, 1.812736e+002
2.411678e+002, 1.818718e+002
2.416500e+002, 1.825624e+002
2.421321e+002, 1.832754e+002
2.426142e+002, 1.838153e+002
2.430963e+002, 1.839895e+002
2.435784e+002, 1.842729e+002
2.440605e+002, 1.849133e+002
2.445427e+002, 1.861748e+002
2.450248e+002, 1.871099e+002
2.455069e+002, 1.875750e+002
2.459890e+002, 1.877758e+002
2.464711e+002, 1.881480e+002
2.469532e+002, 1.887345e+002
2.474354e+002, 1.894330e+002
2.479175e+002, 1.902102e+002
2.483996e+002, 1.910924e+002
2.488817e+002, 1.920142e+002
2.493638e+002, 1.931004e+002
2.498459e+002, 1.941612e+002
2.503281e+002, 1.947894e+002
2.508102e+002, 1.946793e+002
2.512923e+002, 1.946758e+002
2.517744e+002, 1.950844e+002
2.522565e+002, 1.959865e+002
2.527386e+002, 1.969606e+002
2.532208e+002, 1.980760e+002
2.537029e+002, 1.992119e+002
2.541850e+002, 2.001973e+002
2.546671e+002, 2.010048e+002
2.551492e+002, 2.017087e+002
2.556313e+002, 2.022741e+002
2.561135e+002, 2.026450e+002
2.565956e+002, 2.032439e+002
2.570777e+002, 2.041863e+002
2.575598e+002, 2.052301e+002
2.580419e+002, 2.060000e+002
2.585240e+002, 2.062774e+002
2.590062e+002, 2.067619e+002
2.594883e+002, 2.077633e+002
2.599704e+002, 2.093236e+002
2.604525e+002, 2.104511e+002
2.609346e+002, 2.109836e+002
2.614167e+002, 2.112703e+002
2.618989e+002, 2.116897e+002
2.623810e+002, 2.122505e+002
2.628631e+002, 2.129316e+002
2.633452e+002, 2.137930e+002
2.638273e+002, 2.148460e+002
2.643094e+002, 2.156121e+002
2.647916e+002, 2.159964e+002
2.652737e+002, 2.162769e+002
2.657558e+002, 2.167116e+002
2.662379e+002, 2.173049e+002
2.667200e+002, 2.180616e+002
2.672021e+002, 2.191050e+002
2.676843e+002, 2.203652e+002
2.681664e+002, 2.211300e+002
2.686485e+002, 2.212089e+002
2.691306e+002, 2.211813e+002
2.696127e+002, 2.215949e+002
2.700948e+002, 2.225871e+002
2.705770e+002, 2.233587e+002
2.710591e+002, 2.236793e+002
2.715412e+002, 2.236733e+002
2.720233e+002, 2.240167e+002
2.725054e+002, 2.248260e+002
2.729875e+002, 2.256415e+002
2.734697e+002, 2.260602e+002
2.739518e+002, 2.259944e+002
2.744339e+002, 2.261535e+002
2.749160e+002, 2.267069e+002
2.753981e+002, 2.274869e+002
2.758802e+002, 2.279306e+002
2.763624e+002, 2.279332e+002
2.768445e+002, 2.279942e+002
2.773266e+002, 2.285445e+002
2.778087e+002, 2.296404e+002
2.782908e+002, 2.303553e+002
2.787729e+002, 2.304956e+002
2.792551e+002, 2.303586e+002
2.797372e+002, 2.306538e+002
2.802193e+002, 2.314459e+002
2.807014e+002, 2.322649e+002
2.811835e+002, 2.328412e+002
2.816656e+002, 2.331795e+002
2.821478e+002, 2.335772e+002
2.826299e+002, 2.340456e+002
2.831120e+002, 2.345781e+002
2.835941e+002, 2.351477e+002
2.840762e+002, 2.357540e+002
2.845583e+002, 2.364622e+002
2.850405e+002, 2.372677e+002
2.855226e+002, 2.381848e+002
2.860047e+002, 2.393424e+002
2.864868e+002, 2.407390e+002
2.869689e+002, 2.423825e+002
2.874510e+002, 2.444423e+002
2.879332e+002, 2.468893e+002
2.884153e+002, 2.491469e+002
2.888974e+002, 2.507810e+002
2.893795e+002, 2.520113e+002
2.898616e+002, 2.536167e+002
2.903438e+002, 2.556183e+002
2.908259e+002, 2.578435e+002
2.913080e+002, 2.601363e+002
2.917901e+002, 2.624832e+002
2.922722e+002, 2.649433e+002
2.927543e+002, 2.675252e+002
2.932365e+002, 2.702099e+002
2.937186e+002, 2.728428e+002
2.942007e+002, 2.753958e+002
2.946828e+002, 2.782315e+002
2.951649e+002, 2.817198e+002
2.956470e+002, 2.857412e+002
2.961292e+002, 2.900345e+002
2.966113e+002, 2.945094e+002
2.970934e+002, 2.991797e+002
2.975755e+002, 3.041212e+002
2.980576e+002, 3.093539e+002
2.985397e+002, 3.148033e+002
2.990219e+002, 3.204066e+002
2.995040e+002, 3.262640e+002
2.999861e+002, 3.324261e+002
3.004682e+002, 3.387394e+002
3.009503e+002, 3.456849e+002
3.014324e+002, 3.540286e+002
3.019146e+002, 3.635768e+002
3.023967e+002, 3.738752e+002
3.028788e+002, 3.841776e+002
3.033609e+002, 3.951409e+002
3.038430e+002, 4.075857e+002
3.043251e+002, 4.217111e+002
3.048073e+002, 4.369589e+002
3.052894e+002, 4.528768e+002
3.057715e+002, 4.695408e+002
3.062536e+002, 4.876034e+002
3.067357e+002, 5.066425e+002
3.072178e+002, 5.274918e+002
3.077000e+002, 5.508096e+002
3.081821e+002, 5.766882e+002
3.086642e+002, 6.046191e+002
3.091463e+002, 6.344348e+002
3.096284e+002, 6.658768e+002
3.101105e+002, 6.990211e+002
3.105927e+002, 7.335029e+002
3.110748e+002, 7.694687e+002
3.115569e+002, 8.077095e+002
3.120390e+002, 8.482267e+002
3.125211e+002, 8.895513e+002
3.130032e+002, 9.303751e+002
3.134854e+002, 9.722540e+002
3.139675e+002, 1.016309e+003
3.144496e+002, 1.063778e+003
3.149317e+002, 1.112605e+003
3.154138e+002, 1.162419e+003
3.158959e+002, 1.213071e+003
3.163781e+002, 1.265066e+003
3.168602e+002, 1.317548e+003
3.173423e+002, 1.371542e+003
3.178244e+002, 1.427598e+003
3.183065e+002, 1.485248e+003
3.187886e+002, 1.545729e+003
3.192708e+002, 1.608846e+003
3.197529e+002, 1.674725e+003
3.202350e+002, 1.744001e+003
3.207171e+002, 1.817168e+003
3.211992e+002, 1.892723e+003
3.216813e+002, 1.969858e+003
3.221635e+002, 2.048569e+003
3.226456e+002, 2.128554e+003
3.231277e+002, 2.211835e+003
3.236098e+002, 2.295999e+003
3.240919e+002, 2.377363e+003
3.245740e+002, 2.456800e+003
3.250562e+002, 2.530953e+003
3.255383e+002, 2.600024e+003
3.260204e+002, 2.665808e+003
3.265025e+002, 2.719043e+003
3.269846e+002, 2.759863e+003
3.274667e+002, 2.787460e+003
3.279489e+002, 2.801547e+003
3.284310e+002, 2.805026e+003
3.289131e+002, 2.792023e+003
3.293952e+002, 2.760666e+003
3.298773e+002, 2.710841e+003
3.303594e+002, 2.648235e+003
3.308416e+002, 2.570187e+003
3.313237e+002, 2.482407e+003
3.318058e+002, 2.388620e+003
3.322879e+002, 2.284974e+003
3.327700e+002, 2.180986e+003
3.332521e+002, 2.075100e+003
3.337343e+002, 1.968274e+003
3.342164e+002, 1.864477e+003
3.346985e+002, 1.763573e+003
3.351806e+002, 1.667614e+003
3.356627e+002, 1.577680e+003
3.361448e+002, 1.495128e+003
3.366270e+002, 1.416705e+003
3.371091e+002, 1.342508e+003
3.375912e+002, 1.273189e+003
3.380733e+002, 1.209158e+003
3.385554e+002, 1.151378e+003
3.390375e+002, 1.097786e+003
3.395197e+002, 1.047687e+003
3.400018e+002, 1.001536e+003
3.404839e+002, 9.580555e+002
3.409660e+002, 9.179797e+002
3.414481e+002, 8.807322e+002
3.419302e+002, 8.467674e+002
3.424124e+002, 8.158701e+002
3.428945e+002, 7.872767e+002
3.433766e+002, 7.605161e+002
3.438587e+002, 7.357927e+002
3.443408e+002, 7.129054e+002
3.448229e+002, 6.920007e+002
3.453051e+002, 6.727543e+002
3.457872e+002, 6.552460e+002
3.462693e+002, 6.393790e+002
3.467514e+002, 6.238538e+002
3.472335e+002, 6.084056e+002
3.477156e+002, 5.933995e+002
3.481978e+002, 5.799075e+002
3.486799e+002, 5.678890e+002
3.491620e+002, 5.567889e+002
3.496441e+002, 5.462713e+002
3.501262e+002, 5.363995e+002
3.506083e+002, 5.274711e+002
3.510905e+002, 5.195629e+002
3.515726e+002, 5.121153e+002
3.520547e+002, 5.042744e+002
3.525368e+002, 4.962843e+002
3.530189e+002, 4.888878e+002
3.535010e+002, 4.829100e+002
3.539832e+002, 4.775142e+002
3.544653e+002, 4.715941e+002
3.549474e+002, 4.650228e+002
3.554295e+002, 4.586564e+002
3.559116e+002, 4.531294e+002
3.563937e+002, 4.482064e+002
3.568759e+002, 4.436115e+002
3.573580e+002, 4.392412e+002
3.578401e+002, 4.351079e+002
3.583222e+002, 4.313266e+002
3.588043e+002, 4.278203e+002
3.592864e+002, 4.243344e+002
3.597686e+002, 4.206500e+002
3.602507e+002, 4.169492e+002
3.607328e+002, 4.134159e+002
3.612149e+002, 4.100080e+002
3.616970e+002, 4.068539e+002
3.621791e+002, 4.042110e+002
3.626613e+002, 4.018610e+002
3.631434e+002, 3.993062e+002
3.636255e+002, 3.959963e+002
3.641076e+002, 3.927528e+002
3.645897e+002, 3.899961e+002
3.650718e+002, 3.879945e+002
3.655540e+002, 3.858921e+002
3.660361e+002, 3.833517e+002
3.665182e+002, 3.806989e+002
3.670003e+002, 3.783244e+002
3.674824e+002, 3.767045e+002
3.679645e+002, 3.749299e+002
3.684467e+002, 3.727401e+002
3.689288e+002, 3.701525e+002
3.694109e+002, 3.676167e+002
3.698930e+002, 3.649657e+002
3.703751e+002, 3.625062e+002
3.708572e+002, 3.604720e+002
3.713394e+002, 3.593025e+002
3.718215e+002, 3.578467e+002
3.723036e+002, 3.558389e+002
3.727857e+002, 3.534908e+002
3.732678e+002, 3.515958e+002
3.737499e+002, 3.504590e+002
3.742321e+002, 3.491922e+002
3.747142e+002, 3.472251e+002
3.751963e+002, 3.441661e+002
3.756784e+002, 3.421012e+002
3.761605e+002, 3.413640e+002
3.766426e+002, 3.412072e+002
3.771248e+002, 3.404924e+002
3.776069e+002, 3.391214e+002
3.780890e+002, 3.377393e+002
3.785711e+002, 3.365974e+002
3.790532e+002, 3.356384e+002
3.795353e+002, 3.345386e+002
3.800175e+002, 3.332909e+002
3.804996e+002, 3.318918e+002
3.809817e+002, 3.301480e+002
3.814638e+002, 3.281476e+002
3.819459e+002, 3.265653e+002
3.824280e+002, 3.255821e+002
3.829102e+002, 3.250511e+002
3.833923e+002, 3.249271e+002
3.838744e+002, 3.251511e+002
3.843565e+002, 3.251531e+002
3.848386e+002, 3.243752e+002
3.853207e+002, 3.231424e+002
3.858029e+002, 3.221314e+002
3.862850e+002, 3.214078e+002
3.867671e+002, 3.208554e+002
3.872492e+002, 3.203272e+002
3.877313e+002, 3.198725e+002
3.882134e+002, 3.196158e+002
3.886956e+002, 3.195711e+002
3.891777e+002, 3.197813e+002
3.896598e+002, 3.206630e+002
3.901419e+002, 3.221363e+002
3.906240e+002, 3.229245e+002
3.911061e+002, 3.216370e+002
3.915883e+002, 3.195304e+002
3.920704e+002, 3.179221e+002
3.925525e+002, 3.173988e+002
3.930346e+002, 3.171347e+002
3.935167e+002, 3.167747e+002
3.939988e+002, 3.163766e+002
3.944810e+002, 3.160953e+002
3.949631e+002, 3.161178e+002
3.954452e+002, 3.161671e+002
3.959273e+002, 3.160572e+002
3.964094e+002, 3.156465e+002
3.968915e+002, 3.154615e+002
3.973737e+002, 3.157401e+002
3.978558e+002, 3.162450e+002
3.983379e+002, 3.166841e+002
3.988200e+002, 3.169345e+002
3.993021e+002, 3.172072e+002
3.997842e+002, 3.175682e+002
4.002664e+002, 3.180135e+002
4.007485e+002, 3.183589e+002
4.012306e+002, 3.185580e+002
4.017127e+002, 3.186900e+002
4.021948e+002, 3.187763e+002
4.026769e+002, 3.186846e+002
4.031591e+002, 3.188686e+002
4.036412e+002, 3.195828e+002
4.041233e+002, 3.204812e+002
4.046054e+002, 3.205648e+002
4.050875e+002, 3.194582e+002
4.055696e+002, 3.186571e+002
4.060518e+002, 3.190515e+002
4.065339e+002, 3.207053e+002
4.070160e+002, 3.211499e+002
4.074981e+002, 3.200554e+002
4.079802e+002, 3.186910e+002
4.084623e+002, 3.186598e+002
4.089445e+002, 3.199405e+002
4.094266e+002, 3.211500e+002
4.099087e+002, 3.219445e+002
4.103908e+002, 3.224359e+002
4.108729e+002, 3.227844e+002
4.113550e+002, 3.230016e+002
4.118372e+002, 3.232944e+002
4.123193e+002, 3.240327e+002
4.128014e+002, 3.249434e+002
4.132835e+002, 3.252994e+002
4.137656e+002, 3.249001e+002
4.142477e+002, 3.243678e+002
4.147299e+002, 3.243035e+002
4.152120e+002, 3.246198e+002
4.156941e+002, 3.251123e+002
4.161762e+002, 3.258654e+002
4.166583e+002, 3.266274e+002
4.171404e+002, 3.271403e+002
4.176226e+002, 3.274061e+002
4.181047e+002, 3.276367e+002
4.185868e+002, 3.280258e+002
4.190689e+002, 3.284010e+002
4.195510e+002, 3.285920e+002
4.200331e+002, 3.283796e+002
4.205153e+002, 3.282044e+002
4.209974e+002, 3.281776e+002
4.214795e+002, 3.283133e+002
4.219616e+002, 3.286490e+002
4.224437e+002, 3.296992e+002
4.229258e+002, 3.305352e+002
4.234080e+002, 3.306372e+002
4.238901e+002, 3.296594e+002
4.243722e+002, 3.291251e+002
4.248543e+002, 3.294439e+002
4.253364e+002, 3.301309e+002
4.258185e+002, 3.307251e+002
4.263007e+002, 3.313011e+002
4.267828e+002, 3.316879e+002
4.272649e+002, 3.318256e+002
4.277470e+002, 3.317427e+002
4.282291e+002, 3.315936e+002
4.287112e+002, 3.312689e+002
4.291934e+002, 3.310645e+002
4.296755e+002, 3.311444e+002
4.301576e+002, 3.315363e+002
4.306397e+002, 3.321304e+002
4.311218e+002, 3.330729e+002
4.316039e+002, 3.339678e+002
4.320861e+002, 3.340064e+002
4.325682e+002, 3.331126e+002
4.330503e+002, 3.325233e+002
4.335324e+002, 3.327722e+002
4.340145e+002, 3.336322e+002
4.344966e+002, 3.343685e+002
4.349788e+002, 3.349847e+002
4.354609e+002, 3.354601e+002
4.359430e+002, 3.356537e+002
4.364251e+002, 3.356949e+002
4.369072e+002, 3.359785e+002
4.373893e+002, 3.366583e+002
4.378715e+002, 3.373944e+002
4.383536e+002, 3.377264e+002
4.388357e+002, 3.377866e+002
4.393178e+002, 3.379444e+002
4.397999e+002, 3.383129e+002
4.402820e+002, 3.389098e+002
4.407642e+002, 3.398755e+002
4.412463e+002, 3.412213e+002
4.417284e+002, 3.423919e+002
4.422105e+002, 3.431497e+002
4.426926e+002, 3.435577e+002
4.431747e+002, 3.436664e+002
4.436569e+002, 3.432114e+002
4.441390e+002, 3.427840e+002
4.446211e+002, 3.425123e+002
4.451032e+002, 3.423992e+002
4.455853e+002, 3.424642e+002
4.460674e+002, 3.430578e+002
4.465496e+002, 3.435306e+002
4.470317e+002, 3.435546e+002
4.475138e+002, 3.428705e+002
4.479959e+002, 3.426057e+002
4.484780e+002, 3.430002e+002
4.489601e+002, 3.436601e+002
4.494423e+002, 3.441980e+002
4.499244e+002, 3.444819e+002
4.504065e+002, 3.449450e+002
4.508886e+002, 3.457701e+002
4.513707e+002, 3.468141e+002
4.518528e+002, 3.474492e+002
4.523350e+002, 3.475616e+002
4.528171e+002, 3.476037e+002
4.532992e+002, 3.477491e+002
4.537813e+002, 3.479929e+002
4.542634e+002, 3.486198e+002
4.547455e+002, 3.497505e+002
4.552277e+002, 3.508834e+002
4.557098e+002, 3.511885e+002
4.561919e+002, 3.508075e+002
4.566740e+002, 3.507706e+002
4.571561e+002, 3.515284e+002
4.576382e+002, 3.527256e+002
4.581204e+002, 3.538846e+002
4.586025e+002, 3.549873e+002
4.590846e+002, 3.558157e+002
4.595667e+002, 3.560558e+002
4.600488e+002, 3.560174e+002
4.605309e+002, 3.560709e+002
4.610131e+002, 3.562544e+002
4.614952e+002, 3.566156e+002
4.619773e+002, 3.573266e+002
4.624594e+002, 3.582025e+002
4.629415e+002, 3.589814e+002
4.634236e+002, 3.596317e+002
4.639058e+002, 3.600896e+002
4.643879e+002, 3.601457e+002
4.648700e+002, 3.598726e+002
4.653521e+002, 3.599336e+002
4.658342e+002, 3.608613e+002
4.663163e+002, 3.618940e+002
4.667985e+002, 3.626085e+002
4.672806e+002, 3.628064e+002
4.677627e+002, 3.629716e+002
4.682448e+002, 3.629409e+002
4.687269e+002, 3.629529e+002
4.692090e+002, 3.633888e+002
4.696912e+002, 3.646045e+002
4.701733e+002, 3.656051e+002
4.706554e+002, 3.661630e+002
4.711375e+002, 3.663040e+002
4.716196e+002, 3.662081e+002
4.721017e+002, 3.657575e+002
4.725839e+002, 3.653968e+002
4.730660e+002, 3.654658e+002
4.735481e+002, 3.659695e+002
4.740302e+002, 3.664920e+002
4.745123e+002, 3.670157e+002
4.749944e+002, 3.675251e+002
4.754766e+002, 3.680537e+002
4.759587e+002, 3.685793e+002
4.764408e+002, 3.689280e+002
4.769229e+002, 3.688776e+002
4.774050e+002, 3.687065e+002
4.778871e+002, 3.689000e+002
4.783693e+002, 3.694324e+002
4.788514e+002, 3.700422e+002
4.793335e+002, 3.705271e+002
4.798156e+002, 3.709972e+002
4.802977e+002, 3.715598e+002
4.807798e+002, 3.722098e+002
4.812620e+002, 3.730186e+002
4.817441e+002, 3.744401e+002
4.822262e+002, 3.759470e+002
4.827083e+002, 3.767627e+002
4.831904e+002, 3.755764e+002
4.836725e+002, 3.746637e+002
4.841547e+002, 3.751283e+002
4.846368e+002, 3.768611e+002
4.851189e+002, 3.781662e+002
4.856010e+002, 3.784734e+002
4.860831e+002, 3.785519e+002
4.865652e+002, 3.787744e+002
4.870474e+002, 3.791658e+002
4.875295e+002, 3.796519e+002
4.880116e+002, 3.802654e+002
4.884937e+002, 3.809429e+002
4.889758e+002, 3.816182e+002
4.894579e+002, 3.823206e+002
4.899401e+002, 3.829401e+002
4.904222e+002, 3.834667e+002
4.909043e+002, 3.838907e+002
4.913864e+002, 3.841277e+002
4.918685e+002, 3.841426e+002
4.923506e+002, 3.842234e+002
4.928328e+002, 3.845692e+002
4.933149e+002, 3.851486e+002
4.937970e+002, 3.859274e+002
4.942791e+002, 3.869757e+002
4.947612e+002, 3.878691e+002
4.952433e+002, 3.879384e+002
4.957255e+002, 3.874739e+002
4.962076e+002, 3.872196e+002
4.966897e+002, 3.875617e+002
4.971718e+002, 3.881226e+002
4.976539e+002, 3.884909e+002
4.981360e+002, 3.887486e+002
4.986182e+002, 3.892197e+002
4.991003e+002, 3.903011e+002
4.995824e+002, 3.915011e+002
5.000645e+002, 3.924865e+002
5.005466e+002, 3.932374e+002
5.010287e+002, 3.937464e+002
5.015109e+002, 3.937673e+002
5.019930e+002, 3.936517e+002
5.024751e+002, 3.937505e+002
5.029572e+002, 3.941084e+002
5.034393e+002, 3.946847e+002
5.039214e+002, 3.956189e+002
5.044036e+002, 3.967689e+002
5.048857e+002, 3.976313e+002
5.053678e+002, 3.979777e+002
5.058499e+002, 3.984584e+002
5.063320e+002, 3.994802e+002
5.068141e+002, 4.011244e+002
5.072963e+002, 4.020143e+002
5.077784e+002, 4.019601e+002
5.082605e+002, 4.016868e+002
5.087426e+002, 4.020114e+002
5.092247e+002, 4.028845e+002
5.097068e+002, 4.035145e+002
5.101890e+002, 4.036659e+002
5.106711e+002, 4.036723e+002
5.111532e+002, 4.041454e+002
5.116353e+002, 4.049954e+002
5.121174e+002, 4.057841e+002
5.125995e+002, 4.060407e+002
5.130817e+002, 4.062446e+002
5.135638e+002, 4.071790e+002
5.140459e+002, 4.088102e+002
5.145280e+002, 4.101610e+002
5.150101e+002, 4.103990e+002
5.154922e+002, 4.101801e+002
5.159744e+002, 4.100780e+002
5.164565e+002, 4.101220e+002
5.169386e+002, 4.104843e+002
5.174207e+002, 4.115248e+002
5.179028e+002, 4.128651e+002
5.183849e+002, 4.138829e+002
5.188671e+002, 4.140499e+002
5.193492e+002, 4.143504e+002
5.198313e+002, 4.151411e+002
5.203134e+002, 4.163579e+002
5.207955e+002, 4.171151e+002
5.212776e+002, 4.171032e+002
5.217598e+002, 4.170815e+002
5.222419e+002, 4.175094e+002
5.227240e+002, 4.184934e+002
5.232061e+002, 4.193346e+002
5.236882e+002, 4.199828e+002
5.241703e+002, 4.205763e+002
5.246525e+002, 4.213549e+002
5.251346e+002, 4.223035e+002
5.256167e+002, 4.230779e+002
5.260988e+002, 4.235021e+002
5.265809e+002, 4.237953e+002
5.270630e+002, 4.243769e+002
5.275452e+002, 4.252057e+002
5.280273e+002, 4.260383e+002
5.285094e+002, 4.268236e+002
5.289915e+002, 4.274922e+002
5.294736e+002, 4.278182e+002
5.299557e+002, 4.277651e+002
5.304379e+002, 4.280332e+002
5.309200e+002, 4.295015e+002
5.314021e+002, 4.312755e+002
5.318842e+002, 4.324606e+002
5.323663e+002, 4.324020e+002
5.328484e+002, 4.323537e+002
5.333306e+002, 4.325438e+002
5.338127e+002, 4.329521e+002
5.342948e+002, 4.335376e+002
5.347769e+002, 4.343041e+002
5.352590e+002, 4.352569e+002
5.357411e+002, 4.365330e+002
5.362233e+002, 4.381096e+002
5.367054e+002, 4.391902e+002
5.371875e+002, 4.394937e+002
5.376696e+002, 4.398447e+002
5.381517e+002, 4.410268e+002
5.386339e+002, 4.431652e+002
5.391160e+002, 4.441725e+002
5.395981e+002, 4.436291e+002
5.400802e+002, 4.428145e+002
5.405623e+002, 4.436478e+002
5.410444e+002, 4.458341e+002
5.415266e+002, 4.476818e+002
5.420087e+002, 4.484477e+002
5.424908e+002, 4.488562e+002
5.429729e+002, 4.499289e+002
5.434550e+002, 4.515350e+002
5.439371e+002, 4.531905e+002
5.444193e+002, 4.545132e+002
5.449014e+002, 4.558523e+002
5.453835e+002, 4.575629e+002
5.458656e+002, 4.596913e+002
5.463477e+002, 4.617747e+002
5.468298e+002, 4.631862e+002
5.473120e+002, 4.647440e+002
5.477941e+002, 4.671184e+002
5.482762e+002, 4.712247e+002
5.487583e+002, 4.750522e+002
5.492404e+002, 4.780695e+002
5.497225e+002, 4.808307e+002
5.502047e+002, 4.843726e+002
5.506868e+002, 4.893368e+002
5.511689e+002, 4.938223e+002
5.516510e+002, 4.971075e+002
5.521331e+002, 4.994601e+002
5.526152e+002, 5.025591e+002
5.530974e+002, 5.064934e+002
5.535795e+002, 5.107617e+002
5.540616e+002, 5.150784e+002
5.545437e+002, 5.194642e+002
5.550258e+002, 5.240094e+002
5.555079e+002, 5.287484e+002
5.559901e+002, 5.336166e+002
5.564722e+002, 5.384735e+002
5.569543e+002, 5.434758e+002
5.574364e+002, 5.488828e+002
5.579185e+002, 5.545342e+002
5.584006e+002, 5.610181e+002
5.588828e+002, 5.691459e+002
5.593649e+002, 5.784791e+002
5.598470e+002, 5.881893e+002
5.603291e+002, 5.975840e+002
5.608112e+002, 6.075698e+002
5.612933e+002, 6.196691e+002
5.617755e+002, 6.339217e+002
5.622576e+002, 6.451895e+002
5.627397e+002, 6.498516e+002
5.632218e+002, 6.535519e+002
5.637039e+002, 6.593445e+002
5.641860e+002, 6.693201e+002
5.646682e+002, 6.760901e+002
5.651503e+002, 6.797803e+002
5.656324e+002, 6.802167e+002
5.661145e+002, 6.771225e+002
5.665966e+002, 6.704286e+002
5.670787e+002, 6.604421e+002
5.675609e+002, 6.466507e+002
5.680430e+002, 6.303828e+002
5.685251e+002, 6.142161e+002
5.690072e+002, 5.981174e+002
5.694893e+002, 5.829818e+002
5.699714e+002, 5.687073e+002
5.704536e+002, 5.557668e+002
5.709357e+002, 5.448433e+002
5.714178e+002, 5.359440e+002
5.718999e+002, 5.284044e+002
5.723820e+002, 5.222229e+002
5.728641e+002, 5.170555e+002
5.733463e+002, 5.127627e+002
5.738284e+002, 5.094315e+002
5.743105e+002, 5.065015e+002
5.747926e+002, 5.037454e+002
5.752747e+002, 5.013084e+002
5.757568e+002, 4.994000e+002
5.762390e+002, 4.986636e+002
5.767211e+002, 4.975562e+002
5.772032e+002, 4.956617e+002
5.776853e+002, 4.932863e+002
5.781674e+002, 4.915213e+002
5.786495e+002, 4.904175e+002
5.791317e+002, 4.898015e+002
5.796138e+002, 4.898050e+002
5.800959e+002, 4.903116e+002
5.805780e+002, 4.901784e+002
5.810601e+002, 4.893354e+002
5.815422e+002, 4.886478e+002
5.820244e+002, 4.891166e+002
5.825065e+002, 4.902835e+002
5.829886e+002, 4.909413e+002
5.834707e+002, 4.908696e+002
5.839528e+002, 4.906803e+002
5.844349e+002, 4.906206e+002
5.849171e+002, 4.908746e+002
5.853992e+002, 4.917301e+002
5.858813e+002, 4.943472e+002
5.863634e+002, 4.964349e+002
5.868455e+002, 4.966639e+002
5.873276e+002, 4.955992e+002
5.878098e+002, 4.947683e+002
5.882919e+002, 4.942990e+002
5.887740e+002, 4.942760e+002
5.892561e+002, 4.948779e+002
5.897382e+002, 4.961188e+002
5.902203e+002, 4.969914e+002
5.907025e+002, 4.974372e+002
5.911846e+002, 4.976021e+002
5.916667e+002, 4.974862e+002
5.921488e+002, 4.970570e+002
5.926309e+002, 4.968327e+002
5.931130e+002, 4.968396e+002
5.935952e+002, 4.970293e+002
5.940773e+002, 4.972442e+002
5.945594e+002, 4.975772e+002
5.950415e+002, 4.984390e+002
5.955236e+002, 5.001683e+002
5.960057e+002, 5.020396e+002
5.964879e+002, 5.033266e+002
5.969700e+002, 5.041203e+002
5.974521e+002, 5.046122e+002
5.979342e+002, 5.044502e+002
5.984163e+002, 5.044006e+002
5.988984e+002, 5.050632e+002
5.993806e+002, 5.063466e+002
5.998627e+002, 5.073146e+002
6.003448e+002, 5.073121e+002
6.008269e+002, 5.073194e+002
6.013090e+002, 5.078660e+002
6.017911e+002, 5.091869e+002
6.022733e+002, 5.100872e+002
6.027554e+002, 5.103602e+002
6.032375e+002, 5.105002e+002
6.037196e+002, 5.110145e+002
6.042017e+002, 5.119625e+002
6.046838e+002, 5.126494e+002
6.051660e+002, 5.128710e+002
6.056481e+002, 5.131038e+002
6.061302e+002, 5.143481e+002
6.066123e+002, 5.163636e+002
6.070944e+002, 5.180001e+002
6.075765e+002, 5.185604e+002
6.080587e+002, 5.188153e+002
6.085408e+002, 5.196827e+002
6.090229e+002, 5.210222e+002
6.095050e+002, 5.223674e+002
6.099871e+002, 5.234147e+002
6.104692e+002, 5.244240e+002
6.109514e+002, 5.256609e+002
6.114335e+002, 5.271791e+002
6.119156e+002, 5.282665e+002
6.123977e+002, 5.283239e+002
6.128798e+002, 5.282505e+002
6.133619e+002, 5.285970e+002
6.138441e+002, 5.296747e+002
6.143262e+002, 5.304150e+002
6.148083e+002, 5.306813e+002
6.152904e+002, 5.308113e+002
6.157725e+002, 5.312667e+002
6.162546e+002, 5.320771e+002
6.167368e+002, 5.326861e+002
6.172189e+002, 5.328100e+002
6.177010e+002, 5.330165e+002
6.181831e+002, 5.342330e+002
6.186652e+002, 5.363914e+002
6.191473e+002, 5.392682e+002
6.196295e+002, 5.447380e+002
6.201116e+002, 5.494922e+002
6.205937e+002, 5.491341e+002
6.210758e+002, 5.446171e+002
6.215579e+002, 5.406926e+002
6.220400e+002, 5.399114e+002
6.225222e+002, 5.403018e+002
6.230043e+002, 5.407987e+002
6.234864e+002, 5.412386e+002
6.239685e+002, 5.421619e+002
6.244506e+002, 5.442943e+002
6.249327e+002, 5.463581e+002
6.254149e+002, 5.474703e+002
6.258970e+002, 5.472811e+002
6.263791e+002, 5.470993e+002
6.268612e+002, 5.468455e+002
6.273433e+002, 5.468142e+002
6.278254e+002, 5.475602e+002
6.283076e+002, 5.490452e+002
6.287897e+002, 5.504515e+002
6.292718e+002, 5.515836e+002
6.297539e+002, 5.525320e+002
6.302360e+002, 5.534619e+002
6.307181e+002, 5.543300e+002
6.312003e+002, 5.549805e+002
6.316824e+002, 5.552252e+002
6.321645e+002, 5.553143e+002
6.326466e+002, 5.553270e+002
6.331287e+002, 5.553104e+002
6.336108e+002, 5.555195e+002
6.340930e+002, 5.560351e+002
6.345751e+002, 5.568075e+002
6.350572e+002, 5.579896e+002
6.355393e+002, 5.598206e+002
6.360214e+002, 5.607595e+002
6.365035e+002, 5.601995e+002
6.369857e+002, 5.594828e+002
6.374678e+002, 5.597031e+002
6.379499e+002, 5.610156e+002
6.384320e+002, 5.621378e+002
6.389141e+002, 5.629944e+002
6.393962e+002, 5.636061e+002
6.398784e+002, 5.637845e+002
6.403605e+002, 5.636780e+002
6.408426e+002, 5.639768e+002
6.413247e+002, 5.650188e+002
6.418068e+002, 5.662707e+002
6.422889e+002, 5.671915e+002
6.427711e+002, 5.678834e+002
6.432532e+002, 5.685992e+002
6.437353e+002, 5.695686e+002
6.442174e+002, 5.704683e+002
6.446995e+002, 5.710729e+002
6.451816e+002, 5.714323e+002
6.456638e+002, 5.719173e+002
6.461459e+002, 5.729315e+002
6.466280e+002, 5.737045e+002
6.471101e+002, 5.737717e+002
6.475922e+002, 5.730384e+002
6.480743e+002, 5.733887e+002
6.485565e+002, 5.752025e+002
6.490386e+002, 5.770942e+002
6.495207e+002, 5.777923e+002
6.500028e+002, 5.774607e+002
6.504849e+002, 5.775798e+002
6.509670e+002, 5.782775e+002
6.514492e+002, 5.792048e+002
6.519313e+002, 5.800266e+002
6.524134e+002, 5.808022e+002
6.528955e+002, 5.816609e+002
6.533776e+002, 5.827570e+002
6.538597e+002, 5.837099e+002
6.543419e+002, 5.842393e+002
6.548240e+002, 5.844929e+002
6.553061e+002, 5.846855e+002
6.557882e+002, 5.845569e+002
6.562703e+002, 5.847581e+002
6.567524e+002, 5.857059e+002
6.572346e+002, 5.871020e+002
6.577167e+002, 5.879953e+002
6.581988e+002, 5.880779e+002
6.586809e+002, 5.883879e+002
6.591630e+002, 5.893679e+002
6.596451e+002, 5.908734e+002
6.601273e+002, 5.920375e+002
6.606094e+002, 5.928547e+002
6.610915e+002, 5.935921e+002
6.615736e+002, 5.944860e+002
6.620557e+002, 5.954103e+002
6.625378e+002, 5.960490e+002
6.630200e+002, 5.963829e+002
6.635021e+002, 5.967873e+002
6.639842e+002, 5.974639e+002
6.644663e+002, 5.983690e+002
6.649484e+002, 5.995848e+002
6.654305e+002, 6.014647e+002
6.659127e+002, 6.026714e+002
6.663948e+002, 6.023080e+002
6.668769e+002, 6.014245e+002
6.673590e+002, 6.010665e+002
6.678411e+002, 6.012927e+002
6.683232e+002, 6.019897e+002
6.688054e+002, 6.032917e+002
6.692875e+002, 6.049020e+002
6.697696e+002, 6.063712e+002
6.702517e+002, 6.077001e+002
6.707338e+002, 6.087276e+002
6.712159e+002, 6.092734e+002
6.716981e+002, 6.096413e+002
6.721802e+002, 6.104011e+002
6.726623e+002, 6.114449e+002
6.731444e+002, 6.124188e+002
6.736265e+002, 6.130455e+002
6.741086e+002, 6.135969e+002
6.745908e+002, 6.142148e+002
6.750729e+002, 6.149158e+002
6.755550e+002, 6.157836e+002
6.760371e+002, 6.172882e+002
6.765192e+002, 6.185711e+002
6.770013e+002, 6.191888e+002
6.774835e+002, 6.190745e+002
6.779656e+002, 6.190984e+002
6.784477e+002, 6.192130e+002
6.789298e+002, 6.195555e+002
6.794119e+002, 6.202285e+002
6.798940e+002, 6.212406e+002
6.803762e+002, 6.225336e+002
6.808583e+002, 6.241826e+002
6.813404e+002, 6.256871e+002
6.818225e+002, 6.263033e+002
6.823046e+002, 6.264371e+002
6.827867e+002, 6.270499e+002
6.832689e+002, 6.285116e+002
6.837510e+002, 6.298533e+002
6.842331e+002, 6.300383e+002
6.847152e+002, 6.297894e+002
6.851973e+002, 6.300209e+002
6.856794e+002, 6.316983e+002
6.861616e+002, 6.330240e+002
6.866437e+002, 6.331934e+002
6.871258e+002, 6.329484e+002
6.876079e+002, 6.337093e+002
6.880900e+002, 6.359677e+002
6.885721e+002, 6.379135e+002
6.890543e+002, 6.390537e+002
6.895364e+002, 6.396065e+002
6.900185e+002, 6.401401e+002
6.905006e+002, 6.406529e+002
6.909827e+002, 6.412839e+002
6.914648e+002, 6.423045e+002
6.919470e+002, 6.433806e+002
6.924291e+002, 6.439631e+002
6.929112e+002, 6.441180e+002
6.933933e+002, 6.442167e+002
6.938754e+002, 6.440918e+002
6.943575e+002, 6.442838e+002
6.948397e+002, 6.453720e+002
6.953218e+002, 6.475021e+002
6.958039e+002, 6.491403e+002
6.962860e+002, 6.497316e+002
6.967681e+002, 6.501449e+002
6.972502e+002, 6.508456e+002
6.977324e+002, 6.519457e+002
6.982145e+002, 6.527561e+002
6.986966e+002, 6.531915e+002
6.991787e+002, 6.535892e+002
6.996608e+002, 6.541655e+002
7.001429e+002, 6.549578e+002
7.006251e+002, 6.563311e+002
7.011072e+002, 6.584433e+002
7.015893e+002, 6.604670e+002
7.020714e+002, 6.613455e+002
7.025535e+002, 6.616699e+002
7.030356e+002, 6.623317e+002
7.035178e+002, 6.637937e+002
7.039999e+002, 6.652285e+002
7.044820e+002, 6.664434e+002
7.049641e+002, 6.673908e+002
7.054462e+002, 6.679827e+002
7.059283e+002, 6.677508e+002
7.064105e+002, 6.679325e+002
7.068926e+002, 6.687678e+002
7.073747e+002, 6.700630e+002
7.078568e+002, 6.714428e+002
7.083389e+002, 6.729374e+002
7.088210e+002, 6.742520e+002
7.093032e+002, 6.753031e+002
7.097853e+002, 6.761083e+002
7.102674e+002, 6.765074e+002
7.107495e+002, 6.766273e+002
7.112316e+002, 6.769805e+002
7.117137e+002, 6.781746e+002
7.121959e+002, 6.794323e+002
7.126780e+002, 6.800760e+002
7.131601e+002, 6.801926e+002
7.136422e+002, 6.805032e+002
7.141243e+002, 6.811782e+002
7.146064e+002, 6.821384e+002
7.150886e+002, 6.835373e+002
7.155707e+002, 6.854178e+002
7.160528e+002, 6.864236e+002
7.165349e+002, 6.863104e+002
7.170170e+002, 6.859741e+002
7.174991e+002, 6.858077e+002
7.179813e+002, 6.858621e+002
7.184634e+002, 6.867109e+002
7.189455e+002, 6.884016e+002
7.194276e+002, 6.901019e+002
7.199097e+002, 6.908115e+002
7.203918e+002, 6.912223e+002
7.208740e+002, 6.924099e+002
7.213561e+002, 6.947172e+002
7.218382e+002, 6.966660e+002
7.223203e+002, 6.972299e+002
7.228024e+002, 6.973218e+002
7.232845e+002, 6.977707e+002
7.237667e+002, 6.991277e+002
7.242488e+002, 6.999457e+002
7.247309e+002, 6.997855e+002
7.252130e+002, 6.995550e+002
7.256951e+002, 7.005548e+002
7.261772e+002, 7.029072e+002
7.266594e+002, 7.044695e+002
7.271415e+002, 7.047336e+002
7.276236e+002, 7.045794e+002
7.281057e+002, 7.052278e+002
7.285878e+002, 7.064307e+002
7.290699e+002, 7.075688e+002
7.295521e+002, 7.085554e+002
7.300342e+002, 7.092393e+002
7.305163e+002, 7.091034e+002
7.309984e+002, 7.086724e+002
7.314805e+002, 7.088800e+002
7.319626e+002, 7.108408e+002
7.324448e+002, 7.123929e+002
7.329269e+002, 7.129714e+002
7.334090e+002, 7.129372e+002
7.338911e+002, 7.132998e+002
7.343732e+002, 7.141937e+002
7.348553e+002, 7.148777e+002
7.353375e+002, 7.149159e+002
7.358196e+002, 7.147538e+002
7.363017e+002, 7.157267e+002
7.367838e+002, 7.176672e+002
7.372659e+002, 7.195547e+002
7.377480e+002, 7.208831e+002
7.382302e+002, 7.218616e+002
7.387123e+002, 7.226089e+002
7.391944e+002, 7.231635e+002
7.396765e+002, 7.236979e+002
7.401586e+002, 7.241319e+002
7.406407e+002, 7.246932e+002
7.411229e+002, 7.255943e+002
7.416050e+002, 7.268132e+002
7.420871e+002, 7.276419e+002
7.425692e+002, 7.278932e+002
7.430513e+002, 7.282129e+002
7.435334e+002, 7.289873e+002
7.440156e+002, 7.301617e+002
7.444977e+002, 7.312808e+002
7.449798e+002, 7.323510e+002
7.454619e+002, 7.332433e+002
7.459440e+002, 7.336466e+002
7.464261e+002, 7.339103e+002
7.469083e+002, 7.345244e+002
7.473904e+002, 7.355347e+002
7.478725e+002, 7.365098e+002
7.483546e+002, 7.374899e+002
7.488367e+002, 7.381640e+002
7.493188e+002, 7.380568e+002
7.498010e+002, 7.365310e+002
7.502831e+002, 7.366369e+002
7.507652e+002, 7.392334e+002
7.512473e+002, 7.421268e+002
7.517294e+002, 7.433798e+002
7.522115e+002, 7.430118e+002
7.526937e+002, 7.434846e+002
7.531758e+002, 7.450274e+002
7.536579e+002, 7.468755e+002
7.541400e+002, 7.486747e+002
7.546221e+002, 7.501264e+002
7.551042e+002, 7.505696e+002
7.555864e+002, 7.496029e+002
7.560685e+002, 7.487903e+002
7.565506e+002, 7.491678e+002
7.570327e+002, 7.500248e+002
7.575148e+002, 7.506417e+002
7.579969e+002, 7.507763e+002
7.584791e+002, 7.509056e+002
7.589612e+002, 7.509553e+002
7.594433e+002, 7.510745e+002
7.599254e+002, 7.514871e+002
7.604075e+002, 7.522057e+002
7.608896e+002, 7.527899e+002
7.613718e+002, 7.530902e+002
7.618539e+002, 7.534717e+002
7.623360e+002, 7.547477e+002
7.628181e+002, 7.564216e+002
7.633002e+002, 7.573671e+002
7.637823e+002, 7.567033e+002
7.642645e+002, 7.562648e+002
7.647466e+002, 7.573381e+002
7.652287e+002, 7.591917e+002
7.657108e+002, 7.607533e+002
7.661929e+002, 7.619115e+002
7.666750e+002, 7.626412e+002
7.671572e+002, 7.626172e+002
7.676393e+002, 7.624135e+002
7.681214e+002, 7.632935e+002
7.686035e+002, 7.653597e+002
7.690856e+002, 7.670192e+002
7.695677e+002, 7.678016e+002
7.700499e+002, 7.681315e+002
7.705320e+002, 7.684080e+002
7.710141e+002, 7.687525e+002
7.714962e+002, 7.694900e+002
7.719783e+002, 7.713820e+002
7.724604e+002, 7.730372e+002
7.729426e+002, 7.734408e+002
7.734247e+002, 7.730803e+002
7.739068e+002, 7.730978e+002
7.743889e+002, 7.741913e+002
7.748710e+002, 7.748369e+002
7.753531e+002, 7.745508e+002
7.758353e+002, 7.737562e+002
7.763174e+002, 7.735767e+002
7.767995e+002, 7.740184e+002
7.772816e+002, 7.751586e+002
7.777637e+002, 7.774216e+002
7.782458e+002, 7.799775e+002
7.787280e+002, 7.814812e+002
7.792101e+002, 7.821005e+002
7.796922e+002, 7.823426e+002
7.801743e+002, 7.817999e+002
7.806564e+002, 7.815975e+002
7.811385e+002, 7.826102e+002
7.816207e+002, 7.845323e+002
7.821028e+002, 7.859540e+002
7.825849e+002, 7.864739e+002
7.830670e+002, 7.869863e+002
7.835491e+002, 7.877014e+002
7.840313e+002, 7.885782e+002
7.845134e+002, 7.896084e+002
7.849955e+002, 7.908005e+002
7.854776e+002, 7.915722e+002
7.859597e+002, 7.913236e+002
7.864418e+002, 7.907265e+002
7.869240e+002, 7.906829e+002
7.874061e+002, 7.911847e+002
7.878882e+002, 7.922294e+002
7.883703e+002, 7.949099e+002
7.888524e+002, 7.970652e+002
7.893345e+002, 7.969938e+002
7.898167e+002, 7.950951e+002
7.902988e+002, 7.947620e+002
7.907809e+002, 7.969944e+002
7.912630e+002, 7.990684e+002
7.917451e+002, 8.000428e+002
7.922272e+002, 8.001467e+002
7.927094e+002, 8.003732e+002
7.931915e+002, 8.007234e+002
7.936736e+002, 8.012024e+002
7.941557e+002, 8.020671e+002
7.946378e+002, 8.029031e+002
7.951199e+002, 8.029445e+002
7.956021e+002, 8.023953e+002
7.960842e+002, 8.021989e+002
7.965663e+002, 8.026336e+002
7.970484e+002, 8.036326e+002
7.975305e+002, 8.055117e+002
7.980126e+002, 8.080927e+002
7.984948e+002, 8.100246e+002
7.989769e+002, 8.112123e+002
7.994590e+002, 8.119464e+002
7.999411e+002, 8.122775e+002
8.004232e+002, 8.122703e+002
8.009053e+002, 8.119064e+002
8.013875e+002, 8.112665e+002
8.018696e+002, 8.111230e+002
8.023517e+002, 8.123287e+002
8.028338e+002, 8.139827e+002
8.033159e+002, 8.151699e+002
8.037980e+002, 8.159640e+002
8.042802e+002, 8.169195e+002
8.047623e+002, 8.185988e+002
8.052444e+002, 8.200384e+002
8.057265e+002, 8.207236e+002
8.062086e+002, 8.207736e+002
8.066907e+002, 8.213111e+002
8.071729e+002, 8.223929e+002
8.076550e+002, 8.237022e+002
8.081371e+002, 8.253422e+002
8.086192e+002, 8.269989e+002
8.091013e+002, 8.277125e+002
8.095834e+002, 8.276107e+002
8.100656e+002, 8.274144e+002
8.105477e+002, 8.272431e+002
8.110298e+002, 8.274045e+002
8.115119e+002, 8.282567e+002
8.119940e+002, 8.297255e+002
8.124761e+002, 8.311506e+002
8.129583e+002, 8.325382e+002
8.134404e+002, 8.337711e+002
8.139225e+002, 8.348705e+002
8.144046e+002, 8.357967e+002
8.148867e+002, 8.361827e+002
8.153688e+002, 8.359903e+002
8.158510e+002, 8.359969e+002
8.163331e+002, 8.366027e+002
8.168152e+002, 8.376498e+002
8.172973e+002, 8.390809e+002
8.177794e+002, 8.407604e+002
8.182615e+002, 8.421561e+002
8.187437e+002, 8.427192e+002
8.192258e+002, 8.431707e+002
8.197079e+002, 8.439146e+002
8.201900e+002, 8.448778e+002
8.206721e+002, 8.454825e+002
8.211542e+002, 8.455539e+002
8.216364e+002, 8.456187e+002
8.221185e+002, 8.457455e+002
8.226006e+002, 8.460446e+002
8.230827e+002, 8.472014e+002
8.235648e+002, 8.490657e+002
8.240469e+002, 8.504476e+002
8.245291e+002, 8.505882e+002
8.250112e+002, 8.500861e+002
8.254933e+002, 8.490504e+002
8.259754e+002, 8.478084e+002
8.264575e+002, 8.473538e+002
8.269396e+002, 8.488796e+002
8.274218e+002, 8.502354e+002
8.279039e+002, 8.506262e+002
8.283860e+002, 8.504557e+002
8.288681e+002, 8.511887e+002
8.293502e+002, 8.530300e+002
8.298323e+002, 8.545522e+002
8.303145e+002, 8.550608e+002
8.307966e+002, 8.552283e+002
8.312787e+002, 8.565742e+002
8.317608e+002, 8.587083e+002
8.322429e+002, 8.603881e+002
8.327250e+002, 8.606696e+002
8.332072e+002, 8.607334e+002
8.336893e+002, 8.612318e+002
8.341714e+002, 8.619931e+002
8.346535e+002, 8.625324e+002
8.351356e+002, 8.626078e+002
8.356177e+002, 8.629224e+002
8.360999e+002, 8.638732e+002
8.365820e+002, 8.648927e+002
8.370641e+002, 8.641866e+002
8.375462e+002, 8.619898e+002
8.380283e+002, 8.610687e+002
8.385104e+002, 8.627168e+002
8.389926e+002, 8.652409e+002
8.394747e+002, 8.669268e+002
8.399568e+002, 8.681168e+002
8.404389e+002, 8.694332e+002
8.409210e+002, 8.718607e+002
8.414031e+002, 8.734425e+002
8.418853e+002, 8.728703e+002
8.423674e+002, 8.716342e+002
8.428495e+002, 8.719070e+002
8.433316e+002, 8.739922e+002
8.438137e+002, 8.761486e+002
8.442958e+002, 8.782758e+002
8.447780e+002, 8.799147e+002
8.452601e+002, 8.799226e+002
8.457422e+002, 8.789431e+002
8.462243e+002, 8.785908e+002
8.467064e+002, 8.795411e+002
8.471885e+002, 8.805771e+002
8.476707e+002, 8.809299e+002
8.481528e+002, 8.810236e+002
8.486349e+002, 8.813640e+002
8.491170e+002, 8.821875e+002
8.495991e+002, 8.829222e+002
8.500812e+002, 8.834965e+002
8.505634e+002, 8.841187e+002
8.510455e+002, 8.852422e+002
8.515276e+002, 8.867453e+002
8.520097e+002, 8.874827e+002
8.524918e+002, 8.872162e+002
8.529739e+002, 8.869059e+002
8.534561e+002, 8.872142e+002
8.539382e+002, 8.880792e+002
8.544203e+002, 8.896321e+002
8.549024e+002, 8.923352e+002
8.553845e+002, 8.941779e+002
8.558666e+002, 8.940727e+002
8.563488e+002, 8.936090e+002
8.568309e+002, 8.938325e+002
8.573130e+002, 8.948521e+002
8.577951e+002, 8.954423e+002
8.582772e+002, 8.954689e+002
8.587593e+002, 8.958279e+002
8.592415e+002, 8.980125e+002
8.597236e+002, 9.007695e+002
8.602057e+002, 9.018349e+002
8.606878e+002, 9.010187e+002
8.611699e+002, 9.000829e+002
8.616520e+002, 8.991756e+002
8.621342e+002, 8.990101e+002
8.626163e+002, 9.006387e+002
8.630984e+002, 9.041662e+002
8.635805e+002, 9.055422e+002
8.640626e+002, 9.040242e+002
8.645447e+002, 9.025724e+002
8.650269e+002, 9.032172e+002
8.655090e+002, 9.052216e+002
8.659911e+002, 9.056592e+002
8.664732e+002, 9.048074e+002
8.669553e+002, 9.045505e+002
8.674374e+002, 9.069159e+002
8.679196e+002, 9.095492e+002
8.684017e+002, 9.106519e+002
8.688838e+002, 9.103831e+002
8.693659e+002, 9.103675e+002
8.698480e+002, 9.107863e+002
8.703301e+002, 9.113610e+002
8.708123e+002, 9.120173e+002
8.712944e+002, 9.127497e+002
8.717765e+002, 9.135639e+002
8.722586e+002, 9.144432e+002
8.727407e+002, 9.154609e+002
8.732228e+002, 9.168230e+002
8.737050e+002, 9.181116e+002
8.741871e+002, 9.188635e+002
8.746692e+002, 9.192194e+002
8.751513e+002, 9.194955e+002
8.756334e+002, 9.195428e+002
8.761155e+002, 9.198793e+002
8.765977e+002, 9.208444e+002
8.770798e+002, 9.220022e+002
8.775619e+002, 9.224293e+002
8.780440e+002, 9.220557e+002
8.785261e+002, 9.220742e+002
8.790082e+002, 9.227943e+002
8.794904e+002, 9.238167e+002
8.799725e+002, 9.247204e+002
8.804546e+002, 9.255361e+002
8.809367e+002, 9.262856e+002
8.814188e+002, 9.268372e+002
8.819009e+002, 9.276172e+002
8.823831e+002, 9.291815e+002
8.828652e+002, 9.307914e+002
8.833473e+002, 9.316783e+002
8.838294e+002, 9.316976e+002
8.843115e+002, 9.315217e+002
8.847936e+002, 9.310729e+002
8.852758e+002, 9.308395e+002
8.857579e+002, 9.312858e+002
8.862400e+002, 9.323442e+002
8.867221e+002, 9.340862e+002
8.872042e+002, 9.365688e+002
8.876863e+002, 9.387015e+002
8.881685e+002, 9.398237e+002
8.886506e+002, 9.404167e+002
8.891327e+002, 9.406986e+002
8.896148e+002, 9.406246e+002
8.900969e+002, 9.406996e+002
8.905790e+002, 9.408332e+002
8.910612e+002, 9.412996e+002
8.915433e+002, 9.424008e+002
8.920254e+002, 9.439343e+002
8.925075e+002, 9.451053e+002
8.929896e+002, 9.459620e+002
8.934717e+002, 9.469373e+002
8.939539e+002, 9.488813e+002
8.944360e+002, 9.505254e+002
8.949181e+002, 9.506152e+002
8.954002e+002, 9.494685e+002
8.958823e+002, 9.492662e+002
8.963644e+002, 9.505201e+002
8.968466e+002, 9.520615e+002
8.973287e+002, 9.538627e+002
8.978108e+002, 9.555577e+002
8.982929e+002, 9.557744e+002
8.987750e+002, 9.548171e+002
8.992571e+002, 9.546701e+002
8.997393e+002, 9.568658e+002
9.002214e+002, 9.589852e+002
9.007035e+002, 9.581081e+002
9.011856e+002, 9.559619e+002
9.016677e+002, 9.554648e+002
9.021498e+002, 9.590798e+002
9.026320e+002, 9.618394e+002
9.031141e+002, 9.632521e+002
9.035962e+002, 9.639063e+002
9.040783e+002, 9.644968e+002
9.045604e+002, 9.650178e+002
9.050425e+002, 9.653431e+002
9.055247e+002, 9.654069e+002
9.060068e+002, 9.655743e+002
9.064889e+002, 9.663128e+002
9.069710e+002, 9.672919e+002
9.074531e+002, 9.681625e+002
9.079352e+002, 9.688869e+002
9.084174e+002, 9.694927e+002
9.088995e+002, 9.698993e+002
9.093816e+002, 9.703268e+002
9.098637e+002, 9.709918e+002
9.103458e+002, 9.719018e+002
9.108279e+002, 9.722445e+002
9.113101e+002, 9.720049e+002
9.117922e+002, 9.717813e+002
9.122743e+002, 9.719347e+002
9.127564e+002, 9.723704e+002
9.132385e+002, 9.730126e+002
9.137206e+002, 9.738444e+002
9.142028e+002, 9.748129e+002
9.146849e+002, 9.761042e+002
9.151670e+002, 9.773005e+002
9.156491e+002, 9.783051e+002
9.161312e+002, 9.791285e+002
9.166133e+002, 9.796835e+002
9.170955e+002, 9.799734e+002
9.175776e+002, 9.806024e+002
9.180597e+002, 9.820864e+002
9.185418e+002, 9.836010e+002
9.190239e+002, 9.839404e+002
9.195060e+002, 9.835821e+002
9.199882e+002, 9.834405e+002
9.204703e+002, 9.835802e+002
9.209524e+002, 9.842991e+002
9.214345e+002, 9.861365e+002
9.219166e+002, 9.881228e+002
9.223987e+002, 9.888510e+002
9.228809e+002, 9.881923e+002
9.233630e+002, 9.882916e+002
9.238451e+002, 9.894920e+002
9.243272e+002, 9.908041e+002
9.248093e+002, 9.910218e+002
9.252914e+002, 9.907767e+002
9.257736e+002, 9.907570e+002
9.262557e+002, 9.909898e+002
9.267378e+002, 9.920365e+002
9.272199e+002, 9.950540e+002
9.277020e+002, 9.980201e+002
9.281841e+002, 1.000058e+003
9.286663e+002, 1.001165e+003
9.291484e+002, 1.000981e+003
9.296305e+002, 9.994415e+002
9.301126e+002, 9.981071e+002
9.305947e+002, 9.980189e+002
9.310768e+002, 9.986566e+002
9.315590e+002, 9.994224e+002
9.320411e+002, 1.000336e+003
9.325232e+002, 1.001485e+003
9.330053e+002, 1.003250e+003
9.334874e+002, 1.004868e+003
9.339695e+002, 1.006367e+003
9.344517e+002, 1.007505e+003
9.349338e+002, 1.007497e+003
9.354159e+002, 1.006323e+003
9.358980e+002, 1.005280e+003
9.363801e+002, 1.004539e+003
9.368622e+002, 1.004602e+003
9.373444e+002, 1.006964e+003
9.378265e+002, 1.010224e+003
9.383086e+002, 1.012234e+003
9.387907e+002, 1.011425e+003
9.392728e+002, 1.011329e+003
9.397549e+002, 1.013083e+003
9.402371e+002, 1.015150e+003
9.407192e+002, 1.016172e+003
9.412013e+002, 1.016089e+003
9.416834e+002, 1.016752e+003
9.421655e+002, 1.018241e+003
9.426476e+002, 1.019859e+003
9.431298e+002, 1.020941e+003
9.436119e+002, 1.021866e+003
9.440940e+002, 1.023235e+003
9.445761e+002, 1.025049e+003
9.450582e+002, 1.026225e+003
9.455403e+002, 1.025954e+003
9.460225e+002, 1.025685e+003
9.465046e+002, 1.025910e+003
9.469867e+002, 1.026478e+003
9.474688e+002, 1.026638e+003
9.479509e+002, 1.026440e+003
9.484330e+002, 1.026654e+003
9.489152e+002, 1.027755e+003
9.493973e+002, 1.029197e+003
9.498794e+002, 1.030683e+003
9.503615e+002, 1.032082e+003
9.508436e+002, 1.033163e+003
9.513257e+002, 1.033583e+003
9.518079e+002, 1.034045e+003
9.522900e+002, 1.034502e+003
9.527721e+002, 1.035128e+003
9.532542e+002, 1.036468e+003
9.537363e+002, 1.038319e+003
9.542184e+002, 1.038946e+003
9.547006e+002, 1.038075e+003
9.551827e+002, 1.037030e+003
9.556648e+002, 1.036786e+003
9.561469e+002, 1.036925e+003
9.566290e+002, 1.037122e+003
9.571111e+002, 1.037351e+003
9.575933e+002, 1.037578e+003
9.580754e+002, 1.037563e+003
9.585575e+002, 1.038059e+003
9.590396e+002, 1.039705e+003
9.595217e+002, 1.042025e+003
9.600038e+002, 1.043334e+003
9.604860e+002, 1.043775e+003
9.609681e+002, 1.044086e+003
9.614502e+002, 1.044295e+003
9.619323e+002, 1.044853e+003
9.624144e+002, 1.046251e+003
9.628965e+002, 1.048149e+003
9.633787e+002, 1.049817e+003
9.638608e+002, 1.051421e+003
9.643429e+002, 1.052193e+003
9.648250e+002, 1.051802e+003
9.653071e+002, 1.051126e+003
9.657892e+002, 1.050968e+003
9.662714e+002, 1.051521e+003
9.667535e+002, 1.053822e+003
9.672356e+002, 1.058403e+003
9.677177e+002, 1.061790e+003
9.681998e+002, 1.060934e+003
9.686819e+002, 1.059039e+003
9.691641e+002, 1.058242e+003
9.696462e+002, 1.058605e+003
9.701283e+002, 1.059784e+003
9.706104e+002, 1.061964e+003
9.710925e+002, 1.064008e+003
9.715746e+002, 1.065193e+003
9.720568e+002, 1.065865e+003
9.725389e+002, 1.066633e+003
9.730210e+002, 1.067443e+003
9.735031e+002, 1.068095e+003
9.739852e+002, 1.068519e+003
9.744673e+002, 1.068737e+003
9.749495e+002, 1.068298e+003
9.754316e+002, 1.067922e+003
9.759137e+002, 1.069189e+003
9.763958e+002, 1.072245e+003
9.768779e+002, 1.074237e+003
9.773600e+002, 1.074503e+003
9.778422e+002, 1.074416e+003
9.783243e+002, 1.075801e+003
9.788064e+002, 1.077562e+003
9.792885e+002, 1.078071e+003
9.797706e+002, 1.076661e+003
9.802527e+002, 1.076113e+003
9.807349e+002, 1.077254e+003
9.812170e+002, 1.078795e+003
9.816991e+002, 1.080080e+003
9.821812e+002, 1.081149e+003
9.826633e+002, 1.082398e+003
9.831454e+002, 1.083785e+003
9.836276e+002, 1.084958e+003
9.841097e+002, 1.085438e+003
9.845918e+002, 1.085847e+003
9.850739e+002, 1.086786e+003
9.855560e+002, 1.088005e+003
9.860381e+002, 1.088791e+003
9.865203e+002, 1.088772e+003
9.870024e+002, 1.089023e+003
9.874845e+002, 1.089732e+003
9.879666e+002, 1.090677e+003
9.884487e+002, 1.091710e+003
9.889308e+002, 1.092715e+003
9.894130e+002, 1.093273e+003
9.898951e+002, 1.093258e+003
9.903772e+002, 1.093323e+003
9.908593e+002, 1.093939e+003
9.913414e+002, 1.094719e+003
9.918235e+002, 1.095339e+003
9.923057e+002, 1.095779e+003
9.927878e+002, 1.096691e+003
9.932699e+002, 1.098257e+003
9.937520e+002, 1.099219e+003
9.942341e+002, 1.098407e+003
9.947162e+002, 1.096933e+003
9.951984e+002, 1.096542e+003
9.956805e+002, 1.097076e+003
9.961626e+002, 1.098120e+003
9.966447e+002, 1.100512e+003
9.971268e+002, 1.102066e+003
9.976089e+002, 1.101617e+003
9.980911e+002, 1.100717e+003
9.985732e+002, 1.101800e+003
9.990553e+002, 1.104844e+003
9.995374e+002, 1.107105e+003
1.000020e+003, 1.108181e+003
1.000502e+003, 1.108723e+003
1.000984e+003, 1.109090e+003
1.001466e+003, 1.109340e+003
1.001948e+003, 1.109459e+003
1.002430e+003, 1.109416e+003
1.002912e+003, 1.109631e+003
1.003394e+003, 1.110130e+003
1.003876e+003, 1.110895e+003
1.004359e+003, 1.112053e+003
1.004841e+003, 1.113400e+003
1.005323e+003, 1.114193e+003
1.005805e+003, 1.114569e+003
1.006287e+003, 1.115044e+003
1.006769e+003, 1.116171e+003
1.007251e+003, 1.117055e+003
1.007733e+003, 1.116738e+003
1.008216e+003, 1.116143e+003
1.008698e+003, 1.116607e+003
1.009180e+003, 1.118552e+003
1.009662e+003, 1.119859e+003
1.010144e+003, 1.120261e+003
1.010626e+003, 1.120763e+003
1.011108e+003, 1.122807e+003
1.011590e+003, 1.125336e+003
1.012072e+003, 1.126722e+003
1.012555e+003, 1.126891e+003
1.013037e+003, 1.126721e+003
1.013519e+003, 1.125966e+003
1.014001e+003, 1.125564e+003
1.014483e+003, 1.125937e+003
1.014965e+003, 1.126828e+003
1.015447e+003, 1.127516e+003
1.015929e+003, 1.127978e+003
1.016411e+003, 1.127767e+003
1.016894e+003, 1.126333e+003
1.017376e+003, 1.125152e+003
1.017858e+003, 1.125329e+003
1.018340e+003, 1.126627e+003
1.018822e+003, 1.128949e+003
1.019304e+003, 1.133357e+003
1.019786e+003, 1.135959e+003
1.020268e+003, 1.136474e+003
1.020751e+003, 1.135967e+003
1.021233e+003, 1.134541e+003
1.021715e+003, 1.132885e+003
1.022197e+003, 1.133206e+003
1.022679e+003, 1.135209e+003
1.023161e+003, 1.136962e+003
1.023643e+003, 1.137262e+003
1.024125e+003, 1.137372e+003
1.024607e+003, 1.137724e+003
1.025090e+003, 1.138243e+003
1.025572e+003, 1.138660e+003
1.026054e+003, 1.138924e+003
1.026536e+003, 1.139937e+003
1.027018e+003, 1.142000e+003
1.027500e+003, 1.144214e+003
1.027982e+003, 1.145980e+003
1.028464e+003, 1.147152e+003
1.028947e+003, 1.147352e+003
1.029429e+003, 1.146223e+003
1.029911e+003, 1.145850e+003
1.030393e+003, 1.146870e+003
1.030875e+003, 1.147736e+003
1.031357e+003, 1.147550e+003
1.031839e+003, 1.146685e+003
1.032321e+003, 1.146029e+003
1.032803e+003, 1.145748e+003
1.033286e+003, 1.146483e+003
1.033768e+003, 1.149770e+003
1.034250e+003, 1.152757e+003
1.034732e+003, 1.154003e+003
1.035214e+003, 1.154283e+003
1.035696e+003, 1.154717e+003
1.036178e+003, 1.155350e+003
1.036660e+003, 1.155706e+003
1.037143e+003, 1.155659e+003
1.037625e+003, 1.155863e+003
1.038107e+003, 1.157257e+003
1.038589e+003, 1.159040e+003
1.039071e+003, 1.160228e+003
1.039553e+003, 1.160768e+003
1.040035e+003, 1.161060e+003
1.040517e+003, 1.160549e+003
1.041000e+003, 1.160883e+003
1.041482e+003, 1.162976e+003
1.041964e+003, 1.165746e+003
1.042446e+003, 1.166151e+003
1.042928e+003, 1.164813e+003
1.043410e+003, 1.164205e+003
1.043892e+003, 1.165076e+003
1.044374e+003, 1.166752e+003
1.044856e+003, 1.169496e+003
1.045339e+003, 1.172375e+003
1.045821e+003, 1.174506e+003
1.046303e+003, 1.175739e+003
1.046785e+003, 1.177705e+003
1.047267e+003, 1.180666e+003
1.047749e+003, 1.182089e+003
1.048231e+003, 1.178802e+003
1.048713e+003, 1.174032e+003
1.049195e+003, 1.171860e+003
1.049677e+003, 1.171663e+003
1.050160e+003, 1.171640e+003
1.050642e+003, 1.170613e+003
1.051124e+003, 1.170831e+003
1.051606e+003, 1.173103e+003
1.052088e+003, 1.175833e+003
1.052570e+003, 1.176536e+003
1.053052e+003, 1.175809e+003
1.053534e+003, 1.176086e+003
1.054017e+003, 1.177680e+003
1.054499e+003, 1.179193e+003
1.054981e+003, 1.179931e+003
1.055463e+003, 1.180143e+003
1.055945e+003, 1.179732e+003
1.056427e+003, 1.178889e+003
1.056909e+003, 1.178589e+003
1.057391e+003, 1.178856e+003
1.057874e+003, 1.179618e+003
1.058356e+003, 1.181167e+003
1.058838e+003, 1.182555e+003
1.059320e+003, 1.182010e+003
1.059802e+003, 1.180812e+003
1.060284e+003, 1.180872e+003
1.060766e+003, 1.183445e+003
1.061248e+003, 1.185228e+003
1.061730e+003, 1.185634e+003
1.062213e+003, 1.186176e+003
1.062695e+003, 1.188516e+003
1.063177e+003, 1.191811e+003
1.063659e+003, 1.192707e+003
1.064141e+003, 1.191647e+003
1.064623e+003, 1.190769e+003
1.065105e+003, 1.191114e+003
1.065587e+003, 1.191862e+003
1.066070e+003, 1.192976e+003
1.066552e+003, 1.194134e+003
1.067034e+003, 1.194695e+003
1.067516e+003, 1.194610e+003
1.067998e+003, 1.195221e+003
1.068480e+003, 1.196703e+003
1.068962e+003, 1.198596e+003
1.069444e+003, 1.201458e+003
1.069927e+003, 1.203834e+003
1.070409e+003, 1.204034e+003
1.070891e+003, 1.201956e+003
1.071373e+003, 1.200615e+003
1.071855e+003, 1.200197e+003
1.072337e+003, 1.200283e+003
1.072819e+003, 1.200762e+003
1.073301e+003, 1.201655e+003
1.073783e+003, 1.203639e+003
1.074266e+003, 1.205948e+003
1.074748e+003, 1.206744e+003
1.075230e+003, 1.204595e+003
1.075712e+003, 1.203592e+003
1.076194e+003, 1.205873e+003
1.076676e+003, 1.208390e+003
1.077158e+003, 1.209230e+003
1.077640e+003, 1.208589e+003
1.078122e+003, 1.208440e+003
1.078604e+003, 1.208778e+003
1.079087e+003, 1.209585e+003
1.079569e+003, 1.211645e+003
1.080051e+003, 1.213321e+003
1.080533e+003, 1.212987e+003
1.081015e+003, 1.211822e+003
1.081497e+003, 1.211993e+003
1.081979e+003, 1.213768e+003
1.082461e+003, 1.215773e+003
1.082944e+003, 1.217984e+003
1.083426e+003, 1.219851e+003
1.083908e+003, 1.220536e+003
1.084390e+003, 1.220751e+003
1.084872e+003, 1.221227e+003
1.085354e+003, 1.222035e+003
1.085836e+003, 1.223216e+003
1.086318e+003, 1.224867e+003
1.086801e+003, 1.226794e+003
1.087283e+003, 1.229155e+003
1.087765e+003, 1.231466e+003
1.088247e+003, 1.232556e+003
1.088729e+003, 1.232910e+003
1.089211e+003, 1.233914e+003
1.089693e+003, 1.236086e+003
1.090175e+003, 1.237738e+003
1.090657e+003, 1.238175e+003
1.091140e+003, 1.237766e+003
1.091622e+003, 1.236267e+003
1.092104e+003, 1.234001e+003
1.092586e+003, 1.234247e+003
1.093068e+003, 1.236731e+003
1.093550e+003, 1.238112e+003
1.094032e+003, 1.236173e+003
1.094514e+003, 1.233728e+003
1.094997e+003, 1.232125e+003
1.095479e+003, 1.231607e+003
1.095961e+003, 1.232692e+003
1.096443e+003, 1.236313e+003
1.096925e+003, 1.237966e+003
1.097407e+003, 1.237378e+003
1.097889e+003, 1.236541e+003
1.098371e+003, 1.236813e+003
1.098854e+003, 1.237861e+003
1.099336e+003, 1.239861e+003
1.099818e+003, 1.242358e+003
1.100300e+003, 1.243647e+003
1.100782e+003, 1.242785e+003
1.101264e+003, 1.241457e+003
1.101746e+003, 1.239333e+003
1.102228e+003, 1.237890e+003
1.102710e+003, 1.240219e+003
1.103193e+003, 1.244575e+003
1.103675e+003, 1.246273e+003
1.104157e+003, 1.244764e+003
1.104639e+003, 1.243864e+003
1.105121e+003, 1.245967e+003
1.105603e+003, 1.248232e+003
1.106085e+003, 1.249718e+003
1.106567e+003, 1.250510e+003
1.107049e+003, 1.250433e+003
1.107531e+003, 1.249696e+003
1.108014e+003, 1.250135e+003
1.108496e+003, 1.252650e+003
1.108978e+003, 1.254983e+003
1.109460e+003, 1.254601e+003
1.109942e+003, 1.254024e+003
1.110424e+003, 1.255977e+003
1.110906e+003, 1.260671e+003
1.111388e+003, 1.262158e+003
1.111871e+003, 1.260190e+003
1.112353e+003, 1.258575e+003
1.112835e+003, 1.259705e+003
1.113317e+003, 1.261510e+003
1.113799e+003, 1.261528e+003
1.114281e+003, 1.260738e+003
1.114763e+003, 1.260809e+003
1.115245e+003, 1.262835e+003
1.115728e+003, 1.263903e+003
1.116210e+003, 1.263681e+003
1.116692e+003, 1.263658e+003
1.117174e+003, 1.265615e+003
1.117656e+003, 1.268346e+003
1.118138e+003, 1.269635e+003
1.118620e+003, 1.269669e+003
1.119102e+003, 1.269474e+003
1.119584e+003, 1.267985e+003
1.120067e+003, 1.268473e+003
1.120549e+003, 1.272269e+003
1.121031e+003, 1.276836e+003
1.121513e+003, 1.278756e+003
1.121995e+003, 1.278577e+003
1.122477e+003, 1.278063e+003
1.122959e+003, 1.277391e+003
1.123441e+003, 1.276514e+003
1.123924e+003, 1.274862e+003
1.124406e+003, 1.273607e+003
1.124888e+003, 1.273117e+003
1.125370e+003, 1.273411e+003
1.125852e+003, 1.274997e+003
1.126334e+003, 1.277714e+003
1.126816e+003, 1.279445e+003
1.127298e+003, 1.279620e+003
1.127781e+003, 1.279250e+003
1.128263e+003, 1.278564e+003
1.128745e+003, 1.278080e+003
1.129227e+003, 1.278426e+003
1.129709e+003, 1.279545e+003
1.130191e+003, 1.279836e+003
1.130673e+003, 1.279209e+003
1.131155e+003, 1.279324e+003
1.131637e+003, 1.281311e+003
1.132120e+003, 1.283488e+003
1.132602e+003, 1.283593e+003
1.133084e+003, 1.282964e+003
1.133566e+003, 1.283510e+003
1.134048e+003, 1.285747e+003
1.134530e+003, 1.288336e+003
1.135012e+003, 1.291611e+003
1.135494e+003, 1.293848e+003
1.135976e+003, 1.292909e+003
1.136458e+003, 1.290939e+003
1.136941e+003, 1.291582e+003
1.137423e+003, 1.293988e+003
1.137905e+003, 1.296071e+003
1.138387e+003, 1.297541e+003
1.138869e+003, 1.298080e+003
1.139351e+003, 1.297315e+003
1.139833e+003, 1.296384e+003
1.140315e+003, 1.296395e+003
1.140798e+003, 1.297091e+003
1.141280e+003, 1.297436e+003
1.141762e+003, 1.297684e+003
1.142244e+003, 1.299584e+003
1.142726e+003, 1.306316e+003
1.143208e+003, 1.311544e+003
1.143690e+003, 1.313944e+003
1.144172e+003, 1.314222e+003
1.144655e+003, 1.312894e+003
1.145137e+003, 1.310384e+003
1.145619e+003, 1.308085e+003
1.146101e+003, 1.306187e+003
1.146583e+003, 1.305234e+003
1.147065e+003, 1.306381e+003
1.147547e+003, 1.307652e+003
1.148029e+003, 1.308083e+003
1.148511e+003, 1.308001e+003
1.148994e+003, 1.308154e+003
1.149476e+003, 1.308591e+003
1.149958e+003, 1.309846e+003
1.150440e+003, 1.312229e+003
1.150922e+003, 1.314538e+003
1.151404e+003, 1.316031e+003
1.151886e+003, 1.316976e+003
1.152368e+003, 1.317494e+003
1.152851e+003, 1.317625e+003
1.153333e+003, 1.317388e+003
1.153815e+003, 1.316760e+003
1.154297e+003, 1.317334e+003
1.154779e+003, 1.320277e+003
1.155261e+003, 1.323298e+003
1.155743e+003, 1.324199e+003
1.156225e+003, 1.324002e+003
1.156708e+003, 1.323730e+003
1.157190e+003, 1.323391e+003
1.157672e+003, 1.323545e+003
1.158154e+003, 1.324246e+003
1.158636e+003, 1.325029e+003
1.159118e+003, 1.325658e+003
1.159600e+003, 1.326236e+003
1.160082e+003, 1.326628e+003
1.160564e+003, 1.327148e+003
1.161047e+003, 1.328434e+003
1.161529e+003, 1.331480e+003
1.162011e+003, 1.333089e+003
1.162493e+003, 1.333051e+003
1.162975e+003, 1.332488e+003
1.163457e+003, 1.332037e+003
1.163939e+003, 1.331735e+003
1.164421e+003, 1.331815e+003
1.164903e+003, 1.332076e+003
1.165385e+003, 1.331883e+003
1.165868e+003, 1.329967e+003
1.166350e+003, 1.329886e+003
1.166832e+003, 1.332421e+003
1.167314e+003, 1.335317e+003
1.167796e+003, 1.335810e+003
1.168278e+003, 1.335206e+003
1.168760e+003, 1.336027e+003
1.169242e+003, 1.338129e+003
1.169725e+003, 1.339634e+003
1.170207e+003, 1.339390e+003
1.170689e+003, 1.339459e+003
1.171171e+003, 1.340341e+003
1.171653e+003, 1.341322e+003
1.172135e+003, 1.340945e+003
1.172617e+003, 1.340016e+003
1.173099e+003, 1.340595e+003
1.173582e+003, 1.342871e+003
1.174064e+003, 1.344786e+003
1.174546e+003, 1.345139e+003
1.175028e+003, 1.345607e+003
1.175510e+003, 1.346709e+003
1.175992e+003, 1.348005e+003
1.176474e+003, 1.348471e+003
1.176956e+003, 1.348389e+003
1.177438e+003, 1.348572e+003
1.177921e+003, 1.349192e+003
1.178403e+003, 1.349907e+003
1.178885e+003, 1.350595e+003
1.179367e+003, 1.351355e+003
1.179849e+003, 1.352164e+003
1.180331e+003, 1.353124e+003
1.180813e+003, 1.355033e+003
1.181295e+003, 1.357398e+003
1.181778e+003, 1.358039e+003
1.182260e+003, 1.355676e+003
1.182742e+003, 1.354094e+003
1.183224e+003, 1.355508e+003
1.183706e+003, 1.357768e+003
1.184188e+003, 1.359923e+003
1.184670e+003, 1.361878e+003
1.185152e+003, 1.362776e+003
1.185635e+003, 1.362827e+003
1.186117e+003, 1.363195e+003
1.186599e+003, 1.364520e+003
1.187081e+003, 1.365791e+003
1.187563e+003, 1.366751e+003
1.188045e+003, 1.367194e+003
1.188527e+003, 1.366644e+003
1.189009e+003, 1.365282e+003
1.189491e+003, 1.365518e+003
1.189974e+003, 1.367217e+003
1.190456e+003, 1.369402e+003
1.190938e+003, 1.372673e+003
1.191420e+003, 1.374844e+003
1.191902e+003, 1.373721e+003
1.192384e+003, 1.371777e+003
1.192866e+003, 1.371703e+003
1.193348e+003, 1.373566e+003
1.193830e+003, 1.373536e+003
1.194313e+003, 1.371791e+003
1.194795e+003, 1.370644e+003
1.195277e+003, 1.372090e+003
1.195759e+003, 1.373813e+003
1.196241e+003, 1.374372e+003
1.196723e+003, 1.374593e+003
1.197205e+003, 1.375774e+003
1.197687e+003, 1.377982e+003
1.198169e+003, 1.378473e+003
1.198652e+003, 1.377209e+003
1.199134e+003, 1.376400e+003
1.199616e+003, 1.377940e+003
1.200098e+003, 1.379982e+003
1.200580e+003, 1.382242e+003
1.201062e+003, 1.383899e+003
1.201544e+003, 1.383117e+003
1.202026e+003, 1.379783e+003
1.202509e+003, 1.378849e+003
1.202991e+003, 1.380766e+003
1.203473e+003, 1.382633e+003
1.203955e+003, 1.381472e+003
1.204437e+003, 1.380415e+003
1.204919e+003, 1.382054e+003
1.205401e+003, 1.385119e+003
1.205883e+003, 1.386681e+003
1.206365e+003, 1.386697e+003
1.206848e+003, 1.387228e+003
1.207330e+003, 1.388588e+003
1.207812e+003, 1.389561e+003
1.208294e+003, 1.388641e+003
1.208776e+003, 1.387537e+003
1.209258e+003, 1.387500e+003
1.209740e+003, 1.388240e+003
1.210222e+003, 1.388999e+003
1.210705e+003, 1.389796e+003
1.211187e+003, 1.390615e+003
1.211669e+003, 1.391463e+003
1.212151e+003, 1.392404e+003
1.212633e+003, 1.394018e+003
1.213115e+003, 1.395278e+003
1.213597e+003, 1.394862e+003
1.214079e+003, 1.393474e+003
1.214562e+003, 1.393951e+003
1.215044e+003, 1.396235e+003
1.215526e+003, 1.397319e+003
1.216008e+003, 1.396257e+003
1.216490e+003, 1.395342e+003
1.216972e+003, 1.396339e+003
1.217454e+003, 1.398236e+003
1.217936e+003, 1.400635e+003
1.218418e+003, 1.403228e+003
1.218901e+003, 1.404508e+003
1.219383e+003, 1.404509e+003
1.219865e+003, 1.404021e+003
1.220347e+003, 1.403054e+003
1.220829e+003, 1.402469e+003
1.221311e+003, 1.403445e+003
1.221793e+003, 1.404577e+003
1.222275e+003, 1.404722e+003
1.222757e+003, 1.404052e+003
1.223240e+003, 1.403739e+003
1.223722e+003, 1.403813e+003
1.224204e+003, 1.404616e+003
1.224686e+003, 1.406560e+003
1.225168e+003, 1.408455e+003
1.225650e+003, 1.410178e+003
1.226132e+003, 1.410901e+003
1.226614e+003, 1.409605e+003
1.227096e+003, 1.406714e+003
1.227579e+003, 1.406206e+003
1.228061e+003, 1.407822e+003
1.228543e+003, 1.409220e+003
1.229025e+003, 1.409179e+003
1.229507e+003, 1.409453e+003
1.229989e+003, 1.411740e+003
1.230471e+003, 1.414120e+003
1.230953e+003, 1.415006e+003
1.231436e+003, 1.414577e+003
1.231918e+003, 1.414360e+003
1.232400e+003, 1.414395e+003
1.232882e+003, 1.415100e+003
1.233364e+003, 1.417248e+003
1.233846e+003, 1.418951e+003
1.234328e+003, 1.419039e+003
1.234810e+003, 1.418542e+003
1.235292e+003, 1.417900e+003
1.235775e+003, 1.417288e+003
1.236257e+003, 1.418610e+003
1.236739e+003, 1.421407e+003
1.237221e+003, 1.423172e+003
1.237703e+003, 1.421838e+003
1.238185e+003, 1.420895e+003
1.238667e+003, 1.422171e+003
1.239149e+003, 1.423808e+003
1.239632e+003, 1.424439e+003
1.240114e+003, 1.424271e+003
1.240596e+003, 1.424545e+003
1.241078e+003, 1.425219e+003
1.241560e+003, 1.426144e+003
1.242042e+003, 1.427321e+003
1.242524e+003, 1.428633e+003
1.243006e+003, 1.430146e+003
1.243489e+003, 1.431630e+003
1.243971e+003, 1.432845e+003
1.244453e+003, 1.433883e+003
1.244935e+003, 1.435422e+003
1.245417e+003, 1.437147e+003
1.245899e+003, 1.437844e+003
1.246381e+003, 1.435629e+003
1.246863e+003, 1.434433e+003
1.247345e+003, 1.435109e+003
1.247828e+003, 1.436315e+003
1.248310e+003, 1.436905e+003
1.248792e+003, 1.437151e+003
1.249274e+003, 1.437731e+003
1.249756e+003, 1.438622e+003
1.250238e+003, 1.439699e+003
1.250720e+003, 1.440995e+003
1.251202e+003, 1.442448e+003
1.251684e+003, 1.444236e+003
1.252167e+003, 1.445719e+003
1.252649e+003, 1.446008e+003
1.253131e+003, 1.445764e+003
1.253613e+003, 1.446346e+003
1.254095e+003, 1.447527e+003
1.254577e+003, 1.448517e+003
1.255059e+003, 1.448968e+003
1.255541e+003, 1.449419e+003
1.256023e+003, 1.449833e+003
1.256506e+003, 1.450430e+003
1.256988e+003, 1.452182e+003
1.257470e+003, 1.453720e+003
1.257952e+003, 1.452338e+003
1.258434e+003, 1.449134e+003
1.258916e+003, 1.447585e+003
1.259398e+003, 1.448804e+003
1.259880e+003, 1.449465e+003
1.260363e+003, 1.449281e+003
1.260845e+003, 1.449231e+003
1.261327e+003, 1.450711e+003
1.261809e+003, 1.452268e+003
1.262291e+003, 1.451905e+003
1.262773e+003, 1.450486e+003
1.263255e+003, 1.450487e+003
1.263737e+003, 1.452420e+003
1.264219e+003, 1.453457e+003
1.264702e+003, 1.453331e+003
1.265184e+003, 1.453388e+003
1.265666e+003, 1.455480e+003
1.266148e+003, 1.457384e+003
1.266630e+003, 1.456736e+003
1.267112e+003, 1.454859e+003
1.267594e+003, 1.454608e+003
1.268076e+003, 1.456087e+003
1.268559e+003, 1.457772e+003
1.269041e+003, 1.459557e+003
1.269523e+003, 1.460922e+003
1.270005e+003, 1.461161e+003
1.270487e+003, 1.461270e+003
1.270969e+003, 1.462178e+003
1.271451e+003, 1.463073e+003
1.271933e+003, 1.462360e+003
1.272416e+003, 1.460274e+003
1.272898e+003, 1.460138e+003
1.273380e+003, 1.462012e+003
1.273862e+003, 1.464086e+003
1.274344e+003, 1.465239e+003
1.274826e+003, 1.466540e+003
1.275308e+003, 1.468836e+003
1.275790e+003, 1.470956e+003
1.276272e+003, 1.471139e+003
1.276755e+003, 1.469905e+003
1.277237e+003, 1.469085e+003
1.277719e+003, 1.468785e+003
1.278201e+003, 1.468781e+003
1.278683e+003, 1.468744e+003
1.279165e+003, 1.469496e+003
1.279647e+003, 1.471560e+003
1.280129e+003, 1.473695e+003
1.280611e+003, 1.474507e+003
1.281094e+003, 1.474406e+003
1.281576e+003, 1.473855e+003
1.282058e+003, 1.473120e+003
1.282540e+003, 1.473390e+003
1.283022e+003, 1.476352e+003
1.283504e+003, 1.477341e+003
1.283986e+003, 1.475291e+003
1.284468e+003, 1.473290e+003
1.284950e+003, 1.475659e+003
1.285433e+003, 1.479063e+003
1.285915e+003, 1.478289e+003
1.286397e+003, 1.474530e+003
1.286879e+003, 1.473194e+003
1.287361e+003, 1.475374e+003
1.287843e+003, 1.477071e+003
1.288325e+003, 1.477897e+003
1.288807e+003, 1.478588e+003
1.289290e+003, 1.480028e+003
1.289772e+003, 1.481386e+003
1.290254e+003, 1.481792e+003
1.290736e+003, 1.481576e+003
1.291218e+003, 1.481463e+003
1.291700e+003, 1.481386e+003
1.292182e+003, 1.482553e+003
1.292664e+003, 1.485023e+003
1.293146e+003, 1.487237e+003
1.293629e+003, 1.488287e+003
1.294111e+003, 1.488549e+003
1.294593e+003, 1.487512e+003
1.295075e+003, 1.486263e+003
1.295557e+003, 1.486378e+003
1.296039e+003, 1.487621e+003
1.296521e+003, 1.487736e+003
1.297003e+003, 1.486775e+003
1.297486e+003, 1.486476e+003
1.297968e+003, 1.489093e+003
1.298450e+003, 1.490923e+003
1.298932e+003, 1.490938e+003
1.299414e+003, 1.490191e+003
1.299896e+003, 1.489625e+003
1.300378e+003, 1.489313e+003
1.300860e+003, 1.489508e+003
1.301343e+003, 1.490216e+003
1.301825e+003, 1.491274e+003
##END=



