##NAMES=Montgomeryite
##RRUFFID=R080094
##IDEAL CHEMISTRY=Ca_4_MgAl_4_(PO_4_)_6_(OH)_4_&#183;12H_2_O
##LOCALITY=Tur√≥ de Montcada, Montcada i Reixac, Barcelona, Catalonia, Spain
##OWNER=RRUFF
##SOURCE=Joan Abella i Creus
##DESCRIPTION=Lime green clusters of flattened laths with poor crystallinity
##STATUS=The identification of this mineral has been confirmed by single-crystal X-ray diffraction.
##URL=rruff.info/R080094
91.87140, 0.0000000E+00
92.35352, 11.72996
92.83563, 11.39080
93.31775, 11.24662
93.79987, 11.36977
94.28198, 11.69755
94.76410, 12.03766
95.24622, 12.30983
95.72833, 12.61672
96.21045, 13.19454
96.69257, 14.05547
97.17468, 15.02772
97.65680, 15.91747
98.13892, 16.73240
98.62103, 17.69568
99.10315, 18.82850
99.58527, 20.14171
100.0674, 21.68018
100.5495, 23.45409
101.0316, 25.40249
101.5137, 27.40175
101.9958, 29.42739
102.4780, 31.62783
102.9601, 33.95546
103.4422, 36.33218
103.9243, 39.33670
104.4064, 43.02049
104.8885, 47.31201
105.3707, 52.32311
105.8528, 58.83502
106.3349, 64.90704
106.8170, 69.68903
107.2991, 72.30125
107.7813, 75.28062
108.2634, 78.60819
108.7455, 82.31699
109.2276, 86.38435
109.7097, 91.29863
110.1918, 96.25686
110.6740, 100.9339
111.1561, 105.0469
111.6382, 109.1872
112.1203, 113.3077
112.6024, 117.4738
113.0845, 121.8499
113.5667, 126.3853
114.0488, 131.1625
114.5309, 136.2920
115.0130, 141.8465
115.4951, 147.6623
115.9772, 153.7117
116.4594, 160.0453
116.9415, 166.6264
117.4236, 173.6018
117.9057, 180.7738
118.3878, 187.9002
118.8699, 194.8072
119.3521, 201.7886
119.8342, 209.2926
120.3163, 217.4219
120.7984, 225.2029
121.2805, 231.7515
121.7626, 237.5680
122.2448, 243.5072
122.7269, 250.6606
123.2090, 257.7965
123.6911, 263.5269
124.1732, 267.4788
124.6553, 270.9740
125.1375, 275.2988
125.6196, 280.1991
126.1017, 284.8711
126.5838, 288.2336
127.0659, 291.1449
127.5480, 295.3004
128.0302, 301.2676
128.5123, 307.9186
128.9944, 313.5804
129.4765, 318.3665
129.9586, 323.3377
130.4407, 329.4733
130.9229, 336.4992
131.4050, 343.2555
131.8871, 349.0963
132.3692, 354.7447
132.8513, 361.8739
133.3334, 369.9859
133.8156, 376.9034
134.2977, 382.0230
134.7798, 386.6848
135.2619, 391.5160
135.7440, 396.6678
136.2261, 402.0621
136.7083, 407.8809
137.1904, 414.2657
137.6725, 420.7276
138.1546, 426.8777
138.6367, 432.7401
139.1188, 438.3953
139.6010, 443.9990
140.0831, 449.5385
140.5652, 454.5674
141.0473, 459.1327
141.5294, 463.2305
142.0115, 466.7654
142.4937, 469.6743
142.9758, 472.2493
143.4579, 474.6315
143.9400, 476.8676
144.4221, 478.6290
144.9042, 480.1494
145.3864, 481.0641
145.8685, 480.6475
146.3506, 478.0966
146.8327, 475.3000
147.3148, 472.7852
147.7969, 470.5108
148.2791, 468.6367
148.7612, 467.2891
149.2433, 466.3319
149.7254, 465.4291
150.2075, 464.2074
150.6896, 463.3788
151.1718, 463.2315
151.6539, 464.2763
152.1360, 465.2549
152.6181, 465.9649
153.1002, 466.5659
153.5823, 467.5300
154.0645, 469.2982
154.5466, 471.1431
155.0287, 472.7304
155.5108, 474.2118
155.9929, 475.2308
156.4750, 475.5719
156.9572, 475.3506
157.4393, 475.0318
157.9214, 475.1019
158.4035, 474.8672
158.8856, 473.8993
159.3677, 471.5318
159.8499, 468.9956
160.3320, 466.6184
160.8141, 464.3798
161.2962, 462.1268
161.7783, 460.1303
162.2604, 457.9727
162.7426, 455.3095
163.2247, 451.7854
163.7068, 447.9641
164.1889, 443.7506
164.6710, 439.2495
165.1531, 435.3667
165.6353, 433.0732
166.1174, 431.4540
166.5995, 429.5241
167.0816, 426.7027
167.5637, 423.6214
168.0458, 420.5057
168.5280, 417.3893
169.0101, 414.6058
169.4922, 412.4717
169.9743, 410.8057
170.4564, 409.3725
170.9385, 408.4959
171.4207, 407.5606
171.9028, 405.7954
172.3849, 403.1371
172.8670, 400.6581
173.3491, 399.3781
173.8312, 398.8457
174.3134, 398.1939
174.7955, 396.8057
175.2776, 395.1938
175.7597, 394.0702
176.2418, 393.5224
176.7239, 392.9631
177.2061, 391.7653
177.6882, 390.0892
178.1703, 388.3942
178.6524, 386.8911
179.1345, 385.4947
179.6166, 384.0732
180.0988, 382.5941
180.5809, 381.1451
181.0630, 379.8154
181.5451, 378.5854
182.0272, 377.4371
182.5093, 376.3716
182.9915, 375.3640
183.4736, 374.3569
183.9557, 373.3177
184.4378, 372.3397
184.9199, 371.6381
185.4020, 371.1695
185.8842, 370.5396
186.3663, 369.2866
186.8484, 367.6490
187.3305, 366.5840
187.8126, 366.2254
188.2947, 366.2634
188.7769, 366.3140
189.2590, 366.3727
189.7411, 366.3109
190.2232, 365.9561
190.7053, 365.3733
191.1874, 364.9837
191.6696, 364.8575
192.1517, 364.8634
192.6338, 364.7706
193.1159, 364.5782
193.5980, 364.3380
194.0801, 364.0437
194.5623, 363.7045
195.0444, 363.4836
195.5265, 363.4688
196.0086, 363.4727
196.4907, 363.0620
196.9728, 362.2003
197.4550, 361.2139
197.9371, 360.2508
198.4192, 359.3087
198.9013, 358.5532
199.3834, 358.1760
199.8655, 357.8158
200.3477, 356.3276
200.8298, 353.4332
201.3119, 350.6859
201.7940, 349.2289
202.2761, 349.2257
202.7582, 348.6694
203.2404, 347.3099
203.7225, 345.3533
204.2046, 343.3053
204.6867, 341.1341
205.1688, 338.9819
205.6509, 336.9238
206.1331, 334.9285
206.6152, 333.1913
207.0973, 331.8105
207.5794, 330.6564
208.0615, 329.3487
208.5436, 327.8898
209.0258, 326.2630
209.5079, 324.3729
209.9900, 322.0994
210.4721, 320.1529
210.9542, 318.6117
211.4363, 317.4240
211.9185, 316.4209
212.4006, 315.5878
212.8827, 314.9588
213.3648, 314.6942
213.8469, 315.0334
214.3290, 314.7943
214.8112, 313.6553
215.2933, 311.9245
215.7754, 310.6864
216.2575, 310.0917
216.7396, 309.6967
217.2217, 309.2470
217.7039, 308.7003
218.1860, 308.2260
218.6681, 307.8307
219.1502, 307.5192
219.6323, 307.3528
220.1144, 307.4637
220.5966, 307.5018
221.0787, 307.2016
221.5608, 306.3146
222.0429, 305.8039
222.5250, 305.8872
223.0071, 306.3765
223.4893, 306.5467
223.9714, 306.2186
224.4535, 305.8653
224.9356, 305.7649
225.4177, 306.0759
225.8998, 306.2352
226.3820, 306.0476
226.8641, 305.7087
227.3462, 305.9460
227.8283, 307.0518
228.3104, 308.2802
228.7925, 309.2269
229.2747, 309.7507
229.7568, 310.3609
230.2389, 311.2717
230.7210, 312.2529
231.2031, 312.4543
231.6852, 311.3041
232.1674, 310.2175
232.6495, 309.9521
233.1316, 311.0174
233.6137, 311.7464
234.0958, 311.9309
234.5779, 311.7858
235.0601, 311.9311
235.5422, 312.5723
236.0243, 313.2121
236.5064, 313.6331
236.9885, 313.7745
237.4706, 313.8302
237.9528, 313.7852
238.4349, 313.6582
238.9170, 313.4696
239.3991, 313.0858
239.8812, 312.8379
240.3633, 312.8721
240.8455, 313.2611
241.3276, 313.7704
241.8097, 314.5110
242.2918, 315.3243
242.7739, 315.8305
243.2560, 315.8342
243.7382, 315.8340
244.2203, 316.0131
244.7024, 316.4044
245.1845, 316.8985
245.6666, 317.5822
246.1487, 318.3272
246.6309, 318.9050
247.1130, 319.3005
247.5951, 319.5456
248.0772, 319.5338
248.5593, 319.0061
249.0414, 319.2138
249.5236, 320.5357
250.0057, 322.3502
250.4878, 323.6277
250.9699, 324.0622
251.4520, 324.5058
251.9341, 325.2789
252.4163, 326.5195
252.8984, 327.3701
253.3805, 327.5247
253.8626, 327.5295
254.3447, 328.2571
254.8268, 330.1747
255.3090, 331.8760
255.7911, 332.8478
256.2732, 332.9685
256.7553, 333.4641
257.2374, 334.5114
257.7195, 335.7648
258.2017, 336.8148
258.6838, 337.6483
259.1659, 338.3160
259.6480, 338.7159
260.1301, 338.8160
260.6122, 339.4865
261.0944, 341.0387
261.5765, 342.7830
262.0586, 343.9596
262.5407, 344.3664
263.0228, 344.7736
263.5049, 345.3844
263.9871, 346.1887
264.4692, 346.7225
264.9513, 346.8929
265.4334, 346.9530
265.9155, 347.1071
266.3976, 347.3259
266.8798, 347.7497
267.3619, 348.5122
267.8440, 349.5386
268.3261, 350.1525
268.8082, 350.2677
269.2903, 350.1502
269.7725, 350.0418
270.2546, 350.0119
270.7367, 349.6140
271.2188, 348.5463
271.7009, 347.1054
272.1830, 346.7137
272.6652, 347.7417
273.1473, 348.8061
273.6294, 348.8388
274.1115, 347.6169
274.5936, 346.7092
275.0757, 346.2897
275.5579, 346.2560
276.0400, 346.3569
276.5221, 346.6031
277.0042, 346.9290
277.4863, 347.2788
277.9684, 347.6429
278.4506, 348.1816
278.9327, 348.9870
279.4148, 349.8712
279.8969, 350.4732
280.3790, 350.7961
280.8611, 350.8351
281.3433, 350.4799
281.8254, 349.7347
282.3075, 349.1030
282.7896, 348.5619
283.2717, 348.2196
283.7538, 348.4188
284.2360, 349.1907
284.7181, 349.7393
285.2002, 349.5753
285.6823, 348.7945
286.1644, 348.2314
286.6465, 347.8814
287.1287, 347.7740
287.6108, 348.2189
288.0929, 349.1593
288.5750, 349.5593
289.0571, 348.6263
289.5392, 346.8289
290.0214, 346.2333
290.5035, 346.9611
290.9856, 347.8901
291.4677, 347.7618
291.9498, 346.7339
292.4319, 345.7844
292.9141, 345.1979
293.3962, 344.8834
293.8783, 344.6837
294.3604, 344.6040
294.8425, 344.5183
295.3246, 344.3002
295.8068, 343.9860
296.2889, 343.7320
296.7710, 343.6989
297.2531, 343.5981
297.7352, 342.8026
298.2173, 341.3908
298.6995, 339.9929
299.1816, 339.0013
299.6637, 338.3616
300.1458, 338.0462
300.6279, 338.1544
301.1100, 338.3317
301.5922, 338.0370
302.0743, 337.3839
302.5564, 336.8467
303.0385, 337.0099
303.5206, 337.3525
304.0027, 336.9835
304.4849, 335.6225
304.9670, 334.2358
305.4491, 333.9171
305.9312, 334.3134
306.4133, 334.5786
306.8954, 334.2546
307.3776, 333.6217
307.8597, 332.8310
308.3418, 331.8550
308.8239, 331.1673
309.3060, 331.6115
309.7881, 332.5042
310.2703, 332.7515
310.7524, 331.3585
311.2345, 329.5788
311.7166, 328.1854
312.1987, 327.1988
312.6808, 326.5991
313.1630, 326.8229
313.6451, 327.2501
314.1272, 327.2129
314.6093, 326.2124
315.0914, 324.9560
315.5735, 323.6811
316.0557, 322.4047
316.5378, 321.2289
317.0199, 320.3546
317.5020, 319.5100
317.9841, 318.4679
318.4662, 317.0403
318.9484, 315.6509
319.4305, 314.5539
319.9126, 313.6151
320.3947, 312.4796
320.8768, 310.7780
321.3589, 309.0584
321.8411, 307.5498
322.3232, 306.2348
322.8053, 305.2879
323.2874, 305.0485
323.7695, 305.1422
324.2516, 304.9771
324.7338, 304.3511
325.2159, 303.5534
325.6980, 302.5384
326.1801, 301.1421
326.6622, 299.3364
327.1443, 300.2664
327.6265, 300.6664
328.1086, 300.5650
328.5907, 298.4601
329.0728, 298.9423
329.5549, 298.3877
330.0370, 297.7906
330.5192, 298.6368
331.0013, 296.8233
331.4834, 297.6467
331.9655, 297.4175
332.4476, 297.6701
332.9297, 296.8795
333.4119, 296.4110
333.8940, 296.9861
334.3761, 296.9835
334.8582, 296.0728
335.3403, 296.6920
335.8224, 297.3154
336.3046, 297.1637
336.7867, 296.9571
337.2688, 296.6813
337.7509, 296.3746
338.2330, 296.0345
338.7151, 295.5388
339.1973, 295.4170
339.6794, 296.1127
340.1615, 297.6956
340.6436, 298.4033
341.1257, 298.0406
341.6078, 297.2314
342.0900, 296.6982
342.5721, 296.4611
343.0542, 296.4258
343.5363, 296.6923
344.0184, 297.1372
344.5005, 297.0977
344.9827, 296.5048
345.4648, 295.9484
345.9469, 296.1088
346.4290, 296.8779
346.9111, 297.3647
347.3932, 297.2951
347.8754, 296.9902
348.3575, 297.0750
348.8396, 297.5186
349.3217, 298.0342
349.8038, 298.5722
350.2859, 299.0219
350.7681, 299.0800
351.2502, 298.6622
351.7323, 298.0250
352.2144, 297.2942
352.6965, 296.5510
353.1786, 296.0634
353.6608, 296.1903
354.1429, 296.5476
354.6250, 296.6710
355.1071, 296.5415
355.5892, 296.2983
356.0714, 295.9678
356.5535, 295.6163
357.0356, 295.3370
357.5177, 295.0555
357.9998, 294.9533
358.4819, 295.2813
358.9641, 295.9664
359.4462, 296.5946
359.9283, 297.0351
360.4104, 297.2768
360.8925, 297.2777
361.3746, 296.8539
361.8568, 296.4833
362.3389, 296.2088
362.8210, 296.1241
363.3031, 296.4368
363.7852, 297.5528
364.2673, 298.8039
364.7495, 299.9708
365.2316, 301.1374
365.7137, 301.8209
366.1958, 301.1918
366.6779, 300.2794
367.1600, 300.2892
367.6422, 302.7028
368.1243, 304.6563
368.6064, 305.2615
369.0885, 304.4212
369.5706, 304.2836
370.0527, 305.2848
370.5349, 306.6517
371.0170, 307.8922
371.4991, 308.7727
371.9812, 309.9318
372.4633, 311.6595
372.9454, 313.6957
373.4276, 315.0016
373.9097, 315.0991
374.3918, 315.3298
374.8739, 316.3862
375.3560, 318.5348
375.8381, 320.3430
376.3203, 321.7158
376.8024, 322.8440
377.2845, 323.9630
377.7666, 325.0364
378.2487, 326.2406
378.7308, 327.6080
379.2130, 329.1439
379.6951, 330.8184
380.1772, 332.6751
380.6593, 334.5065
381.1414, 336.1273
381.6235, 337.5437
382.1057, 338.9580
382.5878, 340.4110
383.0699, 341.8649
383.5520, 343.2300
384.0341, 344.5251
384.5162, 345.8093
384.9984, 347.3359
385.4805, 348.8636
385.9626, 349.7819
386.4447, 349.9444
386.9268, 349.9616
387.4089, 350.6776
387.8911, 351.7325
388.3732, 352.3012
388.8553, 351.5282
389.3374, 350.4064
389.8195, 350.0831
390.3016, 350.5060
390.7838, 350.5763
391.2659, 349.4355
391.7480, 347.6637
392.2301, 345.8348
392.7122, 343.9187
393.1943, 342.2419
393.6765, 341.2085
394.1586, 340.5832
394.6407, 339.7123
395.1228, 338.2200
395.6049, 336.5501
396.0870, 334.8171
396.5692, 332.8990
397.0513, 331.4134
397.5334, 331.1464
398.0155, 331.1562
398.4976, 330.2710
398.9797, 327.1090
399.4619, 324.3849
399.9440, 322.7050
400.4261, 322.0612
400.9082, 321.4253
401.3903, 320.8105
401.8724, 320.1815
402.3546, 319.5249
402.8367, 318.9044
403.3188, 318.0938
403.8009, 316.9040
404.2830, 315.5934
404.7651, 314.9201
405.2473, 315.1632
405.7294, 315.2722
406.2115, 314.8072
406.6936, 313.7628
407.1757, 312.4423
407.6578, 310.6801
408.1400, 309.0903
408.6221, 308.5301
409.1042, 308.9759
409.5863, 309.3001
410.0684, 309.1170
410.5505, 308.6928
411.0327, 308.6927
411.5148, 309.1060
411.9969, 309.5808
412.4790, 309.8887
412.9611, 310.0746
413.4432, 310.2422
413.9254, 310.4128
414.4075, 310.5517
414.8896, 310.5170
415.3717, 310.4169
415.8538, 310.5078
416.3359, 311.1779
416.8181, 311.9216
417.3002, 312.2388
417.7823, 312.1315
418.2644, 311.9481
418.7465, 311.5571
419.2286, 311.3366
419.7108, 311.6955
420.1929, 313.3200
420.6750, 314.7485
421.1571, 315.2050
421.6392, 315.0270
422.1213, 315.0798
422.6035, 315.9193
423.0856, 316.7560
423.5677, 317.2040
424.0498, 317.0477
424.5319, 317.1763
425.0140, 317.8440
425.4962, 318.7502
425.9783, 319.5880
426.4604, 320.1964
426.9425, 320.9980
427.4246, 322.1981
427.9067, 323.7040
428.3889, 324.7408
428.8710, 325.1031
429.3531, 325.3594
429.8352, 325.7383
430.3173, 326.1533
430.7994, 327.1970
431.2816, 329.0908
431.7637, 331.2711
432.2458, 332.7099
432.7279, 333.3541
433.2100, 334.0757
433.6921, 335.1717
434.1743, 336.5820
434.6564, 338.0908
435.1385, 339.7169
435.6206, 341.3920
436.1027, 343.0484
436.5848, 344.7129
437.0670, 346.4745
437.5491, 348.3906
438.0312, 350.3276
438.5133, 352.1692
438.9954, 353.9363
439.4775, 355.6791
439.9597, 357.2663
440.4418, 358.9497
440.9239, 361.0214
441.4060, 363.5014
441.8881, 366.0294
442.3702, 368.3143
442.8524, 370.5585
443.3345, 372.9810
443.8166, 375.9184
444.2987, 378.7076
444.7808, 381.0117
445.2629, 382.9898
445.7451, 385.1318
446.2272, 387.4976
446.7093, 390.0177
447.1914, 392.6690
447.6735, 395.4718
448.1556, 398.3500
448.6378, 401.3484
449.1199, 404.3617
449.6020, 407.3116
450.0841, 410.2052
450.5662, 412.8901
451.0483, 415.2776
451.5305, 417.4506
452.0126, 419.7411
452.4947, 422.2372
452.9768, 424.6381
453.4589, 426.8040
453.9410, 428.7466
454.4232, 430.5096
454.9053, 432.1122
455.3874, 433.5463
455.8695, 434.9155
456.3516, 436.1789
456.8337, 437.0064
457.3159, 437.2349
457.7980, 437.0249
458.2801, 436.5858
458.7622, 435.9421
459.2443, 435.2336
459.7264, 434.7911
460.2086, 434.2639
460.6907, 433.1303
461.1728, 431.2406
461.6549, 429.1481
462.1370, 427.1762
462.6191, 425.3013
463.1013, 423.5332
463.5834, 421.9888
464.0655, 420.4402
464.5476, 418.6651
465.0297, 416.7285
465.5118, 415.1260
465.9940, 414.6200
466.4761, 414.0497
466.9582, 412.7336
467.4403, 409.9255
467.9224, 407.5801
468.4045, 405.8711
468.8867, 404.5905
469.3688, 403.4367
469.8509, 402.4662
470.3330, 401.5729
470.8151, 400.8094
471.2972, 400.1428
471.7794, 399.1810
472.2615, 397.8602
472.7436, 396.4034
473.2257, 394.8615
473.7078, 393.2234
474.1899, 391.9387
474.6721, 391.0592
475.1542, 390.4592
475.6363, 390.0394
476.1184, 389.7695
476.6005, 389.4756
477.0826, 389.2211
477.5648, 388.8191
478.0469, 387.7224
478.5290, 386.0239
479.0111, 384.5680
479.4932, 384.0710
479.9753, 384.0990
480.4575, 384.1388
480.9396, 384.0630
481.4217, 384.1163
481.9038, 384.7523
482.3859, 385.5444
482.8680, 385.8548
483.3502, 384.6043
483.8323, 383.6761
484.3144, 383.9232
484.7965, 385.2764
485.2786, 386.5237
485.7607, 387.3343
486.2429, 388.0966
486.7250, 389.0111
487.2071, 390.1593
487.6892, 391.2578
488.1713, 392.2829
488.6534, 393.2792
489.1356, 394.2783
489.6177, 395.1865
490.0998, 396.4298
490.5819, 398.1702
491.0640, 400.3551
491.5461, 402.6978
492.0283, 405.2396
492.5104, 407.7767
492.9925, 410.0904
493.4746, 412.2670
493.9567, 414.4880
494.4388, 416.7535
494.9210, 419.2882
495.4031, 422.5801
495.8852, 426.3580
496.3673, 430.0410
496.8494, 433.2974
497.3315, 436.4136
497.8137, 439.7599
498.2958, 443.2492
498.7779, 446.4021
499.2600, 448.4129
499.7421, 450.4222
500.2242, 453.3896
500.7064, 457.7438
501.1885, 461.7795
501.6706, 464.8446
502.1527, 467.3942
502.6348, 469.8311
503.1169, 472.0641
503.5991, 474.3759
504.0812, 476.9438
504.5633, 479.6147
505.0454, 481.8659
505.5275, 483.5882
506.0096, 485.0220
506.4918, 486.3426
506.9739, 487.6147
507.4560, 488.0183
507.9381, 487.4197
508.4202, 486.3072
508.9023, 485.1565
509.3845, 483.9560
509.8666, 482.5661
510.3487, 481.0537
510.8308, 479.1733
511.3129, 476.2980
511.7950, 472.6045
512.2772, 468.9096
512.7593, 465.9927
513.2414, 463.1334
513.7235, 459.1794
514.2056, 454.1661
514.6877, 449.3134
515.1699, 445.3009
515.6520, 441.8528
516.1341, 438.7713
516.6162, 436.2423
517.0983, 433.6009
517.5804, 430.4593
518.0626, 427.0737
518.5447, 423.8669
519.0268, 420.9598
519.5089, 418.1606
519.9910, 415.2128
520.4731, 412.1713
520.9553, 410.2719
521.4374, 410.3671
521.9195, 410.3672
522.4016, 408.9731
522.8837, 405.8640
523.3658, 403.1157
523.8480, 400.7412
524.3301, 398.7461
524.8122, 397.2358
525.2943, 396.1985
525.7764, 395.2933
526.2585, 394.3945
526.7407, 393.6253
527.2228, 393.2931
527.7049, 393.3309
528.1870, 393.3495
528.6691, 393.1567
529.1512, 392.7895
529.6334, 392.1760
530.1155, 391.2892
530.5976, 390.6122
531.0797, 390.6301
531.5618, 390.8892
532.0439, 390.9535
532.5261, 390.7902
533.0082, 390.3048
533.4903, 388.9447
533.9724, 387.2830
534.4545, 386.5293
534.9366, 387.8039
535.4188, 388.8475
535.9009, 389.1616
536.3830, 388.7603
536.8651, 388.0365
537.3472, 386.7901
537.8293, 385.6343
538.3115, 385.0732
538.7936, 385.1685
539.2757, 385.0182
539.7578, 384.5080
540.2399, 383.9652
540.7220, 383.8737
541.2042, 384.1643
541.6863, 384.4460
542.1684, 384.6478
542.6505, 384.7189
543.1326, 384.4684
543.6147, 383.9867
544.0969, 383.6229
544.5790, 383.8275
545.0611, 384.0722
545.5432, 383.7705
546.0253, 382.8368
546.5074, 382.2193
546.9896, 382.6075
547.4717, 383.3211
547.9538, 383.8121
548.4359, 383.8427
548.9180, 383.8496
549.4001, 383.8480
549.8823, 383.8558
550.3644, 383.8911
550.8465, 383.9016
551.3286, 384.0662
551.8107, 384.5485
552.2928, 385.2567
552.7750, 385.4096
553.2571, 384.9034
553.7392, 384.3681
554.2213, 384.1882
554.7034, 384.3300
555.1855, 384.6947
555.6677, 385.3230
556.1498, 385.8206
556.6319, 385.4236
557.1140, 384.6177
557.5961, 384.4642
558.0782, 385.5592
558.5604, 386.9004
559.0425, 387.7844
559.5246, 388.2915
560.0067, 388.5909
560.4888, 388.5802
560.9709, 388.5276
561.4531, 388.5329
561.9352, 388.6017
562.4173, 388.7332
562.8994, 388.8537
563.3815, 389.1039
563.8636, 389.5848
564.3458, 390.4260
564.8279, 391.1471
565.3100, 391.7249
565.7921, 392.2270
566.2742, 392.7224
566.7563, 393.2135
567.2385, 393.7002
567.7206, 394.1302
568.2027, 394.6205
568.6848, 395.4723
569.1669, 396.6500
569.6490, 397.8052
570.1312, 398.6510
570.6133, 399.4218
571.0954, 400.5251
571.5775, 401.9543
572.0596, 403.2752
572.5417, 404.0528
573.0239, 404.7072
573.5060, 405.5571
573.9881, 406.6213
574.4702, 408.0120
574.9523, 410.1859
575.4344, 412.5736
575.9166, 414.4266
576.3987, 415.2934
576.8808, 416.2018
577.3629, 417.2592
577.8450, 418.4414
578.3271, 419.6815
578.8093, 420.9658
579.2914, 422.3228
579.7735, 423.7350
580.2556, 425.1939
580.7377, 426.9080
581.2198, 428.8968
581.7020, 430.7716
582.1841, 432.1646
582.6662, 433.1922
583.1483, 434.1643
583.6304, 435.1122
584.1125, 435.9612
584.5947, 436.6182
585.0768, 437.1446
585.5589, 437.6320
586.0410, 438.1935
586.5231, 438.6494
587.0052, 438.8237
587.4874, 438.8391
587.9695, 439.0077
588.4516, 440.0819
588.9337, 440.6023
589.4158, 439.8776
589.8979, 437.8979
590.3801, 436.7642
590.8622, 436.7618
591.3443, 437.0904
591.8264, 437.3777
592.3085, 437.6469
592.7906, 437.3596
593.2728, 436.4140
593.7549, 435.1660
594.2370, 433.8631
594.7191, 432.5611
595.2012, 431.5819
595.6833, 431.1749
596.1655, 430.7480
596.6476, 429.5711
597.1297, 427.8742
597.6118, 426.1653
598.0939, 424.7155
598.5760, 423.2943
599.0582, 421.7451
599.5403, 420.1148
600.0224, 418.5605
600.5045, 417.2056
600.9866, 415.8781
601.4688, 414.4612
601.9509, 412.8937
602.4330, 411.5765
602.9151, 410.7926
603.3972, 409.8769
603.8793, 408.0508
604.3615, 405.1670
604.8436, 402.8605
605.3257, 401.4348
605.8078, 400.4065
606.2899, 399.1068
606.7720, 397.5617
607.2542, 395.9610
607.7363, 394.3140
608.2184, 392.6987
608.7005, 391.4262
609.1826, 390.3245
609.6647, 388.8441
610.1469, 385.9483
610.6290, 383.1790
611.1111, 381.8722
611.5932, 382.1440
612.0753, 381.5403
612.5574, 378.6665
613.0396, 375.4765
613.5217, 373.1076
614.0038, 371.9011
614.4859, 370.5889
614.9680, 369.1339
615.4501, 367.6186
615.9323, 366.1006
616.4144, 364.5737
616.8965, 363.2089
617.3786, 362.0786
617.8607, 361.0614
618.3428, 359.9899
618.8250, 358.8591
619.3071, 357.6512
619.7892, 356.3475
620.2713, 354.9739
620.7534, 353.4589
621.2355, 351.8577
621.7177, 350.4789
622.1998, 349.7516
622.6819, 349.0698
623.1640, 347.9536
623.6461, 346.2332
624.1282, 345.0575
624.6104, 345.0539
625.0925, 345.1795
625.5746, 344.7446
626.0567, 343.4355
626.5388, 342.4223
627.0209, 341.7440
627.5031, 341.3405
627.9852, 341.3154
628.4673, 341.6294
628.9494, 341.4839
629.4315, 340.5233
629.9136, 339.3117
630.3958, 338.7360
630.8779, 338.6460
631.3600, 338.6034
631.8421, 338.3348
632.3242, 338.0873
632.8063, 338.1407
633.2885, 338.4261
633.7706, 338.5454
634.2527, 338.3149
634.7348, 337.9297
635.2169, 337.4425
635.6990, 336.8338
636.1812, 336.2859
636.6633, 335.7255
637.1454, 335.3143
637.6275, 335.3307
638.1096, 335.9410
638.5917, 335.6826
639.0739, 334.2847
639.5560, 332.5934
640.0381, 331.7559
640.5202, 331.5686
641.0023, 331.1305
641.4844, 330.0846
641.9666, 328.9521
642.4487, 328.4161
642.9308, 328.1945
643.4129, 327.6823
643.8950, 326.1363
644.3771, 324.7145
644.8593, 323.9730
645.3414, 323.8406
645.8235, 323.8283
646.3056, 324.0481
646.7877, 324.1912
647.2698, 324.1423
647.7520, 323.8940
648.2341, 323.7007
648.7162, 323.6555
649.1983, 323.4074
649.6804, 322.4554
650.1625, 320.9283
650.6447, 320.2178
651.1268, 320.4812
651.6089, 320.8561
652.0910, 320.3558
652.5731, 319.3680
653.0552, 318.5669
653.5374, 318.1452
654.0195, 317.8860
654.5016, 317.7010
654.9837, 317.5768
655.4658, 317.4916
655.9479, 317.4299
656.4301, 317.4279
656.9122, 317.6259
657.3943, 317.8868
657.8764, 317.7777
658.3585, 317.0474
658.8406, 316.5533
659.3228, 316.7368
659.8049, 317.3602
660.2870, 316.9404
660.7691, 315.4191
661.2512, 313.2814
661.7333, 314.2165
662.2155, 314.6215
662.6976, 314.5251
663.1797, 312.4252
663.6618, 312.9124
664.1439, 312.3628
664.6260, 311.7707
665.1082, 312.6220
665.5903, 310.8135
666.0724, 311.6419
666.5545, 311.4178
667.0366, 310.1068
667.5187, 309.3648
668.0009, 309.2707
668.4830, 308.9914
668.9651, 308.3869
669.4472, 307.7072
669.9293, 307.3465
670.4114, 307.3084
670.8936, 307.4267
671.3757, 307.8102
671.8578, 308.0858
672.3399, 307.4049
672.8220, 306.0333
673.3041, 304.8983
673.7863, 304.6326
674.2684, 304.6161
674.7505, 304.4040
675.2326, 304.0394
675.7147, 303.7917
676.1968, 304.1831
676.6790, 304.2873
677.1611, 303.4132
677.6432, 301.4689
678.1253, 300.6972
678.6074, 301.6922
679.0895, 302.7640
679.5717, 302.7579
680.0538, 301.6746
680.5359, 300.7639
681.0180, 300.0408
681.5001, 299.5761
681.9822, 299.3605
682.4644, 300.4487
682.9465, 301.0070
683.4286, 301.0638
683.9107, 299.1171
684.3928, 299.7575
684.8749, 299.3612
685.3571, 298.9222
685.8392, 299.9268
686.3213, 298.2715
686.8034, 299.2531
687.2855, 299.1822
687.7676, 299.5930
688.2498, 298.9605
688.7319, 297.7882
689.2140, 298.7601
689.6961, 299.2020
690.1782, 299.1425
690.6603, 297.0795
691.1425, 297.6035
691.6246, 297.0909
692.1067, 297.7427
692.5888, 297.8183
693.0709, 295.8904
693.5530, 296.5497
694.0352, 296.1721
694.5173, 295.7520
694.9994, 296.7754
695.4815, 295.1389
695.9636, 296.1393
696.4457, 296.0872
696.9279, 296.5168
697.4100, 295.9032
697.8921, 295.6118
698.3742, 296.2320
698.8563, 296.6945
699.3384, 297.0446
699.8206, 297.1787
700.3027, 297.0981
700.7848, 296.6952
701.2669, 295.8963
701.7490, 295.2593
702.2311, 295.6387
702.7133, 296.4011
703.1954, 296.6088
703.6775, 295.6860
704.1596, 294.9070
704.6417, 293.9323
705.1238, 295.2432
705.6060, 296.0243
706.0881, 296.3038
706.5702, 294.5799
707.0523, 295.4431
707.5344, 295.2695
708.0165, 295.0533
708.4987, 296.2807
708.9808, 294.8481
709.4629, 296.0526
709.9450, 295.1387
710.4271, 295.1310
710.9092, 295.4581
711.3914, 295.6295
711.8735, 295.2118
712.3556, 294.6992
712.8377, 294.3723
713.3198, 294.2374
713.8019, 294.2918
714.2841, 294.8236
714.7662, 295.2543
715.2483, 295.3430
715.7304, 295.1023
716.2125, 294.8748
716.6946, 294.6302
717.1768, 294.4773
717.6589, 294.4467
718.1410, 294.5514
718.6231, 294.9815
719.1052, 295.7516
719.5873, 296.4687
720.0695, 296.8570
720.5516, 297.0029
721.0337, 296.9637
721.5158, 296.7208
721.9979, 296.5501
722.4800, 296.6221
722.9622, 296.7896
723.4443, 296.9406
723.9264, 297.0724
724.4085, 297.1579
724.8906, 297.1630
725.3727, 297.1604
725.8549, 297.2359
726.3370, 297.3968
726.8191, 297.5081
727.3012, 297.5406
727.7833, 297.5612
728.2654, 297.7108
728.7476, 297.9120
729.2297, 297.9687
729.7118, 297.7695
730.1939, 297.5335
730.6760, 297.2674
731.1581, 297.1016
731.6403, 297.2315
732.1224, 298.2603
732.6045, 298.8906
733.0866, 298.8265
733.5687, 298.3083
734.0508, 297.7437
734.5330, 297.0229
735.0151, 296.7657
735.4972, 297.2736
735.9793, 298.1840
736.4614, 298.6839
736.9435, 298.8369
737.4257, 298.9678
737.9078, 299.2906
738.3899, 299.6224
738.8720, 299.7601
739.3541, 299.7545
739.8362, 299.7857
740.3184, 300.0772
740.8005, 300.2528
741.2826, 299.9429
741.7647, 298.0449
742.2468, 299.3367
742.7289, 300.0985
743.2111, 300.3588
743.6932, 298.6157
744.1753, 299.4596
744.6574, 299.2667
745.1395, 299.0313
745.6216, 300.2394
746.1038, 298.7876
746.5859, 299.9728
747.0680, 300.1053
747.5501, 300.7196
748.0322, 300.2907
748.5143, 300.1841
748.9965, 301.1209
749.4786, 301.4799
749.9607, 300.9310
750.4428, 301.5759
750.9249, 301.5867
751.4070, 302.3209
751.8892, 302.1646
752.3713, 301.1372
752.8534, 300.5270
753.3355, 300.3724
753.8176, 300.5585
754.2997, 301.2480
754.7819, 302.1064
755.2640, 302.5808
755.7461, 302.5311
756.2282, 302.4464
756.7103, 302.5558
757.1924, 302.7631
757.6746, 302.9953
758.1567, 303.3223
758.6388, 303.5094
759.1209, 303.4994
759.6030, 303.4173
760.0851, 303.3711
760.5673, 303.3569
761.0494, 303.4543
761.5315, 303.7105
762.0136, 303.8993
762.4957, 303.5800
762.9778, 303.0319
763.4600, 302.8009
763.9421, 303.1170
764.4242, 303.5454
764.9063, 304.0947
765.3884, 304.5224
765.8705, 304.5225
766.3527, 303.4765
766.8348, 302.8567
767.3169, 302.8427
767.7990, 303.1736
768.2811, 303.5526
768.7632, 303.9974
769.2454, 304.1191
769.7275, 303.7878
770.2096, 303.2346
770.6917, 302.4713
771.1738, 301.7610
771.6559, 301.7394
772.1381, 303.3320
772.6202, 304.6767
773.1023, 304.4639
773.5844, 303.3969
774.0665, 302.7154
774.5486, 302.6852
775.0308, 302.9483
775.5129, 303.7730
775.9950, 304.6627
776.4771, 304.2284
776.9592, 302.4037
777.4413, 301.2239
777.9235, 301.4702
778.4056, 302.3518
778.8877, 302.8216
779.3698, 302.9469
779.8519, 302.8982
780.3340, 302.4316
780.8162, 302.1399
781.2983, 302.4889
781.7804, 303.2206
782.2625, 303.6184
782.7446, 303.3719
783.2267, 303.2216
783.7089, 303.3351
784.1910, 303.6250
784.6731, 303.9610
785.1552, 304.3403
785.6373, 304.2574
786.1194, 303.1013
786.6016, 301.8409
787.0837, 302.2627
787.5658, 303.7929
788.0479, 304.8433
788.5300, 304.0665
789.0121, 303.2524
789.4943, 303.2656
789.9764, 303.9029
790.4585, 304.2954
790.9406, 304.3524
791.4227, 304.2869
791.9048, 304.1016
792.3870, 303.8615
792.8691, 303.7828
793.3512, 303.8591
793.8333, 303.9920
794.3154, 304.1232
794.7975, 304.3000
795.2797, 304.6946
795.7618, 305.2048
796.2439, 305.4811
796.7260, 305.1280
797.2081, 304.7920
797.6902, 304.8015
798.1724, 305.0491
798.6545, 305.0859
799.1366, 304.8359
799.6187, 304.5717
800.1008, 304.3528
800.5829, 304.1997
801.0651, 304.1118
801.5472, 304.1149
802.0293, 304.3907
802.5114, 305.4977
802.9935, 306.5524
803.4756, 306.5095
803.9578, 305.6878
804.4399, 305.1655
804.9220, 305.5320
805.4041, 305.9432
805.8862, 306.1323
806.3683, 306.1647
806.8505, 306.3621
807.3326, 306.7942
807.8147, 307.0360
808.2968, 306.8345
808.7789, 306.4223
809.2610, 306.2609
809.7432, 306.3404
810.2253, 306.6178
810.7074, 307.5395
811.1895, 308.2204
811.6716, 307.7915
812.1537, 306.6062
812.6359, 305.9879
813.1180, 306.6656
813.6001, 307.1974
814.0822, 307.2066
814.5643, 306.8562
815.0464, 306.7001
815.5286, 306.7388
816.0107, 306.9543
816.4928, 307.4919
816.9749, 308.0439
817.4570, 307.9009
817.9391, 307.3597
818.4213, 307.2725
818.9034, 308.7913
819.3855, 310.0368
819.8676, 309.9388
820.3497, 308.9122
820.8318, 308.4228
821.3140, 308.6216
821.7961, 309.0389
822.2782, 309.6928
822.7603, 310.3637
823.2424, 310.5416
823.7245, 310.2592
824.2067, 309.7007
824.6888, 308.5760
825.1709, 307.6602
825.6530, 307.9124
826.1351, 308.8951
826.6172, 309.6218
827.0994, 309.7899
827.5815, 309.6860
828.0636, 309.1134
828.5457, 308.4405
829.0278, 308.5537
829.5099, 309.6142
829.9921, 310.3857
830.4742, 310.5169
830.9563, 310.3208
831.4384, 310.2326
831.9205, 310.2227
832.4026, 310.1979
832.8848, 309.9360
833.3669, 309.9173
833.8490, 310.6363
834.3311, 311.6903
834.8132, 312.3736
835.2953, 312.4464
835.7775, 312.5353
836.2596, 312.7092
836.7417, 312.9071
837.2238, 313.0890
837.7059, 313.2344
838.1880, 313.1099
838.6702, 312.5849
839.1523, 312.0261
839.6344, 311.6523
840.1165, 311.5371
840.5986, 311.8209
841.0807, 312.8933
841.5629, 313.7849
842.0450, 314.3796
842.5271, 314.6522
843.0092, 314.4430
843.4913, 313.5963
843.9734, 313.1835
844.4556, 313.3506
844.9377, 313.7716
845.4198, 314.2149
845.9019, 314.5936
846.3840, 314.6788
846.8661, 314.3600
847.3483, 314.0854
847.8304, 314.2227
848.3125, 314.4522
848.7946, 314.4551
849.2767, 314.0256
849.7589, 313.8771
850.2410, 314.0932
850.7231, 314.4288
851.2052, 314.6444
851.6873, 314.7715
852.1694, 315.0853
852.6516, 315.6094
853.1337, 316.0989
853.6158, 316.4837
854.0979, 316.6524
854.5800, 316.4057
855.0621, 315.6567
855.5443, 315.0774
856.0264, 314.7902
856.5085, 314.7358
856.9906, 314.9933
857.4727, 315.5656
857.9548, 315.7374
858.4370, 315.4786
858.9191, 315.1945
859.4012, 315.1039
859.8833, 315.2047
860.3654, 315.6286
860.8475, 316.3163
861.3297, 316.7845
861.8118, 316.4775
862.2939, 316.2181
862.7760, 316.5026
863.2581, 317.2418
863.7402, 317.8114
864.2224, 318.2126
864.7045, 318.3943
865.1866, 318.1939
865.6687, 317.8520
866.1508, 318.1608
866.6329, 318.9440
867.1151, 319.4342
867.5972, 318.8473
868.0793, 318.2133
868.5614, 318.2208
869.0435, 318.6748
869.5256, 318.9352
870.0078, 318.6805
870.4899, 318.7459
870.9720, 319.4341
871.4541, 320.3831
871.9362, 320.7758
872.4183, 320.6688
872.9005, 320.4839
873.3826, 320.3164
873.8647, 320.1977
874.3468, 320.1111
874.8289, 320.1086
875.3110, 320.2707
875.7932, 320.6719
876.2753, 321.1861
876.7574, 321.9058
877.2395, 322.6270
877.7216, 323.1069
878.2037, 323.3331
878.6859, 323.4967
879.1680, 323.6297
879.6501, 323.6535
880.1322, 323.1429
880.6143, 322.6067
881.0964, 322.9540
881.5786, 324.6113
882.0607, 325.9228
882.5428, 326.1720
883.0249, 325.9613
883.5070, 325.6811
883.9891, 325.3110
884.4713, 324.8539
884.9534, 324.1910
885.4355, 324.0514
885.9176, 325.5638
886.3997, 327.8409
886.8818, 328.9683
887.3640, 328.9409
887.8461, 328.7479
888.3282, 328.7571
888.8103, 328.8971
889.2924, 329.1654
889.7745, 329.5500
890.2567, 329.9753
890.7388, 330.5544
891.2209, 330.7949
891.7030, 330.2737
892.1851, 329.4248
892.6672, 329.4521
893.1494, 330.1979
893.6315, 330.9688
894.1136, 331.7191
894.5957, 332.0958
895.0778, 331.3235
895.5599, 330.0624
896.0421, 330.1265
896.5242, 332.6153
897.0063, 334.2023
897.4884, 334.0626
897.9705, 333.1811
898.4526, 333.4053
898.9348, 334.5049
899.4169, 335.4126
899.8990, 335.8527
900.3811, 336.0879
900.8632, 336.0132
901.3453, 336.0061
901.8275, 336.5360
902.3096, 338.2459
902.7917, 339.4276
903.2738, 339.8515
903.7559, 340.0742
904.2380, 340.7690
904.7202, 341.8228
905.2023, 341.8477
905.6844, 340.7343
906.1665, 339.8825
906.6486, 340.7927
907.1307, 342.2520
907.6129, 343.2127
908.0950, 343.5480
908.5771, 343.6422
909.0592, 343.0382
909.5413, 342.9672
910.0234, 344.2067
910.5056, 346.4405
910.9877, 347.5733
911.4698, 347.6602
911.9519, 347.7045
912.4340, 348.3366
912.9161, 349.1426
913.3983, 349.7205
913.8804, 350.1223
914.3625, 350.4893
914.8446, 350.5200
915.3267, 350.9956
915.8088, 352.2899
916.2910, 353.9054
916.7731, 354.7718
917.2552, 354.9091
917.7373, 355.1918
918.2194, 355.8732
918.7015, 356.5921
919.1837, 356.9105
919.6658, 357.0392
920.1479, 357.2640
920.6300, 357.6739
921.1121, 358.1505
921.5942, 358.7215
922.0764, 359.3122
922.5585, 359.8897
923.0406, 360.4588
923.5227, 360.8111
924.0048, 360.9166
924.4869, 361.1901
924.9691, 362.2082
925.4512, 363.4311
925.9333, 364.1983
926.4154, 364.4891
926.8975, 364.7998
927.3796, 365.2625
927.8618, 365.7670
928.3439, 366.2916
928.8260, 366.8271
929.3081, 367.3118
929.7902, 367.7492
930.2723, 368.3078
930.7545, 369.2185
931.2366, 370.0988
931.7187, 370.4244
932.2008, 370.3899
932.6829, 370.3918
933.1650, 370.6160
933.6472, 370.7903
934.1293, 370.7536
934.6114, 370.7692
935.0935, 371.2955
935.5756, 372.3311
936.0577, 373.1181
936.5399, 373.5055
937.0220, 373.8955
937.5041, 374.9035
937.9862, 376.0097
938.4683, 376.5110
938.9504, 376.1387
939.4326, 375.9912
939.9147, 376.2234
940.3968, 376.7381
940.8789, 377.5639
941.3610, 378.6683
941.8431, 379.7159
942.3253, 380.7100
942.8074, 381.5233
943.2895, 381.8040
943.7716, 382.0782
944.2537, 382.9014
944.7358, 384.1483
945.2180, 385.3331
945.7001, 386.3397
946.1822, 387.2586
946.6643, 387.9640
947.1464, 388.7388
947.6285, 390.4562
948.1107, 392.9330
948.5928, 394.6000
949.0749, 394.8249
949.5570, 394.9330
950.0391, 396.0558
950.5212, 397.7448
951.0034, 399.4717
951.4855, 401.0868
951.9676, 402.9253
952.4497, 405.0393
952.9318, 407.2799
953.4139, 409.6188
953.8961, 412.0025
954.3782, 414.0917
954.8603, 415.8773
955.3424, 417.6133
955.8245, 419.3454
956.3066, 421.1883
956.7888, 423.3466
957.2709, 425.7558
957.7530, 427.8087
958.2351, 429.2773
958.7172, 430.9118
959.1993, 432.8906
959.6815, 435.2208
960.1636, 437.9368
960.6457, 440.9957
961.1278, 444.2750
961.6099, 447.9807
962.0920, 451.4212
962.5742, 453.8576
963.0563, 456.0197
963.5384, 458.6969
964.0205, 462.0205
964.5026, 465.5942
964.9847, 469.4196
965.4669, 473.3647
965.9490, 477.5448
966.4311, 481.6492
966.9132, 484.9422
967.3953, 487.4484
967.8774, 490.4419
968.3596, 494.7517
968.8417, 499.4860
969.3238, 504.4109
969.8059, 509.3890
970.2880, 513.8278
970.7701, 517.7510
971.2523, 521.1485
971.7344, 523.8156
972.2165, 526.3623
972.6986, 529.9761
973.1807, 534.1130
973.6628, 537.6801
974.1450, 540.0786
974.6271, 542.4161
975.1092, 545.1117
975.5913, 547.6761
976.0734, 549.6025
976.5555, 550.8739
977.0377, 552.3435
977.5198, 554.0663
978.0019, 555.3866
978.4840, 555.7713
978.9661, 555.5030
979.4482, 554.6486
979.9304, 553.2777
980.4125, 552.2340
980.8946, 551.9460
981.3767, 551.4963
981.8588, 550.5733
982.3409, 549.3342
982.8231, 548.1484
983.3052, 547.0268
983.7873, 546.0168
984.2694, 545.0051
984.7515, 544.3495
985.2336, 544.3238
985.7158, 544.7849
986.1979, 545.5646
986.6800, 546.5402
987.1621, 547.9579
987.6442, 549.7425
988.1263, 552.1819
988.6085, 555.9175
989.0906, 560.4099
989.5727, 563.9850
990.0548, 566.7150
990.5369, 570.0963
991.0190, 575.1671
991.5012, 580.8200
991.9833, 586.5238
992.4654, 592.3552
992.9475, 599.0763
993.4296, 606.7695
993.9117, 613.9846
994.3939, 619.9914
994.8760, 625.9928
995.3581, 633.9315
995.8402, 642.8277
996.3223, 651.2774
996.8044, 658.3018
997.2866, 666.3157
997.7687, 676.3763
998.2508, 686.7103
998.7329, 695.9686
999.2150, 704.1358
999.6971, 712.7039
1000.179, 721.5351
1000.661, 730.1771
1001.143, 738.1086
1001.626, 745.8509
1002.108, 754.0008
1002.590, 762.3903
1003.072, 770.5906
1003.554, 778.7296
1004.036, 785.9827
1004.518, 792.0236
1005.000, 797.2482
1005.483, 802.4445
1005.965, 807.2806
1006.447, 810.7748
1006.929, 812.6966
1007.411, 813.2719
1007.893, 811.7485
1008.375, 809.5748
1008.857, 807.8719
1009.339, 806.6849
1009.822, 805.2558
1010.304, 803.6087
1010.786, 801.5200
1011.268, 798.9242
1011.750, 795.8174
1012.232, 791.9440
1012.714, 787.5262
1013.196, 783.1658
1013.679, 780.0267
1014.161, 775.5233
1014.643, 769.1716
1015.125, 761.6029
1015.607, 753.8572
1016.089, 745.8287
1016.571, 736.5277
1017.053, 725.8254
1017.535, 714.2366
1018.018, 701.9477
1018.500, 689.1096
1018.982, 675.4987
1019.464, 661.0930
1019.946, 647.2280
1020.428, 634.0804
1020.910, 620.8591
1021.392, 607.2916
1021.875, 593.3132
1022.357, 578.6053
1022.839, 563.5519
1023.321, 549.1627
1023.803, 534.9576
1024.285, 522.7295
1024.767, 513.9129
1025.249, 506.3477
1025.731, 497.9775
1026.214, 488.7441
1026.696, 481.1958
1027.178, 475.4611
1027.660, 470.1405
1028.142, 463.8354
1028.624, 457.6176
1029.106, 452.4464
1029.588, 448.3146
1030.071, 444.4804
1030.553, 440.9674
1031.035, 437.4380
1031.517, 433.6954
1031.999, 430.0817
1032.481, 427.2052
1032.963, 424.8920
1033.445, 422.7266
1033.927, 420.6689
1034.410, 418.4470
1034.892, 415.4353
1035.374, 412.6815
1035.856, 411.0420
1036.338, 410.5404
1036.820, 409.6260
1037.302, 408.3136
1037.784, 406.6387
1038.266, 404.2831
1038.749, 401.8799
1039.231, 400.0682
1039.713, 398.7265
1040.195, 397.6170
1040.677, 396.8392
1041.159, 396.0153
1041.641, 395.0540
1042.123, 394.1427
1042.605, 393.6840
1043.088, 393.4362
1043.570, 392.6124
1044.052, 391.1313
1044.534, 389.7486
1045.016, 388.9743
1045.498, 388.2972
1045.980, 387.3632
1046.462, 386.3037
1046.945, 385.8459
1047.427, 386.0133
1047.909, 386.0389
1048.391, 385.6332
1048.873, 385.0868
1049.355, 384.6489
1049.837, 384.2867
1050.319, 383.9608
1050.802, 383.7082
1051.284, 383.3746
1051.766, 382.9342
1052.248, 382.4761
1052.730, 381.8937
1053.212, 381.3719
1053.694, 381.6390
1054.176, 382.5496
1054.658, 383.4345
1055.141, 384.1168
1055.623, 384.5230
1056.105, 384.4083
1056.587, 384.1309
1057.069, 384.2599
1057.551, 384.8095
1058.033, 385.1910
1058.515, 385.3114
1058.998, 385.4557
1059.480, 385.4852
1059.962, 385.9707
1060.444, 387.2118
1060.926, 388.2180
1061.408, 389.0014
1061.890, 388.8961
1062.372, 389.9384
1062.854, 390.5209
1063.337, 391.0860
1063.819, 391.5733
1064.301, 392.4848
1064.783, 393.6642
1065.265, 395.3678
1065.747, 396.7789
1066.229, 397.6241
1066.711, 398.1176
1067.193, 398.1652
1067.676, 397.8286
1068.158, 398.5890
1068.640, 400.3772
1069.122, 402.1196
1069.604, 402.9576
1070.086, 403.7479
1070.568, 405.2734
1071.050, 407.1490
1071.532, 408.4769
1072.015, 409.0899
1072.497, 409.7315
1072.979, 410.4947
1073.461, 411.2425
1073.943, 411.8473
1074.425, 412.3412
1074.907, 412.6699
1075.389, 412.8521
1075.872, 413.3576
1076.354, 414.4983
1076.836, 415.7310
1077.318, 417.0576
1077.800, 418.2173
1078.282, 418.4755
1078.764, 418.0613
1079.246, 417.8599
1079.729, 418.1720
1080.211, 418.4473
1080.693, 418.2682
1081.175, 418.0334
1081.657, 418.1237
1082.139, 418.5394
1082.621, 418.3878
1083.103, 417.6587
1083.585, 416.9633
1084.068, 416.6396
1084.550, 416.4950
1085.032, 416.3887
1085.514, 416.3215
1085.996, 416.3163
1086.478, 416.5672
1086.960, 416.4046
1087.442, 415.6988
1087.925, 414.9240
1088.407, 414.6498
1088.889, 414.5625
1089.371, 413.8491
1089.853, 412.6466
1090.335, 412.0200
1090.817, 413.3282
1091.299, 413.9662
1091.781, 413.0084
1092.264, 411.4196
1092.746, 411.1434
1093.228, 411.8625
1093.710, 411.9380
1094.192, 411.0023
1094.674, 410.2722
1095.156, 411.0412
1095.638, 411.8241
1096.120, 411.5373
1096.603, 410.3270
1097.085, 409.2026
1097.567, 408.1606
1098.049, 407.1747
1098.531, 406.1657
1099.013, 405.3465
1099.495, 405.0608
1099.977, 405.0298
1100.459, 404.8842
1100.942, 404.5078
1101.424, 404.2489
1101.906, 404.1674
1102.388, 404.0158
1102.870, 403.6461
1103.352, 403.0905
1103.834, 402.3863
1104.316, 401.5455
1104.799, 400.6187
1105.281, 399.2747
1105.763, 398.3385
1106.245, 397.8999
1106.727, 397.8975
1107.209, 398.6625
1107.691, 399.8438
1108.173, 399.7149
1108.656, 398.2635
1109.138, 396.7876
1109.620, 395.7408
1110.102, 395.1516
1110.584, 395.3126
1111.066, 395.7979
1111.548, 395.5225
1112.030, 394.5104
1112.512, 394.4206
1112.995, 395.6965
1113.477, 396.9039
1113.959, 396.5532
1114.441, 395.7699
1114.923, 395.5877
1115.405, 396.0256
1115.887, 395.9452
1116.369, 395.1957
1116.852, 394.8031
1117.334, 395.2663
1117.816, 395.9683
1118.298, 396.0372
1118.780, 395.8355
1119.262, 395.9198
1119.744, 396.5830
1120.226, 396.9807
1120.708, 397.0143
1121.191, 396.9687
1121.673, 396.9846
1122.155, 397.0596
1122.637, 397.1061
1123.119, 397.2046
1123.601, 397.5761
1124.083, 398.5724
1124.565, 399.4669
1125.047, 400.0026
1125.530, 400.5886
1126.012, 401.8658
1126.494, 403.5868
1126.976, 404.1168
1127.458, 403.5731
1127.940, 403.3669
1128.422, 404.4451
1128.904, 405.8889
1129.386, 407.6481
1129.869, 409.3120
1130.351, 409.9973
1130.833, 409.7302
1131.315, 410.4072
1131.797, 412.3188
1132.279, 413.9066
1132.761, 413.4565
1133.243, 412.6439
1133.726, 412.6931
1134.208, 413.4930
1134.690, 414.2478
1135.172, 414.9518
1135.654, 415.7314
1136.136, 416.7071
1136.618, 417.4643
1137.100, 417.2406
1137.583, 416.7474
1138.065, 416.8388
1138.547, 417.7372
1139.029, 418.2393
1139.511, 418.2166
1139.993, 418.2057
1140.475, 418.4283
1140.957, 418.7606
1141.439, 418.8346
1141.922, 418.9332
1142.404, 419.6770
1142.886, 421.8479
1143.368, 422.8011
1143.850, 421.9257
1144.332, 420.7720
1144.814, 420.2122
1145.296, 420.1110
1145.779, 420.1533
1146.261, 420.3533
1146.743, 420.7554
1147.225, 422.2202
1147.707, 422.5941
1148.189, 420.9323
1148.671, 419.0549
1149.153, 418.8713
1149.635, 419.9055
1150.118, 419.8466
1150.600, 418.7242
1151.082, 417.1898
1151.564, 415.0845
1152.046, 413.2435
1152.528, 412.2749
1153.010, 411.5028
1153.492, 409.9657
1153.974, 407.7392
1154.457, 405.4708
1154.939, 403.2487
1155.421, 401.3092
1155.903, 400.0665
1156.385, 398.9047
1156.867, 397.6172
1157.349, 396.0913
1157.831, 393.7882
1158.313, 390.6730
1158.796, 388.6367
1159.278, 388.1030
1159.760, 387.6317
1160.242, 385.7265
1160.724, 383.6048
1161.206, 382.4526
1161.688, 382.0987
1162.170, 380.9834
1162.653, 379.0340
1163.135, 377.0013
1163.617, 374.9757
1164.099, 373.3260
1164.581, 372.6174
1165.063, 372.3446
1165.545, 372.0172
1166.027, 371.5824
1166.510, 371.0464
1166.992, 370.4118
1167.474, 369.6279
1167.956, 368.6105
1168.438, 367.5410
1168.920, 366.5827
1169.402, 365.7434
1169.884, 365.0449
1170.366, 364.5923
1170.849, 363.9347
1171.331, 362.9761
1171.813, 362.1606
1172.295, 361.7952
1172.777, 361.6640
1173.259, 361.4868
1173.741, 361.2562
1174.223, 360.9611
1174.706, 360.6237
1175.188, 360.1324
1175.670, 359.4010
1176.152, 358.7287
1176.634, 358.3099
1177.116, 358.1124
1177.598, 358.1483
1178.080, 358.3371
1178.563, 358.4453
1179.045, 358.3402
1179.527, 358.2399
1180.009, 358.2112
1180.491, 358.0861
1180.973, 357.6250
1181.455, 356.9745
1181.937, 356.3719
1182.419, 355.8837
1182.901, 355.7379
1183.384, 356.4866
1183.866, 356.9473
1184.348, 356.8905
1184.830, 356.5741
1185.312, 356.3068
1185.794, 356.0399
1186.276, 355.5502
1186.758, 354.8571
1187.240, 354.3881
1187.723, 354.4280
1188.205, 354.6063
1188.687, 354.9041
1189.169, 355.1740
1189.651, 355.1211
1190.133, 354.8394
1190.615, 354.5462
1191.097, 354.2665
1191.580, 354.3145
1192.062, 355.2747
1192.544, 356.0276
1193.026, 356.1679
1193.508, 355.9327
1193.990, 355.8253
1194.472, 355.7918
1194.954, 355.6059
1195.437, 355.2079
1195.919, 354.8807
1196.401, 354.7654
1196.883, 354.7565
1197.365, 354.8405
1197.847, 354.9800
1198.329, 355.1180
1198.811, 355.2162
1199.293, 355.0776
1199.776, 354.5741
1200.258, 354.1928
1200.740, 354.2129
1201.222, 354.3689
1201.704, 354.6166
1202.186, 354.8524
1202.668, 354.5421
1203.150, 353.8332
1203.633, 353.2931
1204.115, 353.0518
1204.597, 353.1495
1205.079, 354.0968
1205.561, 354.8835
1206.043, 354.7242
1206.525, 353.9299
1207.007, 354.4291
1207.490, 355.8413
1207.972, 356.4061
1208.454, 354.9196
1208.936, 353.5150
1209.418, 353.0175
1209.900, 353.0227
1210.382, 353.4090
1210.864, 354.0986
1211.346, 354.5485
1211.828, 354.7920
1212.311, 354.9794
1212.793, 355.2006
1213.275, 355.3457
1213.757, 355.2960
1214.239, 355.2348
1214.721, 355.2774
1215.203, 355.4261
1215.685, 355.8164
1216.167, 356.3693
1216.650, 356.6698
1217.132, 356.2152
1217.614, 355.8706
1218.096, 356.0822
1218.578, 356.3254
1219.060, 356.0699
1219.542, 355.4106
1220.024, 354.8152
1220.507, 354.3743
1220.989, 354.5070
1221.471, 356.3152
1221.953, 357.5417
1222.435, 357.3919
1222.917, 356.6235
1223.399, 355.8362
1223.881, 355.0750
1224.364, 354.5299
1224.846, 354.2228
1225.328, 354.2599
1225.810, 354.8747
1226.292, 355.6425
1226.774, 356.6768
1227.256, 357.5104
1227.738, 357.3080
1228.220, 356.4539
1228.703, 356.5770
1229.185, 357.5670
1229.667, 358.0752
1230.149, 356.9165
1230.631, 355.9401
1231.113, 355.4442
1231.595, 355.4455
1232.077, 356.2576
1232.560, 357.5174
1233.042, 358.1372
1233.524, 358.1149
1234.006, 358.0954
1234.488, 358.6726
1234.970, 358.7465
1235.452, 357.9568
1235.934, 356.8857
1236.417, 356.3085
1236.899, 356.0585
1237.381, 355.6779
1237.863, 355.1905
1238.345, 355.1448
1238.827, 356.5710
1239.309, 357.0354
1239.791, 355.7671
1240.273, 354.2154
1240.755, 354.5921
1241.238, 355.9503
1241.720, 356.4811
1242.202, 356.1005
1242.684, 355.9245
1243.166, 356.2302
1243.648, 356.6529
1244.130, 357.1810
1244.612, 357.6460
1245.094, 357.8194
1245.577, 357.7918
1246.059, 357.6408
1246.541, 357.3870
1247.023, 357.2591
1247.505, 357.3008
1247.987, 357.3559
1248.469, 357.3774
1248.951, 357.4421
1249.434, 357.7609
1249.916, 358.1002
1250.398, 358.1121
1250.880, 357.8022
1251.362, 356.6910
1251.844, 357.9434
1252.326, 358.6658
1252.808, 358.8867
1253.291, 357.1042
1253.773, 357.9087
1254.255, 357.6765
1254.737, 357.4017
1255.219, 358.5703
1255.701, 357.0791
1256.183, 358.2249
1256.665, 358.3180
1257.147, 358.8929
1257.630, 358.4247
1258.112, 358.2786
1258.594, 359.1760
1259.076, 359.4956
1259.558, 358.9072
1260.040, 359.5127
1260.522, 357.9850
1261.004, 358.3293
1261.487, 357.6798
1261.969, 356.9551
1262.451, 356.9302
1262.933, 357.3612
1263.415, 358.2690
1263.897, 359.4249
1264.379, 360.1201
1264.861, 360.3818
1265.344, 360.3124
1265.826, 359.8846
1266.308, 359.5327
1266.790, 359.6906
1267.272, 359.7714
1267.754, 359.3758
1268.236, 358.8100
1268.718, 358.9883
1269.200, 359.6963
1269.682, 360.1358
1270.165, 360.1318
1270.647, 360.1058
1271.129, 360.2826
1271.611, 360.3993
1272.093, 360.3769
1272.575, 360.2382
1273.057, 359.8381
1273.539, 359.4048
1274.021, 359.5755
1274.504, 360.5284
1274.986, 361.1149
1275.468, 360.9284
1275.950, 360.8168
1276.432, 361.0704
1276.914, 361.4368
1277.396, 361.5172
1277.878, 361.4564
1278.361, 361.4232
1278.843, 361.4434
1279.325, 361.8063
1279.807, 362.7474
1280.289, 363.0840
1280.771, 362.3131
1281.253, 361.4074
1281.735, 361.5257
1282.218, 362.1478
1282.700, 362.8874
1283.182, 363.6475
1283.664, 363.6367
1284.146, 362.7525
1284.628, 362.2671
1285.110, 362.5391
1285.592, 363.0293
1286.074, 363.3670
1286.557, 363.6242
1287.039, 363.9493
1287.521, 364.2342
1288.003, 363.8300
1288.485, 362.8387
1288.967, 362.5721
1289.449, 363.3803
1289.931, 364.3596
1290.414, 365.5611
1290.896, 366.0302
1291.378, 365.0685
1291.860, 363.3768
1292.342, 362.6349
1292.824, 362.6815
1293.306, 363.0578
1293.788, 363.7206
1294.271, 364.1107
1294.753, 363.6408
1295.235, 363.3449
1295.717, 363.5156
1296.199, 363.9583
1296.681, 364.5901
1297.163, 365.1434
1297.645, 364.8470
1298.127, 363.6157
1298.609, 363.4709
1299.092, 365.2119
1299.574, 366.2591
1300.056, 365.9235
1300.538, 365.0848
1301.020, 364.7001
1301.502, 364.5083
1301.984, 364.1631
1302.466, 363.6881
1302.948, 363.5657
1303.431, 363.8344
1303.913, 364.2494
1304.395, 364.8229
##END=



