##NAMES=Montgomeryite
##RRUFFID=R140625
##IDEAL CHEMISTRY=Ca_4_MgAl_4_(PO_4_)_6_(OH)_4_&#183;12H_2_O
##LOCALITY=Near Milgun Station, Meekatharra Shire, Western Australia, Australia
##OWNER=RRUFF
##SOURCE=Rock Currier
##DESCRIPTION=Colorless lathy crystals with striation along the elongated direction. Associated with gordonite (R130671), collinsite (R140626), and hydroxylapatite (R140987).
##STATUS=The identification of this mineral has been confirmed by single-crystal X-ray diffraction.
##URL=rruff.info/R140625
9.059570e+001, 3.376947e+002
9.107782e+001, 3.352199e+002
9.155994e+001, 3.343564e+002
9.204205e+001, 3.365460e+002
9.252417e+001, 3.393556e+002
9.300629e+001, 3.417549e+002
9.348840e+001, 3.417583e+002
9.397052e+001, 3.377007e+002
9.445264e+001, 3.297574e+002
9.493475e+001, 3.228805e+002
9.541687e+001, 3.161091e+002
9.589898e+001, 3.096378e+002
9.638110e+001, 3.034801e+002
9.686321e+001, 2.975831e+002
9.734533e+001, 2.917012e+002
9.782745e+001, 2.853969e+002
9.830956e+001, 2.799871e+002
9.879168e+001, 2.754864e+002
9.927380e+001, 2.715923e+002
9.975591e+001, 2.685463e+002
1.002380e+002, 2.660204e+002
1.007201e+002, 2.632159e+002
1.012023e+002, 2.595954e+002
1.016844e+002, 2.552764e+002
1.021665e+002, 2.510801e+002
1.026486e+002, 2.468132e+002
1.031307e+002, 2.427177e+002
1.036128e+002, 2.390285e+002
1.040950e+002, 2.357194e+002
1.045771e+002, 2.327376e+002
1.050592e+002, 2.299623e+002
1.055413e+002, 2.274037e+002
1.060234e+002, 2.251832e+002
1.065055e+002, 2.234000e+002
1.069877e+002, 2.219825e+002
1.074698e+002, 2.207335e+002
1.079519e+002, 2.202405e+002
1.084340e+002, 2.190972e+002
1.089161e+002, 2.165125e+002
1.093982e+002, 2.128156e+002
1.098804e+002, 2.088362e+002
1.103625e+002, 2.051658e+002
1.108446e+002, 2.017339e+002
1.113267e+002, 1.990840e+002
1.118088e+002, 1.975815e+002
1.122909e+002, 1.964680e+002
1.127731e+002, 1.955715e+002
1.132552e+002, 1.947843e+002
1.137373e+002, 1.939305e+002
1.142194e+002, 1.927441e+002
1.147015e+002, 1.907949e+002
1.151836e+002, 1.892820e+002
1.156658e+002, 1.884655e+002
1.161479e+002, 1.879351e+002
1.166300e+002, 1.873275e+002
1.171121e+002, 1.865154e+002
1.175942e+002, 1.855351e+002
1.180763e+002, 1.844526e+002
1.185584e+002, 1.832669e+002
1.190406e+002, 1.820153e+002
1.195227e+002, 1.805824e+002
1.200048e+002, 1.790711e+002
1.204869e+002, 1.777660e+002
1.209690e+002, 1.768436e+002
1.214511e+002, 1.761954e+002
1.219333e+002, 1.755090e+002
1.224154e+002, 1.747077e+002
1.228975e+002, 1.739942e+002
1.233796e+002, 1.736697e+002
1.238617e+002, 1.738000e+002
1.243438e+002, 1.737425e+002
1.248260e+002, 1.730173e+002
1.253081e+002, 1.720009e+002
1.257902e+002, 1.709779e+002
1.262723e+002, 1.700323e+002
1.267544e+002, 1.691611e+002
1.272365e+002, 1.683857e+002
1.277187e+002, 1.677790e+002
1.282008e+002, 1.671437e+002
1.286829e+002, 1.663654e+002
1.291650e+002, 1.655351e+002
1.296471e+002, 1.647897e+002
1.301292e+002, 1.642345e+002
1.306114e+002, 1.638492e+002
1.310935e+002, 1.633277e+002
1.315756e+002, 1.623803e+002
1.320577e+002, 1.615683e+002
1.325398e+002, 1.611395e+002
1.330219e+002, 1.609837e+002
1.335041e+002, 1.608261e+002
1.339862e+002, 1.604263e+002
1.344683e+002, 1.597462e+002
1.349504e+002, 1.590210e+002
1.354325e+002, 1.582026e+002
1.359146e+002, 1.573847e+002
1.363968e+002, 1.565462e+002
1.368789e+002, 1.557139e+002
1.373610e+002, 1.550482e+002
1.378431e+002, 1.547866e+002
1.383252e+002, 1.550341e+002
1.388073e+002, 1.551798e+002
1.392895e+002, 1.550435e+002
1.397716e+002, 1.548456e+002
1.402537e+002, 1.549337e+002
1.407358e+002, 1.554594e+002
1.412179e+002, 1.559722e+002
1.417000e+002, 1.557809e+002
1.421821e+002, 1.549576e+002
1.426643e+002, 1.541363e+002
1.431464e+002, 1.535588e+002
1.436285e+002, 1.531874e+002
1.441106e+002, 1.528961e+002
1.445927e+002, 1.527280e+002
1.450748e+002, 1.525532e+002
1.455570e+002, 1.522122e+002
1.460391e+002, 1.517074e+002
1.465212e+002, 1.512542e+002
1.470033e+002, 1.510962e+002
1.474854e+002, 1.512746e+002
1.479675e+002, 1.513404e+002
1.484497e+002, 1.511081e+002
1.489318e+002, 1.507957e+002
1.494139e+002, 1.504978e+002
1.498960e+002, 1.502393e+002
1.503781e+002, 1.500081e+002
1.508602e+002, 1.497846e+002
1.513424e+002, 1.495448e+002
1.518245e+002, 1.493687e+002
1.523066e+002, 1.492396e+002
1.527887e+002, 1.491740e+002
1.532708e+002, 1.492285e+002
1.537529e+002, 1.494171e+002
1.542351e+002, 1.496469e+002
1.547172e+002, 1.496776e+002
1.551993e+002, 1.491017e+002
1.556814e+002, 1.488211e+002
1.561635e+002, 1.491097e+002
1.566456e+002, 1.496445e+002
1.571278e+002, 1.500496e+002
1.576099e+002, 1.501376e+002
1.580920e+002, 1.499653e+002
1.585741e+002, 1.497588e+002
1.590562e+002, 1.494597e+002
1.595383e+002, 1.491948e+002
1.600205e+002, 1.490402e+002
1.605026e+002, 1.489470e+002
1.609847e+002, 1.487887e+002
1.614668e+002, 1.484681e+002
1.619489e+002, 1.480429e+002
1.624310e+002, 1.477740e+002
1.629131e+002, 1.478533e+002
1.633953e+002, 1.478960e+002
1.638774e+002, 1.476569e+002
1.643595e+002, 1.471572e+002
1.648416e+002, 1.466183e+002
1.653237e+002, 1.462545e+002
1.658058e+002, 1.459128e+002
1.662880e+002, 1.452469e+002
1.667701e+002, 1.439472e+002
1.672522e+002, 1.425205e+002
1.677343e+002, 1.415652e+002
1.682164e+002, 1.411538e+002
1.686985e+002, 1.408782e+002
1.691807e+002, 1.406460e+002
1.696628e+002, 1.403784e+002
1.701449e+002, 1.399434e+002
1.706270e+002, 1.392198e+002
1.711091e+002, 1.383424e+002
1.715912e+002, 1.376147e+002
1.720734e+002, 1.370597e+002
1.725555e+002, 1.366331e+002
1.730376e+002, 1.363518e+002
1.735197e+002, 1.361525e+002
1.740018e+002, 1.359590e+002
1.744839e+002, 1.357585e+002
1.749661e+002, 1.355255e+002
1.754482e+002, 1.350921e+002
1.759303e+002, 1.342240e+002
1.764124e+002, 1.334074e+002
1.768945e+002, 1.327128e+002
1.773766e+002, 1.321639e+002
1.778588e+002, 1.318136e+002
1.783409e+002, 1.317350e+002
1.788230e+002, 1.319317e+002
1.793051e+002, 1.318878e+002
1.797872e+002, 1.314109e+002
1.802693e+002, 1.308847e+002
1.807515e+002, 1.304454e+002
1.812336e+002, 1.300558e+002
1.817157e+002, 1.295878e+002
1.821978e+002, 1.289130e+002
1.826799e+002, 1.279929e+002
1.831620e+002, 1.272501e+002
1.836441e+002, 1.266863e+002
1.841263e+002, 1.262485e+002
1.846084e+002, 1.259525e+002
1.850905e+002, 1.257771e+002
1.855726e+002, 1.256571e+002
1.860547e+002, 1.255539e+002
1.865368e+002, 1.254758e+002
1.870190e+002, 1.252593e+002
1.875011e+002, 1.248071e+002
1.879832e+002, 1.242953e+002
1.884653e+002, 1.238623e+002
1.889474e+002, 1.235228e+002
1.894296e+002, 1.231777e+002
1.899117e+002, 1.227006e+002
1.903938e+002, 1.221008e+002
1.908759e+002, 1.216142e+002
1.913580e+002, 1.212628e+002
1.918401e+002, 1.210410e+002
1.923223e+002, 1.209978e+002
1.928044e+002, 1.211744e+002
1.932865e+002, 1.213427e+002
1.937686e+002, 1.212350e+002
1.942507e+002, 1.209280e+002
1.947328e+002, 1.206286e+002
1.952150e+002, 1.204030e+002
1.956971e+002, 1.202254e+002
1.961792e+002, 1.200393e+002
1.966613e+002, 1.198263e+002
1.971434e+002, 1.196366e+002
1.976255e+002, 1.195980e+002
1.981077e+002, 1.196266e+002
1.985898e+002, 1.194892e+002
1.990719e+002, 1.188638e+002
1.995540e+002, 1.179199e+002
2.000361e+002, 1.174365e+002
2.005182e+002, 1.177421e+002
2.010004e+002, 1.180920e+002
2.014825e+002, 1.180771e+002
2.019646e+002, 1.177856e+002
2.024467e+002, 1.174426e+002
2.029288e+002, 1.171703e+002
2.034109e+002, 1.169693e+002
2.038930e+002, 1.168764e+002
2.043752e+002, 1.170922e+002
2.048573e+002, 1.172058e+002
2.053394e+002, 1.170965e+002
2.058215e+002, 1.167669e+002
2.063036e+002, 1.162346e+002
2.067857e+002, 1.154449e+002
2.072679e+002, 1.143711e+002
2.077500e+002, 1.135680e+002
2.082321e+002, 1.131960e+002
2.087142e+002, 1.129671e+002
2.091963e+002, 1.129243e+002
2.096784e+002, 1.129742e+002
2.101606e+002, 1.129194e+002
2.106427e+002, 1.125508e+002
2.111248e+002, 1.118106e+002
2.116069e+002, 1.112933e+002
2.120890e+002, 1.112261e+002
2.125711e+002, 1.111485e+002
2.130533e+002, 1.108499e+002
2.135354e+002, 1.103641e+002
2.140175e+002, 1.098528e+002
2.144996e+002, 1.094612e+002
2.149817e+002, 1.092016e+002
2.154638e+002, 1.089883e+002
2.159460e+002, 1.088566e+002
2.164281e+002, 1.087285e+002
2.169102e+002, 1.085615e+002
2.173923e+002, 1.083589e+002
2.178744e+002, 1.081536e+002
2.183565e+002, 1.079831e+002
2.188387e+002, 1.078567e+002
2.193208e+002, 1.076543e+002
2.198029e+002, 1.072407e+002
2.202850e+002, 1.068675e+002
2.207671e+002, 1.067358e+002
2.212492e+002, 1.068281e+002
2.217314e+002, 1.069335e+002
2.222135e+002, 1.068717e+002
2.226956e+002, 1.066255e+002
2.231777e+002, 1.063879e+002
2.236598e+002, 1.060555e+002
2.241419e+002, 1.058044e+002
2.246240e+002, 1.058676e+002
2.251062e+002, 1.062340e+002
2.255883e+002, 1.065205e+002
2.260704e+002, 1.063548e+002
2.265525e+002, 1.057955e+002
2.270346e+002, 1.054011e+002
2.275167e+002, 1.052666e+002
2.279989e+002, 1.052729e+002
2.284810e+002, 1.053693e+002
2.289631e+002, 1.055580e+002
2.294452e+002, 1.056872e+002
2.299273e+002, 1.055714e+002
2.304094e+002, 1.053092e+002
2.308916e+002, 1.051776e+002
2.313737e+002, 1.054438e+002
2.318558e+002, 1.057375e+002
2.323379e+002, 1.055157e+002
2.328200e+002, 1.046854e+002
2.333021e+002, 1.039941e+002
2.337843e+002, 1.040764e+002
2.342664e+002, 1.045838e+002
2.347485e+002, 1.050174e+002
2.352306e+002, 1.052629e+002
2.357127e+002, 1.053726e+002
2.361948e+002, 1.054283e+002
2.366770e+002, 1.054460e+002
2.371591e+002, 1.053403e+002
2.376412e+002, 1.049350e+002
2.381233e+002, 1.044214e+002
2.386054e+002, 1.039979e+002
2.390875e+002, 1.037181e+002
2.395697e+002, 1.035647e+002
2.400518e+002, 1.035313e+002
2.405339e+002, 1.036477e+002
2.410160e+002, 1.037908e+002
2.414981e+002, 1.040110e+002
2.419802e+002, 1.041935e+002
2.424624e+002, 1.042103e+002
2.429445e+002, 1.040051e+002
2.434266e+002, 1.036565e+002
2.439087e+002, 1.032311e+002
2.443908e+002, 1.025948e+002
2.448729e+002, 1.022656e+002
2.453550e+002, 1.026496e+002
2.458372e+002, 1.032388e+002
2.463193e+002, 1.036043e+002
2.468014e+002, 1.035970e+002
2.472835e+002, 1.033789e+002
2.477656e+002, 1.032110e+002
2.482477e+002, 1.030902e+002
2.487299e+002, 1.030347e+002
2.492120e+002, 1.031450e+002
2.496941e+002, 1.032567e+002
2.501762e+002, 1.032502e+002
2.506583e+002, 1.030877e+002
2.511404e+002, 1.028018e+002
2.516226e+002, 1.024053e+002
2.521047e+002, 1.017607e+002
2.525868e+002, 1.013365e+002
2.530689e+002, 1.012497e+002
2.535510e+002, 1.013087e+002
2.540331e+002, 1.014128e+002
2.545153e+002, 1.015248e+002
2.549974e+002, 1.016231e+002
2.554795e+002, 1.016668e+002
2.559616e+002, 1.016074e+002
2.564437e+002, 1.016004e+002
2.569258e+002, 1.016231e+002
2.574080e+002, 1.017051e+002
2.578901e+002, 1.019283e+002
2.583722e+002, 1.022765e+002
2.588543e+002, 1.025974e+002
2.593364e+002, 1.026627e+002
2.598185e+002, 1.023079e+002
2.603007e+002, 1.021120e+002
2.607828e+002, 1.020422e+002
2.612649e+002, 1.021148e+002
2.617470e+002, 1.024600e+002
2.622291e+002, 1.030229e+002
2.627112e+002, 1.035194e+002
2.631934e+002, 1.035994e+002
2.636755e+002, 1.030975e+002
2.641576e+002, 1.027706e+002
2.646397e+002, 1.026496e+002
2.651218e+002, 1.026387e+002
2.656039e+002, 1.027614e+002
2.660861e+002, 1.029713e+002
2.665682e+002, 1.031228e+002
2.670503e+002, 1.030502e+002
2.675324e+002, 1.026874e+002
2.680145e+002, 1.025394e+002
2.684966e+002, 1.028323e+002
2.689788e+002, 1.030899e+002
2.694609e+002, 1.030668e+002
2.699430e+002, 1.027874e+002
2.704251e+002, 1.024123e+002
2.709072e+002, 1.020614e+002
2.713893e+002, 1.017367e+002
2.718715e+002, 1.014453e+002
2.723536e+002, 1.011218e+002
2.728357e+002, 1.008858e+002
2.733178e+002, 1.008225e+002
2.737999e+002, 1.008943e+002
2.742820e+002, 1.009978e+002
2.747642e+002, 1.010624e+002
2.752463e+002, 1.010950e+002
2.757284e+002, 1.011820e+002
2.762105e+002, 1.013869e+002
2.766926e+002, 1.015643e+002
2.771747e+002, 1.017109e+002
2.776568e+002, 1.017947e+002
2.781389e+002, 1.017280e+002
2.786211e+002, 1.014407e+002
2.791032e+002, 1.010001e+002
2.795853e+002, 1.006982e+002
2.800674e+002, 1.004943e+002
2.805495e+002, 1.004385e+002
2.810316e+002, 1.006609e+002
2.815138e+002, 1.010269e+002
2.819959e+002, 1.012891e+002
2.824780e+002, 1.013326e+002
2.829601e+002, 1.012411e+002
2.834422e+002, 1.012221e+002
2.839243e+002, 1.012881e+002
2.844065e+002, 1.013878e+002
2.848886e+002, 1.015585e+002
2.853707e+002, 1.017449e+002
2.858528e+002, 1.018601e+002
2.863349e+002, 1.018725e+002
2.868170e+002, 1.018268e+002
2.872992e+002, 1.017997e+002
2.877813e+002, 1.018090e+002
2.882634e+002, 1.017769e+002
2.887455e+002, 1.015311e+002
2.892276e+002, 1.013020e+002
2.897097e+002, 1.014495e+002
2.901919e+002, 1.020682e+002
2.906740e+002, 1.027884e+002
2.911561e+002, 1.031637e+002
2.916382e+002, 1.031525e+002
2.921203e+002, 1.030782e+002
2.926024e+002, 1.029158e+002
2.930846e+002, 1.027346e+002
2.935667e+002, 1.026198e+002
2.940488e+002, 1.025797e+002
2.945309e+002, 1.025231e+002
2.950130e+002, 1.023388e+002
2.954951e+002, 1.020283e+002
2.959773e+002, 1.018338e+002
2.964594e+002, 1.018371e+002
2.969415e+002, 1.019055e+002
2.974236e+002, 1.019412e+002
2.979057e+002, 1.019413e+002
2.983878e+002, 1.019477e+002
2.988700e+002, 1.019976e+002
2.993521e+002, 1.020788e+002
2.998342e+002, 1.021189e+002
3.003163e+002, 1.022662e+002
3.007984e+002, 1.022408e+002
3.012805e+002, 1.017423e+002
3.017627e+002, 1.008750e+002
3.022448e+002, 1.001119e+002
3.027269e+002, 9.970518e+001
3.032090e+002, 9.957178e+001
3.036911e+002, 9.943198e+001
3.041732e+002, 9.929301e+001
3.046554e+002, 9.913808e+001
3.051375e+002, 9.891984e+001
3.056196e+002, 9.867754e+001
3.061017e+002, 9.855031e+001
3.065838e+002, 9.864674e+001
3.070659e+002, 9.877836e+001
3.075481e+002, 9.851530e+001
3.080302e+002, 9.774783e+001
3.085123e+002, 9.710997e+001
3.089944e+002, 9.686706e+001
3.094765e+002, 9.687386e+001
3.099586e+002, 9.689782e+001
3.104408e+002, 9.688343e+001
3.109229e+002, 9.686342e+001
3.114050e+002, 9.690601e+001
3.118871e+002, 9.701945e+001
3.123692e+002, 9.704075e+001
3.128513e+002, 9.688435e+001
3.133335e+002, 9.664299e+001
3.138156e+002, 9.640248e+001
3.142977e+002, 9.617301e+001
3.147798e+002, 9.599613e+001
3.152619e+002, 9.595069e+001
3.157440e+002, 9.602047e+001
3.162262e+002, 9.597367e+001
3.167083e+002, 9.567498e+001
3.171904e+002, 9.533495e+001
3.176725e+002, 9.516769e+001
3.181546e+002, 9.516260e+001
3.186367e+002, 9.509687e+001
3.191188e+002, 9.480066e+001
3.196010e+002, 9.431892e+001
3.200831e+002, 9.390669e+001
3.205652e+002, 9.358300e+001
3.210473e+002, 9.330489e+001
3.215294e+002, 9.306036e+001
3.220115e+002, 9.284536e+001
3.224937e+002, 9.265618e+001
3.229758e+002, 9.252072e+001
3.234579e+002, 9.237541e+001
3.239400e+002, 9.205920e+001
3.244221e+002, 9.152897e+001
3.249042e+002, 9.096074e+001
3.253864e+002, 9.028183e+001
3.258685e+002, 8.962449e+001
3.263506e+002, 8.929372e+001
3.268327e+002, 8.943633e+001
3.273148e+002, 8.974239e+001
3.277969e+002, 8.972015e+001
3.282791e+002, 8.933768e+001
3.287612e+002, 8.891830e+001
3.292433e+002, 8.844427e+001
3.297254e+002, 8.799965e+001
3.302075e+002, 8.769205e+001
3.306896e+002, 8.754005e+001
3.311718e+002, 8.747328e+001
3.316539e+002, 8.744552e+001
3.321360e+002, 8.746024e+001
3.326181e+002, 8.741235e+001
3.331002e+002, 8.718320e+001
3.335823e+002, 8.697806e+001
3.340645e+002, 8.699319e+001
3.345466e+002, 8.720591e+001
3.350287e+002, 8.741257e+001
3.355108e+002, 8.749515e+001
3.359929e+002, 8.744244e+001
3.364750e+002, 8.723838e+001
3.369572e+002, 8.665099e+001
3.374393e+002, 8.616848e+001
3.379214e+002, 8.607009e+001
3.384035e+002, 8.623479e+001
3.388856e+002, 8.638574e+001
3.393677e+002, 8.640320e+001
3.398499e+002, 8.630938e+001
3.403320e+002, 8.614617e+001
3.408141e+002, 8.584966e+001
3.412962e+002, 8.560909e+001
3.417783e+002, 8.556422e+001
3.422604e+002, 8.555750e+001
3.427426e+002, 8.532026e+001
3.432247e+002, 8.477603e+001
3.437068e+002, 8.419958e+001
3.441889e+002, 8.398512e+001
3.446710e+002, 8.429651e+001
3.451531e+002, 8.453913e+001
3.456353e+002, 8.468149e+001
3.461174e+002, 8.477319e+001
3.465995e+002, 8.491174e+001
3.470816e+002, 8.507333e+001
3.475637e+002, 8.505794e+001
3.480458e+002, 8.463328e+001
3.485280e+002, 8.376518e+001
3.490101e+002, 8.326477e+001
3.494922e+002, 8.331184e+001
3.499743e+002, 8.347594e+001
3.504564e+002, 8.366597e+001
3.509385e+002, 8.383163e+001
3.514207e+002, 8.388124e+001
3.519028e+002, 8.374928e+001
3.523849e+002, 8.348674e+001
3.528670e+002, 8.331127e+001
3.533491e+002, 8.329336e+001
3.538312e+002, 8.327513e+001
3.543134e+002, 8.319233e+001
3.547955e+002, 8.311757e+001
3.552776e+002, 8.316764e+001
3.557597e+002, 8.337818e+001
3.562418e+002, 8.363383e+001
3.567239e+002, 8.374098e+001
3.572061e+002, 8.364188e+001
3.576882e+002, 8.349192e+001
3.581703e+002, 8.326120e+001
3.586524e+002, 8.300643e+001
3.591345e+002, 8.268035e+001
3.596166e+002, 8.233213e+001
3.600987e+002, 8.216778e+001
3.605808e+002, 8.243413e+001
3.610630e+002, 8.320741e+001
3.615451e+002, 8.366362e+001
3.620272e+002, 8.357080e+001
3.625093e+002, 8.342420e+001
3.629914e+002, 8.336945e+001
3.634735e+002, 8.338317e+001
3.639557e+002, 8.339683e+001
3.644378e+002, 8.337032e+001
3.649199e+002, 8.330743e+001
3.654020e+002, 8.321989e+001
3.658841e+002, 8.304494e+001
3.663662e+002, 8.293648e+001
3.668484e+002, 8.289776e+001
3.673305e+002, 8.293709e+001
3.678126e+002, 8.308260e+001
3.682947e+002, 8.333681e+001
3.687768e+002, 8.364150e+001
3.692589e+002, 8.394337e+001
3.697411e+002, 8.433606e+001
3.702232e+002, 8.445339e+001
3.707053e+002, 8.392461e+001
3.711874e+002, 8.343543e+001
3.716695e+002, 8.337547e+001
3.721516e+002, 8.372179e+001
3.726338e+002, 8.419274e+001
3.731159e+002, 8.455765e+001
3.735980e+002, 8.481877e+001
3.740801e+002, 8.508292e+001
3.745622e+002, 8.543835e+001
3.750443e+002, 8.567696e+001
3.755265e+002, 8.564194e+001
3.760086e+002, 8.547339e+001
3.764907e+002, 8.540248e+001
3.769728e+002, 8.556636e+001
3.774549e+002, 8.583062e+001
3.779370e+002, 8.585483e+001
3.784192e+002, 8.550366e+001
3.789013e+002, 8.529894e+001
3.793834e+002, 8.548232e+001
3.798655e+002, 8.580613e+001
3.803476e+002, 8.608048e+001
3.808297e+002, 8.626844e+001
3.813119e+002, 8.648176e+001
3.817940e+002, 8.690139e+001
3.822761e+002, 8.752062e+001
3.827582e+002, 8.791753e+001
3.832403e+002, 8.785180e+001
3.837224e+002, 8.777182e+001
3.842046e+002, 8.803309e+001
3.846867e+002, 8.854865e+001
3.851688e+002, 8.900301e+001
3.856509e+002, 8.920905e+001
3.861330e+002, 8.923632e+001
3.866151e+002, 8.922459e+001
3.870973e+002, 8.915898e+001
3.875794e+002, 8.910695e+001
3.880615e+002, 8.912489e+001
3.885436e+002, 8.917513e+001
3.890257e+002, 8.918221e+001
3.895078e+002, 8.904976e+001
3.899900e+002, 8.902091e+001
3.904721e+002, 8.946656e+001
3.909542e+002, 9.030195e+001
3.914363e+002, 9.083630e+001
3.919184e+002, 9.078720e+001
3.924005e+002, 9.039815e+001
3.928827e+002, 8.998428e+001
3.933648e+002, 8.954086e+001
3.938469e+002, 8.913094e+001
3.943290e+002, 8.870538e+001
3.948111e+002, 8.835361e+001
3.952932e+002, 8.830889e+001
3.957754e+002, 8.863689e+001
3.962575e+002, 8.891228e+001
3.967396e+002, 8.866493e+001
3.972217e+002, 8.796101e+001
3.977038e+002, 8.760312e+001
3.981859e+002, 8.804118e+001
3.986681e+002, 8.846761e+001
3.991501e+002, 8.828484e+001
3.996323e+002, 8.761954e+001
4.001144e+002, 8.695087e+001
4.005965e+002, 8.650237e+001
4.010786e+002, 8.622993e+001
4.015607e+002, 8.602905e+001
4.020428e+002, 8.593340e+001
4.025250e+002, 8.583572e+001
4.030071e+002, 8.570640e+001
4.034892e+002, 8.556989e+001
4.039713e+002, 8.547775e+001
4.044534e+002, 8.543566e+001
4.049355e+002, 8.536347e+001
4.054177e+002, 8.516161e+001
4.058998e+002, 8.480226e+001
4.063819e+002, 8.444671e+001
4.068640e+002, 8.404941e+001
4.073461e+002, 8.369939e+001
4.078282e+002, 8.342454e+001
4.083104e+002, 8.323197e+001
4.087925e+002, 8.314059e+001
4.092746e+002, 8.317105e+001
4.097567e+002, 8.328807e+001
4.102388e+002, 8.332889e+001
4.107209e+002, 8.325760e+001
4.112031e+002, 8.314823e+001
4.116852e+002, 8.290589e+001
4.121673e+002, 8.268354e+001
4.126494e+002, 8.270415e+001
4.131315e+002, 8.299168e+001
4.136136e+002, 8.327064e+001
4.140958e+002, 8.312276e+001
4.145779e+002, 8.238669e+001
4.150600e+002, 8.186961e+001
4.155421e+002, 8.160446e+001
4.160242e+002, 8.154036e+001
4.165063e+002, 8.181234e+001
4.169885e+002, 8.228123e+001
4.174706e+002, 8.264236e+001
4.179527e+002, 8.269210e+001
4.184348e+002, 8.250399e+001
4.189169e+002, 8.228781e+001
4.193990e+002, 8.192737e+001
4.198812e+002, 8.180972e+001
4.203633e+002, 8.241333e+001
4.208454e+002, 8.310698e+001
4.213275e+002, 8.322304e+001
4.218096e+002, 8.258857e+001
4.222917e+002, 8.179318e+001
4.227739e+002, 8.142123e+001
4.232560e+002, 8.145708e+001
4.237381e+002, 8.156985e+001
4.242202e+002, 8.176904e+001
4.247023e+002, 8.195529e+001
4.251844e+002, 8.201096e+001
4.256666e+002, 8.198078e+001
4.261487e+002, 8.203211e+001
4.266308e+002, 8.235174e+001
4.271129e+002, 8.274040e+001
4.275950e+002, 8.286012e+001
4.280771e+002, 8.269401e+001
4.285593e+002, 8.254734e+001
4.290414e+002, 8.260732e+001
4.295235e+002, 8.277858e+001
4.300056e+002, 8.282844e+001
4.304877e+002, 8.268118e+001
4.309698e+002, 8.258495e+001
4.314520e+002, 8.271035e+001
4.319341e+002, 8.296641e+001
4.324162e+002, 8.317138e+001
4.328983e+002, 8.327724e+001
4.333804e+002, 8.334333e+001
4.338625e+002, 8.342593e+001
4.343447e+002, 8.352381e+001
4.348268e+002, 8.367294e+001
4.353089e+002, 8.395831e+001
4.357910e+002, 8.422363e+001
4.362731e+002, 8.433480e+001
4.367552e+002, 8.432764e+001
4.372374e+002, 8.434209e+001
4.377195e+002, 8.446379e+001
4.382016e+002, 8.465890e+001
4.386837e+002, 8.479664e+001
4.391658e+002, 8.467110e+001
4.396479e+002, 8.475608e+001
4.401301e+002, 8.522063e+001
4.406122e+002, 8.583141e+001
4.410943e+002, 8.641050e+001
4.415764e+002, 8.689986e+001
4.420585e+002, 8.728578e+001
4.425406e+002, 8.753319e+001
4.430227e+002, 8.761756e+001
4.435049e+002, 8.774992e+001
4.439870e+002, 8.795751e+001
4.444691e+002, 8.818615e+001
4.449512e+002, 8.840430e+001
4.454333e+002, 8.863441e+001
4.459154e+002, 8.891111e+001
4.463976e+002, 8.924749e+001
4.468797e+002, 8.965298e+001
4.473618e+002, 9.017875e+001
4.478439e+002, 9.090051e+001
4.483260e+002, 9.151403e+001
4.488081e+002, 9.182540e+001
4.492903e+002, 9.211438e+001
4.497724e+002, 9.261599e+001
4.502545e+002, 9.331219e+001
4.507366e+002, 9.392905e+001
4.512187e+002, 9.411308e+001
4.517008e+002, 9.401519e+001
4.521830e+002, 9.437378e+001
4.526651e+002, 9.545011e+001
4.531472e+002, 9.635509e+001
4.536293e+002, 9.631663e+001
4.541114e+002, 9.583205e+001
4.545935e+002, 9.559097e+001
4.550757e+002, 9.578767e+001
4.555578e+002, 9.615865e+001
4.560399e+002, 9.653068e+001
4.565220e+002, 9.690196e+001
4.570041e+002, 9.727937e+001
4.574862e+002, 9.767836e+001
4.579684e+002, 9.805637e+001
4.584505e+002, 9.836941e+001
4.589326e+002, 9.862521e+001
4.594147e+002, 9.877652e+001
4.598968e+002, 9.884166e+001
4.603789e+002, 9.877900e+001
4.608611e+002, 9.845680e+001
4.613432e+002, 9.793242e+001
4.618253e+002, 9.752480e+001
4.623074e+002, 9.746765e+001
4.627895e+002, 9.763612e+001
4.632716e+002, 9.750095e+001
4.637538e+002, 9.683287e+001
4.642359e+002, 9.618517e+001
4.647180e+002, 9.561060e+001
4.652001e+002, 9.508475e+001
4.656822e+002, 9.460374e+001
4.661643e+002, 9.415469e+001
4.666465e+002, 9.369396e+001
4.671286e+002, 9.316781e+001
4.676107e+002, 9.255984e+001
4.680928e+002, 9.200072e+001
4.685749e+002, 9.156007e+001
4.690570e+002, 9.109249e+001
4.695392e+002, 9.049467e+001
4.700213e+002, 8.986336e+001
4.705034e+002, 8.937089e+001
4.709855e+002, 8.909840e+001
4.714676e+002, 8.890402e+001
4.719497e+002, 8.851962e+001
4.724319e+002, 8.789254e+001
4.729140e+002, 8.730920e+001
4.733961e+002, 8.675912e+001
4.738782e+002, 8.631772e+001
4.743603e+002, 8.608469e+001
4.748424e+002, 8.601798e+001
4.753246e+002, 8.594244e+001
4.758067e+002, 8.578927e+001
4.762888e+002, 8.554689e+001
4.767709e+002, 8.516403e+001
4.772530e+002, 8.462345e+001
4.777351e+002, 8.404903e+001
4.782173e+002, 8.336242e+001
4.786994e+002, 8.276103e+001
4.791815e+002, 8.260396e+001
4.796636e+002, 8.305434e+001
4.801457e+002, 8.340061e+001
4.806278e+002, 8.317731e+001
4.811100e+002, 8.263638e+001
4.815920e+002, 8.221944e+001
4.820742e+002, 8.200377e+001
4.825563e+002, 8.189745e+001
4.830384e+002, 8.185420e+001
4.835205e+002, 8.186723e+001
4.840026e+002, 8.175603e+001
4.844847e+002, 8.133455e+001
4.849669e+002, 8.099753e+001
4.854490e+002, 8.098801e+001
4.859311e+002, 8.115364e+001
4.864132e+002, 8.120608e+001
4.868953e+002, 8.103881e+001
4.873774e+002, 8.079639e+001
4.878596e+002, 8.072053e+001
4.883417e+002, 8.087804e+001
4.888238e+002, 8.102358e+001
4.893059e+002, 8.122433e+001
4.897880e+002, 8.135247e+001
4.902701e+002, 8.133676e+001
4.907523e+002, 8.119817e+001
4.912344e+002, 8.097050e+001
4.917165e+002, 8.065429e+001
4.921986e+002, 8.032134e+001
4.926807e+002, 8.018117e+001
4.931628e+002, 8.029160e+001
4.936450e+002, 8.043648e+001
4.941271e+002, 8.062693e+001
4.946092e+002, 8.079612e+001
4.950913e+002, 8.085377e+001
4.955734e+002, 8.081666e+001
4.960555e+002, 8.084900e+001
4.965377e+002, 8.114423e+001
4.970198e+002, 8.158805e+001
4.975019e+002, 8.184946e+001
4.979840e+002, 8.189049e+001
4.984661e+002, 8.189659e+001
4.989482e+002, 8.195317e+001
4.994304e+002, 8.204629e+001
4.999125e+002, 8.215053e+001
5.003946e+002, 8.227692e+001
5.008767e+002, 8.238522e+001
5.013588e+002, 8.235922e+001
5.018409e+002, 8.232751e+001
5.023231e+002, 8.259402e+001
5.028052e+002, 8.322487e+001
5.032873e+002, 8.385346e+001
5.037694e+002, 8.412712e+001
5.042515e+002, 8.403170e+001
5.047336e+002, 8.392562e+001
5.052158e+002, 8.373256e+001
5.056979e+002, 8.361461e+001
5.061800e+002, 8.364263e+001
5.066621e+002, 8.377864e+001
5.071442e+002, 8.398116e+001
5.076263e+002, 8.423132e+001
5.081085e+002, 8.449556e+001
5.085906e+002, 8.473033e+001
5.090727e+002, 8.495515e+001
5.095548e+002, 8.507883e+001
5.100369e+002, 8.505801e+001
5.105190e+002, 8.497765e+001
5.110012e+002, 8.482330e+001
5.114833e+002, 8.463821e+001
5.119654e+002, 8.452532e+001
5.124475e+002, 8.456921e+001
5.129296e+002, 8.459766e+001
5.134117e+002, 8.419411e+001
5.138939e+002, 8.326122e+001
5.143760e+002, 8.266640e+001
5.148581e+002, 8.294594e+001
5.153402e+002, 8.326714e+001
5.158223e+002, 8.278837e+001
5.163044e+002, 8.164683e+001
5.167866e+002, 8.078761e+001
5.172687e+002, 8.087589e+001
5.177508e+002, 8.130421e+001
5.182329e+002, 8.128122e+001
5.187150e+002, 8.082375e+001
5.191971e+002, 8.033051e+001
5.196793e+002, 7.997746e+001
5.201614e+002, 7.971404e+001
5.206435e+002, 7.943075e+001
5.211256e+002, 7.909933e+001
5.216077e+002, 7.882720e+001
5.220898e+002, 7.865337e+001
5.225720e+002, 7.853202e+001
5.230541e+002, 7.845126e+001
5.235362e+002, 7.839301e+001
5.240183e+002, 7.829832e+001
5.245004e+002, 7.811685e+001
5.249825e+002, 7.787611e+001
5.254647e+002, 7.771481e+001
5.259468e+002, 7.766331e+001
5.264289e+002, 7.765788e+001
5.269110e+002, 7.783716e+001
5.273931e+002, 7.795913e+001
5.278752e+002, 7.775623e+001
5.283574e+002, 7.724686e+001
5.288395e+002, 7.673495e+001
5.293216e+002, 7.651506e+001
5.298037e+002, 7.652974e+001
5.302858e+002, 7.641936e+001
5.307679e+002, 7.614615e+001
5.312501e+002, 7.583559e+001
5.317322e+002, 7.547595e+001
5.322143e+002, 7.513828e+001
5.326964e+002, 7.489211e+001
5.331785e+002, 7.474874e+001
5.336606e+002, 7.469486e+001
5.341428e+002, 7.481067e+001
5.346249e+002, 7.499215e+001
5.351070e+002, 7.501173e+001
5.355891e+002, 7.483582e+001
5.360712e+002, 7.454808e+001
5.365533e+002, 7.415482e+001
5.370355e+002, 7.369985e+001
5.375176e+002, 7.344469e+001
5.379997e+002, 7.356050e+001
5.384818e+002, 7.364656e+001
5.389639e+002, 7.357898e+001
5.394460e+002, 7.342447e+001
5.399282e+002, 7.326265e+001
5.404103e+002, 7.311164e+001
5.408924e+002, 7.294175e+001
5.413745e+002, 7.271347e+001
5.418566e+002, 7.242305e+001
5.423387e+002, 7.220304e+001
5.428209e+002, 7.201263e+001
5.433029e+002, 7.195406e+001
5.437850e+002, 7.221131e+001
5.442672e+002, 7.253198e+001
5.447493e+002, 7.260244e+001
5.452314e+002, 7.234853e+001
5.457135e+002, 7.201143e+001
5.461956e+002, 7.190043e+001
5.466777e+002, 7.198315e+001
5.471599e+002, 7.182486e+001
5.476420e+002, 7.122741e+001
5.481241e+002, 7.076206e+001
5.486062e+002, 7.103006e+001
5.490883e+002, 7.161516e+001
5.495704e+002, 7.181874e+001
5.500526e+002, 7.137295e+001
5.505347e+002, 7.085993e+001
5.510168e+002, 7.064782e+001
5.514989e+002, 7.062966e+001
5.519810e+002, 7.056809e+001
5.524631e+002, 7.041167e+001
5.529453e+002, 7.029402e+001
5.534274e+002, 7.035714e+001
5.539095e+002, 7.060227e+001
5.543916e+002, 7.076109e+001
5.548737e+002, 7.083875e+001
5.553558e+002, 7.083845e+001
5.558380e+002, 7.059915e+001
5.563201e+002, 7.035548e+001
5.568022e+002, 7.050109e+001
5.572843e+002, 7.108556e+001
5.577664e+002, 7.165445e+001
5.582485e+002, 7.163466e+001
5.587307e+002, 7.099913e+001
5.592128e+002, 7.054781e+001
5.596949e+002, 7.026707e+001
5.601770e+002, 7.021693e+001
5.606591e+002, 7.065062e+001
5.611412e+002, 7.119121e+001
5.616234e+002, 7.130502e+001
5.621055e+002, 7.081883e+001
5.625876e+002, 7.033636e+001
5.630697e+002, 7.050499e+001
5.635518e+002, 7.110991e+001
5.640339e+002, 7.140554e+001
5.645161e+002, 7.126685e+001
5.649982e+002, 7.101830e+001
5.654803e+002, 7.083971e+001
5.659624e+002, 7.074512e+001
5.664445e+002, 7.075971e+001
5.669266e+002, 7.097193e+001
5.674088e+002, 7.116624e+001
5.678909e+002, 7.126064e+001
5.683730e+002, 7.130054e+001
5.688551e+002, 7.135756e+001
5.693372e+002, 7.143633e+001
5.698193e+002, 7.145213e+001
5.703015e+002, 7.129218e+001
5.707836e+002, 7.097932e+001
5.712657e+002, 7.097221e+001
5.717478e+002, 7.155750e+001
5.722299e+002, 7.207446e+001
5.727120e+002, 7.249946e+001
5.731942e+002, 7.276767e+001
5.736763e+002, 7.272257e+001
5.741584e+002, 7.239124e+001
5.746405e+002, 7.211742e+001
5.751226e+002, 7.230880e+001
5.756047e+002, 7.282014e+001
5.760869e+002, 7.299145e+001
5.765690e+002, 7.272382e+001
5.770511e+002, 7.253426e+001
5.775332e+002, 7.273094e+001
5.780153e+002, 7.311530e+001
5.784974e+002, 7.336600e+001
5.789796e+002, 7.346131e+001
5.794617e+002, 7.349815e+001
5.799438e+002, 7.344549e+001
5.804259e+002, 7.339363e+001
5.809080e+002, 7.347871e+001
5.813901e+002, 7.368636e+001
5.818723e+002, 7.386424e+001
5.823544e+002, 7.391109e+001
5.828365e+002, 7.386752e+001
5.833186e+002, 7.386893e+001
5.838007e+002, 7.388538e+001
5.842828e+002, 7.400197e+001
5.847650e+002, 7.445324e+001
5.852471e+002, 7.480499e+001
5.857292e+002, 7.461605e+001
5.862113e+002, 7.405103e+001
5.866934e+002, 7.368484e+001
5.871755e+002, 7.392545e+001
5.876577e+002, 7.449696e+001
5.881398e+002, 7.475473e+001
5.886219e+002, 7.465134e+001
5.891040e+002, 7.456216e+001
5.895861e+002, 7.461182e+001
5.900682e+002, 7.466393e+001
5.905504e+002, 7.453426e+001
5.910325e+002, 7.426527e+001
5.915146e+002, 7.414347e+001
5.919967e+002, 7.445881e+001
5.924788e+002, 7.478436e+001
5.929609e+002, 7.463429e+001
5.934431e+002, 7.418370e+001
5.939252e+002, 7.399673e+001
5.944073e+002, 7.429140e+001
5.948894e+002, 7.477985e+001
5.953715e+002, 7.508040e+001
5.958536e+002, 7.518875e+001
5.963358e+002, 7.511267e+001
5.968179e+002, 7.472598e+001
5.973000e+002, 7.432413e+001
5.977821e+002, 7.392048e+001
5.982642e+002, 7.359832e+001
5.987463e+002, 7.349332e+001
5.992285e+002, 7.364517e+001
5.997106e+002, 7.388611e+001
6.001927e+002, 7.407249e+001
6.006748e+002, 7.419872e+001
6.011569e+002, 7.404866e+001
6.016390e+002, 7.345958e+001
6.021212e+002, 7.292151e+001
6.026033e+002, 7.280118e+001
6.030854e+002, 7.288538e+001
6.035675e+002, 7.285304e+001
6.040496e+002, 7.262329e+001
6.045317e+002, 7.240477e+001
6.050139e+002, 7.227671e+001
6.054960e+002, 7.223528e+001
6.059781e+002, 7.234789e+001
6.064602e+002, 7.259077e+001
6.069423e+002, 7.271072e+001
6.074244e+002, 7.250428e+001
6.079066e+002, 7.205229e+001
6.083887e+002, 7.171892e+001
6.088708e+002, 7.166375e+001
6.093529e+002, 7.150185e+001
6.098350e+002, 7.101968e+001
6.103171e+002, 7.059168e+001
6.107993e+002, 7.056158e+001
6.112814e+002, 7.084467e+001
6.117635e+002, 7.107798e+001
6.122456e+002, 7.102440e+001
6.127277e+002, 7.079427e+001
6.132098e+002, 7.062174e+001
6.136920e+002, 7.051498e+001
6.141741e+002, 7.034309e+001
6.146562e+002, 7.001138e+001
6.151383e+002, 6.968562e+001
6.156204e+002, 6.958929e+001
6.161025e+002, 6.967321e+001
6.165847e+002, 6.963026e+001
6.170668e+002, 6.921610e+001
6.175489e+002, 6.883691e+001
6.180310e+002, 6.888283e+001
6.185131e+002, 6.912890e+001
6.189952e+002, 6.903265e+001
6.194774e+002, 6.844846e+001
6.199595e+002, 6.785033e+001
6.204416e+002, 6.784145e+001
6.209237e+002, 6.848124e+001
6.214058e+002, 6.880265e+001
6.218879e+002, 6.854888e+001
6.223701e+002, 6.827807e+001
6.228522e+002, 6.813546e+001
6.233343e+002, 6.801555e+001
6.238164e+002, 6.776434e+001
6.242985e+002, 6.737016e+001
6.247806e+002, 6.703907e+001
6.252628e+002, 6.692294e+001
6.257448e+002, 6.700023e+001
6.262269e+002, 6.730707e+001
6.267090e+002, 6.787894e+001
6.271912e+002, 6.823081e+001
6.276733e+002, 6.803795e+001
6.281554e+002, 6.759785e+001
6.286375e+002, 6.751707e+001
6.291196e+002, 6.789095e+001
6.296017e+002, 6.809706e+001
6.300839e+002, 6.791389e+001
6.305660e+002, 6.765113e+001
6.310481e+002, 6.749112e+001
6.315302e+002, 6.742989e+001
6.320123e+002, 6.741853e+001
6.324944e+002, 6.743478e+001
6.329766e+002, 6.747144e+001
6.334587e+002, 6.751099e+001
6.339408e+002, 6.754460e+001
6.344229e+002, 6.763412e+001
6.349050e+002, 6.786250e+001
6.353871e+002, 6.803640e+001
6.358693e+002, 6.801350e+001
6.363514e+002, 6.790739e+001
6.368335e+002, 6.791988e+001
6.373156e+002, 6.813852e+001
6.377977e+002, 6.829337e+001
6.382798e+002, 6.809807e+001
6.387620e+002, 6.773555e+001
6.392441e+002, 6.751933e+001
6.397262e+002, 6.749037e+001
6.402083e+002, 6.767378e+001
6.406904e+002, 6.816160e+001
6.411725e+002, 6.878828e+001
6.416547e+002, 6.899546e+001
6.421368e+002, 6.826681e+001
6.426189e+002, 6.787361e+001
6.431010e+002, 6.807471e+001
6.435831e+002, 6.837888e+001
6.440652e+002, 6.851832e+001
6.445474e+002, 6.849425e+001
6.450295e+002, 6.838583e+001
6.455116e+002, 6.822185e+001
6.459937e+002, 6.805417e+001
6.464758e+002, 6.796767e+001
6.469579e+002, 6.796198e+001
6.474401e+002, 6.799087e+001
6.479222e+002, 6.805532e+001
6.484043e+002, 6.813900e+001
6.488864e+002, 6.826975e+001
6.493685e+002, 6.841023e+001
6.498506e+002, 6.843761e+001
6.503328e+002, 6.830846e+001
6.508149e+002, 6.811937e+001
6.512970e+002, 6.782987e+001
6.517791e+002, 6.754426e+001
6.522612e+002, 6.742701e+001
6.527433e+002, 6.746774e+001
6.532255e+002, 6.748554e+001
6.537076e+002, 6.733650e+001
6.541897e+002, 6.708231e+001
6.546718e+002, 6.697178e+001
6.551539e+002, 6.711124e+001
6.556360e+002, 6.713557e+001
6.561182e+002, 6.686217e+001
6.566003e+002, 6.657241e+001
6.570824e+002, 6.642914e+001
6.575645e+002, 6.639835e+001
6.580466e+002, 6.634953e+001
6.585287e+002, 6.619157e+001
6.590109e+002, 6.606299e+001
6.594930e+002, 6.618020e+001
6.599751e+002, 6.642902e+001
6.604572e+002, 6.646865e+001
6.609393e+002, 6.622189e+001
6.614214e+002, 6.588754e+001
6.619036e+002, 6.563773e+001
6.623857e+002, 6.545958e+001
6.628678e+002, 6.521700e+001
6.633499e+002, 6.474867e+001
6.638320e+002, 6.443331e+001
6.643141e+002, 6.448168e+001
6.647963e+002, 6.455807e+001
6.652784e+002, 6.434429e+001
6.657605e+002, 6.389127e+001
6.662426e+002, 6.349649e+001
6.667247e+002, 6.333839e+001
6.672068e+002, 6.334916e+001
6.676890e+002, 6.348092e+001
6.681711e+002, 6.372502e+001
6.686532e+002, 6.373914e+001
6.691353e+002, 6.337176e+001
6.696174e+002, 6.293977e+001
6.700995e+002, 6.276205e+001
6.705817e+002, 6.280797e+001
6.710638e+002, 6.274530e+001
6.715459e+002, 6.240843e+001
6.720280e+002, 6.215950e+001
6.725101e+002, 6.224664e+001
6.729922e+002, 6.240150e+001
6.734744e+002, 6.231190e+001
6.739565e+002, 6.196233e+001
6.744386e+002, 6.154731e+001
6.749207e+002, 6.120004e+001
6.754028e+002, 6.091885e+001
6.758849e+002, 6.070489e+001
6.763671e+002, 6.057182e+001
6.768492e+002, 6.044239e+001
6.773313e+002, 6.026759e+001
6.778134e+002, 6.013187e+001
6.782955e+002, 6.016250e+001
6.787776e+002, 6.029509e+001
6.792598e+002, 6.029058e+001
6.797419e+002, 5.998308e+001
6.802240e+002, 5.966927e+001
6.807061e+002, 5.957839e+001
6.811882e+002, 5.957331e+001
6.816703e+002, 5.940916e+001
6.821525e+002, 5.906139e+001
6.826346e+002, 5.871038e+001
6.831167e+002, 5.850319e+001
6.835988e+002, 5.841643e+001
6.840809e+002, 5.834063e+001
6.845630e+002, 5.830960e+001
6.850452e+002, 5.821608e+001
6.855273e+002, 5.798191e+001
6.860094e+002, 5.773797e+001
6.864915e+002, 5.754976e+001
6.869736e+002, 5.741442e+001
6.874557e+002, 5.730970e+001
6.879379e+002, 5.723329e+001
6.884200e+002, 5.717461e+001
6.889021e+002, 5.712098e+001
6.893842e+002, 5.707833e+001
6.898663e+002, 5.709155e+001
6.903484e+002, 5.716457e+001
6.908306e+002, 5.715813e+001
6.913127e+002, 5.693785e+001
6.917948e+002, 5.656633e+001
6.922769e+002, 5.636276e+001
6.927590e+002, 5.653315e+001
6.932411e+002, 5.654144e+001
6.937233e+002, 5.612017e+001
6.942054e+002, 5.576290e+001
6.946875e+002, 5.583852e+001
6.951696e+002, 5.622309e+001
6.956517e+002, 5.657276e+001
6.961339e+002, 5.675898e+001
6.966160e+002, 5.679165e+001
6.970981e+002, 5.659853e+001
6.975802e+002, 5.625542e+001
6.980623e+002, 5.603257e+001
6.985444e+002, 5.597535e+001
6.990266e+002, 5.597610e+001
6.995087e+002, 5.595171e+001
6.999908e+002, 5.593194e+001
7.004729e+002, 5.603611e+001
7.009550e+002, 5.654267e+001
7.014371e+002, 5.673759e+001
7.019193e+002, 5.637557e+001
7.024014e+002, 5.591808e+001
7.028835e+002, 5.552877e+001
7.033656e+002, 5.528656e+001
7.038477e+002, 5.534162e+001
7.043298e+002, 5.578802e+001
7.048120e+002, 5.627612e+001
7.052941e+002, 5.632737e+001
7.057762e+002, 5.603068e+001
7.062583e+002, 5.582785e+001
7.067404e+002, 5.577406e+001
7.072225e+002, 5.570817e+001
7.077046e+002, 5.550356e+001
7.081867e+002, 5.524829e+001
7.086688e+002, 5.518972e+001
7.091509e+002, 5.546823e+001
7.096331e+002, 5.557362e+001
7.101152e+002, 5.528095e+001
7.105973e+002, 5.499232e+001
7.110794e+002, 5.498840e+001
7.115615e+002, 5.514728e+001
7.120436e+002, 5.521668e+001
7.125258e+002, 5.510677e+001
7.130079e+002, 5.495818e+001
7.134900e+002, 5.493692e+001
7.139721e+002, 5.502147e+001
7.144542e+002, 5.510248e+001
7.149363e+002, 5.518221e+001
7.154185e+002, 5.521873e+001
7.159006e+002, 5.517170e+001
7.163827e+002, 5.509232e+001
7.168648e+002, 5.506969e+001
7.173469e+002, 5.511251e+001
7.178290e+002, 5.515276e+001
7.183112e+002, 5.523613e+001
7.187933e+002, 5.526111e+001
7.192754e+002, 5.509966e+001
7.197575e+002, 5.488045e+001
7.202396e+002, 5.480308e+001
7.207217e+002, 5.490920e+001
7.212039e+002, 5.506132e+001
7.216860e+002, 5.515303e+001
7.221681e+002, 5.517603e+001
7.226502e+002, 5.503983e+001
7.231323e+002, 5.470317e+001
7.236144e+002, 5.456346e+001
7.240966e+002, 5.483006e+001
7.245787e+002, 5.522108e+001
7.250608e+002, 5.545551e+001
7.255429e+002, 5.553400e+001
7.260250e+002, 5.540502e+001
7.265071e+002, 5.477676e+001
7.269893e+002, 5.428730e+001
7.274714e+002, 5.427495e+001
7.279535e+002, 5.445780e+001
7.284356e+002, 5.453582e+001
7.289177e+002, 5.446464e+001
7.293998e+002, 5.434290e+001
7.298820e+002, 5.422549e+001
7.303641e+002, 5.413567e+001
7.308462e+002, 5.411602e+001
7.313283e+002, 5.416547e+001
7.318104e+002, 5.435408e+001
7.322925e+002, 5.478219e+001
7.327747e+002, 5.514357e+001
7.332568e+002, 5.510415e+001
7.337389e+002, 5.476915e+001
7.342210e+002, 5.471267e+001
7.347031e+002, 5.525850e+001
7.351852e+002, 5.558000e+001
7.356674e+002, 5.538004e+001
7.361495e+002, 5.499671e+001
7.366316e+002, 5.458061e+001
7.371137e+002, 5.423467e+001
7.375958e+002, 5.416844e+001
7.380779e+002, 5.450938e+001
7.385601e+002, 5.493535e+001
7.390422e+002, 5.491699e+001
7.395243e+002, 5.450914e+001
7.400064e+002, 5.422601e+001
7.404885e+002, 5.410444e+001
7.409706e+002, 5.413914e+001
7.414528e+002, 5.439675e+001
7.419349e+002, 5.476093e+001
7.424170e+002, 5.497091e+001
7.428991e+002, 5.499863e+001
7.433812e+002, 5.499062e+001
7.438633e+002, 5.502632e+001
7.443455e+002, 5.495924e+001
7.448276e+002, 5.452548e+001
7.453097e+002, 5.400979e+001
7.457918e+002, 5.391920e+001
7.462739e+002, 5.436059e+001
7.467560e+002, 5.484814e+001
7.472382e+002, 5.489388e+001
7.477203e+002, 5.462325e+001
7.482024e+002, 5.437717e+001
7.486845e+002, 5.415331e+001
7.491666e+002, 5.407743e+001
7.496487e+002, 5.424697e+001
7.501309e+002, 5.443964e+001
7.506130e+002, 5.435328e+001
7.510951e+002, 5.396148e+001
7.515772e+002, 5.381457e+001
7.520593e+002, 5.407981e+001
7.525414e+002, 5.434996e+001
7.530236e+002, 5.465886e+001
7.535057e+002, 5.484571e+001
7.539878e+002, 5.466093e+001
7.544699e+002, 5.419405e+001
7.549520e+002, 5.383121e+001
7.554341e+002, 5.379311e+001
7.559163e+002, 5.395421e+001
7.563984e+002, 5.422992e+001
7.568805e+002, 5.456734e+001
7.573626e+002, 5.469558e+001
7.578447e+002, 5.455958e+001
7.583268e+002, 5.440433e+001
7.588090e+002, 5.440643e+001
7.592911e+002, 5.451668e+001
7.597732e+002, 5.456718e+001
7.602553e+002, 5.449459e+001
7.607374e+002, 5.448074e+001
7.612195e+002, 5.459535e+001
7.617017e+002, 5.469306e+001
7.621838e+002, 5.472769e+001
7.626659e+002, 5.469305e+001
7.631480e+002, 5.456860e+001
7.636301e+002, 5.434548e+001
7.641122e+002, 5.411963e+001
7.645944e+002, 5.394641e+001
7.650765e+002, 5.382332e+001
7.655586e+002, 5.374403e+001
7.660407e+002, 5.370974e+001
7.665228e+002, 5.374230e+001
7.670049e+002, 5.385335e+001
7.674871e+002, 5.399080e+001
7.679692e+002, 5.409509e+001
7.684513e+002, 5.416842e+001
7.689334e+002, 5.413609e+001
7.694155e+002, 5.382204e+001
7.698976e+002, 5.369128e+001
7.703798e+002, 5.399729e+001
7.708619e+002, 5.439553e+001
7.713440e+002, 5.467111e+001
7.718261e+002, 5.480196e+001
7.723082e+002, 5.477881e+001
7.727903e+002, 5.453638e+001
7.732725e+002, 5.422272e+001
7.737546e+002, 5.376418e+001
7.742367e+002, 5.337923e+001
7.747188e+002, 5.356717e+001
7.752009e+002, 5.427186e+001
7.756830e+002, 5.480478e+001
7.761652e+002, 5.469368e+001
7.766473e+002, 5.421935e+001
7.771294e+002, 5.406065e+001
7.776115e+002, 5.427530e+001
7.780936e+002, 5.442454e+001
7.785757e+002, 5.449620e+001
7.790579e+002, 5.446904e+001
7.795400e+002, 5.419368e+001
7.800221e+002, 5.387159e+001
7.805042e+002, 5.388925e+001
7.809863e+002, 5.435474e+001
7.814684e+002, 5.467121e+001
7.819506e+002, 5.469611e+001
7.824327e+002, 5.452728e+001
7.829148e+002, 5.402253e+001
7.833969e+002, 5.344054e+001
7.838790e+002, 5.324135e+001
7.843611e+002, 5.351065e+001
7.848433e+002, 5.387681e+001
7.853254e+002, 5.399680e+001
7.858075e+002, 5.395332e+001
7.862896e+002, 5.399474e+001
7.867717e+002, 5.412226e+001
7.872538e+002, 5.425772e+001
7.877360e+002, 5.441620e+001
7.882181e+002, 5.446059e+001
7.887002e+002, 5.418115e+001
7.891823e+002, 5.364869e+001
7.896644e+002, 5.347675e+001
7.901465e+002, 5.401030e+001
7.906286e+002, 5.439030e+001
7.911107e+002, 5.446987e+001
7.915928e+002, 5.445541e+001
7.920750e+002, 5.444549e+001
7.925571e+002, 5.445503e+001
7.930392e+002, 5.449059e+001
7.935213e+002, 5.455809e+001
7.940034e+002, 5.462011e+001
7.944855e+002, 5.465935e+001
7.949677e+002, 5.466445e+001
7.954498e+002, 5.458168e+001
7.959319e+002, 5.442848e+001
7.964140e+002, 5.434681e+001
7.968961e+002, 5.440108e+001
7.973782e+002, 5.448389e+001
7.978604e+002, 5.443822e+001
7.983425e+002, 5.425535e+001
7.988246e+002, 5.414656e+001
7.993067e+002, 5.416200e+001
7.997888e+002, 5.415929e+001
8.002709e+002, 5.402254e+001
8.007531e+002, 5.391957e+001
8.012352e+002, 5.406548e+001
8.017173e+002, 5.438427e+001
8.021994e+002, 5.448688e+001
8.026815e+002, 5.402262e+001
8.031636e+002, 5.368618e+001
8.036458e+002, 5.405120e+001
8.041279e+002, 5.460892e+001
8.046100e+002, 5.466295e+001
8.050921e+002, 5.430070e+001
8.055742e+002, 5.413727e+001
8.060563e+002, 5.451812e+001
8.065385e+002, 5.508132e+001
8.070206e+002, 5.527126e+001
8.075027e+002, 5.510553e+001
8.079848e+002, 5.472429e+001
8.084669e+002, 5.403672e+001
8.089490e+002, 5.365161e+001
8.094312e+002, 5.394509e+001
8.099133e+002, 5.453753e+001
8.103954e+002, 5.489784e+001
8.108775e+002, 5.501094e+001
8.113596e+002, 5.494683e+001
8.118417e+002, 5.454427e+001
8.123239e+002, 5.417364e+001
8.128060e+002, 5.387473e+001
8.132881e+002, 5.369671e+001
8.137702e+002, 5.372497e+001
8.142523e+002, 5.392641e+001
8.147344e+002, 5.416407e+001
8.152166e+002, 5.439620e+001
8.156987e+002, 5.458158e+001
8.161808e+002, 5.462762e+001
8.166629e+002, 5.460432e+001
8.171450e+002, 5.468668e+001
8.176271e+002, 5.488165e+001
8.181093e+002, 5.505106e+001
8.185914e+002, 5.511353e+001
8.190735e+002, 5.511982e+001
8.195556e+002, 5.518505e+001
8.200377e+002, 5.534054e+001
8.205198e+002, 5.533970e+001
8.210020e+002, 5.508489e+001
8.214841e+002, 5.485551e+001
8.219662e+002, 5.473648e+001
8.224483e+002, 5.470926e+001
8.229304e+002, 5.479266e+001
8.234125e+002, 5.497956e+001
8.238947e+002, 5.508730e+001
8.243768e+002, 5.502571e+001
8.248589e+002, 5.494349e+001
8.253410e+002, 5.490553e+001
8.258231e+002, 5.488140e+001
8.263052e+002, 5.482032e+001
8.267874e+002, 5.473563e+001
8.272695e+002, 5.470496e+001
8.277516e+002, 5.478530e+001
8.282337e+002, 5.487374e+001
8.287158e+002, 5.479517e+001
8.291979e+002, 5.459578e+001
8.296801e+002, 5.447954e+001
8.301622e+002, 5.446519e+001
8.306443e+002, 5.442889e+001
8.311264e+002, 5.429155e+001
8.316085e+002, 5.415790e+001
8.320906e+002, 5.422978e+001
8.325728e+002, 5.456720e+001
8.330549e+002, 5.466047e+001
8.335370e+002, 5.423367e+001
8.340191e+002, 5.395983e+001
8.345012e+002, 5.408603e+001
8.349833e+002, 5.433673e+001
8.354655e+002, 5.453006e+001
8.359476e+002, 5.464869e+001
8.364297e+002, 5.469423e+001
8.369118e+002, 5.466908e+001
8.373939e+002, 5.456893e+001
8.378760e+002, 5.426549e+001
8.383582e+002, 5.396942e+001
8.388403e+002, 5.396635e+001
8.393224e+002, 5.420718e+001
8.398045e+002, 5.446259e+001
8.402866e+002, 5.462473e+001
8.407687e+002, 5.472273e+001
8.412509e+002, 5.476900e+001
8.417330e+002, 5.477880e+001
8.422151e+002, 5.484998e+001
8.426972e+002, 5.498809e+001
8.431793e+002, 5.511726e+001
8.436614e+002, 5.521583e+001
8.441436e+002, 5.528117e+001
8.446257e+002, 5.533070e+001
8.451078e+002, 5.536039e+001
8.455899e+002, 5.519425e+001
8.460720e+002, 5.456601e+001
8.465541e+002, 5.413361e+001
8.470363e+002, 5.403526e+001
8.475184e+002, 5.406478e+001
8.480005e+002, 5.414816e+001
8.484826e+002, 5.424843e+001
8.489647e+002, 5.429438e+001
8.494468e+002, 5.424593e+001
8.499290e+002, 5.424209e+001
8.504111e+002, 5.444172e+001
8.508932e+002, 5.465590e+001
8.513753e+002, 5.468015e+001
8.518574e+002, 5.456289e+001
8.523395e+002, 5.442385e+001
8.528217e+002, 5.430821e+001
8.533038e+002, 5.423226e+001
8.537859e+002, 5.423093e+001
8.542680e+002, 5.426735e+001
8.547501e+002, 5.417385e+001
8.552322e+002, 5.395057e+001
8.557144e+002, 5.396141e+001
8.561965e+002, 5.432906e+001
8.566786e+002, 5.473173e+001
8.571607e+002, 5.497270e+001
8.576428e+002, 5.503252e+001
8.581249e+002, 5.482013e+001
8.586071e+002, 5.404213e+001
8.590892e+002, 5.363296e+001
8.595713e+002, 5.396792e+001
8.600534e+002, 5.422207e+001
8.605355e+002, 5.396557e+001
8.610176e+002, 5.354938e+001
8.614998e+002, 5.343335e+001
8.619819e+002, 5.365483e+001
8.624640e+002, 5.383943e+001
8.629461e+002, 5.384294e+001
8.634282e+002, 5.375481e+001
8.639103e+002, 5.353632e+001
8.643925e+002, 5.331750e+001
8.648746e+002, 5.333625e+001
8.653567e+002, 5.355952e+001
8.658388e+002, 5.372557e+001
8.663209e+002, 5.368156e+001
8.668030e+002, 5.351593e+001
8.672852e+002, 5.332245e+001
8.677673e+002, 5.311985e+001
8.682494e+002, 5.300587e+001
8.687315e+002, 5.298713e+001
8.692136e+002, 5.306366e+001
8.696957e+002, 5.326923e+001
8.701779e+002, 5.344740e+001
8.706600e+002, 5.335559e+001
8.711421e+002, 5.298951e+001
8.716242e+002, 5.285140e+001
8.721063e+002, 5.308755e+001
8.725884e+002, 5.329394e+001
8.730705e+002, 5.347566e+001
8.735526e+002, 5.354073e+001
8.740347e+002, 5.338710e+001
8.745168e+002, 5.307807e+001
8.749990e+002, 5.273658e+001
8.754811e+002, 5.231041e+001
8.759632e+002, 5.208095e+001
8.764453e+002, 5.232285e+001
8.769274e+002, 5.262820e+001
8.774095e+002, 5.270694e+001
8.778917e+002, 5.263031e+001
8.783738e+002, 5.253316e+001
8.788559e+002, 5.245757e+001
8.793380e+002, 5.240683e+001
8.798201e+002, 5.239988e+001
8.803022e+002, 5.240011e+001
8.807844e+002, 5.233910e+001
8.812665e+002, 5.223260e+001
8.817486e+002, 5.212639e+001
8.822307e+002, 5.203076e+001
8.827128e+002, 5.198504e+001
8.831949e+002, 5.201939e+001
8.836771e+002, 5.209781e+001
8.841592e+002, 5.215691e+001
8.846413e+002, 5.220562e+001
8.851234e+002, 5.214247e+001
8.856055e+002, 5.186579e+001
8.860876e+002, 5.174262e+001
8.865698e+002, 5.205007e+001
8.870519e+002, 5.240955e+001
8.875340e+002, 5.232970e+001
8.880161e+002, 5.184847e+001
8.884982e+002, 5.156639e+001
8.889803e+002, 5.164351e+001
8.894625e+002, 5.171781e+001
8.899446e+002, 5.168229e+001
8.904267e+002, 5.166719e+001
8.909088e+002, 5.181372e+001
8.913909e+002, 5.203513e+001
8.918730e+002, 5.214485e+001
8.923552e+002, 5.208923e+001
8.928373e+002, 5.200909e+001
8.933194e+002, 5.207572e+001
8.938015e+002, 5.209473e+001
8.942836e+002, 5.171250e+001
8.947657e+002, 5.116130e+001
8.952479e+002, 5.099746e+001
8.957300e+002, 5.128569e+001
8.962121e+002, 5.157981e+001
8.966942e+002, 5.153758e+001
8.971763e+002, 5.133458e+001
8.976584e+002, 5.134325e+001
8.981406e+002, 5.153636e+001
8.986227e+002, 5.164377e+001
8.991048e+002, 5.163862e+001
8.995869e+002, 5.157124e+001
9.000690e+002, 5.145886e+001
9.005511e+002, 5.130707e+001
9.010333e+002, 5.109898e+001
9.015154e+002, 5.082304e+001
9.019975e+002, 5.076881e+001
9.024796e+002, 5.113657e+001
9.029617e+002, 5.135276e+001
9.034438e+002, 5.118888e+001
9.039260e+002, 5.096089e+001
9.044081e+002, 5.085029e+001
9.048902e+002, 5.084491e+001
9.053723e+002, 5.093681e+001
9.058544e+002, 5.120990e+001
9.063365e+002, 5.133703e+001
9.068187e+002, 5.107702e+001
9.073008e+002, 5.081964e+001
9.077829e+002, 5.081247e+001
9.082650e+002, 5.094598e+001
9.087471e+002, 5.107873e+001
9.092292e+002, 5.117341e+001
9.097114e+002, 5.122735e+001
9.101935e+002, 5.124422e+001
9.106756e+002, 5.120985e+001
9.111577e+002, 5.105164e+001
9.116398e+002, 5.085547e+001
9.121219e+002, 5.077491e+001
9.126041e+002, 5.082029e+001
9.130862e+002, 5.098771e+001
9.135683e+002, 5.127611e+001
9.140504e+002, 5.147886e+001
9.145325e+002, 5.119921e+001
9.150146e+002, 5.058069e+001
9.154968e+002, 5.046329e+001
9.159789e+002, 5.085894e+001
9.164610e+002, 5.154824e+001
9.169431e+002, 5.261596e+001
9.174252e+002, 5.329955e+001
9.179073e+002, 5.283270e+001
9.183895e+002, 5.160713e+001
9.188716e+002, 5.109212e+001
9.193537e+002, 5.169991e+001
9.198358e+002, 5.195028e+001
9.203179e+002, 5.161497e+001
9.208000e+002, 5.124195e+001
9.212822e+002, 5.097176e+001
9.217643e+002, 5.081886e+001
9.222464e+002, 5.085194e+001
9.227285e+002, 5.105944e+001
9.232106e+002, 5.119604e+001
9.236927e+002, 5.110272e+001
9.241749e+002, 5.110350e+001
9.246570e+002, 5.142490e+001
9.251391e+002, 5.175264e+001
9.256212e+002, 5.184562e+001
9.261033e+002, 5.174726e+001
9.265854e+002, 5.155562e+001
9.270676e+002, 5.129526e+001
9.275497e+002, 5.110482e+001
9.280318e+002, 5.106733e+001
9.285139e+002, 5.115232e+001
9.289960e+002, 5.141425e+001
9.294781e+002, 5.174613e+001
9.299603e+002, 5.197264e+001
9.304424e+002, 5.205469e+001
9.309245e+002, 5.199005e+001
9.314066e+002, 5.176293e+001
9.318887e+002, 5.147511e+001
9.323708e+002, 5.123647e+001
9.328530e+002, 5.107426e+001
9.333351e+002, 5.117545e+001
9.338172e+002, 5.152681e+001
9.342993e+002, 5.173788e+001
9.347814e+002, 5.165421e+001
9.352635e+002, 5.146734e+001
9.357457e+002, 5.137239e+001
9.362278e+002, 5.136488e+001
9.367099e+002, 5.142833e+001
9.371920e+002, 5.157903e+001
9.376741e+002, 5.173505e+001
9.381563e+002, 5.190885e+001
9.386384e+002, 5.203871e+001
9.391205e+002, 5.208172e+001
9.396026e+002, 5.206841e+001
9.400847e+002, 5.205169e+001
9.405668e+002, 5.203327e+001
9.410490e+002, 5.200225e+001
9.415311e+002, 5.189911e+001
9.420132e+002, 5.186555e+001
9.424953e+002, 5.196978e+001
9.429774e+002, 5.211550e+001
9.434595e+002, 5.228241e+001
9.439417e+002, 5.242776e+001
9.444238e+002, 5.243278e+001
9.449059e+002, 5.221931e+001
9.453880e+002, 5.207959e+001
9.458701e+002, 5.208183e+001
9.463522e+002, 5.222767e+001
9.468344e+002, 5.268645e+001
9.473165e+002, 5.319536e+001
9.477986e+002, 5.339283e+001
9.482807e+002, 5.325998e+001
9.487628e+002, 5.300217e+001
9.492449e+002, 5.261902e+001
9.497271e+002, 5.243495e+001
9.502092e+002, 5.294577e+001
9.506913e+002, 5.374745e+001
9.511734e+002, 5.423456e+001
9.516555e+002, 5.442672e+001
9.521376e+002, 5.454235e+001
9.526198e+002, 5.466808e+001
9.531019e+002, 5.485705e+001
9.535840e+002, 5.521552e+001
9.540661e+002, 5.560551e+001
9.545482e+002, 5.558223e+001
9.550303e+002, 5.524062e+001
9.555124e+002, 5.525850e+001
9.559945e+002, 5.573062e+001
9.564766e+002, 5.622729e+001
9.569587e+002, 5.652056e+001
9.574409e+002, 5.670544e+001
9.579230e+002, 5.691631e+001
9.584051e+002, 5.715564e+001
9.588872e+002, 5.749652e+001
9.593693e+002, 5.797594e+001
9.598514e+002, 5.839908e+001
9.603336e+002, 5.870401e+001
9.608157e+002, 5.898228e+001
9.612978e+002, 5.926244e+001
9.617799e+002, 5.958793e+001
9.622620e+002, 6.011113e+001
9.627441e+002, 6.099639e+001
9.632263e+002, 6.156578e+001
9.637084e+002, 6.151273e+001
9.641905e+002, 6.155720e+001
9.646726e+002, 6.206738e+001
9.651547e+002, 6.260609e+001
9.656368e+002, 6.274173e+001
9.661190e+002, 6.256261e+001
9.666011e+002, 6.252086e+001
9.670832e+002, 6.280790e+001
9.675653e+002, 6.295753e+001
9.680474e+002, 6.266422e+001
9.685295e+002, 6.243058e+001
9.690117e+002, 6.263909e+001
9.694938e+002, 6.302825e+001
9.699759e+002, 6.320280e+001
9.704580e+002, 6.314803e+001
9.709401e+002, 6.320634e+001
9.714222e+002, 6.365440e+001
9.719044e+002, 6.404683e+001
9.723865e+002, 6.402567e+001
9.728686e+002, 6.386779e+001
9.733507e+002, 6.375569e+001
9.738328e+002, 6.378339e+001
9.743149e+002, 6.415102e+001
9.747971e+002, 6.488207e+001
9.752792e+002, 6.560519e+001
9.757613e+002, 6.601518e+001
9.762434e+002, 6.626540e+001
9.767255e+002, 6.650641e+001
9.772076e+002, 6.676174e+001
9.776898e+002, 6.716570e+001
9.781719e+002, 6.766420e+001
9.786540e+002, 6.789755e+001
9.791361e+002, 6.769781e+001
9.796182e+002, 6.740987e+001
9.801003e+002, 6.746510e+001
9.805825e+002, 6.777644e+001
9.810646e+002, 6.809913e+001
9.815467e+002, 6.841940e+001
9.820288e+002, 6.864038e+001
9.825109e+002, 6.874202e+001
9.829930e+002, 6.867207e+001
9.834752e+002, 6.837280e+001
9.839573e+002, 6.799245e+001
9.844394e+002, 6.782516e+001
9.849215e+002, 6.787285e+001
9.854036e+002, 6.787540e+001
9.858857e+002, 6.781889e+001
9.863679e+002, 6.780025e+001
9.868500e+002, 6.784602e+001
9.873321e+002, 6.792818e+001
9.878142e+002, 6.801568e+001
9.882963e+002, 6.812987e+001
9.887784e+002, 6.835129e+001
9.892606e+002, 6.873415e+001
9.897427e+002, 6.902393e+001
9.902248e+002, 6.917380e+001
9.907069e+002, 6.931540e+001
9.911890e+002, 6.943246e+001
9.916711e+002, 6.961945e+001
9.921533e+002, 6.992692e+001
9.926354e+002, 7.037444e+001
9.931175e+002, 7.109147e+001
9.935996e+002, 7.237576e+001
9.940817e+002, 7.338914e+001
9.945638e+002, 7.389109e+001
9.950460e+002, 7.440161e+001
9.955281e+002, 7.522146e+001
9.960102e+002, 7.607676e+001
9.964923e+002, 7.656966e+001
9.969744e+002, 7.676659e+001
9.974565e+002, 7.724480e+001
9.979387e+002, 7.826327e+001
9.984208e+002, 7.931474e+001
9.989029e+002, 8.032069e+001
9.993850e+002, 8.126665e+001
9.998671e+002, 8.213046e+001
1.000349e+003, 8.292541e+001
1.000831e+003, 8.362044e+001
1.001313e+003, 8.423765e+001
1.001796e+003, 8.494960e+001
1.002278e+003, 8.586113e+001
1.002760e+003, 8.682812e+001
1.003242e+003, 8.786198e+001
1.003724e+003, 8.883475e+001
1.004206e+003, 8.964530e+001
1.004688e+003, 9.030126e+001
1.005170e+003, 9.085310e+001
1.005653e+003, 9.131229e+001
1.006135e+003, 9.164748e+001
1.006617e+003, 9.171082e+001
1.007099e+003, 9.181751e+001
1.007581e+003, 9.240716e+001
1.008063e+003, 9.313467e+001
1.008545e+003, 9.348350e+001
1.009027e+003, 9.351450e+001
1.009509e+003, 9.359526e+001
1.009992e+003, 9.383833e+001
1.010474e+003, 9.394654e+001
1.010956e+003, 9.363479e+001
1.011438e+003, 9.306414e+001
1.011920e+003, 9.231887e+001
1.012402e+003, 9.155125e+001
1.012884e+003, 9.118468e+001
1.013366e+003, 9.118323e+001
1.013849e+003, 9.112533e+001
1.014331e+003, 9.082854e+001
1.014813e+003, 9.053453e+001
1.015295e+003, 9.063461e+001
1.015777e+003, 9.084306e+001
1.016259e+003, 9.035803e+001
1.016741e+003, 8.931448e+001
1.017223e+003, 8.833701e+001
1.017705e+003, 8.751885e+001
1.018188e+003, 8.669886e+001
1.018670e+003, 8.579341e+001
1.019152e+003, 8.487845e+001
1.019634e+003, 8.406862e+001
1.020116e+003, 8.333801e+001
1.020598e+003, 8.258187e+001
1.021080e+003, 8.179672e+001
1.021562e+003, 8.081077e+001
1.022044e+003, 7.958975e+001
1.022527e+003, 7.816859e+001
1.023009e+003, 7.652200e+001
1.023491e+003, 7.491222e+001
1.023973e+003, 7.382516e+001
1.024455e+003, 7.320733e+001
1.024937e+003, 7.210999e+001
1.025419e+003, 7.044605e+001
1.025901e+003, 6.909863e+001
1.026384e+003, 6.826818e+001
1.026866e+003, 6.758438e+001
1.027348e+003, 6.683029e+001
1.027830e+003, 6.604879e+001
1.028312e+003, 6.532055e+001
1.028794e+003, 6.464067e+001
1.029276e+003, 6.401085e+001
1.029758e+003, 6.341197e+001
1.030240e+003, 6.293058e+001
1.030723e+003, 6.260910e+001
1.031205e+003, 6.234855e+001
1.031687e+003, 6.211252e+001
1.032169e+003, 6.186335e+001
1.032651e+003, 6.151516e+001
1.033133e+003, 6.105227e+001
1.033615e+003, 6.062128e+001
1.034097e+003, 6.020593e+001
1.034579e+003, 5.985645e+001
1.035062e+003, 5.959200e+001
1.035544e+003, 5.938054e+001
1.036026e+003, 5.921903e+001
1.036508e+003, 5.908856e+001
1.036990e+003, 5.896642e+001
1.037472e+003, 5.887837e+001
1.037954e+003, 5.864688e+001
1.038436e+003, 5.807204e+001
1.038919e+003, 5.767371e+001
1.039401e+003, 5.741481e+001
1.039883e+003, 5.749891e+001
1.040365e+003, 5.855654e+001
1.040847e+003, 5.989712e+001
1.041329e+003, 5.989415e+001
1.041811e+003, 5.816724e+001
1.042293e+003, 5.712715e+001
1.042776e+003, 5.721883e+001
1.043258e+003, 5.743410e+001
1.043740e+003, 5.783636e+001
1.044222e+003, 5.806030e+001
1.044704e+003, 5.766235e+001
1.045186e+003, 5.698937e+001
1.045668e+003, 5.674957e+001
1.046150e+003, 5.705658e+001
1.046632e+003, 5.730216e+001
1.047115e+003, 5.737798e+001
1.047597e+003, 5.744566e+001
1.048079e+003, 5.759374e+001
1.048561e+003, 5.769691e+001
1.049043e+003, 5.761316e+001
1.049525e+003, 5.744305e+001
1.050007e+003, 5.740023e+001
1.050489e+003, 5.752604e+001
1.050971e+003, 5.755988e+001
1.051454e+003, 5.741776e+001
1.051936e+003, 5.722347e+001
1.052418e+003, 5.692902e+001
1.052900e+003, 5.667640e+001
1.053382e+003, 5.657661e+001
1.053864e+003, 5.658795e+001
1.054346e+003, 5.665698e+001
1.054828e+003, 5.677943e+001
1.055311e+003, 5.680508e+001
1.055793e+003, 5.667141e+001
1.056275e+003, 5.646621e+001
1.056757e+003, 5.605842e+001
1.057239e+003, 5.574615e+001
1.057721e+003, 5.586527e+001
1.058203e+003, 5.619210e+001
1.058685e+003, 5.628471e+001
1.059167e+003, 5.608287e+001
1.059650e+003, 5.602082e+001
1.060132e+003, 5.642443e+001
1.060614e+003, 5.674286e+001
1.061096e+003, 5.666019e+001
1.061578e+003, 5.651939e+001
1.062060e+003, 5.663875e+001
1.062542e+003, 5.685838e+001
1.063024e+003, 5.686046e+001
1.063506e+003, 5.661181e+001
1.063989e+003, 5.640285e+001
1.064471e+003, 5.634721e+001
1.064953e+003, 5.633666e+001
1.065435e+003, 5.634809e+001
1.065917e+003, 5.636619e+001
1.066399e+003, 5.644323e+001
1.066881e+003, 5.648671e+001
1.067363e+003, 5.627414e+001
1.067846e+003, 5.583094e+001
1.068328e+003, 5.560295e+001
1.068810e+003, 5.588799e+001
1.069292e+003, 5.618665e+001
1.069774e+003, 5.631791e+001
1.070256e+003, 5.633704e+001
1.070738e+003, 5.622268e+001
1.071220e+003, 5.606012e+001
1.071703e+003, 5.599144e+001
1.072185e+003, 5.600481e+001
1.072667e+003, 5.590295e+001
1.073149e+003, 5.552438e+001
1.073631e+003, 5.522754e+001
1.074113e+003, 5.522226e+001
1.074595e+003, 5.531373e+001
1.075077e+003, 5.549975e+001
1.075559e+003, 5.560898e+001
1.076042e+003, 5.534119e+001
1.076524e+003, 5.476882e+001
1.077006e+003, 5.432261e+001
1.077488e+003, 5.411145e+001
1.077970e+003, 5.415779e+001
1.078452e+003, 5.477281e+001
1.078934e+003, 5.531913e+001
1.079416e+003, 5.526629e+001
1.079898e+003, 5.497081e+001
1.080380e+003, 5.485948e+001
1.080863e+003, 5.493523e+001
1.081345e+003, 5.503168e+001
1.081827e+003, 5.514087e+001
1.082309e+003, 5.504794e+001
1.082791e+003, 5.440875e+001
1.083273e+003, 5.382460e+001
1.083755e+003, 5.373994e+001
1.084237e+003, 5.384319e+001
1.084720e+003, 5.382234e+001
1.085202e+003, 5.367711e+001
1.085684e+003, 5.349581e+001
1.086166e+003, 5.328970e+001
1.086648e+003, 5.316965e+001
1.087130e+003, 5.325486e+001
1.087612e+003, 5.334752e+001
1.088094e+003, 5.340046e+001
1.088577e+003, 5.336554e+001
1.089059e+003, 5.315339e+001
1.089541e+003, 5.283546e+001
1.090023e+003, 5.254302e+001
1.090505e+003, 5.230127e+001
1.090987e+003, 5.214693e+001
1.091469e+003, 5.224503e+001
1.091951e+003, 5.223117e+001
1.092433e+003, 5.185747e+001
1.092916e+003, 5.140189e+001
1.093398e+003, 5.096925e+001
1.093880e+003, 5.066704e+001
1.094362e+003, 5.076239e+001
1.094844e+003, 5.123716e+001
1.095326e+003, 5.140379e+001
1.095808e+003, 5.079374e+001
1.096290e+003, 5.021761e+001
1.096772e+003, 4.984005e+001
1.097255e+003, 4.968638e+001
1.097737e+003, 4.991880e+001
1.098219e+003, 5.029179e+001
1.098701e+003, 5.052932e+001
1.099183e+003, 5.059467e+001
1.099665e+003, 5.050225e+001
1.100147e+003, 5.017893e+001
1.100629e+003, 4.985673e+001
1.101112e+003, 4.950993e+001
1.101594e+003, 4.927993e+001
1.102076e+003, 4.939520e+001
1.102558e+003, 4.953973e+001
1.103040e+003, 4.927481e+001
1.103522e+003, 4.873499e+001
1.104004e+003, 4.852937e+001
1.104486e+003, 4.890954e+001
1.104969e+003, 4.909727e+001
1.105451e+003, 4.875989e+001
1.105933e+003, 4.846411e+001
1.106415e+003, 4.839420e+001
1.106897e+003, 4.845319e+001
1.107379e+003, 4.869318e+001
1.107861e+003, 4.896729e+001
1.108343e+003, 4.888417e+001
1.108825e+003, 4.831623e+001
1.109307e+003, 4.797043e+001
1.109790e+003, 4.805199e+001
1.110272e+003, 4.815533e+001
1.110754e+003, 4.829581e+001
1.111236e+003, 4.833521e+001
1.111718e+003, 4.811893e+001
1.112200e+003, 4.778314e+001
1.112682e+003, 4.755764e+001
1.113164e+003, 4.745271e+001
1.113647e+003, 4.730507e+001
1.114129e+003, 4.697364e+001
1.114611e+003, 4.683853e+001
1.115093e+003, 4.705290e+001
1.115575e+003, 4.729419e+001
1.116057e+003, 4.742830e+001
1.116539e+003, 4.752173e+001
1.117021e+003, 4.767092e+001
1.117504e+003, 4.785500e+001
1.117986e+003, 4.791576e+001
1.118468e+003, 4.780609e+001
1.118950e+003, 4.768391e+001
1.119432e+003, 4.755183e+001
1.119914e+003, 4.739268e+001
1.120396e+003, 4.712535e+001
1.120878e+003, 4.696260e+001
1.121360e+003, 4.715817e+001
1.121843e+003, 4.754543e+001
1.122325e+003, 4.760133e+001
1.122807e+003, 4.723067e+001
1.123289e+003, 4.713202e+001
1.123771e+003, 4.740536e+001
1.124253e+003, 4.760250e+001
1.124735e+003, 4.760320e+001
1.125217e+003, 4.758366e+001
1.125699e+003, 4.764201e+001
1.126182e+003, 4.777987e+001
1.126664e+003, 4.802486e+001
1.127146e+003, 4.836323e+001
1.127628e+003, 4.852000e+001
1.128110e+003, 4.846934e+001
1.128592e+003, 4.846629e+001
1.129074e+003, 4.854913e+001
1.129556e+003, 4.864617e+001
1.130039e+003, 4.873493e+001
1.130521e+003, 4.874916e+001
1.131003e+003, 4.857432e+001
1.131485e+003, 4.832335e+001
1.131967e+003, 4.845457e+001
1.132449e+003, 4.893888e+001
1.132931e+003, 4.923798e+001
1.133413e+003, 4.932745e+001
1.133896e+003, 4.945402e+001
1.134378e+003, 4.969323e+001
1.134860e+003, 4.990974e+001
1.135342e+003, 4.999956e+001
1.135824e+003, 4.999920e+001
1.136306e+003, 4.991249e+001
1.136788e+003, 4.979945e+001
1.137270e+003, 4.999539e+001
1.137752e+003, 5.039796e+001
1.138234e+003, 5.042997e+001
1.138717e+003, 5.004617e+001
1.139199e+003, 4.977385e+001
1.139681e+003, 4.988312e+001
1.140163e+003, 5.004428e+001
1.140645e+003, 4.981404e+001
1.141127e+003, 4.945897e+001
1.141609e+003, 4.952232e+001
1.142091e+003, 4.981919e+001
1.142574e+003, 4.997288e+001
1.143056e+003, 4.996020e+001
1.143538e+003, 4.983361e+001
1.144020e+003, 4.963542e+001
1.144502e+003, 4.953377e+001
1.144984e+003, 4.968147e+001
1.145466e+003, 4.989201e+001
1.145948e+003, 4.998110e+001
1.146431e+003, 5.001109e+001
1.146913e+003, 5.007151e+001
1.147395e+003, 5.012814e+001
1.147877e+003, 5.010097e+001
1.148359e+003, 4.999168e+001
1.148841e+003, 4.984465e+001
1.149323e+003, 4.965075e+001
1.149805e+003, 4.959290e+001
1.150287e+003, 4.998323e+001
1.150770e+003, 5.032701e+001
1.151252e+003, 5.020255e+001
1.151734e+003, 4.989505e+001
1.152216e+003, 4.970208e+001
1.152698e+003, 4.959930e+001
1.153180e+003, 4.942535e+001
1.153662e+003, 4.914761e+001
1.154144e+003, 4.897878e+001
1.154626e+003, 4.907883e+001
1.155109e+003, 4.917220e+001
1.155591e+003, 4.922253e+001
1.156073e+003, 4.917946e+001
1.156555e+003, 4.899159e+001
1.157037e+003, 4.870547e+001
1.157519e+003, 4.835560e+001
1.158001e+003, 4.795684e+001
1.158483e+003, 4.757064e+001
1.158966e+003, 4.707192e+001
1.159448e+003, 4.686011e+001
1.159930e+003, 4.733667e+001
1.160412e+003, 4.758132e+001
1.160894e+003, 4.718473e+001
1.161376e+003, 4.666298e+001
1.161858e+003, 4.639492e+001
1.162340e+003, 4.626884e+001
1.162822e+003, 4.602568e+001
1.163305e+003, 4.563939e+001
1.163787e+003, 4.540709e+001
1.164269e+003, 4.533124e+001
1.164751e+003, 4.545461e+001
1.165233e+003, 4.594283e+001
1.165715e+003, 4.612479e+001
1.166197e+003, 4.557917e+001
1.166679e+003, 4.485559e+001
1.167161e+003, 4.459790e+001
1.167644e+003, 4.471095e+001
1.168126e+003, 4.484217e+001
1.168608e+003, 4.499709e+001
1.169090e+003, 4.494284e+001
1.169572e+003, 4.466049e+001
1.170054e+003, 4.455907e+001
1.170536e+003, 4.475536e+001
1.171018e+003, 4.489550e+001
1.171500e+003, 4.472269e+001
1.171983e+003, 4.445259e+001
1.172465e+003, 4.442814e+001
1.172947e+003, 4.459003e+001
1.173429e+003, 4.480845e+001
1.173911e+003, 4.503381e+001
1.174393e+003, 4.504022e+001
1.174875e+003, 4.484442e+001
1.175357e+003, 4.468258e+001
1.175840e+003, 4.463952e+001
1.176322e+003, 4.459811e+001
1.176804e+003, 4.447226e+001
1.177286e+003, 4.427468e+001
1.177768e+003, 4.391976e+001
1.178250e+003, 4.357784e+001
1.178732e+003, 4.350816e+001
1.179214e+003, 4.364385e+001
1.179697e+003, 4.388825e+001
1.180179e+003, 4.417036e+001
1.180661e+003, 4.431666e+001
1.181143e+003, 4.423669e+001
1.181625e+003, 4.417175e+001
1.182107e+003, 4.434210e+001
1.182589e+003, 4.448634e+001
1.183071e+003, 4.437540e+001
1.183553e+003, 4.420852e+001
1.184036e+003, 4.411244e+001
1.184518e+003, 4.413610e+001
1.185000e+003, 4.445044e+001
1.185482e+003, 4.503927e+001
1.185964e+003, 4.525132e+001
1.186446e+003, 4.471569e+001
1.186928e+003, 4.415910e+001
1.187410e+003, 4.355597e+001
1.187892e+003, 4.313668e+001
1.188375e+003, 4.307943e+001
1.188857e+003, 4.318447e+001
1.189339e+003, 4.334561e+001
1.189821e+003, 4.350017e+001
1.190303e+003, 4.342726e+001
1.190785e+003, 4.304182e+001
1.191267e+003, 4.296046e+001
1.191749e+003, 4.336026e+001
1.192232e+003, 4.354404e+001
1.192714e+003, 4.331480e+001
1.193196e+003, 4.312271e+001
1.193678e+003, 4.321077e+001
1.194160e+003, 4.338863e+001
1.194642e+003, 4.342515e+001
1.195124e+003, 4.335547e+001
1.195606e+003, 4.332638e+001
1.196089e+003, 4.333406e+001
1.196571e+003, 4.323964e+001
1.197053e+003, 4.304864e+001
1.197535e+003, 4.302734e+001
1.198017e+003, 4.323154e+001
1.198499e+003, 4.339388e+001
1.198981e+003, 4.334237e+001
1.199463e+003, 4.326235e+001
1.199945e+003, 4.345824e+001
1.200427e+003, 4.375296e+001
1.200910e+003, 4.378374e+001
1.201392e+003, 4.363910e+001
1.201874e+003, 4.349105e+001
1.202356e+003, 4.335873e+001
1.202838e+003, 4.322131e+001
1.203320e+003, 4.307426e+001
1.203802e+003, 4.291502e+001
1.204284e+003, 4.268146e+001
1.204767e+003, 4.262024e+001
1.205249e+003, 4.317711e+001
1.205731e+003, 4.370608e+001
1.206213e+003, 4.356939e+001
1.206695e+003, 4.316338e+001
1.207177e+003, 4.292482e+001
1.207659e+003, 4.287317e+001
1.208141e+003, 4.292399e+001
1.208624e+003, 4.306890e+001
1.209106e+003, 4.317289e+001
1.209588e+003, 4.319535e+001
1.210070e+003, 4.318593e+001
1.210552e+003, 4.307138e+001
1.211034e+003, 4.302698e+001
1.211516e+003, 4.325444e+001
1.211998e+003, 4.349412e+001
1.212480e+003, 4.346448e+001
1.212963e+003, 4.323349e+001
1.213445e+003, 4.305038e+001
1.213927e+003, 4.290138e+001
1.214409e+003, 4.288978e+001
1.214891e+003, 4.307697e+001
1.215373e+003, 4.316349e+001
1.215855e+003, 4.310112e+001
1.216337e+003, 4.285620e+001
1.216819e+003, 4.236677e+001
1.217302e+003, 4.193015e+001
1.217784e+003, 4.193214e+001
1.218266e+003, 4.224078e+001
1.218748e+003, 4.250816e+001
1.219230e+003, 4.271345e+001
1.219712e+003, 4.270018e+001
1.220194e+003, 4.251026e+001
1.220676e+003, 4.238670e+001
1.221159e+003, 4.238060e+001
1.221641e+003, 4.242394e+001
1.222123e+003, 4.248357e+001
1.222605e+003, 4.249017e+001
1.223087e+003, 4.233293e+001
1.223569e+003, 4.212679e+001
1.224051e+003, 4.202306e+001
1.224533e+003, 4.193444e+001
1.225016e+003, 4.166360e+001
1.225498e+003, 4.135188e+001
1.225980e+003, 4.136999e+001
1.226462e+003, 4.169581e+001
1.226944e+003, 4.179158e+001
1.227426e+003, 4.132659e+001
1.227908e+003, 4.104761e+001
1.228390e+003, 4.151765e+001
1.228872e+003, 4.182101e+001
1.229354e+003, 4.135560e+001
1.229837e+003, 4.078824e+001
1.230319e+003, 4.061311e+001
1.230801e+003, 4.071745e+001
1.231283e+003, 4.093526e+001
1.231765e+003, 4.125681e+001
1.232247e+003, 4.128534e+001
1.232729e+003, 4.083457e+001
1.233211e+003, 4.068365e+001
1.233694e+003, 4.094715e+001
1.234176e+003, 4.123961e+001
1.234658e+003, 4.147469e+001
1.235140e+003, 4.156528e+001
1.235622e+003, 4.142343e+001
1.236104e+003, 4.120803e+001
1.236586e+003, 4.121141e+001
1.237068e+003, 4.136422e+001
1.237551e+003, 4.135291e+001
1.238033e+003, 4.122448e+001
1.238515e+003, 4.120840e+001
1.238997e+003, 4.129537e+001
1.239479e+003, 4.132143e+001
1.239961e+003, 4.124170e+001
1.240443e+003, 4.110386e+001
1.240925e+003, 4.091254e+001
1.241407e+003, 4.080886e+001
1.241890e+003, 4.100868e+001
1.242372e+003, 4.127727e+001
1.242854e+003, 4.142274e+001
1.243336e+003, 4.147121e+001
1.243818e+003, 4.141311e+001
1.244300e+003, 4.131234e+001
1.244782e+003, 4.132215e+001
1.245264e+003, 4.144894e+001
1.245746e+003, 4.143264e+001
1.246229e+003, 4.104601e+001
1.246711e+003, 4.080902e+001
1.247193e+003, 4.090846e+001
1.247675e+003, 4.103574e+001
1.248157e+003, 4.107001e+001
1.248639e+003, 4.112145e+001
1.249121e+003, 4.131267e+001
1.249603e+003, 4.152659e+001
1.250085e+003, 4.154307e+001
1.250568e+003, 4.137301e+001
1.251050e+003, 4.118515e+001
1.251532e+003, 4.096157e+001
1.252014e+003, 4.096379e+001
1.252496e+003, 4.122347e+001
1.252978e+003, 4.133539e+001
1.253460e+003, 4.117864e+001
1.253942e+003, 4.098869e+001
1.254425e+003, 4.092651e+001
1.254907e+003, 4.092904e+001
1.255389e+003, 4.092796e+001
1.255871e+003, 4.091860e+001
1.256353e+003, 4.087975e+001
1.256835e+003, 4.083319e+001
1.257317e+003, 4.079797e+001
1.257799e+003, 4.079865e+001
1.258281e+003, 4.093140e+001
1.258764e+003, 4.117054e+001
1.259246e+003, 4.126273e+001
1.259728e+003, 4.104031e+001
1.260210e+003, 4.089208e+001
1.260692e+003, 4.112443e+001
1.261174e+003, 4.130817e+001
1.261656e+003, 4.108999e+001
1.262138e+003, 4.089796e+001
1.262620e+003, 4.121276e+001
1.263103e+003, 4.168393e+001
1.263585e+003, 4.171324e+001
1.264067e+003, 4.135193e+001
1.264549e+003, 4.104003e+001
1.265031e+003, 4.074248e+001
1.265513e+003, 4.061559e+001
1.265995e+003, 4.067923e+001
1.266477e+003, 4.084954e+001
1.266960e+003, 4.112873e+001
1.267442e+003, 4.137733e+001
1.267924e+003, 4.152281e+001
1.268406e+003, 4.153917e+001
1.268888e+003, 4.132438e+001
1.269370e+003, 4.109597e+001
1.269852e+003, 4.141151e+001
1.270334e+003, 4.208892e+001
1.270817e+003, 4.298287e+001
1.271299e+003, 4.374781e+001
1.271781e+003, 4.328056e+001
1.272263e+003, 4.179133e+001
1.272745e+003, 4.074799e+001
1.273227e+003, 4.071300e+001
1.273709e+003, 4.090745e+001
1.274191e+003, 4.098605e+001
1.274673e+003, 4.100930e+001
1.275156e+003, 4.094859e+001
1.275638e+003, 4.091023e+001
1.276120e+003, 4.097063e+001
1.276602e+003, 4.108695e+001
1.277084e+003, 4.124156e+001
1.277566e+003, 4.140293e+001
1.278048e+003, 4.148463e+001
1.278530e+003, 4.148583e+001
1.279012e+003, 4.138465e+001
1.279495e+003, 4.106673e+001
1.279977e+003, 4.113279e+001
1.280459e+003, 4.177943e+001
1.280941e+003, 4.205212e+001
1.281423e+003, 4.156274e+001
1.281905e+003, 4.098370e+001
1.282387e+003, 4.083055e+001
1.282869e+003, 4.098280e+001
1.283352e+003, 4.138091e+001
1.283834e+003, 4.184629e+001
1.284316e+003, 4.199188e+001
1.284798e+003, 4.181969e+001
##END=



