##NAMES=Muirite
##RRUFFID=R140248
##IDEAL CHEMISTRY=Ba_10_Ca_2_Mn^2+^Ti^4+^Si_10_O_30_(OH)_10_
##LOCALITY=Esquire No. 7 Claim, Big Creek, Fresno County, California, USA
##OWNER=RRUFF
##SOURCE=Rock Currier
##DESCRIPTION=Scattered orange grains and aggregates associated with taramellite, walstromite and sanbornite.
##STATUS=The identification of this mineral has been confirmed by single-crystal X-ray diffraction.
##URL=rruff.info/R140248
9.059570e+001, 1.771791e+003
9.107782e+001, 1.760950e+003
9.155994e+001, 1.757182e+003
9.204205e+001, 1.768568e+003
9.252417e+001, 1.781396e+003
9.300629e+001, 1.788457e+003
9.348840e+001, 1.779664e+003
9.397052e+001, 1.749133e+003
9.445264e+001, 1.702446e+003
9.493475e+001, 1.667497e+003
9.541687e+001, 1.633383e+003
9.589898e+001, 1.602175e+003
9.638110e+001, 1.572255e+003
9.686321e+001, 1.541830e+003
9.734533e+001, 1.509035e+003
9.782745e+001, 1.472141e+003
9.830956e+001, 1.439274e+003
9.879168e+001, 1.409066e+003
9.927380e+001, 1.383088e+003
9.975591e+001, 1.362872e+003
1.002380e+002, 1.346835e+003
1.007201e+002, 1.331417e+003
1.012023e+002, 1.314326e+003
1.016844e+002, 1.296153e+003
1.021665e+002, 1.279538e+003
1.026486e+002, 1.264451e+003
1.031307e+002, 1.250560e+003
1.036128e+002, 1.237316e+003
1.040950e+002, 1.224309e+003
1.045771e+002, 1.213203e+003
1.050592e+002, 1.204797e+003
1.055413e+002, 1.198542e+003
1.060234e+002, 1.194318e+003
1.065055e+002, 1.192632e+003
1.069877e+002, 1.192939e+003
1.074698e+002, 1.193476e+003
1.079519e+002, 1.196575e+003
1.084340e+002, 1.196534e+003
1.089161e+002, 1.189984e+003
1.093982e+002, 1.178446e+003
1.098804e+002, 1.165653e+003
1.103625e+002, 1.154290e+003
1.108446e+002, 1.144028e+003
1.113267e+002, 1.137261e+003
1.118088e+002, 1.135458e+003
1.122909e+002, 1.135525e+003
1.127731e+002, 1.136541e+003
1.132552e+002, 1.138139e+003
1.137373e+002, 1.140076e+003
1.142194e+002, 1.141854e+003
1.147015e+002, 1.141869e+003
1.151836e+002, 1.145115e+003
1.156658e+002, 1.154596e+003
1.161479e+002, 1.165789e+003
1.166300e+002, 1.174187e+003
1.171121e+002, 1.178150e+003
1.175942e+002, 1.179327e+003
1.180763e+002, 1.181401e+003
1.185584e+002, 1.184778e+003
1.190406e+002, 1.187974e+003
1.195227e+002, 1.190852e+003
1.200048e+002, 1.193264e+003
1.204869e+002, 1.194589e+003
1.209690e+002, 1.193745e+003
1.214511e+002, 1.192292e+003
1.219333e+002, 1.192871e+003
1.224154e+002, 1.195179e+003
1.228975e+002, 1.199965e+003
1.233796e+002, 1.208903e+003
1.238617e+002, 1.222540e+003
1.243438e+002, 1.235757e+003
1.248260e+002, 1.245151e+003
1.253081e+002, 1.253120e+003
1.257902e+002, 1.261540e+003
1.262723e+002, 1.270631e+003
1.267544e+002, 1.280928e+003
1.272365e+002, 1.293725e+003
1.277187e+002, 1.310338e+003
1.282008e+002, 1.327563e+003
1.286829e+002, 1.345482e+003
1.291650e+002, 1.363182e+003
1.296471e+002, 1.379213e+003
1.301292e+002, 1.392415e+003
1.306114e+002, 1.403060e+003
1.310935e+002, 1.415070e+003
1.315756e+002, 1.427095e+003
1.320577e+002, 1.442057e+003
1.325398e+002, 1.461212e+003
1.330219e+002, 1.484098e+003
1.335041e+002, 1.509483e+003
1.339862e+002, 1.536620e+003
1.344683e+002, 1.566070e+003
1.349504e+002, 1.594272e+003
1.354325e+002, 1.630453e+003
1.359146e+002, 1.658792e+003
1.363968e+002, 1.671818e+003
1.368789e+002, 1.668317e+003
1.373610e+002, 1.648640e+003
1.378431e+002, 1.610624e+003
1.383252e+002, 1.549643e+003
1.388073e+002, 1.489751e+003
1.392895e+002, 1.429194e+003
1.397716e+002, 1.371347e+003
1.402537e+002, 1.320060e+003
1.407358e+002, 1.276516e+003
1.412179e+002, 1.239233e+003
1.417000e+002, 1.207096e+003
1.421821e+002, 1.179411e+003
1.426643e+002, 1.156823e+003
1.431464e+002, 1.140957e+003
1.436285e+002, 1.130769e+003
1.441106e+002, 1.122362e+003
1.445927e+002, 1.114877e+003
1.450748e+002, 1.109355e+003
1.455570e+002, 1.106642e+003
1.460391e+002, 1.106727e+003
1.465212e+002, 1.107724e+003
1.470033e+002, 1.107896e+003
1.474854e+002, 1.107064e+003
1.479675e+002, 1.107161e+003
1.484497e+002, 1.108458e+003
1.489318e+002, 1.110942e+003
1.494139e+002, 1.114561e+003
1.498960e+002, 1.119329e+003
1.503781e+002, 1.125636e+003
1.508602e+002, 1.133990e+003
1.513424e+002, 1.144621e+003
1.518245e+002, 1.157312e+003
1.523066e+002, 1.175092e+003
1.527887e+002, 1.192852e+003
1.532708e+002, 1.207704e+003
1.537529e+002, 1.218323e+003
1.542351e+002, 1.224011e+003
1.547172e+002, 1.222870e+003
1.551993e+002, 1.211703e+003
1.556814e+002, 1.196264e+003
1.561635e+002, 1.173850e+003
1.566456e+002, 1.148270e+003
1.571278e+002, 1.123620e+003
1.576099e+002, 1.101812e+003
1.580920e+002, 1.082834e+003
1.585741e+002, 1.067036e+003
1.590562e+002, 1.056224e+003
1.595383e+002, 1.045990e+003
1.600205e+002, 1.036626e+003
1.605026e+002, 1.027214e+003
1.609847e+002, 1.015660e+003
1.614668e+002, 1.000758e+003
1.619489e+002, 9.826793e+002
1.624310e+002, 9.635053e+002
1.629131e+002, 9.419049e+002
1.633953e+002, 9.206340e+002
1.638774e+002, 9.009692e+002
1.643595e+002, 8.828954e+002
1.648416e+002, 8.666946e+002
1.653237e+002, 8.525566e+002
1.658058e+002, 8.406859e+002
1.662880e+002, 8.311364e+002
1.667701e+002, 8.250041e+002
1.672522e+002, 8.202988e+002
1.677343e+002, 8.146763e+002
1.682164e+002, 8.078343e+002
1.686985e+002, 8.015619e+002
1.691807e+002, 7.973451e+002
1.696628e+002, 7.942451e+002
1.701449e+002, 7.911822e+002
1.706270e+002, 7.876339e+002
1.711091e+002, 7.839647e+002
1.715912e+002, 7.810776e+002
1.720734e+002, 7.793348e+002
1.725555e+002, 7.777617e+002
1.730376e+002, 7.762447e+002
1.735197e+002, 7.745694e+002
1.740018e+002, 7.722781e+002
1.744839e+002, 7.688008e+002
1.749661e+002, 7.645323e+002
1.754482e+002, 7.619583e+002
1.759303e+002, 7.623087e+002
1.764124e+002, 7.631835e+002
1.768945e+002, 7.641353e+002
1.773766e+002, 7.651222e+002
1.778588e+002, 7.661415e+002
1.783409e+002, 7.671719e+002
1.788230e+002, 7.682136e+002
1.793051e+002, 7.695848e+002
1.797872e+002, 7.726686e+002
1.802693e+002, 7.747363e+002
1.807515e+002, 7.748182e+002
1.812336e+002, 7.731312e+002
1.817157e+002, 7.703545e+002
1.821978e+002, 7.669718e+002
1.826799e+002, 7.628971e+002
1.831620e+002, 7.590193e+002
1.836441e+002, 7.554931e+002
1.841263e+002, 7.519729e+002
1.846084e+002, 7.479041e+002
1.850905e+002, 7.435034e+002
1.855726e+002, 7.397672e+002
1.860547e+002, 7.376552e+002
1.865368e+002, 7.374243e+002
1.870190e+002, 7.376811e+002
1.875011e+002, 7.388411e+002
1.879832e+002, 7.401729e+002
1.884653e+002, 7.412578e+002
1.889474e+002, 7.420303e+002
1.894296e+002, 7.424174e+002
1.899117e+002, 7.421680e+002
1.903938e+002, 7.413084e+002
1.908759e+002, 7.407585e+002
1.913580e+002, 7.400925e+002
1.918401e+002, 7.400276e+002
1.923223e+002, 7.418684e+002
1.928044e+002, 7.461157e+002
1.932865e+002, 7.504223e+002
1.937686e+002, 7.521550e+002
1.942507e+002, 7.520197e+002
1.947328e+002, 7.518735e+002
1.952150e+002, 7.521383e+002
1.956971e+002, 7.527903e+002
1.961792e+002, 7.538292e+002
1.966613e+002, 7.553458e+002
1.971434e+002, 7.570606e+002
1.976255e+002, 7.587416e+002
1.981077e+002, 7.604362e+002
1.985898e+002, 7.622573e+002
1.990719e+002, 7.646102e+002
1.995540e+002, 7.672353e+002
2.000361e+002, 7.689238e+002
2.005182e+002, 7.691263e+002
2.010004e+002, 7.690660e+002
2.014825e+002, 7.692285e+002
2.019646e+002, 7.696564e+002
2.024467e+002, 7.704388e+002
2.029288e+002, 7.718517e+002
2.034109e+002, 7.738357e+002
2.038930e+002, 7.752691e+002
2.043752e+002, 7.756716e+002
2.048573e+002, 7.759759e+002
2.053394e+002, 7.767093e+002
2.058215e+002, 7.776609e+002
2.063036e+002, 7.782720e+002
2.067857e+002, 7.779495e+002
2.072679e+002, 7.766201e+002
2.077500e+002, 7.758101e+002
2.082321e+002, 7.764700e+002
2.087142e+002, 7.768005e+002
2.091963e+002, 7.761478e+002
2.096784e+002, 7.746416e+002
2.101606e+002, 7.727188e+002
2.106427e+002, 7.706341e+002
2.111248e+002, 7.682654e+002
2.116069e+002, 7.669557e+002
2.120890e+002, 7.676590e+002
2.125711e+002, 7.684224e+002
2.130533e+002, 7.683344e+002
2.135354e+002, 7.675528e+002
2.140175e+002, 7.668116e+002
2.144996e+002, 7.667584e+002
2.149817e+002, 7.674396e+002
2.154638e+002, 7.686224e+002
2.159460e+002, 7.705222e+002
2.164281e+002, 7.726111e+002
2.169102e+002, 7.750306e+002
2.173923e+002, 7.775422e+002
2.178744e+002, 7.794073e+002
2.183565e+002, 7.798563e+002
2.188387e+002, 7.786758e+002
2.193208e+002, 7.777012e+002
2.198029e+002, 7.770831e+002
2.202850e+002, 7.765164e+002
2.207671e+002, 7.757983e+002
2.212492e+002, 7.749310e+002
2.217314e+002, 7.740518e+002
2.222135e+002, 7.732448e+002
2.226956e+002, 7.725267e+002
2.231777e+002, 7.720287e+002
2.236598e+002, 7.722841e+002
2.241419e+002, 7.723723e+002
2.246240e+002, 7.715606e+002
2.251062e+002, 7.698281e+002
2.255883e+002, 7.677048e+002
2.260704e+002, 7.656445e+002
2.265525e+002, 7.635579e+002
2.270346e+002, 7.609138e+002
2.275167e+002, 7.576826e+002
2.279989e+002, 7.538828e+002
2.284810e+002, 7.493538e+002
2.289631e+002, 7.440762e+002
2.294452e+002, 7.387625e+002
2.299273e+002, 7.338412e+002
2.304094e+002, 7.293275e+002
2.308916e+002, 7.252234e+002
2.313737e+002, 7.219159e+002
2.318558e+002, 7.188248e+002
2.323379e+002, 7.151373e+002
2.328200e+002, 7.107270e+002
2.333021e+002, 7.066022e+002
2.337843e+002, 7.033307e+002
2.342664e+002, 7.007803e+002
2.347485e+002, 6.989238e+002
2.352306e+002, 6.982590e+002
2.357127e+002, 6.978607e+002
2.361948e+002, 6.962277e+002
2.366770e+002, 6.929721e+002
2.371591e+002, 6.900570e+002
2.376412e+002, 6.887233e+002
2.381233e+002, 6.882181e+002
2.386054e+002, 6.877505e+002
2.390875e+002, 6.869595e+002
2.395697e+002, 6.862775e+002
2.400518e+002, 6.865285e+002
2.405339e+002, 6.880253e+002
2.410160e+002, 6.894634e+002
2.414981e+002, 6.900966e+002
2.419802e+002, 6.905261e+002
2.424624e+002, 6.913518e+002
2.429445e+002, 6.928188e+002
2.434266e+002, 6.946171e+002
2.439087e+002, 6.961258e+002
2.443908e+002, 6.970496e+002
2.448729e+002, 6.985027e+002
2.453550e+002, 7.009236e+002
2.458372e+002, 7.038721e+002
2.463193e+002, 7.071621e+002
2.468014e+002, 7.107681e+002
2.472835e+002, 7.142963e+002
2.477656e+002, 7.170709e+002
2.482477e+002, 7.188055e+002
2.487299e+002, 7.204103e+002
2.492120e+002, 7.219160e+002
2.496941e+002, 7.234432e+002
2.501762e+002, 7.251024e+002
2.506583e+002, 7.269283e+002
2.511404e+002, 7.288307e+002
2.516226e+002, 7.307103e+002
2.521047e+002, 7.326620e+002
2.525868e+002, 7.343394e+002
2.530689e+002, 7.353378e+002
2.535510e+002, 7.363427e+002
2.540331e+002, 7.380511e+002
2.545153e+002, 7.405579e+002
2.549974e+002, 7.431740e+002
2.554795e+002, 7.447016e+002
2.559616e+002, 7.441256e+002
2.564437e+002, 7.446940e+002
2.569258e+002, 7.466838e+002
2.574080e+002, 7.494305e+002
2.578901e+002, 7.527151e+002
2.583722e+002, 7.563948e+002
2.588543e+002, 7.602256e+002
2.593364e+002, 7.638508e+002
2.598185e+002, 7.670608e+002
2.603007e+002, 7.706183e+002
2.607828e+002, 7.748279e+002
2.612649e+002, 7.791048e+002
2.617470e+002, 7.831330e+002
2.622291e+002, 7.868655e+002
2.627112e+002, 7.903328e+002
2.631934e+002, 7.935457e+002
2.636755e+002, 7.963334e+002
2.641576e+002, 7.995101e+002
2.646397e+002, 8.036282e+002
2.651218e+002, 8.075864e+002
2.656039e+002, 8.110696e+002
2.660861e+002, 8.138792e+002
2.665682e+002, 8.156117e+002
2.670503e+002, 8.156832e+002
2.675324e+002, 8.136617e+002
2.680145e+002, 8.127727e+002
2.684966e+002, 8.140850e+002
2.689788e+002, 8.153186e+002
2.694609e+002, 8.152571e+002
2.699430e+002, 8.140485e+002
2.704251e+002, 8.126160e+002
2.709072e+002, 8.117484e+002
2.713893e+002, 8.114916e+002
2.718715e+002, 8.105338e+002
2.723536e+002, 8.080258e+002
2.728357e+002, 8.058027e+002
2.733178e+002, 8.046918e+002
2.737999e+002, 8.045248e+002
2.742820e+002, 8.048687e+002
2.747642e+002, 8.056027e+002
2.752463e+002, 8.065885e+002
2.757284e+002, 8.059935e+002
2.762105e+002, 8.024074e+002
2.766926e+002, 7.991591e+002
2.771747e+002, 7.977606e+002
2.776568e+002, 7.975452e+002
2.781389e+002, 7.969864e+002
2.786211e+002, 7.952462e+002
2.791032e+002, 7.925538e+002
2.795853e+002, 7.898201e+002
2.800674e+002, 7.869767e+002
2.805495e+002, 7.841735e+002
2.810316e+002, 7.814902e+002
2.815138e+002, 7.788688e+002
2.819959e+002, 7.763395e+002
2.824780e+002, 7.740092e+002
2.829601e+002, 7.714944e+002
2.834422e+002, 7.676897e+002
2.839243e+002, 7.617088e+002
2.844065e+002, 7.563005e+002
2.848886e+002, 7.522429e+002
2.853707e+002, 7.490338e+002
2.858528e+002, 7.460675e+002
2.863349e+002, 7.431869e+002
2.868170e+002, 7.402084e+002
2.872992e+002, 7.366310e+002
2.877813e+002, 7.320787e+002
2.882634e+002, 7.282806e+002
2.887455e+002, 7.253844e+002
2.892276e+002, 7.234573e+002
2.897097e+002, 7.228086e+002
2.901919e+002, 7.235364e+002
2.906740e+002, 7.249308e+002
2.911561e+002, 7.262363e+002
2.916382e+002, 7.274411e+002
2.921203e+002, 7.285902e+002
2.926024e+002, 7.292427e+002
2.930846e+002, 7.300911e+002
2.935667e+002, 7.320440e+002
2.940488e+002, 7.352018e+002
2.945309e+002, 7.384373e+002
2.950130e+002, 7.404579e+002
2.954951e+002, 7.412979e+002
2.959773e+002, 7.435068e+002
2.964594e+002, 7.481581e+002
2.969415e+002, 7.534928e+002
2.974236e+002, 7.582440e+002
2.979057e+002, 7.623515e+002
2.983878e+002, 7.662650e+002
2.988700e+002, 7.701926e+002
2.993521e+002, 7.741861e+002
2.998342e+002, 7.784643e+002
3.003163e+002, 7.833535e+002
3.007984e+002, 7.881849e+002
3.012805e+002, 7.929046e+002
3.017627e+002, 7.973606e+002
3.022448e+002, 8.009476e+002
3.027269e+002, 8.032656e+002
3.032090e+002, 8.045276e+002
3.036911e+002, 8.056644e+002
3.041732e+002, 8.076445e+002
3.046554e+002, 8.080706e+002
3.051375e+002, 8.052955e+002
3.056196e+002, 8.001188e+002
3.061017e+002, 7.945286e+002
3.065838e+002, 7.892109e+002
3.070659e+002, 7.839455e+002
3.075481e+002, 7.784138e+002
3.080302e+002, 7.727542e+002
3.085123e+002, 7.665338e+002
3.089944e+002, 7.592844e+002
3.094765e+002, 7.514611e+002
3.099586e+002, 7.438320e+002
3.104408e+002, 7.365792e+002
3.109229e+002, 7.297115e+002
3.114050e+002, 7.232131e+002
3.118871e+002, 7.169747e+002
3.123692e+002, 7.117589e+002
3.128513e+002, 7.085185e+002
3.133335e+002, 7.060127e+002
3.138156e+002, 7.026827e+002
3.142977e+002, 6.982910e+002
3.147798e+002, 6.936697e+002
3.152619e+002, 6.895582e+002
3.157440e+002, 6.859158e+002
3.162262e+002, 6.821796e+002
3.167083e+002, 6.777817e+002
3.171904e+002, 6.736414e+002
3.176725e+002, 6.706839e+002
3.181546e+002, 6.688578e+002
3.186367e+002, 6.673024e+002
3.191188e+002, 6.656013e+002
3.196010e+002, 6.636740e+002
3.200831e+002, 6.613035e+002
3.205652e+002, 6.581016e+002
3.210473e+002, 6.548484e+002
3.215294e+002, 6.519759e+002
3.220115e+002, 6.494164e+002
3.224937e+002, 6.467597e+002
3.229758e+002, 6.436165e+002
3.234579e+002, 6.405420e+002
3.239400e+002, 6.391218e+002
3.244221e+002, 6.400681e+002
3.249042e+002, 6.407901e+002
3.253864e+002, 6.406246e+002
3.258685e+002, 6.395856e+002
3.263506e+002, 6.373322e+002
3.268327e+002, 6.334742e+002
3.273148e+002, 6.294205e+002
3.277969e+002, 6.276696e+002
3.282791e+002, 6.286036e+002
3.287612e+002, 6.290612e+002
3.292433e+002, 6.282038e+002
3.297254e+002, 6.266965e+002
3.302075e+002, 6.252027e+002
3.306896e+002, 6.238365e+002
3.311718e+002, 6.226327e+002
3.316539e+002, 6.215856e+002
3.321360e+002, 6.207157e+002
3.326181e+002, 6.202325e+002
3.331002e+002, 6.200689e+002
3.335823e+002, 6.203516e+002
3.340645e+002, 6.214210e+002
3.345466e+002, 6.231603e+002
3.350287e+002, 6.248221e+002
3.355108e+002, 6.258342e+002
3.359929e+002, 6.263097e+002
3.364750e+002, 6.271140e+002
3.369572e+002, 6.288734e+002
3.374393e+002, 6.302767e+002
3.379214e+002, 6.301801e+002
3.384035e+002, 6.292824e+002
3.388856e+002, 6.294537e+002
3.393677e+002, 6.317581e+002
3.398499e+002, 6.351839e+002
3.403320e+002, 6.369179e+002
3.408141e+002, 6.363400e+002
3.412962e+002, 6.355048e+002
3.417783e+002, 6.345862e+002
3.422604e+002, 6.336947e+002
3.427426e+002, 6.331973e+002
3.432247e+002, 6.332042e+002
3.437068e+002, 6.329584e+002
3.441889e+002, 6.312390e+002
3.446710e+002, 6.270808e+002
3.451531e+002, 6.243565e+002
3.456353e+002, 6.239747e+002
3.461174e+002, 6.244428e+002
3.465995e+002, 6.247396e+002
3.470816e+002, 6.247399e+002
3.475637e+002, 6.247200e+002
3.480458e+002, 6.248970e+002
3.485280e+002, 6.252772e+002
3.490101e+002, 6.259517e+002
3.494922e+002, 6.268591e+002
3.499743e+002, 6.280635e+002
3.504564e+002, 6.295901e+002
3.509385e+002, 6.314289e+002
3.514207e+002, 6.335712e+002
3.519028e+002, 6.360076e+002
3.523849e+002, 6.387271e+002
3.528670e+002, 6.417310e+002
3.533491e+002, 6.446296e+002
3.538312e+002, 6.482822e+002
3.543134e+002, 6.534018e+002
3.547955e+002, 6.590866e+002
3.552776e+002, 6.644811e+002
3.557597e+002, 6.692557e+002
3.562418e+002, 6.733367e+002
3.567239e+002, 6.766896e+002
3.572061e+002, 6.796837e+002
3.576882e+002, 6.809240e+002
3.581703e+002, 6.789637e+002
3.586524e+002, 6.765011e+002
3.591345e+002, 6.756557e+002
3.596166e+002, 6.763929e+002
3.600987e+002, 6.770282e+002
3.605808e+002, 6.758090e+002
3.610630e+002, 6.724619e+002
3.615451e+002, 6.698770e+002
3.620272e+002, 6.696899e+002
3.625093e+002, 6.685325e+002
3.629914e+002, 6.644802e+002
3.634735e+002, 6.586697e+002
3.639557e+002, 6.533271e+002
3.644378e+002, 6.497835e+002
3.649199e+002, 6.477590e+002
3.654020e+002, 6.460784e+002
3.658841e+002, 6.448704e+002
3.663662e+002, 6.438814e+002
3.668484e+002, 6.434012e+002
3.673305e+002, 6.429603e+002
3.678126e+002, 6.418824e+002
3.682947e+002, 6.400212e+002
3.687768e+002, 6.381478e+002
3.692589e+002, 6.377383e+002
3.697411e+002, 6.398913e+002
3.702232e+002, 6.404688e+002
3.707053e+002, 6.376953e+002
3.711874e+002, 6.347890e+002
3.716695e+002, 6.332120e+002
3.721516e+002, 6.330996e+002
3.726338e+002, 6.339515e+002
3.731159e+002, 6.355145e+002
3.735980e+002, 6.377588e+002
3.740801e+002, 6.398517e+002
3.745622e+002, 6.419318e+002
3.750443e+002, 6.436454e+002
3.755265e+002, 6.450709e+002
3.760086e+002, 6.460469e+002
3.764907e+002, 6.461075e+002
3.769728e+002, 6.447662e+002
3.774549e+002, 6.430105e+002
3.779370e+002, 6.433245e+002
3.784192e+002, 6.466686e+002
3.789013e+002, 6.493592e+002
3.793834e+002, 6.500907e+002
3.798655e+002, 6.499689e+002
3.803476e+002, 6.496540e+002
3.808297e+002, 6.492883e+002
3.813119e+002, 6.489838e+002
3.817940e+002, 6.490459e+002
3.822761e+002, 6.494581e+002
3.827582e+002, 6.492191e+002
3.832403e+002, 6.477888e+002
3.837224e+002, 6.461448e+002
3.842046e+002, 6.449643e+002
3.846867e+002, 6.441551e+002
3.851688e+002, 6.433268e+002
3.856509e+002, 6.423231e+002
3.861330e+002, 6.411556e+002
3.866151e+002, 6.397548e+002
3.870973e+002, 6.380096e+002
3.875794e+002, 6.364443e+002
3.880615e+002, 6.358758e+002
3.885436e+002, 6.355192e+002
3.890257e+002, 6.340920e+002
3.895078e+002, 6.308180e+002
3.899900e+002, 6.273973e+002
3.904721e+002, 6.251866e+002
3.909542e+002, 6.241222e+002
3.914363e+002, 6.239408e+002
3.919184e+002, 6.250609e+002
3.924005e+002, 6.264055e+002
3.928827e+002, 6.263566e+002
3.933648e+002, 6.248314e+002
3.938469e+002, 6.234030e+002
3.943290e+002, 6.230483e+002
3.948111e+002, 6.230607e+002
3.952932e+002, 6.223756e+002
3.957754e+002, 6.208337e+002
3.962575e+002, 6.185952e+002
3.967396e+002, 6.152555e+002
3.972217e+002, 6.110749e+002
3.977038e+002, 6.085615e+002
3.981859e+002, 6.091882e+002
3.986681e+002, 6.102936e+002
3.991501e+002, 6.102176e+002
3.996323e+002, 6.091391e+002
4.001144e+002, 6.076976e+002
4.005965e+002, 6.060002e+002
4.010786e+002, 6.044821e+002
4.015607e+002, 6.046149e+002
4.020428e+002, 6.075686e+002
4.025250e+002, 6.098392e+002
4.030071e+002, 6.104255e+002
4.034892e+002, 6.101943e+002
4.039713e+002, 6.098564e+002
4.044534e+002, 6.096453e+002
4.049355e+002, 6.100219e+002
4.054177e+002, 6.117339e+002
4.058998e+002, 6.153281e+002
4.063819e+002, 6.173410e+002
4.068640e+002, 6.167546e+002
4.073461e+002, 6.157727e+002
4.078282e+002, 6.151204e+002
4.083104e+002, 6.149648e+002
4.087925e+002, 6.155695e+002
4.092746e+002, 6.172177e+002
4.097567e+002, 6.194865e+002
4.102388e+002, 6.204142e+002
4.107209e+002, 6.179061e+002
4.112031e+002, 6.167732e+002
4.116852e+002, 6.185235e+002
4.121673e+002, 6.211869e+002
4.126494e+002, 6.229033e+002
4.131315e+002, 6.231888e+002
4.136136e+002, 6.227912e+002
4.140958e+002, 6.226146e+002
4.145779e+002, 6.226329e+002
4.150600e+002, 6.229857e+002
4.155421e+002, 6.242735e+002
4.160242e+002, 6.253408e+002
4.165063e+002, 6.254979e+002
4.169885e+002, 6.250579e+002
4.174706e+002, 6.248510e+002
4.179527e+002, 6.255176e+002
4.184348e+002, 6.267048e+002
4.189169e+002, 6.270605e+002
4.193990e+002, 6.259476e+002
4.198812e+002, 6.254310e+002
4.203633e+002, 6.266546e+002
4.208454e+002, 6.284484e+002
4.213275e+002, 6.297845e+002
4.218096e+002, 6.304141e+002
4.222917e+002, 6.306863e+002
4.227739e+002, 6.308249e+002
4.232560e+002, 6.308421e+002
4.237381e+002, 6.310594e+002
4.242202e+002, 6.315738e+002
4.247023e+002, 6.322313e+002
4.251844e+002, 6.329379e+002
4.256666e+002, 6.336793e+002
4.261487e+002, 6.344164e+002
4.266308e+002, 6.351179e+002
4.271129e+002, 6.358129e+002
4.275950e+002, 6.365868e+002
4.280771e+002, 6.374570e+002
4.285593e+002, 6.382056e+002
4.290414e+002, 6.387561e+002
4.295235e+002, 6.390721e+002
4.300056e+002, 6.390891e+002
4.304877e+002, 6.385984e+002
4.309698e+002, 6.382946e+002
4.314520e+002, 6.387200e+002
4.319341e+002, 6.395480e+002
4.324162e+002, 6.401696e+002
4.328983e+002, 6.404453e+002
4.333804e+002, 6.403891e+002
4.338625e+002, 6.398400e+002
4.343447e+002, 6.386719e+002
4.348268e+002, 6.382508e+002
4.353089e+002, 6.394598e+002
4.357910e+002, 6.407112e+002
4.362731e+002, 6.406710e+002
4.367552e+002, 6.396871e+002
4.372374e+002, 6.391472e+002
4.377195e+002, 6.399161e+002
4.382016e+002, 6.416121e+002
4.386837e+002, 6.427737e+002
4.391658e+002, 6.425981e+002
4.396479e+002, 6.429186e+002
4.401301e+002, 6.442279e+002
4.406122e+002, 6.458757e+002
4.410943e+002, 6.472703e+002
4.415764e+002, 6.482813e+002
4.420585e+002, 6.491290e+002
4.425406e+002, 6.500465e+002
4.430227e+002, 6.510477e+002
4.435049e+002, 6.520549e+002
4.439870e+002, 6.526525e+002
4.444691e+002, 6.536968e+002
4.449512e+002, 6.558804e+002
4.454333e+002, 6.586029e+002
4.459154e+002, 6.608538e+002
4.463976e+002, 6.620555e+002
4.468797e+002, 6.627231e+002
4.473618e+002, 6.638611e+002
4.478439e+002, 6.652853e+002
4.483260e+002, 6.677367e+002
4.488081e+002, 6.724125e+002
4.492903e+002, 6.774062e+002
4.497724e+002, 6.815022e+002
4.502545e+002, 6.846609e+002
4.507366e+002, 6.876747e+002
4.512187e+002, 6.910995e+002
4.517008e+002, 6.948708e+002
4.521830e+002, 6.985345e+002
4.526651e+002, 7.018204e+002
4.531472e+002, 7.056078e+002
4.536293e+002, 7.109554e+002
4.541114e+002, 7.170048e+002
4.545935e+002, 7.224011e+002
4.550757e+002, 7.262080e+002
4.555578e+002, 7.305372e+002
4.560399e+002, 7.376348e+002
4.565220e+002, 7.468951e+002
4.570041e+002, 7.555000e+002
4.574862e+002, 7.621081e+002
4.579684e+002, 7.690034e+002
4.584505e+002, 7.799788e+002
4.589326e+002, 7.949753e+002
4.594147e+002, 8.088700e+002
4.598968e+002, 8.196257e+002
4.603789e+002, 8.296840e+002
4.608611e+002, 8.407962e+002
4.613432e+002, 8.531262e+002
4.618253e+002, 8.667533e+002
4.623074e+002, 8.820898e+002
4.627895e+002, 8.985091e+002
4.632716e+002, 9.137551e+002
4.637538e+002, 9.276124e+002
4.642359e+002, 9.406859e+002
4.647180e+002, 9.545893e+002
4.652001e+002, 9.670255e+002
4.656822e+002, 9.760876e+002
4.661643e+002, 9.812256e+002
4.666465e+002, 9.820700e+002
4.671286e+002, 9.778715e+002
4.676107e+002, 9.680915e+002
4.680928e+002, 9.580009e+002
4.685749e+002, 9.476371e+002
4.690570e+002, 9.368836e+002
4.695392e+002, 9.250217e+002
4.700213e+002, 9.129472e+002
4.705034e+002, 9.019460e+002
4.709855e+002, 8.925656e+002
4.714676e+002, 8.845765e+002
4.719497e+002, 8.778184e+002
4.724319e+002, 8.726152e+002
4.729140e+002, 8.672532e+002
4.733961e+002, 8.606774e+002
4.738782e+002, 8.546547e+002
4.743603e+002, 8.504310e+002
4.748424e+002, 8.477731e+002
4.753246e+002, 8.453973e+002
4.758067e+002, 8.424649e+002
4.762888e+002, 8.393616e+002
4.767709e+002, 8.369690e+002
4.772530e+002, 8.353937e+002
4.777351e+002, 8.339243e+002
4.782173e+002, 8.321636e+002
4.786994e+002, 8.303641e+002
4.791815e+002, 8.290237e+002
4.796636e+002, 8.283730e+002
4.801457e+002, 8.274082e+002
4.806278e+002, 8.248538e+002
4.811100e+002, 8.218370e+002
4.815920e+002, 8.205540e+002
4.820742e+002, 8.214274e+002
4.825563e+002, 8.231467e+002
4.830384e+002, 8.247861e+002
4.835205e+002, 8.262962e+002
4.840026e+002, 8.271118e+002
4.844847e+002, 8.266395e+002
4.849669e+002, 8.261556e+002
4.854490e+002, 8.261387e+002
4.859311e+002, 8.264691e+002
4.864132e+002, 8.269076e+002
4.868953e+002, 8.273651e+002
4.873774e+002, 8.279104e+002
4.878596e+002, 8.286546e+002
4.883417e+002, 8.296356e+002
4.888238e+002, 8.307432e+002
4.893059e+002, 8.316019e+002
4.897880e+002, 8.329164e+002
4.902701e+002, 8.355970e+002
4.907523e+002, 8.389919e+002
4.912344e+002, 8.415469e+002
4.917165e+002, 8.421868e+002
4.921986e+002, 8.417542e+002
4.926807e+002, 8.427900e+002
4.931628e+002, 8.462049e+002
4.936450e+002, 8.485671e+002
4.941271e+002, 8.474788e+002
4.946092e+002, 8.463039e+002
4.950913e+002, 8.475260e+002
4.955734e+002, 8.511311e+002
4.960555e+002, 8.550780e+002
4.965377e+002, 8.580308e+002
4.970198e+002, 8.602295e+002
4.975019e+002, 8.622380e+002
4.979840e+002, 8.640240e+002
4.984661e+002, 8.658086e+002
4.989482e+002, 8.674750e+002
4.994304e+002, 8.693527e+002
4.999125e+002, 8.720724e+002
5.003946e+002, 8.759750e+002
5.008767e+002, 8.799807e+002
5.013588e+002, 8.836616e+002
5.018409e+002, 8.870821e+002
5.023231e+002, 8.904934e+002
5.028052e+002, 8.939432e+002
5.032873e+002, 8.969838e+002
5.037694e+002, 8.989432e+002
5.042515e+002, 8.997842e+002
5.047336e+002, 9.020822e+002
5.052158e+002, 9.066225e+002
5.056979e+002, 9.115588e+002
5.061800e+002, 9.167082e+002
5.066621e+002, 9.216962e+002
5.071442e+002, 9.257374e+002
5.076263e+002, 9.286059e+002
5.081085e+002, 9.312538e+002
5.085906e+002, 9.351572e+002
5.090727e+002, 9.406424e+002
5.095548e+002, 9.462048e+002
5.100369e+002, 9.521086e+002
5.105190e+002, 9.578011e+002
5.110012e+002, 9.631926e+002
5.114833e+002, 9.682138e+002
5.119654e+002, 9.726127e+002
5.124475e+002, 9.760996e+002
5.129296e+002, 9.794783e+002
5.134117e+002, 9.843115e+002
5.138939e+002, 9.907886e+002
5.143760e+002, 9.974388e+002
5.148581e+002, 1.004202e+003
5.153402e+002, 1.010825e+003
5.158223e+002, 1.016898e+003
5.163044e+002, 1.022540e+003
5.167866e+002, 1.028517e+003
5.172687e+002, 1.035911e+003
5.177508e+002, 1.043408e+003
5.182329e+002, 1.049217e+003
5.187150e+002, 1.053405e+003
5.191971e+002, 1.057097e+003
5.196793e+002, 1.060612e+003
5.201614e+002, 1.064207e+003
5.206435e+002, 1.068514e+003
5.211256e+002, 1.073835e+003
5.216077e+002, 1.078870e+003
5.220898e+002, 1.083944e+003
5.225720e+002, 1.088251e+003
5.230541e+002, 1.090593e+003
5.235362e+002, 1.091250e+003
5.240183e+002, 1.091825e+003
5.245004e+002, 1.093472e+003
5.249825e+002, 1.095971e+003
5.254647e+002, 1.098256e+003
5.259468e+002, 1.100507e+003
5.264289e+002, 1.102217e+003
5.269110e+002, 1.102486e+003
5.273931e+002, 1.102828e+003
5.278752e+002, 1.104853e+003
5.283574e+002, 1.108481e+003
5.288395e+002, 1.112000e+003
5.293216e+002, 1.113791e+003
5.298037e+002, 1.114143e+003
5.302858e+002, 1.114668e+003
5.307679e+002, 1.114997e+003
5.312501e+002, 1.116361e+003
5.317322e+002, 1.120701e+003
5.322143e+002, 1.125674e+003
5.326964e+002, 1.128632e+003
5.331785e+002, 1.128906e+003
5.336606e+002, 1.129091e+003
5.341428e+002, 1.131344e+003
5.346249e+002, 1.134629e+003
5.351070e+002, 1.136441e+003
5.355891e+002, 1.136338e+003
5.360712e+002, 1.136430e+003
5.365533e+002, 1.138465e+003
5.370355e+002, 1.142085e+003
5.375176e+002, 1.144882e+003
5.379997e+002, 1.146904e+003
5.384818e+002, 1.148143e+003
5.389639e+002, 1.147655e+003
5.394460e+002, 1.146822e+003
5.399282e+002, 1.147710e+003
5.404103e+002, 1.150570e+003
5.408924e+002, 1.153613e+003
5.413745e+002, 1.154849e+003
5.418566e+002, 1.154203e+003
5.423387e+002, 1.154365e+003
5.428209e+002, 1.154955e+003
5.433029e+002, 1.156920e+003
5.437850e+002, 1.161845e+003
5.442672e+002, 1.167560e+003
5.447493e+002, 1.171449e+003
5.452314e+002, 1.172872e+003
5.457135e+002, 1.173584e+003
5.461956e+002, 1.175237e+003
5.466777e+002, 1.177816e+003
5.471599e+002, 1.181268e+003
5.476420e+002, 1.186161e+003
5.481241e+002, 1.190703e+003
5.486062e+002, 1.193206e+003
5.490883e+002, 1.194735e+003
5.495704e+002, 1.197103e+003
5.500526e+002, 1.201083e+003
5.505347e+002, 1.204904e+003
5.510168e+002, 1.207255e+003
5.514989e+002, 1.208695e+003
5.519810e+002, 1.210298e+003
5.524631e+002, 1.212281e+003
5.529453e+002, 1.214691e+003
5.534274e+002, 1.217732e+003
5.539095e+002, 1.221413e+003
5.543916e+002, 1.224184e+003
5.548737e+002, 1.225244e+003
5.553558e+002, 1.226487e+003
5.558380e+002, 1.229236e+003
5.563201e+002, 1.232102e+003
5.568022e+002, 1.232977e+003
5.572843e+002, 1.231508e+003
5.577664e+002, 1.229574e+003
5.582485e+002, 1.229434e+003
5.587307e+002, 1.231167e+003
5.592128e+002, 1.232394e+003
5.596949e+002, 1.232920e+003
5.601770e+002, 1.233173e+003
5.606591e+002, 1.233466e+003
5.611412e+002, 1.233538e+003
5.616234e+002, 1.233122e+003
5.621055e+002, 1.232165e+003
5.625876e+002, 1.230572e+003
5.630697e+002, 1.227707e+003
5.635518e+002, 1.224102e+003
5.640339e+002, 1.221709e+003
5.645161e+002, 1.220934e+003
5.649982e+002, 1.220369e+003
5.654803e+002, 1.218840e+003
5.659624e+002, 1.216706e+003
5.664445e+002, 1.215563e+003
5.669266e+002, 1.216794e+003
5.674088e+002, 1.217046e+003
5.678909e+002, 1.214499e+003
5.683730e+002, 1.210664e+003
5.688551e+002, 1.207481e+003
5.693372e+002, 1.205257e+003
5.698193e+002, 1.202934e+003
5.703015e+002, 1.199519e+003
5.707836e+002, 1.195065e+003
5.712657e+002, 1.190921e+003
5.717478e+002, 1.187601e+003
5.722299e+002, 1.183864e+003
5.727120e+002, 1.179758e+003
5.731942e+002, 1.175005e+003
5.736763e+002, 1.169105e+003
5.741584e+002, 1.162087e+003
5.746405e+002, 1.154906e+003
5.751226e+002, 1.148070e+003
5.756047e+002, 1.141710e+003
5.760869e+002, 1.136595e+003
5.765690e+002, 1.133045e+003
5.770511e+002, 1.129400e+003
5.775332e+002, 1.124838e+003
5.780153e+002, 1.119776e+003
5.784974e+002, 1.114829e+003
5.789796e+002, 1.109915e+003
5.794617e+002, 1.105539e+003
5.799438e+002, 1.102324e+003
5.804259e+002, 1.099496e+003
5.809080e+002, 1.096244e+003
5.813901e+002, 1.092498e+003
5.818723e+002, 1.088274e+003
5.823544e+002, 1.083468e+003
5.828365e+002, 1.078414e+003
5.833186e+002, 1.074237e+003
5.838007e+002, 1.071667e+003
5.842828e+002, 1.068889e+003
5.847650e+002, 1.065837e+003
5.852471e+002, 1.062609e+003
5.857292e+002, 1.059069e+003
5.862113e+002, 1.055393e+003
5.866934e+002, 1.052142e+003
5.871755e+002, 1.049875e+003
5.876577e+002, 1.047858e+003
5.881398e+002, 1.043979e+003
5.886219e+002, 1.037755e+003
5.891040e+002, 1.033017e+003
5.895861e+002, 1.031360e+003
5.900682e+002, 1.030755e+003
5.905504e+002, 1.029533e+003
5.910325e+002, 1.027720e+003
5.915146e+002, 1.025425e+003
5.919967e+002, 1.022349e+003
5.924788e+002, 1.019089e+003
5.929609e+002, 1.015843e+003
5.934431e+002, 1.012842e+003
5.939252e+002, 1.011024e+003
5.944073e+002, 1.010844e+003
5.948894e+002, 1.010853e+003
5.953715e+002, 1.008877e+003
5.958536e+002, 1.004217e+003
5.963358e+002, 1.000725e+003
5.968179e+002, 9.992861e+002
5.973000e+002, 9.978541e+002
5.977821e+002, 9.952443e+002
5.982642e+002, 9.923518e+002
5.987463e+002, 9.908596e+002
5.992285e+002, 9.912668e+002
5.997106e+002, 9.916760e+002
6.001927e+002, 9.891826e+002
6.006748e+002, 9.839365e+002
6.011569e+002, 9.806902e+002
6.016390e+002, 9.805175e+002
6.021212e+002, 9.804950e+002
6.026033e+002, 9.786959e+002
6.030854e+002, 9.760641e+002
6.035675e+002, 9.741328e+002
6.040496e+002, 9.733910e+002
6.045317e+002, 9.723997e+002
6.050139e+002, 9.700062e+002
6.054960e+002, 9.670964e+002
6.059781e+002, 9.650071e+002
6.064602e+002, 9.638638e+002
6.069423e+002, 9.630671e+002
6.074244e+002, 9.622904e+002
6.079066e+002, 9.614257e+002
6.083887e+002, 9.599291e+002
6.088708e+002, 9.567654e+002
6.093529e+002, 9.544861e+002
6.098350e+002, 9.538076e+002
6.103171e+002, 9.535159e+002
6.107993e+002, 9.527985e+002
6.112814e+002, 9.516693e+002
6.117635e+002, 9.506165e+002
6.122456e+002, 9.501091e+002
6.127277e+002, 9.495943e+002
6.132098e+002, 9.475262e+002
6.136920e+002, 9.436765e+002
6.141741e+002, 9.409031e+002
6.146562e+002, 9.404188e+002
6.151383e+002, 9.405333e+002
6.156204e+002, 9.393136e+002
6.161025e+002, 9.370400e+002
6.165847e+002, 9.354983e+002
6.170668e+002, 9.360729e+002
6.175489e+002, 9.364719e+002
6.180310e+002, 9.348818e+002
6.185131e+002, 9.321133e+002
6.189952e+002, 9.297576e+002
6.194774e+002, 9.283005e+002
6.199595e+002, 9.274405e+002
6.204416e+002, 9.269485e+002
6.209237e+002, 9.268997e+002
6.214058e+002, 9.260461e+002
6.218879e+002, 9.233363e+002
6.223701e+002, 9.211113e+002
6.228522e+002, 9.200524e+002
6.233343e+002, 9.196005e+002
6.238164e+002, 9.193928e+002
6.242985e+002, 9.192856e+002
6.247806e+002, 9.188197e+002
6.252628e+002, 9.172911e+002
6.257448e+002, 9.151680e+002
6.262269e+002, 9.137859e+002
6.267090e+002, 9.132253e+002
6.271912e+002, 9.127620e+002
6.276733e+002, 9.121392e+002
6.281554e+002, 9.113498e+002
6.286375e+002, 9.103132e+002
6.291196e+002, 9.089725e+002
6.296017e+002, 9.077179e+002
6.300839e+002, 9.065706e+002
6.305660e+002, 9.055491e+002
6.310481e+002, 9.048190e+002
6.315302e+002, 9.042050e+002
6.320123e+002, 9.031461e+002
6.324944e+002, 9.013860e+002
6.329766e+002, 8.996539e+002
6.334587e+002, 8.994092e+002
6.339408e+002, 9.010950e+002
6.344229e+002, 9.019875e+002
6.349050e+002, 9.018557e+002
6.353871e+002, 9.011328e+002
6.358693e+002, 8.994138e+002
6.363514e+002, 8.974871e+002
6.368335e+002, 8.968410e+002
6.373156e+002, 8.982142e+002
6.377977e+002, 8.991119e+002
6.382798e+002, 8.971394e+002
6.387620e+002, 8.936655e+002
6.392441e+002, 8.911051e+002
6.397262e+002, 8.897598e+002
6.402083e+002, 8.893160e+002
6.406904e+002, 8.898077e+002
6.411725e+002, 8.907835e+002
6.416547e+002, 8.907267e+002
6.421368e+002, 8.889166e+002
6.426189e+002, 8.870643e+002
6.431010e+002, 8.848420e+002
6.435831e+002, 8.828676e+002
6.440652e+002, 8.817662e+002
6.445474e+002, 8.812287e+002
6.450295e+002, 8.803801e+002
6.455116e+002, 8.787105e+002
6.459937e+002, 8.767913e+002
6.464758e+002, 8.756559e+002
6.469579e+002, 8.752966e+002
6.474401e+002, 8.746984e+002
6.479222e+002, 8.738006e+002
6.484043e+002, 8.724615e+002
6.488864e+002, 8.702365e+002
6.493685e+002, 8.674755e+002
6.498506e+002, 8.653620e+002
6.503328e+002, 8.645371e+002
6.508149e+002, 8.635264e+002
6.512970e+002, 8.612871e+002
6.517791e+002, 8.588175e+002
6.522612e+002, 8.573699e+002
6.527433e+002, 8.570259e+002
6.532255e+002, 8.571699e+002
6.537076e+002, 8.574369e+002
6.541897e+002, 8.576365e+002
6.546718e+002, 8.569506e+002
6.551539e+002, 8.548578e+002
6.556360e+002, 8.531347e+002
6.561182e+002, 8.521478e+002
6.566003e+002, 8.514841e+002
6.570824e+002, 8.510931e+002
6.575645e+002, 8.508494e+002
6.580466e+002, 8.503929e+002
6.585287e+002, 8.492824e+002
6.590109e+002, 8.483834e+002
6.594930e+002, 8.490364e+002
6.599751e+002, 8.505385e+002
6.604572e+002, 8.509272e+002
6.609393e+002, 8.497725e+002
6.614214e+002, 8.476072e+002
6.619036e+002, 8.445726e+002
6.623857e+002, 8.408831e+002
6.628678e+002, 8.388749e+002
6.633499e+002, 8.403011e+002
6.638320e+002, 8.411292e+002
6.643141e+002, 8.407397e+002
6.647963e+002, 8.398544e+002
6.652784e+002, 8.390035e+002
6.657605e+002, 8.382178e+002
6.662426e+002, 8.372533e+002
6.667247e+002, 8.358510e+002
6.672068e+002, 8.343615e+002
6.676890e+002, 8.333756e+002
6.681711e+002, 8.328893e+002
6.686532e+002, 8.327347e+002
6.691353e+002, 8.328895e+002
6.696174e+002, 8.333425e+002
6.700995e+002, 8.342402e+002
6.705817e+002, 8.355056e+002
6.710638e+002, 8.363600e+002
6.715459e+002, 8.362194e+002
6.720280e+002, 8.363599e+002
6.725101e+002, 8.373168e+002
6.729922e+002, 8.386701e+002
6.734744e+002, 8.396783e+002
6.739565e+002, 8.404756e+002
6.744386e+002, 8.421592e+002
6.749207e+002, 8.456743e+002
6.754028e+002, 8.505363e+002
6.758849e+002, 8.552846e+002
6.763671e+002, 8.599747e+002
6.768492e+002, 8.642763e+002
6.773313e+002, 8.679167e+002
6.778134e+002, 8.714084e+002
6.782955e+002, 8.750589e+002
6.787776e+002, 8.788867e+002
6.792598e+002, 8.829271e+002
6.797419e+002, 8.867763e+002
6.802240e+002, 8.913712e+002
6.807061e+002, 8.976086e+002
6.811882e+002, 9.048118e+002
6.816703e+002, 9.117787e+002
6.821525e+002, 9.183862e+002
6.826346e+002, 9.257086e+002
6.831167e+002, 9.346307e+002
6.835988e+002, 9.449991e+002
6.840809e+002, 9.560817e+002
6.845630e+002, 9.675516e+002
6.850452e+002, 9.804045e+002
6.855273e+002, 9.941261e+002
6.860094e+002, 1.009788e+003
6.864915e+002, 1.029099e+003
6.869736e+002, 1.050930e+003
6.874557e+002, 1.072141e+003
6.879379e+002, 1.091180e+003
6.884200e+002, 1.109771e+003
6.889021e+002, 1.130772e+003
6.893842e+002, 1.152206e+003
6.898663e+002, 1.169783e+003
6.903484e+002, 1.182759e+003
6.908306e+002, 1.191352e+003
6.913127e+002, 1.196437e+003
6.917948e+002, 1.196906e+003
6.922769e+002, 1.186966e+003
6.927590e+002, 1.160720e+003
6.932411e+002, 1.133045e+003
6.937233e+002, 1.103121e+003
6.942054e+002, 1.073669e+003
6.946875e+002, 1.045590e+003
6.951696e+002, 1.019262e+003
6.956517e+002, 9.953396e+002
6.961339e+002, 9.741783e+002
6.966160e+002, 9.552649e+002
6.970981e+002, 9.377748e+002
6.975802e+002, 9.220031e+002
6.980623e+002, 9.087451e+002
6.985444e+002, 8.982249e+002
6.990266e+002, 8.900759e+002
6.995087e+002, 8.844349e+002
6.999908e+002, 8.807384e+002
7.004729e+002, 8.769520e+002
7.009550e+002, 8.730638e+002
7.014371e+002, 8.691009e+002
7.019193e+002, 8.646281e+002
7.024014e+002, 8.604763e+002
7.028835e+002, 8.571817e+002
7.033656e+002, 8.546122e+002
7.038477e+002, 8.523294e+002
7.043298e+002, 8.501476e+002
7.048120e+002, 8.483558e+002
7.052941e+002, 8.474379e+002
7.057762e+002, 8.472744e+002
7.062583e+002, 8.472657e+002
7.067404e+002, 8.473552e+002
7.072225e+002, 8.476893e+002
7.077046e+002, 8.485152e+002
7.081867e+002, 8.495266e+002
7.086688e+002, 8.498472e+002
7.091509e+002, 8.489130e+002
7.096331e+002, 8.487549e+002
7.101152e+002, 8.500339e+002
7.105973e+002, 8.516017e+002
7.110794e+002, 8.531556e+002
7.115615e+002, 8.543978e+002
7.120436e+002, 8.547205e+002
7.125258e+002, 8.539321e+002
7.130079e+002, 8.530462e+002
7.134900e+002, 8.532799e+002
7.139721e+002, 8.544610e+002
7.144542e+002, 8.556200e+002
7.149363e+002, 8.566748e+002
7.154185e+002, 8.580588e+002
7.159006e+002, 8.601546e+002
7.163827e+002, 8.624863e+002
7.168648e+002, 8.643671e+002
7.173469e+002, 8.658860e+002
7.178290e+002, 8.665375e+002
7.183112e+002, 8.652978e+002
7.187933e+002, 8.642264e+002
7.192754e+002, 8.647160e+002
7.197575e+002, 8.658671e+002
7.202396e+002, 8.660878e+002
7.207217e+002, 8.651022e+002
7.212039e+002, 8.643639e+002
7.216860e+002, 8.654750e+002
7.221681e+002, 8.679457e+002
7.226502e+002, 8.698710e+002
7.231323e+002, 8.712299e+002
7.236144e+002, 8.722609e+002
7.240966e+002, 8.727913e+002
7.245787e+002, 8.734063e+002
7.250608e+002, 8.752462e+002
7.255429e+002, 8.782709e+002
7.260250e+002, 8.794861e+002
7.265071e+002, 8.762919e+002
7.269893e+002, 8.742130e+002
7.274714e+002, 8.760189e+002
7.279535e+002, 8.795307e+002
7.284356e+002, 8.823372e+002
7.289177e+002, 8.841338e+002
7.293998e+002, 8.860342e+002
7.298820e+002, 8.890482e+002
7.303641e+002, 8.923305e+002
7.308462e+002, 8.935860e+002
7.313283e+002, 8.927113e+002
7.318104e+002, 8.927270e+002
7.322925e+002, 8.945195e+002
7.327747e+002, 8.965693e+002
7.332568e+002, 8.974873e+002
7.337389e+002, 8.975742e+002
7.342210e+002, 8.984708e+002
7.347031e+002, 9.006199e+002
7.351852e+002, 9.028564e+002
7.356674e+002, 9.058971e+002
7.361495e+002, 9.081722e+002
7.366316e+002, 9.074093e+002
7.371137e+002, 9.047577e+002
7.375958e+002, 9.036666e+002
7.380779e+002, 9.059437e+002
7.385601e+002, 9.094803e+002
7.390422e+002, 9.109008e+002
7.395243e+002, 9.105167e+002
7.400064e+002, 9.116119e+002
7.404885e+002, 9.148177e+002
7.409706e+002, 9.177487e+002
7.414528e+002, 9.189183e+002
7.419349e+002, 9.190828e+002
7.424170e+002, 9.200090e+002
7.428991e+002, 9.221536e+002
7.433812e+002, 9.234574e+002
7.438633e+002, 9.225090e+002
7.443455e+002, 9.219886e+002
7.448276e+002, 9.240477e+002
7.453097e+002, 9.271887e+002
7.457918e+002, 9.287966e+002
7.462739e+002, 9.282531e+002
7.467560e+002, 9.275579e+002
7.472382e+002, 9.286590e+002
7.477203e+002, 9.311077e+002
7.482024e+002, 9.337896e+002
7.486845e+002, 9.367317e+002
7.491666e+002, 9.388986e+002
7.496487e+002, 9.397689e+002
7.501309e+002, 9.401472e+002
7.506130e+002, 9.408622e+002
7.510951e+002, 9.419048e+002
7.515772e+002, 9.435058e+002
7.520593e+002, 9.470643e+002
7.525414e+002, 9.492969e+002
7.530236e+002, 9.477206e+002
7.535057e+002, 9.457753e+002
7.539878e+002, 9.469059e+002
7.544699e+002, 9.508246e+002
7.549520e+002, 9.548203e+002
7.554341e+002, 9.574719e+002
7.559163e+002, 9.592563e+002
7.563984e+002, 9.605544e+002
7.568805e+002, 9.615184e+002
7.573626e+002, 9.629207e+002
7.578447e+002, 9.649293e+002
7.583268e+002, 9.667458e+002
7.588090e+002, 9.677452e+002
7.592911e+002, 9.682014e+002
7.597732e+002, 9.690007e+002
7.602553e+002, 9.699973e+002
7.607374e+002, 9.716832e+002
7.612195e+002, 9.746340e+002
7.617017e+002, 9.776443e+002
7.621838e+002, 9.806557e+002
7.626659e+002, 9.831824e+002
7.631480e+002, 9.843231e+002
7.636301e+002, 9.837783e+002
7.641122e+002, 9.830938e+002
7.645944e+002, 9.833261e+002
7.650765e+002, 9.841859e+002
7.655586e+002, 9.852715e+002
7.660407e+002, 9.865613e+002
7.665228e+002, 9.880656e+002
7.670049e+002, 9.897939e+002
7.674871e+002, 9.916426e+002
7.679692e+002, 9.934312e+002
7.684513e+002, 9.951455e+002
7.689334e+002, 9.973167e+002
7.694155e+002, 1.000838e+003
7.698976e+002, 1.003323e+003
7.703798e+002, 1.003465e+003
7.708619e+002, 1.003034e+003
7.713440e+002, 1.003039e+003
7.718261e+002, 1.003646e+003
7.723082e+002, 1.005168e+003
7.727903e+002, 1.008224e+003
7.732725e+002, 1.011545e+003
7.737546e+002, 1.014127e+003
7.742367e+002, 1.016447e+003
7.747188e+002, 1.019579e+003
7.752009e+002, 1.023412e+003
7.756830e+002, 1.026396e+003
7.761652e+002, 1.027413e+003
7.766473e+002, 1.027471e+003
7.771294e+002, 1.028989e+003
7.776115e+002, 1.032177e+003
7.780936e+002, 1.035479e+003
7.785757e+002, 1.038876e+003
7.790579e+002, 1.042256e+003
7.795400e+002, 1.045513e+003
7.800221e+002, 1.048733e+003
7.805042e+002, 1.052123e+003
7.809863e+002, 1.055875e+003
7.814684e+002, 1.059009e+003
7.819506e+002, 1.060341e+003
7.824327e+002, 1.061930e+003
7.829148e+002, 1.065416e+003
7.833969e+002, 1.069976e+003
7.838790e+002, 1.074425e+003
7.843611e+002, 1.078317e+003
7.848433e+002, 1.081263e+003
7.853254e+002, 1.082519e+003
7.858075e+002, 1.082799e+003
7.862896e+002, 1.084529e+003
7.867717e+002, 1.087737e+003
7.872538e+002, 1.090153e+003
7.877360e+002, 1.091295e+003
7.882181e+002, 1.091203e+003
7.887002e+002, 1.089497e+003
7.891823e+002, 1.086463e+003
7.896644e+002, 1.084604e+003
7.901465e+002, 1.085796e+003
7.906286e+002, 1.085407e+003
7.911107e+002, 1.082151e+003
7.915928e+002, 1.078090e+003
7.920750e+002, 1.074502e+003
7.925571e+002, 1.071169e+003
7.930392e+002, 1.067138e+003
7.935213e+002, 1.061960e+003
7.940034e+002, 1.057135e+003
7.944855e+002, 1.053924e+003
7.949677e+002, 1.051983e+003
7.954498e+002, 1.050917e+003
7.959319e+002, 1.050599e+003
7.964140e+002, 1.050888e+003
7.968961e+002, 1.051863e+003
7.973782e+002, 1.051853e+003
7.978604e+002, 1.048087e+003
7.983425e+002, 1.040261e+003
7.988246e+002, 1.035553e+003
7.993067e+002, 1.035459e+003
7.997888e+002, 1.035728e+003
8.002709e+002, 1.035223e+003
8.007531e+002, 1.034792e+003
8.012352e+002, 1.035284e+003
8.017173e+002, 1.036486e+003
8.021994e+002, 1.037315e+003
8.026815e+002, 1.037834e+003
8.031636e+002, 1.037426e+003
8.036458e+002, 1.034399e+003
8.041279e+002, 1.031134e+003
8.046100e+002, 1.030913e+003
8.050921e+002, 1.033311e+003
8.055742e+002, 1.035513e+003
8.060563e+002, 1.035966e+003
8.065385e+002, 1.035905e+003
8.070206e+002, 1.037753e+003
8.075027e+002, 1.041265e+003
8.079848e+002, 1.042507e+003
8.084669e+002, 1.040792e+003
8.089490e+002, 1.039641e+003
8.094312e+002, 1.040896e+003
8.099133e+002, 1.043123e+003
8.103954e+002, 1.044158e+003
8.108775e+002, 1.043769e+003
8.113596e+002, 1.043691e+003
8.118417e+002, 1.043987e+003
8.123239e+002, 1.044512e+003
8.128060e+002, 1.045527e+003
8.132881e+002, 1.046539e+003
8.137702e+002, 1.047020e+003
8.142523e+002, 1.047025e+003
8.147344e+002, 1.046932e+003
8.152166e+002, 1.046659e+003
8.156987e+002, 1.046933e+003
8.161808e+002, 1.048464e+003
8.166629e+002, 1.051124e+003
8.171450e+002, 1.055472e+003
8.176271e+002, 1.061143e+003
8.181093e+002, 1.064893e+003
8.185914e+002, 1.064740e+003
8.190735e+002, 1.062347e+003
8.195556e+002, 1.060765e+003
8.200377e+002, 1.059992e+003
8.205198e+002, 1.060016e+003
8.210020e+002, 1.060965e+003
8.214841e+002, 1.062469e+003
8.219662e+002, 1.065023e+003
8.224483e+002, 1.067614e+003
8.229304e+002, 1.068894e+003
8.234125e+002, 1.068915e+003
8.238947e+002, 1.069441e+003
8.243768e+002, 1.071324e+003
8.248589e+002, 1.073185e+003
8.253410e+002, 1.074148e+003
8.258231e+002, 1.074981e+003
8.263052e+002, 1.076890e+003
8.267874e+002, 1.079593e+003
8.272695e+002, 1.081516e+003
8.277516e+002, 1.081656e+003
8.282337e+002, 1.081269e+003
8.287158e+002, 1.081977e+003
8.291979e+002, 1.083680e+003
8.296801e+002, 1.086311e+003
8.301622e+002, 1.089854e+003
8.306443e+002, 1.092603e+003
8.311264e+002, 1.093507e+003
8.316085e+002, 1.093749e+003
8.320906e+002, 1.095432e+003
8.325728e+002, 1.098920e+003
8.330549e+002, 1.101036e+003
8.335370e+002, 1.100060e+003
8.340191e+002, 1.100171e+003
8.345012e+002, 1.103457e+003
8.349833e+002, 1.107189e+003
8.354655e+002, 1.108541e+003
8.359476e+002, 1.108117e+003
8.364297e+002, 1.109500e+003
8.369118e+002, 1.115156e+003
8.373939e+002, 1.120622e+003
8.378760e+002, 1.122981e+003
8.383582e+002, 1.124195e+003
8.388403e+002, 1.126461e+003
8.393224e+002, 1.129785e+003
8.398045e+002, 1.133206e+003
8.402866e+002, 1.136268e+003
8.407687e+002, 1.139395e+003
8.412509e+002, 1.143685e+003
8.417330e+002, 1.148662e+003
8.422151e+002, 1.150759e+003
8.426972e+002, 1.149627e+003
8.431793e+002, 1.150456e+003
8.436614e+002, 1.155481e+003
8.441436e+002, 1.162037e+003
8.446257e+002, 1.166985e+003
8.451078e+002, 1.170385e+003
8.455899e+002, 1.174747e+003
8.460720e+002, 1.180772e+003
8.465541e+002, 1.186695e+003
8.470363e+002, 1.192410e+003
8.475184e+002, 1.197932e+003
8.480005e+002, 1.203114e+003
8.484826e+002, 1.208160e+003
8.489647e+002, 1.213644e+003
8.494468e+002, 1.219903e+003
8.499290e+002, 1.225728e+003
8.504111e+002, 1.229986e+003
8.508932e+002, 1.233914e+003
8.513753e+002, 1.238653e+003
8.518574e+002, 1.244174e+003
8.523395e+002, 1.250219e+003
8.528217e+002, 1.256670e+003
8.533038e+002, 1.263586e+003
8.537859e+002, 1.270866e+003
8.542680e+002, 1.278696e+003
8.547501e+002, 1.288129e+003
8.552322e+002, 1.299187e+003
8.557144e+002, 1.308126e+003
8.561965e+002, 1.313759e+003
8.566786e+002, 1.319007e+003
8.571607e+002, 1.326073e+003
8.576428e+002, 1.334326e+003
8.581249e+002, 1.341818e+003
8.586071e+002, 1.348274e+003
8.590892e+002, 1.354490e+003
8.595713e+002, 1.359799e+003
8.600534e+002, 1.365630e+003
8.605355e+002, 1.372625e+003
8.610176e+002, 1.380356e+003
8.614998e+002, 1.388972e+003
8.619819e+002, 1.398296e+003
8.624640e+002, 1.405642e+003
8.629461e+002, 1.408013e+003
8.634282e+002, 1.410212e+003
8.639103e+002, 1.416797e+003
8.643925e+002, 1.424571e+003
8.648746e+002, 1.428934e+003
8.653567e+002, 1.429681e+003
8.658388e+002, 1.429040e+003
8.663209e+002, 1.428247e+003
8.668030e+002, 1.427254e+003
8.672852e+002, 1.425730e+003
8.677673e+002, 1.423891e+003
8.682494e+002, 1.423317e+003
8.687315e+002, 1.424174e+003
8.692136e+002, 1.423637e+003
8.696957e+002, 1.420350e+003
8.701779e+002, 1.415770e+003
8.706600e+002, 1.411770e+003
8.711421e+002, 1.408341e+003
8.716242e+002, 1.405243e+003
8.721063e+002, 1.402658e+003
8.725884e+002, 1.400071e+003
8.730705e+002, 1.397378e+003
8.735526e+002, 1.394693e+003
8.740347e+002, 1.392423e+003
8.745168e+002, 1.390176e+003
8.749990e+002, 1.386895e+003
8.754811e+002, 1.382170e+003
8.759632e+002, 1.377208e+003
8.764453e+002, 1.372119e+003
8.769274e+002, 1.367271e+003
8.774095e+002, 1.363210e+003
8.778917e+002, 1.359484e+003
8.783738e+002, 1.355220e+003
8.788559e+002, 1.350295e+003
8.793380e+002, 1.345423e+003
8.798201e+002, 1.341102e+003
8.803022e+002, 1.337224e+003
8.807844e+002, 1.333934e+003
8.812665e+002, 1.330929e+003
8.817486e+002, 1.326940e+003
8.822307e+002, 1.321823e+003
8.827128e+002, 1.316759e+003
8.831949e+002, 1.312527e+003
8.836771e+002, 1.308728e+003
8.841592e+002, 1.304439e+003
8.846413e+002, 1.299450e+003
8.851234e+002, 1.295628e+003
8.856055e+002, 1.293745e+003
8.860876e+002, 1.291065e+003
8.865698e+002, 1.286334e+003
8.870519e+002, 1.280684e+003
8.875340e+002, 1.274656e+003
8.880161e+002, 1.268426e+003
8.884982e+002, 1.264454e+003
8.889803e+002, 1.264448e+003
8.894625e+002, 1.264389e+003
8.899446e+002, 1.264053e+003
8.904267e+002, 1.263015e+003
8.909088e+002, 1.260668e+003
8.913909e+002, 1.257501e+003
8.918730e+002, 1.254247e+003
8.923552e+002, 1.251049e+003
8.928373e+002, 1.248769e+003
8.933194e+002, 1.248456e+003
8.938015e+002, 1.248921e+003
8.942836e+002, 1.249147e+003
8.947657e+002, 1.249099e+003
8.952479e+002, 1.248645e+003
8.957300e+002, 1.247855e+003
8.962121e+002, 1.247307e+003
8.966942e+002, 1.247502e+003
8.971763e+002, 1.247936e+003
8.976584e+002, 1.247195e+003
8.981406e+002, 1.245521e+003
8.986227e+002, 1.245659e+003
8.991048e+002, 1.248006e+003
8.995869e+002, 1.250202e+003
9.000690e+002, 1.251103e+003
9.005511e+002, 1.251401e+003
9.010333e+002, 1.252214e+003
9.015154e+002, 1.253609e+003
9.019975e+002, 1.253896e+003
9.024796e+002, 1.251949e+003
9.029617e+002, 1.251010e+003
9.034438e+002, 1.252735e+003
9.039260e+002, 1.254625e+003
9.044081e+002, 1.254450e+003
9.048902e+002, 1.253194e+003
9.053723e+002, 1.253539e+003
9.058544e+002, 1.256465e+003
9.063365e+002, 1.258994e+003
9.068187e+002, 1.260856e+003
9.073008e+002, 1.261632e+003
9.077829e+002, 1.259678e+003
9.082650e+002, 1.257186e+003
9.087471e+002, 1.257780e+003
9.092292e+002, 1.261463e+003
9.097114e+002, 1.264036e+003
9.101935e+002, 1.261923e+003
9.106756e+002, 1.259406e+003
9.111577e+002, 1.261673e+003
9.116398e+002, 1.266312e+003
9.121219e+002, 1.268839e+003
9.126041e+002, 1.269104e+003
9.130862e+002, 1.269172e+003
9.135683e+002, 1.270021e+003
9.140504e+002, 1.271222e+003
9.145325e+002, 1.272369e+003
9.150146e+002, 1.273380e+003
9.154968e+002, 1.273408e+003
9.159789e+002, 1.272384e+003
9.164610e+002, 1.272826e+003
9.169431e+002, 1.275585e+003
9.174252e+002, 1.279031e+003
9.179073e+002, 1.281938e+003
9.183895e+002, 1.284388e+003
9.188716e+002, 1.286653e+003
9.193537e+002, 1.288577e+003
9.198358e+002, 1.290772e+003
9.203179e+002, 1.293805e+003
9.208000e+002, 1.296263e+003
9.212822e+002, 1.296644e+003
9.217643e+002, 1.296763e+003
9.222464e+002, 1.299092e+003
9.227285e+002, 1.303494e+003
9.232106e+002, 1.306406e+003
9.236927e+002, 1.305791e+003
9.241749e+002, 1.305706e+003
9.246570e+002, 1.308182e+003
9.251391e+002, 1.310802e+003
9.256212e+002, 1.310993e+003
9.261033e+002, 1.309990e+003
9.265854e+002, 1.310875e+003
9.270676e+002, 1.314614e+003
9.275497e+002, 1.318158e+003
9.280318e+002, 1.318977e+003
9.285139e+002, 1.319105e+003
9.289960e+002, 1.320871e+003
9.294781e+002, 1.323433e+003
9.299603e+002, 1.324821e+003
9.304424e+002, 1.324978e+003
9.309245e+002, 1.325625e+003
9.314066e+002, 1.327893e+003
9.318887e+002, 1.330968e+003
9.323708e+002, 1.333893e+003
9.328530e+002, 1.336510e+003
9.333351e+002, 1.337913e+003
9.338172e+002, 1.338128e+003
9.342993e+002, 1.338364e+003
9.347814e+002, 1.338976e+003
9.352635e+002, 1.340624e+003
9.357457e+002, 1.344201e+003
9.362278e+002, 1.349335e+003
9.367099e+002, 1.354186e+003
9.371920e+002, 1.359248e+003
9.376741e+002, 1.361570e+003
9.381563e+002, 1.359653e+003
9.386384e+002, 1.357557e+003
9.391205e+002, 1.357518e+003
9.396026e+002, 1.358633e+003
9.400847e+002, 1.359123e+003
9.405668e+002, 1.358593e+003
9.410490e+002, 1.359783e+003
9.415311e+002, 1.365038e+003
9.420132e+002, 1.368761e+003
9.424953e+002, 1.368718e+003
9.429774e+002, 1.367878e+003
9.434595e+002, 1.368191e+003
9.439417e+002, 1.369505e+003
9.444238e+002, 1.371143e+003
9.449059e+002, 1.373058e+003
9.453880e+002, 1.374993e+003
9.458701e+002, 1.376831e+003
9.463522e+002, 1.378701e+003
9.468344e+002, 1.380700e+003
9.473165e+002, 1.382759e+003
9.477986e+002, 1.384721e+003
9.482807e+002, 1.386614e+003
9.487628e+002, 1.388713e+003
9.492449e+002, 1.391230e+003
9.497271e+002, 1.393832e+003
9.502092e+002, 1.396609e+003
9.506913e+002, 1.399043e+003
9.511734e+002, 1.399920e+003
9.516555e+002, 1.399716e+003
9.521376e+002, 1.399994e+003
9.526198e+002, 1.401328e+003
9.531019e+002, 1.403703e+003
9.535840e+002, 1.407531e+003
9.540661e+002, 1.411875e+003
9.545482e+002, 1.414453e+003
9.550303e+002, 1.415428e+003
9.555124e+002, 1.415729e+003
9.559945e+002, 1.415491e+003
9.564766e+002, 1.415203e+003
9.569587e+002, 1.415150e+003
9.574409e+002, 1.415007e+003
9.579230e+002, 1.414003e+003
9.584051e+002, 1.412178e+003
9.588872e+002, 1.412616e+003
9.593693e+002, 1.415937e+003
9.598514e+002, 1.418793e+003
9.603336e+002, 1.420140e+003
9.608157e+002, 1.421671e+003
9.612978e+002, 1.425059e+003
9.617799e+002, 1.429287e+003
9.622620e+002, 1.431353e+003
9.627441e+002, 1.430210e+003
9.632263e+002, 1.430158e+003
9.637084e+002, 1.432688e+003
9.641905e+002, 1.434285e+003
9.646726e+002, 1.432967e+003
9.651547e+002, 1.431226e+003
9.656368e+002, 1.431090e+003
9.661190e+002, 1.432411e+003
9.666011e+002, 1.434292e+003
9.670832e+002, 1.437221e+003
9.675653e+002, 1.439491e+003
9.680474e+002, 1.440192e+003
9.685295e+002, 1.440728e+003
9.690117e+002, 1.441649e+003
9.694938e+002, 1.443032e+003
9.699759e+002, 1.445298e+003
9.704580e+002, 1.448237e+003
9.709401e+002, 1.450239e+003
9.714222e+002, 1.449771e+003
9.719044e+002, 1.449527e+003
9.723865e+002, 1.451530e+003
9.728686e+002, 1.454367e+003
9.733507e+002, 1.456815e+003
9.738328e+002, 1.458744e+003
9.743149e+002, 1.459955e+003
9.747971e+002, 1.460520e+003
9.752792e+002, 1.461655e+003
9.757613e+002, 1.465070e+003
9.762434e+002, 1.468738e+003
9.767255e+002, 1.468936e+003
9.772076e+002, 1.467639e+003
9.776898e+002, 1.469719e+003
9.781719e+002, 1.474996e+003
9.786540e+002, 1.479309e+003
9.791361e+002, 1.480704e+003
9.796182e+002, 1.481024e+003
9.801003e+002, 1.482537e+003
9.805825e+002, 1.484843e+003
9.810646e+002, 1.486415e+003
9.815467e+002, 1.487394e+003
9.820288e+002, 1.489109e+003
9.825109e+002, 1.491813e+003
9.829930e+002, 1.494487e+003
9.834752e+002, 1.496551e+003
9.839573e+002, 1.497746e+003
9.844394e+002, 1.497164e+003
9.849215e+002, 1.494783e+003
9.854036e+002, 1.494324e+003
9.858857e+002, 1.496129e+003
9.863679e+002, 1.497805e+003
9.868500e+002, 1.498593e+003
9.873321e+002, 1.499568e+003
9.878142e+002, 1.501720e+003
9.882963e+002, 1.504604e+003
9.887784e+002, 1.506764e+003
9.892606e+002, 1.507776e+003
9.897427e+002, 1.509635e+003
9.902248e+002, 1.513375e+003
9.907069e+002, 1.515890e+003
9.911890e+002, 1.515276e+003
9.916711e+002, 1.514075e+003
9.921533e+002, 1.514451e+003
9.926354e+002, 1.516332e+003
9.931175e+002, 1.519383e+003
9.935996e+002, 1.524987e+003
9.940817e+002, 1.529265e+003
9.945638e+002, 1.531329e+003
9.950460e+002, 1.533094e+003
9.955281e+002, 1.534905e+003
9.960102e+002, 1.537049e+003
9.964923e+002, 1.540041e+003
9.969744e+002, 1.543742e+003
9.974565e+002, 1.546997e+003
9.979387e+002, 1.548993e+003
9.984208e+002, 1.551501e+003
9.989029e+002, 1.555530e+003
9.993850e+002, 1.559591e+003
9.998671e+002, 1.562460e+003
1.000349e+003, 1.564887e+003
1.000831e+003, 1.567975e+003
1.001313e+003, 1.571847e+003
1.001796e+003, 1.575888e+003
1.002278e+003, 1.579839e+003
1.002760e+003, 1.583886e+003
1.003242e+003, 1.588061e+003
1.003724e+003, 1.592421e+003
1.004206e+003, 1.597394e+003
1.004688e+003, 1.602505e+003
1.005170e+003, 1.606801e+003
1.005653e+003, 1.610131e+003
1.006135e+003, 1.613513e+003
1.006617e+003, 1.617672e+003
1.007099e+003, 1.622073e+003
1.007581e+003, 1.626230e+003
1.008063e+003, 1.630293e+003
1.008545e+003, 1.635259e+003
1.009027e+003, 1.640251e+003
1.009509e+003, 1.642183e+003
1.009992e+003, 1.640251e+003
1.010474e+003, 1.638614e+003
1.010956e+003, 1.641938e+003
1.011438e+003, 1.646547e+003
1.011920e+003, 1.646376e+003
1.012402e+003, 1.643296e+003
1.012884e+003, 1.641226e+003
1.013366e+003, 1.640732e+003
1.013849e+003, 1.641911e+003
1.014331e+003, 1.644744e+003
1.014813e+003, 1.647180e+003
1.015295e+003, 1.646430e+003
1.015777e+003, 1.643969e+003
1.016259e+003, 1.643391e+003
1.016741e+003, 1.644450e+003
1.017223e+003, 1.646650e+003
1.017705e+003, 1.649644e+003
1.018188e+003, 1.650624e+003
1.018670e+003, 1.648040e+003
1.019152e+003, 1.644612e+003
1.019634e+003, 1.644175e+003
1.020116e+003, 1.646113e+003
1.020598e+003, 1.647361e+003
1.021080e+003, 1.647958e+003
1.021562e+003, 1.649393e+003
1.022044e+003, 1.652005e+003
1.022527e+003, 1.653671e+003
1.023009e+003, 1.652971e+003
1.023491e+003, 1.651646e+003
1.023973e+003, 1.652777e+003
1.024455e+003, 1.656120e+003
1.024937e+003, 1.657091e+003
1.025419e+003, 1.655219e+003
1.025901e+003, 1.655139e+003
1.026384e+003, 1.658013e+003
1.026866e+003, 1.661472e+003
1.027348e+003, 1.664202e+003
1.027830e+003, 1.666292e+003
1.028312e+003, 1.667832e+003
1.028794e+003, 1.668815e+003
1.029276e+003, 1.669889e+003
1.029758e+003, 1.671296e+003
1.030240e+003, 1.671904e+003
1.030723e+003, 1.671225e+003
1.031205e+003, 1.670279e+003
1.031687e+003, 1.669281e+003
1.032169e+003, 1.668948e+003
1.032651e+003, 1.670859e+003
1.033133e+003, 1.675262e+003
1.033615e+003, 1.679787e+003
1.034097e+003, 1.684769e+003
1.034579e+003, 1.689123e+003
1.035062e+003, 1.692707e+003
1.035544e+003, 1.695472e+003
1.036026e+003, 1.697019e+003
1.036508e+003, 1.697886e+003
1.036990e+003, 1.699154e+003
1.037472e+003, 1.700808e+003
1.037954e+003, 1.702905e+003
1.038436e+003, 1.706129e+003
1.038919e+003, 1.708663e+003
1.039401e+003, 1.709934e+003
1.039883e+003, 1.710714e+003
1.040365e+003, 1.711071e+003
1.040847e+003, 1.711433e+003
1.041329e+003, 1.712657e+003
1.041811e+003, 1.714791e+003
1.042293e+003, 1.717625e+003
1.042776e+003, 1.722322e+003
1.043258e+003, 1.726131e+003
1.043740e+003, 1.727899e+003
1.044222e+003, 1.729303e+003
1.044704e+003, 1.731254e+003
1.045186e+003, 1.733664e+003
1.045668e+003, 1.736164e+003
1.046150e+003, 1.738583e+003
1.046632e+003, 1.742098e+003
1.047115e+003, 1.746783e+003
1.047597e+003, 1.752633e+003
1.048079e+003, 1.759744e+003
1.048561e+003, 1.767897e+003
1.049043e+003, 1.778014e+003
1.049525e+003, 1.788677e+003
1.050007e+003, 1.797697e+003
1.050489e+003, 1.804802e+003
1.050971e+003, 1.809852e+003
1.051454e+003, 1.809935e+003
1.051936e+003, 1.811844e+003
1.052418e+003, 1.819263e+003
1.052900e+003, 1.827589e+003
1.053382e+003, 1.831925e+003
1.053864e+003, 1.835354e+003
1.054346e+003, 1.844311e+003
1.054828e+003, 1.859861e+003
1.055311e+003, 1.875079e+003
1.055793e+003, 1.887964e+003
1.056275e+003, 1.900490e+003
1.056757e+003, 1.910250e+003
1.057239e+003, 1.922887e+003
1.057721e+003, 1.938087e+003
1.058203e+003, 1.961015e+003
1.058685e+003, 1.999221e+003
1.059167e+003, 2.053921e+003
1.059650e+003, 2.122980e+003
1.060132e+003, 2.244321e+003
1.060614e+003, 2.327817e+003
1.061096e+003, 2.333387e+003
1.061578e+003, 2.294571e+003
1.062060e+003, 2.214558e+003
1.062542e+003, 2.118615e+003
1.063024e+003, 2.041000e+003
1.063506e+003, 1.987277e+003
1.063989e+003, 1.947024e+003
1.064471e+003, 1.921079e+003
1.064953e+003, 1.901004e+003
1.065435e+003, 1.884789e+003
1.065917e+003, 1.871637e+003
1.066399e+003, 1.861978e+003
1.066881e+003, 1.854432e+003
1.067363e+003, 1.846521e+003
1.067846e+003, 1.838326e+003
1.068328e+003, 1.833369e+003
1.068810e+003, 1.833747e+003
1.069292e+003, 1.836242e+003
1.069774e+003, 1.841400e+003
1.070256e+003, 1.846142e+003
1.070738e+003, 1.848535e+003
1.071220e+003, 1.848847e+003
1.071703e+003, 1.846234e+003
1.072185e+003, 1.841724e+003
1.072667e+003, 1.840913e+003
1.073149e+003, 1.848023e+003
1.073631e+003, 1.854082e+003
1.074113e+003, 1.853650e+003
1.074595e+003, 1.851981e+003
1.075077e+003, 1.851926e+003
1.075559e+003, 1.853555e+003
1.076042e+003, 1.857338e+003
1.076524e+003, 1.862674e+003
1.077006e+003, 1.867319e+003
1.077488e+003, 1.870745e+003
1.077970e+003, 1.872698e+003
1.078452e+003, 1.871055e+003
1.078934e+003, 1.870119e+003
1.079416e+003, 1.873982e+003
1.079898e+003, 1.879397e+003
1.080380e+003, 1.882072e+003
1.080863e+003, 1.882481e+003
1.081345e+003, 1.884088e+003
1.081827e+003, 1.888248e+003
1.082309e+003, 1.892134e+003
1.082791e+003, 1.893411e+003
1.083273e+003, 1.895269e+003
1.083755e+003, 1.900694e+003
1.084237e+003, 1.906881e+003
1.084720e+003, 1.910825e+003
1.085202e+003, 1.912808e+003
1.085684e+003, 1.914359e+003
1.086166e+003, 1.915790e+003
1.086648e+003, 1.917535e+003
1.087130e+003, 1.919855e+003
1.087612e+003, 1.922423e+003
1.088094e+003, 1.925139e+003
1.088577e+003, 1.927992e+003
1.089059e+003, 1.931340e+003
1.089541e+003, 1.934715e+003
1.090023e+003, 1.936768e+003
1.090505e+003, 1.937243e+003
1.090987e+003, 1.938941e+003
1.091469e+003, 1.944714e+003
1.091951e+003, 1.949578e+003
1.092433e+003, 1.951535e+003
1.092916e+003, 1.951677e+003
1.093398e+003, 1.949191e+003
1.093880e+003, 1.946284e+003
1.094362e+003, 1.946697e+003
1.094844e+003, 1.950750e+003
1.095326e+003, 1.954818e+003
1.095808e+003, 1.958142e+003
1.096290e+003, 1.960754e+003
1.096772e+003, 1.961534e+003
1.097255e+003, 1.962813e+003
1.097737e+003, 1.966495e+003
1.098219e+003, 1.971330e+003
1.098701e+003, 1.975825e+003
1.099183e+003, 1.979749e+003
1.099665e+003, 1.983132e+003
1.100147e+003, 1.985795e+003
1.100629e+003, 1.988267e+003
1.101112e+003, 1.990655e+003
1.101594e+003, 1.992874e+003
1.102076e+003, 1.994228e+003
1.102558e+003, 1.995892e+003
1.103040e+003, 1.999948e+003
1.103522e+003, 2.005443e+003
1.104004e+003, 2.008344e+003
1.104486e+003, 2.006652e+003
1.104969e+003, 2.006910e+003
1.105451e+003, 2.011821e+003
1.105933e+003, 2.016831e+003
1.106415e+003, 2.020641e+003
1.106897e+003, 2.023690e+003
1.107379e+003, 2.025482e+003
1.107861e+003, 2.027035e+003
1.108343e+003, 2.031053e+003
1.108825e+003, 2.038412e+003
1.109307e+003, 2.044312e+003
1.109790e+003, 2.048769e+003
1.110272e+003, 2.051113e+003
1.110754e+003, 2.048149e+003
1.111236e+003, 2.046249e+003
1.111718e+003, 2.050889e+003
1.112200e+003, 2.058276e+003
1.112682e+003, 2.061797e+003
1.113164e+003, 2.061134e+003
1.113647e+003, 2.062003e+003
1.114129e+003, 2.066227e+003
1.114611e+003, 2.068917e+003
1.115093e+003, 2.067053e+003
1.115575e+003, 2.067380e+003
1.116057e+003, 2.074787e+003
1.116539e+003, 2.083936e+003
1.117021e+003, 2.088554e+003
1.117504e+003, 2.089247e+003
1.117986e+003, 2.090456e+003
1.118468e+003, 2.091921e+003
1.118950e+003, 2.094553e+003
1.119432e+003, 2.099068e+003
1.119914e+003, 2.103258e+003
1.120396e+003, 2.106173e+003
1.120878e+003, 2.109035e+003
1.121360e+003, 2.113238e+003
1.121843e+003, 2.117959e+003
1.122325e+003, 2.120454e+003
1.122807e+003, 2.119946e+003
1.123289e+003, 2.122377e+003
1.123771e+003, 2.129239e+003
1.124253e+003, 2.133684e+003
1.124735e+003, 2.133290e+003
1.125217e+003, 2.133179e+003
1.125699e+003, 2.136541e+003
1.126182e+003, 2.142341e+003
1.126664e+003, 2.149340e+003
1.127146e+003, 2.157290e+003
1.127628e+003, 2.160797e+003
1.128110e+003, 2.158987e+003
1.128592e+003, 2.161015e+003
1.129074e+003, 2.168669e+003
1.129556e+003, 2.175105e+003
1.130039e+003, 2.176932e+003
1.130521e+003, 2.177847e+003
1.131003e+003, 2.182093e+003
1.131485e+003, 2.188768e+003
1.131967e+003, 2.194890e+003
1.132449e+003, 2.200457e+003
1.132931e+003, 2.205434e+003
1.133413e+003, 2.209862e+003
1.133896e+003, 2.214059e+003
1.134378e+003, 2.218128e+003
1.134860e+003, 2.221695e+003
1.135342e+003, 2.224468e+003
1.135824e+003, 2.226583e+003
1.136306e+003, 2.227432e+003
1.136788e+003, 2.227937e+003
1.137270e+003, 2.232287e+003
1.137752e+003, 2.239734e+003
1.138234e+003, 2.246745e+003
1.138717e+003, 2.252577e+003
1.139199e+003, 2.257154e+003
1.139681e+003, 2.260459e+003
1.140163e+003, 2.263584e+003
1.140645e+003, 2.267844e+003
1.141127e+003, 2.272719e+003
1.141609e+003, 2.277406e+003
1.142091e+003, 2.281933e+003
1.142574e+003, 2.286499e+003
1.143056e+003, 2.290951e+003
1.143538e+003, 2.294540e+003
1.144020e+003, 2.297187e+003
1.144502e+003, 2.300219e+003
1.144984e+003, 2.304705e+003
1.145466e+003, 2.309691e+003
1.145948e+003, 2.313592e+003
1.146431e+003, 2.317891e+003
1.146913e+003, 2.325781e+003
1.147395e+003, 2.334902e+003
1.147877e+003, 2.340330e+003
1.148359e+003, 2.342151e+003
1.148841e+003, 2.344511e+003
1.149323e+003, 2.349173e+003
1.149805e+003, 2.354534e+003
1.150287e+003, 2.360154e+003
1.150770e+003, 2.365472e+003
1.151252e+003, 2.369298e+003
1.151734e+003, 2.373247e+003
1.152216e+003, 2.379680e+003
1.152698e+003, 2.387516e+003
1.153180e+003, 2.394183e+003
1.153662e+003, 2.399144e+003
1.154144e+003, 2.402938e+003
1.154626e+003, 2.404058e+003
1.155109e+003, 2.406501e+003
1.155591e+003, 2.412447e+003
1.156073e+003, 2.419177e+003
1.156555e+003, 2.424859e+003
1.157037e+003, 2.430452e+003
1.157519e+003, 2.438050e+003
1.158001e+003, 2.447188e+003
1.158483e+003, 2.453927e+003
1.158966e+003, 2.456716e+003
1.159448e+003, 2.459752e+003
1.159930e+003, 2.462222e+003
1.160412e+003, 2.466490e+003
1.160894e+003, 2.474616e+003
1.161376e+003, 2.483144e+003
1.161858e+003, 2.489322e+003
1.162340e+003, 2.494209e+003
1.162822e+003, 2.500243e+003
1.163305e+003, 2.507656e+003
1.163787e+003, 2.513594e+003
1.164269e+003, 2.516892e+003
1.164751e+003, 2.522409e+003
1.165233e+003, 2.531848e+003
1.165715e+003, 2.540263e+003
1.166197e+003, 2.545114e+003
1.166679e+003, 2.548370e+003
1.167161e+003, 2.551944e+003
1.167644e+003, 2.556322e+003
1.168126e+003, 2.564624e+003
1.168608e+003, 2.577118e+003
1.169090e+003, 2.584251e+003
1.169572e+003, 2.585419e+003
1.170054e+003, 2.587938e+003
1.170536e+003, 2.593787e+003
1.171018e+003, 2.600759e+003
1.171500e+003, 2.607372e+003
1.171983e+003, 2.614083e+003
1.172465e+003, 2.622036e+003
1.172947e+003, 2.630551e+003
1.173429e+003, 2.637102e+003
1.173911e+003, 2.642236e+003
1.174393e+003, 2.647820e+003
1.174875e+003, 2.654188e+003
1.175357e+003, 2.661734e+003
1.175840e+003, 2.670514e+003
1.176322e+003, 2.678908e+003
1.176804e+003, 2.685649e+003
1.177286e+003, 2.691314e+003
1.177768e+003, 2.695232e+003
1.178250e+003, 2.699550e+003
1.178732e+003, 2.708695e+003
1.179214e+003, 2.720175e+003
1.179697e+003, 2.728546e+003
1.180179e+003, 2.733673e+003
1.180661e+003, 2.739193e+003
1.181143e+003, 2.746656e+003
1.181625e+003, 2.754199e+003
1.182107e+003, 2.761108e+003
1.182589e+003, 2.767156e+003
1.183071e+003, 2.770364e+003
1.183553e+003, 2.774228e+003
1.184036e+003, 2.783406e+003
1.184518e+003, 2.795171e+003
1.185000e+003, 2.804005e+003
1.185482e+003, 2.809257e+003
1.185964e+003, 2.814766e+003
1.186446e+003, 2.819964e+003
1.186928e+003, 2.827872e+003
1.187410e+003, 2.842692e+003
1.187892e+003, 2.855761e+003
1.188375e+003, 2.861917e+003
1.188857e+003, 2.866029e+003
1.189339e+003, 2.872597e+003
1.189821e+003, 2.880706e+003
1.190303e+003, 2.887361e+003
1.190785e+003, 2.892040e+003
1.191267e+003, 2.898252e+003
1.191749e+003, 2.905657e+003
1.192232e+003, 2.915898e+003
1.192714e+003, 2.930551e+003
1.193196e+003, 2.943927e+003
1.193678e+003, 2.952781e+003
1.194160e+003, 2.960131e+003
1.194642e+003, 2.969687e+003
1.195124e+003, 2.980665e+003
1.195606e+003, 2.989533e+003
1.196089e+003, 2.996420e+003
1.196571e+003, 3.005589e+003
1.197053e+003, 3.017060e+003
1.197535e+003, 3.028492e+003
1.198017e+003, 3.039209e+003
1.198499e+003, 3.048917e+003
1.198981e+003, 3.057374e+003
1.199463e+003, 3.065464e+003
1.199945e+003, 3.073487e+003
1.200427e+003, 3.082564e+003
1.200910e+003, 3.096863e+003
1.201392e+003, 3.113320e+003
1.201874e+003, 3.125009e+003
1.202356e+003, 3.132517e+003
1.202838e+003, 3.139297e+003
1.203320e+003, 3.146689e+003
1.203802e+003, 3.155774e+003
1.204284e+003, 3.167754e+003
1.204767e+003, 3.179887e+003
1.205249e+003, 3.189741e+003
1.205731e+003, 3.199204e+003
1.206213e+003, 3.209542e+003
1.206695e+003, 3.220550e+003
1.207177e+003, 3.232920e+003
1.207659e+003, 3.245505e+003
1.208141e+003, 3.254925e+003
1.208624e+003, 3.260188e+003
1.209106e+003, 3.267760e+003
1.209588e+003, 3.280696e+003
1.210070e+003, 3.293753e+003
1.210552e+003, 3.305503e+003
1.211034e+003, 3.317675e+003
1.211516e+003, 3.332182e+003
1.211998e+003, 3.346594e+003
1.212480e+003, 3.358088e+003
1.212963e+003, 3.367506e+003
1.213445e+003, 3.378087e+003
1.213927e+003, 3.390386e+003
1.214409e+003, 3.400479e+003
1.214891e+003, 3.407226e+003
1.215373e+003, 3.416628e+003
1.215855e+003, 3.430551e+003
1.216337e+003, 3.443478e+003
1.216819e+003, 3.452296e+003
1.217302e+003, 3.459576e+003
1.217784e+003, 3.468249e+003
1.218266e+003, 3.478246e+003
1.218748e+003, 3.489847e+003
1.219230e+003, 3.502529e+003
1.219712e+003, 3.513593e+003
1.220194e+003, 3.523112e+003
1.220676e+003, 3.531429e+003
1.221159e+003, 3.539076e+003
1.221641e+003, 3.548395e+003
1.222123e+003, 3.560725e+003
1.222605e+003, 3.574243e+003
1.223087e+003, 3.587373e+003
1.223569e+003, 3.600435e+003
1.224051e+003, 3.614001e+003
1.224533e+003, 3.627531e+003
1.225016e+003, 3.640528e+003
1.225498e+003, 3.652591e+003
1.225980e+003, 3.662740e+003
1.226462e+003, 3.671082e+003
1.226944e+003, 3.679590e+003
1.227426e+003, 3.688863e+003
1.227908e+003, 3.698228e+003
1.228390e+003, 3.707893e+003
1.228872e+003, 3.716887e+003
1.229354e+003, 3.722773e+003
1.229837e+003, 3.729817e+003
1.230319e+003, 3.742849e+003
1.230801e+003, 3.758628e+003
1.231283e+003, 3.771528e+003
1.231765e+003, 3.781655e+003
1.232247e+003, 3.790203e+003
1.232729e+003, 3.795860e+003
1.233211e+003, 3.804435e+003
1.233694e+003, 3.817414e+003
1.234176e+003, 3.828983e+003
1.234658e+003, 3.837156e+003
1.235140e+003, 3.844880e+003
1.235622e+003, 3.854465e+003
1.236104e+003, 3.864265e+003
1.236586e+003, 3.870921e+003
1.237068e+003, 3.875631e+003
1.237551e+003, 3.884567e+003
1.238033e+003, 3.896252e+003
1.238515e+003, 3.903508e+003
1.238997e+003, 3.906782e+003
1.239479e+003, 3.911970e+003
1.239961e+003, 3.920703e+003
1.240443e+003, 3.930855e+003
1.240925e+003, 3.941271e+003
1.241407e+003, 3.951734e+003
1.241890e+003, 3.962544e+003
1.242372e+003, 3.972795e+003
1.242854e+003, 3.981447e+003
1.243336e+003, 3.989302e+003
1.243818e+003, 3.997280e+003
1.244300e+003, 4.005372e+003
1.244782e+003, 4.012288e+003
1.245264e+003, 4.018287e+003
1.245746e+003, 4.028461e+003
1.246229e+003, 4.048242e+003
1.246711e+003, 4.064605e+003
1.247193e+003, 4.072783e+003
1.247675e+003, 4.080738e+003
1.248157e+003, 4.091346e+003
1.248639e+003, 4.102333e+003
1.249121e+003, 4.111666e+003
1.249603e+003, 4.120808e+003
1.250085e+003, 4.133025e+003
1.250568e+003, 4.147899e+003
1.251050e+003, 4.158088e+003
1.251532e+003, 4.162845e+003
1.252014e+003, 4.171117e+003
1.252496e+003, 4.183710e+003
1.252978e+003, 4.196413e+003
1.253460e+003, 4.207965e+003
1.253942e+003, 4.220146e+003
1.254425e+003, 4.234159e+003
1.254907e+003, 4.248797e+003
1.255389e+003, 4.262802e+003
1.255871e+003, 4.275715e+003
1.256353e+003, 4.285788e+003
1.256835e+003, 4.294503e+003
1.257317e+003, 4.304064e+003
1.257799e+003, 4.314701e+003
1.258281e+003, 4.326224e+003
1.258764e+003, 4.338606e+003
1.259246e+003, 4.352455e+003
1.259728e+003, 4.368721e+003
1.260210e+003, 4.383710e+003
1.260692e+003, 4.394674e+003
1.261174e+003, 4.405315e+003
1.261656e+003, 4.416286e+003
1.262138e+003, 4.428796e+003
1.262620e+003, 4.446343e+003
1.263103e+003, 4.464477e+003
1.263585e+003, 4.474400e+003
1.264067e+003, 4.477698e+003
1.264549e+003, 4.487609e+003
1.265031e+003, 4.506389e+003
1.265513e+003, 4.524250e+003
1.265995e+003, 4.541185e+003
1.266477e+003, 4.556867e+003
1.266960e+003, 4.571546e+003
1.267442e+003, 4.581704e+003
1.267924e+003, 4.584813e+003
1.268406e+003, 4.587829e+003
1.268888e+003, 4.599607e+003
1.269370e+003, 4.616433e+003
1.269852e+003, 4.630566e+003
1.270334e+003, 4.642585e+003
1.270817e+003, 4.653333e+003
1.271299e+003, 4.663527e+003
1.271781e+003, 4.674923e+003
1.272263e+003, 4.687436e+003
1.272745e+003, 4.699346e+003
1.273227e+003, 4.709995e+003
1.273709e+003, 4.720847e+003
1.274191e+003, 4.733123e+003
1.274673e+003, 4.745473e+003
1.275156e+003, 4.758024e+003
1.275638e+003, 4.769638e+003
1.276120e+003, 4.778821e+003
1.276602e+003, 4.787295e+003
1.277084e+003, 4.796799e+003
1.277566e+003, 4.807319e+003
1.278048e+003, 4.818502e+003
1.278530e+003, 4.830625e+003
1.279012e+003, 4.840916e+003
1.279495e+003, 4.848458e+003
1.279977e+003, 4.856552e+003
1.280459e+003, 4.865754e+003
1.280941e+003, 4.876041e+003
1.281423e+003, 4.887734e+003
1.281905e+003, 4.896828e+003
1.282387e+003, 4.899870e+003
1.282869e+003, 4.900664e+003
1.283352e+003, 4.905375e+003
1.283834e+003, 4.912324e+003
1.284316e+003, 4.917546e+003
1.284798e+003, 4.921281e+003
##END=



