##NAMES=Muirite
##RRUFFID=R150098
##IDEAL CHEMISTRY=Ba_10_Ca_2_Mn^2+^Ti^4+^Si_10_O_30_(OH)_10_
##LOCALITY=Esquire No. 7 mine, Big Creek, Fresno County, California, USA
##OWNER=RRUFF
##SOURCE=James Shigley
##DESCRIPTION=Isolated orange granular crystals, associated with quartz and sanbornite. Note that the c-cell edge is doubled relative to the literature
##STATUS=The identification of this mineral has been confirmed by single-crystal X-ray diffraction.
##URL=rruff.info/R150098
9.059570e+001, 2.493608e+003
9.107782e+001, 2.466828e+003
9.155994e+001, 2.457427e+003
9.204205e+001, 2.476551e+003
9.252417e+001, 2.505580e+003
9.300629e+001, 2.538497e+003
9.348840e+001, 2.559954e+003
9.397052e+001, 2.554115e+003
9.445264e+001, 2.516799e+003
9.493475e+001, 2.485422e+003
9.541687e+001, 2.451588e+003
9.589898e+001, 2.415796e+003
9.638110e+001, 2.380448e+003
9.686321e+001, 2.347094e+003
9.734533e+001, 2.314638e+003
9.782745e+001, 2.279233e+003
9.830956e+001, 2.250211e+003
9.879168e+001, 2.228981e+003
9.927380e+001, 2.210955e+003
9.975591e+001, 2.195229e+003
1.002380e+002, 2.181185e+003
1.007201e+002, 2.168117e+003
1.012023e+002, 2.155786e+003
1.016844e+002, 2.143882e+003
1.021665e+002, 2.131445e+003
1.026486e+002, 2.116394e+003
1.031307e+002, 2.101750e+003
1.036128e+002, 2.090021e+003
1.040950e+002, 2.080972e+003
1.045771e+002, 2.074811e+003
1.050592e+002, 2.071175e+003
1.055413e+002, 2.069735e+003
1.060234e+002, 2.070867e+003
1.065055e+002, 2.075715e+003
1.069877e+002, 2.083312e+003
1.074698e+002, 2.090051e+003
1.079519e+002, 2.096357e+003
1.084340e+002, 2.100777e+003
1.089161e+002, 2.102923e+003
1.093982e+002, 2.102869e+003
1.098804e+002, 2.100792e+003
1.103625e+002, 2.096191e+003
1.108446e+002, 2.088147e+003
1.113267e+002, 2.082391e+003
1.118088e+002, 2.079411e+003
1.122909e+002, 2.077996e+003
1.127731e+002, 2.077230e+003
1.132552e+002, 2.077185e+003
1.137373e+002, 2.078924e+003
1.142194e+002, 2.084045e+003
1.147015e+002, 2.094735e+003
1.151836e+002, 2.105461e+003
1.156658e+002, 2.116777e+003
1.161479e+002, 2.127921e+003
1.166300e+002, 2.137946e+003
1.171121e+002, 2.146491e+003
1.175942e+002, 2.154314e+003
1.180763e+002, 2.163374e+003
1.185584e+002, 2.174981e+003
1.190406e+002, 2.184998e+003
1.195227e+002, 2.191300e+003
1.200048e+002, 2.194915e+003
1.204869e+002, 2.198469e+003
1.209690e+002, 2.202299e+003
1.214511e+002, 2.207590e+003
1.219333e+002, 2.215781e+003
1.224154e+002, 2.227271e+003
1.228975e+002, 2.240881e+003
1.233796e+002, 2.255791e+003
1.238617e+002, 2.272096e+003
1.243438e+002, 2.289044e+003
1.248260e+002, 2.307358e+003
1.253081e+002, 2.325649e+003
1.257902e+002, 2.342495e+003
1.262723e+002, 2.356826e+003
1.267544e+002, 2.369919e+003
1.272365e+002, 2.384303e+003
1.277187e+002, 2.399878e+003
1.282008e+002, 2.417328e+003
1.286829e+002, 2.437821e+003
1.291650e+002, 2.459845e+003
1.296471e+002, 2.481310e+003
1.301292e+002, 2.500861e+003
1.306114e+002, 2.518654e+003
1.310935e+002, 2.536790e+003
1.315756e+002, 2.554931e+003
1.320577e+002, 2.573954e+003
1.325398e+002, 2.593763e+003
1.330219e+002, 2.614633e+003
1.335041e+002, 2.637038e+003
1.339862e+002, 2.661672e+003
1.344683e+002, 2.689187e+003
1.349504e+002, 2.715291e+003
1.354325e+002, 2.746533e+003
1.359146e+002, 2.771819e+003
1.363968e+002, 2.786280e+003
1.368789e+002, 2.788952e+003
1.373610e+002, 2.779293e+003
1.378431e+002, 2.755345e+003
1.383252e+002, 2.714196e+003
1.388073e+002, 2.668317e+003
1.392895e+002, 2.612691e+003
1.397716e+002, 2.554702e+003
1.402537e+002, 2.502416e+003
1.407358e+002, 2.457751e+003
1.412179e+002, 2.419186e+003
1.417000e+002, 2.385559e+003
1.421821e+002, 2.356210e+003
1.426643e+002, 2.331759e+003
1.431464e+002, 2.312937e+003
1.436285e+002, 2.299376e+003
1.441106e+002, 2.289758e+003
1.445927e+002, 2.284737e+003
1.450748e+002, 2.283106e+003
1.455570e+002, 2.283520e+003
1.460391e+002, 2.285937e+003
1.465212e+002, 2.289380e+003
1.470033e+002, 2.293188e+003
1.474854e+002, 2.297387e+003
1.479675e+002, 2.301742e+003
1.484497e+002, 2.305269e+003
1.489318e+002, 2.309626e+003
1.494139e+002, 2.315414e+003
1.498960e+002, 2.322825e+003
1.503781e+002, 2.332455e+003
1.508602e+002, 2.345069e+003
1.513424e+002, 2.361001e+003
1.518245e+002, 2.379953e+003
1.523066e+002, 2.404667e+003
1.527887e+002, 2.430237e+003
1.532708e+002, 2.455193e+003
1.537529e+002, 2.478493e+003
1.542351e+002, 2.496988e+003
1.547172e+002, 2.502550e+003
1.551993e+002, 2.486694e+003
1.556814e+002, 2.465953e+003
1.561635e+002, 2.438920e+003
1.566456e+002, 2.408200e+003
1.571278e+002, 2.375983e+003
1.576099e+002, 2.343083e+003
1.580920e+002, 2.310594e+003
1.585741e+002, 2.283637e+003
1.590562e+002, 2.265013e+003
1.595383e+002, 2.247762e+003
1.600205e+002, 2.231244e+003
1.605026e+002, 2.215013e+003
1.609847e+002, 2.198218e+003
1.614668e+002, 2.180614e+003
1.619489e+002, 2.161920e+003
1.624310e+002, 2.141834e+003
1.629131e+002, 2.118782e+003
1.633953e+002, 2.096025e+003
1.638774e+002, 2.075187e+003
1.643595e+002, 2.056218e+003
1.648416e+002, 2.039111e+003
1.653237e+002, 2.024078e+003
1.658058e+002, 2.011093e+003
1.662880e+002, 1.999645e+003
1.667701e+002, 1.989359e+003
1.672522e+002, 1.980797e+003
1.677343e+002, 1.975057e+003
1.682164e+002, 1.972568e+003
1.686985e+002, 1.970913e+003
1.691807e+002, 1.968826e+003
1.696628e+002, 1.966707e+003
1.701449e+002, 1.965136e+003
1.706270e+002, 1.964611e+003
1.711091e+002, 1.964608e+003
1.715912e+002, 1.963965e+003
1.720734e+002, 1.962660e+003
1.725555e+002, 1.960661e+003
1.730376e+002, 1.957636e+003
1.735197e+002, 1.954103e+003
1.740018e+002, 1.950702e+003
1.744839e+002, 1.947681e+003
1.749661e+002, 1.945132e+003
1.754482e+002, 1.943686e+003
1.759303e+002, 1.944484e+003
1.764124e+002, 1.945214e+003
1.768945e+002, 1.945325e+003
1.773766e+002, 1.944931e+003
1.778588e+002, 1.944133e+003
1.783409e+002, 1.942773e+003
1.788230e+002, 1.940832e+003
1.793051e+002, 1.941227e+003
1.797872e+002, 1.947557e+003
1.802693e+002, 1.952679e+003
1.807515e+002, 1.953537e+003
1.812336e+002, 1.951179e+003
1.817157e+002, 1.948748e+003
1.821978e+002, 1.949102e+003
1.826799e+002, 1.952762e+003
1.831620e+002, 1.953819e+003
1.836441e+002, 1.950891e+003
1.841263e+002, 1.947224e+003
1.846084e+002, 1.943727e+003
1.850905e+002, 1.940758e+003
1.855726e+002, 1.938934e+003
1.860547e+002, 1.938912e+003
1.865368e+002, 1.940985e+003
1.870190e+002, 1.943475e+003
1.875011e+002, 1.947118e+003
1.879832e+002, 1.950641e+003
1.884653e+002, 1.952932e+003
1.889474e+002, 1.953904e+003
1.894296e+002, 1.954566e+003
1.899117e+002, 1.955885e+003
1.903938e+002, 1.957851e+003
1.908759e+002, 1.959711e+003
1.913580e+002, 1.961180e+003
1.918401e+002, 1.962601e+003
1.923223e+002, 1.964433e+003
1.928044e+002, 1.966789e+003
1.932865e+002, 1.969246e+003
1.937686e+002, 1.971226e+003
1.942507e+002, 1.972916e+003
1.947328e+002, 1.974984e+003
1.952150e+002, 1.978525e+003
1.956971e+002, 1.982441e+003
1.961792e+002, 1.984145e+003
1.966613e+002, 1.982344e+003
1.971434e+002, 1.980715e+003
1.976255e+002, 1.982461e+003
1.981077e+002, 1.986547e+003
1.985898e+002, 1.990406e+003
1.990719e+002, 1.992867e+003
1.995540e+002, 1.994064e+003
2.000361e+002, 1.994407e+003
2.005182e+002, 1.993068e+003
2.010004e+002, 1.992058e+003
2.014825e+002, 1.992577e+003
2.019646e+002, 1.994245e+003
2.024467e+002, 1.996079e+003
2.029288e+002, 1.997095e+003
2.034109e+002, 1.997419e+003
2.038930e+002, 1.999224e+003
2.043752e+002, 2.003788e+003
2.048573e+002, 2.008652e+003
2.053394e+002, 2.013174e+003
2.058215e+002, 2.017250e+003
2.063036e+002, 2.020811e+003
2.067857e+002, 2.023548e+003
2.072679e+002, 2.025370e+003
2.077500e+002, 2.028230e+003
2.082321e+002, 2.032644e+003
2.087142e+002, 2.037708e+003
2.091963e+002, 2.043568e+003
2.096784e+002, 2.049911e+003
2.101606e+002, 2.056059e+003
2.106427e+002, 2.061275e+003
2.111248e+002, 2.065282e+003
2.116069e+002, 2.070558e+003
2.120890e+002, 2.078182e+003
2.125711e+002, 2.085911e+003
2.130533e+002, 2.092689e+003
2.135354e+002, 2.098707e+003
2.140175e+002, 2.104893e+003
2.144996e+002, 2.112044e+003
2.149817e+002, 2.120199e+003
2.154638e+002, 2.129342e+003
2.159460e+002, 2.139725e+003
2.164281e+002, 2.150642e+003
2.169102e+002, 2.162286e+003
2.173923e+002, 2.174332e+003
2.178744e+002, 2.185939e+003
2.183565e+002, 2.196224e+003
2.188387e+002, 2.204997e+003
2.193208e+002, 2.213784e+003
2.198029e+002, 2.223198e+003
2.202850e+002, 2.232179e+003
2.207671e+002, 2.240003e+003
2.212492e+002, 2.246694e+003
2.217314e+002, 2.252795e+003
2.222135e+002, 2.258571e+003
2.226956e+002, 2.264020e+003
2.231777e+002, 2.270295e+003
2.236598e+002, 2.278828e+003
2.241419e+002, 2.287148e+003
2.246240e+002, 2.293071e+003
2.251062e+002, 2.296583e+003
2.255883e+002, 2.299661e+003
2.260704e+002, 2.304177e+003
2.265525e+002, 2.309761e+003
2.270346e+002, 2.313790e+003
2.275167e+002, 2.315747e+003
2.279989e+002, 2.316303e+003
2.284810e+002, 2.315676e+003
2.289631e+002, 2.313849e+003
2.294452e+002, 2.311862e+003
2.299273e+002, 2.310576e+003
2.304094e+002, 2.309715e+003
2.308916e+002, 2.308486e+003
2.313737e+002, 2.305979e+003
2.318558e+002, 2.303481e+003
2.323379e+002, 2.302860e+003
2.328200e+002, 2.304430e+003
2.333021e+002, 2.305648e+003
2.337843e+002, 2.304049e+003
2.342664e+002, 2.301186e+003
2.347485e+002, 2.299401e+003
2.352306e+002, 2.299316e+003
2.357127e+002, 2.300531e+003
2.361948e+002, 2.302494e+003
2.366770e+002, 2.305170e+003
2.371591e+002, 2.308826e+003
2.376412e+002, 2.313935e+003
2.381233e+002, 2.320027e+003
2.386054e+002, 2.326821e+003
2.390875e+002, 2.334364e+003
2.395697e+002, 2.342389e+003
2.400518e+002, 2.350693e+003
2.405339e+002, 2.359708e+003
2.410160e+002, 2.367689e+003
2.414981e+002, 2.372785e+003
2.419802e+002, 2.377062e+003
2.424624e+002, 2.382333e+003
2.429445e+002, 2.389144e+003
2.434266e+002, 2.397352e+003
2.439087e+002, 2.407055e+003
2.443908e+002, 2.418958e+003
2.448729e+002, 2.430366e+003
2.453550e+002, 2.441240e+003
2.458372e+002, 2.450972e+003
2.463193e+002, 2.458571e+003
2.468014e+002, 2.463618e+003
2.472835e+002, 2.467510e+003
2.477656e+002, 2.472898e+003
2.482477e+002, 2.480701e+003
2.487299e+002, 2.487746e+003
2.492120e+002, 2.493713e+003
2.496941e+002, 2.498674e+003
2.501762e+002, 2.502333e+003
2.506583e+002, 2.504661e+003
2.511404e+002, 2.506441e+003
2.516226e+002, 2.509174e+003
2.521047e+002, 2.513760e+003
2.525868e+002, 2.517196e+003
2.530689e+002, 2.519108e+003
2.535510e+002, 2.520087e+003
2.540331e+002, 2.520366e+003
2.545153e+002, 2.520074e+003
2.549974e+002, 2.519489e+003
2.554795e+002, 2.518968e+003
2.559616e+002, 2.518360e+003
2.564437e+002, 2.518223e+003
2.569258e+002, 2.518939e+003
2.574080e+002, 2.519780e+003
2.578901e+002, 2.520152e+003
2.583722e+002, 2.520012e+003
2.588543e+002, 2.519870e+003
2.593364e+002, 2.520403e+003
2.598185e+002, 2.521762e+003
2.603007e+002, 2.523497e+003
2.607828e+002, 2.526616e+003
2.612649e+002, 2.529282e+003
2.617470e+002, 2.529976e+003
2.622291e+002, 2.528771e+003
2.627112e+002, 2.527156e+003
2.631934e+002, 2.526903e+003
2.636755e+002, 2.528610e+003
2.641576e+002, 2.529483e+003
2.646397e+002, 2.528776e+003
2.651218e+002, 2.528014e+003
2.656039e+002, 2.528380e+003
2.660861e+002, 2.529672e+003
2.665682e+002, 2.530603e+003
2.670503e+002, 2.529796e+003
2.675324e+002, 2.526853e+003
2.680145e+002, 2.524712e+003
2.684966e+002, 2.525802e+003
2.689788e+002, 2.525379e+003
2.694609e+002, 2.519894e+003
2.699430e+002, 2.510389e+003
2.704251e+002, 2.501059e+003
2.709072e+002, 2.495511e+003
2.713893e+002, 2.493976e+003
2.718715e+002, 2.490330e+003
2.723536e+002, 2.483172e+003
2.728357e+002, 2.475775e+003
2.733178e+002, 2.468742e+003
2.737999e+002, 2.462522e+003
2.742820e+002, 2.458276e+003
2.747642e+002, 2.457173e+003
2.752463e+002, 2.458773e+003
2.757284e+002, 2.457571e+003
2.762105e+002, 2.452614e+003
2.766926e+002, 2.446645e+003
2.771747e+002, 2.439753e+003
2.776568e+002, 2.432497e+003
2.781389e+002, 2.426103e+003
2.786211e+002, 2.421338e+003
2.791032e+002, 2.417790e+003
2.795853e+002, 2.413644e+003
2.800674e+002, 2.408194e+003
2.805495e+002, 2.403089e+003
2.810316e+002, 2.399036e+003
2.815138e+002, 2.395579e+003
2.819959e+002, 2.392003e+003
2.824780e+002, 2.388068e+003
2.829601e+002, 2.383666e+003
2.834422e+002, 2.378406e+003
2.839243e+002, 2.371233e+003
2.844065e+002, 2.365255e+003
2.848886e+002, 2.361701e+003
2.853707e+002, 2.359570e+003
2.858528e+002, 2.357192e+003
2.863349e+002, 2.353915e+003
2.868170e+002, 2.350887e+003
2.872992e+002, 2.350234e+003
2.877813e+002, 2.352444e+003
2.882634e+002, 2.355054e+003
2.887455e+002, 2.357988e+003
2.892276e+002, 2.361001e+003
2.897097e+002, 2.363558e+003
2.901919e+002, 2.365504e+003
2.906740e+002, 2.367665e+003
2.911561e+002, 2.371136e+003
2.916382e+002, 2.376031e+003
2.921203e+002, 2.381400e+003
2.926024e+002, 2.387565e+003
2.930846e+002, 2.393932e+003
2.935667e+002, 2.399140e+003
2.940488e+002, 2.403110e+003
2.945309e+002, 2.408684e+003
2.950130e+002, 2.419172e+003
2.954951e+002, 2.434703e+003
2.959773e+002, 2.448557e+003
2.964594e+002, 2.458785e+003
2.969415e+002, 2.468491e+003
2.974236e+002, 2.480386e+003
2.979057e+002, 2.494350e+003
2.983878e+002, 2.508232e+003
2.988700e+002, 2.520404e+003
2.993521e+002, 2.531118e+003
2.998342e+002, 2.542522e+003
3.003163e+002, 2.554869e+003
3.007984e+002, 2.567542e+003
3.012805e+002, 2.580751e+003
3.017627e+002, 2.594209e+003
3.022448e+002, 2.607335e+003
3.027269e+002, 2.620992e+003
3.032090e+002, 2.633100e+003
3.036911e+002, 2.638222e+003
3.041732e+002, 2.634353e+003
3.046554e+002, 2.627830e+003
3.051375e+002, 2.621109e+003
3.056196e+002, 2.613879e+003
3.061017e+002, 2.605433e+003
3.065838e+002, 2.595702e+003
3.070659e+002, 2.584298e+003
3.075481e+002, 2.570173e+003
3.080302e+002, 2.553056e+003
3.085123e+002, 2.535364e+003
3.089944e+002, 2.517843e+003
3.094765e+002, 2.500286e+003
3.099586e+002, 2.482350e+003
3.104408e+002, 2.463892e+003
3.109229e+002, 2.445554e+003
3.114050e+002, 2.428382e+003
3.118871e+002, 2.412263e+003
3.123692e+002, 2.396817e+003
3.128513e+002, 2.382187e+003
3.133335e+002, 2.368091e+003
3.138156e+002, 2.353789e+003
3.142977e+002, 2.339162e+003
3.147798e+002, 2.325459e+003
3.152619e+002, 2.314198e+003
3.157440e+002, 2.305200e+003
3.162262e+002, 2.295638e+003
3.167083e+002, 2.284854e+003
3.171904e+002, 2.273722e+003
3.176725e+002, 2.262833e+003
3.181546e+002, 2.252190e+003
3.186367e+002, 2.241903e+003
3.191188e+002, 2.231970e+003
3.196010e+002, 2.222528e+003
3.200831e+002, 2.213679e+003
3.205652e+002, 2.205394e+003
3.210473e+002, 2.197664e+003
3.215294e+002, 2.190622e+003
3.220115e+002, 2.184185e+003
3.224937e+002, 2.177979e+003
3.229758e+002, 2.171996e+003
3.234579e+002, 2.166013e+003
3.239400e+002, 2.159440e+003
3.244221e+002, 2.151460e+003
3.249042e+002, 2.144644e+003
3.253864e+002, 2.140102e+003
3.258685e+002, 2.137300e+003
3.263506e+002, 2.135515e+003
3.268327e+002, 2.134762e+003
3.273148e+002, 2.134073e+003
3.277969e+002, 2.131643e+003
3.282791e+002, 2.127131e+003
3.287612e+002, 2.123263e+003
3.292433e+002, 2.121117e+003
3.297254e+002, 2.119622e+003
3.302075e+002, 2.117346e+003
3.306896e+002, 2.114042e+003
3.311718e+002, 2.110835e+003
3.316539e+002, 2.108649e+003
3.321360e+002, 2.107606e+003
3.326181e+002, 2.107930e+003
3.331002e+002, 2.110556e+003
3.335823e+002, 2.113846e+003
3.340645e+002, 2.116101e+003
3.345466e+002, 2.117556e+003
3.350287e+002, 2.120575e+003
3.355108e+002, 2.127341e+003
3.359929e+002, 2.137108e+003
3.364750e+002, 2.144094e+003
3.369572e+002, 2.146488e+003
3.374393e+002, 2.148419e+003
3.379214e+002, 2.150538e+003
3.384035e+002, 2.153478e+003
3.388856e+002, 2.159201e+003
3.393677e+002, 2.169113e+003
3.398499e+002, 2.181153e+003
3.403320e+002, 2.189447e+003
3.408141e+002, 2.191707e+003
3.412962e+002, 2.194947e+003
3.417783e+002, 2.200949e+003
3.422604e+002, 2.208492e+003
3.427426e+002, 2.216210e+003
3.432247e+002, 2.223684e+003
3.437068e+002, 2.230798e+003
3.441889e+002, 2.237261e+003
3.446710e+002, 2.242600e+003
3.451531e+002, 2.248781e+003
3.456353e+002, 2.256034e+003
3.461174e+002, 2.263950e+003
3.465995e+002, 2.272469e+003
3.470816e+002, 2.281418e+003
3.475637e+002, 2.290410e+003
3.480458e+002, 2.298980e+003
3.485280e+002, 2.307136e+003
3.490101e+002, 2.315354e+003
3.494922e+002, 2.322854e+003
3.499743e+002, 2.331175e+003
3.504564e+002, 2.341104e+003
3.509385e+002, 2.352316e+003
3.514207e+002, 2.364102e+003
3.519028e+002, 2.376009e+003
3.523849e+002, 2.388107e+003
3.528670e+002, 2.400860e+003
3.533491e+002, 2.416094e+003
3.538312e+002, 2.429697e+003
3.543134e+002, 2.439191e+003
3.547955e+002, 2.447558e+003
3.552776e+002, 2.459022e+003
3.557597e+002, 2.474924e+003
3.562418e+002, 2.492166e+003
3.567239e+002, 2.505606e+003
3.572061e+002, 2.513511e+003
3.576882e+002, 2.520694e+003
3.581703e+002, 2.528243e+003
3.586524e+002, 2.534350e+003
3.591345e+002, 2.537189e+003
3.596166e+002, 2.536992e+003
3.600987e+002, 2.535740e+003
3.605808e+002, 2.535386e+003
3.610630e+002, 2.536103e+003
3.615451e+002, 2.535935e+003
3.620272e+002, 2.535718e+003
3.625093e+002, 2.533828e+003
3.629914e+002, 2.528711e+003
3.634735e+002, 2.521568e+003
3.639557e+002, 2.514730e+003
3.644378e+002, 2.509643e+003
3.649199e+002, 2.505815e+003
3.654020e+002, 2.501169e+003
3.658841e+002, 2.495656e+003
3.663662e+002, 2.489279e+003
3.668484e+002, 2.481113e+003
3.673305e+002, 2.472640e+003
3.678126e+002, 2.465391e+003
3.682947e+002, 2.459851e+003
3.687768e+002, 2.455156e+003
3.692589e+002, 2.450169e+003
3.697411e+002, 2.445335e+003
3.702232e+002, 2.438925e+003
3.707053e+002, 2.427721e+003
3.711874e+002, 2.417636e+003
3.716695e+002, 2.412866e+003
3.721516e+002, 2.412642e+003
3.726338e+002, 2.412457e+003
3.731159e+002, 2.408280e+003
3.735980e+002, 2.400239e+003
3.740801e+002, 2.392294e+003
3.745622e+002, 2.383289e+003
3.750443e+002, 2.375941e+003
3.755265e+002, 2.372232e+003
3.760086e+002, 2.370391e+003
3.764907e+002, 2.367813e+003
3.769728e+002, 2.363223e+003
3.774549e+002, 2.357160e+003
3.779370e+002, 2.350606e+003
3.784192e+002, 2.343242e+003
3.789013e+002, 2.336310e+003
3.793834e+002, 2.330901e+003
3.798655e+002, 2.325604e+003
3.803476e+002, 2.319129e+003
3.808297e+002, 2.311240e+003
3.813119e+002, 2.303134e+003
3.817940e+002, 2.296332e+003
3.822761e+002, 2.290782e+003
3.827582e+002, 2.284312e+003
3.832403e+002, 2.276032e+003
3.837224e+002, 2.267473e+003
3.842046e+002, 2.259143e+003
3.846867e+002, 2.251306e+003
3.851688e+002, 2.244628e+003
3.856509e+002, 2.240407e+003
3.861330e+002, 2.237500e+003
3.866151e+002, 2.233003e+003
3.870973e+002, 2.226392e+003
3.875794e+002, 2.220097e+003
3.880615e+002, 2.215569e+003
3.885436e+002, 2.212188e+003
3.890257e+002, 2.209310e+003
3.895078e+002, 2.207216e+003
3.899900e+002, 2.204842e+003
3.904721e+002, 2.200557e+003
3.909542e+002, 2.194719e+003
3.914363e+002, 2.190459e+003
3.919184e+002, 2.189258e+003
3.924005e+002, 2.189542e+003
3.928827e+002, 2.189248e+003
3.933648e+002, 2.188399e+003
3.938469e+002, 2.187121e+003
3.943290e+002, 2.184574e+003
3.948111e+002, 2.181930e+003
3.952932e+002, 2.181679e+003
3.957754e+002, 2.184427e+003
3.962575e+002, 2.186890e+003
3.967396e+002, 2.185568e+003
3.972217e+002, 2.180917e+003
3.977038e+002, 2.178547e+003
3.981859e+002, 2.179867e+003
3.986681e+002, 2.182495e+003
3.991501e+002, 2.185180e+003
3.996323e+002, 2.187900e+003
4.001144e+002, 2.190671e+003
4.005965e+002, 2.193366e+003
4.010786e+002, 2.196312e+003
4.015607e+002, 2.200572e+003
4.020428e+002, 2.207036e+003
4.025250e+002, 2.213012e+003
4.030071e+002, 2.217452e+003
4.034892e+002, 2.221418e+003
4.039713e+002, 2.226366e+003
4.044534e+002, 2.232531e+003
4.049355e+002, 2.238663e+003
4.054177e+002, 2.243243e+003
4.058998e+002, 2.245878e+003
4.063819e+002, 2.248660e+003
4.068640e+002, 2.250306e+003
4.073461e+002, 2.253264e+003
4.078282e+002, 2.259941e+003
4.083104e+002, 2.269003e+003
4.087925e+002, 2.277107e+003
4.092746e+002, 2.282190e+003
4.097567e+002, 2.284829e+003
4.102388e+002, 2.287762e+003
4.107209e+002, 2.290500e+003
4.112031e+002, 2.294260e+003
4.116852e+002, 2.299474e+003
4.121673e+002, 2.305542e+003
4.126494e+002, 2.312492e+003
4.131315e+002, 2.320085e+003
4.136136e+002, 2.326966e+003
4.140958e+002, 2.330989e+003
4.145779e+002, 2.331222e+003
4.150600e+002, 2.332417e+003
4.155421e+002, 2.335413e+003
4.160242e+002, 2.338624e+003
4.165063e+002, 2.341658e+003
4.169885e+002, 2.344437e+003
4.174706e+002, 2.346860e+003
4.179527e+002, 2.348824e+003
4.184348e+002, 2.350461e+003
4.189169e+002, 2.352302e+003
4.193990e+002, 2.354566e+003
4.198812e+002, 2.356531e+003
4.203633e+002, 2.358046e+003
4.208454e+002, 2.359137e+003
4.213275e+002, 2.359937e+003
4.218096e+002, 2.360492e+003
4.222917e+002, 2.360237e+003
4.227739e+002, 2.357929e+003
4.232560e+002, 2.353718e+003
4.237381e+002, 2.350930e+003
4.242202e+002, 2.350653e+003
4.247023e+002, 2.351104e+003
4.251844e+002, 2.350952e+003
4.256666e+002, 2.350321e+003
4.261487e+002, 2.349677e+003
4.266308e+002, 2.349021e+003
4.271129e+002, 2.348547e+003
4.275950e+002, 2.348528e+003
4.280771e+002, 2.348970e+003
4.285593e+002, 2.349952e+003
4.290414e+002, 2.352250e+003
4.295235e+002, 2.354718e+003
4.300056e+002, 2.354848e+003
4.304877e+002, 2.351522e+003
4.309698e+002, 2.348427e+003
4.314520e+002, 2.347874e+003
4.319341e+002, 2.348783e+003
4.324162e+002, 2.348932e+003
4.328983e+002, 2.347720e+003
4.333804e+002, 2.346056e+003
4.338625e+002, 2.344787e+003
4.343447e+002, 2.343900e+003
4.348268e+002, 2.344065e+003
4.353089e+002, 2.346852e+003
4.357910e+002, 2.349369e+003
4.362731e+002, 2.348971e+003
4.367552e+002, 2.346461e+003
4.372374e+002, 2.344755e+003
4.377195e+002, 2.345553e+003
4.382016e+002, 2.348402e+003
4.386837e+002, 2.351605e+003
4.391658e+002, 2.355166e+003
4.396479e+002, 2.359109e+003
4.401301e+002, 2.362662e+003
4.406122e+002, 2.367032e+003
4.410943e+002, 2.373853e+003
4.415764e+002, 2.383160e+003
4.420585e+002, 2.393177e+003
4.425406e+002, 2.401905e+003
4.430227e+002, 2.409311e+003
4.435049e+002, 2.415873e+003
4.439870e+002, 2.419169e+003
4.444691e+002, 2.424149e+003
4.449512e+002, 2.432807e+003
4.454333e+002, 2.444063e+003
4.459154e+002, 2.456244e+003
4.463976e+002, 2.468459e+003
4.468797e+002, 2.480874e+003
4.473618e+002, 2.494065e+003
4.478439e+002, 2.508570e+003
4.483260e+002, 2.522188e+003
4.488081e+002, 2.532212e+003
4.492903e+002, 2.542992e+003
4.497724e+002, 2.558135e+003
4.502545e+002, 2.577415e+003
4.507366e+002, 2.596895e+003
4.512187e+002, 2.612473e+003
4.517008e+002, 2.625532e+003
4.521830e+002, 2.641987e+003
4.526651e+002, 2.662968e+003
4.531472e+002, 2.684558e+003
4.536293e+002, 2.703684e+003
4.541114e+002, 2.722134e+003
4.545935e+002, 2.742886e+003
4.550757e+002, 2.767624e+003
4.555578e+002, 2.792526e+003
4.560399e+002, 2.813516e+003
4.565220e+002, 2.831682e+003
4.570041e+002, 2.852468e+003
4.574862e+002, 2.878034e+003
4.579684e+002, 2.905469e+003
4.584505e+002, 2.931001e+003
4.589326e+002, 2.954629e+003
4.594147e+002, 2.978847e+003
4.598968e+002, 3.004809e+003
4.603789e+002, 3.030951e+003
4.608611e+002, 3.055896e+003
4.613432e+002, 3.079707e+003
4.618253e+002, 3.103069e+003
4.623074e+002, 3.126449e+003
4.627895e+002, 3.149857e+003
4.632716e+002, 3.173914e+003
4.637538e+002, 3.199276e+003
4.642359e+002, 3.224403e+003
4.647180e+002, 3.248977e+003
4.652001e+002, 3.273542e+003
4.656822e+002, 3.298927e+003
4.661643e+002, 3.325213e+003
4.666465e+002, 3.350989e+003
4.671286e+002, 3.374420e+003
4.676107e+002, 3.395245e+003
4.680928e+002, 3.417878e+003
4.685749e+002, 3.444451e+003
4.690570e+002, 3.470551e+003
4.695392e+002, 3.494947e+003
4.700213e+002, 3.518066e+003
4.705034e+002, 3.540158e+003
4.709855e+002, 3.561289e+003
4.714676e+002, 3.582390e+003
4.719497e+002, 3.605996e+003
4.724319e+002, 3.633543e+003
4.729140e+002, 3.657104e+003
4.733961e+002, 3.671249e+003
4.738782e+002, 3.684616e+003
4.743603e+002, 3.702657e+003
4.748424e+002, 3.724479e+003
4.753246e+002, 3.745758e+003
4.758067e+002, 3.763245e+003
4.762888e+002, 3.778597e+003
4.767709e+002, 3.795661e+003
4.772530e+002, 3.814581e+003
4.777351e+002, 3.833981e+003
4.782173e+002, 3.853747e+003
4.786994e+002, 3.873339e+003
4.791815e+002, 3.891677e+003
4.796636e+002, 3.908293e+003
4.801457e+002, 3.925076e+003
4.806278e+002, 3.942993e+003
4.811100e+002, 3.961686e+003
4.815920e+002, 3.980837e+003
4.820742e+002, 4.000424e+003
4.825563e+002, 4.019563e+003
4.830384e+002, 4.037687e+003
4.835205e+002, 4.054651e+003
4.840026e+002, 4.070311e+003
4.844847e+002, 4.081590e+003
4.849669e+002, 4.094891e+003
4.854490e+002, 4.114835e+003
4.859311e+002, 4.138220e+003
4.864132e+002, 4.159212e+003
4.868953e+002, 4.175710e+003
4.873774e+002, 4.190008e+003
4.878596e+002, 4.205717e+003
4.883417e+002, 4.223557e+003
4.888238e+002, 4.241208e+003
4.893059e+002, 4.258619e+003
4.897880e+002, 4.275907e+003
4.902701e+002, 4.292649e+003
4.907523e+002, 4.309285e+003
4.912344e+002, 4.326999e+003
4.917165e+002, 4.346755e+003
4.921986e+002, 4.367170e+003
4.926807e+002, 4.383891e+003
4.931628e+002, 4.394901e+003
4.936450e+002, 4.407710e+003
4.941271e+002, 4.423947e+003
4.946092e+002, 4.442409e+003
4.950913e+002, 4.463201e+003
4.955734e+002, 4.485928e+003
4.960555e+002, 4.508720e+003
4.965377e+002, 4.530766e+003
4.970198e+002, 4.551694e+003
4.975019e+002, 4.569404e+003
4.979840e+002, 4.582856e+003
4.984661e+002, 4.597942e+003
4.989482e+002, 4.618908e+003
4.994304e+002, 4.643494e+003
4.999125e+002, 4.666981e+003
5.003946e+002, 4.688559e+003
5.008767e+002, 4.710630e+003
5.013588e+002, 4.734258e+003
5.018409e+002, 4.759369e+003
5.023231e+002, 4.786723e+003
5.028052e+002, 4.816447e+003
5.032873e+002, 4.846358e+003
5.037694e+002, 4.874252e+003
5.042515e+002, 4.900249e+003
5.047336e+002, 4.926448e+003
5.052158e+002, 4.951283e+003
5.056979e+002, 4.978014e+003
5.061800e+002, 5.008046e+003
5.066621e+002, 5.040678e+003
5.071442e+002, 5.074985e+003
5.076263e+002, 5.110567e+003
5.081085e+002, 5.146682e+003
5.085906e+002, 5.181898e+003
5.090727e+002, 5.215826e+003
5.095548e+002, 5.250309e+003
5.100369e+002, 5.285964e+003
5.105190e+002, 5.321424e+003
5.110012e+002, 5.356986e+003
5.114833e+002, 5.391958e+003
5.119654e+002, 5.424729e+003
5.124475e+002, 5.454050e+003
5.129296e+002, 5.482489e+003
5.134117e+002, 5.515115e+003
5.138939e+002, 5.552631e+003
5.143760e+002, 5.589964e+003
5.148581e+002, 5.626358e+003
5.153402e+002, 5.662128e+003
5.158223e+002, 5.696326e+003
5.163044e+002, 5.729532e+003
5.167866e+002, 5.765318e+003
5.172687e+002, 5.807435e+003
5.177508e+002, 5.851850e+003
5.182329e+002, 5.893593e+003
5.187150e+002, 5.932727e+003
5.191971e+002, 5.971187e+003
5.196793e+002, 6.009766e+003
5.201614e+002, 6.048416e+003
5.206435e+002, 6.086373e+003
5.211256e+002, 6.124038e+003
5.216077e+002, 6.160494e+003
5.220898e+002, 6.193967e+003
5.225720e+002, 6.227118e+003
5.230541e+002, 6.262445e+003
5.235362e+002, 6.299630e+003
5.240183e+002, 6.336584e+003
5.245004e+002, 6.371441e+003
5.249825e+002, 6.404818e+003
5.254647e+002, 6.440996e+003
5.259468e+002, 6.483317e+003
5.264289e+002, 6.523286e+003
5.269110e+002, 6.558396e+003
5.273931e+002, 6.592416e+003
5.278752e+002, 6.628046e+003
5.283574e+002, 6.665735e+003
5.288395e+002, 6.704641e+003
5.293216e+002, 6.744650e+003
5.298037e+002, 6.785274e+003
5.302858e+002, 6.823958e+003
5.307679e+002, 6.860155e+003
5.312501e+002, 6.895416e+003
5.317322e+002, 6.929647e+003
5.322143e+002, 6.963557e+003
5.326964e+002, 6.998401e+003
5.331785e+002, 7.034450e+003
5.336606e+002, 7.070452e+003
5.341428e+002, 7.106132e+003
5.346249e+002, 7.141169e+003
5.351070e+002, 7.175375e+003
5.355891e+002, 7.208740e+003
5.360712e+002, 7.240740e+003
5.365533e+002, 7.270260e+003
5.370355e+002, 7.297946e+003
5.375176e+002, 7.327212e+003
5.379997e+002, 7.360393e+003
5.384818e+002, 7.392264e+003
5.389639e+002, 7.421045e+003
5.394460e+002, 7.447994e+003
5.399282e+002, 7.474705e+003
5.404103e+002, 7.501474e+003
5.408924e+002, 7.527914e+003
5.413745e+002, 7.553657e+003
5.418566e+002, 7.578752e+003
5.423387e+002, 7.601366e+003
5.428209e+002, 7.617042e+003
5.433029e+002, 7.635412e+003
5.437850e+002, 7.660501e+003
5.442672e+002, 7.688197e+003
5.447493e+002, 7.714257e+003
5.452314e+002, 7.737464e+003
5.457135e+002, 7.758190e+003
5.461956e+002, 7.775595e+003
5.466777e+002, 7.790106e+003
5.471599e+002, 7.806557e+003
5.476420e+002, 7.827150e+003
5.481241e+002, 7.845519e+003
5.486062e+002, 7.854471e+003
5.490883e+002, 7.859223e+003
5.495704e+002, 7.868616e+003
5.500526e+002, 7.886004e+003
5.505347e+002, 7.904052e+003
5.510168e+002, 7.919064e+003
5.514989e+002, 7.931318e+003
5.519810e+002, 7.941495e+003
5.524631e+002, 7.949741e+003
5.529453e+002, 7.955540e+003
5.534274e+002, 7.957892e+003
5.539095e+002, 7.956766e+003
5.543916e+002, 7.957140e+003
5.548737e+002, 7.961852e+003
5.553558e+002, 7.964402e+003
5.558380e+002, 7.961792e+003
5.563201e+002, 7.956576e+003
5.568022e+002, 7.952380e+003
5.572843e+002, 7.949908e+003
5.577664e+002, 7.946589e+003
5.582485e+002, 7.939544e+003
5.587307e+002, 7.928778e+003
5.592128e+002, 7.915268e+003
5.596949e+002, 7.897494e+003
5.601770e+002, 7.879209e+003
5.606591e+002, 7.862689e+003
5.611412e+002, 7.846009e+003
5.616234e+002, 7.826003e+003
5.621055e+002, 7.801634e+003
5.625876e+002, 7.777373e+003
5.630697e+002, 7.758719e+003
5.635518e+002, 7.743430e+003
5.640339e+002, 7.723788e+003
5.645161e+002, 7.698437e+003
5.649982e+002, 7.670591e+003
5.654803e+002, 7.641819e+003
5.659624e+002, 7.612353e+003
5.664445e+002, 7.583364e+003
5.669266e+002, 7.557250e+003
5.674088e+002, 7.528237e+003
5.678909e+002, 7.492845e+003
5.683730e+002, 7.454208e+003
5.688551e+002, 7.415627e+003
5.693372e+002, 7.378053e+003
5.698193e+002, 7.340623e+003
5.703015e+002, 7.303142e+003
5.707836e+002, 7.265407e+003
5.712657e+002, 7.226358e+003
5.717478e+002, 7.183964e+003
5.722299e+002, 7.142765e+003
5.727120e+002, 7.104303e+003
5.731942e+002, 7.066584e+003
5.736763e+002, 7.028157e+003
5.741584e+002, 6.988445e+003
5.746405e+002, 6.947269e+003
5.751226e+002, 6.903599e+003
5.756047e+002, 6.858163e+003
5.760869e+002, 6.814359e+003
5.765690e+002, 6.772831e+003
5.770511e+002, 6.730228e+003
5.775332e+002, 6.683772e+003
5.780153e+002, 6.636459e+003
5.784974e+002, 6.593612e+003
5.789796e+002, 6.556375e+003
5.794617e+002, 6.518835e+003
5.799438e+002, 6.478871e+003
5.804259e+002, 6.437443e+003
5.809080e+002, 6.395013e+003
5.813901e+002, 6.351958e+003
5.818723e+002, 6.308602e+003
5.823544e+002, 6.264963e+003
5.828365e+002, 6.221558e+003
5.833186e+002, 6.179865e+003
5.838007e+002, 6.139675e+003
5.842828e+002, 6.101587e+003
5.847650e+002, 6.067640e+003
5.852471e+002, 6.033853e+003
5.857292e+002, 5.996807e+003
5.862113e+002, 5.957419e+003
5.866934e+002, 5.919100e+003
5.871755e+002, 5.883981e+003
5.876577e+002, 5.851310e+003
5.881398e+002, 5.820306e+003
5.886219e+002, 5.791300e+003
5.891040e+002, 5.761097e+003
5.895861e+002, 5.727486e+003
5.900682e+002, 5.693799e+003
5.905504e+002, 5.664114e+003
5.910325e+002, 5.637675e+003
5.915146e+002, 5.609843e+003
5.919967e+002, 5.578283e+003
5.924788e+002, 5.545641e+003
5.929609e+002, 5.513032e+003
5.934431e+002, 5.481424e+003
5.939252e+002, 5.454243e+003
5.944073e+002, 5.433147e+003
5.948894e+002, 5.413476e+003
5.953715e+002, 5.388051e+003
5.958536e+002, 5.354346e+003
5.963358e+002, 5.326287e+003
5.968179e+002, 5.309411e+003
5.973000e+002, 5.291194e+003
5.977821e+002, 5.265567e+003
5.982642e+002, 5.236350e+003
5.987463e+002, 5.209462e+003
5.992285e+002, 5.186815e+003
5.997106e+002, 5.165259e+003
6.001927e+002, 5.139611e+003
6.006748e+002, 5.110080e+003
6.011569e+002, 5.086272e+003
6.016390e+002, 5.071344e+003
6.021212e+002, 5.056414e+003
6.026033e+002, 5.036247e+003
6.030854e+002, 5.012890e+003
6.035675e+002, 4.989815e+003
6.040496e+002, 4.967955e+003
6.045317e+002, 4.944518e+003
6.050139e+002, 4.916292e+003
6.054960e+002, 4.886271e+003
6.059781e+002, 4.858512e+003
6.064602e+002, 4.833664e+003
6.069423e+002, 4.811572e+003
6.074244e+002, 4.792731e+003
6.079066e+002, 4.776203e+003
6.083887e+002, 4.757401e+003
6.088708e+002, 4.733824e+003
6.093529e+002, 4.711664e+003
6.098350e+002, 4.691981e+003
6.103171e+002, 4.673117e+003
6.107993e+002, 4.653339e+003
6.112814e+002, 4.633205e+003
6.117635e+002, 4.615240e+003
6.122456e+002, 4.601990e+003
6.127277e+002, 4.590280e+003
6.132098e+002, 4.572154e+003
6.136920e+002, 4.546722e+003
6.141741e+002, 4.524328e+003
6.146562e+002, 4.509009e+003
6.151383e+002, 4.495357e+003
6.156204e+002, 4.477164e+003
6.161025e+002, 4.455290e+003
6.165847e+002, 4.435242e+003
6.170668e+002, 4.419280e+003
6.175489e+002, 4.404343e+003
6.180310e+002, 4.388838e+003
6.185131e+002, 4.372884e+003
6.189952e+002, 4.356892e+003
6.194774e+002, 4.340960e+003
6.199595e+002, 4.324521e+003
6.204416e+002, 4.306931e+003
6.209237e+002, 4.288095e+003
6.214058e+002, 4.268618e+003
6.218879e+002, 4.246099e+003
6.223701e+002, 4.226000e+003
6.228522e+002, 4.212033e+003
6.233343e+002, 4.199623e+003
6.238164e+002, 4.183360e+003
6.242985e+002, 4.162610e+003
6.247806e+002, 4.142517e+003
6.252628e+002, 4.129069e+003
6.257448e+002, 4.119292e+003
6.262269e+002, 4.104804e+003
6.267090e+002, 4.085052e+003
6.271912e+002, 4.064697e+003
6.276733e+002, 4.045256e+003
6.281554e+002, 4.026908e+003
6.286375e+002, 4.010403e+003
6.291196e+002, 3.996576e+003
6.296017e+002, 3.980639e+003
6.300839e+002, 3.959589e+003
6.305660e+002, 3.938180e+003
6.310481e+002, 3.920050e+003
6.315302e+002, 3.904143e+003
6.320123e+002, 3.887229e+003
6.324944e+002, 3.867899e+003
6.329766e+002, 3.847588e+003
6.334587e+002, 3.828947e+003
6.339408e+002, 3.812344e+003
6.344229e+002, 3.795040e+003
6.349050e+002, 3.776330e+003
6.353871e+002, 3.757913e+003
6.358693e+002, 3.741531e+003
6.363514e+002, 3.725592e+003
6.368335e+002, 3.707256e+003
6.373156e+002, 3.685381e+003
6.377977e+002, 3.663609e+003
6.382798e+002, 3.645365e+003
6.387620e+002, 3.628933e+003
6.392441e+002, 3.610801e+003
6.397262e+002, 3.590674e+003
6.402083e+002, 3.569741e+003
6.406904e+002, 3.548558e+003
6.411725e+002, 3.527416e+003
6.416547e+002, 3.507099e+003
6.421368e+002, 3.488889e+003
6.426189e+002, 3.469671e+003
6.431010e+002, 3.448005e+003
6.435831e+002, 3.426642e+003
6.440652e+002, 3.408546e+003
6.445474e+002, 3.392114e+003
6.450295e+002, 3.372653e+003
6.455116e+002, 3.347378e+003
6.459937e+002, 3.320029e+003
6.464758e+002, 3.297027e+003
6.469579e+002, 3.278333e+003
6.474401e+002, 3.258930e+003
6.479222e+002, 3.237960e+003
6.484043e+002, 3.216666e+003
6.488864e+002, 3.197001e+003
6.493685e+002, 3.177774e+003
6.498506e+002, 3.155578e+003
6.503328e+002, 3.126924e+003
6.508149e+002, 3.100337e+003
6.512970e+002, 3.080599e+003
6.517791e+002, 3.064055e+003
6.522612e+002, 3.047469e+003
6.527433e+002, 3.029888e+003
6.532255e+002, 3.009941e+003
6.537076e+002, 2.986110e+003
6.541897e+002, 2.960224e+003
6.546718e+002, 2.939287e+003
6.551539e+002, 2.925704e+003
6.556360e+002, 2.911331e+003
6.561182e+002, 2.895034e+003
6.566003e+002, 2.877597e+003
6.570824e+002, 2.858886e+003
6.575645e+002, 2.839257e+003
6.580466e+002, 2.819782e+003
6.585287e+002, 2.800473e+003
6.590109e+002, 2.781911e+003
6.594930e+002, 2.765331e+003
6.599751e+002, 2.749942e+003
6.604572e+002, 2.732833e+003
6.609393e+002, 2.713356e+003
6.614214e+002, 2.694382e+003
6.619036e+002, 2.678431e+003
6.623857e+002, 2.665241e+003
6.628678e+002, 2.652171e+003
6.633499e+002, 2.640906e+003
6.638320e+002, 2.627546e+003
6.643141e+002, 2.609738e+003
6.647963e+002, 2.591229e+003
6.652784e+002, 2.574398e+003
6.657605e+002, 2.559639e+003
6.662426e+002, 2.546983e+003
6.667247e+002, 2.537162e+003
6.672068e+002, 2.528114e+003
6.676890e+002, 2.514913e+003
6.681711e+002, 2.497757e+003
6.686532e+002, 2.483912e+003
6.691353e+002, 2.476046e+003
6.696174e+002, 2.469469e+003
6.700995e+002, 2.459976e+003
6.705817e+002, 2.447762e+003
6.710638e+002, 2.435990e+003
6.715459e+002, 2.423161e+003
6.720280e+002, 2.412662e+003
6.725101e+002, 2.406188e+003
6.729922e+002, 2.402311e+003
6.734744e+002, 2.400060e+003
6.739565e+002, 2.398901e+003
6.744386e+002, 2.397945e+003
6.749207e+002, 2.396630e+003
6.754028e+002, 2.394800e+003
6.758849e+002, 2.391246e+003
6.763671e+002, 2.384858e+003
6.768492e+002, 2.381760e+003
6.773313e+002, 2.384289e+003
6.778134e+002, 2.389271e+003
6.782955e+002, 2.395138e+003
6.787776e+002, 2.401376e+003
6.792598e+002, 2.405990e+003
6.797419e+002, 2.407516e+003
6.802240e+002, 2.408622e+003
6.807061e+002, 2.408752e+003
6.811882e+002, 2.410291e+003
6.816703e+002, 2.417730e+003
6.821525e+002, 2.431399e+003
6.826346e+002, 2.447375e+003
6.831167e+002, 2.462441e+003
6.835988e+002, 2.477178e+003
6.840809e+002, 2.494667e+003
6.845630e+002, 2.515669e+003
6.850452e+002, 2.537684e+003
6.855273e+002, 2.559073e+003
6.860094e+002, 2.582434e+003
6.864915e+002, 2.610242e+003
6.869736e+002, 2.641314e+003
6.874557e+002, 2.672511e+003
6.879379e+002, 2.703278e+003
6.884200e+002, 2.732473e+003
6.889021e+002, 2.760067e+003
6.893842e+002, 2.785040e+003
6.898663e+002, 2.805617e+003
6.903484e+002, 2.821473e+003
6.908306e+002, 2.830881e+003
6.913127e+002, 2.833432e+003
6.917948e+002, 2.827895e+003
6.922769e+002, 2.807678e+003
6.927590e+002, 2.764849e+003
6.932411e+002, 2.719367e+003
6.937233e+002, 2.669758e+003
6.942054e+002, 2.620523e+003
6.946875e+002, 2.573152e+003
6.951696e+002, 2.528283e+003
6.956517e+002, 2.487061e+003
6.961339e+002, 2.450155e+003
6.966160e+002, 2.416491e+003
6.970981e+002, 2.383653e+003
6.975802e+002, 2.352911e+003
6.980623e+002, 2.328699e+003
6.985444e+002, 2.312012e+003
6.990266e+002, 2.299464e+003
6.995087e+002, 2.289327e+003
6.999908e+002, 2.281123e+003
7.004729e+002, 2.273237e+003
7.009550e+002, 2.265526e+003
7.014371e+002, 2.258382e+003
7.019193e+002, 2.251577e+003
7.024014e+002, 2.245535e+003
7.028835e+002, 2.240328e+003
7.033656e+002, 2.236130e+003
7.038477e+002, 2.233394e+003
7.043298e+002, 2.232437e+003
7.048120e+002, 2.232082e+003
7.052941e+002, 2.230775e+003
7.057762e+002, 2.228806e+003
7.062583e+002, 2.227555e+003
7.067404e+002, 2.227194e+003
7.072225e+002, 2.227357e+003
7.077046e+002, 2.227927e+003
7.081867e+002, 2.228821e+003
7.086688e+002, 2.229904e+003
7.091509e+002, 2.231548e+003
7.096331e+002, 2.232404e+003
7.101152e+002, 2.230335e+003
7.105973e+002, 2.229429e+003
7.110794e+002, 2.233435e+003
7.115615e+002, 2.239953e+003
7.120436e+002, 2.244368e+003
7.125258e+002, 2.245057e+003
7.130079e+002, 2.244654e+003
7.134900e+002, 2.245985e+003
7.139721e+002, 2.248866e+003
7.144542e+002, 2.253068e+003
7.149363e+002, 2.259178e+003
7.154185e+002, 2.262419e+003
7.159006e+002, 2.259008e+003
7.163827e+002, 2.253154e+003
7.168648e+002, 2.252459e+003
7.173469e+002, 2.257958e+003
7.178290e+002, 2.261805e+003
7.183112e+002, 2.261358e+003
7.187933e+002, 2.261254e+003
7.192754e+002, 2.264969e+003
7.197575e+002, 2.269991e+003
7.202396e+002, 2.272073e+003
7.207217e+002, 2.270423e+003
7.212039e+002, 2.268617e+003
7.216860e+002, 2.270461e+003
7.221681e+002, 2.274909e+003
7.226502e+002, 2.277604e+003
7.231323e+002, 2.278293e+003
7.236144e+002, 2.279615e+003
7.240966e+002, 2.282909e+003
7.245787e+002, 2.286405e+003
7.250608e+002, 2.287704e+003
7.255429e+002, 2.286884e+003
7.260250e+002, 2.286970e+003
7.265071e+002, 2.288163e+003
7.269893e+002, 2.290271e+003
7.274714e+002, 2.294378e+003
7.279535e+002, 2.298705e+003
7.284356e+002, 2.300828e+003
7.289177e+002, 2.300815e+003
7.293998e+002, 2.300890e+003
7.298820e+002, 2.302682e+003
7.303641e+002, 2.305588e+003
7.308462e+002, 2.308397e+003
7.313283e+002, 2.311101e+003
7.318104e+002, 2.313411e+003
7.322925e+002, 2.315152e+003
7.327747e+002, 2.316704e+003
7.332568e+002, 2.318229e+003
7.337389e+002, 2.319793e+003
7.342210e+002, 2.321750e+003
7.347031e+002, 2.324433e+003
7.351852e+002, 2.326923e+003
7.356674e+002, 2.328800e+003
7.361495e+002, 2.330589e+003
7.366316e+002, 2.333181e+003
7.371137e+002, 2.336075e+003
7.375958e+002, 2.337538e+003
7.380779e+002, 2.336568e+003
7.385601e+002, 2.335351e+003
7.390422e+002, 2.337919e+003
7.395243e+002, 2.343696e+003
7.400064e+002, 2.346761e+003
7.404885e+002, 2.346099e+003
7.409706e+002, 2.345222e+003
7.414528e+002, 2.345912e+003
7.419349e+002, 2.347751e+003
7.424170e+002, 2.349855e+003
7.428991e+002, 2.352188e+003
7.433812e+002, 2.354931e+003
7.438633e+002, 2.359056e+003
7.443455e+002, 2.362628e+003
7.448276e+002, 2.364843e+003
7.453097e+002, 2.365762e+003
7.457918e+002, 2.364805e+003
7.462739e+002, 2.362137e+003
7.467560e+002, 2.360539e+003
7.472382e+002, 2.363833e+003
7.477203e+002, 2.370110e+003
7.482024e+002, 2.372803e+003
7.486845e+002, 2.371798e+003
7.491666e+002, 2.372688e+003
7.496487e+002, 2.378004e+003
7.501309e+002, 2.384258e+003
7.506130e+002, 2.387229e+003
7.510951e+002, 2.386652e+003
7.515772e+002, 2.387208e+003
7.520593e+002, 2.389640e+003
7.525414e+002, 2.392078e+003
7.530236e+002, 2.393936e+003
7.535057e+002, 2.395713e+003
7.539878e+002, 2.398024e+003
7.544699e+002, 2.400721e+003
7.549520e+002, 2.403008e+003
7.554341e+002, 2.404173e+003
7.559163e+002, 2.405244e+003
7.563984e+002, 2.408030e+003
7.568805e+002, 2.412049e+003
7.573626e+002, 2.415228e+003
7.578447e+002, 2.417245e+003
7.583268e+002, 2.418444e+003
7.588090e+002, 2.419060e+003
7.592911e+002, 2.419082e+003
7.597732e+002, 2.418345e+003
7.602553e+002, 2.415250e+003
7.607374e+002, 2.414466e+003
7.612195e+002, 2.417668e+003
7.617017e+002, 2.421335e+003
7.621838e+002, 2.424594e+003
7.626659e+002, 2.426974e+003
7.631480e+002, 2.427462e+003
7.636301e+002, 2.425683e+003
7.641122e+002, 2.424431e+003
7.645944e+002, 2.426130e+003
7.650765e+002, 2.429473e+003
7.655586e+002, 2.433326e+003
7.660407e+002, 2.437143e+003
7.665228e+002, 2.437780e+003
7.670049e+002, 2.433768e+003
7.674871e+002, 2.429409e+003
7.679692e+002, 2.430706e+003
7.684513e+002, 2.437957e+003
7.689334e+002, 2.442946e+003
7.694155e+002, 2.444434e+003
7.698976e+002, 2.445612e+003
7.703798e+002, 2.447332e+003
7.708619e+002, 2.448869e+003
7.713440e+002, 2.449093e+003
7.718261e+002, 2.448419e+003
7.723082e+002, 2.449035e+003
7.727903e+002, 2.452611e+003
7.732725e+002, 2.456480e+003
7.737546e+002, 2.459241e+003
7.742367e+002, 2.460902e+003
7.747188e+002, 2.461121e+003
7.752009e+002, 2.460109e+003
7.756830e+002, 2.458885e+003
7.761652e+002, 2.458036e+003
7.766473e+002, 2.457813e+003
7.771294e+002, 2.459278e+003
7.776115e+002, 2.463013e+003
7.780936e+002, 2.464453e+003
7.785757e+002, 2.462290e+003
7.790579e+002, 2.459687e+003
7.795400e+002, 2.457629e+003
7.800221e+002, 2.456533e+003
7.805042e+002, 2.457632e+003
7.809863e+002, 2.461797e+003
7.814684e+002, 2.463985e+003
7.819506e+002, 2.461517e+003
7.824327e+002, 2.458163e+003
7.829148e+002, 2.455572e+003
7.833969e+002, 2.454038e+003
7.838790e+002, 2.454632e+003
7.843611e+002, 2.457161e+003
7.848433e+002, 2.458500e+003
7.853254e+002, 2.455389e+003
7.858075e+002, 2.449123e+003
7.862896e+002, 2.443610e+003
7.867717e+002, 2.438886e+003
7.872538e+002, 2.433583e+003
7.877360e+002, 2.427386e+003
7.882181e+002, 2.420509e+003
7.887002e+002, 2.413398e+003
7.891823e+002, 2.405878e+003
7.896644e+002, 2.396703e+003
7.901465e+002, 2.383944e+003
7.906286e+002, 2.372341e+003
7.911107e+002, 2.363500e+003
7.915928e+002, 2.354765e+003
7.920750e+002, 2.343235e+003
7.925571e+002, 2.330662e+003
7.930392e+002, 2.321174e+003
7.935213e+002, 2.316589e+003
7.940034e+002, 2.312593e+003
7.944855e+002, 2.305287e+003
7.949677e+002, 2.296032e+003
7.954498e+002, 2.287067e+003
7.959319e+002, 2.278563e+003
7.964140e+002, 2.271129e+003
7.968961e+002, 2.265074e+003
7.973782e+002, 2.259077e+003
7.978604e+002, 2.251016e+003
7.983425e+002, 2.240647e+003
7.988246e+002, 2.233026e+003
7.993067e+002, 2.229637e+003
7.997888e+002, 2.226235e+003
8.002709e+002, 2.221783e+003
8.007531e+002, 2.216939e+003
8.012352e+002, 2.212038e+003
8.017173e+002, 2.207152e+003
8.021994e+002, 2.202619e+003
8.026815e+002, 2.199012e+003
8.031636e+002, 2.195079e+003
8.036458e+002, 2.189698e+003
8.041279e+002, 2.183993e+003
8.046100e+002, 2.179265e+003
8.050921e+002, 2.175556e+003
8.055742e+002, 2.172334e+003
8.060563e+002, 2.169371e+003
8.065385e+002, 2.166459e+003
8.070206e+002, 2.163072e+003
8.075027e+002, 2.159302e+003
8.079848e+002, 2.156827e+003
8.084669e+002, 2.156184e+003
8.089490e+002, 2.154176e+003
8.094312e+002, 2.148618e+003
8.099133e+002, 2.142037e+003
8.103954e+002, 2.138367e+003
8.108775e+002, 2.138177e+003
8.113596e+002, 2.137313e+003
8.118417e+002, 2.135954e+003
8.123239e+002, 2.133724e+003
8.128060e+002, 2.129152e+003
8.132881e+002, 2.124655e+003
8.137702e+002, 2.123183e+003
8.142523e+002, 2.124193e+003
8.147344e+002, 2.124275e+003
8.152166e+002, 2.121267e+003
8.156987e+002, 2.117679e+003
8.161808e+002, 2.116425e+003
8.166629e+002, 2.116506e+003
8.171450e+002, 2.115742e+003
8.176271e+002, 2.113900e+003
8.181093e+002, 2.111518e+003
8.185914e+002, 2.108782e+003
8.190735e+002, 2.106352e+003
8.195556e+002, 2.105890e+003
8.200377e+002, 2.108024e+003
8.205198e+002, 2.107904e+003
8.210020e+002, 2.104376e+003
8.214841e+002, 2.100690e+003
8.219662e+002, 2.097343e+003
8.224483e+002, 2.094942e+003
8.229304e+002, 2.094466e+003
8.234125e+002, 2.095852e+003
8.238947e+002, 2.097177e+003
8.243768e+002, 2.099169e+003
8.248589e+002, 2.099733e+003
8.253410e+002, 2.096906e+003
8.258231e+002, 2.092888e+003
8.263052e+002, 2.089943e+003
8.267874e+002, 2.088283e+003
8.272695e+002, 2.087164e+003
8.277516e+002, 2.086185e+003
8.282337e+002, 2.085474e+003
8.287158e+002, 2.085473e+003
8.291979e+002, 2.085917e+003
8.296801e+002, 2.085623e+003
8.301622e+002, 2.084486e+003
8.306443e+002, 2.083025e+003
8.311264e+002, 2.081335e+003
8.316085e+002, 2.079929e+003
8.320906e+002, 2.079752e+003
8.325728e+002, 2.081033e+003
8.330549e+002, 2.081761e+003
8.335370e+002, 2.081245e+003
8.340191e+002, 2.081136e+003
8.345012e+002, 2.081747e+003
8.349833e+002, 2.082909e+003
8.354655e+002, 2.084693e+003
8.359476e+002, 2.086962e+003
8.364297e+002, 2.089133e+003
8.369118e+002, 2.090860e+003
8.373939e+002, 2.092752e+003
8.378760e+002, 2.094835e+003
8.383582e+002, 2.097497e+003
8.388403e+002, 2.101791e+003
8.393224e+002, 2.107134e+003
8.398045e+002, 2.111442e+003
8.402866e+002, 2.113724e+003
8.407687e+002, 2.115537e+003
8.412509e+002, 2.118584e+003
8.417330e+002, 2.122931e+003
8.422151e+002, 2.129869e+003
8.426972e+002, 2.139677e+003
8.431793e+002, 2.146659e+003
8.436614e+002, 2.147844e+003
8.441436e+002, 2.147821e+003
8.446257e+002, 2.151765e+003
8.451078e+002, 2.159593e+003
8.455899e+002, 2.168233e+003
8.460720e+002, 2.179817e+003
8.465541e+002, 2.188925e+003
8.470363e+002, 2.193168e+003
8.475184e+002, 2.196683e+003
8.480005e+002, 2.201770e+003
8.484826e+002, 2.208202e+003
8.489647e+002, 2.215354e+003
8.494468e+002, 2.223406e+003
8.499290e+002, 2.230636e+003
8.504111e+002, 2.234939e+003
8.508932e+002, 2.238959e+003
8.513753e+002, 2.245651e+003
8.518574e+002, 2.254308e+003
8.523395e+002, 2.263115e+003
8.528217e+002, 2.271402e+003
8.533038e+002, 2.279264e+003
8.537859e+002, 2.286375e+003
8.542680e+002, 2.293365e+003
8.547501e+002, 2.302604e+003
8.552322e+002, 2.314114e+003
8.557144e+002, 2.324034e+003
8.561965e+002, 2.331231e+003
8.566786e+002, 2.338173e+003
8.571607e+002, 2.346576e+003
8.576428e+002, 2.356133e+003
8.581249e+002, 2.366128e+003
8.586071e+002, 2.378127e+003
8.590892e+002, 2.387012e+003
8.595713e+002, 2.390363e+003
8.600534e+002, 2.393484e+003
8.605355e+002, 2.398399e+003
8.610176e+002, 2.404006e+003
8.614998e+002, 2.409233e+003
8.619819e+002, 2.413879e+003
8.624640e+002, 2.417318e+003
8.629461e+002, 2.418740e+003
8.634282e+002, 2.419520e+003
8.639103e+002, 2.421557e+003
8.643925e+002, 2.423033e+003
8.648746e+002, 2.420740e+003
8.653567e+002, 2.415026e+003
8.658388e+002, 2.409117e+003
8.663209e+002, 2.404880e+003
8.668030e+002, 2.401459e+003
8.672852e+002, 2.397944e+003
8.677673e+002, 2.394193e+003
8.682494e+002, 2.389383e+003
8.687315e+002, 2.383470e+003
8.692136e+002, 2.376516e+003
8.696957e+002, 2.368302e+003
8.701779e+002, 2.359849e+003
8.706600e+002, 2.352810e+003
8.711421e+002, 2.347196e+003
8.716242e+002, 2.339683e+003
8.721063e+002, 2.328268e+003
8.725884e+002, 2.318471e+003
8.730705e+002, 2.312321e+003
8.735526e+002, 2.307074e+003
8.740347e+002, 2.301998e+003
8.745168e+002, 2.296476e+003
8.749990e+002, 2.288803e+003
8.754811e+002, 2.277961e+003
8.759632e+002, 2.267402e+003
8.764453e+002, 2.259606e+003
8.769274e+002, 2.251360e+003
8.774095e+002, 2.239479e+003
8.778917e+002, 2.225774e+003
8.783738e+002, 2.213592e+003
8.788559e+002, 2.203601e+003
8.793380e+002, 2.193739e+003
8.798201e+002, 2.182373e+003
8.803022e+002, 2.170257e+003
8.807844e+002, 2.158215e+003
8.812665e+002, 2.146431e+003
8.817486e+002, 2.136030e+003
8.822307e+002, 2.127082e+003
8.827128e+002, 2.117753e+003
8.831949e+002, 2.106843e+003
8.836771e+002, 2.095187e+003
8.841592e+002, 2.084651e+003
8.846413e+002, 2.075380e+003
8.851234e+002, 2.065942e+003
8.856055e+002, 2.056378e+003
8.860876e+002, 2.046365e+003
8.865698e+002, 2.034660e+003
8.870519e+002, 2.023575e+003
8.875340e+002, 2.016354e+003
8.880161e+002, 2.012680e+003
8.884982e+002, 2.007230e+003
8.889803e+002, 1.998109e+003
8.894625e+002, 1.989684e+003
8.899446e+002, 1.982811e+003
8.904267e+002, 1.976735e+003
8.909088e+002, 1.970935e+003
8.913909e+002, 1.965565e+003
8.918730e+002, 1.961141e+003
8.923552e+002, 1.957805e+003
8.928373e+002, 1.954816e+003
8.933194e+002, 1.952192e+003
8.938015e+002, 1.949279e+003
8.942836e+002, 1.944873e+003
8.947657e+002, 1.939793e+003
8.952479e+002, 1.935894e+003
8.957300e+002, 1.933475e+003
8.962121e+002, 1.931419e+003
8.966942e+002, 1.928936e+003
8.971763e+002, 1.926220e+003
8.976584e+002, 1.923265e+003
8.981406e+002, 1.920243e+003
8.986227e+002, 1.919328e+003
8.991048e+002, 1.920920e+003
8.995869e+002, 1.921951e+003
9.000690e+002, 1.920920e+003
9.005511e+002, 1.918685e+003
9.010333e+002, 1.916315e+003
9.015154e+002, 1.913743e+003
9.019975e+002, 1.912550e+003
9.024796e+002, 1.913560e+003
9.029617e+002, 1.914430e+003
9.034438e+002, 1.914904e+003
9.039260e+002, 1.914945e+003
9.044081e+002, 1.914600e+003
9.048902e+002, 1.913816e+003
9.053723e+002, 1.912407e+003
9.058544e+002, 1.910213e+003
9.063365e+002, 1.907823e+003
9.068187e+002, 1.904769e+003
9.073008e+002, 1.902209e+003
9.077829e+002, 1.901216e+003
9.082650e+002, 1.900963e+003
9.087471e+002, 1.900370e+003
9.092292e+002, 1.899228e+003
9.097114e+002, 1.897889e+003
9.101935e+002, 1.896861e+003
9.106756e+002, 1.895233e+003
9.111577e+002, 1.890768e+003
9.116398e+002, 1.885566e+003
9.121219e+002, 1.884384e+003
9.126041e+002, 1.886723e+003
9.130862e+002, 1.887629e+003
9.135683e+002, 1.884762e+003
9.140504e+002, 1.881288e+003
9.145325e+002, 1.881951e+003
9.150146e+002, 1.885814e+003
9.154968e+002, 1.887158e+003
9.159789e+002, 1.885905e+003
9.164610e+002, 1.884952e+003
9.169431e+002, 1.885069e+003
9.174252e+002, 1.885516e+003
9.179073e+002, 1.885818e+003
9.183895e+002, 1.885839e+003
9.188716e+002, 1.884839e+003
9.193537e+002, 1.881250e+003
9.198358e+002, 1.880730e+003
9.203179e+002, 1.885896e+003
9.208000e+002, 1.890343e+003
9.212822e+002, 1.890717e+003
9.217643e+002, 1.889617e+003
9.222464e+002, 1.889893e+003
9.227285e+002, 1.891506e+003
9.232106e+002, 1.892572e+003
9.236927e+002, 1.892110e+003
9.241749e+002, 1.892028e+003
9.246570e+002, 1.892935e+003
9.251391e+002, 1.894354e+003
9.256212e+002, 1.895962e+003
9.261033e+002, 1.897775e+003
9.265854e+002, 1.900180e+003
9.270676e+002, 1.903342e+003
9.275497e+002, 1.905689e+003
9.280318e+002, 1.906255e+003
9.285139e+002, 1.905467e+003
9.289960e+002, 1.902583e+003
9.294781e+002, 1.899096e+003
9.299603e+002, 1.898106e+003
9.304424e+002, 1.899760e+003
9.309245e+002, 1.901549e+003
9.314066e+002, 1.901832e+003
9.318887e+002, 1.901696e+003
9.323708e+002, 1.903147e+003
9.328530e+002, 1.905664e+003
9.333351e+002, 1.906795e+003
9.338172e+002, 1.906514e+003
9.342993e+002, 1.906996e+003
9.347814e+002, 1.909109e+003
9.352635e+002, 1.911462e+003
9.357457e+002, 1.912568e+003
9.362278e+002, 1.912557e+003
9.367099e+002, 1.912066e+003
9.371920e+002, 1.910801e+003
9.376741e+002, 1.910472e+003
9.381563e+002, 1.912024e+003
9.386384e+002, 1.912800e+003
9.391205e+002, 1.910973e+003
9.396026e+002, 1.907756e+003
9.400847e+002, 1.905063e+003
9.405668e+002, 1.902708e+003
9.410490e+002, 1.902031e+003
9.415311e+002, 1.904772e+003
9.420132e+002, 1.906769e+003
9.424953e+002, 1.906735e+003
9.429774e+002, 1.906180e+003
9.434595e+002, 1.906401e+003
9.439417e+002, 1.906989e+003
9.444238e+002, 1.906588e+003
9.449059e+002, 1.904541e+003
9.453880e+002, 1.903062e+003
9.458701e+002, 1.902839e+003
9.463522e+002, 1.903534e+003
9.468344e+002, 1.906133e+003
9.473165e+002, 1.908838e+003
9.477986e+002, 1.909100e+003
9.482807e+002, 1.906862e+003
9.487628e+002, 1.903898e+003
9.492449e+002, 1.900650e+003
9.497271e+002, 1.898315e+003
9.502092e+002, 1.898477e+003
9.506913e+002, 1.900014e+003
9.511734e+002, 1.901583e+003
9.516555e+002, 1.902891e+003
9.521376e+002, 1.903657e+003
9.526198e+002, 1.903763e+003
9.531019e+002, 1.903088e+003
9.535840e+002, 1.901419e+003
9.540661e+002, 1.898999e+003
9.545482e+002, 1.895827e+003
9.550303e+002, 1.892245e+003
9.555124e+002, 1.891098e+003
9.559945e+002, 1.892759e+003
9.564766e+002, 1.893556e+003
9.569587e+002, 1.891360e+003
9.574409e+002, 1.888095e+003
9.579230e+002, 1.887002e+003
9.584051e+002, 1.888014e+003
9.588872e+002, 1.887471e+003
9.593693e+002, 1.884752e+003
9.598514e+002, 1.883319e+003
9.603336e+002, 1.884593e+003
9.608157e+002, 1.885709e+003
9.612978e+002, 1.884195e+003
9.617799e+002, 1.881144e+003
9.622620e+002, 1.879721e+003
9.627441e+002, 1.880729e+003
9.632263e+002, 1.880893e+003
9.637084e+002, 1.880127e+003
9.641905e+002, 1.878625e+003
9.646726e+002, 1.875993e+003
9.651547e+002, 1.873051e+003
9.656368e+002, 1.870522e+003
9.661190e+002, 1.868304e+003
9.666011e+002, 1.865777e+003
9.670832e+002, 1.862088e+003
9.675653e+002, 1.859654e+003
9.680474e+002, 1.859832e+003
9.685295e+002, 1.860484e+003
9.690117e+002, 1.859955e+003
9.694938e+002, 1.859404e+003
9.699759e+002, 1.861100e+003
9.704580e+002, 1.864833e+003
9.709401e+002, 1.867063e+003
9.714222e+002, 1.865226e+003
9.719044e+002, 1.863139e+003
9.723865e+002, 1.863471e+003
9.728686e+002, 1.864566e+003
9.733507e+002, 1.864671e+003
9.738328e+002, 1.864037e+003
9.743149e+002, 1.863339e+003
9.747971e+002, 1.862891e+003
9.752792e+002, 1.863419e+003
9.757613e+002, 1.866070e+003
9.762434e+002, 1.869376e+003
9.767255e+002, 1.871425e+003
9.772076e+002, 1.872608e+003
9.776898e+002, 1.873490e+003
9.781719e+002, 1.874340e+003
9.786540e+002, 1.875980e+003
9.791361e+002, 1.878804e+003
9.796182e+002, 1.881693e+003
9.801003e+002, 1.883344e+003
9.805825e+002, 1.883922e+003
9.810646e+002, 1.883494e+003
9.815467e+002, 1.882283e+003
9.820288e+002, 1.882341e+003
9.825109e+002, 1.884072e+003
9.829930e+002, 1.885623e+003
9.834752e+002, 1.885720e+003
9.839573e+002, 1.885252e+003
9.844394e+002, 1.885919e+003
9.849215e+002, 1.887728e+003
9.854036e+002, 1.889736e+003
9.858857e+002, 1.892037e+003
9.863679e+002, 1.893922e+003
9.868500e+002, 1.895151e+003
9.873321e+002, 1.896048e+003
9.878142e+002, 1.896690e+003
9.882963e+002, 1.897367e+003
9.887784e+002, 1.899084e+003
9.892606e+002, 1.902205e+003
9.897427e+002, 1.905032e+003
9.902248e+002, 1.907567e+003
9.907069e+002, 1.909756e+003
9.911890e+002, 1.911141e+003
9.916711e+002, 1.912674e+003
9.921533e+002, 1.915362e+003
9.926354e+002, 1.919037e+003
9.931175e+002, 1.922692e+003
9.935996e+002, 1.927048e+003
9.940817e+002, 1.930091e+003
9.945638e+002, 1.929464e+003
9.950460e+002, 1.930342e+003
9.955281e+002, 1.936332e+003
9.960102e+002, 1.943691e+003
9.964923e+002, 1.948067e+003
9.969744e+002, 1.949742e+003
9.974565e+002, 1.952324e+003
9.979387e+002, 1.956777e+003
9.984208e+002, 1.961677e+003
9.989029e+002, 1.966330e+003
9.993850e+002, 1.971650e+003
9.998671e+002, 1.979303e+003
1.000349e+003, 1.987361e+003
1.000831e+003, 1.992002e+003
1.001313e+003, 1.993412e+003
1.001796e+003, 1.997628e+003
1.002278e+003, 2.009287e+003
1.002760e+003, 2.021009e+003
1.003242e+003, 2.028697e+003
1.003724e+003, 2.034665e+003
1.004206e+003, 2.040454e+003
1.004688e+003, 2.046502e+003
1.005170e+003, 2.053437e+003
1.005653e+003, 2.061305e+003
1.006135e+003, 2.069097e+003
1.006617e+003, 2.076510e+003
1.007099e+003, 2.083200e+003
1.007581e+003, 2.088644e+003
1.008063e+003, 2.093273e+003
1.008545e+003, 2.097832e+003
1.009027e+003, 2.102118e+003
1.009509e+003, 2.105112e+003
1.009992e+003, 2.106559e+003
1.010474e+003, 2.108087e+003
1.010956e+003, 2.111953e+003
1.011438e+003, 2.115792e+003
1.011920e+003, 2.115450e+003
1.012402e+003, 2.112450e+003
1.012884e+003, 2.110146e+003
1.013366e+003, 2.108877e+003
1.013849e+003, 2.107867e+003
1.014331e+003, 2.106762e+003
1.014813e+003, 2.105529e+003
1.015295e+003, 2.104207e+003
1.015777e+003, 2.102666e+003
1.016259e+003, 2.099839e+003
1.016741e+003, 2.096376e+003
1.017223e+003, 2.096344e+003
1.017705e+003, 2.099885e+003
1.018188e+003, 2.101307e+003
1.018670e+003, 2.097552e+003
1.019152e+003, 2.092701e+003
1.019634e+003, 2.092722e+003
1.020116e+003, 2.096414e+003
1.020598e+003, 2.097813e+003
1.021080e+003, 2.097000e+003
1.021562e+003, 2.096305e+003
1.022044e+003, 2.096123e+003
1.022527e+003, 2.096298e+003
1.023009e+003, 2.096847e+003
1.023491e+003, 2.097156e+003
1.023973e+003, 2.095990e+003
1.024455e+003, 2.093514e+003
1.024937e+003, 2.092313e+003
1.025419e+003, 2.092357e+003
1.025901e+003, 2.094412e+003
1.026384e+003, 2.099240e+003
1.026866e+003, 2.103271e+003
1.027348e+003, 2.104021e+003
1.027830e+003, 2.103222e+003
1.028312e+003, 2.104137e+003
1.028794e+003, 2.106884e+003
1.029276e+003, 2.108596e+003
1.029758e+003, 2.108563e+003
1.030240e+003, 2.110247e+003
1.030723e+003, 2.115097e+003
1.031205e+003, 2.119918e+003
1.031687e+003, 2.122595e+003
1.032169e+003, 2.123904e+003
1.032651e+003, 2.125298e+003
1.033133e+003, 2.126672e+003
1.033615e+003, 2.128848e+003
1.034097e+003, 2.131604e+003
1.034579e+003, 2.135776e+003
1.035062e+003, 2.143046e+003
1.035544e+003, 2.149358e+003
1.036026e+003, 2.151116e+003
1.036508e+003, 2.150576e+003
1.036990e+003, 2.152602e+003
1.037472e+003, 2.157789e+003
1.037954e+003, 2.162110e+003
1.038436e+003, 2.164910e+003
1.038919e+003, 2.167835e+003
1.039401e+003, 2.171121e+003
1.039883e+003, 2.174651e+003
1.040365e+003, 2.178457e+003
1.040847e+003, 2.182447e+003
1.041329e+003, 2.186268e+003
1.041811e+003, 2.189762e+003
1.042293e+003, 2.194097e+003
1.042776e+003, 2.199869e+003
1.043258e+003, 2.205746e+003
1.043740e+003, 2.212305e+003
1.044222e+003, 2.218108e+003
1.044704e+003, 2.221555e+003
1.045186e+003, 2.223805e+003
1.045668e+003, 2.226796e+003
1.046150e+003, 2.230477e+003
1.046632e+003, 2.236075e+003
1.047115e+003, 2.243775e+003
1.047597e+003, 2.253306e+003
1.048079e+003, 2.265657e+003
1.048561e+003, 2.278742e+003
1.049043e+003, 2.291924e+003
1.049525e+003, 2.304541e+003
1.050007e+003, 2.316129e+003
1.050489e+003, 2.326723e+003
1.050971e+003, 2.334200e+003
1.051454e+003, 2.335787e+003
1.051936e+003, 2.337355e+003
1.052418e+003, 2.337706e+003
1.052900e+003, 2.341480e+003
1.053382e+003, 2.353528e+003
1.053864e+003, 2.370785e+003
1.054346e+003, 2.387891e+003
1.054828e+003, 2.404146e+003
1.055311e+003, 2.420023e+003
1.055793e+003, 2.435091e+003
1.056275e+003, 2.450571e+003
1.056757e+003, 2.465327e+003
1.057239e+003, 2.482159e+003
1.057721e+003, 2.499706e+003
1.058203e+003, 2.522194e+003
1.058685e+003, 2.555499e+003
1.059167e+003, 2.600662e+003
1.059650e+003, 2.658712e+003
1.060132e+003, 2.752612e+003
1.060614e+003, 2.828964e+003
1.061096e+003, 2.879867e+003
1.061578e+003, 2.894020e+003
1.062060e+003, 2.847561e+003
1.062542e+003, 2.765719e+003
1.063024e+003, 2.683042e+003
1.063506e+003, 2.606943e+003
1.063989e+003, 2.545066e+003
1.064471e+003, 2.503712e+003
1.064953e+003, 2.471582e+003
1.065435e+003, 2.447730e+003
1.065917e+003, 2.427622e+003
1.066399e+003, 2.407339e+003
1.066881e+003, 2.388655e+003
1.067363e+003, 2.375020e+003
1.067846e+003, 2.366739e+003
1.068328e+003, 2.360999e+003
1.068810e+003, 2.356709e+003
1.069292e+003, 2.354896e+003
1.069774e+003, 2.357348e+003
1.070256e+003, 2.361132e+003
1.070738e+003, 2.364563e+003
1.071220e+003, 2.367632e+003
1.071703e+003, 2.370515e+003
1.072185e+003, 2.373291e+003
1.072667e+003, 2.376245e+003
1.073149e+003, 2.379786e+003
1.073631e+003, 2.382795e+003
1.074113e+003, 2.383099e+003
1.074595e+003, 2.384408e+003
1.075077e+003, 2.390675e+003
1.075559e+003, 2.398790e+003
1.076042e+003, 2.404646e+003
1.076524e+003, 2.408070e+003
1.077006e+003, 2.411262e+003
1.077488e+003, 2.415025e+003
1.077970e+003, 2.418497e+003
1.078452e+003, 2.420146e+003
1.078934e+003, 2.422646e+003
1.079416e+003, 2.428821e+003
1.079898e+003, 2.436202e+003
1.080380e+003, 2.441501e+003
1.080863e+003, 2.445150e+003
1.081345e+003, 2.449976e+003
1.081827e+003, 2.457062e+003
1.082309e+003, 2.464200e+003
1.082791e+003, 2.470781e+003
1.083273e+003, 2.476693e+003
1.083755e+003, 2.481276e+003
1.084237e+003, 2.485557e+003
1.084720e+003, 2.491022e+003
1.085202e+003, 2.497061e+003
1.085684e+003, 2.501366e+003
1.086166e+003, 2.502956e+003
1.086648e+003, 2.506464e+003
1.087130e+003, 2.516257e+003
1.087612e+003, 2.525431e+003
1.088094e+003, 2.529436e+003
1.088577e+003, 2.532091e+003
1.089059e+003, 2.537210e+003
1.089541e+003, 2.543846e+003
1.090023e+003, 2.549134e+003
1.090505e+003, 2.552533e+003
1.090987e+003, 2.556311e+003
1.091469e+003, 2.561789e+003
1.091951e+003, 2.567286e+003
1.092433e+003, 2.572271e+003
1.092916e+003, 2.576867e+003
1.093398e+003, 2.579723e+003
1.093880e+003, 2.582901e+003
1.094362e+003, 2.590921e+003
1.094844e+003, 2.603837e+003
1.095326e+003, 2.613906e+003
1.095808e+003, 2.616504e+003
1.096290e+003, 2.619115e+003
1.096772e+003, 2.622102e+003
1.097255e+003, 2.628083e+003
1.097737e+003, 2.642905e+003
1.098219e+003, 2.659213e+003
1.098701e+003, 2.665722e+003
1.099183e+003, 2.663193e+003
1.099665e+003, 2.664078e+003
1.100147e+003, 2.672289e+003
1.100629e+003, 2.681821e+003
1.101112e+003, 2.692311e+003
1.101594e+003, 2.702299e+003
1.102076e+003, 2.711351e+003
1.102558e+003, 2.719355e+003
1.103040e+003, 2.725516e+003
1.103522e+003, 2.730496e+003
1.104004e+003, 2.736742e+003
1.104486e+003, 2.745077e+003
1.104969e+003, 2.753206e+003
1.105451e+003, 2.760274e+003
1.105933e+003, 2.767635e+003
1.106415e+003, 2.775752e+003
1.106897e+003, 2.784368e+003
1.107379e+003, 2.793153e+003
1.107861e+003, 2.802338e+003
1.108343e+003, 2.812824e+003
1.108825e+003, 2.825236e+003
1.109307e+003, 2.835792e+003
1.109790e+003, 2.842121e+003
1.110272e+003, 2.849481e+003
1.110754e+003, 2.859327e+003
1.111236e+003, 2.870015e+003
1.111718e+003, 2.881698e+003
1.112200e+003, 2.893119e+003
1.112682e+003, 2.901476e+003
1.113164e+003, 2.906469e+003
1.113647e+003, 2.914219e+003
1.114129e+003, 2.927485e+003
1.114611e+003, 2.938859e+003
1.115093e+003, 2.945429e+003
1.115575e+003, 2.953381e+003
1.116057e+003, 2.966582e+003
1.116539e+003, 2.981318e+003
1.117021e+003, 2.993146e+003
1.117504e+003, 3.002545e+003
1.117986e+003, 3.013062e+003
1.118468e+003, 3.024672e+003
1.118950e+003, 3.037337e+003
1.119432e+003, 3.051419e+003
1.119914e+003, 3.065800e+003
1.120396e+003, 3.080416e+003
1.120878e+003, 3.094793e+003
1.121360e+003, 3.108323e+003
1.121843e+003, 3.121591e+003
1.122325e+003, 3.136555e+003
1.122807e+003, 3.153988e+003
1.123289e+003, 3.168209e+003
1.123771e+003, 3.178325e+003
1.124253e+003, 3.188169e+003
1.124735e+003, 3.197739e+003
1.125217e+003, 3.209983e+003
1.125699e+003, 3.227516e+003
1.126182e+003, 3.247236e+003
1.126664e+003, 3.263664e+003
1.127146e+003, 3.276985e+003
1.127628e+003, 3.290247e+003
1.128110e+003, 3.303192e+003
1.128592e+003, 3.317885e+003
1.129074e+003, 3.334663e+003
1.129556e+003, 3.351974e+003
1.130039e+003, 3.369091e+003
1.130521e+003, 3.385966e+003
1.131003e+003, 3.402354e+003
1.131485e+003, 3.418681e+003
1.131967e+003, 3.436707e+003
1.132449e+003, 3.456271e+003
1.132931e+003, 3.474480e+003
1.133413e+003, 3.491311e+003
1.133896e+003, 3.507318e+003
1.134378e+003, 3.522695e+003
1.134860e+003, 3.539823e+003
1.135342e+003, 3.560833e+003
1.135824e+003, 3.583206e+003
1.136306e+003, 3.601862e+003
1.136788e+003, 3.618032e+003
1.137270e+003, 3.636175e+003
1.137752e+003, 3.656276e+003
1.138234e+003, 3.678419e+003
1.138717e+003, 3.702293e+003
1.139199e+003, 3.725706e+003
1.139681e+003, 3.747655e+003
1.140163e+003, 3.767985e+003
1.140645e+003, 3.785403e+003
1.141127e+003, 3.802537e+003
1.141609e+003, 3.825138e+003
1.142091e+003, 3.850949e+003
1.142574e+003, 3.875359e+003
1.143056e+003, 3.898026e+003
1.143538e+003, 3.920036e+003
1.144020e+003, 3.941766e+003
1.144502e+003, 3.962708e+003
1.144984e+003, 3.981403e+003
1.145466e+003, 4.002102e+003
1.145948e+003, 4.032128e+003
1.146431e+003, 4.064447e+003
1.146913e+003, 4.089670e+003
1.147395e+003, 4.110588e+003
1.147877e+003, 4.132318e+003
1.148359e+003, 4.156232e+003
1.148841e+003, 4.182830e+003
1.149323e+003, 4.212846e+003
1.149805e+003, 4.242726e+003
1.150287e+003, 4.269826e+003
1.150770e+003, 4.296486e+003
1.151252e+003, 4.324449e+003
1.151734e+003, 4.352838e+003
1.152216e+003, 4.380142e+003
1.152698e+003, 4.407138e+003
1.153180e+003, 4.436558e+003
1.153662e+003, 4.468953e+003
1.154144e+003, 4.499074e+003
1.154626e+003, 4.522509e+003
1.155109e+003, 4.547440e+003
1.155591e+003, 4.578444e+003
1.156073e+003, 4.609704e+003
1.156555e+003, 4.635474e+003
1.157037e+003, 4.660885e+003
1.157519e+003, 4.695044e+003
1.158001e+003, 4.736515e+003
1.158483e+003, 4.771547e+003
1.158966e+003, 4.794148e+003
1.159448e+003, 4.820981e+003
1.159930e+003, 4.855577e+003
1.160412e+003, 4.891244e+003
1.160894e+003, 4.926768e+003
1.161376e+003, 4.962403e+003
1.161858e+003, 4.998765e+003
1.162340e+003, 5.034925e+003
1.162822e+003, 5.068175e+003
1.163305e+003, 5.097874e+003
1.163787e+003, 5.132735e+003
1.164269e+003, 5.175589e+003
1.164751e+003, 5.214940e+003
1.165233e+003, 5.248178e+003
1.165715e+003, 5.280433e+003
1.166197e+003, 5.313884e+003
1.166679e+003, 5.348211e+003
1.167161e+003, 5.382738e+003
1.167644e+003, 5.418250e+003
1.168126e+003, 5.459528e+003
1.168608e+003, 5.506842e+003
1.169090e+003, 5.551167e+003
1.169572e+003, 5.591895e+003
1.170054e+003, 5.631939e+003
1.170536e+003, 5.671862e+003
1.171018e+003, 5.713450e+003
1.171500e+003, 5.758196e+003
1.171983e+003, 5.803578e+003
1.172465e+003, 5.845538e+003
1.172947e+003, 5.884907e+003
1.173429e+003, 5.923633e+003
1.173911e+003, 5.962571e+003
1.174393e+003, 6.005963e+003
1.174875e+003, 6.053463e+003
1.175357e+003, 6.100285e+003
1.175840e+003, 6.145002e+003
1.176322e+003, 6.190290e+003
1.176804e+003, 6.238775e+003
1.177286e+003, 6.288734e+003
1.177768e+003, 6.338358e+003
1.178250e+003, 6.387839e+003
1.178732e+003, 6.437783e+003
1.179214e+003, 6.487690e+003
1.179697e+003, 6.535965e+003
1.180179e+003, 6.583372e+003
1.180661e+003, 6.632513e+003
1.181143e+003, 6.684651e+003
1.181625e+003, 6.736840e+003
1.182107e+003, 6.785956e+003
1.182589e+003, 6.835729e+003
1.183071e+003, 6.889177e+003
1.183553e+003, 6.943596e+003
1.184036e+003, 6.995502e+003
1.184518e+003, 7.046652e+003
1.185000e+003, 7.101774e+003
1.185482e+003, 7.161204e+003
1.185964e+003, 7.218422e+003
1.186446e+003, 7.266807e+003
1.186928e+003, 7.321609e+003
1.187410e+003, 7.390408e+003
1.187892e+003, 7.460013e+003
1.188375e+003, 7.524584e+003
1.188857e+003, 7.587693e+003
1.189339e+003, 7.652970e+003
1.189821e+003, 7.719209e+003
1.190303e+003, 7.780697e+003
1.190785e+003, 7.835781e+003
1.191267e+003, 7.895599e+003
1.191749e+003, 7.960719e+003
1.192232e+003, 8.028558e+003
1.192714e+003, 8.098968e+003
1.193196e+003, 8.170685e+003
1.193678e+003, 8.242941e+003
1.194160e+003, 8.316149e+003
1.194642e+003, 8.390204e+003
1.195124e+003, 8.465561e+003
1.195606e+003, 8.544712e+003
1.196089e+003, 8.627282e+003
1.196571e+003, 8.702933e+003
1.197053e+003, 8.771324e+003
1.197535e+003, 8.844971e+003
1.198017e+003, 8.926421e+003
1.198499e+003, 9.007908e+003
1.198981e+003, 9.084431e+003
1.199463e+003, 9.160479e+003
1.199945e+003, 9.240440e+003
1.200427e+003, 9.324595e+003
1.200910e+003, 9.419525e+003
1.201392e+003, 9.517769e+003
1.201874e+003, 9.601187e+003
1.202356e+003, 9.673129e+003
1.202838e+003, 9.747853e+003
1.203320e+003, 9.829864e+003
1.203802e+003, 9.916489e+003
1.204284e+003, 1.000771e+004
1.204767e+003, 1.009875e+004
1.205249e+003, 1.018402e+004
1.205731e+003, 1.026911e+004
1.206213e+003, 1.036013e+004
1.206695e+003, 1.045178e+004
1.207177e+003, 1.053531e+004
1.207659e+003, 1.061475e+004
1.208141e+003, 1.070330e+004
1.208624e+003, 1.080387e+004
1.209106e+003, 1.090174e+004
1.209588e+003, 1.098992e+004
1.210070e+003, 1.107955e+004
1.210552e+003, 1.117303e+004
1.211034e+003, 1.126949e+004
1.211516e+003, 1.136966e+004
1.211998e+003, 1.147169e+004
1.212480e+003, 1.157453e+004
1.212963e+003, 1.167761e+004
1.213445e+003, 1.177750e+004
1.213927e+003, 1.187402e+004
1.214409e+003, 1.196748e+004
1.214891e+003, 1.205770e+004
1.215373e+003, 1.214427e+004
1.215855e+003, 1.222571e+004
1.216337e+003, 1.231108e+004
1.216819e+003, 1.240546e+004
1.217302e+003, 1.250250e+004
1.217784e+003, 1.259420e+004
1.218266e+003, 1.268263e+004
1.218748e+003, 1.277359e+004
1.219230e+003, 1.286635e+004
1.219712e+003, 1.295764e+004
1.220194e+003, 1.304761e+004
1.220676e+003, 1.313611e+004
1.221159e+003, 1.322355e+004
1.221641e+003, 1.331141e+004
1.222123e+003, 1.340080e+004
1.222605e+003, 1.349251e+004
1.223087e+003, 1.358723e+004
1.223569e+003, 1.368488e+004
1.224051e+003, 1.378573e+004
1.224533e+003, 1.388909e+004
1.225016e+003, 1.399621e+004
1.225498e+003, 1.410265e+004
1.225980e+003, 1.419848e+004
1.226462e+003, 1.428343e+004
1.226944e+003, 1.437036e+004
1.227426e+003, 1.446264e+004
1.227908e+003, 1.455766e+004
1.228390e+003, 1.465777e+004
1.228872e+003, 1.475518e+004
1.229354e+003, 1.484719e+004
1.229837e+003, 1.493470e+004
1.230319e+003, 1.501642e+004
1.230801e+003, 1.509536e+004
1.231283e+003, 1.517637e+004
1.231765e+003, 1.525979e+004
1.232247e+003, 1.534586e+004
1.232729e+003, 1.543717e+004
1.233211e+003, 1.552254e+004
1.233694e+003, 1.559860e+004
1.234176e+003, 1.568214e+004
1.234658e+003, 1.578085e+004
1.235140e+003, 1.587727e+004
1.235622e+003, 1.595897e+004
1.236104e+003, 1.603198e+004
1.236586e+003, 1.610523e+004
1.237068e+003, 1.617919e+004
1.237551e+003, 1.625887e+004
1.238033e+003, 1.634186e+004
1.238515e+003, 1.641852e+004
1.238997e+003, 1.648933e+004
1.239479e+003, 1.656278e+004
1.239961e+003, 1.664121e+004
1.240443e+003, 1.672263e+004
1.240925e+003, 1.680655e+004
1.241407e+003, 1.688929e+004
1.241890e+003, 1.696686e+004
1.242372e+003, 1.704220e+004
1.242854e+003, 1.711459e+004
1.243336e+003, 1.719055e+004
1.243818e+003, 1.728002e+004
1.244300e+003, 1.737905e+004
1.244782e+003, 1.748115e+004
1.245264e+003, 1.758425e+004
1.245746e+003, 1.767297e+004
1.246229e+003, 1.773085e+004
1.246711e+003, 1.779670e+004
1.247193e+003, 1.787951e+004
1.247675e+003, 1.796833e+004
1.248157e+003, 1.806317e+004
1.248639e+003, 1.815808e+004
1.249121e+003, 1.824800e+004
1.249603e+003, 1.833604e+004
1.250085e+003, 1.842854e+004
1.250568e+003, 1.852502e+004
1.251050e+003, 1.862125e+004
1.251532e+003, 1.871724e+004
1.252014e+003, 1.881098e+004
1.252496e+003, 1.890242e+004
1.252978e+003, 1.899519e+004
1.253460e+003, 1.909038e+004
1.253942e+003, 1.918754e+004
1.254425e+003, 1.928581e+004
1.254907e+003, 1.938543e+004
1.255389e+003, 1.948605e+004
1.255871e+003, 1.958703e+004
1.256353e+003, 1.968544e+004
1.256835e+003, 1.978340e+004
1.257317e+003, 1.988347e+004
1.257799e+003, 1.998506e+004
1.258281e+003, 2.008746e+004
1.258764e+003, 2.018969e+004
1.259246e+003, 2.029012e+004
1.259728e+003, 2.038722e+004
1.260210e+003, 2.048479e+004
1.260692e+003, 2.058399e+004
1.261174e+003, 2.068487e+004
1.261656e+003, 2.078537e+004
1.262138e+003, 2.089025e+004
1.262620e+003, 2.100568e+004
1.263103e+003, 2.112673e+004
1.263585e+003, 2.124650e+004
1.264067e+003, 2.136481e+004
1.264549e+003, 2.147406e+004
1.265031e+003, 2.157213e+004
1.265513e+003, 2.166684e+004
1.265995e+003, 2.175461e+004
1.266477e+003, 2.185433e+004
1.266960e+003, 2.197215e+004
1.267442e+003, 2.208985e+004
1.267924e+003, 2.219781e+004
1.268406e+003, 2.229634e+004
1.268888e+003, 2.238478e+004
1.269370e+003, 2.246872e+004
1.269852e+003, 2.256114e+004
1.270334e+003, 2.266004e+004
1.270817e+003, 2.276236e+004
1.271299e+003, 2.286690e+004
1.271781e+003, 2.297460e+004
1.272263e+003, 2.308196e+004
1.272745e+003, 2.317520e+004
1.273227e+003, 2.324896e+004
1.273709e+003, 2.332215e+004
1.274191e+003, 2.340407e+004
1.274673e+003, 2.349182e+004
1.275156e+003, 2.358738e+004
1.275638e+003, 2.368536e+004
1.276120e+003, 2.378666e+004
1.276602e+003, 2.388550e+004
1.277084e+003, 2.397482e+004
1.277566e+003, 2.405666e+004
1.278048e+003, 2.413685e+004
1.278530e+003, 2.421581e+004
1.279012e+003, 2.428993e+004
1.279495e+003, 2.435469e+004
1.279977e+003, 2.442829e+004
1.280459e+003, 2.451709e+004
1.280941e+003, 2.459570e+004
1.281423e+003, 2.465429e+004
1.281905e+003, 2.470488e+004
1.282387e+003, 2.475740e+004
1.282869e+003, 2.480929e+004
1.283352e+003, 2.485318e+004
1.283834e+003, 2.489206e+004
1.284316e+003, 2.493041e+004
1.284798e+003, 2.496946e+004
##END=



