##NAMES=Muirite
##RRUFFID=R120160
##IDEAL CHEMISTRY=Ba_10_Ca_2_Mn^2+^Ti^4+^Si_10_O_30_(OH)_10_
##LOCALITY=Gun Claim, MacMillian Pass, Itsy Mts, Watson Lake Mining District, Yukon Territory, Canada
##OWNER=RRUFF
##SOURCE=Donald Doell
##DESCRIPTION=Orange-red massive, associated with colorless sanbornite with good cleavage, diopside, and witherite.
##STATUS=The identification of this mineral has been confirmed by single-crystal X-ray diffraction.
##URL=rruff.info/R120160
8.975323e+001, 0.000000e+000
9.023535e+001, 4.401057e+003
9.071747e+001, 4.308142e+003
9.119958e+001, 4.258177e+003
9.168170e+001, 4.364210e+003
9.216382e+001, 4.472250e+003
9.264594e+001, 4.546656e+003
9.312805e+001, 4.595202e+003
9.361017e+001, 4.634205e+003
9.409229e+001, 4.663736e+003
9.457440e+001, 4.683618e+003
9.505651e+001, 4.693392e+003
9.553863e+001, 4.694697e+003
9.602074e+001, 4.691722e+003
9.650286e+001, 4.688292e+003
9.698498e+001, 4.683101e+003
9.746709e+001, 4.666883e+003
9.794921e+001, 4.648687e+003
9.843133e+001, 4.626202e+003
9.891344e+001, 4.606391e+003
9.939556e+001, 4.589665e+003
9.987768e+001, 4.575434e+003
1.003598e+002, 4.563517e+003
1.008419e+002, 4.553150e+003
1.013240e+002, 4.545263e+003
1.018061e+002, 4.541304e+003
1.022883e+002, 4.544173e+003
1.027704e+002, 4.548363e+003
1.032525e+002, 4.548207e+003
1.037346e+002, 4.542717e+003
1.042167e+002, 4.536872e+003
1.046988e+002, 4.532162e+003
1.051810e+002, 4.528211e+003
1.056631e+002, 4.525023e+003
1.061452e+002, 4.522701e+003
1.066273e+002, 4.520990e+003
1.071094e+002, 4.519173e+003
1.075915e+002, 4.517235e+003
1.080737e+002, 4.514811e+003
1.085558e+002, 4.511890e+003
1.090379e+002, 4.508369e+003
1.095200e+002, 4.504050e+003
1.100021e+002, 4.498081e+003
1.104842e+002, 4.489484e+003
1.109664e+002, 4.484579e+003
1.114485e+002, 4.485936e+003
1.119306e+002, 4.488540e+003
1.124127e+002, 4.490304e+003
1.128948e+002, 4.490820e+003
1.133769e+002, 4.490796e+003
1.138591e+002, 4.491178e+003
1.143412e+002, 4.491663e+003
1.148233e+002, 4.493281e+003
1.153054e+002, 4.497685e+003
1.157875e+002, 4.502384e+003
1.162696e+002, 4.504509e+003
1.167517e+002, 4.502904e+003
1.172339e+002, 4.499361e+003
1.177160e+002, 4.498095e+003
1.181981e+002, 4.499083e+003
1.186802e+002, 4.501344e+003
1.191623e+002, 4.505173e+003
1.196444e+002, 4.510092e+003
1.201266e+002, 4.514876e+003
1.206087e+002, 4.518854e+003
1.210908e+002, 4.522358e+003
1.215729e+002, 4.526241e+003
1.220550e+002, 4.530748e+003
1.225371e+002, 4.535139e+003
1.230193e+002, 4.538695e+003
1.235014e+002, 4.541354e+003
1.239835e+002, 4.543706e+003
1.244656e+002, 4.546729e+003
1.249477e+002, 4.549328e+003
1.254298e+002, 4.550268e+003
1.259120e+002, 4.548887e+003
1.263941e+002, 4.545940e+003
1.268762e+002, 4.543283e+003
1.273583e+002, 4.542046e+003
1.278404e+002, 4.539075e+003
1.283225e+002, 4.532374e+003
1.288047e+002, 4.523916e+003
1.292868e+002, 4.516592e+003
1.297689e+002, 4.512633e+003
1.302510e+002, 4.511611e+003
1.307331e+002, 4.507067e+003
1.312152e+002, 4.494211e+003
1.316974e+002, 4.482210e+003
1.321795e+002, 4.472997e+003
1.326616e+002, 4.466511e+003
1.331437e+002, 4.462208e+003
1.336258e+002, 4.459945e+003
1.341079e+002, 4.460442e+003
1.345901e+002, 4.457719e+003
1.350722e+002, 4.449536e+003
1.355543e+002, 4.440604e+003
1.360364e+002, 4.433524e+003
1.365185e+002, 4.428581e+003
1.370006e+002, 4.424647e+003
1.374828e+002, 4.420745e+003
1.379649e+002, 4.416984e+003
1.384470e+002, 4.412346e+003
1.389291e+002, 4.406393e+003
1.394112e+002, 4.399688e+003
1.398933e+002, 4.392499e+003
1.403755e+002, 4.384655e+003
1.408576e+002, 4.377370e+003
1.413397e+002, 4.372419e+003
1.418218e+002, 4.369525e+003
1.423039e+002, 4.367612e+003
1.427860e+002, 4.366979e+003
1.432681e+002, 4.367146e+003
1.437503e+002, 4.366299e+003
1.442324e+002, 4.363491e+003
1.447145e+002, 4.360086e+003
1.451966e+002, 4.357077e+003
1.456787e+002, 4.354489e+003
1.461608e+002, 4.352579e+003
1.466430e+002, 4.352183e+003
1.471251e+002, 4.353594e+003
1.476072e+002, 4.353506e+003
1.480893e+002, 4.349245e+003
1.485714e+002, 4.344513e+003
1.490535e+002, 4.341689e+003
1.495357e+002, 4.341191e+003
1.500178e+002, 4.341113e+003
1.504999e+002, 4.338257e+003
1.509820e+002, 4.330359e+003
1.514641e+002, 4.324640e+003
1.519462e+002, 4.322523e+003
1.524284e+002, 4.321958e+003
1.529105e+002, 4.321631e+003
1.533926e+002, 4.321006e+003
1.538747e+002, 4.319989e+003
1.543568e+002, 4.318311e+003
1.548389e+002, 4.314896e+003
1.553211e+002, 4.312084e+003
1.558032e+002, 4.310072e+003
1.562853e+002, 4.308673e+003
1.567674e+002, 4.307993e+003
1.572495e+002, 4.308165e+003
1.577316e+002, 4.308654e+003
1.582138e+002, 4.307053e+003
1.586959e+002, 4.301883e+003
1.591780e+002, 4.296612e+003
1.596601e+002, 4.291081e+003
1.601422e+002, 4.285979e+003
1.606243e+002, 4.283237e+003
1.611065e+002, 4.284681e+003
1.615886e+002, 4.288954e+003
1.620707e+002, 4.289924e+003
1.625528e+002, 4.285514e+003
1.630349e+002, 4.280151e+003
1.635170e+002, 4.275790e+003
1.639991e+002, 4.272447e+003
1.644813e+002, 4.270496e+003
1.649634e+002, 4.271033e+003
1.654455e+002, 4.272995e+003
1.659276e+002, 4.273821e+003
1.664097e+002, 4.272566e+003
1.668918e+002, 4.270610e+003
1.673740e+002, 4.269871e+003
1.678561e+002, 4.270801e+003
1.683382e+002, 4.270790e+003
1.688203e+002, 4.266894e+003
1.693024e+002, 4.261464e+003
1.697845e+002, 4.257429e+003
1.702667e+002, 4.256483e+003
1.707488e+002, 4.257263e+003
1.712309e+002, 4.256330e+003
1.717130e+002, 4.252095e+003
1.721951e+002, 4.249159e+003
1.726772e+002, 4.250532e+003
1.731594e+002, 4.253894e+003
1.736415e+002, 4.255782e+003
1.741236e+002, 4.253694e+003
1.746057e+002, 4.248551e+003
1.750878e+002, 4.246022e+003
1.755699e+002, 4.249472e+003
1.760521e+002, 4.251915e+003
1.765342e+002, 4.251482e+003
1.770163e+002, 4.248760e+003
1.774984e+002, 4.244675e+003
1.779805e+002, 4.239482e+003
1.784626e+002, 4.233144e+003
1.789448e+002, 4.230267e+003
1.794269e+002, 4.234646e+003
1.799090e+002, 4.238720e+003
1.803911e+002, 4.239592e+003
1.808732e+002, 4.238111e+003
1.813553e+002, 4.237051e+003
1.818375e+002, 4.239001e+003
1.823196e+002, 4.244510e+003
1.828017e+002, 4.247250e+003
1.832838e+002, 4.245361e+003
1.837659e+002, 4.242969e+003
1.842480e+002, 4.242107e+003
1.847301e+002, 4.242738e+003
1.852123e+002, 4.243629e+003
1.856944e+002, 4.243706e+003
1.861765e+002, 4.242839e+003
1.866586e+002, 4.241607e+003
1.871407e+002, 4.239496e+003
1.876228e+002, 4.237409e+003
1.881050e+002, 4.235862e+003
1.885871e+002, 4.234941e+003
1.890692e+002, 4.234800e+003
1.895513e+002, 4.236222e+003
1.900334e+002, 4.239088e+003
1.905155e+002, 4.240066e+003
1.909977e+002, 4.237994e+003
1.914798e+002, 4.234252e+003
1.919619e+002, 4.230155e+003
1.924440e+002, 4.225779e+003
1.929261e+002, 4.221458e+003
1.934082e+002, 4.217342e+003
1.938904e+002, 4.213478e+003
1.943725e+002, 4.210280e+003
1.948546e+002, 4.208425e+003
1.953367e+002, 4.207235e+003
1.958188e+002, 4.205222e+003
1.963009e+002, 4.201882e+003
1.967831e+002, 4.198578e+003
1.972652e+002, 4.196740e+003
1.977473e+002, 4.195784e+003
1.982294e+002, 4.194218e+003
1.987115e+002, 4.189792e+003
1.991936e+002, 4.183729e+003
1.996758e+002, 4.181743e+003
2.001579e+002, 4.186831e+003
2.006400e+002, 4.192136e+003
2.011221e+002, 4.193800e+003
2.016042e+002, 4.192719e+003
2.020863e+002, 4.191182e+003
2.025685e+002, 4.190724e+003
2.030506e+002, 4.191267e+003
2.035327e+002, 4.191553e+003
2.040148e+002, 4.190659e+003
2.044969e+002, 4.190501e+003
2.049790e+002, 4.192615e+003
2.054612e+002, 4.196123e+003
2.059433e+002, 4.198954e+003
2.064254e+002, 4.199260e+003
2.069075e+002, 4.196897e+003
2.073896e+002, 4.194672e+003
2.078717e+002, 4.192293e+003
2.083539e+002, 4.190324e+003
2.088360e+002, 4.188813e+003
2.093181e+002, 4.187868e+003
2.098002e+002, 4.187760e+003
2.102823e+002, 4.188938e+003
2.107644e+002, 4.191691e+003
2.112466e+002, 4.193130e+003
2.117287e+002, 4.191684e+003
2.122108e+002, 4.190542e+003
2.126929e+002, 4.191428e+003
2.131750e+002, 4.193924e+003
2.136571e+002, 4.196350e+003
2.141393e+002, 4.197116e+003
2.146214e+002, 4.195932e+003
2.151035e+002, 4.195131e+003
2.155856e+002, 4.194945e+003
2.160677e+002, 4.194864e+003
2.165498e+002, 4.194706e+003
2.170320e+002, 4.194438e+003
2.175141e+002, 4.194074e+003
2.179962e+002, 4.193640e+003
2.184783e+002, 4.193142e+003
2.189604e+002, 4.192336e+003
2.194425e+002, 4.190360e+003
2.199247e+002, 4.188778e+003
2.204068e+002, 4.189148e+003
2.208889e+002, 4.191229e+003
2.213710e+002, 4.192845e+003
2.218531e+002, 4.191901e+003
2.223352e+002, 4.188180e+003
2.228174e+002, 4.185551e+003
2.232995e+002, 4.184964e+003
2.237816e+002, 4.184739e+003
2.242637e+002, 4.183870e+003
2.247458e+002, 4.182255e+003
2.252279e+002, 4.179782e+003
2.257100e+002, 4.175952e+003
2.261922e+002, 4.170997e+003
2.266743e+002, 4.166804e+003
2.271564e+002, 4.163703e+003
2.276385e+002, 4.161291e+003
2.281206e+002, 4.159565e+003
2.286027e+002, 4.158565e+003
2.290849e+002, 4.157250e+003
2.295670e+002, 4.154315e+003
2.300491e+002, 4.150504e+003
2.305312e+002, 4.147863e+003
2.310133e+002, 4.146923e+003
2.314954e+002, 4.147215e+003
2.319776e+002, 4.148737e+003
2.324597e+002, 4.151750e+003
2.329418e+002, 4.154178e+003
2.334239e+002, 4.154161e+003
2.339060e+002, 4.152775e+003
2.343881e+002, 4.151592e+003
2.348703e+002, 4.151210e+003
2.353524e+002, 4.151015e+003
2.358345e+002, 4.149758e+003
2.363166e+002, 4.146904e+003
2.367987e+002, 4.145167e+003
2.372808e+002, 4.147536e+003
2.377630e+002, 4.151300e+003
2.382451e+002, 4.153472e+003
2.387272e+002, 4.152887e+003
2.392093e+002, 4.150666e+003
2.396914e+002, 4.148202e+003
2.401735e+002, 4.145053e+003
2.406557e+002, 4.143116e+003
2.411378e+002, 4.143746e+003
2.416199e+002, 4.145631e+003
2.421020e+002, 4.147669e+003
2.425841e+002, 4.149494e+003
2.430662e+002, 4.151327e+003
2.435484e+002, 4.153898e+003
2.440305e+002, 4.158079e+003
2.445126e+002, 4.160559e+003
2.449947e+002, 4.159352e+003
2.454768e+002, 4.156774e+003
2.459589e+002, 4.154443e+003
2.464410e+002, 4.152854e+003
2.469232e+002, 4.152237e+003
2.474053e+002, 4.153546e+003
2.478874e+002, 4.158596e+003
2.483695e+002, 4.161041e+003
2.488516e+002, 4.157573e+003
2.493337e+002, 4.152690e+003
2.498159e+002, 4.149886e+003
2.502980e+002, 4.150204e+003
2.507801e+002, 4.152079e+003
2.512622e+002, 4.152946e+003
2.517443e+002, 4.152400e+003
2.522264e+002, 4.151674e+003
2.527086e+002, 4.151521e+003
2.531907e+002, 4.150864e+003
2.536728e+002, 4.147995e+003
2.541549e+002, 4.142845e+003
2.546370e+002, 4.137958e+003
2.551191e+002, 4.137754e+003
2.556013e+002, 4.145812e+003
2.560834e+002, 4.150850e+003
2.565655e+002, 4.150537e+003
2.570476e+002, 4.149275e+003
2.575297e+002, 4.150024e+003
2.580118e+002, 4.153270e+003
2.584940e+002, 4.157453e+003
2.589761e+002, 4.160587e+003
2.594582e+002, 4.162712e+003
2.599403e+002, 4.163516e+003
2.604224e+002, 4.161640e+003
2.609045e+002, 4.159780e+003
2.613867e+002, 4.159961e+003
2.618688e+002, 4.162169e+003
2.623509e+002, 4.164715e+003
2.628330e+002, 4.165699e+003
2.633151e+002, 4.164842e+003
2.637972e+002, 4.163245e+003
2.642794e+002, 4.159831e+003
2.647615e+002, 4.156722e+003
2.652436e+002, 4.155495e+003
2.657257e+002, 4.155928e+003
2.662078e+002, 4.156382e+003
2.666899e+002, 4.155075e+003
2.671721e+002, 4.151421e+003
2.676542e+002, 4.149939e+003
2.681363e+002, 4.153883e+003
2.686184e+002, 4.156620e+003
2.691005e+002, 4.153874e+003
2.695826e+002, 4.146597e+003
2.700648e+002, 4.139050e+003
2.705469e+002, 4.134821e+003
2.710290e+002, 4.134096e+003
2.715111e+002, 4.131664e+003
2.719932e+002, 4.126213e+003
2.724753e+002, 4.120726e+003
2.729575e+002, 4.116292e+003
2.734396e+002, 4.112860e+003
2.739217e+002, 4.110204e+003
2.744038e+002, 4.108368e+003
2.748859e+002, 4.107178e+003
2.753680e+002, 4.104394e+003
2.758501e+002, 4.098735e+003
2.763322e+002, 4.093279e+003
2.768144e+002, 4.089355e+003
2.772965e+002, 4.086403e+003
2.777786e+002, 4.083157e+003
2.782607e+002, 4.078926e+003
2.787428e+002, 4.073881e+003
2.792249e+002, 4.068634e+003
2.797071e+002, 4.061729e+003
2.801892e+002, 4.056306e+003
2.806713e+002, 4.054508e+003
2.811534e+002, 4.054570e+003
2.816355e+002, 4.053172e+003
2.821176e+002, 4.048736e+003
2.825998e+002, 4.042547e+003
2.830819e+002, 4.037896e+003
2.835640e+002, 4.034567e+003
2.840461e+002, 4.032769e+003
2.845282e+002, 4.033530e+003
2.850103e+002, 4.035617e+003
2.854925e+002, 4.037295e+003
2.859746e+002, 4.038017e+003
2.864567e+002, 4.038108e+003
2.869388e+002, 4.037932e+003
2.874209e+002, 4.037199e+003
2.879030e+002, 4.037214e+003
2.883852e+002, 4.037957e+003
2.888673e+002, 4.039647e+003
2.893494e+002, 4.043024e+003
2.898315e+002, 4.048320e+003
2.903136e+002, 4.053793e+003
2.907957e+002, 4.057000e+003
2.912779e+002, 4.057450e+003
2.917600e+002, 4.059370e+003
2.922421e+002, 4.064121e+003
2.927242e+002, 4.069972e+003
2.932063e+002, 4.075257e+003
2.936884e+002, 4.079778e+003
2.941706e+002, 4.084164e+003
2.946527e+002, 4.088771e+003
2.951348e+002, 4.093690e+003
2.956169e+002, 4.099787e+003
2.960990e+002, 4.108125e+003
2.965811e+002, 4.116917e+003
2.970633e+002, 4.125247e+003
2.975454e+002, 4.132937e+003
2.980275e+002, 4.139432e+003
2.985096e+002, 4.144335e+003
2.989917e+002, 4.147525e+003
2.994738e+002, 4.149545e+003
2.999560e+002, 4.148997e+003
3.004381e+002, 4.148562e+003
3.009202e+002, 4.150279e+003
3.014023e+002, 4.153660e+003
3.018844e+002, 4.156625e+003
3.023665e+002, 4.158475e+003
3.028487e+002, 4.158767e+003
3.033308e+002, 4.156511e+003
3.038129e+002, 4.150597e+003
3.042950e+002, 4.144221e+003
3.047771e+002, 4.138341e+003
3.052592e+002, 4.133041e+003
3.057414e+002, 4.128842e+003
3.062235e+002, 4.126377e+003
3.067056e+002, 4.124309e+003
3.071877e+002, 4.119861e+003
3.076698e+002, 4.112693e+003
3.081519e+002, 4.105338e+003
3.086341e+002, 4.098503e+003
3.091162e+002, 4.092051e+003
3.095983e+002, 4.085844e+003
3.100804e+002, 4.079899e+003
3.105625e+002, 4.074114e+003
3.110446e+002, 4.068330e+003
3.115268e+002, 4.062486e+003
3.120089e+002, 4.057156e+003
3.124910e+002, 4.052167e+003
3.129731e+002, 4.047878e+003
3.134552e+002, 4.045284e+003
3.139373e+002, 4.044616e+003
3.144195e+002, 4.043469e+003
3.149016e+002, 4.039153e+003
3.153837e+002, 4.031868e+003
3.158658e+002, 4.025661e+003
3.163479e+002, 4.021370e+003
3.168300e+002, 4.017893e+003
3.173121e+002, 4.014477e+003
3.177943e+002, 4.011063e+003
3.182764e+002, 4.007631e+003
3.187585e+002, 4.003981e+003
3.192406e+002, 4.000379e+003
3.197227e+002, 3.997740e+003
3.202048e+002, 3.997835e+003
3.206870e+002, 3.997133e+003
3.211691e+002, 3.993478e+003
3.216512e+002, 3.987380e+003
3.221333e+002, 3.980512e+003
3.226154e+002, 3.973659e+003
3.230975e+002, 3.966541e+003
3.235797e+002, 3.958332e+003
3.240618e+002, 3.947776e+003
3.245439e+002, 3.938898e+003
3.250260e+002, 3.934180e+003
3.255081e+002, 3.931945e+003
3.259902e+002, 3.928881e+003
3.264724e+002, 3.923835e+003
3.269545e+002, 3.918103e+003
3.274366e+002, 3.913814e+003
3.279187e+002, 3.911208e+003
3.284008e+002, 3.908245e+003
3.288829e+002, 3.904450e+003
3.293651e+002, 3.900142e+003
3.298472e+002, 3.895789e+003
3.303293e+002, 3.891461e+003
3.308114e+002, 3.886603e+003
3.312935e+002, 3.880109e+003
3.317756e+002, 3.871824e+003
3.322578e+002, 3.865921e+003
3.327399e+002, 3.864063e+003
3.332220e+002, 3.863477e+003
3.337041e+002, 3.862102e+003
3.341862e+002, 3.859976e+003
3.346683e+002, 3.858407e+003
3.351505e+002, 3.858616e+003
3.356326e+002, 3.860172e+003
3.361147e+002, 3.859973e+003
3.365968e+002, 3.856838e+003
3.370789e+002, 3.853449e+003
3.375610e+002, 3.851621e+003
3.380432e+002, 3.850437e+003
3.385253e+002, 3.847344e+003
3.390074e+002, 3.840832e+003
3.394895e+002, 3.832511e+003
3.399716e+002, 3.826747e+003
3.404537e+002, 3.823716e+003
3.409359e+002, 3.822417e+003
3.414180e+002, 3.824480e+003
3.419001e+002, 3.827539e+003
3.423822e+002, 3.828295e+003
3.428643e+002, 3.825803e+003
3.433464e+002, 3.821880e+003
3.438286e+002, 3.818977e+003
3.443107e+002, 3.817500e+003
3.447928e+002, 3.816011e+003
3.452749e+002, 3.814430e+003
3.457570e+002, 3.812891e+003
3.462391e+002, 3.811078e+003
3.467213e+002, 3.809188e+003
3.472034e+002, 3.808457e+003
3.476855e+002, 3.810432e+003
3.481676e+002, 3.815366e+003
3.486497e+002, 3.817062e+003
3.491318e+002, 3.812325e+003
3.496140e+002, 3.808167e+003
3.500961e+002, 3.808205e+003
3.505782e+002, 3.811230e+003
3.510603e+002, 3.814049e+003
3.515424e+002, 3.814741e+003
3.520245e+002, 3.813938e+003
3.525067e+002, 3.814357e+003
3.529888e+002, 3.817707e+003
3.534709e+002, 3.820152e+003
3.539530e+002, 3.819939e+003
3.544351e+002, 3.819069e+003
3.549172e+002, 3.820575e+003
3.553994e+002, 3.825391e+003
3.558815e+002, 3.830786e+003
3.563636e+002, 3.831996e+003
3.568457e+002, 3.826042e+003
3.573278e+002, 3.821711e+003
3.578099e+002, 3.820144e+003
3.582920e+002, 3.819147e+003
3.587741e+002, 3.817168e+003
3.592563e+002, 3.814133e+003
3.597384e+002, 3.810984e+003
3.602205e+002, 3.808609e+003
3.607026e+002, 3.807055e+003
3.611847e+002, 3.805866e+003
3.616668e+002, 3.806962e+003
3.621490e+002, 3.806447e+003
3.626311e+002, 3.801420e+003
3.631132e+002, 3.793924e+003
3.635953e+002, 3.787993e+003
3.640774e+002, 3.786160e+003
3.645595e+002, 3.787452e+003
3.650417e+002, 3.787712e+003
3.655238e+002, 3.785711e+003
3.660059e+002, 3.784333e+003
3.664880e+002, 3.784228e+003
3.669701e+002, 3.784702e+003
3.674522e+002, 3.785196e+003
3.679344e+002, 3.785497e+003
3.684165e+002, 3.785538e+003
3.688986e+002, 3.785167e+003
3.693807e+002, 3.784222e+003
3.698628e+002, 3.783319e+003
3.703449e+002, 3.782415e+003
3.708271e+002, 3.781630e+003
3.713092e+002, 3.781273e+003
3.717913e+002, 3.781190e+003
3.722734e+002, 3.780745e+003
3.727555e+002, 3.779163e+003
3.732376e+002, 3.776518e+003
3.737198e+002, 3.774749e+003
3.742019e+002, 3.773359e+003
3.746840e+002, 3.773703e+003
3.751661e+002, 3.777613e+003
3.756482e+002, 3.783123e+003
3.761303e+002, 3.786964e+003
3.766125e+002, 3.787182e+003
3.770946e+002, 3.785759e+003
3.775767e+002, 3.787669e+003
3.780588e+002, 3.794777e+003
3.785409e+002, 3.799854e+003
3.790230e+002, 3.799250e+003
3.795052e+002, 3.796849e+003
3.799873e+002, 3.795362e+003
3.804694e+002, 3.795329e+003
3.809515e+002, 3.796056e+003
3.814336e+002, 3.797245e+003
3.819157e+002, 3.798863e+003
3.823979e+002, 3.799432e+003
3.828800e+002, 3.797816e+003
3.833621e+002, 3.796183e+003
3.838442e+002, 3.796667e+003
3.843263e+002, 3.798527e+003
3.848084e+002, 3.799092e+003
3.852906e+002, 3.795226e+003
3.857727e+002, 3.789354e+003
3.862548e+002, 3.787846e+003
3.867369e+002, 3.792211e+003
3.872190e+002, 3.795500e+003
3.877011e+002, 3.792853e+003
3.881833e+002, 3.786839e+003
3.886654e+002, 3.780660e+003
3.891475e+002, 3.774482e+003
3.896296e+002, 3.769062e+003
3.901117e+002, 3.765820e+003
3.905938e+002, 3.764375e+003
3.910760e+002, 3.761757e+003
3.915581e+002, 3.756911e+003
3.920402e+002, 3.750567e+003
3.925223e+002, 3.743259e+003
3.930044e+002, 3.734801e+003
3.934865e+002, 3.727698e+003
3.939687e+002, 3.723446e+003
3.944508e+002, 3.721016e+003
3.949329e+002, 3.719222e+003
3.954150e+002, 3.717982e+003
3.958971e+002, 3.716197e+003
3.963792e+002, 3.712403e+003
3.968614e+002, 3.706855e+003
3.973435e+002, 3.702749e+003
3.978256e+002, 3.701271e+003
3.983077e+002, 3.700273e+003
3.987898e+002, 3.697829e+003
3.992719e+002, 3.694503e+003
3.997540e+002, 3.692748e+003
4.002361e+002, 3.694187e+003
4.007183e+002, 3.697318e+003
4.012004e+002, 3.697654e+003
4.016825e+002, 3.693802e+003
4.021646e+002, 3.690082e+003
4.026467e+002, 3.686725e+003
4.031288e+002, 3.684125e+003
4.036110e+002, 3.683141e+003
4.040931e+002, 3.683874e+003
4.045752e+002, 3.685034e+003
4.050573e+002, 3.685121e+003
4.055394e+002, 3.683924e+003
4.060215e+002, 3.682694e+003
4.065037e+002, 3.681081e+003
4.069858e+002, 3.679797e+003
4.074679e+002, 3.679294e+003
4.079500e+002, 3.679421e+003
4.084321e+002, 3.679735e+003
4.089142e+002, 3.679958e+003
4.093964e+002, 3.680161e+003
4.098785e+002, 3.680713e+003
4.103606e+002, 3.682337e+003
4.108427e+002, 3.683322e+003
4.113248e+002, 3.682731e+003
4.118069e+002, 3.681858e+003
4.122891e+002, 3.682392e+003
4.127712e+002, 3.684564e+003
4.132533e+002, 3.686594e+003
4.137354e+002, 3.685612e+003
4.142175e+002, 3.680241e+003
4.146996e+002, 3.677370e+003
4.151818e+002, 3.680746e+003
4.156639e+002, 3.683198e+003
4.161460e+002, 3.680789e+003
4.166281e+002, 3.675129e+003
4.171102e+002, 3.670489e+003
4.175923e+002, 3.669769e+003
4.180745e+002, 3.671871e+003
4.185566e+002, 3.673038e+003
4.190387e+002, 3.672956e+003
4.195208e+002, 3.672622e+003
4.200029e+002, 3.673302e+003
4.204850e+002, 3.673401e+003
4.209672e+002, 3.670919e+003
4.214493e+002, 3.665321e+003
4.219314e+002, 3.659166e+003
4.224135e+002, 3.654762e+003
4.228956e+002, 3.652095e+003
4.233777e+002, 3.650845e+003
4.238599e+002, 3.651749e+003
4.243420e+002, 3.653040e+003
4.248241e+002, 3.653531e+003
4.253062e+002, 3.653311e+003
4.257883e+002, 3.652646e+003
4.262704e+002, 3.650983e+003
4.267526e+002, 3.649254e+003
4.272347e+002, 3.649108e+003
4.277168e+002, 3.650652e+003
4.281989e+002, 3.652141e+003
4.286810e+002, 3.652532e+003
4.291631e+002, 3.652344e+003
4.296453e+002, 3.652760e+003
4.301274e+002, 3.653999e+003
4.306095e+002, 3.655334e+003
4.310916e+002, 3.657155e+003
4.315737e+002, 3.658687e+003
4.320558e+002, 3.658142e+003
4.325380e+002, 3.654932e+003
4.330201e+002, 3.650490e+003
4.335022e+002, 3.646148e+003
4.339843e+002, 3.641827e+003
4.344664e+002, 3.638617e+003
4.349485e+002, 3.637104e+003
4.354307e+002, 3.636208e+003
4.359128e+002, 3.635744e+003
4.363949e+002, 3.635369e+003
4.368770e+002, 3.634040e+003
4.373591e+002, 3.630994e+003
4.378412e+002, 3.626863e+003
4.383234e+002, 3.624120e+003
4.388055e+002, 3.623663e+003
4.392876e+002, 3.623509e+003
4.397697e+002, 3.623587e+003
4.402518e+002, 3.623919e+003
4.407339e+002, 3.624794e+003
4.412160e+002, 3.626141e+003
4.416982e+002, 3.627274e+003
4.421803e+002, 3.627333e+003
4.426624e+002, 3.626156e+003
4.431445e+002, 3.625167e+003
4.436266e+002, 3.624764e+003
4.441087e+002, 3.624156e+003
4.445909e+002, 3.621985e+003
4.450730e+002, 3.619669e+003
4.455551e+002, 3.619910e+003
4.460372e+002, 3.624367e+003
4.465193e+002, 3.630716e+003
4.470014e+002, 3.633498e+003
4.474836e+002, 3.631278e+003
4.479657e+002, 3.629763e+003
4.484478e+002, 3.630380e+003
4.489299e+002, 3.631754e+003
4.494120e+002, 3.633434e+003
4.498941e+002, 3.635217e+003
4.503763e+002, 3.636487e+003
4.508584e+002, 3.636010e+003
4.513405e+002, 3.634472e+003
4.518226e+002, 3.634978e+003
4.523047e+002, 3.638050e+003
4.527868e+002, 3.641960e+003
4.532690e+002, 3.646465e+003
4.537511e+002, 3.650962e+003
4.542332e+002, 3.654589e+003
4.547153e+002, 3.657255e+003
4.551974e+002, 3.658777e+003
4.556795e+002, 3.658219e+003
4.561617e+002, 3.656159e+003
4.566438e+002, 3.655163e+003
4.571259e+002, 3.656063e+003
4.576080e+002, 3.658053e+003
4.580901e+002, 3.660456e+003
4.585722e+002, 3.663306e+003
4.590544e+002, 3.665572e+003
4.595365e+002, 3.666493e+003
4.600186e+002, 3.667201e+003
4.605007e+002, 3.669001e+003
4.609828e+002, 3.671694e+003
4.614649e+002, 3.673768e+003
4.619471e+002, 3.674179e+003
4.624292e+002, 3.673413e+003
4.629113e+002, 3.673470e+003
4.633934e+002, 3.676008e+003
4.638755e+002, 3.677159e+003
4.643576e+002, 3.674794e+003
4.648398e+002, 3.671737e+003
4.653219e+002, 3.671043e+003
4.658040e+002, 3.673188e+003
4.662861e+002, 3.676437e+003
4.667682e+002, 3.679040e+003
4.672503e+002, 3.681028e+003
4.677325e+002, 3.681978e+003
4.682146e+002, 3.680821e+003
4.686967e+002, 3.679701e+003
4.691788e+002, 3.678672e+003
4.696609e+002, 3.678171e+003
4.701430e+002, 3.678926e+003
4.706252e+002, 3.681292e+003
4.711073e+002, 3.684495e+003
4.715894e+002, 3.687816e+003
4.720715e+002, 3.692062e+003
4.725536e+002, 3.692886e+003
4.730357e+002, 3.685398e+003
4.735179e+002, 3.677942e+003
4.740000e+002, 3.675890e+003
4.744821e+002, 3.678400e+003
4.749642e+002, 3.680866e+003
4.754463e+002, 3.680215e+003
4.759284e+002, 3.677828e+003
4.764106e+002, 3.676609e+003
4.768927e+002, 3.676631e+003
4.773748e+002, 3.677425e+003
4.778569e+002, 3.679255e+003
4.783390e+002, 3.681486e+003
4.788211e+002, 3.683024e+003
4.793033e+002, 3.683578e+003
4.797854e+002, 3.684291e+003
4.802675e+002, 3.686092e+003
4.807496e+002, 3.688329e+003
4.812317e+002, 3.689712e+003
4.817138e+002, 3.689980e+003
4.821959e+002, 3.690023e+003
4.826780e+002, 3.690684e+003
4.831602e+002, 3.691934e+003
4.836423e+002, 3.692669e+003
4.841244e+002, 3.693151e+003
4.846065e+002, 3.692868e+003
4.850886e+002, 3.690897e+003
4.855707e+002, 3.688164e+003
4.860529e+002, 3.686367e+003
4.865350e+002, 3.686127e+003
4.870171e+002, 3.686615e+003
4.874992e+002, 3.686456e+003
4.879813e+002, 3.685308e+003
4.884634e+002, 3.684450e+003
4.889456e+002, 3.684446e+003
4.894277e+002, 3.684168e+003
4.899098e+002, 3.682687e+003
4.903919e+002, 3.680508e+003
4.908740e+002, 3.678805e+003
4.913561e+002, 3.678304e+003
4.918383e+002, 3.678708e+003
4.923204e+002, 3.679222e+003
4.928025e+002, 3.679843e+003
4.932846e+002, 3.680604e+003
4.937667e+002, 3.682430e+003
4.942488e+002, 3.683730e+003
4.947310e+002, 3.682919e+003
4.952131e+002, 3.680161e+003
4.956952e+002, 3.677590e+003
4.961773e+002, 3.676977e+003
4.966594e+002, 3.677653e+003
4.971415e+002, 3.677948e+003
4.976237e+002, 3.677896e+003
4.981058e+002, 3.677030e+003
4.985879e+002, 3.674202e+003
4.990700e+002, 3.670716e+003
4.995521e+002, 3.668886e+003
5.000342e+002, 3.668694e+003
5.005164e+002, 3.670456e+003
5.009985e+002, 3.675240e+003
5.014806e+002, 3.681847e+003
5.019627e+002, 3.688647e+003
5.024448e+002, 3.695313e+003
5.029269e+002, 3.700999e+003
5.034091e+002, 3.705010e+003
5.038912e+002, 3.707308e+003
5.043733e+002, 3.707477e+003
5.048554e+002, 3.702442e+003
5.053375e+002, 3.698959e+003
5.058196e+002, 3.700476e+003
5.063018e+002, 3.704775e+003
5.067839e+002, 3.708483e+003
5.072660e+002, 3.710379e+003
5.077481e+002, 3.711444e+003
5.082302e+002, 3.713043e+003
5.087123e+002, 3.715048e+003
5.091945e+002, 3.718067e+003
5.096766e+002, 3.723925e+003
5.101587e+002, 3.728954e+003
5.106408e+002, 3.731583e+003
5.111229e+002, 3.732385e+003
5.116050e+002, 3.732139e+003
5.120872e+002, 3.730763e+003
5.125693e+002, 3.730099e+003
5.130514e+002, 3.734517e+003
5.135335e+002, 3.745004e+003
5.140156e+002, 3.753041e+003
5.144977e+002, 3.755708e+003
5.149799e+002, 3.756343e+003
5.154620e+002, 3.757544e+003
5.159441e+002, 3.759273e+003
5.164262e+002, 3.761002e+003
5.169083e+002, 3.762399e+003
5.173904e+002, 3.763739e+003
5.178726e+002, 3.765422e+003
5.183547e+002, 3.767427e+003
5.188368e+002, 3.769468e+003
5.193189e+002, 3.771496e+003
5.198010e+002, 3.773371e+003
5.202831e+002, 3.774547e+003
5.207653e+002, 3.774478e+003
5.212474e+002, 3.775397e+003
5.217295e+002, 3.778896e+003
5.222116e+002, 3.782672e+003
5.226937e+002, 3.784418e+003
5.231758e+002, 3.784277e+003
5.236580e+002, 3.783988e+003
5.241401e+002, 3.784732e+003
5.246222e+002, 3.786450e+003
5.251043e+002, 3.788951e+003
5.255864e+002, 3.793461e+003
5.260685e+002, 3.796959e+003
5.265507e+002, 3.799187e+003
5.270328e+002, 3.800397e+003
5.275149e+002, 3.800807e+003
5.279970e+002, 3.800438e+003
5.284791e+002, 3.799124e+003
5.289612e+002, 3.796470e+003
5.294434e+002, 3.792715e+003
5.299255e+002, 3.789215e+003
5.304076e+002, 3.786045e+003
5.308897e+002, 3.783018e+003
5.313718e+002, 3.779948e+003
5.318539e+002, 3.777060e+003
5.323361e+002, 3.774489e+003
5.328182e+002, 3.772231e+003
5.333003e+002, 3.770578e+003
5.337824e+002, 3.770666e+003
5.342645e+002, 3.771319e+003
5.347466e+002, 3.769356e+003
5.352288e+002, 3.764152e+003
5.357109e+002, 3.759497e+003
5.361930e+002, 3.758686e+003
5.366751e+002, 3.760942e+003
5.371572e+002, 3.761252e+003
5.376393e+002, 3.757495e+003
5.381215e+002, 3.754551e+003
5.386036e+002, 3.754662e+003
5.390857e+002, 3.755933e+003
5.395678e+002, 3.756054e+003
5.400499e+002, 3.754535e+003
5.405320e+002, 3.752159e+003
5.410142e+002, 3.749585e+003
5.414963e+002, 3.746767e+003
5.419784e+002, 3.745033e+003
5.424604e+002, 3.745180e+003
5.429426e+002, 3.745515e+003
5.434247e+002, 3.745496e+003
5.439068e+002, 3.745574e+003
5.443889e+002, 3.746969e+003
5.448710e+002, 3.749833e+003
5.453531e+002, 3.751504e+003
5.458353e+002, 3.747489e+003
5.463174e+002, 3.738529e+003
5.467995e+002, 3.734308e+003
5.472816e+002, 3.737481e+003
5.477637e+002, 3.740832e+003
5.482458e+002, 3.739030e+003
5.487280e+002, 3.734612e+003
5.492101e+002, 3.731687e+003
5.496922e+002, 3.731772e+003
5.501743e+002, 3.731665e+003
5.506564e+002, 3.728306e+003
5.511385e+002, 3.723508e+003
5.516207e+002, 3.721647e+003
5.521028e+002, 3.723717e+003
5.525849e+002, 3.725993e+003
5.530670e+002, 3.724907e+003
5.535491e+002, 3.720445e+003
5.540313e+002, 3.716572e+003
5.545134e+002, 3.713465e+003
5.549955e+002, 3.710678e+003
5.554776e+002, 3.708240e+003
5.559597e+002, 3.705978e+003
5.564418e+002, 3.703752e+003
5.569240e+002, 3.701497e+003
5.574061e+002, 3.699216e+003
5.578882e+002, 3.696977e+003
5.583703e+002, 3.694802e+003
5.588524e+002, 3.691962e+003
5.593345e+002, 3.688138e+003
5.598167e+002, 3.684033e+003
5.602988e+002, 3.679510e+003
5.607809e+002, 3.674992e+003
5.612630e+002, 3.671105e+003
5.617451e+002, 3.668069e+003
5.622272e+002, 3.664920e+003
5.627094e+002, 3.660982e+003
5.631915e+002, 3.656253e+003
5.636736e+002, 3.650276e+003
5.641557e+002, 3.642543e+003
5.646378e+002, 3.635859e+003
5.651199e+002, 3.633003e+003
5.656021e+002, 3.632892e+003
5.660842e+002, 3.630497e+003
5.665663e+002, 3.624405e+003
5.670484e+002, 3.618132e+003
5.675305e+002, 3.613266e+003
5.680126e+002, 3.608737e+003
5.684948e+002, 3.603103e+003
5.689769e+002, 3.596201e+003
5.694590e+002, 3.588618e+003
5.699411e+002, 3.580755e+003
5.704232e+002, 3.572706e+003
5.709053e+002, 3.566640e+003
5.713875e+002, 3.563813e+003
5.718696e+002, 3.561390e+003
5.723517e+002, 3.559317e+003
5.728338e+002, 3.557182e+003
5.733159e+002, 3.554895e+003
5.737980e+002, 3.552295e+003
5.742802e+002, 3.548726e+003
5.747623e+002, 3.542826e+003
5.752444e+002, 3.535373e+003
5.757265e+002, 3.529688e+003
5.762086e+002, 3.526028e+003
5.766907e+002, 3.523087e+003
5.771729e+002, 3.520544e+003
5.776550e+002, 3.518261e+003
5.781371e+002, 3.515877e+003
5.786192e+002, 3.513192e+003
5.791013e+002, 3.511274e+003
5.795834e+002, 3.511679e+003
5.800656e+002, 3.512379e+003
5.805477e+002, 3.510930e+003
5.810298e+002, 3.507323e+003
5.815119e+002, 3.502840e+003
5.819940e+002, 3.498109e+003
5.824761e+002, 3.493430e+003
5.829583e+002, 3.489838e+003
5.834404e+002, 3.488292e+003
5.839225e+002, 3.486347e+003
5.844046e+002, 3.483940e+003
5.848867e+002, 3.481116e+003
5.853688e+002, 3.477420e+003
5.858510e+002, 3.473272e+003
5.863331e+002, 3.470002e+003
5.868152e+002, 3.468823e+003
5.872973e+002, 3.468308e+003
5.877794e+002, 3.464668e+003
5.882615e+002, 3.457229e+003
5.887437e+002, 3.451225e+003
5.892258e+002, 3.448519e+003
5.897079e+002, 3.447001e+003
5.901900e+002, 3.444872e+003
5.906721e+002, 3.442199e+003
5.911542e+002, 3.439379e+003
5.916364e+002, 3.436605e+003
5.921185e+002, 3.433712e+003
5.926006e+002, 3.430186e+003
5.930827e+002, 3.426448e+003
5.935648e+002, 3.424156e+003
5.940469e+002, 3.424094e+003
5.945291e+002, 3.423965e+003
5.950112e+002, 3.420122e+003
5.954933e+002, 3.410983e+003
5.959754e+002, 3.405543e+003
5.964575e+002, 3.407586e+003
5.969396e+002, 3.408608e+003
5.974218e+002, 3.404773e+003
5.979039e+002, 3.398362e+003
5.983860e+002, 3.392592e+003
5.988681e+002, 3.388583e+003
5.993502e+002, 3.385720e+003
5.998323e+002, 3.383331e+003
6.003145e+002, 3.381392e+003
6.007966e+002, 3.379980e+003
6.012787e+002, 3.379403e+003
6.017608e+002, 3.378642e+003
6.022429e+002, 3.376061e+003
6.027250e+002, 3.373224e+003
6.032072e+002, 3.373036e+003
6.036893e+002, 3.376944e+003
6.041714e+002, 3.380129e+003
6.046535e+002, 3.380142e+003
6.051356e+002, 3.377933e+003
6.056177e+002, 3.374612e+003
6.060999e+002, 3.370418e+003
6.065820e+002, 3.365479e+003
6.070641e+002, 3.359612e+003
6.075462e+002, 3.353417e+003
6.080283e+002, 3.349583e+003
6.085104e+002, 3.350529e+003
6.089926e+002, 3.350513e+003
6.094747e+002, 3.348976e+003
6.099568e+002, 3.346759e+003
6.104389e+002, 3.344337e+003
6.109210e+002, 3.341794e+003
6.114031e+002, 3.339083e+003
6.118853e+002, 3.336149e+003
6.123674e+002, 3.333076e+003
6.128495e+002, 3.330107e+003
6.133316e+002, 3.327279e+003
6.138137e+002, 3.323826e+003
6.142958e+002, 3.318802e+003
6.147780e+002, 3.314089e+003
6.152601e+002, 3.311883e+003
6.157422e+002, 3.311776e+003
6.162243e+002, 3.311526e+003
6.167064e+002, 3.310969e+003
6.171885e+002, 3.309839e+003
6.176707e+002, 3.307517e+003
6.181528e+002, 3.304566e+003
6.186349e+002, 3.301979e+003
6.191170e+002, 3.300067e+003
6.195991e+002, 3.298937e+003
6.200812e+002, 3.298980e+003
6.205634e+002, 3.300392e+003
6.210455e+002, 3.299851e+003
6.215276e+002, 3.294720e+003
6.220097e+002, 3.290853e+003
6.224918e+002, 3.290528e+003
6.229739e+002, 3.291434e+003
6.234561e+002, 3.291372e+003
6.239382e+002, 3.289870e+003
6.244203e+002, 3.287503e+003
6.249023e+002, 3.284143e+003
6.253845e+002, 3.280366e+003
6.258666e+002, 3.277969e+003
6.263487e+002, 3.277115e+003
6.268308e+002, 3.276191e+003
6.273129e+002, 3.274767e+003
6.277950e+002, 3.272554e+003
6.282772e+002, 3.268275e+003
6.287593e+002, 3.260993e+003
6.292414e+002, 3.256309e+003
6.297235e+002, 3.256589e+003
6.302056e+002, 3.258313e+003
6.306877e+002, 3.259649e+003
6.311699e+002, 3.260374e+003
6.316520e+002, 3.260465e+003
6.321341e+002, 3.259913e+003
6.326162e+002, 3.258979e+003
6.330983e+002, 3.258422e+003
6.335804e+002, 3.258750e+003
6.340626e+002, 3.256702e+003
6.345447e+002, 3.250155e+003
6.350268e+002, 3.243978e+003
6.355089e+002, 3.239910e+003
6.359910e+002, 3.237656e+003
6.364731e+002, 3.237161e+003
6.369553e+002, 3.238883e+003
6.374374e+002, 3.240227e+003
6.379195e+002, 3.239207e+003
6.384016e+002, 3.236577e+003
6.388837e+002, 3.233329e+003
6.393658e+002, 3.229646e+003
6.398480e+002, 3.226677e+003
6.403301e+002, 3.225400e+003
6.408122e+002, 3.225103e+003
6.412943e+002, 3.223380e+003
6.417764e+002, 3.218173e+003
6.422585e+002, 3.214547e+003
6.427407e+002, 3.213060e+003
6.432228e+002, 3.212629e+003
6.437049e+002, 3.213395e+003
6.441870e+002, 3.214595e+003
6.446691e+002, 3.214562e+003
6.451512e+002, 3.212273e+003
6.456334e+002, 3.209086e+003
6.461155e+002, 3.207243e+003
6.465976e+002, 3.206743e+003
6.470797e+002, 3.206094e+003
6.475618e+002, 3.204930e+003
6.480439e+002, 3.203982e+003
6.485261e+002, 3.204428e+003
6.490082e+002, 3.205560e+003
6.494903e+002, 3.205048e+003
6.499724e+002, 3.201427e+003
6.504545e+002, 3.198153e+003
6.509366e+002, 3.196691e+003
6.514188e+002, 3.196241e+003
6.519009e+002, 3.196019e+003
6.523830e+002, 3.195838e+003
6.528651e+002, 3.195623e+003
6.533472e+002, 3.195267e+003
6.538293e+002, 3.194909e+003
6.543115e+002, 3.195053e+003
6.547936e+002, 3.195563e+003
6.552757e+002, 3.196857e+003
6.557578e+002, 3.199863e+003
6.562399e+002, 3.202912e+003
6.567220e+002, 3.204139e+003
6.572042e+002, 3.204577e+003
6.576863e+002, 3.207611e+003
6.581684e+002, 3.216195e+003
6.586505e+002, 3.225155e+003
6.591326e+002, 3.229021e+003
6.596147e+002, 3.229375e+003
6.600969e+002, 3.230745e+003
6.605790e+002, 3.234122e+003
6.610611e+002, 3.237740e+003
6.615432e+002, 3.239923e+003
6.620253e+002, 3.240915e+003
6.625074e+002, 3.243229e+003
6.629896e+002, 3.249751e+003
6.634717e+002, 3.253773e+003
6.639538e+002, 3.253823e+003
6.644359e+002, 3.251893e+003
6.649180e+002, 3.249333e+003
6.654001e+002, 3.246312e+003
6.658823e+002, 3.242516e+003
6.663644e+002, 3.237644e+003
6.668465e+002, 3.232020e+003
6.673286e+002, 3.226360e+003
6.678107e+002, 3.220632e+003
6.682928e+002, 3.213323e+003
6.687750e+002, 3.203346e+003
6.692571e+002, 3.193596e+003
6.697392e+002, 3.187128e+003
6.702213e+002, 3.183641e+003
6.707034e+002, 3.179731e+003
6.711855e+002, 3.173758e+003
6.716677e+002, 3.169271e+003
6.721498e+002, 3.168771e+003
6.726319e+002, 3.169515e+003
6.731140e+002, 3.168110e+003
6.735961e+002, 3.164517e+003
6.740782e+002, 3.161344e+003
6.745604e+002, 3.160548e+003
6.750425e+002, 3.161678e+003
6.755246e+002, 3.163241e+003
6.760067e+002, 3.165121e+003
6.764888e+002, 3.167983e+003
6.769709e+002, 3.172019e+003
6.774531e+002, 3.177124e+003
6.779352e+002, 3.183369e+003
6.784173e+002, 3.190578e+003
6.788994e+002, 3.198082e+003
6.793815e+002, 3.205910e+003
6.798636e+002, 3.213807e+003
6.803458e+002, 3.221003e+003
6.808279e+002, 3.228417e+003
6.813100e+002, 3.237589e+003
6.817921e+002, 3.248715e+003
6.822742e+002, 3.261288e+003
6.827563e+002, 3.275154e+003
6.832385e+002, 3.289796e+003
6.837206e+002, 3.302492e+003
6.842027e+002, 3.311207e+003
6.846848e+002, 3.322323e+003
6.851669e+002, 3.340259e+003
6.856490e+002, 3.357546e+003
6.861312e+002, 3.370495e+003
6.866133e+002, 3.379171e+003
6.870954e+002, 3.384755e+003
6.875775e+002, 3.388039e+003
6.880596e+002, 3.387661e+003
6.885417e+002, 3.381921e+003
6.890239e+002, 3.371695e+003
6.895060e+002, 3.358893e+003
6.899881e+002, 3.343802e+003
6.904702e+002, 3.326229e+003
6.909523e+002, 3.305662e+003
6.914344e+002, 3.282634e+003
6.919166e+002, 3.259263e+003
6.923987e+002, 3.233759e+003
6.928808e+002, 3.210859e+003
6.933629e+002, 3.191069e+003
6.938450e+002, 3.173604e+003
6.943271e+002, 3.157772e+003
6.948093e+002, 3.143786e+003
6.952914e+002, 3.132735e+003
6.957735e+002, 3.125745e+003
6.962556e+002, 3.119737e+003
6.967377e+002, 3.110280e+003
6.972198e+002, 3.098841e+003
6.977020e+002, 3.091011e+003
6.981841e+002, 3.087865e+003
6.986662e+002, 3.085410e+003
6.991483e+002, 3.080893e+003
6.996304e+002, 3.074899e+003
7.001125e+002, 3.069704e+003
7.005947e+002, 3.065733e+003
7.010768e+002, 3.062026e+003
7.015589e+002, 3.058327e+003
7.020410e+002, 3.055161e+003
7.025231e+002, 3.052940e+003
7.030052e+002, 3.051526e+003
7.034874e+002, 3.050649e+003
7.039695e+002, 3.050260e+003
7.044516e+002, 3.049955e+003
7.049337e+002, 3.049128e+003
7.054158e+002, 3.047936e+003
7.058979e+002, 3.047239e+003
7.063801e+002, 3.047213e+003
7.068622e+002, 3.046936e+003
7.073442e+002, 3.045761e+003
7.078264e+002, 3.044017e+003
7.083085e+002, 3.042583e+003
7.087906e+002, 3.041758e+003
7.092727e+002, 3.040383e+003
7.097548e+002, 3.037042e+003
7.102369e+002, 3.034379e+003
7.107191e+002, 3.035296e+003
7.112012e+002, 3.037638e+003
7.116833e+002, 3.036911e+003
7.121654e+002, 3.031569e+003
7.126475e+002, 3.025793e+003
7.131296e+002, 3.024962e+003
7.136118e+002, 3.028106e+003
7.140939e+002, 3.029630e+003
7.145760e+002, 3.029114e+003
7.150581e+002, 3.028779e+003
7.155402e+002, 3.029757e+003
7.160223e+002, 3.031366e+003
7.165045e+002, 3.032354e+003
7.169866e+002, 3.032525e+003
7.174687e+002, 3.033351e+003
7.179508e+002, 3.036121e+003
7.184329e+002, 3.038326e+003
7.189150e+002, 3.038573e+003
7.193972e+002, 3.037511e+003
7.198793e+002, 3.035737e+003
7.203614e+002, 3.033601e+003
7.208435e+002, 3.032060e+003
7.213256e+002, 3.032421e+003
7.218077e+002, 3.034040e+003
7.222899e+002, 3.034216e+003
7.227720e+002, 3.032724e+003
7.232541e+002, 3.031614e+003
7.237362e+002, 3.031753e+003
7.242183e+002, 3.032200e+003
7.247004e+002, 3.031915e+003
7.251826e+002, 3.030909e+003
7.256647e+002, 3.029615e+003
7.261468e+002, 3.027461e+003
7.266289e+002, 3.025760e+003
7.271110e+002, 3.024574e+003
7.275931e+002, 3.024349e+003
7.280753e+002, 3.026360e+003
7.285574e+002, 3.030151e+003
7.290395e+002, 3.033217e+003
7.295216e+002, 3.033729e+003
7.300037e+002, 3.032314e+003
7.304858e+002, 3.029774e+003
7.309680e+002, 3.026018e+003
7.314501e+002, 3.024157e+003
7.319322e+002, 3.025492e+003
7.324143e+002, 3.027167e+003
7.328964e+002, 3.026741e+003
7.333785e+002, 3.024616e+003
7.338607e+002, 3.023142e+003
7.343428e+002, 3.022237e+003
7.348249e+002, 3.022076e+003
7.353070e+002, 3.023800e+003
7.357891e+002, 3.025384e+003
7.362712e+002, 3.024526e+003
7.367534e+002, 3.022050e+003
7.372355e+002, 3.020786e+003
7.377176e+002, 3.022237e+003
7.381997e+002, 3.024392e+003
7.386818e+002, 3.023902e+003
7.391639e+002, 3.021127e+003
7.396461e+002, 3.019582e+003
7.401282e+002, 3.019660e+003
7.406103e+002, 3.020617e+003
7.410924e+002, 3.022950e+003
7.415745e+002, 3.025267e+003
7.420566e+002, 3.023856e+003
7.425388e+002, 3.016923e+003
7.430209e+002, 3.012776e+003
7.435030e+002, 3.014911e+003
7.439851e+002, 3.017056e+003
7.444672e+002, 3.015110e+003
7.449493e+002, 3.011293e+003
7.454315e+002, 3.009368e+003
7.459136e+002, 3.010331e+003
7.463957e+002, 3.012157e+003
7.468778e+002, 3.013324e+003
7.473599e+002, 3.013756e+003
7.478420e+002, 3.012960e+003
7.483242e+002, 3.010898e+003
7.488063e+002, 3.008872e+003
7.492884e+002, 3.007304e+003
7.497705e+002, 3.005906e+003
7.502526e+002, 3.004201e+003
7.507347e+002, 3.002130e+003
7.512169e+002, 3.000992e+003
7.516990e+002, 3.002979e+003
7.521811e+002, 3.002977e+003
7.526632e+002, 2.997645e+003
7.531453e+002, 2.991463e+003
7.536274e+002, 2.988687e+003
7.541096e+002, 2.989154e+003
7.545917e+002, 2.990004e+003
7.550738e+002, 2.989806e+003
7.555559e+002, 2.988855e+003
7.560380e+002, 2.987246e+003
7.565201e+002, 2.985195e+003
7.570023e+002, 2.983679e+003
7.574844e+002, 2.982871e+003
7.579665e+002, 2.982266e+003
7.584486e+002, 2.981314e+003
7.589307e+002, 2.980484e+003
7.594128e+002, 2.981404e+003
7.598950e+002, 2.985763e+003
7.603771e+002, 2.988789e+003
7.608592e+002, 2.990701e+003
7.613413e+002, 2.991123e+003
7.618234e+002, 2.988361e+003
7.623055e+002, 2.984518e+003
7.627877e+002, 2.983056e+003
7.632698e+002, 2.985004e+003
7.637519e+002, 2.987467e+003
7.642340e+002, 2.988605e+003
7.647161e+002, 2.988749e+003
7.651982e+002, 2.988022e+003
7.656804e+002, 2.986674e+003
7.661625e+002, 2.985931e+003
7.666446e+002, 2.986296e+003
7.671267e+002, 2.987076e+003
7.676088e+002, 2.987367e+003
7.680909e+002, 2.987148e+003
7.685731e+002, 2.986983e+003
7.690552e+002, 2.986758e+003
7.695373e+002, 2.986767e+003
7.700194e+002, 2.987664e+003
7.705015e+002, 2.988328e+003
7.709836e+002, 2.987897e+003
7.714658e+002, 2.986402e+003
7.719479e+002, 2.984247e+003
7.724300e+002, 2.980583e+003
7.729121e+002, 2.977630e+003
7.733942e+002, 2.977485e+003
7.738763e+002, 2.978837e+003
7.743585e+002, 2.979931e+003
7.748406e+002, 2.980411e+003
7.753227e+002, 2.980195e+003
7.758048e+002, 2.979165e+003
7.762869e+002, 2.977772e+003
7.767690e+002, 2.977134e+003
7.772512e+002, 2.977399e+003
7.777333e+002, 2.977450e+003
7.782154e+002, 2.976765e+003
7.786975e+002, 2.976744e+003
7.791796e+002, 2.978791e+003
7.796617e+002, 2.981714e+003
7.801439e+002, 2.983608e+003
7.806260e+002, 2.984410e+003
7.811081e+002, 2.984242e+003
7.815902e+002, 2.982305e+003
7.820723e+002, 2.980188e+003
7.825544e+002, 2.979489e+003
7.830366e+002, 2.979066e+003
7.835187e+002, 2.976565e+003
7.840008e+002, 2.971619e+003
7.844829e+002, 2.966595e+003
7.849650e+002, 2.963735e+003
7.854471e+002, 2.962417e+003
7.859293e+002, 2.960640e+003
7.864114e+002, 2.958384e+003
7.868935e+002, 2.957666e+003
7.873756e+002, 2.959592e+003
7.878577e+002, 2.961325e+003
7.883398e+002, 2.959948e+003
7.888220e+002, 2.955941e+003
7.893040e+002, 2.953380e+003
7.897861e+002, 2.953428e+003
7.902682e+002, 2.953206e+003
7.907504e+002, 2.953820e+003
7.912325e+002, 2.952911e+003
7.917146e+002, 2.946647e+003
7.921967e+002, 2.938133e+003
7.926788e+002, 2.934307e+003
7.931609e+002, 2.938097e+003
7.936431e+002, 2.943094e+003
7.941252e+002, 2.944260e+003
7.946073e+002, 2.942558e+003
7.950894e+002, 2.938684e+003
7.955715e+002, 2.933231e+003
7.960536e+002, 2.929565e+003
7.965358e+002, 2.929100e+003
7.970179e+002, 2.930543e+003
7.975000e+002, 2.932491e+003
7.979821e+002, 2.935057e+003
7.984642e+002, 2.935116e+003
7.989464e+002, 2.931558e+003
7.994285e+002, 2.927495e+003
7.999106e+002, 2.922541e+003
8.003927e+002, 2.918279e+003
8.008748e+002, 2.916635e+003
8.013569e+002, 2.917001e+003
8.018391e+002, 2.916238e+003
8.023212e+002, 2.911344e+003
8.028033e+002, 2.908389e+003
8.032854e+002, 2.912503e+003
8.037675e+002, 2.919090e+003
8.042496e+002, 2.923250e+003
8.047318e+002, 2.924555e+003
8.052139e+002, 2.924098e+003
8.056960e+002, 2.922387e+003
8.061781e+002, 2.920125e+003
8.066602e+002, 2.918431e+003
8.071423e+002, 2.917257e+003
8.076245e+002, 2.915538e+003
8.081066e+002, 2.912735e+003
8.085887e+002, 2.912308e+003
8.090708e+002, 2.917444e+003
8.095529e+002, 2.923462e+003
8.100350e+002, 2.922770e+003
8.105172e+002, 2.913927e+003
8.109993e+002, 2.907651e+003
8.114814e+002, 2.905208e+003
8.119635e+002, 2.903697e+003
8.124456e+002, 2.902230e+003
8.129277e+002, 2.901439e+003
8.134099e+002, 2.902504e+003
8.138920e+002, 2.904988e+003
8.143741e+002, 2.906779e+003
8.148562e+002, 2.906291e+003
8.153383e+002, 2.905850e+003
8.158204e+002, 2.908352e+003
8.163026e+002, 2.912603e+003
8.167847e+002, 2.916526e+003
8.172668e+002, 2.919634e+003
8.177489e+002, 2.920364e+003
8.182310e+002, 2.917535e+003
8.187131e+002, 2.913497e+003
8.191953e+002, 2.913237e+003
8.196774e+002, 2.917719e+003
8.201595e+002, 2.919691e+003
8.206416e+002, 2.918114e+003
8.211237e+002, 2.915972e+003
8.216058e+002, 2.914469e+003
8.220880e+002, 2.912846e+003
8.225701e+002, 2.909442e+003
8.230522e+002, 2.904401e+003
8.235343e+002, 2.902253e+003
8.240164e+002, 2.908111e+003
8.244985e+002, 2.911992e+003
8.249807e+002, 2.906667e+003
8.254628e+002, 2.898981e+003
8.259449e+002, 2.896664e+003
8.264270e+002, 2.899783e+003
8.269091e+002, 2.904332e+003
8.273912e+002, 2.908389e+003
8.278734e+002, 2.911448e+003
8.283555e+002, 2.912610e+003
8.288376e+002, 2.912150e+003
8.293197e+002, 2.911089e+003
8.298018e+002, 2.909524e+003
8.302839e+002, 2.907603e+003
8.307661e+002, 2.905316e+003
8.312482e+002, 2.902954e+003
8.317303e+002, 2.900875e+003
8.322124e+002, 2.898973e+003
8.326945e+002, 2.898198e+003
8.331766e+002, 2.899156e+003
8.336588e+002, 2.900386e+003
8.341409e+002, 2.901427e+003
8.346230e+002, 2.902676e+003
8.351051e+002, 2.905089e+003
8.355872e+002, 2.908176e+003
8.360693e+002, 2.909579e+003
8.365515e+002, 2.907345e+003
8.370336e+002, 2.905278e+003
8.375157e+002, 2.905327e+003
8.379978e+002, 2.906738e+003
8.384799e+002, 2.908989e+003
8.389620e+002, 2.911781e+003
8.394442e+002, 2.914855e+003
8.399263e+002, 2.918098e+003
8.404084e+002, 2.920680e+003
8.408905e+002, 2.920564e+003
8.413726e+002, 2.918542e+003
8.418547e+002, 2.919575e+003
8.423369e+002, 2.923925e+003
8.428190e+002, 2.928328e+003
8.433011e+002, 2.931812e+003
8.437832e+002, 2.934266e+003
8.442653e+002, 2.935343e+003
8.447474e+002, 2.935077e+003
8.452296e+002, 2.935162e+003
8.457117e+002, 2.936062e+003
8.461938e+002, 2.936585e+003
8.466759e+002, 2.935620e+003
8.471580e+002, 2.935184e+003
8.476401e+002, 2.937357e+003
8.481223e+002, 2.940880e+003
8.486044e+002, 2.942367e+003
8.490865e+002, 2.940103e+003
8.495686e+002, 2.939640e+003
8.500507e+002, 2.946624e+003
8.505328e+002, 2.954768e+003
8.510150e+002, 2.957259e+003
8.514971e+002, 2.955711e+003
8.519792e+002, 2.954667e+003
8.524613e+002, 2.955529e+003
8.529434e+002, 2.956759e+003
8.534255e+002, 2.956854e+003
8.539077e+002, 2.956157e+003
8.543898e+002, 2.955520e+003
8.548719e+002, 2.954938e+003
8.553540e+002, 2.955311e+003
8.558361e+002, 2.956966e+003
8.563182e+002, 2.958885e+003
8.568004e+002, 2.960333e+003
8.572825e+002, 2.961422e+003
8.577646e+002, 2.962701e+003
8.582467e+002, 2.965836e+003
8.587288e+002, 2.965434e+003
8.592109e+002, 2.956980e+003
8.596931e+002, 2.950351e+003
8.601752e+002, 2.949533e+003
8.606573e+002, 2.952129e+003
8.611394e+002, 2.955941e+003
8.616215e+002, 2.960515e+003
8.621036e+002, 2.963934e+003
8.625858e+002, 2.965206e+003
8.630679e+002, 2.965392e+003
8.635500e+002, 2.964990e+003
8.640321e+002, 2.964092e+003
8.645142e+002, 2.962558e+003
8.649963e+002, 2.960588e+003
8.654785e+002, 2.959055e+003
8.659606e+002, 2.958546e+003
8.664427e+002, 2.958090e+003
8.669248e+002, 2.955305e+003
8.674069e+002, 2.951048e+003
8.678890e+002, 2.950903e+003
8.683712e+002, 2.955354e+003
8.688533e+002, 2.957585e+003
8.693354e+002, 2.954378e+003
8.698175e+002, 2.949072e+003
8.702996e+002, 2.946111e+003
8.707817e+002, 2.945506e+003
8.712639e+002, 2.944498e+003
8.717459e+002, 2.942843e+003
8.722280e+002, 2.941203e+003
8.727101e+002, 2.940307e+003
8.731923e+002, 2.938893e+003
8.736744e+002, 2.935434e+003
8.741565e+002, 2.930979e+003
8.746386e+002, 2.928199e+003
8.751207e+002, 2.928195e+003
8.756028e+002, 2.927863e+003
8.760850e+002, 2.926424e+003
8.765671e+002, 2.923997e+003
8.770492e+002, 2.919495e+003
8.775313e+002, 2.914509e+003
8.780134e+002, 2.911739e+003
8.784955e+002, 2.911680e+003
8.789777e+002, 2.912590e+003
8.794598e+002, 2.913567e+003
8.799419e+002, 2.914200e+003
8.804240e+002, 2.913492e+003
8.809061e+002, 2.911846e+003
8.813882e+002, 2.910775e+003
8.818704e+002, 2.910501e+003
8.823525e+002, 2.910263e+003
8.828346e+002, 2.909503e+003
8.833167e+002, 2.908839e+003
8.837988e+002, 2.909724e+003
8.842809e+002, 2.912437e+003
8.847631e+002, 2.914891e+003
8.852452e+002, 2.918064e+003
8.857273e+002, 2.918459e+003
8.862094e+002, 2.914044e+003
8.866915e+002, 2.907147e+003
8.871736e+002, 2.898796e+003
8.876558e+002, 2.889382e+003
8.881379e+002, 2.884597e+003
8.886200e+002, 2.889231e+003
8.891021e+002, 2.891947e+003
8.895842e+002, 2.888742e+003
8.900663e+002, 2.884955e+003
8.905485e+002, 2.884691e+003
8.910306e+002, 2.886542e+003
8.915127e+002, 2.887224e+003
8.919948e+002, 2.885808e+003
8.924769e+002, 2.884021e+003
8.929590e+002, 2.883227e+003
8.934412e+002, 2.882406e+003
8.939233e+002, 2.880681e+003
8.944054e+002, 2.878038e+003
8.948875e+002, 2.874046e+003
8.953696e+002, 2.868954e+003
8.958517e+002, 2.864345e+003
8.963339e+002, 2.861312e+003
8.968160e+002, 2.859860e+003
8.972981e+002, 2.860840e+003
8.977802e+002, 2.863852e+003
8.982623e+002, 2.864692e+003
8.987444e+002, 2.862833e+003
8.992266e+002, 2.860621e+003
8.997087e+002, 2.859269e+003
9.001908e+002, 2.857704e+003
9.006729e+002, 2.854110e+003
9.011550e+002, 2.848332e+003
9.016371e+002, 2.843891e+003
9.021193e+002, 2.841760e+003
9.026014e+002, 2.839075e+003
9.030835e+002, 2.833793e+003
9.035656e+002, 2.829294e+003
9.040477e+002, 2.828679e+003
9.045298e+002, 2.830519e+003
9.050120e+002, 2.831151e+003
9.054941e+002, 2.829924e+003
9.059762e+002, 2.828309e+003
9.064583e+002, 2.826698e+003
9.069404e+002, 2.824806e+003
9.074225e+002, 2.822315e+003
9.079047e+002, 2.819564e+003
9.083868e+002, 2.816652e+003
9.088689e+002, 2.813843e+003
9.093510e+002, 2.812215e+003
9.098331e+002, 2.813148e+003
9.103152e+002, 2.814358e+003
9.107974e+002, 2.813302e+003
9.112795e+002, 2.810933e+003
9.117616e+002, 2.808706e+003
9.122437e+002, 2.806912e+003
9.127258e+002, 2.805764e+003
9.132079e+002, 2.805356e+003
9.136901e+002, 2.805404e+003
9.141722e+002, 2.805466e+003
9.146543e+002, 2.805628e+003
9.151364e+002, 2.806499e+003
9.156185e+002, 2.808080e+003
9.161006e+002, 2.810407e+003
9.165828e+002, 2.813947e+003
9.170649e+002, 2.816098e+003
9.175470e+002, 2.814463e+003
9.180291e+002, 2.809989e+003
9.185112e+002, 2.806025e+003
9.189933e+002, 2.802309e+003
9.194755e+002, 2.799831e+003
9.199576e+002, 2.799854e+003
9.204397e+002, 2.799344e+003
9.209218e+002, 2.796299e+003
9.214039e+002, 2.792679e+003
9.218860e+002, 2.790534e+003
9.223682e+002, 2.789880e+003
9.228503e+002, 2.789904e+003
9.233324e+002, 2.791306e+003
9.238145e+002, 2.792281e+003
9.242966e+002, 2.791903e+003
9.247787e+002, 2.791282e+003
9.252609e+002, 2.791041e+003
9.257430e+002, 2.791307e+003
9.262251e+002, 2.792331e+003
9.267072e+002, 2.794201e+003
9.271893e+002, 2.795828e+003
9.276714e+002, 2.796480e+003
9.281536e+002, 2.796513e+003
9.286357e+002, 2.795586e+003
9.291178e+002, 2.794547e+003
9.295999e+002, 2.795493e+003
9.300820e+002, 2.798308e+003
9.305641e+002, 2.800546e+003
9.310463e+002, 2.800691e+003
9.315284e+002, 2.799278e+003
9.320105e+002, 2.796426e+003
9.324926e+002, 2.792718e+003
9.329747e+002, 2.790694e+003
9.334568e+002, 2.790430e+003
9.339390e+002, 2.790746e+003
9.344211e+002, 2.791294e+003
9.349032e+002, 2.791496e+003
9.353853e+002, 2.790724e+003
9.358674e+002, 2.789053e+003
9.363495e+002, 2.786583e+003
9.368317e+002, 2.782758e+003
9.373138e+002, 2.780780e+003
9.377959e+002, 2.781819e+003
9.382780e+002, 2.782911e+003
9.387601e+002, 2.782407e+003
9.392422e+002, 2.780948e+003
9.397244e+002, 2.779675e+003
9.402065e+002, 2.778652e+003
9.406886e+002, 2.777305e+003
9.411707e+002, 2.774286e+003
9.416528e+002, 2.772726e+003
9.421349e+002, 2.775437e+003
9.426171e+002, 2.777768e+003
9.430992e+002, 2.775274e+003
9.435813e+002, 2.769778e+003
9.440634e+002, 2.766394e+003
9.445455e+002, 2.766566e+003
9.450276e+002, 2.767141e+003
9.455098e+002, 2.767409e+003
9.459919e+002, 2.767322e+003
9.464740e+002, 2.766637e+003
9.469561e+002, 2.765728e+003
9.474382e+002, 2.765137e+003
9.479203e+002, 2.764883e+003
9.484025e+002, 2.764679e+003
9.488846e+002, 2.764794e+003
9.493667e+002, 2.763819e+003
9.498488e+002, 2.758390e+003
9.503309e+002, 2.752147e+003
9.508130e+002, 2.751519e+003
9.512952e+002, 2.755334e+003
9.517773e+002, 2.758447e+003
9.522594e+002, 2.759081e+003
9.527415e+002, 2.758895e+003
9.532236e+002, 2.759777e+003
9.537057e+002, 2.760588e+003
9.541878e+002, 2.757651e+003
9.546699e+002, 2.751759e+003
9.551520e+002, 2.748501e+003
9.556342e+002, 2.748647e+003
9.561163e+002, 2.748938e+003
9.565984e+002, 2.747552e+003
9.570805e+002, 2.745831e+003
9.575626e+002, 2.746183e+003
9.580447e+002, 2.748556e+003
9.585269e+002, 2.748943e+003
9.590090e+002, 2.747023e+003
9.594911e+002, 2.744304e+003
9.599732e+002, 2.740251e+003
9.604553e+002, 2.737594e+003
9.609374e+002, 2.739302e+003
9.614196e+002, 2.743376e+003
9.619017e+002, 2.744058e+003
9.623838e+002, 2.739946e+003
9.628659e+002, 2.736652e+003
9.633480e+002, 2.732962e+003
9.638301e+002, 2.731741e+003
9.643123e+002, 2.735394e+003
9.647944e+002, 2.740359e+003
9.652765e+002, 2.744219e+003
9.657586e+002, 2.746792e+003
9.662407e+002, 2.747670e+003
9.667228e+002, 2.745904e+003
9.672050e+002, 2.744282e+003
9.676871e+002, 2.743928e+003
9.681692e+002, 2.743312e+003
9.686513e+002, 2.741184e+003
9.691334e+002, 2.738508e+003
9.696155e+002, 2.736727e+003
9.700977e+002, 2.735917e+003
9.705798e+002, 2.734902e+003
9.710619e+002, 2.732879e+003
9.715440e+002, 2.731062e+003
9.720261e+002, 2.730264e+003
9.725082e+002, 2.730049e+003
9.729904e+002, 2.730130e+003
9.734725e+002, 2.730366e+003
9.739546e+002, 2.730631e+003
9.744367e+002, 2.730854e+003
9.749188e+002, 2.730804e+003
9.754009e+002, 2.729871e+003
9.758831e+002, 2.729002e+003
9.763652e+002, 2.730104e+003
9.768473e+002, 2.732011e+003
9.773294e+002, 2.731687e+003
9.778115e+002, 2.729365e+003
9.782936e+002, 2.728112e+003
9.787758e+002, 2.729374e+003
9.792579e+002, 2.731880e+003
9.797400e+002, 2.734124e+003
9.802221e+002, 2.736329e+003
9.807042e+002, 2.740154e+003
9.811863e+002, 2.745044e+003
9.816685e+002, 2.745839e+003
9.821506e+002, 2.741546e+003
9.826327e+002, 2.736240e+003
9.831148e+002, 2.732438e+003
9.835969e+002, 2.729933e+003
9.840790e+002, 2.728475e+003
9.845612e+002, 2.728083e+003
9.850433e+002, 2.727627e+003
9.855254e+002, 2.727003e+003
9.860075e+002, 2.726964e+003
9.864896e+002, 2.727749e+003
9.869717e+002, 2.729023e+003
9.874539e+002, 2.730682e+003
9.879360e+002, 2.732443e+003
9.884181e+002, 2.733478e+003
9.889002e+002, 2.733773e+003
9.893823e+002, 2.733273e+003
9.898644e+002, 2.731689e+003
9.903466e+002, 2.729723e+003
9.908287e+002, 2.726308e+003
9.913108e+002, 2.724013e+003
9.917929e+002, 2.725650e+003
9.922750e+002, 2.730687e+003
9.927571e+002, 2.736028e+003
9.932393e+002, 2.743522e+003
9.937214e+002, 2.748020e+003
9.942035e+002, 2.747417e+003
9.946856e+002, 2.746309e+003
9.951677e+002, 2.746168e+003
9.956498e+002, 2.746621e+003
9.961320e+002, 2.747063e+003
9.966141e+002, 2.747590e+003
9.970962e+002, 2.749099e+003
9.975783e+002, 2.752049e+003
9.980604e+002, 2.755465e+003
9.985425e+002, 2.759412e+003
9.990247e+002, 2.763382e+003
9.995068e+002, 2.766684e+003
9.999889e+002, 2.769936e+003
1.000471e+003, 2.773981e+003
1.000953e+003, 2.778906e+003
1.001435e+003, 2.784204e+003
1.001917e+003, 2.789031e+003
1.002399e+003, 2.795108e+003
1.002882e+003, 2.804917e+003
1.003364e+003, 2.815036e+003
1.003846e+003, 2.822375e+003
1.004328e+003, 2.827536e+003
1.004810e+003, 2.831783e+003
1.005292e+003, 2.835712e+003
1.005774e+003, 2.840965e+003
1.006256e+003, 2.848873e+003
1.006739e+003, 2.858234e+003
1.007221e+003, 2.868924e+003
1.007703e+003, 2.879720e+003
1.008185e+003, 2.889070e+003
1.008667e+003, 2.896867e+003
1.009149e+003, 2.903288e+003
1.009631e+003, 2.908427e+003
1.010113e+003, 2.912884e+003
1.010595e+003, 2.917785e+003
1.011078e+003, 2.921583e+003
1.011560e+003, 2.921992e+003
1.012042e+003, 2.919417e+003
1.012524e+003, 2.914544e+003
1.013006e+003, 2.907631e+003
1.013488e+003, 2.898945e+003
1.013970e+003, 2.888602e+003
1.014452e+003, 2.877842e+003
1.014935e+003, 2.868023e+003
1.015417e+003, 2.858809e+003
1.015899e+003, 2.849887e+003
1.016381e+003, 2.840877e+003
1.016863e+003, 2.829394e+003
1.017345e+003, 2.815481e+003
1.017827e+003, 2.802902e+003
1.018309e+003, 2.793608e+003
1.018791e+003, 2.786643e+003
1.019274e+003, 2.780870e+003
1.019756e+003, 2.776259e+003
1.020238e+003, 2.772681e+003
1.020720e+003, 2.770123e+003
1.021202e+003, 2.767601e+003
1.021684e+003, 2.764949e+003
1.022166e+003, 2.762195e+003
1.022648e+003, 2.759200e+003
1.023130e+003, 2.756902e+003
1.023613e+003, 2.757264e+003
1.024095e+003, 2.759978e+003
1.024577e+003, 2.759495e+003
1.025059e+003, 2.755252e+003
1.025541e+003, 2.752495e+003
1.026023e+003, 2.752369e+003
1.026505e+003, 2.752747e+003
1.026987e+003, 2.752051e+003
1.027469e+003, 2.751599e+003
1.027952e+003, 2.754139e+003
1.028434e+003, 2.759872e+003
1.028916e+003, 2.764188e+003
1.029398e+003, 2.767891e+003
1.029880e+003, 2.766779e+003
1.030362e+003, 2.757710e+003
1.030844e+003, 2.749412e+003
1.031326e+003, 2.748344e+003
1.031809e+003, 2.750927e+003
1.032291e+003, 2.749551e+003
1.032773e+003, 2.743385e+003
1.033255e+003, 2.740542e+003
1.033737e+003, 2.741821e+003
1.034219e+003, 2.745016e+003
1.034701e+003, 2.751920e+003
1.035183e+003, 2.757297e+003
1.035666e+003, 2.756608e+003
1.036148e+003, 2.752662e+003
1.036630e+003, 2.751463e+003
1.037112e+003, 2.753710e+003
1.037594e+003, 2.754641e+003
1.038076e+003, 2.752462e+003
1.038558e+003, 2.751761e+003
1.039040e+003, 2.753589e+003
1.039522e+003, 2.756746e+003
1.040005e+003, 2.761313e+003
1.040487e+003, 2.766377e+003
1.040969e+003, 2.769884e+003
1.041451e+003, 2.771487e+003
1.041933e+003, 2.773371e+003
1.042415e+003, 2.776324e+003
1.042897e+003, 2.778540e+003
1.043379e+003, 2.779798e+003
1.043861e+003, 2.780156e+003
1.044344e+003, 2.778577e+003
1.044826e+003, 2.776519e+003
1.045308e+003, 2.777113e+003
1.045790e+003, 2.781093e+003
1.046272e+003, 2.784073e+003
1.046754e+003, 2.784738e+003
1.047236e+003, 2.785599e+003
1.047718e+003, 2.788060e+003
1.048201e+003, 2.790160e+003
1.048683e+003, 2.790499e+003
1.049165e+003, 2.789528e+003
1.049647e+003, 2.788017e+003
1.050129e+003, 2.785970e+003
1.050611e+003, 2.784244e+003
1.051093e+003, 2.781489e+003
1.051575e+003, 2.781079e+003
1.052057e+003, 2.786051e+003
1.052540e+003, 2.791695e+003
1.053022e+003, 2.795290e+003
1.053504e+003, 2.796803e+003
1.053986e+003, 2.796178e+003
1.054468e+003, 2.793348e+003
1.054950e+003, 2.790948e+003
1.055432e+003, 2.790176e+003
1.055914e+003, 2.789264e+003
1.056396e+003, 2.787966e+003
1.056879e+003, 2.785984e+003
1.057361e+003, 2.782978e+003
1.057843e+003, 2.779221e+003
1.058325e+003, 2.775426e+003
1.058807e+003, 2.771666e+003
1.059289e+003, 2.766376e+003
1.059771e+003, 2.757993e+003
1.060253e+003, 2.749442e+003
1.060736e+003, 2.742215e+003
1.061218e+003, 2.734836e+003
1.061700e+003, 2.724879e+003
1.062182e+003, 2.714516e+003
1.062664e+003, 2.707833e+003
1.063146e+003, 2.705204e+003
1.063628e+003, 2.702433e+003
1.064110e+003, 2.696969e+003
1.064593e+003, 2.692526e+003
1.065075e+003, 2.692283e+003
1.065557e+003, 2.692003e+003
1.066039e+003, 2.687477e+003
1.066521e+003, 2.681207e+003
1.067003e+003, 2.677283e+003
1.067485e+003, 2.676221e+003
1.067967e+003, 2.675918e+003
1.068449e+003, 2.675402e+003
1.068932e+003, 2.675843e+003
1.069414e+003, 2.679255e+003
1.069896e+003, 2.682305e+003
1.070378e+003, 2.681688e+003
1.070860e+003, 2.679548e+003
1.071342e+003, 2.679460e+003
1.071824e+003, 2.681432e+003
1.072306e+003, 2.682168e+003
1.072788e+003, 2.679733e+003
1.073271e+003, 2.677544e+003
1.073753e+003, 2.678066e+003
1.074235e+003, 2.678475e+003
1.074717e+003, 2.675947e+003
1.075199e+003, 2.672540e+003
1.075681e+003, 2.671609e+003
1.076163e+003, 2.672778e+003
1.076645e+003, 2.672241e+003
1.077127e+003, 2.667885e+003
1.077610e+003, 2.664373e+003
1.078092e+003, 2.664462e+003
1.078574e+003, 2.665489e+003
1.079056e+003, 2.665503e+003
1.079538e+003, 2.665538e+003
1.080020e+003, 2.667588e+003
1.080502e+003, 2.670946e+003
1.080984e+003, 2.672551e+003
1.081467e+003, 2.671040e+003
1.081949e+003, 2.669904e+003
1.082431e+003, 2.670936e+003
1.082913e+003, 2.672549e+003
1.083395e+003, 2.674743e+003
1.083877e+003, 2.676257e+003
1.084359e+003, 2.675188e+003
1.084841e+003, 2.672401e+003
1.085323e+003, 2.670049e+003
1.085806e+003, 2.668516e+003
1.086288e+003, 2.669192e+003
1.086770e+003, 2.675382e+003
1.087252e+003, 2.680530e+003
1.087734e+003, 2.680893e+003
1.088216e+003, 2.678968e+003
1.088698e+003, 2.676230e+003
1.089180e+003, 2.673428e+003
1.089662e+003, 2.671214e+003
1.090145e+003, 2.669701e+003
1.090627e+003, 2.670175e+003
1.091109e+003, 2.674908e+003
1.091591e+003, 2.679350e+003
1.092073e+003, 2.681052e+003
1.092555e+003, 2.682208e+003
1.093037e+003, 2.686585e+003
1.093519e+003, 2.690690e+003
1.094002e+003, 2.687277e+003
1.094484e+003, 2.676027e+003
1.094966e+003, 2.666929e+003
1.095448e+003, 2.663617e+003
1.095930e+003, 2.662227e+003
1.096412e+003, 2.662365e+003
1.096894e+003, 2.663099e+003
1.097376e+003, 2.663899e+003
1.097859e+003, 2.664884e+003
1.098341e+003, 2.666641e+003
1.098823e+003, 2.668929e+003
1.099305e+003, 2.670041e+003
1.099787e+003, 2.668659e+003
1.100269e+003, 2.668025e+003
1.100751e+003, 2.669839e+003
1.101233e+003, 2.671556e+003
1.101715e+003, 2.672819e+003
1.102198e+003, 2.672687e+003
1.102680e+003, 2.668987e+003
1.103162e+003, 2.663034e+003
1.103644e+003, 2.659974e+003
1.104126e+003, 2.661860e+003
1.104608e+003, 2.662430e+003
1.105090e+003, 2.657715e+003
1.105572e+003, 2.655286e+003
1.106054e+003, 2.659969e+003
1.106537e+003, 2.665942e+003
1.107019e+003, 2.668878e+003
1.107501e+003, 2.669333e+003
1.107983e+003, 2.668913e+003
1.108465e+003, 2.667502e+003
1.108947e+003, 2.666595e+003
1.109429e+003, 2.666587e+003
1.109911e+003, 2.666693e+003
1.110394e+003, 2.667487e+003
1.110876e+003, 2.667552e+003
1.111358e+003, 2.665321e+003
1.111840e+003, 2.662128e+003
1.112322e+003, 2.659786e+003
1.112804e+003, 2.658250e+003
1.113286e+003, 2.659007e+003
1.113768e+003, 2.664353e+003
1.114250e+003, 2.668167e+003
1.114733e+003, 2.669470e+003
1.115215e+003, 2.669991e+003
1.115697e+003, 2.670732e+003
1.116179e+003, 2.670800e+003
1.116661e+003, 2.668668e+003
1.117143e+003, 2.664801e+003
1.117625e+003, 2.662550e+003
1.118107e+003, 2.662242e+003
1.118589e+003, 2.662845e+003
1.119072e+003, 2.664336e+003
1.119554e+003, 2.666939e+003
1.120036e+003, 2.671496e+003
1.120518e+003, 2.676040e+003
1.121000e+003, 2.679252e+003
1.121482e+003, 2.680901e+003
1.121964e+003, 2.679785e+003
1.122446e+003, 2.674789e+003
1.122929e+003, 2.674229e+003
1.123411e+003, 2.679869e+003
1.123893e+003, 2.683688e+003
1.124375e+003, 2.683375e+003
1.124857e+003, 2.682704e+003
1.125339e+003, 2.683978e+003
1.125821e+003, 2.686503e+003
1.126303e+003, 2.689271e+003
1.126786e+003, 2.692213e+003
1.127268e+003, 2.694355e+003
1.127750e+003, 2.695761e+003
1.128232e+003, 2.695331e+003
1.128714e+003, 2.692620e+003
1.129196e+003, 2.690420e+003
1.129678e+003, 2.690066e+003
1.130160e+003, 2.690418e+003
1.130642e+003, 2.690253e+003
1.131125e+003, 2.689654e+003
1.131607e+003, 2.688298e+003
1.132089e+003, 2.686392e+003
1.132571e+003, 2.688196e+003
1.133053e+003, 2.693825e+003
1.133535e+003, 2.697623e+003
1.134017e+003, 2.697870e+003
1.134499e+003, 2.696485e+003
1.134981e+003, 2.694656e+003
1.135464e+003, 2.693653e+003
1.135946e+003, 2.696291e+003
1.136428e+003, 2.701662e+003
1.136910e+003, 2.707053e+003
1.137392e+003, 2.711980e+003
1.137874e+003, 2.713595e+003
1.138356e+003, 2.712008e+003
1.138838e+003, 2.712268e+003
1.139321e+003, 2.716978e+003
1.139803e+003, 2.721528e+003
1.140285e+003, 2.719959e+003
1.140767e+003, 2.715565e+003
1.141249e+003, 2.714132e+003
1.141731e+003, 2.714710e+003
1.142213e+003, 2.715295e+003
1.142695e+003, 2.715864e+003
1.143177e+003, 2.717453e+003
1.143660e+003, 2.720241e+003
1.144142e+003, 2.722721e+003
1.144624e+003, 2.723483e+003
1.145106e+003, 2.724397e+003
1.145588e+003, 2.728620e+003
1.146070e+003, 2.733183e+003
1.146552e+003, 2.734135e+003
1.147034e+003, 2.732649e+003
1.147516e+003, 2.730470e+003
1.147999e+003, 2.728495e+003
1.148481e+003, 2.728577e+003
1.148963e+003, 2.731932e+003
1.149445e+003, 2.734618e+003
1.149927e+003, 2.731925e+003
1.150409e+003, 2.730170e+003
1.150891e+003, 2.736139e+003
1.151373e+003, 2.743632e+003
1.151856e+003, 2.744741e+003
1.152338e+003, 2.741952e+003
1.152820e+003, 2.742975e+003
1.153302e+003, 2.749392e+003
1.153784e+003, 2.753859e+003
1.154266e+003, 2.751280e+003
1.154748e+003, 2.750126e+003
1.155230e+003, 2.754946e+003
1.155713e+003, 2.760123e+003
1.156195e+003, 2.762476e+003
1.156677e+003, 2.762955e+003
1.157159e+003, 2.762192e+003
1.157641e+003, 2.760731e+003
1.158123e+003, 2.761476e+003
1.158605e+003, 2.766473e+003
1.159087e+003, 2.769933e+003
1.159569e+003, 2.770137e+003
1.160052e+003, 2.770699e+003
1.160534e+003, 2.773056e+003
1.161016e+003, 2.775567e+003
1.161498e+003, 2.776983e+003
1.161980e+003, 2.777715e+003
1.162462e+003, 2.778563e+003
1.162944e+003, 2.779482e+003
1.163426e+003, 2.780970e+003
1.163908e+003, 2.782919e+003
1.164391e+003, 2.785856e+003
1.164873e+003, 2.790302e+003
1.165355e+003, 2.794230e+003
1.165837e+003, 2.796417e+003
1.166319e+003, 2.798385e+003
1.166801e+003, 2.802064e+003
1.167283e+003, 2.806910e+003
1.167765e+003, 2.810912e+003
1.168247e+003, 2.814081e+003
1.168730e+003, 2.815720e+003
1.169212e+003, 2.815749e+003
1.169694e+003, 2.815761e+003
1.170176e+003, 2.816158e+003
1.170658e+003, 2.818062e+003
1.171140e+003, 2.822363e+003
1.171622e+003, 2.827856e+003
1.172104e+003, 2.832849e+003
1.172587e+003, 2.837366e+003
1.173069e+003, 2.841925e+003
1.173551e+003, 2.846082e+003
1.174033e+003, 2.847762e+003
1.174515e+003, 2.847173e+003
1.174997e+003, 2.846363e+003
1.175479e+003, 2.846205e+003
1.175961e+003, 2.847266e+003
1.176443e+003, 2.850331e+003
1.176926e+003, 2.854104e+003
1.177408e+003, 2.857000e+003
1.177890e+003, 2.859560e+003
1.178372e+003, 2.862885e+003
1.178854e+003, 2.866370e+003
1.179336e+003, 2.868587e+003
1.179818e+003, 2.869608e+003
1.180300e+003, 2.870882e+003
1.180782e+003, 2.873175e+003
1.181265e+003, 2.874523e+003
1.181747e+003, 2.872432e+003
1.182229e+003, 2.870603e+003
1.182711e+003, 2.871522e+003
1.183193e+003, 2.873820e+003
1.183675e+003, 2.876424e+003
1.184157e+003, 2.879245e+003
1.184639e+003, 2.882351e+003
1.185122e+003, 2.885761e+003
1.185604e+003, 2.889620e+003
1.186086e+003, 2.894430e+003
1.186568e+003, 2.898942e+003
1.187050e+003, 2.904238e+003
1.187532e+003, 2.907580e+003
1.188014e+003, 2.904985e+003
1.188496e+003, 2.902398e+003
1.188979e+003, 2.906032e+003
1.189461e+003, 2.913732e+003
1.189943e+003, 2.919100e+003
1.190425e+003, 2.921509e+003
1.190907e+003, 2.925336e+003
1.191389e+003, 2.931465e+003
1.191871e+003, 2.936423e+003
1.192353e+003, 2.939405e+003
1.192835e+003, 2.941827e+003
1.193318e+003, 2.944265e+003
1.193800e+003, 2.946841e+003
1.194282e+003, 2.949690e+003
1.194764e+003, 2.952797e+003
1.195246e+003, 2.956112e+003
1.195728e+003, 2.959629e+003
1.196210e+003, 2.963027e+003
1.196692e+003, 2.966313e+003
1.197174e+003, 2.970467e+003
1.197657e+003, 2.975667e+003
1.198139e+003, 2.980898e+003
1.198621e+003, 2.985517e+003
1.199103e+003, 2.989936e+003
1.199585e+003, 2.994491e+003
1.200067e+003, 2.999325e+003
1.200549e+003, 3.005777e+003
1.201031e+003, 3.012352e+003
1.201514e+003, 3.014403e+003
1.201996e+003, 3.013677e+003
1.202478e+003, 3.016996e+003
1.202960e+003, 3.025644e+003
1.203442e+003, 3.034142e+003
1.203924e+003, 3.039870e+003
1.204406e+003, 3.042857e+003
1.204888e+003, 3.041018e+003
1.205370e+003, 3.038723e+003
1.205853e+003, 3.039747e+003
1.206335e+003, 3.042363e+003
1.206817e+003, 3.044092e+003
1.207299e+003, 3.045470e+003
1.207781e+003, 3.048677e+003
1.208263e+003, 3.054227e+003
1.208745e+003, 3.059857e+003
1.209227e+003, 3.065024e+003
1.209709e+003, 3.070169e+003
1.210192e+003, 3.075433e+003
1.210674e+003, 3.080658e+003
1.211156e+003, 3.085853e+003
1.211638e+003, 3.090844e+003
1.212120e+003, 3.095214e+003
1.212602e+003, 3.099273e+003
1.213084e+003, 3.104391e+003
1.213566e+003, 3.111181e+003
1.214049e+003, 3.115440e+003
1.214531e+003, 3.115909e+003
1.215013e+003, 3.119418e+003
1.215495e+003, 3.128250e+003
1.215977e+003, 3.135093e+003
1.216459e+003, 3.135730e+003
1.216941e+003, 3.134233e+003
1.217423e+003, 3.135284e+003
1.217906e+003, 3.138628e+003
1.218388e+003, 3.144548e+003
1.218870e+003, 3.152071e+003
1.219352e+003, 3.155392e+003
1.219834e+003, 3.155269e+003
1.220316e+003, 3.157291e+003
1.220798e+003, 3.162462e+003
1.221280e+003, 3.167766e+003
1.221762e+003, 3.171551e+003
1.222245e+003, 3.175887e+003
1.222727e+003, 3.183139e+003
1.223209e+003, 3.191739e+003
1.223691e+003, 3.200760e+003
1.224173e+003, 3.209378e+003
1.224655e+003, 3.216630e+003
1.225137e+003, 3.222470e+003
1.225619e+003, 3.227786e+003
1.226101e+003, 3.232089e+003
1.226584e+003, 3.231720e+003
1.227066e+003, 3.222967e+003
1.227548e+003, 3.216804e+003
1.228030e+003, 3.218432e+003
1.228512e+003, 3.221570e+003
1.228994e+003, 3.224228e+003
1.229476e+003, 3.226802e+003
1.229958e+003, 3.229536e+003
1.230441e+003, 3.232524e+003
1.230923e+003, 3.235651e+003
1.231405e+003, 3.238969e+003
1.231887e+003, 3.244217e+003
1.232369e+003, 3.253176e+003
1.232851e+003, 3.257992e+003
1.233333e+003, 3.256582e+003
1.233815e+003, 3.257397e+003
1.234297e+003, 3.263384e+003
1.234780e+003, 3.270363e+003
1.235262e+003, 3.275444e+003
1.235744e+003, 3.279214e+003
1.236226e+003, 3.282500e+003
1.236708e+003, 3.285439e+003
1.237190e+003, 3.288686e+003
1.237672e+003, 3.292186e+003
1.238154e+003, 3.296363e+003
1.238636e+003, 3.300743e+003
1.239119e+003, 3.302605e+003
1.239601e+003, 3.301608e+003
1.240083e+003, 3.301308e+003
1.240565e+003, 3.304000e+003
1.241047e+003, 3.307982e+003
1.241529e+003, 3.311719e+003
1.242011e+003, 3.315876e+003
1.242493e+003, 3.322718e+003
1.242975e+003, 3.329192e+003
1.243458e+003, 3.329653e+003
1.243940e+003, 3.327450e+003
1.244422e+003, 3.331223e+003
1.244904e+003, 3.341774e+003
1.245386e+003, 3.349144e+003
1.245868e+003, 3.348498e+003
1.246350e+003, 3.348716e+003
1.246832e+003, 3.351269e+003
1.247315e+003, 3.354957e+003
1.247797e+003, 3.359751e+003
1.248279e+003, 3.365038e+003
1.248761e+003, 3.370586e+003
1.249243e+003, 3.376076e+003
1.249725e+003, 3.380828e+003
1.250207e+003, 3.384892e+003
1.250689e+003, 3.390565e+003
1.251172e+003, 3.398313e+003
1.251654e+003, 3.400777e+003
1.252136e+003, 3.397063e+003
1.252618e+003, 3.398198e+003
1.253100e+003, 3.407458e+003
1.253582e+003, 3.416936e+003
1.254064e+003, 3.421161e+003
1.254546e+003, 3.422969e+003
1.255028e+003, 3.425759e+003
1.255510e+003, 3.429181e+003
1.255993e+003, 3.432385e+003
1.256475e+003, 3.435843e+003
1.256957e+003, 3.440592e+003
1.257439e+003, 3.446265e+003
1.257921e+003, 3.451788e+003
1.258403e+003, 3.456996e+003
1.258885e+003, 3.462773e+003
1.259367e+003, 3.469992e+003
1.259850e+003, 3.475883e+003
1.260332e+003, 3.477988e+003
1.260814e+003, 3.480018e+003
1.261296e+003, 3.481529e+003
1.261778e+003, 3.485901e+003
1.262260e+003, 3.498402e+003
1.262742e+003, 3.513885e+003
1.263224e+003, 3.524447e+003
1.263707e+003, 3.530370e+003
1.264189e+003, 3.533661e+003
1.264671e+003, 3.533678e+003
1.265153e+003, 3.532811e+003
1.265635e+003, 3.530246e+003
1.266117e+003, 3.530509e+003
1.266599e+003, 3.534697e+003
1.267081e+003, 3.541597e+003
1.267563e+003, 3.550778e+003
1.268046e+003, 3.560278e+003
1.268528e+003, 3.568309e+003
1.269010e+003, 3.574097e+003
1.269492e+003, 3.573459e+003
1.269974e+003, 3.570253e+003
1.270456e+003, 3.575291e+003
1.270938e+003, 3.586177e+003
1.271420e+003, 3.595579e+003
1.271902e+003, 3.602221e+003
1.272385e+003, 3.607712e+003
1.272867e+003, 3.612654e+003
1.273349e+003, 3.616449e+003
1.273831e+003, 3.617957e+003
1.274313e+003, 3.619355e+003
1.274795e+003, 3.620827e+003
1.275277e+003, 3.623629e+003
1.275759e+003, 3.630114e+003
1.276242e+003, 3.637224e+003
1.276724e+003, 3.642162e+003
1.277206e+003, 3.644674e+003
1.277688e+003, 3.643694e+003
1.278170e+003, 3.638232e+003
1.278652e+003, 3.638878e+003
1.279134e+003, 3.647641e+003
1.279616e+003, 3.655423e+003
1.280099e+003, 3.661395e+003
1.280581e+003, 3.665444e+003
1.281063e+003, 3.667385e+003
1.281545e+003, 3.668281e+003
1.282027e+003, 3.668867e+003
1.282509e+003, 3.669551e+003
1.282991e+003, 3.671264e+003
1.283473e+003, 3.673408e+003
1.283955e+003, 3.675477e+003
##END=



