##NAMES=Mullite
##RRUFFID=R141101
##IDEAL CHEMISTRY=Al_4+2x_Si_2-2x_O_10-x_ (x &#8776; 0.4)
##LOCALITY=Caspar quarry, Bellerberg volcano, Mayen, Eifel, Germany
##OWNER=RRUFF
##SOURCE=Ch. and H. Sch√§fer
##DESCRIPTION=Violet acicular crystals
##STATUS=The identification of this mineral has been confirmed by single-crystal X-ray diffraction.
##URL=rruff.info/R141101
8.806445e+001, 3.074457e+004
8.854657e+001, 2.945720e+004
8.902869e+001, 2.901128e+004
8.951080e+001, 2.981544e+004
8.999292e+001, 3.127550e+004
9.047504e+001, 3.284856e+004
9.095715e+001, 3.442603e+004
9.143927e+001, 3.599192e+004
9.192139e+001, 3.753860e+004
9.240350e+001, 3.906291e+004
9.288562e+001, 4.056671e+004
9.336774e+001, 4.177582e+004
9.384985e+001, 4.240747e+004
9.433197e+001, 4.244009e+004
9.481409e+001, 4.244132e+004
9.529620e+001, 4.229104e+004
9.577832e+001, 4.215138e+004
9.626044e+001, 4.205243e+004
9.674255e+001, 4.198371e+004
9.722467e+001, 4.192160e+004
9.770679e+001, 4.185250e+004
9.818890e+001, 4.180205e+004
9.867102e+001, 4.176711e+004
9.915314e+001, 4.174726e+004
9.963525e+001, 4.174237e+004
1.001174e+002, 4.175116e+004
1.005995e+002, 4.176870e+004
1.010816e+002, 4.178329e+004
1.015637e+002, 4.177372e+004
1.020458e+002, 4.177760e+004
1.025280e+002, 4.179183e+004
1.030101e+002, 4.181093e+004
1.034922e+002, 4.182711e+004
1.039743e+002, 4.183262e+004
1.044564e+002, 4.182600e+004
1.049385e+002, 4.184718e+004
1.054207e+002, 4.191049e+004
1.059028e+002, 4.197704e+004
1.063849e+002, 4.202776e+004
1.068670e+002, 4.206035e+004
1.073491e+002, 4.208032e+004
1.078312e+002, 4.208805e+004
1.083134e+002, 4.208345e+004
1.087955e+002, 4.208185e+004
1.092776e+002, 4.208130e+004
1.097597e+002, 4.208545e+004
1.102418e+002, 4.210260e+004
1.107239e+002, 4.213907e+004
1.112061e+002, 4.217563e+004
1.116882e+002, 4.218905e+004
1.121703e+002, 4.218505e+004
1.126524e+002, 4.218850e+004
1.131345e+002, 4.222310e+004
1.136166e+002, 4.228614e+004
1.140988e+002, 4.233070e+004
1.145809e+002, 4.233393e+004
1.150630e+002, 4.232957e+004
1.155451e+002, 4.233144e+004
1.160272e+002, 4.234153e+004
1.165093e+002, 4.235912e+004
1.169915e+002, 4.238691e+004
1.174736e+002, 4.243450e+004
1.179557e+002, 4.246410e+004
1.184378e+002, 4.245220e+004
1.189199e+002, 4.243618e+004
1.194020e+002, 4.244524e+004
1.198842e+002, 4.248796e+004
1.203663e+002, 4.254790e+004
1.208484e+002, 4.258838e+004
1.213305e+002, 4.258921e+004
1.218126e+002, 4.258942e+004
1.222947e+002, 4.258682e+004
1.227769e+002, 4.258451e+004
1.232590e+002, 4.258660e+004
1.237411e+002, 4.259543e+004
1.242232e+002, 4.260973e+004
1.247053e+002, 4.262430e+004
1.251874e+002, 4.263864e+004
1.256696e+002, 4.265393e+004
1.261517e+002, 4.267325e+004
1.266338e+002, 4.269513e+004
1.271159e+002, 4.271363e+004
1.275980e+002, 4.272505e+004
1.280801e+002, 4.272973e+004
1.285623e+002, 4.273181e+004
1.290444e+002, 4.272964e+004
1.295265e+002, 4.272634e+004
1.300086e+002, 4.272249e+004
1.304907e+002, 4.271657e+004
1.309728e+002, 4.271860e+004
1.314550e+002, 4.274642e+004
1.319371e+002, 4.278473e+004
1.324192e+002, 4.281173e+004
1.329013e+002, 4.281302e+004
1.333834e+002, 4.279773e+004
1.338655e+002, 4.279410e+004
1.343477e+002, 4.281217e+004
1.348298e+002, 4.282740e+004
1.353119e+002, 4.282504e+004
1.357940e+002, 4.281284e+004
1.362761e+002, 4.280565e+004
1.367582e+002, 4.281674e+004
1.372404e+002, 4.284686e+004
1.377225e+002, 4.286738e+004
1.382046e+002, 4.286858e+004
1.386867e+002, 4.286859e+004
1.391688e+002, 4.287239e+004
1.396509e+002, 4.288036e+004
1.401331e+002, 4.289078e+004
1.406152e+002, 4.290239e+004
1.410973e+002, 4.291642e+004
1.415794e+002, 4.292738e+004
1.420615e+002, 4.293306e+004
1.425436e+002, 4.293825e+004
1.430258e+002, 4.294375e+004
1.435079e+002, 4.295049e+004
1.439900e+002, 4.296224e+004
1.444721e+002, 4.298554e+004
1.449542e+002, 4.302864e+004
1.454363e+002, 4.306074e+004
1.459185e+002, 4.307134e+004
1.464006e+002, 4.307358e+004
1.468827e+002, 4.308275e+004
1.473648e+002, 4.310341e+004
1.478469e+002, 4.312960e+004
1.483290e+002, 4.315330e+004
1.488112e+002, 4.317556e+004
1.492933e+002, 4.319134e+004
1.497754e+002, 4.319045e+004
1.502575e+002, 4.318015e+004
1.507396e+002, 4.318557e+004
1.512217e+002, 4.322664e+004
1.517039e+002, 4.327107e+004
1.521860e+002, 4.327661e+004
1.526681e+002, 4.323900e+004
1.531502e+002, 4.319754e+004
1.536323e+002, 4.318068e+004
1.541144e+002, 4.318909e+004
1.545966e+002, 4.320863e+004
1.550787e+002, 4.325394e+004
1.555608e+002, 4.329817e+004
1.560429e+002, 4.332167e+004
1.565250e+002, 4.332033e+004
1.570071e+002, 4.330501e+004
1.574893e+002, 4.328740e+004
1.579714e+002, 4.326213e+004
1.584535e+002, 4.325003e+004
1.589356e+002, 4.326091e+004
1.594177e+002, 4.328073e+004
1.598998e+002, 4.330185e+004
1.603820e+002, 4.332105e+004
1.608641e+002, 4.333543e+004
1.613462e+002, 4.333684e+004
1.618283e+002, 4.330884e+004
1.623104e+002, 4.329053e+004
1.627925e+002, 4.328948e+004
1.632747e+002, 4.329778e+004
1.637568e+002, 4.330736e+004
1.642389e+002, 4.331429e+004
1.647210e+002, 4.331939e+004
1.652031e+002, 4.332573e+004
1.656852e+002, 4.334466e+004
1.661674e+002, 4.335274e+004
1.666495e+002, 4.333895e+004
1.671316e+002, 4.331244e+004
1.676137e+002, 4.328858e+004
1.680958e+002, 4.327596e+004
1.685779e+002, 4.327350e+004
1.690601e+002, 4.327329e+004
1.695422e+002, 4.327215e+004
1.700243e+002, 4.327569e+004
1.705064e+002, 4.329015e+004
1.709885e+002, 4.331255e+004
1.714706e+002, 4.333036e+004
1.719528e+002, 4.333180e+004
1.724349e+002, 4.332319e+004
1.729170e+002, 4.333130e+004
1.733991e+002, 4.337498e+004
1.738812e+002, 4.342006e+004
1.743633e+002, 4.343761e+004
1.748455e+002, 4.342697e+004
1.753276e+002, 4.341313e+004
1.758097e+002, 4.340939e+004
1.762918e+002, 4.341348e+004
1.767739e+002, 4.342190e+004
1.772560e+002, 4.343559e+004
1.777382e+002, 4.345241e+004
1.782203e+002, 4.347073e+004
1.787024e+002, 4.349241e+004
1.791845e+002, 4.350971e+004
1.796666e+002, 4.351526e+004
1.801487e+002, 4.351500e+004
1.806309e+002, 4.351602e+004
1.811130e+002, 4.352116e+004
1.815951e+002, 4.352961e+004
1.820772e+002, 4.354034e+004
1.825593e+002, 4.355845e+004
1.830414e+002, 4.356952e+004
1.835236e+002, 4.356384e+004
1.840057e+002, 4.354997e+004
1.844878e+002, 4.353967e+004
1.849699e+002, 4.353971e+004
1.854520e+002, 4.354896e+004
1.859341e+002, 4.356108e+004
1.864163e+002, 4.358224e+004
1.868984e+002, 4.359888e+004
1.873805e+002, 4.361020e+004
1.878626e+002, 4.361483e+004
1.883447e+002, 4.360887e+004
1.888268e+002, 4.358721e+004
1.893090e+002, 4.355104e+004
1.897911e+002, 4.353698e+004
1.902732e+002, 4.357002e+004
1.907553e+002, 4.360027e+004
1.912374e+002, 4.361365e+004
1.917195e+002, 4.361354e+004
1.922017e+002, 4.361028e+004
1.926838e+002, 4.361172e+004
1.931659e+002, 4.361823e+004
1.936480e+002, 4.362235e+004
1.941301e+002, 4.362393e+004
1.946122e+002, 4.362401e+004
1.950944e+002, 4.362316e+004
1.955765e+002, 4.362121e+004
1.960586e+002, 4.361737e+004
1.965407e+002, 4.361080e+004
1.970228e+002, 4.360111e+004
1.975049e+002, 4.359072e+004
1.979871e+002, 4.356881e+004
1.984692e+002, 4.355420e+004
1.989513e+002, 4.356230e+004
1.994334e+002, 4.359182e+004
1.999155e+002, 4.362600e+004
2.003976e+002, 4.365330e+004
2.008798e+002, 4.367296e+004
2.013619e+002, 4.368762e+004
2.018440e+002, 4.369175e+004
2.023261e+002, 4.369446e+004
2.028082e+002, 4.370956e+004
2.032903e+002, 4.373873e+004
2.037725e+002, 4.375747e+004
2.042546e+002, 4.373718e+004
2.047367e+002, 4.369048e+004
2.052188e+002, 4.365309e+004
2.057009e+002, 4.363477e+004
2.061830e+002, 4.362803e+004
2.066652e+002, 4.362336e+004
2.071473e+002, 4.362039e+004
2.076294e+002, 4.362116e+004
2.081115e+002, 4.363225e+004
2.085936e+002, 4.364750e+004
2.090757e+002, 4.365672e+004
2.095579e+002, 4.365240e+004
2.100400e+002, 4.364109e+004
2.105221e+002, 4.363638e+004
2.110042e+002, 4.364056e+004
2.114863e+002, 4.364591e+004
2.119685e+002, 4.364779e+004
2.124506e+002, 4.364813e+004
2.129327e+002, 4.364965e+004
2.134148e+002, 4.365317e+004
2.138969e+002, 4.365890e+004
2.143790e+002, 4.366911e+004
2.148612e+002, 4.369184e+004
2.153433e+002, 4.370499e+004
2.158254e+002, 4.369316e+004
2.163075e+002, 4.367040e+004
2.167896e+002, 4.365679e+004
2.172717e+002, 4.366545e+004
2.177539e+002, 4.369043e+004
2.182360e+002, 4.370441e+004
2.187181e+002, 4.369594e+004
2.192002e+002, 4.369132e+004
2.196823e+002, 4.370110e+004
2.201644e+002, 4.371764e+004
2.206466e+002, 4.373007e+004
2.211287e+002, 4.373164e+004
2.216108e+002, 4.372418e+004
2.220929e+002, 4.371787e+004
2.225750e+002, 4.371016e+004
2.230571e+002, 4.370685e+004
2.235393e+002, 4.371167e+004
2.240214e+002, 4.372096e+004
2.245035e+002, 4.372921e+004
2.249856e+002, 4.373295e+004
2.254677e+002, 4.373343e+004
2.259498e+002, 4.373857e+004
2.264320e+002, 4.376057e+004
2.269141e+002, 4.377405e+004
2.273962e+002, 4.376836e+004
2.278783e+002, 4.375248e+004
2.283604e+002, 4.373949e+004
2.288425e+002, 4.373659e+004
2.293247e+002, 4.374324e+004
2.298068e+002, 4.375690e+004
2.302889e+002, 4.379666e+004
2.307710e+002, 4.382134e+004
2.312531e+002, 4.380733e+004
2.317352e+002, 4.377365e+004
2.322174e+002, 4.375552e+004
2.326995e+002, 4.377349e+004
2.331816e+002, 4.381748e+004
2.336637e+002, 4.384300e+004
2.341458e+002, 4.383555e+004
2.346279e+002, 4.382979e+004
2.351101e+002, 4.384086e+004
2.355922e+002, 4.385937e+004
2.360743e+002, 4.386571e+004
2.365564e+002, 4.384909e+004
2.370385e+002, 4.381636e+004
2.375206e+002, 4.378902e+004
2.380028e+002, 4.376023e+004
2.384849e+002, 4.374490e+004
2.389670e+002, 4.376180e+004
2.394491e+002, 4.379646e+004
2.399312e+002, 4.381349e+004
2.404133e+002, 4.379319e+004
2.408955e+002, 4.375407e+004
2.413776e+002, 4.373755e+004
2.418597e+002, 4.374813e+004
2.423418e+002, 4.376468e+004
2.428239e+002, 4.378261e+004
2.433060e+002, 4.380021e+004
2.437882e+002, 4.381293e+004
2.442703e+002, 4.381923e+004
2.447524e+002, 4.381927e+004
2.452345e+002, 4.381065e+004
2.457166e+002, 4.378984e+004
2.461987e+002, 4.377746e+004
2.466809e+002, 4.379395e+004
2.471630e+002, 4.382886e+004
2.476451e+002, 4.384586e+004
2.481272e+002, 4.382888e+004
2.486093e+002, 4.379813e+004
2.490914e+002, 4.377759e+004
2.495736e+002, 4.376726e+004
2.500557e+002, 4.376024e+004
2.505378e+002, 4.375135e+004
2.510199e+002, 4.374229e+004
2.515020e+002, 4.374082e+004
2.519841e+002, 4.375196e+004
2.524663e+002, 4.376632e+004
2.529484e+002, 4.377695e+004
2.534305e+002, 4.378377e+004
2.539126e+002, 4.378595e+004
2.543947e+002, 4.377809e+004
2.548768e+002, 4.376359e+004
2.553590e+002, 4.375893e+004
2.558411e+002, 4.376854e+004
2.563232e+002, 4.378564e+004
2.568053e+002, 4.380816e+004
2.572874e+002, 4.383407e+004
2.577695e+002, 4.385589e+004
2.582516e+002, 4.387034e+004
2.587338e+002, 4.387737e+004
2.592159e+002, 4.387438e+004
2.596980e+002, 4.385224e+004
2.601801e+002, 4.383348e+004
2.606622e+002, 4.383093e+004
2.611443e+002, 4.384027e+004
2.616265e+002, 4.385215e+004
2.621086e+002, 4.386296e+004
2.625907e+002, 4.387191e+004
2.630728e+002, 4.387325e+004
2.635549e+002, 4.385513e+004
2.640370e+002, 4.384818e+004
2.645192e+002, 4.386983e+004
2.650013e+002, 4.390823e+004
2.654834e+002, 4.394532e+004
2.659655e+002, 4.397358e+004
2.664476e+002, 4.399212e+004
2.669297e+002, 4.399638e+004
2.674119e+002, 4.397557e+004
2.678940e+002, 4.395782e+004
2.683761e+002, 4.395265e+004
2.688582e+002, 4.395495e+004
2.693403e+002, 4.396007e+004
2.698224e+002, 4.396720e+004
2.703046e+002, 4.397263e+004
2.707867e+002, 4.396385e+004
2.712688e+002, 4.392736e+004
2.717509e+002, 4.390139e+004
2.722330e+002, 4.390194e+004
2.727151e+002, 4.391154e+004
2.731973e+002, 4.391222e+004
2.736794e+002, 4.389659e+004
2.741615e+002, 4.387163e+004
2.746436e+002, 4.385154e+004
2.751257e+002, 4.383692e+004
2.756078e+002, 4.382592e+004
2.760900e+002, 4.381857e+004
2.765721e+002, 4.381335e+004
2.770542e+002, 4.380679e+004
2.775363e+002, 4.379834e+004
2.780184e+002, 4.379401e+004
2.785005e+002, 4.380806e+004
2.789827e+002, 4.386079e+004
2.794648e+002, 4.388503e+004
2.799469e+002, 4.386409e+004
2.804290e+002, 4.382839e+004
2.809111e+002, 4.379190e+004
2.813932e+002, 4.376013e+004
2.818754e+002, 4.373779e+004
2.823575e+002, 4.373399e+004
2.828396e+002, 4.375986e+004
2.833217e+002, 4.377235e+004
2.838038e+002, 4.375866e+004
2.842859e+002, 4.374424e+004
2.847681e+002, 4.374641e+004
2.852502e+002, 4.376336e+004
2.857323e+002, 4.377907e+004
2.862144e+002, 4.377541e+004
2.866965e+002, 4.374713e+004
2.871786e+002, 4.372970e+004
2.876608e+002, 4.373639e+004
2.881429e+002, 4.374043e+004
2.886250e+002, 4.372746e+004
2.891071e+002, 4.370166e+004
2.895892e+002, 4.367720e+004
2.900714e+002, 4.366592e+004
2.905535e+002, 4.366816e+004
2.910356e+002, 4.366796e+004
2.915177e+002, 4.366143e+004
2.919998e+002, 4.365686e+004
2.924819e+002, 4.365771e+004
2.929641e+002, 4.366224e+004
2.934462e+002, 4.366741e+004
2.939283e+002, 4.367160e+004
2.944104e+002, 4.367436e+004
2.948925e+002, 4.367258e+004
2.953746e+002, 4.366099e+004
2.958568e+002, 4.365030e+004
2.963389e+002, 4.364216e+004
2.968210e+002, 4.363550e+004
2.973031e+002, 4.362813e+004
2.977852e+002, 4.361885e+004
2.982673e+002, 4.360920e+004
2.987495e+002, 4.360410e+004
2.992316e+002, 4.360358e+004
2.997137e+002, 4.360785e+004
3.001958e+002, 4.361704e+004
3.006779e+002, 4.363055e+004
3.011600e+002, 4.365229e+004
3.016422e+002, 4.368244e+004
3.021243e+002, 4.371013e+004
3.026064e+002, 4.371435e+004
3.030885e+002, 4.367298e+004
3.035706e+002, 4.364647e+004
3.040527e+002, 4.364245e+004
3.045349e+002, 4.364682e+004
3.050170e+002, 4.365056e+004
3.054991e+002, 4.365148e+004
3.059812e+002, 4.365164e+004
3.064633e+002, 4.365465e+004
3.069454e+002, 4.366528e+004
3.074276e+002, 4.366106e+004
3.079097e+002, 4.363175e+004
3.083918e+002, 4.359955e+004
3.088739e+002, 4.357449e+004
3.093560e+002, 4.355790e+004
3.098381e+002, 4.354816e+004
3.103203e+002, 4.354454e+004
3.108024e+002, 4.354779e+004
3.112845e+002, 4.354742e+004
3.117666e+002, 4.353387e+004
3.122487e+002, 4.352709e+004
3.127308e+002, 4.354121e+004
3.132130e+002, 4.356762e+004
3.136951e+002, 4.358663e+004
3.141772e+002, 4.358478e+004
3.146593e+002, 4.356575e+004
3.151414e+002, 4.355550e+004
3.156235e+002, 4.356694e+004
3.161057e+002, 4.357166e+004
3.165878e+002, 4.355668e+004
3.170699e+002, 4.353429e+004
3.175520e+002, 4.352323e+004
3.180341e+002, 4.353202e+004
3.185162e+002, 4.355124e+004
3.189984e+002, 4.355668e+004
3.194805e+002, 4.353121e+004
3.199626e+002, 4.351386e+004
3.204447e+002, 4.351118e+004
3.209268e+002, 4.351361e+004
3.214089e+002, 4.350924e+004
3.218911e+002, 4.349616e+004
3.223732e+002, 4.348670e+004
3.228553e+002, 4.350129e+004
3.233374e+002, 4.355954e+004
3.238195e+002, 4.359299e+004
3.243016e+002, 4.359079e+004
3.247838e+002, 4.357599e+004
3.252659e+002, 4.355441e+004
3.257480e+002, 4.353150e+004
3.262301e+002, 4.352066e+004
3.267122e+002, 4.353898e+004
3.271943e+002, 4.359385e+004
3.276765e+002, 4.361279e+004
3.281586e+002, 4.356345e+004
3.286407e+002, 4.351488e+004
3.291228e+002, 4.349113e+004
3.296049e+002, 4.348848e+004
3.300870e+002, 4.349432e+004
3.305692e+002, 4.350114e+004
3.310513e+002, 4.350806e+004
3.315334e+002, 4.350863e+004
3.320155e+002, 4.348940e+004
3.324976e+002, 4.347908e+004
3.329797e+002, 4.349200e+004
3.334619e+002, 4.351333e+004
3.339440e+002, 4.352307e+004
3.344261e+002, 4.351238e+004
3.349082e+002, 4.348975e+004
3.353904e+002, 4.347553e+004
3.358725e+002, 4.348261e+004
3.363546e+002, 4.347873e+004
3.368367e+002, 4.346313e+004
3.373188e+002, 4.343762e+004
3.378009e+002, 4.339591e+004
3.382831e+002, 4.334053e+004
3.387652e+002, 4.329004e+004
3.392473e+002, 4.327208e+004
3.397294e+002, 4.330072e+004
3.402115e+002, 4.331805e+004
3.406936e+002, 4.331479e+004
3.411758e+002, 4.330977e+004
3.416579e+002, 4.331314e+004
3.421400e+002, 4.332340e+004
3.426221e+002, 4.333207e+004
3.431042e+002, 4.333101e+004
3.435863e+002, 4.332008e+004
3.440685e+002, 4.331545e+004
3.445506e+002, 4.332274e+004
3.450327e+002, 4.333070e+004
3.455148e+002, 4.333910e+004
3.459969e+002, 4.334600e+004
3.464790e+002, 4.334860e+004
3.469612e+002, 4.334525e+004
3.474433e+002, 4.333724e+004
3.479254e+002, 4.332779e+004
3.484075e+002, 4.331102e+004
3.488896e+002, 4.330327e+004
3.493717e+002, 4.331648e+004
3.498539e+002, 4.333321e+004
3.503360e+002, 4.333608e+004
3.508181e+002, 4.332047e+004
3.513002e+002, 4.329862e+004
3.517823e+002, 4.328680e+004
3.522644e+002, 4.328412e+004
3.527466e+002, 4.329545e+004
3.532287e+002, 4.334889e+004
3.537108e+002, 4.339363e+004
3.541929e+002, 4.339724e+004
3.546750e+002, 4.336380e+004
3.551571e+002, 4.332270e+004
3.556393e+002, 4.329846e+004
3.561214e+002, 4.329100e+004
3.566035e+002, 4.328780e+004
3.570856e+002, 4.329273e+004
3.575677e+002, 4.329784e+004
3.580498e+002, 4.330093e+004
3.585320e+002, 4.330224e+004
3.590141e+002, 4.330252e+004
3.594962e+002, 4.330236e+004
3.599783e+002, 4.330107e+004
3.604604e+002, 4.329596e+004
3.609425e+002, 4.328412e+004
3.614247e+002, 4.327504e+004
3.619068e+002, 4.327155e+004
3.623889e+002, 4.327155e+004
3.628710e+002, 4.327384e+004
3.633531e+002, 4.327806e+004
3.638352e+002, 4.328299e+004
3.643174e+002, 4.328363e+004
3.647995e+002, 4.327806e+004
3.652816e+002, 4.328825e+004
3.657637e+002, 4.334132e+004
3.662458e+002, 4.339010e+004
3.667279e+002, 4.340115e+004
3.672101e+002, 4.337729e+004
3.676922e+002, 4.334588e+004
3.681743e+002, 4.332685e+004
3.686564e+002, 4.331642e+004
3.691385e+002, 4.329626e+004
3.696206e+002, 4.326134e+004
3.701028e+002, 4.322493e+004
3.705849e+002, 4.319155e+004
3.710670e+002, 4.316265e+004
3.715491e+002, 4.314167e+004
3.720312e+002, 4.312875e+004
3.725133e+002, 4.312515e+004
3.729955e+002, 4.313757e+004
3.734776e+002, 4.316841e+004
3.739597e+002, 4.319155e+004
3.744418e+002, 4.319159e+004
3.749239e+002, 4.318020e+004
3.754060e+002, 4.317223e+004
3.758882e+002, 4.316949e+004
3.763703e+002, 4.316723e+004
3.768524e+002, 4.316036e+004
3.773345e+002, 4.315069e+004
3.778166e+002, 4.314625e+004
3.782987e+002, 4.315045e+004
3.787809e+002, 4.315748e+004
3.792630e+002, 4.315966e+004
3.797451e+002, 4.315785e+004
3.802272e+002, 4.316020e+004
3.807093e+002, 4.317726e+004
3.811914e+002, 4.319640e+004
3.816736e+002, 4.319917e+004
3.821557e+002, 4.318377e+004
3.826378e+002, 4.316369e+004
3.831199e+002, 4.314663e+004
3.836020e+002, 4.313289e+004
3.840841e+002, 4.312191e+004
3.845663e+002, 4.311400e+004
3.850484e+002, 4.310840e+004
3.855305e+002, 4.310688e+004
3.860126e+002, 4.310764e+004
3.864947e+002, 4.310352e+004
3.869768e+002, 4.308961e+004
3.874590e+002, 4.307315e+004
3.879411e+002, 4.307162e+004
3.884232e+002, 4.309035e+004
3.889053e+002, 4.310461e+004
3.893874e+002, 4.310213e+004
3.898695e+002, 4.309613e+004
3.903517e+002, 4.310563e+004
3.908338e+002, 4.313337e+004
3.913159e+002, 4.316041e+004
3.917980e+002, 4.316683e+004
3.922801e+002, 4.314946e+004
3.927622e+002, 4.313544e+004
3.932444e+002, 4.312377e+004
3.937265e+002, 4.311609e+004
3.942086e+002, 4.311627e+004
3.946907e+002, 4.312144e+004
3.951728e+002, 4.312434e+004
3.956549e+002, 4.312063e+004
3.961371e+002, 4.311191e+004
3.966192e+002, 4.310464e+004
3.971013e+002, 4.309791e+004
3.975834e+002, 4.309387e+004
3.980655e+002, 4.309232e+004
3.985476e+002, 4.309372e+004
3.990298e+002, 4.310039e+004
3.995119e+002, 4.311221e+004
3.999940e+002, 4.312390e+004
4.004761e+002, 4.312770e+004
4.009582e+002, 4.311979e+004
4.014403e+002, 4.311739e+004
4.019225e+002, 4.312720e+004
4.024046e+002, 4.313544e+004
4.028867e+002, 4.313568e+004
4.033688e+002, 4.312893e+004
4.038509e+002, 4.311922e+004
4.043330e+002, 4.310907e+004
4.048152e+002, 4.309828e+004
4.052973e+002, 4.308508e+004
4.057794e+002, 4.305994e+004
4.062615e+002, 4.304726e+004
4.067436e+002, 4.306017e+004
4.072257e+002, 4.308190e+004
4.077079e+002, 4.309610e+004
4.081900e+002, 4.309777e+004
4.086721e+002, 4.309224e+004
4.091542e+002, 4.308684e+004
4.096363e+002, 4.308220e+004
4.101184e+002, 4.307351e+004
4.106006e+002, 4.305128e+004
4.110827e+002, 4.303329e+004
4.115648e+002, 4.303719e+004
4.120469e+002, 4.305537e+004
4.125290e+002, 4.306090e+004
4.130111e+002, 4.302695e+004
4.134933e+002, 4.296896e+004
4.139754e+002, 4.293811e+004
4.144575e+002, 4.294228e+004
4.149396e+002, 4.295346e+004
4.154217e+002, 4.295850e+004
4.159038e+002, 4.296318e+004
4.163860e+002, 4.297390e+004
4.168681e+002, 4.299188e+004
4.173502e+002, 4.301673e+004
4.178323e+002, 4.305555e+004
4.183144e+002, 4.310515e+004
4.187965e+002, 4.313633e+004
4.192787e+002, 4.313781e+004
4.197608e+002, 4.312365e+004
4.202429e+002, 4.310580e+004
4.207250e+002, 4.308466e+004
4.212071e+002, 4.306821e+004
4.216892e+002, 4.305805e+004
4.221714e+002, 4.305433e+004
4.226535e+002, 4.306093e+004
4.231356e+002, 4.307807e+004
4.236177e+002, 4.309177e+004
4.240998e+002, 4.309196e+004
4.245819e+002, 4.308093e+004
4.250641e+002, 4.307094e+004
4.255462e+002, 4.305772e+004
4.260283e+002, 4.305104e+004
4.265104e+002, 4.306270e+004
4.269925e+002, 4.308309e+004
4.274746e+002, 4.309344e+004
4.279568e+002, 4.308741e+004
4.284389e+002, 4.307116e+004
4.289210e+002, 4.305346e+004
4.294031e+002, 4.303436e+004
4.298852e+002, 4.301363e+004
4.303673e+002, 4.298702e+004
4.308495e+002, 4.296221e+004
4.313316e+002, 4.294163e+004
4.318137e+002, 4.292713e+004
4.322958e+002, 4.292393e+004
4.327779e+002, 4.293738e+004
4.332600e+002, 4.296442e+004
4.337422e+002, 4.298035e+004
4.342243e+002, 4.298146e+004
4.347064e+002, 4.297472e+004
4.351885e+002, 4.295051e+004
4.356706e+002, 4.292328e+004
4.361527e+002, 4.290750e+004
4.366349e+002, 4.290766e+004
4.371170e+002, 4.291998e+004
4.375991e+002, 4.294012e+004
4.380812e+002, 4.296927e+004
4.385633e+002, 4.300138e+004
4.390454e+002, 4.305823e+004
4.395276e+002, 4.309689e+004
4.400097e+002, 4.309062e+004
4.404918e+002, 4.305217e+004
4.409739e+002, 4.301099e+004
4.414560e+002, 4.298389e+004
4.419381e+002, 4.296825e+004
4.424203e+002, 4.295823e+004
4.429024e+002, 4.295879e+004
4.433845e+002, 4.295235e+004
4.438666e+002, 4.292669e+004
4.443487e+002, 4.289639e+004
4.448308e+002, 4.287025e+004
4.453130e+002, 4.285006e+004
4.457951e+002, 4.284024e+004
4.462772e+002, 4.285317e+004
4.467593e+002, 4.288257e+004
4.472414e+002, 4.289241e+004
4.477235e+002, 4.286973e+004
4.482057e+002, 4.284601e+004
4.486878e+002, 4.284847e+004
4.491699e+002, 4.286827e+004
4.496520e+002, 4.288632e+004
4.501341e+002, 4.290150e+004
4.506162e+002, 4.290950e+004
4.510984e+002, 4.289829e+004
4.515805e+002, 4.287228e+004
4.520626e+002, 4.286162e+004
4.525447e+002, 4.288299e+004
4.530268e+002, 4.291940e+004
4.535089e+002, 4.293843e+004
4.539911e+002, 4.293834e+004
4.544732e+002, 4.293534e+004
4.549553e+002, 4.292936e+004
4.554374e+002, 4.292410e+004
4.559195e+002, 4.292608e+004
4.564016e+002, 4.293471e+004
4.568838e+002, 4.293960e+004
4.573659e+002, 4.293110e+004
4.578480e+002, 4.291031e+004
4.583301e+002, 4.289794e+004
4.588122e+002, 4.290471e+004
4.592943e+002, 4.290574e+004
4.597765e+002, 4.288763e+004
4.602586e+002, 4.286302e+004
4.607407e+002, 4.285081e+004
4.612228e+002, 4.285679e+004
4.617049e+002, 4.286855e+004
4.621870e+002, 4.286696e+004
4.626692e+002, 4.284658e+004
4.631513e+002, 4.283082e+004
4.636334e+002, 4.282421e+004
4.641155e+002, 4.281818e+004
4.645976e+002, 4.280638e+004
4.650797e+002, 4.279266e+004
4.655619e+002, 4.278666e+004
4.660440e+002, 4.279580e+004
4.665261e+002, 4.281317e+004
4.670082e+002, 4.281704e+004
4.674903e+002, 4.279919e+004
4.679724e+002, 4.279027e+004
4.684546e+002, 4.280889e+004
4.689367e+002, 4.283159e+004
4.694188e+002, 4.284082e+004
4.699009e+002, 4.283503e+004
4.703830e+002, 4.282549e+004
4.708651e+002, 4.282038e+004
4.713473e+002, 4.281814e+004
4.718294e+002, 4.281326e+004
4.723115e+002, 4.280443e+004
4.727936e+002, 4.279495e+004
4.732757e+002, 4.278470e+004
4.737578e+002, 4.277554e+004
4.742400e+002, 4.277225e+004
4.747221e+002, 4.277992e+004
4.752042e+002, 4.278626e+004
4.756863e+002, 4.277742e+004
4.761684e+002, 4.276025e+004
4.766505e+002, 4.275748e+004
4.771327e+002, 4.277828e+004
4.776148e+002, 4.280443e+004
4.780969e+002, 4.281457e+004
4.785790e+002, 4.280755e+004
4.790611e+002, 4.278940e+004
4.795432e+002, 4.274557e+004
4.800254e+002, 4.270421e+004
4.805075e+002, 4.268904e+004
4.809896e+002, 4.269258e+004
4.814717e+002, 4.268838e+004
4.819538e+002, 4.266077e+004
4.824359e+002, 4.262134e+004
4.829181e+002, 4.260318e+004
4.834002e+002, 4.262382e+004
4.838823e+002, 4.264142e+004
4.843644e+002, 4.265871e+004
4.848465e+002, 4.267049e+004
4.853286e+002, 4.267285e+004
4.858108e+002, 4.266562e+004
4.862929e+002, 4.264946e+004
4.867750e+002, 4.262080e+004
4.872571e+002, 4.258334e+004
4.877392e+002, 4.257132e+004
4.882213e+002, 4.259701e+004
4.887035e+002, 4.262871e+004
4.891856e+002, 4.266880e+004
4.896677e+002, 4.270370e+004
4.901498e+002, 4.271616e+004
4.906319e+002, 4.270201e+004
4.911140e+002, 4.268055e+004
4.915962e+002, 4.267064e+004
4.920783e+002, 4.267082e+004
4.925604e+002, 4.267051e+004
4.930425e+002, 4.267059e+004
4.935246e+002, 4.266633e+004
4.940067e+002, 4.265146e+004
4.944889e+002, 4.262987e+004
4.949710e+002, 4.260930e+004
4.954531e+002, 4.258896e+004
4.959352e+002, 4.257340e+004
4.964173e+002, 4.256902e+004
4.968994e+002, 4.257313e+004
4.973816e+002, 4.257673e+004
4.978637e+002, 4.257805e+004
4.983458e+002, 4.257385e+004
4.988279e+002, 4.255654e+004
4.993100e+002, 4.252141e+004
4.997921e+002, 4.249774e+004
5.002743e+002, 4.250152e+004
5.007564e+002, 4.250508e+004
5.012385e+002, 4.249045e+004
5.017206e+002, 4.245956e+004
5.022027e+002, 4.241963e+004
5.026848e+002, 4.237341e+004
5.031670e+002, 4.232726e+004
5.036491e+002, 4.230081e+004
5.041312e+002, 4.230317e+004
5.046133e+002, 4.231182e+004
5.050954e+002, 4.233423e+004
5.055775e+002, 4.235564e+004
5.060597e+002, 4.236451e+004
5.065418e+002, 4.236204e+004
5.070239e+002, 4.235881e+004
5.075060e+002, 4.236579e+004
5.079881e+002, 4.237780e+004
5.084702e+002, 4.236740e+004
5.089524e+002, 4.232305e+004
5.094345e+002, 4.228264e+004
5.099166e+002, 4.225654e+004
5.103987e+002, 4.224138e+004
5.108808e+002, 4.223721e+004
5.113629e+002, 4.224407e+004
5.118451e+002, 4.225400e+004
5.123271e+002, 4.226565e+004
5.128093e+002, 4.227577e+004
5.132914e+002, 4.227383e+004
5.137735e+002, 4.225769e+004
5.142556e+002, 4.223534e+004
5.147377e+002, 4.220618e+004
5.152198e+002, 4.217580e+004
5.157020e+002, 4.216148e+004
5.161841e+002, 4.217046e+004
5.166662e+002, 4.218552e+004
5.171483e+002, 4.220356e+004
5.176304e+002, 4.222130e+004
5.181125e+002, 4.223581e+004
5.185947e+002, 4.224601e+004
5.190768e+002, 4.224513e+004
5.195589e+002, 4.222356e+004
5.200410e+002, 4.217783e+004
5.205231e+002, 4.214374e+004
5.210052e+002, 4.211668e+004
5.214874e+002, 4.210431e+004
5.219695e+002, 4.211922e+004
5.224516e+002, 4.214691e+004
5.229337e+002, 4.216955e+004
5.234158e+002, 4.218033e+004
5.238979e+002, 4.217965e+004
5.243801e+002, 4.216404e+004
5.248622e+002, 4.212834e+004
5.253443e+002, 4.210605e+004
5.258264e+002, 4.210638e+004
5.263085e+002, 4.211213e+004
5.267906e+002, 4.212540e+004
5.272728e+002, 4.213720e+004
5.277549e+002, 4.212885e+004
5.282370e+002, 4.208662e+004
5.287191e+002, 4.203485e+004
5.292012e+002, 4.200315e+004
5.296833e+002, 4.199064e+004
5.301655e+002, 4.198676e+004
5.306476e+002, 4.199200e+004
5.311297e+002, 4.199963e+004
5.316118e+002, 4.200363e+004
5.320939e+002, 4.200418e+004
5.325760e+002, 4.199914e+004
5.330582e+002, 4.197705e+004
5.335403e+002, 4.195876e+004
5.340224e+002, 4.196277e+004
5.345045e+002, 4.198445e+004
5.349866e+002, 4.201069e+004
5.354688e+002, 4.203684e+004
5.359509e+002, 4.205854e+004
5.364330e+002, 4.206713e+004
5.369151e+002, 4.205763e+004
5.373972e+002, 4.204624e+004
5.378793e+002, 4.203580e+004
5.383615e+002, 4.202123e+004
5.388436e+002, 4.199555e+004
5.393257e+002, 4.196366e+004
5.398078e+002, 4.193561e+004
5.402899e+002, 4.191660e+004
5.407720e+002, 4.190632e+004
5.412542e+002, 4.190524e+004
5.417363e+002, 4.191546e+004
5.422184e+002, 4.192695e+004
5.427005e+002, 4.194159e+004
5.431826e+002, 4.195354e+004
5.436647e+002, 4.195915e+004
5.441469e+002, 4.195879e+004
5.446290e+002, 4.195512e+004
5.451111e+002, 4.194987e+004
5.455932e+002, 4.194173e+004
5.460753e+002, 4.192657e+004
5.465574e+002, 4.190479e+004
5.470396e+002, 4.188575e+004
5.475217e+002, 4.187171e+004
5.480038e+002, 4.186389e+004
5.484859e+002, 4.186755e+004
5.489680e+002, 4.188417e+004
5.494501e+002, 4.189538e+004
5.499323e+002, 4.190018e+004
5.504144e+002, 4.189682e+004
5.508965e+002, 4.187821e+004
5.513786e+002, 4.184945e+004
5.518607e+002, 4.182807e+004
5.523428e+002, 4.182454e+004
5.528250e+002, 4.182868e+004
5.533071e+002, 4.181434e+004
5.537892e+002, 4.176739e+004
5.542713e+002, 4.172726e+004
5.547534e+002, 4.168916e+004
5.552355e+002, 4.166135e+004
5.557177e+002, 4.165142e+004
5.561998e+002, 4.165603e+004
5.566819e+002, 4.166823e+004
5.571640e+002, 4.168745e+004
5.576461e+002, 4.170415e+004
5.581282e+002, 4.169163e+004
5.586104e+002, 4.164348e+004
5.590925e+002, 4.160775e+004
5.595746e+002, 4.160067e+004
5.600567e+002, 4.160578e+004
5.605388e+002, 4.160854e+004
5.610209e+002, 4.160930e+004
5.615031e+002, 4.161150e+004
5.619852e+002, 4.161325e+004
5.624673e+002, 4.161915e+004
5.629494e+002, 4.164087e+004
5.634315e+002, 4.167331e+004
5.639136e+002, 4.169065e+004
5.643958e+002, 4.168017e+004
5.648779e+002, 4.165598e+004
5.653600e+002, 4.164187e+004
5.658421e+002, 4.164165e+004
5.663242e+002, 4.164142e+004
5.668063e+002, 4.164191e+004
5.672885e+002, 4.164148e+004
5.677706e+002, 4.163681e+004
5.682527e+002, 4.163071e+004
5.687348e+002, 4.163018e+004
5.692169e+002, 4.163887e+004
5.696990e+002, 4.165054e+004
5.701812e+002, 4.165030e+004
5.706633e+002, 4.163165e+004
5.711454e+002, 4.162806e+004
5.716275e+002, 4.165863e+004
5.721096e+002, 4.168796e+004
5.725917e+002, 4.169661e+004
5.730739e+002, 4.169061e+004
5.735560e+002, 4.168543e+004
5.740381e+002, 4.168911e+004
5.745202e+002, 4.169222e+004
5.750023e+002, 4.168039e+004
5.754844e+002, 4.165709e+004
5.759666e+002, 4.163927e+004
5.764487e+002, 4.162841e+004
5.769308e+002, 4.163335e+004
5.774129e+002, 4.167481e+004
5.778950e+002, 4.175313e+004
5.783771e+002, 4.179115e+004
5.788593e+002, 4.175855e+004
5.793414e+002, 4.171624e+004
5.798235e+002, 4.168036e+004
5.803056e+002, 4.165603e+004
5.807877e+002, 4.165473e+004
5.812698e+002, 4.167827e+004
5.817520e+002, 4.170765e+004
5.822341e+002, 4.171852e+004
5.827162e+002, 4.170879e+004
5.831984e+002, 4.170076e+004
5.836805e+002, 4.169959e+004
5.841626e+002, 4.169335e+004
5.846447e+002, 4.167338e+004
5.851268e+002, 4.164913e+004
5.856089e+002, 4.163463e+004
5.860911e+002, 4.163385e+004
5.865732e+002, 4.163095e+004
5.870553e+002, 4.160223e+004
5.875374e+002, 4.155823e+004
5.880195e+002, 4.154530e+004
5.885016e+002, 4.157357e+004
5.889838e+002, 4.160037e+004
5.894659e+002, 4.159845e+004
5.899480e+002, 4.157501e+004
5.904301e+002, 4.155435e+004
5.909122e+002, 4.153973e+004
5.913943e+002, 4.152165e+004
5.918765e+002, 4.148291e+004
5.923586e+002, 4.144789e+004
5.928407e+002, 4.144865e+004
5.933228e+002, 4.148401e+004
5.938049e+002, 4.152776e+004
5.942870e+002, 4.156348e+004
5.947692e+002, 4.158756e+004
5.952513e+002, 4.158048e+004
5.957334e+002, 4.151406e+004
5.962155e+002, 4.146653e+004
5.966976e+002, 4.145032e+004
5.971797e+002, 4.144946e+004
5.976619e+002, 4.145748e+004
5.981440e+002, 4.147143e+004
5.986261e+002, 4.148651e+004
5.991082e+002, 4.150124e+004
5.995903e+002, 4.151365e+004
6.000724e+002, 4.151895e+004
6.005546e+002, 4.151690e+004
6.010367e+002, 4.151494e+004
6.015188e+002, 4.151591e+004
6.020009e+002, 4.151655e+004
6.024830e+002, 4.151248e+004
6.029651e+002, 4.150376e+004
6.034473e+002, 4.149301e+004
6.039294e+002, 4.147995e+004
6.044115e+002, 4.146541e+004
6.048936e+002, 4.144710e+004
6.053757e+002, 4.142832e+004
6.058578e+002, 4.141741e+004
6.063400e+002, 4.141732e+004
6.068221e+002, 4.141923e+004
6.073042e+002, 4.141070e+004
6.077863e+002, 4.139095e+004
6.082684e+002, 4.136788e+004
6.087505e+002, 4.133196e+004
6.092327e+002, 4.130545e+004
6.097148e+002, 4.130458e+004
6.101969e+002, 4.131283e+004
6.106790e+002, 4.130651e+004
6.111611e+002, 4.127889e+004
6.116432e+002, 4.125245e+004
6.121254e+002, 4.125083e+004
6.126075e+002, 4.126606e+004
6.130896e+002, 4.127200e+004
6.135717e+002, 4.126528e+004
6.140538e+002, 4.125973e+004
6.145359e+002, 4.126675e+004
6.150181e+002, 4.127890e+004
6.155002e+002, 4.127328e+004
6.159823e+002, 4.123882e+004
6.164644e+002, 4.121265e+004
6.169465e+002, 4.120794e+004
6.174286e+002, 4.120989e+004
6.179108e+002, 4.120356e+004
6.183929e+002, 4.119125e+004
6.188750e+002, 4.118721e+004
6.193571e+002, 4.120129e+004
6.198392e+002, 4.122497e+004
6.203214e+002, 4.123575e+004
6.208035e+002, 4.123096e+004
6.212856e+002, 4.122197e+004
6.217677e+002, 4.120622e+004
6.222498e+002, 4.119045e+004
6.227319e+002, 4.117654e+004
6.232141e+002, 4.116570e+004
6.236962e+002, 4.116111e+004
6.241783e+002, 4.116795e+004
6.246604e+002, 4.117477e+004
6.251425e+002, 4.116647e+004
6.256246e+002, 4.114859e+004
6.261068e+002, 4.114132e+004
6.265889e+002, 4.114997e+004
6.270710e+002, 4.116121e+004
6.275531e+002, 4.116310e+004
6.280352e+002, 4.115594e+004
6.285173e+002, 4.114630e+004
6.289995e+002, 4.112864e+004
6.294816e+002, 4.111573e+004
6.299637e+002, 4.110911e+004
6.304458e+002, 4.110879e+004
6.309279e+002, 4.111692e+004
6.314100e+002, 4.113202e+004
6.318922e+002, 4.114765e+004
6.323743e+002, 4.115888e+004
6.328564e+002, 4.116605e+004
6.333385e+002, 4.117218e+004
6.338206e+002, 4.117918e+004
6.343027e+002, 4.117534e+004
6.347849e+002, 4.114680e+004
6.352670e+002, 4.111543e+004
6.357491e+002, 4.110310e+004
6.362312e+002, 4.110814e+004
6.367133e+002, 4.111400e+004
6.371954e+002, 4.111932e+004
6.376776e+002, 4.112042e+004
6.381597e+002, 4.111663e+004
6.386418e+002, 4.110641e+004
6.391239e+002, 4.108279e+004
6.396060e+002, 4.104379e+004
6.400881e+002, 4.100244e+004
6.405703e+002, 4.097524e+004
6.410524e+002, 4.096351e+004
6.415345e+002, 4.095449e+004
6.420166e+002, 4.095227e+004
6.424987e+002, 4.094871e+004
6.429808e+002, 4.094398e+004
6.434630e+002, 4.093643e+004
6.439451e+002, 4.092177e+004
6.444272e+002, 4.090048e+004
6.449093e+002, 4.088243e+004
6.453914e+002, 4.087807e+004
6.458735e+002, 4.088200e+004
6.463557e+002, 4.088129e+004
6.468378e+002, 4.087558e+004
6.473199e+002, 4.086800e+004
6.478020e+002, 4.085975e+004
6.482841e+002, 4.084997e+004
6.487662e+002, 4.083556e+004
6.492484e+002, 4.081401e+004
6.497305e+002, 4.080082e+004
6.502126e+002, 4.080451e+004
6.506947e+002, 4.080927e+004
6.511768e+002, 4.080425e+004
6.516589e+002, 4.079462e+004
6.521411e+002, 4.078872e+004
6.526232e+002, 4.078987e+004
6.531053e+002, 4.079939e+004
6.535874e+002, 4.082616e+004
6.540695e+002, 4.087064e+004
6.545516e+002, 4.088048e+004
6.550338e+002, 4.083613e+004
6.555159e+002, 4.079598e+004
6.559980e+002, 4.079078e+004
6.564801e+002, 4.080049e+004
6.569622e+002, 4.080541e+004
6.574443e+002, 4.080362e+004
6.579265e+002, 4.079795e+004
6.584086e+002, 4.078603e+004
6.588907e+002, 4.077330e+004
6.593728e+002, 4.076468e+004
6.598549e+002, 4.076057e+004
6.603370e+002, 4.076421e+004
6.608192e+002, 4.077815e+004
6.613013e+002, 4.079020e+004
6.617834e+002, 4.077798e+004
6.622655e+002, 4.073444e+004
6.627476e+002, 4.069279e+004
6.632297e+002, 4.063224e+004
6.637119e+002, 4.059702e+004
6.641940e+002, 4.062369e+004
6.646761e+002, 4.067419e+004
6.651582e+002, 4.069813e+004
6.656403e+002, 4.068225e+004
6.661224e+002, 4.065194e+004
6.666046e+002, 4.061968e+004
6.670867e+002, 4.059060e+004
6.675688e+002, 4.058110e+004
6.680509e+002, 4.059238e+004
6.685330e+002, 4.059970e+004
6.690151e+002, 4.059045e+004
6.694973e+002, 4.057063e+004
6.699794e+002, 4.055086e+004
6.704615e+002, 4.052820e+004
6.709436e+002, 4.051471e+004
6.714257e+002, 4.051478e+004
6.719078e+002, 4.051969e+004
6.723900e+002, 4.052858e+004
6.728721e+002, 4.053791e+004
6.733542e+002, 4.054098e+004
6.738363e+002, 4.053564e+004
6.743184e+002, 4.053044e+004
6.748005e+002, 4.053694e+004
6.752827e+002, 4.055373e+004
6.757648e+002, 4.056940e+004
6.762469e+002, 4.058628e+004
6.767290e+002, 4.059173e+004
6.772111e+002, 4.057585e+004
6.776932e+002, 4.054691e+004
6.781754e+002, 4.051730e+004
6.786575e+002, 4.048470e+004
6.791396e+002, 4.046430e+004
6.796217e+002, 4.047212e+004
6.801038e+002, 4.048259e+004
6.805859e+002, 4.047306e+004
6.810681e+002, 4.045122e+004
6.815502e+002, 4.043876e+004
6.820323e+002, 4.044401e+004
6.825144e+002, 4.045314e+004
6.829965e+002, 4.044369e+004
6.834786e+002, 4.041374e+004
6.839608e+002, 4.039978e+004
6.844429e+002, 4.041259e+004
6.849250e+002, 4.042183e+004
6.854071e+002, 4.040955e+004
6.858892e+002, 4.039020e+004
6.863713e+002, 4.037927e+004
6.868535e+002, 4.037843e+004
6.873356e+002, 4.037807e+004
6.878177e+002, 4.036937e+004
6.882998e+002, 4.036236e+004
6.887819e+002, 4.037164e+004
6.892640e+002, 4.039196e+004
6.897462e+002, 4.040677e+004
6.902283e+002, 4.040980e+004
6.907104e+002, 4.040086e+004
6.911925e+002, 4.037643e+004
6.916746e+002, 4.033236e+004
6.921567e+002, 4.031171e+004
6.926389e+002, 4.034434e+004
6.931210e+002, 4.035966e+004
6.936031e+002, 4.032086e+004
6.940852e+002, 4.026887e+004
6.945673e+002, 4.024599e+004
6.950494e+002, 4.025680e+004
6.955316e+002, 4.027553e+004
6.960137e+002, 4.029151e+004
6.964958e+002, 4.030412e+004
6.969779e+002, 4.031502e+004
6.974600e+002, 4.032252e+004
6.979421e+002, 4.031896e+004
6.984243e+002, 4.030171e+004
6.989064e+002, 4.027154e+004
6.993885e+002, 4.022484e+004
6.998706e+002, 4.015794e+004
7.003527e+002, 4.012323e+004
7.008348e+002, 4.015266e+004
7.013170e+002, 4.017581e+004
7.017991e+002, 4.016923e+004
7.022812e+002, 4.015860e+004
7.027633e+002, 4.017751e+004
7.032454e+002, 4.022240e+004
7.037275e+002, 4.024787e+004
7.042097e+002, 4.020893e+004
7.046918e+002, 4.014807e+004
7.051739e+002, 4.013530e+004
7.056560e+002, 4.016304e+004
7.061381e+002, 4.018325e+004
7.066202e+002, 4.018204e+004
7.071024e+002, 4.017346e+004
7.075845e+002, 4.017171e+004
7.080666e+002, 4.017641e+004
7.085487e+002, 4.017668e+004
7.090308e+002, 4.017043e+004
7.095129e+002, 4.016221e+004
7.099951e+002, 4.014541e+004
7.104772e+002, 4.013202e+004
7.109593e+002, 4.013827e+004
7.114414e+002, 4.015876e+004
7.119235e+002, 4.016929e+004
7.124056e+002, 4.015285e+004
7.128878e+002, 4.012507e+004
7.133699e+002, 4.010809e+004
7.138520e+002, 4.010130e+004
7.143341e+002, 4.010242e+004
7.148162e+002, 4.011274e+004
7.152983e+002, 4.012366e+004
7.157805e+002, 4.013235e+004
7.162626e+002, 4.013595e+004
7.167447e+002, 4.011649e+004
7.172268e+002, 4.004349e+004
7.177089e+002, 3.999324e+004
7.181910e+002, 3.998340e+004
7.186732e+002, 3.998850e+004
7.191553e+002, 3.999304e+004
7.196374e+002, 3.999684e+004
7.201195e+002, 4.000722e+004
7.206016e+002, 4.002928e+004
7.210837e+002, 4.004857e+004
7.215659e+002, 4.003964e+004
7.220480e+002, 4.000888e+004
7.225301e+002, 3.999626e+004
7.230122e+002, 4.000975e+004
7.234943e+002, 4.001332e+004
7.239764e+002, 3.997936e+004
7.244586e+002, 3.992539e+004
7.249407e+002, 3.989624e+004
7.254228e+002, 3.989924e+004
7.259049e+002, 3.990781e+004
7.263870e+002, 3.992581e+004
7.268691e+002, 3.994376e+004
7.273513e+002, 3.995882e+004
7.278334e+002, 3.996952e+004
7.283155e+002, 3.997426e+004
7.287976e+002, 3.997259e+004
7.292797e+002, 3.996512e+004
7.297618e+002, 3.994886e+004
7.302440e+002, 3.992738e+004
7.307261e+002, 3.991475e+004
7.312082e+002, 3.991208e+004
7.316903e+002, 3.990736e+004
7.321724e+002, 3.989361e+004
7.326545e+002, 3.987963e+004
7.331367e+002, 3.988224e+004
7.336188e+002, 3.990871e+004
7.341009e+002, 3.990771e+004
7.345830e+002, 3.984073e+004
7.350651e+002, 3.979245e+004
7.355472e+002, 3.980933e+004
7.360294e+002, 3.985018e+004
7.365115e+002, 3.986768e+004
7.369936e+002, 3.985514e+004
7.374757e+002, 3.983511e+004
7.379578e+002, 3.982165e+004
7.384399e+002, 3.981405e+004
7.389221e+002, 3.981073e+004
7.394042e+002, 3.981170e+004
7.398863e+002, 3.982058e+004
7.403684e+002, 3.984145e+004
7.408505e+002, 3.985724e+004
7.413326e+002, 3.984895e+004
7.418148e+002, 3.981941e+004
7.422969e+002, 3.980189e+004
7.427790e+002, 3.980966e+004
7.432611e+002, 3.981013e+004
7.437432e+002, 3.978930e+004
7.442253e+002, 3.976873e+004
7.447075e+002, 3.977171e+004
7.451896e+002, 3.978896e+004
7.456717e+002, 3.978923e+004
7.461538e+002, 3.975365e+004
7.466359e+002, 3.971457e+004
7.471180e+002, 3.971540e+004
7.476002e+002, 3.974551e+004
7.480823e+002, 3.976912e+004
7.485644e+002, 3.978258e+004
7.490465e+002, 3.978244e+004
7.495286e+002, 3.976456e+004
7.500107e+002, 3.973491e+004
7.504929e+002, 3.970713e+004
7.509750e+002, 3.968052e+004
7.514571e+002, 3.965752e+004
7.519392e+002, 3.963400e+004
7.524213e+002, 3.961835e+004
7.529034e+002, 3.961770e+004
7.533856e+002, 3.962505e+004
7.538677e+002, 3.963382e+004
7.543498e+002, 3.964179e+004
7.548319e+002, 3.964173e+004
7.553140e+002, 3.962318e+004
7.557961e+002, 3.959586e+004
7.562783e+002, 3.957262e+004
7.567604e+002, 3.955463e+004
7.572425e+002, 3.954554e+004
7.577246e+002, 3.954631e+004
7.582067e+002, 3.955970e+004
7.586888e+002, 3.959337e+004
7.591710e+002, 3.964696e+004
7.596531e+002, 3.966895e+004
7.601352e+002, 3.963175e+004
7.606173e+002, 3.960418e+004
7.610994e+002, 3.959882e+004
7.615815e+002, 3.960338e+004
7.620637e+002, 3.961080e+004
7.625458e+002, 3.962009e+004
7.630279e+002, 3.963265e+004
7.635100e+002, 3.965648e+004
7.639921e+002, 3.966969e+004
7.644742e+002, 3.964505e+004
7.649564e+002, 3.960055e+004
7.654385e+002, 3.956790e+004
7.659206e+002, 3.955097e+004
7.664027e+002, 3.954211e+004
7.668848e+002, 3.953707e+004
7.673669e+002, 3.953489e+004
7.678491e+002, 3.953441e+004
7.683312e+002, 3.953843e+004
7.688133e+002, 3.953425e+004
7.692954e+002, 3.952177e+004
7.697775e+002, 3.950083e+004
7.702596e+002, 3.945841e+004
7.707418e+002, 3.941375e+004
7.712239e+002, 3.939437e+004
7.717060e+002, 3.940488e+004
7.721881e+002, 3.941948e+004
7.726702e+002, 3.943062e+004
7.731523e+002, 3.943986e+004
7.736345e+002, 3.945091e+004
7.741166e+002, 3.946037e+004
7.745987e+002, 3.946022e+004
7.750808e+002, 3.944891e+004
7.755629e+002, 3.943391e+004
7.760450e+002, 3.942195e+004
7.765272e+002, 3.941305e+004
7.770093e+002, 3.940746e+004
7.774914e+002, 3.940558e+004
7.779735e+002, 3.940570e+004
7.784556e+002, 3.940953e+004
7.789377e+002, 3.941224e+004
7.794199e+002, 3.940823e+004
7.799020e+002, 3.939910e+004
7.803841e+002, 3.939271e+004
7.808662e+002, 3.938944e+004
7.813483e+002, 3.938851e+004
7.818304e+002, 3.939280e+004
7.823126e+002, 3.939645e+004
7.827947e+002, 3.939362e+004
7.832768e+002, 3.938578e+004
7.837589e+002, 3.937615e+004
7.842410e+002, 3.936571e+004
7.847231e+002, 3.936086e+004
7.852053e+002, 3.937666e+004
7.856874e+002, 3.940509e+004
7.861695e+002, 3.941033e+004
7.866516e+002, 3.938944e+004
7.871337e+002, 3.937460e+004
7.876158e+002, 3.938250e+004
7.880980e+002, 3.939793e+004
7.885801e+002, 3.939729e+004
7.890622e+002, 3.937767e+004
7.895443e+002, 3.936243e+004
7.900264e+002, 3.935319e+004
7.905085e+002, 3.934657e+004
7.909907e+002, 3.933985e+004
7.914728e+002, 3.933706e+004
7.919549e+002, 3.934585e+004
7.924370e+002, 3.936322e+004
7.929191e+002, 3.937461e+004
7.934012e+002, 3.937126e+004
7.938834e+002, 3.936103e+004
7.943655e+002, 3.934754e+004
7.948476e+002, 3.933363e+004
7.953297e+002, 3.932823e+004
7.958118e+002, 3.933100e+004
7.962939e+002, 3.932845e+004
7.967761e+002, 3.931084e+004
7.972582e+002, 3.928586e+004
7.977403e+002, 3.927389e+004
7.982224e+002, 3.927976e+004
7.987045e+002, 3.927734e+004
7.991866e+002, 3.926377e+004
7.996688e+002, 3.924591e+004
8.001509e+002, 3.921755e+004
8.006330e+002, 3.919182e+004
8.011151e+002, 3.918576e+004
8.015972e+002, 3.920150e+004
8.020793e+002, 3.922571e+004
8.025615e+002, 3.926743e+004
8.030436e+002, 3.930398e+004
8.035257e+002, 3.931911e+004
8.040078e+002, 3.932127e+004
8.044899e+002, 3.932259e+004
8.049720e+002, 3.932558e+004
8.054542e+002, 3.932609e+004
8.059363e+002, 3.932009e+004
8.064184e+002, 3.931057e+004
8.069005e+002, 3.930396e+004
8.073826e+002, 3.929996e+004
8.078647e+002, 3.929803e+004
8.083469e+002, 3.929879e+004
8.088290e+002, 3.929629e+004
8.093111e+002, 3.928407e+004
8.097932e+002, 3.926688e+004
8.102753e+002, 3.926029e+004
8.107574e+002, 3.927325e+004
8.112396e+002, 3.927827e+004
8.117217e+002, 3.926784e+004
8.122038e+002, 3.925832e+004
8.126859e+002, 3.926280e+004
8.131680e+002, 3.926980e+004
8.136501e+002, 3.926115e+004
8.141323e+002, 3.923438e+004
8.146144e+002, 3.920892e+004
8.150965e+002, 3.919535e+004
8.155786e+002, 3.919055e+004
8.160607e+002, 3.919712e+004
8.165428e+002, 3.920884e+004
8.170250e+002, 3.920832e+004
8.175071e+002, 3.919213e+004
8.179892e+002, 3.917055e+004
8.184713e+002, 3.915050e+004
8.189534e+002, 3.913464e+004
8.194355e+002, 3.913593e+004
8.199177e+002, 3.916007e+004
8.203998e+002, 3.917373e+004
8.208819e+002, 3.917057e+004
8.213640e+002, 3.916098e+004
8.218461e+002, 3.914791e+004
8.223282e+002, 3.913385e+004
8.228104e+002, 3.912315e+004
8.232925e+002, 3.911574e+004
8.237746e+002, 3.911356e+004
8.242567e+002, 3.912782e+004
8.247388e+002, 3.913673e+004
8.252209e+002, 3.912522e+004
8.257031e+002, 3.910208e+004
8.261852e+002, 3.907763e+004
8.266673e+002, 3.905577e+004
8.271494e+002, 3.904064e+004
8.276315e+002, 3.903872e+004
8.281136e+002, 3.904185e+004
8.285958e+002, 3.903520e+004
8.290779e+002, 3.902070e+004
8.295600e+002, 3.900698e+004
8.300421e+002, 3.899546e+004
8.305242e+002, 3.898818e+004
8.310063e+002, 3.898650e+004
8.314885e+002, 3.898995e+004
8.319706e+002, 3.899827e+004
8.324527e+002, 3.901511e+004
8.329348e+002, 3.902626e+004
8.334169e+002, 3.902767e+004
8.338990e+002, 3.902796e+004
8.343812e+002, 3.902421e+004
8.348633e+002, 3.902461e+004
8.353454e+002, 3.904424e+004
8.358275e+002, 3.908507e+004
8.363096e+002, 3.911527e+004
8.367917e+002, 3.912089e+004
8.372739e+002, 3.911670e+004
8.377560e+002, 3.911008e+004
8.382381e+002, 3.910037e+004
8.387202e+002, 3.908410e+004
8.392023e+002, 3.906250e+004
8.396844e+002, 3.904270e+004
8.401666e+002, 3.902975e+004
8.406487e+002, 3.902046e+004
8.411308e+002, 3.900717e+004
8.416129e+002, 3.899168e+004
8.420950e+002, 3.898987e+004
8.425771e+002, 3.900480e+004
8.430593e+002, 3.901431e+004
8.435414e+002, 3.900450e+004
8.440235e+002, 3.898663e+004
8.445056e+002, 3.898354e+004
8.449877e+002, 3.900268e+004
8.454698e+002, 3.899938e+004
8.459520e+002, 3.895350e+004
8.464341e+002, 3.891180e+004
8.469162e+002, 3.888216e+004
8.473983e+002, 3.886324e+004
8.478804e+002, 3.885596e+004
8.483625e+002, 3.885886e+004
8.488447e+002, 3.886530e+004
8.493268e+002, 3.887750e+004
8.498089e+002, 3.888601e+004
8.502910e+002, 3.887870e+004
8.507731e+002, 3.886925e+004
8.512552e+002, 3.887779e+004
8.517374e+002, 3.889940e+004
8.522195e+002, 3.891345e+004
8.527016e+002, 3.891034e+004
8.531837e+002, 3.889899e+004
8.536658e+002, 3.889270e+004
8.541479e+002, 3.888836e+004
8.546301e+002, 3.886723e+004
8.551122e+002, 3.882868e+004
8.555943e+002, 3.879902e+004
8.560764e+002, 3.878845e+004
8.565585e+002, 3.878556e+004
8.570406e+002, 3.877882e+004
8.575228e+002, 3.876868e+004
8.580049e+002, 3.875852e+004
8.584870e+002, 3.873973e+004
8.589691e+002, 3.873657e+004
8.594512e+002, 3.877066e+004
8.599333e+002, 3.880109e+004
8.604155e+002, 3.880569e+004
8.608976e+002, 3.879204e+004
8.613797e+002, 3.877473e+004
8.618618e+002, 3.875592e+004
8.623439e+002, 3.873657e+004
8.628260e+002, 3.871705e+004
8.633082e+002, 3.869717e+004
8.637903e+002, 3.867523e+004
8.642724e+002, 3.865338e+004
8.647545e+002, 3.863188e+004
8.652366e+002, 3.861273e+004
8.657188e+002, 3.860637e+004
8.662009e+002, 3.862495e+004
8.666830e+002, 3.865339e+004
8.671651e+002, 3.866185e+004
8.676472e+002, 3.865295e+004
8.681293e+002, 3.864332e+004
8.686115e+002, 3.863509e+004
8.690936e+002, 3.862738e+004
8.695757e+002, 3.861858e+004
8.700578e+002, 3.861259e+004
8.705399e+002, 3.861943e+004
8.710220e+002, 3.864439e+004
8.715042e+002, 3.865547e+004
8.719863e+002, 3.865002e+004
8.724684e+002, 3.863520e+004
8.729505e+002, 3.860063e+004
8.734326e+002, 3.856729e+004
8.739147e+002, 3.855700e+004
8.743969e+002, 3.856677e+004
8.748790e+002, 3.857339e+004
8.753611e+002, 3.857871e+004
8.758432e+002, 3.857233e+004
8.763253e+002, 3.854018e+004
8.768074e+002, 3.850400e+004
8.772896e+002, 3.848159e+004
8.777717e+002, 3.847130e+004
8.782538e+002, 3.846270e+004
8.787359e+002, 3.845201e+004
8.792180e+002, 3.845197e+004
8.797001e+002, 3.848646e+004
8.801823e+002, 3.853315e+004
8.806644e+002, 3.854708e+004
8.811465e+002, 3.853454e+004
8.816286e+002, 3.852646e+004
8.821107e+002, 3.853074e+004
8.825928e+002, 3.853589e+004
8.830750e+002, 3.853206e+004
8.835571e+002, 3.852068e+004
8.840392e+002, 3.850709e+004
8.845213e+002, 3.849148e+004
8.850034e+002, 3.847159e+004
8.854855e+002, 3.844558e+004
8.859677e+002, 3.841871e+004
8.864498e+002, 3.838785e+004
8.869319e+002, 3.836260e+004
8.874140e+002, 3.836724e+004
8.878961e+002, 3.841187e+004
8.883782e+002, 3.842046e+004
8.888604e+002, 3.834893e+004
8.893425e+002, 3.829634e+004
8.898246e+002, 3.830104e+004
8.903067e+002, 3.832730e+004
8.907888e+002, 3.835795e+004
8.912709e+002, 3.838163e+004
8.917531e+002, 3.837291e+004
8.922352e+002, 3.831364e+004
8.927173e+002, 3.825135e+004
8.931994e+002, 3.821243e+004
8.936815e+002, 3.819249e+004
8.941636e+002, 3.819411e+004
8.946458e+002, 3.820926e+004
8.951279e+002, 3.821695e+004
8.956100e+002, 3.821167e+004
8.960921e+002, 3.821235e+004
8.965742e+002, 3.824364e+004
8.970563e+002, 3.828754e+004
8.975385e+002, 3.829352e+004
8.980206e+002, 3.826397e+004
8.985027e+002, 3.822983e+004
8.989848e+002, 3.819511e+004
8.994669e+002, 3.816820e+004
8.999490e+002, 3.815400e+004
9.004312e+002, 3.815159e+004
9.009133e+002, 3.815951e+004
9.013954e+002, 3.817966e+004
9.018775e+002, 3.820271e+004
9.023596e+002, 3.824196e+004
9.028417e+002, 3.826143e+004
9.033239e+002, 3.823325e+004
9.038060e+002, 3.819421e+004
9.042881e+002, 3.818110e+004
9.047702e+002, 3.818968e+004
9.052523e+002, 3.819108e+004
9.057344e+002, 3.817963e+004
9.062166e+002, 3.816427e+004
9.066987e+002, 3.814154e+004
9.071808e+002, 3.812105e+004
9.076629e+002, 3.811158e+004
9.081450e+002, 3.810886e+004
9.086271e+002, 3.810489e+004
9.091093e+002, 3.809753e+004
9.095914e+002, 3.808823e+004
9.100735e+002, 3.807566e+004
9.105556e+002, 3.806365e+004
9.110377e+002, 3.806299e+004
9.115198e+002, 3.806404e+004
9.120020e+002, 3.804018e+004
9.124841e+002, 3.799267e+004
9.129662e+002, 3.795364e+004
9.134483e+002, 3.794318e+004
9.139304e+002, 3.795306e+004
9.144125e+002, 3.797668e+004
9.148947e+002, 3.801060e+004
9.153768e+002, 3.802561e+004
9.158589e+002, 3.802005e+004
9.163410e+002, 3.800707e+004
9.168231e+002, 3.799002e+004
9.173052e+002, 3.797406e+004
9.177874e+002, 3.796758e+004
9.182695e+002, 3.796789e+004
9.187516e+002, 3.794489e+004
9.192337e+002, 3.787584e+004
9.197158e+002, 3.783923e+004
9.201979e+002, 3.786276e+004
9.206801e+002, 3.789377e+004
9.211622e+002, 3.790359e+004
9.216443e+002, 3.790235e+004
9.221264e+002, 3.790739e+004
9.226085e+002, 3.792141e+004
9.230906e+002, 3.792466e+004
9.235728e+002, 3.789236e+004
9.240549e+002, 3.787591e+004
9.245370e+002, 3.791485e+004
9.250191e+002, 3.796230e+004
9.255012e+002, 3.797179e+004
9.259833e+002, 3.794848e+004
9.264655e+002, 3.792212e+004
9.269476e+002, 3.790032e+004
9.274297e+002, 3.789082e+004
9.279118e+002, 3.790411e+004
9.283939e+002, 3.792813e+004
9.288760e+002, 3.796104e+004
9.293582e+002, 3.799084e+004
9.298403e+002, 3.798920e+004
9.303224e+002, 3.795218e+004
9.308045e+002, 3.790688e+004
9.312866e+002, 3.787224e+004
9.317687e+002, 3.784871e+004
9.322509e+002, 3.784163e+004
9.327330e+002, 3.784744e+004
9.332151e+002, 3.785046e+004
9.336972e+002, 3.784900e+004
9.341793e+002, 3.784245e+004
9.346614e+002, 3.783046e+004
9.351436e+002, 3.781489e+004
9.356257e+002, 3.779831e+004
9.361078e+002, 3.778079e+004
9.365899e+002, 3.775888e+004
9.370720e+002, 3.772830e+004
9.375541e+002, 3.771223e+004
9.380363e+002, 3.772085e+004
9.385184e+002, 3.773313e+004
9.390005e+002, 3.773554e+004
9.394826e+002, 3.772902e+004
9.399647e+002, 3.771587e+004
9.404468e+002, 3.769153e+004
9.409290e+002, 3.767211e+004
9.414111e+002, 3.765380e+004
9.418932e+002, 3.764443e+004
9.423753e+002, 3.764955e+004
9.428574e+002, 3.766194e+004
9.433395e+002, 3.767789e+004
9.438217e+002, 3.769564e+004
9.443038e+002, 3.770927e+004
9.447859e+002, 3.771963e+004
9.452680e+002, 3.772188e+004
9.457501e+002, 3.770855e+004
9.462322e+002, 3.769238e+004
9.467144e+002, 3.768250e+004
9.471965e+002, 3.767701e+004
9.476786e+002, 3.767402e+004
9.481607e+002, 3.767173e+004
9.486428e+002, 3.766121e+004
9.491249e+002, 3.762745e+004
9.496071e+002, 3.759509e+004
9.500892e+002, 3.759159e+004
9.505713e+002, 3.760564e+004
9.510534e+002, 3.762327e+004
9.515355e+002, 3.763985e+004
9.520176e+002, 3.764809e+004
9.524998e+002, 3.764480e+004
9.529819e+002, 3.763604e+004
9.534640e+002, 3.762879e+004
9.539461e+002, 3.762159e+004
9.544282e+002, 3.760515e+004
9.549103e+002, 3.758223e+004
9.553925e+002, 3.757602e+004
9.558746e+002, 3.759132e+004
9.563567e+002, 3.761979e+004
9.568388e+002, 3.765957e+004
9.573209e+002, 3.769457e+004
9.578030e+002, 3.768475e+004
9.582852e+002, 3.762482e+004
9.587673e+002, 3.758007e+004
9.592494e+002, 3.755221e+004
9.597315e+002, 3.753452e+004
9.602136e+002, 3.752919e+004
9.606957e+002, 3.752405e+004
9.611779e+002, 3.750361e+004
9.616600e+002, 3.747380e+004
9.621421e+002, 3.746752e+004
9.626242e+002, 3.750814e+004
9.631063e+002, 3.752612e+004
9.635884e+002, 3.750185e+004
9.640706e+002, 3.747910e+004
9.645527e+002, 3.747863e+004
9.650348e+002, 3.748485e+004
9.655169e+002, 3.747725e+004
9.659990e+002, 3.745698e+004
9.664811e+002, 3.744861e+004
9.669633e+002, 3.746430e+004
9.674454e+002, 3.747946e+004
9.679275e+002, 3.749167e+004
9.684096e+002, 3.749835e+004
9.688917e+002, 3.749868e+004
9.693738e+002, 3.749192e+004
9.698560e+002, 3.747482e+004
9.703381e+002, 3.744718e+004
9.708202e+002, 3.742134e+004
9.713023e+002, 3.740688e+004
9.717844e+002, 3.739191e+004
9.722665e+002, 3.735729e+004
9.727487e+002, 3.732573e+004
9.732308e+002, 3.733727e+004
9.737129e+002, 3.737623e+004
9.741950e+002, 3.738711e+004
9.746771e+002, 3.734866e+004
9.751592e+002, 3.730801e+004
9.756414e+002, 3.730998e+004
9.761235e+002, 3.733268e+004
9.766056e+002, 3.734963e+004
9.770877e+002, 3.736101e+004
9.775698e+002, 3.736639e+004
9.780519e+002, 3.736718e+004
9.785341e+002, 3.737075e+004
9.790162e+002, 3.738180e+004
9.794983e+002, 3.739394e+004
9.799804e+002, 3.740021e+004
9.804625e+002, 3.739968e+004
9.809446e+002, 3.738571e+004
9.814268e+002, 3.735974e+004
9.819089e+002, 3.733604e+004
9.823910e+002, 3.731848e+004
9.828731e+002, 3.730180e+004
9.833552e+002, 3.728080e+004
9.838373e+002, 3.726137e+004
9.843195e+002, 3.726150e+004
9.848016e+002, 3.728256e+004
9.852837e+002, 3.729294e+004
9.857658e+002, 3.729057e+004
9.862479e+002, 3.728371e+004
9.867300e+002, 3.727526e+004
9.872122e+002, 3.726225e+004
9.876943e+002, 3.723964e+004
9.881764e+002, 3.721023e+004
9.886585e+002, 3.718930e+004
9.891406e+002, 3.717675e+004
9.896227e+002, 3.717234e+004
9.901049e+002, 3.717468e+004
9.905870e+002, 3.718843e+004
9.910691e+002, 3.722601e+004
9.915512e+002, 3.726586e+004
9.920333e+002, 3.728185e+004
9.925154e+002, 3.727448e+004
9.929976e+002, 3.726245e+004
9.934797e+002, 3.724344e+004
9.939618e+002, 3.722349e+004
9.944439e+002, 3.719784e+004
9.949260e+002, 3.717702e+004
9.954081e+002, 3.716818e+004
9.958903e+002, 3.716596e+004
9.963724e+002, 3.716502e+004
9.968545e+002, 3.716467e+004
9.973366e+002, 3.715838e+004
9.978187e+002, 3.713215e+004
9.983008e+002, 3.711716e+004
9.987830e+002, 3.713080e+004
9.992651e+002, 3.715009e+004
9.997472e+002, 3.716280e+004
1.000229e+003, 3.716745e+004
1.000711e+003, 3.716428e+004
1.001194e+003, 3.715334e+004
1.001676e+003, 3.713409e+004
1.002158e+003, 3.709106e+004
1.002640e+003, 3.705802e+004
1.003122e+003, 3.707136e+004
1.003604e+003, 3.709147e+004
1.004086e+003, 3.706846e+004
1.004568e+003, 3.701850e+004
1.005050e+003, 3.699006e+004
1.005533e+003, 3.699818e+004
1.006015e+003, 3.701330e+004
1.006497e+003, 3.702030e+004
1.006979e+003, 3.701972e+004
1.007461e+003, 3.700846e+004
1.007943e+003, 3.699191e+004
1.008425e+003, 3.697435e+004
1.008907e+003, 3.695953e+004
1.009390e+003, 3.695619e+004
1.009872e+003, 3.696791e+004
1.010354e+003, 3.698784e+004
1.010836e+003, 3.701684e+004
1.011318e+003, 3.704461e+004
1.011800e+003, 3.705357e+004
1.012282e+003, 3.704779e+004
1.012764e+003, 3.703113e+004
1.013246e+003, 3.700885e+004
1.013729e+003, 3.700454e+004
1.014211e+003, 3.703135e+004
1.014693e+003, 3.705871e+004
1.015175e+003, 3.704313e+004
1.015657e+003, 3.699750e+004
1.016139e+003, 3.695435e+004
1.016621e+003, 3.691529e+004
1.017103e+003, 3.688840e+004
1.017586e+003, 3.687513e+004
1.018068e+003, 3.687268e+004
1.018550e+003, 3.688029e+004
1.019032e+003, 3.689000e+004
1.019514e+003, 3.688683e+004
1.019996e+003, 3.687323e+004
1.020478e+003, 3.686562e+004
1.020960e+003, 3.686400e+004
1.021442e+003, 3.686873e+004
1.021925e+003, 3.688060e+004
1.022407e+003, 3.688637e+004
1.022889e+003, 3.687606e+004
1.023371e+003, 3.685660e+004
1.023853e+003, 3.684051e+004
1.024335e+003, 3.682764e+004
1.024817e+003, 3.682148e+004
1.025299e+003, 3.682261e+004
1.025781e+003, 3.682360e+004
1.026264e+003, 3.682157e+004
1.026746e+003, 3.682432e+004
1.027228e+003, 3.684128e+004
1.027710e+003, 3.685991e+004
1.028192e+003, 3.684556e+004
1.028674e+003, 3.679012e+004
1.029156e+003, 3.676963e+004
1.029638e+003, 3.679757e+004
1.030120e+003, 3.681412e+004
1.030603e+003, 3.679948e+004
1.031085e+003, 3.677973e+004
1.031567e+003, 3.677171e+004
1.032049e+003, 3.677668e+004
1.032531e+003, 3.680099e+004
1.033013e+003, 3.685388e+004
1.033495e+003, 3.688631e+004
1.033977e+003, 3.690233e+004
1.034460e+003, 3.688761e+004
1.034942e+003, 3.681688e+004
1.035424e+003, 3.674612e+004
1.035906e+003, 3.672504e+004
1.036388e+003, 3.673544e+004
1.036870e+003, 3.672260e+004
1.037352e+003, 3.667243e+004
1.037834e+003, 3.664934e+004
1.038317e+003, 3.667742e+004
1.038799e+003, 3.669555e+004
1.039281e+003, 3.667384e+004
1.039763e+003, 3.665361e+004
1.040245e+003, 3.667837e+004
1.040727e+003, 3.672739e+004
1.041209e+003, 3.673939e+004
1.041691e+003, 3.669855e+004
1.042173e+003, 3.667072e+004
1.042656e+003, 3.667663e+004
1.043138e+003, 3.666865e+004
1.043620e+003, 3.661261e+004
1.044102e+003, 3.655910e+004
1.044584e+003, 3.655534e+004
1.045066e+003, 3.658215e+004
1.045548e+003, 3.658711e+004
1.046030e+003, 3.655818e+004
1.046512e+003, 3.654163e+004
1.046995e+003, 3.655307e+004
1.047477e+003, 3.656337e+004
1.047959e+003, 3.656213e+004
1.048441e+003, 3.655818e+004
1.048923e+003, 3.655898e+004
1.049405e+003, 3.656264e+004
1.049887e+003, 3.656246e+004
1.050369e+003, 3.655551e+004
1.050852e+003, 3.655677e+004
1.051334e+003, 3.658320e+004
1.051816e+003, 3.660000e+004
1.052298e+003, 3.658871e+004
1.052780e+003, 3.656918e+004
1.053262e+003, 3.655704e+004
1.053744e+003, 3.654968e+004
1.054226e+003, 3.653695e+004
1.054708e+003, 3.651564e+004
1.055191e+003, 3.650194e+004
1.055673e+003, 3.650429e+004
1.056155e+003, 3.650950e+004
1.056637e+003, 3.651271e+004
1.057119e+003, 3.651637e+004
1.057601e+003, 3.652676e+004
1.058083e+003, 3.653791e+004
1.058565e+003, 3.653655e+004
1.059047e+003, 3.651962e+004
1.059530e+003, 3.650138e+004
1.060012e+003, 3.648813e+004
1.060494e+003, 3.647257e+004
1.060976e+003, 3.644325e+004
1.061458e+003, 3.641829e+004
1.061940e+003, 3.641846e+004
1.062422e+003, 3.643223e+004
1.062904e+003, 3.643521e+004
1.063387e+003, 3.642287e+004
1.063869e+003, 3.641082e+004
1.064351e+003, 3.641093e+004
1.064833e+003, 3.640488e+004
1.065315e+003, 3.637500e+004
1.065797e+003, 3.634467e+004
1.066279e+003, 3.633774e+004
1.066761e+003, 3.634317e+004
1.067244e+003, 3.633574e+004
1.067726e+003, 3.631256e+004
1.068208e+003, 3.630273e+004
1.068690e+003, 3.634438e+004
1.069172e+003, 3.636638e+004
1.069654e+003, 3.631431e+004
1.070136e+003, 3.625084e+004
1.070618e+003, 3.622265e+004
1.071100e+003, 3.622059e+004
1.071583e+003, 3.622677e+004
1.072065e+003, 3.623698e+004
1.072547e+003, 3.625037e+004
1.073029e+003, 3.627330e+004
1.073511e+003, 3.628746e+004
1.073993e+003, 3.627760e+004
1.074475e+003, 3.626204e+004
1.074957e+003, 3.625478e+004
1.075439e+003, 3.625125e+004
1.075922e+003, 3.624313e+004
1.076404e+003, 3.622989e+004
1.076886e+003, 3.621625e+004
1.077368e+003, 3.620024e+004
1.077850e+003, 3.619260e+004
1.078332e+003, 3.620814e+004
1.078814e+003, 3.622345e+004
1.079297e+003, 3.622255e+004
1.079779e+003, 3.621032e+004
1.080261e+003, 3.618753e+004
1.080743e+003, 3.616016e+004
1.081225e+003, 3.614943e+004
1.081707e+003, 3.616756e+004
1.082189e+003, 3.618512e+004
1.082671e+003, 3.618893e+004
1.083153e+003, 3.618750e+004
1.083635e+003, 3.618086e+004
1.084118e+003, 3.617595e+004
1.084600e+003, 3.618655e+004
1.085082e+003, 3.620571e+004
1.085564e+003, 3.620825e+004
1.086046e+003, 3.618445e+004
1.086528e+003, 3.615885e+004
1.087010e+003, 3.613990e+004
1.087492e+003, 3.612458e+004
1.087975e+003, 3.610985e+004
1.088457e+003, 3.609914e+004
1.088939e+003, 3.610125e+004
1.089421e+003, 3.610916e+004
1.089903e+003, 3.610412e+004
1.090385e+003, 3.608073e+004
1.090867e+003, 3.606028e+004
1.091349e+003, 3.606309e+004
1.091832e+003, 3.605493e+004
1.092314e+003, 3.600524e+004
1.092796e+003, 3.595151e+004
1.093278e+003, 3.592169e+004
1.093760e+003, 3.591368e+004
1.094242e+003, 3.592551e+004
1.094724e+003, 3.595582e+004
1.095206e+003, 3.596927e+004
1.095688e+003, 3.593041e+004
1.096171e+003, 3.590613e+004
1.096653e+003, 3.593794e+004
1.097135e+003, 3.597322e+004
1.097617e+003, 3.597177e+004
1.098099e+003, 3.595217e+004
1.098581e+003, 3.594786e+004
1.099063e+003, 3.595982e+004
1.099545e+003, 3.595671e+004
1.100027e+003, 3.591268e+004
1.100510e+003, 3.588382e+004
1.100992e+003, 3.590264e+004
1.101474e+003, 3.591907e+004
1.101956e+003, 3.590070e+004
1.102438e+003, 3.586888e+004
1.102920e+003, 3.584230e+004
1.103402e+003, 3.582545e+004
1.103884e+003, 3.583048e+004
1.104367e+003, 3.587310e+004
1.104849e+003, 3.590278e+004
1.105331e+003, 3.590352e+004
1.105813e+003, 3.589889e+004
1.106295e+003, 3.589311e+004
1.106777e+003, 3.588988e+004
1.107259e+003, 3.589757e+004
1.107741e+003, 3.590973e+004
1.108224e+003, 3.590762e+004
1.108706e+003, 3.588755e+004
1.109188e+003, 3.586241e+004
1.109670e+003, 3.582149e+004
1.110152e+003, 3.579213e+004
1.110634e+003, 3.578486e+004
1.111116e+003, 3.578673e+004
1.111598e+003, 3.579877e+004
1.112080e+003, 3.581036e+004
1.112563e+003, 3.579984e+004
1.113045e+003, 3.576459e+004
1.113527e+003, 3.572940e+004
1.114009e+003, 3.567720e+004
1.114491e+003, 3.565375e+004
1.114973e+003, 3.569331e+004
1.115455e+003, 3.572221e+004
1.115937e+003, 3.568879e+004
1.116419e+003, 3.564124e+004
1.116902e+003, 3.564739e+004
1.117384e+003, 3.570135e+004
1.117866e+003, 3.573030e+004
1.118348e+003, 3.572114e+004
1.118830e+003, 3.571764e+004
1.119312e+003, 3.572359e+004
1.119794e+003, 3.573086e+004
1.120276e+003, 3.574046e+004
1.120759e+003, 3.574340e+004
1.121241e+003, 3.572808e+004
1.121723e+003, 3.570057e+004
1.122205e+003, 3.568306e+004
1.122687e+003, 3.567780e+004
1.123169e+003, 3.567003e+004
1.123651e+003, 3.565734e+004
1.124133e+003, 3.564887e+004
1.124615e+003, 3.564604e+004
1.125098e+003, 3.565002e+004
1.125580e+003, 3.566207e+004
1.126062e+003, 3.568121e+004
1.126544e+003, 3.570920e+004
1.127026e+003, 3.574530e+004
1.127508e+003, 3.574966e+004
1.127990e+003, 3.571799e+004
1.128472e+003, 3.569194e+004
1.128954e+003, 3.567815e+004
1.129437e+003, 3.566713e+004
1.129919e+003, 3.565361e+004
1.130401e+003, 3.564360e+004
1.130883e+003, 3.564435e+004
1.131365e+003, 3.565473e+004
1.131847e+003, 3.567452e+004
1.132329e+003, 3.570245e+004
1.132811e+003, 3.571433e+004
1.133294e+003, 3.570841e+004
1.133776e+003, 3.568932e+004
1.134258e+003, 3.565850e+004
1.134740e+003, 3.563414e+004
1.135222e+003, 3.563230e+004
1.135704e+003, 3.564298e+004
1.136186e+003, 3.564766e+004
1.136668e+003, 3.564804e+004
1.137151e+003, 3.565255e+004
1.137633e+003, 3.565929e+004
1.138115e+003, 3.565457e+004
1.138597e+003, 3.563776e+004
1.139079e+003, 3.562590e+004
1.139561e+003, 3.562870e+004
1.140043e+003, 3.563415e+004
1.140525e+003, 3.562855e+004
1.141007e+003, 3.561516e+004
1.141490e+003, 3.559179e+004
1.141972e+003, 3.556850e+004
1.142454e+003, 3.557368e+004
1.142936e+003, 3.560160e+004
1.143418e+003, 3.562393e+004
1.143900e+003, 3.563026e+004
1.144382e+003, 3.562366e+004
1.144864e+003, 3.559806e+004
1.145346e+003, 3.557694e+004
1.145829e+003, 3.559550e+004
1.146311e+003, 3.562541e+004
1.146793e+003, 3.563035e+004
1.147275e+003, 3.561823e+004
1.147757e+003, 3.560820e+004
1.148239e+003, 3.560372e+004
1.148721e+003, 3.559948e+004
1.149203e+003, 3.559361e+004
1.149686e+003, 3.558681e+004
1.150168e+003, 3.557777e+004
1.150650e+003, 3.557067e+004
1.151132e+003, 3.557292e+004
1.151614e+003, 3.557571e+004
1.152096e+003, 3.556804e+004
1.152578e+003, 3.555260e+004
1.153060e+003, 3.553525e+004
1.153542e+003, 3.551691e+004
1.154025e+003, 3.551155e+004
1.154507e+003, 3.553651e+004
1.154989e+003, 3.555734e+004
1.155471e+003, 3.555450e+004
1.155953e+003, 3.555111e+004
1.156435e+003, 3.556986e+004
1.156917e+003, 3.559238e+004
1.157399e+003, 3.558419e+004
1.157881e+003, 3.554934e+004
1.158364e+003, 3.554336e+004
1.158846e+003, 3.559815e+004
1.159328e+003, 3.563095e+004
1.159810e+003, 3.562698e+004
1.160292e+003, 3.561312e+004
1.160774e+003, 3.558797e+004
1.161256e+003, 3.556634e+004
1.161738e+003, 3.556629e+004
1.162221e+003, 3.557523e+004
1.162703e+003, 3.556030e+004
1.163185e+003, 3.551695e+004
1.163667e+003, 3.548873e+004
1.164149e+003, 3.547757e+004
1.164631e+003, 3.547747e+004
1.165113e+003, 3.549020e+004
1.165595e+003, 3.550813e+004
1.166078e+003, 3.553140e+004
1.166560e+003, 3.554777e+004
1.167042e+003, 3.554012e+004
1.167524e+003, 3.551424e+004
1.168006e+003, 3.549566e+004
1.168488e+003, 3.548404e+004
1.168970e+003, 3.548990e+004
1.169452e+003, 3.551461e+004
1.169934e+003, 3.552445e+004
1.170417e+003, 3.550936e+004
1.170899e+003, 3.549102e+004
1.171381e+003, 3.548469e+004
1.171863e+003, 3.548820e+004
1.172345e+003, 3.550225e+004
1.172827e+003, 3.552213e+004
1.173309e+003, 3.553445e+004
1.173791e+003, 3.553724e+004
1.174273e+003, 3.551448e+004
1.174756e+003, 3.547187e+004
1.175238e+003, 3.544711e+004
1.175720e+003, 3.545438e+004
1.176202e+003, 3.547353e+004
1.176684e+003, 3.549160e+004
1.177166e+003, 3.550392e+004
1.177648e+003, 3.550773e+004
1.178130e+003, 3.549991e+004
1.178613e+003, 3.546557e+004
1.179095e+003, 3.542032e+004
1.179577e+003, 3.539217e+004
1.180059e+003, 3.538616e+004
1.180541e+003, 3.539927e+004
1.181023e+003, 3.543492e+004
1.181505e+003, 3.545937e+004
1.181987e+003, 3.545109e+004
1.182469e+003, 3.542610e+004
1.182952e+003, 3.537614e+004
1.183434e+003, 3.533128e+004
1.183916e+003, 3.533026e+004
1.184398e+003, 3.535280e+004
1.184880e+003, 3.535027e+004
1.185362e+003, 3.531709e+004
1.185844e+003, 3.530756e+004
1.186326e+003, 3.536307e+004
1.186808e+003, 3.539816e+004
1.187291e+003, 3.538080e+004
1.187773e+003, 3.536147e+004
1.188255e+003, 3.536815e+004
1.188737e+003, 3.537762e+004
1.189219e+003, 3.536537e+004
1.189701e+003, 3.533846e+004
1.190183e+003, 3.531920e+004
1.190665e+003, 3.531028e+004
1.191148e+003, 3.529226e+004
1.191630e+003, 3.525066e+004
1.192112e+003, 3.524471e+004
1.192594e+003, 3.529866e+004
1.193076e+003, 3.534746e+004
1.193558e+003, 3.535814e+004
1.194040e+003, 3.534463e+004
1.194522e+003, 3.532126e+004
1.195005e+003, 3.529237e+004
1.195487e+003, 3.527646e+004
1.195969e+003, 3.527324e+004
1.196451e+003, 3.527422e+004
1.196933e+003, 3.527830e+004
1.197415e+003, 3.527083e+004
1.197897e+003, 3.524878e+004
1.198379e+003, 3.523286e+004
1.198861e+003, 3.523693e+004
1.199344e+003, 3.524326e+004
1.199826e+003, 3.522199e+004
1.200308e+003, 3.518977e+004
1.200790e+003, 3.518362e+004
1.201272e+003, 3.519234e+004
1.201754e+003, 3.519043e+004
1.202236e+003, 3.517963e+004
1.202718e+003, 3.517580e+004
1.203200e+003, 3.518246e+004
1.203683e+003, 3.518756e+004
1.204165e+003, 3.518130e+004
1.204647e+003, 3.517898e+004
1.205129e+003, 3.520285e+004
1.205611e+003, 3.522425e+004
1.206093e+003, 3.520923e+004
1.206575e+003, 3.518426e+004
1.207057e+003, 3.519069e+004
1.207540e+003, 3.521533e+004
1.208022e+003, 3.520743e+004
1.208504e+003, 3.515264e+004
1.208986e+003, 3.512203e+004
1.209468e+003, 3.515855e+004
1.209950e+003, 3.518145e+004
1.210432e+003, 3.516055e+004
1.210914e+003, 3.513657e+004
1.211396e+003, 3.513343e+004
1.211879e+003, 3.513420e+004
1.212361e+003, 3.511695e+004
1.212843e+003, 3.508946e+004
1.213325e+003, 3.508591e+004
1.213807e+003, 3.511604e+004
1.214289e+003, 3.512263e+004
1.214771e+003, 3.510118e+004
1.215253e+003, 3.507120e+004
1.215735e+003, 3.503162e+004
1.216218e+003, 3.501062e+004
1.216700e+003, 3.502577e+004
1.217182e+003, 3.505588e+004
1.217664e+003, 3.507761e+004
1.218146e+003, 3.508859e+004
1.218628e+003, 3.507405e+004
1.219110e+003, 3.504163e+004
1.219592e+003, 3.503246e+004
1.220075e+003, 3.504472e+004
1.220557e+003, 3.505713e+004
1.221039e+003, 3.506414e+004
1.221521e+003, 3.506847e+004
1.222003e+003, 3.507162e+004
1.222485e+003, 3.507185e+004
1.222967e+003, 3.506644e+004
1.223449e+003, 3.505824e+004
1.223932e+003, 3.505801e+004
1.224414e+003, 3.505132e+004
1.224896e+003, 3.500730e+004
1.225378e+003, 3.494659e+004
1.225860e+003, 3.491208e+004
1.226342e+003, 3.490884e+004
1.226824e+003, 3.491471e+004
1.227306e+003, 3.492630e+004
1.227788e+003, 3.493402e+004
1.228271e+003, 3.493437e+004
1.228753e+003, 3.493045e+004
1.229235e+003, 3.491782e+004
1.229717e+003, 3.490676e+004
1.230199e+003, 3.490866e+004
1.230681e+003, 3.491573e+004
1.231163e+003, 3.491054e+004
1.231645e+003, 3.489362e+004
1.232127e+003, 3.489646e+004
1.232610e+003, 3.493343e+004
1.233092e+003, 3.494345e+004
1.233574e+003, 3.491481e+004
1.234056e+003, 3.489064e+004
1.234538e+003, 3.488385e+004
1.235020e+003, 3.488740e+004
1.235502e+003, 3.489945e+004
1.235984e+003, 3.490457e+004
1.236467e+003, 3.486700e+004
1.236949e+003, 3.480387e+004
1.237431e+003, 3.479580e+004
1.237913e+003, 3.482897e+004
1.238395e+003, 3.483966e+004
1.238877e+003, 3.482694e+004
1.239359e+003, 3.482487e+004
1.239841e+003, 3.484107e+004
1.240323e+003, 3.484782e+004
1.240806e+003, 3.482479e+004
1.241288e+003, 3.479907e+004
1.241770e+003, 3.479663e+004
1.242252e+003, 3.480359e+004
1.242734e+003, 3.480807e+004
1.243216e+003, 3.481230e+004
1.243698e+003, 3.482780e+004
1.244180e+003, 3.484271e+004
1.244662e+003, 3.482646e+004
1.245145e+003, 3.477716e+004
1.245627e+003, 3.474115e+004
1.246109e+003, 3.474310e+004
1.246591e+003, 3.473638e+004
1.247073e+003, 3.469735e+004
1.247555e+003, 3.467101e+004
1.248037e+003, 3.468452e+004
1.248519e+003, 3.470148e+004
1.249002e+003, 3.469563e+004
1.249484e+003, 3.467748e+004
1.249966e+003, 3.466524e+004
1.250448e+003, 3.465883e+004
1.250930e+003, 3.465470e+004
1.251412e+003, 3.465193e+004
1.251894e+003, 3.466358e+004
1.252376e+003, 3.469131e+004
1.252859e+003, 3.471155e+004
1.253341e+003, 3.471707e+004
1.253823e+003, 3.471351e+004
1.254305e+003, 3.470377e+004
1.254787e+003, 3.469618e+004
1.255269e+003, 3.470588e+004
1.255751e+003, 3.472284e+004
1.256233e+003, 3.473168e+004
1.256715e+003, 3.473216e+004
1.257198e+003, 3.471884e+004
1.257680e+003, 3.469850e+004
1.258162e+003, 3.468737e+004
1.258644e+003, 3.468769e+004
1.259126e+003, 3.469010e+004
1.259608e+003, 3.469236e+004
1.260090e+003, 3.468996e+004
1.260572e+003, 3.467823e+004
1.261054e+003, 3.466508e+004
1.261537e+003, 3.465361e+004
1.262019e+003, 3.464325e+004
1.262501e+003, 3.463037e+004
1.262983e+003, 3.462026e+004
1.263465e+003, 3.462002e+004
1.263947e+003, 3.462973e+004
1.264429e+003, 3.465238e+004
1.264911e+003, 3.469959e+004
1.265394e+003, 3.471860e+004
1.265876e+003, 3.470587e+004
1.266358e+003, 3.467421e+004
1.266840e+003, 3.462180e+004
1.267322e+003, 3.458326e+004
1.267804e+003, 3.457758e+004
1.268286e+003, 3.459462e+004
1.268768e+003, 3.462866e+004
1.269250e+003, 3.466334e+004
1.269733e+003, 3.465634e+004
1.270215e+003, 3.462284e+004
1.270697e+003, 3.459565e+004
1.271179e+003, 3.457690e+004
1.271661e+003, 3.456639e+004
1.272143e+003, 3.456282e+004
1.272625e+003, 3.456270e+004
1.273107e+003, 3.456476e+004
1.273589e+003, 3.456984e+004
1.274072e+003, 3.457704e+004
1.274554e+003, 3.458941e+004
1.275036e+003, 3.462561e+004
1.275518e+003, 3.464788e+004
1.276000e+003, 3.461798e+004
1.276482e+003, 3.457021e+004
1.276964e+003, 3.454160e+004
1.277446e+003, 3.453348e+004
1.277929e+003, 3.453198e+004
1.278411e+003, 3.453868e+004
1.278893e+003, 3.453652e+004
1.279375e+003, 3.452404e+004
1.279857e+003, 3.450984e+004
1.280339e+003, 3.449354e+004
1.280821e+003, 3.448535e+004
1.281303e+003, 3.449130e+004
1.281786e+003, 3.451405e+004
1.282268e+003, 3.455177e+004
##END=



