##NAMES=Munakataite
##RRUFFID=R110005
##IDEAL CHEMISTRY=Pb^2+^_2_Cu^2+^_2_(Se^4+^O_3_)S^6+^O_4_(OH)_4_
##LOCALITY=Tonopah-Belmont mine, Maricopa County, Arizona, USA
##OWNER=RRUFF
##SOURCE=Marcus Origlieri
##DESCRIPTION=Blue acicular to prismatic crystals with tapering terminations, associated with brochantite and cerussite
##STATUS=The identification of this mineral has been confirmed by single-crystal X-ray diffraction.
##URL=rruff.info/R110005
166.7276, 11.36366
167.2097, 11.79429
167.6918, 11.37727
168.1739, 10.22989
168.6560, 9.296760
169.1381, 9.120059
169.6203, 9.470673
170.1024, 10.01117
170.5845, 11.16635
171.0666, 12.20011
171.5487, 12.34111
172.0309, 11.65605
172.5130, 10.92949
172.9951, 10.73888
173.4772, 10.85471
173.9593, 10.92071
174.4414, 10.76564
174.9236, 10.51225
175.4057, 10.26880
175.8878, 10.03281
176.3699, 9.846680
176.8520, 9.642685
177.3341, 9.505419
177.8163, 9.624986
178.2984, 10.46382
178.7805, 11.47370
179.2626, 11.69074
179.7447, 11.04174
180.2268, 10.28323
180.7090, 10.30853
181.1911, 10.88086
181.6732, 11.27093
182.1553, 11.00224
182.6374, 10.34249
183.1195, 9.784565
183.6017, 9.304348
184.0838, 9.085269
184.5659, 9.441515
185.0480, 10.28483
185.5301, 11.19547
186.0123, 12.05802
186.4944, 12.83924
186.9765, 13.35741
187.4586, 13.57126
187.9407, 13.67846
188.4228, 14.10535
188.9050, 14.79502
189.3871, 15.13131
189.8692, 14.43158
190.3513, 12.98632
190.8334, 12.33329
191.3155, 12.66959
191.7977, 13.48621
192.2798, 14.16058
192.7619, 14.69549
193.2440, 14.82856
193.7261, 14.04640
194.2082, 12.49053
194.6904, 11.92697
195.1725, 12.66906
195.6546, 13.98892
196.1367, 14.51316
196.6188, 14.20368
197.1009, 13.70358
197.5831, 13.31940
198.0652, 13.04700
198.5473, 12.79217
199.0294, 12.53567
199.5115, 12.31258
199.9937, 12.12996
200.4758, 11.94949
200.9579, 12.04368
201.4400, 12.84039
201.9221, 14.45079
202.4042, 15.11248
202.8864, 14.45613
203.3685, 13.07487
203.8506, 12.48166
204.3327, 12.91464
204.8148, 13.19243
205.2969, 12.43309
205.7791, 10.38606
206.2612, 9.198622
206.7433, 9.232652
207.2254, 10.01014
207.7075, 10.29699
208.1896, 9.962321
208.6718, 9.521578
209.1539, 9.229126
209.6360, 9.096696
210.1181, 9.067820
210.6002, 9.158816
211.0823, 9.340362
211.5645, 9.519775
212.0466, 9.667627
212.5287, 9.885716
213.0108, 10.29796
213.4929, 11.03924
213.9750, 11.45929
214.4572, 11.49925
214.9393, 11.20745
215.4214, 10.60395
215.9035, 9.382074
216.3856, 8.468246
216.8678, 8.546592
217.3499, 10.12038
217.8320, 10.96820
218.3141, 10.63437
218.7962, 9.607515
219.2783, 9.562608
219.7605, 11.12330
220.2426, 12.53083
220.7247, 12.65613
221.2068, 10.73608
221.6889, 9.788433
222.1710, 10.38437
222.6532, 11.93216
223.1353, 12.53113
223.6174, 11.83183
224.0995, 10.77993
224.5816, 9.756370
225.0637, 8.525505
225.5459, 7.932784
226.0280, 8.220727
226.5101, 9.112742
226.9922, 9.786407
227.4743, 10.27471
227.9564, 10.50574
228.4386, 10.36971
228.9207, 9.554544
229.4028, 9.155041
229.8849, 9.354372
230.3670, 9.936512
230.8492, 10.35304
231.3313, 10.76642
231.8134, 10.76630
232.2955, 10.00018
232.7776, 7.715584
233.2597, 6.505130
233.7419, 6.870717
234.2240, 8.182429
234.7061, 8.763328
235.1882, 8.248413
235.6703, 7.563529
236.1524, 7.091316
236.6346, 6.932673
237.1167, 6.758703
237.5988, 6.539076
238.0809, 6.314114
238.5630, 6.158242
239.0451, 5.995008
239.5273, 6.021451
240.0094, 6.425364
240.4915, 7.636352
240.9736, 8.038408
241.4557, 7.160943
241.9378, 5.686665
242.4200, 5.082397
242.9021, 5.839152
243.3842, 6.694193
243.8663, 7.171551
244.3484, 7.135846
244.8306, 7.121704
245.3127, 7.117445
245.7948, 7.140684
246.2769, 7.267209
246.7590, 7.703660
247.2411, 7.885138
247.7233, 7.494975
248.2054, 6.220995
248.6875, 5.577783
249.1696, 5.859042
249.6517, 6.577536
250.1338, 6.955697
250.6160, 6.904933
251.0981, 6.671313
251.5802, 6.308097
252.0623, 5.789505
252.5444, 5.242986
253.0265, 4.573349
253.5087, 3.957540
253.9908, 3.656991
254.4729, 3.714012
254.9550, 4.004607
255.4371, 4.621648
255.9192, 5.661889
256.4014, 6.170229
256.8835, 5.946937
257.3656, 5.389010
257.8477, 4.942463
258.3298, 4.585785
258.8120, 4.398499
259.2941, 4.480577
259.7762, 4.864689
260.2583, 4.915705
260.7404, 4.448450
261.2225, 3.878270
261.7047, 3.670612
262.1868, 3.980486
262.6689, 4.241075
263.1510, 4.288397
263.6331, 4.132535
264.1152, 4.245588
264.5974, 4.860388
265.0795, 5.381726
265.5616, 5.056183
266.0437, 3.437336
266.5258, 2.472134
267.0079, 2.736581
267.4901, 4.047840
267.9722, 4.725876
268.4543, 4.608816
268.9364, 4.197275
269.4185, 3.809862
269.9006, 3.373377
270.3828, 3.302547
270.8649, 3.766182
271.3470, 4.634120
271.8291, 5.308823
272.3112, 5.778627
272.7933, 6.104360
273.2755, 6.314225
273.7576, 6.401767
274.2397, 6.409904
274.7218, 6.295267
275.2039, 6.131314
275.6860, 6.242629
276.1682, 6.760715
276.6503, 7.063397
277.1324, 6.536660
277.6145, 5.077617
278.0966, 4.264451
278.5787, 4.328011
279.0609, 4.968051
279.5430, 5.682815
280.0251, 6.533316
280.5072, 7.056913
280.9893, 6.795736
281.4715, 5.758147
281.9536, 5.176138
282.4357, 5.180085
282.9178, 5.500547
283.3999, 5.728323
283.8820, 5.863123
284.3642, 5.910148
284.8463, 5.939258
285.3284, 5.924319
285.8105, 5.454164
286.2926, 4.392444
286.7747, 3.300980
287.2569, 3.091438
287.7390, 3.728379
288.2211, 4.269036
288.7032, 4.299898
289.1853, 3.917368
289.6674, 3.488707
290.1496, 2.987343
290.6317, 2.595371
291.1138, 2.634848
291.5959, 3.033627
292.0780, 3.269065
292.5602, 2.993794
293.0423, 2.505216
293.5244, 2.735434
294.0065, 3.717727
294.4886, 4.621467
294.9707, 4.459989
295.4529, 3.539597
295.9350, 2.981487
296.4171, 3.166795
296.8992, 3.782648
297.3813, 4.428107
297.8634, 5.080017
298.3456, 5.492908
298.8277, 5.302573
299.3098, 4.739618
299.7919, 4.324811
300.2740, 4.225185
300.7561, 4.213475
301.2383, 3.877534
301.7204, 3.315328
302.2025, 2.999018
302.6846, 3.584899
303.1667, 4.499758
303.6488, 4.763378
304.1310, 4.021981
304.6131, 3.253642
305.0952, 3.724413
305.5773, 4.997233
306.0594, 5.887662
306.5415, 5.439793
307.0237, 4.462310
307.5058, 3.753194
307.9879, 3.391829
308.4700, 3.300987
308.9521, 3.679056
309.4343, 4.261337
309.9164, 4.591405
310.3985, 4.107407
310.8806, 3.547184
311.3627, 3.582776
311.8448, 4.250905
312.3270, 4.833737
312.8091, 4.759323
313.2912, 4.403621
313.7733, 4.210733
314.2554, 4.572138
314.7375, 4.933676
315.2197, 4.970568
315.7018, 4.716685
316.1839, 4.470829
316.6660, 4.310685
317.1481, 4.244849
317.6302, 4.288373
318.1124, 4.571114
318.5945, 4.804959
319.0766, 4.829865
319.5587, 4.713604
320.0408, 4.691563
320.5229, 4.832676
321.0051, 5.091432
321.4872, 5.457397
321.9693, 5.991964
322.4514, 6.506744
322.9335, 6.897487
323.4156, 7.247745
323.8978, 7.718603
324.3799, 8.541677
324.8620, 9.312539
325.3441, 9.885737
325.8262, 10.20536
326.3083, 10.45350
326.7905, 10.59872
327.2726, 10.69487
327.7547, 10.80635
328.2368, 10.90981
328.7189, 11.05689
329.2010, 11.28810
329.6832, 11.61687
330.1653, 11.86903
330.6474, 12.20545
331.1295, 12.34921
331.6116, 12.02637
332.0938, 10.64577
332.5759, 9.735936
333.0580, 9.527189
333.5401, 9.966709
334.0222, 10.75402
334.5043, 12.33880
334.9865, 13.66198
335.4686, 13.99341
335.9507, 12.83334
336.4328, 12.02552
336.9149, 11.66407
337.3970, 11.71059
337.8792, 12.15338
338.3613, 13.17808
338.8434, 14.09226
339.3255, 14.51030
339.8076, 14.33536
340.2898, 14.42294
340.7719, 14.80115
341.2540, 15.39341
341.7361, 16.13566
342.2182, 17.02750
342.7003, 17.96118
343.1825, 18.96487
343.6646, 19.99738
344.1467, 20.72758
344.6288, 21.15694
345.1109, 21.30940
345.5930, 21.11717
346.0752, 20.61461
346.5573, 20.14106
347.0394, 19.81198
347.5215, 19.52885
348.0036, 18.97798
348.4857, 18.17065
348.9679, 17.47314
349.4500, 17.19661
349.9321, 17.24294
350.4142, 17.38123
350.8963, 17.65394
351.3784, 17.80796
351.8606, 17.29512
352.3427, 16.31174
352.8248, 15.57361
353.3069, 15.69500
353.7890, 16.22842
354.2711, 16.54586
354.7533, 16.57433
355.2354, 16.60917
355.7175, 16.96908
356.1996, 17.50018
356.6817, 17.93401
357.1638, 18.19956
357.6460, 18.29440
358.1281, 17.99039
358.6102, 17.35159
359.0923, 17.13623
359.5744, 18.48252
360.0565, 20.15055
360.5387, 20.88149
361.0208, 19.37753
361.5029, 18.06239
361.9850, 18.24466
362.4671, 19.51411
362.9492, 20.61400
363.4314, 21.02187
363.9135, 21.20556
364.3956, 21.41781
364.8777, 21.72869
365.3598, 21.98736
365.8419, 21.88520
366.3241, 21.77105
366.8062, 22.17150
367.2883, 24.00047
367.7704, 25.54024
368.2526, 26.09007
368.7347, 25.33684
369.2168, 25.37590
369.6989, 27.13413
370.1810, 29.14018
370.6631, 30.14572
371.1453, 28.94131
371.6274, 28.55812
372.1095, 29.67890
372.5916, 32.03396
373.0737, 33.79568
373.5558, 34.86221
374.0380, 35.51078
374.5201, 35.77081
375.0022, 35.34928
375.4843, 35.56927
375.9664, 36.73991
376.4485, 38.33812
376.9307, 39.34918
377.4128, 39.68226
377.8949, 39.76940
378.3770, 39.66637
378.8591, 39.39532
379.3412, 39.51383
379.8234, 40.13230
380.3055, 40.74761
380.7876, 40.65485
381.2697, 39.90194
381.7518, 39.41150
382.2339, 39.67189
382.7161, 40.16106
383.1982, 39.45573
383.6803, 37.59981
384.1624, 35.68245
384.6445, 34.66396
385.1266, 34.21040
385.6088, 33.47331
386.0909, 32.28315
386.5730, 30.92965
387.0551, 29.88018
387.5372, 28.98157
388.0193, 27.76806
388.5015, 25.40515
388.9836, 22.93133
389.4657, 21.72892
389.9478, 21.91299
390.4299, 21.92551
390.9120, 20.27073
391.3942, 17.95907
391.8763, 16.26246
392.3584, 16.09196
392.8405, 16.18776
393.3226, 16.00087
393.8047, 15.56140
394.2869, 15.00672
394.7690, 14.06763
395.2511, 13.24978
395.7332, 12.93991
396.2154, 13.59103
396.6975, 13.92633
397.1796, 13.49256
397.6617, 12.60404
398.1438, 11.80778
398.6259, 10.95906
399.1081, 10.41314
399.5902, 10.43077
400.0723, 11.15420
400.5544, 11.43570
401.0365, 11.04447
401.5186, 10.38038
402.0008, 9.752379
402.4829, 9.082788
402.9650, 8.590149
403.4471, 8.323762
403.9292, 8.251771
404.4113, 8.258965
404.8935, 8.376463
405.3756, 8.501270
405.8577, 8.561736
406.3398, 8.536615
406.8219, 8.654679
407.3040, 9.018921
407.7862, 9.334929
408.2683, 9.006241
408.7504, 8.003719
409.2325, 7.337984
409.7146, 7.477733
410.1967, 8.185650
410.6789, 8.813786
411.1610, 9.373915
411.6431, 9.569224
412.1252, 8.700438
412.6073, 7.229670
413.0894, 6.619003
413.5716, 7.457178
414.0537, 8.593856
414.5358, 8.533278
415.0179, 7.563698
415.5000, 6.623680
415.9821, 6.111849
416.4643, 5.958005
416.9464, 6.225989
417.4285, 6.949692
417.9106, 7.595055
418.3927, 7.664869
418.8748, 7.511646
419.3570, 7.552392
419.8391, 8.398825
420.3212, 9.012162
420.8033, 8.826627
421.2854, 7.987123
421.7675, 7.182267
422.2497, 6.490232
422.7318, 5.985691
423.2139, 5.734151
423.6960, 5.837430
424.1781, 5.984232
424.6602, 6.191945
425.1424, 6.411862
425.6245, 6.560259
426.1066, 6.372152
426.5887, 6.454360
427.0709, 7.084363
427.5530, 8.261538
428.0351, 8.952539
428.5172, 8.886942
428.9993, 8.715211
429.4814, 8.902333
429.9636, 9.515583
430.4457, 10.29611
430.9278, 11.40549
431.4099, 12.49030
431.8920, 12.55576
432.3741, 11.43692
432.8563, 10.58935
433.3384, 10.83827
433.8205, 12.00222
434.3026, 12.83360
434.7847, 13.31507
435.2668, 13.64260
435.7490, 13.89166
436.2311, 14.12990
436.7132, 14.60650
437.1953, 15.45717
437.6774, 16.47810
438.1595, 17.45618
438.6417, 18.38947
439.1238, 19.26985
439.6059, 20.34339
440.0880, 21.23378
440.5701, 21.55493
441.0522, 21.25556
441.5344, 20.44140
442.0165, 18.79679
442.4986, 16.80368
442.9807, 15.06039
443.4628, 13.72094
443.9449, 12.71008
444.4271, 12.21812
444.9092, 12.12529
445.3913, 11.76140
445.8734, 10.49745
446.3555, 9.286448
446.8376, 8.615221
447.3198, 8.729537
447.8019, 8.978162
448.2840, 9.462052
448.7661, 10.01772
449.2482, 10.41577
449.7303, 10.59004
450.2125, 10.70183
450.6946, 10.70880
451.1767, 10.63900
451.6588, 10.98126
452.1409, 11.96157
452.6230, 12.83674
453.1052, 12.86911
453.5873, 11.94763
454.0694, 11.71729
454.5515, 12.39843
455.0337, 13.61939
455.5158, 14.97081
455.9979, 16.42897
456.4800, 17.45254
456.9621, 17.44138
457.4442, 16.95363
457.9264, 17.39289
458.4085, 18.72851
458.8906, 20.25258
459.3727, 21.48996
459.8548, 22.50465
460.3369, 23.33740
460.8191, 23.92797
461.3012, 24.53084
461.7833, 25.30238
462.2654, 26.24065
462.7475, 27.33670
463.2296, 28.90801
463.7118, 30.38647
464.1939, 31.43203
464.6760, 32.02996
465.1581, 32.49394
465.6402, 32.57536
466.1223, 32.76255
466.6045, 33.40090
467.0866, 35.47243
467.5687, 36.82955
468.0508, 36.83403
468.5329, 36.10607
469.0150, 36.09094
469.4972, 37.59767
469.9793, 38.57412
470.4614, 38.14424
470.9435, 36.19930
471.4256, 35.16811
471.9077, 35.44019
472.3899, 35.85009
472.8720, 35.29628
473.3541, 33.68595
473.8362, 32.10897
474.3183, 30.70947
474.8004, 29.40781
475.2826, 28.05531
475.7647, 26.65489
476.2468, 25.24967
476.7289, 23.80982
477.2110, 22.38489
477.6931, 21.13272
478.1753, 20.04805
478.6574, 19.00789
479.1395, 17.91656
479.6216, 16.80351
480.1037, 15.70156
480.5858, 14.57792
481.0680, 13.53766
481.5501, 12.55121
482.0322, 11.69967
482.5143, 11.16444
482.9964, 11.44377
483.4786, 11.68672
483.9607, 11.37940
484.4428, 10.44231
484.9249, 9.745634
485.4070, 9.714400
485.8892, 9.825669
486.3713, 9.697388
486.8534, 8.824376
487.3355, 8.474496
487.8176, 9.072047
488.2997, 10.07787
488.7819, 10.26551
489.2640, 9.189170
489.7461, 8.309505
490.2282, 8.178384
490.7103, 8.740169
491.1924, 9.039969
491.6746, 9.039872
492.1567, 8.942714
492.6388, 9.046764
493.1209, 9.283711
493.6030, 8.906852
494.0851, 7.598487
494.5673, 6.245376
495.0494, 6.427992
495.5315, 7.747100
496.0136, 8.755072
496.4957, 8.550298
496.9778, 7.821482
497.4600, 7.235606
497.9421, 6.801064
498.4242, 6.509639
498.9063, 6.349580
499.3884, 6.330815
499.8705, 6.488875
500.3527, 6.914342
500.8348, 7.305529
501.3169, 7.515078
501.7990, 7.631362
502.2811, 7.780187
502.7632, 8.152258
503.2454, 8.373591
503.7275, 8.137248
504.2096, 7.534339
504.6917, 7.657811
505.1738, 9.185733
505.6559, 10.51774
506.1381, 10.62513
506.6202, 8.993720
507.1023, 8.315278
507.5844, 8.860445
508.0665, 9.869548
508.5486, 10.18514
509.0308, 9.782870
509.5129, 9.901044
509.9950, 11.07491
510.4771, 12.74888
510.9592, 13.77070
511.4413, 14.17262
511.9235, 14.32614
512.4056, 14.25671
512.8877, 14.16392
513.3698, 14.43850
513.8519, 15.13773
514.3340, 15.75095
514.8162, 15.41696
515.2983, 14.96063
515.7804, 15.41878
516.2625, 18.05478
516.7446, 20.44390
517.2267, 21.32319
517.7089, 21.21787
518.1910, 21.40374
518.6731, 22.47793
519.1552, 23.58483
519.6373, 24.45233
520.1194, 25.08216
520.6016, 25.49907
521.0837, 25.46766
521.5658, 25.47977
522.0479, 26.00134
522.5300, 27.32645
523.0121, 28.03179
523.4943, 27.89050
523.9764, 27.26624
524.4585, 26.78690
524.9406, 26.46520
525.4227, 26.07551
525.9048, 25.55729
526.3870, 24.90808
526.8691, 24.10498
527.3513, 23.14524
527.8334, 22.05496
528.3155, 20.73843
528.7976, 19.33152
529.2797, 18.01080
529.7618, 16.78488
530.2440, 15.67772
530.7261, 14.73773
531.2082, 13.92309
531.6903, 13.19764
532.1724, 12.55889
532.6545, 11.98764
533.1367, 11.36920
533.6188, 10.78735
534.1009, 10.51654
534.5830, 11.28970
535.0651, 11.70484
535.5472, 11.10164
536.0294, 9.223440
536.5115, 8.221338
536.9936, 8.578586
537.4757, 9.136514
537.9578, 8.767275
538.4399, 7.212206
538.9221, 6.409706
539.4042, 6.692745
539.8863, 7.557310
540.3684, 8.307250
540.8505, 8.917434
541.3326, 9.061393
541.8148, 8.305310
542.2969, 7.184786
542.7790, 6.693824
543.2611, 6.769681
543.7432, 6.888547
544.2253, 6.641591
544.7075, 6.286354
545.1896, 6.111229
545.6717, 6.189011
546.1538, 6.254409
546.6359, 6.170156
547.1180, 6.008817
547.6002, 5.848325
548.0823, 5.950574
548.5644, 5.773873
549.0465, 4.894750
549.5286, 3.649485
550.0107, 3.046250
550.4929, 3.582356
550.9750, 4.001728
551.4571, 3.778268
551.9392, 2.905699
552.4213, 2.761991
552.9034, 3.582665
553.3856, 4.392145
553.8677, 4.182174
554.3498, 3.074672
554.8319, 2.618348
555.3140, 3.058300
555.7961, 3.833565
556.2783, 4.324999
556.7604, 4.566467
557.2425, 4.629737
557.7246, 4.386868
558.2067, 4.139130
558.6888, 4.312860
559.1710, 4.761068
559.6531, 4.980951
560.1352, 4.445531
560.6173, 3.829745
561.0994, 3.579165
561.5815, 3.781121
562.0637, 3.879150
562.5458, 3.653195
563.0279, 3.357308
563.5100, 3.173767
563.9921, 3.144884
564.4742, 3.160682
564.9564, 3.243229
565.4385, 3.349837
565.9206, 3.429703
566.4027, 3.501563
566.8848, 3.429930
567.3669, 3.095192
567.8491, 2.631606
568.3312, 2.565556
568.8133, 2.879632
569.2954, 3.107682
569.7775, 2.855629
570.2596, 2.338890
570.7418, 1.861819
571.2239, 1.430395
571.7060, 1.301149
572.1881, 2.074803
572.6702, 3.074235
573.1523, 3.513798
573.6345, 2.862788
574.1166, 2.231817
574.5987, 2.061365
575.0808, 2.174354
575.5629, 2.275588
576.0450, 2.264557
576.5272, 2.303958
577.0093, 2.533044
577.4914, 2.877990
577.9735, 2.743632
578.4556, 1.741144
578.9377, 1.070368
579.4199, 1.590118
579.9020, 3.330378
580.3841, 4.041715
580.8662, 3.600701
581.3483, 2.796163
581.8304, 2.367488
582.3126, 2.225991
582.7947, 2.056499
583.2768, 1.783228
583.7589, 1.521162
584.2410, 1.380323
584.7231, 1.341622
585.2053, 1.367323
585.6874, 1.538126
586.1696, 1.679416
586.6517, 1.653621
587.1338, 1.503677
587.6159, 1.422894
588.0980, 1.573262
588.5801, 1.703356
589.0623, 1.620833
589.5444, 1.230829
590.0265, 1.269905
590.5086, 1.923281
590.9907, 2.768355
591.4728, 3.587252
591.9550, 4.451663
592.4371, 4.683369
592.9192, 4.054628
593.4013, 3.201246
593.8834, 3.239033
594.3655, 3.989599
594.8477, 4.268900
595.3298, 3.386137
595.8119, 2.239106
596.2940, 2.187531
596.7761, 2.941516
597.2582, 3.525764
597.7404, 3.133321
598.2225, 2.611563
598.7046, 2.619285
599.1867, 3.187135
599.6688, 3.640746
600.1509, 3.780701
600.6331, 3.745411
601.1152, 3.566974
601.5973, 3.013674
602.0794, 2.902299
602.5615, 3.476062
603.0436, 4.259886
603.5258, 4.753769
604.0079, 4.958022
604.4900, 4.790080
604.9721, 4.047123
605.4542, 3.204718
605.9363, 3.493391
606.4185, 4.757322
606.9006, 5.620441
607.3827, 5.054771
607.8648, 3.965827
608.3469, 3.756654
608.8290, 4.282717
609.3112, 4.742821
609.7933, 4.608891
610.2754, 4.265644
610.7575, 4.009945
611.2396, 3.900759
611.7217, 3.700849
612.2039, 2.993203
612.6860, 2.394664
613.1681, 2.408051
613.6502, 3.673551
614.1323, 4.418776
614.6144, 4.365122
615.0966, 4.008565
615.5787, 4.190870
616.0608, 5.070268
616.5429, 5.410481
617.0250, 4.745913
617.5071, 3.580198
617.9893, 2.984712
618.4714, 2.933506
618.9535, 3.227311
619.4356, 4.219057
619.9177, 5.247575
620.3998, 5.325196
620.8820, 4.537351
621.3641, 3.741685
621.8462, 3.451843
622.3283, 3.303899
622.8104, 2.960898
623.2925, 2.230361
623.7747, 1.909004
624.2568, 2.402603
624.7389, 3.203407
625.2210, 3.945956
625.7031, 4.806514
626.1852, 5.185626
626.6674, 4.906417
627.1495, 4.296266
627.6316, 3.810329
628.1137, 3.442135
628.5958, 3.396006
629.0779, 3.882342
629.5601, 4.550376
630.0422, 4.709428
630.5243, 4.422525
631.0064, 3.994084
631.4885, 3.407318
631.9706, 2.883419
632.4528, 2.592181
632.9349, 2.546358
633.4170, 2.768899
633.8991, 3.866567
634.3812, 4.784965
634.8633, 4.763777
635.3455, 3.263394
635.8276, 2.321391
636.3097, 2.274812
636.7918, 2.537688
637.2739, 2.642871
637.7560, 2.566321
638.2382, 2.361084
638.7203, 1.906829
639.2024, 1.567207
639.6845, 2.057213
640.1666, 3.271657
640.6487, 4.344317
641.1309, 5.073034
641.6130, 5.466082
642.0951, 5.434234
642.5772, 5.058272
643.0594, 4.564905
643.5415, 3.852199
644.0236, 3.238215
644.5057, 2.811239
644.9879, 2.602833
645.4700, 2.832546
645.9521, 4.243103
646.4342, 5.467920
646.9163, 5.851656
647.3984, 5.240622
647.8806, 4.862196
648.3627, 4.807656
648.8448, 4.808557
649.3269, 4.556307
649.8090, 4.053009
650.2911, 3.979856
650.7733, 4.445549
651.2554, 5.078024
651.7375, 5.417991
652.2196, 5.583386
652.7017, 5.908493
653.1838, 6.649992
653.6660, 7.252813
654.1481, 6.988768
654.6302, 6.335503
655.1123, 6.135169
655.5944, 7.090751
656.0765, 8.094920
656.5587, 9.020611
657.0408, 9.758431
657.5229, 9.834083
658.0050, 8.816166
658.4871, 7.859474
658.9692, 7.333770
659.4514, 7.221514
659.9335, 7.398088
660.4156, 7.896433
660.8977, 8.404273
661.3798, 8.686024
661.8619, 8.801517
662.3441, 8.974610
662.8262, 9.224639
663.3083, 9.276564
663.7904, 8.936669
664.2725, 8.268975
664.7546, 7.212449
665.2368, 5.400885
665.7189, 4.178751
666.2010, 4.081740
666.6831, 4.753546
667.1652, 5.853202
667.6473, 8.070055
668.1295, 9.499108
668.6116, 9.824759
669.0937, 9.443082
669.5758, 9.040339
670.0579, 8.598754
670.5400, 8.296087
671.0222, 8.226544
671.5043, 8.282149
671.9864, 8.287708
672.4685, 8.230725
672.9506, 8.049002
673.4327, 7.635204
673.9149, 7.136245
674.3970, 6.613410
674.8791, 6.091264
675.3612, 5.730237
675.8433, 5.793703
676.3254, 5.860820
676.8076, 5.626368
677.2897, 4.968858
677.7718, 4.758778
678.2539, 5.270945
678.7360, 5.849556
679.2181, 6.077441
679.7003, 5.935556
680.1824, 5.542861
680.6645, 4.824191
681.1466, 4.190531
681.6287, 4.296111
682.1108, 4.847398
682.5930, 4.914592
683.0751, 4.122330
683.5572, 3.487959
684.0393, 4.301605
684.5214, 5.690656
685.0035, 6.410613
685.4857, 5.339826
685.9678, 4.393949
686.4499, 3.907718
686.9320, 3.901068
687.4141, 4.475804
687.8962, 6.405195
688.3784, 7.372443
688.8605, 6.489268
689.3426, 4.441588
689.8247, 3.674749
690.3068, 4.225734
690.7889, 4.910318
691.2711, 5.190838
691.7532, 5.199718
692.2353, 5.151594
692.7174, 5.053246
693.1995, 4.944625
693.6816, 4.889174
694.1638, 4.803957
694.6459, 4.577855
695.1280, 4.194173
695.6101, 3.939411
696.0922, 4.037200
696.5743, 4.154531
697.0565, 4.086396
697.5386, 3.744504
698.0207, 3.569749
698.5028, 3.541009
698.9849, 3.723935
699.4670, 4.461106
699.9492, 5.632752
700.4313, 5.797259
700.9135, 4.639693
701.3956, 3.309196
701.8777, 3.252518
702.3598, 3.833063
702.8419, 3.869368
703.3240, 2.562175
703.8062, 1.630913
704.2883, 2.443358
704.7704, 4.050631
705.2525, 5.052872
705.7346, 4.416562
706.2167, 4.233631
706.6989, 5.078372
707.1810, 6.327057
707.6631, 6.374187
708.1452, 4.932300
708.6273, 4.038302
709.1094, 4.495581
709.5916, 5.693213
710.0737, 6.355646
710.5558, 6.515105
711.0379, 6.367933
711.5200, 5.498262
712.0021, 4.760166
712.4843, 5.236100
712.9664, 6.652730
713.4485, 7.541679
713.9306, 6.778051
714.4127, 5.879918
714.8948, 5.534071
715.3770, 5.749972
715.8591, 6.083885
716.3412, 6.645979
716.8233, 7.108124
717.3054, 7.258562
717.7875, 7.108908
718.2697, 6.907854
718.7518, 6.649869
719.2339, 6.393599
719.7160, 6.084319
720.1981, 5.847043
720.6802, 5.965154
721.1624, 6.508719
721.6445, 6.968478
722.1266, 7.019306
722.6087, 6.864496
723.0908, 6.642820
723.5729, 6.187865
724.0551, 6.087556
724.5372, 6.602274
725.0193, 7.256922
725.5014, 7.532176
725.9835, 7.344138
726.4656, 7.324517
726.9478, 7.601072
727.4299, 7.892808
727.9120, 7.579554
728.3941, 6.924619
728.8762, 6.873560
729.3583, 8.011181
729.8405, 9.124475
730.3226, 9.056229
730.8047, 8.308784
731.2868, 7.714684
731.7689, 7.792348
732.2510, 7.735081
732.7332, 7.061131
733.2153, 6.198404
733.6974, 6.066957
734.1795, 6.952440
734.6616, 7.826958
735.1437, 8.525326
735.6259, 8.966372
736.1080, 8.742937
736.5901, 7.939307
737.0722, 7.302015
737.5543, 7.242251
738.0364, 7.494042
738.5186, 7.843039
739.0007, 8.254812
739.4828, 8.617949
739.9649, 9.087068
740.4470, 9.301955
740.9291, 8.972817
741.4113, 8.140100
741.8934, 7.471000
742.3755, 6.853129
742.8576, 6.625947
743.3397, 7.138833
743.8218, 8.229360
744.3040, 8.393954
744.7861, 7.607650
745.2682, 6.849412
745.7503, 6.959664
746.2324, 7.453290
746.7145, 7.428007
747.1967, 6.901880
747.6788, 6.646563
748.1609, 7.549194
748.6430, 8.513277
749.1251, 8.729849
749.6072, 7.913817
750.0894, 7.479167
750.5715, 7.719833
751.0536, 8.025811
751.5357, 8.001263
752.0178, 7.614981
752.4999, 7.220008
752.9821, 6.783919
753.4642, 6.539406
753.9463, 6.881516
754.4284, 7.535491
754.9105, 7.914678
755.3926, 7.922045
755.8748, 7.923879
756.3569, 8.175162
756.8390, 8.518359
757.3211, 8.807940
757.8032, 8.950551
758.2853, 9.222848
758.7675, 9.986630
759.2496, 10.54012
759.7318, 9.958610
760.2139, 7.945351
760.6960, 7.298006
761.1781, 8.502513
761.6602, 10.16821
762.1423, 10.54059
762.6245, 10.05865
763.1066, 9.800882
763.5887, 10.06476
764.0708, 10.37475
764.5529, 10.36191
765.0350, 10.22217
765.5172, 10.18754
765.9993, 10.17491
766.4814, 10.47835
766.9635, 11.32283
767.4456, 12.31585
767.9277, 12.95623
768.4099, 13.22371
768.8920, 13.27799
769.3741, 13.10348
769.8562, 12.82547
770.3383, 12.39303
770.8204, 12.00142
771.3026, 12.24397
771.7847, 13.62568
772.2668, 15.08184
772.7489, 15.90752
773.2310, 16.33337
773.7131, 16.71190
774.1953, 16.69975
774.6774, 17.24503
775.1595, 18.83856
775.6416, 20.79751
776.1237, 21.66933
776.6058, 21.23412
777.0880, 21.42432
777.5701, 22.75857
778.0522, 24.81359
778.5343, 27.20283
779.0164, 29.74586
779.4985, 31.89395
779.9807, 32.78017
780.4628, 33.96141
780.9449, 36.81395
781.4270, 40.59121
781.9091, 43.80555
782.3912, 45.30265
782.8734, 47.26344
783.3555, 50.08755
783.8376, 53.51979
784.3197, 56.80813
784.8018, 59.93126
785.2839, 63.55565
785.7661, 68.05994
786.2482, 72.90752
786.7303, 77.23314
787.2124, 81.11693
787.6945, 84.90358
788.1766, 88.96150
788.6588, 92.74132
789.1409, 95.82101
789.6230, 98.44080
790.1051, 101.4150
790.5872, 105.4481
791.0693, 108.8524
791.5515, 111.3342
792.0336, 112.9303
792.5157, 113.6811
792.9978, 113.5873
793.4799, 112.6373
793.9620, 110.7850
794.4442, 108.1169
794.9263, 104.5402
795.4084, 100.2105
795.8905, 95.53176
796.3726, 90.71038
796.8547, 85.56924
797.3369, 79.79733
797.8190, 73.59523
798.3011, 67.56274
798.7832, 61.44608
799.2653, 55.93635
799.7474, 51.30103
800.2296, 47.30096
800.7117, 43.21749
801.1938, 39.09146
801.6759, 35.35365
802.1580, 32.13785
802.6401, 29.45151
803.1223, 27.66672
803.6044, 26.46033
804.0865, 25.02079
804.5686, 22.72474
805.0507, 20.49294
805.5328, 18.47616
806.0150, 16.73984
806.4971, 15.53900
806.9792, 15.08141
807.4613, 14.47033
807.9434, 13.36759
808.4255, 12.06218
808.9077, 11.17031
809.3898, 10.64632
809.8719, 10.28990
810.3540, 10.09656
810.8361, 9.947116
811.3182, 9.888361
811.8004, 9.796479
812.2825, 9.378363
812.7646, 7.744184
813.2467, 6.821313
813.7288, 7.355540
814.2109, 8.662275
814.6931, 8.908979
815.1752, 7.974551
815.6573, 7.089186
816.1394, 6.560569
816.6215, 6.328955
817.1037, 6.524400
817.5858, 6.942159
818.0679, 7.043214
818.5500, 6.128316
819.0322, 5.356110
819.5143, 5.388089
819.9964, 5.952750
820.4785, 6.525459
820.9606, 7.215902
821.4427, 7.610273
821.9249, 7.556775
822.4070, 7.266596
822.8891, 7.192286
823.3712, 7.308924
823.8533, 7.313696
824.3354, 7.036792
824.8176, 6.793216
825.2997, 7.016379
825.7818, 7.508168
826.2639, 7.924163
826.7460, 8.273860
827.2281, 8.388696
827.7103, 7.860565
828.1924, 7.250142
828.6745, 7.480615
829.1566, 8.987467
829.6387, 9.453022
830.1208, 8.276353
830.6030, 6.562965
831.0851, 6.126399
831.5672, 6.552314
832.0493, 6.693697
832.5314, 6.182131
833.0135, 5.492792
833.4957, 4.706710
833.9778, 4.039468
834.4599, 3.735696
834.9420, 4.343127
835.4241, 4.593441
835.9063, 4.304231
836.3884, 3.873378
836.8705, 3.887356
837.3526, 4.322633
837.8347, 4.193262
838.3168, 3.271574
838.7990, 2.355863
839.2811, 2.405350
839.7632, 2.925169
840.2453, 3.195511
840.7274, 2.951382
841.2095, 2.889641
841.6917, 3.484330
842.1738, 4.184566
842.6559, 4.551929
843.1380, 4.467314
843.6201, 4.512496
844.1022, 4.756304
844.5844, 4.892815
845.0665, 4.492525
845.5486, 3.770566
846.0307, 3.322013
846.5128, 3.200718
846.9949, 3.230733
847.4771, 3.519959
847.9592, 3.751348
848.4413, 3.620758
848.9234, 2.992815
849.4055, 2.553107
849.8876, 2.282375
850.3698, 2.270423
850.8519, 2.669986
851.3340, 3.436329
851.8161, 4.036440
852.2982, 4.469337
852.7803, 4.618007
853.2625, 4.226881
853.7446, 3.618256
854.2267, 3.010331
854.7088, 2.447488
855.1909, 2.205142
855.6730, 2.706211
856.1552, 3.206815
856.6373, 3.442056
857.1194, 3.430758
857.6015, 3.266353
858.0836, 2.900950
858.5657, 2.751766
859.0479, 3.251019
859.5300, 3.928469
860.0121, 3.661340
860.4942, 2.731030
860.9763, 2.125765
861.4584, 2.652148
861.9406, 3.308056
862.4227, 3.715065
862.9048, 3.878288
863.3869, 3.880608
863.8690, 3.674495
864.3511, 3.396994
864.8333, 2.990261
865.3154, 2.639679
865.7975, 2.915171
866.2796, 3.635141
866.7617, 3.990846
867.2438, 3.526621
867.7260, 2.908089
868.2081, 2.583181
868.6902, 2.450768
869.1723, 2.343693
869.6544, 2.268993
870.1365, 2.168134
870.6187, 2.075967
871.1008, 1.914156
871.5829, 1.374511
872.0650, 0.5080635
872.5471, 0.5201510
873.0292, 1.747111
873.5114, 3.064242
873.9935, 3.326990
874.4756, 2.984829
874.9577, 2.538416
875.4399, 1.963714
875.9220, 1.681860
876.4041, 2.228221
876.8862, 2.741370
877.3683, 2.547041
877.8505, 1.445552
878.3326, 1.081138
878.8147, 1.529681
879.2968, 2.158098
879.7789, 2.417794
880.2610, 2.492299
880.7432, 2.766495
881.2253, 3.246696
881.7074, 3.470706
882.1895, 2.917599
882.6716, 2.322373
883.1537, 2.022846
883.6359, 2.020993
884.1180, 2.492363
884.6001, 3.627548
885.0822, 4.436911
885.5643, 4.284548
886.0464, 3.570884
886.5286, 3.281188
887.0107, 3.306274
887.4928, 3.194362
887.9749, 2.330240
888.4570, 1.654713
888.9391, 1.730126
889.4213, 2.391018
889.9034, 3.095702
890.3855, 4.030324
890.8676, 4.507228
891.3497, 4.345228
891.8318, 3.715327
892.3140, 2.665759
892.7961, 1.376080
893.2782, 0.5798070
893.7603, 0.6145052
894.2424, 0.9371941
894.7245, 1.255347
895.2067, 1.582207
895.6888, 1.940454
896.1709, 2.432326
896.6530, 2.797665
897.1351, 3.059711
897.6172, 3.153643
898.0994, 2.919938
898.5815, 2.416920
899.0636, 2.079129
899.5457, 1.955306
900.0278, 1.915449
900.5099, 1.921856
900.9921, 1.917112
901.4742, 1.803346
901.9563, 1.536520
902.4384, 1.466018
902.9205, 1.709861
903.4026, 2.042127
903.8848, 2.505594
904.3669, 3.008505
904.8490, 2.524265
905.3311, 1.102898
905.8132, 3.7202369E-02
906.2953, 0.4562888
906.7775, 1.337538
907.2596, 1.609575
907.7417, 1.455788
908.2238, 1.576418
908.7059, 2.749772
909.1880, 3.449330
909.6702, 3.121704
910.1523, 2.285134
910.6344, 2.291754
911.1165, 3.118737
911.5986, 3.660538
912.0807, 3.581492
912.5629, 3.188698
913.0450, 2.671354
913.5271, 2.126682
914.0092, 1.680626
914.4913, 1.282459
914.9734, 1.179325
915.4556, 1.677504
915.9377, 2.220051
916.4198, 2.182163
916.9019, 1.500273
917.3840, 1.448839
917.8661, 2.143782
918.3483, 2.998183
918.8304, 3.759094
919.3125, 4.224231
919.7946, 3.912234
920.2767, 2.771115
920.7589, 2.075823
921.2410, 2.634849
921.7231, 3.293385
922.2052, 3.647645
922.6873, 3.710610
923.1694, 3.482061
923.6516, 2.949420
924.1337, 2.644745
924.6158, 3.120714
925.0979, 3.721462
925.5800, 3.332983
926.0621, 2.376946
926.5443, 1.902275
927.0264, 2.735702
927.5085, 3.511609
927.9906, 3.934563
928.4727, 4.165473
928.9548, 4.557947
929.4370, 5.134665
929.9191, 5.138929
930.4012, 4.341992
930.8833, 3.373272
931.3654, 2.702034
931.8475, 2.403354
932.3297, 2.709195
932.8118, 3.945649
933.2939, 4.718911
933.7761, 4.514351
934.2582, 3.932609
934.7403, 3.168680
935.2224, 2.200371
935.7045, 1.956922
936.1866, 2.465074
936.6688, 2.892971
937.1509, 2.315873
937.6330, 1.576192
938.1151, 1.723630
938.5972, 2.628335
939.0793, 3.482139
939.5615, 4.373533
940.0436, 4.747705
940.5257, 4.269093
941.0078, 3.307973
941.4899, 2.830638
941.9720, 2.828070
942.4542, 3.108052
942.9363, 3.715268
943.4184, 4.345070
943.9005, 4.690073
944.3826, 4.838953
944.8647, 4.891726
945.3469, 4.565837
945.8290, 4.790801
946.3111, 6.010543
946.7932, 7.290520
947.2753, 7.745275
947.7574, 7.425736
948.2396, 7.280753
948.7217, 7.342946
949.2038, 7.589019
949.6859, 8.022447
950.1680, 8.615365
950.6501, 9.519830
951.1323, 10.69117
951.6144, 11.28838
952.0965, 10.53695
952.5786, 10.39563
953.0607, 11.65575
953.5428, 13.80187
954.0250, 15.22277
954.5071, 16.06253
954.9892, 17.18664
955.4713, 19.02346
955.9534, 21.06363
956.4355, 22.82017
956.9177, 24.57104
957.3998, 26.75899
957.8819, 29.57232
958.3640, 32.54401
958.8461, 35.62284
959.3282, 38.97290
959.8104, 42.70144
960.2925, 46.79354
960.7746, 51.17486
961.2567, 55.85474
961.7388, 60.54613
962.2209, 65.04808
962.7031, 69.59035
963.1852, 74.26331
963.6673, 79.06509
964.1494, 84.08915
964.6315, 89.28438
965.1136, 94.76033
965.5958, 100.7720
966.0779, 106.8596
966.5600, 112.8850
967.0421, 118.2714
967.5242, 121.2904
968.0063, 121.1924
968.4885, 118.7800
968.9706, 113.4432
969.4527, 106.3761
969.9348, 98.86462
970.4169, 90.84019
970.8990, 82.78969
971.3812, 74.70387
971.8633, 66.94258
972.3454, 59.91503
972.8275, 53.55655
973.3096, 47.59105
973.7917, 42.03551
974.2739, 37.38502
974.7560, 34.65031
975.2381, 31.96541
975.7202, 28.41076
976.2023, 24.30751
976.6844, 21.22011
977.1666, 19.11830
977.6487, 17.50552
978.1308, 16.36382
978.6129, 15.36087
979.0950, 14.06636
979.5771, 12.68635
980.0593, 11.55008
980.5414, 11.01165
981.0235, 10.30205
981.5056, 9.180276
981.9877, 8.169701
982.4698, 7.954634
982.9520, 8.368266
983.4341, 8.293178
983.9162, 7.663374
984.3983, 7.034154
984.8804, 6.857306
985.3625, 6.785068
985.8447, 6.543426
986.3268, 6.134145
986.8089, 5.841717
987.2910, 5.603676
987.7731, 5.713997
988.2552, 6.455551
988.7374, 7.347277
989.2195, 7.320730
989.7016, 6.638141
990.1837, 5.972502
990.6658, 5.590028
991.1479, 5.176291
991.6301, 4.312319
992.1122, 3.557341
992.5944, 3.574323
993.0765, 4.650418
993.5586, 4.739175
994.0407, 3.686037
994.5228, 2.731303
995.0049, 3.059170
995.4871, 3.989578
995.9692, 4.779500
996.4513, 5.368206
996.9334, 5.650388
997.4155, 5.235280
997.8976, 4.968489
998.3798, 5.188826
998.8619, 5.584240
999.3440, 5.226475
999.8261, 4.227395
1000.308, 3.756517
1000.790, 4.303914
1001.272, 4.822080
1001.755, 4.092571
1002.237, 3.058090
1002.719, 2.801434
1003.201, 3.814147
1003.683, 4.442813
1004.165, 4.605578
1004.647, 4.604587
1005.129, 4.501054
1005.612, 4.417227
1006.094, 4.934957
1006.576, 5.871725
1007.058, 6.390596
1007.540, 5.595138
1008.022, 4.806501
1008.504, 4.608112
1008.986, 4.748853
1009.468, 4.832997
1009.951, 4.862233
1010.433, 4.788602
1010.915, 4.577090
1011.397, 4.389521
1011.879, 4.401008
1012.361, 4.547334
1012.843, 4.765316
1013.325, 5.051067
1013.807, 5.363074
1014.290, 5.817585
1014.772, 6.116426
1015.254, 6.114431
1015.736, 5.854825
1016.218, 5.362413
1016.700, 4.719325
1017.182, 4.411171
1017.664, 4.889672
1018.147, 5.461079
1018.629, 5.791558
1019.111, 5.887781
1019.593, 5.704317
1020.075, 4.939554
1020.557, 4.962634
1021.039, 6.032541
1021.521, 7.086997
1022.003, 6.943191
1022.486, 6.158994
1022.968, 5.695816
1023.450, 5.591525
1023.932, 5.541243
1024.414, 5.305726
1024.896, 5.271842
1025.378, 5.704020
1025.860, 6.347178
1026.343, 6.381213
1026.825, 5.855881
1027.307, 5.463967
1027.789, 5.398316
1028.271, 5.503723
1028.753, 5.681891
1029.235, 5.933835
1029.717, 6.305291
1030.199, 6.933168
1030.682, 7.200821
1031.164, 7.092526
1031.646, 6.667834
1032.128, 5.686076
1032.610, 4.510480
1033.092, 4.071525
1033.574, 4.278240
1034.056, 4.812609
1034.539, 5.701831
1035.021, 6.694232
1035.503, 8.064455
1035.985, 9.265718
1036.467, 9.413940
1036.949, 8.475544
1037.431, 7.787588
1037.913, 7.506311
1038.396, 7.415395
1038.878, 7.254760
1039.360, 7.237857
1039.842, 7.677976
1040.324, 8.591336
1040.806, 9.267366
1041.288, 9.771642
1041.770, 9.801359
1042.252, 9.166263
1042.734, 8.135371
1043.217, 6.967555
1043.699, 5.865748
1044.181, 5.356743
1044.663, 5.665357
1045.145, 6.419251
1045.627, 8.122949
1046.109, 9.673936
1046.591, 10.16323
1047.074, 9.543683
1047.556, 9.035780
1048.038, 8.635498
1048.520, 8.398954
1049.002, 8.411227
1049.484, 8.561605
1049.966, 8.986597
1050.448, 9.467375
1050.931, 9.316291
1051.413, 7.818817
1051.895, 7.280892
1052.377, 8.254508
1052.859, 9.508227
1053.341, 9.352914
1053.823, 8.391799
1054.305, 7.999345
1054.787, 8.336250
1055.270, 8.695326
1055.752, 8.715328
1056.234, 8.744076
1056.716, 8.945179
1057.198, 9.265486
1057.680, 9.533929
1058.162, 9.744178
1058.644, 9.770494
1059.126, 9.494635
1059.609, 9.221435
1060.091, 9.359280
1060.573, 9.576925
1061.055, 9.442801
1061.537, 8.749573
1062.019, 8.411840
1062.501, 8.490218
1062.983, 8.702728
1063.466, 8.966146
1063.948, 9.184297
1064.430, 8.965199
1064.912, 8.534604
1065.394, 8.570154
1065.876, 10.05109
1066.358, 11.02167
1066.840, 10.98207
1067.323, 10.53406
1067.805, 10.45033
1068.287, 10.65241
1068.769, 10.43221
1069.251, 9.738275
1069.733, 9.420745
1070.215, 10.70828
1070.697, 11.99910
1071.179, 12.02570
1071.661, 11.09662
1072.144, 10.59091
1072.626, 10.58000
1073.108, 10.50768
1073.590, 10.18187
1074.072, 9.899724
1074.554, 10.21780
1075.036, 10.72233
1075.518, 10.79988
1076.001, 10.18510
1076.483, 9.952672
1076.965, 10.52163
1077.447, 10.74688
1077.929, 9.700227
1078.411, 8.086170
1078.893, 8.197898
1079.375, 9.543594
1079.858, 10.52291
1080.340, 10.28757
1080.822, 9.865460
1081.304, 9.524581
1081.786, 9.210055
1082.268, 8.869271
1082.750, 8.503344
1083.232, 8.146610
1083.714, 7.799767
1084.197, 7.661124
1084.679, 8.182051
1085.161, 8.679536
1085.643, 8.449247
1086.125, 8.774468
1086.607, 7.662722
1087.089, 8.468228
1087.571, 8.608488
1088.054, 7.696593
1088.536, 6.667257
1089.018, 6.674048
1089.500, 7.241899
1089.982, 7.732506
1090.464, 8.072836
1090.946, 8.365616
1091.428, 8.800974
1091.911, 8.890375
1092.393, 8.334306
1092.875, 7.491329
1093.357, 7.199115
1093.839, 7.350949
1094.321, 7.641870
1094.803, 8.063290
1095.285, 8.368202
1095.767, 8.246763
1096.250, 8.148532
1096.732, 8.506395
1097.214, 9.261822
1097.696, 9.166373
1098.178, 8.250978
1098.660, 7.187685
1099.142, 6.049950
1099.624, 5.209715
1100.106, 5.045881
1100.589, 5.336855
1101.071, 5.772571
1101.553, 6.507114
1102.035, 6.696329
1102.517, 6.212996
1102.999, 5.824186
1103.481, 6.605448
1103.963, 7.579904
1104.446, 7.136557
1104.928, 5.645442
1105.410, 4.805170
1105.892, 5.508425
1106.374, 6.026167
1106.856, 6.125842
1107.338, 5.983913
1107.820, 5.767748
1108.302, 5.515545
1108.785, 5.251379
1109.267, 4.982238
1109.749, 4.959091
1110.231, 5.880708
1110.713, 6.337002
1111.195, 5.606063
1111.677, 4.209367
1112.159, 3.640778
1112.641, 3.770767
1113.124, 3.728770
1113.606, 3.185128
1114.088, 2.917361
1114.570, 3.899487
1115.052, 4.999845
1115.534, 5.233047
1116.016, 4.642596
1116.498, 4.439815
1116.981, 4.641908
1117.463, 4.618159
1117.945, 3.858305
1118.427, 3.128722
1118.909, 3.377451
1119.391, 4.064988
1119.873, 4.414764
1120.355, 4.237166
1120.838, 4.041589
1121.320, 3.828993
1121.802, 3.594064
1122.284, 3.351306
1122.766, 3.073842
1123.248, 2.642670
1123.730, 2.138078
1124.212, 1.771671
1124.694, 1.551736
1125.177, 1.584619
1125.659, 1.915331
1126.141, 2.421593
1126.623, 3.228980
1127.105, 4.053782
1127.587, 4.014892
1128.069, 3.175849
1128.551, 2.339786
1129.033, 1.725277
1129.516, 1.352229
1129.998, 1.260578
1130.480, 1.344944
1130.962, 1.445305
1131.444, 1.563262
1131.926, 1.768332
1132.408, 2.081705
1132.890, 2.202200
1133.373, 1.664682
1133.855, 1.156543
1134.337, 1.086762
1134.819, 1.347691
1135.301, 1.667284
1135.783, 2.032221
1136.265, 2.057971
1136.747, 1.547355
1137.229, 1.074160
1137.712, 1.032774
1138.194, 1.317935
1138.676, 1.999863
1139.158, 3.060482
1139.640, 3.587706
1140.122, 3.538056
1140.604, 3.400441
1141.086, 3.325280
1141.569, 3.340927
1142.051, 3.883540
1142.533, 4.346427
1143.015, 3.711521
1143.497, 1.135859
1143.979, 0.1461386
1144.461, 1.155080
1144.943, 2.149448
1145.426, 1.750385
1145.908, 0.7118396
1146.390, 9.6604442E-03
1146.872, -0.3572426
1147.354, -0.3973919
1147.836, 0.2446819
1148.318, 0.6479565
1148.800, 0.6796900
1149.282, 0.7298511
1149.765, 1.417658
1150.247, 2.256381
1150.729, 1.865396
1151.211, 0.5516848
1151.693, -0.3211519
1152.175, 0.1371985
1152.657, 0.6122667
1153.139, 0.9858341
1153.621, 1.141284
1154.104, 0.7644842
1154.586, 6.6654392E-02
1155.068, -0.2907662
1155.550, -0.2640164
1156.032, 0.1046085
1156.514, 1.454780
1156.996, 2.275961
1157.478, 1.823605
1157.961, 0.8936558
1158.443, 1.107013
1158.925, 2.190177
1159.407, 2.461302
1159.889, 1.661579
1160.371, 1.001671
1160.853, 1.486168
1161.335, 2.024453
1161.818, 2.095094
1162.300, 1.783289
1162.782, 1.164668
1163.264, 0.2988980
1163.746, -5.7153210E-02
1164.228, 0.3321852
1164.710, 0.7937253
1165.192, 0.8840827
1165.674, 0.8162228
1166.156, 0.6694893
1166.639, 0.4924549
1167.121, 0.7013321
1167.603, 1.290019
1168.085, 1.401367
1168.567, 0.5204130
1169.049, -0.1901579
1169.531, 0.8091010
1170.013, 2.104542
1170.496, 1.992689
1170.978, 0.4141389
1171.460, 0.2493404
1171.942, 1.592608
1172.424, 2.607155
1172.906, 2.329059
1173.388, 1.634910
1173.870, 1.180468
1174.353, 0.9504504
1174.835, 1.003620
1175.317, 1.432507
1175.799, 1.517695
1176.281, 1.228894
1176.763, 0.8403361
1177.245, 0.4454168
1177.727, 9.2348233E-02
1178.209, -0.1570254
1178.692, -0.3298150
1179.174, -0.5025035
1179.656, -0.9021295
1180.138, -0.5787300
1180.620, 0.6429459
1181.102, 1.701444
1181.584, 1.727175
1182.066, 1.235885
1182.548, 0.5643502
1183.031, -5.9563339E-02
1183.513, -4.5586411E-02
1183.995, 1.399864
1184.477, 1.674854
1184.959, 0.3797254
1185.441, -0.9386870
1185.923, -0.8421556
1186.405, 7.5562089E-03
1186.888, 0.9856737
1187.370, 1.935399
1187.852, 2.364702
1188.334, 1.901483
1188.816, 1.510288
1189.298, 1.250126
1189.780, 1.164566
1190.262, 1.516050
1190.745, 1.948297
1191.227, 1.893438
1191.709, 1.390918
1192.191, 0.7770799
1192.673, -0.3568179
1193.155, -0.5059516
1193.637, 0.8547326
1194.119, 2.359454
1194.601, 2.255216
1195.084, 1.280441
1195.566, 0.3582557
1196.048, -0.3663408
1196.530, -0.2498233
1197.012, 1.806024
1197.494, 2.578412
1197.976, 1.082949
1198.458, -1.012716
1198.941, -1.344128
1199.423, -0.6514877
1199.905, -0.1020159
1200.387, 0.1758993
1200.869, 0.4066072
1201.351, 0.7202938
1201.833, 0.7646113
1202.315, 0.2932796
1202.797, -0.1557862
1203.280, 0.5531703
1203.762, 1.786261
1204.244, 2.455812
1204.726, 2.380042
1205.208, 2.056523
1205.690, 1.390528
1206.172, 0.8755381
1206.654, 0.6642777
1207.136, 0.6603581
1207.619, 0.9157560
1208.101, 1.171497
1208.583, 0.8305029
1209.065, -0.3486687
1209.547, -0.9483269
1210.029, -0.4311429
1210.511, -0.1538274
1210.993, -0.8164237
1211.476, -1.633789
1211.958, -0.8273541
1212.440, 0.7464172
1212.922, 1.429780
1213.404, 0.6595827
1213.886, 0.3567069
1214.368, 0.9716256
1214.850, 1.465325
1215.333, 1.315568
1215.815, 0.9352618
1216.297, 1.233714
1216.779, 1.804328
1217.261, 1.869438
1217.743, 1.099785
1218.225, 0.4568615
1218.707, 3.0680850E-02
1219.189, -0.2853731
1219.672, -0.5938586
1220.154, -0.7555885
1220.636, -0.3515950
1221.118, 0.3303186
1221.600, 0.7706934
1222.082, 0.7585294
1222.564, 0.7774400
1223.046, 0.9075043
1223.528, 0.8811960
1224.011, 0.3939946
1224.493, -0.1329050
1224.975, 0.1742401
1225.457, 0.9110336
1225.939, 1.384468
1226.421, 1.388171
1226.903, 1.175457
1227.385, 0.6561841
1227.868, 0.2678189
1228.350, 0.4134093
1228.832, 0.6503730
1229.314, 6.1554730E-02
1229.796, -0.8359863
1230.278, -1.103365
1230.760, -0.1931223
1231.242, 0.2510985
1231.724, 0.1473903
1232.207, -2.1006251E-02
1232.689, 2.2471610E-02
1233.171, 0.1690688
1233.653, 0.3071551
1234.135, 0.4389240
1234.617, 0.5874656
1235.099, 0.8339698
1235.581, 0.7901882
1236.063, 0.4090582
1236.546, 6.9651529E-02
1237.028, 0.1225077
1237.510, 0.2170694
1237.992, -0.1824057
1238.474, -0.7311893
1238.956, -0.8262205
1239.438, -0.3616294
1239.920, 0.2312671
1240.403, 0.9657503
1240.885, 1.522547
1241.367, 1.726539
1241.849, 1.624175
1242.331, 1.069313
1242.813, 0.3138023
1243.295, -0.2999377
1243.777, -0.8211179
1244.260, -0.8580062
1244.742, -0.4119219
1245.224, 0.2215524
1245.706, 1.274956
1246.188, 2.007617
1246.670, 1.670534
1247.152, 0.8395168
1247.634, 0.2800716
1248.116, -1.8266151E-02
1248.599, 8.6167537E-02
1249.081, 0.5660775
1249.563, 1.037899
1250.045, 1.390260
1250.527, 1.530777
1251.009, 1.247550
1251.491, 0.8394976
1251.973, 0.6911036
1252.455, 0.7754750
1252.938, 0.2050015
1253.420, -0.9144249
1253.902, -1.708914
1254.384, -1.445178
1254.866, -1.093472
1255.348, -1.032118
1255.830, -1.007828
1256.313, -0.7968731
1256.795, -0.4237915
1257.277, -1.0143700E-02
1257.759, 0.4304188
1258.241, 0.8295067
1258.723, 1.446178
1259.205, 1.564188
1259.687, 0.8614668
1260.169, -2.6323540E-02
1260.651, -0.6688173
1261.134, -1.025032
1261.616, -0.7888721
1262.098, -0.1308321
1262.580, 0.3625931
1263.062, 0.5228977
1263.544, 0.3261760
1264.026, -0.4762042
1264.508, -1.035227
1264.991, -0.3333880
1265.473, 0.9337364
1265.955, 1.463803
1266.437, 1.434510
1266.919, 1.344506
1267.401, 1.335791
1267.883, 1.242779
1268.365, 1.069757
1268.848, 0.7838565
1269.330, 0.1364465
1269.812, -0.4598245
1270.294, -0.3533313
1270.776, 0.1865060
1271.258, 0.5926736
1271.740, 0.9282531
1272.222, 0.6313905
1272.704, -0.3993503
1273.187, -1.175419
1273.669, -0.7345054
1274.151, -1.5882799E-02
1274.633, 0.2513002
1275.115, 0.1991265
1275.597, 5.1359809E-03
1276.079, -0.4051348
1276.561, -0.2600689
1277.043, 0.4232205
1277.526, 1.038450
1278.008, 1.157344
1278.490, 1.160122
1278.972, 1.282023
1279.454, 1.381776
1279.936, 1.328573
1280.418, 1.124223
1280.900, 0.6153507
1281.383, -9.8351017E-02
1281.865, -0.3863390
1282.347, 0.7043009
1282.829, 1.340523
1283.311, 0.4332028
1283.793, -0.5636002
1284.275, -0.4708104
1284.757, 0.4320565
1285.240, 1.204958
1285.722, 1.770749
1286.204, 1.842927
1286.686, 0.9902524
1287.168, 0.1629123
1287.650, -0.6357378
1288.132, -1.130143
1288.614, -0.8868935
1289.096, -0.3771978
1289.578, -0.7798334
1290.061, -0.5104614
1290.543, -0.4215020
1291.025, -0.7514654
1291.507, -0.3798318
1291.989, -0.9420850
1292.471, -1.297594
1292.953, -0.5142147
1293.435, 0.4558379
1293.918, 0.2952476
1294.400, -0.3338807
1294.882, -0.3890493
1295.364, 0.2670722
1295.846, 0.5646029
1296.328, 0.4989891
1296.810, 0.3304202
1297.292, 0.1040627
1297.775, -4.4264492E-02
1298.257, 1.7347511E-02
1298.739, 0.1935622
1299.221, 0.3940827
1299.703, 0.6162277
1300.185, 0.8391125
1300.667, 1.057990
1301.149, 1.295557
1301.631, 1.749419
1302.114, 1.714279
1302.596, 0.9250309
##END=



