##NAMES=Munakataite
##RRUFFID=R110005
##IDEAL CHEMISTRY=Pb^2+^_2_Cu^2+^_2_(Se^4+^O_3_)S^6+^O_4_(OH)_4_
##LOCALITY=Tonopah-Belmont mine, Maricopa County, Arizona, USA
##OWNER=RRUFF
##SOURCE=Marcus Origlieri
##DESCRIPTION=Blue acicular to prismatic crystals with tapering terminations, associated with brochantite and cerussite
##STATUS=The identification of this mineral has been confirmed by single-crystal X-ray diffraction.
##URL=rruff.info/R110005
174.9758, 15.01398
175.4579, 14.20007
175.9401, 13.89313
176.4222, 13.83559
176.9043, 13.74859
177.3864, 13.55732
177.8685, 13.38657
178.3506, 13.42575
178.8328, 13.74236
179.3149, 14.02908
179.7970, 14.28185
180.2791, 14.41579
180.7612, 14.30348
181.2433, 13.87290
181.7255, 13.27355
182.2076, 12.83470
182.6897, 12.67527
183.1718, 12.46199
183.6539, 11.97074
184.1360, 11.45727
184.6181, 11.16983
185.1003, 11.22608
185.5824, 11.59686
186.0645, 12.19289
186.5466, 13.41343
187.0287, 14.37080
187.5108, 14.84295
187.9930, 15.01738
188.4751, 15.18175
188.9572, 15.51202
189.4393, 15.89909
189.9214, 15.70149
190.4035, 13.97985
190.8857, 12.71795
191.3678, 12.47270
191.8499, 12.92801
192.3320, 13.61372
192.8141, 14.32287
193.2962, 14.96698
193.7784, 14.78951
194.2605, 12.63198
194.7426, 11.07067
195.2247, 11.51929
195.7068, 13.37697
196.1889, 14.85880
196.6711, 14.79214
197.1532, 13.48582
197.6353, 12.73245
198.1174, 12.97449
198.5995, 13.29873
199.0816, 13.09145
199.5638, 12.44450
200.0459, 11.97038
200.5280, 11.98720
201.0101, 12.49618
201.4922, 13.34204
201.9743, 15.04518
202.4565, 16.56074
202.9386, 16.73825
203.4207, 15.53670
203.9028, 14.52972
204.3849, 15.14494
204.8670, 16.26685
205.3492, 16.15263
205.8313, 13.83163
206.3134, 11.02183
206.7955, 10.05706
207.2776, 11.34897
207.7597, 12.57286
208.2419, 12.56955
208.7240, 11.99109
209.2061, 11.33483
209.6882, 10.67348
210.1703, 10.17624
210.6524, 10.21711
211.1346, 11.03400
211.6167, 11.77981
212.0988, 12.19238
212.5809, 12.40996
213.0630, 12.56520
213.5451, 12.71553
214.0273, 12.80469
214.5094, 12.71420
214.9915, 12.46373
215.4736, 11.95835
215.9557, 10.71751
216.4378, 9.455577
216.9200, 9.026891
217.4021, 9.842112
217.8842, 11.33426
218.3663, 11.83272
218.8484, 9.996019
219.3305, 9.116709
219.8127, 10.49426
220.2948, 12.57176
220.7769, 13.56592
221.2590, 12.66362
221.7411, 10.61372
222.2232, 9.642081
222.7054, 11.29565
223.1875, 12.22446
223.6696, 11.80569
224.1517, 10.71918
224.6338, 9.658366
225.1159, 8.924976
225.5980, 8.530153
226.0802, 8.521219
226.5623, 9.220067
227.0444, 9.938565
227.5265, 10.92535
228.0086, 11.82172
228.4907, 11.99263
228.9729, 11.13177
229.4550, 9.771913
229.9371, 9.336746
230.4192, 10.40161
230.9013, 11.41886
231.3834, 12.52309
231.8656, 13.35830
232.3477, 13.14543
232.8298, 11.43960
233.3119, 9.151443
233.7940, 8.423631
234.2761, 9.824813
234.7583, 10.98346
235.2404, 11.14086
235.7225, 10.69823
236.2046, 10.37002
236.6867, 10.41731
237.1688, 10.58864
237.6510, 10.37148
238.1331, 9.687588
238.6152, 9.170064
239.0973, 8.969695
239.5794, 9.088213
240.0615, 9.709385
240.5437, 11.17543
241.0258, 12.53771
241.5079, 12.23853
241.9900, 10.29867
242.4721, 8.710817
242.9542, 8.576055
243.4364, 9.425644
243.9185, 10.06939
244.4006, 10.25105
244.8827, 10.22548
245.3648, 10.17762
245.8469, 10.11930
246.3290, 10.19594
246.8112, 10.77376
247.2933, 11.56949
247.7754, 11.60032
248.2575, 10.31060
248.7396, 8.967641
249.2217, 8.662353
249.7039, 9.144050
250.1860, 9.590987
250.6681, 9.494822
251.1502, 9.000115
251.6323, 8.676923
252.1144, 8.725055
252.5966, 8.647914
253.0787, 7.955427
253.5608, 6.924133
254.0429, 6.174116
254.5250, 6.112684
255.0071, 6.610347
255.4893, 7.223028
255.9714, 8.152839
256.4535, 8.847155
256.9356, 8.996028
257.4177, 8.798862
257.8998, 8.570962
258.3820, 8.466882
258.8641, 8.463799
259.3462, 8.503214
259.8283, 8.690136
260.3104, 8.733255
260.7925, 8.398932
261.2747, 7.927732
261.7568, 7.655663
262.2389, 7.778006
262.7210, 8.146267
263.2031, 8.317240
263.6852, 8.146625
264.1674, 8.018772
264.6495, 8.230492
265.1316, 8.445843
265.6137, 8.185352
266.0958, 7.209214
266.5779, 5.962992
267.0601, 5.585837
267.5422, 6.776186
268.0243, 7.597273
268.5064, 7.606392
268.9885, 7.270782
269.4706, 6.930116
269.9528, 6.714863
270.4349, 6.659460
270.9170, 6.844292
271.3991, 7.360544
271.8812, 7.956132
272.3633, 8.777805
272.8455, 9.553553
273.3276, 10.07827
273.8097, 10.30342
274.2918, 10.30951
274.7739, 10.20525
275.2560, 9.955286
275.7382, 9.658734
276.2202, 9.431779
276.7024, 9.086048
277.1845, 8.326119
277.6666, 7.209514
278.1487, 6.201518
278.6308, 5.894786
279.1129, 6.513337
279.5951, 7.085185
280.0772, 7.882927
280.5593, 8.421575
281.0414, 8.238975
281.5235, 7.472155
282.0056, 6.705876
282.4878, 6.493643
282.9699, 6.886629
283.4520, 7.503213
283.9341, 8.856175
284.4162, 9.914934
284.8983, 10.25114
285.3805, 9.930283
285.8626, 9.153529
286.3447, 7.985486
286.8268, 6.448094
287.3089, 5.692292
287.7910, 6.381762
288.2732, 7.070215
288.7553, 7.451844
289.2374, 7.527378
289.7195, 7.311246
290.2016, 6.782710
290.6837, 6.034005
291.1659, 5.576508
291.6480, 5.534918
292.1301, 5.638701
292.6122, 5.747416
293.0943, 6.001846
293.5764, 6.791201
294.0586, 8.328592
294.5407, 10.10187
295.0228, 10.72351
295.5049, 8.469343
295.9870, 7.142817
296.4691, 7.488586
296.9513, 8.562603
297.4334, 9.453024
297.9155, 9.848696
298.3976, 9.871652
298.8797, 9.711003
299.3618, 9.272786
299.8440, 8.797392
300.3261, 8.174276
300.8082, 7.586533
301.2903, 7.105574
301.7724, 6.775846
302.2545, 6.739340
302.7367, 7.241868
303.2188, 8.566755
303.7009, 9.263287
304.1830, 8.662034
304.6651, 8.038444
305.1472, 8.452038
305.6294, 9.754536
306.1115, 10.82730
306.5936, 10.64492
307.0757, 9.112269
307.5578, 8.080871
308.0399, 7.543877
308.5221, 7.403146
309.0042, 7.972284
309.4863, 8.942842
309.9684, 9.476027
310.4505, 8.932815
310.9326, 7.574105
311.4148, 7.277864
311.8969, 9.296906
312.3790, 10.76162
312.8611, 10.55551
313.3432, 9.425704
313.8253, 8.604425
314.3075, 8.662526
314.7896, 9.278049
315.2717, 9.640612
315.7538, 9.779055
316.2359, 9.615378
316.7180, 8.759896
317.2001, 7.765402
317.6823, 7.267939
318.1644, 7.444440
318.6465, 7.986280
319.1286, 8.454619
319.6107, 8.855373
320.0928, 9.129625
320.5750, 8.979982
321.0571, 8.911161
321.5392, 9.465363
322.0213, 10.61995
322.5034, 11.75500
322.9855, 12.17754
323.4677, 11.71161
323.9498, 11.91498
324.4319, 13.30397
324.9140, 14.77320
325.3961, 15.87101
325.8782, 16.58267
326.3604, 17.02715
326.8425, 17.26559
327.3246, 17.31244
327.8067, 17.33021
328.2888, 17.32776
328.7709, 17.29187
329.2531, 17.18364
329.7352, 17.04598
330.2173, 17.04676
330.6994, 17.29080
331.1815, 17.51390
331.6636, 16.98773
332.1458, 14.36281
332.6279, 12.65911
333.1100, 12.18680
333.5921, 12.57135
334.0742, 13.79506
334.5563, 15.74658
335.0385, 17.67849
335.5206, 18.46243
336.0027, 17.59703
336.4848, 16.76546
336.9669, 15.38724
337.4490, 14.47331
337.9312, 15.06406
338.4133, 16.95157
338.8954, 18.84226
339.3775, 19.49551
339.8596, 18.78662
340.3417, 18.41132
340.8239, 18.58822
341.3060, 18.82147
341.7881, 18.86270
342.2702, 18.82935
342.7523, 19.04755
343.2344, 19.75510
343.7166, 20.77387
344.1987, 21.22655
344.6808, 20.78271
345.1629, 20.08182
345.6450, 19.00155
346.1271, 17.76426
346.6093, 16.52799
347.0914, 15.37355
347.5735, 14.40792
348.0556, 13.89595
348.5377, 14.25222
349.0198, 14.31392
349.5020, 13.76273
349.9841, 13.19251
350.4662, 13.11455
350.9483, 13.51472
351.4304, 13.91342
351.9125, 13.72239
352.3947, 12.77569
352.8768, 12.35656
353.3589, 13.07688
353.8410, 13.71225
354.3231, 13.70324
354.8052, 13.27412
355.2874, 12.95616
355.7695, 13.11652
356.2516, 13.67637
356.7337, 14.22140
357.2158, 15.10703
357.6979, 15.44271
358.1800, 14.32585
358.6621, 12.93024
359.1443, 12.80817
359.6264, 14.54462
360.1085, 16.88360
360.5906, 17.32946
361.0727, 14.72394
361.5548, 13.26588
362.0370, 14.16436
362.5191, 15.65911
363.0012, 16.87385
363.4833, 17.64252
363.9654, 18.06906
364.4475, 18.23298
364.9297, 18.12899
365.4118, 17.81376
365.8939, 16.66848
366.3760, 16.02474
366.8581, 16.97322
367.3402, 18.77950
367.8224, 19.86184
368.3045, 18.99442
368.7866, 17.01184
369.2687, 16.64634
369.7508, 19.03027
370.2329, 20.49886
370.7151, 18.58218
371.1972, 15.80328
371.6793, 14.78495
372.1614, 16.41217
372.6435, 18.93426
373.1256, 20.40645
373.6078, 20.80373
374.0899, 20.44145
374.5720, 18.37712
375.0541, 16.47481
375.5362, 16.38686
376.0183, 17.96490
376.5005, 19.46357
376.9826, 19.67248
377.4647, 18.87388
377.9468, 18.06021
378.4289, 17.21346
378.9110, 16.52318
379.3932, 16.26172
379.8753, 16.23068
380.3574, 16.03265
380.8395, 15.32106
381.3216, 14.59397
381.8037, 14.65673
382.2859, 15.53229
382.7680, 16.05810
383.2501, 15.49880
383.7322, 14.43393
384.2143, 13.82306
384.6964, 13.78438
385.1786, 13.85393
385.6607, 13.80131
386.1428, 13.65753
386.6249, 13.57816
387.1070, 13.69505
387.5891, 13.60762
388.0713, 12.45573
388.5534, 10.36085
389.0355, 9.107195
389.5176, 10.05486
389.9997, 11.38513
390.4818, 10.97668
390.9640, 8.827272
391.4461, 6.843314
391.9282, 6.334154
392.4103, 7.091955
392.8924, 7.732432
393.3745, 8.417642
393.8567, 8.824494
394.3388, 8.453593
394.8209, 7.754288
395.3030, 7.780035
395.7851, 9.010442
396.2672, 10.58074
396.7494, 10.90867
397.2315, 9.306229
397.7136, 8.059451
398.1957, 7.143982
398.6778, 6.690241
399.1599, 7.163720
399.6420, 8.401941
400.1241, 9.361239
400.6063, 9.032608
401.0884, 7.360100
401.5705, 6.273791
402.0526, 6.063471
402.5347, 6.023376
403.0168, 6.010658
403.4990, 6.011679
403.9811, 6.016105
404.4632, 6.017213
404.9453, 6.060021
405.4274, 6.260763
405.9095, 6.711149
406.3917, 7.173486
406.8738, 7.950222
407.3559, 8.514159
407.8380, 8.226074
408.3201, 7.184169
408.8022, 6.254657
409.2844, 6.365966
409.7665, 7.594882
410.2486, 8.670975
410.7307, 10.17396
411.2128, 10.81978
411.6949, 9.292169
412.1771, 6.855999
412.6592, 5.702072
413.1413, 7.113385
413.6234, 9.691692
414.1055, 10.24666
414.5876, 7.991148
415.0698, 6.112657
415.5519, 5.283508
416.0340, 5.157583
416.5161, 5.780005
416.9982, 7.088316
417.4803, 8.434934
417.9625, 9.225186
418.4446, 9.544238
418.9267, 10.06720
419.4088, 11.08662
419.8909, 11.84633
420.3730, 11.67394
420.8552, 10.91992
421.3373, 10.26276
421.8194, 9.886313
422.3015, 9.748061
422.7836, 9.899154
423.2657, 10.33447
423.7479, 10.65367
424.2300, 10.60521
424.7121, 10.43974
425.1942, 10.52041
425.6763, 10.84822
426.1584, 11.38594
426.6406, 12.34515
427.1227, 13.44129
427.6048, 14.12739
428.0869, 14.29534
428.5690, 14.34159
429.0511, 14.54036
429.5333, 14.92801
430.0154, 15.68569
430.4975, 17.80966
430.9796, 19.36725
431.4617, 18.60040
431.9438, 16.36282
432.4260, 14.99469
432.9081, 15.69007
433.3902, 17.53849
433.8723, 18.39149
434.3544, 17.55264
434.8365, 16.81944
435.3187, 16.04843
435.8008, 15.53654
436.2829, 15.63229
436.7650, 16.30854
437.2471, 17.21578
437.7292, 18.07478
438.2114, 18.89682
438.6935, 19.33536
439.1756, 19.27182
439.6577, 18.94562
440.1398, 18.37219
440.6219, 17.57653
441.1040, 16.47638
441.5862, 15.04465
442.0683, 13.59899
442.5504, 12.76616
443.0325, 12.72585
443.5146, 12.74324
443.9967, 12.98295
444.4789, 13.07527
444.9610, 12.71200
445.4431, 11.99045
445.9252, 11.27536
446.4073, 10.69944
446.8894, 10.35938
447.3716, 10.77052
447.8537, 12.32027
448.3358, 13.65110
448.8179, 13.93261
449.3000, 13.78559
449.7821, 13.85905
450.2643, 14.31426
450.7464, 14.85882
451.2285, 15.35246
451.7106, 15.75430
452.1927, 15.71008
452.6748, 14.86494
453.1570, 14.14900
453.6391, 14.73633
454.1212, 16.35282
454.6033, 17.86832
455.0854, 19.44624
455.5675, 20.49671
456.0497, 19.86589
456.5318, 17.92782
457.0139, 17.04275
457.4960, 18.73021
457.9781, 21.85026
458.4602, 23.20624
458.9424, 21.95711
459.4245, 21.04449
459.9066, 21.37002
460.3887, 22.05660
460.8708, 22.06009
461.3529, 21.30632
461.8351, 20.65986
462.3172, 21.01543
462.7993, 22.42381
463.2814, 23.16517
463.7635, 22.94212
464.2456, 22.44698
464.7278, 21.50945
465.2099, 20.51299
465.6920, 20.13690
466.1741, 20.61258
466.6562, 21.21349
467.1383, 20.48324
467.6205, 17.58150
468.1026, 15.95991
468.5847, 17.43597
469.0668, 18.68226
469.5489, 17.65537
470.0310, 15.08184
470.5132, 13.19441
470.9953, 13.59134
471.4774, 15.36573
471.9595, 16.22705
472.4416, 16.03804
472.9237, 15.43755
473.4059, 14.14417
473.8880, 12.84133
474.3701, 12.23356
474.8522, 12.42073
475.3343, 12.71385
475.8164, 12.74623
476.2986, 12.54888
476.7807, 12.14068
477.2628, 11.48259
477.7449, 10.84735
478.2270, 10.48888
478.7091, 10.32906
479.1913, 10.03358
479.6734, 9.594143
480.1555, 9.007847
480.6376, 7.915755
481.1197, 6.713134
481.6018, 6.367809
482.0839, 7.235060
482.5660, 8.542773
483.0482, 9.237558
483.5303, 9.149501
484.0124, 8.964603
484.4945, 8.693931
484.9766, 8.324139
485.4587, 7.487427
485.9409, 6.548477
486.4230, 6.479417
486.9051, 7.895787
487.3872, 10.09351
487.8693, 10.94196
488.3514, 9.394781
488.8336, 8.460679
489.3157, 8.729177
489.7978, 9.287532
490.2799, 9.591768
490.7620, 9.594166
491.2441, 9.513038
491.7263, 9.652815
492.2084, 9.846561
492.6905, 9.009235
493.1726, 6.300835
493.6547, 4.593552
494.1368, 6.341327
494.6190, 9.076938
495.1011, 10.22922
495.5832, 9.222116
496.0653, 7.689555
496.5474, 6.689111
497.0295, 6.136486
497.5117, 5.761998
497.9938, 5.496717
498.4759, 5.550893
498.9580, 6.315604
499.4401, 7.612964
499.9222, 8.464400
500.4044, 8.656920
500.8865, 8.554496
501.3686, 8.188464
501.8507, 7.684388
502.3328, 7.190808
502.8149, 6.745092
503.2971, 6.646557
503.7792, 7.438530
504.2613, 9.654592
504.7434, 10.80048
505.2255, 10.03138
505.7076, 9.149456
506.1898, 9.082690
506.6719, 9.557572
507.1540, 9.809070
507.6361, 9.413023
508.1182, 8.816072
508.6003, 9.163960
509.0825, 10.98799
509.5646, 12.33136
510.0467, 13.06784
510.5288, 13.22213
511.0109, 12.39926
511.4930, 10.91003
511.9752, 9.778743
512.4573, 9.934748
512.9394, 10.68980
513.4215, 10.11171
513.9036, 7.833936
514.3857, 6.595699
514.8679, 8.197712
515.3500, 10.83895
515.8321, 12.14453
516.3142, 11.94438
516.7963, 11.55455
517.2784, 11.50701
517.7606, 11.61753
518.2427, 11.78372
518.7248, 11.96083
519.2069, 11.60275
519.6890, 10.10494
520.1711, 7.860327
520.6533, 6.918707
521.1354, 8.436618
521.6175, 9.492505
522.0996, 9.262712
522.5817, 8.547750
523.0638, 8.077703
523.5460, 8.004168
524.0281, 8.154219
524.5102, 8.376697
524.9923, 8.669852
525.4744, 9.035398
525.9565, 9.794065
526.4387, 10.17847
526.9208, 9.865270
527.4029, 9.213111
527.8850, 8.509332
528.3671, 7.847131
528.8492, 7.359100
529.3314, 7.247506
529.8135, 7.474494
530.2956, 7.689585
530.7777, 7.922849
531.2598, 8.039736
531.7419, 7.654637
532.2241, 7.161765
532.7062, 7.340772
533.1883, 8.808177
533.6704, 9.995083
534.1525, 9.313922
534.6346, 7.603106
535.1168, 7.129413
535.5989, 8.522651
536.0810, 9.848480
536.5631, 8.874082
537.0452, 5.455401
537.5273, 3.808040
538.0095, 5.094541
538.4916, 6.675532
538.9737, 8.044808
539.4558, 8.942233
539.9379, 8.859055
540.4200, 7.697104
540.9022, 6.223899
541.3843, 5.531841
541.8664, 5.774545
542.3485, 5.931798
542.8306, 6.012381
543.3127, 5.987270
543.7948, 5.661508
544.2769, 5.278595
544.7590, 5.264473
545.2411, 5.816852
545.7233, 6.469363
546.2054, 6.682290
546.6875, 6.468257
547.1696, 5.896624
547.6517, 4.671531
548.1339, 3.674664
548.6160, 4.073123
549.0981, 5.344228
549.5802, 5.991043
550.0623, 5.112972
550.5444, 4.200624
551.0266, 4.482029
551.5087, 5.430543
551.9908, 5.671807
552.4729, 4.759126
552.9550, 3.716691
553.4371, 3.886405
553.9193, 5.562304
554.4014, 6.683731
554.8835, 7.056047
555.3656, 7.177945
555.8477, 7.051631
556.3298, 6.850970
556.8120, 6.869770
557.2941, 7.200787
557.7762, 7.534339
558.2583, 7.376566
558.7404, 6.656145
559.2225, 6.042592
559.7047, 5.518608
560.1868, 5.167342
560.6689, 5.068069
561.1510, 5.134131
561.6331, 5.228421
562.1152, 5.324023
562.5974, 5.398386
563.0795, 5.342842
563.5616, 5.236167
564.0437, 5.468804
564.5258, 6.216760
565.0079, 6.841085
565.4901, 6.644359
565.9722, 5.674482
566.4543, 5.137078
566.9364, 5.520663
567.4185, 5.775260
567.9006, 5.369214
568.3828, 4.642037
568.8649, 3.929043
569.3470, 3.378805
569.8291, 3.295201
570.3112, 4.198351
570.7933, 6.203457
571.2755, 7.149992
571.7576, 6.128587
572.2397, 5.152028
572.7218, 4.690860
573.2039, 4.530269
573.6860, 4.398717
574.1682, 4.230142
574.6503, 4.188827
575.1324, 4.645078
575.6145, 5.403063
576.0966, 5.383998
576.5787, 4.225148
577.0609, 3.500767
577.5430, 4.660913
578.0251, 6.773565
578.5072, 7.543475
578.9893, 6.355624
579.4714, 5.111668
579.9536, 4.518518
580.4357, 4.275229
580.9178, 4.027122
581.3999, 3.729098
581.8820, 3.506644
582.3641, 3.478203
582.8463, 3.587439
583.3284, 3.500703
583.8105, 3.007431
584.2926, 2.618830
584.7747, 2.361674
585.2568, 2.223988
585.7390, 2.205156
586.2211, 2.297741
586.7032, 2.466836
587.1853, 2.621209
587.6674, 2.882035
588.1495, 3.696385
588.6317, 5.189126
589.1138, 6.490224
589.5959, 7.455717
590.0780, 7.962113
590.5601, 7.608900
591.0422, 6.414944
591.5244, 5.892720
592.0065, 7.522037
592.4886, 9.221814
592.9707, 8.626687
593.4528, 6.370347
593.9349, 4.910076
594.4171, 5.389272
594.8992, 6.722747
595.3813, 6.957075
595.8634, 5.462855
596.3455, 4.736598
596.8276, 5.398195
597.3098, 6.063627
597.7919, 6.124763
598.2740, 5.798595
598.7561, 5.462831
599.2382, 5.262242
599.7203, 5.257535
600.2025, 5.684543
600.6846, 6.522726
601.1667, 6.934958
601.6488, 6.781671
602.1309, 6.303198
602.6130, 5.102930
603.0952, 3.767302
603.5773, 3.696269
604.0594, 5.846598
604.5415, 7.795256
605.0236, 8.114500
605.5057, 7.525302
605.9879, 7.021791
606.4700, 6.799022
606.9521, 6.811234
607.4342, 7.083288
607.9163, 7.537049
608.3984, 7.570762
608.8806, 6.809633
609.3627, 6.125806
609.8448, 5.113835
610.3269, 4.558143
610.8090, 5.551901
611.2911, 7.755706
611.7733, 9.454884
612.2554, 9.230306
612.7375, 7.908297
613.2196, 7.563080
613.7017, 8.330923
614.1838, 8.539764
614.6660, 7.321743
615.1481, 5.783805
615.6302, 5.156201
616.1123, 5.378613
616.5944, 6.026153
617.0765, 7.801666
617.5587, 9.229854
618.0408, 9.059323
618.5229, 7.807766
619.0050, 6.607119
619.4871, 5.858659
619.9692, 5.324821
620.4514, 4.615039
620.9335, 3.596557
621.4156, 3.407130
621.8977, 4.782907
622.3798, 6.150745
622.8619, 7.484333
623.3441, 8.411968
623.8262, 8.303687
624.3083, 7.045277
624.7904, 5.699914
625.2725, 4.997999
625.7546, 4.919575
626.2367, 5.724782
626.7188, 7.548217
627.2009, 8.808066
627.6830, 8.550777
628.1652, 7.323218
628.6473, 6.271628
629.1294, 5.304628
629.6115, 4.742262
630.0936, 4.677257
630.5757, 4.988990
631.0579, 5.952539
631.5400, 7.209441
632.0221, 7.875741
632.5042, 7.488111
632.9863, 6.564175
633.4684, 6.082879
633.9506, 6.156777
634.4327, 6.099802
634.9148, 5.755512
635.3969, 5.433303
635.8790, 5.089983
636.3611, 4.916327
636.8433, 5.294829
637.3254, 6.434673
637.8075, 7.763426
638.2896, 9.257767
638.7717, 10.53781
639.2538, 10.70692
639.7360, 9.670317
640.2181, 8.328403
640.7002, 7.246895
641.1823, 6.419317
641.6644, 5.809721
642.1465, 5.051374
642.6287, 5.075386
643.1108, 6.754201
643.5929, 8.474265
644.0750, 9.167253
644.5571, 8.948550
645.0392, 8.411565
645.5214, 7.814293
646.0035, 7.304571
646.4856, 7.197819
646.9677, 7.492221
647.4498, 7.734168
647.9319, 7.833656
648.4141, 7.881567
648.8962, 7.730040
649.3783, 7.565645
649.8604, 8.145642
650.3425, 10.69327
650.8246, 12.40723
651.3068, 11.20726
651.7889, 9.075658
652.2710, 8.635483
652.7531, 10.06553
653.2352, 11.72609
653.7173, 12.39009
654.1995, 12.17216
654.6816, 11.42612
655.1637, 9.694211
655.6458, 8.537573
656.1279, 8.608342
656.6100, 8.998716
657.0922, 9.263001
657.5743, 9.416986
658.0564, 9.634334
658.5385, 10.13750
659.0206, 10.51330
659.5027, 10.25485
659.9849, 9.553570
660.4670, 9.106245
660.9491, 9.095149
661.4312, 8.597601
661.9133, 6.526602
662.3954, 3.080953
662.8776, 1.146131
663.3597, 1.123030
663.8418, 2.143726
664.3239, 5.198667
664.8060, 8.473266
665.2881, 10.63479
665.7703, 11.59677
666.2524, 11.82601
666.7345, 11.43101
667.2166, 10.76148
667.6987, 10.46329
668.1808, 10.52775
668.6630, 10.68441
669.1451, 10.97991
669.6272, 11.08429
670.1093, 10.55364
670.5914, 9.451097
671.0735, 8.669159
671.5557, 8.312242
672.0378, 8.165974
672.5199, 8.356782
673.0020, 8.613593
673.4841, 8.527264
673.9662, 8.137589
674.4484, 7.964890
674.9305, 8.489240
675.4126, 9.408309
675.8947, 9.676928
676.3768, 9.158797
676.8589, 8.571034
677.3411, 7.856377
677.8232, 7.341079
678.3053, 7.474928
678.7874, 8.043275
679.2695, 8.234419
679.7516, 7.329589
680.2338, 6.679808
680.7159, 7.543940
681.1980, 8.999693
681.6801, 9.436561
682.1622, 8.676879
682.6443, 7.834108
683.1265, 7.783758
683.6086, 8.450181
684.0907, 9.643629
684.5728, 12.31682
685.0549, 13.42188
685.5370, 10.73171
686.0192, 7.966091
686.5013, 7.401656
686.9834, 8.541790
687.4655, 9.688690
687.9476, 10.35710
688.4297, 10.56923
688.9119, 10.01688
689.3940, 9.075179
689.8761, 8.724456
690.3582, 9.120223
690.8403, 9.503732
691.3224, 9.258359
691.8046, 8.544063
692.2867, 8.124891
692.7688, 8.322687
693.2509, 8.298596
693.7330, 7.630031
694.2151, 7.103369
694.6973, 7.160317
695.1794, 7.744880
695.6615, 8.788302
696.1436, 10.50553
696.6257, 11.81538
697.1078, 11.03521
697.5900, 8.826735
698.0721, 7.671516
698.5542, 7.995397
699.0363, 8.147053
699.5184, 6.720750
700.0005, 4.482308
700.4827, 4.177056
700.9648, 7.711031
701.4469, 10.08646
701.9290, 10.37162
702.4111, 10.30163
702.8932, 11.18110
703.3754, 12.45652
703.8575, 12.62853
704.3396, 10.99785
704.8217, 9.229203
705.3038, 9.588813
705.7859, 11.61964
706.2681, 13.26883
706.7502, 14.42339
707.2323, 14.70778
707.7144, 13.47587
708.1965, 11.60408
708.6786, 11.26921
709.1607, 13.28033
709.6428, 14.36837
710.1249, 13.40891
710.6071, 12.38419
711.0892, 12.41381
711.5713, 13.16206
712.0534, 14.03580
712.5355, 14.81568
713.0176, 15.40250
713.4998, 15.63965
713.9819, 15.57897
714.4640, 15.51608
714.9461, 15.47174
715.4282, 15.28561
715.9103, 14.75307
716.3925, 14.19714
716.8746, 14.18475
717.3567, 14.78193
717.8388, 15.25535
718.3209, 15.52500
718.8030, 15.67853
719.2852, 15.63452
719.7673, 15.55500
720.2494, 15.65920
720.7315, 15.99029
721.2136, 16.43156
721.6957, 16.91475
722.1779, 17.40618
722.6600, 17.83700
723.1421, 18.24196
723.6242, 18.21487
724.1063, 17.28799
724.5884, 16.44960
725.0706, 17.09438
725.5527, 19.05723
726.0348, 20.01751
726.5169, 19.07424
726.9990, 18.07556
727.4811, 17.68678
727.9633, 17.52293
728.4454, 17.01179
728.9275, 16.24288
729.4096, 15.94581
729.8917, 16.71684
730.3738, 18.00460
730.8560, 18.64231
731.3381, 18.61341
731.8202, 18.42494
732.3023, 18.07746
732.7844, 17.76977
733.2665, 17.61133
733.7487, 17.61827
734.2308, 17.82203
734.7129, 18.32944
735.1950, 18.82642
735.6771, 19.74323
736.1592, 20.21312
736.6414, 19.01713
737.1235, 16.84866
737.6056, 15.46935
738.0877, 15.67441
738.5698, 16.66409
739.0519, 17.65969
739.5341, 18.56867
740.0162, 18.31058
740.4983, 16.51993
740.9804, 15.07698
741.4625, 15.09973
741.9446, 15.83739
742.4268, 15.76937
742.9089, 14.57740
743.3910, 14.27018
743.8731, 15.96313
744.3552, 17.54351
744.8373, 17.92714
745.3195, 17.59324
745.8016, 17.18544
746.2837, 16.90090
746.7658, 16.72576
747.2479, 16.74660
747.7300, 16.81897
748.2122, 16.36158
748.6943, 15.35851
749.1764, 15.02057
749.6585, 15.91550
750.1406, 16.97222
750.6227, 17.00248
751.1049, 16.04736
751.5870, 15.65320
752.0691, 16.21585
752.5512, 16.75549
753.0333, 17.10188
753.5154, 17.35747
753.9976, 17.82619
754.4797, 18.29650
754.9618, 17.94481
755.4439, 16.05313
755.9260, 14.23182
756.4081, 15.20400
756.8903, 18.15580
757.3724, 19.51277
757.8545, 18.76583
758.3366, 17.82830
758.8187, 17.88212
759.3008, 18.52644
759.7830, 18.75840
760.2651, 18.37485
760.7472, 18.05110
761.2293, 17.43644
761.7114, 17.26590
762.1935, 18.21492
762.6757, 19.61084
763.1578, 20.62927
763.6399, 21.06912
764.1220, 21.08700
764.6041, 20.49940
765.0862, 19.72753
765.5684, 19.18736
766.0505, 18.99477
766.5326, 19.87503
767.0147, 22.11923
767.4968, 24.47059
767.9789, 25.47518
768.4611, 25.20735
768.9432, 25.22902
769.4253, 25.20181
769.9074, 26.06974
770.3895, 29.44656
770.8716, 32.44173
771.3538, 32.38808
771.8359, 30.24688
772.3180, 29.29234
772.8001, 30.72010
773.2822, 33.24064
773.7643, 36.84230
774.2465, 40.55468
774.7286, 42.42931
775.2107, 42.76473
775.6928, 44.02538
776.1749, 47.65765
776.6570, 52.38534
777.1392, 55.66994
777.6213, 57.28021
778.1034, 59.16338
778.5855, 61.34887
779.0676, 63.79103
779.5497, 66.58125
780.0319, 69.55201
780.5140, 72.41686
780.9961, 75.17137
781.4782, 78.14331
781.9603, 82.38991
782.4424, 85.83158
782.9246, 86.75566
783.4067, 86.34886
783.8888, 85.99722
784.3709, 86.19275
784.8530, 87.45165
785.3351, 90.54382
785.8173, 94.41253
786.2994, 96.18338
786.7815, 95.84545
787.2636, 95.85079
787.7457, 96.78564
788.2278, 97.66091
788.7100, 97.80811
789.1921, 97.28120
789.6742, 96.25245
790.1563, 94.32511
790.6384, 92.64471
791.1205, 91.88892
791.6026, 90.77393
792.0847, 88.44951
792.5668, 85.31267
793.0490, 82.02869
793.5311, 78.80401
794.0132, 75.49431
794.4953, 72.05962
794.9774, 68.42061
795.4595, 64.22977
795.9417, 59.62715
796.4238, 55.55338
796.9059, 52.30211
797.3880, 49.68111
797.8701, 47.62385
798.3522, 46.03811
798.8344, 43.57786
799.3165, 39.59932
799.7986, 35.96868
800.2807, 33.11699
800.7628, 30.58718
801.2449, 28.17393
801.7271, 25.89012
802.2092, 23.79901
802.6913, 21.83362
803.1734, 20.27382
803.6555, 19.46412
804.1376, 19.00977
804.6198, 18.58913
805.1019, 18.13406
805.5840, 17.62226
806.0661, 17.04327
806.5482, 16.26723
807.0303, 14.85179
807.5125, 12.96313
807.9946, 12.48549
808.4767, 13.76095
808.9588, 14.46912
809.4409, 13.62402
809.9230, 12.25178
810.4052, 11.44723
810.8873, 11.21876
811.3694, 11.07502
811.8515, 11.37552
812.3336, 11.27409
812.8157, 10.12704
813.2979, 8.911737
813.7800, 8.360645
814.2621, 8.434825
814.7442, 8.870852
815.2263, 9.637591
815.7084, 10.31505
816.1906, 10.42216
816.6727, 10.16262
817.1548, 9.927917
817.6369, 9.743807
818.1190, 9.512078
818.6011, 9.177126
819.0833, 8.905523
819.5654, 8.983714
820.0475, 9.434054
820.5296, 9.581141
821.0117, 9.318640
821.4938, 8.955980
821.9760, 8.035232
822.4581, 7.527651
822.9402, 8.866728
823.4223, 11.47303
823.9044, 12.58064
824.3865, 10.43962
824.8687, 8.587463
825.3508, 8.758535
825.8329, 9.562398
826.3150, 9.797222
826.7971, 9.433534
827.2792, 8.760607
827.7614, 7.897817
828.2435, 7.138995
828.7256, 6.912614
829.2077, 7.090658
829.6898, 7.139762
830.1719, 7.046455
830.6541, 7.299592
831.1362, 8.241009
831.6183, 8.954868
832.1004, 8.152914
832.5825, 5.874787
833.0646, 4.827526
833.5468, 6.063367
834.0289, 6.912723
834.5110, 6.584777
834.9931, 6.238126
835.4752, 6.772409
835.9573, 7.853002
836.4395, 8.523006
836.9216, 8.397058
837.4037, 8.328355
837.8858, 9.181124
838.3679, 9.996942
838.8500, 9.528113
839.3322, 8.191585
839.8143, 7.099968
840.2964, 6.662956
840.7785, 6.749871
841.2606, 7.480914
841.7427, 8.522150
842.2249, 8.352297
842.7070, 6.911690
843.1891, 5.666460
843.6712, 4.877970
844.1533, 4.710021
844.6354, 5.451011
845.1176, 6.906950
845.5997, 8.133658
846.0818, 9.497748
846.5639, 10.01086
847.0460, 9.140246
847.5281, 8.026574
848.0103, 6.736388
848.4924, 5.746186
848.9745, 5.923736
849.4566, 7.436162
849.9387, 8.750809
850.4208, 9.184250
850.9030, 8.975936
851.3851, 7.832754
851.8672, 6.380572
852.3493, 5.965605
852.8314, 6.700107
853.3135, 7.379411
853.7957, 7.038144
854.2778, 6.216711
854.7599, 6.212103
855.2420, 7.003419
855.7241, 7.571116
856.2062, 7.802377
856.6884, 7.836172
857.1705, 7.727599
857.6526, 7.484811
858.1347, 7.070693
858.6168, 6.365371
859.0989, 6.041888
859.5811, 6.487723
860.0632, 6.803831
860.5453, 6.757733
861.0274, 6.519096
861.5095, 6.154619
861.9916, 5.728967
862.4738, 5.444073
862.9559, 5.444372
863.4380, 5.452327
863.9201, 5.353096
864.4022, 5.120487
864.8843, 4.385226
865.3665, 3.482663
865.8486, 3.594270
866.3307, 5.184114
866.8128, 7.034859
867.2949, 7.589892
867.7770, 7.129809
868.2592, 6.872613
868.7413, 6.822165
869.2234, 6.797134
869.7055, 6.810700
870.1876, 6.507483
870.6697, 5.356912
871.1519, 3.661752
871.6340, 3.204980
872.1161, 4.988622
872.5981, 6.085847
873.0803, 5.599062
873.5624, 5.236474
874.0445, 6.118556
874.5266, 7.366471
875.0087, 7.582675
875.4908, 6.529843
875.9730, 5.663900
876.4551, 5.334865
876.9372, 5.502609
877.4193, 6.693629
877.9014, 8.063808
878.3835, 8.367227
878.8657, 7.637361
879.3478, 6.890912
879.8299, 6.742247
880.3120, 6.800912
880.7941, 6.398036
881.2762, 5.766163
881.7584, 5.676985
882.2405, 6.167058
882.7226, 7.019858
883.2047, 8.208158
883.6868, 9.186923
884.1689, 9.214478
884.6511, 8.306610
885.1332, 6.771916
885.6153, 4.035894
886.0974, 2.293285
886.5795, 2.401545
887.0616, 3.058280
887.5438, 3.277240
888.0259, 3.825966
888.5080, 3.737321
888.9901, 4.986989
889.4722, 5.975991
889.9543, 6.698514
890.4365, 6.975906
890.9186, 6.350099
891.4007, 5.410452
891.8828, 4.960175
892.3649, 5.086469
892.8470, 5.275290
893.3292, 5.305987
893.8113, 5.188053
894.2934, 4.761905
894.7755, 4.265842
895.2576, 4.176962
895.7397, 4.477441
896.2219, 4.867035
896.7040, 5.198896
897.1861, 5.243990
897.6682, 4.327130
898.1503, 2.680794
898.6324, 2.394092
899.1146, 3.588338
899.5967, 4.266983
900.0788, 3.626677
900.5609, 3.051668
901.0430, 4.103850
901.5251, 6.369771
902.0073, 7.182417
902.4894, 5.408789
902.9715, 4.520642
903.4536, 5.418335
903.9357, 6.376211
904.4178, 6.818739
904.9000, 6.776948
905.3821, 6.145463
905.8642, 4.882782
906.3463, 3.831492
906.8284, 2.922757
907.3105, 2.599099
907.7927, 3.732030
908.2748, 5.079996
908.7569, 5.089656
909.2390, 4.086733
909.7211, 3.625172
910.2032, 4.458679
910.6854, 5.601096
911.1675, 6.460122
911.6496, 6.868591
912.1317, 6.115240
912.6138, 4.641965
913.0959, 4.064287
913.5781, 4.825069
914.0602, 5.929004
914.5423, 6.527514
915.0244, 6.637806
915.5065, 6.087250
915.9886, 4.864874
916.4708, 4.559912
916.9529, 5.593721
917.4350, 6.203766
917.9171, 5.169686
918.3992, 3.631561
918.8813, 3.706047
919.3635, 5.709471
919.8456, 6.869002
920.3277, 6.411321
920.8098, 6.384143
921.2919, 8.239813
921.7740, 9.742455
922.2562, 8.792400
922.7383, 6.237930
923.2204, 4.656542
923.7025, 4.571493
924.1846, 4.879755
924.6667, 5.668437
925.1489, 6.400252
925.6310, 7.027226
926.1131, 7.246046
926.5952, 6.277214
927.0773, 4.297845
927.5594, 3.040178
928.0416, 3.929872
928.5237, 5.140281
929.0058, 4.714153
929.4879, 3.671657
929.9700, 3.703893
930.4521, 4.721266
930.9343, 5.851638
931.4164, 6.700317
931.8985, 6.979277
932.3806, 6.030412
932.8627, 4.364791
933.3448, 3.668761
933.8270, 3.881089
934.3091, 4.417136
934.7912, 5.175099
935.2733, 5.820368
935.7554, 6.108212
936.2375, 6.138013
936.7197, 6.054821
937.2018, 5.717897
937.6839, 6.202636
938.1660, 8.049801
938.6481, 9.328152
939.1302, 9.118228
939.6124, 8.448308
940.0945, 8.318237
940.5766, 8.680770
941.0587, 9.098641
941.5408, 9.557599
942.0229, 10.09250
942.5051, 11.25364
942.9872, 11.88848
943.4693, 10.56767
943.9514, 8.834390
944.4335, 9.063231
944.9156, 11.45953
945.3978, 13.51766
945.8799, 13.97368
946.3620, 14.39053
946.8441, 15.68014
947.3262, 17.22527
947.8083, 18.30450
948.2905, 19.07669
948.7726, 20.20313
949.2547, 21.93319
949.7368, 23.63641
950.2189, 24.38096
950.7010, 25.10390
951.1832, 27.22477
951.6653, 30.33250
952.1474, 33.59938
952.6295, 36.75261
953.1116, 39.37582
953.5938, 41.15133
954.0759, 42.69496
954.5580, 45.26775
955.0400, 48.57155
955.5222, 50.92033
956.0043, 52.28560
956.4864, 53.37343
956.9685, 54.31944
957.4506, 56.12306
957.9327, 60.02337
958.4149, 65.24781
958.8970, 68.34844
959.3791, 69.04109
959.8612, 68.84917
960.3433, 67.13114
960.8254, 66.60282
961.3076, 69.13918
961.7897, 72.73729
962.2718, 74.73730
962.7539, 75.11359
963.2360, 75.21772
963.7181, 75.07212
964.2003, 74.61175
964.6824, 73.59414
965.1645, 72.52251
965.6466, 72.16675
966.1287, 71.73006
966.6108, 69.73281
967.0930, 65.91198
967.5751, 61.95094
968.0572, 58.04663
968.5393, 54.25520
969.0214, 50.64116
969.5035, 47.12989
969.9857, 43.66759
970.4678, 40.26625
970.9499, 36.99501
971.4320, 33.89540
971.9141, 30.83463
972.3962, 27.25000
972.8784, 24.13892
973.3605, 22.88803
973.8426, 22.47954
974.3247, 21.23384
974.8068, 19.06296
975.2889, 16.92764
975.7711, 15.32215
976.2532, 14.15460
976.7353, 13.45703
977.2174, 13.05907
977.6995, 12.59852
978.1816, 12.14117
978.6638, 12.14230
979.1459, 12.64504
979.6280, 12.85390
980.1101, 12.08804
980.5922, 10.76066
981.0743, 9.653131
981.5565, 8.755939
982.0386, 7.912283
982.5207, 7.127635
983.0028, 7.054749
983.4849, 8.045045
983.9670, 8.774996
984.4492, 7.585550
984.9313, 5.104084
985.4134, 4.410133
985.8955, 5.747072
986.3776, 7.215289
986.8597, 8.855545
987.3419, 9.702157
987.8240, 9.051068
988.3061, 7.804847
988.7882, 7.262673
989.2703, 7.421137
989.7524, 7.214677
990.2346, 6.170362
990.7167, 5.869706
991.1988, 7.314066
991.6809, 8.374541
992.1630, 7.342549
992.6451, 5.430320
993.1273, 4.875474
993.6094, 5.891950
994.0915, 6.685999
994.5736, 7.430697
995.0557, 7.679841
995.5378, 6.544419
996.0200, 5.668596
996.5021, 6.767254
996.9842, 8.737212
997.4663, 9.131811
997.9484, 7.355330
998.4305, 6.085863
998.9127, 6.212435
999.3948, 6.698941
999.8769, 7.611603
1000.359, 8.275500
1000.841, 7.798724
1001.323, 6.587028
1001.805, 5.739056
1002.287, 5.564041
1002.770, 5.817247
1003.252, 6.658173
1003.734, 7.576214
1004.216, 8.490692
1004.698, 9.080564
1005.180, 8.775488
1005.662, 7.754029
1006.144, 6.699946
1006.627, 5.837055
1007.109, 5.508777
1007.591, 6.518547
1008.073, 7.785639
1008.555, 7.931054
1009.037, 7.392903
1009.519, 6.934567
1010.001, 6.801905
1010.483, 7.299043
1010.966, 8.703878
1011.448, 10.04734
1011.930, 10.00867
1012.412, 9.176566
1012.894, 8.713226
1013.376, 8.504599
1013.858, 7.781898
1014.340, 6.510229
1014.823, 5.945511
1015.305, 7.071919
1015.787, 8.783326
1016.269, 9.251264
1016.751, 8.747090
1017.233, 8.071660
1017.715, 7.346767
1018.197, 7.270638
1018.679, 8.025236
1019.162, 8.875194
1019.644, 9.234906
1020.126, 9.241886
1020.608, 9.320570
1021.090, 9.415015
1021.572, 8.475450
1022.054, 6.414634
1022.536, 5.042020
1023.018, 4.932876
1023.501, 5.715539
1023.983, 7.160259
1024.465, 9.050685
1024.947, 10.92833
1025.429, 12.90841
1025.911, 13.13224
1026.393, 11.11483
1026.875, 9.657884
1027.358, 9.860838
1027.840, 10.44314
1028.322, 10.04654
1028.804, 9.100852
1029.286, 9.515302
1029.768, 11.77643
1030.250, 13.48451
1030.732, 14.85364
1031.214, 14.83923
1031.697, 12.59302
1032.179, 9.601807
1032.661, 7.069562
1033.143, 5.129705
1033.625, 4.476699
1034.107, 5.365639
1034.589, 7.019448
1035.071, 10.41895
1035.553, 12.76163
1036.036, 12.57766
1036.518, 11.45145
1037.000, 10.78339
1037.482, 10.55204
1037.964, 10.65477
1038.446, 11.47960
1038.928, 11.87683
1039.410, 11.88522
1039.893, 11.40498
1040.375, 9.370347
1040.857, 7.649091
1041.339, 8.811112
1041.821, 12.10581
1042.303, 13.35991
1042.785, 11.00953
1043.267, 9.540056
1043.750, 9.608356
1044.232, 9.990012
1044.714, 10.41755
1045.196, 10.84188
1045.678, 11.18445
1046.160, 11.48079
1046.642, 11.93435
1047.124, 12.82786
1047.606, 13.27881
1048.089, 12.72725
1048.571, 12.25647
1049.053, 12.60828
1049.535, 13.00472
1050.017, 12.51446
1050.499, 11.35701
1050.981, 10.53868
1051.463, 10.18881
1051.945, 10.26748
1052.428, 11.26423
1052.910, 12.08665
1053.392, 11.95006
1053.874, 11.63153
1054.356, 12.15361
1054.838, 13.20310
1055.320, 13.38548
1055.802, 11.95301
1056.285, 11.28613
1056.767, 13.02524
1057.249, 14.51854
1057.731, 13.84433
1058.213, 12.79363
1058.695, 13.62586
1059.177, 15.67091
1059.659, 16.37150
1060.141, 14.80708
1060.624, 13.48349
1061.106, 13.48796
1061.588, 13.68012
1062.070, 13.25244
1062.552, 12.90872
1063.034, 13.74056
1063.516, 15.22032
1063.998, 15.70033
1064.480, 14.62399
1064.963, 13.87188
1065.445, 14.85272
1065.927, 15.53345
1066.409, 14.13859
1066.891, 12.52708
1067.373, 12.70944
1067.855, 14.16039
1068.337, 15.41936
1068.820, 16.16087
1069.302, 16.21082
1069.784, 14.91569
1070.266, 13.63045
1070.748, 13.11806
1071.230, 12.89064
1071.712, 12.30597
1072.194, 11.68589
1072.677, 11.97813
1073.159, 13.35528
1073.641, 14.24404
1074.123, 13.33848
1074.605, 12.57179
1075.087, 13.54242
1075.569, 14.51567
1076.051, 13.41743
1076.533, 11.40195
1077.016, 10.89757
1077.498, 12.24241
1077.980, 13.45854
1078.462, 13.66608
1078.944, 13.63850
1079.426, 13.77310
1079.908, 13.80455
1080.390, 13.36817
1080.872, 12.75601
1081.354, 12.38543
1081.837, 12.33537
1082.319, 12.56153
1082.801, 13.24119
1083.283, 13.81347
1083.765, 13.88166
1084.247, 13.88628
1084.729, 14.44495
1085.211, 14.96080
1085.694, 14.54261
1086.176, 13.22556
1086.658, 11.68425
1087.140, 9.839066
1087.622, 8.648219
1088.104, 8.657427
1088.586, 9.274204
1089.068, 10.75867
1089.551, 12.18509
1090.033, 12.21796
1090.515, 11.22736
1090.997, 10.93358
1091.479, 12.09585
1091.961, 12.58261
1092.443, 10.81486
1092.925, 9.115282
1093.407, 8.610434
1093.890, 8.828161
1094.372, 9.633946
1094.854, 10.65650
1095.336, 11.14981
1095.818, 10.91881
1096.300, 10.57646
1096.782, 10.09242
1097.264, 9.828436
1097.746, 10.56521
1098.229, 10.96921
1098.711, 9.340122
1099.193, 6.865516
1099.675, 5.922562
1100.157, 6.843920
1100.639, 7.551315
1101.121, 6.936123
1101.603, 6.896077
1102.086, 8.750016
1102.568, 10.46821
1103.050, 10.56916
1103.532, 9.878819
1104.014, 9.723799
1104.496, 10.09881
1104.978, 9.789943
1105.460, 7.587911
1105.943, 6.392941
1106.425, 7.439608
1106.907, 8.631114
1107.389, 9.242705
1107.871, 9.378604
1108.353, 9.029674
1108.835, 8.313778
1109.317, 7.723162
1109.799, 7.374205
1110.281, 6.950546
1110.764, 6.401525
1111.246, 5.815621
1111.728, 4.769010
1112.210, 4.103113
1112.692, 4.729511
1113.174, 6.197211
1113.656, 7.443677
1114.138, 8.582277
1114.621, 8.958848
1115.103, 8.226840
1115.585, 7.279723
1116.067, 5.953399
1116.549, 4.844636
1117.031, 4.303530
1117.513, 4.186154
1117.995, 4.281831
1118.478, 4.589620
1118.960, 5.125391
1119.442, 6.301832
1119.924, 6.652295
1120.406, 5.541275
1120.888, 4.661629
1121.370, 4.846756
1121.852, 5.443027
1122.334, 5.810708
1122.817, 5.904673
1123.299, 5.363653
1123.781, 3.848957
1124.263, 3.086277
1124.745, 3.145774
1125.227, 3.968799
1125.709, 5.793434
1126.191, 7.571695
1126.673, 8.448293
1127.156, 8.625412
1127.638, 8.508086
1128.120, 8.078671
1128.602, 8.135571
1129.084, 8.842361
1129.566, 7.953460
1130.048, 4.759335
1130.530, 2.540316
1131.013, 3.359720
1131.495, 5.273269
1131.977, 5.392909
1132.459, 4.108010
1132.941, 3.223335
1133.423, 2.730321
1133.905, 2.663526
1134.387, 3.007651
1134.870, 3.380197
1135.352, 3.630391
1135.834, 4.099612
1136.316, 5.306829
1136.798, 6.423270
1137.280, 5.019065
1137.762, 2.108436
1138.244, 1.574594
1138.726, 3.104022
1139.208, 4.408356
1139.691, 4.854057
1140.173, 4.370331
1140.655, 2.795336
1141.137, 1.358995
1141.619, 1.844898
1142.101, 3.369245
1142.583, 4.876314
1143.065, 5.979204
1143.548, 5.338607
1144.030, 3.464480
1144.512, 2.907310
1144.994, 4.576505
1145.476, 6.111868
1145.958, 5.130101
1146.440, 3.779664
1146.922, 4.575959
1147.405, 6.016103
1147.887, 6.258319
1148.369, 5.570501
1148.851, 4.634862
1149.333, 3.728113
1149.815, 3.325480
1150.297, 3.850934
1150.779, 4.371637
1151.261, 4.333718
1151.744, 4.097843
1152.226, 3.722405
1152.708, 3.449062
1153.190, 3.793871
1153.672, 4.454668
1154.154, 4.275745
1154.636, 2.748688
1155.118, 2.175522
1155.600, 4.598887
1156.083, 6.211833
1156.565, 4.456152
1157.047, 2.715852
1157.529, 4.089345
1158.011, 6.693784
1158.493, 7.234659
1158.975, 5.588493
1159.457, 4.390950
1159.940, 3.831647
1160.422, 3.684587
1160.904, 4.490113
1161.386, 4.894107
1161.868, 4.172713
1162.350, 3.177420
1162.832, 2.654202
1163.314, 2.474281
1163.796, 2.246953
1164.279, 1.965275
1164.761, 1.573198
1165.243, 0.7572467
1165.725, 1.112396
1166.207, 3.388816
1166.689, 5.362964
1167.171, 5.772201
1167.653, 5.097101
1168.135, 3.759317
1168.618, 2.110619
1169.100, 2.686501
1169.582, 5.428308
1170.064, 5.593887
1170.546, 2.850650
1171.028, 0.8397297
1171.510, 0.7725995
1171.992, 1.790418
1172.474, 3.350348
1172.957, 4.819154
1173.439, 4.889090
1173.921, 4.045940
1174.403, 3.551337
1174.885, 3.450528
1175.367, 4.076076
1175.849, 5.209371
1176.331, 5.662776
1176.814, 4.930579
1177.296, 3.600489
1177.778, 1.496937
1178.260, 1.9108240E-03
1178.742, 1.631242
1179.224, 4.185151
1179.706, 4.672516
1180.188, 3.658399
1180.671, 2.366444
1181.153, 1.312521
1181.635, 1.488637
1182.117, 3.984070
1182.599, 5.386271
1183.081, 2.417420
1183.563, -0.5056221
1184.045, -0.4373731
1184.527, 0.8588985
1185.010, 1.914431
1185.492, 2.597524
1185.974, 3.061888
1186.456, 3.343922
1186.938, 3.142790
1187.420, 1.277244
1187.902, 0.6514826
1188.384, 2.935966
1188.866, 5.061731
1189.349, 5.741752
1189.831, 5.594820
1190.313, 5.065752
1190.795, 4.268460
1191.277, 3.628753
1191.759, 3.107473
1192.241, 3.047565
1192.723, 3.822430
1193.206, 3.549743
1193.688, 1.463226
1194.170, -0.1111560
1194.652, 0.3571877
1195.134, 1.343524
1195.616, 0.4658974
1196.098, 1.551129
1196.580, 2.161779
1197.063, 2.283437
1197.545, 3.618133
1198.027, 3.129265
1198.509, 2.986668
1198.991, 3.777382
1199.473, 4.425829
1199.955, 4.154831
1200.437, 3.691486
1200.919, 4.282651
1201.401, 5.113625
1201.884, 4.605163
1202.366, 3.331717
1202.848, 2.385957
1203.330, 1.797411
1203.812, 1.012176
1204.294, -5.2781589E-02
1204.776, -0.4634110
1205.258, 0.6108866
1205.741, 1.917382
1206.223, 2.856070
1206.705, 3.501116
1207.187, 3.976609
1207.669, 4.149647
1208.151, 3.480500
1208.633, 2.393524
1209.115, 2.382156
1209.598, 4.010063
1210.080, 4.858637
1210.562, 4.079531
1211.044, 3.216236
1211.526, 2.276872
1212.008, 1.704575
1212.490, 2.142293
1212.972, 2.560157
1213.454, 1.471112
1213.937, -0.6274338
1214.419, -1.205286
1214.901, 0.1427074
1215.383, 0.9261009
1215.865, 1.025704
1216.347, 1.279014
1216.829, 1.906365
1217.311, 2.371415
1217.793, 2.337779
1218.276, 2.188889
1218.758, 2.520362
1219.240, 3.018741
1219.722, 2.580219
1220.204, 2.733272
1220.686, 2.535685
1221.168, 2.047890
1221.650, 1.911981
1222.133, 0.8837510
1222.615, 0.2870978
1223.097, 0.8911712
1223.579, 1.872734
1224.061, 2.636894
1224.543, 3.262585
1225.025, 4.114812
1225.507, 4.629285
1225.990, 3.878808
1226.472, 2.365409
1226.954, 0.9003274
1227.436, -0.2558724
1227.918, -0.5194772
1228.400, 0.6197122
1228.882, 1.940113
1229.364, 3.941745
1229.846, 5.054708
1230.328, 4.051353
1230.811, 2.535249
1231.293, 1.386323
1231.775, 0.7805750
1232.257, 1.212365
1232.739, 2.670845
1233.221, 3.545078
1233.703, 3.747720
1234.185, 3.717656
1234.668, 3.433977
1235.150, 3.324323
1235.632, 3.599394
1236.114, 3.383988
1236.596, 1.886925
1237.078, 5.7858352E-02
1237.560, -0.3819250
1238.042, 0.1654491
1238.525, 0.4347622
1239.007, 0.5182726
1239.489, 0.6703478
1239.971, 0.9370636
1240.453, 1.374496
1240.935, 1.975221
1241.417, 2.617819
1241.899, 3.355727
1242.381, 3.664793
1242.864, 2.830694
1243.346, 1.725536
1243.828, 0.7218009
1244.310, 0.1392208
1244.792, 0.6389598
1245.274, 1.700158
1245.756, 2.139274
1246.238, 1.786251
1246.720, 1.508958
1247.203, 1.256831
1247.685, 1.407126
1248.167, 2.341696
1248.649, 3.124472
1249.131, 3.429532
1249.613, 3.572228
1250.095, 3.818076
1250.577, 4.023999
1251.059, 3.914754
1251.542, 3.499402
1252.024, 2.703053
1252.506, 1.531621
1252.988, 1.417663
1253.470, 2.421447
1253.952, 3.251710
1254.434, 3.471993
1254.916, 2.899805
1255.399, 1.299852
1255.881, -0.2099543
1256.363, -5.5284791E-02
1256.845, 0.9069453
1257.327, 1.886656
1257.809, 2.526926
1258.291, 1.746035
1258.773, 0.3945327
1259.255, 0.5990036
1259.738, 2.523494
1260.220, 4.118007
1260.702, 4.612870
1261.184, 4.842338
1261.666, 5.170016
1262.148, 5.156417
1262.630, 4.498399
1263.112, 3.559720
1263.594, 2.116358
1264.077, 0.9596182
1264.559, 1.636459
1265.041, 0.6156083
1265.523, 0.2808341
1266.005, 0.8927844
1266.487, 0.1229927
1266.969, 1.792816
1267.451, 3.612352
1267.934, 5.073875
1268.416, 5.456990
1268.898, 4.322161
1269.380, 2.549540
1269.862, 0.9118380
1270.344, -0.2379671
1270.826, 0.2539129
1271.308, -0.6187490
1271.791, 0.9747316
1272.273, -0.2190273
1272.755, -6.9011770E-02
1273.237, 1.294003
1273.719, 1.789746
1274.201, 0.6353998
1274.683, -3.2289930E-02
1275.165, 1.369014
1275.647, 2.536401
1276.130, 2.458729
1276.612, 2.078306
1277.094, 1.799572
1277.576, 1.623479
1278.058, 1.534282
1278.540, 1.528014
1279.022, 1.600113
1279.504, 1.754347
1279.986, 1.922489
1280.469, 2.092631
1280.951, 2.373744
1281.433, 2.785920
1281.915, 3.184745
1282.397, 3.520072
1282.879, 4.027129
1283.361, 5.001333
1283.843, 5.501663
1284.326, 4.409421
1284.808, 1.715212
##END=



