##NAMES=Murdochite
##RRUFFID=R180001
##IDEAL CHEMISTRY=Cu^2+^_12_Pb^4+^_2_O_15_Cl_2_
##LOCALITY=Mammoth mine, Tiger, Pinal County, Arizona, USA
##OWNER=UA Mineral Museum
##SOURCE=UA Mineral Museum
##DESCRIPTION=Black octahedral or cubo-octahedral crystals, associated with green prismatic dioptase
##STATUS=The identification of this mineral is confirmed by single-crystal X-ray diffraction and chemical analysis.
##URL=rruff.info/R180001
##MEASURED CHEMISTRY=Cu_11.98_Pb_2.01_O_15_(Cl_1.92_Br_0.06_)_Σ=1.98_; = Light portion. Cu_12.12_Pb_1.92_O_15_(Cl_1.97_Br_0.12_)_Σ=2.09_ = Dark portion
8.813672e+001, 5.604893e+001
8.861884e+001, 5.707286e+001
8.910095e+001, 5.791047e+001
8.958307e+001, 5.844062e+001
9.006519e+001, 5.889260e+001
9.054730e+001, 5.941710e+001
9.102942e+001, 6.006740e+001
9.151154e+001, 6.091964e+001
9.199365e+001, 6.266493e+001
9.247577e+001, 6.480570e+001
9.295789e+001, 6.589655e+001
9.344000e+001, 6.446804e+001
9.392212e+001, 6.155191e+001
9.440424e+001, 5.981901e+001
9.488635e+001, 5.959778e+001
9.536847e+001, 5.988622e+001
9.585059e+001, 5.923900e+001
9.633270e+001, 5.769653e+001
9.681482e+001, 5.614901e+001
9.729694e+001, 5.507984e+001
9.777905e+001, 5.445716e+001
9.826117e+001, 5.392411e+001
9.874329e+001, 5.338906e+001
9.922540e+001, 5.299469e+001
9.970752e+001, 5.331649e+001
1.001896e+002, 5.460332e+001
1.006718e+002, 5.560848e+001
1.011539e+002, 5.531842e+001
1.016360e+002, 5.338584e+001
1.021181e+002, 5.182915e+001
1.026002e+002, 5.094234e+001
1.030823e+002, 5.064931e+001
1.035645e+002, 5.042915e+001
1.040466e+002, 5.025237e+001
1.045287e+002, 5.018340e+001
1.050108e+002, 5.022585e+001
1.054929e+002, 5.010904e+001
1.059750e+002, 5.058205e+001
1.064572e+002, 5.195530e+001
1.069393e+002, 5.436534e+001
1.074214e+002, 5.640245e+001
1.079035e+002, 5.863094e+001
1.083856e+002, 6.025551e+001
1.088677e+002, 6.037883e+001
1.093499e+002, 5.737745e+001
1.098320e+002, 5.447775e+001
1.103141e+002, 5.231419e+001
1.107962e+002, 5.098144e+001
1.112783e+002, 4.998943e+001
1.117604e+002, 4.938007e+001
1.122426e+002, 4.905792e+001
1.127247e+002, 4.889211e+001
1.132068e+002, 4.886259e+001
1.136889e+002, 4.898012e+001
1.141710e+002, 4.922113e+001
1.146531e+002, 4.946568e+001
1.151353e+002, 5.005939e+001
1.156174e+002, 5.156866e+001
1.160995e+002, 5.355523e+001
1.165816e+002, 5.492635e+001
1.170637e+002, 5.471075e+001
1.175458e+002, 5.405988e+001
1.180280e+002, 5.379171e+001
1.185101e+002, 5.457136e+001
1.189922e+002, 5.516283e+001
1.194743e+002, 5.462207e+001
1.199564e+002, 5.319341e+001
1.204385e+002, 5.198785e+001
1.209207e+002, 5.166478e+001
1.214028e+002, 5.189817e+001
1.218849e+002, 5.230541e+001
1.223670e+002, 5.246265e+001
1.228491e+002, 5.298872e+001
1.233312e+002, 5.507112e+001
1.238134e+002, 5.859843e+001
1.242955e+002, 6.139106e+001
1.247776e+002, 6.114555e+001
1.252597e+002, 5.887936e+001
1.257418e+002, 5.665539e+001
1.262239e+002, 5.519514e+001
1.267061e+002, 5.432200e+001
1.271882e+002, 5.383018e+001
1.276703e+002, 5.372492e+001
1.281524e+002, 5.390068e+001
1.286345e+002, 5.440863e+001
1.291166e+002, 5.516779e+001
1.295988e+002, 5.581651e+001
1.300809e+002, 5.597722e+001
1.305630e+002, 5.586082e+001
1.310451e+002, 5.635829e+001
1.315272e+002, 5.768800e+001
1.320093e+002, 5.904679e+001
1.324915e+002, 5.906889e+001
1.329736e+002, 5.775352e+001
1.334557e+002, 5.638917e+001
1.339378e+002, 5.571790e+001
1.344199e+002, 5.569921e+001
1.349020e+002, 5.565495e+001
1.353842e+002, 5.551129e+001
1.358663e+002, 5.535683e+001
1.363484e+002, 5.537054e+001
1.368305e+002, 5.556016e+001
1.373126e+002, 5.588440e+001
1.377947e+002, 5.621800e+001
1.382769e+002, 5.648545e+001
1.387590e+002, 5.741582e+001
1.392411e+002, 5.944034e+001
1.397232e+002, 6.209575e+001
1.402053e+002, 6.341343e+001
1.406874e+002, 6.309702e+001
1.411696e+002, 6.208391e+001
1.416517e+002, 6.094386e+001
1.421338e+002, 5.954932e+001
1.426159e+002, 5.836506e+001
1.430980e+002, 5.747033e+001
1.435801e+002, 5.685302e+001
1.440623e+002, 5.628370e+001
1.445444e+002, 5.570783e+001
1.450265e+002, 5.524596e+001
1.455086e+002, 5.500032e+001
1.459907e+002, 5.500097e+001
1.464728e+002, 5.517953e+001
1.469550e+002, 5.565957e+001
1.474371e+002, 5.648146e+001
1.479192e+002, 5.689458e+001
1.484013e+002, 5.666329e+001
1.488834e+002, 5.616336e+001
1.493655e+002, 5.573468e+001
1.498477e+002, 5.546580e+001
1.503298e+002, 5.517583e+001
1.508119e+002, 5.475721e+001
1.512940e+002, 5.412979e+001
1.517761e+002, 5.382329e+001
1.522583e+002, 5.417548e+001
1.527404e+002, 5.474136e+001
1.532225e+002, 5.505653e+001
1.537046e+002, 5.476139e+001
1.541867e+002, 5.450704e+001
1.546688e+002, 5.452820e+001
1.551510e+002, 5.495809e+001
1.556331e+002, 5.517782e+001
1.561152e+002, 5.503168e+001
1.565973e+002, 5.463490e+001
1.570794e+002, 5.414235e+001
1.575615e+002, 5.350862e+001
1.580437e+002, 5.284443e+001
1.585258e+002, 5.215728e+001
1.590079e+002, 5.138684e+001
1.594900e+002, 5.078475e+001
1.599721e+002, 5.047219e+001
1.604542e+002, 5.037165e+001
1.609364e+002, 5.034749e+001
1.614185e+002, 5.037355e+001
1.619006e+002, 5.044781e+001
1.623827e+002, 5.058123e+001
1.628648e+002, 5.080696e+001
1.633469e+002, 5.101419e+001
1.638291e+002, 5.122676e+001
1.643112e+002, 5.138863e+001
1.647933e+002, 5.137547e+001
1.652754e+002, 5.093911e+001
1.657575e+002, 5.041318e+001
1.662396e+002, 5.005860e+001
1.667218e+002, 4.998647e+001
1.672039e+002, 4.998101e+001
1.676860e+002, 4.992931e+001
1.681681e+002, 4.984086e+001
1.686502e+002, 4.974247e+001
1.691323e+002, 4.955061e+001
1.696145e+002, 4.939885e+001
1.700966e+002, 4.944756e+001
1.705787e+002, 4.985123e+001
1.710608e+002, 5.028657e+001
1.715429e+002, 5.051461e+001
1.720250e+002, 5.054998e+001
1.725072e+002, 5.045956e+001
1.729893e+002, 5.022178e+001
1.734714e+002, 4.990119e+001
1.739535e+002, 4.957818e+001
1.744356e+002, 4.923751e+001
1.749177e+002, 4.894435e+001
1.753999e+002, 4.876107e+001
1.758820e+002, 4.868419e+001
1.763641e+002, 4.869278e+001
1.768462e+002, 4.887516e+001
1.773283e+002, 4.912263e+001
1.778104e+002, 4.921362e+001
1.782926e+002, 4.898112e+001
1.787747e+002, 4.865559e+001
1.792568e+002, 4.863056e+001
1.797389e+002, 4.888909e+001
1.802210e+002, 4.909567e+001
1.807031e+002, 4.886090e+001
1.811853e+002, 4.833770e+001
1.816674e+002, 4.793350e+001
1.821495e+002, 4.781974e+001
1.826316e+002, 4.787347e+001
1.831137e+002, 4.787336e+001
1.835958e+002, 4.781823e+001
1.840780e+002, 4.775528e+001
1.845601e+002, 4.769788e+001
1.850422e+002, 4.765992e+001
1.855243e+002, 4.770211e+001
1.860064e+002, 4.787862e+001
1.864885e+002, 4.813702e+001
1.869707e+002, 4.838544e+001
1.874528e+002, 4.863807e+001
1.879349e+002, 4.875892e+001
1.884170e+002, 4.851995e+001
1.888991e+002, 4.796828e+001
1.893812e+002, 4.747663e+001
1.898634e+002, 4.714708e+001
1.903455e+002, 4.696902e+001
1.908276e+002, 4.692077e+001
1.913097e+002, 4.701710e+001
1.917918e+002, 4.716376e+001
1.922739e+002, 4.727156e+001
1.927561e+002, 4.734103e+001
1.932382e+002, 4.736283e+001
1.937203e+002, 4.729972e+001
1.942024e+002, 4.717737e+001
1.946845e+002, 4.717574e+001
1.951666e+002, 4.732682e+001
1.956488e+002, 4.748310e+001
1.961309e+002, 4.746032e+001
1.966130e+002, 4.724874e+001
1.970951e+002, 4.698602e+001
1.975772e+002, 4.667266e+001
1.980593e+002, 4.632457e+001
1.985415e+002, 4.613271e+001
1.990236e+002, 4.612353e+001
1.995057e+002, 4.620337e+001
1.999878e+002, 4.628343e+001
2.004699e+002, 4.637560e+001
2.009520e+002, 4.638575e+001
2.014342e+002, 4.621601e+001
2.019163e+002, 4.587752e+001
2.023984e+002, 4.582714e+001
2.028805e+002, 4.615524e+001
2.033626e+002, 4.659461e+001
2.038447e+002, 4.680602e+001
2.043269e+002, 4.677443e+001
2.048090e+002, 4.657977e+001
2.052911e+002, 4.615636e+001
2.057732e+002, 4.548918e+001
2.062553e+002, 4.516760e+001
2.067374e+002, 4.528660e+001
2.072196e+002, 4.559995e+001
2.077017e+002, 4.576584e+001
2.081838e+002, 4.574014e+001
2.086659e+002, 4.571828e+001
2.091480e+002, 4.578684e+001
2.096301e+002, 4.596070e+001
2.101123e+002, 4.598940e+001
2.105944e+002, 4.580414e+001
2.110765e+002, 4.556380e+001
2.115586e+002, 4.552032e+001
2.120407e+002, 4.576107e+001
2.125228e+002, 4.594816e+001
2.130050e+002, 4.594744e+001
2.134871e+002, 4.573086e+001
2.139692e+002, 4.560910e+001
2.144513e+002, 4.561393e+001
2.149334e+002, 4.567890e+001
2.154155e+002, 4.571390e+001
2.158977e+002, 4.571449e+001
2.163798e+002, 4.569500e+001
2.168619e+002, 4.564567e+001
2.173440e+002, 4.555527e+001
2.178261e+002, 4.554230e+001
2.183082e+002, 4.565849e+001
2.187904e+002, 4.580149e+001
2.192725e+002, 4.580392e+001
2.197546e+002, 4.556829e+001
2.202367e+002, 4.541137e+001
2.207188e+002, 4.545868e+001
2.212009e+002, 4.575673e+001
2.216831e+002, 4.594082e+001
2.221652e+002, 4.597786e+001
2.226473e+002, 4.593354e+001
2.231294e+002, 4.590365e+001
2.236115e+002, 4.592907e+001
2.240936e+002, 4.588414e+001
2.245758e+002, 4.570356e+001
2.250579e+002, 4.535386e+001
2.255400e+002, 4.512346e+001
2.260221e+002, 4.507434e+001
2.265042e+002, 4.508914e+001
2.269863e+002, 4.498873e+001
2.274685e+002, 4.461826e+001
2.279506e+002, 4.442938e+001
2.284327e+002, 4.462718e+001
2.289148e+002, 4.530898e+001
2.293969e+002, 4.562157e+001
2.298790e+002, 4.538286e+001
2.303612e+002, 4.492939e+001
2.308433e+002, 4.466731e+001
2.313254e+002, 4.465806e+001
2.318075e+002, 4.472700e+001
2.322896e+002, 4.486347e+001
2.327717e+002, 4.508479e+001
2.332539e+002, 4.518802e+001
2.337360e+002, 4.506453e+001
2.342181e+002, 4.491686e+001
2.347002e+002, 4.500025e+001
2.351823e+002, 4.549842e+001
2.356644e+002, 4.589722e+001
2.361466e+002, 4.606083e+001
2.366287e+002, 4.596818e+001
2.371108e+002, 4.591663e+001
2.375929e+002, 4.594309e+001
2.380750e+002, 4.597998e+001
2.385571e+002, 4.596248e+001
2.390393e+002, 4.590412e+001
2.395214e+002, 4.576128e+001
2.400035e+002, 4.546254e+001
2.404856e+002, 4.498428e+001
2.409677e+002, 4.477362e+001
2.414498e+002, 4.496772e+001
2.419320e+002, 4.529682e+001
2.424141e+002, 4.551078e+001
2.428962e+002, 4.557434e+001
2.433783e+002, 4.558271e+001
2.438604e+002, 4.552633e+001
2.443425e+002, 4.540429e+001
2.448247e+002, 4.535151e+001
2.453068e+002, 4.541410e+001
2.457889e+002, 4.549456e+001
2.462710e+002, 4.549713e+001
2.467531e+002, 4.533857e+001
2.472352e+002, 4.526665e+001
2.477174e+002, 4.533555e+001
2.481995e+002, 4.553807e+001
2.486816e+002, 4.574839e+001
2.491637e+002, 4.596559e+001
2.496458e+002, 4.619509e+001
2.501279e+002, 4.646911e+001
2.506101e+002, 4.692090e+001
2.510922e+002, 4.713180e+001
2.515743e+002, 4.698722e+001
2.520564e+002, 4.653151e+001
2.525385e+002, 4.609179e+001
2.530206e+002, 4.557489e+001
2.535028e+002, 4.519720e+001
2.539849e+002, 4.515822e+001
2.544670e+002, 4.564812e+001
2.549491e+002, 4.600362e+001
2.554312e+002, 4.610527e+001
2.559133e+002, 4.600834e+001
2.563955e+002, 4.603721e+001
2.568776e+002, 4.630546e+001
2.573597e+002, 4.652218e+001
2.578418e+002, 4.646379e+001
2.583239e+002, 4.595477e+001
2.588061e+002, 4.565093e+001
2.592882e+002, 4.567431e+001
2.597703e+002, 4.592402e+001
2.602524e+002, 4.601652e+001
2.607345e+002, 4.590195e+001
2.612166e+002, 4.572520e+001
2.616988e+002, 4.554038e+001
2.621809e+002, 4.531256e+001
2.626630e+002, 4.522132e+001
2.631451e+002, 4.534203e+001
2.636272e+002, 4.557611e+001
2.641093e+002, 4.562388e+001
2.645915e+002, 4.538879e+001
2.650736e+002, 4.518916e+001
2.655557e+002, 4.521411e+001
2.660378e+002, 4.555529e+001
2.665199e+002, 4.573862e+001
2.670020e+002, 4.571378e+001
2.674842e+002, 4.556124e+001
2.679663e+002, 4.543091e+001
2.684484e+002, 4.530598e+001
2.689305e+002, 4.525039e+001
2.694126e+002, 4.529649e+001
2.698947e+002, 4.545428e+001
2.703769e+002, 4.567929e+001
2.708590e+002, 4.601945e+001
2.713411e+002, 4.636599e+001
2.718232e+002, 4.651323e+001
2.723053e+002, 4.641751e+001
2.727874e+002, 4.628329e+001
2.732696e+002, 4.615231e+001
2.737517e+002, 4.601797e+001
2.742338e+002, 4.603437e+001
2.747159e+002, 4.623685e+001
2.751980e+002, 4.651947e+001
2.756801e+002, 4.674119e+001
2.761623e+002, 4.689589e+001
2.766444e+002, 4.702983e+001
2.771265e+002, 4.717080e+001
2.776086e+002, 4.731541e+001
2.780907e+002, 4.736320e+001
2.785728e+002, 4.729818e+001
2.790550e+002, 4.718782e+001
2.795371e+002, 4.708849e+001
2.800192e+002, 4.699749e+001
2.805013e+002, 4.696490e+001
2.809834e+002, 4.701612e+001
2.814655e+002, 4.713752e+001
2.819477e+002, 4.726093e+001
2.824298e+002, 4.738530e+001
2.829119e+002, 4.751200e+001
2.833940e+002, 4.764762e+001
2.838761e+002, 4.779144e+001
2.843582e+002, 4.791783e+001
2.848404e+002, 4.802178e+001
2.853225e+002, 4.810325e+001
2.858046e+002, 4.814304e+001
2.862867e+002, 4.813366e+001
2.867688e+002, 4.815361e+001
2.872509e+002, 4.831046e+001
2.877331e+002, 4.858075e+001
2.882152e+002, 4.874064e+001
2.886973e+002, 4.871565e+001
2.891794e+002, 4.860969e+001
2.896615e+002, 4.865363e+001
2.901436e+002, 4.884669e+001
2.906258e+002, 4.906344e+001
2.911079e+002, 4.924584e+001
2.915900e+002, 4.938940e+001
2.920721e+002, 4.944203e+001
2.925542e+002, 4.935366e+001
2.930363e+002, 4.927788e+001
2.935185e+002, 4.954086e+001
2.940006e+002, 5.010285e+001
2.944827e+002, 5.056779e+001
2.949648e+002, 5.064729e+001
2.954469e+002, 5.046902e+001
2.959290e+002, 5.035431e+001
2.964112e+002, 5.031876e+001
2.968933e+002, 5.037316e+001
2.973754e+002, 5.061378e+001
2.978575e+002, 5.097984e+001
2.983396e+002, 5.125059e+001
2.988217e+002, 5.124653e+001
2.993039e+002, 5.109413e+001
2.997860e+002, 5.099820e+001
3.002681e+002, 5.096243e+001
3.007502e+002, 5.098994e+001
3.012323e+002, 5.114144e+001
3.017144e+002, 5.136345e+001
3.021966e+002, 5.152017e+001
3.026787e+002, 5.148796e+001
3.031608e+002, 5.140543e+001
3.036429e+002, 5.146254e+001
3.041250e+002, 5.165254e+001
3.046071e+002, 5.185032e+001
3.050893e+002, 5.193066e+001
3.055714e+002, 5.195864e+001
3.060535e+002, 5.203925e+001
3.065356e+002, 5.224707e+001
3.070177e+002, 5.247606e+001
3.074998e+002, 5.265142e+001
3.079820e+002, 5.277124e+001
3.084641e+002, 5.281640e+001
3.089462e+002, 5.259954e+001
3.094283e+002, 5.237268e+001
3.099104e+002, 5.245315e+001
3.103925e+002, 5.308585e+001
3.108747e+002, 5.373201e+001
3.113568e+002, 5.403092e+001
3.118389e+002, 5.404945e+001
3.123210e+002, 5.397439e+001
3.128031e+002, 5.377562e+001
3.132852e+002, 5.359327e+001
3.137674e+002, 5.355760e+001
3.142495e+002, 5.374154e+001
3.147316e+002, 5.391114e+001
3.152137e+002, 5.393387e+001
3.156958e+002, 5.386576e+001
3.161779e+002, 5.380242e+001
3.166601e+002, 5.380724e+001
3.171422e+002, 5.380486e+001
3.176243e+002, 5.371806e+001
3.181064e+002, 5.351199e+001
3.185885e+002, 5.342348e+001
3.190706e+002, 5.367759e+001
3.195528e+002, 5.404385e+001
3.200349e+002, 5.426036e+001
3.205170e+002, 5.412457e+001
3.209991e+002, 5.395706e+001
3.214812e+002, 5.386562e+001
3.219633e+002, 5.385448e+001
3.224455e+002, 5.381907e+001
3.229276e+002, 5.377909e+001
3.234097e+002, 5.368328e+001
3.238918e+002, 5.349323e+001
3.243739e+002, 5.299670e+001
3.248560e+002, 5.263292e+001
3.253382e+002, 5.252119e+001
3.258203e+002, 5.262583e+001
3.263024e+002, 5.270763e+001
3.267845e+002, 5.285459e+001
3.272666e+002, 5.289642e+001
3.277487e+002, 5.274104e+001
3.282309e+002, 5.203645e+001
3.287130e+002, 5.162103e+001
3.291951e+002, 5.167912e+001
3.296772e+002, 5.202103e+001
3.301593e+002, 5.217466e+001
3.306414e+002, 5.209484e+001
3.311236e+002, 5.187639e+001
3.316057e+002, 5.152000e+001
3.320878e+002, 5.094165e+001
3.325699e+002, 5.048615e+001
3.330520e+002, 5.022827e+001
3.335341e+002, 5.004993e+001
3.340163e+002, 4.977052e+001
3.344984e+002, 4.931486e+001
3.349805e+002, 4.891422e+001
3.354626e+002, 4.865790e+001
3.359447e+002, 4.855566e+001
3.364268e+002, 4.831050e+001
3.369090e+002, 4.784391e+001
3.373911e+002, 4.735176e+001
3.378732e+002, 4.705528e+001
3.383553e+002, 4.701749e+001
3.388374e+002, 4.690994e+001
3.393195e+002, 4.664004e+001
3.398017e+002, 4.625896e+001
3.402838e+002, 4.602330e+001
3.407659e+002, 4.598261e+001
3.412480e+002, 4.590546e+001
3.417301e+002, 4.556994e+001
3.422122e+002, 4.496223e+001
3.426944e+002, 4.449614e+001
3.431765e+002, 4.423911e+001
3.436586e+002, 4.410674e+001
3.441407e+002, 4.393135e+001
3.446228e+002, 4.371216e+001
3.451049e+002, 4.352122e+001
3.455871e+002, 4.343989e+001
3.460692e+002, 4.343672e+001
3.465513e+002, 4.331535e+001
3.470334e+002, 4.304726e+001
3.475155e+002, 4.276531e+001
3.479977e+002, 4.270137e+001
3.484798e+002, 4.280384e+001
3.489619e+002, 4.280179e+001
3.494440e+002, 4.250777e+001
3.499261e+002, 4.206138e+001
3.504082e+002, 4.171914e+001
3.508904e+002, 4.148050e+001
3.513725e+002, 4.133954e+001
3.518546e+002, 4.141461e+001
3.523367e+002, 4.157442e+001
3.528188e+002, 4.152283e+001
3.533009e+002, 4.104392e+001
3.537831e+002, 4.048204e+001
3.542652e+002, 4.026176e+001
3.547473e+002, 4.031546e+001
3.552294e+002, 4.033407e+001
3.557115e+002, 3.997468e+001
3.561936e+002, 3.954473e+001
3.566758e+002, 3.943621e+001
3.571579e+002, 3.984693e+001
3.576400e+002, 4.021611e+001
3.581221e+002, 4.004688e+001
3.586042e+002, 3.955872e+001
3.590863e+002, 3.918497e+001
3.595685e+002, 3.925430e+001
3.600506e+002, 3.939737e+001
3.605327e+002, 3.938905e+001
3.610148e+002, 3.920036e+001
3.614969e+002, 3.895574e+001
3.619790e+002, 3.856283e+001
3.624612e+002, 3.819622e+001
3.629433e+002, 3.803699e+001
3.634254e+002, 3.843153e+001
3.639075e+002, 3.874511e+001
3.643896e+002, 3.873343e+001
3.648717e+002, 3.842041e+001
3.653539e+002, 3.813684e+001
3.658360e+002, 3.790254e+001
3.663181e+002, 3.774949e+001
3.668002e+002, 3.769360e+001
3.672823e+002, 3.787254e+001
3.677644e+002, 3.797534e+001
3.682466e+002, 3.794617e+001
3.687287e+002, 3.782400e+001
3.692108e+002, 3.772011e+001
3.696929e+002, 3.763829e+001
3.701750e+002, 3.757044e+001
3.706571e+002, 3.752122e+001
3.711393e+002, 3.750649e+001
3.716214e+002, 3.745642e+001
3.721035e+002, 3.735642e+001
3.725856e+002, 3.723240e+001
3.730677e+002, 3.711610e+001
3.735498e+002, 3.700159e+001
3.740320e+002, 3.690661e+001
3.745141e+002, 3.683076e+001
3.749962e+002, 3.677620e+001
3.754783e+002, 3.677891e+001
3.759604e+002, 3.685953e+001
3.764425e+002, 3.695310e+001
3.769247e+002, 3.700933e+001
3.774068e+002, 3.702547e+001
3.778889e+002, 3.702436e+001
3.783710e+002, 3.700849e+001
3.788531e+002, 3.697750e+001
3.793352e+002, 3.695927e+001
3.798174e+002, 3.696360e+001
3.802995e+002, 3.686213e+001
3.807816e+002, 3.647533e+001
3.812637e+002, 3.586860e+001
3.817458e+002, 3.551162e+001
3.822279e+002, 3.543372e+001
3.827101e+002, 3.555272e+001
3.831922e+002, 3.590569e+001
3.836743e+002, 3.641709e+001
3.841564e+002, 3.670858e+001
3.846385e+002, 3.648888e+001
3.851206e+002, 3.602988e+001
3.856028e+002, 3.584851e+001
3.860849e+002, 3.593089e+001
3.865670e+002, 3.601070e+001
3.870491e+002, 3.581341e+001
3.875312e+002, 3.548904e+001
3.880133e+002, 3.527852e+001
3.884955e+002, 3.524575e+001
3.889776e+002, 3.533379e+001
3.894597e+002, 3.560084e+001
3.899418e+002, 3.596743e+001
3.904239e+002, 3.620565e+001
3.909060e+002, 3.610797e+001
3.913882e+002, 3.589183e+001
3.918703e+002, 3.571525e+001
3.923524e+002, 3.559775e+001
3.928345e+002, 3.550683e+001
3.933166e+002, 3.536330e+001
3.937987e+002, 3.525543e+001
3.942809e+002, 3.529559e+001
3.947630e+002, 3.575031e+001
3.952451e+002, 3.612873e+001
3.957272e+002, 3.620800e+001
3.962093e+002, 3.600316e+001
3.966914e+002, 3.587263e+001
3.971736e+002, 3.593583e+001
3.976557e+002, 3.606473e+001
3.981378e+002, 3.618319e+001
3.986199e+002, 3.644220e+001
3.991020e+002, 3.648491e+001
3.995841e+002, 3.611091e+001
4.000663e+002, 3.552356e+001
4.005484e+002, 3.522181e+001
4.010305e+002, 3.546031e+001
4.015126e+002, 3.566299e+001
4.019947e+002, 3.559606e+001
4.024768e+002, 3.516616e+001
4.029590e+002, 3.498533e+001
4.034411e+002, 3.515673e+001
4.039232e+002, 3.545979e+001
4.044053e+002, 3.565559e+001
4.048874e+002, 3.572722e+001
4.053695e+002, 3.574669e+001
4.058517e+002, 3.570838e+001
4.063338e+002, 3.563296e+001
4.068159e+002, 3.562976e+001
4.072980e+002, 3.572116e+001
4.077801e+002, 3.577777e+001
4.082622e+002, 3.565087e+001
4.087444e+002, 3.536209e+001
4.092265e+002, 3.525331e+001
4.097086e+002, 3.539331e+001
4.101907e+002, 3.562275e+001
4.106728e+002, 3.571801e+001
4.111549e+002, 3.568828e+001
4.116371e+002, 3.558878e+001
4.121192e+002, 3.530739e+001
4.126013e+002, 3.500648e+001
4.130834e+002, 3.510807e+001
4.135655e+002, 3.561095e+001
4.140476e+002, 3.608832e+001
4.145298e+002, 3.615862e+001
4.150119e+002, 3.597420e+001
4.154940e+002, 3.578101e+001
4.159761e+002, 3.563482e+001
4.164582e+002, 3.552099e+001
4.169403e+002, 3.542372e+001
4.174225e+002, 3.534965e+001
4.179046e+002, 3.531897e+001
4.183867e+002, 3.533119e+001
4.188688e+002, 3.539976e+001
4.193509e+002, 3.557690e+001
4.198330e+002, 3.591217e+001
4.203152e+002, 3.613141e+001
4.207973e+002, 3.602604e+001
4.212794e+002, 3.578653e+001
4.217615e+002, 3.563268e+001
4.222436e+002, 3.573561e+001
4.227257e+002, 3.580584e+001
4.232079e+002, 3.575085e+001
4.236900e+002, 3.558028e+001
4.241721e+002, 3.543974e+001
4.246542e+002, 3.524868e+001
4.251363e+002, 3.516135e+001
4.256184e+002, 3.527315e+001
4.261006e+002, 3.581273e+001
4.265827e+002, 3.611850e+001
4.270648e+002, 3.607103e+001
4.275469e+002, 3.584866e+001
4.280290e+002, 3.578192e+001
4.285111e+002, 3.595665e+001
4.289933e+002, 3.609353e+001
4.294754e+002, 3.610084e+001
4.299575e+002, 3.598179e+001
4.304396e+002, 3.585632e+001
4.309217e+002, 3.570554e+001
4.314038e+002, 3.560091e+001
4.318860e+002, 3.562580e+001
4.323681e+002, 3.578158e+001
4.328502e+002, 3.594913e+001
4.333323e+002, 3.612883e+001
4.338144e+002, 3.628339e+001
4.342965e+002, 3.628954e+001
4.347787e+002, 3.616311e+001
4.352608e+002, 3.610584e+001
4.357429e+002, 3.633444e+001
4.362250e+002, 3.669579e+001
4.367071e+002, 3.681729e+001
4.371892e+002, 3.667385e+001
4.376714e+002, 3.646741e+001
4.381535e+002, 3.638555e+001
4.386356e+002, 3.637267e+001
4.391177e+002, 3.631884e+001
4.395998e+002, 3.605458e+001
4.400819e+002, 3.589455e+001
4.405641e+002, 3.618901e+001
4.410462e+002, 3.682966e+001
4.415283e+002, 3.742972e+001
4.420104e+002, 3.788530e+001
4.424925e+002, 3.816399e+001
4.429746e+002, 3.817047e+001
4.434568e+002, 3.779164e+001
4.439389e+002, 3.754693e+001
4.444210e+002, 3.771715e+001
4.449031e+002, 3.807035e+001
4.453852e+002, 3.833022e+001
4.458673e+002, 3.828225e+001
4.463495e+002, 3.830448e+001
4.468316e+002, 3.851622e+001
4.473137e+002, 3.890171e+001
4.477958e+002, 3.921399e+001
4.482779e+002, 3.940281e+001
4.487600e+002, 3.956528e+001
4.492422e+002, 3.975172e+001
4.497243e+002, 3.999144e+001
4.502064e+002, 4.018020e+001
4.506885e+002, 4.028122e+001
4.511706e+002, 4.037054e+001
4.516527e+002, 4.059422e+001
4.521349e+002, 4.099837e+001
4.526170e+002, 4.135443e+001
4.530991e+002, 4.159688e+001
4.535812e+002, 4.173597e+001
4.540633e+002, 4.175491e+001
4.545454e+002, 4.162901e+001
4.550276e+002, 4.158978e+001
4.555097e+002, 4.188665e+001
4.559918e+002, 4.245424e+001
4.564739e+002, 4.297034e+001
4.569560e+002, 4.340330e+001
4.574381e+002, 4.374768e+001
4.579203e+002, 4.395603e+001
4.584024e+002, 4.406174e+001
4.588845e+002, 4.417700e+001
4.593666e+002, 4.437358e+001
4.598488e+002, 4.459526e+001
4.603309e+002, 4.478153e+001
4.608130e+002, 4.493074e+001
4.612951e+002, 4.505634e+001
4.617772e+002, 4.508885e+001
4.622593e+002, 4.513655e+001
4.627415e+002, 4.532707e+001
4.632236e+002, 4.582969e+001
4.637057e+002, 4.622670e+001
4.641878e+002, 4.633703e+001
4.646699e+002, 4.622657e+001
4.651520e+002, 4.602090e+001
4.656342e+002, 4.562559e+001
4.661163e+002, 4.526470e+001
4.665984e+002, 4.503199e+001
4.670805e+002, 4.495415e+001
4.675626e+002, 4.481499e+001
4.680447e+002, 4.456059e+001
4.685269e+002, 4.428437e+001
4.690090e+002, 4.405944e+001
4.694911e+002, 4.398173e+001
4.699732e+002, 4.373931e+001
4.704553e+002, 4.321547e+001
4.709374e+002, 4.257428e+001
4.714196e+002, 4.221547e+001
4.719017e+002, 4.222634e+001
4.723838e+002, 4.220894e+001
4.728659e+002, 4.201595e+001
4.733480e+002, 4.165520e+001
4.738301e+002, 4.117847e+001
4.743123e+002, 4.055738e+001
4.747944e+002, 3.999323e+001
4.752765e+002, 3.974682e+001
4.757586e+002, 3.973950e+001
4.762407e+002, 3.961285e+001
4.767228e+002, 3.925545e+001
4.772050e+002, 3.884869e+001
4.776871e+002, 3.863609e+001
4.781692e+002, 3.858054e+001
4.786513e+002, 3.856945e+001
4.791334e+002, 3.860935e+001
4.796155e+002, 3.862483e+001
4.800977e+002, 3.851082e+001
4.805798e+002, 3.826699e+001
4.810619e+002, 3.804799e+001
4.815440e+002, 3.797952e+001
4.820261e+002, 3.796042e+001
4.825082e+002, 3.789845e+001
4.829904e+002, 3.774767e+001
4.834725e+002, 3.758962e+001
4.839546e+002, 3.742035e+001
4.844367e+002, 3.726072e+001
4.849188e+002, 3.715733e+001
4.854009e+002, 3.715746e+001
4.858831e+002, 3.717302e+001
4.863652e+002, 3.715528e+001
4.868473e+002, 3.709388e+001
4.873294e+002, 3.717379e+001
4.878115e+002, 3.751570e+001
4.882936e+002, 3.785764e+001
4.887758e+002, 3.800431e+001
4.892579e+002, 3.790121e+001
4.897400e+002, 3.778144e+001
4.902221e+002, 3.763578e+001
4.907042e+002, 3.751256e+001
4.911863e+002, 3.754462e+001
4.916685e+002, 3.774369e+001
4.921506e+002, 3.789069e+001
4.926327e+002, 3.782967e+001
4.931148e+002, 3.765827e+001
4.935969e+002, 3.776947e+001
4.940790e+002, 3.816282e+001
4.945612e+002, 3.852864e+001
4.950433e+002, 3.860965e+001
4.955254e+002, 3.848872e+001
4.960075e+002, 3.829400e+001
4.964896e+002, 3.801052e+001
4.969717e+002, 3.778375e+001
4.974539e+002, 3.773462e+001
4.979360e+002, 3.783800e+001
4.984181e+002, 3.805068e+001
4.989002e+002, 3.851189e+001
4.993823e+002, 3.894143e+001
4.998644e+002, 3.913723e+001
5.003466e+002, 3.912579e+001
5.008287e+002, 3.918823e+001
5.013108e+002, 3.955514e+001
5.017929e+002, 3.991615e+001
5.022750e+002, 4.008589e+001
5.027571e+002, 3.995443e+001
5.032393e+002, 3.981207e+001
5.037214e+002, 3.960046e+001
5.042035e+002, 3.941702e+001
5.046856e+002, 3.940091e+001
5.051677e+002, 3.964344e+001
5.056498e+002, 3.986908e+001
5.061320e+002, 4.000948e+001
5.066141e+002, 4.009068e+001
5.070962e+002, 4.027294e+001
5.075783e+002, 4.059192e+001
5.080604e+002, 4.086052e+001
5.085425e+002, 4.094341e+001
5.090247e+002, 4.085786e+001
5.095068e+002, 4.076286e+001
5.099889e+002, 4.065667e+001
5.104710e+002, 4.058022e+001
5.109531e+002, 4.060402e+001
5.114352e+002, 4.069861e+001
5.119174e+002, 4.076755e+001
5.123995e+002, 4.073341e+001
5.128816e+002, 4.072779e+001
5.133637e+002, 4.094532e+001
5.138458e+002, 4.132263e+001
5.143279e+002, 4.165330e+001
5.148101e+002, 4.187564e+001
5.152922e+002, 4.197951e+001
5.157743e+002, 4.191539e+001
5.162564e+002, 4.166351e+001
5.167385e+002, 4.144707e+001
5.172206e+002, 4.137695e+001
5.177028e+002, 4.135816e+001
5.181849e+002, 4.131458e+001
5.186670e+002, 4.106498e+001
5.191491e+002, 4.100593e+001
5.196312e+002, 4.128846e+001
5.201133e+002, 4.174923e+001
5.205955e+002, 4.204985e+001
5.210776e+002, 4.216040e+001
5.215597e+002, 4.215217e+001
5.220418e+002, 4.199078e+001
5.225239e+002, 4.168891e+001
5.230060e+002, 4.157743e+001
5.234882e+002, 4.168282e+001
5.239703e+002, 4.187717e+001
5.244524e+002, 4.210212e+001
5.249345e+002, 4.234586e+001
5.254166e+002, 4.247722e+001
5.258987e+002, 4.245921e+001
5.263809e+002, 4.241444e+001
5.268630e+002, 4.245411e+001
5.273451e+002, 4.259206e+001
5.278272e+002, 4.287574e+001
5.283093e+002, 4.348675e+001
5.287914e+002, 4.411721e+001
5.292736e+002, 4.441799e+001
5.297557e+002, 4.444793e+001
5.302378e+002, 4.445483e+001
5.307199e+002, 4.448447e+001
5.312020e+002, 4.460074e+001
5.316841e+002, 4.488342e+001
5.321663e+002, 4.539360e+001
5.326484e+002, 4.583704e+001
5.331305e+002, 4.595164e+001
5.336126e+002, 4.606226e+001
5.340947e+002, 4.648523e+001
5.345768e+002, 4.771391e+001
5.350590e+002, 4.862976e+001
5.355411e+002, 4.909769e+001
5.360232e+002, 4.920932e+001
5.365053e+002, 4.917029e+001
5.369874e+002, 4.891257e+001
5.374695e+002, 4.868340e+001
5.379517e+002, 4.865242e+001
5.384338e+002, 4.877964e+001
5.389159e+002, 4.846780e+001
5.393980e+002, 4.766668e+001
5.398801e+002, 4.674016e+001
5.403622e+002, 4.603937e+001
5.408444e+002, 4.549487e+001
5.413265e+002, 4.476261e+001
5.418086e+002, 4.374415e+001
5.422907e+002, 4.271156e+001
5.427728e+002, 4.199710e+001
5.432549e+002, 4.149697e+001
5.437371e+002, 4.100254e+001
5.442192e+002, 4.039567e+001
5.447013e+002, 3.979031e+001
5.451834e+002, 3.920788e+001
5.456655e+002, 3.867101e+001
5.461476e+002, 3.829356e+001
5.466298e+002, 3.823789e+001
5.471119e+002, 3.825911e+001
5.475940e+002, 3.822953e+001
5.480761e+002, 3.811989e+001
5.485582e+002, 3.802831e+001
5.490403e+002, 3.799652e+001
5.495225e+002, 3.796137e+001
5.500046e+002, 3.786634e+001
5.504867e+002, 3.766623e+001
5.509688e+002, 3.750620e+001
5.514509e+002, 3.741299e+001
5.519330e+002, 3.735404e+001
5.524152e+002, 3.726137e+001
5.528973e+002, 3.713163e+001
5.533794e+002, 3.698601e+001
5.538615e+002, 3.681239e+001
5.543436e+002, 3.663331e+001
5.548257e+002, 3.654008e+001
5.553079e+002, 3.653181e+001
5.557900e+002, 3.653669e+001
5.562721e+002, 3.650200e+001
5.567542e+002, 3.644521e+001
5.572363e+002, 3.639487e+001
5.577184e+002, 3.635555e+001
5.582006e+002, 3.631731e+001
5.586827e+002, 3.619743e+001
5.591648e+002, 3.610002e+001
5.596469e+002, 3.615606e+001
5.601290e+002, 3.669822e+001
5.606111e+002, 3.708456e+001
5.610933e+002, 3.700385e+001
5.615754e+002, 3.660437e+001
5.620575e+002, 3.628963e+001
5.625396e+002, 3.610734e+001
5.630217e+002, 3.602691e+001
5.635038e+002, 3.608595e+001
5.639860e+002, 3.629452e+001
5.644681e+002, 3.635166e+001
5.649502e+002, 3.619338e+001
5.654323e+002, 3.600266e+001
5.659144e+002, 3.590220e+001
5.663965e+002, 3.589384e+001
5.668787e+002, 3.596789e+001
5.673608e+002, 3.616343e+001
5.678429e+002, 3.632122e+001
5.683250e+002, 3.610030e+001
5.688071e+002, 3.561168e+001
5.692892e+002, 3.535521e+001
5.697714e+002, 3.557399e+001
5.702535e+002, 3.598989e+001
5.707356e+002, 3.633080e+001
5.712177e+002, 3.659032e+001
5.716998e+002, 3.673102e+001
5.721819e+002, 3.668614e+001
5.726641e+002, 3.655760e+001
5.731462e+002, 3.637429e+001
5.736283e+002, 3.613658e+001
5.741104e+002, 3.598833e+001
5.745925e+002, 3.609402e+001
5.750746e+002, 3.622010e+001
5.755568e+002, 3.619955e+001
5.760389e+002, 3.584185e+001
5.765210e+002, 3.566993e+001
5.770031e+002, 3.577562e+001
5.774852e+002, 3.599998e+001
5.779673e+002, 3.614173e+001
5.784495e+002, 3.619789e+001
5.789316e+002, 3.618100e+001
5.794137e+002, 3.607086e+001
5.798958e+002, 3.590870e+001
5.803779e+002, 3.577816e+001
5.808600e+002, 3.568063e+001
5.813422e+002, 3.566411e+001
5.818243e+002, 3.583023e+001
5.823064e+002, 3.607699e+001
5.827885e+002, 3.614975e+001
5.832706e+002, 3.605222e+001
5.837527e+002, 3.598197e+001
5.842349e+002, 3.615515e+001
5.847170e+002, 3.639484e+001
5.851991e+002, 3.648884e+001
5.856812e+002, 3.633781e+001
5.861633e+002, 3.624279e+001
5.866454e+002, 3.640514e+001
5.871276e+002, 3.666965e+001
5.876097e+002, 3.684538e+001
5.880918e+002, 3.689039e+001
5.885739e+002, 3.685410e+001
5.890560e+002, 3.670516e+001
5.895381e+002, 3.648537e+001
5.900203e+002, 3.631764e+001
5.905024e+002, 3.621968e+001
5.909845e+002, 3.613533e+001
5.914666e+002, 3.603875e+001
5.919487e+002, 3.593618e+001
5.924308e+002, 3.589425e+001
5.929130e+002, 3.591882e+001
5.933951e+002, 3.595930e+001
5.938772e+002, 3.597831e+001
5.943593e+002, 3.598174e+001
5.948414e+002, 3.598548e+001
5.953235e+002, 3.599062e+001
5.958057e+002, 3.599679e+001
5.962878e+002, 3.597371e+001
5.967699e+002, 3.595893e+001
5.972520e+002, 3.601518e+001
5.977341e+002, 3.622510e+001
5.982162e+002, 3.641466e+001
5.986984e+002, 3.652718e+001
5.991805e+002, 3.655698e+001
5.996626e+002, 3.649848e+001
6.001447e+002, 3.618849e+001
6.006268e+002, 3.596396e+001
6.011089e+002, 3.598966e+001
6.015911e+002, 3.622670e+001
6.020732e+002, 3.622438e+001
6.025553e+002, 3.583591e+001
6.030374e+002, 3.547956e+001
6.035195e+002, 3.537755e+001
6.040016e+002, 3.553659e+001
6.044838e+002, 3.580184e+001
6.049659e+002, 3.620646e+001
6.054480e+002, 3.655025e+001
6.059301e+002, 3.658121e+001
6.064122e+002, 3.637265e+001
6.068943e+002, 3.617457e+001
6.073765e+002, 3.602965e+001
6.078586e+002, 3.591943e+001
6.083407e+002, 3.581191e+001
6.088228e+002, 3.572860e+001
6.093049e+002, 3.571111e+001
6.097870e+002, 3.586671e+001
6.102692e+002, 3.600212e+001
6.107513e+002, 3.595251e+001
6.112334e+002, 3.579252e+001
6.117155e+002, 3.579215e+001
6.121976e+002, 3.624274e+001
6.126797e+002, 3.662168e+001
6.131619e+002, 3.674447e+001
6.136440e+002, 3.659934e+001
6.141261e+002, 3.643780e+001
6.146082e+002, 3.621399e+001
6.150903e+002, 3.605568e+001
6.155724e+002, 3.609698e+001
6.160546e+002, 3.634327e+001
6.165367e+002, 3.642388e+001
6.170188e+002, 3.628807e+001
6.175009e+002, 3.612962e+001
6.179830e+002, 3.621600e+001
6.184651e+002, 3.646576e+001
6.189473e+002, 3.663451e+001
6.194294e+002, 3.662815e+001
6.199115e+002, 3.658949e+001
6.203936e+002, 3.665442e+001
6.208757e+002, 3.678408e+001
6.213578e+002, 3.689933e+001
6.218400e+002, 3.703442e+001
6.223221e+002, 3.708440e+001
6.228042e+002, 3.694720e+001
6.232863e+002, 3.665800e+001
6.237684e+002, 3.645014e+001
6.242505e+002, 3.626944e+001
6.247327e+002, 3.626212e+001
6.252148e+002, 3.657272e+001
6.256969e+002, 3.725900e+001
6.261790e+002, 3.751527e+001
6.266611e+002, 3.719808e+001
6.271432e+002, 3.681590e+001
6.276254e+002, 3.686232e+001
6.281075e+002, 3.728139e+001
6.285896e+002, 3.737116e+001
6.290717e+002, 3.701951e+001
6.295538e+002, 3.660774e+001
6.300359e+002, 3.662972e+001
6.305181e+002, 3.690697e+001
6.310002e+002, 3.704638e+001
6.314823e+002, 3.680969e+001
6.319644e+002, 3.661205e+001
6.324465e+002, 3.684677e+001
6.329286e+002, 3.732138e+001
6.334108e+002, 3.764879e+001
6.338929e+002, 3.766077e+001
6.343750e+002, 3.756060e+001
6.348571e+002, 3.731684e+001
6.353392e+002, 3.697274e+001
6.358214e+002, 3.684524e+001
6.363035e+002, 3.707324e+001
6.367856e+002, 3.728866e+001
6.372677e+002, 3.732417e+001
6.377498e+002, 3.717877e+001
6.382319e+002, 3.708616e+001
6.387141e+002, 3.704435e+001
6.391962e+002, 3.705853e+001
6.396783e+002, 3.716875e+001
6.401604e+002, 3.734192e+001
6.406425e+002, 3.747784e+001
6.411246e+002, 3.757417e+001
6.416068e+002, 3.758821e+001
6.420889e+002, 3.739507e+001
6.425710e+002, 3.712477e+001
6.430531e+002, 3.697327e+001
6.435352e+002, 3.710859e+001
6.440173e+002, 3.718174e+001
6.444995e+002, 3.689992e+001
6.449816e+002, 3.649189e+001
6.454637e+002, 3.635297e+001
6.459458e+002, 3.683471e+001
6.464279e+002, 3.723922e+001
6.469100e+002, 3.742310e+001
6.473922e+002, 3.744749e+001
6.478743e+002, 3.755936e+001
6.483564e+002, 3.778835e+001
6.488385e+002, 3.800240e+001
6.493206e+002, 3.816147e+001
6.498027e+002, 3.825932e+001
6.502849e+002, 3.822706e+001
6.507670e+002, 3.806809e+001
6.512491e+002, 3.791198e+001
6.517312e+002, 3.787024e+001
6.522133e+002, 3.788903e+001
6.526954e+002, 3.788323e+001
6.531776e+002, 3.784119e+001
6.536597e+002, 3.782902e+001
6.541418e+002, 3.796752e+001
6.546239e+002, 3.810875e+001
6.551060e+002, 3.810030e+001
6.555881e+002, 3.773329e+001
6.560703e+002, 3.754659e+001
6.565524e+002, 3.776542e+001
6.570345e+002, 3.812315e+001
6.575166e+002, 3.832008e+001
6.579987e+002, 3.834088e+001
6.584808e+002, 3.822173e+001
6.589630e+002, 3.789440e+001
6.594451e+002, 3.750359e+001
6.599272e+002, 3.736924e+001
6.604093e+002, 3.748641e+001
6.608914e+002, 3.772850e+001
6.613735e+002, 3.814296e+001
6.618557e+002, 3.857283e+001
6.623378e+002, 3.876580e+001
6.628199e+002, 3.875023e+001
6.633020e+002, 3.864680e+001
6.637841e+002, 3.843487e+001
6.642662e+002, 3.823086e+001
6.647484e+002, 3.811049e+001
6.652305e+002, 3.808046e+001
6.657126e+002, 3.811113e+001
6.661947e+002, 3.822556e+001
6.666768e+002, 3.837580e+001
6.671589e+002, 3.855544e+001
6.676411e+002, 3.880498e+001
6.681232e+002, 3.890253e+001
6.686053e+002, 3.879682e+001
6.690874e+002, 3.862142e+001
6.695695e+002, 3.846804e+001
6.700516e+002, 3.833709e+001
6.705338e+002, 3.833379e+001
6.710159e+002, 3.849354e+001
6.714980e+002, 3.868717e+001
6.719801e+002, 3.877572e+001
6.724622e+002, 3.877181e+001
6.729443e+002, 3.868951e+001
6.734265e+002, 3.846483e+001
6.739086e+002, 3.828122e+001
6.743907e+002, 3.832727e+001
6.748728e+002, 3.849303e+001
6.753549e+002, 3.856902e+001
6.758370e+002, 3.829995e+001
6.763192e+002, 3.816007e+001
6.768013e+002, 3.840252e+001
6.772834e+002, 3.888662e+001
6.777655e+002, 3.907381e+001
6.782476e+002, 3.882945e+001
6.787297e+002, 3.860530e+001
6.792119e+002, 3.859571e+001
6.796940e+002, 3.875170e+001
6.801761e+002, 3.876860e+001
6.806582e+002, 3.864111e+001
6.811403e+002, 3.851477e+001
6.816224e+002, 3.850649e+001
6.821046e+002, 3.855841e+001
6.825867e+002, 3.856267e+001
6.830688e+002, 3.851276e+001
6.835509e+002, 3.848275e+001
6.840330e+002, 3.854322e+001
6.845151e+002, 3.862881e+001
6.849973e+002, 3.868819e+001
6.854794e+002, 3.871456e+001
6.859615e+002, 3.871336e+001
6.864436e+002, 3.857844e+001
6.869257e+002, 3.848899e+001
6.874078e+002, 3.863269e+001
6.878900e+002, 3.919286e+001
6.883721e+002, 3.942519e+001
6.888542e+002, 3.917919e+001
6.893363e+002, 3.876869e+001
6.898184e+002, 3.870329e+001
6.903005e+002, 3.893892e+001
6.907827e+002, 3.909088e+001
6.912648e+002, 3.903438e+001
6.917469e+002, 3.889370e+001
6.922290e+002, 3.880138e+001
6.927111e+002, 3.874897e+001
6.931932e+002, 3.872144e+001
6.936754e+002, 3.875468e+001
6.941575e+002, 3.876818e+001
6.946396e+002, 3.870544e+001
6.951217e+002, 3.858710e+001
6.956038e+002, 3.848885e+001
6.960859e+002, 3.838610e+001
6.965681e+002, 3.835187e+001
6.970502e+002, 3.842867e+001
6.975323e+002, 3.860213e+001
6.980144e+002, 3.874629e+001
6.984965e+002, 3.887474e+001
6.989786e+002, 3.891675e+001
6.994608e+002, 3.874204e+001
6.999429e+002, 3.843914e+001
7.004250e+002, 3.840960e+001
7.009071e+002, 3.864499e+001
7.013892e+002, 3.889574e+001
7.018713e+002, 3.897232e+001
7.023535e+002, 3.896463e+001
7.028356e+002, 3.897298e+001
7.033177e+002, 3.901615e+001
7.037998e+002, 3.902438e+001
7.042819e+002, 3.897489e+001
7.047640e+002, 3.887656e+001
7.052462e+002, 3.871678e+001
7.057283e+002, 3.837200e+001
7.062104e+002, 3.824664e+001
7.066925e+002, 3.841333e+001
7.071746e+002, 3.870664e+001
7.076567e+002, 3.898779e+001
7.081389e+002, 3.925951e+001
7.086210e+002, 3.935001e+001
7.091031e+002, 3.919503e+001
7.095852e+002, 3.897802e+001
7.100673e+002, 3.895611e+001
7.105494e+002, 3.906960e+001
7.110316e+002, 3.917350e+001
7.115137e+002, 3.922523e+001
7.119958e+002, 3.924413e+001
7.124779e+002, 3.919497e+001
7.129600e+002, 3.913025e+001
7.134421e+002, 3.914791e+001
7.139243e+002, 3.948285e+001
7.144064e+002, 3.964817e+001
7.148885e+002, 3.935793e+001
7.153706e+002, 3.884381e+001
7.158527e+002, 3.893977e+001
7.163348e+002, 3.991046e+001
7.168170e+002, 4.054619e+001
7.172991e+002, 4.025966e+001
7.177812e+002, 3.941467e+001
7.182633e+002, 3.926608e+001
7.187454e+002, 3.974835e+001
7.192275e+002, 4.019143e+001
7.197097e+002, 4.014680e+001
7.201918e+002, 3.990038e+001
7.206739e+002, 3.972854e+001
7.211560e+002, 3.963979e+001
7.216381e+002, 3.961073e+001
7.221202e+002, 3.966261e+001
7.226024e+002, 3.974607e+001
7.230845e+002, 3.983405e+001
7.235666e+002, 3.992315e+001
7.240487e+002, 4.004482e+001
7.245308e+002, 4.023411e+001
7.250129e+002, 4.040516e+001
7.254951e+002, 4.048983e+001
7.259772e+002, 4.048442e+001
7.264593e+002, 4.058578e+001
7.269414e+002, 4.082573e+001
7.274235e+002, 4.093960e+001
7.279056e+002, 4.046208e+001
7.283878e+002, 3.973800e+001
7.288699e+002, 3.948742e+001
7.293520e+002, 3.987339e+001
7.298341e+002, 4.028553e+001
7.303162e+002, 4.029634e+001
7.307983e+002, 4.015382e+001
7.312805e+002, 4.010439e+001
7.317626e+002, 4.032632e+001
7.322447e+002, 4.039331e+001
7.327268e+002, 4.017390e+001
7.332089e+002, 3.987365e+001
7.336910e+002, 3.969453e+001
7.341732e+002, 3.962596e+001
7.346553e+002, 3.977132e+001
7.351374e+002, 4.020744e+001
7.356195e+002, 4.070222e+001
7.361016e+002, 4.088112e+001
7.365837e+002, 4.081675e+001
7.370659e+002, 4.076645e+001
7.375480e+002, 4.083282e+001
7.380301e+002, 4.088809e+001
7.385122e+002, 4.079591e+001
7.389943e+002, 4.062083e+001
7.394764e+002, 4.047400e+001
7.399586e+002, 4.018435e+001
7.404407e+002, 4.016446e+001
7.409228e+002, 4.081213e+001
7.414049e+002, 4.175188e+001
7.418870e+002, 4.211364e+001
7.423691e+002, 4.168712e+001
7.428513e+002, 4.130991e+001
7.433334e+002, 4.123694e+001
7.438155e+002, 4.132371e+001
7.442976e+002, 4.113000e+001
7.447797e+002, 4.069475e+001
7.452618e+002, 4.035994e+001
7.457440e+002, 4.038356e+001
7.462261e+002, 4.052597e+001
7.467082e+002, 4.047283e+001
7.471903e+002, 4.029884e+001
7.476724e+002, 4.027947e+001
7.481545e+002, 4.072419e+001
7.486367e+002, 4.115777e+001
7.491188e+002, 4.135846e+001
7.496009e+002, 4.133947e+001
7.500830e+002, 4.135978e+001
7.505651e+002, 4.147117e+001
7.510472e+002, 4.150757e+001
7.515294e+002, 4.132952e+001
7.520115e+002, 4.099833e+001
7.524936e+002, 4.098797e+001
7.529757e+002, 4.129603e+001
7.534578e+002, 4.164454e+001
7.539399e+002, 4.192104e+001
7.544221e+002, 4.207561e+001
7.549042e+002, 4.192313e+001
7.553863e+002, 4.148536e+001
7.558684e+002, 4.122732e+001
7.563505e+002, 4.162517e+001
7.568326e+002, 4.207476e+001
7.573148e+002, 4.216599e+001
7.577969e+002, 4.178253e+001
7.582790e+002, 4.157195e+001
7.587611e+002, 4.160762e+001
7.592432e+002, 4.169611e+001
7.597253e+002, 4.171385e+001
7.602075e+002, 4.166050e+001
7.606896e+002, 4.163968e+001
7.611717e+002, 4.165660e+001
7.616538e+002, 4.165896e+001
7.621359e+002, 4.158329e+001
7.626180e+002, 4.146969e+001
7.631002e+002, 4.135716e+001
7.635823e+002, 4.124192e+001
7.640644e+002, 4.123342e+001
7.645465e+002, 4.147999e+001
7.650286e+002, 4.180131e+001
7.655107e+002, 4.206175e+001
7.659929e+002, 4.228666e+001
7.664750e+002, 4.234068e+001
7.669571e+002, 4.215651e+001
7.674392e+002, 4.189066e+001
7.679213e+002, 4.162885e+001
7.684034e+002, 4.136743e+001
7.688856e+002, 4.139681e+001
7.693677e+002, 4.178547e+001
7.698498e+002, 4.219473e+001
7.703319e+002, 4.220845e+001
7.708140e+002, 4.200750e+001
7.712961e+002, 4.192138e+001
7.717783e+002, 4.204890e+001
7.722604e+002, 4.219159e+001
7.727425e+002, 4.228706e+001
7.732246e+002, 4.232351e+001
7.737067e+002, 4.228625e+001
7.741888e+002, 4.207507e+001
7.746710e+002, 4.195509e+001
7.751531e+002, 4.195810e+001
7.756352e+002, 4.201662e+001
7.761173e+002, 4.203643e+001
7.765994e+002, 4.201801e+001
7.770815e+002, 4.209241e+001
7.775637e+002, 4.230573e+001
7.780458e+002, 4.251532e+001
7.785279e+002, 4.254250e+001
7.790100e+002, 4.244488e+001
7.794921e+002, 4.231385e+001
7.799742e+002, 4.212743e+001
7.804564e+002, 4.201190e+001
7.809385e+002, 4.204905e+001
7.814206e+002, 4.217857e+001
7.819027e+002, 4.232365e+001
7.823848e+002, 4.249215e+001
7.828669e+002, 4.264825e+001
7.833491e+002, 4.280036e+001
7.838312e+002, 4.292514e+001
7.843133e+002, 4.298861e+001
7.847954e+002, 4.299052e+001
7.852775e+002, 4.290407e+001
7.857596e+002, 4.267568e+001
7.862418e+002, 4.248503e+001
7.867239e+002, 4.265174e+001
7.872060e+002, 4.299702e+001
7.876881e+002, 4.319541e+001
7.881702e+002, 4.300734e+001
7.886523e+002, 4.282397e+001
7.891345e+002, 4.277213e+001
7.896166e+002, 4.281538e+001
7.900987e+002, 4.289470e+001
7.905808e+002, 4.305992e+001
7.910629e+002, 4.315043e+001
7.915450e+002, 4.314454e+001
7.920272e+002, 4.305461e+001
7.925093e+002, 4.282069e+001
7.929914e+002, 4.248011e+001
7.934735e+002, 4.238140e+001
7.939556e+002, 4.272816e+001
7.944377e+002, 4.314375e+001
7.949199e+002, 4.313449e+001
7.954020e+002, 4.291122e+001
7.958841e+002, 4.285551e+001
7.963662e+002, 4.339067e+001
7.968483e+002, 4.376269e+001
7.973304e+002, 4.361220e+001
7.978126e+002, 4.322372e+001
7.982947e+002, 4.310579e+001
7.987768e+002, 4.338493e+001
7.992589e+002, 4.351572e+001
7.997410e+002, 4.333659e+001
8.002231e+002, 4.306435e+001
8.007053e+002, 4.320037e+001
8.011874e+002, 4.362403e+001
8.016695e+002, 4.381488e+001
8.021516e+002, 4.346593e+001
8.026337e+002, 4.303635e+001
8.031158e+002, 4.289115e+001
8.035980e+002, 4.294664e+001
8.040801e+002, 4.305227e+001
8.045622e+002, 4.322536e+001
8.050443e+002, 4.337492e+001
8.055264e+002, 4.348808e+001
8.060085e+002, 4.357074e+001
8.064907e+002, 4.363009e+001
8.069728e+002, 4.366332e+001
8.074549e+002, 4.368738e+001
8.079370e+002, 4.370555e+001
8.084191e+002, 4.371446e+001
8.089012e+002, 4.369520e+001
8.093834e+002, 4.366118e+001
8.098655e+002, 4.364994e+001
8.103476e+002, 4.367430e+001
8.108297e+002, 4.372502e+001
8.113118e+002, 4.381261e+001
8.117939e+002, 4.391853e+001
8.122761e+002, 4.401030e+001
8.127582e+002, 4.404845e+001
8.132403e+002, 4.413338e+001
8.137224e+002, 4.431489e+001
8.142045e+002, 4.451351e+001
8.146866e+002, 4.457483e+001
8.151688e+002, 4.450078e+001
8.156509e+002, 4.439632e+001
8.161330e+002, 4.427596e+001
8.166151e+002, 4.416359e+001
8.170972e+002, 4.405534e+001
8.175793e+002, 4.398356e+001
8.180615e+002, 4.400965e+001
8.185436e+002, 4.424184e+001
8.190257e+002, 4.445648e+001
8.195078e+002, 4.456375e+001
8.199899e+002, 4.461138e+001
8.204720e+002, 4.468684e+001
8.209542e+002, 4.485141e+001
8.214363e+002, 4.486434e+001
8.219184e+002, 4.465608e+001
8.224005e+002, 4.435381e+001
8.228826e+002, 4.412104e+001
8.233647e+002, 4.396203e+001
8.238469e+002, 4.392035e+001
8.243290e+002, 4.404039e+001
8.248111e+002, 4.418521e+001
8.252932e+002, 4.421399e+001
8.257753e+002, 4.420488e+001
8.262574e+002, 4.426480e+001
8.267396e+002, 4.453162e+001
8.272217e+002, 4.470782e+001
8.277038e+002, 4.471873e+001
8.281859e+002, 4.467289e+001
8.286681e+002, 4.471758e+001
8.291502e+002, 4.487326e+001
8.296323e+002, 4.491207e+001
8.301144e+002, 4.477013e+001
8.305966e+002, 4.462630e+001
8.310787e+002, 4.478753e+001
8.315608e+002, 4.508544e+001
8.320429e+002, 4.516731e+001
8.325250e+002, 4.487313e+001
8.330071e+002, 4.459449e+001
8.334893e+002, 4.447453e+001
8.339714e+002, 4.449586e+001
8.344535e+002, 4.466710e+001
8.349356e+002, 4.521196e+001
8.354177e+002, 4.537340e+001
8.358998e+002, 4.498106e+001
8.363820e+002, 4.451423e+001
8.368641e+002, 4.454075e+001
8.373462e+002, 4.497856e+001
8.378283e+002, 4.525468e+001
8.383104e+002, 4.529159e+001
8.387925e+002, 4.527956e+001
8.392747e+002, 4.543906e+001
8.397568e+002, 4.561086e+001
8.402389e+002, 4.559013e+001
8.407210e+002, 4.526473e+001
8.412031e+002, 4.502665e+001
8.416852e+002, 4.496418e+001
8.421674e+002, 4.500473e+001
8.426495e+002, 4.515418e+001
8.431316e+002, 4.546182e+001
8.436137e+002, 4.547371e+001
8.440958e+002, 4.513692e+001
8.445779e+002, 4.481207e+001
8.450601e+002, 4.494994e+001
8.455422e+002, 4.528202e+001
8.460243e+002, 4.523642e+001
8.465064e+002, 4.476241e+001
8.469885e+002, 4.442850e+001
8.474706e+002, 4.472023e+001
8.479528e+002, 4.510594e+001
8.484349e+002, 4.520881e+001
8.489170e+002, 4.496667e+001
8.493991e+002, 4.489373e+001
8.498812e+002, 4.507757e+001
8.503633e+002, 4.522302e+001
8.508455e+002, 4.506973e+001
8.513276e+002, 4.470961e+001
8.518097e+002, 4.470063e+001
8.522918e+002, 4.501687e+001
8.527739e+002, 4.532653e+001
8.532560e+002, 4.544623e+001
8.537382e+002, 4.543549e+001
8.542203e+002, 4.529906e+001
8.547024e+002, 4.505177e+001
8.551845e+002, 4.484350e+001
8.556666e+002, 4.466841e+001
8.561487e+002, 4.458735e+001
8.566309e+002, 4.466436e+001
8.571130e+002, 4.485501e+001
8.575951e+002, 4.490520e+001
8.580772e+002, 4.481217e+001
8.585593e+002, 4.469757e+001
8.590414e+002, 4.458218e+001
8.595236e+002, 4.451036e+001
8.600057e+002, 4.461158e+001
8.604878e+002, 4.482038e+001
8.609699e+002, 4.492793e+001
8.614520e+002, 4.474585e+001
8.619341e+002, 4.456151e+001
8.624163e+002, 4.448131e+001
8.628984e+002, 4.447249e+001
8.633805e+002, 4.444577e+001
8.638626e+002, 4.437716e+001
8.643447e+002, 4.440171e+001
8.648268e+002, 4.460925e+001
8.653090e+002, 4.483759e+001
8.657911e+002, 4.471941e+001
8.662732e+002, 4.436064e+001
8.667553e+002, 4.407816e+001
8.672374e+002, 4.403074e+001
8.677195e+002, 4.402063e+001
8.682017e+002, 4.395179e+001
8.686838e+002, 4.384347e+001
8.691659e+002, 4.371721e+001
8.696480e+002, 4.347417e+001
8.701301e+002, 4.344494e+001
8.706122e+002, 4.377446e+001
8.710944e+002, 4.414372e+001
8.715765e+002, 4.401991e+001
8.720586e+002, 4.350039e+001
8.725407e+002, 4.313087e+001
8.730228e+002, 4.301056e+001
8.735049e+002, 4.305842e+001
8.739871e+002, 4.336497e+001
8.744692e+002, 4.372042e+001
8.749513e+002, 4.388276e+001
8.754334e+002, 4.373542e+001
8.759155e+002, 4.354677e+001
8.763976e+002, 4.318904e+001
8.768798e+002, 4.297845e+001
8.773619e+002, 4.331684e+001
8.778440e+002, 4.423745e+001
8.783261e+002, 4.444960e+001
8.788082e+002, 4.386349e+001
8.792903e+002, 4.316317e+001
8.797725e+002, 4.285465e+001
8.802546e+002, 4.281391e+001
8.807367e+002, 4.298741e+001
8.812188e+002, 4.337110e+001
8.817009e+002, 4.355667e+001
8.821830e+002, 4.319972e+001
8.826652e+002, 4.280412e+001
8.831473e+002, 4.262715e+001
8.836294e+002, 4.265799e+001
8.841115e+002, 4.257392e+001
8.845936e+002, 4.235227e+001
8.850757e+002, 4.217287e+001
8.855579e+002, 4.215290e+001
8.860400e+002, 4.223460e+001
8.865221e+002, 4.236811e+001
8.870042e+002, 4.252210e+001
8.874863e+002, 4.257195e+001
8.879684e+002, 4.240260e+001
8.884506e+002, 4.217220e+001
8.889327e+002, 4.185284e+001
8.894148e+002, 4.152348e+001
8.898969e+002, 4.148230e+001
8.903790e+002, 4.185284e+001
8.908611e+002, 4.205734e+001
8.913433e+002, 4.187663e+001
8.918254e+002, 4.155290e+001
8.923075e+002, 4.162599e+001
8.927896e+002, 4.194468e+001
8.932717e+002, 4.204674e+001
8.937538e+002, 4.165059e+001
8.942360e+002, 4.118377e+001
8.947181e+002, 4.080247e+001
8.952002e+002, 4.052966e+001
8.956823e+002, 4.042228e+001
8.961644e+002, 4.058997e+001
8.966465e+002, 4.065054e+001
8.971287e+002, 4.053066e+001
8.976108e+002, 4.040148e+001
8.980929e+002, 4.055069e+001
8.985750e+002, 4.088234e+001
8.990571e+002, 4.104108e+001
8.995392e+002, 4.097412e+001
9.000214e+002, 4.074537e+001
9.005035e+002, 4.010104e+001
9.009856e+002, 3.951107e+001
9.014677e+002, 3.945807e+001
9.019498e+002, 4.024894e+001
9.024319e+002, 4.065513e+001
9.029141e+002, 4.046459e+001
9.033962e+002, 4.025418e+001
9.038783e+002, 4.049375e+001
9.043604e+002, 4.108319e+001
9.048425e+002, 4.121718e+001
9.053246e+002, 4.091536e+001
9.058068e+002, 4.050840e+001
9.062889e+002, 4.006546e+001
9.067710e+002, 3.973307e+001
9.072531e+002, 3.971092e+001
9.077352e+002, 3.995375e+001
9.082173e+002, 4.004991e+001
9.086995e+002, 3.985682e+001
9.091816e+002, 3.964757e+001
9.096637e+002, 3.946389e+001
9.101458e+002, 3.933700e+001
9.106279e+002, 3.940952e+001
9.111100e+002, 3.965891e+001
9.115922e+002, 3.988599e+001
9.120743e+002, 4.005259e+001
9.125564e+002, 4.011062e+001
9.130385e+002, 3.994146e+001
9.135206e+002, 3.965036e+001
9.140027e+002, 3.941533e+001
9.144849e+002, 3.926159e+001
9.149670e+002, 3.920951e+001
9.154491e+002, 3.933747e+001
9.159312e+002, 3.947785e+001
9.164133e+002, 3.936558e+001
9.168954e+002, 3.901963e+001
9.173776e+002, 3.881891e+001
9.178597e+002, 3.881899e+001
9.183418e+002, 3.889524e+001
9.188239e+002, 3.895647e+001
9.193060e+002, 3.901543e+001
9.197881e+002, 3.910646e+001
9.202703e+002, 3.926324e+001
9.207524e+002, 3.929641e+001
9.212345e+002, 3.907465e+001
9.217166e+002, 3.886448e+001
9.221987e+002, 3.883252e+001
9.226808e+002, 3.896552e+001
9.231630e+002, 3.899961e+001
9.236451e+002, 3.893584e+001
9.241272e+002, 3.885939e+001
9.246093e+002, 3.885088e+001
9.250914e+002, 3.884092e+001
9.255735e+002, 3.871145e+001
9.260557e+002, 3.850451e+001
9.265378e+002, 3.841154e+001
9.270199e+002, 3.858807e+001
9.275020e+002, 3.876048e+001
9.279841e+002, 3.888184e+001
9.284662e+002, 3.895475e+001
9.289484e+002, 3.897700e+001
9.294305e+002, 3.895081e+001
9.299126e+002, 3.892817e+001
9.303947e+002, 3.894779e+001
9.308768e+002, 3.892274e+001
9.313589e+002, 3.866132e+001
9.318411e+002, 3.832865e+001
9.323232e+002, 3.817120e+001
9.328053e+002, 3.835401e+001
9.332874e+002, 3.855593e+001
9.337695e+002, 3.879570e+001
9.342516e+002, 3.898965e+001
9.347338e+002, 3.902069e+001
9.352159e+002, 3.889751e+001
9.356980e+002, 3.890032e+001
9.361801e+002, 3.905534e+001
9.366622e+002, 3.914529e+001
9.371443e+002, 3.888330e+001
9.376265e+002, 3.853490e+001
9.381086e+002, 3.837548e+001
9.385907e+002, 3.843066e+001
9.390728e+002, 3.848129e+001
9.395549e+002, 3.852270e+001
9.400370e+002, 3.850056e+001
9.405192e+002, 3.834483e+001
9.410013e+002, 3.811595e+001
9.414834e+002, 3.815623e+001
9.419655e+002, 3.843498e+001
9.424476e+002, 3.862238e+001
9.429297e+002, 3.845964e+001
9.434119e+002, 3.824528e+001
9.438940e+002, 3.828692e+001
9.443761e+002, 3.846256e+001
9.448582e+002, 3.851938e+001
9.453403e+002, 3.825667e+001
9.458224e+002, 3.809899e+001
9.463046e+002, 3.810266e+001
9.467867e+002, 3.819944e+001
9.472688e+002, 3.830959e+001
9.477509e+002, 3.842974e+001
9.482330e+002, 3.856646e+001
9.487151e+002, 3.873836e+001
9.491973e+002, 3.878619e+001
9.496794e+002, 3.840244e+001
9.501615e+002, 3.795019e+001
9.506436e+002, 3.779116e+001
9.511257e+002, 3.806205e+001
9.516078e+002, 3.817604e+001
9.520900e+002, 3.803859e+001
9.525721e+002, 3.792218e+001
9.530542e+002, 3.801178e+001
9.535363e+002, 3.824539e+001
9.540184e+002, 3.837561e+001
9.545005e+002, 3.840751e+001
9.549827e+002, 3.837684e+001
9.554648e+002, 3.821458e+001
9.559469e+002, 3.808406e+001
9.564290e+002, 3.812054e+001
9.569111e+002, 3.826880e+001
9.573932e+002, 3.834957e+001
9.578754e+002, 3.832654e+001
9.583575e+002, 3.832626e+001
9.588396e+002, 3.839455e+001
9.593217e+002, 3.844392e+001
9.598038e+002, 3.825338e+001
9.602859e+002, 3.793626e+001
9.607681e+002, 3.782370e+001
9.612502e+002, 3.804332e+001
9.617323e+002, 3.825623e+001
9.622144e+002, 3.828310e+001
9.626965e+002, 3.821637e+001
9.631786e+002, 3.811787e+001
9.636608e+002, 3.797563e+001
9.641429e+002, 3.790737e+001
9.646250e+002, 3.792682e+001
9.651071e+002, 3.796208e+001
9.655892e+002, 3.793707e+001
9.660714e+002, 3.790453e+001
9.665535e+002, 3.799778e+001
9.670356e+002, 3.818928e+001
9.675177e+002, 3.833544e+001
9.679998e+002, 3.834497e+001
9.684819e+002, 3.832469e+001
9.689641e+002, 3.830907e+001
9.694462e+002, 3.829443e+001
9.699283e+002, 3.825216e+001
9.704104e+002, 3.817218e+001
9.708925e+002, 3.820195e+001
9.713746e+002, 3.842172e+001
9.718568e+002, 3.862579e+001
9.723389e+002, 3.848245e+001
9.728210e+002, 3.818383e+001
9.733031e+002, 3.803335e+001
9.737852e+002, 3.816942e+001
9.742673e+002, 3.826011e+001
9.747495e+002, 3.824696e+001
9.752316e+002, 3.816621e+001
9.757137e+002, 3.801328e+001
9.761958e+002, 3.778699e+001
9.766779e+002, 3.764297e+001
9.771600e+002, 3.758080e+001
9.776422e+002, 3.759686e+001
9.781243e+002, 3.776066e+001
9.786064e+002, 3.794227e+001
9.790885e+002, 3.802024e+001
9.795706e+002, 3.800937e+001
9.800527e+002, 3.800122e+001
9.805349e+002, 3.808940e+001
9.810170e+002, 3.802642e+001
9.814991e+002, 3.768251e+001
9.819812e+002, 3.726554e+001
9.824633e+002, 3.722686e+001
9.829454e+002, 3.748621e+001
9.834276e+002, 3.771259e+001
9.839097e+002, 3.782158e+001
9.843918e+002, 3.789811e+001
9.848739e+002, 3.806105e+001
9.853560e+002, 3.818507e+001
9.858381e+002, 3.809910e+001
9.863203e+002, 3.769286e+001
9.868024e+002, 3.756924e+001
9.872845e+002, 3.779544e+001
9.877666e+002, 3.807517e+001
9.882487e+002, 3.819443e+001
9.887308e+002, 3.821767e+001
9.892130e+002, 3.832084e+001
9.896951e+002, 3.847655e+001
9.901772e+002, 3.854444e+001
9.906593e+002, 3.831765e+001
9.911414e+002, 3.814718e+001
9.916235e+002, 3.822766e+001
9.921057e+002, 3.843404e+001
9.925878e+002, 3.851892e+001
9.930699e+002, 3.847758e+001
9.935520e+002, 3.833087e+001
9.940341e+002, 3.804509e+001
9.945162e+002, 3.779506e+001
9.949984e+002, 3.782988e+001
9.954805e+002, 3.800739e+001
9.959626e+002, 3.815460e+001
9.964447e+002, 3.826316e+001
9.969268e+002, 3.823225e+001
9.974089e+002, 3.790868e+001
9.978911e+002, 3.764256e+001
9.983732e+002, 3.765272e+001
9.988553e+002, 3.790150e+001
9.993374e+002, 3.814844e+001
9.998195e+002, 3.838279e+001
1.000302e+003, 3.850772e+001
1.000784e+003, 3.838382e+001
1.001266e+003, 3.821336e+001
1.001748e+003, 3.813894e+001
1.002230e+003, 3.812502e+001
1.002712e+003, 3.807299e+001
1.003194e+003, 3.796115e+001
1.003676e+003, 3.784679e+001
1.004159e+003, 3.772311e+001
1.004641e+003, 3.762977e+001
1.005123e+003, 3.761057e+001
1.005605e+003, 3.766275e+001
1.006087e+003, 3.780488e+001
1.006569e+003, 3.805437e+001
1.007051e+003, 3.825513e+001
1.007533e+003, 3.834640e+001
1.008016e+003, 3.835312e+001
1.008498e+003, 3.827635e+001
1.008980e+003, 3.812336e+001
1.009462e+003, 3.800739e+001
1.009944e+003, 3.792825e+001
1.010426e+003, 3.787008e+001
1.010908e+003, 3.778746e+001
1.011390e+003, 3.776615e+001
1.011872e+003, 3.799717e+001
1.012355e+003, 3.835283e+001
1.012837e+003, 3.857635e+001
1.013319e+003, 3.856453e+001
1.013801e+003, 3.844120e+001
1.014283e+003, 3.813486e+001
1.014765e+003, 3.784259e+001
1.015247e+003, 3.785960e+001
1.015729e+003, 3.810365e+001
1.016211e+003, 3.802553e+001
1.016694e+003, 3.758557e+001
1.017176e+003, 3.729387e+001
1.017658e+003, 3.767678e+001
1.018140e+003, 3.818140e+001
1.018622e+003, 3.846947e+001
1.019104e+003, 3.853252e+001
1.019586e+003, 3.844515e+001
1.020068e+003, 3.814658e+001
1.020551e+003, 3.795826e+001
1.021033e+003, 3.801057e+001
1.021515e+003, 3.817146e+001
1.021997e+003, 3.820026e+001
1.022479e+003, 3.818245e+001
1.022961e+003, 3.830455e+001
1.023443e+003, 3.876518e+001
1.023925e+003, 3.904594e+001
1.024407e+003, 3.892196e+001
1.024890e+003, 3.867310e+001
1.025372e+003, 3.847311e+001
1.025854e+003, 3.832339e+001
1.026336e+003, 3.821228e+001
1.026818e+003, 3.813968e+001
1.027300e+003, 3.811240e+001
1.027782e+003, 3.812047e+001
1.028264e+003, 3.818760e+001
1.028746e+003, 3.841676e+001
1.029229e+003, 3.873119e+001
1.029711e+003, 3.882890e+001
1.030193e+003, 3.859057e+001
1.030675e+003, 3.841613e+001
1.031157e+003, 3.838718e+001
1.031639e+003, 3.841386e+001
1.032121e+003, 3.830325e+001
1.032603e+003, 3.815920e+001
1.033086e+003, 3.829174e+001
1.033568e+003, 3.881272e+001
1.034050e+003, 3.914583e+001
1.034532e+003, 3.875716e+001
1.035014e+003, 3.838311e+001
1.035496e+003, 3.848902e+001
1.035978e+003, 3.900735e+001
1.036460e+003, 3.919214e+001
1.036943e+003, 3.904485e+001
1.037425e+003, 3.880409e+001
1.037907e+003, 3.848947e+001
1.038389e+003, 3.825256e+001
1.038871e+003, 3.830559e+001
1.039353e+003, 3.852404e+001
1.039835e+003, 3.869448e+001
1.040317e+003, 3.881583e+001
1.040799e+003, 3.880260e+001
1.041281e+003, 3.859894e+001
1.041764e+003, 3.838496e+001
1.042246e+003, 3.832240e+001
1.042728e+003, 3.839028e+001
1.043210e+003, 3.863469e+001
1.043692e+003, 3.902672e+001
1.044174e+003, 3.918287e+001
1.044656e+003, 3.856826e+001
1.045138e+003, 3.806100e+001
1.045621e+003, 3.814352e+001
1.046103e+003, 3.856854e+001
1.046585e+003, 3.862856e+001
1.047067e+003, 3.831576e+001
1.047549e+003, 3.807055e+001
1.048031e+003, 3.801316e+001
1.048513e+003, 3.802820e+001
1.048995e+003, 3.800539e+001
1.049478e+003, 3.798922e+001
1.049960e+003, 3.804705e+001
1.050442e+003, 3.823407e+001
1.050924e+003, 3.830922e+001
1.051406e+003, 3.824549e+001
1.051888e+003, 3.812476e+001
1.052370e+003, 3.793260e+001
1.052852e+003, 3.774572e+001
1.053334e+003, 3.785569e+001
1.053817e+003, 3.815850e+001
1.054299e+003, 3.830941e+001
1.054781e+003, 3.791622e+001
1.055263e+003, 3.764321e+001
1.055745e+003, 3.778112e+001
1.056227e+003, 3.806615e+001
1.056709e+003, 3.822355e+001
1.057191e+003, 3.825212e+001
1.057673e+003, 3.820132e+001
1.058156e+003, 3.807085e+001
1.058638e+003, 3.793943e+001
1.059120e+003, 3.787805e+001
1.059602e+003, 3.783683e+001
1.060084e+003, 3.776414e+001
1.060566e+003, 3.766600e+001
1.061048e+003, 3.761623e+001
1.061530e+003, 3.762169e+001
1.062013e+003, 3.767133e+001
1.062495e+003, 3.778963e+001
1.062977e+003, 3.789732e+001
1.063459e+003, 3.780277e+001
1.063941e+003, 3.761946e+001
1.064423e+003, 3.758886e+001
1.064905e+003, 3.782300e+001
1.065387e+003, 3.799081e+001
1.065870e+003, 3.799374e+001
1.066352e+003, 3.788758e+001
1.066834e+003, 3.762907e+001
1.067316e+003, 3.726711e+001
1.067798e+003, 3.725970e+001
1.068280e+003, 3.755500e+001
1.068762e+003, 3.769909e+001
1.069244e+003, 3.725930e+001
1.069726e+003, 3.680334e+001
1.070208e+003, 3.669370e+001
1.070691e+003, 3.681691e+001
1.071173e+003, 3.700422e+001
1.071655e+003, 3.730195e+001
1.072137e+003, 3.746113e+001
1.072619e+003, 3.745756e+001
1.073101e+003, 3.739062e+001
1.073583e+003, 3.735026e+001
1.074065e+003, 3.730387e+001
1.074548e+003, 3.719510e+001
1.075030e+003, 3.703144e+001
1.075512e+003, 3.688173e+001
1.075994e+003, 3.671672e+001
1.076476e+003, 3.665425e+001
1.076958e+003, 3.677562e+001
1.077440e+003, 3.693748e+001
1.077922e+003, 3.682207e+001
1.078405e+003, 3.652171e+001
1.078887e+003, 3.632526e+001
1.079369e+003, 3.628782e+001
1.079851e+003, 3.636419e+001
1.080333e+003, 3.667501e+001
1.080815e+003, 3.695810e+001
1.081297e+003, 3.705655e+001
1.081779e+003, 3.698014e+001
1.082261e+003, 3.678294e+001
1.082744e+003, 3.646493e+001
1.083226e+003, 3.618901e+001
1.083708e+003, 3.597934e+001
1.084190e+003, 3.591274e+001
1.084672e+003, 3.621124e+001
1.085154e+003, 3.664033e+001
1.085636e+003, 3.683180e+001
1.086118e+003, 3.656816e+001
1.086601e+003, 3.654230e+001
1.087083e+003, 3.682888e+001
1.087565e+003, 3.708662e+001
1.088047e+003, 3.701508e+001
1.088529e+003, 3.674834e+001
1.089011e+003, 3.643420e+001
1.089493e+003, 3.612334e+001
1.089975e+003, 3.598769e+001
1.090458e+003, 3.624530e+001
1.090940e+003, 3.649352e+001
1.091422e+003, 3.668047e+001
1.091904e+003, 3.679552e+001
1.092386e+003, 3.681557e+001
1.092868e+003, 3.674719e+001
1.093350e+003, 3.657838e+001
1.093832e+003, 3.630306e+001
1.094314e+003, 3.610568e+001
1.094797e+003, 3.620872e+001
1.095279e+003, 3.631807e+001
1.095761e+003, 3.622213e+001
1.096243e+003, 3.598735e+001
1.096725e+003, 3.588451e+001
1.097207e+003, 3.591477e+001
1.097689e+003, 3.603023e+001
1.098171e+003, 3.624802e+001
1.098653e+003, 3.645731e+001
1.099136e+003, 3.659789e+001
1.099618e+003, 3.664184e+001
1.100100e+003, 3.652400e+001
1.100582e+003, 3.617688e+001
1.101064e+003, 3.597719e+001
1.101546e+003, 3.594689e+001
1.102028e+003, 3.598880e+001
1.102510e+003, 3.611503e+001
1.102993e+003, 3.622334e+001
1.103475e+003, 3.607541e+001
1.103957e+003, 3.577303e+001
1.104439e+003, 3.554660e+001
1.104921e+003, 3.546826e+001
1.105403e+003, 3.550301e+001
1.105885e+003, 3.571428e+001
1.106367e+003, 3.592066e+001
1.106849e+003, 3.593917e+001
1.107332e+003, 3.580692e+001
1.107814e+003, 3.559571e+001
1.108296e+003, 3.533944e+001
1.108778e+003, 3.527626e+001
1.109260e+003, 3.577834e+001
1.109742e+003, 3.621749e+001
1.110224e+003, 3.634408e+001
1.110706e+003, 3.625077e+001
1.111188e+003, 3.602124e+001
1.111671e+003, 3.566335e+001
1.112153e+003, 3.548970e+001
1.112635e+003, 3.555329e+001
1.113117e+003, 3.566119e+001
1.113599e+003, 3.570009e+001
1.114081e+003, 3.568303e+001
1.114563e+003, 3.559254e+001
1.115045e+003, 3.544335e+001
1.115528e+003, 3.533551e+001
1.116010e+003, 3.526264e+001
1.116492e+003, 3.527770e+001
1.116974e+003, 3.542893e+001
1.117456e+003, 3.558356e+001
1.117938e+003, 3.550639e+001
1.118420e+003, 3.536382e+001
1.118902e+003, 3.539930e+001
1.119385e+003, 3.572962e+001
1.119867e+003, 3.589545e+001
1.120349e+003, 3.582019e+001
1.120831e+003, 3.574212e+001
1.121313e+003, 3.580522e+001
1.121795e+003, 3.592539e+001
1.122277e+003, 3.592539e+001
1.122759e+003, 3.583755e+001
1.123241e+003, 3.573520e+001
1.123724e+003, 3.557570e+001
1.124206e+003, 3.553176e+001
1.124688e+003, 3.570892e+001
1.125170e+003, 3.588691e+001
1.125652e+003, 3.587050e+001
1.126134e+003, 3.569833e+001
1.126616e+003, 3.553158e+001
1.127098e+003, 3.538081e+001
1.127580e+003, 3.529193e+001
1.128063e+003, 3.535851e+001
1.128545e+003, 3.541182e+001
1.129027e+003, 3.536810e+001
1.129509e+003, 3.528202e+001
1.129991e+003, 3.521331e+001
1.130473e+003, 3.516185e+001
1.130955e+003, 3.516466e+001
1.131437e+003, 3.522612e+001
1.131920e+003, 3.524094e+001
1.132402e+003, 3.503341e+001
1.132884e+003, 3.484005e+001
1.133366e+003, 3.482177e+001
1.133848e+003, 3.495803e+001
1.134330e+003, 3.520451e+001
1.134812e+003, 3.560167e+001
1.135294e+003, 3.572146e+001
1.135776e+003, 3.541610e+001
1.136259e+003, 3.510221e+001
1.136741e+003, 3.530751e+001
1.137223e+003, 3.566108e+001
1.137705e+003, 3.574064e+001
1.138187e+003, 3.548231e+001
1.138669e+003, 3.545390e+001
1.139151e+003, 3.575259e+001
1.139633e+003, 3.594564e+001
1.140115e+003, 3.585603e+001
1.140598e+003, 3.564680e+001
1.141080e+003, 3.554158e+001
1.141562e+003, 3.548825e+001
1.142044e+003, 3.539286e+001
1.142526e+003, 3.520248e+001
1.143008e+003, 3.509924e+001
1.143490e+003, 3.511599e+001
1.143972e+003, 3.517498e+001
1.144455e+003, 3.526271e+001
1.144937e+003, 3.534327e+001
1.145419e+003, 3.529453e+001
1.145901e+003, 3.517011e+001
1.146383e+003, 3.510743e+001
1.146865e+003, 3.519518e+001
1.147347e+003, 3.529178e+001
1.147829e+003, 3.541773e+001
1.148312e+003, 3.548677e+001
1.148794e+003, 3.538465e+001
1.149276e+003, 3.516180e+001
1.149758e+003, 3.505638e+001
1.150240e+003, 3.506389e+001
1.150722e+003, 3.515040e+001
1.151204e+003, 3.547480e+001
1.151686e+003, 3.565015e+001
1.152168e+003, 3.546141e+001
1.152651e+003, 3.514338e+001
1.153133e+003, 3.493832e+001
1.153615e+003, 3.484391e+001
1.154097e+003, 3.486863e+001
1.154579e+003, 3.500638e+001
1.155061e+003, 3.510864e+001
1.155543e+003, 3.496811e+001
1.156025e+003, 3.488010e+001
1.156507e+003, 3.512390e+001
1.156990e+003, 3.549105e+001
1.157472e+003, 3.557361e+001
1.157954e+003, 3.536933e+001
1.158436e+003, 3.511039e+001
1.158918e+003, 3.481380e+001
1.159400e+003, 3.464365e+001
1.159882e+003, 3.482408e+001
1.160364e+003, 3.510435e+001
1.160847e+003, 3.534903e+001
1.161329e+003, 3.552996e+001
1.161811e+003, 3.550836e+001
1.162293e+003, 3.525727e+001
1.162775e+003, 3.515068e+001
1.163257e+003, 3.533635e+001
1.163739e+003, 3.546222e+001
1.164221e+003, 3.490914e+001
1.164703e+003, 3.429576e+001
1.165186e+003, 3.434973e+001
1.165668e+003, 3.516264e+001
1.166150e+003, 3.567096e+001
1.166632e+003, 3.583805e+001
1.167114e+003, 3.589271e+001
1.167596e+003, 3.591202e+001
1.168078e+003, 3.586827e+001
1.168560e+003, 3.568898e+001
1.169042e+003, 3.544240e+001
1.169525e+003, 3.521244e+001
1.170007e+003, 3.500091e+001
1.170489e+003, 3.486237e+001
1.170971e+003, 3.478585e+001
1.171453e+003, 3.483489e+001
1.171935e+003, 3.514557e+001
1.172417e+003, 3.548109e+001
1.172899e+003, 3.536349e+001
1.173382e+003, 3.502729e+001
1.173864e+003, 3.490491e+001
1.174346e+003, 3.522488e+001
1.174828e+003, 3.555401e+001
1.175310e+003, 3.595212e+001
1.175792e+003, 3.618200e+001
1.176274e+003, 3.595544e+001
1.176756e+003, 3.551398e+001
1.177239e+003, 3.528553e+001
1.177721e+003, 3.523140e+001
1.178203e+003, 3.524421e+001
1.178685e+003, 3.542705e+001
1.179167e+003, 3.545110e+001
1.179649e+003, 3.523927e+001
1.180131e+003, 3.499841e+001
1.180613e+003, 3.490310e+001
1.181095e+003, 3.492521e+001
1.181578e+003, 3.504060e+001
1.182060e+003, 3.522313e+001
1.182542e+003, 3.536536e+001
1.183024e+003, 3.548138e+001
1.183506e+003, 3.544618e+001
1.183988e+003, 3.515459e+001
1.184470e+003, 3.487252e+001
1.184952e+003, 3.498714e+001
1.185434e+003, 3.533651e+001
1.185917e+003, 3.549963e+001
1.186399e+003, 3.546722e+001
1.186881e+003, 3.543679e+001
1.187363e+003, 3.550218e+001
1.187845e+003, 3.555688e+001
1.188327e+003, 3.556118e+001
1.188809e+003, 3.556567e+001
1.189291e+003, 3.572050e+001
1.189774e+003, 3.593187e+001
1.190256e+003, 3.582635e+001
1.190738e+003, 3.537054e+001
1.191220e+003, 3.511961e+001
1.191702e+003, 3.556354e+001
1.192184e+003, 3.594399e+001
1.192666e+003, 3.602681e+001
1.193148e+003, 3.591445e+001
1.193630e+003, 3.577629e+001
1.194113e+003, 3.561884e+001
1.194595e+003, 3.543776e+001
1.195077e+003, 3.522474e+001
1.195559e+003, 3.511866e+001
1.196041e+003, 3.525433e+001
1.196523e+003, 3.544167e+001
1.197005e+003, 3.563805e+001
1.197487e+003, 3.581053e+001
1.197969e+003, 3.584816e+001
1.198452e+003, 3.578174e+001
1.198934e+003, 3.573088e+001
1.199416e+003, 3.573200e+001
1.199898e+003, 3.570390e+001
1.200380e+003, 3.555811e+001
1.200862e+003, 3.542937e+001
1.201344e+003, 3.538824e+001
1.201826e+003, 3.540914e+001
1.202309e+003, 3.539719e+001
1.202791e+003, 3.536567e+001
1.203273e+003, 3.537029e+001
1.203755e+003, 3.543618e+001
1.204237e+003, 3.551397e+001
1.204719e+003, 3.563904e+001
1.205201e+003, 3.570401e+001
1.205683e+003, 3.560967e+001
1.206166e+003, 3.541482e+001
1.206648e+003, 3.540692e+001
1.207130e+003, 3.554676e+001
1.207612e+003, 3.566786e+001
1.208094e+003, 3.570705e+001
1.208576e+003, 3.572167e+001
1.209058e+003, 3.572993e+001
1.209540e+003, 3.572257e+001
1.210022e+003, 3.566727e+001
1.210505e+003, 3.558793e+001
1.210987e+003, 3.571179e+001
1.211469e+003, 3.597491e+001
1.211951e+003, 3.606202e+001
1.212433e+003, 3.562454e+001
1.212915e+003, 3.533307e+001
1.213397e+003, 3.558285e+001
1.213879e+003, 3.593866e+001
1.214361e+003, 3.609735e+001
1.214844e+003, 3.608321e+001
1.215326e+003, 3.609801e+001
1.215808e+003, 3.611755e+001
1.216290e+003, 3.602231e+001
1.216772e+003, 3.557815e+001
1.217254e+003, 3.524127e+001
1.217736e+003, 3.513213e+001
1.218218e+003, 3.519924e+001
1.218701e+003, 3.549549e+001
1.219183e+003, 3.595963e+001
1.219665e+003, 3.617277e+001
1.220147e+003, 3.615929e+001
1.220629e+003, 3.608918e+001
1.221111e+003, 3.605198e+001
1.221593e+003, 3.595322e+001
1.222075e+003, 3.570266e+001
1.222557e+003, 3.545947e+001
1.223040e+003, 3.542358e+001
1.223522e+003, 3.554015e+001
1.224004e+003, 3.552087e+001
1.224486e+003, 3.538175e+001
1.224968e+003, 3.526936e+001
1.225450e+003, 3.525453e+001
1.225932e+003, 3.527779e+001
1.226414e+003, 3.531444e+001
1.226896e+003, 3.538799e+001
1.227379e+003, 3.555802e+001
1.227861e+003, 3.578524e+001
1.228343e+003, 3.593163e+001
1.228825e+003, 3.599741e+001
1.229307e+003, 3.603637e+001
1.229789e+003, 3.611784e+001
1.230271e+003, 3.609510e+001
1.230753e+003, 3.587374e+001
1.231236e+003, 3.564051e+001
1.231718e+003, 3.567851e+001
1.232200e+003, 3.588944e+001
1.232682e+003, 3.604182e+001
1.233164e+003, 3.611094e+001
1.233646e+003, 3.604642e+001
1.234128e+003, 3.563519e+001
1.234610e+003, 3.536512e+001
1.235093e+003, 3.536567e+001
1.235575e+003, 3.547469e+001
1.236057e+003, 3.544006e+001
1.236539e+003, 3.535974e+001
1.237021e+003, 3.551960e+001
1.237503e+003, 3.590387e+001
1.237985e+003, 3.614437e+001
1.238467e+003, 3.605490e+001
1.238949e+003, 3.586417e+001
1.239432e+003, 3.551965e+001
1.239914e+003, 3.527563e+001
1.240396e+003, 3.567535e+001
1.240878e+003, 3.634441e+001
1.241360e+003, 3.650267e+001
1.241842e+003, 3.613127e+001
1.242324e+003, 3.598731e+001
1.242806e+003, 3.638641e+001
1.243288e+003, 3.667211e+001
1.243771e+003, 3.672066e+001
1.244253e+003, 3.662159e+001
1.244735e+003, 3.642451e+001
1.245217e+003, 3.619369e+001
1.245699e+003, 3.599919e+001
1.246181e+003, 3.585433e+001
1.246663e+003, 3.585458e+001
1.247145e+003, 3.608089e+001
1.247628e+003, 3.620876e+001
1.248110e+003, 3.615051e+001
1.248592e+003, 3.604367e+001
1.249074e+003, 3.603529e+001
1.249556e+003, 3.609478e+001
1.250038e+003, 3.618040e+001
1.250520e+003, 3.629457e+001
1.251002e+003, 3.654311e+001
1.251484e+003, 3.704596e+001
1.251967e+003, 3.709454e+001
1.252449e+003, 3.641945e+001
1.252931e+003, 3.569674e+001
1.253413e+003, 3.566908e+001
1.253895e+003, 3.596247e+001
1.254377e+003, 3.632354e+001
1.254859e+003, 3.668180e+001
1.255341e+003, 3.661845e+001
1.255823e+003, 3.605917e+001
1.256306e+003, 3.573404e+001
1.256788e+003, 3.584394e+001
1.257270e+003, 3.606339e+001
1.257752e+003, 3.609517e+001
1.258234e+003, 3.609808e+001
1.258716e+003, 3.623152e+001
1.259198e+003, 3.646552e+001
1.259680e+003, 3.665574e+001
1.260163e+003, 3.680316e+001
1.260645e+003, 3.679842e+001
1.261127e+003, 3.659460e+001
1.261609e+003, 3.638671e+001
1.262091e+003, 3.630597e+001
1.262573e+003, 3.629402e+001
1.263055e+003, 3.631945e+001
1.263537e+003, 3.637558e+001
1.264020e+003, 3.650771e+001
1.264502e+003, 3.668213e+001
1.264984e+003, 3.656230e+001
1.265466e+003, 3.601253e+001
1.265948e+003, 3.560853e+001
1.266430e+003, 3.578458e+001
1.266912e+003, 3.611258e+001
1.267394e+003, 3.643962e+001
1.267876e+003, 3.670001e+001
1.268359e+003, 3.666089e+001
1.268841e+003, 3.640520e+001
1.269323e+003, 3.622493e+001
1.269805e+003, 3.618056e+001
1.270287e+003, 3.623249e+001
1.270769e+003, 3.650246e+001
1.271251e+003, 3.669396e+001
1.271733e+003, 3.670170e+001
1.272215e+003, 3.658315e+001
1.272698e+003, 3.643562e+001
1.273180e+003, 3.626740e+001
1.273662e+003, 3.608887e+001
1.274144e+003, 3.589331e+001
1.274626e+003, 3.575651e+001
1.275108e+003, 3.565515e+001
1.275590e+003, 3.569597e+001
1.276072e+003, 3.597033e+001
1.276555e+003, 3.629077e+001
1.277037e+003, 3.630431e+001
1.277519e+003, 3.617130e+001
1.278001e+003, 3.613753e+001
1.278483e+003, 3.624895e+001
1.278965e+003, 3.635857e+001
1.279447e+003, 3.646207e+001
1.279929e+003, 3.653675e+001
1.280411e+003, 3.656650e+001
1.280894e+003, 3.658727e+001
1.281376e+003, 3.667467e+001
1.281858e+003, 3.675711e+001
1.282340e+003, 3.671600e+001
1.282822e+003, 3.655436e+001
1.283304e+003, 3.657884e+001
1.283786e+003, 3.681847e+001
1.284268e+003, 3.690150e+001
1.284750e+003, 3.667984e+001
1.285233e+003, 3.648321e+001
1.285715e+003, 3.674502e+001
1.286197e+003, 3.705233e+001
1.286679e+003, 3.700608e+001
1.287161e+003, 3.670734e+001
1.287643e+003, 3.665477e+001
1.288125e+003, 3.682069e+001
1.288607e+003, 3.680977e+001
1.289090e+003, 3.649651e+001
1.289572e+003, 3.621798e+001
1.290054e+003, 3.614625e+001
1.290536e+003, 3.622813e+001
1.291018e+003, 3.649162e+001
1.291500e+003, 3.682106e+001
1.291982e+003, 3.684972e+001
1.292464e+003, 3.666072e+001
1.292947e+003, 3.655788e+001
1.293429e+003, 3.660572e+001
1.293911e+003, 3.667650e+001
1.294393e+003, 3.673368e+001
1.294875e+003, 3.678425e+001
1.295357e+003, 3.682195e+001
1.295839e+003, 3.686217e+001
1.296321e+003, 3.695157e+001
1.296803e+003, 3.706487e+001
1.297286e+003, 3.716172e+001
1.297768e+003, 3.723678e+001
1.298250e+003, 3.724207e+001
1.298732e+003, 3.713207e+001
1.299214e+003, 3.708475e+001
1.299696e+003, 3.717818e+001
1.300178e+003, 3.726019e+001
1.300660e+003, 3.719754e+001
##END=



