##NAMES=Murdochite
##RRUFFID=R180001
##IDEAL CHEMISTRY=Cu^2+^_12_Pb^4+^_2_O_15_Cl_2_
##LOCALITY=Mammoth mine, Tiger, Pinal County, Arizona, USA
##OWNER=UA Mineral Museum
##SOURCE=UA Mineral Museum
##DESCRIPTION=Black octahedral or cubo-octahedral crystals, associated with green prismatic dioptase
##STATUS=The identification of this mineral is confirmed by single-crystal X-ray diffraction and chemical analysis.
##URL=rruff.info/R180001
##MEASURED CHEMISTRY=Cu_11.98_Pb_2.01_O_15_(Cl_1.92_Br_0.06_)_Σ=1.98_; = Light portion. Cu_12.12_Pb_1.92_O_15_(Cl_1.97_Br_0.12_)_Σ=2.09_ = Dark portion
8.758203e+001, 6.874101e+002
8.806415e+001, 6.899457e+002
8.854626e+001, 6.904407e+002
8.902838e+001, 6.880431e+002
8.951050e+001, 6.849672e+002
8.999261e+001, 6.819288e+002
9.047473e+001, 6.789962e+002
9.095685e+001, 6.761242e+002
9.143896e+001, 6.733348e+002
9.192108e+001, 6.706058e+002
9.240320e+001, 6.676038e+002
9.288531e+001, 6.564305e+002
9.336743e+001, 6.337234e+002
9.384955e+001, 6.034742e+002
9.433167e+001, 5.752276e+002
9.481378e+001, 5.480392e+002
9.529590e+001, 5.249739e+002
9.577802e+001, 5.053973e+002
9.626013e+001, 4.882780e+002
9.674225e+001, 4.730466e+002
9.722437e+001, 4.593936e+002
9.770648e+001, 4.469338e+002
9.818860e+001, 4.358329e+002
9.867072e+001, 4.253292e+002
9.915283e+001, 4.148858e+002
9.963495e+001, 4.044159e+002
1.001171e+002, 3.943736e+002
1.005992e+002, 3.853649e+002
1.010813e+002, 3.770722e+002
1.015634e+002, 3.702120e+002
1.020455e+002, 3.649040e+002
1.025277e+002, 3.603160e+002
1.030098e+002, 3.556554e+002
1.034919e+002, 3.505880e+002
1.039740e+002, 3.455083e+002
1.044561e+002, 3.418101e+002
1.049382e+002, 3.419773e+002
1.054204e+002, 3.406626e+002
1.059025e+002, 3.370308e+002
1.063846e+002, 3.315277e+002
1.068667e+002, 3.247125e+002
1.073488e+002, 3.166125e+002
1.078309e+002, 3.075793e+002
1.083131e+002, 3.003806e+002
1.087952e+002, 2.953712e+002
1.092773e+002, 2.914790e+002
1.097594e+002, 2.884435e+002
1.102415e+002, 2.861949e+002
1.107236e+002, 2.841835e+002
1.112058e+002, 2.820507e+002
1.116879e+002, 2.798228e+002
1.121700e+002, 2.775944e+002
1.126521e+002, 2.754781e+002
1.131342e+002, 2.733552e+002
1.136163e+002, 2.710214e+002
1.140985e+002, 2.684352e+002
1.145806e+002, 2.657176e+002
1.150627e+002, 2.628884e+002
1.155448e+002, 2.600049e+002
1.160269e+002, 2.571661e+002
1.165090e+002, 2.544561e+002
1.169912e+002, 2.518772e+002
1.174733e+002, 2.493194e+002
1.179554e+002, 2.464011e+002
1.184375e+002, 2.438488e+002
1.189196e+002, 2.420350e+002
1.194017e+002, 2.409150e+002
1.198839e+002, 2.401720e+002
1.203660e+002, 2.395050e+002
1.208481e+002, 2.390591e+002
1.213302e+002, 2.382874e+002
1.218123e+002, 2.373666e+002
1.222944e+002, 2.360856e+002
1.227766e+002, 2.341269e+002
1.232587e+002, 2.314621e+002
1.237408e+002, 2.284763e+002
1.242229e+002, 2.259138e+002
1.247050e+002, 2.239399e+002
1.251871e+002, 2.222311e+002
1.256693e+002, 2.209158e+002
1.261514e+002, 2.198272e+002
1.266335e+002, 2.187948e+002
1.271156e+002, 2.177565e+002
1.275977e+002, 2.166837e+002
1.280798e+002, 2.154929e+002
1.285620e+002, 2.143042e+002
1.290441e+002, 2.128678e+002
1.295262e+002, 2.109966e+002
1.300083e+002, 2.087581e+002
1.304904e+002, 2.064206e+002
1.309725e+002, 2.039371e+002
1.314547e+002, 2.015672e+002
1.319368e+002, 1.997901e+002
1.324189e+002, 1.988706e+002
1.329010e+002, 1.982631e+002
1.333831e+002, 1.974513e+002
1.338652e+002, 1.964078e+002
1.343474e+002, 1.953211e+002
1.348295e+002, 1.943266e+002
1.353116e+002, 1.933383e+002
1.357937e+002, 1.922189e+002
1.362758e+002, 1.908267e+002
1.367579e+002, 1.893348e+002
1.372401e+002, 1.882559e+002
1.377222e+002, 1.879925e+002
1.382043e+002, 1.875173e+002
1.386864e+002, 1.864965e+002
1.391685e+002, 1.850766e+002
1.396507e+002, 1.834464e+002
1.401328e+002, 1.816870e+002
1.406149e+002, 1.798028e+002
1.410970e+002, 1.781750e+002
1.415791e+002, 1.771292e+002
1.420612e+002, 1.760482e+002
1.425434e+002, 1.747034e+002
1.430255e+002, 1.731697e+002
1.435076e+002, 1.716486e+002
1.439897e+002, 1.702985e+002
1.444718e+002, 1.690900e+002
1.449539e+002, 1.683101e+002
1.454361e+002, 1.685399e+002
1.459182e+002, 1.686413e+002
1.464003e+002, 1.678597e+002
1.468824e+002, 1.661756e+002
1.473645e+002, 1.641981e+002
1.478466e+002, 1.625849e+002
1.483288e+002, 1.614079e+002
1.488109e+002, 1.604766e+002
1.492930e+002, 1.600798e+002
1.497751e+002, 1.597912e+002
1.502572e+002, 1.591023e+002
1.507393e+002, 1.578597e+002
1.512215e+002, 1.564589e+002
1.517036e+002, 1.554217e+002
1.521857e+002, 1.547038e+002
1.526678e+002, 1.542129e+002
1.531499e+002, 1.542426e+002
1.536320e+002, 1.544950e+002
1.541142e+002, 1.541720e+002
1.545963e+002, 1.528703e+002
1.550784e+002, 1.512204e+002
1.555605e+002, 1.498952e+002
1.560426e+002, 1.488960e+002
1.565247e+002, 1.479852e+002
1.570069e+002, 1.469504e+002
1.574890e+002, 1.457983e+002
1.579711e+002, 1.448691e+002
1.584532e+002, 1.444631e+002
1.589353e+002, 1.441484e+002
1.594174e+002, 1.436656e+002
1.598996e+002, 1.429779e+002
1.603817e+002, 1.421790e+002
1.608638e+002, 1.413869e+002
1.613459e+002, 1.406434e+002
1.618280e+002, 1.397582e+002
1.623102e+002, 1.384379e+002
1.627923e+002, 1.371459e+002
1.632744e+002, 1.362620e+002
1.637565e+002, 1.358767e+002
1.642386e+002, 1.357253e+002
1.647207e+002, 1.352820e+002
1.652029e+002, 1.342420e+002
1.656850e+002, 1.334052e+002
1.661671e+002, 1.329251e+002
1.666492e+002, 1.326043e+002
1.671313e+002, 1.322589e+002
1.676134e+002, 1.318130e+002
1.680956e+002, 1.313150e+002
1.685777e+002, 1.309064e+002
1.690598e+002, 1.308622e+002
1.695419e+002, 1.305893e+002
1.700240e+002, 1.299173e+002
1.705061e+002, 1.290160e+002
1.709883e+002, 1.281046e+002
1.714704e+002, 1.272868e+002
1.719525e+002, 1.265534e+002
1.724346e+002, 1.258760e+002
1.729167e+002, 1.251584e+002
1.733988e+002, 1.245768e+002
1.738810e+002, 1.242516e+002
1.743631e+002, 1.241143e+002
1.748452e+002, 1.239931e+002
1.753273e+002, 1.238029e+002
1.758094e+002, 1.235553e+002
1.762915e+002, 1.233190e+002
1.767737e+002, 1.232286e+002
1.772558e+002, 1.230059e+002
1.777379e+002, 1.223334e+002
1.782200e+002, 1.212634e+002
1.787021e+002, 1.203685e+002
1.791842e+002, 1.201108e+002
1.796664e+002, 1.201980e+002
1.801485e+002, 1.200405e+002
1.806306e+002, 1.194646e+002
1.811127e+002, 1.187445e+002
1.815948e+002, 1.181611e+002
1.820769e+002, 1.177248e+002
1.825591e+002, 1.173625e+002
1.830412e+002, 1.171367e+002
1.835233e+002, 1.169341e+002
1.840054e+002, 1.166105e+002
1.844875e+002, 1.160699e+002
1.849696e+002, 1.154449e+002
1.854518e+002, 1.149953e+002
1.859339e+002, 1.147984e+002
1.864160e+002, 1.146065e+002
1.868981e+002, 1.142960e+002
1.873802e+002, 1.139471e+002
1.878623e+002, 1.136604e+002
1.883445e+002, 1.135016e+002
1.888266e+002, 1.134203e+002
1.893087e+002, 1.132607e+002
1.897908e+002, 1.130664e+002
1.902729e+002, 1.127048e+002
1.907550e+002, 1.120221e+002
1.912372e+002, 1.112003e+002
1.917193e+002, 1.104755e+002
1.922014e+002, 1.099879e+002
1.926835e+002, 1.097141e+002
1.931656e+002, 1.095042e+002
1.936477e+002, 1.094428e+002
1.941299e+002, 1.093672e+002
1.946120e+002, 1.093091e+002
1.950941e+002, 1.092132e+002
1.955762e+002, 1.089806e+002
1.960583e+002, 1.085301e+002
1.965404e+002, 1.078801e+002
1.970226e+002, 1.073607e+002
1.975047e+002, 1.069167e+002
1.979868e+002, 1.066463e+002
1.984689e+002, 1.067175e+002
1.989510e+002, 1.069997e+002
1.994331e+002, 1.072134e+002
1.999153e+002, 1.071617e+002
2.003974e+002, 1.068477e+002
2.008795e+002, 1.064928e+002
2.013616e+002, 1.059426e+002
2.018437e+002, 1.055042e+002
2.023258e+002, 1.054099e+002
2.028080e+002, 1.055763e+002
2.032901e+002, 1.056852e+002
2.037722e+002, 1.055050e+002
2.042543e+002, 1.050422e+002
2.047364e+002, 1.045901e+002
2.052185e+002, 1.041425e+002
2.057007e+002, 1.037097e+002
2.061828e+002, 1.032868e+002
2.066649e+002, 1.028791e+002
2.071470e+002, 1.025252e+002
2.076291e+002, 1.022544e+002
2.081112e+002, 1.020703e+002
2.085934e+002, 1.019358e+002
2.090755e+002, 1.019331e+002
2.095576e+002, 1.019260e+002
2.100397e+002, 1.017563e+002
2.105218e+002, 1.014150e+002
2.110039e+002, 1.011156e+002
2.114861e+002, 1.010712e+002
2.119682e+002, 1.011588e+002
2.124503e+002, 1.011216e+002
2.129324e+002, 1.008516e+002
2.134145e+002, 1.004786e+002
2.138967e+002, 1.001513e+002
2.143788e+002, 9.987391e+001
2.148609e+002, 9.961763e+001
2.153430e+002, 9.933162e+001
2.158251e+002, 9.906193e+001
2.163072e+002, 9.886840e+001
2.167894e+002, 9.874227e+001
2.172715e+002, 9.872306e+001
2.177536e+002, 9.898630e+001
2.182357e+002, 9.974928e+001
2.187178e+002, 1.001721e+002
2.191999e+002, 9.954073e+001
2.196821e+002, 9.850459e+001
2.201642e+002, 9.783630e+001
2.206463e+002, 9.795578e+001
2.211284e+002, 9.847413e+001
2.216105e+002, 9.847149e+001
2.220926e+002, 9.764281e+001
2.225748e+002, 9.689754e+001
2.230569e+002, 9.652898e+001
2.235390e+002, 9.637811e+001
2.240211e+002, 9.628411e+001
2.245032e+002, 9.618196e+001
2.249853e+002, 9.607359e+001
2.254675e+002, 9.596691e+001
2.259496e+002, 9.590311e+001
2.264317e+002, 9.576978e+001
2.269138e+002, 9.542180e+001
2.273959e+002, 9.504617e+001
2.278780e+002, 9.488133e+001
2.283602e+002, 9.505610e+001
2.288423e+002, 9.543578e+001
2.293244e+002, 9.557900e+001
2.298065e+002, 9.526709e+001
2.302886e+002, 9.499902e+001
2.307707e+002, 9.478870e+001
2.312529e+002, 9.466853e+001
2.317350e+002, 9.470670e+001
2.322171e+002, 9.493928e+001
2.326992e+002, 9.527734e+001
2.331813e+002, 9.543116e+001
2.336634e+002, 9.504812e+001
2.341456e+002, 9.490264e+001
2.346277e+002, 9.528367e+001
2.351098e+002, 9.584769e+001
2.355919e+002, 9.620384e+001
2.360740e+002, 9.617323e+001
2.365561e+002, 9.585154e+001
2.370383e+002, 9.551746e+001
2.375204e+002, 9.511189e+001
2.380025e+002, 9.476990e+001
2.384846e+002, 9.450179e+001
2.389667e+002, 9.430167e+001
2.394488e+002, 9.416413e+001
2.399310e+002, 9.408646e+001
2.404131e+002, 9.407000e+001
2.408952e+002, 9.412414e+001
2.413773e+002, 9.447440e+001
2.418594e+002, 9.458540e+001
2.423415e+002, 9.421310e+001
2.428237e+002, 9.363292e+001
2.433058e+002, 9.320604e+001
2.437879e+002, 9.307092e+001
2.442700e+002, 9.309621e+001
2.447521e+002, 9.301253e+001
2.452342e+002, 9.284822e+001
2.457164e+002, 9.252981e+001
2.461985e+002, 9.187709e+001
2.466806e+002, 9.111037e+001
2.471627e+002, 9.057301e+001
2.476448e+002, 9.039629e+001
2.481269e+002, 9.034824e+001
2.486091e+002, 8.998876e+001
2.490912e+002, 8.922250e+001
2.495733e+002, 8.853722e+001
2.500554e+002, 8.805246e+001
2.505375e+002, 8.769466e+001
2.510196e+002, 8.733477e+001
2.515018e+002, 8.692463e+001
2.519839e+002, 8.657622e+001
2.524660e+002, 8.654571e+001
2.529481e+002, 8.686424e+001
2.534302e+002, 8.701061e+001
2.539123e+002, 8.672658e+001
2.543945e+002, 8.622997e+001
2.548766e+002, 8.586571e+001
2.553587e+002, 8.572716e+001
2.558408e+002, 8.563642e+001
2.563229e+002, 8.532668e+001
2.568051e+002, 8.483083e+001
2.572872e+002, 8.445090e+001
2.577693e+002, 8.437978e+001
2.582514e+002, 8.444505e+001
2.587335e+002, 8.431908e+001
2.592156e+002, 8.389769e+001
2.596978e+002, 8.350499e+001
2.601799e+002, 8.357626e+001
2.606620e+002, 8.397038e+001
2.611441e+002, 8.422859e+001
2.616262e+002, 8.417416e+001
2.621083e+002, 8.390886e+001
2.625905e+002, 8.355419e+001
2.630726e+002, 8.308419e+001
2.635547e+002, 8.265141e+001
2.640368e+002, 8.247884e+001
2.645189e+002, 8.243822e+001
2.650010e+002, 8.226264e+001
2.654832e+002, 8.169351e+001
2.659653e+002, 8.100825e+001
2.664474e+002, 8.069289e+001
2.669295e+002, 8.084196e+001
2.674116e+002, 8.101891e+001
2.678937e+002, 8.101730e+001
2.683759e+002, 8.086272e+001
2.688580e+002, 8.053786e+001
2.693401e+002, 7.992821e+001
2.698222e+002, 7.924633e+001
2.703043e+002, 7.883421e+001
2.707864e+002, 7.875207e+001
2.712686e+002, 7.867989e+001
2.717507e+002, 7.840453e+001
2.722328e+002, 7.807373e+001
2.727149e+002, 7.786150e+001
2.731970e+002, 7.785366e+001
2.736791e+002, 7.789364e+001
2.741613e+002, 7.775682e+001
2.746434e+002, 7.740626e+001
2.751255e+002, 7.706221e+001
2.756076e+002, 7.676527e+001
2.760897e+002, 7.653130e+001
2.765718e+002, 7.638689e+001
2.770540e+002, 7.634233e+001
2.775361e+002, 7.636118e+001
2.780182e+002, 7.645153e+001
2.785003e+002, 7.664530e+001
2.789824e+002, 7.668513e+001
2.794645e+002, 7.633024e+001
2.799467e+002, 7.590515e+001
2.804288e+002, 7.560516e+001
2.809109e+002, 7.546169e+001
2.813930e+002, 7.542783e+001
2.818751e+002, 7.549584e+001
2.823572e+002, 7.567890e+001
2.828394e+002, 7.580232e+001
2.833215e+002, 7.581658e+001
2.838036e+002, 7.577575e+001
2.842857e+002, 7.569348e+001
2.847678e+002, 7.557755e+001
2.852499e+002, 7.545288e+001
2.857321e+002, 7.532893e+001
2.862142e+002, 7.520474e+001
2.866963e+002, 7.512841e+001
2.871784e+002, 7.515491e+001
2.876605e+002, 7.517738e+001
2.881426e+002, 7.508716e+001
2.886248e+002, 7.493471e+001
2.891069e+002, 7.488474e+001
2.895890e+002, 7.515373e+001
2.900711e+002, 7.569710e+001
2.905532e+002, 7.591714e+001
2.910353e+002, 7.557613e+001
2.915175e+002, 7.518074e+001
2.919996e+002, 7.490943e+001
2.924817e+002, 7.473397e+001
2.929638e+002, 7.457941e+001
2.934459e+002, 7.436943e+001
2.939280e+002, 7.415537e+001
2.944102e+002, 7.420478e+001
2.948923e+002, 7.477250e+001
2.953744e+002, 7.520510e+001
2.958565e+002, 7.535741e+001
2.963386e+002, 7.526702e+001
2.968207e+002, 7.493112e+001
2.973029e+002, 7.430693e+001
2.977850e+002, 7.355637e+001
2.982671e+002, 7.307744e+001
2.987492e+002, 7.291831e+001
2.992313e+002, 7.296346e+001
2.997134e+002, 7.334514e+001
3.001956e+002, 7.380516e+001
3.006777e+002, 7.411477e+001
3.011598e+002, 7.419732e+001
3.016419e+002, 7.411368e+001
3.021240e+002, 7.390872e+001
3.026061e+002, 7.345464e+001
3.030883e+002, 7.324969e+001
3.035704e+002, 7.360097e+001
3.040525e+002, 7.404857e+001
3.045346e+002, 7.430391e+001
3.050167e+002, 7.430744e+001
3.054988e+002, 7.416579e+001
3.059810e+002, 7.396665e+001
3.064631e+002, 7.367201e+001
3.069452e+002, 7.349492e+001
3.074273e+002, 7.358123e+001
3.079094e+002, 7.368313e+001
3.083915e+002, 7.369669e+001
3.088737e+002, 7.361649e+001
3.093558e+002, 7.348443e+001
3.098379e+002, 7.333327e+001
3.103200e+002, 7.316175e+001
3.108021e+002, 7.297566e+001
3.112842e+002, 7.263735e+001
3.117664e+002, 7.243298e+001
3.122485e+002, 7.264218e+001
3.127306e+002, 7.306699e+001
3.132127e+002, 7.327016e+001
3.136948e+002, 7.288870e+001
3.141769e+002, 7.204224e+001
3.146591e+002, 7.145148e+001
3.151412e+002, 7.115762e+001
3.156233e+002, 7.110326e+001
3.161054e+002, 7.143806e+001
3.165875e+002, 7.192626e+001
3.170696e+002, 7.226552e+001
3.175518e+002, 7.230846e+001
3.180339e+002, 7.212978e+001
3.185160e+002, 7.188351e+001
3.189981e+002, 7.146645e+001
3.194802e+002, 7.120486e+001
3.199623e+002, 7.137313e+001
3.204445e+002, 7.159562e+001
3.209266e+002, 7.148759e+001
3.214087e+002, 7.093498e+001
3.218908e+002, 7.023309e+001
3.223729e+002, 6.981489e+001
3.228550e+002, 6.972242e+001
3.233372e+002, 6.976629e+001
3.238193e+002, 7.013518e+001
3.243014e+002, 7.047457e+001
3.247835e+002, 7.059240e+001
3.252656e+002, 7.046261e+001
3.257477e+002, 7.016115e+001
3.262299e+002, 6.967239e+001
3.267120e+002, 6.895570e+001
3.271941e+002, 6.849163e+001
3.276762e+002, 6.850573e+001
3.281583e+002, 6.858556e+001
3.286404e+002, 6.858303e+001
3.291226e+002, 6.849849e+001
3.296047e+002, 6.836971e+001
3.300868e+002, 6.819929e+001
3.305689e+002, 6.800243e+001
3.310510e+002, 6.790537e+001
3.315331e+002, 6.807185e+001
3.320153e+002, 6.808415e+001
3.324974e+002, 6.767338e+001
3.329795e+002, 6.706432e+001
3.334616e+002, 6.660250e+001
3.339437e+002, 6.649069e+001
3.344258e+002, 6.654536e+001
3.349080e+002, 6.630875e+001
3.353901e+002, 6.561001e+001
3.358722e+002, 6.506940e+001
3.363543e+002, 6.505323e+001
3.368365e+002, 6.516879e+001
3.373186e+002, 6.507883e+001
3.378007e+002, 6.468801e+001
3.382828e+002, 6.414567e+001
3.387649e+002, 6.353057e+001
3.392470e+002, 6.278884e+001
3.397292e+002, 6.240508e+001
3.402113e+002, 6.288451e+001
3.406934e+002, 6.344424e+001
3.411755e+002, 6.361084e+001
3.416576e+002, 6.336237e+001
3.421397e+002, 6.292440e+001
3.426219e+002, 6.236818e+001
3.431040e+002, 6.172191e+001
3.435861e+002, 6.129929e+001
3.440682e+002, 6.117011e+001
3.445503e+002, 6.121978e+001
3.450324e+002, 6.154508e+001
3.455146e+002, 6.198385e+001
3.459967e+002, 6.211888e+001
3.464788e+002, 6.154710e+001
3.469609e+002, 6.058235e+001
3.474430e+002, 6.000268e+001
3.479251e+002, 5.990634e+001
3.484073e+002, 5.992743e+001
3.488894e+002, 6.000729e+001
3.493715e+002, 6.005819e+001
3.498536e+002, 5.993759e+001
3.503357e+002, 5.954167e+001
3.508178e+002, 5.909754e+001
3.513000e+002, 5.893175e+001
3.517821e+002, 5.906481e+001
3.522642e+002, 5.906249e+001
3.527463e+002, 5.863757e+001
3.532284e+002, 5.811777e+001
3.537105e+002, 5.785235e+001
3.541927e+002, 5.787952e+001
3.546748e+002, 5.797818e+001
3.551569e+002, 5.797004e+001
3.556390e+002, 5.789772e+001
3.561211e+002, 5.799466e+001
3.566032e+002, 5.843317e+001
3.570854e+002, 5.882023e+001
3.575675e+002, 5.874799e+001
3.580496e+002, 5.829641e+001
3.585317e+002, 5.781490e+001
3.590138e+002, 5.738729e+001
3.594959e+002, 5.702826e+001
3.599781e+002, 5.677092e+001
3.604602e+002, 5.662713e+001
3.609423e+002, 5.652481e+001
3.614244e+002, 5.640712e+001
3.619065e+002, 5.629831e+001
3.623886e+002, 5.626450e+001
3.628708e+002, 5.641734e+001
3.633529e+002, 5.654238e+001
3.638350e+002, 5.641413e+001
3.643171e+002, 5.607148e+001
3.647992e+002, 5.577839e+001
3.652813e+002, 5.565647e+001
3.657635e+002, 5.564779e+001
3.662456e+002, 5.563919e+001
3.667277e+002, 5.564434e+001
3.672098e+002, 5.561072e+001
3.676919e+002, 5.547051e+001
3.681740e+002, 5.528450e+001
3.686562e+002, 5.518636e+001
3.691383e+002, 5.522279e+001
3.696204e+002, 5.528072e+001
3.701025e+002, 5.521885e+001
3.705846e+002, 5.503243e+001
3.710667e+002, 5.482191e+001
3.715489e+002, 5.455594e+001
3.720310e+002, 5.429865e+001
3.725131e+002, 5.410461e+001
3.729952e+002, 5.397721e+001
3.734773e+002, 5.390658e+001
3.739594e+002, 5.390106e+001
3.744416e+002, 5.395060e+001
3.749237e+002, 5.394518e+001
3.754058e+002, 5.379071e+001
3.758879e+002, 5.368750e+001
3.763700e+002, 5.377915e+001
3.768521e+002, 5.397709e+001
3.773343e+002, 5.408747e+001
3.778164e+002, 5.401769e+001
3.782985e+002, 5.384127e+001
3.787806e+002, 5.373513e+001
3.792627e+002, 5.384174e+001
3.797448e+002, 5.377380e+001
3.802270e+002, 5.331572e+001
3.807091e+002, 5.277729e+001
3.811912e+002, 5.246000e+001
3.816733e+002, 5.241535e+001
3.821554e+002, 5.248335e+001
3.826375e+002, 5.247832e+001
3.831197e+002, 5.236018e+001
3.836018e+002, 5.238502e+001
3.840839e+002, 5.265223e+001
3.845660e+002, 5.293797e+001
3.850481e+002, 5.320314e+001
3.855302e+002, 5.340537e+001
3.860124e+002, 5.345539e+001
3.864945e+002, 5.327962e+001
3.869766e+002, 5.293418e+001
3.874587e+002, 5.271681e+001
3.879408e+002, 5.273829e+001
3.884229e+002, 5.276594e+001
3.889051e+002, 5.283250e+001
3.893872e+002, 5.286790e+001
3.898693e+002, 5.279010e+001
3.903514e+002, 5.257599e+001
3.908335e+002, 5.228582e+001
3.913156e+002, 5.200512e+001
3.917978e+002, 5.171408e+001
3.922799e+002, 5.148824e+001
3.927620e+002, 5.128943e+001
3.932441e+002, 5.118272e+001
3.937262e+002, 5.126626e+001
3.942083e+002, 5.148993e+001
3.946905e+002, 5.168652e+001
3.951726e+002, 5.171532e+001
3.956547e+002, 5.159301e+001
3.961368e+002, 5.148962e+001
3.966189e+002, 5.140424e+001
3.971010e+002, 5.134278e+001
3.975832e+002, 5.128729e+001
3.980653e+002, 5.125928e+001
3.985474e+002, 5.132597e+001
3.990295e+002, 5.154143e+001
3.995116e+002, 5.173150e+001
3.999937e+002, 5.153917e+001
4.004759e+002, 5.085796e+001
4.009580e+002, 5.034894e+001
4.014401e+002, 5.021547e+001
4.019222e+002, 5.029023e+001
4.024043e+002, 5.055529e+001
4.028864e+002, 5.098158e+001
4.033686e+002, 5.133036e+001
4.038507e+002, 5.142611e+001
4.043328e+002, 5.129791e+001
4.048149e+002, 5.102274e+001
4.052970e+002, 5.048641e+001
4.057791e+002, 5.006385e+001
4.062613e+002, 5.015804e+001
4.067434e+002, 5.054041e+001
4.072255e+002, 5.074057e+001
4.077076e+002, 5.046345e+001
4.081897e+002, 5.008899e+001
4.086718e+002, 5.009519e+001
4.091540e+002, 5.046623e+001
4.096361e+002, 5.077995e+001
4.101182e+002, 5.085526e+001
4.106003e+002, 5.076777e+001
4.110824e+002, 5.065623e+001
4.115645e+002, 5.051084e+001
4.120467e+002, 5.037857e+001
4.125288e+002, 5.028172e+001
4.130109e+002, 5.021083e+001
4.134930e+002, 5.013918e+001
4.139751e+002, 5.005759e+001
4.144572e+002, 5.001463e+001
4.149394e+002, 5.008467e+001
4.154215e+002, 5.027338e+001
4.159036e+002, 5.038125e+001
4.163857e+002, 5.036508e+001
4.168678e+002, 5.029650e+001
4.173499e+002, 5.017903e+001
4.178321e+002, 5.004094e+001
4.183142e+002, 4.997884e+001
4.187963e+002, 5.006421e+001
4.192784e+002, 5.023311e+001
4.197605e+002, 5.026127e+001
4.202426e+002, 5.000835e+001
4.207248e+002, 4.981374e+001
4.212069e+002, 4.973946e+001
4.216890e+002, 4.972766e+001
4.221711e+002, 4.972171e+001
4.226532e+002, 4.970829e+001
4.231353e+002, 4.970439e+001
4.236175e+002, 4.972449e+001
4.240996e+002, 4.975711e+001
4.245817e+002, 4.987826e+001
4.250638e+002, 5.021590e+001
4.255459e+002, 5.050110e+001
4.260280e+002, 5.062591e+001
4.265102e+002, 5.061637e+001
4.269923e+002, 5.052045e+001
4.274744e+002, 5.035498e+001
4.279565e+002, 5.016633e+001
4.284386e+002, 5.013879e+001
4.289207e+002, 5.048421e+001
4.294029e+002, 5.059738e+001
4.298850e+002, 5.016110e+001
4.303671e+002, 4.965525e+001
4.308492e+002, 4.951163e+001
4.313313e+002, 4.977775e+001
4.318134e+002, 5.012033e+001
4.322956e+002, 5.015369e+001
4.327777e+002, 4.986706e+001
4.332598e+002, 4.973031e+001
4.337419e+002, 4.984192e+001
4.342241e+002, 4.999382e+001
4.347062e+002, 5.015667e+001
4.351883e+002, 5.027800e+001
4.356704e+002, 5.024469e+001
4.361525e+002, 4.995021e+001
4.366346e+002, 4.955799e+001
4.371168e+002, 4.930660e+001
4.375989e+002, 4.919925e+001
4.380810e+002, 4.920987e+001
4.385631e+002, 4.942984e+001
4.390452e+002, 4.968998e+001
4.395273e+002, 4.978371e+001
4.400095e+002, 4.969099e+001
4.404916e+002, 4.959948e+001
4.409737e+002, 4.966715e+001
4.414558e+002, 4.979527e+001
4.419379e+002, 4.975722e+001
4.424200e+002, 4.950494e+001
4.429022e+002, 4.920575e+001
4.433843e+002, 4.893628e+001
4.438664e+002, 4.872775e+001
4.443485e+002, 4.871006e+001
4.448306e+002, 4.916197e+001
4.453127e+002, 4.954519e+001
4.457949e+002, 4.944822e+001
4.462770e+002, 4.903392e+001
4.467591e+002, 4.873994e+001
4.472412e+002, 4.874942e+001
4.477233e+002, 4.894108e+001
4.482054e+002, 4.909704e+001
4.486876e+002, 4.922963e+001
4.491697e+002, 4.929353e+001
4.496518e+002, 4.927568e+001
4.501339e+002, 4.919667e+001
4.506160e+002, 4.900721e+001
4.510981e+002, 4.874978e+001
4.515803e+002, 4.860020e+001
4.520624e+002, 4.873320e+001
4.525445e+002, 4.910996e+001
4.530266e+002, 4.920931e+001
4.535087e+002, 4.859902e+001
4.539908e+002, 4.820032e+001
4.544730e+002, 4.828498e+001
4.549551e+002, 4.858355e+001
4.554372e+002, 4.881792e+001
4.559193e+002, 4.889382e+001
4.564014e+002, 4.885945e+001
4.568835e+002, 4.875530e+001
4.573657e+002, 4.855016e+001
4.578478e+002, 4.841759e+001
4.583299e+002, 4.841097e+001
4.588120e+002, 4.843511e+001
4.592941e+002, 4.840878e+001
4.597762e+002, 4.838213e+001
4.602584e+002, 4.850198e+001
4.607405e+002, 4.894476e+001
4.612226e+002, 4.947218e+001
4.617047e+002, 4.950910e+001
4.621868e+002, 4.893347e+001
4.626689e+002, 4.845938e+001
4.631511e+002, 4.842976e+001
4.636332e+002, 4.855512e+001
4.641153e+002, 4.854056e+001
4.645974e+002, 4.835598e+001
4.650795e+002, 4.819091e+001
4.655616e+002, 4.818657e+001
4.660438e+002, 4.827956e+001
4.665259e+002, 4.832996e+001
4.670080e+002, 4.831992e+001
4.674901e+002, 4.827800e+001
4.679722e+002, 4.822047e+001
4.684543e+002, 4.814730e+001
4.689365e+002, 4.806315e+001
4.694186e+002, 4.790284e+001
4.699007e+002, 4.779797e+001
4.703828e+002, 4.789137e+001
4.708649e+002, 4.808593e+001
4.713470e+002, 4.816687e+001
4.718292e+002, 4.805587e+001
4.723113e+002, 4.782509e+001
4.727934e+002, 4.755671e+001
4.732755e+002, 4.716705e+001
4.737576e+002, 4.702378e+001
4.742397e+002, 4.738867e+001
4.747219e+002, 4.775987e+001
4.752040e+002, 4.780739e+001
4.756861e+002, 4.759422e+001
4.761682e+002, 4.736205e+001
4.766503e+002, 4.726273e+001
4.771324e+002, 4.727036e+001
4.776146e+002, 4.728904e+001
4.780967e+002, 4.733472e+001
4.785788e+002, 4.736560e+001
4.790609e+002, 4.737357e+001
4.795430e+002, 4.737043e+001
4.800251e+002, 4.739868e+001
4.805073e+002, 4.744456e+001
4.809894e+002, 4.740968e+001
4.814715e+002, 4.713015e+001
4.819536e+002, 4.663871e+001
4.824357e+002, 4.640213e+001
4.829178e+002, 4.655748e+001
4.834000e+002, 4.673486e+001
4.838821e+002, 4.673928e+001
4.843642e+002, 4.667860e+001
4.848463e+002, 4.670634e+001
4.853284e+002, 4.688581e+001
4.858105e+002, 4.708384e+001
4.862927e+002, 4.715384e+001
4.867748e+002, 4.711909e+001
4.872569e+002, 4.712862e+001
4.877390e+002, 4.722797e+001
4.882211e+002, 4.735001e+001
4.887032e+002, 4.742094e+001
4.891854e+002, 4.744987e+001
4.896675e+002, 4.748013e+001
4.901496e+002, 4.757115e+001
4.906317e+002, 4.762527e+001
4.911138e+002, 4.751045e+001
4.915959e+002, 4.727732e+001
4.920781e+002, 4.712727e+001
4.925602e+002, 4.716736e+001
4.930423e+002, 4.731420e+001
4.935244e+002, 4.738755e+001
4.940065e+002, 4.736470e+001
4.944886e+002, 4.730523e+001
4.949708e+002, 4.713365e+001
4.954529e+002, 4.698404e+001
4.959350e+002, 4.693159e+001
4.964171e+002, 4.699333e+001
4.968992e+002, 4.720741e+001
4.973813e+002, 4.764458e+001
4.978635e+002, 4.821997e+001
4.983456e+002, 4.839685e+001
4.988277e+002, 4.785193e+001
4.993098e+002, 4.737427e+001
4.997919e+002, 4.704528e+001
5.002740e+002, 4.684863e+001
5.007562e+002, 4.680576e+001
5.012383e+002, 4.690263e+001
5.017204e+002, 4.702918e+001
5.022025e+002, 4.707203e+001
5.026846e+002, 4.704009e+001
5.031667e+002, 4.704294e+001
5.036489e+002, 4.711910e+001
5.041310e+002, 4.715995e+001
5.046131e+002, 4.705367e+001
5.050952e+002, 4.689302e+001
5.055773e+002, 4.682458e+001
5.060594e+002, 4.691621e+001
5.065416e+002, 4.701848e+001
5.070237e+002, 4.698705e+001
5.075058e+002, 4.686213e+001
5.079879e+002, 4.679857e+001
5.084700e+002, 4.685023e+001
5.089521e+002, 4.689874e+001
5.094343e+002, 4.678014e+001
5.099164e+002, 4.649669e+001
5.103985e+002, 4.635978e+001
5.108806e+002, 4.654875e+001
5.113627e+002, 4.673246e+001
5.118448e+002, 4.666979e+001
5.123270e+002, 4.646125e+001
5.128091e+002, 4.635015e+001
5.132912e+002, 4.644282e+001
5.137733e+002, 4.665247e+001
5.142554e+002, 4.682483e+001
5.147375e+002, 4.695504e+001
5.152197e+002, 4.705651e+001
5.157018e+002, 4.713100e+001
5.161839e+002, 4.717981e+001
5.166660e+002, 4.714523e+001
5.171481e+002, 4.708628e+001
5.176302e+002, 4.716072e+001
5.181124e+002, 4.749139e+001
5.185945e+002, 4.792556e+001
5.190766e+002, 4.802007e+001
5.195587e+002, 4.762719e+001
5.200408e+002, 4.737667e+001
5.205229e+002, 4.756892e+001
5.210051e+002, 4.782394e+001
5.214872e+002, 4.782011e+001
5.219693e+002, 4.760056e+001
5.224514e+002, 4.754354e+001
5.229335e+002, 4.800947e+001
5.234156e+002, 4.873539e+001
5.238978e+002, 4.925875e+001
5.243799e+002, 4.957467e+001
5.248620e+002, 4.971144e+001
5.253441e+002, 4.962754e+001
5.258262e+002, 4.940917e+001
5.263083e+002, 4.920168e+001
5.267905e+002, 4.892986e+001
5.272726e+002, 4.890087e+001
5.277547e+002, 4.937467e+001
5.282368e+002, 5.003989e+001
5.287189e+002, 5.058503e+001
5.292010e+002, 5.097110e+001
5.296832e+002, 5.127051e+001
5.301653e+002, 5.154197e+001
5.306474e+002, 5.177214e+001
5.311295e+002, 5.188165e+001
5.316116e+002, 5.164511e+001
5.320938e+002, 5.156788e+001
5.325759e+002, 5.176113e+001
5.330580e+002, 5.208488e+001
5.335401e+002, 5.251157e+001
5.340222e+002, 5.297490e+001
5.345043e+002, 5.326476e+001
5.349865e+002, 5.313491e+001
5.354686e+002, 5.262459e+001
5.359507e+002, 5.220533e+001
5.364328e+002, 5.194024e+001
5.369149e+002, 5.164448e+001
5.373970e+002, 5.119191e+001
5.378792e+002, 5.070488e+001
5.383613e+002, 5.033841e+001
5.388434e+002, 5.013366e+001
5.393255e+002, 4.991955e+001
5.398076e+002, 4.953783e+001
5.402897e+002, 4.905186e+001
5.407719e+002, 4.863836e+001
5.412540e+002, 4.833081e+001
5.417361e+002, 4.801243e+001
5.422182e+002, 4.755653e+001
5.427003e+002, 4.702214e+001
5.431824e+002, 4.667411e+001
5.436646e+002, 4.665847e+001
5.441467e+002, 4.663552e+001
5.446288e+002, 4.644878e+001
5.451109e+002, 4.620349e+001
5.455930e+002, 4.599488e+001
5.460751e+002, 4.585990e+001
5.465573e+002, 4.589549e+001
5.470394e+002, 4.624495e+001
5.475215e+002, 4.692212e+001
5.480036e+002, 4.732400e+001
5.484857e+002, 4.730806e+001
5.489678e+002, 4.716058e+001
5.494500e+002, 4.683246e+001
5.499321e+002, 4.644578e+001
5.504142e+002, 4.615297e+001
5.508963e+002, 4.598415e+001
5.513784e+002, 4.579451e+001
5.518605e+002, 4.531423e+001
5.523427e+002, 4.458541e+001
5.528248e+002, 4.427303e+001
5.533069e+002, 4.453571e+001
5.537890e+002, 4.493245e+001
5.542711e+002, 4.538956e+001
5.547532e+002, 4.577126e+001
5.552354e+002, 4.580879e+001
5.557175e+002, 4.532587e+001
5.561996e+002, 4.485540e+001
5.566817e+002, 4.478207e+001
5.571638e+002, 4.495368e+001
5.576459e+002, 4.505739e+001
5.581281e+002, 4.503479e+001
5.586102e+002, 4.501496e+001
5.590923e+002, 4.514125e+001
5.595744e+002, 4.539661e+001
5.600565e+002, 4.541479e+001
5.605386e+002, 4.487834e+001
5.610208e+002, 4.453753e+001
5.615029e+002, 4.478205e+001
5.619850e+002, 4.520336e+001
5.624671e+002, 4.531738e+001
5.629492e+002, 4.503446e+001
5.634313e+002, 4.460917e+001
5.639135e+002, 4.427923e+001
5.643956e+002, 4.404424e+001
5.648777e+002, 4.395543e+001
5.653598e+002, 4.409201e+001
5.658419e+002, 4.425427e+001
5.663240e+002, 4.440246e+001
5.668062e+002, 4.453111e+001
5.672883e+002, 4.465034e+001
5.677704e+002, 4.476322e+001
5.682525e+002, 4.479987e+001
5.687346e+002, 4.466802e+001
5.692167e+002, 4.441999e+001
5.696989e+002, 4.416887e+001
5.701810e+002, 4.390829e+001
5.706631e+002, 4.377604e+001
5.711452e+002, 4.392208e+001
5.716273e+002, 4.424616e+001
5.721094e+002, 4.439242e+001
5.725916e+002, 4.424557e+001
5.730737e+002, 4.414254e+001
5.735558e+002, 4.421579e+001
5.740379e+002, 4.435317e+001
5.745200e+002, 4.447105e+001
5.750021e+002, 4.453900e+001
5.754843e+002, 4.449357e+001
5.759664e+002, 4.426181e+001
5.764485e+002, 4.389291e+001
5.769306e+002, 4.369822e+001
5.774127e+002, 4.379351e+001
5.778948e+002, 4.388424e+001
5.783770e+002, 4.397667e+001
5.788591e+002, 4.401610e+001
5.793412e+002, 4.387974e+001
5.798233e+002, 4.361216e+001
5.803054e+002, 4.347699e+001
5.807875e+002, 4.378350e+001
5.812697e+002, 4.431489e+001
5.817518e+002, 4.448708e+001
5.822339e+002, 4.426188e+001
5.827161e+002, 4.402650e+001
5.831982e+002, 4.390804e+001
5.836803e+002, 4.388342e+001
5.841624e+002, 4.394555e+001
5.846445e+002, 4.411311e+001
5.851266e+002, 4.419788e+001
5.856088e+002, 4.407467e+001
5.860909e+002, 4.390774e+001
5.865730e+002, 4.382955e+001
5.870551e+002, 4.383765e+001
5.875372e+002, 4.390416e+001
5.880193e+002, 4.402309e+001
5.885015e+002, 4.413710e+001
5.889836e+002, 4.410092e+001
5.894657e+002, 4.376234e+001
5.899478e+002, 4.361020e+001
5.904299e+002, 4.380066e+001
5.909120e+002, 4.400429e+001
5.913942e+002, 4.408863e+001
5.918763e+002, 4.405870e+001
5.923584e+002, 4.393135e+001
5.928405e+002, 4.368964e+001
5.933226e+002, 4.344952e+001
5.938047e+002, 4.339728e+001
5.942869e+002, 4.352976e+001
5.947690e+002, 4.370813e+001
5.952511e+002, 4.396726e+001
5.957332e+002, 4.416134e+001
5.962153e+002, 4.408720e+001
5.966974e+002, 4.382805e+001
5.971796e+002, 4.366829e+001
5.976617e+002, 4.373999e+001
5.981438e+002, 4.382152e+001
5.986259e+002, 4.375500e+001
5.991080e+002, 4.362728e+001
5.995901e+002, 4.360774e+001
6.000723e+002, 4.373366e+001
6.005544e+002, 4.388840e+001
6.010365e+002, 4.395461e+001
6.015186e+002, 4.393204e+001
6.020007e+002, 4.384330e+001
6.024828e+002, 4.359088e+001
6.029650e+002, 4.339156e+001
6.034471e+002, 4.327880e+001
6.039292e+002, 4.323816e+001
6.044113e+002, 4.327876e+001
6.048934e+002, 4.339019e+001
6.053755e+002, 4.349757e+001
6.058577e+002, 4.352224e+001
6.063398e+002, 4.348923e+001
6.068219e+002, 4.350446e+001
6.073040e+002, 4.358363e+001
6.077861e+002, 4.361589e+001
6.082682e+002, 4.351156e+001
6.087504e+002, 4.335982e+001
6.092325e+002, 4.332961e+001
6.097146e+002, 4.345135e+001
6.101967e+002, 4.352098e+001
6.106788e+002, 4.345131e+001
6.111609e+002, 4.333229e+001
6.116431e+002, 4.318078e+001
6.121252e+002, 4.304510e+001
6.126073e+002, 4.308733e+001
6.130894e+002, 4.340606e+001
6.135715e+002, 4.383567e+001
6.140536e+002, 4.400510e+001
6.145358e+002, 4.380119e+001
6.150179e+002, 4.361430e+001
6.155000e+002, 4.329707e+001
6.159821e+002, 4.314794e+001
6.164642e+002, 4.342002e+001
6.169464e+002, 4.393084e+001
6.174285e+002, 4.434595e+001
6.179106e+002, 4.454412e+001
6.183927e+002, 4.457965e+001
6.188748e+002, 4.445494e+001
6.193569e+002, 4.420445e+001
6.198391e+002, 4.401097e+001
6.203212e+002, 4.390728e+001
6.208033e+002, 4.384655e+001
6.212854e+002, 4.379140e+001
6.217675e+002, 4.374940e+001
6.222496e+002, 4.375602e+001
6.227318e+002, 4.391301e+001
6.232139e+002, 4.398436e+001
6.236960e+002, 4.379063e+001
6.241781e+002, 4.354623e+001
6.246602e+002, 4.350376e+001
6.251423e+002, 4.367089e+001
6.256245e+002, 4.387685e+001
6.261066e+002, 4.399242e+001
6.265887e+002, 4.402657e+001
6.270708e+002, 4.400969e+001
6.275529e+002, 4.389909e+001
6.280350e+002, 4.384154e+001
6.285172e+002, 4.386544e+001
6.289993e+002, 4.395629e+001
6.294814e+002, 4.414339e+001
6.299635e+002, 4.440385e+001
6.304456e+002, 4.463443e+001
6.309277e+002, 4.484112e+001
6.314099e+002, 4.495341e+001
6.318920e+002, 4.481761e+001
6.323741e+002, 4.450279e+001
6.328562e+002, 4.431440e+001
6.333383e+002, 4.436390e+001
6.338204e+002, 4.445699e+001
6.343026e+002, 4.434541e+001
6.347847e+002, 4.399261e+001
6.352668e+002, 4.378160e+001
6.357489e+002, 4.379060e+001
6.362310e+002, 4.382455e+001
6.367131e+002, 4.380937e+001
6.371953e+002, 4.379816e+001
6.376774e+002, 4.390837e+001
6.381595e+002, 4.413589e+001
6.386416e+002, 4.427795e+001
6.391237e+002, 4.404615e+001
6.396058e+002, 4.355389e+001
6.400880e+002, 4.344127e+001
6.405701e+002, 4.382483e+001
6.410522e+002, 4.411520e+001
6.415343e+002, 4.398988e+001
6.420164e+002, 4.373030e+001
6.424985e+002, 4.375782e+001
6.429807e+002, 4.410059e+001
6.434628e+002, 4.431371e+001
6.439449e+002, 4.410258e+001
6.444270e+002, 4.385986e+001
6.449091e+002, 4.399622e+001
6.453912e+002, 4.436687e+001
6.458734e+002, 4.451888e+001
6.463555e+002, 4.426776e+001
6.468376e+002, 4.389366e+001
6.473197e+002, 4.384623e+001
6.478018e+002, 4.420112e+001
6.482839e+002, 4.445244e+001
6.487661e+002, 4.454688e+001
6.492482e+002, 4.459801e+001
6.497303e+002, 4.461621e+001
6.502124e+002, 4.462290e+001
6.506945e+002, 4.466839e+001
6.511766e+002, 4.476563e+001
6.516588e+002, 4.478648e+001
6.521409e+002, 4.453273e+001
6.526230e+002, 4.416399e+001
6.531051e+002, 4.404528e+001
6.535872e+002, 4.418999e+001
6.540693e+002, 4.431255e+001
6.545515e+002, 4.425056e+001
6.550336e+002, 4.410224e+001
6.555157e+002, 4.407855e+001
6.559978e+002, 4.426487e+001
6.564799e+002, 4.437745e+001
6.569620e+002, 4.430970e+001
6.574442e+002, 4.427172e+001
6.579263e+002, 4.441442e+001
6.584084e+002, 4.465774e+001
6.588905e+002, 4.488152e+001
6.593726e+002, 4.503506e+001
6.598547e+002, 4.506096e+001
6.603369e+002, 4.478260e+001
6.608190e+002, 4.423614e+001
6.613011e+002, 4.397853e+001
6.617832e+002, 4.411743e+001
6.622653e+002, 4.432557e+001
6.627474e+002, 4.443684e+001
6.632296e+002, 4.449620e+001
6.637117e+002, 4.458865e+001
6.641938e+002, 4.471635e+001
6.646759e+002, 4.487605e+001
6.651580e+002, 4.526682e+001
6.656401e+002, 4.553859e+001
6.661223e+002, 4.513856e+001
6.666044e+002, 4.430492e+001
6.670865e+002, 4.389178e+001
6.675686e+002, 4.435563e+001
6.680507e+002, 4.520399e+001
6.685328e+002, 4.544873e+001
6.690150e+002, 4.488395e+001
6.694971e+002, 4.461378e+001
6.699792e+002, 4.490975e+001
6.704613e+002, 4.518109e+001
6.709434e+002, 4.513245e+001
6.714255e+002, 4.491402e+001
6.719077e+002, 4.474859e+001
6.723898e+002, 4.468641e+001
6.728719e+002, 4.465881e+001
6.733540e+002, 4.463556e+001
6.738361e+002, 4.461340e+001
6.743182e+002, 4.459543e+001
6.748004e+002, 4.457791e+001
6.752825e+002, 4.451406e+001
6.757646e+002, 4.435766e+001
6.762467e+002, 4.420173e+001
6.767288e+002, 4.428834e+001
6.772109e+002, 4.487645e+001
6.776931e+002, 4.509497e+001
6.781752e+002, 4.449323e+001
6.786573e+002, 4.402680e+001
6.791394e+002, 4.428345e+001
6.796215e+002, 4.489614e+001
6.801036e+002, 4.521688e+001
6.805858e+002, 4.501318e+001
6.810679e+002, 4.471289e+001
6.815500e+002, 4.474519e+001
6.820321e+002, 4.500206e+001
6.825142e+002, 4.517746e+001
6.829963e+002, 4.524291e+001
6.834785e+002, 4.530494e+001
6.839606e+002, 4.546499e+001
6.844427e+002, 4.560858e+001
6.849248e+002, 4.543629e+001
6.854069e+002, 4.469030e+001
6.858890e+002, 4.424119e+001
6.863712e+002, 4.436279e+001
6.868533e+002, 4.453273e+001
6.873354e+002, 4.443617e+001
6.878175e+002, 4.419439e+001
6.882996e+002, 4.405283e+001
6.887817e+002, 4.410397e+001
6.892639e+002, 4.426018e+001
6.897460e+002, 4.445802e+001
6.902281e+002, 4.468243e+001
6.907102e+002, 4.478802e+001
6.911923e+002, 4.472792e+001
6.916744e+002, 4.475202e+001
6.921566e+002, 4.507721e+001
6.926387e+002, 4.549656e+001
6.931208e+002, 4.557305e+001
6.936029e+002, 4.523449e+001
6.940850e+002, 4.493323e+001
6.945671e+002, 4.474385e+001
6.950493e+002, 4.461142e+001
6.955314e+002, 4.447030e+001
6.960135e+002, 4.436637e+001
6.964956e+002, 4.442115e+001
6.969777e+002, 4.466966e+001
6.974598e+002, 4.496362e+001
6.979420e+002, 4.514664e+001
6.984241e+002, 4.521598e+001
6.989062e+002, 4.505655e+001
6.993883e+002, 4.454333e+001
6.998704e+002, 4.415665e+001
7.003525e+002, 4.419602e+001
7.008347e+002, 4.440753e+001
7.013168e+002, 4.441540e+001
7.017989e+002, 4.419179e+001
7.022810e+002, 4.408845e+001
7.027631e+002, 4.426502e+001
7.032452e+002, 4.453257e+001
7.037274e+002, 4.486129e+001
7.042095e+002, 4.515585e+001
7.046916e+002, 4.519891e+001
7.051737e+002, 4.493817e+001
7.056558e+002, 4.460622e+001
7.061379e+002, 4.446081e+001
7.066201e+002, 4.449769e+001
7.071022e+002, 4.467013e+001
7.075843e+002, 4.508877e+001
7.080664e+002, 4.538074e+001
7.085485e+002, 4.532110e+001
7.090306e+002, 4.516087e+001
7.095128e+002, 4.513171e+001
7.099949e+002, 4.523066e+001
7.104770e+002, 4.532024e+001
7.109591e+002, 4.538021e+001
7.114412e+002, 4.539347e+001
7.119233e+002, 4.531551e+001
7.124055e+002, 4.519045e+001
7.128876e+002, 4.509337e+001
7.133697e+002, 4.504640e+001
7.138518e+002, 4.504632e+001
7.143339e+002, 4.509325e+001
7.148160e+002, 4.518367e+001
7.152982e+002, 4.527691e+001
7.157803e+002, 4.531677e+001
7.162624e+002, 4.549898e+001
7.167445e+002, 4.619276e+001
7.172266e+002, 4.675080e+001
7.177087e+002, 4.658630e+001
7.181909e+002, 4.586336e+001
7.186730e+002, 4.529600e+001
7.191551e+002, 4.510686e+001
7.196372e+002, 4.513108e+001
7.201193e+002, 4.542274e+001
7.206014e+002, 4.579202e+001
7.210836e+002, 4.585427e+001
7.215657e+002, 4.558645e+001
7.220478e+002, 4.535309e+001
7.225299e+002, 4.544695e+001
7.230120e+002, 4.574445e+001
7.234941e+002, 4.577185e+001
7.239763e+002, 4.537600e+001
7.244584e+002, 4.513820e+001
7.249405e+002, 4.521203e+001
7.254226e+002, 4.535551e+001
7.259047e+002, 4.546410e+001
7.263868e+002, 4.554209e+001
7.268690e+002, 4.560885e+001
7.273511e+002, 4.567773e+001
7.278332e+002, 4.571017e+001
7.283153e+002, 4.564899e+001
7.287974e+002, 4.555668e+001
7.292795e+002, 4.548870e+001
7.297617e+002, 4.546627e+001
7.302438e+002, 4.555719e+001
7.307259e+002, 4.580743e+001
7.312080e+002, 4.612769e+001
7.316901e+002, 4.636098e+001
7.321722e+002, 4.653432e+001
7.326544e+002, 4.648119e+001
7.331365e+002, 4.590837e+001
7.336186e+002, 4.551684e+001
7.341007e+002, 4.576851e+001
7.345828e+002, 4.626426e+001
7.350649e+002, 4.647632e+001
7.355471e+002, 4.631161e+001
7.360292e+002, 4.617482e+001
7.365113e+002, 4.632870e+001
7.369934e+002, 4.653948e+001
7.374755e+002, 4.656947e+001
7.379576e+002, 4.645789e+001
7.384398e+002, 4.632314e+001
7.389219e+002, 4.621006e+001
7.394040e+002, 4.616004e+001
7.398861e+002, 4.624337e+001
7.403682e+002, 4.645652e+001
7.408503e+002, 4.657196e+001
7.413325e+002, 4.656659e+001
7.418146e+002, 4.650994e+001
7.422967e+002, 4.635929e+001
7.427788e+002, 4.621125e+001
7.432609e+002, 4.611688e+001
7.437430e+002, 4.608776e+001
7.442252e+002, 4.618684e+001
7.447073e+002, 4.662137e+001
7.451894e+002, 4.699130e+001
7.456715e+002, 4.697158e+001
7.461536e+002, 4.674384e+001
7.466357e+002, 4.658071e+001
7.471179e+002, 4.653267e+001
7.476000e+002, 4.653598e+001
7.480821e+002, 4.655813e+001
7.485642e+002, 4.655602e+001
7.490463e+002, 4.631738e+001
7.495284e+002, 4.571180e+001
7.500106e+002, 4.549443e+001
7.504927e+002, 4.604436e+001
7.509748e+002, 4.661647e+001
7.514569e+002, 4.662544e+001
7.519390e+002, 4.629873e+001
7.524211e+002, 4.610732e+001
7.529033e+002, 4.610966e+001
7.533854e+002, 4.622816e+001
7.538675e+002, 4.653733e+001
7.543496e+002, 4.687014e+001
7.548317e+002, 4.709668e+001
7.553138e+002, 4.720580e+001
7.557960e+002, 4.717296e+001
7.562781e+002, 4.698669e+001
7.567602e+002, 4.681350e+001
7.572423e+002, 4.697408e+001
7.577244e+002, 4.745004e+001
7.582065e+002, 4.761461e+001
7.586887e+002, 4.737322e+001
7.591708e+002, 4.710326e+001
7.596529e+002, 4.690598e+001
7.601350e+002, 4.681523e+001
7.606171e+002, 4.694467e+001
7.610992e+002, 4.732003e+001
7.615814e+002, 4.753160e+001
7.620635e+002, 4.736951e+001
7.625456e+002, 4.721467e+001
7.630277e+002, 4.726342e+001
7.635098e+002, 4.741079e+001
7.639919e+002, 4.749669e+001
7.644741e+002, 4.750814e+001
7.649562e+002, 4.758218e+001
7.654383e+002, 4.787153e+001
7.659204e+002, 4.823376e+001
7.664025e+002, 4.832357e+001
7.668846e+002, 4.814900e+001
7.673668e+002, 4.795133e+001
7.678489e+002, 4.777144e+001
7.683310e+002, 4.760757e+001
7.688131e+002, 4.744690e+001
7.692952e+002, 4.730042e+001
7.697773e+002, 4.723180e+001
7.702595e+002, 4.723970e+001
7.707416e+002, 4.732249e+001
7.712237e+002, 4.757502e+001
7.717058e+002, 4.781366e+001
7.721879e+002, 4.792372e+001
7.726700e+002, 4.792797e+001
7.731522e+002, 4.786461e+001
7.736343e+002, 4.773788e+001
7.741164e+002, 4.767052e+001
7.745985e+002, 4.783140e+001
7.750806e+002, 4.812326e+001
7.755627e+002, 4.835688e+001
7.760449e+002, 4.851563e+001
7.765270e+002, 4.851885e+001
7.770091e+002, 4.829959e+001
7.774912e+002, 4.806644e+001
7.779733e+002, 4.817155e+001
7.784554e+002, 4.869536e+001
7.789376e+002, 4.889240e+001
7.794197e+002, 4.839061e+001
7.799019e+002, 4.807066e+001
7.803840e+002, 4.831133e+001
7.808661e+002, 4.865798e+001
7.813482e+002, 4.864601e+001
7.818303e+002, 4.831805e+001
7.823124e+002, 4.813494e+001
7.827946e+002, 4.840137e+001
7.832767e+002, 4.874187e+001
7.837588e+002, 4.884907e+001
7.842409e+002, 4.881803e+001
7.847230e+002, 4.882777e+001
7.852051e+002, 4.889569e+001
7.856873e+002, 4.891035e+001
7.861694e+002, 4.878717e+001
7.866515e+002, 4.858728e+001
7.871336e+002, 4.846201e+001
7.876157e+002, 4.841651e+001
7.880978e+002, 4.843356e+001
7.885800e+002, 4.858041e+001
7.890621e+002, 4.867342e+001
7.895442e+002, 4.852995e+001
7.900263e+002, 4.830706e+001
7.905084e+002, 4.826671e+001
7.909905e+002, 4.845578e+001
7.914727e+002, 4.864140e+001
7.919548e+002, 4.881496e+001
7.924369e+002, 4.891854e+001
7.929190e+002, 4.883439e+001
7.934011e+002, 4.868585e+001
7.938832e+002, 4.866768e+001
7.943654e+002, 4.882654e+001
7.948475e+002, 4.908874e+001
7.953296e+002, 4.944989e+001
7.958117e+002, 4.981757e+001
7.962938e+002, 4.991257e+001
7.967759e+002, 4.973863e+001
7.972581e+002, 4.951892e+001
7.977402e+002, 4.927707e+001
7.982223e+002, 4.911242e+001
7.987044e+002, 4.912994e+001
7.991865e+002, 4.929966e+001
7.996686e+002, 4.944345e+001
8.001508e+002, 4.957534e+001
8.006329e+002, 4.965952e+001
8.011150e+002, 4.969236e+001
8.015971e+002, 4.968112e+001
8.020792e+002, 4.957029e+001
8.025613e+002, 4.943702e+001
8.030435e+002, 4.945382e+001
8.035256e+002, 4.968848e+001
8.040077e+002, 4.984765e+001
8.044898e+002, 4.954958e+001
8.049719e+002, 4.914468e+001
8.054540e+002, 4.921254e+001
8.059362e+002, 4.965747e+001
8.064183e+002, 5.000831e+001
8.069004e+002, 5.009837e+001
8.073825e+002, 5.006066e+001
8.078646e+002, 5.003269e+001
8.083467e+002, 5.001857e+001
8.088289e+002, 5.009095e+001
8.093110e+002, 5.032585e+001
8.097931e+002, 5.043101e+001
8.102752e+002, 5.019012e+001
8.107573e+002, 4.996891e+001
8.112394e+002, 5.016609e+001
8.117216e+002, 5.062630e+001
8.122037e+002, 5.082326e+001
8.126858e+002, 5.053703e+001
8.131679e+002, 5.026253e+001
8.136500e+002, 5.019111e+001
8.141321e+002, 5.017716e+001
8.146143e+002, 5.008413e+001
8.150964e+002, 4.994269e+001
8.155785e+002, 4.984382e+001
8.160606e+002, 4.982511e+001
8.165427e+002, 4.987895e+001
8.170248e+002, 5.004089e+001
8.175070e+002, 5.026607e+001
8.179891e+002, 5.040958e+001
8.184712e+002, 5.046891e+001
8.189533e+002, 5.039852e+001
8.194354e+002, 5.014471e+001
8.199175e+002, 4.990102e+001
8.203997e+002, 4.990940e+001
8.208818e+002, 5.016447e+001
8.213639e+002, 5.033821e+001
8.218460e+002, 5.028420e+001
8.223281e+002, 5.037001e+001
8.228102e+002, 5.084998e+001
8.232924e+002, 5.127949e+001
8.237745e+002, 5.130867e+001
8.242566e+002, 5.105795e+001
8.247387e+002, 5.087399e+001
8.252208e+002, 5.088705e+001
8.257029e+002, 5.087223e+001
8.261851e+002, 5.066892e+001
8.266672e+002, 5.038172e+001
8.271493e+002, 5.006541e+001
8.276314e+002, 4.977534e+001
8.281135e+002, 4.966175e+001
8.285956e+002, 4.977671e+001
8.290778e+002, 4.998048e+001
8.295599e+002, 5.011681e+001
8.300420e+002, 5.019044e+001
8.305241e+002, 5.021603e+001
8.310062e+002, 5.017666e+001
8.314883e+002, 5.021742e+001
8.319705e+002, 5.043823e+001
8.324526e+002, 5.061871e+001
8.329347e+002, 5.044269e+001
8.334168e+002, 4.998796e+001
8.338989e+002, 5.001055e+001
8.343810e+002, 5.112489e+001
8.348632e+002, 5.177814e+001
8.353453e+002, 5.144783e+001
8.358274e+002, 5.099054e+001
8.363095e+002, 5.096130e+001
8.367916e+002, 5.119939e+001
8.372737e+002, 5.130781e+001
8.377559e+002, 5.116185e+001
8.382380e+002, 5.102364e+001
8.387201e+002, 5.118024e+001
8.392022e+002, 5.139289e+001
8.396843e+002, 5.128305e+001
8.401664e+002, 5.094160e+001
8.406486e+002, 5.067025e+001
8.411307e+002, 5.056424e+001
8.416128e+002, 5.058398e+001
8.420949e+002, 5.070735e+001
8.425770e+002, 5.090621e+001
8.430591e+002, 5.105217e+001
8.435413e+002, 5.114012e+001
8.440234e+002, 5.119673e+001
8.445055e+002, 5.121134e+001
8.449876e+002, 5.122701e+001
8.454697e+002, 5.132920e+001
8.459518e+002, 5.144104e+001
8.464340e+002, 5.132222e+001
8.469161e+002, 5.084198e+001
8.473982e+002, 5.049302e+001
8.478803e+002, 5.036682e+001
8.483624e+002, 5.033981e+001
8.488445e+002, 5.045333e+001
8.493267e+002, 5.057544e+001
8.498088e+002, 5.047156e+001
8.502909e+002, 5.014125e+001
8.507730e+002, 4.993457e+001
8.512551e+002, 5.017007e+001
8.517372e+002, 5.055142e+001
8.522194e+002, 5.080358e+001
8.527015e+002, 5.090629e+001
8.531836e+002, 5.072842e+001
8.536657e+002, 5.028658e+001
8.541478e+002, 4.992010e+001
8.546299e+002, 4.986771e+001
8.551121e+002, 4.998081e+001
8.555942e+002, 4.987757e+001
8.560763e+002, 4.950035e+001
8.565584e+002, 4.943352e+001
8.570405e+002, 4.984266e+001
8.575226e+002, 5.016434e+001
8.580048e+002, 5.007217e+001
8.584869e+002, 4.984055e+001
8.589690e+002, 4.993366e+001
8.594511e+002, 5.038831e+001
8.599332e+002, 5.051952e+001
8.604153e+002, 4.996141e+001
8.608975e+002, 4.951692e+001
8.613796e+002, 4.948646e+001
8.618617e+002, 4.959522e+001
8.623438e+002, 4.962127e+001
8.628259e+002, 4.956486e+001
8.633080e+002, 4.952531e+001
8.637902e+002, 4.955708e+001
8.642723e+002, 4.955731e+001
8.647544e+002, 4.936374e+001
8.652365e+002, 4.912590e+001
8.657186e+002, 4.914664e+001
8.662007e+002, 4.935312e+001
8.666829e+002, 4.938148e+001
8.671650e+002, 4.910026e+001
8.676471e+002, 4.874575e+001
8.681292e+002, 4.859753e+001
8.686113e+002, 4.862299e+001
8.690934e+002, 4.862983e+001
8.695756e+002, 4.861322e+001
8.700577e+002, 4.863055e+001
8.705398e+002, 4.874504e+001
8.710219e+002, 4.876962e+001
8.715040e+002, 4.851382e+001
8.719861e+002, 4.806239e+001
8.724683e+002, 4.771955e+001
8.729504e+002, 4.746918e+001
8.734325e+002, 4.736742e+001
8.739146e+002, 4.762529e+001
8.743967e+002, 4.779518e+001
8.748788e+002, 4.753337e+001
8.753610e+002, 4.715780e+001
8.758431e+002, 4.716573e+001
8.763252e+002, 4.758512e+001
8.768073e+002, 4.781826e+001
8.772894e+002, 4.734905e+001
8.777715e+002, 4.683082e+001
8.782537e+002, 4.683462e+001
8.787358e+002, 4.708354e+001
8.792179e+002, 4.718584e+001
8.797000e+002, 4.709460e+001
8.801821e+002, 4.689743e+001
8.806642e+002, 4.663182e+001
8.811464e+002, 4.640861e+001
8.816285e+002, 4.646159e+001
8.821106e+002, 4.672353e+001
8.825927e+002, 4.680309e+001
8.830748e+002, 4.667944e+001
8.835569e+002, 4.649599e+001
8.840391e+002, 4.628688e+001
8.845212e+002, 4.612264e+001
8.850033e+002, 4.612429e+001
8.854854e+002, 4.627058e+001
8.859675e+002, 4.611257e+001
8.864496e+002, 4.539225e+001
8.869318e+002, 4.488231e+001
8.874139e+002, 4.481767e+001
8.878960e+002, 4.484254e+001
8.883781e+002, 4.472511e+001
8.888602e+002, 4.456352e+001
8.893423e+002, 4.458707e+001
8.898245e+002, 4.488881e+001
8.903066e+002, 4.506800e+001
8.907887e+002, 4.496767e+001
8.912708e+002, 4.476550e+001
8.917529e+002, 4.446774e+001
8.922350e+002, 4.418635e+001
8.927172e+002, 4.407959e+001
8.931993e+002, 4.415103e+001
8.936814e+002, 4.428049e+001
8.941635e+002, 4.445691e+001
8.946456e+002, 4.453054e+001
8.951277e+002, 4.415912e+001
8.956099e+002, 4.359216e+001
8.960920e+002, 4.349903e+001
8.965741e+002, 4.385488e+001
8.970562e+002, 4.403605e+001
8.975383e+002, 4.373944e+001
8.980204e+002, 4.323955e+001
8.985026e+002, 4.289748e+001
8.989847e+002, 4.271405e+001
8.994668e+002, 4.276294e+001
8.999489e+002, 4.311976e+001
9.004310e+002, 4.327879e+001
9.009131e+002, 4.308437e+001
9.013953e+002, 4.271059e+001
9.018774e+002, 4.222711e+001
9.023595e+002, 4.169768e+001
9.028416e+002, 4.142334e+001
9.033237e+002, 4.149195e+001
9.038058e+002, 4.166125e+001
9.042880e+002, 4.217811e+001
9.047701e+002, 4.250881e+001
9.052522e+002, 4.227154e+001
9.057343e+002, 4.182748e+001
9.062164e+002, 4.163068e+001
9.066985e+002, 4.171774e+001
9.071807e+002, 4.181382e+001
9.076628e+002, 4.183981e+001
9.081449e+002, 4.182806e+001
9.086270e+002, 4.177940e+001
9.091091e+002, 4.171390e+001
9.095912e+002, 4.163381e+001
9.100734e+002, 4.155822e+001
9.105555e+002, 4.155274e+001
9.110376e+002, 4.165078e+001
9.115197e+002, 4.171563e+001
9.120018e+002, 4.155322e+001
9.124839e+002, 4.127425e+001
9.129661e+002, 4.108295e+001
9.134482e+002, 4.098739e+001
9.139303e+002, 4.101955e+001
9.144124e+002, 4.118336e+001
9.148945e+002, 4.136069e+001
9.153766e+002, 4.146698e+001
9.158588e+002, 4.146646e+001
9.163409e+002, 4.117732e+001
9.168230e+002, 4.054396e+001
9.173051e+002, 4.017181e+001
9.177872e+002, 4.016087e+001
9.182693e+002, 4.026057e+001
9.187515e+002, 4.039134e+001
9.192336e+002, 4.051323e+001
9.197157e+002, 4.056103e+001
9.201978e+002, 4.052861e+001
9.206799e+002, 4.048334e+001
9.211620e+002, 4.044716e+001
9.216442e+002, 4.036635e+001
9.221263e+002, 4.019603e+001
9.226084e+002, 4.001424e+001
9.230905e+002, 3.985086e+001
9.235726e+002, 3.972084e+001
9.240547e+002, 3.965482e+001
9.245369e+002, 3.966945e+001
9.250190e+002, 3.970525e+001
9.255011e+002, 3.973133e+001
9.259832e+002, 3.978247e+001
9.264653e+002, 3.992725e+001
9.269474e+002, 4.008900e+001
9.274296e+002, 4.013353e+001
9.279117e+002, 4.006699e+001
9.283938e+002, 4.003819e+001
9.288759e+002, 4.014754e+001
9.293580e+002, 4.029601e+001
9.298401e+002, 4.045110e+001
9.303223e+002, 4.053385e+001
9.308044e+002, 4.030083e+001
9.312865e+002, 3.982908e+001
9.317686e+002, 3.951654e+001
9.322507e+002, 3.952049e+001
9.327328e+002, 3.960914e+001
9.332150e+002, 3.948749e+001
9.336971e+002, 3.925167e+001
9.341792e+002, 3.934746e+001
9.346613e+002, 3.977343e+001
9.351434e+002, 3.995896e+001
9.356255e+002, 3.977149e+001
9.361077e+002, 3.952582e+001
9.365898e+002, 3.942297e+001
9.370719e+002, 3.940382e+001
9.375540e+002, 3.933538e+001
9.380361e+002, 3.920847e+001
9.385182e+002, 3.908450e+001
9.390004e+002, 3.896635e+001
9.394825e+002, 3.884047e+001
9.399646e+002, 3.861549e+001
9.404467e+002, 3.846745e+001
9.409288e+002, 3.867034e+001
9.414109e+002, 3.911162e+001
9.418931e+002, 3.927407e+001
9.423752e+002, 3.890337e+001
9.428573e+002, 3.869210e+001
9.433394e+002, 3.886626e+001
9.438215e+002, 3.905802e+001
9.443036e+002, 3.909647e+001
9.447858e+002, 3.903234e+001
9.452679e+002, 3.891349e+001
9.457500e+002, 3.876134e+001
9.462321e+002, 3.866484e+001
9.467142e+002, 3.870354e+001
9.471964e+002, 3.875411e+001
9.476785e+002, 3.871196e+001
9.481606e+002, 3.866450e+001
9.486427e+002, 3.873048e+001
9.491248e+002, 3.887610e+001
9.496069e+002, 3.899104e+001
9.500891e+002, 3.903474e+001
9.505712e+002, 3.905452e+001
9.510533e+002, 3.911541e+001
9.515354e+002, 3.916570e+001
9.520175e+002, 3.909145e+001
9.524996e+002, 3.893833e+001
9.529818e+002, 3.883616e+001
9.534639e+002, 3.880590e+001
9.539460e+002, 3.879855e+001
9.544281e+002, 3.878157e+001
9.549102e+002, 3.878571e+001
9.553923e+002, 3.891132e+001
9.558745e+002, 3.912989e+001
9.563566e+002, 3.913139e+001
9.568387e+002, 3.890122e+001
9.573208e+002, 3.867354e+001
9.578029e+002, 3.850038e+001
9.582850e+002, 3.845783e+001
9.587672e+002, 3.865128e+001
9.592493e+002, 3.899833e+001
9.597314e+002, 3.914728e+001
9.602135e+002, 3.901199e+001
9.606956e+002, 3.901359e+001
9.611777e+002, 3.929925e+001
9.616599e+002, 3.944720e+001
9.621420e+002, 3.924982e+001
9.626241e+002, 3.885756e+001
9.631062e+002, 3.836689e+001
9.635883e+002, 3.778029e+001
9.640704e+002, 3.753025e+001
9.645526e+002, 3.795398e+001
9.650347e+002, 3.819897e+001
9.655168e+002, 3.801768e+001
9.659989e+002, 3.782540e+001
9.664810e+002, 3.790713e+001
9.669631e+002, 3.809566e+001
9.674453e+002, 3.806678e+001
9.679274e+002, 3.777161e+001
9.684095e+002, 3.766872e+001
9.688916e+002, 3.815636e+001
9.693737e+002, 3.852738e+001
9.698558e+002, 3.839527e+001
9.703380e+002, 3.806567e+001
9.708201e+002, 3.773233e+001
9.713022e+002, 3.747767e+001
9.717843e+002, 3.743243e+001
9.722664e+002, 3.765302e+001
9.727485e+002, 3.786939e+001
9.732307e+002, 3.784517e+001
9.737128e+002, 3.778274e+001
9.741949e+002, 3.797266e+001
9.746770e+002, 3.822550e+001
9.751591e+002, 3.814948e+001
9.756412e+002, 3.776405e+001
9.761234e+002, 3.743796e+001
9.766055e+002, 3.736872e+001
9.770876e+002, 3.746463e+001
9.775698e+002, 3.769342e+001
9.780519e+002, 3.797380e+001
9.785340e+002, 3.810925e+001
9.790161e+002, 3.812691e+001
9.794982e+002, 3.818106e+001
9.799803e+002, 3.830754e+001
9.804625e+002, 3.840373e+001
9.809446e+002, 3.837487e+001
9.814267e+002, 3.830814e+001
9.819088e+002, 3.849347e+001
9.823909e+002, 3.886929e+001
9.828730e+002, 3.872496e+001
9.833552e+002, 3.800311e+001
9.838373e+002, 3.747691e+001
9.843194e+002, 3.744314e+001
9.848015e+002, 3.761987e+001
9.852836e+002, 3.772330e+001
9.857657e+002, 3.777126e+001
9.862479e+002, 3.787476e+001
9.867300e+002, 3.807505e+001
9.872121e+002, 3.808751e+001
9.876942e+002, 3.780981e+001
9.881763e+002, 3.757936e+001
9.886584e+002, 3.755900e+001
9.891406e+002, 3.765662e+001
9.896227e+002, 3.777175e+001
9.901048e+002, 3.790403e+001
9.905869e+002, 3.792644e+001
9.910690e+002, 3.772258e+001
9.915511e+002, 3.764014e+001
9.920333e+002, 3.785089e+001
9.925154e+002, 3.801858e+001
9.929975e+002, 3.790082e+001
9.934796e+002, 3.766095e+001
9.939617e+002, 3.755510e+001
9.944438e+002, 3.759551e+001
9.949260e+002, 3.764482e+001
9.954081e+002, 3.775221e+001
9.958902e+002, 3.778703e+001
9.963723e+002, 3.761582e+001
9.968544e+002, 3.746636e+001
9.973365e+002, 3.754137e+001
9.978187e+002, 3.773481e+001
9.983008e+002, 3.783105e+001
9.987829e+002, 3.779155e+001
9.992650e+002, 3.772343e+001
9.997471e+002, 3.761320e+001
1.000229e+003, 3.753737e+001
1.000711e+003, 3.754117e+001
1.001193e+003, 3.758760e+001
1.001676e+003, 3.770808e+001
1.002158e+003, 3.782864e+001
1.002640e+003, 3.773368e+001
1.003122e+003, 3.732815e+001
1.003604e+003, 3.704967e+001
1.004086e+003, 3.723435e+001
1.004568e+003, 3.755027e+001
1.005050e+003, 3.785394e+001
1.005533e+003, 3.804741e+001
1.006015e+003, 3.787132e+001
1.006497e+003, 3.745876e+001
1.006979e+003, 3.735589e+001
1.007461e+003, 3.783684e+001
1.007943e+003, 3.833133e+001
1.008425e+003, 3.826523e+001
1.008907e+003, 3.798204e+001
1.009389e+003, 3.793095e+001
1.009872e+003, 3.801138e+001
1.010354e+003, 3.793496e+001
1.010836e+003, 3.770250e+001
1.011318e+003, 3.759782e+001
1.011800e+003, 3.779350e+001
1.012282e+003, 3.811053e+001
1.012764e+003, 3.843594e+001
1.013246e+003, 3.867276e+001
1.013729e+003, 3.851573e+001
1.014211e+003, 3.807355e+001
1.014693e+003, 3.774820e+001
1.015175e+003, 3.763795e+001
1.015657e+003, 3.770319e+001
1.016139e+003, 3.794668e+001
1.016621e+003, 3.816701e+001
1.017103e+003, 3.786577e+001
1.017585e+003, 3.723167e+001
1.018068e+003, 3.721394e+001
1.018550e+003, 3.777020e+001
1.019032e+003, 3.818435e+001
1.019514e+003, 3.825224e+001
1.019996e+003, 3.814732e+001
1.020478e+003, 3.799394e+001
1.020960e+003, 3.781673e+001
1.021442e+003, 3.768044e+001
1.021924e+003, 3.758280e+001
1.022407e+003, 3.742128e+001
1.022889e+003, 3.718267e+001
1.023371e+003, 3.707711e+001
1.023853e+003, 3.718191e+001
1.024335e+003, 3.736514e+001
1.024817e+003, 3.752015e+001
1.025299e+003, 3.764378e+001
1.025781e+003, 3.772626e+001
1.026264e+003, 3.776744e+001
1.026746e+003, 3.776136e+001
1.027228e+003, 3.769323e+001
1.027710e+003, 3.764547e+001
1.028192e+003, 3.764866e+001
1.028674e+003, 3.767625e+001
1.029156e+003, 3.771367e+001
1.029638e+003, 3.774716e+001
1.030120e+003, 3.770578e+001
1.030603e+003, 3.753848e+001
1.031085e+003, 3.749179e+001
1.031567e+003, 3.760011e+001
1.032049e+003, 3.776636e+001
1.032531e+003, 3.801949e+001
1.033013e+003, 3.821589e+001
1.033495e+003, 3.817735e+001
1.033977e+003, 3.796216e+001
1.034459e+003, 3.787832e+001
1.034942e+003, 3.807370e+001
1.035424e+003, 3.803188e+001
1.035906e+003, 3.751330e+001
1.036388e+003, 3.716503e+001
1.036870e+003, 3.728709e+001
1.037352e+003, 3.758968e+001
1.037834e+003, 3.782659e+001
1.038316e+003, 3.799918e+001
1.038799e+003, 3.811738e+001
1.039281e+003, 3.819098e+001
1.039763e+003, 3.819213e+001
1.040245e+003, 3.812437e+001
1.040727e+003, 3.797912e+001
1.041209e+003, 3.765553e+001
1.041691e+003, 3.732920e+001
1.042173e+003, 3.716598e+001
1.042656e+003, 3.714611e+001
1.043138e+003, 3.717429e+001
1.043620e+003, 3.728949e+001
1.044102e+003, 3.736682e+001
1.044584e+003, 3.737208e+001
1.045066e+003, 3.737167e+001
1.045548e+003, 3.741828e+001
1.046030e+003, 3.744802e+001
1.046512e+003, 3.732227e+001
1.046995e+003, 3.711092e+001
1.047477e+003, 3.716639e+001
1.047959e+003, 3.782639e+001
1.048441e+003, 3.806006e+001
1.048923e+003, 3.724289e+001
1.049405e+003, 3.654898e+001
1.049887e+003, 3.651864e+001
1.050369e+003, 3.679634e+001
1.050851e+003, 3.709447e+001
1.051334e+003, 3.736872e+001
1.051816e+003, 3.756873e+001
1.052298e+003, 3.770432e+001
1.052780e+003, 3.771708e+001
1.053262e+003, 3.745978e+001
1.053744e+003, 3.723810e+001
1.054226e+003, 3.725013e+001
1.054708e+003, 3.732146e+001
1.055191e+003, 3.720014e+001
1.055673e+003, 3.697329e+001
1.056155e+003, 3.703633e+001
1.056637e+003, 3.764053e+001
1.057119e+003, 3.795102e+001
1.057601e+003, 3.739712e+001
1.058083e+003, 3.687436e+001
1.058565e+003, 3.690030e+001
1.059047e+003, 3.711983e+001
1.059530e+003, 3.720115e+001
1.060012e+003, 3.713471e+001
1.060494e+003, 3.700438e+001
1.060976e+003, 3.680756e+001
1.061458e+003, 3.665781e+001
1.061940e+003, 3.661623e+001
1.062422e+003, 3.660500e+001
1.062904e+003, 3.660528e+001
1.063386e+003, 3.659784e+001
1.063869e+003, 3.655290e+001
1.064351e+003, 3.648725e+001
1.064833e+003, 3.646042e+001
1.065315e+003, 3.649928e+001
1.065797e+003, 3.648475e+001
1.066279e+003, 3.630100e+001
1.066761e+003, 3.613486e+001
1.067243e+003, 3.609320e+001
1.067726e+003, 3.611224e+001
1.068208e+003, 3.613230e+001
1.068690e+003, 3.615664e+001
1.069172e+003, 3.623077e+001
1.069654e+003, 3.637226e+001
1.070136e+003, 3.643812e+001
1.070618e+003, 3.637728e+001
1.071100e+003, 3.621183e+001
1.071583e+003, 3.569089e+001
1.072065e+003, 3.529534e+001
1.072547e+003, 3.570080e+001
1.073029e+003, 3.651949e+001
1.073511e+003, 3.686350e+001
1.073993e+003, 3.653443e+001
1.074475e+003, 3.618198e+001
1.074957e+003, 3.605031e+001
1.075439e+003, 3.601647e+001
1.075922e+003, 3.610597e+001
1.076404e+003, 3.618596e+001
1.076886e+003, 3.608290e+001
1.077368e+003, 3.590438e+001
1.077850e+003, 3.588736e+001
1.078332e+003, 3.606128e+001
1.078814e+003, 3.618073e+001
1.079296e+003, 3.605476e+001
1.079779e+003, 3.597092e+001
1.080261e+003, 3.621415e+001
1.080743e+003, 3.641303e+001
1.081225e+003, 3.616160e+001
1.081707e+003, 3.570579e+001
1.082189e+003, 3.547425e+001
1.082671e+003, 3.550631e+001
1.083153e+003, 3.548399e+001
1.083635e+003, 3.515217e+001
1.084118e+003, 3.499797e+001
1.084600e+003, 3.543504e+001
1.085082e+003, 3.592879e+001
1.085564e+003, 3.615454e+001
1.086046e+003, 3.615210e+001
1.086528e+003, 3.594615e+001
1.087010e+003, 3.559187e+001
1.087492e+003, 3.526424e+001
1.087974e+003, 3.495127e+001
1.088457e+003, 3.485006e+001
1.088939e+003, 3.530473e+001
1.089421e+003, 3.570094e+001
1.089903e+003, 3.562853e+001
1.090385e+003, 3.530293e+001
1.090867e+003, 3.487850e+001
1.091349e+003, 3.445649e+001
1.091831e+003, 3.424988e+001
1.092314e+003, 3.434366e+001
1.092796e+003, 3.453978e+001
1.093278e+003, 3.485096e+001
1.093760e+003, 3.514314e+001
1.094242e+003, 3.546485e+001
1.094724e+003, 3.563670e+001
1.095206e+003, 3.534237e+001
1.095688e+003, 3.478381e+001
1.096171e+003, 3.448481e+001
1.096653e+003, 3.456751e+001
1.097135e+003, 3.475935e+001
1.097617e+003, 3.517700e+001
1.098099e+003, 3.542975e+001
1.098581e+003, 3.522875e+001
1.099063e+003, 3.493291e+001
1.099545e+003, 3.477822e+001
1.100027e+003, 3.476072e+001
1.100510e+003, 3.490736e+001
1.100992e+003, 3.522799e+001
1.101474e+003, 3.529889e+001
1.101956e+003, 3.481546e+001
1.102438e+003, 3.437118e+001
1.102920e+003, 3.399677e+001
1.103402e+003, 3.384005e+001
1.103884e+003, 3.418569e+001
1.104366e+003, 3.469255e+001
1.104849e+003, 3.485338e+001
1.105331e+003, 3.465965e+001
1.105813e+003, 3.455616e+001
1.106295e+003, 3.476117e+001
1.106777e+003, 3.481787e+001
1.107259e+003, 3.448751e+001
1.107741e+003, 3.420812e+001
1.108223e+003, 3.421264e+001
1.108706e+003, 3.433905e+001
1.109188e+003, 3.448513e+001
1.109670e+003, 3.460701e+001
1.110152e+003, 3.448900e+001
1.110634e+003, 3.384881e+001
1.111116e+003, 3.357864e+001
1.111598e+003, 3.400457e+001
1.112080e+003, 3.443016e+001
1.112563e+003, 3.474235e+001
1.113045e+003, 3.490194e+001
1.113527e+003, 3.482960e+001
1.114009e+003, 3.459285e+001
1.114491e+003, 3.433836e+001
1.114973e+003, 3.399746e+001
1.115455e+003, 3.394686e+001
1.115937e+003, 3.444439e+001
1.116419e+003, 3.477977e+001
1.116901e+003, 3.475001e+001
1.117384e+003, 3.464184e+001
1.117866e+003, 3.464408e+001
1.118348e+003, 3.465534e+001
1.118830e+003, 3.447213e+001
1.119312e+003, 3.408398e+001
1.119794e+003, 3.388665e+001
1.120276e+003, 3.393475e+001
1.120758e+003, 3.404517e+001
1.121241e+003, 3.426530e+001
1.121723e+003, 3.439526e+001
1.122205e+003, 3.431791e+001
1.122687e+003, 3.415311e+001
1.123169e+003, 3.402745e+001
1.123651e+003, 3.394511e+001
1.124133e+003, 3.393477e+001
1.124615e+003, 3.400467e+001
1.125098e+003, 3.412899e+001
1.125580e+003, 3.434474e+001
1.126062e+003, 3.445209e+001
1.126544e+003, 3.437184e+001
1.127026e+003, 3.420368e+001
1.127508e+003, 3.399545e+001
1.127990e+003, 3.383271e+001
1.128472e+003, 3.399802e+001
1.128954e+003, 3.450932e+001
1.129437e+003, 3.460421e+001
1.129919e+003, 3.424667e+001
1.130401e+003, 3.406278e+001
1.130883e+003, 3.419413e+001
1.131365e+003, 3.436389e+001
1.131847e+003, 3.441469e+001
1.132329e+003, 3.435374e+001
1.132811e+003, 3.414256e+001
1.133293e+003, 3.385191e+001
1.133776e+003, 3.387869e+001
1.134258e+003, 3.417695e+001
1.134740e+003, 3.432023e+001
1.135222e+003, 3.426534e+001
1.135704e+003, 3.415839e+001
1.136186e+003, 3.406004e+001
1.136668e+003, 3.400692e+001
1.137150e+003, 3.405621e+001
1.137633e+003, 3.412159e+001
1.138115e+003, 3.399157e+001
1.138597e+003, 3.374084e+001
1.139079e+003, 3.355421e+001
1.139561e+003, 3.346557e+001
1.140043e+003, 3.360232e+001
1.140525e+003, 3.395340e+001
1.141007e+003, 3.422803e+001
1.141490e+003, 3.423285e+001
1.141972e+003, 3.414350e+001
1.142454e+003, 3.418406e+001
1.142936e+003, 3.425905e+001
1.143418e+003, 3.419550e+001
1.143900e+003, 3.405203e+001
1.144382e+003, 3.396740e+001
1.144864e+003, 3.393509e+001
1.145346e+003, 3.382081e+001
1.145828e+003, 3.357813e+001
1.146311e+003, 3.343237e+001
1.146793e+003, 3.365813e+001
1.147275e+003, 3.394306e+001
1.147757e+003, 3.398348e+001
1.148239e+003, 3.393208e+001
1.148721e+003, 3.398014e+001
1.149203e+003, 3.407670e+001
1.149685e+003, 3.404161e+001
1.150168e+003, 3.387792e+001
1.150650e+003, 3.386822e+001
1.151132e+003, 3.419933e+001
1.151614e+003, 3.455960e+001
1.152096e+003, 3.486583e+001
1.152578e+003, 3.506101e+001
1.153060e+003, 3.506947e+001
1.153542e+003, 3.497310e+001
1.154025e+003, 3.487889e+001
1.154507e+003, 3.476779e+001
1.154989e+003, 3.450326e+001
1.155471e+003, 3.398626e+001
1.155953e+003, 3.368538e+001
1.156435e+003, 3.390707e+001
1.156917e+003, 3.408763e+001
1.157399e+003, 3.392768e+001
1.157881e+003, 3.378988e+001
1.158364e+003, 3.400944e+001
1.158846e+003, 3.437880e+001
1.159328e+003, 3.457323e+001
1.159810e+003, 3.457938e+001
1.160292e+003, 3.439809e+001
1.160774e+003, 3.378164e+001
1.161256e+003, 3.343177e+001
1.161738e+003, 3.343186e+001
1.162220e+003, 3.363208e+001
1.162703e+003, 3.415414e+001
1.163185e+003, 3.460278e+001
1.163667e+003, 3.454693e+001
1.164149e+003, 3.415356e+001
1.164631e+003, 3.399577e+001
1.165113e+003, 3.413470e+001
1.165595e+003, 3.411050e+001
1.166077e+003, 3.385992e+001
1.166560e+003, 3.374769e+001
1.167042e+003, 3.389088e+001
1.167524e+003, 3.396344e+001
1.168006e+003, 3.373867e+001
1.168488e+003, 3.347672e+001
1.168970e+003, 3.359079e+001
1.169452e+003, 3.399278e+001
1.169934e+003, 3.422193e+001
1.170417e+003, 3.429287e+001
1.170899e+003, 3.446655e+001
1.171381e+003, 3.474681e+001
1.171863e+003, 3.476130e+001
1.172345e+003, 3.439483e+001
1.172827e+003, 3.400658e+001
1.173309e+003, 3.388158e+001
1.173791e+003, 3.393348e+001
1.174273e+003, 3.408363e+001
1.174755e+003, 3.427028e+001
1.175238e+003, 3.431738e+001
1.175720e+003, 3.428019e+001
1.176202e+003, 3.435415e+001
1.176684e+003, 3.453117e+001
1.177166e+003, 3.462043e+001
1.177648e+003, 3.454055e+001
1.178130e+003, 3.439590e+001
1.178612e+003, 3.419018e+001
1.179095e+003, 3.406151e+001
1.179577e+003, 3.424102e+001
1.180059e+003, 3.450284e+001
1.180541e+003, 3.455263e+001
1.181023e+003, 3.447187e+001
1.181505e+003, 3.445823e+001
1.181987e+003, 3.454236e+001
1.182469e+003, 3.464221e+001
1.182952e+003, 3.473168e+001
1.183434e+003, 3.481321e+001
1.183916e+003, 3.499733e+001
1.184398e+003, 3.504018e+001
1.184880e+003, 3.459193e+001
1.185362e+003, 3.412148e+001
1.185844e+003, 3.415830e+001
1.186326e+003, 3.451805e+001
1.186808e+003, 3.470160e+001
1.187291e+003, 3.464615e+001
1.187773e+003, 3.453318e+001
1.188255e+003, 3.431860e+001
1.188737e+003, 3.414215e+001
1.189219e+003, 3.399828e+001
1.189701e+003, 3.392231e+001
1.190183e+003, 3.393638e+001
1.190665e+003, 3.402368e+001
1.191147e+003, 3.421033e+001
1.191630e+003, 3.444083e+001
1.192112e+003, 3.445092e+001
1.192594e+003, 3.416487e+001
1.193076e+003, 3.404744e+001
1.193558e+003, 3.412246e+001
1.194040e+003, 3.425967e+001
1.194522e+003, 3.444731e+001
1.195004e+003, 3.458952e+001
1.195487e+003, 3.462770e+001
1.195969e+003, 3.459212e+001
1.196451e+003, 3.450094e+001
1.196933e+003, 3.439502e+001
1.197415e+003, 3.448095e+001
1.197897e+003, 3.470463e+001
1.198379e+003, 3.471227e+001
1.198861e+003, 3.452217e+001
1.199344e+003, 3.445903e+001
1.199826e+003, 3.460291e+001
1.200308e+003, 3.474994e+001
1.200790e+003, 3.476973e+001
1.201272e+003, 3.468179e+001
1.201754e+003, 3.439708e+001
1.202236e+003, 3.411216e+001
1.202718e+003, 3.411903e+001
1.203200e+003, 3.432043e+001
1.203682e+003, 3.464856e+001
1.204165e+003, 3.498634e+001
1.204647e+003, 3.504704e+001
1.205129e+003, 3.477422e+001
1.205611e+003, 3.456822e+001
1.206093e+003, 3.470712e+001
1.206575e+003, 3.485107e+001
1.207057e+003, 3.487429e+001
1.207539e+003, 3.478896e+001
1.208022e+003, 3.449852e+001
1.208504e+003, 3.418151e+001
1.208986e+003, 3.405029e+001
1.209468e+003, 3.407804e+001
1.209950e+003, 3.410557e+001
1.210432e+003, 3.408756e+001
1.210914e+003, 3.418607e+001
1.211396e+003, 3.448681e+001
1.211879e+003, 3.479472e+001
1.212361e+003, 3.512580e+001
1.212843e+003, 3.539813e+001
1.213325e+003, 3.560035e+001
1.213807e+003, 3.567453e+001
1.214289e+003, 3.551981e+001
1.214771e+003, 3.519201e+001
1.215253e+003, 3.493244e+001
1.215735e+003, 3.472648e+001
1.216218e+003, 3.480328e+001
1.216700e+003, 3.520365e+001
1.217182e+003, 3.538038e+001
1.217664e+003, 3.520023e+001
1.218146e+003, 3.492989e+001
1.218628e+003, 3.471867e+001
1.219110e+003, 3.458636e+001
1.219592e+003, 3.458142e+001
1.220074e+003, 3.464597e+001
1.220557e+003, 3.464833e+001
1.221039e+003, 3.460644e+001
1.221521e+003, 3.458918e+001
1.222003e+003, 3.457016e+001
1.222485e+003, 3.437476e+001
1.222967e+003, 3.403096e+001
1.223449e+003, 3.392980e+001
1.223931e+003, 3.431410e+001
1.224414e+003, 3.477660e+001
1.224896e+003, 3.512885e+001
1.225378e+003, 3.528308e+001
1.225860e+003, 3.498880e+001
1.226342e+003, 3.461270e+001
1.226824e+003, 3.451823e+001
1.227306e+003, 3.465423e+001
1.227788e+003, 3.496701e+001
1.228271e+003, 3.540261e+001
1.228753e+003, 3.544292e+001
1.229235e+003, 3.460272e+001
1.229717e+003, 3.404753e+001
1.230199e+003, 3.405207e+001
1.230681e+003, 3.420758e+001
1.231163e+003, 3.448381e+001
1.231645e+003, 3.474081e+001
1.232127e+003, 3.485915e+001
1.232609e+003, 3.490841e+001
1.233092e+003, 3.504403e+001
1.233574e+003, 3.525963e+001
1.234056e+003, 3.523752e+001
1.234538e+003, 3.493431e+001
1.235020e+003, 3.475343e+001
1.235502e+003, 3.473595e+001
1.235984e+003, 3.477897e+001
1.236466e+003, 3.484798e+001
1.236949e+003, 3.495861e+001
1.237431e+003, 3.513416e+001
1.237913e+003, 3.528345e+001
1.238395e+003, 3.517621e+001
1.238877e+003, 3.497376e+001
1.239359e+003, 3.520975e+001
1.239841e+003, 3.561084e+001
1.240323e+003, 3.537663e+001
1.240806e+003, 3.468097e+001
1.241288e+003, 3.435475e+001
1.241770e+003, 3.460921e+001
1.242252e+003, 3.500371e+001
1.242734e+003, 3.538346e+001
1.243216e+003, 3.560198e+001
1.243698e+003, 3.547390e+001
1.244180e+003, 3.525667e+001
1.244662e+003, 3.494239e+001
1.245145e+003, 3.478888e+001
1.245627e+003, 3.529799e+001
1.246109e+003, 3.608694e+001
1.246591e+003, 3.621830e+001
1.247073e+003, 3.555943e+001
1.247555e+003, 3.511324e+001
1.248037e+003, 3.497661e+001
1.248519e+003, 3.499349e+001
1.249001e+003, 3.531106e+001
1.249484e+003, 3.544511e+001
1.249966e+003, 3.515188e+001
1.250448e+003, 3.484439e+001
1.250930e+003, 3.487034e+001
1.251412e+003, 3.503638e+001
1.251894e+003, 3.494258e+001
1.252376e+003, 3.464405e+001
1.252858e+003, 3.456496e+001
1.253341e+003, 3.468556e+001
1.253823e+003, 3.487848e+001
1.254305e+003, 3.510126e+001
1.254787e+003, 3.512937e+001
1.255269e+003, 3.492622e+001
1.255751e+003, 3.485476e+001
1.256233e+003, 3.518976e+001
1.256715e+003, 3.551925e+001
1.257198e+003, 3.527198e+001
1.257680e+003, 3.491320e+001
1.258162e+003, 3.492222e+001
1.258644e+003, 3.517591e+001
1.259126e+003, 3.573037e+001
1.259608e+003, 3.629698e+001
1.260090e+003, 3.617289e+001
1.260572e+003, 3.537499e+001
1.261054e+003, 3.511488e+001
1.261536e+003, 3.618947e+001
1.262019e+003, 3.675442e+001
1.262501e+003, 3.599964e+001
1.262983e+003, 3.531674e+001
1.263465e+003, 3.510344e+001
1.263947e+003, 3.512218e+001
1.264429e+003, 3.528949e+001
1.264911e+003, 3.553748e+001
1.265393e+003, 3.579638e+001
1.265876e+003, 3.603687e+001
1.266358e+003, 3.604095e+001
1.266840e+003, 3.579497e+001
1.267322e+003, 3.553289e+001
1.267804e+003, 3.526668e+001
1.268286e+003, 3.514023e+001
1.268768e+003, 3.518161e+001
1.269250e+003, 3.526054e+001
1.269733e+003, 3.530494e+001
1.270215e+003, 3.537327e+001
1.270697e+003, 3.554637e+001
1.271179e+003, 3.575541e+001
1.271661e+003, 3.593272e+001
1.272143e+003, 3.605863e+001
1.272625e+003, 3.608677e+001
1.273107e+003, 3.605139e+001
1.273589e+003, 3.601282e+001
1.274072e+003, 3.597505e+001
1.274554e+003, 3.588394e+001
1.275036e+003, 3.570091e+001
1.275518e+003, 3.566373e+001
1.276000e+003, 3.598945e+001
1.276482e+003, 3.625573e+001
1.276964e+003, 3.635164e+001
1.277446e+003, 3.636682e+001
1.277929e+003, 3.633265e+001
1.278411e+003, 3.623557e+001
1.278893e+003, 3.603231e+001
1.279375e+003, 3.578239e+001
1.279857e+003, 3.564123e+001
1.280339e+003, 3.561015e+001
1.280821e+003, 3.566537e+001
1.281303e+003, 3.581203e+001
1.281786e+003, 3.601736e+001
1.282268e+003, 3.627692e+001
##END=



