##NAMES=Murmanite
##RRUFFID=R060886
##IDEAL CHEMISTRY=Na_2_Ti^4+^_2_Na_2_Ti^4+^_2_(Si_2_O_7_)_2_O_4_(H_2_O)_4_
##LOCALITY=Lovozero Massif, Kola Peninsula, Russia
##OWNER=RRUFF
##SOURCE=Bob Jenkins
##DESCRIPTION=Lilac lamellar aggregate
##STATUS=The identification of this mineral has been confirmed by single-crystal X-ray diffraction.
##URL=rruff.info/R060886
180.3412, 3460.813
180.8233, 3454.663
181.3055, 3439.384
181.7876, 3428.660
182.2697, 3422.196
182.7518, 3418.523
183.2339, 3417.333
183.7160, 3418.483
184.1982, 3421.922
184.6803, 3427.772
185.1624, 3435.085
185.6445, 3445.990
186.1266, 3459.133
186.6087, 3465.800
187.0908, 3453.713
187.5730, 3429.607
188.0551, 3423.882
188.5372, 3441.743
189.0193, 3467.731
189.5014, 3478.337
189.9835, 3474.024
190.4657, 3467.006
190.9478, 3464.593
191.4299, 3465.918
191.9120, 3463.673
192.3941, 3456.272
192.8762, 3446.869
193.3584, 3441.310
193.8405, 3439.720
194.3226, 3440.487
194.8047, 3445.721
195.2868, 3455.078
195.7689, 3454.289
196.2511, 3437.312
196.7332, 3413.176
197.2153, 3410.108
197.6974, 3431.719
198.1795, 3453.010
198.6616, 3451.718
199.1438, 3425.942
199.6259, 3411.112
200.1080, 3415.740
200.5901, 3434.256
201.0722, 3443.615
201.5543, 3441.754
202.0364, 3438.044
202.5186, 3439.477
203.0007, 3446.115
203.4828, 3457.669
203.9649, 3477.133
204.4470, 3501.949
204.9291, 3514.775
205.4113, 3514.062
205.8934, 3505.017
206.3755, 3489.865
206.8576, 3465.977
207.3397, 3447.830
207.8218, 3439.058
208.3040, 3439.319
208.7861, 3443.009
209.2682, 3451.517
209.7503, 3461.188
210.2324, 3469.610
210.7145, 3478.780
211.1967, 3479.831
211.6788, 3467.296
212.1609, 3440.695
212.6430, 3425.515
213.1251, 3426.265
213.6072, 3432.832
214.0894, 3432.537
214.5715, 3422.207
215.0536, 3413.336
215.5357, 3409.082
216.0178, 3409.604
216.4999, 3413.201
216.9820, 3423.809
217.4642, 3433.129
217.9463, 3427.252
218.4284, 3397.169
218.9105, 3372.109
219.3926, 3362.129
219.8747, 3370.130
220.3569, 3377.475
220.8390, 3386.513
221.3211, 3393.104
221.8032, 3389.493
222.2853, 3369.877
222.7674, 3351.707
223.2496, 3340.994
223.7317, 3338.878
224.2138, 3340.913
224.6959, 3352.229
225.1780, 3364.738
225.6601, 3362.047
226.1423, 3333.616
226.6244, 3308.595
227.1065, 3298.229
227.5886, 3306.313
228.0707, 3317.571
228.5528, 3336.042
229.0350, 3355.884
229.5171, 3364.416
229.9992, 3357.035
230.4813, 3345.770
230.9634, 3333.982
231.4455, 3318.043
231.9276, 3311.547
232.4098, 3320.709
232.8919, 3337.351
233.3740, 3340.505
233.8561, 3322.026
234.3382, 3302.792
234.8203, 3291.469
235.3025, 3292.262
235.7846, 3291.941
236.2667, 3291.587
236.7488, 3289.917
237.2309, 3282.608
237.7130, 3264.187
238.1952, 3248.328
238.6773, 3242.152
239.1594, 3253.354
239.6415, 3256.258
240.1236, 3241.529
240.6057, 3220.069
241.0879, 3227.126
241.5700, 3288.581
242.0521, 3341.457
242.5342, 3352.850
243.0163, 3292.232
243.4984, 3257.114
243.9806, 3259.685
244.4627, 3287.259
244.9448, 3300.784
245.4269, 3291.670
245.9090, 3280.217
246.3911, 3276.979
246.8732, 3290.010
247.3554, 3292.094
247.8375, 3274.792
248.3196, 3246.824
248.8017, 3238.759
249.2838, 3265.794
249.7659, 3290.489
250.2481, 3292.390
250.7302, 3256.133
251.2123, 3233.922
251.6944, 3233.010
252.1765, 3246.486
252.6586, 3252.079
253.1408, 3245.434
253.6229, 3238.027
254.1050, 3236.255
254.5871, 3244.156
255.0692, 3247.219
255.5513, 3241.257
256.0334, 3230.962
256.5156, 3231.827
256.9977, 3249.951
257.4798, 3269.217
257.9619, 3281.601
258.4440, 3285.894
258.9261, 3285.640
259.4083, 3276.676
259.8904, 3264.193
260.3725, 3266.519
260.8546, 3291.704
261.3367, 3316.658
261.8188, 3329.089
262.3010, 3325.292
262.7831, 3320.123
263.2652, 3312.615
263.7473, 3304.596
264.2294, 3301.287
264.7115, 3303.663
265.1937, 3308.697
265.6758, 3316.517
266.1579, 3329.718
266.6400, 3334.854
267.1221, 3329.828
267.6042, 3317.364
268.0864, 3302.372
268.5685, 3280.741
269.0506, 3266.911
269.5327, 3272.373
270.0148, 3303.570
270.4969, 3320.961
270.9791, 3318.866
271.4612, 3305.811
271.9433, 3302.612
272.4254, 3312.406
272.9075, 3321.729
273.3896, 3320.716
273.8718, 3306.392
274.3539, 3306.405
274.8360, 3326.704
275.3181, 3356.237
275.8002, 3372.686
276.2823, 3374.852
276.7645, 3369.188
277.2466, 3354.401
277.7287, 3328.878
278.2108, 3316.133
278.6929, 3319.465
279.1750, 3331.420
279.6572, 3338.817
280.1393, 3341.156
280.6214, 3342.254
281.1035, 3345.115
281.5856, 3349.639
282.0677, 3346.819
282.5499, 3333.889
283.0320, 3318.888
283.5141, 3317.255
283.9962, 3329.855
284.4783, 3340.114
284.9604, 3338.094
285.4425, 3325.181
285.9247, 3317.447
286.4068, 3315.304
286.8889, 3317.661
287.3710, 3326.984
287.8531, 3342.815
288.3352, 3351.643
288.8174, 3338.330
289.2995, 3310.032
289.7816, 3309.141
290.2637, 3340.262
290.7458, 3377.489
291.2279, 3389.942
291.7101, 3379.601
292.1922, 3361.322
292.6743, 3333.424
293.1564, 3302.364
293.6385, 3289.248
294.1206, 3295.349
294.6028, 3310.502
295.0849, 3330.904
295.5670, 3353.437
296.0491, 3364.985
296.5312, 3353.376
297.0133, 3329.857
297.4955, 3316.961
297.9776, 3315.193
298.4597, 3317.905
298.9418, 3320.051
299.4239, 3322.037
299.9060, 3324.646
300.3882, 3325.874
300.8703, 3329.202
301.3524, 3340.093
301.8345, 3358.325
302.3166, 3380.474
302.7987, 3412.135
303.2809, 3444.768
303.7630, 3463.129
304.2451, 3456.990
304.7272, 3438.965
305.2093, 3417.443
305.6914, 3393.302
306.1736, 3376.393
306.6557, 3378.090
307.1378, 3389.369
307.6199, 3398.051
308.1020, 3399.668
308.5841, 3399.561
309.0663, 3402.855
309.5484, 3408.702
310.0305, 3412.925
310.5126, 3413.342
310.9947, 3411.048
311.4768, 3406.293
311.9590, 3396.183
312.4411, 3388.956
312.9232, 3391.931
313.4053, 3402.298
313.8874, 3411.792
314.3695, 3415.657
314.8517, 3417.994
315.3337, 3422.617
315.8159, 3432.945
316.2980, 3439.092
316.7801, 3432.906
317.2622, 3419.604
317.7443, 3409.956
318.2264, 3409.096
318.7086, 3412.187
319.1907, 3418.122
319.6728, 3429.010
320.1549, 3435.678
320.6370, 3432.980
321.1191, 3424.984
321.6013, 3417.715
322.0834, 3406.656
322.5655, 3401.780
323.0476, 3409.032
323.5297, 3432.276
324.0118, 3451.178
324.4940, 3459.008
324.9761, 3462.238
325.4582, 3468.113
325.9403, 3484.523
326.4224, 3496.472
326.9045, 3498.519
327.3867, 3488.665
327.8688, 3483.585
328.3509, 3486.059
328.8330, 3492.095
329.3151, 3498.691
329.7972, 3510.822
330.2794, 3517.072
330.7615, 3512.796
331.2436, 3498.584
331.7257, 3492.273
332.2078, 3500.933
332.6899, 3510.497
333.1721, 3511.113
333.6542, 3499.186
334.1363, 3484.947
334.6184, 3465.696
335.1005, 3444.625
335.5826, 3437.110
336.0648, 3448.984
336.5469, 3464.301
337.0290, 3475.400
337.5111, 3483.480
337.9932, 3480.411
338.4753, 3458.216
338.9575, 3429.793
339.4396, 3432.381
339.9217, 3476.154
340.4038, 3514.139
340.8859, 3517.849
341.3680, 3484.390
341.8502, 3464.417
342.3323, 3462.222
342.8144, 3468.675
343.2965, 3470.310
343.7786, 3467.109
344.2607, 3461.422
344.7429, 3451.427
345.2250, 3438.843
345.7071, 3436.015
346.1892, 3444.630
346.6713, 3455.399
347.1534, 3455.708
347.6355, 3447.475
348.1176, 3443.152
348.5998, 3450.520
349.0819, 3463.170
349.5640, 3465.799
350.0461, 3458.190
350.5282, 3448.407
351.0103, 3444.346
351.4925, 3443.345
351.9746, 3439.054
352.4567, 3427.880
352.9388, 3414.462
353.4209, 3403.393
353.9030, 3394.802
354.3852, 3389.398
354.8673, 3391.369
355.3494, 3395.629
355.8315, 3394.647
356.3136, 3383.612
356.7957, 3374.281
357.2779, 3382.400
357.7600, 3400.649
358.2421, 3408.847
358.7242, 3385.028
359.2063, 3354.973
359.6884, 3338.323
360.1706, 3340.172
360.6527, 3346.190
361.1348, 3351.292
361.6169, 3355.897
362.0990, 3360.598
362.5811, 3369.055
363.0633, 3374.612
363.5454, 3374.010
364.0275, 3366.584
364.5096, 3356.651
364.9917, 3341.447
365.4738, 3325.884
365.9560, 3314.647
366.4381, 3311.135
366.9202, 3309.518
367.4023, 3310.984
367.8844, 3315.291
368.3665, 3314.006
368.8487, 3296.844
369.3308, 3280.755
369.8129, 3276.454
370.2950, 3299.680
370.7771, 3310.946
371.2592, 3300.327
371.7414, 3275.751
372.2235, 3266.897
372.7056, 3283.310
373.1877, 3301.846
373.6698, 3310.950
374.1519, 3305.959
374.6341, 3306.584
375.1162, 3317.539
375.5983, 3329.752
376.0804, 3321.741
376.5625, 3284.716
377.0446, 3260.275
377.5267, 3270.671
378.0089, 3315.060
378.4910, 3337.783
378.9731, 3335.806
379.4552, 3321.671
379.9373, 3304.630
380.4194, 3284.842
380.9016, 3277.814
381.3837, 3295.167
381.8658, 3325.202
382.3479, 3330.163
382.8300, 3309.768
383.3121, 3287.226
383.7943, 3278.761
384.2764, 3283.293
384.7585, 3301.393
385.2406, 3340.975
385.7227, 3379.382
386.2048, 3376.999
386.6870, 3342.557
387.1691, 3311.725
387.6512, 3310.137
388.1333, 3323.123
388.6154, 3332.848
389.0975, 3336.588
389.5797, 3339.112
390.0618, 3349.042
390.5439, 3359.829
391.0260, 3359.884
391.5081, 3328.549
391.9902, 3297.202
392.4724, 3287.119
392.9545, 3299.823
393.4366, 3315.401
393.9187, 3334.269
394.4008, 3347.752
394.8829, 3348.314
395.3651, 3311.844
395.8472, 3285.232
396.3293, 3289.182
396.8114, 3317.480
397.2935, 3333.886
397.7756, 3318.336
398.2578, 3299.469
398.7399, 3291.715
399.2220, 3304.368
399.7041, 3315.320
400.1862, 3328.340
400.6683, 3338.791
401.1505, 3336.195
401.6326, 3307.005
402.1147, 3283.627
402.5968, 3278.052
403.0789, 3294.210
403.5610, 3302.491
404.0432, 3298.610
404.5253, 3292.225
405.0074, 3296.268
405.4895, 3315.103
405.9716, 3326.936
406.4537, 3323.892
406.9359, 3310.194
407.4180, 3307.591
407.9001, 3317.516
408.3822, 3331.392
408.8643, 3345.917
409.3464, 3360.343
409.8285, 3364.909
410.3106, 3355.392
410.7928, 3341.113
411.2749, 3337.539
411.7570, 3343.718
412.2391, 3352.030
412.7212, 3360.327
413.2033, 3367.491
413.6855, 3369.081
414.1676, 3363.996
414.6497, 3361.839
415.1318, 3382.000
415.6139, 3410.452
416.0960, 3421.146
416.5782, 3381.439
417.0603, 3336.408
417.5424, 3327.804
418.0245, 3350.824
418.5066, 3369.115
418.9887, 3353.980
419.4709, 3331.254
419.9530, 3323.211
420.4351, 3344.885
420.9172, 3365.689
421.3993, 3376.435
421.8814, 3378.877
422.3636, 3376.919
422.8457, 3365.465
423.3278, 3355.133
423.8099, 3351.622
424.2920, 3359.264
424.7741, 3359.879
425.2563, 3345.722
425.7384, 3327.709
426.2205, 3317.976
426.7026, 3325.152
427.1847, 3326.446
427.6668, 3314.441
428.1490, 3291.346
428.6311, 3279.846
429.1132, 3283.450
429.5953, 3292.065
430.0774, 3300.127
430.5595, 3308.130
431.0417, 3312.167
431.5238, 3311.295
432.0059, 3307.013
432.4880, 3301.698
432.9701, 3295.284
433.4522, 3289.302
433.9344, 3284.530
434.4165, 3280.833
434.8986, 3276.580
435.3807, 3271.531
435.8628, 3268.390
436.3449, 3270.532
436.8271, 3276.896
437.3092, 3285.300
437.7913, 3300.145
438.2734, 3311.108
438.7555, 3300.607
439.2376, 3272.862
439.7197, 3248.696
440.2018, 3241.223
440.6840, 3243.430
441.1661, 3250.018
441.6482, 3262.070
442.1303, 3271.809
442.6124, 3268.559
443.0945, 3261.485
443.5767, 3258.501
444.0588, 3270.691
444.5409, 3276.165
445.0230, 3275.282
445.5051, 3249.006
445.9872, 3255.521
446.4694, 3248.894
446.9515, 3241.728
447.4336, 3252.858
447.9157, 3230.276
448.3978, 3241.115
448.8799, 3238.613
449.3621, 3242.217
449.8442, 3232.599
450.3263, 3237.369
450.8084, 3248.872
451.2905, 3249.427
451.7726, 3237.082
452.2548, 3227.827
452.7369, 3221.234
453.2190, 3218.447
453.7011, 3223.631
454.1832, 3237.209
454.6653, 3245.177
455.1475, 3243.830
455.6296, 3234.439
456.1117, 3216.000
456.5938, 3189.018
457.0759, 3167.065
457.5580, 3164.503
458.0402, 3174.049
458.5223, 3180.669
459.0044, 3182.801
459.4865, 3180.225
459.9686, 3169.936
460.4507, 3154.865
460.9329, 3140.972
461.4150, 3131.143
461.8971, 3123.783
462.3792, 3117.669
462.8613, 3112.845
463.3434, 3110.116
463.8256, 3110.524
464.3077, 3112.859
464.7898, 3116.083
465.2719, 3117.382
465.7540, 3122.898
466.2361, 3142.692
466.7183, 3168.223
467.2004, 3175.899
467.6825, 3146.940
468.1646, 3117.087
468.6467, 3095.012
469.1288, 3080.323
469.6110, 3077.562
470.0930, 3094.718
470.5752, 3114.543
471.0573, 3117.864
471.5394, 3098.864
472.0215, 3084.376
472.5036, 3078.491
472.9857, 3080.516
473.4679, 3091.521
473.9500, 3112.643
474.4321, 3130.244
474.9142, 3133.739
475.3963, 3126.156
475.8784, 3121.612
476.3606, 3121.663
476.8427, 3121.032
477.3248, 3108.044
477.8069, 3089.382
478.2890, 3082.592
478.7711, 3106.714
479.2533, 3135.384
479.7354, 3141.042
480.2175, 3126.591
480.6996, 3108.127
481.1817, 3087.893
481.6638, 3071.770
482.1460, 3065.400
482.6281, 3072.692
483.1102, 3081.776
483.5923, 3092.258
484.0744, 3101.023
484.5565, 3103.597
485.0387, 3089.051
485.5208, 3078.212
486.0029, 3078.963
486.4850, 3091.061
486.9671, 3096.243
487.4492, 3089.114
487.9314, 3080.998
488.4135, 3079.787
488.8956, 3089.747
489.3777, 3093.805
489.8598, 3089.246
490.3419, 3080.883
490.8241, 3079.120
491.3062, 3085.363
491.7883, 3086.994
492.2704, 3076.185
492.7525, 3057.066
493.2346, 3045.246
493.7168, 3040.894
494.1989, 3043.727
494.6810, 3061.898
495.1631, 3086.589
495.6452, 3095.682
496.1273, 3079.620
496.6095, 3058.892
497.0916, 3054.481
497.5737, 3061.478
498.0558, 3068.948
498.5379, 3073.108
499.0201, 3074.922
499.5022, 3074.896
499.9843, 3073.099
500.4664, 3069.539
500.9485, 3060.274
501.4306, 3051.660
501.9127, 3048.499
502.3948, 3033.389
502.8770, 3050.250
503.3591, 3060.395
503.8412, 3064.182
504.3233, 3042.577
504.8054, 3053.762
505.2875, 3051.806
505.7697, 3049.311
506.2518, 3065.111
506.7339, 3055.425
507.2160, 3079.500
507.6981, 3103.774
508.1802, 3099.896
508.6624, 3068.148
509.1445, 3045.291
509.6266, 3036.846
510.1087, 3039.647
510.5908, 3053.979
511.0729, 3077.344
511.5551, 3095.017
512.0372, 3093.105
512.5193, 3083.740
513.0014, 3087.491
513.4835, 3104.310
513.9656, 3116.155
514.4478, 3103.098
514.9299, 3081.817
515.4120, 3069.926
515.8941, 3073.954
516.3762, 3084.210
516.8583, 3103.427
517.3405, 3125.588
517.8226, 3138.471
518.3047, 3128.664
518.7868, 3119.566
519.2689, 3118.974
519.7510, 3127.601
520.2332, 3136.302
520.7153, 3146.163
521.1974, 3154.666
521.6795, 3160.443
522.1616, 3164.228
522.6437, 3162.191
523.1259, 3152.363
523.6080, 3138.736
524.0901, 3128.267
524.5722, 3120.920
525.0543, 3116.885
525.5364, 3115.031
526.0186, 3116.684
526.5007, 3128.244
526.9828, 3149.394
527.4649, 3170.207
527.9470, 3183.571
528.4291, 3190.978
528.9113, 3194.789
529.3934, 3194.655
529.8755, 3193.198
530.3576, 3190.486
530.8397, 3187.999
531.3218, 3188.205
531.8040, 3195.941
532.2861, 3202.911
532.7682, 3203.760
533.2503, 3199.108
533.7324, 3199.107
534.2145, 3213.853
534.6967, 3226.732
535.1788, 3228.313
535.6609, 3207.960
536.1430, 3201.452
536.6251, 3213.769
537.1072, 3235.440
537.5894, 3253.429
538.0715, 3267.042
538.5536, 3280.832
539.0357, 3297.990
539.5178, 3314.923
539.9999, 3316.197
540.4821, 3301.579
540.9642, 3289.917
541.4463, 3297.894
541.9284, 3317.169
542.4105, 3327.004
542.8926, 3324.603
543.3748, 3323.824
543.8569, 3342.564
544.3390, 3369.248
544.8211, 3386.772
545.3032, 3380.625
545.7853, 3374.511
546.2675, 3383.259
546.7495, 3401.837
547.2316, 3415.287
547.7137, 3412.440
548.1959, 3410.113
548.6780, 3416.838
549.1601, 3436.165
549.6422, 3446.535
550.1243, 3437.430
550.6064, 3429.735
551.0886, 3444.032
551.5707, 3492.061
552.0528, 3520.362
552.5349, 3517.673
553.0170, 3499.720
553.4991, 3497.734
553.9813, 3511.848
554.4634, 3530.692
554.9455, 3551.908
555.4276, 3573.814
555.9097, 3592.233
556.3918, 3607.140
556.8740, 3618.864
557.3561, 3628.952
557.8382, 3635.481
558.3203, 3634.374
558.8024, 3622.244
559.2845, 3611.985
559.7667, 3611.820
560.2488, 3617.805
560.7309, 3624.417
561.2130, 3630.592
561.6951, 3636.690
562.1772, 3640.437
562.6594, 3643.130
563.1415, 3653.981
563.6236, 3684.569
564.1057, 3708.537
564.5878, 3710.929
565.0699, 3685.510
565.5521, 3682.557
566.0342, 3710.488
566.5163, 3743.032
566.9984, 3746.792
567.4805, 3723.196
567.9626, 3716.116
568.4448, 3738.742
568.9269, 3771.814
569.4090, 3783.972
569.8911, 3779.468
570.3732, 3775.499
570.8553, 3785.147
571.3375, 3796.994
571.8196, 3795.195
572.3017, 3781.157
572.7838, 3774.834
573.2659, 3797.984
573.7480, 3825.237
574.2302, 3836.990
574.7123, 3820.927
575.1944, 3808.342
575.6765, 3804.322
576.1586, 3806.523
576.6407, 3813.131
577.1229, 3834.125
577.6050, 3841.163
578.0871, 3824.356
578.5692, 3791.093
579.0513, 3771.310
579.5334, 3766.314
580.0156, 3768.542
580.4977, 3778.277
580.9798, 3793.103
581.4619, 3797.285
581.9440, 3790.018
582.4261, 3782.218
582.9083, 3784.936
583.3904, 3794.185
583.8725, 3804.297
584.3546, 3817.516
584.8367, 3822.562
585.3188, 3801.619
585.8010, 3768.110
586.2831, 3746.339
586.7652, 3759.097
587.2473, 3770.840
587.7294, 3767.516
588.2115, 3749.919
588.6937, 3734.848
589.1758, 3719.928
589.6579, 3711.285
590.1400, 3715.323
590.6221, 3738.986
591.1042, 3739.900
591.5864, 3711.047
592.0685, 3673.978
592.5506, 3652.316
593.0327, 3645.563
593.5148, 3639.911
593.9969, 3632.638
594.4791, 3625.393
594.9612, 3621.398
595.4433, 3619.761
595.9254, 3617.491
596.4075, 3612.372
596.8896, 3606.478
597.3718, 3603.638
597.8539, 3603.026
598.3360, 3597.263
598.8181, 3574.525
599.3002, 3551.532
599.7823, 3540.186
600.2645, 3547.911
600.7466, 3550.766
601.2287, 3549.024
601.7108, 3540.363
602.1929, 3519.469
602.6750, 3475.659
603.1572, 3449.008
603.6393, 3449.380
604.1214, 3465.467
604.6035, 3472.011
605.0856, 3468.842
605.5677, 3459.287
606.0499, 3438.325
606.5320, 3414.010
607.0141, 3408.979
607.4962, 3421.677
607.9783, 3433.904
608.4604, 3429.006
608.9425, 3418.400
609.4246, 3417.123
609.9067, 3431.215
610.3889, 3436.488
610.8710, 3414.052
611.3531, 3380.615
611.8352, 3353.816
612.3173, 3335.629
612.7994, 3325.769
613.2816, 3331.785
613.7637, 3344.377
614.2458, 3338.023
614.7279, 3301.856
615.2100, 3275.775
615.6921, 3277.666
616.1743, 3301.123
616.6564, 3303.842
617.1385, 3284.477
617.6206, 3265.478
618.1027, 3267.677
618.5848, 3281.484
619.0670, 3283.517
619.5491, 3270.768
620.0312, 3255.846
620.5133, 3247.082
620.9954, 3242.587
621.4775, 3240.035
621.9597, 3240.012
622.4418, 3239.890
622.9239, 3236.154
623.4060, 3231.947
623.8881, 3233.863
624.3702, 3258.359
624.8524, 3269.019
625.3345, 3252.167
625.8166, 3212.493
626.2987, 3188.495
626.7808, 3181.857
627.2629, 3184.865
627.7451, 3199.534
628.2272, 3223.162
628.7093, 3228.032
629.1914, 3212.430
629.6735, 3192.898
630.1556, 3183.995
630.6378, 3182.855
631.1199, 3186.158
631.6020, 3196.067
632.0841, 3202.244
632.5662, 3193.834
633.0483, 3178.082
633.5305, 3165.856
634.0126, 3156.439
634.4947, 3155.670
634.9768, 3172.300
635.4589, 3200.667
635.9410, 3215.585
636.4232, 3209.575
636.9053, 3202.666
637.3874, 3202.110
637.8695, 3207.674
638.3516, 3212.864
638.8337, 3217.796
639.3159, 3221.670
639.7980, 3224.587
640.2801, 3226.025
640.7622, 3222.695
641.2443, 3213.254
641.7264, 3205.840
642.2086, 3212.322
642.6907, 3224.487
643.1728, 3230.042
643.6549, 3219.183
644.1370, 3209.977
644.6191, 3210.222
645.1013, 3217.278
645.5834, 3225.464
646.0655, 3231.776
646.5476, 3242.068
647.0297, 3260.546
647.5118, 3285.004
647.9940, 3297.665
648.4761, 3295.027
648.9582, 3291.159
649.4403, 3293.402
649.9224, 3301.101
650.4045, 3310.434
650.8867, 3321.608
651.3688, 3331.226
651.8509, 3334.820
652.3330, 3335.287
652.8151, 3336.922
653.2972, 3340.060
653.7794, 3346.296
654.2615, 3363.382
654.7436, 3381.822
655.2257, 3389.738
655.7078, 3368.027
656.1899, 3354.926
656.6721, 3362.870
657.1542, 3383.233
657.6363, 3397.119
658.1184, 3403.971
658.6005, 3405.345
659.0826, 3398.727
659.5648, 3386.982
660.0469, 3387.437
660.5290, 3400.638
661.0111, 3412.687
661.4932, 3407.044
661.9753, 3395.885
662.4575, 3408.845
662.9396, 3447.434
663.4217, 3479.582
663.9038, 3473.124
664.3859, 3454.529
664.8680, 3449.804
665.3502, 3469.053
665.8323, 3489.708
666.3144, 3505.253
666.7965, 3519.973
667.2786, 3540.689
667.7607, 3582.132
668.2429, 3597.972
668.7250, 3571.401
669.2071, 3524.731
669.6892, 3509.296
670.1713, 3525.785
670.6534, 3550.069
671.1355, 3580.588
671.6176, 3607.610
672.0997, 3601.801
672.5818, 3569.901
673.0640, 3547.614
673.5461, 3565.788
674.0282, 3596.378
674.5103, 3619.395
674.9924, 3633.467
675.4745, 3639.776
675.9567, 3631.189
676.4388, 3620.714
676.9209, 3617.076
677.4030, 3623.743
677.8851, 3627.074
678.3672, 3621.802
678.8494, 3620.332
679.3315, 3641.979
679.8136, 3688.036
680.2957, 3715.718
680.7778, 3713.931
681.2599, 3701.603
681.7421, 3705.449
682.2242, 3721.291
682.7063, 3737.155
683.1884, 3747.703
683.6705, 3757.353
684.1526, 3774.912
684.6348, 3794.687
685.1169, 3801.180
685.5990, 3773.157
686.0811, 3746.993
686.5632, 3736.772
687.0453, 3741.448
687.5275, 3746.380
688.0096, 3750.702
688.4917, 3757.161
688.9738, 3767.017
689.4559, 3780.291
689.9380, 3800.620
690.4202, 3829.259
690.9023, 3852.215
691.3844, 3852.114
691.8665, 3837.852
692.3486, 3825.701
692.8307, 3817.509
693.3129, 3813.715
693.7950, 3815.924
694.2771, 3822.005
694.7592, 3829.690
695.2413, 3846.847
695.7234, 3854.489
696.2056, 3838.387
696.6877, 3815.587
697.1698, 3814.993
697.6519, 3849.300
698.1340, 3869.192
698.6161, 3859.807
699.0983, 3833.549
699.5804, 3822.060
700.0625, 3824.741
700.5446, 3831.797
701.0267, 3841.883
701.5089, 3851.637
701.9910, 3855.438
702.4731, 3854.214
702.9552, 3853.015
703.4373, 3857.959
703.9194, 3860.917
704.4016, 3854.080
704.8837, 3834.643
705.3658, 3825.500
705.8479, 3835.395
706.3300, 3848.287
706.8121, 3854.587
707.2943, 3851.936
707.7764, 3855.922
708.2585, 3868.956
708.7406, 3880.870
709.2227, 3880.568
709.7048, 3869.878
710.1870, 3852.004
710.6691, 3823.481
711.1512, 3802.999
711.6333, 3815.264
712.1154, 3844.069
712.5975, 3865.342
713.0797, 3864.198
713.5618, 3863.451
714.0439, 3872.013
714.5260, 3884.852
715.0081, 3891.231
715.4902, 3888.171
715.9724, 3883.434
716.4545, 3876.765
716.9366, 3870.317
717.4187, 3874.162
717.9008, 3888.574
718.3829, 3898.687
718.8651, 3896.683
719.3472, 3886.143
719.8293, 3868.470
720.3114, 3845.921
720.7935, 3830.911
721.2756, 3835.198
721.7578, 3846.375
722.2399, 3857.615
722.7220, 3868.636
723.2041, 3876.645
723.6862, 3889.038
724.1683, 3890.770
724.6505, 3868.471
725.1326, 3812.764
725.6147, 3787.138
726.0968, 3798.000
726.5789, 3819.703
727.0610, 3830.389
727.5432, 3831.179
728.0253, 3822.937
728.5074, 3803.228
728.9895, 3789.610
729.4716, 3807.077
729.9537, 3837.741
730.4359, 3857.217
730.9180, 3855.285
731.4001, 3847.880
731.8822, 3837.564
732.3643, 3824.749
732.8464, 3809.716
733.3285, 3789.262
733.8106, 3773.251
734.2927, 3762.969
734.7748, 3758.037
735.2570, 3760.667
735.7391, 3770.164
736.2212, 3773.204
736.7033, 3760.726
737.1854, 3743.137
737.6675, 3734.691
738.1497, 3733.707
738.6318, 3734.401
739.1139, 3737.941
739.5960, 3738.966
740.0781, 3732.617
740.5602, 3719.795
741.0424, 3711.866
741.5245, 3712.792
742.0066, 3714.250
742.4887, 3713.578
742.9708, 3710.733
743.4529, 3702.439
743.9351, 3687.159
744.4172, 3677.636
744.8993, 3691.109
745.3814, 3715.240
745.8635, 3719.803
746.3456, 3703.273
746.8278, 3687.320
747.3099, 3688.025
747.7920, 3694.903
748.2741, 3700.775
748.7562, 3706.821
749.2383, 3704.224
749.7205, 3688.805
750.2026, 3620.810
750.6847, 3627.790
751.1668, 3628.053
751.6489, 3621.960
752.1310, 3590.475
752.6132, 3591.777
753.0953, 3579.941
753.5774, 3567.565
754.0595, 3573.484
754.5416, 3545.692
755.0237, 3551.322
755.5059, 3584.034
755.9880, 3581.346
756.4701, 3579.110
756.9522, 3577.954
757.4343, 3577.570
757.9164, 3580.913
758.3986, 3583.732
758.8807, 3578.133
759.3628, 3561.116
759.8449, 3545.892
760.3270, 3535.065
760.8091, 3528.255
761.2913, 3526.911
761.7734, 3529.818
762.2555, 3529.294
762.7376, 3518.430
763.2197, 3506.405
763.7018, 3502.920
764.1840, 3505.609
764.6661, 3507.413
765.1482, 3503.966
765.6303, 3500.975
766.1124, 3500.944
766.5945, 3503.098
767.0767, 3503.970
767.5588, 3504.190
768.0409, 3500.448
768.5230, 3487.640
769.0051, 3470.182
769.4872, 3469.890
769.9694, 3485.184
770.4515, 3495.932
770.9336, 3484.720
771.4157, 3464.886
771.8978, 3447.680
772.3799, 3434.033
772.8621, 3427.529
773.3442, 3443.370
773.8263, 3454.436
774.3084, 3442.531
774.7905, 3403.935
775.2726, 3382.458
775.7548, 3383.370
776.2369, 3389.063
776.7190, 3385.828
777.2011, 3375.943
777.6832, 3376.098
778.1653, 3387.163
778.6475, 3396.156
779.1296, 3389.817
779.6117, 3376.655
780.0938, 3364.144
780.5759, 3352.035
781.0580, 3349.361
781.5402, 3372.567
782.0223, 3396.622
782.5044, 3401.933
782.9865, 3378.760
783.4686, 3364.483
783.9507, 3360.939
784.4329, 3362.169
784.9150, 3363.284
785.3971, 3364.042
785.8792, 3362.299
786.3613, 3357.174
786.8434, 3353.462
787.3256, 3360.204
787.8077, 3369.193
788.2898, 3369.984
788.7719, 3357.036
789.2540, 3341.663
789.7361, 3318.287
790.2183, 3298.510
790.7004, 3297.502
791.1825, 3325.581
791.6646, 3336.011
792.1467, 3318.686
792.6288, 3294.431
793.1110, 3296.822
793.5930, 3318.844
794.0751, 3333.563
794.5573, 3332.919
795.0394, 3325.309
795.5215, 3312.204
796.0036, 3298.676
796.4857, 3291.972
796.9678, 3305.575
797.4500, 3311.757
797.9321, 3302.775
798.4142, 3286.705
798.8963, 3274.821
799.3784, 3266.235
799.8605, 3267.612
800.3427, 3283.623
800.8248, 3303.620
801.3069, 3310.718
801.7890, 3306.855
802.2711, 3297.862
802.7532, 3280.803
803.2354, 3266.085
803.7175, 3263.802
804.1996, 3267.948
804.6817, 3266.365
805.1638, 3247.198
805.6459, 3234.179
806.1281, 3231.721
806.6102, 3236.590
807.0923, 3241.602
807.5744, 3246.787
808.0565, 3252.614
808.5386, 3260.881
809.0208, 3267.507
809.5029, 3262.091
809.9850, 3249.224
810.4671, 3241.716
810.9492, 3255.321
811.4313, 3265.165
811.9135, 3255.692
812.3956, 3233.333
812.8777, 3218.557
813.3598, 3215.210
813.8419, 3213.354
814.3240, 3209.609
814.8062, 3206.584
815.2883, 3212.906
815.7704, 3227.950
816.2525, 3244.697
816.7346, 3266.150
817.2167, 3281.847
817.6989, 3273.544
818.1810, 3248.868
818.6631, 3229.437
819.1452, 3225.228
819.6273, 3225.586
820.1094, 3229.103
820.5916, 3234.488
821.0737, 3238.590
821.5558, 3242.275
822.0379, 3241.402
822.5200, 3232.907
823.0021, 3220.502
823.4843, 3210.957
823.9664, 3205.003
824.4485, 3205.760
824.9306, 3222.411
825.4127, 3239.725
825.8948, 3248.523
826.3770, 3248.854
826.8591, 3241.468
827.3412, 3204.535
827.8233, 3187.368
828.3054, 3210.341
828.7875, 3259.137
829.2697, 3276.711
829.7518, 3260.965
830.2339, 3244.643
830.7160, 3240.064
831.1981, 3243.060
831.6802, 3249.825
832.1624, 3258.730
832.6445, 3264.366
833.1266, 3261.332
833.6087, 3257.487
834.0908, 3256.322
834.5729, 3257.348
835.0551, 3257.556
835.5372, 3254.958
836.0193, 3256.343
836.5014, 3264.997
836.9835, 3277.788
837.4656, 3284.786
837.9478, 3286.819
838.4299, 3290.034
838.9120, 3298.352
839.3941, 3308.132
839.8762, 3316.347
840.3583, 3323.391
840.8405, 3330.350
841.3226, 3342.279
841.8047, 3347.875
842.2868, 3340.746
842.7689, 3326.837
843.2510, 3323.802
843.7332, 3332.421
844.2153, 3345.503
844.6974, 3361.753
845.1795, 3379.816
845.6616, 3399.288
846.1437, 3418.562
846.6259, 3433.063
847.1080, 3438.425
847.5901, 3440.941
848.0722, 3440.643
848.5543, 3439.794
849.0364, 3444.702
849.5186, 3460.864
850.0007, 3470.284
850.4828, 3467.506
850.9649, 3458.663
851.4470, 3454.216
851.9291, 3454.818
852.4113, 3465.077
852.8934, 3493.795
853.3755, 3521.078
853.8576, 3523.823
854.3397, 3513.732
854.8218, 3511.698
855.3040, 3530.541
855.7860, 3549.144
856.2681, 3566.696
856.7502, 3580.765
857.2324, 3586.363
857.7145, 3582.907
858.1966, 3576.294
858.6787, 3564.099
859.1608, 3558.358
859.6429, 3587.722
860.1251, 3633.075
860.6072, 3657.857
861.0893, 3637.032
861.5714, 3616.204
862.0535, 3610.032
862.5356, 3614.607
863.0178, 3624.082
863.4999, 3640.079
863.9820, 3656.599
864.4641, 3673.458
864.9462, 3689.285
865.4283, 3704.451
865.9105, 3716.863
866.3926, 3716.944
866.8747, 3698.339
867.3568, 3684.608
867.8389, 3700.577
868.3210, 3726.814
868.8032, 3743.596
869.2853, 3743.519
869.7674, 3739.575
870.2495, 3727.369
870.7316, 3717.556
871.2137, 3723.731
871.6959, 3744.427
872.1780, 3756.739
872.6601, 3758.021
873.1422, 3757.133
873.6243, 3762.438
874.1064, 3769.978
874.5886, 3774.921
875.0707, 3775.829
875.5528, 3776.991
876.0349, 3772.619
876.5170, 3774.976
876.9991, 3794.301
877.4813, 3833.604
877.9634, 3860.498
878.4455, 3874.158
878.9276, 3881.480
879.4097, 3886.280
879.8918, 3889.192
880.3740, 3888.420
880.8561, 3884.417
881.3382, 3888.290
881.8203, 3915.057
882.3024, 3942.620
882.7845, 3956.890
883.2667, 3957.893
883.7488, 3964.880
884.2309, 3978.816
884.7130, 3995.272
885.1951, 4016.052
885.6772, 4036.300
886.1594, 4039.332
886.6415, 4028.049
887.1236, 4019.481
887.6057, 4022.531
888.0878, 4031.965
888.5699, 4046.031
889.0521, 4064.343
889.5342, 4085.177
890.0163, 4114.202
890.4984, 4132.238
890.9805, 4126.503
891.4626, 4111.968
891.9448, 4138.943
892.4269, 4199.188
892.9090, 4248.104
893.3911, 4261.638
893.8732, 4260.144
894.3553, 4249.870
894.8375, 4237.079
895.3196, 4235.890
895.8017, 4259.202
896.2838, 4279.818
896.7659, 4294.884
897.2480, 4305.703
897.7302, 4318.216
898.2123, 4331.011
898.6944, 4325.090
899.1765, 4288.014
899.6586, 4255.470
900.1407, 4270.211
900.6229, 4310.423
901.1050, 4346.974
901.5871, 4380.286
902.0692, 4395.972
902.5513, 4381.443
903.0334, 4361.545
903.5156, 4362.695
903.9977, 4386.019
904.4798, 4400.142
904.9619, 4401.108
905.4440, 4404.009
905.9261, 4432.751
906.4083, 4467.680
906.8904, 4479.295
907.3725, 4458.412
907.8546, 4449.018
908.3367, 4482.314
908.8188, 4514.653
909.3010, 4517.430
909.7831, 4488.298
910.2652, 4486.558
910.7473, 4514.864
911.2294, 4544.810
911.7115, 4555.969
912.1937, 4556.607
912.6758, 4557.118
913.1579, 4558.315
913.6400, 4562.884
914.1221, 4578.153
914.6042, 4590.268
915.0864, 4589.605
915.5685, 4580.493
916.0506, 4587.519
916.5327, 4613.728
917.0148, 4636.954
917.4969, 4649.713
917.9790, 4654.052
918.4611, 4648.366
918.9432, 4637.085
919.4254, 4631.539
919.9075, 4641.937
920.3896, 4652.788
920.8717, 4650.720
921.3538, 4669.517
921.8359, 4681.597
922.3181, 4687.321
922.8002, 4667.651
923.2823, 4680.772
923.7644, 4680.752
924.2465, 4680.193
924.7286, 4697.929
925.2108, 4681.954
925.6929, 4699.399
926.1750, 4703.504
926.6571, 4713.714
927.1392, 4710.703
927.6213, 4711.775
928.1035, 4726.075
928.5856, 4733.050
929.0677, 4722.702
929.5498, 4744.219
930.0319, 4735.970
930.5140, 4715.030
930.9962, 4721.906
931.4783, 4758.072
931.9604, 4784.561
932.4425, 4775.041
932.9246, 4756.762
933.4067, 4744.808
933.8889, 4738.710
934.3710, 4724.391
934.8531, 4698.128
935.3352, 4681.370
935.8173, 4689.578
936.2994, 4709.770
936.7816, 4717.334
937.2637, 4714.427
937.7458, 4707.744
938.2279, 4694.043
938.7100, 4684.110
939.1921, 4688.987
939.6743, 4698.705
940.1564, 4693.056
940.6385, 4668.447
941.1206, 4644.278
941.6027, 4623.620
942.0848, 4604.941
942.5670, 4588.581
943.0491, 4572.036
943.5312, 4546.993
944.0133, 4504.077
944.4954, 4474.975
944.9775, 4488.507
945.4597, 4510.232
945.9418, 4509.444
946.4239, 4478.041
946.9060, 4462.770
947.3881, 4466.707
947.8702, 4468.889
948.3524, 4448.926
948.8345, 4416.805
949.3166, 4387.277
949.7987, 4361.181
950.2808, 4339.060
950.7629, 4325.558
951.2451, 4311.702
951.7272, 4291.129
952.2093, 4266.165
952.6914, 4254.521
953.1735, 4257.960
953.6556, 4256.742
954.1378, 4241.818
954.6199, 4218.809
955.1020, 4192.802
955.5841, 4165.161
956.0662, 4138.913
956.5483, 4110.563
957.0305, 4089.893
957.5126, 4082.611
957.9947, 4081.418
958.4768, 4078.446
958.9589, 4074.040
959.4410, 4060.189
959.9232, 4034.461
960.4053, 4005.916
960.8874, 3981.474
961.3695, 3960.698
961.8516, 3944.255
962.3337, 3933.568
962.8159, 3920.395
963.2980, 3902.243
963.7801, 3882.139
964.2622, 3860.743
964.7443, 3838.168
965.2264, 3818.802
965.7086, 3802.547
966.1907, 3785.493
966.6728, 3762.250
967.1549, 3739.148
967.6370, 3724.583
968.1191, 3716.020
968.6013, 3702.672
969.0834, 3677.417
969.5655, 3654.734
970.0476, 3636.927
970.5297, 3623.071
971.0118, 3609.972
971.4940, 3598.402
971.9761, 3593.942
972.4582, 3601.790
972.9403, 3606.761
973.4224, 3593.465
973.9045, 3572.757
974.3867, 3557.818
974.8688, 3555.644
975.3509, 3544.521
975.8330, 3519.832
976.3151, 3496.902
976.7972, 3495.243
977.2794, 3505.707
977.7615, 3494.885
978.2436, 3462.877
978.7257, 3435.199
979.2078, 3426.550
979.6899, 3427.235
980.1720, 3438.252
980.6541, 3455.749
981.1362, 3456.609
981.6183, 3438.212
982.1005, 3412.891
982.5826, 3379.434
983.0647, 3349.342
983.5468, 3352.393
984.0289, 3374.824
984.5110, 3384.086
984.9932, 3360.865
985.4753, 3335.171
985.9574, 3314.038
986.4395, 3296.013
986.9216, 3279.123
987.4037, 3262.716
987.8859, 3254.267
988.3680, 3254.893
988.8501, 3258.333
989.3322, 3262.626
989.8143, 3264.189
990.2964, 3256.752
990.7786, 3239.741
991.2607, 3225.414
991.7428, 3219.965
992.2249, 3213.443
992.7070, 3202.242
993.1891, 3187.252
993.6713, 3170.507
994.1534, 3152.710
994.6355, 3140.508
995.1176, 3139.096
995.5997, 3141.560
996.0818, 3149.115
996.5640, 3155.031
997.0461, 3145.574
997.5282, 3103.657
998.0103, 3080.331
998.4924, 3083.373
998.9745, 3095.185
999.4567, 3094.935
999.9388, 3086.828
1000.421, 3083.343
1000.903, 3085.959
1001.385, 3088.541
1001.867, 3091.321
1002.349, 3089.416
1002.831, 3076.749
1003.314, 3054.708
1003.796, 3040.684
1004.278, 3035.485
1004.760, 3032.120
1005.242, 3027.045
1005.724, 3022.416
1006.206, 3026.276
1006.688, 3032.770
1007.171, 3028.610
1007.653, 2993.889
1008.135, 2968.989
1008.617, 2963.373
1009.099, 2966.429
1009.581, 2963.612
1010.063, 2955.569
1010.545, 2961.524
1011.027, 2984.436
1011.510, 3004.425
1011.992, 3000.893
1012.474, 2989.006
1012.956, 2983.135
1013.438, 2985.115
1013.920, 2979.230
1014.402, 2961.996
1014.884, 2943.683
1015.367, 2925.537
1015.849, 2911.242
1016.331, 2914.764
1016.813, 2930.976
1017.295, 2942.573
1017.777, 2938.702
1018.259, 2932.955
1018.741, 2928.121
1019.223, 2925.995
1019.706, 2931.397
1020.188, 2948.560
1020.670, 2946.573
1021.152, 2920.937
1021.634, 2891.601
1022.116, 2875.249
1022.598, 2868.553
1023.080, 2868.834
1023.563, 2875.730
1024.045, 2885.025
1024.527, 2903.125
1025.009, 2912.702
1025.491, 2904.063
1025.973, 2884.804
1026.455, 2880.688
1026.937, 2889.543
1027.419, 2899.394
1027.901, 2909.699
1028.384, 2912.289
1028.866, 2893.049
1029.348, 2866.792
1029.830, 2853.682
1030.312, 2860.438
1030.794, 2863.109
1031.276, 2860.701
1031.758, 2857.049
1032.241, 2856.836
1032.723, 2857.344
1033.205, 2851.883
1033.687, 2841.110
1034.169, 2834.210
1034.651, 2839.327
1035.133, 2843.957
1035.615, 2844.987
1036.098, 2842.130
1036.580, 2830.581
1037.062, 2811.721
1037.544, 2806.544
1038.026, 2827.408
1038.508, 2845.970
1038.990, 2827.801
1039.472, 2797.956
1039.954, 2786.996
1040.437, 2806.653
1040.919, 2822.461
1041.401, 2836.587
1041.883, 2841.287
1042.365, 2822.146
1042.847, 2792.327
1043.329, 2786.492
1043.811, 2800.739
1044.293, 2813.421
1044.776, 2818.515
1045.258, 2815.533
1045.740, 2799.837
1046.222, 2779.034
1046.704, 2766.491
1047.186, 2762.248
1047.668, 2762.346
1048.150, 2766.937
1048.633, 2770.575
1049.115, 2767.127
1049.597, 2760.611
1050.079, 2754.960
1050.561, 2750.938
1051.043, 2745.658
1051.525, 2736.717
1052.007, 2733.330
1052.490, 2744.708
1052.972, 2761.660
1053.454, 2756.930
1053.936, 2738.051
1054.418, 2728.167
1054.900, 2746.261
1055.382, 2763.702
1055.864, 2775.340
1056.346, 2780.014
1056.828, 2773.709
1057.311, 2756.166
1057.793, 2742.633
1058.275, 2734.269
1058.757, 2728.958
1059.239, 2724.218
1059.721, 2722.267
1060.203, 2729.828
1060.685, 2745.505
1061.168, 2743.106
1061.650, 2712.813
1062.132, 2690.920
1062.614, 2690.252
1063.096, 2700.448
1063.578, 2704.508
1064.060, 2704.888
1064.542, 2707.926
1065.025, 2719.576
1065.507, 2723.517
1065.989, 2704.115
1066.471, 2685.413
1066.953, 2685.311
1067.435, 2703.275
1067.917, 2713.167
1068.399, 2715.277
1068.881, 2713.291
1069.364, 2707.373
1069.846, 2700.240
1070.328, 2695.279
1070.810, 2690.294
1071.292, 2677.815
1071.774, 2650.724
1072.256, 2640.408
1072.738, 2653.572
1073.220, 2676.150
1073.703, 2696.105
1074.185, 2711.330
1074.667, 2717.036
1075.149, 2712.253
1075.631, 2705.018
1076.113, 2695.161
1076.595, 2685.926
1077.077, 2676.237
1077.559, 2669.433
1078.042, 2685.082
1078.524, 2716.180
1079.006, 2728.842
1079.488, 2697.725
1079.970, 2667.566
1080.452, 2664.545
1080.934, 2674.710
1081.416, 2681.143
1081.899, 2681.593
1082.381, 2693.557
1082.863, 2718.887
1083.345, 2735.812
1083.827, 2718.859
1084.309, 2691.715
1084.791, 2675.328
1085.273, 2670.312
1085.755, 2676.703
1086.238, 2707.797
1086.720, 2721.007
1087.202, 2704.408
1087.684, 2678.372
1088.166, 2671.787
1088.648, 2678.963
1089.130, 2687.700
1089.612, 2696.535
1090.094, 2702.013
1090.577, 2702.899
1091.059, 2699.375
1091.541, 2689.016
1092.023, 2674.753
1092.505, 2673.123
1092.987, 2682.625
1093.469, 2689.072
1093.951, 2683.064
1094.434, 2678.870
1094.916, 2695.092
1095.398, 2714.561
1095.880, 2713.376
1096.362, 2681.110
1096.844, 2666.593
1097.326, 2672.026
1097.808, 2679.838
1098.291, 2673.917
1098.773, 2664.289
1099.255, 2663.963
1099.737, 2671.627
1100.219, 2681.463
1100.701, 2697.966
1101.183, 2706.313
1101.665, 2701.970
1102.147, 2693.622
1102.630, 2692.514
1103.112, 2697.520
1103.594, 2709.761
1104.076, 2730.208
1104.558, 2738.526
1105.040, 2709.562
1105.522, 2683.061
1106.004, 2678.350
1106.486, 2689.746
1106.969, 2694.938
1107.451, 2694.368
1107.933, 2691.683
1108.415, 2687.431
1108.897, 2683.189
1109.379, 2680.423
1109.861, 2678.214
1110.343, 2674.891
1110.826, 2669.331
1111.308, 2670.936
1111.790, 2680.696
1112.272, 2689.410
1112.754, 2693.814
1113.236, 2691.917
1113.718, 2673.874
1114.200, 2648.071
1114.682, 2637.069
1115.165, 2654.566
1115.647, 2667.537
1116.129, 2673.039
1116.611, 2674.025
1117.093, 2674.082
1117.575, 2671.970
1118.057, 2662.454
1118.539, 2645.927
1119.021, 2635.441
1119.504, 2643.476
1119.986, 2649.003
1120.468, 2645.077
1120.950, 2636.061
1121.432, 2630.071
1121.914, 2627.763
1122.396, 2633.780
1122.878, 2652.126
1123.361, 2665.456
1123.843, 2657.824
1124.325, 2646.579
1124.807, 2644.303
1125.289, 2650.315
1125.771, 2654.140
1126.253, 2655.765
1126.735, 2655.590
1127.218, 2651.425
1127.700, 2648.780
1128.182, 2657.456
1128.664, 2668.268
1129.146, 2665.844
1129.628, 2640.229
1130.110, 2634.348
1130.592, 2651.291
1131.074, 2670.281
1131.557, 2674.573
1132.039, 2672.044
1132.521, 2673.877
1133.003, 2678.021
1133.485, 2675.698
1133.967, 2658.971
1134.449, 2648.730
1134.931, 2649.182
1135.413, 2652.813
1135.896, 2649.094
1136.378, 2641.999
1136.860, 2638.248
1137.342, 2638.685
1137.824, 2644.281
1138.306, 2666.704
1138.788, 2679.350
1139.270, 2670.408
1139.752, 2650.807
1140.235, 2650.430
1140.717, 2662.356
1141.199, 2659.158
1141.681, 2627.794
1142.163, 2606.976
1142.645, 2633.285
1143.127, 2659.940
1143.609, 2656.639
1144.092, 2627.367
1144.574, 2601.308
1145.056, 2579.165
1145.538, 2569.916
1146.020, 2584.490
1146.502, 2602.657
1146.984, 2612.157
1147.466, 2617.183
1147.948, 2624.017
1148.431, 2634.789
1148.913, 2633.842
1149.395, 2620.617
1149.877, 2605.799
1150.359, 2592.292
1150.841, 2584.509
1151.323, 2589.561
1151.805, 2602.818
1152.287, 2611.694
1152.770, 2614.302
1153.252, 2615.701
1153.734, 2615.456
1154.216, 2618.194
1154.698, 2633.428
1155.180, 2651.212
1155.662, 2659.195
1156.144, 2657.259
1156.627, 2653.108
1157.109, 2646.423
1157.591, 2641.063
1158.073, 2637.620
1158.555, 2636.620
1159.037, 2639.773
1159.519, 2645.465
1160.001, 2652.831
1160.484, 2662.876
1160.966, 2662.392
1161.448, 2637.996
1161.930, 2622.930
1162.412, 2634.535
1162.894, 2658.006
1163.376, 2655.431
1163.858, 2635.947
1164.340, 2624.152
1164.823, 2631.635
1165.305, 2635.055
1165.787, 2623.444
1166.269, 2612.191
1166.751, 2611.456
1167.233, 2618.756
1167.715, 2618.556
1168.197, 2614.302
1168.679, 2621.503
1169.162, 2668.227
1169.644, 2700.441
1170.126, 2687.228
1170.608, 2661.069
1171.090, 2649.988
1171.572, 2652.908
1172.054, 2652.129
1172.536, 2647.500
1173.019, 2643.873
1173.501, 2643.306
1173.983, 2645.327
1174.465, 2650.312
1174.947, 2657.483
1175.429, 2667.740
1175.911, 2681.015
1176.393, 2687.802
1176.875, 2687.141
1177.358, 2678.636
1177.840, 2647.470
1178.322, 2621.885
1178.804, 2630.137
1179.286, 2659.726
1179.768, 2667.144
1180.250, 2650.685
1180.732, 2651.640
1181.214, 2682.310
1181.697, 2708.055
1182.179, 2687.935
1182.661, 2656.170
1183.143, 2643.488
1183.625, 2650.035
1184.107, 2657.640
1184.589, 2666.382
1185.071, 2674.815
1185.554, 2681.931
1186.036, 2689.990
1186.518, 2713.249
1187.000, 2731.804
1187.482, 2712.344
1187.964, 2644.391
1188.446, 2628.327
1188.928, 2673.168
1189.411, 2711.106
1189.893, 2705.563
1190.375, 2683.348
1190.857, 2673.884
1191.339, 2671.087
1191.821, 2665.828
1192.303, 2655.899
1192.785, 2644.732
1193.267, 2630.371
1193.750, 2624.062
1194.232, 2642.749
1194.714, 2666.699
1195.196, 2666.669
1195.678, 2652.398
1196.160, 2645.965
1196.642, 2657.375
1197.124, 2662.135
1197.606, 2658.208
1198.089, 2652.576
1198.571, 2649.031
1199.053, 2649.044
1199.535, 2656.537
1200.017, 2669.736
1200.499, 2682.067
1200.981, 2694.748
1201.463, 2700.450
1201.945, 2696.215
1202.428, 2691.881
1202.910, 2704.645
1203.392, 2720.417
1203.874, 2713.658
1204.356, 2686.445
1204.838, 2670.919
1205.320, 2675.268
1205.802, 2684.514
1206.285, 2697.813
1206.767, 2709.869
1207.249, 2703.628
1207.731, 2713.003
1208.213, 2727.928
1208.695, 2736.136
1209.177, 2737.987
1209.659, 2714.446
1210.141, 2723.694
1210.624, 2719.801
1211.106, 2715.370
1211.588, 2729.234
1212.070, 2709.385
1212.552, 2722.959
1213.034, 2723.191
1213.516, 2729.529
1213.998, 2722.646
1214.480, 2718.949
1214.963, 2729.695
1215.445, 2727.524
1215.927, 2715.715
1216.409, 2699.689
1216.891, 2688.746
1217.373, 2685.193
1217.855, 2687.925
1218.337, 2701.414
1218.820, 2708.674
1219.302, 2695.870
1219.784, 2677.329
1220.266, 2684.820
1220.748, 2706.867
1221.230, 2720.952
1221.712, 2716.757
1222.194, 2714.347
1222.677, 2716.057
1223.159, 2715.909
1223.641, 2705.946
1224.123, 2694.700
1224.605, 2701.599
1225.087, 2719.302
1225.569, 2731.517
1226.051, 2731.309
1226.533, 2727.511
1227.016, 2718.392
1227.498, 2710.902
1227.980, 2710.115
1228.462, 2714.643
1228.944, 2724.010
1229.426, 2736.725
1229.908, 2749.078
1230.390, 2769.527
1230.872, 2768.474
1231.355, 2737.781
1231.837, 2707.953
1232.319, 2713.656
1232.801, 2733.369
1233.283, 2732.359
1233.765, 2716.615
1234.247, 2713.906
1234.729, 2738.909
1235.212, 2750.980
1235.694, 2743.734
1236.176, 2732.757
1236.658, 2734.252
1237.140, 2741.216
1237.622, 2746.958
1238.104, 2750.188
1238.586, 2746.101
1239.068, 2729.178
1239.551, 2723.632
1240.033, 2734.994
1240.515, 2749.260
1240.997, 2753.565
1241.479, 2751.297
1241.961, 2746.121
1242.443, 2738.040
1242.925, 2723.065
1243.407, 2695.364
1243.890, 2689.118
1244.372, 2714.427
1244.854, 2743.934
1245.336, 2746.701
1245.818, 2739.028
1246.300, 2734.198
1246.782, 2733.962
1247.264, 2741.516
1247.747, 2758.203
1248.229, 2773.426
1248.711, 2785.654
1249.193, 2791.259
1249.675, 2786.018
1250.157, 2773.297
1250.639, 2751.247
1251.121, 2723.006
1251.604, 2712.053
1252.086, 2719.661
1252.568, 2724.252
1253.050, 2719.711
1253.532, 2712.187
1254.014, 2703.958
1254.496, 2697.609
1254.978, 2694.239
1255.460, 2694.265
1255.943, 2706.237
1256.425, 2729.335
1256.907, 2742.390
1257.389, 2736.635
1257.871, 2728.186
1258.353, 2732.677
1258.835, 2734.751
1259.317, 2718.914
1259.799, 2690.182
1260.281, 2688.103
1260.764, 2708.268
1261.246, 2720.135
1261.728, 2711.875
1262.210, 2698.783
1262.692, 2679.262
1263.174, 2668.441
1263.656, 2679.556
1264.138, 2706.218
1264.621, 2714.474
1265.103, 2709.591
1265.585, 2715.103
1266.067, 2749.980
1266.549, 2768.340
1267.031, 2734.339
1267.513, 2702.891
1267.995, 2708.279
1268.478, 2737.669
1268.960, 2746.689
1269.442, 2741.523
1269.924, 2741.150
1270.406, 2756.730
1270.888, 2765.714
1271.370, 2761.179
1271.852, 2756.771
1272.334, 2763.052
1272.817, 2773.805
1273.299, 2775.434
1273.781, 2769.680
1274.263, 2759.659
1274.745, 2736.013
1275.227, 2734.464
1275.709, 2765.327
1276.191, 2789.961
1276.673, 2776.074
1277.156, 2747.969
1277.638, 2745.177
1278.120, 2756.888
1278.602, 2760.969
1279.084, 2746.446
1279.566, 2746.765
1280.048, 2765.005
1280.530, 2779.790
1281.013, 2771.577
1281.495, 2758.302
1281.977, 2760.760
1282.459, 2770.418
1282.941, 2772.142
1283.423, 2762.000
1283.905, 2761.351
1284.387, 2770.584
1284.870, 2775.428
1285.352, 2756.358
1285.834, 2740.827
##END=



