##NAMES=Muscovite
##RRUFFID=R040124
##IDEAL CHEMISTRY=KAl_2_(Si_3_Al)O_10_(OH)_2_
##LOCALITY=Garnet Hill, Pennsylvania, USA
##OWNER=RRUFF
##SOURCE=Bob Downs
##DESCRIPTION=Grayish green mica book
##STATUS=The identification of this mineral has been confirmed by X-ray diffraction and chemical analysis
##URL=rruff.info/R040124
##MEASURED CHEMISTRY=(K_0.90_Na_0.07_)(Al_0.86_Fe_0.10_Mg_0.04_)_2_(Si_0.76_Al_0.24_)_4_O_10_((OH)_0.99_F_0.01_)_2_
129.6975, 2920.126
130.1796, 3057.375
130.6617, 3185.475
131.1439, 3302.849
131.6260, 3407.395
132.1081, 3501.888
132.5902, 3608.142
133.0723, 3761.518
133.5544, 3890.207
134.0366, 3992.998
134.5187, 4060.175
135.0008, 4073.210
135.4829, 4015.139
135.9650, 3890.028
136.4471, 3782.144
136.9293, 3701.033
137.4114, 3625.662
137.8935, 3552.023
138.3756, 3479.256
138.8577, 3403.990
139.3398, 3321.275
139.8220, 3230.776
140.3041, 3174.293
140.7862, 3144.130
141.2683, 3145.552
141.7504, 3184.590
142.2325, 3258.673
142.7147, 3359.994
143.1968, 3485.529
143.6789, 3636.104
144.1610, 3794.648
144.6431, 3962.652
145.1252, 4135.599
145.6074, 4313.799
146.0895, 4495.987
146.5716, 4678.314
147.0537, 4863.697
147.5358, 5048.913
148.0179, 5194.598
148.5001, 5280.060
148.9822, 5342.249
149.4643, 5406.396
149.9464, 5474.292
150.4285, 5537.878
150.9106, 5599.340
151.3928, 5652.493
151.8749, 5662.270
152.3570, 5611.840
152.8391, 5525.942
153.3212, 5421.619
153.8033, 5299.872
154.2855, 5167.128
154.7676, 5014.536
155.2497, 4851.442
155.7318, 4720.202
156.2139, 4634.022
156.6960, 4579.773
157.1782, 4543.911
157.6603, 4525.898
158.1424, 4525.923
158.6245, 4551.656
159.1066, 4596.563
159.5887, 4647.611
160.0709, 4709.629
160.5530, 4772.917
161.0351, 4822.200
161.5172, 4855.051
161.9993, 4880.848
162.4814, 4893.383
162.9636, 4903.369
163.4457, 4934.214
163.9278, 5006.012
164.4099, 5100.229
164.8920, 5187.334
165.3741, 5271.451
165.8563, 5335.575
166.3384, 5362.506
166.8205, 5364.021
167.3026, 5357.006
167.7847, 5344.267
168.2668, 5328.548
168.7490, 5317.852
169.2311, 5317.606
169.7132, 5309.401
170.1953, 5281.328
170.6774, 5240.124
171.1595, 5194.546
171.6417, 5143.671
172.1238, 5093.006
172.6059, 5057.623
173.0880, 5043.151
173.5701, 5033.399
174.0522, 5024.469
174.5344, 5014.334
175.0165, 4999.471
175.4986, 4976.001
175.9807, 4947.943
176.4628, 4927.673
176.9449, 4922.883
177.4271, 4911.265
177.9092, 4878.036
178.3913, 4835.390
178.8734, 4800.047
179.3555, 4780.746
179.8376, 4773.025
180.3197, 4762.321
180.8019, 4741.704
181.2840, 4731.285
181.7661, 4739.578
182.2482, 4759.062
182.7303, 4780.540
183.2124, 4799.370
183.6946, 4817.694
184.1767, 4841.648
184.6588, 4871.953
185.1409, 4907.125
185.6230, 4949.591
186.1051, 4994.580
186.5873, 5035.064
187.0694, 5066.326
187.5515, 5095.329
188.0336, 5143.136
188.5157, 5222.534
188.9978, 5298.829
189.4800, 5367.005
189.9621, 5427.324
190.4442, 5480.328
190.9263, 5525.604
191.4084, 5564.444
191.8905, 5600.682
192.3727, 5639.405
192.8548, 5665.269
193.3369, 5666.304
193.8190, 5660.086
194.3011, 5666.503
194.7832, 5693.724
195.2654, 5728.057
195.7475, 5740.247
196.2296, 5725.135
196.7117, 5694.961
197.1938, 5641.875
197.6759, 5582.462
198.1581, 5531.590
198.6402, 5494.049
199.1223, 5463.665
199.6044, 5428.368
200.0865, 5382.291
200.5686, 5343.277
201.0508, 5314.910
201.5329, 5291.375
202.0150, 5268.468
202.4971, 5244.936
202.9792, 5222.921
203.4613, 5207.087
203.9435, 5203.686
204.4256, 5192.108
204.9077, 5160.057
205.3898, 5128.543
205.8719, 5113.157
206.3540, 5116.313
206.8362, 5127.929
207.3183, 5134.738
207.8004, 5135.081
208.2825, 5134.445
208.7646, 5129.632
209.2467, 5126.410
209.7289, 5128.754
210.2110, 5136.753
210.6931, 5147.261
211.1752, 5156.127
211.6573, 5161.418
212.1395, 5172.247
212.6216, 5191.523
213.1037, 5213.309
213.5858, 5236.099
214.0679, 5258.982
214.5500, 5281.040
215.0322, 5302.332
215.5143, 5324.025
215.9964, 5336.326
216.4785, 5344.253
216.9606, 5338.447
217.4427, 5310.483
217.9249, 5264.431
218.4070, 5211.266
218.8891, 5159.520
219.3712, 5109.251
219.8533, 5058.259
220.3354, 5012.479
220.8176, 4959.829
221.2997, 4892.745
221.7818, 4816.125
222.2639, 4740.358
222.7460, 4674.342
223.2281, 4615.710
223.7103, 4544.630
224.1924, 4437.130
224.6745, 4343.067
225.1566, 4273.058
225.6387, 4222.571
226.1208, 4186.165
226.6030, 4162.370
227.0851, 4146.992
227.5672, 4121.991
228.0493, 4076.633
228.5314, 4035.627
229.0135, 4002.719
229.4957, 3976.344
229.9778, 3954.649
230.4599, 3936.820
230.9420, 3923.040
231.4241, 3914.704
231.9062, 3919.011
232.3884, 3916.050
232.8705, 3894.681
233.3526, 3870.738
233.8347, 3855.899
234.3168, 3854.401
234.7989, 3866.019
235.2811, 3893.521
235.7632, 3948.897
236.2453, 3991.596
236.7274, 4014.749
237.2095, 4028.672
237.6916, 4033.542
238.1738, 4032.220
238.6559, 4038.188
239.1380, 4072.215
239.6201, 4144.487
240.1022, 4207.413
240.5843, 4250.522
241.0665, 4291.148
241.5486, 4333.934
242.0307, 4381.277
242.5128, 4436.926
242.9949, 4506.907
243.4770, 4592.820
243.9592, 4675.172
244.4413, 4746.261
244.9234, 4822.039
245.4055, 4905.142
245.8876, 4997.667
246.3697, 5103.063
246.8519, 5227.812
247.3340, 5369.828
247.8161, 5501.241
248.2982, 5603.042
248.7803, 5721.458
249.2624, 5870.338
249.7446, 6045.378
250.2267, 6238.958
250.7088, 6450.107
251.1909, 6675.544
251.6730, 6905.053
252.1551, 7132.915
252.6373, 7379.668
253.1194, 7642.445
253.6015, 7927.760
254.0836, 8246.636
254.5657, 8605.553
255.0478, 8989.045
255.5300, 9378.366
256.0121, 9774.730
256.4942, 10168.55
256.9763, 10558.65
257.4584, 10943.47
257.9406, 11336.40
258.4227, 11741.04
258.9048, 12115.70
259.3869, 12427.10
259.8690, 12675.94
260.3511, 12851.65
260.8333, 12938.84
261.3154, 12956.69
261.7975, 12928.38
262.2796, 12853.04
262.7617, 12711.95
263.2438, 12474.55
263.7260, 12152.07
264.2081, 11813.09
264.6902, 11464.95
265.1723, 11098.35
265.6544, 10695.72
266.1365, 10267.26
266.6187, 9852.769
267.1008, 9469.306
267.5829, 9112.460
268.0650, 8776.843
268.5471, 8467.605
269.0292, 8163.811
269.5114, 7835.684
269.9935, 7505.974
270.4756, 7216.544
270.9577, 6993.134
271.4398, 6802.333
271.9219, 6605.340
272.4041, 6401.135
272.8862, 6215.248
273.3683, 6065.968
273.8504, 5941.967
274.3325, 5819.032
274.8146, 5694.574
275.2968, 5573.561
275.7789, 5454.429
276.2610, 5340.171
276.7431, 5244.555
277.2252, 5178.327
277.7073, 5125.219
278.1895, 5055.753
278.6716, 4965.945
279.1537, 4882.310
279.6358, 4816.785
280.1179, 4763.245
280.6000, 4710.836
281.0822, 4656.434
281.5643, 4606.797
282.0464, 4573.647
282.5285, 4559.293
283.0106, 4533.990
283.4927, 4481.256
283.9749, 4424.532
284.4570, 4386.250
284.9391, 4367.468
285.4212, 4353.220
285.9033, 4331.317
286.3854, 4302.086
286.8676, 4279.155
287.3497, 4266.436
287.8318, 4255.553
288.3139, 4243.666
288.7960, 4230.400
289.2781, 4215.614
289.7603, 4199.295
290.2424, 4181.293
290.7245, 4161.156
291.2066, 4130.917
291.6887, 4108.394
292.1708, 4099.290
292.6530, 4098.298
293.1351, 4101.151
293.6172, 4106.116
294.0993, 4109.016
294.5814, 4101.861
295.0635, 4075.433
295.5457, 4056.207
296.0278, 4043.915
296.5099, 4038.447
296.9920, 4043.421
297.4741, 4057.049
297.9562, 4070.372
298.4384, 4073.071
298.9205, 4062.413
299.4026, 4060.385
299.8847, 4076.103
300.3668, 4091.067
300.8489, 4099.600
301.3311, 4102.392
301.8131, 4101.175
302.2953, 4095.919
302.7774, 4088.849
303.2595, 4092.054
303.7416, 4114.395
304.2237, 4134.314
304.7058, 4141.539
305.1880, 4146.790
305.6701, 4164.013
306.1522, 4198.771
306.6343, 4238.796
307.1164, 4263.607
307.5985, 4269.797
308.0807, 4273.039
308.5628, 4273.268
309.0449, 4273.178
309.5270, 4274.936
310.0091, 4278.504
310.4912, 4281.228
310.9734, 4279.905
311.4555, 4275.030
311.9376, 4272.665
312.4197, 4276.386
312.9018, 4277.914
313.3839, 4268.756
313.8661, 4253.296
314.3482, 4243.209
314.8303, 4245.375
315.3124, 4255.396
315.7945, 4270.495
316.2766, 4293.970
316.7588, 4302.487
317.2409, 4270.068
317.7230, 4218.676
318.2051, 4184.660
318.6872, 4175.899
319.1693, 4178.938
319.6515, 4194.123
320.1336, 4216.007
320.6157, 4217.062
321.0978, 4180.695
321.5799, 4130.943
322.0620, 4106.506
322.5442, 4109.163
323.0263, 4116.271
323.5084, 4124.188
323.9905, 4131.871
324.4726, 4139.416
324.9547, 4146.824
325.4369, 4149.321
325.9190, 4140.654
326.4011, 4119.371
326.8832, 4105.032
327.3653, 4099.563
327.8474, 4098.850
328.3296, 4106.581
328.8117, 4117.953
329.2938, 4119.051
329.7759, 4100.572
330.2580, 4067.567
330.7401, 4043.533
331.2223, 4030.257
331.7044, 4023.768
332.1865, 4030.603
332.6686, 4040.865
333.1507, 4044.767
333.6328, 4039.132
334.1150, 4026.009
334.5971, 4006.764
335.0792, 3975.448
335.5613, 3954.780
336.0434, 3949.223
336.5255, 3948.969
337.0077, 3952.126
337.4898, 3956.637
337.9719, 3958.437
338.4540, 3952.734
338.9361, 3941.195
339.4182, 3939.603
339.9004, 3956.246
340.3825, 3970.830
340.8646, 3976.180
341.3467, 3976.779
341.8288, 3978.245
342.3109, 3982.759
342.7931, 3988.536
343.2752, 3992.434
343.7573, 3993.918
344.2394, 3997.561
344.7215, 4007.294
345.2036, 4017.309
345.6858, 4023.186
346.1679, 4024.722
346.6500, 4024.076
347.1321, 4021.479
347.6142, 4017.759
348.0963, 4013.604
348.5785, 4006.970
349.0606, 4006.529
349.5427, 4021.478
350.0248, 4048.479
350.5069, 4078.806
350.9890, 4120.315
351.4712, 4157.336
351.9533, 4172.422
352.4354, 4169.691
352.9175, 4170.877
353.3996, 4186.560
353.8817, 4212.039
354.3639, 4235.988
354.8460, 4259.927
355.3281, 4279.694
355.8102, 4290.809
356.2923, 4298.820
356.7744, 4308.771
357.2566, 4322.116
357.7387, 4340.500
358.2208, 4366.788
358.7029, 4403.574
359.1850, 4433.898
359.6671, 4453.922
360.1493, 4472.241
360.6314, 4491.808
361.1135, 4512.724
361.5956, 4534.152
362.0777, 4555.607
362.5598, 4577.589
363.0420, 4602.756
363.5241, 4638.447
364.0062, 4664.961
364.4883, 4671.175
364.9704, 4673.822
365.4525, 4684.985
365.9347, 4707.872
366.4168, 4741.370
366.8989, 4790.983
367.3810, 4859.304
367.8631, 4904.913
368.3452, 4907.398
368.8274, 4909.130
369.3095, 4930.700
369.7916, 4968.184
370.2737, 5011.997
370.7558, 5063.329
371.2379, 5113.831
371.7201, 5145.637
372.2022, 5156.500
372.6843, 5170.224
373.1664, 5200.392
373.6485, 5236.775
374.1306, 5263.677
374.6128, 5278.876
375.0949, 5290.889
375.5770, 5300.109
376.0591, 5309.791
376.5412, 5328.106
377.0233, 5357.572
377.5055, 5389.222
377.9876, 5414.931
378.4697, 5433.967
378.9518, 5447.689
379.4339, 5444.780
379.9160, 5446.683
380.3982, 5472.387
380.8803, 5514.125
381.3624, 5547.540
381.8445, 5558.283
382.3266, 5555.860
382.8087, 5569.513
383.2909, 5615.000
383.7730, 5656.845
384.2551, 5689.940
384.7372, 5721.854
385.2193, 5760.189
385.7014, 5805.284
386.1836, 5851.038
386.6657, 5891.626
387.1478, 5926.854
387.6299, 5957.097
388.1120, 5970.405
388.5941, 5993.332
389.0763, 6037.012
389.5584, 6094.897
390.0405, 6158.083
390.5226, 6225.770
391.0047, 6290.085
391.4868, 6333.486
391.9690, 6352.079
392.4511, 6386.153
392.9332, 6455.663
393.4153, 6536.666
393.8974, 6602.966
394.3795, 6654.752
394.8617, 6713.881
395.3438, 6796.388
395.8259, 6891.131
396.3080, 6981.289
396.7901, 7065.240
397.2722, 7143.995
397.7544, 7214.393
398.2365, 7279.980
398.7186, 7359.138
399.2007, 7467.896
399.6828, 7571.137
400.1649, 7646.394
400.6471, 7709.072
401.1292, 7790.858
401.6113, 7902.794
402.0934, 8017.532
402.5755, 8093.104
403.0576, 8107.915
403.5398, 8148.387
404.0219, 8239.342
404.5040, 8329.625
404.9861, 8398.454
405.4682, 8444.707
405.9503, 8469.980
406.4325, 8473.016
406.9146, 8461.213
407.3967, 8463.313
407.8788, 8495.314
408.3609, 8507.701
408.8430, 8484.074
409.3252, 8443.486
409.8073, 8396.509
410.2894, 8345.929
410.7715, 8296.918
411.2536, 8258.686
411.7357, 8227.284
412.2179, 8183.595
412.7000, 8126.015
413.1821, 8057.447
413.6642, 7977.657
414.1463, 7888.292
414.6284, 7792.542
415.1106, 7686.786
415.5927, 7579.200
416.0748, 7476.281
416.5569, 7376.364
417.0390, 7273.796
417.5211, 7166.112
418.0033, 7058.425
418.4854, 6959.533
418.9675, 6874.343
419.4496, 6781.525
419.9317, 6672.246
420.4138, 6562.504
420.8960, 6465.653
421.3781, 6378.164
421.8602, 6284.601
422.3423, 6172.751
422.8244, 6050.502
423.3065, 5953.207
423.7887, 5902.432
424.2708, 5843.191
424.7529, 5759.223
425.2350, 5672.242
425.7171, 5602.296
426.1992, 5550.767
426.6814, 5502.665
427.1635, 5444.273
427.6456, 5375.901
428.1277, 5305.806
428.6098, 5230.949
429.0919, 5160.478
429.5741, 5100.300
430.0562, 5046.630
430.5383, 4993.782
431.0204, 4937.842
431.5025, 4888.003
431.9846, 4858.092
432.4668, 4841.682
432.9489, 4814.802
433.4310, 4769.960
433.9131, 4717.476
434.3952, 4665.479
434.8773, 4613.097
435.3595, 4578.493
435.8416, 4578.577
436.3237, 4582.608
436.8058, 4573.763
437.2879, 4553.285
437.7701, 4525.825
438.2522, 4493.161
438.7343, 4458.985
439.2164, 4433.869
439.6985, 4430.357
440.1806, 4413.206
440.6628, 4370.316
441.1449, 4324.545
441.6270, 4292.141
442.1091, 4271.481
442.5912, 4249.127
443.0733, 4212.913
443.5555, 4168.108
444.0376, 4135.878
444.5197, 4119.539
445.0018, 4106.442
445.4839, 4088.937
445.9660, 4073.902
446.4482, 4072.192
446.9303, 4087.666
447.4124, 4096.290
447.8945, 4078.700
448.3766, 4044.705
448.8587, 4012.635
449.3409, 3984.413
449.8230, 3963.335
450.3051, 3953.823
450.7872, 3954.618
451.2693, 3951.376
451.7514, 3941.729
452.2336, 3931.161
452.7157, 3919.685
453.1978, 3909.017
453.6799, 3902.413
454.1620, 3900.529
454.6441, 3899.975
455.1263, 3897.037
455.6084, 3892.452
456.0905, 3881.348
456.5726, 3851.384
457.0547, 3827.632
457.5368, 3819.252
458.0190, 3821.835
458.5011, 3829.143
458.9832, 3839.553
459.4653, 3848.948
459.9474, 3849.139
460.4295, 3839.907
460.9117, 3836.885
461.3938, 3845.488
461.8759, 3857.907
462.3580, 3871.000
462.8401, 3883.339
463.3222, 3885.730
463.8044, 3863.164
464.2865, 3839.436
464.7686, 3840.421
465.2507, 3860.071
465.7328, 3872.266
466.2149, 3864.630
466.6971, 3847.408
467.1792, 3840.901
467.6613, 3853.635
468.1434, 3859.240
468.6255, 3849.742
469.1076, 3840.165
469.5898, 3842.916
470.0719, 3854.118
470.5540, 3860.781
471.0361, 3854.310
471.5182, 3838.930
472.0003, 3825.809
472.4825, 3813.599
472.9646, 3807.615
473.4467, 3817.211
473.9288, 3827.607
474.4109, 3828.409
474.8930, 3819.779
475.3752, 3810.122
475.8573, 3807.799
476.3394, 3806.131
476.8215, 3787.589
477.3036, 3751.652
477.7857, 3730.656
478.2679, 3748.335
478.7500, 3784.958
479.2321, 3790.098
479.7142, 3750.273
480.1963, 3718.227
480.6784, 3706.394
481.1606, 3704.965
481.6427, 3708.853
482.1248, 3715.276
482.6069, 3717.530
483.0890, 3709.351
483.5711, 3694.198
484.0533, 3692.655
484.5354, 3722.535
485.0175, 3736.243
485.4996, 3719.308
485.9817, 3691.166
486.4638, 3662.554
486.9460, 3636.828
487.4281, 3620.042
487.9102, 3623.937
488.3923, 3640.068
488.8744, 3639.909
489.3565, 3619.880
489.8387, 3603.385
490.3208, 3604.522
490.8029, 3615.600
491.2850, 3621.026
491.7671, 3621.719
492.2492, 3614.499
492.7314, 3591.969
493.2135, 3564.516
493.6956, 3543.350
494.1777, 3529.733
494.6598, 3520.109
495.1419, 3512.325
495.6241, 3505.891
496.1062, 3497.212
496.5883, 3480.932
497.0704, 3470.222
497.5525, 3473.737
498.0346, 3477.974
498.5168, 3466.105
498.9989, 3439.889
499.4810, 3422.275
499.9631, 3441.408
500.4452, 3483.950
500.9273, 3495.543
501.4095, 3468.817
501.8916, 3442.132
502.3737, 3432.342
502.8558, 3432.169
503.3379, 3430.023
503.8200, 3425.499
504.3022, 3419.919
504.7843, 3409.326
505.2664, 3400.494
505.7485, 3404.881
506.2306, 3421.102
506.7127, 3433.912
507.1949, 3432.147
507.6770, 3420.318
508.1591, 3418.560
508.6412, 3442.776
509.1233, 3453.495
509.6054, 3438.667
510.0876, 3417.986
510.5697, 3404.347
511.0518, 3398.951
511.5339, 3397.388
512.0161, 3397.177
512.4982, 3398.091
512.9803, 3399.883
513.4624, 3402.831
513.9445, 3405.226
514.4266, 3408.855
514.9088, 3409.359
515.3909, 3396.582
515.8730, 3368.190
516.3551, 3355.759
516.8372, 3385.900
517.3193, 3423.522
517.8015, 3432.532
518.2836, 3417.773
518.7657, 3408.537
519.2478, 3421.363
519.7299, 3444.356
520.2120, 3447.861
520.6942, 3413.194
521.1763, 3394.838
521.6584, 3406.614
522.1405, 3419.799
522.6226, 3417.727
523.1047, 3404.219
523.5869, 3391.655
524.0690, 3385.932
524.5511, 3385.609
525.0332, 3390.117
525.5153, 3399.410
525.9974, 3405.571
526.4796, 3404.428
526.9617, 3403.351
527.4438, 3411.630
527.9259, 3428.052
528.4080, 3442.657
528.8901, 3455.643
529.3723, 3464.905
529.8544, 3466.850
530.3365, 3464.641
530.8186, 3464.179
531.3007, 3467.490
531.7828, 3472.704
532.2650, 3477.283
532.7471, 3481.069
533.2292, 3485.362
533.7113, 3491.792
534.1934, 3496.824
534.6755, 3498.037
535.1577, 3497.758
535.6398, 3500.043
536.1219, 3506.505
536.6040, 3511.273
537.0861, 3507.354
537.5682, 3497.297
538.0504, 3487.999
538.5325, 3479.663
539.0146, 3477.405
539.4967, 3487.707
539.9788, 3507.009
540.4609, 3517.357
540.9431, 3515.291
541.4252, 3510.284
541.9073, 3502.669
542.3894, 3493.994
542.8715, 3481.919
543.3536, 3468.917
543.8358, 3465.965
544.3179, 3484.468
544.8000, 3517.447
545.2821, 3532.091
545.7642, 3519.357
546.2463, 3513.172
546.7285, 3531.881
547.2106, 3552.922
547.6927, 3554.072
548.1748, 3537.190
548.6569, 3530.781
549.1390, 3555.498
549.6211, 3591.078
550.1032, 3619.626
550.5853, 3640.142
551.0674, 3649.520
551.5496, 3645.948
552.0317, 3633.904
552.5138, 3619.748
552.9959, 3600.881
553.4780, 3588.815
553.9601, 3582.644
554.4423, 3583.092
554.9244, 3596.735
555.4065, 3615.239
555.8886, 3624.066
556.3707, 3617.597
556.8528, 3609.813
557.3350, 3618.661
557.8171, 3642.254
558.2992, 3668.242
558.7813, 3700.317
559.2634, 3718.684
559.7455, 3699.534
560.2277, 3657.760
560.7098, 3642.249
561.1919, 3669.448
561.6740, 3694.611
562.1561, 3701.512
562.6382, 3700.858
563.1204, 3702.002
563.6025, 3707.004
564.0846, 3717.426
564.5667, 3736.133
565.0488, 3758.263
565.5309, 3762.979
566.0131, 3740.823
566.4952, 3725.202
566.9773, 3731.000
567.4594, 3737.618
567.9415, 3730.421
568.4236, 3711.727
568.9058, 3694.933
569.3879, 3686.239
569.8700, 3681.316
570.3521, 3673.759
570.8342, 3665.942
571.3163, 3667.434
571.7985, 3681.763
572.2806, 3700.350
572.7627, 3713.647
573.2448, 3721.814
573.7269, 3723.273
574.2090, 3712.501
574.6912, 3701.980
575.1733, 3691.104
575.6554, 3684.035
576.1375, 3687.678
576.6196, 3702.513
577.1017, 3717.475
577.5839, 3721.581
578.0660, 3717.810
578.5481, 3716.499
579.0302, 3718.222
579.5123, 3717.885
579.9944, 3709.997
580.4766, 3701.498
580.9587, 3708.866
581.4408, 3737.765
581.9229, 3756.167
582.4050, 3752.763
582.8871, 3743.715
583.3693, 3734.731
583.8514, 3729.283
584.3335, 3735.722
584.8156, 3758.056
585.2977, 3781.324
585.7798, 3775.230
586.2620, 3735.195
586.7441, 3722.695
587.2262, 3758.310
587.7083, 3792.441
588.1904, 3789.635
588.6725, 3768.712
589.1547, 3760.003
589.6368, 3770.034
590.1189, 3785.662
590.6010, 3805.750
591.0831, 3825.099
591.5652, 3834.913
592.0474, 3836.110
592.5295, 3838.164
593.0116, 3847.401
593.4937, 3861.709
593.9758, 3875.060
594.4579, 3888.170
594.9401, 3898.458
595.4222, 3905.245
595.9043, 3909.394
596.3864, 3906.018
596.8685, 3900.409
597.3506, 3906.545
597.8328, 3935.152
598.3149, 3966.094
598.7970, 3980.380
599.2791, 3982.934
599.7612, 3985.532
600.2433, 3990.446
600.7255, 3997.339
601.2076, 4005.181
601.6897, 4014.791
602.1718, 4033.131
602.6539, 4080.017
603.1360, 4108.013
603.6182, 4094.845
604.1003, 4076.604
604.5824, 4082.402
605.0645, 4109.645
605.5466, 4135.746
606.0287, 4146.849
606.5109, 4151.173
606.9930, 4159.563
607.4751, 4172.079
607.9572, 4190.562
608.4393, 4217.391
608.9214, 4242.911
609.4036, 4255.939
609.8857, 4256.430
610.3678, 4264.471
610.8499, 4294.434
611.3320, 4313.034
611.8141, 4298.855
612.2963, 4278.273
612.7784, 4281.167
613.2605, 4307.983
613.7426, 4334.477
614.2247, 4341.568
614.7068, 4336.021
615.1890, 4332.432
615.6711, 4330.608
616.1532, 4337.170
616.6353, 4359.683
617.1174, 4380.973
617.5995, 4377.947
618.0817, 4349.986
618.5638, 4333.218
619.0459, 4334.805
619.5280, 4341.097
620.0101, 4350.498
620.4922, 4359.846
620.9744, 4363.548
621.4565, 4361.811
621.9386, 4362.977
622.4207, 4376.529
622.9028, 4398.146
623.3849, 4410.634
623.8671, 4413.125
624.3492, 4410.605
624.8313, 4399.643
625.3134, 4389.889
625.7955, 4398.959
626.2776, 4425.521
626.7598, 4435.149
627.2419, 4410.529
627.7240, 4381.519
628.2061, 4356.742
628.6882, 4339.750
629.1703, 4337.739
629.6525, 4350.745
630.1346, 4368.088
630.6167, 4380.836
631.0988, 4388.677
631.5809, 4388.239
632.0630, 4376.286
632.5452, 4369.332
633.0273, 4378.524
633.5094, 4388.792
633.9915, 4379.671
634.4736, 4352.517
634.9557, 4334.565
635.4379, 4336.913
635.9200, 4343.896
636.4021, 4353.123
636.8842, 4358.877
637.3663, 4349.042
637.8484, 4322.786
638.3306, 4296.597
638.8127, 4288.304
639.2948, 4294.163
639.7769, 4291.401
640.2590, 4278.497
640.7411, 4261.854
641.2233, 4238.436
641.7054, 4216.814
642.1875, 4209.109
642.6696, 4213.720
643.1517, 4210.242
643.6339, 4180.175
644.1160, 4156.257
644.5981, 4166.162
645.0802, 4190.000
645.5623, 4198.389
646.0444, 4184.776
646.5266, 4158.604
647.0087, 4126.262
647.4908, 4090.240
647.9729, 4063.187
648.4550, 4047.610
648.9371, 4031.810
649.4193, 4013.653
649.9014, 3993.392
650.3835, 3969.379
650.8656, 3942.563
651.3477, 3919.369
651.8298, 3907.074
652.3120, 3891.475
652.7941, 3859.314
653.2762, 3822.963
653.7583, 3800.810
654.2404, 3794.284
654.7225, 3789.303
655.2047, 3773.002
655.6868, 3751.600
656.1689, 3750.687
656.6510, 3776.336
657.1331, 3782.604
657.6152, 3746.824
658.0974, 3708.023
658.5795, 3709.223
659.0616, 3739.844
659.5437, 3752.302
660.0258, 3724.189
660.5079, 3699.933
660.9901, 3698.538
661.4722, 3705.930
661.9543, 3710.604
662.4364, 3709.348
662.9185, 3699.006
663.4006, 3675.583
663.8828, 3647.184
664.3649, 3630.298
664.8470, 3625.031
665.3291, 3629.864
665.8112, 3649.643
666.2933, 3667.258
666.7755, 3666.823
667.2576, 3653.569
667.7397, 3651.149
668.2218, 3670.568
668.7039, 3682.862
669.1860, 3675.303
669.6682, 3664.463
670.1503, 3661.511
670.6324, 3666.961
671.1145, 3678.860
671.5966, 3696.954
672.0787, 3716.066
672.5609, 3729.177
673.0430, 3736.798
673.5251, 3740.194
674.0072, 3737.612
674.4893, 3742.850
674.9714, 3767.132
675.4536, 3802.448
675.9357, 3827.409
676.4178, 3835.583
676.8999, 3847.686
677.3820, 3866.296
677.8641, 3886.877
678.3463, 3906.143
678.8284, 3925.897
679.3105, 3948.523
679.7926, 3974.749
680.2747, 4006.462
680.7568, 4044.828
681.2390, 4089.856
681.7211, 4144.080
682.2032, 4206.768
682.6853, 4267.794
683.1674, 4323.244
683.6495, 4373.156
684.1317, 4415.742
684.6138, 4445.924
685.0959, 4495.215
685.5780, 4582.606
686.0601, 4667.227
686.5422, 4728.819
687.0244, 4789.352
687.5065, 4874.792
687.9886, 4986.967
688.4707, 5101.250
688.9528, 5200.430
689.4349, 5297.206
689.9171, 5408.465
690.3992, 5529.385
690.8813, 5642.942
691.3634, 5744.846
691.8455, 5851.376
692.3276, 5980.033
692.8098, 6127.590
693.2919, 6261.870
693.7740, 6371.979
694.2561, 6493.561
694.7382, 6651.764
695.2203, 6807.090
695.7025, 6932.292
696.1846, 7032.188
696.6667, 7125.233
697.1488, 7207.693
697.6309, 7296.690
698.1130, 7422.140
698.5952, 7546.991
699.0773, 7624.268
699.5594, 7652.417
700.0415, 7655.489
700.5236, 7648.022
701.0057, 7625.738
701.4879, 7579.275
701.9700, 7508.135
702.4521, 7422.657
702.9342, 7324.806
703.4163, 7209.321
703.8984, 7067.004
704.3806, 6907.235
704.8627, 6750.742
705.3448, 6598.101
705.8269, 6446.479
706.3090, 6295.986
706.7911, 6145.006
707.2733, 5992.318
707.7554, 5838.209
708.2375, 5683.947
708.7196, 5529.393
709.2017, 5377.118
709.6838, 5224.779
710.1660, 5077.449
710.6481, 4950.411
711.1302, 4842.999
711.6123, 4739.223
712.0944, 4632.125
712.5765, 4532.502
713.0587, 4455.633
713.5408, 4402.849
714.0229, 4344.227
714.5050, 4268.956
714.9871, 4203.228
715.4692, 4152.303
715.9514, 4111.234
716.4335, 4081.647
716.9156, 4059.592
717.3977, 4030.203
717.8798, 3984.344
718.3619, 3933.635
718.8441, 3883.604
719.3262, 3836.391
719.8083, 3795.165
720.2904, 3760.621
720.7725, 3732.901
721.2546, 3712.440
721.7368, 3698.182
722.2189, 3689.865
722.7010, 3689.677
723.1831, 3679.255
723.6652, 3652.015
724.1473, 3624.378
724.6295, 3600.339
725.1116, 3584.438
725.5937, 3588.289
726.0758, 3621.846
726.5579, 3640.177
727.0400, 3623.863
727.5222, 3601.661
728.0043, 3586.570
728.4864, 3578.770
728.9685, 3575.853
729.4506, 3577.413
729.9327, 3586.589
730.4149, 3612.706
730.8970, 3645.807
731.3791, 3661.885
731.8612, 3662.441
732.3433, 3659.229
732.8254, 3654.061
733.3076, 3657.370
733.7897, 3682.729
734.2718, 3727.508
734.7539, 3757.316
735.2360, 3757.575
735.7181, 3767.519
736.2003, 3797.080
736.6824, 3832.162
737.1645, 3866.801
737.6466, 3899.958
738.1287, 3929.769
738.6108, 3954.748
739.0930, 3979.157
739.5751, 4006.512
740.0572, 4033.885
740.5393, 4056.260
741.0214, 4075.153
741.5035, 4097.230
741.9857, 4125.469
742.4678, 4155.003
742.9499, 4178.690
743.4320, 4196.904
743.9141, 4213.845
744.3962, 4227.848
744.8784, 4253.052
745.3605, 4305.780
745.8426, 4355.914
746.3247, 4354.911
746.8068, 4293.350
747.2889, 4270.517
747.7711, 4318.096
748.2532, 4360.794
748.7353, 4382.697
749.2174, 4391.119
749.6995, 4390.063
750.1816, 4382.021
750.6638, 4372.052
751.1459, 4362.090
751.6280, 4351.919
752.1101, 4341.307
752.5922, 4330.342
753.0743, 4320.964
753.5565, 4312.306
754.0386, 4297.115
754.5207, 4270.537
755.0028, 4239.977
755.4849, 4221.537
755.9670, 4217.306
756.4492, 4205.055
756.9313, 4181.581
757.4134, 4157.199
757.8955, 4137.876
758.3776, 4118.760
758.8597, 4090.777
759.3419, 4053.094
759.8240, 4018.308
760.3061, 3987.384
760.7882, 3959.505
761.2703, 3939.569
761.7524, 3919.154
762.2346, 3886.508
762.7167, 3843.221
763.1988, 3803.383
763.6809, 3776.736
764.1630, 3753.904
764.6451, 3721.654
765.1273, 3685.074
765.6094, 3659.153
766.0915, 3644.690
766.5736, 3626.282
767.0557, 3593.683
767.5378, 3554.932
768.0200, 3529.274
768.5021, 3520.524
768.9842, 3500.693
769.4663, 3461.041
769.9484, 3428.660
770.4305, 3420.918
770.9127, 3423.078
771.3948, 3413.747
771.8769, 3392.277
772.3590, 3370.136
772.8411, 3343.033
773.3232, 3322.305
773.8054, 3319.232
774.2875, 3320.161
774.7696, 3307.739
775.2517, 3283.654
775.7338, 3265.293
776.2159, 3264.061
776.6981, 3268.430
777.1802, 3264.082
777.6623, 3255.806
778.1444, 3258.264
778.6265, 3270.904
779.1086, 3273.637
779.5908, 3253.975
780.0729, 3226.991
780.5550, 3221.964
781.0371, 3241.415
781.5192, 3259.000
782.0013, 3277.373
782.4835, 3286.555
782.9656, 3278.729
783.4477, 3263.610
783.9298, 3251.377
784.4119, 3241.862
784.8940, 3240.656
785.3762, 3260.643
785.8583, 3272.612
786.3404, 3260.500
786.8225, 3243.674
787.3046, 3242.730
787.7867, 3252.702
788.2689, 3250.421
788.7510, 3221.236
789.2331, 3193.623
789.7152, 3193.732
790.1973, 3209.760
790.6794, 3227.627
791.1616, 3243.733
791.6437, 3250.515
792.1258, 3244.753
792.6079, 3234.071
793.0900, 3228.361
793.5721, 3227.193
794.0543, 3226.397
794.5364, 3225.970
795.0185, 3226.391
795.5006, 3229.166
795.9827, 3229.856
796.4648, 3223.454
796.9470, 3210.634
797.4291, 3198.912
797.9112, 3179.118
798.3933, 3174.002
798.8754, 3205.560
799.3575, 3231.240
799.8397, 3223.132
800.3218, 3192.575
800.8039, 3161.201
801.2860, 3133.161
801.7681, 3110.501
802.2502, 3095.840
802.7324, 3085.640
803.2145, 3074.400
803.6966, 3065.866
804.1787, 3072.346
804.6608, 3093.814
805.1429, 3108.183
805.6251, 3093.343
806.1072, 3063.904
806.5893, 3051.150
807.0714, 3053.259
807.5535, 3057.725
808.0356, 3062.626
808.5178, 3067.183
808.9999, 3071.574
809.4820, 3073.877
809.9641, 3069.067
810.4462, 3056.004
810.9283, 3039.559
811.4105, 3016.774
811.8926, 2995.167
812.3747, 2970.475
812.8568, 2953.358
813.3389, 2962.527
813.8210, 2997.751
814.3032, 3017.970
814.7853, 3007.081
815.2674, 2993.137
815.7495, 2980.513
816.2316, 2973.011
816.7137, 2978.394
817.1959, 2991.730
817.6780, 2998.134
818.1601, 2990.444
818.6422, 2978.950
819.1243, 2972.800
819.6064, 2968.160
820.0886, 2956.870
820.5707, 2941.368
821.0528, 2931.011
821.5349, 2929.157
822.0170, 2935.052
822.4991, 2951.371
822.9813, 2972.860
823.4634, 2974.906
823.9455, 2956.524
824.4276, 2937.962
824.9097, 2921.761
825.3918, 2913.022
825.8740, 2917.844
826.3561, 2931.371
826.8382, 2936.503
827.3203, 2924.993
827.8024, 2924.244
828.2845, 2943.064
828.7667, 2961.942
829.2488, 2979.047
829.7309, 2989.451
830.2130, 2981.223
830.6951, 2954.211
831.1772, 2942.796
831.6594, 2974.348
832.1415, 2999.647
832.6236, 2990.051
833.1057, 2969.292
833.5878, 2962.105
834.0699, 2966.891
834.5521, 2967.327
835.0342, 2954.778
835.5163, 2943.947
835.9984, 2954.117
836.4805, 2971.806
836.9626, 2973.436
837.4448, 2961.743
837.9269, 2949.729
838.4090, 2942.280
838.8911, 2942.456
839.3732, 2955.688
839.8553, 2977.310
840.3375, 2989.363
840.8196, 2991.633
841.3017, 2996.286
841.7838, 3006.390
842.2659, 3013.769
842.7480, 3010.934
843.2302, 3004.167
843.7123, 3010.373
844.1944, 3035.780
844.6765, 3053.688
845.1586, 3066.357
845.6407, 3068.144
846.1229, 3042.963
846.6050, 3015.810
847.0871, 3014.628
847.5692, 3037.386
848.0513, 3053.975
848.5334, 3061.898
849.0156, 3061.110
849.4977, 3041.162
849.9798, 3021.813
850.4619, 3021.507
850.9440, 3033.231
851.4261, 3039.393
851.9083, 3034.326
852.3904, 3028.355
852.8725, 3026.512
853.3546, 3028.606
853.8367, 3040.876
854.3188, 3054.957
854.8010, 3049.213
855.2831, 3023.267
855.7652, 3003.518
856.2473, 3010.931
856.7294, 3030.788
857.2115, 3036.907
857.6937, 3032.561
858.1758, 3032.997
858.6579, 3039.484
859.1400, 3043.599
859.6221, 3040.799
860.1042, 3038.577
860.5864, 3049.167
861.0685, 3071.765
861.5506, 3084.802
862.0327, 3086.006
862.5148, 3086.121
862.9969, 3086.001
863.4791, 3088.567
863.9612, 3099.114
864.4433, 3113.398
864.9254, 3115.193
865.4075, 3092.673
865.8896, 3082.424
866.3718, 3091.897
866.8539, 3104.150
867.3360, 3116.104
867.8181, 3126.008
868.3002, 3131.194
868.7823, 3131.878
869.2645, 3132.855
869.7466, 3134.946
870.2287, 3138.039
870.7108, 3145.252
871.1929, 3150.812
871.6750, 3143.624
872.1572, 3131.660
872.6393, 3136.366
873.1214, 3165.690
873.6035, 3192.067
874.0856, 3189.358
874.5677, 3178.549
875.0499, 3180.846
875.5320, 3194.244
876.0141, 3219.736
876.4962, 3252.709
876.9783, 3269.576
877.4604, 3251.224
877.9426, 3221.578
878.4247, 3222.257
878.9068, 3244.620
879.3889, 3254.948
879.8710, 3252.045
880.3531, 3252.836
880.8353, 3264.280
881.3174, 3279.043
881.7995, 3288.481
882.2816, 3293.466
882.7637, 3299.957
883.2458, 3308.511
883.7280, 3313.754
884.2101, 3313.723
884.6922, 3313.786
885.1743, 3317.365
885.6564, 3323.227
886.1385, 3328.210
886.6207, 3330.615
887.1028, 3340.034
887.5849, 3361.464
888.0670, 3381.765
888.5491, 3394.675
889.0313, 3407.603
889.5134, 3430.567
889.9955, 3459.818
890.4776, 3478.181
890.9597, 3479.274
891.4418, 3478.819
891.9240, 3474.662
892.4061, 3474.124
892.8882, 3482.328
893.3703, 3495.830
893.8524, 3510.261
894.3345, 3524.928
894.8167, 3540.222
895.2988, 3554.934
895.7809, 3571.872
896.2630, 3599.069
896.7451, 3624.367
897.2272, 3630.887
897.7094, 3624.837
898.1915, 3625.005
898.6736, 3638.127
899.1557, 3653.102
899.6378, 3665.481
900.1199, 3671.250
900.6021, 3654.971
901.0842, 3631.383
901.5663, 3636.801
902.0484, 3672.141
902.5305, 3704.647
903.0126, 3713.851
903.4948, 3710.288
903.9769, 3700.632
904.4590, 3691.968
904.9411, 3715.368
905.4232, 3766.070
905.9053, 3799.823
906.3875, 3802.250
906.8696, 3789.844
907.3517, 3775.970
907.8338, 3763.559
908.3159, 3764.906
908.7980, 3780.165
909.2802, 3786.410
909.7623, 3780.217
910.2444, 3773.223
910.7265, 3771.329
911.2086, 3770.846
911.6907, 3767.323
912.1729, 3760.652
912.6550, 3742.885
913.1371, 3706.341
913.6192, 3684.123
914.1013, 3689.120
914.5834, 3696.028
915.0656, 3689.867
915.5477, 3673.112
916.0298, 3651.303
916.5119, 3624.737
916.9940, 3591.354
917.4761, 3532.370
917.9583, 3493.308
918.4404, 3503.723
918.9225, 3521.287
919.4046, 3510.623
919.8867, 3478.921
920.3688, 3455.063
920.8510, 3448.290
921.3331, 3433.382
921.8152, 3398.363
922.2973, 3364.140
922.7794, 3337.472
923.2615, 3318.506
923.7437, 3311.076
924.2258, 3312.744
924.7079, 3308.047
925.1900, 3286.855
925.6721, 3267.609
926.1542, 3264.788
926.6364, 3260.356
927.1185, 3234.092
927.6006, 3198.224
928.0827, 3176.254
928.5648, 3172.408
929.0469, 3168.697
929.5291, 3150.491
930.0112, 3134.126
930.4933, 3136.556
930.9754, 3144.598
931.4575, 3141.145
931.9396, 3128.121
932.4218, 3115.941
932.9039, 3108.361
933.3860, 3102.651
933.8681, 3095.839
934.3502, 3090.094
934.8323, 3089.602
935.3145, 3091.888
935.7966, 3090.824
936.2787, 3086.770
936.7608, 3086.441
937.2429, 3093.630
937.7250, 3101.992
938.2072, 3103.947
938.6893, 3101.264
939.1714, 3097.135
939.6535, 3092.061
940.1356, 3085.424
940.6177, 3078.063
941.0999, 3078.011
941.5820, 3090.764
942.0641, 3114.859
942.5462, 3158.706
943.0283, 3213.171
943.5104, 3222.562
943.9926, 3188.478
944.4747, 3161.737
944.9568, 3157.896
945.4389, 3168.822
945.9210, 3189.630
946.4031, 3214.092
946.8853, 3224.078
947.3674, 3219.647
947.8495, 3211.990
948.3316, 3201.211
948.8137, 3194.195
949.2958, 3193.491
949.7780, 3198.170
950.2601, 3207.644
950.7422, 3221.301
951.2243, 3236.644
951.7064, 3254.474
952.1885, 3268.226
952.6707, 3276.162
953.1528, 3284.317
953.6349, 3296.662
954.1170, 3308.057
954.5991, 3311.229
955.0812, 3306.533
955.5634, 3301.854
956.0455, 3296.147
956.5276, 3294.960
957.0097, 3305.303
957.4918, 3306.010
957.9739, 3278.876
958.4561, 3242.680
958.9382, 3228.069
959.4203, 3236.217
959.9024, 3250.573
960.3845, 3288.519
960.8666, 3296.367
961.3488, 3243.788
961.8309, 3190.507
962.3130, 3179.240
962.7951, 3188.456
963.2772, 3172.060
963.7593, 3120.291
964.2415, 3095.379
964.7236, 3121.932
965.2057, 3139.561
965.6878, 3130.930
966.1699, 3117.442
966.6520, 3114.468
967.1342, 3116.278
967.6163, 3107.079
968.0984, 3079.307
968.5805, 3069.685
969.0626, 3104.261
969.5447, 3124.575
970.0269, 3101.485
970.5090, 3072.066
970.9911, 3068.756
971.4732, 3081.118
971.9553, 3078.501
972.4374, 3053.061
972.9196, 3030.714
973.4017, 3011.436
973.8838, 3000.122
974.3659, 3005.514
974.8480, 3013.767
975.3301, 3009.648
975.8123, 2998.166
976.2944, 2997.346
976.7765, 3013.504
977.2586, 3028.622
977.7407, 3041.981
978.2228, 3049.452
978.7050, 3046.226
979.1871, 3038.502
979.6692, 3030.601
980.1513, 3023.732
980.6334, 3020.612
981.1155, 3024.720
981.5977, 3023.484
982.0798, 3006.426
982.5619, 2991.025
983.0440, 2986.986
983.5261, 2988.624
984.0082, 2990.929
984.4904, 2992.745
984.9725, 2993.015
985.4546, 2991.840
985.9367, 2987.957
986.4188, 2969.165
986.9009, 2960.766
987.3831, 2993.665
987.8652, 3034.130
988.3473, 3037.866
988.8294, 3009.620
989.3115, 2988.619
989.7936, 2988.068
990.2758, 2991.439
990.7579, 2992.623
991.2400, 2994.895
991.7221, 3002.818
992.2042, 3011.413
992.6863, 3014.274
993.1685, 3011.700
993.6506, 3008.263
994.1327, 3004.523
994.6148, 3002.875
995.0969, 3009.574
995.5790, 3013.146
996.0612, 2999.131
996.5433, 2981.647
997.0254, 2982.783
997.5075, 2999.204
997.9896, 3004.740
998.4717, 2985.470
998.9539, 2969.635
999.4360, 2970.657
999.9181, 2979.184
1000.400, 2994.641
1000.882, 3009.879
1001.364, 3013.090
1001.847, 3007.241
1002.329, 3010.126
1002.811, 3032.276
1003.293, 3049.851
1003.775, 3049.348
1004.257, 3043.042
1004.739, 3031.739
1005.221, 3024.565
1005.703, 3040.770
1006.186, 3072.418
1006.668, 3081.786
1007.150, 3046.837
1007.632, 3020.678
1008.114, 3033.333
1008.596, 3056.279
1009.078, 3079.206
1009.560, 3096.213
1010.043, 3097.600
1010.525, 3087.400
1011.007, 3082.087
1011.489, 3087.034
1011.971, 3095.920
1012.453, 3116.222
1012.935, 3128.067
1013.417, 3109.305
1013.899, 3082.799
1014.382, 3073.148
1014.864, 3080.068
1015.346, 3093.161
1015.828, 3111.755
1016.310, 3126.833
1016.792, 3132.683
1017.274, 3136.781
1017.756, 3144.651
1018.239, 3151.677
1018.721, 3152.532
1019.203, 3148.222
1019.685, 3143.101
1020.167, 3138.329
1020.649, 3131.969
1021.131, 3118.615
1021.613, 3109.423
1022.095, 3115.469
1022.578, 3122.934
1023.060, 3116.306
1023.542, 3100.969
1024.024, 3093.204
1024.506, 3097.288
1024.988, 3100.401
1025.470, 3099.424
1025.952, 3096.677
1026.435, 3090.561
1026.917, 3085.264
1027.399, 3085.478
1027.881, 3088.685
1028.363, 3089.225
1028.845, 3086.133
1029.327, 3082.477
1029.809, 3077.256
1030.292, 3073.699
1030.774, 3077.641
1031.256, 3078.523
1031.738, 3063.780
1032.220, 3043.232
1032.702, 3037.315
1033.184, 3049.229
1033.666, 3049.889
1034.148, 3025.634
1034.630, 3005.713
1035.113, 2993.149
1035.595, 2987.890
1036.077, 2995.424
1036.559, 3007.377
1037.041, 3010.074
1037.523, 3002.948
1038.005, 3001.467
1038.487, 3008.670
1038.970, 3016.937
1039.452, 3033.456
1039.934, 3040.855
1040.416, 3024.048
1040.898, 3000.531
1041.380, 2991.259
1041.862, 2995.107
1042.344, 2999.462
1042.826, 3002.565
1043.309, 3010.075
1043.791, 3023.224
1044.273, 3039.613
1044.755, 3064.334
1045.237, 3083.523
1045.719, 3081.107
1046.201, 3061.754
1046.683, 3045.548
1047.166, 3027.615
1047.648, 3031.570
1048.130, 3066.871
1048.612, 3095.658
1049.094, 3103.562
1049.576, 3110.351
1050.058, 3135.696
1050.540, 3168.067
1051.022, 3172.927
1051.505, 3145.795
1051.987, 3137.132
1052.469, 3149.913
1052.951, 3163.411
1053.433, 3173.235
1053.915, 3179.884
1054.397, 3182.503
1054.879, 3186.594
1055.361, 3205.581
1055.844, 3236.868
1056.326, 3247.044
1056.808, 3236.278
1057.290, 3231.423
1057.772, 3237.126
1058.254, 3241.329
1058.736, 3237.233
1059.218, 3234.715
1059.701, 3249.882
1060.183, 3274.547
1060.665, 3276.617
1061.147, 3261.730
1061.629, 3260.701
1062.111, 3276.185
1062.593, 3301.517
1063.075, 3333.233
1063.557, 3354.834
1064.040, 3347.410
1064.522, 3325.724
1065.004, 3312.472
1065.486, 3307.738
1065.968, 3313.893
1066.450, 3328.849
1066.932, 3349.121
1067.414, 3371.592
1067.896, 3383.143
1068.379, 3371.952
1068.861, 3357.040
1069.343, 3361.250
1069.825, 3374.008
1070.307, 3382.448
1070.789, 3387.043
1071.271, 3388.417
1071.753, 3388.523
1072.236, 3394.407
1072.718, 3410.513
1073.200, 3423.755
1073.682, 3420.284
1074.164, 3414.740
1074.646, 3421.094
1075.128, 3431.311
1075.610, 3437.404
1076.093, 3437.770
1076.575, 3429.793
1077.057, 3412.369
1077.539, 3400.326
1078.021, 3394.004
1078.503, 3402.590
1078.985, 3450.685
1079.467, 3495.097
1079.949, 3493.607
1080.432, 3469.770
1080.914, 3468.395
1081.396, 3492.783
1081.878, 3502.199
1082.360, 3470.272
1082.842, 3452.246
1083.324, 3468.574
1083.806, 3485.909
1084.288, 3490.914
1084.771, 3488.179
1085.253, 3479.067
1085.735, 3466.209
1086.217, 3462.651
1086.699, 3473.180
1087.181, 3480.765
1087.663, 3488.686
1088.145, 3485.162
1088.628, 3456.194
1089.110, 3436.273
1089.592, 3455.791
1090.074, 3495.410
1090.556, 3512.874
1091.038, 3507.341
1091.520, 3502.322
1092.002, 3496.828
1092.484, 3500.536
1092.967, 3517.183
1093.449, 3527.953
1093.931, 3522.726
1094.413, 3510.051
1094.895, 3498.683
1095.377, 3491.341
1095.859, 3501.230
1096.341, 3525.798
1096.823, 3547.038
1097.306, 3562.874
1097.788, 3568.353
1098.270, 3562.752
1098.752, 3560.392
1099.234, 3573.900
1099.716, 3591.392
1100.198, 3593.433
1100.680, 3586.841
1101.163, 3581.449
1101.645, 3580.488
1102.127, 3595.540
1102.609, 3622.937
1103.091, 3638.473
1103.573, 3629.895
1104.055, 3622.713
1104.537, 3645.888
1105.020, 3671.493
1105.502, 3668.022
1105.984, 3656.451
1106.466, 3665.158
1106.948, 3686.833
1107.430, 3701.396
1107.912, 3704.192
1108.394, 3698.643
1108.876, 3674.296
1109.359, 3659.822
1109.841, 3677.668
1110.323, 3695.427
1110.805, 3686.745
1111.287, 3671.280
1111.769, 3675.268
1112.251, 3696.188
1112.733, 3713.158
1113.215, 3724.237
1113.698, 3731.583
1114.180, 3738.187
1114.662, 3735.988
1115.144, 3714.080
1115.626, 3696.031
1116.108, 3700.300
1116.590, 3716.231
1117.072, 3725.577
1117.555, 3728.345
1118.037, 3715.254
1118.519, 3681.021
1119.001, 3663.611
1119.483, 3671.080
1119.965, 3669.029
1120.447, 3640.906
1120.929, 3613.054
1121.411, 3614.248
1121.894, 3631.927
1122.376, 3631.900
1122.858, 3618.684
1123.340, 3616.434
1123.822, 3624.323
1124.304, 3636.220
1124.786, 3648.031
1125.268, 3640.708
1125.750, 3602.184
1126.233, 3562.486
1126.715, 3562.695
1127.197, 3575.932
1127.679, 3561.917
1128.161, 3536.950
1128.643, 3530.438
1129.125, 3536.435
1129.607, 3528.324
1130.090, 3501.264
1130.572, 3482.882
1131.054, 3489.338
1131.536, 3503.592
1132.018, 3532.525
1132.500, 3548.845
1132.982, 3522.518
1133.464, 3481.251
1133.947, 3456.447
1134.429, 3447.853
1134.911, 3442.014
1135.393, 3436.430
1135.875, 3436.698
1136.357, 3456.294
1136.839, 3461.323
1137.321, 3427.978
1137.803, 3406.176
1138.286, 3432.442
1138.768, 3476.724
1139.250, 3494.873
1139.732, 3489.470
1140.214, 3484.774
1140.696, 3480.654
1141.178, 3479.867
1141.660, 3483.662
1142.142, 3476.430
1142.625, 3452.419
1143.107, 3430.026
1143.589, 3423.781
1144.071, 3426.314
1144.553, 3424.699
1145.035, 3421.404
1145.517, 3425.037
1145.999, 3433.355
1146.482, 3437.358
1146.964, 3438.282
1147.446, 3449.254
1147.928, 3473.968
1148.410, 3492.274
1148.892, 3487.763
1149.374, 3473.414
1149.856, 3450.138
1150.339, 3432.625
1150.821, 3443.894
1151.303, 3465.885
1151.785, 3470.037
1152.267, 3457.075
1152.749, 3446.871
1153.231, 3443.925
1153.713, 3445.113
1154.195, 3456.560
1154.677, 3462.519
1155.160, 3455.280
1155.642, 3444.268
1156.124, 3431.892
1156.606, 3422.200
1157.088, 3423.166
1157.570, 3433.268
1158.052, 3434.213
1158.534, 3424.454
1159.017, 3411.733
1159.499, 3395.425
1159.981, 3380.839
1160.463, 3368.487
1160.945, 3369.724
1161.427, 3395.489
1161.909, 3425.319
1162.391, 3419.288
1162.874, 3391.189
1163.356, 3387.836
1163.838, 3402.593
1164.320, 3418.852
1164.802, 3431.754
1165.284, 3431.129
1165.766, 3415.666
1166.248, 3403.576
1166.730, 3407.558
1167.213, 3417.354
1167.695, 3426.794
1168.177, 3435.904
1168.659, 3444.376
1169.141, 3452.707
1169.623, 3463.106
1170.105, 3473.707
1170.587, 3478.180
1171.069, 3474.276
1171.552, 3474.093
1172.034, 3481.534
1172.516, 3490.159
1172.998, 3507.359
1173.480, 3512.804
1173.962, 3488.507
1174.444, 3462.098
1174.926, 3465.397
1175.409, 3487.515
1175.891, 3487.313
1176.373, 3461.613
1176.855, 3464.343
1177.337, 3496.521
1177.819, 3507.597
1178.301, 3488.822
1178.783, 3476.513
1179.266, 3488.407
1179.748, 3503.086
1180.230, 3495.224
1180.712, 3481.597
1181.194, 3492.481
1181.676, 3514.569
1182.158, 3527.626
1182.640, 3532.152
1183.122, 3527.641
1183.604, 3519.144
1184.087, 3524.747
1184.569, 3553.214
1185.051, 3578.937
1185.533, 3589.967
1186.015, 3596.108
1186.497, 3602.334
1186.979, 3604.261
1187.461, 3593.663
1187.944, 3580.215
1188.426, 3579.503
1188.908, 3588.728
1189.390, 3589.457
1189.872, 3575.927
1190.354, 3576.726
1190.836, 3597.973
1191.318, 3603.693
1191.801, 3582.990
1192.283, 3567.657
1192.765, 3576.230
1193.247, 3594.894
1193.729, 3606.605
1194.211, 3615.306
1194.693, 3635.001
1195.175, 3658.092
1195.657, 3661.054
1196.140, 3649.777
1196.622, 3641.713
1197.104, 3642.144
1197.586, 3657.437
1198.068, 3693.156
1198.550, 3714.595
1199.032, 3687.716
1199.514, 3656.301
1199.996, 3634.343
1200.479, 3628.926
1200.961, 3662.888
1201.443, 3705.941
1201.925, 3707.641
1202.407, 3673.335
1202.889, 3664.003
1203.371, 3694.534
1203.853, 3701.157
1204.336, 3674.521
1204.818, 3653.488
1205.300, 3644.923
1205.782, 3647.756
1206.264, 3662.711
1206.746, 3680.896
1207.228, 3692.545
1207.710, 3698.130
1208.193, 3694.805
1208.675, 3687.778
1209.157, 3691.943
1209.639, 3706.059
1210.121, 3728.497
1210.603, 3754.688
1211.085, 3768.609
1211.567, 3763.704
1212.049, 3760.200
1212.531, 3779.314
1213.014, 3791.249
1213.496, 3775.259
1213.978, 3752.125
1214.460, 3730.614
1214.942, 3714.479
1215.424, 3704.938
1215.906, 3704.340
1216.388, 3724.268
1216.871, 3773.410
1217.353, 3783.618
1217.835, 3738.248
1218.317, 3729.016
1218.799, 3774.381
1219.281, 3816.190
1219.763, 3830.763
1220.245, 3829.458
1220.728, 3820.464
1221.210, 3811.067
1221.692, 3816.717
1222.174, 3829.758
1222.656, 3836.817
1223.138, 3837.608
1223.620, 3826.823
1224.102, 3811.177
1224.584, 3811.668
1225.067, 3831.887
1225.549, 3845.801
1226.031, 3837.665
1226.513, 3830.705
1226.995, 3831.484
1227.477, 3836.567
1227.959, 3853.827
##END=



