##NAMES=Muscovite
##RRUFFID=R060266
##IDEAL CHEMISTRY=KAl_2_(Si_3_Al)O_10_(OH)_2_
##LOCALITY=Bolet, Vasterbotten, Sweden
##OWNER=RRUFF
##SOURCE=Michael Scott
##DESCRIPTION=Pink earthy massive
##STATUS=The identification of this mineral has been made only by X-ray diffraction.
##URL=rruff.info/R060266
##MEASURED CHEMISTRY=(K_0.26_Ca_0.16_Mn_0.05_Na_0.01_)_Σ=0.48_(Al_3.14_Mg_1.75_Fe^3+^_0.11_)_Σ=5_(Si_6.06_Al_1.94_)_Σ=8_O_20_(OH)_4_·3.5H_2_O; H_2_O estimated by difference; (OH) by charge balance 
90.49219, 68.98933
90.97430, 69.54715
91.45642, 69.74783
91.93854, 69.82735
92.42065, 69.47452
92.90277, 67.67882
93.38489, 63.94439
93.86700, 60.65548
94.34912, 61.74595
94.83124, 66.47264
95.31335, 70.53738
95.79547, 69.94710
96.27759, 66.11788
96.75970, 65.33252
97.24182, 69.48596
97.72394, 75.80433
98.20605, 78.21985
98.68817, 76.44365
99.17029, 73.08588
99.65240, 69.49953
100.1345, 65.56277
100.6166, 63.09639
101.0988, 62.44827
101.5809, 63.57491
102.0630, 66.64986
102.5451, 72.97963
103.0272, 78.98595
103.5093, 80.14581
103.9915, 74.32332
104.4736, 69.16940
104.9557, 67.00209
105.4378, 68.50463
105.9199, 69.22684
106.4020, 69.29173
106.8842, 68.52543
107.3663, 66.38639
107.8484, 60.54300
108.3305, 56.05972
108.8126, 54.99805
109.2947, 61.14954
109.7769, 64.40881
110.2590, 62.48695
110.7411, 57.26926
111.2232, 54.66595
111.7053, 57.08385
112.1874, 60.50777
112.6696, 63.12335
113.1517, 65.67624
113.6338, 66.42738
114.1159, 63.72526
114.5980, 58.23005
115.0801, 54.58456
115.5623, 55.72987
116.0444, 58.27560
116.5265, 59.59568
117.0086, 57.27952
117.4907, 55.15020
117.9728, 54.19224
118.4550, 54.43410
118.9371, 56.68188
119.4192, 63.38198
119.9013, 71.84980
120.3834, 78.55778
120.8655, 82.49043
121.3477, 83.90082
121.8298, 82.29317
122.3119, 77.19382
122.7940, 71.63232
123.2761, 66.72996
123.7582, 62.88344
124.2404, 60.97585
124.7225, 62.95536
125.2046, 66.63485
125.6867, 68.89635
126.1688, 68.52242
126.6509, 68.57026
127.1331, 73.94667
127.6152, 83.49081
128.0973, 91.43309
128.5794, 92.27340
129.0615, 88.53384
129.5436, 86.06676
130.0258, 85.90784
130.5079, 87.85544
130.9900, 91.71520
131.4721, 97.45322
131.9542, 104.7456
132.4363, 114.0779
132.9185, 125.1190
133.4006, 135.4156
133.8827, 143.4133
134.3648, 150.2511
134.8469, 160.7346
135.3290, 175.1458
135.8112, 192.0437
136.2933, 208.3761
136.7754, 223.8134
137.2575, 244.8697
137.7396, 276.3344
138.2217, 317.2830
138.7039, 352.7879
139.1860, 381.3266
139.6681, 406.8931
140.1502, 436.9176
140.6323, 472.9118
141.1144, 507.3372
141.5966, 536.8890
142.0787, 560.1534
142.5608, 584.2630
143.0429, 609.8734
143.5250, 635.9058
144.0071, 658.9080
144.4893, 674.9514
144.9714, 694.0342
145.4535, 720.9893
145.9356, 761.2889
146.4177, 798.9943
146.8998, 832.5665
147.3820, 863.2991
147.8641, 898.1385
148.3462, 938.7343
148.8283, 981.4379
149.3104, 1024.855
149.7925, 1069.391
150.2747, 1113.812
150.7568, 1157.399
151.2389, 1200.203
151.7210, 1242.848
152.2031, 1286.377
152.6852, 1328.688
153.1674, 1368.954
153.6495, 1406.373
154.1316, 1442.151
154.6137, 1476.051
155.0958, 1508.054
155.5779, 1539.731
156.0601, 1574.719
156.5422, 1607.996
157.0243, 1634.836
157.5064, 1646.024
157.9885, 1658.497
158.4706, 1677.749
158.9528, 1704.817
159.4349, 1731.909
159.9170, 1755.222
160.3991, 1778.038
160.8812, 1804.153
161.3633, 1836.794
161.8455, 1871.253
162.3276, 1906.042
162.8097, 1940.740
163.2918, 1974.832
163.7739, 2006.402
164.2560, 2034.951
164.7382, 2050.404
165.2203, 2064.597
165.7024, 2080.882
166.1845, 2099.492
166.6666, 2121.972
167.1487, 2142.005
167.6309, 2155.484
168.1130, 2164.306
168.5951, 2172.199
169.0772, 2180.258
169.5593, 2188.633
170.0414, 2197.408
170.5236, 2206.543
171.0057, 2216.208
171.4878, 2227.945
171.9699, 2240.758
172.4520, 2251.359
172.9341, 2257.331
173.4163, 2260.438
173.8984, 2262.562
174.3805, 2263.685
174.8626, 2264.604
175.3447, 2265.928
175.8268, 2267.641
176.3090, 2269.789
176.7911, 2272.660
177.2732, 2275.894
177.7553, 2278.903
178.2374, 2281.491
178.7195, 2283.816
179.2017, 2285.089
179.6838, 2285.590
180.1659, 2288.115
180.6480, 2297.964
181.1301, 2311.544
181.6122, 2320.365
182.0944, 2319.781
182.5765, 2314.787
183.0586, 2313.001
183.5407, 2314.423
184.0228, 2318.737
184.5049, 2328.083
184.9871, 2340.768
185.4692, 2350.101
185.9513, 2351.997
186.4334, 2349.997
186.9155, 2352.929
187.3976, 2361.081
187.8798, 2370.640
188.3619, 2378.225
188.8440, 2384.010
189.3261, 2388.537
189.8082, 2391.860
190.2903, 2394.114
190.7725, 2395.254
191.2546, 2394.958
191.7367, 2395.315
192.2188, 2399.563
192.7009, 2407.496
193.1830, 2414.642
193.6652, 2419.424
194.1473, 2422.057
194.6294, 2423.156
195.1115, 2422.353
195.5936, 2421.236
196.0757, 2421.862
196.5579, 2424.258
197.0400, 2427.457
197.5221, 2432.104
198.0042, 2437.922
198.4863, 2439.747
198.9684, 2436.363
199.4506, 2431.701
199.9327, 2431.135
200.4148, 2434.704
200.8969, 2441.609
201.3790, 2454.251
201.8611, 2473.029
202.3433, 2482.950
202.8254, 2482.232
203.3075, 2475.462
203.7896, 2469.191
204.2717, 2462.796
204.7538, 2459.531
205.2360, 2461.812
205.7181, 2470.393
206.2002, 2477.384
206.6823, 2482.775
207.1644, 2486.586
207.6465, 2489.164
208.1287, 2490.925
208.6108, 2490.056
209.0929, 2484.225
209.5750, 2471.509
210.0571, 2464.813
210.5392, 2465.821
211.0214, 2471.376
211.5035, 2475.192
211.9856, 2477.100
212.4677, 2477.822
212.9498, 2477.605
213.4319, 2476.406
213.9141, 2474.411
214.3962, 2471.105
214.8783, 2467.306
215.3604, 2465.097
215.8425, 2464.981
216.3246, 2465.151
216.8067, 2465.002
217.2889, 2464.860
217.7710, 2462.761
218.2531, 2457.119
218.7352, 2450.228
219.2173, 2448.237
219.6994, 2454.075
220.1816, 2459.130
220.6637, 2459.110
221.1458, 2451.669
221.6279, 2445.856
222.1100, 2441.823
222.5921, 2439.497
223.0743, 2438.837
223.5564, 2440.884
224.0385, 2442.913
224.5206, 2443.615
225.0027, 2442.552
225.4848, 2441.475
225.9670, 2440.201
226.4491, 2439.046
226.9312, 2438.937
227.4133, 2440.539
227.8954, 2442.098
228.3775, 2442.799
228.8597, 2442.508
229.3418, 2441.427
229.8239, 2438.762
230.3060, 2435.400
230.7881, 2433.976
231.2702, 2434.896
231.7524, 2436.957
232.2345, 2439.826
232.7166, 2444.513
233.1987, 2447.577
233.6808, 2448.473
234.1629, 2447.880
234.6451, 2447.613
235.1272, 2448.002
235.6093, 2448.343
236.0914, 2448.448
236.5735, 2448.709
237.0556, 2448.041
237.5378, 2446.302
238.0199, 2443.788
238.5020, 2440.999
238.9841, 2437.046
239.4662, 2434.176
239.9483, 2433.456
240.4305, 2435.722
240.9126, 2438.203
241.3947, 2441.111
241.8768, 2444.117
242.3589, 2446.215
242.8410, 2446.070
243.3232, 2446.939
243.8053, 2450.554
244.2874, 2459.005
244.7695, 2465.099
245.2516, 2468.685
245.7337, 2470.021
246.2159, 2469.232
246.6980, 2464.095
247.1801, 2460.372
247.6622, 2460.553
248.1443, 2466.200
248.6264, 2471.671
249.1086, 2477.859
249.5907, 2483.524
250.0728, 2485.514
250.5549, 2480.769
251.0370, 2477.504
251.5191, 2479.422
252.0013, 2488.740
252.4834, 2495.470
252.9655, 2498.086
253.4476, 2498.907
253.9297, 2502.410
254.4118, 2509.915
254.8940, 2517.494
255.3761, 2523.967
255.8582, 2529.495
256.3403, 2533.109
256.8224, 2533.840
257.3046, 2533.434
257.7867, 2534.805
258.2688, 2538.547
258.7509, 2542.967
259.2330, 2547.807
259.7151, 2553.435
260.1973, 2557.603
260.6794, 2559.486
261.1615, 2560.711
261.6436, 2563.949
262.1257, 2570.597
262.6078, 2575.908
263.0900, 2578.121
263.5721, 2576.910
264.0542, 2575.553
264.5363, 2573.193
265.0184, 2571.621
265.5005, 2574.126
265.9827, 2583.134
266.4648, 2588.881
266.9469, 2587.620
267.4290, 2579.159
267.9111, 2572.688
268.3932, 2568.723
268.8754, 2565.997
269.3575, 2562.884
269.8396, 2558.861
270.3217, 2556.548
270.8038, 2557.929
271.2859, 2562.587
271.7681, 2560.910
272.2502, 2550.827
272.7323, 2538.760
273.2144, 2531.214
273.6965, 2528.530
274.1786, 2528.500
274.6608, 2531.887
275.1429, 2537.820
275.6250, 2539.506
276.1071, 2535.876
276.5892, 2531.101
277.0714, 2528.875
277.5535, 2529.347
278.0356, 2530.947
278.5177, 2533.598
278.9998, 2537.128
279.4819, 2541.246
279.9641, 2546.411
280.4462, 2550.530
280.9283, 2551.198
281.4104, 2548.278
281.8925, 2546.879
282.3746, 2548.521
282.8568, 2551.623
283.3389, 2550.724
283.8210, 2545.170
284.3031, 2540.538
284.7852, 2542.330
285.2673, 2549.979
285.7495, 2553.553
286.2316, 2550.706
286.7137, 2544.721
287.1958, 2542.783
287.6779, 2544.987
288.1600, 2547.279
288.6422, 2546.316
289.1243, 2542.745
289.6064, 2541.925
290.0885, 2545.055
290.5706, 2549.121
291.0527, 2548.248
291.5349, 2542.851
292.0170, 2538.708
292.4991, 2540.336
292.9812, 2546.054
293.4633, 2549.776
293.9454, 2551.168
294.4276, 2550.892
294.9097, 2548.662
295.3918, 2545.004
295.8739, 2542.737
296.3560, 2544.339
296.8381, 2548.183
297.3203, 2550.411
297.8024, 2550.828
298.2845, 2550.466
298.7666, 2549.756
299.2487, 2549.013
299.7308, 2549.231
300.2130, 2551.839
300.6951, 2555.278
301.1772, 2556.971
301.6593, 2556.938
302.1414, 2556.250
302.6235, 2555.928
303.1057, 2555.658
303.5878, 2554.688
304.0699, 2551.448
304.5520, 2548.480
305.0341, 2549.921
305.5162, 2555.197
305.9984, 2559.435
306.4805, 2557.004
306.9626, 2551.870
307.4447, 2549.849
307.9268, 2554.294
308.4089, 2559.840
308.8911, 2561.489
309.3732, 2560.015
309.8553, 2558.687
310.3374, 2558.999
310.8195, 2560.569
311.3016, 2563.241
311.7838, 2567.541
312.2659, 2571.733
312.7480, 2574.484
313.2301, 2576.229
313.7122, 2578.075
314.1943, 2581.510
314.6765, 2584.681
315.1586, 2586.021
315.6407, 2584.787
316.1228, 2583.654
316.6049, 2583.009
317.0870, 2583.424
317.5692, 2585.824
318.0513, 2595.536
318.5334, 2603.207
319.0155, 2602.602
319.4976, 2591.766
319.9797, 2583.133
320.4619, 2581.218
320.9440, 2583.420
321.4261, 2586.830
321.9082, 2592.247
322.3903, 2597.283
322.8724, 2601.193
323.3546, 2603.946
323.8367, 2606.248
324.3188, 2610.215
324.8009, 2612.783
325.2830, 2611.598
325.7651, 2598.429
326.2473, 2590.441
326.7294, 2593.094
327.2115, 2604.830
327.6936, 2612.969
328.1757, 2614.143
328.6578, 2613.473
329.1400, 2613.482
329.6221, 2615.167
330.1042, 2616.152
330.5863, 2615.900
331.0684, 2614.882
331.5505, 2614.469
332.0327, 2614.339
332.5148, 2615.089
332.9969, 2617.016
333.4790, 2620.345
333.9611, 2624.231
334.4432, 2630.163
334.9254, 2635.765
335.4075, 2636.260
335.8896, 2628.258
336.3717, 2622.080
336.8538, 2621.719
337.3359, 2627.954
337.8180, 2631.573
338.3001, 2631.724
338.7823, 2630.625
339.2644, 2630.932
339.7465, 2633.114
340.2286, 2634.656
340.7107, 2634.699
341.1928, 2633.530
341.6750, 2633.099
342.1571, 2633.391
342.6392, 2634.357
343.1213, 2636.144
343.6034, 2638.726
344.0855, 2641.344
344.5677, 2643.981
345.0498, 2646.394
345.5319, 2647.871
346.0140, 2648.395
346.4961, 2648.528
346.9782, 2648.948
347.4604, 2649.422
347.9425, 2647.947
348.4246, 2643.469
348.9067, 2639.727
349.3888, 2644.040
349.8709, 2654.905
350.3531, 2663.835
350.8352, 2664.922
351.3173, 2661.564
351.7994, 2660.019
352.2815, 2660.542
352.7636, 2662.497
353.2458, 2666.816
353.7279, 2672.095
354.2100, 2675.255
354.6921, 2672.947
355.1742, 2669.397
355.6563, 2669.212
356.1385, 2672.146
356.6206, 2675.727
357.1027, 2678.585
357.5848, 2680.993
358.0669, 2683.315
358.5490, 2685.686
359.0312, 2687.880
359.5133, 2689.429
359.9954, 2690.608
360.4775, 2692.317
360.9596, 2695.762
361.4417, 2699.351
361.9239, 2701.693
362.4060, 2701.740
362.8881, 2702.973
363.3702, 2709.633
363.8523, 2717.742
364.3344, 2721.207
364.8166, 2712.334
365.2987, 2703.852
365.7808, 2701.241
366.2629, 2705.442
366.7450, 2709.406
367.2271, 2713.438
367.7093, 2716.128
368.1914, 2716.243
368.6735, 2708.687
369.1556, 2704.150
369.6377, 2706.336
370.1198, 2714.145
370.6020, 2717.650
371.0841, 2712.658
371.5662, 2707.251
372.0483, 2705.943
372.5304, 2711.654
373.0125, 2715.847
373.4947, 2717.509
373.9768, 2717.803
374.4589, 2719.870
374.9410, 2725.332
375.4231, 2729.174
375.9052, 2728.591
376.3874, 2722.567
376.8695, 2720.788
377.3516, 2724.939
377.8337, 2730.493
378.3158, 2731.141
378.7979, 2726.054
379.2801, 2722.365
379.7622, 2722.226
380.2443, 2724.963
380.7264, 2728.063
381.2085, 2731.681
381.6906, 2734.342
382.1728, 2733.993
382.6549, 2731.186
383.1370, 2729.540
383.6191, 2729.750
384.1012, 2731.175
384.5833, 2732.999
385.0655, 2735.190
385.5476, 2737.477
386.0297, 2740.079
386.5118, 2742.623
386.9939, 2743.932
387.4760, 2743.605
387.9582, 2744.216
388.4403, 2750.199
388.9224, 2758.902
389.4045, 2764.795
389.8866, 2763.856
390.3687, 2760.417
390.8509, 2757.335
391.3330, 2754.729
391.8151, 2753.394
392.2972, 2754.417
392.7793, 2756.664
393.2614, 2759.137
393.7436, 2762.125
394.2257, 2764.464
394.7078, 2764.492
395.1899, 2763.372
395.6720, 2764.155
396.1541, 2771.059
396.6363, 2777.535
397.1184, 2779.700
397.6005, 2774.896
398.0826, 2773.013
398.5647, 2778.265
399.0468, 2786.310
399.5290, 2791.881
400.0111, 2792.942
400.4932, 2793.304
400.9753, 2793.289
401.4574, 2792.895
401.9395, 2792.973
402.4217, 2793.034
402.9038, 2794.028
403.3859, 2796.802
403.8680, 2802.442
404.3501, 2807.274
404.8322, 2811.102
405.3144, 2813.894
405.7965, 2815.192
406.2786, 2814.498
406.7607, 2813.961
407.2428, 2814.357
407.7249, 2815.683
408.2071, 2818.685
408.6892, 2823.991
409.1713, 2829.145
409.6534, 2830.569
410.1355, 2828.441
410.6176, 2826.484
411.0998, 2825.644
411.5819, 2825.772
412.0640, 2826.917
412.5461, 2829.022
413.0282, 2830.852
413.5103, 2830.541
413.9925, 2829.363
414.4746, 2830.566
414.9567, 2835.638
415.4388, 2840.335
415.9209, 2838.654
416.4030, 2833.028
416.8852, 2829.459
417.3673, 2834.856
417.8494, 2841.050
418.3315, 2839.720
418.8136, 2830.299
419.2957, 2822.437
419.7779, 2824.097
420.2600, 2828.967
420.7421, 2830.706
421.2242, 2823.039
421.7063, 2816.662
422.1884, 2815.815
422.6706, 2819.246
423.1527, 2822.145
423.6348, 2822.557
424.1169, 2822.906
424.5990, 2824.642
425.0811, 2829.555
425.5633, 2831.977
426.0454, 2830.057
426.5275, 2826.297
427.0096, 2823.749
427.4917, 2822.460
427.9738, 2822.451
428.4560, 2824.458
428.9381, 2828.308
429.4202, 2829.330
429.9023, 2825.841
430.3844, 2822.556
430.8665, 2823.535
431.3487, 2829.742
431.8308, 2834.040
432.3129, 2835.365
432.7950, 2835.013
433.2771, 2835.540
433.7592, 2836.950
434.2414, 2838.503
434.7235, 2841.029
435.2056, 2843.546
435.6877, 2840.774
436.1698, 2832.263
436.6519, 2823.960
437.1341, 2822.565
437.6162, 2826.145
438.0983, 2829.792
438.5804, 2832.687
439.0625, 2834.395
439.5446, 2833.876
440.0268, 2831.604
440.5089, 2829.262
440.9910, 2827.144
441.4731, 2825.840
441.9552, 2826.564
442.4373, 2830.085
442.9195, 2832.088
443.4016, 2829.159
443.8837, 2823.886
444.3658, 2819.410
444.8479, 2816.798
445.3300, 2814.994
445.8122, 2813.673
446.2943, 2812.854
446.7764, 2812.666
447.2585, 2814.888
447.7406, 2816.374
448.2227, 2815.148
448.7049, 2807.616
449.1870, 2804.474
449.6691, 2808.721
450.1512, 2815.882
450.6333, 2818.483
451.1154, 2813.970
451.5976, 2810.469
452.0797, 2810.628
452.5618, 2814.086
453.0439, 2815.373
453.5260, 2813.886
454.0081, 2812.022
454.4903, 2811.891
454.9724, 2813.462
455.4545, 2814.432
455.9366, 2814.498
456.4187, 2813.912
456.9008, 2812.149
457.3830, 2809.569
457.8651, 2809.064
458.3472, 2813.965
458.8293, 2821.219
459.3114, 2825.561
459.7935, 2826.918
460.2757, 2826.469
460.7578, 2824.336
461.2399, 2821.205
461.7220, 2817.748
462.2041, 2812.858
462.6862, 2809.795
463.1684, 2812.317
463.6505, 2818.306
464.1326, 2822.825
464.6147, 2822.563
465.0968, 2821.407
465.5789, 2821.455
466.0611, 2823.094
466.5432, 2823.969
467.0253, 2822.597
467.5074, 2820.764
467.9895, 2819.976
468.4716, 2822.499
468.9538, 2823.156
469.4359, 2820.105
469.9180, 2815.020
470.4001, 2813.665
470.8822, 2818.596
471.3643, 2822.806
471.8465, 2822.948
472.3286, 2818.466
472.8107, 2816.540
473.2928, 2818.062
473.7749, 2820.145
474.2570, 2819.100
474.7392, 2814.978
475.2213, 2811.967
475.7034, 2811.437
476.1855, 2811.981
476.6676, 2809.583
477.1497, 2804.732
477.6319, 2802.165
478.1140, 2807.140
478.5961, 2815.412
479.0782, 2819.453
479.5603, 2818.496
480.0424, 2816.769
480.5246, 2818.186
481.0067, 2820.837
481.4888, 2821.963
481.9709, 2819.009
482.4530, 2816.231
482.9352, 2815.919
483.4173, 2817.565
483.8994, 2819.567
484.3815, 2821.704
484.8636, 2823.812
485.3457, 2826.319
485.8279, 2830.117
486.3100, 2831.014
486.7921, 2824.500
487.2742, 2817.229
487.7563, 2815.193
488.2384, 2821.941
488.7206, 2827.990
489.2027, 2832.667
489.6848, 2835.857
490.1669, 2836.905
490.6490, 2835.539
491.1311, 2832.877
491.6133, 2828.397
492.0954, 2822.173
492.5775, 2820.782
493.0596, 2825.301
493.5417, 2830.210
494.0238, 2827.237
494.5060, 2818.641
494.9881, 2815.859
495.4702, 2824.530
495.9523, 2835.895
496.4344, 2835.460
496.9165, 2826.207
497.3987, 2819.355
497.8808, 2824.083
498.3629, 2832.371
498.8450, 2836.678
499.3271, 2836.353
499.8092, 2834.419
500.2914, 2830.535
500.7735, 2826.726
501.2556, 2824.818
501.7377, 2826.402
502.2198, 2828.545
502.7019, 2831.479
503.1841, 2834.557
503.6662, 2836.052
504.1483, 2833.403
504.6304, 2831.788
505.1125, 2833.069
505.5946, 2837.566
506.0768, 2841.180
506.5589, 2844.363
507.0410, 2846.018
507.5231, 2844.646
508.0052, 2839.627
508.4873, 2835.769
508.9695, 2833.491
509.4516, 2832.910
509.9337, 2835.848
510.4158, 2841.981
510.8979, 2845.152
511.3800, 2839.927
511.8622, 2830.734
512.3443, 2827.768
512.8264, 2830.819
513.3085, 2835.822
513.7906, 2841.662
514.2728, 2846.863
514.7549, 2849.227
515.2370, 2847.724
515.7191, 2845.257
516.2012, 2843.168
516.6833, 2841.417
517.1655, 2839.899
517.6476, 2837.664
518.1297, 2836.607
518.6118, 2837.823
519.0939, 2841.149
519.5760, 2844.454
520.0582, 2848.802
520.5403, 2851.930
521.0224, 2852.728
521.5045, 2850.533
521.9866, 2847.581
522.4688, 2842.394
522.9509, 2838.037
523.4330, 2839.168
523.9151, 2847.098
524.3972, 2853.051
524.8793, 2854.525
525.3615, 2853.307
525.8436, 2854.091
526.3257, 2856.858
526.8078, 2859.960
527.2899, 2863.879
527.7720, 2867.247
528.2542, 2865.589
528.7363, 2858.567
529.2184, 2852.340
529.7005, 2853.940
530.1826, 2859.019
530.6647, 2861.474
531.1469, 2857.922
531.6290, 2854.222
532.1111, 2853.137
532.5932, 2854.264
533.0753, 2856.769
533.5574, 2862.740
534.0396, 2867.781
534.5217, 2869.906
535.0038, 2868.817
535.4859, 2868.508
535.9680, 2869.523
536.4501, 2870.847
536.9323, 2871.843
537.4144, 2872.193
537.8965, 2873.303
538.3786, 2875.801
538.8607, 2878.280
539.3428, 2878.253
539.8250, 2875.541
540.3071, 2872.873
540.7892, 2870.426
541.2713, 2869.059
541.7534, 2872.134
542.2355, 2879.220
542.7177, 2885.601
543.1998, 2888.605
543.6819, 2888.938
544.1640, 2886.393
544.6461, 2880.731
545.1282, 2877.172
545.6104, 2882.551
546.0925, 2890.781
546.5746, 2894.798
547.0567, 2888.394
547.5388, 2883.458
548.0209, 2884.792
548.5031, 2890.371
548.9852, 2895.755
549.4673, 2901.300
549.9494, 2905.468
550.4315, 2907.108
550.9136, 2906.240
551.3958, 2907.938
551.8779, 2913.911
552.3600, 2919.597
552.8421, 2922.006
553.3242, 2920.840
553.8063, 2918.822
554.2885, 2915.535
554.7706, 2912.872
555.2527, 2914.013
555.7348, 2918.388
556.2169, 2922.384
556.6990, 2924.547
557.1812, 2926.218
557.6633, 2929.970
558.1454, 2935.074
558.6275, 2938.804
559.1096, 2938.234
559.5917, 2936.568
560.0739, 2936.574
560.5560, 2938.478
561.0381, 2940.100
561.5202, 2939.645
562.0023, 2939.120
562.4844, 2940.109
562.9666, 2945.180
563.4487, 2948.162
563.9308, 2947.890
564.4129, 2945.731
564.8950, 2943.602
565.3771, 2941.239
565.8593, 2939.518
566.3414, 2938.856
566.8235, 2938.930
567.3056, 2938.302
567.7877, 2936.902
568.2698, 2935.193
568.7520, 2933.122
569.2341, 2930.928
569.7162, 2929.836
570.1983, 2929.995
570.6804, 2929.759
571.1625, 2927.552
571.6447, 2923.973
572.1268, 2919.790
572.6089, 2914.587
573.0910, 2910.124
573.5731, 2908.426
574.0552, 2908.102
574.5374, 2906.665
575.0195, 2901.424
575.5016, 2896.926
575.9837, 2895.430
576.4658, 2896.650
576.9479, 2896.200
577.4301, 2892.371
577.9122, 2888.828
578.3943, 2887.221
578.8764, 2887.934
579.3585, 2888.561
579.8406, 2889.086
580.3228, 2889.547
580.8049, 2890.264
581.2870, 2891.148
581.7691, 2890.342
582.2512, 2886.573
582.7333, 2883.162
583.2155, 2886.764
583.6976, 2895.122
584.1797, 2901.385
584.6617, 2899.778
585.1439, 2896.424
585.6260, 2897.093
586.1081, 2901.073
586.5902, 2904.785
587.0723, 2907.805
587.5544, 2909.086
588.0366, 2907.429
588.5187, 2901.711
589.0008, 2897.569
589.4829, 2897.098
589.9650, 2897.542
590.4471, 2896.557
590.9293, 2892.028
591.4114, 2891.661
591.8935, 2898.163
592.3756, 2906.707
592.8577, 2907.152
593.3398, 2898.885
593.8220, 2893.295
594.3041, 2895.411
594.7862, 2901.530
595.2683, 2902.775
595.7504, 2899.708
596.2325, 2896.537
596.7147, 2896.021
597.1968, 2896.786
597.6789, 2897.553
598.1610, 2898.249
598.6431, 2898.282
599.1252, 2895.546
599.6074, 2893.084
600.0895, 2893.835
600.5716, 2902.672
601.0537, 2907.167
601.5358, 2901.487
602.0179, 2892.022
602.5001, 2887.084
602.9822, 2889.131
603.4643, 2890.857
603.9464, 2890.961
604.4285, 2889.890
604.9106, 2888.610
605.3928, 2886.871
605.8749, 2886.951
606.3570, 2890.842
606.8391, 2897.333
607.3212, 2903.192
607.8033, 2908.338
608.2855, 2911.589
608.7676, 2910.788
609.2497, 2908.028
609.7318, 2905.552
610.2139, 2903.380
610.6960, 2903.072
611.1782, 2908.408
611.6603, 2914.755
612.1424, 2917.242
612.6245, 2909.778
613.1066, 2904.403
613.5887, 2904.112
614.0709, 2906.628
614.5530, 2907.464
615.0351, 2906.153
615.5172, 2904.039
615.9993, 2900.772
616.4814, 2897.007
616.9636, 2896.692
617.4457, 2900.117
617.9278, 2903.858
618.4099, 2906.444
618.8920, 2907.629
619.3741, 2906.015
619.8563, 2901.500
620.3384, 2897.259
620.8205, 2895.563
621.3026, 2895.743
621.7847, 2897.416
622.2668, 2901.518
622.7490, 2904.263
623.2311, 2903.075
623.7132, 2899.906
624.1953, 2897.262
624.6774, 2894.652
625.1595, 2893.775
625.6417, 2895.595
626.1238, 2899.151
626.6059, 2902.062
627.0880, 2904.968
627.5701, 2905.244
628.0522, 2900.490
628.5344, 2892.403
629.0165, 2889.750
629.4986, 2892.611
629.9807, 2897.544
630.4628, 2904.026
630.9449, 2910.318
631.4271, 2912.505
631.9092, 2910.138
632.3913, 2907.591
632.8734, 2908.099
633.3555, 2909.988
633.8376, 2911.542
634.3198, 2912.151
634.8019, 2912.760
635.2840, 2914.389
635.7661, 2915.834
636.2482, 2915.392
636.7303, 2911.750
637.2125, 2908.298
637.6946, 2905.199
638.1767, 2902.717
638.6588, 2902.167
639.1409, 2904.059
639.6230, 2904.404
640.1052, 2900.581
640.5873, 2894.467
641.0694, 2892.117
641.5515, 2893.262
642.0336, 2894.660
642.5157, 2893.966
642.9979, 2892.450
643.4800, 2891.521
643.9621, 2891.331
644.4442, 2891.453
644.9263, 2891.987
645.4084, 2892.546
645.8906, 2892.752
646.3727, 2892.002
646.8548, 2891.744
647.3369, 2891.245
647.8190, 2891.659
648.3011, 2894.772
648.7833, 2901.803
649.2654, 2907.322
649.7475, 2910.520
650.2296, 2911.719
650.7117, 2910.822
651.1938, 2908.071
651.6760, 2906.583
652.1581, 2907.919
652.6402, 2911.048
653.1223, 2915.777
653.6044, 2921.336
654.0865, 2924.657
654.5687, 2922.436
655.0508, 2918.662
655.5329, 2915.292
656.0150, 2912.497
656.4971, 2911.530
656.9792, 2913.901
657.4614, 2917.216
657.9435, 2920.393
658.4256, 2923.845
658.9077, 2925.312
659.3898, 2923.739
659.8719, 2921.976
660.3541, 2923.717
660.8362, 2928.781
661.3183, 2931.688
661.8004, 2931.337
662.2825, 2929.441
662.7646, 2927.592
663.2468, 2925.968
663.7289, 2924.977
664.2110, 2924.535
664.6931, 2925.123
665.1752, 2928.969
665.6573, 2934.123
666.1395, 2936.016
666.6216, 2928.348
667.1037, 2922.332
667.5858, 2922.483
668.0679, 2927.905
668.5500, 2932.656
669.0322, 2936.942
669.5143, 2940.194
669.9964, 2942.024
670.4785, 2942.479
670.9606, 2942.397
671.4427, 2941.670
671.9249, 2941.198
672.4070, 2941.114
672.8891, 2941.896
673.3712, 2945.359
673.8533, 2951.992
674.3354, 2957.634
674.8176, 2958.541
675.2997, 2957.307
675.7818, 2956.649
676.2639, 2957.599
676.7460, 2958.394
677.2281, 2958.040
677.7103, 2957.638
678.1924, 2958.526
678.6745, 2961.069
679.1566, 2964.265
679.6387, 2968.419
680.1208, 2972.764
680.6030, 2975.341
681.0851, 2976.109
681.5672, 2977.519
682.0493, 2980.964
682.5314, 2985.003
683.0135, 2986.505
683.4957, 2986.166
683.9778, 2986.728
684.4599, 2991.689
684.9420, 2996.432
685.4241, 2997.229
685.9063, 2994.271
686.3884, 2992.025
686.8705, 2991.561
687.3526, 2992.240
687.8347, 2993.785
688.3168, 2996.245
688.7990, 2999.760
689.2811, 3004.790
689.7632, 3010.096
690.2453, 3015.242
690.7274, 3020.136
691.2095, 3022.350
691.6917, 3021.397
692.1738, 3020.184
692.6559, 3021.501
693.1380, 3024.699
693.6201, 3029.141
694.1022, 3035.618
694.5844, 3040.504
695.0665, 3038.442
695.5486, 3034.623
696.0307, 3035.720
696.5128, 3047.647
696.9949, 3058.927
697.4771, 3069.294
697.9592, 3078.027
698.4413, 3083.213
698.9234, 3084.233
699.4055, 3084.069
699.8876, 3082.893
700.3698, 3081.629
700.8519, 3082.674
701.3340, 3085.868
701.8161, 3090.034
702.2982, 3095.829
702.7803, 3101.489
703.2625, 3104.807
703.7446, 3106.165
704.2267, 3107.391
704.7088, 3109.045
705.1909, 3111.057
705.6730, 3113.973
706.1552, 3118.008
706.6373, 3119.413
707.1194, 3115.921
707.6015, 3112.932
708.0836, 3114.177
708.5657, 3119.978
709.0479, 3121.926
709.5300, 3119.520
710.0121, 3115.905
710.4942, 3113.944
710.9763, 3112.886
711.4584, 3111.318
711.9406, 3109.187
712.4227, 3105.294
712.9048, 3096.706
713.3869, 3086.880
713.8690, 3079.756
714.3511, 3079.575
714.8333, 3076.241
715.3154, 3063.671
715.7975, 3049.481
716.2796, 3042.157
716.7617, 3044.708
717.2438, 3045.901
717.7260, 3044.649
718.2081, 3041.284
718.6902, 3035.204
719.1723, 3026.908
719.6544, 3020.704
720.1365, 3018.633
720.6187, 3018.120
721.1008, 3016.153
721.5829, 3013.311
722.0650, 3010.945
722.5471, 3008.518
723.0292, 3007.734
723.5114, 3010.852
723.9935, 3016.548
724.4756, 3019.233
724.9577, 3017.625
725.4398, 3014.499
725.9219, 3009.686
726.4041, 3003.946
726.8862, 3002.377
727.3683, 3005.349
727.8504, 3008.301
728.3325, 3008.897
728.8146, 3007.667
729.2968, 3004.982
729.7789, 3001.102
730.2610, 2998.014
730.7431, 2997.090
731.2252, 2997.369
731.7073, 2998.485
732.1895, 3000.487
732.6716, 3001.926
733.1537, 3001.775
733.6358, 3001.621
734.1179, 3002.434
734.6000, 3004.580
735.0822, 3005.205
735.5643, 3004.098
736.0464, 3002.099
736.5285, 2999.101
737.0106, 2995.750
737.4927, 2994.575
737.9749, 2995.918
738.4570, 2998.813
738.9391, 3004.832
739.4212, 3010.854
739.9033, 3013.026
740.3854, 3009.247
740.8676, 3005.033
741.3497, 3001.007
741.8318, 2997.887
742.3139, 2996.286
742.7960, 2996.453
743.2781, 2997.619
743.7603, 2999.931
744.2424, 3002.786
744.7245, 3006.062
745.2066, 3009.389
745.6887, 3009.561
746.1708, 3004.280
746.6530, 2999.372
747.1351, 3004.130
747.6172, 3013.475
748.0993, 3018.469
748.5814, 3011.083
749.0635, 3004.306
749.5457, 3003.202
750.0278, 3005.709
750.5099, 3007.305
750.9920, 3006.945
751.4741, 3007.694
751.9562, 3010.688
752.4384, 3014.759
752.9205, 3017.079
753.4026, 3017.691
753.8847, 3016.449
754.3668, 3011.933
754.8489, 3007.095
755.3311, 3007.021
755.8132, 3010.288
756.2953, 3012.732
756.7774, 3011.315
757.2595, 3009.688
757.7416, 3009.429
758.2238, 3010.460
758.7059, 3012.167
759.1880, 3016.241
759.6701, 3018.039
760.1522, 3015.146
760.6343, 3008.873
761.1165, 3005.989
761.5986, 3006.570
762.0807, 3009.291
762.5628, 3016.018
763.0449, 3023.256
763.5270, 3023.627
764.0092, 3018.325
764.4913, 3013.822
764.9734, 3014.461
765.4555, 3016.375
765.9376, 3017.464
766.4197, 3017.618
766.9019, 3017.618
767.3840, 3017.305
767.8661, 3017.223
768.3482, 3017.894
768.8303, 3019.253
769.3124, 3019.083
769.7946, 3017.291
770.2767, 3015.286
770.7588, 3013.934
771.2409, 3013.089
771.7230, 3012.231
772.2051, 3011.392
772.6873, 3011.624
773.1694, 3015.034
773.6515, 3018.550
774.1336, 3019.768
774.6157, 3017.878
775.0978, 3017.303
775.5800, 3018.989
776.0621, 3020.880
776.5442, 3021.659
777.0263, 3021.240
777.5084, 3020.980
777.9905, 3020.719
778.4727, 3022.005
778.9548, 3028.859
779.4369, 3037.264
779.9190, 3039.376
780.4011, 3034.171
780.8832, 3028.604
781.3654, 3027.087
781.8475, 3026.539
782.3296, 3024.325
782.8117, 3018.789
783.2938, 3016.509
783.7759, 3019.049
784.2581, 3022.764
784.7402, 3025.031
785.2223, 3025.865
785.7044, 3026.164
786.1865, 3025.896
786.6686, 3025.636
787.1508, 3024.996
787.6329, 3025.014
788.1150, 3028.555
788.5971, 3037.050
789.0792, 3041.908
789.5613, 3032.802
790.0435, 3022.389
790.5256, 3022.283
791.0077, 3040.652
791.4898, 3047.462
791.9719, 3037.107
792.4540, 3024.425
792.9362, 3024.642
793.4183, 3036.459
793.9004, 3045.078
794.3825, 3049.558
794.8646, 3049.840
795.3467, 3042.033
795.8289, 3031.703
796.3110, 3026.935
796.7931, 3030.266
797.2752, 3033.934
797.7573, 3036.192
798.2394, 3036.977
798.7216, 3036.123
799.2037, 3032.514
799.6858, 3030.263
800.1679, 3029.426
800.6500, 3029.779
801.1321, 3031.698
801.6143, 3034.729
802.0964, 3036.914
802.5785, 3038.049
803.0606, 3037.832
803.5427, 3033.900
804.0248, 3029.501
804.5070, 3028.732
804.9891, 3034.154
805.4712, 3037.580
805.9533, 3035.533
806.4354, 3032.187
806.9175, 3030.768
807.3997, 3032.230
807.8818, 3031.079
808.3639, 3026.450
808.8460, 3022.177
809.3281, 3023.492
809.8102, 3028.176
810.2924, 3030.192
810.7745, 3028.478
811.2566, 3026.627
811.7387, 3027.291
812.2208, 3028.903
812.7029, 3030.214
813.1851, 3031.320
813.6672, 3031.073
814.1493, 3028.423
814.6314, 3025.588
815.1135, 3024.093
815.5956, 3023.898
816.0778, 3025.742
816.5599, 3029.875
817.0420, 3034.143
817.5241, 3035.903
818.0062, 3036.653
818.4883, 3039.475
818.9705, 3045.261
819.4526, 3048.800
819.9347, 3044.837
820.4168, 3039.730
820.8989, 3038.578
821.3810, 3042.928
821.8632, 3044.847
822.3453, 3043.038
822.8274, 3041.676
823.3095, 3045.116
823.7916, 3052.253
824.2737, 3057.367
824.7559, 3060.241
825.2380, 3060.025
825.7201, 3052.823
826.2022, 3044.172
826.6843, 3039.754
827.1664, 3040.589
827.6486, 3042.315
828.1307, 3045.970
828.6128, 3048.333
829.0949, 3046.776
829.5770, 3040.718
830.0591, 3040.670
830.5413, 3047.424
831.0234, 3055.411
831.5055, 3061.591
831.9876, 3065.714
832.4697, 3067.141
832.9518, 3065.883
833.4340, 3062.837
833.9161, 3054.874
834.3982, 3048.288
834.8803, 3047.954
835.3624, 3054.690
835.8445, 3059.521
836.3267, 3062.235
836.8088, 3063.493
837.2909, 3063.878
837.7730, 3063.130
838.2551, 3057.145
838.7372, 3046.557
839.2194, 3041.121
839.7015, 3053.543
840.1836, 3069.545
840.6657, 3073.498
841.1478, 3067.206
841.6299, 3063.724
842.1121, 3070.180
842.5942, 3076.955
843.0763, 3081.078
843.5584, 3082.814
844.0405, 3083.011
844.5226, 3081.125
845.0048, 3081.405
845.4869, 3087.101
845.9690, 3094.891
846.4511, 3098.442
846.9332, 3098.454
847.4153, 3097.228
847.8975, 3093.226
848.3796, 3090.927
848.8617, 3094.549
849.3438, 3101.773
849.8259, 3104.692
850.3080, 3101.666
850.7902, 3097.781
851.2723, 3094.155
851.7544, 3090.449
852.2365, 3084.600
852.7186, 3077.465
853.2007, 3074.307
853.6829, 3079.345
854.1650, 3085.303
854.6471, 3085.026
855.1292, 3081.472
855.6113, 3079.611
856.0934, 3083.811
856.5756, 3085.666
857.0577, 3083.177
857.5398, 3078.782
858.0219, 3075.394
858.5040, 3072.913
858.9861, 3073.612
859.4683, 3078.814
859.9504, 3083.709
860.4325, 3079.630
860.9146, 3071.829
861.3967, 3070.049
861.8788, 3079.700
862.3610, 3087.179
862.8431, 3085.061
863.3252, 3079.853
863.8073, 3077.903
864.2894, 3080.927
864.7715, 3081.792
865.2537, 3080.041
865.7358, 3077.396
866.2179, 3075.514
866.7000, 3074.130
867.1821, 3072.417
867.6642, 3070.292
868.1464, 3068.244
868.6285, 3065.184
869.1106, 3063.383
869.5927, 3064.856
870.0748, 3070.545
870.5569, 3076.362
871.0391, 3083.570
871.5212, 3088.389
872.0033, 3087.026
872.4854, 3080.665
872.9675, 3079.044
873.4496, 3081.827
873.9318, 3084.903
874.4139, 3085.128
874.8960, 3084.580
875.3781, 3085.473
875.8602, 3087.536
876.3423, 3088.209
876.8245, 3084.681
877.3066, 3082.375
877.7887, 3083.426
878.2708, 3086.740
878.7529, 3086.771
879.2350, 3083.542
879.7172, 3083.131
880.1993, 3090.596
880.6814, 3099.476
881.1635, 3101.220
881.6456, 3097.747
882.1277, 3093.490
882.6099, 3086.973
883.0920, 3083.689
883.5741, 3087.230
884.0562, 3093.946
884.5383, 3098.424
885.0204, 3100.527
885.5026, 3101.077
885.9847, 3099.928
886.4668, 3098.089
886.9489, 3095.920
887.4310, 3094.271
887.9131, 3095.394
888.3953, 3101.191
888.8774, 3105.809
889.3595, 3105.448
889.8416, 3103.401
890.3237, 3102.827
890.8058, 3104.241
891.2880, 3105.727
891.7701, 3107.246
892.2522, 3108.883
892.7343, 3110.696
893.2164, 3112.703
893.6985, 3115.415
894.1807, 3118.823
894.6628, 3121.045
895.1449, 3118.684
895.6270, 3116.451
896.1091, 3118.131
896.5912, 3124.286
897.0734, 3128.451
897.5555, 3130.240
898.0376, 3130.781
898.5197, 3130.146
899.0018, 3128.793
899.4839, 3128.339
899.9661, 3128.707
900.4482, 3129.434
900.9303, 3131.714
901.4124, 3132.947
901.8945, 3130.039
902.3766, 3124.610
902.8588, 3122.102
903.3409, 3125.086
903.8230, 3127.212
904.3051, 3127.197
904.7872, 3125.987
905.2693, 3124.382
905.7515, 3122.900
906.2336, 3125.401
906.7157, 3134.775
907.1978, 3143.209
907.6799, 3142.475
908.1620, 3137.550
908.6442, 3134.381
909.1263, 3134.143
909.6084, 3136.405
910.0905, 3143.676
910.5726, 3149.835
911.0547, 3147.061
911.5369, 3136.647
912.0190, 3135.289
912.5011, 3144.304
912.9832, 3152.752
913.4653, 3150.673
913.9474, 3144.404
914.4296, 3138.785
914.9117, 3134.234
915.3938, 3133.381
915.8759, 3139.205
916.3580, 3144.951
916.8401, 3147.752
917.3223, 3148.140
917.8044, 3149.500
918.2865, 3151.716
918.7686, 3153.528
919.2507, 3153.363
919.7328, 3153.239
920.2150, 3156.996
920.6971, 3162.307
921.1792, 3163.484
921.6613, 3152.467
922.1434, 3146.202
922.6255, 3149.084
923.1077, 3156.010
923.5898, 3157.816
924.0719, 3154.826
924.5540, 3152.749
925.0361, 3152.682
925.5182, 3153.906
926.0004, 3156.220
926.4825, 3159.088
926.9646, 3162.066
927.4467, 3165.543
927.9288, 3167.496
928.4109, 3167.322
928.8931, 3166.154
929.3752, 3164.646
929.8573, 3162.810
930.3394, 3160.402
930.8215, 3157.461
931.3036, 3155.534
931.7858, 3157.240
932.2679, 3159.521
932.7500, 3158.587
933.2321, 3154.999
933.7142, 3153.624
934.1964, 3159.510
934.6785, 3162.267
935.1606, 3157.733
935.6427, 3149.170
936.1248, 3146.837
936.6069, 3150.252
937.0891, 3153.773
937.5712, 3155.133
938.0533, 3156.559
938.5354, 3161.273
939.0175, 3167.079
939.4996, 3170.683
939.9818, 3169.449
940.4639, 3168.701
940.9460, 3169.310
941.4281, 3169.544
941.9102, 3166.161
942.3923, 3160.016
942.8745, 3160.661
943.3566, 3169.036
943.8387, 3176.402
944.3208, 3173.720
944.8029, 3168.278
945.2850, 3165.990
945.7672, 3167.509
946.2493, 3170.325
946.7314, 3175.805
947.2135, 3179.479
947.6956, 3178.872
948.1777, 3175.499
948.6599, 3174.948
949.1420, 3176.818
949.6241, 3178.868
950.1062, 3180.203
950.5883, 3181.192
951.0704, 3181.622
951.5526, 3181.991
952.0347, 3183.227
952.5168, 3185.124
952.9989, 3188.974
953.4810, 3196.482
953.9631, 3202.759
954.4453, 3199.289
954.9274, 3189.333
955.4095, 3184.958
955.8916, 3188.150
956.3737, 3191.794
956.8558, 3191.963
957.3380, 3190.156
957.8201, 3187.061
958.3022, 3182.649
958.7843, 3178.045
959.2664, 3172.080
959.7485, 3169.761
960.2307, 3175.857
960.7128, 3185.729
961.1949, 3187.619
961.6770, 3183.482
962.1591, 3180.184
962.6412, 3184.055
963.1234, 3185.932
963.6055, 3178.313
964.0876, 3167.882
964.5697, 3166.609
965.0518, 3177.321
965.5339, 3184.142
966.0161, 3184.849
966.4982, 3182.545
966.9803, 3178.946
967.4624, 3175.613
967.9445, 3175.730
968.4266, 3180.172
968.9088, 3184.361
969.3909, 3187.142
969.8730, 3188.509
970.3551, 3187.745
970.8372, 3185.082
971.3193, 3185.655
971.8015, 3189.507
972.2836, 3194.101
972.7657, 3198.987
973.2478, 3202.972
973.7299, 3203.783
974.2120, 3202.627
974.6942, 3202.521
975.1763, 3207.273
975.6584, 3208.880
976.1405, 3204.287
976.6226, 3198.431
977.1047, 3199.430
977.5869, 3206.515
978.0690, 3210.977
978.5511, 3211.455
979.0332, 3210.557
979.5153, 3208.043
979.9974, 3206.840
980.4796, 3211.334
980.9617, 3223.344
981.4438, 3227.786
981.9259, 3220.534
982.4080, 3213.724
982.8901, 3213.327
983.3723, 3217.221
983.8544, 3218.963
984.3365, 3218.998
984.8186, 3219.201
985.3007, 3220.553
985.7828, 3222.174
986.2650, 3222.793
986.7471, 3223.738
987.2292, 3227.702
987.7113, 3236.720
988.1934, 3240.851
988.6755, 3238.561
989.1577, 3233.858
989.6398, 3230.674
990.1219, 3228.347
990.6040, 3225.479
991.0861, 3221.900
991.5682, 3219.663
992.0504, 3221.261
992.5325, 3222.735
993.0146, 3222.407
993.4967, 3220.545
993.9788, 3218.018
994.4609, 3214.877
994.9431, 3212.768
995.4252, 3213.458
995.9073, 3213.926
996.3894, 3209.311
996.8715, 3202.681
997.3536, 3198.964
997.8358, 3201.823
998.3179, 3204.119
998.8000, 3204.748
999.2821, 3206.141
999.7642, 3211.652
1000.246, 3220.265
1000.728, 3226.298
1001.211, 3229.530
1001.693, 3231.302
1002.175, 3231.571
1002.657, 3231.487
1003.139, 3231.719
1003.621, 3232.243
1004.103, 3232.739
1004.585, 3233.172
1005.068, 3233.704
1005.550, 3234.475
1006.032, 3235.223
1006.514, 3234.843
1006.996, 3234.299
1007.478, 3235.756
1007.960, 3240.894
1008.442, 3245.367
1008.924, 3248.740
1009.407, 3250.185
1009.889, 3247.939
1010.371, 3241.723
1010.853, 3241.839
1011.335, 3248.360
1011.817, 3254.076
1012.299, 3251.715
1012.781, 3248.413
1013.263, 3253.135
1013.746, 3262.758
1014.228, 3265.602
1014.710, 3254.068
1015.192, 3247.167
1015.674, 3249.206
1016.156, 3254.449
1016.638, 3253.458
1017.120, 3248.445
1017.603, 3246.129
1018.085, 3247.657
1018.567, 3251.612
1019.049, 3261.628
1019.531, 3269.822
1020.013, 3269.131
1020.495, 3260.092
1020.977, 3258.188
1021.459, 3264.469
1021.942, 3268.266
1022.424, 3261.922
1022.906, 3253.540
1023.388, 3256.667
1023.870, 3265.675
1024.352, 3269.531
1024.834, 3258.694
1025.316, 3251.473
1025.799, 3250.716
1026.281, 3252.298
1026.763, 3251.340
1027.245, 3248.693
1027.727, 3251.189
1028.209, 3258.938
1028.691, 3264.604
1029.173, 3260.948
1029.656, 3255.483
1030.138, 3252.456
1030.620, 3252.026
1031.102, 3253.932
1031.584, 3259.127
1032.066, 3262.416
1032.548, 3262.012
1033.030, 3260.324
1033.512, 3260.389
1033.995, 3261.833
1034.477, 3264.476
1034.959, 3269.101
1035.441, 3271.632
1035.923, 3269.919
1036.405, 3267.118
1036.887, 3264.163
1037.369, 3261.406
1037.851, 3263.246
1038.334, 3268.990
1038.816, 3272.101
1039.298, 3266.163
1039.780, 3259.176
1040.262, 3255.804
1040.744, 3255.413
1041.226, 3256.823
1041.708, 3261.376
1042.191, 3263.112
1042.673, 3260.970
1043.155, 3258.556
1043.637, 3260.724
1044.119, 3264.686
1044.601, 3264.823
1045.083, 3260.959
1045.565, 3258.942
1046.047, 3264.412
1046.530, 3267.440
1047.012, 3262.964
1047.494, 3255.120
1047.976, 3257.336
1048.458, 3268.063
1048.940, 3273.927
1049.422, 3269.665
1049.904, 3264.952
1050.386, 3268.868
1050.869, 3274.888
1051.351, 3275.344
1051.833, 3268.119
1052.315, 3267.135
1052.797, 3273.628
1053.279, 3280.700
1053.761, 3284.426
1054.243, 3286.146
1054.726, 3287.976
1055.208, 3289.740
1055.690, 3290.997
1056.172, 3291.981
1056.654, 3291.667
1057.136, 3288.815
1057.618, 3286.149
1058.100, 3287.921
1058.583, 3293.151
1059.065, 3294.707
1059.547, 3292.151
1060.029, 3289.831
1060.511, 3291.148
1060.993, 3293.356
1061.475, 3295.323
1061.957, 3296.810
1062.439, 3296.748
1062.922, 3294.806
1063.404, 3293.673
1063.886, 3294.454
1064.368, 3294.974
1064.850, 3290.343
1065.332, 3284.781
1065.814, 3284.954
1066.296, 3294.164
1066.778, 3299.473
1067.261, 3298.297
1067.743, 3295.784
1068.225, 3294.573
1068.707, 3294.002
1069.189, 3290.357
1069.671, 3285.189
1070.153, 3284.269
1070.635, 3294.581
1071.118, 3303.671
1071.600, 3305.728
1072.082, 3304.447
1072.564, 3302.801
1073.046, 3300.601
1073.528, 3300.266
1074.010, 3301.843
1074.492, 3305.636
1074.974, 3315.789
1075.457, 3324.912
1075.939, 3324.191
1076.421, 3316.305
1076.903, 3313.256
1077.385, 3317.503
1077.867, 3321.778
1078.349, 3325.058
1078.831, 3327.491
1079.313, 3329.404
1079.796, 3330.568
1080.278, 3330.092
1080.760, 3327.734
1081.242, 3326.411
1081.724, 3329.129
1082.206, 3330.497
1082.688, 3327.684
1083.170, 3322.665
1083.652, 3321.995
1084.135, 3325.053
1084.617, 3329.081
1085.099, 3334.327
1085.581, 3337.450
1086.063, 3334.265
1086.545, 3329.618
1087.027, 3328.352
1087.509, 3331.151
1087.992, 3330.800
1088.474, 3327.091
1088.956, 3324.106
1089.438, 3325.625
1089.920, 3327.986
1090.402, 3325.548
1090.884, 3321.284
1091.366, 3321.768
1091.849, 3331.070
1092.331, 3338.984
1092.813, 3345.287
1093.295, 3349.111
1093.777, 3347.651
1094.259, 3343.741
1094.741, 3344.226
1095.223, 3348.618
1095.705, 3350.913
1096.188, 3346.040
1096.670, 3342.266
1097.152, 3342.456
1097.634, 3344.240
1098.116, 3341.667
1098.598, 3336.327
1099.080, 3338.453
1099.562, 3350.599
1100.044, 3360.292
1100.527, 3357.247
1101.009, 3350.801
1101.491, 3346.635
1101.973, 3344.594
1102.455, 3342.996
1102.937, 3341.727
1103.419, 3343.259
1103.901, 3349.475
1104.384, 3355.971
1104.866, 3358.394
1105.348, 3358.230
1105.830, 3356.827
1106.312, 3353.609
1106.794, 3352.578
1107.276, 3354.305
1107.758, 3356.094
1108.240, 3356.466
1108.723, 3355.888
1109.205, 3353.960
1109.687, 3351.920
1110.169, 3352.572
1110.651, 3359.598
1111.133, 3365.630
1111.615, 3371.168
1112.097, 3374.085
1112.579, 3370.055
1113.062, 3361.932
1113.544, 3362.105
1114.026, 3369.363
1114.508, 3373.533
1114.990, 3364.024
1115.472, 3357.055
1115.954, 3360.798
1116.436, 3368.644
1116.919, 3370.175
1117.401, 3365.897
1117.883, 3364.113
1118.365, 3365.773
1118.847, 3368.531
1119.329, 3372.352
1119.811, 3375.052
1120.293, 3373.465
1120.776, 3369.260
1121.258, 3370.525
1121.740, 3378.381
1122.222, 3380.178
1122.704, 3371.719
1123.186, 3361.478
1123.668, 3358.105
1124.150, 3357.831
1124.632, 3356.631
1125.115, 3353.888
1125.597, 3351.285
1126.079, 3348.000
1126.561, 3348.229
1127.043, 3355.384
1127.525, 3364.164
1128.007, 3365.228
1128.489, 3361.895
1128.971, 3359.859
1129.454, 3361.173
1129.936, 3361.986
1130.418, 3362.378
1130.900, 3361.291
1131.382, 3357.010
1131.864, 3351.249
1132.346, 3348.986
1132.828, 3349.553
1133.311, 3350.884
1133.793, 3352.218
1134.275, 3354.085
1134.757, 3357.215
1135.239, 3360.188
1135.721, 3361.812
1136.203, 3362.147
1136.685, 3361.144
1137.167, 3359.072
1137.650, 3358.260
1138.132, 3362.266
1138.614, 3365.353
1139.096, 3365.391
1139.578, 3362.598
1140.060, 3355.586
1140.542, 3344.191
1141.024, 3338.808
1141.506, 3340.333
1141.989, 3344.380
1142.471, 3350.602
1142.953, 3355.447
1143.435, 3355.771
1143.917, 3352.605
1144.399, 3349.257
1144.881, 3345.369
1145.363, 3344.719
1145.846, 3348.356
1146.328, 3352.948
1146.810, 3355.771
1147.292, 3357.422
1147.774, 3357.629
1148.256, 3356.640
1148.738, 3359.379
1149.220, 3367.775
1149.703, 3372.227
1150.185, 3369.428
1150.667, 3363.524
1151.149, 3356.961
1151.631, 3352.180
1152.113, 3353.861
1152.595, 3364.119
1153.077, 3369.507
1153.559, 3367.796
1154.042, 3364.757
1154.524, 3361.790
1155.006, 3360.090
1155.488, 3363.689
1155.970, 3369.754
1156.452, 3372.526
1156.934, 3369.555
1157.416, 3366.329
1157.898, 3363.247
1158.381, 3360.659
1158.863, 3358.736
1159.345, 3357.491
1159.827, 3357.175
1160.309, 3357.596
1160.791, 3358.259
1161.273, 3359.880
1161.755, 3360.142
1162.238, 3357.350
1162.720, 3354.972
1163.202, 3355.921
1163.684, 3359.573
1164.166, 3363.552
1164.648, 3367.325
1165.130, 3368.358
1165.612, 3360.993
1166.094, 3356.367
1166.577, 3359.435
1167.059, 3365.121
1167.541, 3368.943
1168.023, 3370.964
1168.505, 3371.518
1168.987, 3370.785
1169.469, 3370.559
1169.951, 3371.948
1170.433, 3373.935
1170.916, 3376.752
1171.398, 3379.486
1171.880, 3381.196
1172.362, 3381.899
1172.844, 3380.573
1173.326, 3377.242
1173.808, 3373.824
1174.290, 3370.897
1174.773, 3369.187
1175.255, 3370.034
1175.737, 3372.158
1176.219, 3373.566
1176.701, 3374.297
1177.183, 3372.075
1177.665, 3366.336
1178.147, 3362.458
1178.630, 3366.779
1179.112, 3372.522
1179.594, 3374.979
1180.076, 3374.855
1180.558, 3374.919
1181.040, 3375.198
1181.522, 3374.083
1182.004, 3370.825
1182.486, 3369.030
1182.969, 3373.357
1183.451, 3379.233
1183.933, 3382.669
1184.415, 3383.963
1184.897, 3387.500
1185.379, 3393.850
1185.861, 3395.479
1186.343, 3389.533
1186.825, 3382.243
1187.308, 3379.561
1187.790, 3378.654
1188.272, 3376.432
1188.754, 3372.917
1189.236, 3373.223
1189.718, 3378.049
1190.200, 3380.416
1190.682, 3377.262
1191.165, 3373.389
1191.647, 3372.917
1192.129, 3375.097
1192.611, 3380.474
1193.093, 3389.374
1193.575, 3392.595
1194.057, 3389.458
1194.539, 3384.798
1195.021, 3378.991
1195.504, 3375.477
1195.986, 3381.365
1196.468, 3390.125
1196.950, 3392.371
1197.432, 3385.603
1197.914, 3384.400
1198.396, 3389.587
1198.878, 3394.652
1199.360, 3396.381
1199.843, 3396.625
1200.325, 3397.386
1200.807, 3398.134
1201.289, 3398.387
1201.771, 3398.764
1202.253, 3394.741
1202.735, 3385.249
1203.217, 3378.683
1203.700, 3381.507
1204.182, 3387.661
1204.664, 3392.296
1205.146, 3394.698
1205.628, 3392.875
1206.110, 3383.689
1206.592, 3381.703
1207.074, 3388.075
1207.557, 3393.788
1208.039, 3389.727
1208.521, 3385.143
1209.003, 3393.849
1209.485, 3408.363
1209.967, 3414.187
1210.449, 3405.740
1210.931, 3402.638
1211.413, 3405.860
1211.896, 3408.111
1212.378, 3400.510
1212.860, 3392.631
1213.342, 3397.585
1213.824, 3409.280
1214.306, 3414.778
1214.788, 3411.406
1215.270, 3407.910
1215.752, 3404.183
1216.235, 3402.980
1216.717, 3411.284
1217.199, 3418.800
1217.681, 3412.122
1218.163, 3397.415
1218.645, 3388.866
1219.127, 3387.863
1219.609, 3390.811
1220.092, 3398.128
1220.574, 3404.111
1221.056, 3401.923
1221.538, 3398.452
1222.020, 3401.024
1222.502, 3407.012
1222.984, 3409.713
1223.466, 3407.813
1223.948, 3408.606
1224.431, 3412.791
1224.913, 3416.015
1225.395, 3413.514
1225.877, 3409.750
1226.359, 3407.927
1226.841, 3407.860
1227.323, 3408.695
1227.805, 3410.635
1228.287, 3412.139
1228.770, 3413.102
1229.252, 3413.572
1229.734, 3412.424
1230.216, 3411.883
1230.698, 3414.466
1231.180, 3418.638
1231.662, 3420.567
1232.144, 3419.977
1232.627, 3421.418
1233.109, 3425.352
1233.591, 3427.700
1234.073, 3423.028
1234.555, 3418.199
1235.037, 3418.166
1235.519, 3421.007
1236.001, 3422.824
1236.484, 3423.626
1236.966, 3428.171
1237.448, 3436.829
1237.930, 3441.018
1238.412, 3429.390
1238.894, 3417.510
1239.376, 3414.024
1239.858, 3416.159
1240.340, 3421.563
1240.823, 3429.564
1241.305, 3432.825
1241.787, 3430.765
1242.269, 3428.385
1242.751, 3429.550
1243.233, 3430.151
1243.715, 3427.613
1244.197, 3424.275
1244.679, 3424.067
1245.162, 3426.404
1245.644, 3427.658
1246.126, 3427.691
1246.608, 3429.475
1247.090, 3438.483
1247.572, 3444.180
1248.054, 3441.884
1248.536, 3436.827
1249.019, 3437.068
1249.501, 3441.120
1249.983, 3444.688
1250.465, 3447.317
1250.947, 3449.243
1251.429, 3450.447
1251.911, 3450.869
1252.393, 3450.161
1252.875, 3449.281
1253.358, 3450.206
1253.840, 3451.730
1254.322, 3450.938
1254.804, 3447.820
1255.286, 3444.469
1255.768, 3440.877
1256.250, 3437.896
1256.732, 3435.014
1257.214, 3434.662
1257.697, 3442.975
1258.179, 3454.138
1258.661, 3458.479
1259.143, 3456.281
1259.625, 3453.223
1260.107, 3448.838
1260.589, 3447.662
1261.071, 3451.009
1261.554, 3454.881
1262.036, 3454.689
1262.518, 3452.836
1263.000, 3452.042
1263.482, 3452.135
1263.964, 3451.337
1264.446, 3448.900
1264.928, 3448.866
1265.411, 3452.089
1265.893, 3454.737
1266.375, 3450.844
1266.857, 3447.107
1267.339, 3450.441
1267.821, 3458.657
1268.303, 3464.473
1268.785, 3467.884
1269.267, 3468.784
1269.750, 3467.082
1270.232, 3465.161
1270.714, 3464.751
1271.196, 3464.769
1271.678, 3465.532
1272.160, 3465.770
1272.642, 3462.061
1273.124, 3455.005
1273.606, 3453.956
1274.089, 3459.290
1274.571, 3463.855
1275.053, 3461.749
1275.535, 3460.191
1276.017, 3462.532
1276.499, 3466.071
1276.981, 3467.275
1277.463, 3466.591
1277.946, 3465.371
1278.428, 3463.835
1278.910, 3462.744
1279.392, 3462.216
1279.874, 3462.516
1280.356, 3463.572
1280.838, 3465.551
1281.320, 3469.468
1281.802, 3474.102
1282.285, 3477.476
1282.767, 3479.318
1283.249, 3478.775
1283.731, 3473.569
1284.213, 3469.913
1284.695, 3468.294
1285.177, 3468.314
1285.659, 3470.350
1286.141, 3473.304
1286.624, 3476.796
1287.106, 3479.935
1287.588, 3479.875
1288.070, 3475.063
1288.552, 3473.723
1289.034, 3476.550
1289.516, 3479.650
1289.998, 3479.010
1290.481, 3478.464
1290.963, 3482.372
1291.445, 3487.790
1291.927, 3488.970
1292.409, 3485.359
1292.891, 3488.052
1293.373, 3496.802
1293.855, 3503.913
1294.338, 3503.709
1294.820, 3501.991
1295.302, 3500.982
1295.784, 3500.125
1296.266, 3497.971
1296.748, 3495.341
1297.230, 3498.809
1297.712, 3507.265
1298.194, 3515.040
1298.677, 3518.104
1299.159, 3520.509
1299.641, 3523.053
1300.123, 3524.693
1300.605, 3523.894
1301.087, 3521.768
1301.569, 3520.290
1302.051, 3518.981
1302.533, 3516.933
1303.016, 3511.262
##END=



