##NAMES=Nadorite
##RRUFFID=R050523
##IDEAL CHEMISTRY=Pb^2+^Sb^3+^O_2_Cl
##LOCALITY=Constantine, Algeria
##OWNER=RRUFF
##SOURCE=University of Arizona Mineral Museum
##DESCRIPTION=Brown adamantine fragments
##STATUS=The identification of this mineral has been confirmed by X-ray diffraction and chemical analysis
##URL=rruff.info/R050523
##MEASURED CHEMISTRY=Pb_1.00_Sb^3+^_1.00_O_2_Cl_1.00_
90.92609, 0.0000000E+00
91.40820, 55.76591
91.89032, 55.63788
92.37244, 55.68425
92.85455, 55.88380
93.33667, 56.10948
93.81879, 56.12666
94.30090, 56.07489
94.78302, 56.43261
95.26514, 57.47728
95.74725, 58.84184
96.22937, 59.68467
96.71149, 59.96926
97.19360, 60.06183
97.67572, 60.29394
98.15784, 60.65884
98.63995, 60.97844
99.12207, 61.16690
99.60419, 61.24922
100.0863, 61.46074
100.5684, 61.80836
101.0505, 62.27374
101.5327, 62.83488
102.0148, 63.47734
102.4969, 64.24716
102.9790, 65.10128
103.4611, 65.95161
103.9432, 67.33250
104.4253, 69.26716
104.9075, 71.71695
105.3896, 74.48156
105.8717, 77.17210
106.3538, 80.74300
106.8359, 85.55428
107.3180, 91.17592
107.8002, 98.73533
108.2823, 108.9705
108.7644, 121.2586
109.2465, 133.7529
109.7286, 144.5119
110.2107, 156.7112
110.6929, 171.9297
111.1750, 191.4461
111.6571, 212.4111
112.1392, 234.1264
112.6213, 256.8205
113.1034, 282.6933
113.5856, 311.1032
114.0677, 343.7203
114.5498, 381.4241
115.0319, 425.0945
115.5140, 473.5043
115.9961, 525.1073
116.4783, 579.9555
116.9604, 641.5192
117.4425, 713.5157
117.9246, 793.0011
118.4067, 875.9793
118.8888, 964.4600
119.3710, 1054.328
119.8531, 1143.816
120.3352, 1232.535
120.8173, 1320.096
121.2994, 1407.823
121.7815, 1493.386
122.2637, 1573.070
122.7458, 1640.904
123.2279, 1703.222
123.7100, 1764.531
124.1921, 1824.407
124.6742, 1887.053
125.1564, 1955.173
125.6385, 2028.968
126.1206, 2109.424
126.6027, 2195.132
127.0848, 2287.566
127.5669, 2389.164
128.0491, 2501.067
128.5312, 2620.630
129.0133, 2747.717
129.4954, 2880.487
129.9775, 3012.554
130.4596, 3139.415
130.9418, 3260.889
131.4239, 3381.360
131.9060, 3502.355
132.3881, 3622.495
132.8702, 3736.696
133.3523, 3845.447
133.8345, 3949.195
134.3166, 4047.884
134.7987, 4142.321
135.2808, 4232.732
135.7629, 4321.613
136.2450, 4407.913
136.7272, 4482.673
137.2093, 4544.334
137.6914, 4600.672
138.1735, 4660.318
138.6556, 4724.153
139.1377, 4784.735
139.6199, 4840.191
140.1020, 4890.076
140.5841, 4940.491
141.0662, 4991.634
141.5483, 5042.254
142.0304, 5091.365
142.5126, 5140.131
142.9947, 5181.367
143.4768, 5196.202
143.9589, 5171.206
144.4410, 5147.749
144.9231, 5128.750
145.4053, 5109.451
145.8874, 5082.024
146.3695, 5045.730
146.8516, 5003.188
147.3337, 4955.705
147.8158, 4901.070
148.2980, 4845.597
148.7801, 4788.662
149.2622, 4730.814
149.7443, 4674.622
150.2264, 4620.225
150.7085, 4566.293
151.1907, 4513.297
151.6728, 4462.123
152.1549, 4408.595
152.6370, 4350.334
153.1191, 4289.139
153.6012, 4231.082
154.0834, 4174.694
154.5655, 4122.827
155.0476, 4076.007
155.5297, 4037.867
156.0118, 4000.934
156.4939, 3963.902
156.9761, 3926.940
157.4582, 3891.981
157.9403, 3858.572
158.4224, 3827.731
158.9045, 3800.013
159.3866, 3778.574
159.8688, 3757.169
160.3509, 3734.879
160.8330, 3711.651
161.3151, 3687.088
161.7972, 3659.101
162.2793, 3630.790
162.7615, 3604.546
163.2436, 3584.042
163.7257, 3562.866
164.2078, 3537.488
164.6899, 3508.417
165.1720, 3479.342
165.6541, 3449.749
166.1363, 3421.823
166.6184, 3397.718
167.1005, 3382.146
167.5826, 3367.406
168.0647, 3347.887
168.5468, 3323.941
169.0290, 3300.481
169.5111, 3279.456
169.9932, 3260.960
170.4753, 3245.068
170.9574, 3234.218
171.4395, 3224.648
171.9217, 3212.765
172.4038, 3198.581
172.8859, 3184.782
173.3680, 3172.961
173.8501, 3163.042
174.3322, 3154.646
174.8144, 3149.121
175.2965, 3144.326
175.7786, 3137.067
176.2607, 3127.101
176.7428, 3118.012
177.2249, 3114.225
177.7071, 3113.938
178.1892, 3112.661
178.6713, 3106.558
179.1534, 3098.679
179.6355, 3094.830
180.1176, 3095.536
180.5998, 3096.409
181.0819, 3091.142
181.5640, 3081.607
182.0461, 3074.386
182.5282, 3073.459
183.0103, 3076.975
183.4925, 3081.478
183.9746, 3087.124
184.4567, 3092.250
184.9388, 3094.476
185.4209, 3094.183
185.9030, 3093.471
186.3852, 3092.471
186.8673, 3091.773
187.3494, 3093.826
187.8315, 3099.228
188.3136, 3105.783
188.7957, 3109.773
189.2779, 3111.497
189.7600, 3115.345
190.2421, 3123.774
190.7242, 3136.279
191.2063, 3150.001
191.6884, 3164.326
192.1706, 3180.852
192.6527, 3200.758
193.1348, 3223.848
193.6169, 3255.487
194.0990, 3297.928
194.5811, 3351.040
195.0633, 3414.685
195.5454, 3486.910
196.0275, 3573.117
196.5096, 3683.133
196.9917, 3818.629
197.4738, 3963.218
197.9560, 4116.882
198.4381, 4279.183
198.9202, 4416.705
199.4023, 4524.103
199.8844, 4610.816
200.3665, 4690.327
200.8487, 4761.674
201.3308, 4834.596
201.8129, 4913.069
202.2950, 4997.002
202.7771, 5087.356
203.2592, 5184.268
203.7414, 5288.791
204.2235, 5404.325
204.7056, 5529.847
205.1877, 5665.633
205.6698, 5810.154
206.1519, 5962.086
206.6341, 6130.594
207.1162, 6312.271
207.5983, 6511.581
208.0804, 6732.268
208.5625, 6963.756
209.0446, 7241.402
209.5268, 7574.162
210.0089, 7953.986
210.4910, 8425.720
210.9731, 8990.157
211.4552, 9650.041
211.9373, 10411.49
212.4195, 11289.56
212.9016, 12220.99
213.3837, 13205.41
213.8658, 14301.77
214.3479, 15278.13
214.8300, 16240.84
215.3121, 17027.88
215.7943, 17229.61
216.2764, 16764.91
216.7585, 15882.31
217.2406, 14595.05
217.7227, 12726.36
218.2048, 11054.02
218.6870, 9569.068
219.1691, 8293.296
219.6512, 7254.771
220.1333, 6490.318
220.6154, 5890.951
221.0975, 5408.681
221.5797, 5070.984
222.0618, 4785.548
222.5439, 4559.439
223.0260, 4382.851
223.5081, 4230.023
223.9902, 4105.889
224.4724, 3998.952
224.9545, 3908.624
225.4366, 3838.260
225.9187, 3770.664
226.4008, 3702.501
226.8829, 3638.154
227.3651, 3587.475
227.8472, 3556.085
228.3293, 3528.039
228.8114, 3496.442
229.2935, 3457.995
229.7757, 3426.433
230.2578, 3403.892
230.7399, 3387.402
231.2220, 3370.931
231.7041, 3353.870
232.1862, 3337.852
232.6684, 3323.507
233.1505, 3311.137
233.6326, 3299.313
234.1147, 3287.903
234.5968, 3277.061
235.0789, 3267.165
235.5611, 3257.587
236.0432, 3250.055
236.5253, 3245.546
237.0074, 3245.322
237.4895, 3243.944
237.9716, 3241.589
238.4538, 3238.014
238.9359, 3232.452
239.4180, 3222.612
239.9001, 3214.508
240.3822, 3210.754
240.8643, 3213.041
241.3465, 3211.562
241.8286, 3203.017
242.3107, 3193.015
242.7928, 3190.271
243.2749, 3200.309
243.7570, 3207.984
244.2392, 3208.438
244.7213, 3200.141
245.2034, 3193.834
245.6855, 3190.147
246.1676, 3187.888
246.6497, 3185.569
247.1319, 3182.899
247.6140, 3180.793
248.0961, 3179.491
248.5782, 3179.042
249.0603, 3179.488
249.5424, 3181.996
250.0246, 3184.366
250.5067, 3183.934
250.9888, 3179.032
251.4709, 3174.616
251.9530, 3171.727
252.4351, 3170.379
252.9173, 3169.394
253.3994, 3168.437
253.8815, 3168.044
254.3636, 3169.137
254.8457, 3173.289
255.3278, 3175.088
255.8100, 3172.500
256.2921, 3165.663
256.7742, 3161.871
257.2563, 3162.676
257.7384, 3164.425
258.2205, 3164.032
258.7026, 3160.853
259.1848, 3157.204
259.6669, 3153.254
260.1490, 3149.106
260.6311, 3145.622
261.1132, 3142.688
261.5953, 3140.730
262.0775, 3140.502
262.5596, 3143.103
263.0417, 3144.188
263.5238, 3142.820
264.0059, 3139.532
264.4880, 3136.671
264.9702, 3133.793
265.4523, 3132.125
265.9344, 3133.156
266.4165, 3138.374
266.8986, 3140.521
267.3807, 3138.002
267.8629, 3132.391
268.3450, 3128.947
268.8271, 3128.347
269.3092, 3128.242
269.7913, 3127.363
270.2734, 3125.601
270.7556, 3123.909
271.2377, 3122.298
271.7198, 3120.944
272.2019, 3120.024
272.6840, 3119.425
273.1661, 3119.899
273.6483, 3122.561
274.1304, 3127.977
274.6125, 3130.778
275.0946, 3130.389
275.5767, 3127.896
276.0588, 3124.044
276.5410, 3117.867
277.0231, 3114.973
277.5052, 3119.385
277.9873, 3131.226
278.4694, 3138.479
278.9515, 3140.177
279.4337, 3139.105
279.9158, 3138.853
280.3979, 3139.431
280.8800, 3140.535
281.3621, 3143.140
281.8442, 3146.727
282.3264, 3144.965
282.8085, 3136.649
283.2906, 3127.380
283.7727, 3124.208
284.2548, 3127.238
284.7369, 3130.210
285.2191, 3131.612
285.7012, 3131.575
286.1833, 3130.173
286.6654, 3127.218
287.1475, 3124.233
287.6296, 3122.322
288.1118, 3121.498
288.5939, 3122.402
289.0760, 3125.859
289.5581, 3130.571
290.0402, 3133.680
290.5223, 3135.167
291.0045, 3135.104
291.4866, 3131.717
291.9687, 3126.210
292.4508, 3125.217
292.9329, 3131.882
293.4150, 3140.529
293.8972, 3139.759
294.3793, 3130.427
294.8614, 3122.197
295.3435, 3123.594
295.8256, 3131.241
296.3077, 3135.441
296.7899, 3134.388
297.2720, 3131.503
297.7541, 3130.694
298.2362, 3131.847
298.7183, 3134.458
299.2004, 3139.970
299.6826, 3146.358
300.1647, 3149.092
300.6468, 3147.196
301.1289, 3145.350
301.6110, 3149.970
302.0931, 3158.622
302.5753, 3165.073
303.0574, 3163.656
303.5395, 3159.539
304.0216, 3160.033
304.5037, 3165.395
304.9858, 3171.210
305.4680, 3174.307
305.9501, 3175.313
306.4322, 3175.227
306.9143, 3172.214
307.3964, 3169.969
307.8785, 3173.550
308.3607, 3182.269
308.8428, 3189.442
309.3249, 3188.913
309.8070, 3184.993
310.2891, 3182.698
310.7712, 3183.657
311.2534, 3186.246
311.7355, 3190.288
312.2176, 3195.272
312.6997, 3199.263
313.1818, 3200.934
313.6639, 3201.251
314.1461, 3200.628
314.6282, 3198.120
315.1103, 3196.891
315.5924, 3200.067
316.0745, 3205.652
316.5566, 3209.535
317.0388, 3207.870
317.5209, 3205.629
318.0030, 3206.218
318.4851, 3211.124
318.9672, 3214.465
319.4493, 3212.588
319.9315, 3208.453
320.4136, 3205.946
320.8957, 3208.841
321.3778, 3211.159
321.8599, 3209.972
322.3420, 3204.709
322.8242, 3201.090
323.3063, 3201.581
323.7884, 3203.607
324.2705, 3204.927
324.7526, 3204.402
325.2347, 3203.985
325.7169, 3203.994
326.1990, 3204.418
326.6811, 3205.158
327.1632, 3206.700
327.6453, 3208.212
328.1274, 3209.234
328.6096, 3209.741
329.0917, 3209.753
329.5738, 3208.224
330.0559, 3206.094
330.5380, 3206.568
331.0201, 3212.964
331.5023, 3218.363
331.9844, 3219.476
332.4665, 3213.060
332.9486, 3210.527
333.4307, 3214.432
333.9128, 3220.890
334.3950, 3222.640
334.8771, 3215.884
335.3592, 3211.671
335.8413, 3214.733
336.3234, 3226.309
336.8055, 3232.076
337.2877, 3229.631
337.7698, 3224.599
338.2519, 3223.081
338.7340, 3225.728
339.2161, 3229.562
339.6982, 3234.603
340.1803, 3240.403
340.6624, 3243.774
341.1446, 3244.471
341.6267, 3243.705
342.1088, 3241.804
342.5909, 3238.708
343.0730, 3237.023
343.5551, 3237.544
344.0373, 3239.148
344.5194, 3239.248
345.0015, 3237.790
345.4836, 3235.807
345.9657, 3233.022
346.4478, 3229.926
346.9300, 3229.831
347.4121, 3233.552
347.8942, 3238.060
348.3763, 3238.724
348.8584, 3236.232
349.3405, 3234.546
349.8227, 3237.006
350.3048, 3241.239
350.7869, 3241.396
351.2690, 3237.414
351.7511, 3233.538
352.2332, 3233.854
352.7154, 3237.223
353.1975, 3241.228
353.6796, 3245.333
354.1617, 3249.465
354.6438, 3253.974
355.1259, 3258.586
355.6081, 3262.034
356.0902, 3262.384
356.5723, 3261.488
357.0544, 3261.283
357.5365, 3261.785
358.0186, 3263.727
358.5008, 3270.069
358.9829, 3278.225
359.4650, 3282.676
359.9471, 3276.991
360.4292, 3269.635
360.9113, 3266.470
361.3935, 3268.756
361.8756, 3270.559
362.3577, 3267.338
362.8398, 3263.179
363.3219, 3262.719
363.8040, 3273.993
364.2862, 3282.688
364.7683, 3282.334
365.2504, 3273.417
365.7325, 3266.925
366.2146, 3265.933
366.6967, 3267.458
367.1789, 3269.647
367.6610, 3275.012
368.1431, 3277.819
368.6252, 3275.855
369.1073, 3270.798
369.5894, 3268.010
370.0716, 3268.479
370.5537, 3270.157
371.0358, 3272.505
371.5179, 3275.851
372.0000, 3278.809
372.4821, 3281.233
372.9643, 3283.298
373.4464, 3285.089
373.9285, 3286.047
374.4106, 3287.847
374.8927, 3291.298
375.3748, 3296.274
375.8570, 3299.499
376.3391, 3300.443
376.8212, 3300.697
377.3033, 3301.784
377.7854, 3303.927
378.2675, 3304.783
378.7497, 3303.159
379.2318, 3300.909
379.7139, 3304.040
380.1960, 3313.124
380.6781, 3320.835
381.1602, 3321.099
381.6424, 3315.492
382.1245, 3314.740
382.6066, 3320.234
383.0887, 3326.939
383.5708, 3327.876
384.0529, 3324.159
384.5351, 3321.104
385.0172, 3320.626
385.4993, 3322.277
385.9814, 3326.327
386.4635, 3332.587
386.9456, 3337.921
387.4278, 3337.782
387.9099, 3335.378
388.3920, 3336.177
388.8741, 3342.822
389.3562, 3350.786
389.8383, 3356.857
390.3205, 3361.202
390.8026, 3364.160
391.2847, 3363.886
391.7668, 3363.579
392.2489, 3366.140
392.7310, 3372.464
393.2132, 3378.639
393.6953, 3383.333
394.1774, 3386.577
394.6595, 3388.419
395.1416, 3387.738
395.6237, 3386.743
396.1059, 3385.451
396.5880, 3384.052
397.0701, 3384.851
397.5522, 3390.997
398.0343, 3397.715
398.5164, 3402.161
398.9986, 3401.092
399.4807, 3401.711
399.9628, 3405.302
400.4449, 3410.664
400.9270, 3414.984
401.4091, 3417.047
401.8913, 3419.620
402.3734, 3423.801
402.8555, 3430.011
403.3376, 3435.280
403.8197, 3438.830
404.3018, 3442.302
404.7840, 3447.871
405.2661, 3456.572
405.7482, 3463.668
406.2303, 3468.119
406.7124, 3470.290
407.1945, 3471.608
407.6767, 3471.791
408.1588, 3472.280
408.6409, 3474.981
409.1230, 3479.541
409.6051, 3480.827
410.0872, 3477.882
410.5694, 3473.196
411.0515, 3470.644
411.5336, 3469.882
412.0157, 3468.740
412.4978, 3466.085
412.9799, 3462.517
413.4621, 3459.224
413.9442, 3456.205
414.4263, 3453.095
414.9084, 3450.221
415.3905, 3446.948
415.8727, 3441.732
416.3548, 3432.376
416.8369, 3424.046
417.3190, 3422.824
417.8011, 3426.298
418.2832, 3428.028
418.7654, 3422.453
419.2475, 3415.583
419.7296, 3411.770
420.2117, 3411.841
420.6938, 3412.138
421.1759, 3410.846
421.6581, 3409.127
422.1402, 3408.203
422.6223, 3409.399
423.1044, 3410.290
423.5865, 3409.359
424.0686, 3407.073
424.5508, 3407.128
425.0329, 3414.084
425.5150, 3420.042
425.9971, 3421.273
426.4792, 3415.086
426.9613, 3409.792
427.4435, 3405.390
427.9256, 3401.983
428.4077, 3399.707
428.8898, 3398.532
429.3719, 3398.696
429.8540, 3401.072
430.3362, 3405.323
430.8183, 3406.159
431.3004, 3402.738
431.7825, 3398.280
432.2646, 3394.898
432.7467, 3392.588
433.2289, 3392.650
433.7110, 3396.096
434.1931, 3400.478
434.6752, 3400.643
435.1573, 3396.966
435.6394, 3393.744
436.1216, 3394.120
436.6036, 3396.350
437.0858, 3396.215
437.5679, 3393.573
438.0500, 3390.844
438.5321, 3390.367
439.0142, 3391.218
439.4963, 3391.832
439.9785, 3391.640
440.4606, 3391.262
440.9427, 3391.663
441.4248, 3392.422
441.9069, 3392.218
442.3890, 3389.030
442.8712, 3385.739
443.3533, 3384.366
443.8354, 3385.480
444.3175, 3386.878
444.7996, 3389.149
445.2817, 3390.763
445.7639, 3390.127
446.2460, 3382.037
446.7281, 3376.967
447.2102, 3378.208
447.6923, 3384.812
448.1744, 3390.058
448.6566, 3393.036
449.1387, 3395.488
449.6208, 3398.164
450.1029, 3401.266
450.5850, 3404.001
451.0671, 3406.631
451.5493, 3408.582
452.0314, 3409.105
452.5135, 3408.249
452.9956, 3405.662
453.4777, 3400.367
453.9598, 3393.480
454.4420, 3390.219
454.9241, 3390.963
455.4062, 3392.242
455.8883, 3390.519
456.3704, 3386.889
456.8525, 3387.123
457.3347, 3392.683
457.8168, 3398.952
458.2989, 3399.385
458.7810, 3395.653
459.2631, 3392.651
459.7452, 3393.425
460.2274, 3395.468
460.7095, 3395.829
461.1916, 3394.749
461.6737, 3394.004
462.1558, 3395.692
462.6379, 3397.656
463.1201, 3397.604
463.6022, 3393.880
464.0843, 3390.948
464.5664, 3390.840
465.0485, 3392.594
465.5306, 3394.686
466.0128, 3398.541
466.4949, 3400.880
466.9770, 3400.016
467.4591, 3395.802
467.9412, 3392.563
468.4233, 3390.208
468.9055, 3389.022
469.3876, 3389.119
469.8697, 3390.363
470.3518, 3393.715
470.8339, 3401.303
471.3160, 3409.571
471.7982, 3410.609
472.2803, 3402.001
472.7624, 3396.095
473.2445, 3398.186
473.7266, 3406.625
474.2087, 3411.484
474.6909, 3412.428
475.1730, 3412.312
475.6551, 3413.266
476.1372, 3415.086
476.6193, 3417.175
477.1014, 3419.530
477.5836, 3421.628
478.0657, 3422.775
478.5478, 3423.105
479.0299, 3423.035
479.5120, 3422.450
479.9941, 3421.764
480.4763, 3421.144
480.9584, 3420.673
481.4405, 3420.970
481.9226, 3423.904
482.4047, 3426.904
482.8868, 3427.673
483.3690, 3424.472
483.8511, 3421.749
484.3332, 3420.518
484.8153, 3420.623
485.2974, 3421.776
485.7795, 3426.784
486.2617, 3429.772
486.7438, 3428.180
487.2259, 3422.144
487.7080, 3419.862
488.1901, 3424.058
488.6722, 3428.469
489.1544, 3428.748
489.6365, 3423.022
490.1186, 3420.696
490.6007, 3422.836
491.0828, 3427.322
491.5649, 3431.584
492.0471, 3435.658
492.5292, 3437.524
493.0113, 3435.024
493.4934, 3430.550
493.9755, 3431.514
494.4576, 3437.630
494.9398, 3443.545
495.4219, 3444.555
495.9040, 3442.763
496.3861, 3441.775
496.8682, 3441.962
497.3503, 3443.153
497.8325, 3446.872
498.3146, 3451.169
498.7967, 3453.103
499.2788, 3448.921
499.7609, 3444.596
500.2430, 3443.245
500.7252, 3444.408
501.2073, 3445.789
501.6894, 3446.399
502.1715, 3447.427
502.6536, 3449.752
503.1357, 3454.438
503.6179, 3457.633
504.1000, 3458.530
504.5821, 3458.381
505.0642, 3458.196
505.5463, 3457.183
506.0284, 3457.762
506.5106, 3460.366
506.9927, 3464.679
507.4748, 3470.202
507.9569, 3477.283
508.4390, 3483.604
508.9211, 3487.622
509.4033, 3489.613
509.8854, 3492.085
510.3675, 3495.071
510.8496, 3498.132
511.3317, 3500.471
511.8138, 3502.555
512.2960, 3505.765
512.7781, 3510.991
513.2602, 3516.382
513.7423, 3519.315
514.2244, 3520.889
514.7065, 3523.756
515.1887, 3530.645
515.6708, 3538.163
516.1529, 3544.207
516.6350, 3548.734
517.1171, 3552.468
517.5992, 3553.034
518.0814, 3554.606
518.5635, 3560.216
519.0456, 3574.790
519.5277, 3585.868
520.0098, 3590.417
520.4919, 3592.165
520.9741, 3596.444
521.4562, 3603.525
521.9383, 3612.570
522.4204, 3624.087
522.9025, 3637.496
523.3846, 3649.215
523.8668, 3658.966
524.3489, 3667.727
524.8310, 3675.504
525.3131, 3682.576
525.7952, 3690.643
526.2773, 3699.529
526.7595, 3711.060
527.2416, 3729.511
527.7237, 3752.172
528.2058, 3772.229
528.6879, 3786.164
529.1700, 3798.523
529.6522, 3812.251
530.1343, 3827.752
530.6164, 3846.581
531.0985, 3871.567
531.5806, 3898.399
532.0627, 3923.912
532.5449, 3947.626
533.0270, 3973.267
533.5091, 4001.625
533.9912, 4032.222
534.4733, 4064.327
534.9554, 4099.325
535.4376, 4134.369
535.9197, 4168.108
536.4018, 4202.254
536.8839, 4238.857
537.3660, 4278.709
537.8481, 4319.437
538.3303, 4360.265
538.8124, 4401.653
539.2945, 4447.906
539.7766, 4499.536
540.2587, 4551.665
540.7408, 4601.115
541.2230, 4648.601
541.7051, 4693.569
542.1872, 4735.380
542.6693, 4779.868
543.1514, 4837.658
543.6335, 4901.814
544.1157, 4961.148
544.5978, 5011.992
545.0799, 5057.201
545.5620, 5094.853
546.0441, 5127.797
546.5262, 5163.054
547.0084, 5210.735
547.4905, 5254.308
547.9726, 5286.779
548.4547, 5306.922
548.9368, 5324.101
549.4189, 5341.970
549.9011, 5354.711
550.3832, 5358.814
550.8653, 5352.498
551.3474, 5341.352
551.8295, 5325.459
552.3116, 5304.791
552.7938, 5280.075
553.2759, 5251.667
553.7580, 5214.778
554.2401, 5164.976
554.7222, 5108.580
555.2043, 5063.333
555.6865, 5028.472
556.1686, 4990.915
556.6507, 4938.194
557.1328, 4879.795
557.6149, 4829.709
558.0970, 4788.800
558.5792, 4749.786
559.0613, 4708.797
559.5434, 4667.024
560.0255, 4625.366
560.5076, 4582.884
560.9897, 4543.585
561.4719, 4510.235
561.9540, 4480.507
562.4361, 4451.006
562.9182, 4421.633
563.4003, 4391.564
563.8824, 4359.018
564.3646, 4325.045
564.8467, 4295.609
565.3288, 4271.687
565.8109, 4250.004
566.2930, 4228.716
566.7751, 4207.857
567.2573, 4187.988
567.7394, 4168.896
568.2215, 4150.846
568.7036, 4134.374
569.1857, 4119.142
569.6678, 4103.347
570.1500, 4086.911
570.6321, 4069.522
571.1142, 4049.411
571.5963, 4028.297
572.0784, 4010.094
572.5605, 3999.400
573.0427, 3989.546
573.5248, 3976.277
574.0069, 3960.109
574.4890, 3943.878
574.9711, 3926.827
575.4532, 3911.669
575.9354, 3900.784
576.4175, 3896.410
576.8996, 3888.699
577.3817, 3875.975
577.8638, 3861.658
578.3459, 3848.180
578.8281, 3835.355
579.3102, 3825.161
579.7923, 3818.655
580.2744, 3813.553
580.7565, 3805.352
581.2386, 3794.213
581.7208, 3783.289
582.2029, 3772.839
582.6850, 3763.882
583.1671, 3759.621
583.6492, 3759.123
584.1313, 3756.832
584.6134, 3746.699
585.0955, 3734.684
585.5776, 3726.850
586.0598, 3724.217
586.5419, 3721.418
587.0240, 3716.059
587.5061, 3709.634
587.9882, 3703.362
588.4703, 3697.070
588.9525, 3691.461
589.4346, 3687.217
589.9167, 3683.319
590.3988, 3677.936
590.8809, 3670.275
591.3630, 3663.177
591.8452, 3657.436
592.3273, 3652.608
592.8094, 3646.362
593.2915, 3638.444
593.7736, 3632.603
594.2557, 3634.007
594.7379, 3638.830
595.2200, 3635.411
595.7021, 3623.594
596.1842, 3611.732
596.6663, 3606.471
597.1484, 3605.043
597.6306, 3604.625
598.1127, 3605.595
598.5948, 3604.802
599.0769, 3599.101
599.5590, 3591.435
600.0411, 3585.468
600.5233, 3585.653
601.0054, 3583.350
601.4875, 3575.787
601.9696, 3564.829
602.4517, 3555.901
602.9338, 3549.143
603.4160, 3544.016
603.8981, 3540.696
604.3802, 3538.954
604.8623, 3536.847
605.3444, 3534.419
605.8265, 3531.051
606.3087, 3524.972
606.7908, 3517.607
607.2729, 3513.043
607.7550, 3511.732
608.2371, 3512.081
608.7192, 3513.887
609.2014, 3516.024
609.6835, 3516.991
610.1656, 3516.331
610.6477, 3514.426
611.1298, 3511.221
611.6119, 3506.917
612.0941, 3501.808
612.5762, 3493.043
613.0583, 3486.940
613.5404, 3486.701
614.0225, 3490.655
614.5046, 3488.766
614.9868, 3477.631
615.4689, 3468.498
615.9510, 3468.048
616.4331, 3475.641
616.9152, 3477.013
617.3973, 3471.609
617.8795, 3464.885
618.3616, 3461.495
618.8437, 3460.582
619.3258, 3460.369
619.8079, 3460.749
620.2900, 3461.125
620.7722, 3462.102
621.2543, 3462.447
621.7364, 3460.344
622.2185, 3452.163
622.7006, 3445.287
623.1827, 3443.204
623.6649, 3444.122
624.1470, 3443.695
624.6291, 3439.229
625.1112, 3436.136
625.5933, 3436.147
626.0754, 3438.696
626.5576, 3439.738
627.0397, 3438.941
627.5218, 3437.572
628.0039, 3436.382
628.4860, 3435.259
628.9681, 3433.500
629.4503, 3431.125
629.9324, 3427.689
630.4145, 3420.720
630.8966, 3412.968
631.3787, 3409.749
631.8608, 3412.900
632.3430, 3417.042
632.8251, 3419.396
633.3072, 3420.389
633.7893, 3420.569
634.2714, 3420.495
634.7535, 3419.185
635.2357, 3415.145
635.7178, 3409.855
636.1999, 3406.659
636.6820, 3406.220
637.1641, 3406.731
637.6462, 3408.358
638.1284, 3410.499
638.6105, 3409.035
639.0926, 3403.329
639.5747, 3399.467
640.0568, 3403.317
640.5389, 3411.610
641.0211, 3414.277
641.5032, 3411.268
641.9853, 3407.068
642.4674, 3405.315
642.9495, 3404.245
643.4316, 3401.252
643.9138, 3394.937
644.3959, 3391.085
644.8780, 3395.407
645.3601, 3401.960
645.8422, 3404.796
646.3243, 3400.023
646.8065, 3395.613
647.2886, 3391.419
647.7707, 3387.948
648.2528, 3386.174
648.7349, 3386.433
649.2170, 3387.125
649.6992, 3388.129
650.1813, 3389.044
650.6634, 3388.468
651.1455, 3386.562
651.6276, 3385.066
652.1097, 3385.532
652.5919, 3386.594
653.0740, 3385.992
653.5561, 3383.979
654.0382, 3382.846
654.5203, 3384.362
655.0024, 3386.795
655.4846, 3389.342
655.9667, 3392.157
656.4488, 3393.573
656.9309, 3392.020
657.4130, 3389.995
657.8951, 3389.276
658.3773, 3390.715
658.8594, 3390.667
659.3415, 3388.335
659.8236, 3385.697
660.3057, 3386.303
660.7878, 3389.700
661.2700, 3390.701
661.7521, 3387.605
662.2342, 3382.858
662.7163, 3379.519
663.1984, 3377.119
663.6805, 3374.394
664.1627, 3369.403
664.6448, 3365.289
665.1269, 3364.159
665.6090, 3365.550
666.0911, 3367.583
666.5732, 3371.053
667.0554, 3373.859
667.5375, 3375.133
668.0196, 3374.896
668.5017, 3374.977
668.9838, 3375.431
669.4659, 3375.983
669.9481, 3376.252
670.4302, 3376.267
670.9123, 3377.611
671.3944, 3380.459
671.8765, 3382.490
672.3586, 3380.444
672.8408, 3376.346
673.3229, 3373.850
673.8050, 3373.820
674.2871, 3374.147
674.7692, 3374.304
675.2513, 3373.743
675.7335, 3371.816
676.2156, 3365.712
676.6977, 3361.864
677.1798, 3363.362
677.6619, 3366.764
678.1440, 3366.574
678.6262, 3361.055
679.1083, 3356.536
679.5904, 3353.992
680.0725, 3353.410
680.5546, 3355.307
681.0367, 3359.539
681.5189, 3363.529
682.0010, 3366.360
682.4831, 3368.017
682.9652, 3367.783
683.4473, 3366.097
683.9294, 3365.145
684.4116, 3368.166
684.8937, 3370.648
685.3758, 3368.763
685.8579, 3362.086
686.3400, 3357.708
686.8221, 3358.673
687.3043, 3360.758
687.7864, 3362.401
688.2685, 3363.861
688.7506, 3363.164
689.2327, 3359.490
689.7148, 3355.850
690.1970, 3355.479
690.6791, 3357.831
691.1612, 3359.296
691.6433, 3359.277
692.1254, 3359.301
692.6075, 3362.543
693.0897, 3366.417
693.5718, 3366.438
694.0539, 3358.704
694.5360, 3351.976
695.0181, 3351.414
695.5002, 3353.978
695.9824, 3354.840
696.4645, 3349.728
696.9466, 3348.062
697.4287, 3352.895
697.9108, 3361.007
698.3929, 3363.783
698.8751, 3360.277
699.3572, 3357.219
699.8393, 3357.117
700.3214, 3358.647
700.8035, 3358.708
701.2856, 3357.459
701.7678, 3355.875
702.2499, 3353.503
702.7320, 3351.740
703.2141, 3352.845
703.6962, 3356.276
704.1783, 3357.894
704.6605, 3352.434
705.1426, 3347.940
705.6247, 3349.625
706.1068, 3358.533
706.5889, 3363.360
707.0710, 3362.633
707.5532, 3360.234
708.0353, 3358.602
708.5174, 3357.747
708.9995, 3356.043
709.4816, 3353.442
709.9637, 3350.278
710.4459, 3346.507
710.9280, 3342.547
711.4101, 3338.958
711.8922, 3335.624
712.3743, 3333.942
712.8564, 3336.708
713.3386, 3340.767
713.8207, 3342.750
714.3028, 3339.020
714.7849, 3337.585
715.2670, 3340.983
715.7491, 3345.587
716.2313, 3346.047
716.7134, 3340.548
717.1955, 3338.638
717.6776, 3343.038
718.1597, 3349.672
718.6418, 3350.222
719.1240, 3345.919
719.6061, 3342.972
720.0882, 3345.114
720.5703, 3347.797
721.0524, 3346.114
721.5345, 3341.354
722.0167, 3336.630
722.4988, 3332.103
722.9809, 3328.967
723.4630, 3329.388
723.9451, 3332.175
724.4272, 3330.903
724.9094, 3322.934
725.3915, 3316.321
725.8736, 3314.736
726.3557, 3316.985
726.8378, 3314.926
727.3199, 3308.465
727.8021, 3304.653
728.2842, 3310.831
728.7663, 3321.236
729.2484, 3327.010
729.7305, 3327.943
730.2126, 3325.717
730.6948, 3315.098
731.1769, 3306.241
731.6590, 3308.309
732.1411, 3324.829
732.6232, 3333.414
733.1053, 3327.776
733.5875, 3319.501
734.0696, 3315.446
734.5517, 3316.230
735.0338, 3316.420
735.5159, 3316.035
735.9980, 3315.166
736.4802, 3313.017
736.9623, 3310.563
737.4444, 3311.458
737.9265, 3316.814
738.4086, 3320.431
738.8907, 3315.384
739.3729, 3307.149
739.8550, 3301.671
740.3371, 3301.132
740.8192, 3301.358
741.3013, 3302.778
741.7834, 3303.858
742.2656, 3302.663
742.7477, 3297.819
743.2298, 3295.327
743.7119, 3296.079
744.1940, 3298.649
744.6761, 3301.778
745.1583, 3305.101
745.6404, 3306.820
746.1225, 3306.321
746.6046, 3304.456
747.0867, 3301.806
747.5688, 3298.431
748.0510, 3294.465
748.5331, 3287.347
749.0152, 3282.662
749.4973, 3283.408
749.9794, 3287.336
750.4615, 3290.060
750.9437, 3291.294
751.4258, 3292.142
751.9079, 3293.185
752.3900, 3293.671
752.8721, 3290.672
753.3542, 3284.713
753.8364, 3280.288
754.3185, 3279.573
754.8006, 3281.097
755.2827, 3285.040
755.7648, 3289.998
756.2469, 3291.855
756.7291, 3284.088
757.2112, 3277.728
757.6933, 3278.360
758.1754, 3284.737
758.6575, 3289.066
759.1396, 3291.549
759.6218, 3291.272
760.1039, 3286.722
760.5860, 3279.368
761.0681, 3275.855
761.5502, 3276.135
762.0323, 3277.117
762.5145, 3277.079
762.9966, 3276.712
763.4787, 3277.823
763.9608, 3279.903
764.4429, 3279.699
764.9250, 3271.667
765.4072, 3264.532
765.8893, 3263.601
766.3714, 3269.367
766.8535, 3273.833
767.3356, 3277.157
767.8177, 3278.797
768.2999, 3278.064
768.7820, 3275.156
769.2641, 3271.560
769.7462, 3267.175
770.2283, 3264.853
770.7104, 3268.629
771.1926, 3274.765
771.6747, 3278.547
772.1568, 3279.618
772.6389, 3278.392
773.1210, 3271.541
773.6031, 3265.294
774.0853, 3265.008
774.5674, 3272.992
775.0495, 3273.642
775.5316, 3262.899
776.0137, 3252.013
776.4958, 3249.463
776.9780, 3254.724
777.4601, 3254.496
777.9422, 3248.270
778.4243, 3242.688
778.9064, 3244.633
779.3885, 3249.979
779.8707, 3253.819
780.3528, 3255.637
780.8349, 3254.840
781.3170, 3247.860
781.7991, 3240.495
782.2812, 3237.359
782.7633, 3240.182
783.2454, 3240.934
783.7275, 3238.613
784.2097, 3236.074
784.6918, 3235.972
785.1739, 3238.021
785.6560, 3239.567
786.1381, 3240.487
786.6202, 3240.643
787.1024, 3239.692
787.5845, 3238.036
788.0666, 3235.931
788.5487, 3233.147
789.0308, 3231.333
789.5129, 3231.506
789.9951, 3232.582
790.4772, 3233.531
790.9593, 3233.596
791.4414, 3236.098
791.9235, 3242.164
792.4056, 3248.050
792.8878, 3249.796
793.3699, 3248.015
793.8520, 3246.245
794.3341, 3244.876
794.8162, 3242.803
795.2983, 3237.900
795.7805, 3232.326
796.2626, 3228.559
796.7447, 3227.643
797.2268, 3226.876
797.7089, 3224.657
798.1910, 3223.106
798.6732, 3224.208
799.1553, 3229.302
799.6374, 3232.020
800.1195, 3231.816
800.6016, 3230.685
801.0837, 3230.838
801.5659, 3231.800
802.0480, 3232.055
802.5301, 3231.370
803.0122, 3230.177
803.4943, 3229.390
803.9764, 3227.886
804.4586, 3223.960
804.9407, 3214.560
805.4228, 3209.808
805.9049, 3213.362
806.3870, 3218.679
806.8691, 3219.850
807.3513, 3215.958
807.8334, 3216.597
808.3155, 3223.032
808.7976, 3229.840
809.2797, 3231.104
809.7618, 3228.656
810.2440, 3225.973
810.7261, 3223.619
811.2082, 3220.865
811.6903, 3215.886
812.1724, 3211.196
812.6545, 3209.174
813.1367, 3211.101
813.6188, 3213.166
814.1009, 3216.122
814.5830, 3218.010
815.0651, 3216.507
815.5472, 3211.910
816.0294, 3208.179
816.5115, 3205.659
816.9936, 3203.862
817.4757, 3203.017
817.9578, 3202.383
818.4399, 3200.874
818.9221, 3198.148
819.4042, 3195.830
819.8863, 3194.018
820.3684, 3193.241
820.8505, 3194.067
821.3326, 3197.293
821.8148, 3198.442
822.2969, 3196.844
822.7790, 3195.175
823.2611, 3196.875
823.7432, 3200.310
824.2253, 3199.269
824.7075, 3193.134
825.1896, 3188.182
825.6717, 3190.424
826.1538, 3194.760
826.6359, 3197.621
827.1180, 3198.854
827.6002, 3196.174
828.0823, 3185.023
828.5644, 3175.581
829.0465, 3174.940
829.5286, 3183.439
830.0107, 3187.958
830.4929, 3188.342
830.9750, 3187.129
831.4571, 3186.063
831.9392, 3184.866
832.4213, 3183.200
832.9034, 3181.075
833.3856, 3178.241
833.8677, 3172.668
834.3498, 3168.016
834.8319, 3167.226
835.3140, 3170.495
835.7961, 3171.263
836.2783, 3168.765
836.7604, 3165.746
837.2425, 3163.139
837.7246, 3161.219
838.2067, 3161.168
838.6888, 3162.928
839.1710, 3166.188
839.6531, 3172.943
840.1352, 3179.349
840.6173, 3181.989
841.0994, 3180.997
841.5815, 3179.291
842.0637, 3177.496
842.5458, 3174.737
843.0279, 3169.872
843.5100, 3163.676
843.9921, 3161.778
844.4742, 3164.400
844.9564, 3166.603
845.4385, 3165.253
845.9206, 3162.553
846.4027, 3162.749
846.8848, 3164.701
847.3669, 3164.363
847.8491, 3155.932
848.3312, 3149.155
848.8133, 3149.497
849.2954, 3154.730
849.7775, 3157.187
850.2596, 3155.733
850.7418, 3155.324
851.2239, 3157.921
851.7060, 3161.594
852.1881, 3161.012
852.6702, 3157.382
853.1523, 3155.792
853.6345, 3160.320
854.1166, 3164.843
854.5987, 3164.098
855.0808, 3160.488
855.5629, 3158.697
856.0450, 3161.118
856.5272, 3163.213
857.0093, 3165.162
857.4914, 3165.995
857.9735, 3163.758
858.4556, 3158.642
858.9377, 3152.140
859.4199, 3143.927
859.9020, 3137.352
860.3841, 3137.647
860.8662, 3141.602
861.3483, 3144.429
861.8304, 3144.069
862.3126, 3144.014
862.7947, 3146.140
863.2768, 3148.193
863.7589, 3147.538
864.2410, 3143.044
864.7231, 3141.876
865.2053, 3144.880
865.6874, 3149.038
866.1695, 3152.123
866.6516, 3153.657
867.1337, 3152.019
867.6158, 3146.449
868.0980, 3141.892
868.5801, 3141.999
869.0622, 3143.385
869.5443, 3143.517
870.0264, 3142.184
870.5085, 3140.629
870.9907, 3139.146
871.4728, 3137.009
871.9549, 3133.030
872.4370, 3127.979
872.9191, 3125.089
873.4012, 3124.325
873.8834, 3124.079
874.3655, 3123.116
874.8476, 3122.313
875.3297, 3122.177
875.8118, 3122.723
876.2939, 3124.150
876.7761, 3127.042
877.2582, 3129.684
877.7403, 3131.370
878.2224, 3132.256
878.7045, 3133.269
879.1866, 3134.365
879.6688, 3135.042
880.1509, 3135.526
880.6330, 3135.077
881.1151, 3132.100
881.5972, 3127.523
882.0793, 3124.055
882.5615, 3123.216
883.0436, 3122.713
883.5257, 3122.195
884.0078, 3121.670
884.4899, 3121.408
884.9720, 3121.508
885.4542, 3120.049
885.9363, 3115.706
886.4184, 3111.641
886.9005, 3112.813
887.3826, 3117.033
887.8647, 3120.532
888.3469, 3122.156
888.8290, 3122.922
889.3111, 3122.814
889.7932, 3122.120
890.2753, 3120.809
890.7574, 3118.313
891.2396, 3118.169
891.7217, 3121.182
892.2038, 3123.901
892.6859, 3121.159
893.1680, 3115.721
893.6501, 3113.611
894.1323, 3115.949
894.6144, 3117.833
895.0965, 3116.421
895.5786, 3113.970
896.0607, 3112.099
896.5428, 3111.016
897.0250, 3109.113
897.5071, 3105.862
897.9892, 3103.717
898.4713, 3105.130
898.9534, 3108.712
899.4355, 3110.376
899.9177, 3110.310
900.3998, 3110.026
900.8819, 3111.323
901.3640, 3111.725
901.8461, 3108.017
902.3282, 3101.453
902.8104, 3100.283
903.2925, 3107.819
903.7746, 3112.448
904.2567, 3109.513
904.7388, 3103.000
905.2209, 3103.667
905.7031, 3109.418
906.1852, 3111.493
906.6673, 3103.941
907.1494, 3095.835
907.6315, 3093.684
908.1136, 3094.844
908.5958, 3095.136
909.0779, 3093.351
909.5600, 3092.398
910.0421, 3093.128
910.5242, 3093.688
911.0063, 3090.845
911.4885, 3085.517
911.9706, 3082.550
912.4527, 3082.817
912.9348, 3083.811
913.4169, 3083.136
913.8990, 3082.508
914.3812, 3083.677
914.8633, 3087.383
915.3454, 3090.403
915.8275, 3092.348
916.3096, 3093.962
916.7917, 3096.480
917.2739, 3099.210
917.7560, 3096.317
918.2381, 3088.312
918.7202, 3081.773
919.2023, 3081.083
919.6844, 3083.450
920.1666, 3089.057
920.6487, 3096.484
921.1308, 3098.635
921.6129, 3090.487
922.0950, 3084.026
922.5771, 3082.680
923.0593, 3084.272
923.5414, 3083.578
924.0235, 3080.865
924.5056, 3077.531
924.9877, 3073.772
925.4698, 3070.296
925.9520, 3067.903
926.4341, 3066.140
926.9162, 3064.375
927.3983, 3061.541
927.8804, 3060.363
928.3625, 3061.896
928.8447, 3063.559
929.3268, 3061.635
929.8089, 3056.897
930.2910, 3055.971
930.7731, 3059.531
931.2552, 3063.728
931.7374, 3067.307
932.2195, 3068.862
932.7016, 3065.861
933.1837, 3057.546
933.6658, 3053.187
934.1479, 3055.502
934.6301, 3058.158
935.1122, 3058.309
935.5943, 3056.679
936.0764, 3056.380
936.5585, 3057.278
937.0406, 3058.295
937.5228, 3059.594
938.0049, 3060.155
938.4870, 3058.099
938.9691, 3054.832
939.4512, 3053.882
939.9333, 3058.815
940.4155, 3060.263
940.8976, 3055.894
941.3797, 3049.398
941.8618, 3046.548
942.3439, 3046.747
942.8260, 3047.230
943.3082, 3047.394
943.7903, 3048.056
944.2724, 3051.347
944.7545, 3054.446
945.2366, 3054.368
945.7188, 3049.249
946.2009, 3046.189
946.6830, 3045.771
947.1651, 3046.096
947.6472, 3046.801
948.1293, 3047.312
948.6115, 3043.843
949.0936, 3037.101
949.5757, 3032.290
950.0578, 3035.237
950.5399, 3038.653
951.0220, 3037.174
951.5042, 3032.277
951.9863, 3031.113
952.4684, 3036.202
952.9505, 3038.226
953.4326, 3033.997
953.9147, 3027.621
954.3969, 3026.559
954.8790, 3029.327
955.3611, 3032.060
955.8432, 3034.114
956.3253, 3034.667
956.8074, 3031.587
957.2896, 3027.790
957.7717, 3026.220
958.2538, 3027.799
958.7359, 3027.874
959.2180, 3025.953
959.7001, 3024.270
960.1823, 3025.518
960.6644, 3027.936
961.1465, 3026.813
961.6286, 3022.634
962.1107, 3020.925
962.5928, 3028.261
963.0750, 3034.478
963.5571, 3034.663
964.0392, 3030.348
964.5213, 3027.313
965.0034, 3025.954
965.4855, 3022.622
965.9677, 3015.291
966.4498, 3007.547
966.9319, 3003.683
967.4140, 3003.283
967.8961, 3006.118
968.3782, 3016.261
968.8604, 3021.830
969.3425, 3017.782
969.8246, 3011.067
970.3067, 3007.177
970.7888, 3006.219
971.2709, 3004.280
971.7531, 3001.077
972.2352, 2999.531
972.7173, 3004.168
973.1994, 3010.026
973.6815, 3011.692
974.1636, 3009.185
974.6458, 3006.840
975.1279, 3005.419
975.6100, 3004.142
976.0921, 3002.368
976.5742, 3000.894
977.0563, 3002.811
977.5385, 3007.469
978.0206, 3010.705
978.5027, 3010.524
978.9848, 3009.697
979.4669, 3011.574
979.9490, 3013.557
980.4311, 3012.002
980.9132, 3003.624
981.3953, 2998.335
981.8774, 2996.613
982.3596, 2996.845
982.8417, 2998.567
983.3238, 3001.004
983.8059, 3001.900
984.2880, 3001.175
984.7701, 2999.359
985.2523, 2994.951
985.7344, 2991.220
986.2165, 2990.732
986.6986, 2992.507
987.1807, 2992.232
987.6628, 2989.345
988.1450, 2987.934
988.6271, 2989.944
989.1092, 2992.509
989.5913, 2990.559
990.0734, 2986.298
990.5555, 2983.980
991.0377, 2986.612
991.5198, 2987.568
992.0019, 2984.105
992.4840, 2979.594
992.9661, 2975.942
993.4482, 2973.099
993.9304, 2973.948
994.4125, 2978.636
994.8946, 2982.737
995.3767, 2981.974
995.8588, 2980.015
996.3409, 2980.766
996.8231, 2983.712
997.3052, 2984.804
997.7873, 2982.452
998.2694, 2979.919
998.7515, 2977.577
999.2336, 2975.786
999.7158, 2975.504
1000.198, 2976.464
1000.680, 2977.901
1001.162, 2979.886
1001.644, 2981.301
1002.126, 2981.026
1002.608, 2980.085
1003.091, 2979.593
1003.573, 2979.958
1004.055, 2978.177
1004.537, 2973.605
1005.019, 2969.997
1005.501, 2970.821
1005.983, 2973.798
1006.465, 2975.663
1006.948, 2976.250
1007.430, 2975.121
1007.912, 2969.083
1008.394, 2965.174
1008.876, 2966.280
1009.358, 2969.677
1009.840, 2970.327
1010.322, 2968.333
1010.804, 2967.116
1011.287, 2967.127
1011.769, 2968.616
1012.251, 2974.617
1012.733, 2980.428
1013.215, 2980.457
1013.697, 2972.644
1014.179, 2967.917
1014.661, 2968.357
1015.143, 2968.013
1015.626, 2963.029
1016.108, 2955.646
1016.590, 2952.557
1017.072, 2953.125
1017.554, 2954.844
1018.036, 2958.352
1018.518, 2960.690
1019.000, 2959.721
1019.483, 2957.240
1019.965, 2955.723
1020.447, 2955.368
1020.929, 2954.978
1021.411, 2954.603
1021.893, 2953.124
1022.375, 2946.519
1022.857, 2939.878
1023.339, 2941.141
1023.822, 2950.524
1024.304, 2957.590
1024.786, 2960.293
1025.268, 2959.401
1025.750, 2953.767
1026.232, 2945.716
1026.714, 2941.275
1027.196, 2940.226
1027.679, 2941.698
1028.161, 2946.599
1028.643, 2951.129
1029.125, 2953.112
1029.607, 2953.235
1030.089, 2951.979
1030.571, 2948.807
1031.053, 2946.267
1031.536, 2944.054
1032.018, 2943.624
1032.500, 2948.078
1032.982, 2953.845
1033.464, 2954.205
1033.946, 2950.320
1034.428, 2947.593
1034.910, 2949.436
1035.392, 2950.872
1035.875, 2950.837
1036.357, 2949.873
1036.839, 2948.911
1037.321, 2947.913
1037.803, 2946.534
1038.285, 2944.785
1038.767, 2942.118
1039.249, 2935.679
1039.731, 2929.922
1040.214, 2929.767
1040.696, 2935.917
1041.178, 2937.622
1041.660, 2933.635
1042.142, 2929.660
1042.624, 2927.851
1043.106, 2927.886
1043.588, 2930.445
1044.071, 2934.206
1044.553, 2936.156
1045.035, 2933.193
1045.517, 2931.584
1045.999, 2933.903
1046.481, 2936.568
1046.963, 2935.769
1047.445, 2931.814
1047.927, 2929.683
1048.410, 2929.492
1048.892, 2929.818
1049.374, 2930.482
1049.856, 2930.515
1050.338, 2928.652
1050.820, 2925.419
1051.302, 2923.484
1051.784, 2923.402
1052.266, 2922.690
1052.749, 2920.701
1053.231, 2918.324
1053.713, 2916.571
1054.195, 2915.381
1054.677, 2914.222
1055.159, 2912.601
1055.641, 2913.615
1056.123, 2922.225
1056.606, 2928.767
1057.088, 2927.978
1057.570, 2921.454
1058.052, 2918.107
1058.534, 2917.460
1059.016, 2916.336
1059.498, 2912.088
1059.980, 2908.492
1060.463, 2908.625
1060.945, 2910.531
1061.427, 2911.141
1061.909, 2909.267
1062.391, 2910.995
1062.873, 2917.296
1063.355, 2922.414
1063.837, 2919.048
1064.319, 2912.792
1064.802, 2912.180
1065.284, 2916.460
1065.766, 2918.835
1066.248, 2915.074
1066.730, 2912.762
1067.212, 2914.197
1067.694, 2916.540
1068.176, 2913.403
1068.658, 2906.553
1069.141, 2902.981
1069.623, 2904.423
1070.105, 2906.236
1070.587, 2905.970
1071.069, 2904.985
1071.551, 2903.996
1072.033, 2903.082
1072.515, 2903.054
1072.998, 2903.942
1073.480, 2904.824
1073.962, 2905.151
1074.444, 2905.471
1074.926, 2906.906
1075.408, 2908.529
1075.890, 2908.794
1076.372, 2905.709
1076.854, 2904.916
1077.337, 2907.328
1077.819, 2909.581
1078.301, 2908.030
1078.783, 2904.529
1079.265, 2903.616
1079.747, 2904.981
1080.229, 2906.414
1080.711, 2908.466
1081.193, 2908.290
1081.676, 2903.681
1082.158, 2897.945
1082.640, 2897.134
1083.122, 2900.700
1083.604, 2903.854
1084.086, 2905.996
1084.568, 2906.522
1085.050, 2903.212
1085.532, 2899.583
1086.015, 2899.224
1086.497, 2901.556
1086.979, 2899.600
1087.461, 2892.361
1087.943, 2888.102
1088.425, 2890.710
1088.907, 2895.009
1089.389, 2894.760
1089.872, 2891.650
1090.354, 2887.742
1090.836, 2882.341
1091.318, 2879.693
1091.800, 2880.583
1092.282, 2882.767
1092.764, 2885.324
1093.246, 2887.918
1093.729, 2889.272
1094.211, 2889.722
1094.693, 2890.547
1095.175, 2893.740
1095.657, 2895.447
1096.139, 2893.921
1096.621, 2890.999
1097.103, 2888.118
1097.585, 2885.348
1098.068, 2884.927
1098.550, 2886.947
1099.032, 2888.605
1099.514, 2886.552
1099.996, 2884.777
1100.478, 2887.254
1100.960, 2892.351
1101.442, 2893.399
1101.924, 2889.472
1102.407, 2886.986
1102.889, 2887.154
1103.371, 2888.874
1103.853, 2892.810
1104.335, 2896.429
1104.817, 2895.785
1105.299, 2889.717
1105.781, 2887.307
1106.264, 2890.807
1106.746, 2893.814
1107.228, 2893.808
1107.710, 2891.980
1108.192, 2890.352
1108.674, 2888.907
1109.156, 2887.450
1109.638, 2885.417
1110.120, 2884.861
1110.603, 2888.422
1111.085, 2891.104
1111.567, 2889.120
1112.049, 2883.351
1112.531, 2879.885
1113.013, 2878.504
1113.495, 2877.458
1113.977, 2877.234
1114.459, 2875.542
1114.942, 2869.263
1115.424, 2862.051
1115.906, 2859.053
1116.388, 2860.784
1116.870, 2860.868
1117.352, 2858.894
1117.834, 2857.690
1118.316, 2860.579
1118.799, 2864.242
1119.281, 2865.640
1119.763, 2865.321
1120.245, 2866.276
1120.727, 2869.372
1121.209, 2870.584
1121.691, 2868.924
1122.173, 2866.358
1122.656, 2863.973
1123.138, 2862.762
1123.620, 2865.666
1124.102, 2873.196
1124.584, 2874.718
1125.066, 2865.808
1125.548, 2857.911
1126.030, 2854.399
1126.512, 2854.214
1126.995, 2856.706
1127.477, 2860.633
1127.959, 2863.027
1128.441, 2862.995
1128.923, 2862.267
1129.405, 2861.643
1129.887, 2860.091
1130.369, 2856.327
1130.851, 2851.300
1131.334, 2849.493
1131.816, 2850.488
1132.298, 2852.379
1132.780, 2855.136
1133.262, 2857.298
1133.744, 2857.904
1134.226, 2857.716
1134.708, 2857.370
1135.191, 2856.828
1135.673, 2856.266
1136.155, 2855.681
1136.637, 2855.331
1137.119, 2856.031
1137.601, 2856.418
1138.083, 2855.797
1138.565, 2854.112
1139.047, 2851.087
1139.530, 2846.050
1140.012, 2843.671
1140.494, 2844.500
1140.976, 2846.584
1141.458, 2848.634
1141.940, 2850.714
1142.422, 2854.494
1142.904, 2858.736
1143.386, 2856.224
1143.869, 2842.723
1144.351, 2834.864
1144.833, 2836.430
1145.315, 2841.548
1145.797, 2843.518
1146.279, 2843.879
1146.761, 2845.286
1147.243, 2848.120
1147.726, 2848.197
1148.208, 2842.921
1148.690, 2839.406
1149.172, 2840.330
1149.654, 2843.300
1150.136, 2844.352
1150.618, 2843.784
1151.100, 2841.565
1151.583, 2836.728
1152.065, 2834.792
1152.547, 2839.353
1153.029, 2843.912
1153.511, 2845.729
1153.993, 2845.171
1154.475, 2842.660
1154.957, 2838.842
1155.439, 2835.885
1155.922, 2834.790
1156.404, 2834.266
1156.886, 2835.840
1157.368, 2835.935
1157.850, 2830.964
1158.332, 2821.877
1158.814, 2818.134
1159.296, 2819.093
1159.778, 2820.523
1160.261, 2819.677
1160.743, 2819.365
1161.225, 2821.424
1161.707, 2824.288
1162.189, 2826.479
1162.671, 2827.965
1163.153, 2828.220
1163.635, 2827.279
1164.118, 2827.059
1164.600, 2830.252
1165.082, 2833.146
1165.564, 2832.420
1166.046, 2830.154
1166.528, 2831.044
1167.010, 2835.895
1167.492, 2835.227
1167.974, 2827.854
1168.457, 2820.899
1168.939, 2821.785
1169.421, 2824.083
1169.903, 2821.617
1170.385, 2815.929
1170.867, 2814.940
1171.349, 2819.700
1171.831, 2822.798
1172.313, 2822.900
1172.796, 2821.505
1173.278, 2818.508
1173.760, 2815.959
1174.242, 2817.006
1174.724, 2821.465
1175.206, 2821.476
1175.688, 2815.371
1176.170, 2812.647
1176.653, 2817.030
1177.135, 2821.729
1177.617, 2815.388
1178.099, 2805.917
1178.581, 2804.565
1179.063, 2814.106
1179.545, 2815.976
1180.027, 2806.511
1180.510, 2800.961
1180.992, 2806.583
1181.474, 2815.689
1181.956, 2816.999
1182.438, 2813.941
1182.920, 2811.672
1183.402, 2811.166
1183.884, 2811.885
1184.366, 2814.383
1184.849, 2816.496
1185.331, 2817.474
1185.813, 2817.163
1186.295, 2814.612
1186.777, 2810.772
1187.259, 2807.400
1187.741, 2805.147
1188.223, 2803.147
1188.705, 2801.750
1189.188, 2799.614
1189.670, 2794.273
1190.152, 2788.582
1190.634, 2789.540
1191.116, 2794.948
1191.598, 2799.536
1192.080, 2800.078
1192.562, 2802.394
1193.045, 2808.137
1193.527, 2812.749
1194.009, 2811.297
1194.491, 2806.414
1194.973, 2803.774
1195.455, 2803.144
1195.937, 2803.466
1196.419, 2804.614
1196.901, 2806.606
1197.384, 2810.302
1197.866, 2813.120
1198.348, 2812.423
1198.830, 2809.052
1199.312, 2803.465
1199.794, 2796.697
1200.276, 2793.347
1200.758, 2799.684
1201.240, 2803.271
1201.723, 2801.815
1202.205, 2797.958
1202.687, 2793.835
1203.169, 2790.130
1203.651, 2788.917
1204.133, 2790.102
1204.615, 2791.447
1205.097, 2794.164
1205.580, 2793.514
1206.062, 2786.825
1206.544, 2779.413
1207.026, 2779.970
1207.508, 2785.652
1207.990, 2789.670
1208.472, 2791.356
1208.954, 2792.517
1209.437, 2794.556
1209.919, 2794.802
1210.401, 2791.860
1210.883, 2788.028
1211.365, 2787.281
1211.847, 2788.655
1212.329, 2789.709
1212.811, 2790.098
1213.293, 2791.367
1213.776, 2795.845
1214.258, 2798.785
1214.740, 2798.609
1215.222, 2796.691
1215.704, 2795.602
1216.186, 2794.885
1216.668, 2792.993
1217.150, 2789.391
1217.632, 2787.892
1218.115, 2791.772
1218.597, 2794.447
1219.079, 2793.531
1219.561, 2790.476
1220.043, 2786.929
1220.525, 2783.819
1221.007, 2783.796
1221.489, 2788.191
1221.972, 2790.525
1222.454, 2787.440
1222.936, 2785.895
1223.418, 2789.673
1223.900, 2795.144
1224.382, 2794.072
1224.864, 2788.828
1225.346, 2784.039
1225.828, 2780.434
1226.311, 2779.079
1226.793, 2781.206
1227.275, 2783.002
1227.757, 2782.534
1228.239, 2780.958
1228.721, 2780.917
1229.203, 2781.556
1229.685, 2780.864
1230.167, 2777.348
1230.650, 2776.210
1231.132, 2778.878
1231.614, 2781.294
1232.096, 2781.363
1232.578, 2779.918
1233.060, 2777.274
1233.542, 2774.672
1234.024, 2774.937
1234.507, 2781.167
1234.989, 2783.149
1235.471, 2779.095
1235.953, 2775.141
1236.435, 2774.807
1236.917, 2776.603
1237.399, 2779.292
1237.881, 2781.893
1238.364, 2782.505
1238.846, 2779.866
1239.328, 2776.693
1239.810, 2772.179
1240.292, 2770.735
1240.774, 2778.557
1241.256, 2787.582
1241.738, 2785.059
1242.220, 2776.386
1242.703, 2771.288
1243.185, 2772.277
1243.667, 2773.536
1244.149, 2774.960
1244.631, 2777.035
1245.113, 2781.631
1245.595, 2785.408
1246.077, 2783.017
1246.559, 2777.668
1247.042, 2775.192
1247.524, 2776.965
1248.006, 2777.483
1248.488, 2776.657
1248.970, 2775.826
1249.452, 2776.309
1249.934, 2776.839
1250.416, 2776.274
1250.899, 2775.157
1251.381, 2774.471
1251.863, 2774.591
1252.345, 2773.175
1252.827, 2770.243
1253.309, 2767.858
1253.791, 2767.116
1254.273, 2767.680
1254.755, 2770.858
1255.238, 2774.247
1255.720, 2774.040
1256.202, 2769.944
1256.684, 2768.390
1257.166, 2769.406
1257.648, 2771.704
1258.130, 2776.789
1258.612, 2780.279
1259.094, 2778.843
1259.577, 2775.336
1260.059, 2772.429
1260.541, 2770.127
1261.023, 2767.789
1261.505, 2765.595
1261.987, 2764.808
1262.469, 2766.831
1262.951, 2769.587
1263.434, 2773.124
1263.916, 2776.214
1264.398, 2777.611
1264.880, 2777.473
1265.362, 2776.159
1265.844, 2773.914
1266.326, 2772.086
1266.808, 2769.982
1267.291, 2770.575
1267.773, 2775.702
1268.255, 2780.897
1268.737, 2780.633
1269.219, 2777.417
1269.701, 2778.347
1270.183, 2782.294
1270.665, 2784.001
1271.147, 2779.855
1271.630, 2776.325
1272.112, 2774.067
1272.594, 2772.049
1273.076, 2768.532
1273.558, 2765.144
1274.040, 2764.403
1274.522, 2765.913
1275.004, 2768.447
1275.486, 2773.265
1275.969, 2774.669
1276.451, 2771.722
1276.933, 2768.608
1277.415, 2769.649
1277.897, 2771.769
1278.379, 2771.771
1278.861, 2770.261
1279.343, 2768.676
1279.825, 2766.555
1280.308, 2767.495
1280.790, 2771.825
1281.272, 2775.777
1281.754, 2776.426
1282.236, 2775.750
1282.718, 2774.639
1283.200, 2773.322
1283.682, 2772.453
1284.165, 2772.073
1284.647, 2768.255
1285.129, 2761.261
1285.611, 2757.775
1286.093, 2765.602
1286.575, 2773.484
1287.057, 2776.789
1287.539, 2777.105
1288.021, 2774.703
1288.504, 2770.461
1288.986, 2769.771
1289.468, 2772.290
1289.950, 2774.757
1290.432, 2776.070
1290.914, 2776.528
1291.396, 2776.337
1291.878, 2775.336
1292.360, 2772.082
1292.843, 2768.369
1293.325, 2770.378
1293.807, 2776.102
1294.289, 2778.250
1294.771, 2769.230
1295.253, 2765.468
1295.735, 2769.028
1296.217, 2773.112
1296.700, 2770.228
1297.182, 2765.620
1297.664, 2767.960
1298.146, 2774.034
1298.628, 2775.493
1299.110, 2769.930
1299.592, 2768.275
1300.074, 2771.167
1300.557, 2773.672
1301.039, 2771.824
1301.521, 2768.600
1302.003, 2765.992
1302.485, 2764.043
1302.967, 2763.317
1303.449, 2765.417
##END=



