##NAMES=Nambulite
##RRUFFID=R060616
##IDEAL CHEMISTRY=LiMn^2+^_4_Si_5_O_14_(OH)
##LOCALITY=Kombat mine, Kombat, Grootfontein District, Otjozondjupa Region, Namibia
##OWNER=RRUFF
##SOURCE=Michael Scott
##DESCRIPTION=Pink colored fragment of a single crystal associated with gypsum
##STATUS=The identification of this mineral has been confirmed by single-crystal X-ray diffraction.
##URL=rruff.info/R060616
167.6918, 188.2706
168.1739, 189.3248
168.6560, 191.3480
169.1381, 194.4767
169.6203, 198.2946
170.1024, 201.0430
170.5845, 203.8056
171.0666, 206.5156
171.5487, 208.4727
172.0309, 209.7240
172.5130, 210.8194
172.9951, 211.5434
173.4772, 212.4387
173.9593, 214.3728
174.4414, 218.6481
174.9236, 223.5808
175.4057, 227.0520
175.8878, 229.0739
176.3699, 231.1191
176.8520, 235.0410
177.3341, 239.9495
177.8163, 243.9174
178.2984, 245.5353
178.7805, 245.9172
179.2626, 246.3549
179.7447, 246.7878
180.2268, 248.0075
180.7090, 251.5412
181.1911, 256.6722
181.6732, 261.1553
182.1553, 263.2819
182.6374, 264.1419
183.1195, 266.3544
183.6017, 270.2919
184.0838, 273.9563
184.5659, 274.4083
185.0480, 272.2768
185.5301, 270.7722
186.0123, 271.7265
186.4944, 274.5276
186.9765, 277.7259
187.4586, 281.6526
187.9407, 284.6777
188.4228, 284.2257
188.9050, 280.5332
189.3871, 275.8319
189.8692, 271.0409
190.3513, 266.1789
190.8334, 261.0381
191.3155, 255.4571
191.7977, 250.0728
192.2798, 245.9138
192.7619, 242.9732
193.2440, 240.6862
193.7261, 239.1816
194.2082, 238.3356
194.6904, 236.3464
195.1725, 232.7676
195.6546, 228.7113
196.1367, 226.2234
196.6188, 225.3084
197.1009, 225.5067
197.5831, 227.2512
198.0652, 230.5453
198.5473, 232.1404
199.0294, 231.4758
199.5115, 229.5811
199.9937, 228.4814
200.4758, 228.2518
200.9579, 228.3644
201.4400, 228.5733
201.9221, 228.8745
202.4042, 229.3657
202.8864, 230.2243
203.3685, 231.1012
203.8506, 230.9312
204.3327, 229.3945
204.8148, 228.1087
205.2969, 228.2286
205.7791, 230.0539
206.2612, 230.9132
206.7433, 230.1227
207.2254, 228.6796
207.7075, 229.3012
208.1896, 232.4893
208.6718, 236.2819
209.1539, 239.9043
209.6360, 243.4953
210.1181, 246.0486
210.6002, 247.3850
211.0823, 247.7353
211.5645, 247.5283
212.0466, 246.3781
212.5287, 245.5976
213.0108, 245.9709
213.4929, 247.7625
213.9750, 249.7148
214.4572, 251.9096
214.9393, 254.1613
215.4214, 255.9860
215.9035, 257.3529
216.3856, 258.3643
216.8678, 258.8243
217.3499, 258.2115
217.8320, 258.7696
218.3141, 260.7823
218.7962, 263.9574
219.2783, 267.6646
219.7605, 272.6289
220.2426, 276.7336
220.7247, 278.6384
221.2068, 277.5501
221.6889, 276.4465
222.1710, 275.1788
222.6532, 274.0422
223.1353, 274.1369
223.6174, 276.1430
224.0995, 278.2553
224.5816, 279.4568
225.0637, 279.1303
225.5459, 279.5809
226.0280, 281.3339
226.5101, 283.8153
226.9922, 285.2607
227.4743, 285.6357
227.9564, 285.0629
228.4386, 283.2939
228.9207, 279.2110
229.4028, 276.8003
229.8849, 276.8181
230.3670, 278.3601
230.8492, 278.8132
231.3313, 277.4384
231.8134, 276.0864
232.2955, 275.7513
232.7776, 277.4195
233.2597, 277.7625
233.7419, 276.1867
234.2240, 273.4398
234.7061, 271.5596
235.1882, 271.1010
235.6703, 270.6766
236.1524, 269.5679
236.6346, 267.0196
237.1167, 265.5827
237.5988, 265.6351
238.0809, 266.6468
238.5630, 267.4479
239.0451, 268.1451
239.5273, 268.4497
240.0094, 268.0746
240.4915, 266.3509
240.9736, 265.7024
241.4557, 266.4095
241.9378, 268.0483
242.4200, 269.8565
242.9021, 272.3429
243.3842, 274.2259
243.8663, 274.9432
244.3484, 274.1086
244.8306, 273.1874
245.3127, 271.8369
245.7948, 270.5858
246.2769, 270.4305
246.7590, 271.5658
247.2411, 273.4747
247.7233, 276.2168
248.2054, 280.2734
248.6875, 283.3882
249.1696, 285.4129
249.6517, 286.5793
250.1338, 287.0853
250.6160, 286.2971
251.0981, 286.0023
251.5802, 286.8889
252.0623, 289.2488
252.5444, 291.3152
253.0265, 293.0321
253.5087, 294.4907
253.9908, 295.5533
254.4729, 295.3506
254.9550, 296.5438
255.4371, 300.2248
255.9192, 306.7231
256.4014, 312.7212
256.8835, 318.0480
257.3656, 323.0448
257.8477, 328.2424
258.3298, 333.6234
258.8120, 339.2886
259.2941, 345.4126
259.7762, 352.0674
260.2583, 358.2858
260.7404, 363.8534
261.2225, 369.3124
261.7047, 375.2646
262.1868, 381.5070
262.6689, 388.9173
263.1510, 398.4507
263.6331, 409.9064
264.1152, 418.6440
264.5974, 423.4322
265.0795, 427.3105
265.5616, 433.2973
266.0437, 442.4359
266.5258, 450.5677
267.0079, 456.9572
267.4901, 461.7373
267.9722, 465.4501
268.4543, 467.9940
268.9364, 469.7801
269.4185, 471.2778
269.9006, 472.7067
270.3828, 472.8891
270.8649, 471.4516
271.3470, 468.6466
271.8291, 465.6362
272.3112, 462.4014
272.7933, 458.8815
273.2755, 455.0993
273.7576, 451.0783
274.2397, 446.5879
274.7218, 441.6656
275.2039, 436.2415
275.6860, 429.7162
276.1682, 421.5360
276.6503, 414.1087
277.1324, 409.1554
277.6145, 406.8950
278.0966, 404.8722
278.5787, 403.0205
279.0609, 401.2015
279.5430, 399.1349
280.0251, 396.8675
280.5072, 394.1917
280.9893, 390.5823
281.4715, 386.0823
281.9536, 382.7494
282.4357, 380.7845
282.9178, 379.7801
283.3999, 379.3701
283.8820, 379.6037
284.3642, 379.4186
284.8463, 377.9355
285.3284, 375.3101
285.8105, 373.3744
286.2926, 372.0121
286.7747, 371.6626
287.2569, 373.2443
287.7390, 376.6960
288.2211, 380.5547
288.7032, 384.8007
289.1853, 389.0549
289.6674, 391.7036
290.1496, 392.7154
290.6317, 392.4969
291.1138, 390.7088
291.5959, 387.6822
292.0780, 385.7811
292.5602, 386.1995
293.0423, 388.1008
293.5244, 389.4960
294.0065, 390.3758
294.4886, 390.8611
294.9707, 391.1306
295.4529, 391.1177
295.9350, 390.4987
296.4171, 388.8199
296.8992, 386.8374
297.3813, 385.9981
297.8634, 386.2298
298.3456, 386.7050
298.8277, 387.1185
299.3098, 387.2982
299.7919, 386.7866
300.2740, 385.3256
300.7561, 383.4330
301.2383, 381.4931
301.7204, 379.6014
302.2025, 378.3326
302.6846, 378.4899
303.1667, 379.3594
303.6488, 379.9898
304.1310, 380.3484
304.6131, 380.0867
305.0952, 378.3123
305.5773, 375.5501
306.0594, 373.2295
306.5415, 372.2884
307.0237, 372.0624
307.5058, 371.9989
307.9879, 372.1152
308.4700, 371.9027
308.9521, 370.2568
309.4343, 368.0838
309.9164, 366.9342
310.3985, 368.6047
310.8806, 370.7757
311.3627, 371.3011
311.8448, 370.0679
312.3270, 369.4440
312.8091, 372.0331
313.2912, 375.6534
313.7733, 377.7284
314.2554, 375.2641
314.7375, 372.8234
315.2197, 373.1540
315.7018, 375.9536
316.1839, 378.5195
316.6660, 378.3389
317.1481, 378.0876
317.6302, 380.0308
318.1124, 386.7915
318.5945, 393.2211
319.0766, 397.6113
319.5587, 400.3028
320.0408, 402.5644
320.5229, 403.5177
321.0051, 405.0424
321.4872, 408.3976
321.9693, 415.0671
322.4514, 421.0622
322.9335, 425.1454
323.4156, 428.0494
323.8978, 431.1868
324.3799, 434.5943
324.8620, 438.4539
325.3441, 443.0792
325.8262, 448.9738
326.3083, 453.9621
326.7905, 458.0879
327.2726, 461.1662
327.7547, 462.9241
328.2368, 463.3312
328.7189, 462.4613
329.2010, 459.8130
329.6832, 455.1714
330.1653, 451.4465
330.6474, 449.5666
331.1295, 447.9392
331.6116, 445.2678
332.0938, 441.3325
332.5759, 436.6569
333.0580, 431.1332
333.5401, 424.8310
334.0222, 418.6628
334.5043, 412.5858
334.9865, 406.6268
335.4686, 400.6503
335.9507, 394.3235
336.4328, 388.8750
336.9149, 384.5084
337.3970, 380.9197
337.8792, 377.3795
338.3613, 373.6409
338.8434, 370.5028
339.3255, 368.6744
339.8076, 368.4910
340.2898, 366.8881
340.7719, 363.5630
341.2540, 359.3336
341.7361, 355.0576
342.2182, 350.7366
342.7003, 347.0872
343.1825, 344.7031
343.6646, 343.3106
344.1467, 341.1627
344.6288, 338.1377
345.1109, 334.8729
345.5930, 331.6236
346.0752, 328.5121
346.5573, 326.4976
347.0394, 326.3364
347.5215, 326.9359
348.0036, 325.5464
348.4857, 322.2154
348.9679, 318.8452
349.4500, 317.1387
349.9321, 316.4983
350.4142, 315.1022
350.8963, 312.4662
351.3784, 309.5089
351.8606, 307.3592
352.3427, 305.9258
352.8248, 304.8309
353.3069, 303.7805
353.7890, 302.9961
354.2711, 303.0396
354.7533, 304.0791
355.2354, 304.8163
355.7175, 303.6239
356.1996, 301.4169
356.6817, 299.7897
357.1638, 300.0819
357.6460, 300.7205
358.1281, 300.1324
358.6102, 298.4544
359.0923, 297.5497
359.5744, 298.6378
360.0565, 300.9505
360.5387, 303.7929
361.0208, 307.5349
361.5029, 311.0815
361.9850, 313.5341
362.4671, 315.3152
362.9492, 317.6956
363.4314, 321.6504
363.9135, 325.9360
364.3956, 329.7950
364.8777, 332.7674
365.3598, 336.2145
365.8419, 340.9448
366.3241, 346.2080
366.8062, 350.8485
367.2883, 352.8749
367.7704, 356.0274
368.2526, 361.8027
368.7347, 370.8841
369.2168, 378.8657
369.6989, 385.0675
370.1810, 390.5586
370.6631, 396.2813
371.1453, 402.5343
371.6274, 408.5963
372.1095, 414.4904
372.5916, 420.2038
373.0737, 425.4878
373.5558, 430.5093
374.0380, 434.9207
374.5201, 438.2763
375.0022, 439.7652
375.4843, 443.0581
375.9664, 449.3333
376.4485, 456.5350
376.9307, 460.5011
377.4128, 460.6326
377.8949, 459.9122
378.3770, 459.3512
378.8591, 458.9442
379.3412, 458.6849
379.8234, 458.6924
380.3055, 458.4342
380.7876, 457.1931
381.2697, 455.0081
381.7518, 452.8220
382.2339, 451.2119
382.7161, 449.5215
383.1982, 445.9713
383.6803, 440.6348
384.1624, 434.6750
384.6445, 429.2073
385.1266, 423.8150
385.6088, 417.2348
386.0909, 408.9970
386.5730, 400.4926
387.0551, 393.5132
387.5372, 387.7239
388.0193, 382.0327
388.5015, 375.9351
388.9836, 369.6760
389.4657, 363.4319
389.9478, 357.2040
390.4299, 351.2205
390.9120, 345.3992
391.3942, 339.9669
391.8763, 335.2952
392.3584, 331.8784
392.8405, 328.8914
393.3226, 325.9797
393.8047, 323.1605
394.2869, 320.5096
394.7690, 318.2462
395.2511, 316.0328
395.7332, 313.5681
396.2154, 310.3503
396.6975, 307.8479
397.1796, 306.8020
397.6617, 306.5781
398.1438, 306.0889
398.6259, 304.7271
399.1081, 303.5277
399.5902, 302.9867
400.0723, 303.3128
400.5544, 302.7993
401.0365, 300.5168
401.5186, 298.0736
402.0008, 296.8519
402.4829, 297.5380
402.9650, 298.1645
403.4471, 298.7700
403.9292, 299.1492
404.4113, 298.3646
404.8935, 296.1104
405.3756, 293.3978
405.8577, 290.6998
406.3398, 288.0590
406.8219, 285.2187
407.3040, 281.9888
407.7862, 278.9188
408.2683, 276.9107
408.7504, 275.9991
409.2325, 275.0839
409.7146, 273.6493
410.1967, 271.9760
410.6789, 271.0883
411.1610, 271.0218
411.6431, 270.8820
412.1252, 269.3665
412.6073, 267.1272
413.0894, 266.2317
413.5716, 267.5133
414.0537, 269.3423
414.5358, 269.6487
415.0179, 268.7992
415.5000, 268.0057
415.9821, 268.0849
416.4643, 268.4678
416.9464, 268.6243
417.4285, 268.5099
417.9106, 268.1322
418.3927, 266.9307
418.8748, 265.6498
419.3570, 265.1942
419.8391, 267.4072
420.3212, 269.0089
420.8033, 268.0905
421.2854, 265.1887
421.7675, 262.8275
422.2497, 262.5053
422.7318, 262.3883
423.2139, 261.3731
423.6960, 258.4957
424.1781, 256.5839
424.6602, 256.7151
425.1424, 257.7919
425.6245, 258.2030
426.1066, 257.3044
426.5887, 256.5470
427.0709, 256.3954
427.5530, 256.8473
428.0351, 256.5862
428.5172, 255.1338
428.9993, 253.6123
429.4814, 252.7928
429.9636, 252.7410
430.4457, 253.2226
430.9278, 254.4710
431.4099, 255.9903
431.8920, 256.5612
432.3741, 256.0592
432.8563, 255.6168
433.3384, 255.9139
433.8205, 256.7850
434.3026, 257.2138
434.7847, 257.2350
435.2668, 256.5880
435.7490, 254.4457
436.2311, 251.2878
436.7132, 248.9591
437.1953, 248.2271
437.6774, 248.1366
438.1595, 247.3448
438.6417, 246.0244
439.1238, 244.8889
439.6059, 244.4899
440.0880, 244.4345
440.5701, 244.4833
441.0522, 244.7012
441.5344, 244.3568
442.0165, 242.6045
442.4986, 240.1564
442.9807, 237.8908
443.4628, 236.2355
443.9449, 234.6810
444.4271, 232.8291
444.9092, 230.8140
445.3913, 229.3988
445.8734, 229.6668
446.3555, 229.9249
446.8376, 229.2161
447.3198, 226.4799
447.8019, 224.7746
448.2840, 225.1794
448.7661, 226.2271
449.2482, 225.7586
449.7303, 222.4291
450.2125, 219.9152
450.6946, 219.3254
451.1767, 220.4722
451.6588, 220.5195
452.1409, 219.1545
452.6230, 217.4241
453.1052, 215.7251
453.5873, 213.9323
454.0694, 214.0228
454.5515, 216.7384
455.0337, 220.1624
455.5158, 220.8941
455.9979, 219.0874
456.4800, 216.9130
456.9621, 214.7409
457.4442, 212.9910
457.9264, 212.7968
458.4085, 214.1209
458.8906, 216.0760
459.3727, 218.8130
459.8548, 221.4898
460.3369, 222.5084
460.8191, 220.9999
461.3012, 219.0654
461.7833, 218.2571
462.2654, 218.2768
462.7475, 218.5031
463.2296, 219.1461
463.7118, 219.5288
464.1939, 218.9988
464.6760, 217.4983
465.1581, 216.5176
465.6402, 216.4053
466.1223, 217.0502
466.6045, 218.3861
467.0866, 222.0354
467.5687, 224.3344
468.0508, 224.2707
468.5329, 222.8171
469.0150, 222.1050
469.4972, 222.3289
469.9793, 223.0219
470.4614, 224.2076
470.9435, 225.9351
471.4256, 227.1671
471.9077, 227.8089
472.3899, 228.1527
472.8720, 228.2564
473.3541, 228.0489
473.8362, 228.6533
474.3183, 230.4889
474.8004, 232.7986
475.2826, 234.0082
475.7647, 234.1856
476.2468, 234.3051
476.7289, 234.7297
477.2110, 235.4732
477.6931, 236.6951
478.1753, 238.3953
478.6574, 240.0595
479.1395, 241.0886
479.6216, 241.8587
480.1037, 242.9150
480.5858, 244.4053
481.0680, 246.2117
481.5501, 248.2896
482.0322, 250.6254
482.5143, 253.1747
482.9964, 256.6456
483.4786, 259.7061
483.9607, 261.3719
484.4428, 261.4382
484.9249, 262.2545
485.4070, 265.2929
485.8892, 268.5900
486.3713, 270.7246
486.8534, 270.4675
487.3355, 270.8302
487.8176, 272.2540
488.2997, 274.2100
488.7819, 275.5539
489.2640, 275.9843
489.7461, 276.5078
490.2282, 277.6139
490.7103, 279.2311
491.1924, 279.9059
491.6746, 279.4910
492.1567, 278.7493
492.6388, 278.1868
493.1209, 277.8195
493.6030, 277.8678
494.0851, 278.3888
494.5673, 279.2395
495.0494, 280.6716
495.5315, 282.3770
496.0136, 283.1953
496.4957, 281.6328
496.9778, 279.4795
497.4600, 278.8360
497.9421, 279.5874
498.4242, 280.4262
498.9063, 280.7160
499.3884, 280.6717
499.8705, 280.4892
500.3527, 280.2465
500.8348, 279.7676
501.3169, 278.5338
501.7990, 277.1577
502.2811, 276.5002
502.7632, 277.2281
503.2454, 278.1520
503.7275, 279.0990
504.2096, 280.0570
504.6917, 280.9755
505.1738, 281.9996
505.6559, 282.7821
506.1381, 283.0698
506.6202, 282.7044
507.1023, 282.4926
507.5844, 282.4420
508.0665, 282.5371
508.5486, 282.6518
509.0308, 282.7769
509.5129, 283.5936
509.9950, 285.8897
510.4771, 288.3727
510.9592, 287.6754
511.4413, 284.1038
511.9235, 280.6442
512.4056, 279.6061
512.8877, 279.7099
513.3698, 279.0787
513.8519, 277.5526
514.3340, 275.5737
514.8162, 272.8693
515.2983, 270.1166
515.7804, 268.1516
516.2625, 267.7489
516.7446, 267.5091
517.2267, 266.9846
517.7089, 266.2212
518.1910, 265.3273
518.6731, 264.2757
519.1552, 263.1491
519.6373, 261.8509
520.1194, 260.3007
520.6016, 259.2875
521.0837, 258.6324
521.5658, 258.7161
522.0479, 260.0800
522.5300, 263.3143
523.0121, 265.5419
523.4943, 266.3101
523.9764, 266.3368
524.4585, 267.0017
524.9406, 268.3156
525.4227, 269.2209
525.9048, 268.9193
526.3870, 268.1523
526.8691, 268.7950
527.3513, 270.8085
527.8334, 273.4786
528.3155, 277.1433
528.7976, 280.8615
529.2797, 282.9264
529.7618, 282.8436
530.2440, 283.0046
530.7261, 285.4389
531.2082, 289.0097
531.6903, 292.2159
532.1724, 294.7073
532.6545, 296.6494
533.1367, 298.2403
533.6188, 299.3730
534.1009, 299.7289
534.5830, 298.9848
535.0651, 297.6874
535.5472, 295.8330
536.0294, 293.2395
536.5115, 291.4124
536.9936, 290.9535
537.4757, 290.4241
537.9578, 288.4260
538.4399, 284.6198
538.9221, 281.3611
539.4042, 278.8311
539.8863, 276.9834
540.3684, 275.9083
540.8505, 275.5492
541.3326, 275.2393
541.8148, 274.7289
542.2969, 274.0892
542.7790, 273.6544
543.2611, 273.3339
543.7432, 272.4052
544.2253, 269.1992
544.7075, 265.7643
545.1896, 264.6618
545.6717, 266.7400
546.1538, 268.2743
546.6359, 267.0012
547.1180, 264.4186
547.6002, 262.1310
548.0823, 260.8192
548.5644, 259.4720
549.0465, 257.9092
549.5286, 256.1710
550.0107, 254.3916
550.4929, 252.6547
550.9750, 250.7222
551.4571, 248.2917
551.9392, 245.3473
552.4213, 243.6559
552.9034, 243.5320
553.3856, 243.6380
553.8677, 242.7464
554.3498, 240.9694
554.8319, 239.6812
555.3140, 239.0498
555.7961, 238.8082
556.2783, 238.9989
556.7604, 239.3409
557.2425, 238.9780
557.7246, 236.9563
558.2067, 234.7619
558.6888, 233.8548
559.1710, 234.0067
559.6531, 234.4670
560.1352, 235.5779
560.6173, 236.3298
561.0994, 235.7444
561.5815, 233.4923
562.0637, 232.2100
562.5458, 233.8315
563.0279, 235.6769
563.5100, 235.7378
563.9921, 232.3060
564.4742, 230.1509
564.9564, 229.9810
565.4385, 230.6562
565.9206, 230.0898
566.4027, 227.9490
566.8848, 226.3281
567.3669, 226.2057
567.8491, 226.8343
568.3312, 225.4164
568.8133, 222.0462
569.2954, 219.0322
569.7775, 218.2286
570.2596, 218.7088
570.7418, 218.9332
571.2239, 218.8154
571.7060, 218.3790
572.1881, 217.0733
572.6702, 215.7137
573.1523, 215.3080
573.6345, 216.8707
574.1166, 218.0334
574.5987, 217.5442
575.0808, 216.1561
575.5629, 215.1079
576.0450, 215.6917
576.5272, 215.3748
577.0093, 213.0405
577.4914, 209.1846
577.9735, 207.1817
578.4556, 207.8202
578.9377, 208.7207
579.4199, 208.6591
579.9020, 207.6146
580.3841, 206.9350
580.8662, 206.6512
581.3483, 206.5842
581.8304, 206.4626
582.3126, 206.4001
582.7947, 206.9043
583.2768, 208.2489
583.7589, 209.6304
584.2410, 210.6244
584.7231, 210.9899
585.2053, 210.2508
585.6874, 206.7093
586.1696, 203.3908
586.6517, 202.0727
587.1338, 202.4184
587.6159, 202.8743
588.0980, 202.9966
588.5801, 203.1747
589.0623, 203.5779
589.5444, 204.2229
590.0265, 205.0144
590.5086, 206.3062
590.9907, 207.2956
591.4728, 207.1983
591.9550, 205.7939
592.4371, 204.7203
592.9192, 204.0754
593.4013, 203.8742
593.8834, 204.2451
594.3655, 205.1344
594.8477, 206.2468
595.3298, 207.7196
595.8119, 209.0625
596.2940, 209.3430
596.7761, 208.8604
597.2582, 208.6268
597.7404, 209.3714
598.2225, 210.4013
598.7046, 211.4870
599.1867, 212.5844
599.6688, 212.9258
600.1509, 211.1228
600.6331, 209.3296
601.1152, 209.0310
601.5973, 211.2407
602.0794, 212.5989
602.5615, 212.7685
603.0436, 212.3972
603.5258, 212.1995
604.0079, 212.2297
604.4900, 212.1525
604.9721, 211.9072
605.4542, 211.5492
605.9363, 211.1964
606.4185, 210.8450
606.9006, 210.3897
607.3827, 209.2622
607.8648, 208.3401
608.3469, 209.3696
608.8290, 212.0198
609.3112, 214.3693
609.7933, 215.1728
610.2754, 215.3315
610.7575, 215.3580
611.2396, 215.2371
611.7217, 215.5853
612.2039, 217.4870
612.6860, 219.3386
613.1681, 219.8805
613.6502, 218.1030
614.1323, 216.6762
614.6144, 215.4358
615.0966, 214.7292
615.5787, 215.3332
616.0608, 217.5421
616.5429, 219.0738
617.0250, 219.0910
617.5071, 218.4780
617.9893, 219.4544
618.4714, 221.8277
618.9535, 224.0262
619.4356, 225.2774
619.9177, 225.9050
620.3998, 226.0549
620.8820, 225.8225
621.3641, 225.9545
621.8462, 227.0489
622.3283, 228.5494
622.8104, 230.0349
623.2925, 231.4059
623.7747, 232.9710
624.2568, 235.7962
624.7389, 238.1780
625.2210, 238.4955
625.7031, 234.7318
626.1852, 233.5286
626.6674, 236.1266
627.1495, 240.4100
627.6316, 242.5988
628.1137, 242.5698
628.5958, 243.5867
629.0779, 247.0740
629.5601, 251.5930
630.0422, 254.2428
630.5243, 255.3148
631.0064, 256.2892
631.4885, 258.0087
631.9706, 259.9960
632.4528, 261.7234
632.9349, 263.2115
633.4170, 265.0118
633.8991, 267.8639
634.3812, 270.7249
634.8633, 272.8053
635.3455, 273.4020
635.8276, 275.2266
636.3097, 278.9684
636.7918, 283.3667
637.2739, 287.3096
637.7560, 290.4778
638.2382, 294.4746
638.7203, 299.7097
639.2024, 305.1848
639.6845, 308.9220
640.1666, 311.2575
640.6487, 314.8040
641.1309, 320.5235
641.6130, 327.6735
642.0951, 335.5636
642.5772, 344.0130
643.0594, 352.1872
643.5415, 359.1724
644.0236, 366.2887
644.5057, 374.1329
644.9879, 382.8153
645.4700, 392.6329
645.9521, 403.8905
646.4342, 416.2734
646.9163, 429.7809
647.3984, 444.6978
647.8806, 459.4779
648.3627, 473.7349
648.8448, 488.8307
649.3269, 506.3499
649.8090, 526.3107
650.2911, 545.9589
650.7733, 564.9847
651.2554, 585.3958
651.7375, 610.7645
652.2196, 639.6127
652.7017, 668.3538
653.1838, 695.1827
653.6660, 723.2275
654.1481, 754.7178
654.6302, 788.9882
655.1123, 825.3785
655.5944, 864.0085
656.0765, 903.9656
656.5587, 944.9503
657.0408, 986.8820
657.5229, 1030.468
658.0050, 1075.219
658.4871, 1121.234
658.9692, 1169.150
659.4514, 1218.594
659.9335, 1265.768
660.4156, 1310.487
660.8977, 1353.096
661.3798, 1394.635
661.8619, 1433.606
662.3441, 1467.770
662.8262, 1497.049
663.3083, 1519.436
663.7904, 1534.088
664.2725, 1540.656
664.7546, 1538.752
665.2368, 1528.214
665.7189, 1509.434
666.2010, 1479.822
666.6831, 1443.232
667.1652, 1403.864
667.6473, 1362.160
668.1295, 1317.391
668.6116, 1268.538
669.0937, 1216.770
669.5758, 1164.762
670.0579, 1112.172
670.5400, 1060.088
671.0222, 1008.095
671.5043, 957.5363
671.9864, 909.5989
672.4685, 864.4327
672.9506, 822.6779
673.4327, 785.7133
673.9149, 752.1301
674.3970, 720.5886
674.8791, 690.9397
675.3612, 663.4843
675.8433, 637.7333
676.3254, 614.2958
676.8076, 594.1309
677.2897, 577.8161
677.7718, 561.5107
678.2539, 544.4673
678.7360, 528.7449
679.2181, 515.7288
679.7003, 505.6288
680.1824, 497.5097
680.6645, 491.6894
681.1466, 486.6438
681.6287, 480.4980
682.1108, 473.7608
682.5930, 467.9395
683.0751, 463.1884
683.5572, 459.6856
684.0393, 458.5845
684.5214, 458.4688
685.0035, 457.3071
685.4857, 453.7081
685.9678, 449.8408
686.4499, 445.9743
686.9320, 442.2642
687.4141, 439.1194
687.8962, 437.6186
688.3784, 434.6209
688.8605, 429.1058
689.3426, 421.7525
689.8247, 414.8739
690.3068, 408.4395
690.7889, 401.8912
691.2711, 395.1933
691.7532, 388.0665
692.2353, 379.5521
692.7174, 369.9961
693.1995, 361.1006
693.6816, 354.5053
694.1638, 348.5357
694.6459, 341.9025
695.1280, 334.4607
695.6101, 327.5331
696.0922, 321.2872
696.5743, 315.8161
697.0565, 311.2425
697.5386, 307.8215
698.0207, 304.0507
698.5028, 299.8271
698.9849, 295.4774
699.4670, 290.9379
699.9492, 286.3421
700.4313, 283.4375
700.9135, 282.7224
701.3956, 282.1670
701.8777, 278.8610
702.3598, 274.3705
702.8419, 271.4999
703.3240, 271.7506
703.8062, 272.2339
704.2883, 271.5543
704.7704, 270.1498
705.2525, 268.6760
705.7346, 266.6202
706.2167, 265.3188
706.6989, 265.1524
707.1810, 265.7083
707.6631, 266.0570
708.1452, 266.1332
708.6273, 266.4036
709.1094, 267.1029
709.5916, 267.9980
710.0737, 268.6027
710.5558, 268.9265
711.0379, 269.0361
711.5200, 268.9052
712.0021, 268.6175
712.4843, 268.1560
712.9664, 267.5657
713.4485, 267.0804
713.9306, 266.8882
714.4127, 266.7268
714.8948, 266.6400
715.3770, 266.6390
715.8591, 265.8479
716.3412, 263.9449
716.8233, 261.8904
717.3054, 260.0488
717.7875, 258.4322
718.2697, 257.8498
718.7518, 258.3480
719.2339, 259.2108
719.7160, 260.8944
720.1981, 262.1566
720.6802, 260.4309
721.1624, 255.1585
721.6445, 250.0440
722.1266, 246.9325
722.6087, 245.1831
723.0908, 244.4060
723.5729, 245.2834
724.0551, 245.5921
724.5372, 244.7646
725.0193, 243.7694
725.5014, 243.7010
725.9835, 244.7739
726.4656, 245.5181
726.9478, 245.8424
727.4299, 245.6532
727.9120, 244.3103
728.3941, 242.2916
728.8762, 241.2754
729.3583, 242.0957
729.8405, 243.2471
730.3226, 243.1916
730.8047, 242.6775
731.2868, 242.9393
731.7689, 245.5236
732.2510, 247.5532
732.7332, 248.2528
733.2153, 248.0072
733.6974, 247.4792
734.1795, 246.5995
734.6616, 245.6177
735.1437, 244.5620
735.6259, 243.4856
736.1080, 242.5198
736.5901, 241.6641
737.0722, 240.9192
737.5543, 240.3139
738.0364, 239.7946
738.5186, 239.2560
739.0007, 238.7415
739.4828, 238.3913
739.9649, 238.6530
740.4470, 238.7226
740.9291, 238.2588
741.4113, 237.2519
741.8934, 235.9289
742.3755, 234.2294
742.8576, 232.2835
743.3397, 229.8072
743.8218, 227.0196
744.3040, 226.0623
744.7861, 226.9888
745.2682, 227.9458
745.7503, 227.5684
746.2324, 226.4508
746.7145, 225.2759
747.1967, 224.1205
747.6788, 223.6776
748.1609, 225.6727
748.6430, 227.4768
749.1251, 227.0894
749.6072, 223.7382
750.0894, 221.2425
750.5715, 219.8114
751.0536, 219.1552
751.5357, 219.3583
752.0178, 220.5492
752.4999, 221.0148
752.9821, 220.7097
753.4642, 219.9972
753.9463, 218.8454
754.4284, 217.6239
754.9105, 217.0570
755.3926, 217.2372
755.8748, 217.9976
756.3569, 219.9981
756.8390, 222.0726
757.3211, 223.1474
757.8032, 222.5442
758.2853, 222.0015
758.7675, 221.5712
759.2496, 221.2932
759.7318, 221.1505
760.2139, 221.1028
760.6960, 221.6456
761.1781, 222.9749
761.6602, 224.3372
762.1423, 224.8708
762.6245, 224.7196
763.1066, 224.0853
763.5887, 222.7910
764.0708, 221.8049
764.5529, 222.3170
765.0350, 223.3185
765.5172, 223.6124
765.9993, 222.5429
766.4814, 221.2157
766.9635, 219.2464
767.4456, 217.4031
767.9277, 216.8304
768.4099, 217.7321
768.8920, 218.4886
769.3741, 218.7976
769.8562, 218.9881
770.3383, 219.6167
770.8204, 220.5282
771.3026, 221.2847
771.7847, 221.6450
772.2668, 222.0185
772.7489, 223.3046
773.2310, 224.6300
773.7131, 224.6133
774.1953, 220.7902
774.6774, 218.4699
775.1595, 218.6454
775.6416, 220.3459
776.1237, 222.0566
776.6058, 223.8875
777.0880, 224.7752
777.5701, 224.1800
778.0522, 223.0319
778.5343, 222.9310
779.0164, 223.5772
779.4985, 224.1018
779.9807, 223.9836
780.4628, 223.8327
780.9449, 224.0689
781.4270, 224.5330
781.9091, 224.9006
782.3912, 224.8862
782.8734, 225.0679
783.3555, 225.6835
783.8376, 226.4722
784.3197, 226.7759
784.8018, 226.5755
785.2839, 226.1217
785.7661, 225.3638
786.2482, 224.5881
786.7303, 224.2728
787.2124, 224.3445
787.6945, 224.5845
788.1766, 224.9908
788.6588, 225.4415
789.1409, 226.3192
789.6230, 227.2105
790.1051, 226.8425
790.5872, 223.1670
791.0693, 221.3856
791.5515, 223.3183
792.0336, 227.4055
792.5157, 229.0342
792.9978, 228.1956
793.4799, 226.8573
793.9620, 225.2804
794.4442, 224.1364
794.9263, 224.9441
795.4084, 227.0286
795.8905, 228.5150
796.3726, 228.5337
796.8547, 227.8084
797.3369, 225.7846
797.8190, 223.1891
798.3011, 222.4490
798.7832, 224.5432
799.2653, 226.5831
799.7474, 227.8666
800.2296, 228.6407
800.7117, 229.7873
801.1938, 231.2162
801.6759, 231.9017
802.1580, 230.8489
802.6401, 229.4525
803.1223, 229.5767
803.6044, 230.6631
804.0865, 231.2498
804.5686, 230.4481
805.0507, 229.4610
805.5328, 228.4610
806.0150, 227.5749
806.4971, 227.1329
806.9792, 227.1905
807.4613, 227.5527
807.9434, 228.2806
808.4255, 229.1544
808.9077, 229.6372
809.3898, 229.8071
809.8719, 230.0301
810.3540, 230.6798
810.8361, 231.2127
811.3182, 231.1401
811.8004, 230.6216
812.2825, 230.0382
812.7646, 229.4401
813.2467, 228.8018
813.7288, 227.7404
814.2109, 226.7807
814.6931, 227.7328
815.1752, 230.9548
815.6573, 232.6838
816.1394, 231.1723
816.6215, 228.7278
817.1037, 229.7828
817.5858, 233.0682
818.0679, 235.2525
818.5500, 233.5214
819.0322, 231.8819
819.5143, 233.0779
819.9964, 235.6332
820.4785, 236.3037
820.9606, 233.1105
821.4427, 231.5519
821.9249, 233.0453
822.4070, 235.9810
822.8891, 237.0385
823.3712, 236.3574
823.8533, 235.3710
824.3354, 234.2177
824.8176, 233.4921
825.2997, 234.6758
825.7818, 236.5981
826.2639, 237.2284
826.7460, 233.9528
827.2281, 231.6804
827.7103, 231.8468
828.1924, 233.4599
828.6745, 235.5756
829.1566, 238.6191
829.6387, 240.2720
830.1208, 239.9401
830.6030, 238.6698
831.0851, 237.8896
831.5672, 237.4814
832.0493, 237.0986
832.5314, 236.5726
833.0135, 236.2673
833.4957, 236.7337
833.9778, 237.4356
834.4599, 237.7502
834.9420, 237.2062
835.4241, 236.7029
835.9063, 235.9745
836.3884, 235.6188
836.8705, 236.7434
837.3526, 239.2838
837.8347, 240.6928
838.3168, 240.5723
838.7990, 239.8488
839.2811, 238.9391
839.7632, 238.2698
840.2453, 238.6008
840.7274, 240.4718
841.2095, 241.9714
841.6917, 242.2765
842.1738, 242.0607
842.6559, 241.9159
843.1380, 242.0468
843.6201, 241.3085
844.1022, 239.3910
844.5844, 237.6724
845.0665, 237.5532
845.5486, 238.6470
846.0307, 240.1660
846.5128, 242.0630
846.9949, 243.3849
847.4771, 243.0845
847.9592, 242.2516
848.4413, 241.7364
848.9234, 241.7367
849.4055, 241.3775
849.8876, 240.0296
850.3698, 239.3047
850.8519, 240.4873
851.3340, 243.3717
851.8161, 245.3194
852.2982, 246.3313
852.7803, 246.8568
853.2625, 247.0951
853.7446, 247.0966
854.2267, 246.8019
854.7088, 246.2536
855.1909, 245.8868
855.6730, 245.6683
856.1552, 245.8799
856.6373, 246.7892
857.1194, 248.2725
857.6015, 249.3913
858.0836, 250.1752
858.5657, 250.4441
859.0479, 249.8911
859.5300, 248.9325
860.0121, 248.0219
860.4942, 247.3421
860.9763, 247.5628
861.4584, 250.2509
861.9406, 252.6504
862.4227, 253.2475
862.9048, 252.4719
863.3869, 251.9075
863.8690, 251.2799
864.3511, 251.6772
864.8333, 253.8472
865.3154, 256.5589
865.7975, 256.9125
866.2796, 255.4433
866.7617, 254.5379
867.2438, 255.3336
867.7260, 256.4261
868.2081, 256.6687
868.6902, 256.5305
869.1723, 256.7515
869.6544, 257.9697
870.1365, 258.8765
870.6187, 259.3844
871.1008, 259.5810
871.5829, 259.4812
872.0650, 259.1066
872.5471, 258.6719
873.0292, 258.0447
873.5114, 258.2383
873.9935, 261.2977
874.4756, 265.3457
874.9577, 267.9381
875.4399, 268.2839
875.9220, 268.2554
876.4041, 267.4767
876.8862, 267.1832
877.3683, 268.2448
877.8505, 270.8156
878.3326, 273.9406
878.8147, 277.7459
879.2968, 281.0988
879.7789, 283.0579
880.2610, 283.8478
880.7432, 283.1691
881.2253, 281.1422
881.7074, 280.5331
882.1895, 284.5326
882.6716, 288.5927
883.1537, 289.9375
883.6359, 288.7262
884.1180, 288.2861
884.6001, 288.7046
885.0822, 289.5506
885.5643, 290.9681
886.0464, 292.4731
886.5286, 292.6736
887.0107, 291.8458
887.4928, 291.1202
887.9749, 290.9588
888.4570, 291.2020
888.9391, 292.2931
889.4213, 293.7383
889.9034, 293.9928
890.3855, 292.6440
890.8676, 290.9767
891.3497, 289.0715
891.8318, 287.2189
892.3140, 285.6622
892.7961, 284.5337
893.2782, 284.5020
893.7603, 286.2310
894.2424, 288.0095
894.7245, 288.3626
895.2067, 288.1057
895.6888, 288.2455
896.1709, 289.3762
896.6530, 290.2841
897.1351, 291.2096
897.6172, 291.5218
898.0994, 289.8317
898.5815, 286.6167
899.0636, 285.7476
899.5457, 287.6986
900.0278, 290.0916
900.5099, 291.7333
900.9921, 292.4249
901.4742, 291.6834
901.9563, 289.2290
902.4384, 287.3078
902.9205, 286.0319
903.4026, 285.5623
903.8848, 286.2767
904.3669, 287.9589
904.8490, 288.7954
905.3311, 288.8019
905.8132, 288.5772
906.2953, 288.1556
906.7775, 287.9306
907.2596, 288.4712
907.7417, 289.5652
908.2238, 290.4739
908.7059, 290.8784
909.1880, 291.2202
909.6702, 291.7272
910.1523, 292.1484
910.6344, 291.6210
911.1165, 290.1781
911.5986, 289.3469
912.0807, 289.5457
912.5629, 290.5156
913.0450, 292.9839
913.5271, 295.6813
914.0092, 296.6395
914.4913, 294.0458
914.9734, 291.9296
915.4556, 290.8301
915.9377, 290.4899
916.4198, 290.8505
916.9019, 291.9598
917.3840, 292.8526
917.8661, 293.4486
918.3483, 294.1540
918.8304, 295.4122
919.3125, 296.9607
919.7946, 298.6513
920.2767, 300.4573
920.7589, 301.7259
921.2410, 301.7608
921.7231, 301.7126
922.2052, 301.9418
922.6873, 302.4645
923.1694, 303.7677
923.6516, 305.8853
924.1337, 307.1261
924.6158, 305.7831
925.0979, 303.8403
925.5800, 304.0054
926.0621, 305.6764
926.5443, 307.3586
927.0264, 308.6761
927.5085, 309.7748
927.9906, 310.7110
928.4727, 311.4677
928.9548, 311.7487
929.4370, 311.5002
929.9191, 312.4342
930.4012, 315.0308
930.8833, 318.0363
931.3654, 320.1856
931.8475, 321.7964
932.3297, 323.4025
932.8118, 325.2505
933.2939, 326.4760
933.7761, 325.9850
934.2582, 325.7072
934.7403, 327.0235
935.2224, 330.0024
935.7045, 331.5195
936.1866, 331.5229
936.6688, 331.8163
937.1509, 333.9019
937.6330, 336.8072
938.1151, 340.0072
938.5972, 343.2140
939.0793, 345.0475
939.5615, 343.2634
940.0436, 342.3588
940.5257, 343.7855
941.0078, 346.6332
941.4899, 348.1599
941.9720, 348.4503
942.4542, 349.8399
942.9363, 353.3226
943.4184, 357.3748
943.9005, 360.7142
944.3826, 363.4154
944.8647, 365.6171
945.3469, 366.7868
945.8290, 368.4763
946.3111, 370.7880
946.7932, 373.6285
947.2753, 377.1414
947.7574, 381.3086
948.2396, 384.7950
948.7217, 387.5703
949.2038, 390.1388
949.6859, 392.3308
950.1680, 394.9228
950.6501, 398.9536
951.1323, 404.3612
951.6144, 409.1377
952.0965, 412.7260
952.5786, 416.1704
953.0607, 419.8210
953.5428, 423.5131
954.0250, 426.5167
954.5071, 429.0047
954.9892, 432.0522
955.4713, 436.2675
955.9534, 440.7701
956.4355, 444.8232
956.9177, 448.7543
957.3998, 453.1098
957.8819, 458.0589
958.3640, 463.2609
958.8461, 468.7944
959.3282, 474.4617
959.8104, 479.8543
960.2925, 485.1290
960.7746, 490.7775
961.2567, 496.8594
961.7388, 502.7417
962.2209, 507.8555
962.7031, 512.8628
963.1852, 518.0652
963.6673, 523.4815
964.1494, 529.3204
964.6315, 535.4449
965.1136, 542.3287
965.5958, 550.5146
966.0779, 559.1727
966.5600, 566.4633
967.0421, 572.8776
967.5242, 579.5433
968.0063, 587.1199
968.4885, 594.8357
968.9706, 601.5751
969.4527, 608.8586
969.9348, 619.1211
970.4169, 633.4598
970.8990, 644.4599
971.3812, 651.0076
971.8633, 657.9305
972.3454, 670.8378
972.8275, 686.6188
973.3096, 700.8951
973.7917, 713.1975
974.2739, 725.5938
974.7560, 738.3835
975.2381, 751.8525
975.7202, 766.2747
976.2023, 781.4995
976.6844, 797.3855
977.1666, 814.0384
977.6487, 829.6083
978.1308, 842.5963
978.6129, 855.0892
979.0950, 870.1596
979.5771, 886.0942
980.0593, 900.1746
980.5414, 910.7444
981.0235, 920.7238
981.5056, 930.5541
981.9877, 939.5654
982.4698, 947.2088
982.9520, 953.5494
983.4341, 958.8320
983.9162, 963.0771
984.3983, 966.9918
984.8804, 971.4373
985.3625, 975.4520
985.8447, 978.4940
986.3268, 980.4350
986.8089, 980.8854
987.2910, 979.5424
987.7731, 977.5312
988.2552, 975.0035
988.7374, 972.3144
989.2195, 969.9327
989.7016, 968.0204
990.1837, 967.1622
990.6658, 968.4256
991.1479, 969.0419
991.6301, 967.2783
992.1122, 964.6762
992.5944, 962.4933
993.0765, 960.5092
993.5586, 960.2082
994.0407, 961.5788
994.5228, 964.7931
995.0049, 971.4553
995.4871, 979.1552
995.9692, 984.4294
996.4513, 987.5643
996.9334, 991.4244
997.4155, 997.3771
997.8976, 1003.571
998.3798, 1009.427
998.8619, 1015.321
999.3440, 1022.664
999.8261, 1031.274
1000.308, 1039.048
1000.790, 1045.262
1001.272, 1051.097
1001.755, 1058.147
1002.237, 1065.089
1002.719, 1070.361
1003.201, 1073.409
1003.683, 1076.201
1004.165, 1079.262
1004.647, 1080.830
1005.129, 1079.632
1005.612, 1077.320
1006.094, 1071.856
1006.576, 1066.590
1007.058, 1059.153
1007.540, 1049.067
1008.022, 1036.668
1008.504, 1020.383
1008.986, 1002.349
1009.468, 985.5999
1009.951, 970.2100
1010.433, 956.5469
1010.915, 944.9417
1011.397, 933.0493
1011.879, 917.8901
1012.361, 901.2263
1012.843, 884.7696
1013.325, 868.7205
1013.807, 854.2173
1014.290, 841.9899
1014.772, 830.3895
1015.254, 818.4022
1015.736, 806.7205
1016.218, 798.2094
1016.700, 792.4639
1017.182, 787.1690
1017.664, 781.1923
1018.147, 775.3673
1018.629, 769.6577
1019.111, 764.6937
1019.593, 761.6160
1020.075, 761.9312
1020.557, 759.4518
1021.039, 753.6397
1021.521, 746.1663
1022.003, 737.9977
1022.486, 729.4916
1022.968, 721.4405
1023.450, 713.8202
1023.932, 706.1822
1024.414, 698.9426
1024.896, 690.9412
1025.378, 681.8701
1025.860, 671.8124
1026.343, 660.5114
1026.825, 648.2648
1027.307, 636.8729
1027.789, 627.1811
1028.271, 617.4006
1028.753, 605.5467
1029.235, 592.8927
1029.717, 581.0021
1030.199, 570.1517
1030.682, 559.3128
1031.164, 548.0797
1031.646, 537.7615
1032.128, 529.6718
1032.610, 522.7695
1033.092, 514.1993
1033.574, 504.4341
1034.056, 495.4902
1034.539, 488.3942
1035.021, 482.1673
1035.503, 477.1850
1035.985, 472.4734
1036.467, 466.6397
1036.949, 459.7111
1037.431, 452.0442
1037.913, 443.5766
1038.396, 435.8488
1038.878, 430.4624
1039.360, 426.2335
1039.842, 421.9449
1040.324, 417.5350
1040.806, 413.9699
1041.288, 411.5682
1041.770, 409.2575
1042.252, 406.6823
1042.734, 403.9400
1043.217, 400.9943
1043.699, 398.0125
1044.181, 395.4637
1044.663, 393.7052
1045.145, 391.8011
1045.627, 389.5594
1046.109, 386.8274
1046.591, 383.2008
1047.074, 378.5850
1047.556, 375.5724
1048.038, 374.1428
1048.520, 373.7877
1049.002, 375.0365
1049.484, 376.4429
1049.966, 377.0430
1050.448, 376.7760
1050.931, 375.4161
1051.413, 372.2270
1051.895, 369.7116
1052.377, 368.2775
1052.859, 367.2480
1053.341, 365.7802
1053.823, 364.0529
1054.305, 362.1675
1054.787, 360.1350
1055.270, 359.1923
1055.752, 361.1949
1056.234, 363.0035
1056.716, 363.2349
1057.198, 362.2494
1057.680, 361.5925
1058.162, 361.1866
1058.644, 359.5627
1059.126, 355.4561
1059.609, 352.0047
1060.091, 352.9326
1060.573, 355.5832
1061.055, 356.9404
1061.537, 356.3430
1062.019, 355.9391
1062.501, 355.7268
1062.983, 355.7344
1063.466, 356.4082
1063.948, 357.0952
1064.430, 356.1181
1064.912, 354.0827
1065.394, 352.7949
1065.876, 353.7425
1066.358, 354.4223
1066.840, 354.1158
1067.323, 353.7044
1067.805, 354.7984
1068.287, 356.9810
1068.769, 356.7466
1069.251, 353.8312
1069.733, 351.2832
1070.215, 352.0038
1070.697, 353.1092
1071.179, 352.3783
1071.661, 350.3294
1072.144, 349.3255
1072.626, 349.4282
1073.108, 350.3172
1073.590, 352.1038
1074.072, 354.0541
1074.554, 355.9330
1075.036, 357.0603
1075.518, 356.1459
1076.001, 352.2367
1076.483, 349.8624
1076.965, 349.9220
1077.447, 350.3589
1077.929, 350.0703
1078.411, 349.4356
1078.893, 349.6475
1079.375, 350.4739
1079.858, 351.1713
1080.340, 351.5588
1080.822, 351.5840
1081.304, 350.7307
1081.786, 349.8603
1082.268, 349.7557
1082.750, 350.4227
1083.232, 351.6488
1083.714, 353.4216
1084.197, 354.4883
1084.679, 352.6398
1085.161, 350.9611
1085.643, 352.7082
1086.125, 356.5507
1086.607, 357.8551
1087.089, 355.5861
1087.571, 354.3133
1088.054, 354.9748
1088.536, 355.7582
1089.018, 353.5137
1089.500, 350.5252
1089.982, 350.5698
1090.464, 354.0915
1090.946, 356.8495
1091.428, 358.1180
1091.911, 358.2141
1092.393, 356.6210
1092.875, 354.5450
1093.357, 355.5653
1093.839, 358.5754
1094.321, 360.0197
1094.803, 358.5017
1095.285, 356.6638
1095.767, 355.2064
1096.250, 354.3923
1096.732, 354.5266
1097.214, 355.5510
1097.696, 356.4041
1098.178, 357.0709
1098.660, 357.1847
1099.142, 356.2254
1099.624, 355.0458
1100.106, 353.6071
1100.589, 352.6609
1101.071, 353.6662
1101.553, 357.9881
1102.035, 359.4615
1102.517, 357.5757
1102.999, 355.0948
1103.481, 353.9335
1103.963, 353.8180
1104.446, 354.9409
1104.928, 356.8970
1105.410, 358.1140
1105.892, 357.6649
1106.374, 357.4271
1106.856, 357.7289
1107.338, 358.1427
1107.820, 357.9128
1108.302, 357.3802
1108.785, 357.4163
1109.267, 358.1209
1109.749, 358.9193
1110.231, 359.7989
1110.713, 360.4751
1111.195, 360.9850
1111.677, 361.1642
1112.159, 360.1142
1112.641, 358.1532
1113.124, 357.4377
1113.606, 358.8159
1114.088, 360.1712
1114.570, 360.2813
1115.052, 359.6025
1115.534, 358.1422
1116.016, 356.0191
1116.498, 355.5023
1116.981, 356.6468
1117.463, 357.5813
1117.945, 357.4415
1118.427, 356.8080
1118.909, 355.7821
1119.391, 354.8300
1119.873, 354.7746
1120.355, 356.3914
1120.838, 356.5571
1121.320, 354.9557
1121.802, 353.2469
1122.284, 352.6112
1122.766, 352.5671
1123.248, 352.3951
1123.730, 352.1902
1124.212, 352.2136
1124.694, 352.2522
1125.177, 353.1899
1125.659, 355.6922
1126.141, 357.9152
1126.623, 357.4913
1127.105, 355.3484
1127.587, 353.6579
1128.069, 352.5809
1128.551, 352.3090
1129.033, 353.5754
1129.516, 354.8731
1129.998, 355.8506
1130.480, 356.5425
1130.962, 356.9919
1131.444, 357.2124
1131.926, 357.2618
1132.408, 357.1395
1132.890, 357.0483
1133.373, 357.3950
1133.855, 357.5211
1134.337, 356.9191
1134.819, 355.8482
1135.301, 355.2323
1135.783, 355.0607
1136.265, 354.7597
1136.747, 354.1471
1137.229, 353.5151
1137.712, 352.4088
1138.194, 351.9044
1138.676, 353.5055
1139.158, 357.1773
1139.640, 359.3648
1140.122, 359.9696
1140.604, 360.2363
1141.086, 360.9333
1141.569, 361.0450
1142.051, 357.8730
1142.533, 354.1400
1143.015, 353.9397
1143.497, 359.5867
1143.979, 362.5687
1144.461, 362.3973
1144.943, 361.3556
1145.426, 360.3485
1145.908, 359.7156
1146.390, 360.5363
1146.872, 362.0825
1147.354, 362.8408
1147.836, 361.4614
1148.318, 360.7492
1148.800, 361.1129
1149.282, 361.3514
1149.765, 360.0018
1150.247, 357.9589
1150.729, 357.2293
1151.211, 357.6651
1151.693, 358.4214
1152.175, 358.9809
1152.657, 360.2526
1153.139, 362.8205
1153.621, 365.4285
1154.104, 366.5368
1154.586, 366.4520
1155.068, 365.9517
1155.550, 365.1584
1156.032, 364.7330
1156.514, 365.3941
1156.996, 365.9971
1157.478, 366.3105
1157.961, 366.2421
1158.443, 365.1887
1158.925, 363.4862
1159.407, 363.2101
1159.889, 364.6791
1160.371, 366.3896
1160.853, 367.7966
1161.335, 368.7903
1161.818, 369.1610
1162.300, 369.1628
1162.782, 369.3924
1163.264, 369.8730
1163.746, 371.2587
1164.228, 374.0368
1164.710, 375.6230
1165.192, 372.4608
1165.674, 368.8555
1166.156, 368.3192
1166.639, 370.2945
1167.121, 370.9889
1167.603, 370.4168
1168.085, 370.9404
1168.567, 373.9348
1169.049, 376.4022
1169.531, 374.6999
1170.013, 371.9190
1170.496, 371.3443
1170.978, 373.0752
1171.460, 374.3122
1171.942, 375.0617
1172.424, 375.2047
1172.906, 374.3040
1173.388, 373.4354
1173.870, 373.8555
1174.353, 374.8751
1174.835, 375.5142
1175.317, 375.5289
1175.799, 376.5580
1176.281, 378.8715
1176.763, 380.0857
1177.245, 378.0071
1177.727, 375.0809
1178.209, 373.6327
1178.692, 373.4349
1179.174, 374.2059
1179.656, 376.1899
1180.138, 378.4627
1180.620, 381.2873
1181.102, 383.1246
1181.584, 381.9210
1182.066, 379.8216
1182.548, 379.6071
1183.031, 380.6455
1183.513, 381.4250
1183.995, 381.6308
1184.477, 381.6881
1184.959, 381.5403
1185.441, 381.5479
1185.923, 382.0614
1186.405, 382.9011
1186.888, 384.2889
1187.370, 385.8289
1187.852, 386.0188
1188.334, 383.2753
1188.816, 382.0665
1189.298, 383.0155
1189.780, 384.7950
1190.262, 386.6056
1190.745, 388.0379
1191.227, 388.0214
1191.709, 386.8827
1192.191, 386.6514
1192.673, 388.6835
1193.155, 389.6035
1193.637, 388.5913
1194.119, 387.3766
1194.601, 388.5145
1195.084, 390.5806
1195.566, 390.8655
1196.048, 389.4434
1196.530, 389.4120
1197.012, 392.4750
1197.494, 394.6917
1197.976, 395.2414
1198.458, 394.8654
1198.941, 394.2194
1199.423, 393.5338
1199.905, 393.0576
1200.387, 392.8337
1200.869, 393.6172
1201.351, 396.8515
1201.833, 398.2585
1202.315, 396.2301
1202.797, 393.0639
1203.280, 392.5581
1203.762, 393.5087
1204.244, 393.4855
1204.726, 394.4028
1205.208, 396.3734
1205.690, 396.5993
1206.172, 400.0538
1206.654, 401.6124
1207.136, 401.6537
1207.619, 399.9247
1208.101, 397.5238
1208.583, 396.4862
1209.065, 397.3452
1209.547, 398.0930
1210.029, 398.2175
1210.511, 398.6129
1210.993, 399.5778
1211.476, 401.0298
1211.958, 403.3713
1212.440, 405.9260
1212.922, 407.3222
1213.404, 407.0659
1213.886, 406.9700
1214.368, 407.5782
1214.850, 407.4965
1215.333, 405.5586
1215.815, 403.4893
1216.297, 405.4254
1216.779, 409.2166
1217.261, 410.7336
1217.743, 408.2359
1218.225, 407.1293
1218.707, 408.6498
1219.189, 409.3863
1219.672, 407.1452
1220.154, 403.9564
1220.636, 403.3545
1221.118, 404.5884
1221.600, 406.5421
1222.082, 409.5611
1222.564, 411.1073
1223.046, 410.6419
1223.528, 409.9962
1224.011, 410.0270
1224.493, 410.5491
1224.975, 411.5402
1225.457, 412.6985
1225.939, 413.5360
1226.421, 413.9735
1226.903, 413.8462
1227.385, 413.0063
1227.868, 412.1149
1228.350, 411.3650
1228.832, 410.9684
1229.314, 411.4391
1229.796, 412.4301
1230.278, 413.3839
1230.760, 414.2875
1231.242, 414.7393
1231.724, 414.5489
1232.207, 414.8598
1232.689, 417.2031
1233.171, 419.5060
1233.653, 418.3496
1234.135, 415.5604
1234.617, 414.3468
1235.099, 415.8594
1235.581, 416.0805
1236.063, 414.7131
1236.546, 414.1794
1237.028, 417.3687
1237.510, 420.6946
1237.992, 419.3653
1238.474, 415.9761
1238.956, 414.9613
1239.438, 417.0788
1239.920, 419.4300
1240.403, 422.0628
1240.885, 423.7402
1241.367, 422.5345
1241.849, 421.1647
1242.331, 422.3292
1242.813, 424.6970
1243.295, 426.2677
1243.777, 426.8859
1244.260, 427.1888
1244.742, 427.1773
1245.224, 427.3540
1245.706, 428.3729
1246.188, 429.3263
1246.670, 429.8169
1247.152, 429.7202
1247.634, 428.5957
1248.116, 426.2024
1248.599, 426.7673
1249.081, 430.0736
1249.563, 432.6256
1250.045, 430.7500
1250.527, 429.3840
1251.009, 432.5194
1251.491, 436.4681
1251.973, 437.2024
1252.455, 434.8872
1252.938, 433.5599
1253.420, 433.1723
1253.902, 432.9791
1254.384, 432.4555
1254.866, 432.2031
1255.348, 432.2213
1255.830, 432.8317
1256.313, 434.7824
1256.795, 437.7078
1257.277, 438.9718
1257.759, 438.9170
1258.241, 439.3440
1258.723, 442.9153
1259.205, 444.2402
1259.687, 441.0131
1260.169, 437.4285
1260.651, 437.3352
1261.134, 439.7956
1261.616, 442.4820
1262.098, 445.0763
1262.580, 446.7065
1263.062, 446.6270
1263.544, 445.9515
1264.026, 444.3067
1264.508, 443.2281
1264.991, 444.6878
1265.473, 447.2306
1265.955, 447.8474
1266.437, 447.2167
1266.919, 447.1920
1267.401, 448.8318
1267.883, 450.0853
1268.365, 450.9413
1268.848, 451.3823
1269.330, 450.9883
1269.812, 450.4880
1270.294, 451.0147
1270.776, 452.1174
1271.258, 452.7330
1271.740, 452.4644
1272.222, 452.7508
1272.704, 453.6546
1273.187, 454.6420
1273.669, 455.5675
1274.151, 456.1838
1274.633, 455.9075
1275.115, 455.3383
1275.597, 455.4196
1276.079, 456.2299
1276.561, 457.5398
1277.043, 459.3070
1277.526, 460.2867
1278.008, 458.7824
1278.490, 457.3465
1278.972, 458.1063
1279.454, 459.2428
1279.936, 458.4567
1280.418, 455.8936
1280.900, 455.8802
1281.383, 458.1269
1281.865, 460.7684
1282.347, 464.0869
1282.829, 465.9081
1283.311, 464.4678
1283.793, 462.5108
1284.275, 462.1695
1284.757, 462.9976
1285.240, 463.2781
1285.722, 463.0995
1286.204, 462.6890
1286.686, 460.9799
1287.168, 461.4448
1287.650, 465.3549
1288.132, 469.1361
1288.614, 470.1421
1289.096, 469.4627
1289.578, 468.7355
1290.061, 468.1869
1290.543, 468.3043
1291.025, 469.4685
1291.507, 470.8524
1291.989, 472.6224
1292.471, 473.7600
1292.953, 473.2349
1293.435, 472.3411
1293.918, 472.9410
1294.400, 474.0211
1294.882, 473.6991
1295.364, 471.4977
1295.846, 472.5400
1296.328, 476.9201
1296.810, 479.5909
1297.292, 476.9383
1297.775, 473.9508
1298.257, 474.8427
1298.739, 477.0390
1299.221, 478.2450
1299.703, 478.4707
1300.185, 477.2271
1300.667, 474.9140
1301.149, 473.8771
1301.631, 475.0807
1302.114, 477.2654
1302.596, 480.7014
##END=



