##NAMES=Namuwite
##RRUFFID=R130173
##IDEAL CHEMISTRY=Zn^2+^_4_S^6+^O_4_(OH)_6_&#183;4H_2_O
##LOCALITY=Trentini mine, Schio, Vincenza, Italy
##OWNER=RRUFF
##SOURCE=Donald Doell (small piece), Rock Currier (large piece)
##DESCRIPTION=Very pale-green platy crystals, associated with colorless gypsum and green ramsbeckite.
##STATUS=The identification of this mineral has been confirmed only by single crystal X-ray diffraction.
##URL=rruff.info/R130173
8.936163e+001, 0.000000e+000
8.984375e+001, 1.328295e+002
9.032587e+001, 1.350107e+002
9.080798e+001, 1.354227e+002
9.129010e+001, 1.333569e+002
9.177222e+001, 1.303447e+002
9.225433e+001, 1.281530e+002
9.273645e+001, 1.267272e+002
9.321857e+001, 1.255983e+002
9.370068e+001, 1.245500e+002
9.418280e+001, 1.235261e+002
9.466492e+001, 1.223541e+002
9.514703e+001, 1.209299e+002
9.562915e+001, 1.193319e+002
9.611127e+001, 1.176269e+002
9.659338e+001, 1.157666e+002
9.707550e+001, 1.141010e+002
9.755762e+001, 1.132516e+002
9.803973e+001, 1.132343e+002
9.852185e+001, 1.129924e+002
9.900397e+001, 1.118597e+002
9.948608e+001, 1.097996e+002
9.996820e+001, 1.084784e+002
1.004503e+002, 1.081782e+002
1.009324e+002, 1.082814e+002
1.014146e+002, 1.073579e+002
1.018967e+002, 1.050218e+002
1.023788e+002, 1.027380e+002
1.028609e+002, 1.012883e+002
1.033430e+002, 1.009175e+002
1.038251e+002, 1.006678e+002
1.043073e+002, 1.006170e+002
1.047894e+002, 1.006620e+002
1.052715e+002, 1.002397e+002
1.057536e+002, 9.911456e+001
1.062357e+002, 9.777866e+001
1.067178e+002, 9.653246e+001
1.072000e+002, 9.527005e+001
1.076821e+002, 9.427751e+001
1.081642e+002, 9.380888e+001
1.086463e+002, 9.394496e+001
1.091284e+002, 9.347835e+001
1.096105e+002, 9.182822e+001
1.100927e+002, 8.982375e+001
1.105748e+002, 8.825377e+001
1.110569e+002, 8.743609e+001
1.115390e+002, 8.676563e+001
1.120211e+002, 8.614921e+001
1.125032e+002, 8.560545e+001
1.129854e+002, 8.502299e+001
1.134675e+002, 8.442983e+001
1.139496e+002, 8.378456e+001
1.144317e+002, 8.301731e+001
1.149138e+002, 8.185288e+001
1.153959e+002, 8.076101e+001
1.158781e+002, 8.004337e+001
1.163602e+002, 8.006928e+001
1.168423e+002, 7.976767e+001
1.173244e+002, 7.835354e+001
1.178065e+002, 7.627073e+001
1.182886e+002, 7.464877e+001
1.187708e+002, 7.444555e+001
1.192529e+002, 7.464688e+001
1.197350e+002, 7.444017e+001
1.202171e+002, 7.327444e+001
1.206992e+002, 7.206072e+001
1.211813e+002, 7.148402e+001
1.216635e+002, 7.143386e+001
1.221456e+002, 7.131754e+001
1.226277e+002, 7.070654e+001
1.231098e+002, 6.982244e+001
1.235919e+002, 6.895693e+001
1.240740e+002, 6.821689e+001
1.245562e+002, 6.753600e+001
1.250383e+002, 6.684892e+001
1.255204e+002, 6.615274e+001
1.260025e+002, 6.549043e+001
1.264846e+002, 6.489974e+001
1.269667e+002, 6.437189e+001
1.274489e+002, 6.388481e+001
1.279310e+002, 6.339170e+001
1.284131e+002, 6.293895e+001
1.288952e+002, 6.265458e+001
1.293773e+002, 6.256811e+001
1.298594e+002, 6.251925e+001
1.303416e+002, 6.238759e+001
1.308237e+002, 6.215708e+001
1.313058e+002, 6.170184e+001
1.317879e+002, 6.071608e+001
1.322700e+002, 5.936604e+001
1.327521e+002, 5.855439e+001
1.332343e+002, 5.850299e+001
1.337164e+002, 5.873867e+001
1.341985e+002, 5.830086e+001
1.346806e+002, 5.714183e+001
1.351627e+002, 5.593631e+001
1.356448e+002, 5.510540e+001
1.361270e+002, 5.464734e+001
1.366091e+002, 5.438568e+001
1.370912e+002, 5.441376e+001
1.375733e+002, 5.457100e+001
1.380554e+002, 5.421475e+001
1.385375e+002, 5.317144e+001
1.390197e+002, 5.211676e+001
1.395018e+002, 5.163226e+001
1.399839e+002, 5.187976e+001
1.404660e+002, 5.199512e+001
1.409481e+002, 5.175680e+001
1.414302e+002, 5.121086e+001
1.419124e+002, 5.102881e+001
1.423945e+002, 5.149001e+001
1.428766e+002, 5.193190e+001
1.433587e+002, 5.163020e+001
1.438408e+002, 5.019010e+001
1.443229e+002, 4.880631e+001
1.448051e+002, 4.765916e+001
1.452872e+002, 4.670164e+001
1.457693e+002, 4.631085e+001
1.462514e+002, 4.691273e+001
1.467335e+002, 4.780887e+001
1.472156e+002, 4.808760e+001
1.476978e+002, 4.718181e+001
1.481799e+002, 4.635754e+001
1.486620e+002, 4.600977e+001
1.491441e+002, 4.649786e+001
1.496262e+002, 4.648494e+001
1.501083e+002, 4.551830e+001
1.505905e+002, 4.412506e+001
1.510726e+002, 4.322624e+001
1.515547e+002, 4.338879e+001
1.520368e+002, 4.356315e+001
1.525189e+002, 4.339150e+001
1.530010e+002, 4.245248e+001
1.534832e+002, 4.189303e+001
1.539653e+002, 4.218600e+001
1.544474e+002, 4.293125e+001
1.549295e+002, 4.316821e+001
1.554116e+002, 4.221488e+001
1.558937e+002, 4.113498e+001
1.563759e+002, 4.041979e+001
1.568580e+002, 4.038673e+001
1.573401e+002, 4.038437e+001
1.578222e+002, 4.029981e+001
1.583043e+002, 4.015162e+001
1.587864e+002, 4.000804e+001
1.592686e+002, 4.004621e+001
1.597507e+002, 4.000241e+001
1.602328e+002, 3.970410e+001
1.607149e+002, 3.868873e+001
1.611970e+002, 3.783842e+001
1.616791e+002, 3.757025e+001
1.621613e+002, 3.779668e+001
1.626434e+002, 3.791254e+001
1.631255e+002, 3.746520e+001
1.636076e+002, 3.688818e+001
1.640897e+002, 3.656767e+001
1.645718e+002, 3.710896e+001
1.650540e+002, 3.753827e+001
1.655361e+002, 3.711052e+001
1.660182e+002, 3.586933e+001
1.665003e+002, 3.499118e+001
1.669824e+002, 3.556638e+001
1.674645e+002, 3.674275e+001
1.679467e+002, 3.746058e+001
1.684288e+002, 3.662433e+001
1.689109e+002, 3.566758e+001
1.693930e+002, 3.582867e+001
1.698751e+002, 3.719977e+001
1.703572e+002, 3.842181e+001
1.708394e+002, 3.845587e+001
1.713215e+002, 3.772651e+001
1.718036e+002, 3.695519e+001
1.722857e+002, 3.617839e+001
1.727678e+002, 3.564927e+001
1.732499e+002, 3.568614e+001
1.737321e+002, 3.635442e+001
1.742142e+002, 3.726632e+001
1.746963e+002, 3.838611e+001
1.751784e+002, 3.953685e+001
1.756605e+002, 4.030198e+001
1.761426e+002, 4.019210e+001
1.766248e+002, 3.965823e+001
1.771069e+002, 3.928681e+001
1.775890e+002, 3.913311e+001
1.780711e+002, 3.912468e+001
1.785532e+002, 3.914385e+001
1.790353e+002, 3.922810e+001
1.795175e+002, 3.950973e+001
1.799996e+002, 4.029193e+001
1.804817e+002, 4.129106e+001
1.809638e+002, 4.188557e+001
1.814459e+002, 4.187716e+001
1.819280e+002, 4.179537e+001
1.824102e+002, 4.250948e+001
1.828923e+002, 4.388405e+001
1.833744e+002, 4.514686e+001
1.838565e+002, 4.564045e+001
1.843386e+002, 4.561918e+001
1.848207e+002, 4.580915e+001
1.853029e+002, 4.634976e+001
1.857850e+002, 4.706639e+001
1.862671e+002, 4.770761e+001
1.867492e+002, 4.827271e+001
1.872313e+002, 4.880957e+001
1.877134e+002, 4.940754e+001
1.881956e+002, 5.002910e+001
1.886777e+002, 5.042325e+001
1.891598e+002, 5.045142e+001
1.896419e+002, 5.035503e+001
1.901240e+002, 5.067956e+001
1.906061e+002, 5.144416e+001
1.910883e+002, 5.233832e+001
1.915704e+002, 5.315500e+001
1.920525e+002, 5.390805e+001
1.925346e+002, 5.467147e+001
1.930167e+002, 5.548235e+001
1.934988e+002, 5.625527e+001
1.939810e+002, 5.663689e+001
1.944631e+002, 5.656108e+001
1.949452e+002, 5.643546e+001
1.954273e+002, 5.629190e+001
1.959094e+002, 5.613169e+001
1.963915e+002, 5.615995e+001
1.968737e+002, 5.636071e+001
1.973558e+002, 5.678231e+001
1.978379e+002, 5.781490e+001
1.983200e+002, 5.960787e+001
1.988021e+002, 6.130692e+001
1.992842e+002, 6.195514e+001
1.997664e+002, 6.149538e+001
2.002485e+002, 6.141175e+001
2.007306e+002, 6.222099e+001
2.012127e+002, 6.366061e+001
2.016948e+002, 6.414402e+001
2.021769e+002, 6.346061e+001
2.026591e+002, 6.252229e+001
2.031412e+002, 6.222709e+001
2.036233e+002, 6.265054e+001
2.041054e+002, 6.306802e+001
2.045875e+002, 6.327644e+001
2.050696e+002, 6.331861e+001
2.055518e+002, 6.363839e+001
2.060339e+002, 6.433064e+001
2.065160e+002, 6.507963e+001
2.069981e+002, 6.556263e+001
2.074802e+002, 6.574507e+001
2.079623e+002, 6.581535e+001
2.084445e+002, 6.580801e+001
2.089266e+002, 6.572332e+001
2.094087e+002, 6.553865e+001
2.098908e+002, 6.516988e+001
2.103729e+002, 6.484622e+001
2.108550e+002, 6.486301e+001
2.113372e+002, 6.532578e+001
2.118193e+002, 6.576493e+001
2.123014e+002, 6.616850e+001
2.127835e+002, 6.653816e+001
2.132656e+002, 6.624865e+001
2.137477e+002, 6.497179e+001
2.142299e+002, 6.349849e+001
2.147120e+002, 6.284781e+001
2.151941e+002, 6.333106e+001
2.156762e+002, 6.371993e+001
2.161583e+002, 6.357842e+001
2.166404e+002, 6.284679e+001
2.171226e+002, 6.280605e+001
2.176047e+002, 6.382488e+001
2.180868e+002, 6.509312e+001
2.185689e+002, 6.558321e+001
2.190510e+002, 6.495345e+001
2.195331e+002, 6.435677e+001
2.200153e+002, 6.408344e+001
2.204974e+002, 6.416287e+001
2.209795e+002, 6.420420e+001
2.214616e+002, 6.407953e+001
2.219437e+002, 6.404929e+001
2.224258e+002, 6.451735e+001
2.229080e+002, 6.580405e+001
2.233901e+002, 6.689260e+001
2.238722e+002, 6.744070e+001
2.243543e+002, 6.737904e+001
2.248364e+002, 6.746541e+001
2.253185e+002, 6.778566e+001
2.258007e+002, 6.817009e+001
2.262828e+002, 6.838710e+001
2.267649e+002, 6.830849e+001
2.272470e+002, 6.831119e+001
2.277291e+002, 6.853068e+001
2.282112e+002, 6.901618e+001
2.286934e+002, 6.933276e+001
2.291755e+002, 6.936485e+001
2.296576e+002, 6.932838e+001
2.301397e+002, 6.952126e+001
2.306218e+002, 7.009814e+001
2.311039e+002, 7.062951e+001
2.315861e+002, 7.102150e+001
2.320682e+002, 7.128626e+001
2.325503e+002, 7.137060e+001
2.330324e+002, 7.119895e+001
2.335145e+002, 7.091618e+001
2.339966e+002, 7.070360e+001
2.344788e+002, 7.061201e+001
2.349609e+002, 7.050712e+001
2.354430e+002, 7.036864e+001
2.359251e+002, 7.020586e+001
2.364072e+002, 6.992725e+001
2.368893e+002, 6.940748e+001
2.373715e+002, 6.887334e+001
2.378536e+002, 6.864421e+001
2.383357e+002, 6.897031e+001
2.388178e+002, 6.914593e+001
2.392999e+002, 6.888340e+001
2.397820e+002, 6.806467e+001
2.402642e+002, 6.774625e+001
2.407463e+002, 6.820102e+001
2.412284e+002, 6.892293e+001
2.417105e+002, 6.930492e+001
2.421926e+002, 6.925674e+001
2.426747e+002, 6.902426e+001
2.431569e+002, 6.859189e+001
2.436390e+002, 6.790414e+001
2.441211e+002, 6.748370e+001
2.446032e+002, 6.749065e+001
2.450853e+002, 6.761807e+001
2.455674e+002, 6.748708e+001
2.460496e+002, 6.690583e+001
2.465317e+002, 6.642909e+001
2.470138e+002, 6.625108e+001
2.474959e+002, 6.642340e+001
2.479780e+002, 6.627422e+001
2.484601e+002, 6.562756e+001
2.489423e+002, 6.483648e+001
2.494244e+002, 6.430219e+001
2.499065e+002, 6.416869e+001
2.503886e+002, 6.401418e+001
2.508707e+002, 6.377243e+001
2.513528e+002, 6.344967e+001
2.518350e+002, 6.293745e+001
2.523171e+002, 6.207354e+001
2.527992e+002, 6.120240e+001
2.532813e+002, 6.070383e+001
2.537634e+002, 6.075351e+001
2.542455e+002, 6.079695e+001
2.547277e+002, 6.068489e+001
2.552098e+002, 6.041065e+001
2.556919e+002, 6.036784e+001
2.561740e+002, 6.069936e+001
2.566561e+002, 6.108110e+001
2.571382e+002, 6.118151e+001
2.576204e+002, 6.087500e+001
2.581025e+002, 6.058925e+001
2.585846e+002, 6.039185e+001
2.590667e+002, 6.028090e+001
2.595488e+002, 6.026599e+001
2.600309e+002, 6.040849e+001
2.605131e+002, 6.055868e+001
2.609952e+002, 6.054774e+001
2.614773e+002, 6.025892e+001
2.619594e+002, 6.015984e+001
2.624415e+002, 6.044818e+001
2.629236e+002, 6.105431e+001
2.634058e+002, 6.115774e+001
2.638879e+002, 6.049529e+001
2.643700e+002, 5.977988e+001
2.648521e+002, 5.965015e+001
2.653342e+002, 6.036689e+001
2.658163e+002, 6.077324e+001
2.662985e+002, 6.059198e+001
2.667806e+002, 5.995203e+001
2.672627e+002, 5.963177e+001
2.677448e+002, 5.978890e+001
2.682269e+002, 5.993774e+001
2.687090e+002, 5.963140e+001
2.691912e+002, 5.868120e+001
2.696733e+002, 5.810122e+001
2.701554e+002, 5.813918e+001
2.706375e+002, 5.860547e+001
2.711196e+002, 5.871657e+001
2.716017e+002, 5.837825e+001
2.720839e+002, 5.794532e+001
2.725660e+002, 5.760271e+001
2.730481e+002, 5.732036e+001
2.735302e+002, 5.736116e+001
2.740123e+002, 5.791536e+001
2.744944e+002, 5.870486e+001
2.749766e+002, 5.883735e+001
2.754587e+002, 5.816329e+001
2.759408e+002, 5.742036e+001
2.764229e+002, 5.707164e+001
2.769050e+002, 5.714267e+001
2.773871e+002, 5.726294e+001
2.778693e+002, 5.742519e+001
2.783514e+002, 5.760257e+001
2.788335e+002, 5.772408e+001
2.793156e+002, 5.778020e+001
2.797977e+002, 5.784491e+001
2.802798e+002, 5.803863e+001
2.807620e+002, 5.836226e+001
2.812441e+002, 5.834388e+001
2.817262e+002, 5.787058e+001
2.822083e+002, 5.720938e+001
2.826904e+002, 5.683720e+001
2.831725e+002, 5.676866e+001
2.836547e+002, 5.677036e+001
2.841368e+002, 5.667958e+001
2.846189e+002, 5.652108e+001
2.851010e+002, 5.665481e+001
2.855831e+002, 5.716918e+001
2.860652e+002, 5.774820e+001
2.865474e+002, 5.788630e+001
2.870295e+002, 5.759205e+001
2.875116e+002, 5.727813e+001
2.879937e+002, 5.709102e+001
2.884758e+002, 5.702719e+001
2.889579e+002, 5.710198e+001
2.894401e+002, 5.733711e+001
2.899222e+002, 5.760154e+001
2.904043e+002, 5.773854e+001
2.908864e+002, 5.775861e+001
2.913685e+002, 5.774296e+001
2.918506e+002, 5.770151e+001
2.923328e+002, 5.764945e+001
2.928149e+002, 5.764052e+001
2.932970e+002, 5.767745e+001
2.937791e+002, 5.772093e+001
2.942612e+002, 5.781321e+001
2.947433e+002, 5.790331e+001
2.952255e+002, 5.773562e+001
2.957076e+002, 5.685316e+001
2.961897e+002, 5.587101e+001
2.966718e+002, 5.643103e+001
2.971539e+002, 5.848394e+001
2.976360e+002, 6.025772e+001
2.981182e+002, 5.981725e+001
2.986003e+002, 5.791002e+001
2.990824e+002, 5.640385e+001
2.995645e+002, 5.590656e+001
3.000466e+002, 5.593137e+001
3.005287e+002, 5.581158e+001
3.010109e+002, 5.557668e+001
3.014930e+002, 5.543462e+001
3.019751e+002, 5.564290e+001
3.024572e+002, 5.602754e+001
3.029393e+002, 5.628626e+001
3.034214e+002, 5.633406e+001
3.039036e+002, 5.628121e+001
3.043857e+002, 5.621084e+001
3.048678e+002, 5.613160e+001
3.053499e+002, 5.607307e+001
3.058320e+002, 5.607408e+001
3.063141e+002, 5.609910e+001
3.067963e+002, 5.608229e+001
3.072784e+002, 5.597404e+001
3.077605e+002, 5.593789e+001
3.082426e+002, 5.622882e+001
3.087247e+002, 5.670695e+001
3.092068e+002, 5.703715e+001
3.096890e+002, 5.689024e+001
3.101711e+002, 5.661028e+001
3.106532e+002, 5.649189e+001
3.111353e+002, 5.658283e+001
3.116174e+002, 5.675129e+001
3.120995e+002, 5.702697e+001
3.125817e+002, 5.730684e+001
3.130638e+002, 5.743009e+001
3.135459e+002, 5.697237e+001
3.140280e+002, 5.660689e+001
3.145101e+002, 5.688188e+001
3.149922e+002, 5.787649e+001
3.154744e+002, 5.873576e+001
3.159565e+002, 5.899234e+001
3.164386e+002, 5.891034e+001
3.169207e+002, 5.878894e+001
3.174028e+002, 5.869955e+001
3.178849e+002, 5.861346e+001
3.183671e+002, 5.854571e+001
3.188492e+002, 5.849132e+001
3.193313e+002, 5.836421e+001
3.198134e+002, 5.800161e+001
3.202955e+002, 5.762295e+001
3.207776e+002, 5.740638e+001
3.212598e+002, 5.753194e+001
3.217419e+002, 5.766797e+001
3.222240e+002, 5.773383e+001
3.227061e+002, 5.774231e+001
3.231882e+002, 5.776579e+001
3.236703e+002, 5.785964e+001
3.241525e+002, 5.794254e+001
3.246346e+002, 5.796587e+001
3.251167e+002, 5.783256e+001
3.255988e+002, 5.776576e+001
3.260809e+002, 5.786466e+001
3.265630e+002, 5.805196e+001
3.270452e+002, 5.811557e+001
3.275273e+002, 5.775668e+001
3.280094e+002, 5.752060e+001
3.284915e+002, 5.765208e+001
3.289736e+002, 5.847765e+001
3.294557e+002, 5.893731e+001
3.299379e+002, 5.879741e+001
3.304200e+002, 5.836492e+001
3.309021e+002, 5.813642e+001
3.313842e+002, 5.826643e+001
3.318663e+002, 5.839001e+001
3.323484e+002, 5.838462e+001
3.328306e+002, 5.820992e+001
3.333127e+002, 5.818507e+001
3.337948e+002, 5.844988e+001
3.342769e+002, 5.873865e+001
3.347590e+002, 5.873846e+001
3.352411e+002, 5.832200e+001
3.357233e+002, 5.788238e+001
3.362054e+002, 5.738622e+001
3.366875e+002, 5.686625e+001
3.371696e+002, 5.704605e+001
3.376517e+002, 5.829200e+001
3.381339e+002, 5.953469e+001
3.386160e+002, 5.971793e+001
3.390981e+002, 5.853875e+001
3.395802e+002, 5.786076e+001
3.400623e+002, 5.809961e+001
3.405444e+002, 5.895520e+001
3.410266e+002, 5.938371e+001
3.415087e+002, 5.932209e+001
3.419908e+002, 5.916474e+001
3.424729e+002, 5.916790e+001
3.429550e+002, 5.932953e+001
3.434371e+002, 5.942516e+001
3.439193e+002, 5.943109e+001
3.444014e+002, 5.937191e+001
3.448835e+002, 5.922500e+001
3.453656e+002, 5.899214e+001
3.458477e+002, 5.890648e+001
3.463298e+002, 5.919775e+001
3.468120e+002, 5.976095e+001
3.472941e+002, 6.015184e+001
3.477762e+002, 6.036982e+001
3.482583e+002, 6.038754e+001
3.487404e+002, 6.000108e+001
3.492225e+002, 5.932988e+001
3.497047e+002, 5.888324e+001
3.501868e+002, 5.895036e+001
3.506689e+002, 5.932039e+001
3.511510e+002, 5.966258e+001
3.516331e+002, 5.997488e+001
3.521152e+002, 6.025053e+001
3.525974e+002, 6.048683e+001
3.530795e+002, 6.068166e+001
3.535616e+002, 6.083709e+001
3.540437e+002, 6.098271e+001
3.545258e+002, 6.105146e+001
3.550079e+002, 6.085766e+001
3.554901e+002, 6.048046e+001
3.559722e+002, 6.026927e+001
3.564543e+002, 6.058575e+001
3.569364e+002, 6.110872e+001
3.574185e+002, 6.152014e+001
3.579006e+002, 6.175454e+001
3.583828e+002, 6.189412e+001
3.588649e+002, 6.189457e+001
3.593470e+002, 6.184092e+001
3.598291e+002, 6.190461e+001
3.603112e+002, 6.229802e+001
3.607933e+002, 6.272769e+001
3.612755e+002, 6.302258e+001
3.617576e+002, 6.315468e+001
3.622397e+002, 6.323678e+001
3.627218e+002, 6.326419e+001
3.632039e+002, 6.328031e+001
3.636860e+002, 6.333369e+001
3.641682e+002, 6.353690e+001
3.646503e+002, 6.368204e+001
3.651324e+002, 6.359648e+001
3.656145e+002, 6.329777e+001
3.660966e+002, 6.326070e+001
3.665787e+002, 6.381416e+001
3.670609e+002, 6.449679e+001
3.675430e+002, 6.501298e+001
3.680251e+002, 6.508578e+001
3.685072e+002, 6.529500e+001
3.689893e+002, 6.589765e+001
3.694714e+002, 6.669798e+001
3.699536e+002, 6.700896e+001
3.704357e+002, 6.631489e+001
3.709178e+002, 6.567562e+001
3.713999e+002, 6.554555e+001
3.718820e+002, 6.618533e+001
3.723641e+002, 6.666251e+001
3.728463e+002, 6.695148e+001
3.733284e+002, 6.708977e+001
3.738105e+002, 6.709950e+001
3.742926e+002, 6.686333e+001
3.747747e+002, 6.676088e+001
3.752568e+002, 6.689966e+001
3.757390e+002, 6.728220e+001
3.762211e+002, 6.784671e+001
3.767032e+002, 6.870789e+001
3.771853e+002, 6.952185e+001
3.776674e+002, 6.993993e+001
3.781495e+002, 6.992252e+001
3.786317e+002, 6.985046e+001
3.791138e+002, 6.975439e+001
3.795959e+002, 6.967753e+001
3.800780e+002, 6.970171e+001
3.805601e+002, 6.981441e+001
3.810422e+002, 7.018294e+001
3.815244e+002, 7.112341e+001
3.820065e+002, 7.250101e+001
3.824886e+002, 7.348954e+001
3.829707e+002, 7.396896e+001
3.834528e+002, 7.418035e+001
3.839349e+002, 7.429678e+001
3.844171e+002, 7.438461e+001
3.848992e+002, 7.478328e+001
3.853813e+002, 7.601907e+001
3.858634e+002, 7.756579e+001
3.863455e+002, 7.848042e+001
3.868276e+002, 7.871157e+001
3.873098e+002, 7.877007e+001
3.877919e+002, 7.911131e+001
3.882740e+002, 7.958546e+001
3.887561e+002, 7.991270e+001
3.892382e+002, 7.980888e+001
3.897203e+002, 7.971139e+001
3.902025e+002, 8.003818e+001
3.906846e+002, 8.071387e+001
3.911667e+002, 8.139722e+001
3.916488e+002, 8.204605e+001
3.921309e+002, 8.253104e+001
3.926130e+002, 8.273146e+001
3.930952e+002, 8.256733e+001
3.935773e+002, 8.223943e+001
3.940594e+002, 8.172281e+001
3.945415e+002, 8.111105e+001
3.950236e+002, 8.057742e+001
3.955057e+002, 8.019279e+001
3.959879e+002, 7.988178e+001
3.964700e+002, 7.967908e+001
3.969521e+002, 7.963503e+001
3.974342e+002, 7.937972e+001
3.979163e+002, 7.864241e+001
3.983984e+002, 7.777197e+001
3.988806e+002, 7.708666e+001
3.993627e+002, 7.695271e+001
3.998448e+002, 7.660606e+001
4.003269e+002, 7.586625e+001
4.008090e+002, 7.479105e+001
4.012911e+002, 7.383703e+001
4.017733e+002, 7.293084e+001
4.022554e+002, 7.222093e+001
4.027375e+002, 7.182368e+001
4.032196e+002, 7.192374e+001
4.037017e+002, 7.185435e+001
4.041838e+002, 7.150978e+001
4.046660e+002, 7.106929e+001
4.051481e+002, 7.095478e+001
4.056302e+002, 7.131204e+001
4.061123e+002, 7.144558e+001
4.065944e+002, 7.096534e+001
4.070765e+002, 6.991784e+001
4.075587e+002, 6.945454e+001
4.080408e+002, 6.970078e+001
4.085229e+002, 7.003964e+001
4.090050e+002, 6.971060e+001
4.094871e+002, 6.877419e+001
4.099692e+002, 6.811221e+001
4.104514e+002, 6.797186e+001
4.109335e+002, 6.814521e+001
4.114156e+002, 6.822292e+001
4.118977e+002, 6.821387e+001
4.123798e+002, 6.823393e+001
4.128619e+002, 6.840742e+001
4.133441e+002, 6.865508e+001
4.138262e+002, 6.884808e+001
4.143083e+002, 6.898654e+001
4.147904e+002, 6.900142e+001
4.152725e+002, 6.858282e+001
4.157546e+002, 6.799818e+001
4.162368e+002, 6.779228e+001
4.167189e+002, 6.875575e+001
4.172010e+002, 6.980960e+001
4.176831e+002, 7.000835e+001
4.181652e+002, 6.938102e+001
4.186473e+002, 6.870808e+001
4.191295e+002, 6.839175e+001
4.196116e+002, 6.823391e+001
4.200937e+002, 6.805970e+001
4.205758e+002, 6.775022e+001
4.210579e+002, 6.752681e+001
4.215400e+002, 6.743307e+001
4.220222e+002, 6.747426e+001
4.225043e+002, 6.766058e+001
4.229864e+002, 6.824511e+001
4.234685e+002, 6.875658e+001
4.239506e+002, 6.894042e+001
4.244327e+002, 6.857986e+001
4.249149e+002, 6.858855e+001
4.253970e+002, 6.942603e+001
4.258791e+002, 7.040881e+001
4.263612e+002, 7.084274e+001
4.268433e+002, 7.028307e+001
4.273254e+002, 6.987802e+001
4.278076e+002, 6.984107e+001
4.282897e+002, 7.011540e+001
4.287718e+002, 7.029534e+001
4.292539e+002, 7.032922e+001
4.297360e+002, 7.036612e+001
4.302181e+002, 7.049086e+001
4.307003e+002, 7.070895e+001
4.311824e+002, 7.099327e+001
4.316645e+002, 7.137736e+001
4.321466e+002, 7.176709e+001
4.326287e+002, 7.196048e+001
4.331108e+002, 7.195202e+001
4.335930e+002, 7.199402e+001
4.340751e+002, 7.229935e+001
4.345572e+002, 7.271517e+001
4.350393e+002, 7.255722e+001
4.355214e+002, 7.180740e+001
4.360035e+002, 7.122115e+001
4.364857e+002, 7.185629e+001
4.369678e+002, 7.316641e+001
4.374499e+002, 7.376450e+001
4.379320e+002, 7.311104e+001
4.384141e+002, 7.211845e+001
4.388962e+002, 7.177344e+001
4.393784e+002, 7.191117e+001
4.398605e+002, 7.204916e+001
4.403426e+002, 7.171860e+001
4.408247e+002, 7.140978e+001
4.413068e+002, 7.170142e+001
4.417889e+002, 7.270857e+001
4.422711e+002, 7.341569e+001
4.427532e+002, 7.285820e+001
4.432353e+002, 7.192018e+001
4.437174e+002, 7.151979e+001
4.441995e+002, 7.252665e+001
4.446816e+002, 7.345905e+001
4.451638e+002, 7.389423e+001
4.456459e+002, 7.390353e+001
4.461280e+002, 7.385434e+001
4.466101e+002, 7.359522e+001
4.470922e+002, 7.345731e+001
4.475743e+002, 7.366220e+001
4.480565e+002, 7.455334e+001
4.485386e+002, 7.489234e+001
4.490207e+002, 7.426847e+001
4.495028e+002, 7.334904e+001
4.499849e+002, 7.305270e+001
4.504670e+002, 7.372909e+001
4.509492e+002, 7.423586e+001
4.514313e+002, 7.429551e+001
4.519134e+002, 7.396760e+001
4.523955e+002, 7.361995e+001
4.528776e+002, 7.321281e+001
4.533597e+002, 7.294648e+001
4.538419e+002, 7.305008e+001
4.543240e+002, 7.351070e+001
4.548061e+002, 7.383192e+001
4.552882e+002, 7.398180e+001
4.557703e+002, 7.395029e+001
4.562524e+002, 7.358493e+001
4.567346e+002, 7.294820e+001
4.572167e+002, 7.249439e+001
4.576988e+002, 7.259459e+001
4.581809e+002, 7.291155e+001
4.586630e+002, 7.284143e+001
4.591451e+002, 7.240122e+001
4.596273e+002, 7.186239e+001
4.601094e+002, 7.127315e+001
4.605915e+002, 7.076746e+001
4.610736e+002, 7.057320e+001
4.615557e+002, 7.090598e+001
4.620378e+002, 7.118417e+001
4.625200e+002, 7.102245e+001
4.630021e+002, 7.053820e+001
4.634842e+002, 6.996137e+001
4.639663e+002, 6.920549e+001
4.644484e+002, 6.852746e+001
4.649305e+002, 6.806139e+001
4.654127e+002, 6.781776e+001
4.658948e+002, 6.769580e+001
4.663769e+002, 6.780617e+001
4.668590e+002, 6.795573e+001
4.673411e+002, 6.800562e+001
4.678232e+002, 6.797098e+001
4.683054e+002, 6.779913e+001
4.687875e+002, 6.738531e+001
4.692696e+002, 6.685336e+001
4.697517e+002, 6.654981e+001
4.702338e+002, 6.671029e+001
4.707159e+002, 6.664750e+001
4.711981e+002, 6.595594e+001
4.716802e+002, 6.458501e+001
4.721623e+002, 6.399614e+001
4.726444e+002, 6.438985e+001
4.731265e+002, 6.503340e+001
4.736086e+002, 6.516953e+001
4.740908e+002, 6.480763e+001
4.745729e+002, 6.455842e+001
4.750550e+002, 6.458383e+001
4.755371e+002, 6.469282e+001
4.760192e+002, 6.446133e+001
4.765013e+002, 6.393487e+001
4.769835e+002, 6.348253e+001
4.774656e+002, 6.340435e+001
4.779477e+002, 6.349321e+001
4.784298e+002, 6.343889e+001
4.789119e+002, 6.322759e+001
4.793940e+002, 6.287246e+001
4.798762e+002, 6.216645e+001
4.803583e+002, 6.139121e+001
4.808404e+002, 6.092190e+001
4.813225e+002, 6.096631e+001
4.818046e+002, 6.119707e+001
4.822867e+002, 6.163749e+001
4.827689e+002, 6.215010e+001
4.832510e+002, 6.237938e+001
4.837331e+002, 6.188507e+001
4.842152e+002, 6.136151e+001
4.846973e+002, 6.116773e+001
4.851794e+002, 6.142680e+001
4.856616e+002, 6.150056e+001
4.861437e+002, 6.103349e+001
4.866258e+002, 6.054419e+001
4.871079e+002, 6.044783e+001
4.875900e+002, 6.105523e+001
4.880721e+002, 6.151587e+001
4.885543e+002, 6.177063e+001
4.890364e+002, 6.182476e+001
4.895185e+002, 6.158386e+001
4.900006e+002, 6.086476e+001
4.904827e+002, 6.044387e+001
4.909648e+002, 6.086217e+001
4.914470e+002, 6.205431e+001
4.919291e+002, 6.254576e+001
4.924112e+002, 6.222633e+001
4.928933e+002, 6.172126e+001
4.933754e+002, 6.174234e+001
4.938575e+002, 6.215226e+001
4.943397e+002, 6.230476e+001
4.948218e+002, 6.195537e+001
4.953039e+002, 6.148755e+001
4.957860e+002, 6.148244e+001
4.962681e+002, 6.182341e+001
4.967502e+002, 6.210980e+001
4.972324e+002, 6.198880e+001
4.977145e+002, 6.180352e+001
4.981966e+002, 6.196946e+001
4.986787e+002, 6.250974e+001
4.991608e+002, 6.286776e+001
4.996429e+002, 6.255439e+001
5.001251e+002, 6.203043e+001
5.006072e+002, 6.169931e+001
5.010893e+002, 6.178364e+001
5.015714e+002, 6.188877e+001
5.020535e+002, 6.197798e+001
5.025356e+002, 6.202652e+001
5.030178e+002, 6.198014e+001
5.034999e+002, 6.179320e+001
5.039820e+002, 6.155028e+001
5.044641e+002, 6.120596e+001
5.049462e+002, 6.074420e+001
5.054283e+002, 6.061108e+001
5.059105e+002, 6.098111e+001
5.063926e+002, 6.141364e+001
5.068747e+002, 6.152868e+001
5.073568e+002, 6.125340e+001
5.078389e+002, 6.121676e+001
5.083210e+002, 6.159016e+001
5.088032e+002, 6.202647e+001
5.092853e+002, 6.178868e+001
5.097674e+002, 6.092329e+001
5.102495e+002, 6.021167e+001
5.107316e+002, 6.001814e+001
5.112137e+002, 6.016740e+001
5.116959e+002, 6.042615e+001
5.121780e+002, 6.076445e+001
5.126601e+002, 6.082939e+001
5.131422e+002, 5.986823e+001
5.136243e+002, 5.867624e+001
5.141064e+002, 5.841833e+001
5.145886e+002, 5.956279e+001
5.150707e+002, 6.066925e+001
5.155528e+002, 6.072157e+001
5.160349e+002, 6.020346e+001
5.165170e+002, 5.981654e+001
5.169991e+002, 5.983970e+001
5.174813e+002, 5.997232e+001
5.179634e+002, 6.017698e+001
5.184455e+002, 6.043489e+001
5.189276e+002, 6.061292e+001
5.194097e+002, 6.063072e+001
5.198918e+002, 6.062170e+001
5.203740e+002, 6.066357e+001
5.208561e+002, 6.084254e+001
5.213382e+002, 6.075939e+001
5.218203e+002, 6.024937e+001
5.223024e+002, 5.966552e+001
5.227845e+002, 5.945880e+001
5.232667e+002, 5.971427e+001
5.237488e+002, 5.985109e+001
5.242309e+002, 5.971136e+001
5.247130e+002, 5.942252e+001
5.251951e+002, 5.926856e+001
5.256772e+002, 5.925008e+001
5.261594e+002, 5.938108e+001
5.266415e+002, 5.988655e+001
5.271236e+002, 6.050953e+001
5.276057e+002, 6.057149e+001
5.280878e+002, 6.004609e+001
5.285699e+002, 5.947866e+001
5.290521e+002, 5.931667e+001
5.295342e+002, 5.939024e+001
5.300163e+002, 5.948694e+001
5.304984e+002, 5.957233e+001
5.309805e+002, 5.963166e+001
5.314626e+002, 5.962281e+001
5.319448e+002, 5.958430e+001
5.324269e+002, 5.959064e+001
5.329090e+002, 5.982764e+001
5.333911e+002, 5.995198e+001
5.338732e+002, 5.974099e+001
5.343553e+002, 5.917285e+001
5.348375e+002, 5.890243e+001
5.353196e+002, 5.926052e+001
5.358017e+002, 5.960312e+001
5.362838e+002, 5.954250e+001
5.367659e+002, 5.886109e+001
5.372480e+002, 5.837994e+001
5.377302e+002, 5.812978e+001
5.382123e+002, 5.804671e+001
5.386944e+002, 5.806109e+001
5.391765e+002, 5.817724e+001
5.396586e+002, 5.835030e+001
5.401407e+002, 5.861730e+001
5.406229e+002, 5.889063e+001
5.411050e+002, 5.891220e+001
5.415871e+002, 5.870461e+001
5.420692e+002, 5.848604e+001
5.425513e+002, 5.833662e+001
5.430334e+002, 5.828436e+001
5.435156e+002, 5.844426e+001
5.439977e+002, 5.883579e+001
5.444798e+002, 5.912963e+001
5.449619e+002, 5.911562e+001
5.454440e+002, 5.886688e+001
5.459261e+002, 5.843736e+001
5.464083e+002, 5.755275e+001
5.468904e+002, 5.690354e+001
5.473725e+002, 5.686556e+001
5.478546e+002, 5.722065e+001
5.483367e+002, 5.750126e+001
5.488188e+002, 5.754115e+001
5.493010e+002, 5.760598e+001
5.497831e+002, 5.785854e+001
5.502652e+002, 5.829029e+001
5.507473e+002, 5.823047e+001
5.512294e+002, 5.734542e+001
5.517115e+002, 5.653295e+001
5.521937e+002, 5.644949e+001
5.526758e+002, 5.720242e+001
5.531579e+002, 5.764936e+001
5.536400e+002, 5.769949e+001
5.541221e+002, 5.756480e+001
5.546042e+002, 5.744738e+001
5.550864e+002, 5.736712e+001
5.555685e+002, 5.747712e+001
5.560506e+002, 5.794919e+001
5.565327e+002, 5.846775e+001
5.570148e+002, 5.852766e+001
5.574969e+002, 5.822481e+001
5.579791e+002, 5.792047e+001
5.584612e+002, 5.783163e+001
5.589433e+002, 5.781950e+001
5.594254e+002, 5.768504e+001
5.599075e+002, 5.740792e+001
5.603896e+002, 5.744143e+001
5.608718e+002, 5.844655e+001
5.613539e+002, 5.954004e+001
5.618360e+002, 6.004362e+001
5.623181e+002, 5.920893e+001
5.628002e+002, 5.878068e+001
5.632823e+002, 5.917439e+001
5.637645e+002, 5.988477e+001
5.642466e+002, 6.014075e+001
5.647287e+002, 5.980848e+001
5.652108e+002, 5.929492e+001
5.656929e+002, 5.855445e+001
5.661750e+002, 5.772264e+001
5.666572e+002, 5.750533e+001
5.671393e+002, 5.799594e+001
5.676214e+002, 5.843209e+001
5.681035e+002, 5.820305e+001
5.685856e+002, 5.752704e+001
5.690677e+002, 5.728910e+001
5.695499e+002, 5.754058e+001
5.700320e+002, 5.790057e+001
5.705141e+002, 5.816605e+001
5.709962e+002, 5.826267e+001
5.714783e+002, 5.799269e+001
5.719604e+002, 5.703154e+001
5.724426e+002, 5.626971e+001
5.729247e+002, 5.636848e+001
5.734068e+002, 5.704511e+001
5.738889e+002, 5.779610e+001
5.743710e+002, 5.891320e+001
5.748531e+002, 5.961738e+001
5.753353e+002, 5.938702e+001
5.758174e+002, 5.830925e+001
5.762995e+002, 5.769586e+001
5.767816e+002, 5.788556e+001
5.772637e+002, 5.818578e+001
5.777458e+002, 5.831453e+001
5.782280e+002, 5.825335e+001
5.787101e+002, 5.807839e+001
5.791922e+002, 5.772403e+001
5.796743e+002, 5.739956e+001
5.801564e+002, 5.732178e+001
5.806385e+002, 5.748357e+001
5.811207e+002, 5.782606e+001
5.816028e+002, 5.842808e+001
5.820849e+002, 5.899831e+001
5.825670e+002, 5.899137e+001
5.830491e+002, 5.856071e+001
5.835313e+002, 5.820208e+001
5.840134e+002, 5.821412e+001
5.844955e+002, 5.835984e+001
5.849776e+002, 5.840464e+001
5.854597e+002, 5.837730e+001
5.859418e+002, 5.844657e+001
5.864240e+002, 5.882279e+001
5.869061e+002, 5.921721e+001
5.873882e+002, 5.942123e+001
5.878703e+002, 5.931295e+001
5.883524e+002, 5.940327e+001
5.888345e+002, 5.992231e+001
5.893167e+002, 6.055281e+001
5.897988e+002, 6.106554e+001
5.902809e+002, 6.147955e+001
5.907630e+002, 6.171598e+001
5.912451e+002, 6.170976e+001
5.917272e+002, 6.158716e+001
5.922094e+002, 6.158319e+001
5.926915e+002, 6.170310e+001
5.931736e+002, 6.185894e+001
5.936557e+002, 6.201934e+001
5.941378e+002, 6.219768e+001
5.946199e+002, 6.249939e+001
5.951021e+002, 6.289246e+001
5.955842e+002, 6.313443e+001
5.960663e+002, 6.284665e+001
5.965484e+002, 6.243642e+001
5.970305e+002, 6.241652e+001
5.975126e+002, 6.283891e+001
5.979948e+002, 6.330235e+001
5.984769e+002, 6.350514e+001
5.989590e+002, 6.368908e+001
5.994411e+002, 6.409632e+001
5.999232e+002, 6.515744e+001
6.004053e+002, 6.581077e+001
6.008875e+002, 6.549834e+001
6.013696e+002, 6.482785e+001
6.018517e+002, 6.465797e+001
6.023338e+002, 6.525875e+001
6.028159e+002, 6.585482e+001
6.032980e+002, 6.641100e+001
6.037802e+002, 6.683099e+001
6.042623e+002, 6.659422e+001
6.047444e+002, 6.559256e+001
6.052265e+002, 6.487138e+001
6.057086e+002, 6.523721e+001
6.061907e+002, 6.631724e+001
6.066729e+002, 6.674952e+001
6.071550e+002, 6.654454e+001
6.076371e+002, 6.629216e+001
6.081192e+002, 6.669064e+001
6.086013e+002, 6.723077e+001
6.090834e+002, 6.713540e+001
6.095656e+002, 6.610310e+001
6.100477e+002, 6.518075e+001
6.105298e+002, 6.510513e+001
6.110119e+002, 6.538425e+001
6.114940e+002, 6.546507e+001
6.119761e+002, 6.504700e+001
6.124583e+002, 6.463428e+001
6.129404e+002, 6.431107e+001
6.134225e+002, 6.404171e+001
6.139046e+002, 6.372920e+001
6.143867e+002, 6.333419e+001
6.148688e+002, 6.299230e+001
6.153510e+002, 6.274456e+001
6.158331e+002, 6.258169e+001
6.163152e+002, 6.241631e+001
6.167973e+002, 6.223680e+001
6.172794e+002, 6.215947e+001
6.177615e+002, 6.234602e+001
6.182437e+002, 6.268952e+001
6.187258e+002, 6.293589e+001
6.192079e+002, 6.307676e+001
6.196900e+002, 6.302462e+001
6.201721e+002, 6.250694e+001
6.206542e+002, 6.183141e+001
6.211364e+002, 6.139223e+001
6.216185e+002, 6.133004e+001
6.221006e+002, 6.138942e+001
6.225827e+002, 6.159843e+001
6.230648e+002, 6.181840e+001
6.235469e+002, 6.185542e+001
6.240291e+002, 6.156036e+001
6.245112e+002, 6.121801e+001
6.249933e+002, 6.084114e+001
6.254754e+002, 6.044864e+001
6.259575e+002, 6.007438e+001
6.264396e+002, 5.964209e+001
6.269218e+002, 5.945926e+001
6.274039e+002, 5.977826e+001
6.278860e+002, 6.046797e+001
6.283681e+002, 6.067085e+001
6.288502e+002, 6.037175e+001
6.293323e+002, 5.998994e+001
6.298145e+002, 5.992509e+001
6.302966e+002, 5.997649e+001
6.307787e+002, 5.968894e+001
6.312608e+002, 5.899217e+001
6.317429e+002, 5.832587e+001
6.322250e+002, 5.793228e+001
6.327072e+002, 5.778159e+001
6.331893e+002, 5.785467e+001
6.336714e+002, 5.829348e+001
6.341535e+002, 5.870443e+001
6.346356e+002, 5.913817e+001
6.351177e+002, 5.943535e+001
6.355999e+002, 5.932266e+001
6.360820e+002, 5.830478e+001
6.365641e+002, 5.770906e+001
6.370462e+002, 5.795632e+001
6.375283e+002, 5.871644e+001
6.380104e+002, 5.881118e+001
6.384926e+002, 5.812968e+001
6.389747e+002, 5.749850e+001
6.394568e+002, 5.734298e+001
6.399389e+002, 5.751134e+001
6.404210e+002, 5.746492e+001
6.409031e+002, 5.721850e+001
6.413853e+002, 5.702433e+001
6.418674e+002, 5.711376e+001
6.423495e+002, 5.733491e+001
6.428316e+002, 5.755693e+001
6.433137e+002, 5.778357e+001
6.437958e+002, 5.782791e+001
6.442780e+002, 5.730773e+001
6.447601e+002, 5.672335e+001
6.452422e+002, 5.653236e+001
6.457243e+002, 5.726469e+001
6.462064e+002, 5.768296e+001
6.466885e+002, 5.758601e+001
6.471707e+002, 5.723232e+001
6.476528e+002, 5.694872e+001
6.481349e+002, 5.673228e+001
6.486170e+002, 5.658763e+001
6.490991e+002, 5.651908e+001
6.495812e+002, 5.651691e+001
6.500634e+002, 5.655877e+001
6.505455e+002, 5.664489e+001
6.510276e+002, 5.677406e+001
6.515097e+002, 5.699578e+001
6.519918e+002, 5.723203e+001
6.524739e+002, 5.738823e+001
6.529561e+002, 5.745806e+001
6.534382e+002, 5.741636e+001
6.539203e+002, 5.718710e+001
6.544024e+002, 5.688668e+001
6.548845e+002, 5.651689e+001
6.553666e+002, 5.605403e+001
6.558488e+002, 5.585913e+001
6.563309e+002, 5.621428e+001
6.568130e+002, 5.671333e+001
6.572951e+002, 5.714415e+001
6.577772e+002, 5.760758e+001
6.582593e+002, 5.770081e+001
6.587415e+002, 5.731488e+001
6.592236e+002, 5.673483e+001
6.597057e+002, 5.619467e+001
6.601878e+002, 5.570068e+001
6.606699e+002, 5.557483e+001
6.611520e+002, 5.597789e+001
6.616342e+002, 5.651332e+001
6.621163e+002, 5.653790e+001
6.625984e+002, 5.623763e+001
6.630805e+002, 5.611077e+001
6.635626e+002, 5.659589e+001
6.640447e+002, 5.707878e+001
6.645269e+002, 5.709364e+001
6.650090e+002, 5.675425e+001
6.654911e+002, 5.639619e+001
6.659732e+002, 5.596143e+001
6.664553e+002, 5.568448e+001
6.669374e+002, 5.571634e+001
6.674196e+002, 5.603178e+001
6.679017e+002, 5.629422e+001
6.683838e+002, 5.648765e+001
6.688659e+002, 5.666455e+001
6.693480e+002, 5.685910e+001
6.698301e+002, 5.707093e+001
6.703123e+002, 5.726644e+001
6.707944e+002, 5.745755e+001
6.712765e+002, 5.754320e+001
6.717586e+002, 5.736383e+001
6.722407e+002, 5.702323e+001
6.727228e+002, 5.674057e+001
6.732050e+002, 5.653730e+001
6.736871e+002, 5.642735e+001
6.741692e+002, 5.647846e+001
6.746513e+002, 5.660112e+001
6.751334e+002, 5.668975e+001
6.756155e+002, 5.668807e+001
6.760977e+002, 5.669484e+001
6.765798e+002, 5.679656e+001
6.770619e+002, 5.689619e+001
6.775440e+002, 5.683080e+001
6.780261e+002, 5.646468e+001
6.785082e+002, 5.623127e+001
6.789904e+002, 5.624200e+001
6.794725e+002, 5.640527e+001
6.799546e+002, 5.646516e+001
6.804367e+002, 5.641972e+001
6.809188e+002, 5.644220e+001
6.814009e+002, 5.667385e+001
6.818831e+002, 5.697527e+001
6.823652e+002, 5.711068e+001
6.828473e+002, 5.708733e+001
6.833294e+002, 5.693298e+001
6.838115e+002, 5.640527e+001
6.842936e+002, 5.595169e+001
6.847758e+002, 5.595382e+001
6.852579e+002, 5.643186e+001
6.857400e+002, 5.689155e+001
6.862221e+002, 5.744785e+001
6.867042e+002, 5.773267e+001
6.871863e+002, 5.748541e+001
6.876685e+002, 5.649899e+001
6.881506e+002, 5.588445e+001
6.886327e+002, 5.569141e+001
6.891148e+002, 5.574701e+001
6.895969e+002, 5.596987e+001
6.900790e+002, 5.634462e+001
6.905612e+002, 5.663201e+001
6.910433e+002, 5.681677e+001
6.915254e+002, 5.686196e+001
6.920075e+002, 5.657024e+001
6.924896e+002, 5.613428e+001
6.929717e+002, 5.592968e+001
6.934539e+002, 5.615693e+001
6.939360e+002, 5.644149e+001
6.944181e+002, 5.653699e+001
6.949002e+002, 5.655835e+001
6.953823e+002, 5.668468e+001
6.958644e+002, 5.708129e+001
6.963466e+002, 5.743216e+001
6.968287e+002, 5.770429e+001
6.973108e+002, 5.790239e+001
6.977929e+002, 5.804825e+001
6.982750e+002, 5.817426e+001
6.987571e+002, 5.811662e+001
6.992393e+002, 5.773886e+001
6.997214e+002, 5.718900e+001
7.002035e+002, 5.696342e+001
7.006856e+002, 5.702643e+001
7.011677e+002, 5.707702e+001
7.016498e+002, 5.689055e+001
7.021320e+002, 5.662679e+001
7.026141e+002, 5.644239e+001
7.030962e+002, 5.634203e+001
7.035783e+002, 5.632446e+001
7.040604e+002, 5.646983e+001
7.045425e+002, 5.662888e+001
7.050247e+002, 5.670728e+001
7.055068e+002, 5.667749e+001
7.059889e+002, 5.667433e+001
7.064710e+002, 5.668110e+001
7.069531e+002, 5.673622e+001
7.074352e+002, 5.687193e+001
7.079174e+002, 5.709337e+001
7.083995e+002, 5.734520e+001
7.088816e+002, 5.764057e+001
7.093637e+002, 5.790052e+001
7.098458e+002, 5.807538e+001
7.103279e+002, 5.814848e+001
7.108101e+002, 5.807212e+001
7.112922e+002, 5.782685e+001
7.117743e+002, 5.748497e+001
7.122564e+002, 5.692518e+001
7.127385e+002, 5.637043e+001
7.132206e+002, 5.609371e+001
7.137028e+002, 5.641676e+001
7.141849e+002, 5.668081e+001
7.146670e+002, 5.676708e+001
7.151491e+002, 5.672726e+001
7.156312e+002, 5.659607e+001
7.161133e+002, 5.629135e+001
7.165955e+002, 5.613187e+001
7.170776e+002, 5.619188e+001
7.175597e+002, 5.640270e+001
7.180418e+002, 5.671454e+001
7.185239e+002, 5.709798e+001
7.190060e+002, 5.722503e+001
7.194882e+002, 5.679247e+001
7.199703e+002, 5.622986e+001
7.204524e+002, 5.605142e+001
7.209345e+002, 5.618338e+001
7.214166e+002, 5.640307e+001
7.218987e+002, 5.678630e+001
7.223809e+002, 5.706258e+001
7.228630e+002, 5.699656e+001
7.233451e+002, 5.664396e+001
7.238272e+002, 5.651423e+001
7.243093e+002, 5.681131e+001
7.247914e+002, 5.705481e+001
7.252736e+002, 5.701691e+001
7.257557e+002, 5.673725e+001
7.262378e+002, 5.676658e+001
7.267199e+002, 5.714911e+001
7.272020e+002, 5.747305e+001
7.276841e+002, 5.737038e+001
7.281663e+002, 5.703796e+001
7.286484e+002, 5.692442e+001
7.291305e+002, 5.703907e+001
7.296126e+002, 5.718679e+001
7.300947e+002, 5.733464e+001
7.305768e+002, 5.739322e+001
7.310590e+002, 5.724089e+001
7.315411e+002, 5.680011e+001
7.320232e+002, 5.648298e+001
7.325053e+002, 5.646571e+001
7.329874e+002, 5.651059e+001
7.334695e+002, 5.644886e+001
7.339517e+002, 5.618092e+001
7.344338e+002, 5.620412e+001
7.349159e+002, 5.660258e+001
7.353980e+002, 5.705136e+001
7.358801e+002, 5.717833e+001
7.363622e+002, 5.705080e+001
7.368444e+002, 5.693586e+001
7.373265e+002, 5.686808e+001
7.378086e+002, 5.685666e+001
7.382907e+002, 5.693230e+001
7.387728e+002, 5.706258e+001
7.392549e+002, 5.722337e+001
7.397371e+002, 5.755505e+001
7.402192e+002, 5.766430e+001
7.407013e+002, 5.718695e+001
7.411834e+002, 5.653330e+001
7.416655e+002, 5.624530e+001
7.421476e+002, 5.644817e+001
7.426298e+002, 5.673734e+001
7.431119e+002, 5.710234e+001
7.435940e+002, 5.748180e+001
7.440761e+002, 5.778801e+001
7.445582e+002, 5.801419e+001
7.450403e+002, 5.812179e+001
7.455225e+002, 5.808263e+001
7.460046e+002, 5.794422e+001
7.464867e+002, 5.767479e+001
7.469688e+002, 5.735630e+001
7.474509e+002, 5.716904e+001
7.479330e+002, 5.723320e+001
7.484152e+002, 5.739479e+001
7.488973e+002, 5.774159e+001
7.493794e+002, 5.815070e+001
7.498615e+002, 5.820495e+001
7.503436e+002, 5.761987e+001
7.508257e+002, 5.719851e+001
7.513079e+002, 5.719546e+001
7.517900e+002, 5.748008e+001
7.522721e+002, 5.759917e+001
7.527542e+002, 5.755464e+001
7.532363e+002, 5.742763e+001
7.537184e+002, 5.721378e+001
7.542006e+002, 5.697118e+001
7.546827e+002, 5.673582e+001
7.551648e+002, 5.653577e+001
7.556469e+002, 5.649715e+001
7.561290e+002, 5.684763e+001
7.566111e+002, 5.722710e+001
7.570933e+002, 5.749655e+001
7.575754e+002, 5.763565e+001
7.580575e+002, 5.755743e+001
7.585396e+002, 5.706276e+001
7.590217e+002, 5.664754e+001
7.595038e+002, 5.648777e+001
7.599860e+002, 5.657468e+001
7.604681e+002, 5.686066e+001
7.609502e+002, 5.736478e+001
7.614323e+002, 5.782157e+001
7.619144e+002, 5.813474e+001
7.623965e+002, 5.825180e+001
7.628787e+002, 5.795372e+001
7.633608e+002, 5.727962e+001
7.638429e+002, 5.670361e+001
7.643250e+002, 5.646838e+001
7.648071e+002, 5.646733e+001
7.652892e+002, 5.673659e+001
7.657714e+002, 5.734890e+001
7.662535e+002, 5.760674e+001
7.667356e+002, 5.719355e+001
7.672177e+002, 5.679301e+001
7.676998e+002, 5.683804e+001
7.681819e+002, 5.736915e+001
7.686641e+002, 5.764546e+001
7.691462e+002, 5.764833e+001
7.696283e+002, 5.752398e+001
7.701104e+002, 5.736230e+001
7.705925e+002, 5.716854e+001
7.710746e+002, 5.689230e+001
7.715568e+002, 5.652050e+001
7.720389e+002, 5.632747e+001
7.725210e+002, 5.664809e+001
7.730031e+002, 5.710566e+001
7.734852e+002, 5.741114e+001
7.739673e+002, 5.748903e+001
7.744495e+002, 5.752336e+001
7.749316e+002, 5.749311e+001
7.754137e+002, 5.745642e+001
7.758958e+002, 5.749568e+001
7.763779e+002, 5.763158e+001
7.768600e+002, 5.750942e+001
7.773422e+002, 5.707570e+001
7.778243e+002, 5.664165e+001
7.783064e+002, 5.654577e+001
7.787885e+002, 5.666716e+001
7.792706e+002, 5.679739e+001
7.797527e+002, 5.691109e+001
7.802349e+002, 5.697920e+001
7.807170e+002, 5.693141e+001
7.811991e+002, 5.686140e+001
7.816812e+002, 5.685415e+001
7.821633e+002, 5.696528e+001
7.826454e+002, 5.705821e+001
7.831276e+002, 5.712600e+001
7.836097e+002, 5.718465e+001
7.840918e+002, 5.726037e+001
7.845739e+002, 5.735411e+001
7.850560e+002, 5.738618e+001
7.855381e+002, 5.734221e+001
7.860203e+002, 5.726935e+001
7.865024e+002, 5.722617e+001
7.869845e+002, 5.718846e+001
7.874666e+002, 5.709617e+001
7.879487e+002, 5.689848e+001
7.884308e+002, 5.676781e+001
7.889130e+002, 5.673006e+001
7.893951e+002, 5.682830e+001
7.898772e+002, 5.712131e+001
7.903593e+002, 5.776143e+001
7.908414e+002, 5.834981e+001
7.913235e+002, 5.900920e+001
7.918057e+002, 5.943085e+001
7.922878e+002, 5.902601e+001
7.927699e+002, 5.786617e+001
7.932520e+002, 5.722528e+001
7.937341e+002, 5.735189e+001
7.942162e+002, 5.769549e+001
7.946984e+002, 5.768791e+001
7.951805e+002, 5.748804e+001
7.956626e+002, 5.736589e+001
7.961447e+002, 5.747904e+001
7.966268e+002, 5.745986e+001
7.971089e+002, 5.698144e+001
7.975911e+002, 5.640570e+001
7.980732e+002, 5.614110e+001
7.985553e+002, 5.632771e+001
7.990374e+002, 5.649936e+001
7.995195e+002, 5.662152e+001
8.000016e+002, 5.674584e+001
8.004838e+002, 5.700377e+001
8.009659e+002, 5.734896e+001
8.014480e+002, 5.749818e+001
8.019301e+002, 5.737037e+001
8.024122e+002, 5.716347e+001
8.028943e+002, 5.700711e+001
8.033765e+002, 5.691322e+001
8.038586e+002, 5.690329e+001
8.043407e+002, 5.705295e+001
8.048228e+002, 5.715765e+001
8.053049e+002, 5.711145e+001
8.057870e+002, 5.703805e+001
8.062692e+002, 5.706511e+001
8.067513e+002, 5.722087e+001
8.072334e+002, 5.734692e+001
8.077155e+002, 5.740162e+001
8.081976e+002, 5.749639e+001
8.086797e+002, 5.795642e+001
8.091619e+002, 5.857531e+001
8.096440e+002, 5.867077e+001
8.101261e+002, 5.796502e+001
8.106082e+002, 5.723609e+001
8.110903e+002, 5.709959e+001
8.115724e+002, 5.723717e+001
8.120546e+002, 5.730077e+001
8.125367e+002, 5.710243e+001
8.130188e+002, 5.703266e+001
8.135009e+002, 5.714723e+001
8.139830e+002, 5.735771e+001
8.144651e+002, 5.760935e+001
8.149473e+002, 5.791667e+001
8.154294e+002, 5.805830e+001
8.159115e+002, 5.800579e+001
8.163936e+002, 5.782364e+001
8.168757e+002, 5.729600e+001
8.173578e+002, 5.677103e+001
8.178400e+002, 5.702475e+001
8.183221e+002, 5.857681e+001
8.188042e+002, 5.965806e+001
8.192863e+002, 5.885517e+001
8.197684e+002, 5.750382e+001
8.202505e+002, 5.691763e+001
8.207327e+002, 5.764744e+001
8.212148e+002, 5.800188e+001
8.216969e+002, 5.785440e+001
8.221790e+002, 5.755700e+001
8.226611e+002, 5.745690e+001
8.231432e+002, 5.753586e+001
8.236254e+002, 5.774503e+001
8.241075e+002, 5.810342e+001
8.245896e+002, 5.837290e+001
8.250717e+002, 5.829844e+001
8.255538e+002, 5.803088e+001
8.260359e+002, 5.771892e+001
8.265181e+002, 5.735979e+001
8.270002e+002, 5.707040e+001
8.274823e+002, 5.676203e+001
8.279644e+002, 5.663015e+001
8.284465e+002, 5.689960e+001
8.289286e+002, 5.775184e+001
8.294108e+002, 5.801880e+001
8.298929e+002, 5.757430e+001
8.303750e+002, 5.709205e+001
8.308571e+002, 5.732199e+001
8.313392e+002, 5.794910e+001
8.318214e+002, 5.831966e+001
8.323035e+002, 5.836180e+001
8.327856e+002, 5.822631e+001
8.332677e+002, 5.778057e+001
8.337498e+002, 5.735292e+001
8.342319e+002, 5.723850e+001
8.347141e+002, 5.759527e+001
8.351962e+002, 5.768040e+001
8.356783e+002, 5.723483e+001
8.361604e+002, 5.695189e+001
8.366425e+002, 5.746227e+001
8.371246e+002, 5.868324e+001
8.376068e+002, 5.938067e+001
8.380889e+002, 5.954669e+001
8.385710e+002, 5.932545e+001
8.390531e+002, 5.831597e+001
8.395352e+002, 5.729562e+001
8.400173e+002, 5.729829e+001
8.404995e+002, 5.836752e+001
8.409816e+002, 5.919592e+001
8.414637e+002, 5.923515e+001
8.419458e+002, 5.903602e+001
8.424279e+002, 5.880693e+001
8.429100e+002, 5.854955e+001
8.433922e+002, 5.837195e+001
8.438743e+002, 5.827877e+001
8.443564e+002, 5.823689e+001
8.448385e+002, 5.824491e+001
8.453206e+002, 5.828423e+001
8.458027e+002, 5.835478e+001
8.462849e+002, 5.843495e+001
8.467670e+002, 5.840079e+001
8.472491e+002, 5.810847e+001
8.477312e+002, 5.775111e+001
8.482133e+002, 5.737093e+001
8.486954e+002, 5.699811e+001
8.491776e+002, 5.682917e+001
8.496597e+002, 5.691861e+001
8.501418e+002, 5.711312e+001
8.506239e+002, 5.740043e+001
8.511060e+002, 5.773639e+001
8.515881e+002, 5.802900e+001
8.520703e+002, 5.825851e+001
8.525524e+002, 5.824844e+001
8.530345e+002, 5.767139e+001
8.535166e+002, 5.703893e+001
8.539987e+002, 5.673222e+001
8.544808e+002, 5.673688e+001
8.549630e+002, 5.701830e+001
8.554451e+002, 5.796424e+001
8.559272e+002, 5.869806e+001
8.564093e+002, 5.906649e+001
8.568914e+002, 5.910912e+001
8.573735e+002, 5.879880e+001
8.578557e+002, 5.807762e+001
8.583378e+002, 5.773754e+001
8.588199e+002, 5.809386e+001
8.593020e+002, 5.870339e+001
8.597841e+002, 5.900604e+001
8.602662e+002, 5.905076e+001
8.607484e+002, 5.891140e+001
8.612305e+002, 5.836093e+001
8.617126e+002, 5.801311e+001
8.621947e+002, 5.829406e+001
8.626768e+002, 5.883311e+001
8.631589e+002, 5.911728e+001
8.636411e+002, 5.913489e+001
8.641232e+002, 5.888274e+001
8.646053e+002, 5.825972e+001
8.650874e+002, 5.761166e+001
8.655695e+002, 5.740648e+001
8.660516e+002, 5.755129e+001
8.665338e+002, 5.777949e+001
8.670159e+002, 5.806831e+001
8.674980e+002, 5.830471e+001
8.679801e+002, 5.838019e+001
8.684622e+002, 5.838300e+001
8.689443e+002, 5.840166e+001
8.694265e+002, 5.846755e+001
8.699086e+002, 5.849893e+001
8.703907e+002, 5.846742e+001
8.708728e+002, 5.844617e+001
8.713549e+002, 5.854461e+001
8.718370e+002, 5.873910e+001
8.723192e+002, 5.868311e+001
8.728013e+002, 5.835682e+001
8.732834e+002, 5.809093e+001
8.737655e+002, 5.828468e+001
8.742476e+002, 5.858964e+001
8.747297e+002, 5.865327e+001
8.752119e+002, 5.843817e+001
8.756940e+002, 5.816462e+001
8.761761e+002, 5.771672e+001
8.766582e+002, 5.740969e+001
8.771403e+002, 5.742889e+001
8.776224e+002, 5.773933e+001
8.781046e+002, 5.778505e+001
8.785867e+002, 5.754505e+001
8.790688e+002, 5.748832e+001
8.795509e+002, 5.813509e+001
8.800330e+002, 5.899265e+001
8.805151e+002, 5.937445e+001
8.809973e+002, 5.934739e+001
8.814794e+002, 5.917668e+001
8.819615e+002, 5.883778e+001
8.824436e+002, 5.851975e+001
8.829257e+002, 5.822506e+001
8.834078e+002, 5.801181e+001
8.838900e+002, 5.810502e+001
8.843721e+002, 5.858759e+001
8.848542e+002, 5.893814e+001
8.853363e+002, 5.899660e+001
8.858184e+002, 5.886079e+001
8.863005e+002, 5.852849e+001
8.867827e+002, 5.814221e+001
8.872648e+002, 5.809138e+001
8.877469e+002, 5.880865e+001
8.882290e+002, 5.944407e+001
8.887111e+002, 5.961437e+001
8.891932e+002, 5.947808e+001
8.896754e+002, 5.925727e+001
8.901575e+002, 5.888849e+001
8.906396e+002, 5.863140e+001
8.911217e+002, 5.851747e+001
8.916038e+002, 5.849766e+001
8.920859e+002, 5.851720e+001
8.925681e+002, 5.858022e+001
8.930502e+002, 5.871855e+001
8.935323e+002, 5.894877e+001
8.940144e+002, 5.915965e+001
8.944965e+002, 5.929250e+001
8.949786e+002, 5.935746e+001
8.954608e+002, 5.934945e+001
8.959429e+002, 5.923668e+001
8.964250e+002, 5.918937e+001
8.969071e+002, 5.928790e+001
8.973892e+002, 5.928991e+001
8.978713e+002, 5.887555e+001
8.983535e+002, 5.817659e+001
8.988356e+002, 5.804219e+001
8.993177e+002, 5.845097e+001
8.997998e+002, 5.900289e+001
9.002819e+002, 5.968118e+001
9.007640e+002, 6.019417e+001
9.012462e+002, 6.022890e+001
9.017283e+002, 5.982929e+001
9.022104e+002, 5.953387e+001
9.026925e+002, 5.941101e+001
9.031746e+002, 5.939706e+001
9.036567e+002, 5.954713e+001
9.041389e+002, 5.975309e+001
9.046210e+002, 5.963517e+001
9.051031e+002, 5.922210e+001
9.055852e+002, 5.875270e+001
9.060673e+002, 5.817987e+001
9.065494e+002, 5.779179e+001
9.070316e+002, 5.796428e+001
9.075137e+002, 5.848012e+001
9.079958e+002, 5.896007e+001
9.084779e+002, 5.937777e+001
9.089600e+002, 5.964739e+001
9.094421e+002, 5.974187e+001
9.099243e+002, 5.971074e+001
9.104064e+002, 5.953994e+001
9.108885e+002, 5.925062e+001
9.113706e+002, 5.926479e+001
9.118527e+002, 5.969157e+001
9.123348e+002, 6.012468e+001
9.128170e+002, 6.026999e+001
9.132991e+002, 6.015272e+001
9.137812e+002, 5.969201e+001
9.142633e+002, 5.869359e+001
9.147454e+002, 5.815836e+001
9.152275e+002, 5.850496e+001
9.157097e+002, 5.901925e+001
9.161918e+002, 5.932352e+001
9.166739e+002, 5.941986e+001
9.171560e+002, 5.938802e+001
9.176381e+002, 5.922660e+001
9.181202e+002, 5.913722e+001
9.186024e+002, 5.932526e+001
9.190845e+002, 5.961300e+001
9.195666e+002, 5.985939e+001
9.200487e+002, 6.004327e+001
9.205308e+002, 6.010358e+001
9.210129e+002, 5.981851e+001
9.214951e+002, 5.966124e+001
9.219772e+002, 5.983506e+001
9.224593e+002, 6.018102e+001
9.229414e+002, 6.013308e+001
9.234235e+002, 5.970232e+001
9.239056e+002, 5.953014e+001
9.243878e+002, 5.999218e+001
9.248699e+002, 6.046645e+001
9.253520e+002, 6.004608e+001
9.258341e+002, 5.921534e+001
9.263162e+002, 5.874396e+001
9.267983e+002, 5.917645e+001
9.272805e+002, 5.948298e+001
9.277626e+002, 5.944330e+001
9.282447e+002, 5.934136e+001
9.287268e+002, 5.948809e+001
9.292089e+002, 5.988534e+001
9.296910e+002, 6.025844e+001
9.301732e+002, 6.059591e+001
9.306553e+002, 6.080220e+001
9.311374e+002, 6.066768e+001
9.316195e+002, 6.042573e+001
9.321016e+002, 6.037207e+001
9.325837e+002, 6.055108e+001
9.330659e+002, 6.061641e+001
9.335480e+002, 6.018517e+001
9.340301e+002, 5.999843e+001
9.345122e+002, 6.046510e+001
9.349943e+002, 6.144723e+001
9.354764e+002, 6.194223e+001
9.359586e+002, 6.196516e+001
9.364407e+002, 6.193860e+001
9.369228e+002, 6.204078e+001
9.374049e+002, 6.223287e+001
9.378870e+002, 6.254192e+001
9.383691e+002, 6.290602e+001
9.388513e+002, 6.317454e+001
9.393334e+002, 6.306986e+001
9.398155e+002, 6.321773e+001
9.402976e+002, 6.383794e+001
9.407797e+002, 6.460019e+001
9.412618e+002, 6.482919e+001
9.417440e+002, 6.459629e+001
9.422261e+002, 6.499702e+001
9.427082e+002, 6.635165e+001
9.431903e+002, 6.762101e+001
9.436724e+002, 6.748135e+001
9.441545e+002, 6.691276e+001
9.446367e+002, 6.699973e+001
9.451188e+002, 6.814272e+001
9.456009e+002, 6.898161e+001
9.460830e+002, 6.919042e+001
9.465651e+002, 6.941178e+001
9.470472e+002, 6.999604e+001
9.475294e+002, 7.092854e+001
9.480115e+002, 7.216463e+001
9.484936e+002, 7.366379e+001
9.489757e+002, 7.490675e+001
9.494578e+002, 7.533034e+001
9.499399e+002, 7.557871e+001
9.504221e+002, 7.604713e+001
9.509042e+002, 7.675501e+001
9.513863e+002, 7.773830e+001
9.518684e+002, 7.921922e+001
9.523505e+002, 8.056129e+001
9.528326e+002, 8.166737e+001
9.533148e+002, 8.256455e+001
9.537969e+002, 8.310769e+001
9.542790e+002, 8.344585e+001
9.547611e+002, 8.431475e+001
9.552432e+002, 8.605930e+001
9.557253e+002, 8.773502e+001
9.562075e+002, 8.849442e+001
9.566896e+002, 8.894188e+001
9.571717e+002, 8.975648e+001
9.576538e+002, 9.129366e+001
9.581359e+002, 9.216628e+001
9.586180e+002, 9.216702e+001
9.591002e+002, 9.201797e+001
9.595823e+002, 9.212460e+001
9.600644e+002, 9.251576e+001
9.605465e+002, 9.353064e+001
9.610286e+002, 9.505700e+001
9.615107e+002, 9.619489e+001
9.619929e+002, 9.620787e+001
9.624750e+002, 9.593700e+001
9.629571e+002, 9.571252e+001
9.634392e+002, 9.556904e+001
9.639213e+002, 9.560644e+001
9.644034e+002, 9.591826e+001
9.648856e+002, 9.603104e+001
9.653677e+002, 9.580673e+001
9.658498e+002, 9.537781e+001
9.663319e+002, 9.490489e+001
9.668140e+002, 9.439600e+001
9.672961e+002, 9.390549e+001
9.677783e+002, 9.352650e+001
9.682604e+002, 9.293863e+001
9.687425e+002, 9.172517e+001
9.692246e+002, 9.047691e+001
9.697067e+002, 8.976917e+001
9.701888e+002, 8.980547e+001
9.706710e+002, 8.887059e+001
9.711531e+002, 8.688931e+001
9.716352e+002, 8.472107e+001
9.721173e+002, 8.295853e+001
9.725994e+002, 8.146670e+001
9.730815e+002, 8.011630e+001
9.735637e+002, 7.887988e+001
9.740458e+002, 7.761655e+001
9.745279e+002, 7.615969e+001
9.750100e+002, 7.482446e+001
9.754921e+002, 7.367332e+001
9.759742e+002, 7.268847e+001
9.764564e+002, 7.183793e+001
9.769385e+002, 7.111172e+001
9.774206e+002, 7.042899e+001
9.779027e+002, 6.976566e+001
9.783848e+002, 6.917526e+001
9.788669e+002, 6.884500e+001
9.793491e+002, 6.854849e+001
9.798312e+002, 6.794630e+001
9.803133e+002, 6.663592e+001
9.807954e+002, 6.596574e+001
9.812775e+002, 6.614836e+001
9.817596e+002, 6.665419e+001
9.822418e+002, 6.745836e+001
9.827239e+002, 6.832419e+001
9.832060e+002, 6.752522e+001
9.836881e+002, 6.528425e+001
9.841702e+002, 6.362077e+001
9.846523e+002, 6.417895e+001
9.851345e+002, 6.529813e+001
9.856166e+002, 6.630966e+001
9.860987e+002, 6.705980e+001
9.865808e+002, 6.717304e+001
9.870629e+002, 6.640225e+001
9.875450e+002, 6.578488e+001
9.880272e+002, 6.554075e+001
9.885093e+002, 6.548470e+001
9.889914e+002, 6.538171e+001
9.894735e+002, 6.524877e+001
9.899556e+002, 6.506929e+001
9.904377e+002, 6.476505e+001
9.909199e+002, 6.474483e+001
9.914020e+002, 6.551637e+001
9.918841e+002, 6.634499e+001
9.923662e+002, 6.673985e+001
9.928483e+002, 6.668425e+001
9.933304e+002, 6.656572e+001
9.938126e+002, 6.637594e+001
9.942947e+002, 6.626640e+001
9.947768e+002, 6.642484e+001
9.952589e+002, 6.664777e+001
9.957410e+002, 6.664335e+001
9.962231e+002, 6.649789e+001
9.967053e+002, 6.646522e+001
9.971874e+002, 6.659235e+001
9.976695e+002, 6.689201e+001
9.981516e+002, 6.741545e+001
9.986337e+002, 6.804989e+001
9.991158e+002, 6.875745e+001
9.995980e+002, 6.947784e+001
1.000080e+003, 6.964317e+001
1.000562e+003, 6.910643e+001
1.001044e+003, 6.864963e+001
1.001526e+003, 6.900553e+001
1.002009e+003, 6.960004e+001
1.002491e+003, 6.994462e+001
1.002973e+003, 6.997102e+001
1.003455e+003, 7.008517e+001
1.003937e+003, 7.029103e+001
1.004419e+003, 7.058523e+001
1.004901e+003, 7.104771e+001
1.005383e+003, 7.152982e+001
1.005865e+003, 7.164888e+001
1.006348e+003, 7.151682e+001
1.006830e+003, 7.145683e+001
1.007312e+003, 7.170236e+001
1.007794e+003, 7.192300e+001
1.008276e+003, 7.190514e+001
1.008758e+003, 7.188481e+001
1.009240e+003, 7.217913e+001
1.009722e+003, 7.284232e+001
1.010205e+003, 7.323081e+001
1.010687e+003, 7.329758e+001
1.011169e+003, 7.318389e+001
1.011651e+003, 7.281670e+001
1.012133e+003, 7.247445e+001
1.012615e+003, 7.254619e+001
1.013097e+003, 7.302637e+001
1.013579e+003, 7.330508e+001
1.014061e+003, 7.319319e+001
1.014544e+003, 7.301472e+001
1.015026e+003, 7.280161e+001
1.015508e+003, 7.263675e+001
1.015990e+003, 7.288546e+001
1.016472e+003, 7.339252e+001
1.016954e+003, 7.347447e+001
1.017436e+003, 7.274899e+001
1.017918e+003, 7.199694e+001
1.018401e+003, 7.173637e+001
1.018883e+003, 7.167222e+001
1.019365e+003, 7.148110e+001
1.019847e+003, 7.108108e+001
1.020329e+003, 7.095327e+001
1.020811e+003, 7.115308e+001
1.021293e+003, 7.132490e+001
1.021775e+003, 7.119933e+001
1.022257e+003, 7.089234e+001
1.022740e+003, 7.048354e+001
1.023222e+003, 7.003653e+001
1.023704e+003, 6.977512e+001
1.024186e+003, 6.994756e+001
1.024668e+003, 7.009768e+001
1.025150e+003, 7.009238e+001
1.025632e+003, 7.004729e+001
1.026114e+003, 7.022636e+001
1.026596e+003, 7.058199e+001
1.027079e+003, 7.069370e+001
1.027561e+003, 7.047950e+001
1.028043e+003, 7.014139e+001
1.028525e+003, 6.983202e+001
1.029007e+003, 6.947770e+001
1.029489e+003, 6.897669e+001
1.029971e+003, 6.831198e+001
1.030453e+003, 6.777794e+001
1.030936e+003, 6.736826e+001
1.031418e+003, 6.712001e+001
1.031900e+003, 6.710191e+001
1.032382e+003, 6.719080e+001
1.032864e+003, 6.721217e+001
1.033346e+003, 6.713976e+001
1.033828e+003, 6.690270e+001
1.034310e+003, 6.630596e+001
1.034792e+003, 6.580521e+001
1.035275e+003, 6.548374e+001
1.035757e+003, 6.532632e+001
1.036239e+003, 6.535483e+001
1.036721e+003, 6.556922e+001
1.037203e+003, 6.584388e+001
1.037685e+003, 6.616990e+001
1.038167e+003, 6.633977e+001
1.038649e+003, 6.607717e+001
1.039132e+003, 6.570002e+001
1.039614e+003, 6.536702e+001
1.040096e+003, 6.513184e+001
1.040578e+003, 6.519993e+001
1.041060e+003, 6.577205e+001
1.041542e+003, 6.610464e+001
1.042024e+003, 6.600513e+001
1.042506e+003, 6.573202e+001
1.042989e+003, 6.572884e+001
1.043471e+003, 6.583164e+001
1.043953e+003, 6.563075e+001
1.044435e+003, 6.496442e+001
1.044917e+003, 6.448972e+001
1.045399e+003, 6.470909e+001
1.045881e+003, 6.492368e+001
1.046363e+003, 6.472121e+001
1.046845e+003, 6.418660e+001
1.047328e+003, 6.405070e+001
1.047810e+003, 6.428928e+001
1.048292e+003, 6.449625e+001
1.048774e+003, 6.444174e+001
1.049256e+003, 6.434481e+001
1.049738e+003, 6.438329e+001
1.050220e+003, 6.449609e+001
1.050702e+003, 6.457399e+001
1.051184e+003, 6.449892e+001
1.051667e+003, 6.471970e+001
1.052149e+003, 6.538438e+001
1.052631e+003, 6.588772e+001
1.053113e+003, 6.540934e+001
1.053595e+003, 6.451528e+001
1.054077e+003, 6.440900e+001
1.054559e+003, 6.502156e+001
1.055041e+003, 6.553476e+001
1.055523e+003, 6.553139e+001
1.056006e+003, 6.548862e+001
1.056488e+003, 6.560799e+001
1.056970e+003, 6.572279e+001
1.057452e+003, 6.535292e+001
1.057934e+003, 6.458370e+001
1.058416e+003, 6.425239e+001
1.058898e+003, 6.457220e+001
1.059380e+003, 6.500137e+001
1.059863e+003, 6.515253e+001
1.060345e+003, 6.518247e+001
1.060827e+003, 6.519014e+001
1.061309e+003, 6.518173e+001
1.061791e+003, 6.528339e+001
1.062273e+003, 6.555098e+001
1.062755e+003, 6.564983e+001
1.063237e+003, 6.536812e+001
1.063719e+003, 6.492229e+001
1.064202e+003, 6.449967e+001
1.064684e+003, 6.419302e+001
1.065166e+003, 6.419924e+001
1.065648e+003, 6.490921e+001
1.066130e+003, 6.534331e+001
1.066612e+003, 6.535615e+001
1.067094e+003, 6.516043e+001
1.067576e+003, 6.482294e+001
1.068059e+003, 6.440641e+001
1.068541e+003, 6.436995e+001
1.069023e+003, 6.466894e+001
1.069505e+003, 6.490125e+001
1.069987e+003, 6.479396e+001
1.070469e+003, 6.459288e+001
1.070951e+003, 6.448781e+001
1.071433e+003, 6.435233e+001
1.071916e+003, 6.380497e+001
1.072398e+003, 6.272824e+001
1.072880e+003, 6.242322e+001
1.073362e+003, 6.315140e+001
1.073844e+003, 6.410519e+001
1.074326e+003, 6.459281e+001
1.074808e+003, 6.478754e+001
1.075290e+003, 6.480521e+001
1.075772e+003, 6.466075e+001
1.076255e+003, 6.460477e+001
1.076737e+003, 6.466642e+001
1.077219e+003, 6.479526e+001
1.077701e+003, 6.501147e+001
1.078183e+003, 6.523110e+001
1.078665e+003, 6.526534e+001
1.079147e+003, 6.517558e+001
1.079629e+003, 6.511556e+001
1.080111e+003, 6.516444e+001
1.080594e+003, 6.512591e+001
1.081076e+003, 6.492660e+001
1.081558e+003, 6.461026e+001
1.082040e+003, 6.412858e+001
1.082522e+003, 6.352092e+001
1.083004e+003, 6.325299e+001
1.083486e+003, 6.329964e+001
1.083968e+003, 6.344395e+001
1.084450e+003, 6.357430e+001
1.084933e+003, 6.375593e+001
1.085415e+003, 6.419987e+001
1.085897e+003, 6.464576e+001
1.086379e+003, 6.465484e+001
1.086861e+003, 6.404664e+001
1.087343e+003, 6.377956e+001
1.087825e+003, 6.396027e+001
1.088307e+003, 6.405621e+001
1.088790e+003, 6.331496e+001
1.089272e+003, 6.241966e+001
1.089754e+003, 6.225596e+001
1.090236e+003, 6.273875e+001
1.090718e+003, 6.319596e+001
1.091200e+003, 6.362381e+001
1.091682e+003, 6.376926e+001
1.092164e+003, 6.348922e+001
1.092646e+003, 6.309273e+001
1.093129e+003, 6.314790e+001
1.093611e+003, 6.344476e+001
1.094093e+003, 6.341219e+001
1.094575e+003, 6.293811e+001
1.095057e+003, 6.254152e+001
1.095539e+003, 6.261256e+001
1.096021e+003, 6.263132e+001
1.096503e+003, 6.227937e+001
1.096986e+003, 6.173259e+001
1.097468e+003, 6.170485e+001
1.097950e+003, 6.214396e+001
1.098432e+003, 6.262612e+001
1.098914e+003, 6.308800e+001
1.099396e+003, 6.337078e+001
1.099878e+003, 6.318525e+001
1.100360e+003, 6.287969e+001
1.100843e+003, 6.283260e+001
1.101325e+003, 6.309526e+001
1.101807e+003, 6.313871e+001
1.102289e+003, 6.294391e+001
1.102771e+003, 6.274168e+001
1.103253e+003, 6.273437e+001
1.103735e+003, 6.271894e+001
1.104217e+003, 6.232204e+001
1.104699e+003, 6.177394e+001
1.105182e+003, 6.151381e+001
1.105664e+003, 6.176266e+001
1.106146e+003, 6.208165e+001
1.106628e+003, 6.251240e+001
1.107110e+003, 6.287981e+001
1.107592e+003, 6.307073e+001
1.108074e+003, 6.307222e+001
1.108556e+003, 6.271553e+001
1.109038e+003, 6.209934e+001
1.109521e+003, 6.174006e+001
1.110003e+003, 6.212444e+001
1.110485e+003, 6.238639e+001
1.110967e+003, 6.222066e+001
1.111449e+003, 6.199654e+001
1.111931e+003, 6.249742e+001
1.112413e+003, 6.346767e+001
1.112895e+003, 6.358158e+001
1.113377e+003, 6.266982e+001
1.113860e+003, 6.190107e+001
1.114342e+003, 6.214935e+001
1.114824e+003, 6.257704e+001
1.115306e+003, 6.272709e+001
1.115788e+003, 6.268871e+001
1.116270e+003, 6.272817e+001
1.116752e+003, 6.284800e+001
1.117234e+003, 6.320523e+001
1.117717e+003, 6.392348e+001
1.118199e+003, 6.453996e+001
1.118681e+003, 6.457882e+001
1.119163e+003, 6.436488e+001
1.119645e+003, 6.418179e+001
1.120127e+003, 6.405195e+001
1.120609e+003, 6.388605e+001
1.121091e+003, 6.366576e+001
1.121573e+003, 6.351966e+001
1.122056e+003, 6.349816e+001
1.122538e+003, 6.358321e+001
1.123020e+003, 6.387082e+001
1.123502e+003, 6.420561e+001
1.123984e+003, 6.432852e+001
1.124466e+003, 6.401293e+001
1.124948e+003, 6.389259e+001
1.125430e+003, 6.400295e+001
1.125913e+003, 6.424139e+001
1.126395e+003, 6.469002e+001
1.126877e+003, 6.514731e+001
1.127359e+003, 6.505199e+001
1.127841e+003, 6.458187e+001
1.128323e+003, 6.422938e+001
1.128805e+003, 6.423907e+001
1.129287e+003, 6.429985e+001
1.129770e+003, 6.436980e+001
1.130252e+003, 6.446658e+001
1.130734e+003, 6.460380e+001
1.131216e+003, 6.478191e+001
1.131698e+003, 6.509901e+001
1.132180e+003, 6.551138e+001
1.132662e+003, 6.568356e+001
1.133144e+003, 6.508657e+001
1.133626e+003, 6.463631e+001
1.134109e+003, 6.471503e+001
1.134591e+003, 6.507256e+001
1.135073e+003, 6.539454e+001
1.135555e+003, 6.566954e+001
1.136037e+003, 6.581079e+001
1.136519e+003, 6.581005e+001
1.137001e+003, 6.560209e+001
1.137483e+003, 6.469828e+001
1.137965e+003, 6.399533e+001
1.138448e+003, 6.443054e+001
1.138930e+003, 6.550420e+001
1.139412e+003, 6.556477e+001
1.139894e+003, 6.455057e+001
1.140376e+003, 6.378279e+001
1.140858e+003, 6.352876e+001
1.141340e+003, 6.362516e+001
1.141822e+003, 6.423617e+001
1.142304e+003, 6.489317e+001
1.142787e+003, 6.511314e+001
1.143269e+003, 6.486726e+001
1.143751e+003, 6.477954e+001
1.144233e+003, 6.490073e+001
1.144715e+003, 6.486897e+001
1.145197e+003, 6.448354e+001
1.145679e+003, 6.407555e+001
1.146161e+003, 6.402323e+001
1.146644e+003, 6.423783e+001
1.147126e+003, 6.468995e+001
1.147608e+003, 6.554299e+001
1.148090e+003, 6.582478e+001
1.148572e+003, 6.535733e+001
1.149054e+003, 6.484284e+001
1.149536e+003, 6.466163e+001
1.150018e+003, 6.459840e+001
1.150500e+003, 6.419028e+001
1.150983e+003, 6.362947e+001
1.151465e+003, 6.329827e+001
1.151947e+003, 6.338672e+001
1.152429e+003, 6.356777e+001
1.152911e+003, 6.388760e+001
1.153393e+003, 6.413927e+001
1.153875e+003, 6.415342e+001
1.154357e+003, 6.400243e+001
1.154840e+003, 6.385511e+001
1.155322e+003, 6.371108e+001
1.155804e+003, 6.357606e+001
1.156286e+003, 6.329604e+001
1.156768e+003, 6.327604e+001
1.157250e+003, 6.371149e+001
1.157732e+003, 6.418685e+001
1.158214e+003, 6.428092e+001
1.158697e+003, 6.408384e+001
1.159179e+003, 6.397964e+001
1.159661e+003, 6.396116e+001
1.160143e+003, 6.392321e+001
1.160625e+003, 6.382746e+001
1.161107e+003, 6.368064e+001
1.161589e+003, 6.344285e+001
1.162071e+003, 6.319857e+001
1.162553e+003, 6.309016e+001
1.163036e+003, 6.308623e+001
1.163518e+003, 6.289925e+001
1.164000e+003, 6.252684e+001
1.164482e+003, 6.229920e+001
1.164964e+003, 6.272862e+001
1.165446e+003, 6.299908e+001
1.165928e+003, 6.256158e+001
1.166410e+003, 6.180742e+001
1.166892e+003, 6.141170e+001
1.167375e+003, 6.136375e+001
1.167857e+003, 6.167821e+001
1.168339e+003, 6.238369e+001
1.168821e+003, 6.281363e+001
1.169303e+003, 6.206615e+001
1.169785e+003, 6.128556e+001
1.170267e+003, 6.143497e+001
1.170749e+003, 6.210255e+001
1.171231e+003, 6.197860e+001
1.171714e+003, 6.107088e+001
1.172196e+003, 6.062292e+001
1.172678e+003, 6.095036e+001
1.173160e+003, 6.139304e+001
1.173642e+003, 6.150198e+001
1.174124e+003, 6.140561e+001
1.174606e+003, 6.106286e+001
1.175088e+003, 6.057149e+001
1.175571e+003, 6.054428e+001
1.176053e+003, 6.100823e+001
1.176535e+003, 6.142627e+001
1.177017e+003, 6.168473e+001
1.177499e+003, 6.172878e+001
1.177981e+003, 6.111649e+001
1.178463e+003, 6.053827e+001
1.178945e+003, 6.087310e+001
1.179427e+003, 6.214124e+001
1.179910e+003, 6.271019e+001
1.180392e+003, 6.252568e+001
1.180874e+003, 6.222311e+001
1.181356e+003, 6.205342e+001
1.181838e+003, 6.182819e+001
1.182320e+003, 6.101760e+001
1.182802e+003, 6.022773e+001
1.183284e+003, 6.032430e+001
1.183767e+003, 6.154099e+001
1.184249e+003, 6.227971e+001
1.184731e+003, 6.255071e+001
1.185213e+003, 6.226028e+001
1.185695e+003, 6.103511e+001
1.186177e+003, 5.974617e+001
1.186659e+003, 5.939588e+001
1.187141e+003, 5.964563e+001
1.187624e+003, 6.011060e+001
1.188106e+003, 6.093235e+001
1.188588e+003, 6.105867e+001
1.189070e+003, 6.033055e+001
1.189552e+003, 5.982605e+001
1.190034e+003, 6.034728e+001
1.190516e+003, 6.122975e+001
1.190998e+003, 6.187196e+001
1.191480e+003, 6.220779e+001
1.191963e+003, 6.206673e+001
1.192445e+003, 6.108849e+001
1.192927e+003, 6.054261e+001
1.193409e+003, 6.048371e+001
1.193891e+003, 6.060131e+001
1.194373e+003, 6.077981e+001
1.194855e+003, 6.093359e+001
1.195337e+003, 6.096440e+001
1.195819e+003, 6.087894e+001
1.196302e+003, 6.067332e+001
1.196784e+003, 6.015732e+001
1.197266e+003, 6.001477e+001
1.197748e+003, 6.034485e+001
1.198230e+003, 6.067772e+001
1.198712e+003, 6.049712e+001
1.199194e+003, 6.019498e+001
1.199676e+003, 6.037562e+001
1.200158e+003, 6.087139e+001
1.200641e+003, 6.120594e+001
1.201123e+003, 6.128380e+001
1.201605e+003, 6.123265e+001
1.202087e+003, 6.103471e+001
1.202569e+003, 6.080877e+001
1.203051e+003, 6.065438e+001
1.203533e+003, 6.054422e+001
1.204015e+003, 6.036729e+001
1.204498e+003, 6.019611e+001
1.204980e+003, 6.032797e+001
1.205462e+003, 6.113726e+001
1.205944e+003, 6.135405e+001
1.206426e+003, 6.073749e+001
1.206908e+003, 6.004932e+001
1.207390e+003, 6.019721e+001
1.207872e+003, 6.061322e+001
1.208354e+003, 6.036211e+001
1.208837e+003, 5.965186e+001
1.209319e+003, 5.968712e+001
1.209801e+003, 6.112437e+001
1.210283e+003, 6.182007e+001
1.210765e+003, 6.138782e+001
1.211247e+003, 6.070603e+001
1.211729e+003, 6.070770e+001
1.212211e+003, 6.099072e+001
1.212694e+003, 6.103344e+001
1.213176e+003, 6.086320e+001
1.213658e+003, 6.084011e+001
1.214140e+003, 6.106023e+001
1.214622e+003, 6.122939e+001
1.215104e+003, 6.130604e+001
1.215586e+003, 6.132459e+001
1.216068e+003, 6.131961e+001
1.216551e+003, 6.128135e+001
1.217033e+003, 6.114206e+001
1.217515e+003, 6.093510e+001
1.217997e+003, 6.094354e+001
1.218479e+003, 6.130271e+001
1.218961e+003, 6.142159e+001
1.219443e+003, 6.115759e+001
1.219925e+003, 6.081406e+001
1.220407e+003, 6.076269e+001
1.220890e+003, 6.079758e+001
1.221372e+003, 6.061231e+001
1.221854e+003, 6.024199e+001
1.222336e+003, 6.018799e+001
1.222818e+003, 6.055051e+001
1.223300e+003, 6.089486e+001
1.223782e+003, 6.115654e+001
1.224264e+003, 6.129033e+001
1.224746e+003, 6.114777e+001
1.225229e+003, 6.092282e+001
1.225711e+003, 6.081592e+001
1.226193e+003, 6.083722e+001
1.226675e+003, 6.086543e+001
1.227157e+003, 6.091240e+001
1.227639e+003, 6.087023e+001
1.228121e+003, 6.068317e+001
1.228603e+003, 6.056318e+001
1.229085e+003, 6.087680e+001
1.229568e+003, 6.125863e+001
1.230050e+003, 6.132260e+001
1.230532e+003, 6.108038e+001
1.231014e+003, 6.090339e+001
1.231496e+003, 6.078393e+001
1.231978e+003, 6.082201e+001
1.232460e+003, 6.108324e+001
1.232942e+003, 6.128973e+001
1.233425e+003, 6.108514e+001
1.233907e+003, 6.077903e+001
1.234389e+003, 6.070432e+001
1.234871e+003, 6.080197e+001
1.235353e+003, 6.055448e+001
1.235835e+003, 5.993739e+001
1.236317e+003, 5.959417e+001
1.236799e+003, 5.969177e+001
1.237281e+003, 6.003410e+001
1.237764e+003, 6.080403e+001
1.238246e+003, 6.145387e+001
1.238728e+003, 6.140475e+001
1.239210e+003, 6.084640e+001
1.239692e+003, 6.051733e+001
1.240174e+003, 6.041494e+001
1.240656e+003, 6.031718e+001
1.241138e+003, 6.014332e+001
1.241621e+003, 6.014661e+001
1.242103e+003, 6.078880e+001
1.242585e+003, 6.140447e+001
1.243067e+003, 6.147506e+001
1.243549e+003, 6.117762e+001
1.244031e+003, 6.124935e+001
1.244513e+003, 6.161101e+001
1.244995e+003, 6.156227e+001
1.245478e+003, 6.086356e+001
1.245960e+003, 6.022683e+001
1.246442e+003, 6.015706e+001
1.246924e+003, 6.019326e+001
1.247406e+003, 6.004832e+001
1.247888e+003, 5.982550e+001
1.248370e+003, 5.988562e+001
1.248852e+003, 6.016281e+001
1.249334e+003, 6.040442e+001
1.249817e+003, 6.056851e+001
1.250299e+003, 6.058134e+001
1.250781e+003, 6.020127e+001
1.251263e+003, 5.990690e+001
1.251745e+003, 5.989210e+001
1.252227e+003, 6.008467e+001
1.252709e+003, 6.040929e+001
1.253191e+003, 6.078456e+001
1.253673e+003, 6.099239e+001
1.254156e+003, 6.099268e+001
1.254638e+003, 6.077350e+001
1.255120e+003, 5.994192e+001
1.255602e+003, 5.951533e+001
1.256084e+003, 5.999426e+001
1.256566e+003, 6.084410e+001
1.257048e+003, 6.098606e+001
1.257530e+003, 6.068733e+001
1.258012e+003, 6.046629e+001
1.258495e+003, 6.041128e+001
1.258977e+003, 6.044484e+001
1.259459e+003, 6.054815e+001
1.259941e+003, 6.075187e+001
1.260423e+003, 6.112715e+001
1.260905e+003, 6.147495e+001
1.261387e+003, 6.140419e+001
1.261869e+003, 6.113507e+001
1.262352e+003, 6.094651e+001
1.262834e+003, 6.087971e+001
1.263316e+003, 6.112923e+001
1.263798e+003, 6.189478e+001
1.264280e+003, 6.220695e+001
1.264762e+003, 6.166308e+001
1.265244e+003, 6.092554e+001
1.265726e+003, 6.077638e+001
1.266208e+003, 6.089259e+001
1.266691e+003, 6.090800e+001
1.267173e+003, 6.079606e+001
1.267655e+003, 6.085746e+001
1.268137e+003, 6.112603e+001
1.268619e+003, 6.127998e+001
1.269101e+003, 6.121679e+001
1.269583e+003, 6.109272e+001
1.270065e+003, 6.102148e+001
1.270548e+003, 6.098272e+001
1.271030e+003, 6.100423e+001
1.271512e+003, 6.104676e+001
1.271994e+003, 6.094376e+001
1.272476e+003, 6.069578e+001
1.272958e+003, 6.021478e+001
1.273440e+003, 5.940163e+001
1.273922e+003, 5.896655e+001
1.274405e+003, 5.988542e+001
1.274887e+003, 6.087212e+001
1.275369e+003, 6.118073e+001
1.275851e+003, 6.098420e+001
1.276333e+003, 6.064723e+001
1.276815e+003, 6.023077e+001
1.277297e+003, 6.010013e+001
1.277779e+003, 6.034661e+001
1.278261e+003, 6.051311e+001
1.278744e+003, 6.022893e+001
1.279226e+003, 5.997632e+001
1.279708e+003, 5.990163e+001
1.280190e+003, 5.998944e+001
1.280672e+003, 6.028338e+001
1.281154e+003, 6.069919e+001
1.281636e+003, 6.106543e+001
1.282118e+003, 6.135989e+001
1.282600e+003, 6.142662e+001
1.283083e+003, 6.098060e+001
1.283565e+003, 6.073002e+001
1.284047e+003, 6.087360e+001
1.284529e+003, 6.118369e+001
1.285011e+003, 6.147147e+001
1.285493e+003, 6.163951e+001
1.285975e+003, 6.142381e+001
1.286457e+003, 6.084657e+001
1.286939e+003, 6.056422e+001
1.287422e+003, 6.073423e+001
1.287904e+003, 6.083592e+001
1.288386e+003, 6.077964e+001
1.288868e+003, 6.059800e+001
1.289350e+003, 6.003677e+001
1.289832e+003, 5.959625e+001
1.290314e+003, 6.003522e+001
1.290796e+003, 6.110302e+001
1.291279e+003, 6.140426e+001
1.291761e+003, 6.084233e+001
1.292243e+003, 6.049173e+001
1.292725e+003, 6.050171e+001
1.293207e+003, 6.071189e+001
1.293689e+003, 6.125933e+001
1.294171e+003, 6.169425e+001
1.294653e+003, 6.158031e+001
1.295135e+003, 6.120464e+001
1.295618e+003, 6.101892e+001
1.296100e+003, 6.101005e+001
1.296582e+003, 6.106033e+001
1.297064e+003, 6.116395e+001
1.297546e+003, 6.132163e+001
1.298028e+003, 6.175957e+001
1.298510e+003, 6.188079e+001
1.298992e+003, 6.130073e+001
1.299475e+003, 6.066220e+001
1.299957e+003, 6.100279e+001
1.300439e+003, 6.192728e+001
1.300921e+003, 6.225069e+001
1.301403e+003, 6.198989e+001
1.301885e+003, 6.170992e+001
##END=



