##NAMES=Natrolite
##RRUFFID=R120124
##IDEAL CHEMISTRY=Na_2_(Si_3_Al_2_)O_10_&#183;2H_2_O
##LOCALITY=Sagasen, Telemark, Norway
##OWNER=RRUFF
##SOURCE=Marcus Origlieri
##DESCRIPTION=Colorless transparent prisms associated with b√∂hmite R120123
##STATUS=The identification of this mineral has been confirmed by single-crystal X-ray diffraction.
##URL=rruff.info/R120124
8.936163e+001, 0.000000e+000
8.984375e+001, 5.608044e+001
9.032587e+001, 5.572166e+001
9.080798e+001, 5.569643e+001
9.129010e+001, 5.627095e+001
9.177222e+001, 5.686526e+001
9.225433e+001, 5.659846e+001
9.273645e+001, 5.554298e+001
9.321857e+001, 5.448583e+001
9.370068e+001, 5.419402e+001
9.418280e+001, 5.446560e+001
9.466492e+001, 5.465674e+001
9.514703e+001, 5.454923e+001
9.562915e+001, 5.421859e+001
9.611127e+001, 5.381252e+001
9.659338e+001, 5.330415e+001
9.707550e+001, 5.287014e+001
9.755762e+001, 5.281237e+001
9.803973e+001, 5.313951e+001
9.852185e+001, 5.337373e+001
9.900397e+001, 5.325652e+001
9.948608e+001, 5.277664e+001
9.996820e+001, 5.246832e+001
1.004503e+002, 5.241984e+001
1.009324e+002, 5.243917e+001
1.014146e+002, 5.206674e+001
1.018967e+002, 5.115542e+001
1.023788e+002, 5.026311e+001
1.028609e+002, 4.962912e+001
1.033430e+002, 4.922346e+001
1.038251e+002, 4.923133e+001
1.043073e+002, 4.986896e+001
1.047894e+002, 5.096265e+001
1.052715e+002, 5.160020e+001
1.057536e+002, 5.164454e+001
1.062357e+002, 5.139095e+001
1.067178e+002, 5.095715e+001
1.072000e+002, 4.956622e+001
1.076821e+002, 4.915858e+001
1.081642e+002, 5.061224e+001
1.086463e+002, 5.417804e+001
1.091284e+002, 5.610900e+001
1.096105e+002, 5.486213e+001
1.100927e+002, 5.264658e+001
1.105748e+002, 5.152990e+001
1.110569e+002, 5.288478e+001
1.115390e+002, 5.407978e+001
1.120211e+002, 5.439415e+001
1.125032e+002, 5.346944e+001
1.129854e+002, 5.289013e+001
1.134675e+002, 5.316771e+001
1.139496e+002, 5.385986e+001
1.144317e+002, 5.433044e+001
1.149138e+002, 5.441468e+001
1.153959e+002, 5.425477e+001
1.158781e+002, 5.387133e+001
1.163602e+002, 5.312179e+001
1.168423e+002, 5.244524e+001
1.173244e+002, 5.198595e+001
1.178065e+002, 5.171025e+001
1.182886e+002, 5.153244e+001
1.187708e+002, 5.134821e+001
1.192529e+002, 5.128121e+001
1.197350e+002, 5.145593e+001
1.202171e+002, 5.212823e+001
1.206992e+002, 5.278098e+001
1.211813e+002, 5.320380e+001
1.216635e+002, 5.337473e+001
1.221456e+002, 5.314811e+001
1.226277e+002, 5.193294e+001
1.231098e+002, 5.037990e+001
1.235919e+002, 4.935137e+001
1.240740e+002, 4.939534e+001
1.245562e+002, 4.995389e+001
1.250383e+002, 5.060488e+001
1.255204e+002, 5.135021e+001
1.260025e+002, 5.188459e+001
1.264846e+002, 5.182436e+001
1.269667e+002, 5.133233e+001
1.274489e+002, 5.081561e+001
1.279310e+002, 5.023726e+001
1.284131e+002, 4.978712e+001
1.288952e+002, 4.993457e+001
1.293773e+002, 5.077029e+001
1.298594e+002, 5.183235e+001
1.303416e+002, 5.272709e+001
1.308237e+002, 5.342360e+001
1.313058e+002, 5.375636e+001
1.317879e+002, 5.329048e+001
1.322700e+002, 5.226476e+001
1.327521e+002, 5.190889e+001
1.332343e+002, 5.244364e+001
1.337164e+002, 5.345793e+001
1.341985e+002, 5.437068e+001
1.346806e+002, 5.520268e+001
1.351627e+002, 5.565797e+001
1.356448e+002, 5.529562e+001
1.361270e+002, 5.409621e+001
1.366091e+002, 5.340298e+001
1.370912e+002, 5.357981e+001
1.375733e+002, 5.427756e+001
1.380554e+002, 5.412767e+001
1.385375e+002, 5.278222e+001
1.390197e+002, 5.160383e+001
1.395018e+002, 5.190378e+001
1.399839e+002, 5.415638e+001
1.404660e+002, 5.578340e+001
1.409481e+002, 5.623795e+001
1.414302e+002, 5.560203e+001
1.419124e+002, 5.492204e+001
1.423945e+002, 5.398659e+001
1.428766e+002, 5.329741e+001
1.433587e+002, 5.345095e+001
1.438408e+002, 5.491301e+001
1.443229e+002, 5.626657e+001
1.448051e+002, 5.720801e+001
1.452872e+002, 5.770919e+001
1.457693e+002, 5.808827e+001
1.462514e+002, 5.843243e+001
1.467335e+002, 5.860755e+001
1.472156e+002, 5.839442e+001
1.476978e+002, 5.715233e+001
1.481799e+002, 5.631841e+001
1.486620e+002, 5.634618e+001
1.491441e+002, 5.764658e+001
1.496262e+002, 5.869268e+001
1.501083e+002, 5.924560e+001
1.505905e+002, 5.956846e+001
1.510726e+002, 6.012730e+001
1.515547e+002, 6.166304e+001
1.520368e+002, 6.279159e+001
1.525189e+002, 6.289817e+001
1.530010e+002, 6.040038e+001
1.534832e+002, 5.963811e+001
1.539653e+002, 6.182467e+001
1.544474e+002, 6.598740e+001
1.549295e+002, 6.979126e+001
1.554116e+002, 7.264626e+001
1.558937e+002, 7.530180e+001
1.563759e+002, 7.803080e+001
1.568580e+002, 8.043300e+001
1.573401e+002, 8.350484e+001
1.578222e+002, 8.720818e+001
1.583043e+002, 9.166443e+001
1.587864e+002, 9.732067e+001
1.592686e+002, 1.050576e+002
1.597507e+002, 1.135905e+002
1.602328e+002, 1.220890e+002
1.607149e+002, 1.291717e+002
1.611970e+002, 1.373889e+002
1.616791e+002, 1.472687e+002
1.621613e+002, 1.587437e+002
1.626434e+002, 1.723716e+002
1.631255e+002, 1.886283e+002
1.636076e+002, 2.069239e+002
1.640897e+002, 2.267332e+002
1.645718e+002, 2.479029e+002
1.650540e+002, 2.705345e+002
1.655361e+002, 2.945260e+002
1.660182e+002, 3.200118e+002
1.665003e+002, 3.472645e+002
1.669824e+002, 3.776304e+002
1.674645e+002, 4.099002e+002
1.679467e+002, 4.421476e+002
1.684288e+002, 4.731307e+002
1.689109e+002, 5.045106e+002
1.693930e+002, 5.378853e+002
1.698751e+002, 5.735336e+002
1.703572e+002, 6.089741e+002
1.708394e+002, 6.431415e+002
1.713215e+002, 6.763568e+002
1.718036e+002, 7.086364e+002
1.722857e+002, 7.395760e+002
1.727678e+002, 7.701375e+002
1.732499e+002, 8.018228e+002
1.737321e+002, 8.352855e+002
1.742142e+002, 8.673175e+002
1.746963e+002, 8.955330e+002
1.751784e+002, 9.208285e+002
1.756605e+002, 9.454327e+002
1.761426e+002, 9.689525e+002
1.766248e+002, 9.927318e+002
1.771069e+002, 1.018547e+003
1.775890e+002, 1.046810e+003
1.780711e+002, 1.076544e+003
1.785532e+002, 1.107233e+003
1.790353e+002, 1.138906e+003
1.795175e+002, 1.170465e+003
1.799996e+002, 1.200003e+003
1.804817e+002, 1.229336e+003
1.809638e+002, 1.262900e+003
1.814459e+002, 1.301867e+003
1.819280e+002, 1.343620e+003
1.824102e+002, 1.386922e+003
1.828923e+002, 1.430717e+003
1.833744e+002, 1.473525e+003
1.838565e+002, 1.512239e+003
1.843386e+002, 1.548809e+003
1.848207e+002, 1.587749e+003
1.853029e+002, 1.630535e+003
1.857850e+002, 1.675030e+003
1.862671e+002, 1.718824e+003
1.867492e+002, 1.761769e+003
1.872313e+002, 1.804705e+003
1.877134e+002, 1.849013e+003
1.881956e+002, 1.894352e+003
1.886777e+002, 1.936565e+003
1.891598e+002, 1.974518e+003
1.896419e+002, 2.010266e+003
1.901240e+002, 2.049018e+003
1.906061e+002, 2.091451e+003
1.910883e+002, 2.133051e+003
1.915704e+002, 2.171031e+003
1.920525e+002, 2.205837e+003
1.925346e+002, 2.238270e+003
1.930167e+002, 2.267681e+003
1.934988e+002, 2.293764e+003
1.939810e+002, 2.312153e+003
1.944631e+002, 2.320859e+003
1.949452e+002, 2.329283e+003
1.954273e+002, 2.335443e+003
1.959094e+002, 2.339397e+003
1.963915e+002, 2.343535e+003
1.968737e+002, 2.348560e+003
1.973558e+002, 2.354025e+003
1.978379e+002, 2.357891e+003
1.983200e+002, 2.359710e+003
1.988021e+002, 2.362147e+003
1.992842e+002, 2.369152e+003
1.997664e+002, 2.381281e+003
2.002485e+002, 2.388368e+003
2.007306e+002, 2.385667e+003
2.012127e+002, 2.376275e+003
2.016948e+002, 2.379112e+003
2.021769e+002, 2.397030e+003
2.026591e+002, 2.418049e+003
2.031412e+002, 2.429696e+003
2.036233e+002, 2.430639e+003
2.041054e+002, 2.433736e+003
2.045875e+002, 2.442894e+003
2.050696e+002, 2.457122e+003
2.055518e+002, 2.466783e+003
2.060339e+002, 2.470276e+003
2.065160e+002, 2.472827e+003
2.069981e+002, 2.480137e+003
2.074802e+002, 2.492978e+003
2.079623e+002, 2.506531e+003
2.084445e+002, 2.521036e+003
2.089266e+002, 2.536255e+003
2.094087e+002, 2.543900e+003
2.098908e+002, 2.541761e+003
2.103729e+002, 2.536282e+003
2.108550e+002, 2.534069e+003
2.113372e+002, 2.535349e+003
2.118193e+002, 2.539053e+003
2.123014e+002, 2.545748e+003
2.127835e+002, 2.555380e+003
2.132656e+002, 2.563270e+003
2.137477e+002, 2.569727e+003
2.142299e+002, 2.574071e+003
2.147120e+002, 2.574417e+003
2.151941e+002, 2.568241e+003
2.156762e+002, 2.565125e+003
2.161583e+002, 2.568218e+003
2.166404e+002, 2.577841e+003
2.171226e+002, 2.586322e+003
2.176047e+002, 2.593940e+003
2.180868e+002, 2.600094e+003
2.185689e+002, 2.603993e+003
2.190510e+002, 2.605040e+003
2.195331e+002, 2.605255e+003
2.200153e+002, 2.604688e+003
2.204974e+002, 2.603104e+003
2.209795e+002, 2.603671e+003
2.214616e+002, 2.606875e+003
2.219437e+002, 2.611775e+003
2.224258e+002, 2.617805e+003
2.229080e+002, 2.626576e+003
2.233901e+002, 2.632911e+003
2.238722e+002, 2.634100e+003
2.243543e+002, 2.628986e+003
2.248364e+002, 2.629181e+003
2.253185e+002, 2.636992e+003
2.258007e+002, 2.647830e+003
2.262828e+002, 2.656095e+003
2.267649e+002, 2.660870e+003
2.272470e+002, 2.664511e+003
2.277291e+002, 2.666896e+003
2.282112e+002, 2.667507e+003
2.286934e+002, 2.670814e+003
2.291755e+002, 2.677703e+003
2.296576e+002, 2.686440e+003
2.301397e+002, 2.695080e+003
2.306218e+002, 2.705229e+003
2.311039e+002, 2.712505e+003
2.315861e+002, 2.714927e+003
2.320682e+002, 2.711554e+003
2.325503e+002, 2.710540e+003
2.330324e+002, 2.712233e+003
2.335145e+002, 2.716070e+003
2.339966e+002, 2.721920e+003
2.344788e+002, 2.732267e+003
2.349609e+002, 2.740191e+003
2.354430e+002, 2.743127e+003
2.359251e+002, 2.740046e+003
2.364072e+002, 2.739427e+003
2.368893e+002, 2.742202e+003
2.373715e+002, 2.746620e+003
2.378536e+002, 2.750466e+003
2.383357e+002, 2.753166e+003
2.388178e+002, 2.756241e+003
2.392999e+002, 2.759966e+003
2.397820e+002, 2.764227e+003
2.402642e+002, 2.769504e+003
2.407463e+002, 2.776607e+003
2.412284e+002, 2.783930e+003
2.417105e+002, 2.789507e+003
2.421926e+002, 2.792771e+003
2.426747e+002, 2.795156e+003
2.431569e+002, 2.796650e+003
2.436390e+002, 2.797021e+003
2.441211e+002, 2.798288e+003
2.446032e+002, 2.800620e+003
2.450853e+002, 2.803684e+003
2.455674e+002, 2.807395e+003
2.460496e+002, 2.813139e+003
2.465317e+002, 2.816932e+003
2.470138e+002, 2.816854e+003
2.474959e+002, 2.812250e+003
2.479780e+002, 2.812153e+003
2.484601e+002, 2.818791e+003
2.489423e+002, 2.827819e+003
2.494244e+002, 2.834583e+003
2.499065e+002, 2.838625e+003
2.503886e+002, 2.841477e+003
2.508707e+002, 2.843383e+003
2.513528e+002, 2.844336e+003
2.518350e+002, 2.844515e+003
2.523171e+002, 2.842727e+003
2.527992e+002, 2.841441e+003
2.532813e+002, 2.843270e+003
2.537634e+002, 2.848966e+003
2.542455e+002, 2.856148e+003
2.547277e+002, 2.865574e+003
2.552098e+002, 2.877352e+003
2.556919e+002, 2.883261e+003
2.561740e+002, 2.879980e+003
2.566561e+002, 2.874878e+003
2.571382e+002, 2.875258e+003
2.576204e+002, 2.883382e+003
2.581025e+002, 2.891484e+003
2.585846e+002, 2.898417e+003
2.590667e+002, 2.904189e+003
2.595488e+002, 2.908036e+003
2.600309e+002, 2.908934e+003
2.605131e+002, 2.909338e+003
2.609952e+002, 2.911536e+003
2.614773e+002, 2.916345e+003
2.619594e+002, 2.920884e+003
2.624415e+002, 2.924989e+003
2.629236e+002, 2.928602e+003
2.634058e+002, 2.929845e+003
2.638879e+002, 2.926781e+003
2.643700e+002, 2.924717e+003
2.648521e+002, 2.928904e+003
2.653342e+002, 2.942092e+003
2.658163e+002, 2.951949e+003
2.662985e+002, 2.955474e+003
2.667806e+002, 2.954026e+003
2.672627e+002, 2.955905e+003
2.677448e+002, 2.962524e+003
2.682269e+002, 2.969427e+003
2.687090e+002, 2.972732e+003
2.691912e+002, 2.971100e+003
2.696733e+002, 2.971644e+003
2.701554e+002, 2.975469e+003
2.706375e+002, 2.981992e+003
2.711196e+002, 2.989301e+003
2.716017e+002, 2.997997e+003
2.720839e+002, 3.005714e+003
2.725660e+002, 3.010225e+003
2.730481e+002, 3.010961e+003
2.735302e+002, 3.012475e+003
2.740123e+002, 3.015454e+003
2.744944e+002, 3.019373e+003
2.749766e+002, 3.022569e+003
2.754587e+002, 3.024799e+003
2.759408e+002, 3.027351e+003
2.764229e+002, 3.031918e+003
2.769050e+002, 3.038991e+003
2.773871e+002, 3.041829e+003
2.778693e+002, 3.038346e+003
2.783514e+002, 3.032271e+003
2.788335e+002, 3.032681e+003
2.793156e+002, 3.040636e+003
2.797977e+002, 3.048854e+003
2.802798e+002, 3.052207e+003
2.807620e+002, 3.050611e+003
2.812441e+002, 3.053694e+003
2.817262e+002, 3.063265e+003
2.822083e+002, 3.075163e+003
2.826904e+002, 3.081444e+003
2.831725e+002, 3.081706e+003
2.836547e+002, 3.081812e+003
2.841368e+002, 3.085552e+003
2.846189e+002, 3.092379e+003
2.851010e+002, 3.095166e+003
2.855831e+002, 3.092497e+003
2.860652e+002, 3.089316e+003
2.865474e+002, 3.094395e+003
2.870295e+002, 3.107539e+003
2.875116e+002, 3.119090e+003
2.879937e+002, 3.124433e+003
2.884758e+002, 3.124433e+003
2.889579e+002, 3.122747e+003
2.894401e+002, 3.118686e+003
2.899222e+002, 3.116339e+003
2.904043e+002, 3.122404e+003
2.908864e+002, 3.135841e+003
2.913685e+002, 3.148318e+003
2.918506e+002, 3.157218e+003
2.923328e+002, 3.162731e+003
2.928149e+002, 3.163657e+003
2.932970e+002, 3.159601e+003
2.937791e+002, 3.155795e+003
2.942612e+002, 3.158252e+003
2.947433e+002, 3.165745e+003
2.952255e+002, 3.173578e+003
2.957076e+002, 3.181029e+003
2.961897e+002, 3.187356e+003
2.966718e+002, 3.189824e+003
2.971539e+002, 3.188535e+003
2.976360e+002, 3.187682e+003
2.981182e+002, 3.191947e+003
2.986003e+002, 3.199431e+003
2.990824e+002, 3.205443e+003
2.995645e+002, 3.208280e+003
3.000466e+002, 3.209535e+003
3.005287e+002, 3.210688e+003
3.010109e+002, 3.211918e+003
3.014930e+002, 3.214605e+003
3.019751e+002, 3.220598e+003
3.024572e+002, 3.228575e+003
3.029393e+002, 3.236299e+003
3.034214e+002, 3.243644e+003
3.039036e+002, 3.250171e+003
3.043857e+002, 3.255404e+003
3.048678e+002, 3.259444e+003
3.053499e+002, 3.262706e+003
3.058320e+002, 3.264605e+003
3.063141e+002, 3.266186e+003
3.067963e+002, 3.268824e+003
3.072784e+002, 3.273109e+003
3.077605e+002, 3.277477e+003
3.082426e+002, 3.279651e+003
3.087247e+002, 3.280785e+003
3.092068e+002, 3.283675e+003
3.096890e+002, 3.291449e+003
3.101711e+002, 3.300534e+003
3.106532e+002, 3.307574e+003
3.111353e+002, 3.311792e+003
3.116174e+002, 3.315698e+003
3.120995e+002, 3.320869e+003
3.125817e+002, 3.326670e+003
3.130638e+002, 3.332172e+003
3.135459e+002, 3.338025e+003
3.140280e+002, 3.342739e+003
3.145101e+002, 3.344634e+003
3.149922e+002, 3.343406e+003
3.154744e+002, 3.343221e+003
3.159565e+002, 3.346923e+003
3.164386e+002, 3.352563e+003
3.169207e+002, 3.357861e+003
3.174028e+002, 3.362728e+003
3.178849e+002, 3.366725e+003
3.183671e+002, 3.368920e+003
3.188492e+002, 3.369517e+003
3.193313e+002, 3.371491e+003
3.198134e+002, 3.377122e+003
3.202955e+002, 3.383889e+003
3.207776e+002, 3.389707e+003
3.212598e+002, 3.392836e+003
3.217419e+002, 3.396320e+003
3.222240e+002, 3.401440e+003
3.227061e+002, 3.407700e+003
3.231882e+002, 3.412641e+003
3.236703e+002, 3.412462e+003
3.241525e+002, 3.413077e+003
3.246346e+002, 3.417861e+003
3.251167e+002, 3.432040e+003
3.255988e+002, 3.443749e+003
3.260809e+002, 3.451305e+003
3.265630e+002, 3.455627e+003
3.270452e+002, 3.459222e+003
3.275273e+002, 3.460746e+003
3.280094e+002, 3.462861e+003
3.284915e+002, 3.466676e+003
3.289736e+002, 3.473240e+003
3.294557e+002, 3.479141e+003
3.299379e+002, 3.484436e+003
3.304200e+002, 3.489056e+003
3.309021e+002, 3.492699e+003
3.313842e+002, 3.493758e+003
3.318663e+002, 3.495940e+003
3.323484e+002, 3.500725e+003
3.328306e+002, 3.508638e+003
3.333127e+002, 3.514789e+003
3.337948e+002, 3.518113e+003
3.342769e+002, 3.520595e+003
3.347590e+002, 3.524536e+003
3.352411e+002, 3.530933e+003
3.357233e+002, 3.536634e+003
3.362054e+002, 3.540643e+003
3.366875e+002, 3.543191e+003
3.371696e+002, 3.547193e+003
3.376517e+002, 3.553425e+003
3.381339e+002, 3.559750e+003
3.386160e+002, 3.563783e+003
3.390981e+002, 3.564685e+003
3.395802e+002, 3.567918e+003
3.400623e+002, 3.574925e+003
3.405444e+002, 3.584477e+003
3.410266e+002, 3.591854e+003
3.415087e+002, 3.596705e+003
3.419908e+002, 3.601292e+003
3.424729e+002, 3.607784e+003
3.429550e+002, 3.616055e+003
3.434371e+002, 3.621302e+003
3.439193e+002, 3.622349e+003
3.444014e+002, 3.621505e+003
3.448835e+002, 3.622671e+003
3.453656e+002, 3.625844e+003
3.458477e+002, 3.630035e+003
3.463298e+002, 3.634875e+003
3.468120e+002, 3.640426e+003
3.472941e+002, 3.646926e+003
3.477762e+002, 3.654667e+003
3.482583e+002, 3.662436e+003
3.487404e+002, 3.668240e+003
3.492225e+002, 3.672684e+003
3.497047e+002, 3.678296e+003
3.501868e+002, 3.687774e+003
3.506689e+002, 3.698231e+003
3.511510e+002, 3.704311e+003
3.516331e+002, 3.706016e+003
3.521152e+002, 3.706177e+003
3.525974e+002, 3.705305e+003
3.530795e+002, 3.704741e+003
3.535616e+002, 3.707156e+003
3.540437e+002, 3.714227e+003
3.545258e+002, 3.723281e+003
3.550079e+002, 3.733758e+003
3.554901e+002, 3.744697e+003
3.559722e+002, 3.752018e+003
3.564543e+002, 3.750752e+003
3.569364e+002, 3.745788e+003
3.574185e+002, 3.741426e+003
3.579006e+002, 3.737430e+003
3.583828e+002, 3.736999e+003
3.588649e+002, 3.744273e+003
3.593470e+002, 3.756529e+003
3.598291e+002, 3.768276e+003
3.603112e+002, 3.778428e+003
3.607933e+002, 3.786348e+003
3.612755e+002, 3.790625e+003
3.617576e+002, 3.790387e+003
3.622397e+002, 3.791910e+003
3.627218e+002, 3.801005e+003
3.632039e+002, 3.811857e+003
3.636860e+002, 3.817979e+003
3.641682e+002, 3.811085e+003
3.646503e+002, 3.805616e+003
3.651324e+002, 3.807063e+003
3.656145e+002, 3.815214e+003
3.660966e+002, 3.822634e+003
3.665787e+002, 3.828695e+003
3.670609e+002, 3.833297e+003
3.675430e+002, 3.836379e+003
3.680251e+002, 3.834117e+003
3.685072e+002, 3.834942e+003
3.689893e+002, 3.841622e+003
3.694714e+002, 3.852139e+003
3.699536e+002, 3.859642e+003
3.704357e+002, 3.861485e+003
3.709178e+002, 3.863142e+003
3.713999e+002, 3.866790e+003
3.718820e+002, 3.873279e+003
3.723641e+002, 3.879747e+003
3.728463e+002, 3.886672e+003
3.733284e+002, 3.893169e+003
3.738105e+002, 3.897727e+003
3.742926e+002, 3.899467e+003
3.747747e+002, 3.901148e+003
3.752568e+002, 3.903329e+003
3.757390e+002, 3.905994e+003
3.762211e+002, 3.909860e+003
3.767032e+002, 3.915158e+003
3.771853e+002, 3.921162e+003
3.776674e+002, 3.927396e+003
3.781495e+002, 3.933893e+003
3.786317e+002, 3.940583e+003
3.791138e+002, 3.948129e+003
3.795959e+002, 3.955511e+003
3.800780e+002, 3.958680e+003
3.805601e+002, 3.957187e+003
3.810422e+002, 3.956609e+003
3.815244e+002, 3.962848e+003
3.820065e+002, 3.974215e+003
3.824886e+002, 3.979974e+003
3.829707e+002, 3.977909e+003
3.834528e+002, 3.973680e+003
3.839349e+002, 3.975150e+003
3.844171e+002, 3.981716e+003
3.848992e+002, 3.989735e+003
3.853813e+002, 3.999066e+003
3.858634e+002, 4.008288e+003
3.863455e+002, 4.014480e+003
3.868276e+002, 4.017385e+003
3.873098e+002, 4.020139e+003
3.877919e+002, 4.025587e+003
3.882740e+002, 4.032741e+003
3.887561e+002, 4.039873e+003
3.892382e+002, 4.047227e+003
3.897203e+002, 4.053500e+003
3.902025e+002, 4.056167e+003
3.906846e+002, 4.056094e+003
3.911667e+002, 4.057611e+003
3.916488e+002, 4.064909e+003
3.921309e+002, 4.073815e+003
3.926130e+002, 4.080996e+003
3.930952e+002, 4.085770e+003
3.935773e+002, 4.088648e+003
3.940594e+002, 4.087809e+003
3.945415e+002, 4.085391e+003
3.950236e+002, 4.085343e+003
3.955057e+002, 4.090360e+003
3.959879e+002, 4.096748e+003
3.964700e+002, 4.103118e+003
3.969521e+002, 4.109299e+003
3.974342e+002, 4.116144e+003
3.979163e+002, 4.124841e+003
3.983984e+002, 4.133794e+003
3.988806e+002, 4.141542e+003
3.993627e+002, 4.148407e+003
3.998448e+002, 4.153550e+003
4.003269e+002, 4.156341e+003
4.008090e+002, 4.157062e+003
4.012911e+002, 4.157558e+003
4.017733e+002, 4.155422e+003
4.022554e+002, 4.155862e+003
4.027375e+002, 4.162364e+003
4.032196e+002, 4.178919e+003
4.037017e+002, 4.191528e+003
4.041838e+002, 4.199224e+003
4.046660e+002, 4.203460e+003
4.051481e+002, 4.206494e+003
4.056302e+002, 4.208095e+003
4.061123e+002, 4.209405e+003
4.065944e+002, 4.210137e+003
4.070765e+002, 4.210470e+003
4.075587e+002, 4.214385e+003
4.080408e+002, 4.222382e+003
4.085229e+002, 4.231982e+003
4.090050e+002, 4.241401e+003
4.094871e+002, 4.250462e+003
4.099692e+002, 4.257568e+003
4.104514e+002, 4.261920e+003
4.109335e+002, 4.264599e+003
4.114156e+002, 4.267714e+003
4.118977e+002, 4.271188e+003
4.123798e+002, 4.274666e+003
4.128619e+002, 4.276221e+003
4.133441e+002, 4.277896e+003
4.138262e+002, 4.285214e+003
4.143083e+002, 4.300156e+003
4.147904e+002, 4.314199e+003
4.152725e+002, 4.317677e+003
4.157546e+002, 4.314250e+003
4.162368e+002, 4.311552e+003
4.167189e+002, 4.312842e+003
4.172010e+002, 4.316379e+003
4.176831e+002, 4.321642e+003
4.181652e+002, 4.328415e+003
4.186473e+002, 4.334599e+003
4.191295e+002, 4.338188e+003
4.196116e+002, 4.341037e+003
4.200937e+002, 4.344786e+003
4.205758e+002, 4.350787e+003
4.210579e+002, 4.356386e+003
4.215400e+002, 4.359862e+003
4.220222e+002, 4.362323e+003
4.225043e+002, 4.366595e+003
4.229864e+002, 4.377488e+003
4.234685e+002, 4.386706e+003
4.239506e+002, 4.389670e+003
4.244327e+002, 4.382335e+003
4.249149e+002, 4.381860e+003
4.253970e+002, 4.394083e+003
4.258791e+002, 4.410474e+003
4.263612e+002, 4.422651e+003
4.268433e+002, 4.427103e+003
4.273254e+002, 4.432817e+003
4.278076e+002, 4.442088e+003
4.282897e+002, 4.454058e+003
4.287718e+002, 4.461770e+003
4.292539e+002, 4.463097e+003
4.297360e+002, 4.464102e+003
4.302181e+002, 4.468698e+003
4.307003e+002, 4.477551e+003
4.311824e+002, 4.485101e+003
4.316645e+002, 4.490560e+003
4.321466e+002, 4.495565e+003
4.326287e+002, 4.503548e+003
4.331108e+002, 4.514559e+003
4.335930e+002, 4.524207e+003
4.340751e+002, 4.530190e+003
4.345572e+002, 4.533696e+003
4.350393e+002, 4.538295e+003
4.355214e+002, 4.544009e+003
4.360035e+002, 4.550849e+003
4.364857e+002, 4.559147e+003
4.369678e+002, 4.568505e+003
4.374499e+002, 4.578438e+003
4.379320e+002, 4.589562e+003
4.384141e+002, 4.599704e+003
4.388962e+002, 4.604415e+003
4.393784e+002, 4.605764e+003
4.398605e+002, 4.609891e+003
4.403426e+002, 4.622465e+003
4.408247e+002, 4.637631e+003
4.413068e+002, 4.651745e+003
4.417889e+002, 4.664554e+003
4.422711e+002, 4.673425e+003
4.427532e+002, 4.675201e+003
4.432353e+002, 4.673034e+003
4.437174e+002, 4.670199e+003
4.441995e+002, 4.666836e+003
4.446816e+002, 4.663704e+003
4.451638e+002, 4.661125e+003
4.456459e+002, 4.658989e+003
4.461280e+002, 4.656684e+003
4.466101e+002, 4.652116e+003
4.470922e+002, 4.649026e+003
4.475743e+002, 4.649120e+003
4.480565e+002, 4.653081e+003
4.485386e+002, 4.658566e+003
4.490207e+002, 4.667045e+003
4.495028e+002, 4.676103e+003
4.499849e+002, 4.682471e+003
4.504670e+002, 4.685567e+003
4.509492e+002, 4.687427e+003
4.514313e+002, 4.688186e+003
4.519134e+002, 4.688065e+003
4.523955e+002, 4.688204e+003
4.528776e+002, 4.688466e+003
4.533597e+002, 4.689666e+003
4.538419e+002, 4.692767e+003
4.543240e+002, 4.697710e+003
4.548061e+002, 4.702428e+003
4.552882e+002, 4.706743e+003
4.557703e+002, 4.710692e+003
4.562524e+002, 4.713135e+003
4.567346e+002, 4.714629e+003
4.572167e+002, 4.718676e+003
4.576988e+002, 4.729493e+003
4.581809e+002, 4.742577e+003
4.586630e+002, 4.750023e+003
4.591451e+002, 4.751965e+003
4.596273e+002, 4.752206e+003
4.601094e+002, 4.750732e+003
4.605915e+002, 4.750225e+003
4.610736e+002, 4.754866e+003
4.615557e+002, 4.767958e+003
4.620378e+002, 4.781169e+003
4.625200e+002, 4.789339e+003
4.630021e+002, 4.793861e+003
4.634842e+002, 4.797229e+003
4.639663e+002, 4.799262e+003
4.644484e+002, 4.801491e+003
4.649305e+002, 4.804875e+003
4.654127e+002, 4.809574e+003
4.658948e+002, 4.813837e+003
4.663769e+002, 4.815411e+003
4.668590e+002, 4.817581e+003
4.673411e+002, 4.822710e+003
4.678232e+002, 4.832353e+003
4.683054e+002, 4.843389e+003
4.687875e+002, 4.857529e+003
4.692696e+002, 4.872547e+003
4.697517e+002, 4.882479e+003
4.702338e+002, 4.884076e+003
4.707159e+002, 4.886453e+003
4.711981e+002, 4.893634e+003
4.716802e+002, 4.905929e+003
4.721623e+002, 4.913551e+003
4.726444e+002, 4.914693e+003
4.731265e+002, 4.915777e+003
4.736086e+002, 4.922922e+003
4.740908e+002, 4.936060e+003
4.745729e+002, 4.953642e+003
4.750550e+002, 4.978653e+003
4.755371e+002, 5.002761e+003
4.760192e+002, 5.005604e+003
4.765013e+002, 4.989955e+003
4.769835e+002, 4.977765e+003
4.774656e+002, 4.985236e+003
4.779477e+002, 5.002396e+003
4.784298e+002, 5.013118e+003
4.789119e+002, 5.016570e+003
4.793940e+002, 5.018024e+003
4.798762e+002, 5.021083e+003
4.803583e+002, 5.024814e+003
4.808404e+002, 5.027840e+003
4.813225e+002, 5.028048e+003
4.818046e+002, 5.029948e+003
4.822867e+002, 5.039140e+003
4.827689e+002, 5.052174e+003
4.832510e+002, 5.060065e+003
4.837331e+002, 5.052606e+003
4.842152e+002, 5.045790e+003
4.846973e+002, 5.047834e+003
4.851794e+002, 5.061559e+003
4.856616e+002, 5.072653e+003
4.861437e+002, 5.078733e+003
4.866258e+002, 5.082417e+003
4.871079e+002, 5.085462e+003
4.875900e+002, 5.086133e+003
4.880721e+002, 5.089279e+003
4.885543e+002, 5.096282e+003
4.890364e+002, 5.105606e+003
4.895185e+002, 5.112749e+003
4.900006e+002, 5.116969e+003
4.904827e+002, 5.120829e+003
4.909648e+002, 5.125573e+003
4.914470e+002, 5.131081e+003
4.919291e+002, 5.135333e+003
4.924112e+002, 5.138317e+003
4.928933e+002, 5.139981e+003
4.933754e+002, 5.139236e+003
4.938575e+002, 5.136889e+003
4.943397e+002, 5.136337e+003
4.948218e+002, 5.138385e+003
4.953039e+002, 5.142641e+003
4.957860e+002, 5.150273e+003
4.962681e+002, 5.160091e+003
4.967502e+002, 5.167866e+003
4.972324e+002, 5.168458e+003
4.977145e+002, 5.167875e+003
4.981966e+002, 5.171646e+003
4.986787e+002, 5.180090e+003
4.991608e+002, 5.190494e+003
4.996429e+002, 5.205810e+003
5.001251e+002, 5.220067e+003
5.006072e+002, 5.228097e+003
5.010893e+002, 5.223083e+003
5.015714e+002, 5.219246e+003
5.020535e+002, 5.219573e+003
5.025356e+002, 5.223134e+003
5.030178e+002, 5.227823e+003
5.034999e+002, 5.233231e+003
5.039820e+002, 5.240272e+003
5.044641e+002, 5.250832e+003
5.049462e+002, 5.265386e+003
5.054283e+002, 5.272540e+003
5.059105e+002, 5.268675e+003
5.063926e+002, 5.263138e+003
5.068747e+002, 5.263339e+003
5.073568e+002, 5.270258e+003
5.078389e+002, 5.276077e+003
5.083210e+002, 5.279011e+003
5.088032e+002, 5.282338e+003
5.092853e+002, 5.294327e+003
5.097674e+002, 5.314201e+003
5.102495e+002, 5.329207e+003
5.107316e+002, 5.330757e+003
5.112137e+002, 5.325389e+003
5.116959e+002, 5.327209e+003
5.121780e+002, 5.335788e+003
5.126601e+002, 5.346512e+003
5.131422e+002, 5.356950e+003
5.136243e+002, 5.367096e+003
5.141064e+002, 5.377596e+003
5.145886e+002, 5.389453e+003
5.150707e+002, 5.398441e+003
5.155528e+002, 5.400317e+003
5.160349e+002, 5.398160e+003
5.165170e+002, 5.396439e+003
5.169991e+002, 5.393479e+003
5.174813e+002, 5.394478e+003
5.179634e+002, 5.403438e+003
5.184455e+002, 5.419280e+003
5.189276e+002, 5.432700e+003
5.194097e+002, 5.441669e+003
5.198918e+002, 5.448730e+003
5.203740e+002, 5.453860e+003
5.208561e+002, 5.454668e+003
5.213382e+002, 5.461821e+003
5.218203e+002, 5.478253e+003
5.223024e+002, 5.497464e+003
5.227845e+002, 5.511884e+003
5.232667e+002, 5.520530e+003
5.237488e+002, 5.529493e+003
5.242309e+002, 5.540254e+003
5.247130e+002, 5.551553e+003
5.251951e+002, 5.559746e+003
5.256772e+002, 5.564950e+003
5.261594e+002, 5.570836e+003
5.266415e+002, 5.579102e+003
5.271236e+002, 5.589776e+003
5.276057e+002, 5.603832e+003
5.280878e+002, 5.621345e+003
5.285699e+002, 5.638438e+003
5.290521e+002, 5.653421e+003
5.295342e+002, 5.665433e+003
5.300163e+002, 5.672510e+003
5.304984e+002, 5.670798e+003
5.309805e+002, 5.670201e+003
5.314626e+002, 5.676574e+003
5.319448e+002, 5.687861e+003
5.324269e+002, 5.700022e+003
5.329090e+002, 5.716666e+003
5.333911e+002, 5.729332e+003
5.338732e+002, 5.732843e+003
5.343553e+002, 5.726547e+003
5.348375e+002, 5.725280e+003
5.353196e+002, 5.734516e+003
5.358017e+002, 5.743510e+003
5.362838e+002, 5.746239e+003
5.367659e+002, 5.740839e+003
5.372480e+002, 5.733483e+003
5.377302e+002, 5.722530e+003
5.382123e+002, 5.711855e+003
5.386944e+002, 5.708192e+003
5.391765e+002, 5.712022e+003
5.396586e+002, 5.716118e+003
5.401407e+002, 5.719052e+003
5.406229e+002, 5.720673e+003
5.411050e+002, 5.718970e+003
5.415871e+002, 5.714530e+003
5.420692e+002, 5.712479e+003
5.425513e+002, 5.718945e+003
5.430334e+002, 5.728918e+003
5.435156e+002, 5.734180e+003
5.439977e+002, 5.734103e+003
5.444798e+002, 5.733732e+003
5.449619e+002, 5.735848e+003
5.454440e+002, 5.739878e+003
5.459261e+002, 5.745310e+003
5.464083e+002, 5.753431e+003
5.468904e+002, 5.760663e+003
5.473725e+002, 5.764907e+003
5.478546e+002, 5.767236e+003
5.483367e+002, 5.770142e+003
5.488188e+002, 5.772800e+003
5.493010e+002, 5.777157e+003
5.497831e+002, 5.784477e+003
5.502652e+002, 5.794646e+003
5.507473e+002, 5.802190e+003
5.512294e+002, 5.805452e+003
5.517115e+002, 5.808916e+003
5.521937e+002, 5.816347e+003
5.526758e+002, 5.828600e+003
5.531579e+002, 5.837417e+003
5.536400e+002, 5.842337e+003
5.541221e+002, 5.844519e+003
5.546042e+002, 5.843916e+003
5.550864e+002, 5.841288e+003
5.555685e+002, 5.840966e+003
5.560506e+002, 5.843573e+003
5.565327e+002, 5.849939e+003
5.570148e+002, 5.864125e+003
5.574969e+002, 5.883876e+003
5.579791e+002, 5.900909e+003
5.584612e+002, 5.909100e+003
5.589433e+002, 5.913308e+003
5.594254e+002, 5.916947e+003
5.599075e+002, 5.920264e+003
5.603896e+002, 5.922832e+003
5.608718e+002, 5.921885e+003
5.613539e+002, 5.921683e+003
5.618360e+002, 5.925647e+003
5.623181e+002, 5.940075e+003
5.628002e+002, 5.949967e+003
5.632823e+002, 5.952333e+003
5.637645e+002, 5.950941e+003
5.642466e+002, 5.951223e+003
5.647287e+002, 5.953229e+003
5.652108e+002, 5.957121e+003
5.656929e+002, 5.963386e+003
5.661750e+002, 5.971532e+003
5.666572e+002, 5.980052e+003
5.671393e+002, 5.989112e+003
5.676214e+002, 5.996743e+003
5.681035e+002, 5.999681e+003
5.685856e+002, 5.999894e+003
5.690677e+002, 6.006528e+003
5.695499e+002, 6.020153e+003
5.700320e+002, 6.034088e+003
5.705141e+002, 6.041582e+003
5.709962e+002, 6.045146e+003
5.714783e+002, 6.048960e+003
5.719604e+002, 6.054632e+003
5.724426e+002, 6.059612e+003
5.729247e+002, 6.060663e+003
5.734068e+002, 6.060181e+003
5.738889e+002, 6.062481e+003
5.743710e+002, 6.064442e+003
5.748531e+002, 6.074093e+003
5.753353e+002, 6.100377e+003
5.758174e+002, 6.141271e+003
5.762995e+002, 6.169304e+003
5.767816e+002, 6.182818e+003
5.772637e+002, 6.184414e+003
5.777458e+002, 6.170915e+003
5.782280e+002, 6.136152e+003
5.787101e+002, 6.121090e+003
5.791922e+002, 6.130262e+003
5.796743e+002, 6.149116e+003
5.801564e+002, 6.164302e+003
5.806385e+002, 6.175789e+003
5.811207e+002, 6.183122e+003
5.816028e+002, 6.184620e+003
5.820849e+002, 6.185354e+003
5.825670e+002, 6.194766e+003
5.830491e+002, 6.210128e+003
5.835313e+002, 6.223140e+003
5.840134e+002, 6.227132e+003
5.844955e+002, 6.228792e+003
5.849776e+002, 6.233452e+003
5.854597e+002, 6.241018e+003
5.859418e+002, 6.250699e+003
5.864240e+002, 6.267027e+003
5.869061e+002, 6.281513e+003
5.873882e+002, 6.287988e+003
5.878703e+002, 6.282627e+003
5.883524e+002, 6.281398e+003
5.888345e+002, 6.289283e+003
5.893167e+002, 6.299983e+003
5.897988e+002, 6.308635e+003
5.902809e+002, 6.313897e+003
5.907630e+002, 6.320529e+003
5.912451e+002, 6.330154e+003
5.917272e+002, 6.340092e+003
5.922094e+002, 6.343494e+003
5.926915e+002, 6.339675e+003
5.931736e+002, 6.340519e+003
5.936557e+002, 6.353166e+003
5.941378e+002, 6.371046e+003
5.946199e+002, 6.376268e+003
5.951021e+002, 6.370362e+003
5.955842e+002, 6.366104e+003
5.960663e+002, 6.373687e+003
5.965484e+002, 6.386472e+003
5.970305e+002, 6.396927e+003
5.975126e+002, 6.404364e+003
5.979948e+002, 6.411833e+003
5.984769e+002, 6.420815e+003
5.989590e+002, 6.430606e+003
5.994411e+002, 6.440843e+003
5.999232e+002, 6.453098e+003
6.004053e+002, 6.463155e+003
6.008875e+002, 6.470683e+003
6.013696e+002, 6.475504e+003
6.018517e+002, 6.476495e+003
6.023338e+002, 6.469164e+003
6.028159e+002, 6.467170e+003
6.032980e+002, 6.474466e+003
6.037802e+002, 6.488421e+003
6.042623e+002, 6.499939e+003
6.047444e+002, 6.508690e+003
6.052265e+002, 6.516737e+003
6.057086e+002, 6.525123e+003
6.061907e+002, 6.533550e+003
6.066729e+002, 6.540670e+003
6.071550e+002, 6.546439e+003
6.076371e+002, 6.553066e+003
6.081192e+002, 6.564285e+003
6.086013e+002, 6.576499e+003
6.090834e+002, 6.584419e+003
6.095656e+002, 6.586452e+003
6.100477e+002, 6.587737e+003
6.105298e+002, 6.589906e+003
6.110119e+002, 6.593457e+003
6.114940e+002, 6.599006e+003
6.119761e+002, 6.609653e+003
6.124583e+002, 6.619021e+003
6.129404e+002, 6.627134e+003
6.134225e+002, 6.633486e+003
6.139046e+002, 6.636187e+003
6.143867e+002, 6.632168e+003
6.148688e+002, 6.630922e+003
6.153510e+002, 6.634626e+003
6.158331e+002, 6.643301e+003
6.163152e+002, 6.659339e+003
6.167973e+002, 6.683505e+003
6.172794e+002, 6.705716e+003
6.177615e+002, 6.718933e+003
6.182437e+002, 6.724476e+003
6.187258e+002, 6.723477e+003
6.192079e+002, 6.715401e+003
6.196900e+002, 6.712107e+003
6.201721e+002, 6.730524e+003
6.206542e+002, 6.756788e+003
6.211364e+002, 6.772535e+003
6.216185e+002, 6.768892e+003
6.221006e+002, 6.765377e+003
6.225827e+002, 6.772011e+003
6.230648e+002, 6.783704e+003
6.235469e+002, 6.793324e+003
6.240291e+002, 6.799702e+003
6.245112e+002, 6.804144e+003
6.249933e+002, 6.805374e+003
6.254754e+002, 6.805153e+003
6.259575e+002, 6.810159e+003
6.264396e+002, 6.823520e+003
6.269218e+002, 6.833307e+003
6.274039e+002, 6.833380e+003
6.278860e+002, 6.825780e+003
6.283681e+002, 6.821793e+003
6.288502e+002, 6.821343e+003
6.293323e+002, 6.825804e+003
6.298145e+002, 6.841233e+003
6.302966e+002, 6.860943e+003
6.307787e+002, 6.870205e+003
6.312608e+002, 6.866704e+003
6.317429e+002, 6.864602e+003
6.322250e+002, 6.878592e+003
6.327072e+002, 6.897554e+003
6.331893e+002, 6.909355e+003
6.336714e+002, 6.906443e+003
6.341535e+002, 6.903593e+003
6.346356e+002, 6.902690e+003
6.351177e+002, 6.904674e+003
6.355999e+002, 6.911284e+003
6.360820e+002, 6.927216e+003
6.365641e+002, 6.939967e+003
6.370462e+002, 6.946682e+003
6.375283e+002, 6.949082e+003
6.380104e+002, 6.953352e+003
6.384926e+002, 6.960087e+003
6.389747e+002, 6.965263e+003
6.394568e+002, 6.965234e+003
6.399389e+002, 6.962710e+003
6.404210e+002, 6.967704e+003
6.409031e+002, 6.979951e+003
6.413853e+002, 6.992980e+003
6.418674e+002, 7.002993e+003
6.423495e+002, 7.010814e+003
6.428316e+002, 7.017038e+003
6.433137e+002, 7.021743e+003
6.437958e+002, 7.025509e+003
6.442780e+002, 7.024849e+003
6.447601e+002, 7.025468e+003
6.452422e+002, 7.032574e+003
6.457243e+002, 7.052908e+003
6.462064e+002, 7.070585e+003
6.466885e+002, 7.084665e+003
6.471707e+002, 7.095653e+003
6.476528e+002, 7.103415e+003
6.481349e+002, 7.106577e+003
6.486170e+002, 7.110947e+003
6.490991e+002, 7.117996e+003
6.495812e+002, 7.126427e+003
6.500634e+002, 7.132958e+003
6.505455e+002, 7.137841e+003
6.510276e+002, 7.143867e+003
6.515097e+002, 7.152991e+003
6.519918e+002, 7.163775e+003
6.524739e+002, 7.175481e+003
6.529561e+002, 7.187352e+003
6.534382e+002, 7.196147e+003
6.539203e+002, 7.195405e+003
6.544024e+002, 7.194178e+003
6.548845e+002, 7.199619e+003
6.553666e+002, 7.213038e+003
6.558488e+002, 7.225014e+003
6.563309e+002, 7.232444e+003
6.568130e+002, 7.238565e+003
6.572951e+002, 7.245299e+003
6.577772e+002, 7.252849e+003
6.582593e+002, 7.260695e+003
6.587415e+002, 7.269361e+003
6.592236e+002, 7.277501e+003
6.597057e+002, 7.283634e+003
6.601878e+002, 7.287759e+003
6.606699e+002, 7.289855e+003
6.611520e+002, 7.288959e+003
6.616342e+002, 7.288395e+003
6.621163e+002, 7.293569e+003
6.625984e+002, 7.302896e+003
6.630805e+002, 7.312145e+003
6.635626e+002, 7.317883e+003
6.640447e+002, 7.324656e+003
6.645269e+002, 7.338183e+003
6.650090e+002, 7.355505e+003
6.654911e+002, 7.368384e+003
6.659732e+002, 7.371054e+003
6.664553e+002, 7.372060e+003
6.669374e+002, 7.373823e+003
6.674196e+002, 7.376482e+003
6.679017e+002, 7.380488e+003
6.683838e+002, 7.385462e+003
6.688659e+002, 7.392886e+003
6.693480e+002, 7.405434e+003
6.698301e+002, 7.422999e+003
6.703123e+002, 7.432597e+003
6.707944e+002, 7.433349e+003
6.712765e+002, 7.433167e+003
6.717586e+002, 7.438940e+003
6.722407e+002, 7.449014e+003
6.727228e+002, 7.460134e+003
6.732050e+002, 7.472180e+003
6.736871e+002, 7.483137e+003
6.741692e+002, 7.490548e+003
6.746513e+002, 7.496393e+003
6.751334e+002, 7.502883e+003
6.756155e+002, 7.510649e+003
6.760977e+002, 7.518892e+003
6.765798e+002, 7.527568e+003
6.770619e+002, 7.536398e+003
6.775440e+002, 7.544985e+003
6.780261e+002, 7.553573e+003
6.785082e+002, 7.561494e+003
6.789904e+002, 7.569122e+003
6.794725e+002, 7.575847e+003
6.799546e+002, 7.579152e+003
6.804367e+002, 7.579021e+003
6.809188e+002, 7.580676e+003
6.814009e+002, 7.586929e+003
6.818831e+002, 7.596092e+003
6.823652e+002, 7.606096e+003
6.828473e+002, 7.616599e+003
6.833294e+002, 7.625166e+003
6.838115e+002, 7.629186e+003
6.842936e+002, 7.631771e+003
6.847758e+002, 7.634074e+003
6.852579e+002, 7.636224e+003
6.857400e+002, 7.642136e+003
6.862221e+002, 7.654928e+003
6.867042e+002, 7.669931e+003
6.871863e+002, 7.685176e+003
6.876685e+002, 7.701031e+003
6.881506e+002, 7.714983e+003
6.886327e+002, 7.726884e+003
6.891148e+002, 7.737424e+003
6.895969e+002, 7.746071e+003
6.900790e+002, 7.753123e+003
6.905612e+002, 7.764370e+003
6.910433e+002, 7.781185e+003
6.915254e+002, 7.797409e+003
6.920075e+002, 7.805251e+003
6.924896e+002, 7.807167e+003
6.929717e+002, 7.807101e+003
6.934539e+002, 7.804106e+003
6.939360e+002, 7.803381e+003
6.944181e+002, 7.809494e+003
6.949002e+002, 7.819470e+003
6.953823e+002, 7.828741e+003
6.958644e+002, 7.834924e+003
6.963466e+002, 7.842320e+003
6.968287e+002, 7.853119e+003
6.973108e+002, 7.865424e+003
6.977929e+002, 7.872995e+003
6.982750e+002, 7.874080e+003
6.987571e+002, 7.878172e+003
6.992393e+002, 7.890077e+003
6.997214e+002, 7.906370e+003
7.002035e+002, 7.915999e+003
7.006856e+002, 7.919561e+003
7.011677e+002, 7.921641e+003
7.016498e+002, 7.921618e+003
7.021320e+002, 7.923477e+003
7.026141e+002, 7.934522e+003
7.030962e+002, 7.953438e+003
7.035783e+002, 7.968216e+003
7.040604e+002, 7.968073e+003
7.045425e+002, 7.966311e+003
7.050247e+002, 7.970784e+003
7.055068e+002, 7.983423e+003
7.059889e+002, 7.994065e+003
7.064710e+002, 8.000687e+003
7.069531e+002, 8.007673e+003
7.074352e+002, 8.018888e+003
7.079174e+002, 8.035094e+003
7.083995e+002, 8.045831e+003
7.088816e+002, 8.050229e+003
7.093637e+002, 8.052829e+003
7.098458e+002, 8.059634e+003
7.103279e+002, 8.068304e+003
7.108101e+002, 8.072232e+003
7.112922e+002, 8.069226e+003
7.117743e+002, 8.066458e+003
7.122564e+002, 8.068188e+003
7.127385e+002, 8.073909e+003
7.132206e+002, 8.083234e+003
7.137028e+002, 8.101145e+003
7.141849e+002, 8.115661e+003
7.146670e+002, 8.122099e+003
7.151491e+002, 8.124865e+003
7.156312e+002, 8.129695e+003
7.161133e+002, 8.136931e+003
7.165955e+002, 8.145024e+003
7.170776e+002, 8.153423e+003
7.175597e+002, 8.162647e+003
7.180418e+002, 8.174372e+003
7.185239e+002, 8.188277e+003
7.190060e+002, 8.200828e+003
7.194882e+002, 8.209473e+003
7.199703e+002, 8.217060e+003
7.204524e+002, 8.227740e+003
7.209345e+002, 8.240318e+003
7.214166e+002, 8.251801e+003
7.218987e+002, 8.258451e+003
7.223809e+002, 8.265697e+003
7.228630e+002, 8.277620e+003
7.233451e+002, 8.293287e+003
7.238272e+002, 8.304098e+003
7.243093e+002, 8.305515e+003
7.247914e+002, 8.308527e+003
7.252736e+002, 8.318291e+003
7.257557e+002, 8.334036e+003
7.262378e+002, 8.344615e+003
7.267199e+002, 8.349782e+003
7.272020e+002, 8.353915e+003
7.276841e+002, 8.361945e+003
7.281663e+002, 8.370830e+003
7.286484e+002, 8.371752e+003
7.291305e+002, 8.364842e+003
7.296126e+002, 8.359284e+003
7.300947e+002, 8.361424e+003
7.305768e+002, 8.367364e+003
7.310590e+002, 8.373834e+003
7.315411e+002, 8.379975e+003
7.320232e+002, 8.388596e+003
7.325053e+002, 8.401491e+003
7.329874e+002, 8.415721e+003
7.334695e+002, 8.430170e+003
7.339517e+002, 8.445785e+003
7.344338e+002, 8.457187e+003
7.349159e+002, 8.463588e+003
7.353980e+002, 8.467971e+003
7.358801e+002, 8.473862e+003
7.363622e+002, 8.480594e+003
7.368444e+002, 8.484438e+003
7.373265e+002, 8.484072e+003
7.378086e+002, 8.485172e+003
7.382907e+002, 8.493501e+003
7.387728e+002, 8.506499e+003
7.392549e+002, 8.521369e+003
7.397371e+002, 8.541801e+003
7.402192e+002, 8.556650e+003
7.407013e+002, 8.557549e+003
7.411834e+002, 8.553383e+003
7.416655e+002, 8.556316e+003
7.421476e+002, 8.569846e+003
7.426298e+002, 8.581697e+003
7.431119e+002, 8.589509e+003
7.435940e+002, 8.595907e+003
7.440761e+002, 8.605766e+003
7.445582e+002, 8.618642e+003
7.450403e+002, 8.632248e+003
7.455225e+002, 8.646293e+003
7.460046e+002, 8.659771e+003
7.464867e+002, 8.672184e+003
7.469688e+002, 8.683029e+003
7.474509e+002, 8.691216e+003
7.479330e+002, 8.693981e+003
7.484152e+002, 8.696416e+003
7.488973e+002, 8.701720e+003
7.493794e+002, 8.708483e+003
7.498615e+002, 8.711154e+003
7.503436e+002, 8.703237e+003
7.508257e+002, 8.704012e+003
7.513079e+002, 8.722675e+003
7.517900e+002, 8.752018e+003
7.522721e+002, 8.764169e+003
7.527542e+002, 8.759339e+003
7.532363e+002, 8.751162e+003
7.537184e+002, 8.742011e+003
7.542006e+002, 8.736438e+003
7.546827e+002, 8.745519e+003
7.551648e+002, 8.765830e+003
7.556469e+002, 8.782607e+003
7.561290e+002, 8.784652e+003
7.566111e+002, 8.784559e+003
7.570933e+002, 8.788807e+003
7.575754e+002, 8.797436e+003
7.580575e+002, 8.806350e+003
7.585396e+002, 8.811997e+003
7.590217e+002, 8.822688e+003
7.595038e+002, 8.844939e+003
7.599860e+002, 8.876609e+003
7.604681e+002, 8.894176e+003
7.609502e+002, 8.896645e+003
7.614323e+002, 8.894908e+003
7.619144e+002, 8.892269e+003
7.623965e+002, 8.891700e+003
7.628787e+002, 8.901069e+003
7.633608e+002, 8.919587e+003
7.638429e+002, 8.936736e+003
7.643250e+002, 8.944373e+003
7.648071e+002, 8.949747e+003
7.652892e+002, 8.957986e+003
7.657714e+002, 8.970240e+003
7.662535e+002, 8.980553e+003
7.667356e+002, 8.987811e+003
7.672177e+002, 8.994238e+003
7.676998e+002, 9.001068e+003
7.681819e+002, 9.008459e+003
7.686641e+002, 9.014541e+003
7.691462e+002, 9.018867e+003
7.696283e+002, 9.025150e+003
7.701104e+002, 9.039241e+003
7.705925e+002, 9.056704e+003
7.710746e+002, 9.067568e+003
7.715568e+002, 9.070588e+003
7.720389e+002, 9.075516e+003
7.725210e+002, 9.090722e+003
7.730031e+002, 9.108619e+003
7.734852e+002, 9.124071e+003
7.739673e+002, 9.137205e+003
7.744495e+002, 9.144003e+003
7.749316e+002, 9.140137e+003
7.754137e+002, 9.134988e+003
7.758958e+002, 9.134340e+003
7.763779e+002, 9.137986e+003
7.768600e+002, 9.152453e+003
7.773422e+002, 9.180312e+003
7.778243e+002, 9.204985e+003
7.783064e+002, 9.203065e+003
7.787885e+002, 9.187886e+003
7.792706e+002, 9.186499e+003
7.797527e+002, 9.205593e+003
7.802349e+002, 9.223808e+003
7.807170e+002, 9.225967e+003
7.811991e+002, 9.223059e+003
7.816812e+002, 9.224788e+003
7.821633e+002, 9.235332e+003
7.826454e+002, 9.245596e+003
7.831276e+002, 9.255969e+003
7.836097e+002, 9.265716e+003
7.840918e+002, 9.274026e+003
7.845739e+002, 9.280852e+003
7.850560e+002, 9.286244e+003
7.855381e+002, 9.289875e+003
7.860203e+002, 9.293389e+003
7.865024e+002, 9.297203e+003
7.869845e+002, 9.302491e+003
7.874666e+002, 9.312376e+003
7.879487e+002, 9.329759e+003
7.884308e+002, 9.344498e+003
7.889130e+002, 9.343920e+003
7.893951e+002, 9.342350e+003
7.898772e+002, 9.355771e+003
7.903593e+002, 9.404299e+003
7.908414e+002, 9.431217e+003
7.913235e+002, 9.427154e+003
7.918057e+002, 9.413331e+003
7.922878e+002, 9.415681e+003
7.927699e+002, 9.433045e+003
7.932520e+002, 9.448364e+003
7.937341e+002, 9.459427e+003
7.942162e+002, 9.467076e+003
7.946984e+002, 9.469682e+003
7.951805e+002, 9.470425e+003
7.956626e+002, 9.474743e+003
7.961447e+002, 9.486304e+003
7.966268e+002, 9.496385e+003
7.971089e+002, 9.500607e+003
7.975911e+002, 9.502639e+003
7.980732e+002, 9.506675e+003
7.985553e+002, 9.513868e+003
7.990374e+002, 9.520981e+003
7.995195e+002, 9.528063e+003
8.000016e+002, 9.534967e+003
8.004838e+002, 9.541439e+003
8.009659e+002, 9.547697e+003
8.014480e+002, 9.554794e+003
8.019301e+002, 9.563020e+003
8.024122e+002, 9.571954e+003
8.028943e+002, 9.582181e+003
8.033765e+002, 9.592388e+003
8.038586e+002, 9.600269e+003
8.043407e+002, 9.599446e+003
8.048228e+002, 9.606722e+003
8.053049e+002, 9.635801e+003
8.057870e+002, 9.668502e+003
8.062692e+002, 9.685580e+003
8.067513e+002, 9.681654e+003
8.072334e+002, 9.683261e+003
8.077155e+002, 9.693455e+003
8.081976e+002, 9.706854e+003
8.086797e+002, 9.716237e+003
8.091619e+002, 9.723033e+003
8.096440e+002, 9.732544e+003
8.101261e+002, 9.747283e+003
8.106082e+002, 9.759209e+003
8.110903e+002, 9.757179e+003
8.115724e+002, 9.751561e+003
8.120546e+002, 9.754013e+003
8.125367e+002, 9.775205e+003
8.130188e+002, 9.790874e+003
8.135009e+002, 9.796503e+003
8.139830e+002, 9.800064e+003
8.144651e+002, 9.811807e+003
8.149473e+002, 9.832837e+003
8.154294e+002, 9.846031e+003
8.159115e+002, 9.848766e+003
8.163936e+002, 9.848640e+003
8.168757e+002, 9.854018e+003
8.173578e+002, 9.862742e+003
8.178400e+002, 9.870326e+003
8.183221e+002, 9.874221e+003
8.188042e+002, 9.882378e+003
8.192863e+002, 9.901355e+003
8.197684e+002, 9.924496e+003
8.202505e+002, 9.945360e+003
8.207327e+002, 9.960978e+003
8.212148e+002, 9.980208e+003
8.216969e+002, 1.000672e+004
8.221790e+002, 1.002968e+004
8.226611e+002, 1.003414e+004
8.231432e+002, 1.002309e+004
8.236254e+002, 1.001483e+004
8.241075e+002, 1.001107e+004
8.245896e+002, 1.001158e+004
8.250717e+002, 1.001668e+004
8.255538e+002, 1.002574e+004
8.260359e+002, 1.003990e+004
8.265181e+002, 1.006317e+004
8.270002e+002, 1.007834e+004
8.274823e+002, 1.007534e+004
8.279644e+002, 1.006837e+004
8.284465e+002, 1.006658e+004
8.289286e+002, 1.007146e+004
8.294108e+002, 1.007541e+004
8.298929e+002, 1.007821e+004
8.303750e+002, 1.008199e+004
8.308571e+002, 1.008915e+004
8.313392e+002, 1.009872e+004
8.318214e+002, 1.010878e+004
8.323035e+002, 1.011906e+004
8.327856e+002, 1.012948e+004
8.332677e+002, 1.014012e+004
8.337498e+002, 1.015042e+004
8.342319e+002, 1.015939e+004
8.347141e+002, 1.016577e+004
8.351962e+002, 1.017539e+004
8.356783e+002, 1.019054e+004
8.361604e+002, 1.020446e+004
8.366425e+002, 1.021116e+004
8.371246e+002, 1.021124e+004
8.376068e+002, 1.021408e+004
8.380889e+002, 1.021970e+004
8.385710e+002, 1.023088e+004
8.390531e+002, 1.025516e+004
8.395352e+002, 1.028286e+004
8.400173e+002, 1.030321e+004
8.404995e+002, 1.031573e+004
8.409816e+002, 1.032707e+004
8.414637e+002, 1.034036e+004
8.419458e+002, 1.035200e+004
8.424279e+002, 1.036024e+004
8.429100e+002, 1.036509e+004
8.433922e+002, 1.036936e+004
8.438743e+002, 1.037251e+004
8.443564e+002, 1.037738e+004
8.448385e+002, 1.038753e+004
8.453206e+002, 1.039997e+004
8.458027e+002, 1.040688e+004
8.462849e+002, 1.040913e+004
8.467670e+002, 1.041168e+004
8.472491e+002, 1.041647e+004
8.477312e+002, 1.042323e+004
8.482133e+002, 1.043380e+004
8.486954e+002, 1.044743e+004
8.491776e+002, 1.045610e+004
8.496597e+002, 1.045688e+004
8.501418e+002, 1.045895e+004
8.506239e+002, 1.046493e+004
8.511060e+002, 1.047486e+004
8.515881e+002, 1.049180e+004
8.520703e+002, 1.051442e+004
8.525524e+002, 1.053082e+004
8.530345e+002, 1.052830e+004
8.535166e+002, 1.052295e+004
8.539987e+002, 1.052859e+004
8.544808e+002, 1.054292e+004
8.549630e+002, 1.056029e+004
8.554451e+002, 1.058468e+004
8.559272e+002, 1.060431e+004
8.564093e+002, 1.061609e+004
8.568914e+002, 1.062184e+004
8.573735e+002, 1.062483e+004
8.578557e+002, 1.062446e+004
8.583378e+002, 1.062815e+004
8.588199e+002, 1.063853e+004
8.593020e+002, 1.065261e+004
8.597841e+002, 1.066971e+004
8.602662e+002, 1.068670e+004
8.607484e+002, 1.069633e+004
8.612305e+002, 1.068991e+004
8.617126e+002, 1.068532e+004
8.621947e+002, 1.068976e+004
8.626768e+002, 1.069992e+004
8.631589e+002, 1.071063e+004
8.636411e+002, 1.072171e+004
8.641232e+002, 1.073508e+004
8.646053e+002, 1.075241e+004
8.650874e+002, 1.076844e+004
8.655695e+002, 1.077372e+004
8.660516e+002, 1.077197e+004
8.665338e+002, 1.077598e+004
8.670159e+002, 1.078934e+004
8.674980e+002, 1.080219e+004
8.679801e+002, 1.080744e+004
8.684622e+002, 1.080889e+004
8.689443e+002, 1.080940e+004
8.694265e+002, 1.080500e+004
8.699086e+002, 1.081254e+004
8.703907e+002, 1.084057e+004
8.708728e+002, 1.086717e+004
8.713549e+002, 1.086935e+004
8.718370e+002, 1.085015e+004
8.723192e+002, 1.084703e+004
8.728013e+002, 1.086154e+004
8.732834e+002, 1.088092e+004
8.737655e+002, 1.089786e+004
8.742476e+002, 1.091223e+004
8.747297e+002, 1.092252e+004
8.752119e+002, 1.092849e+004
8.756940e+002, 1.093678e+004
8.761761e+002, 1.095298e+004
8.766582e+002, 1.096725e+004
8.771403e+002, 1.097471e+004
8.776224e+002, 1.097605e+004
8.781046e+002, 1.098105e+004
8.785867e+002, 1.098994e+004
8.790688e+002, 1.099841e+004
8.795509e+002, 1.100221e+004
8.800330e+002, 1.100508e+004
8.805151e+002, 1.101357e+004
8.809973e+002, 1.102624e+004
8.814794e+002, 1.103711e+004
8.819615e+002, 1.104306e+004
8.824436e+002, 1.104770e+004
8.829257e+002, 1.105230e+004
8.834078e+002, 1.105672e+004
8.838900e+002, 1.105932e+004
8.843721e+002, 1.105863e+004
8.848542e+002, 1.106434e+004
8.853363e+002, 1.108087e+004
8.858184e+002, 1.110241e+004
8.863005e+002, 1.112147e+004
8.867827e+002, 1.113725e+004
8.872648e+002, 1.114703e+004
8.877469e+002, 1.114252e+004
8.882290e+002, 1.114266e+004
8.887111e+002, 1.116072e+004
8.891932e+002, 1.118640e+004
8.896754e+002, 1.120444e+004
8.901575e+002, 1.121066e+004
8.906396e+002, 1.122004e+004
8.911217e+002, 1.123577e+004
8.916038e+002, 1.124991e+004
8.920859e+002, 1.124839e+004
8.925681e+002, 1.123729e+004
8.930502e+002, 1.123611e+004
8.935323e+002, 1.124897e+004
8.940144e+002, 1.126481e+004
8.944965e+002, 1.127587e+004
8.949786e+002, 1.128650e+004
8.954608e+002, 1.130139e+004
8.959429e+002, 1.132335e+004
8.964250e+002, 1.133973e+004
8.969071e+002, 1.134860e+004
8.973892e+002, 1.135532e+004
8.978713e+002, 1.136196e+004
8.983535e+002, 1.136920e+004
8.988356e+002, 1.138254e+004
8.993177e+002, 1.140153e+004
8.997998e+002, 1.141902e+004
9.002819e+002, 1.142818e+004
9.007640e+002, 1.143584e+004
9.012462e+002, 1.144963e+004
9.017283e+002, 1.146846e+004
9.022104e+002, 1.147909e+004
9.026925e+002, 1.147449e+004
9.031746e+002, 1.147135e+004
9.036567e+002, 1.147431e+004
9.041389e+002, 1.148242e+004
9.046210e+002, 1.149458e+004
9.051031e+002, 1.151010e+004
9.055852e+002, 1.152269e+004
9.060673e+002, 1.152664e+004
9.065494e+002, 1.153089e+004
9.070316e+002, 1.154526e+004
9.075137e+002, 1.156515e+004
9.079958e+002, 1.158276e+004
9.084779e+002, 1.159396e+004
9.089600e+002, 1.160553e+004
9.094421e+002, 1.161976e+004
9.099243e+002, 1.163264e+004
9.104064e+002, 1.163741e+004
9.108885e+002, 1.163464e+004
9.113706e+002, 1.163500e+004
9.118527e+002, 1.164008e+004
9.123348e+002, 1.164859e+004
9.128170e+002, 1.166479e+004
9.132991e+002, 1.168089e+004
9.137812e+002, 1.168534e+004
9.142633e+002, 1.167093e+004
9.147454e+002, 1.166889e+004
9.152275e+002, 1.169515e+004
9.157097e+002, 1.172134e+004
9.161918e+002, 1.172762e+004
9.166739e+002, 1.171453e+004
9.171560e+002, 1.172222e+004
9.176381e+002, 1.175080e+004
9.181202e+002, 1.177794e+004
9.186024e+002, 1.178422e+004
9.190845e+002, 1.178358e+004
9.195666e+002, 1.179169e+004
9.200487e+002, 1.180713e+004
9.205308e+002, 1.181944e+004
9.210129e+002, 1.182211e+004
9.214951e+002, 1.182496e+004
9.219772e+002, 1.182881e+004
9.224593e+002, 1.183513e+004
9.229414e+002, 1.184998e+004
9.234235e+002, 1.187300e+004
9.239056e+002, 1.189669e+004
9.243878e+002, 1.192058e+004
9.248699e+002, 1.193993e+004
9.253520e+002, 1.194669e+004
9.258341e+002, 1.194622e+004
9.263162e+002, 1.194721e+004
9.267983e+002, 1.195338e+004
9.272805e+002, 1.195941e+004
9.277626e+002, 1.196465e+004
9.282447e+002, 1.197003e+004
9.287268e+002, 1.197707e+004
9.292089e+002, 1.198597e+004
9.296910e+002, 1.199257e+004
9.301732e+002, 1.199646e+004
9.306553e+002, 1.200123e+004
9.311374e+002, 1.201033e+004
9.316195e+002, 1.202207e+004
9.321016e+002, 1.203365e+004
9.325837e+002, 1.204433e+004
9.330659e+002, 1.206143e+004
9.335480e+002, 1.209782e+004
9.340301e+002, 1.212672e+004
9.345122e+002, 1.213362e+004
9.349943e+002, 1.212286e+004
9.354764e+002, 1.212500e+004
9.359586e+002, 1.213963e+004
9.364407e+002, 1.215815e+004
9.369228e+002, 1.217929e+004
9.374049e+002, 1.219935e+004
9.378870e+002, 1.221563e+004
9.383691e+002, 1.222791e+004
9.388513e+002, 1.223528e+004
9.393334e+002, 1.223341e+004
9.398155e+002, 1.223210e+004
9.402976e+002, 1.223072e+004
9.407797e+002, 1.223301e+004
9.412618e+002, 1.224865e+004
9.417440e+002, 1.227629e+004
9.422261e+002, 1.229422e+004
9.427082e+002, 1.229809e+004
9.431903e+002, 1.229757e+004
9.436724e+002, 1.229651e+004
9.441545e+002, 1.229898e+004
9.446367e+002, 1.231123e+004
9.451188e+002, 1.233815e+004
9.456009e+002, 1.235670e+004
9.460830e+002, 1.236116e+004
9.465651e+002, 1.236237e+004
9.470472e+002, 1.236403e+004
9.475294e+002, 1.236698e+004
9.480115e+002, 1.238358e+004
9.484936e+002, 1.241217e+004
9.489757e+002, 1.243429e+004
9.494578e+002, 1.243825e+004
9.499399e+002, 1.243142e+004
9.504221e+002, 1.241197e+004
9.509042e+002, 1.238564e+004
9.513863e+002, 1.237441e+004
9.518684e+002, 1.238853e+004
9.523505e+002, 1.240292e+004
9.528326e+002, 1.241400e+004
9.533148e+002, 1.242300e+004
9.537969e+002, 1.243276e+004
9.542790e+002, 1.244263e+004
9.547611e+002, 1.244765e+004
9.552432e+002, 1.244418e+004
9.557253e+002, 1.244451e+004
9.562075e+002, 1.246099e+004
9.566896e+002, 1.248329e+004
9.571717e+002, 1.250078e+004
9.576538e+002, 1.250969e+004
9.581359e+002, 1.252179e+004
9.586180e+002, 1.253718e+004
9.591002e+002, 1.255468e+004
9.595823e+002, 1.257568e+004
9.600644e+002, 1.259758e+004
9.605465e+002, 1.261080e+004
9.610286e+002, 1.261624e+004
9.615107e+002, 1.262238e+004
9.619929e+002, 1.263667e+004
9.624750e+002, 1.265042e+004
9.629571e+002, 1.265656e+004
9.634392e+002, 1.265835e+004
9.639213e+002, 1.266845e+004
9.644034e+002, 1.268904e+004
9.648856e+002, 1.270997e+004
9.653677e+002, 1.273048e+004
9.658498e+002, 1.274689e+004
9.663319e+002, 1.274713e+004
9.668140e+002, 1.274016e+004
9.672961e+002, 1.274614e+004
9.677783e+002, 1.277661e+004
9.682604e+002, 1.280378e+004
9.687425e+002, 1.281518e+004
9.692246e+002, 1.282065e+004
9.697067e+002, 1.282730e+004
9.701888e+002, 1.283458e+004
9.706710e+002, 1.284780e+004
9.711531e+002, 1.286774e+004
9.716352e+002, 1.288437e+004
9.721173e+002, 1.288450e+004
9.725994e+002, 1.287974e+004
9.730815e+002, 1.288715e+004
9.735637e+002, 1.290479e+004
9.740458e+002, 1.291896e+004
9.745279e+002, 1.291888e+004
9.750100e+002, 1.292249e+004
9.754921e+002, 1.293635e+004
9.759742e+002, 1.295558e+004
9.764564e+002, 1.296877e+004
9.769385e+002, 1.297628e+004
9.774206e+002, 1.297928e+004
9.779027e+002, 1.297611e+004
9.783848e+002, 1.297569e+004
9.788669e+002, 1.299303e+004
9.793491e+002, 1.301530e+004
9.798312e+002, 1.302584e+004
9.803133e+002, 1.301340e+004
9.807954e+002, 1.301156e+004
9.812775e+002, 1.302500e+004
9.817596e+002, 1.304276e+004
9.822418e+002, 1.305934e+004
9.827239e+002, 1.307378e+004
9.832060e+002, 1.307912e+004
9.836881e+002, 1.307631e+004
9.841702e+002, 1.307543e+004
9.846523e+002, 1.308150e+004
9.851345e+002, 1.309210e+004
9.856166e+002, 1.310676e+004
9.860987e+002, 1.312482e+004
9.865808e+002, 1.314479e+004
9.870629e+002, 1.316930e+004
9.875450e+002, 1.318667e+004
9.880272e+002, 1.319350e+004
9.885093e+002, 1.319534e+004
9.889914e+002, 1.319935e+004
9.894735e+002, 1.320503e+004
9.899556e+002, 1.321127e+004
9.904377e+002, 1.321793e+004
9.909199e+002, 1.322540e+004
9.914020e+002, 1.323500e+004
9.918841e+002, 1.324472e+004
9.923662e+002, 1.325360e+004
9.928483e+002, 1.326162e+004
9.933304e+002, 1.326679e+004
9.938126e+002, 1.326889e+004
9.942947e+002, 1.327164e+004
9.947768e+002, 1.327282e+004
9.952589e+002, 1.327902e+004
9.957410e+002, 1.330514e+004
9.962231e+002, 1.334298e+004
9.967053e+002, 1.336987e+004
9.971874e+002, 1.336759e+004
9.976695e+002, 1.336877e+004
9.981516e+002, 1.337919e+004
9.986337e+002, 1.339313e+004
9.991158e+002, 1.340021e+004
9.995980e+002, 1.340219e+004
1.000080e+003, 1.341306e+004
1.000562e+003, 1.343623e+004
1.001044e+003, 1.345723e+004
1.001526e+003, 1.346303e+004
1.002009e+003, 1.346380e+004
1.002491e+003, 1.346795e+004
1.002973e+003, 1.347680e+004
1.003455e+003, 1.348397e+004
1.003937e+003, 1.348850e+004
1.004419e+003, 1.349500e+004
1.004901e+003, 1.350658e+004
1.005383e+003, 1.352079e+004
1.005865e+003, 1.353150e+004
1.006348e+003, 1.354031e+004
1.006830e+003, 1.355209e+004
1.007312e+003, 1.357566e+004
1.007794e+003, 1.359381e+004
1.008276e+003, 1.359283e+004
1.008758e+003, 1.358907e+004
1.009240e+003, 1.360323e+004
1.009722e+003, 1.363828e+004
1.010205e+003, 1.365603e+004
1.010687e+003, 1.365261e+004
1.011169e+003, 1.364738e+004
1.011651e+003, 1.366042e+004
1.012133e+003, 1.367890e+004
1.012615e+003, 1.368704e+004
1.013097e+003, 1.368467e+004
1.013579e+003, 1.369082e+004
1.014061e+003, 1.371520e+004
1.014544e+003, 1.373752e+004
1.015026e+003, 1.375252e+004
1.015508e+003, 1.376121e+004
1.015990e+003, 1.376202e+004
1.016472e+003, 1.375815e+004
1.016954e+003, 1.376383e+004
1.017436e+003, 1.378802e+004
1.017918e+003, 1.381107e+004
1.018401e+003, 1.381815e+004
1.018883e+003, 1.381966e+004
1.019365e+003, 1.382637e+004
1.019847e+003, 1.383993e+004
1.020329e+003, 1.385184e+004
1.020811e+003, 1.386162e+004
1.021293e+003, 1.387281e+004
1.021775e+003, 1.389285e+004
1.022257e+003, 1.391319e+004
1.022740e+003, 1.391604e+004
1.023222e+003, 1.390641e+004
1.023704e+003, 1.390403e+004
1.024186e+003, 1.392656e+004
1.024668e+003, 1.394255e+004
1.025150e+003, 1.394065e+004
1.025632e+003, 1.393333e+004
1.026114e+003, 1.394202e+004
1.026596e+003, 1.396513e+004
1.027079e+003, 1.399297e+004
1.027561e+003, 1.402530e+004
1.028043e+003, 1.405071e+004
1.028525e+003, 1.405543e+004
1.029007e+003, 1.405253e+004
1.029489e+003, 1.405156e+004
1.029971e+003, 1.405347e+004
1.030453e+003, 1.406196e+004
1.030936e+003, 1.407960e+004
1.031418e+003, 1.409570e+004
1.031900e+003, 1.410519e+004
1.032382e+003, 1.411121e+004
1.032864e+003, 1.411833e+004
1.033346e+003, 1.412695e+004
1.033828e+003, 1.413803e+004
1.034310e+003, 1.415608e+004
1.034792e+003, 1.417003e+004
1.035275e+003, 1.417397e+004
1.035757e+003, 1.417565e+004
1.036239e+003, 1.418295e+004
1.036721e+003, 1.419590e+004
1.037203e+003, 1.420137e+004
1.037685e+003, 1.419905e+004
1.038167e+003, 1.419999e+004
1.038649e+003, 1.421516e+004
1.039132e+003, 1.423467e+004
1.039614e+003, 1.425311e+004
1.040096e+003, 1.426932e+004
1.040578e+003, 1.427958e+004
1.041060e+003, 1.428104e+004
1.041542e+003, 1.428362e+004
1.042024e+003, 1.428852e+004
1.042506e+003, 1.429629e+004
1.042989e+003, 1.430904e+004
1.043471e+003, 1.432488e+004
1.043953e+003, 1.433986e+004
1.044435e+003, 1.435283e+004
1.044917e+003, 1.436718e+004
1.045399e+003, 1.439400e+004
1.045881e+003, 1.441169e+004
1.046363e+003, 1.440328e+004
1.046845e+003, 1.437464e+004
1.047328e+003, 1.437714e+004
1.047810e+003, 1.440904e+004
1.048292e+003, 1.443698e+004
1.048774e+003, 1.444339e+004
1.049256e+003, 1.444365e+004
1.049738e+003, 1.444958e+004
1.050220e+003, 1.445800e+004
1.050702e+003, 1.446322e+004
1.051184e+003, 1.446051e+004
1.051667e+003, 1.446560e+004
1.052149e+003, 1.448041e+004
1.052631e+003, 1.449753e+004
1.053113e+003, 1.451361e+004
1.053595e+003, 1.452625e+004
1.054077e+003, 1.452726e+004
1.054559e+003, 1.451868e+004
1.055041e+003, 1.451575e+004
1.055523e+003, 1.453095e+004
1.056006e+003, 1.454516e+004
1.056488e+003, 1.455259e+004
1.056970e+003, 1.455661e+004
1.057452e+003, 1.456457e+004
1.057934e+003, 1.457596e+004
1.058416e+003, 1.458486e+004
1.058898e+003, 1.458997e+004
1.059380e+003, 1.459437e+004
1.059863e+003, 1.459980e+004
1.060345e+003, 1.460606e+004
1.060827e+003, 1.461129e+004
1.061309e+003, 1.461513e+004
1.061791e+003, 1.463075e+004
1.062273e+003, 1.466138e+004
1.062755e+003, 1.468769e+004
1.063237e+003, 1.469957e+004
1.063719e+003, 1.470400e+004
1.064202e+003, 1.471098e+004
1.064684e+003, 1.471891e+004
1.065166e+003, 1.472456e+004
1.065648e+003, 1.472092e+004
1.066130e+003, 1.472668e+004
1.066612e+003, 1.475059e+004
1.067094e+003, 1.477369e+004
1.067576e+003, 1.477656e+004
1.068059e+003, 1.476415e+004
1.068541e+003, 1.476533e+004
1.069023e+003, 1.477931e+004
1.069505e+003, 1.479618e+004
1.069987e+003, 1.481238e+004
1.070469e+003, 1.482737e+004
1.070951e+003, 1.484254e+004
1.071433e+003, 1.485529e+004
1.071916e+003, 1.485765e+004
1.072398e+003, 1.484707e+004
1.072880e+003, 1.484950e+004
1.073362e+003, 1.486960e+004
1.073844e+003, 1.489528e+004
1.074326e+003, 1.491813e+004
1.074808e+003, 1.493758e+004
1.075290e+003, 1.495374e+004
1.075772e+003, 1.496653e+004
1.076255e+003, 1.497196e+004
1.076737e+003, 1.496517e+004
1.077219e+003, 1.496313e+004
1.077701e+003, 1.497270e+004
1.078183e+003, 1.498819e+004
1.078665e+003, 1.499528e+004
1.079147e+003, 1.499985e+004
1.079629e+003, 1.501815e+004
1.080111e+003, 1.506299e+004
1.080594e+003, 1.509616e+004
1.081076e+003, 1.509025e+004
1.081558e+003, 1.508192e+004
1.082040e+003, 1.509356e+004
1.082522e+003, 1.512243e+004
1.083004e+003, 1.513936e+004
1.083486e+003, 1.514581e+004
1.083968e+003, 1.515517e+004
1.084450e+003, 1.518383e+004
1.084933e+003, 1.520781e+004
1.085415e+003, 1.520498e+004
1.085897e+003, 1.519039e+004
1.086379e+003, 1.518848e+004
1.086861e+003, 1.520243e+004
1.087343e+003, 1.522003e+004
1.087825e+003, 1.524188e+004
1.088307e+003, 1.526082e+004
1.088790e+003, 1.527038e+004
1.089272e+003, 1.527380e+004
1.089754e+003, 1.527224e+004
1.090236e+003, 1.526749e+004
1.090718e+003, 1.526786e+004
1.091200e+003, 1.527961e+004
1.091682e+003, 1.528702e+004
1.092164e+003, 1.528443e+004
1.092646e+003, 1.528182e+004
1.093129e+003, 1.529702e+004
1.093611e+003, 1.532373e+004
1.094093e+003, 1.534854e+004
1.094575e+003, 1.536959e+004
1.095057e+003, 1.538338e+004
1.095539e+003, 1.538212e+004
1.096021e+003, 1.537906e+004
1.096503e+003, 1.537811e+004
1.096986e+003, 1.538034e+004
1.097468e+003, 1.539270e+004
1.097950e+003, 1.541372e+004
1.098432e+003, 1.542954e+004
1.098914e+003, 1.543360e+004
1.099396e+003, 1.543783e+004
1.099878e+003, 1.545481e+004
1.100360e+003, 1.547365e+004
1.100843e+003, 1.548314e+004
1.101325e+003, 1.548236e+004
1.101807e+003, 1.547982e+004
1.102289e+003, 1.547466e+004
1.102771e+003, 1.547680e+004
1.103253e+003, 1.549936e+004
1.103735e+003, 1.552477e+004
1.104217e+003, 1.552629e+004
1.104699e+003, 1.551657e+004
1.105182e+003, 1.552041e+004
1.105664e+003, 1.556227e+004
1.106146e+003, 1.557755e+004
1.106628e+003, 1.555524e+004
1.107110e+003, 1.553163e+004
1.107592e+003, 1.554493e+004
1.108074e+003, 1.557797e+004
1.108556e+003, 1.559488e+004
1.109038e+003, 1.559725e+004
1.109521e+003, 1.560174e+004
1.110003e+003, 1.561328e+004
1.110485e+003, 1.563021e+004
1.110967e+003, 1.565471e+004
1.111449e+003, 1.568095e+004
1.111931e+003, 1.570318e+004
1.112413e+003, 1.571995e+004
1.112895e+003, 1.572101e+004
1.113377e+003, 1.570495e+004
1.113860e+003, 1.569201e+004
1.114342e+003, 1.569538e+004
1.114824e+003, 1.570471e+004
1.115306e+003, 1.571355e+004
1.115788e+003, 1.572386e+004
1.116270e+003, 1.574539e+004
1.116752e+003, 1.577804e+004
1.117234e+003, 1.580452e+004
1.117717e+003, 1.582043e+004
1.118199e+003, 1.582949e+004
1.118681e+003, 1.582761e+004
1.119163e+003, 1.582547e+004
1.119645e+003, 1.583599e+004
1.120127e+003, 1.586027e+004
1.120609e+003, 1.587195e+004
1.121091e+003, 1.586822e+004
1.121573e+003, 1.586947e+004
1.122056e+003, 1.588892e+004
1.122538e+003, 1.590986e+004
1.123020e+003, 1.590607e+004
1.123502e+003, 1.589106e+004
1.123984e+003, 1.588679e+004
1.124466e+003, 1.590697e+004
1.124948e+003, 1.591502e+004
1.125430e+003, 1.590409e+004
1.125913e+003, 1.589835e+004
1.126395e+003, 1.591954e+004
1.126877e+003, 1.595499e+004
1.127359e+003, 1.598097e+004
1.127841e+003, 1.599702e+004
1.128323e+003, 1.600103e+004
1.128805e+003, 1.597147e+004
1.129287e+003, 1.596078e+004
1.129770e+003, 1.598197e+004
1.130252e+003, 1.601291e+004
1.130734e+003, 1.603249e+004
1.131216e+003, 1.604321e+004
1.131698e+003, 1.605649e+004
1.132180e+003, 1.607203e+004
1.132662e+003, 1.608546e+004
1.133144e+003, 1.608724e+004
1.133626e+003, 1.609498e+004
1.134109e+003, 1.612194e+004
1.134591e+003, 1.615268e+004
1.135073e+003, 1.616075e+004
1.135555e+003, 1.614821e+004
1.136037e+003, 1.614056e+004
1.136519e+003, 1.614070e+004
1.137001e+003, 1.614734e+004
1.137483e+003, 1.616491e+004
1.137965e+003, 1.618397e+004
1.138448e+003, 1.620226e+004
1.138930e+003, 1.621736e+004
1.139412e+003, 1.621735e+004
1.139894e+003, 1.620127e+004
1.140376e+003, 1.619672e+004
1.140858e+003, 1.621172e+004
1.141340e+003, 1.622854e+004
1.141822e+003, 1.622915e+004
1.142304e+003, 1.622513e+004
1.142787e+003, 1.622608e+004
1.143269e+003, 1.623285e+004
1.143751e+003, 1.624549e+004
1.144233e+003, 1.626532e+004
1.144715e+003, 1.628120e+004
1.145197e+003, 1.628704e+004
1.145679e+003, 1.629109e+004
1.146161e+003, 1.630219e+004
1.146644e+003, 1.631836e+004
1.147126e+003, 1.633866e+004
1.147608e+003, 1.636547e+004
1.148090e+003, 1.638370e+004
1.148572e+003, 1.639210e+004
1.149054e+003, 1.639466e+004
1.149536e+003, 1.639041e+004
1.150018e+003, 1.638511e+004
1.150500e+003, 1.638996e+004
1.150983e+003, 1.640141e+004
1.151465e+003, 1.641254e+004
1.151947e+003, 1.642371e+004
1.152429e+003, 1.642924e+004
1.152911e+003, 1.642584e+004
1.153393e+003, 1.642378e+004
1.153875e+003, 1.643122e+004
1.154357e+003, 1.644502e+004
1.154840e+003, 1.645850e+004
1.155322e+003, 1.647103e+004
1.155804e+003, 1.647995e+004
1.156286e+003, 1.648078e+004
1.156768e+003, 1.648319e+004
1.157250e+003, 1.649083e+004
1.157732e+003, 1.649714e+004
1.158214e+003, 1.649195e+004
1.158697e+003, 1.648006e+004
1.159179e+003, 1.648407e+004
1.159661e+003, 1.650231e+004
1.160143e+003, 1.652187e+004
1.160625e+003, 1.653922e+004
1.161107e+003, 1.655280e+004
1.161589e+003, 1.656003e+004
1.162071e+003, 1.656539e+004
1.162553e+003, 1.657497e+004
1.163036e+003, 1.658798e+004
1.163518e+003, 1.659934e+004
1.164000e+003, 1.660879e+004
1.164482e+003, 1.661766e+004
1.164964e+003, 1.662940e+004
1.165446e+003, 1.663796e+004
1.165928e+003, 1.663640e+004
1.166410e+003, 1.663245e+004
1.166892e+003, 1.664199e+004
1.167375e+003, 1.666412e+004
1.167857e+003, 1.668275e+004
1.168339e+003, 1.669582e+004
1.168821e+003, 1.670714e+004
1.169303e+003, 1.671863e+004
1.169785e+003, 1.672993e+004
1.170267e+003, 1.674324e+004
1.170749e+003, 1.675557e+004
1.171231e+003, 1.675294e+004
1.171714e+003, 1.673536e+004
1.172196e+003, 1.673966e+004
1.172678e+003, 1.677596e+004
1.173160e+003, 1.681708e+004
1.173642e+003, 1.684975e+004
1.174124e+003, 1.686942e+004
1.174606e+003, 1.686117e+004
1.175088e+003, 1.683360e+004
1.175571e+003, 1.684064e+004
1.176053e+003, 1.688486e+004
1.176535e+003, 1.691455e+004
1.177017e+003, 1.691257e+004
1.177499e+003, 1.690161e+004
1.177981e+003, 1.689666e+004
1.178463e+003, 1.689832e+004
1.178945e+003, 1.690946e+004
1.179427e+003, 1.692975e+004
1.179910e+003, 1.694796e+004
1.180392e+003, 1.696466e+004
1.180874e+003, 1.697255e+004
1.181356e+003, 1.696536e+004
1.181838e+003, 1.695630e+004
1.182320e+003, 1.696047e+004
1.182802e+003, 1.697014e+004
1.183284e+003, 1.697543e+004
1.183767e+003, 1.697418e+004
1.184249e+003, 1.698199e+004
1.184731e+003, 1.700171e+004
1.185213e+003, 1.701065e+004
1.185695e+003, 1.698859e+004
1.186177e+003, 1.696564e+004
1.186659e+003, 1.698433e+004
1.187141e+003, 1.702184e+004
1.187624e+003, 1.704596e+004
1.188106e+003, 1.705253e+004
1.188588e+003, 1.704238e+004
1.189070e+003, 1.701085e+004
1.189552e+003, 1.699126e+004
1.190034e+003, 1.700913e+004
1.190516e+003, 1.704265e+004
1.190998e+003, 1.707188e+004
1.191480e+003, 1.709487e+004
1.191963e+003, 1.710716e+004
1.192445e+003, 1.709932e+004
1.192927e+003, 1.710466e+004
1.193409e+003, 1.712593e+004
1.193891e+003, 1.714661e+004
1.194373e+003, 1.714935e+004
1.194855e+003, 1.714908e+004
1.195337e+003, 1.716764e+004
1.195819e+003, 1.719790e+004
1.196302e+003, 1.722421e+004
1.196784e+003, 1.724391e+004
1.197266e+003, 1.725999e+004
1.197748e+003, 1.727257e+004
1.198230e+003, 1.728085e+004
1.198712e+003, 1.727760e+004
1.199194e+003, 1.727438e+004
1.199676e+003, 1.729381e+004
1.200158e+003, 1.732602e+004
1.200641e+003, 1.734244e+004
1.201123e+003, 1.733088e+004
1.201605e+003, 1.732181e+004
1.202087e+003, 1.731601e+004
1.202569e+003, 1.731712e+004
1.203051e+003, 1.733388e+004
1.203533e+003, 1.735580e+004
1.204015e+003, 1.736680e+004
1.204498e+003, 1.737048e+004
1.204980e+003, 1.738255e+004
1.205462e+003, 1.741468e+004
1.205944e+003, 1.743016e+004
1.206426e+003, 1.742260e+004
1.206908e+003, 1.741118e+004
1.207390e+003, 1.741303e+004
1.207872e+003, 1.742336e+004
1.208354e+003, 1.743932e+004
1.208837e+003, 1.745864e+004
1.209319e+003, 1.747189e+004
1.209801e+003, 1.747367e+004
1.210283e+003, 1.748207e+004
1.210765e+003, 1.750113e+004
1.211247e+003, 1.751967e+004
1.211729e+003, 1.752381e+004
1.212211e+003, 1.752229e+004
1.212694e+003, 1.752602e+004
1.213176e+003, 1.753475e+004
1.213658e+003, 1.754285e+004
1.214140e+003, 1.755025e+004
1.214622e+003, 1.755632e+004
1.215104e+003, 1.756114e+004
1.215586e+003, 1.756504e+004
1.216068e+003, 1.757344e+004
1.216551e+003, 1.757814e+004
1.217033e+003, 1.755984e+004
1.217515e+003, 1.752423e+004
1.217997e+003, 1.752171e+004
1.218479e+003, 1.756928e+004
1.218961e+003, 1.759608e+004
1.219443e+003, 1.758624e+004
1.219925e+003, 1.756995e+004
1.220407e+003, 1.758054e+004
1.220890e+003, 1.760356e+004
1.221372e+003, 1.762712e+004
1.221854e+003, 1.764801e+004
1.222336e+003, 1.765360e+004
1.222818e+003, 1.763597e+004
1.223300e+003, 1.763524e+004
1.223782e+003, 1.766210e+004
1.224264e+003, 1.769372e+004
1.224746e+003, 1.770748e+004
1.225229e+003, 1.771101e+004
1.225711e+003, 1.770886e+004
1.226193e+003, 1.770303e+004
1.226675e+003, 1.770745e+004
1.227157e+003, 1.772552e+004
1.227639e+003, 1.773569e+004
1.228121e+003, 1.773219e+004
1.228603e+003, 1.772577e+004
1.229085e+003, 1.772055e+004
1.229568e+003, 1.772343e+004
1.230050e+003, 1.774881e+004
1.230532e+003, 1.779259e+004
1.231014e+003, 1.781195e+004
1.231496e+003, 1.780383e+004
1.231978e+003, 1.779821e+004
1.232460e+003, 1.780204e+004
1.232942e+003, 1.780936e+004
1.233425e+003, 1.781464e+004
1.233907e+003, 1.782071e+004
1.234389e+003, 1.783271e+004
1.234871e+003, 1.784868e+004
1.235353e+003, 1.785425e+004
1.235835e+003, 1.784880e+004
1.236317e+003, 1.784987e+004
1.236799e+003, 1.786355e+004
1.237281e+003, 1.787458e+004
1.237764e+003, 1.785944e+004
1.238246e+003, 1.784575e+004
1.238728e+003, 1.786325e+004
1.239210e+003, 1.790193e+004
1.239692e+003, 1.791576e+004
1.240174e+003, 1.790582e+004
1.240656e+003, 1.790916e+004
1.241138e+003, 1.793768e+004
1.241621e+003, 1.796114e+004
1.242103e+003, 1.794776e+004
1.242585e+003, 1.793003e+004
1.243067e+003, 1.792917e+004
1.243549e+003, 1.794160e+004
1.244031e+003, 1.795504e+004
1.244513e+003, 1.796953e+004
1.244995e+003, 1.798628e+004
1.245478e+003, 1.800656e+004
1.245960e+003, 1.802302e+004
1.246442e+003, 1.802368e+004
1.246924e+003, 1.802834e+004
1.247406e+003, 1.805263e+004
1.247888e+003, 1.808545e+004
1.248370e+003, 1.808479e+004
1.248852e+003, 1.806032e+004
1.249334e+003, 1.805575e+004
1.249817e+003, 1.808442e+004
1.250299e+003, 1.811004e+004
1.250781e+003, 1.811793e+004
1.251263e+003, 1.811445e+004
1.251745e+003, 1.809646e+004
1.252227e+003, 1.807523e+004
1.252709e+003, 1.808247e+004
1.253191e+003, 1.810924e+004
1.253673e+003, 1.812896e+004
1.254156e+003, 1.813523e+004
1.254638e+003, 1.814354e+004
1.255120e+003, 1.816292e+004
1.255602e+003, 1.817821e+004
1.256084e+003, 1.818173e+004
1.256566e+003, 1.818163e+004
1.257048e+003, 1.819562e+004
1.257530e+003, 1.821791e+004
1.258012e+003, 1.823665e+004
1.258495e+003, 1.824937e+004
1.258977e+003, 1.826210e+004
1.259459e+003, 1.827658e+004
1.259941e+003, 1.828844e+004
1.260423e+003, 1.829496e+004
1.260905e+003, 1.830064e+004
1.261387e+003, 1.831543e+004
1.261869e+003, 1.833275e+004
1.262352e+003, 1.834352e+004
1.262834e+003, 1.834612e+004
1.263316e+003, 1.834262e+004
1.263798e+003, 1.833023e+004
1.264280e+003, 1.832431e+004
1.264762e+003, 1.833078e+004
1.265244e+003, 1.834159e+004
1.265726e+003, 1.834591e+004
1.266208e+003, 1.834998e+004
1.266691e+003, 1.836104e+004
1.267173e+003, 1.837997e+004
1.267655e+003, 1.840286e+004
1.268137e+003, 1.843184e+004
1.268619e+003, 1.844574e+004
1.269101e+003, 1.843573e+004
1.269583e+003, 1.842302e+004
1.270065e+003, 1.843416e+004
1.270548e+003, 1.844625e+004
1.271030e+003, 1.842982e+004
1.271512e+003, 1.839513e+004
1.271994e+003, 1.839266e+004
1.272476e+003, 1.842178e+004
1.272958e+003, 1.844836e+004
1.273440e+003, 1.846552e+004
1.273922e+003, 1.847518e+004
1.274405e+003, 1.847765e+004
1.274887e+003, 1.847379e+004
1.275369e+003, 1.846042e+004
1.275851e+003, 1.844387e+004
1.276333e+003, 1.844134e+004
1.276815e+003, 1.845139e+004
1.277297e+003, 1.846835e+004
1.277779e+003, 1.849148e+004
1.278261e+003, 1.851357e+004
1.278744e+003, 1.852693e+004
1.279226e+003, 1.854305e+004
1.279708e+003, 1.856806e+004
1.280190e+003, 1.859510e+004
1.280672e+003, 1.861641e+004
1.281154e+003, 1.862867e+004
1.281636e+003, 1.861862e+004
1.282118e+003, 1.858430e+004
1.282600e+003, 1.855935e+004
1.283083e+003, 1.855441e+004
1.283565e+003, 1.855971e+004
1.284047e+003, 1.857625e+004
1.284529e+003, 1.859543e+004
1.285011e+003, 1.860615e+004
1.285493e+003, 1.861096e+004
1.285975e+003, 1.861387e+004
1.286457e+003, 1.861517e+004
1.286939e+003, 1.860979e+004
1.287422e+003, 1.859408e+004
1.287904e+003, 1.858574e+004
1.288386e+003, 1.858848e+004
1.288868e+003, 1.859893e+004
1.289350e+003, 1.861933e+004
1.289832e+003, 1.864095e+004
1.290314e+003, 1.865508e+004
1.290796e+003, 1.866163e+004
1.291279e+003, 1.866530e+004
1.291761e+003, 1.866545e+004
1.292243e+003, 1.866262e+004
1.292725e+003, 1.865587e+004
1.293207e+003, 1.865829e+004
1.293689e+003, 1.869148e+004
1.294171e+003, 1.872574e+004
1.294653e+003, 1.874371e+004
1.295135e+003, 1.874698e+004
1.295618e+003, 1.872946e+004
1.296100e+003, 1.869499e+004
1.296582e+003, 1.868359e+004
1.297064e+003, 1.869993e+004
1.297546e+003, 1.872351e+004
1.298028e+003, 1.874673e+004
1.298510e+003, 1.876072e+004
1.298992e+003, 1.876125e+004
1.299475e+003, 1.875881e+004
1.299957e+003, 1.876632e+004
1.300439e+003, 1.878258e+004
1.300921e+003, 1.880097e+004
1.301403e+003, 1.882258e+004
1.301885e+003, 1.885192e+004
##END=



