##NAMES=Natrolite
##RRUFFID=R040022
##IDEAL CHEMISTRY=Na_2_(Si_3_Al_2_)O_10_&#183;2H_2_O
##LOCALITY=Patterson, Passaic County, New Jersey, USA
##OWNER=RRUFF
##SOURCE=University of Arizona Mineral Museum
##DESCRIPTION=White fine fibrous mass
##STATUS=The identification of this mineral has been confirmed by X-ray diffraction and chemical analysis
##URL=rruff.info/R040022
##MEASURED CHEMISTRY=(Na_1.87_Ca_0.08_[box]_0.05_)_Σ=2_(Si_2.97_Al_2.03_)O_10_·1.95H_2_O; H_2_O estimated by difference
129.0829, 312.5992
129.5650, 311.7658
130.0471, 311.2883
130.5292, 311.1931
131.0113, 311.6270
131.4935, 312.4941
131.9756, 313.3562
132.4577, 313.7610
132.9398, 314.1827
133.4219, 316.1156
133.9040, 319.6538
134.3862, 323.8569
134.8683, 327.7057
135.3504, 331.2246
135.8325, 334.9249
136.3146, 338.9284
136.7967, 343.2249
137.2789, 347.8878
137.7610, 352.9346
138.2431, 358.3716
138.7252, 364.4535
139.2073, 371.3699
139.6894, 378.1085
140.1716, 384.3000
140.6537, 389.9119
141.1358, 395.7000
141.6179, 402.0223
142.1000, 408.3170
142.5821, 413.6464
143.0643, 418.5233
143.5464, 421.5317
144.0285, 422.0993
144.5106, 419.9445
144.9927, 416.0780
145.4748, 410.2672
145.9570, 402.8347
146.4391, 394.8732
146.9212, 385.8176
147.4033, 376.8263
147.8854, 368.2416
148.3675, 359.3967
148.8497, 352.0526
149.3318, 346.4258
149.8139, 342.4141
150.2960, 339.6357
150.7781, 338.6279
151.2602, 338.4593
151.7424, 338.6399
152.2245, 338.1918
152.7066, 339.1657
153.1887, 342.0178
153.6708, 346.6155
154.1529, 351.6313
154.6351, 356.8649
155.1172, 362.5908
155.5993, 368.9758
156.0814, 376.4087
156.5635, 384.1984
157.0456, 392.0482
157.5278, 399.8910
158.0099, 408.6429
158.4920, 419.6211
158.9741, 431.1578
159.4562, 441.8128
159.9383, 452.6419
160.4205, 461.3094
160.9026, 467.1461
161.3847, 470.1291
161.8668, 470.4124
162.3489, 467.8387
162.8310, 462.6878
163.3132, 455.2805
163.7953, 444.3612
164.2774, 432.2784
164.7595, 419.9137
165.2416, 407.1850
165.7237, 394.9589
166.2059, 383.5589
166.6880, 372.8309
167.1701, 362.5455
167.6522, 352.0728
168.1343, 342.3325
168.6164, 333.9984
169.0985, 327.1754
169.5807, 321.4522
170.0628, 316.9559
170.5449, 313.3384
171.0270, 309.9644
171.5091, 306.5444
171.9912, 303.2096
172.4734, 300.1192
172.9555, 297.3311
173.4376, 294.6324
173.9197, 291.9733
174.4018, 289.2755
174.8839, 286.3369
175.3661, 282.5351
175.8482, 278.6148
176.3303, 275.6075
176.8124, 273.7849
177.2945, 272.5995
177.7766, 271.7692
178.2588, 271.1675
178.7409, 270.3132
179.2230, 268.0361
179.7051, 265.3947
180.1872, 264.5166
180.6693, 266.1181
181.1515, 268.9199
181.6336, 271.4609
182.1157, 273.7355
182.5978, 275.6915
183.0799, 277.3581
183.5620, 278.7028
184.0442, 279.5662
184.5263, 279.8118
185.0084, 279.7247
185.4905, 280.0194
185.9726, 280.6582
186.4547, 280.7401
186.9369, 279.3528
187.4190, 276.7498
187.9011, 274.0488
188.3832, 271.4858
188.8653, 268.9206
189.3474, 265.8456
189.8296, 262.2089
190.3117, 258.7855
190.7938, 256.2286
191.2759, 254.4778
191.7580, 253.0396
192.2401, 251.6967
192.7223, 250.6377
193.2044, 250.5086
193.6865, 251.3750
194.1686, 252.6397
194.6507, 253.9282
195.1328, 255.2249
195.6150, 256.1287
196.0971, 256.3518
196.5792, 256.1406
197.0613, 256.5065
197.5434, 257.5086
198.0255, 258.7773
198.5077, 260.0209
198.9898, 261.2510
199.4719, 262.2276
199.9540, 262.6230
200.4361, 262.6925
200.9182, 264.0978
201.4004, 267.1571
201.8825, 270.5685
202.3646, 272.9009
202.8467, 273.9750
203.3288, 275.3572
203.8109, 277.5934
204.2931, 280.5316
204.7752, 282.8952
205.2573, 284.6869
205.7394, 285.9081
206.2215, 286.6548
206.7036, 287.0161
207.1858, 286.3853
207.6679, 284.4124
208.1500, 281.1849
208.6321, 278.0629
209.1142, 275.1476
209.5963, 272.1482
210.0785, 268.4989
210.5606, 263.8149
211.0427, 260.0334
211.5248, 257.7510
212.0069, 256.9347
212.4890, 256.1696
212.9712, 255.5123
213.4533, 254.8196
213.9354, 253.8115
214.4175, 252.1848
214.8996, 251.1753
215.3817, 251.3280
215.8639, 252.6456
216.3460, 253.1122
216.8281, 252.4842
217.3102, 251.3225
217.7923, 250.2655
218.2744, 249.4194
218.7565, 248.3436
219.2387, 246.7613
219.7208, 244.6255
220.2029, 243.4384
220.6850, 243.6920
221.1671, 244.3208
221.6492, 244.1515
222.1314, 242.9658
222.6135, 241.4513
223.0956, 239.6323
223.5777, 237.4514
224.0598, 235.8475
224.5419, 234.9690
225.0241, 234.4866
225.5062, 234.1236
225.9883, 234.1389
226.4704, 233.6947
226.9525, 232.3658
227.4346, 230.0606
227.9168, 228.7767
228.3989, 229.0251
228.8810, 229.7481
229.3631, 229.7818
229.8452, 228.5911
230.3273, 227.7995
230.8095, 227.9693
231.2916, 229.1655
231.7737, 229.4346
232.2558, 228.2144
232.7379, 226.6517
233.2200, 225.8467
233.7022, 225.7753
234.1843, 226.5470
234.6664, 228.5554
235.1485, 231.8114
235.6306, 234.0208
236.1127, 234.5247
236.5949, 234.6819
237.0770, 235.8345
237.5591, 238.5744
238.0412, 241.1541
238.5233, 243.2412
239.0054, 244.8435
239.4876, 246.4248
239.9697, 248.4563
240.4518, 249.9805
240.9339, 250.0386
241.4160, 247.8611
241.8981, 245.7576
242.3803, 244.2765
242.8624, 243.3729
243.3445, 241.6974
243.8266, 238.9285
244.3087, 235.7387
244.7908, 232.5837
245.2730, 229.1325
245.7551, 226.3773
246.2372, 224.5136
246.7193, 223.5062
247.2014, 223.0033
247.6835, 223.4986
248.1657, 223.9010
248.6478, 223.2480
249.1299, 220.7382
249.6120, 218.9135
250.0941, 218.1900
250.5762, 218.4597
251.0584, 218.8854
251.5405, 219.5241
252.0226, 220.2419
252.5047, 221.0009
252.9868, 222.0264
253.4689, 222.5498
253.9511, 222.2363
254.4332, 221.3105
254.9153, 221.0905
255.3974, 221.8783
255.8795, 222.9107
256.3616, 223.7224
256.8438, 224.2703
257.3259, 224.7294
257.8080, 225.0971
258.2901, 225.3862
258.7722, 225.6059
259.2543, 225.5718
259.7365, 225.7785
260.2186, 226.6299
260.7007, 228.5005
261.1828, 229.8250
261.6649, 230.3506
262.1470, 230.3214
262.6292, 230.4346
263.1113, 230.6029
263.5934, 231.0831
264.0755, 232.1312
264.5576, 234.0529
265.0397, 235.4583
265.5219, 236.2401
266.0040, 236.5472
266.4861, 236.6311
266.9682, 236.2939
267.4503, 236.2370
267.9324, 236.8943
268.4146, 238.5032
268.8967, 239.7141
269.3788, 240.2918
269.8609, 240.7142
270.3430, 242.0380
270.8251, 244.6211
271.3073, 246.9059
271.7894, 248.0958
272.2715, 248.0710
272.7536, 248.3411
273.2357, 249.0628
273.7178, 249.8390
274.2000, 250.0213
274.6821, 249.4928
275.1642, 248.8598
275.6463, 248.2912
276.1284, 247.7854
276.6105, 247.4724
277.0927, 247.4892
277.5748, 247.4000
278.0569, 246.5132
278.5390, 244.7225
279.0211, 243.0608
279.5032, 241.8665
279.9854, 241.1089
280.4675, 240.3884
280.9496, 239.6784
281.4317, 239.1023
281.9138, 238.7107
282.3959, 238.4940
282.8781, 238.7996
283.3602, 239.9600
283.8423, 241.6838
284.3244, 242.5913
284.8065, 242.5873
285.2886, 242.4034
285.7708, 242.6676
286.2529, 243.3625
286.7350, 244.1863
287.2171, 245.0922
287.6992, 246.0761
288.1813, 247.1245
288.6635, 248.2419
289.1456, 249.3812
289.6277, 250.5047
290.1098, 251.6192
290.5919, 252.7916
291.0740, 254.1437
291.5562, 255.4073
292.0383, 255.8565
292.5204, 255.5362
293.0025, 255.3135
293.4846, 256.0351
293.9667, 257.3641
294.4489, 258.0493
294.9310, 257.8220
295.4131, 257.2287
295.8952, 256.9425
296.3773, 256.9605
296.8594, 257.2310
297.3416, 257.8685
297.8237, 258.7313
298.3058, 259.4455
298.7879, 259.9556
299.2700, 260.4996
299.7521, 261.1194
300.2343, 261.9429
300.7164, 263.3579
301.1985, 265.7738
301.6806, 268.8394
302.1627, 272.1391
302.6448, 275.7179
303.1270, 279.0547
303.6091, 281.6715
304.0912, 283.7006
304.5733, 285.5424
305.0554, 287.5446
305.5375, 289.3146
306.0197, 290.7143
306.5018, 291.6939
306.9839, 291.3952
307.4660, 288.6751
307.9481, 284.3881
308.4302, 279.7162
308.9124, 274.5412
309.3945, 269.5459
309.8766, 265.3737
310.3587, 261.8900
310.8408, 258.5888
311.3229, 255.0679
311.8051, 251.5910
312.2872, 248.4565
312.7693, 245.4863
313.2514, 243.2393
313.7335, 242.1561
314.2156, 242.0703
314.6978, 242.4683
315.1799, 243.7495
315.6620, 245.0313
316.1441, 245.5437
316.6262, 244.8231
317.1083, 244.2705
317.5905, 244.8577
318.0726, 245.9690
318.5547, 246.5392
319.0368, 245.1359
319.5189, 243.9340
320.0010, 244.2737
320.4832, 246.6555
320.9653, 248.5595
321.4474, 248.9248
321.9295, 248.5560
322.4116, 248.3950
322.8937, 248.6575
323.3759, 249.1504
323.8580, 249.8254
324.3401, 250.6753
324.8222, 251.7379
325.3043, 253.2706
325.7864, 254.8852
326.2686, 256.2822
326.7507, 257.3458
327.2328, 258.2880
327.7149, 258.9722
328.1970, 259.4471
328.6791, 260.3147
329.1613, 261.8486
329.6434, 263.5503
330.1255, 265.2061
330.6076, 267.5939
331.0897, 268.7874
331.5718, 268.2487
332.0540, 266.5033
332.5361, 265.0648
333.0182, 264.2121
333.5003, 263.2806
333.9824, 261.9854
334.4645, 260.1537
334.9467, 258.4363
335.4288, 256.7345
335.9109, 255.2306
336.3930, 254.3256
336.8751, 254.2767
337.3572, 254.1980
337.8394, 253.7125
338.3215, 252.7825
338.8036, 252.4883
339.2857, 253.0561
339.7678, 253.8664
340.2499, 254.1956
340.7320, 253.9293
341.2141, 253.8157
341.6963, 253.9771
342.1784, 254.4234
342.6605, 255.3752
343.1426, 256.9594
343.6247, 258.4081
344.1068, 258.8583
344.5890, 258.3642
345.0711, 258.4483
345.5532, 259.5435
346.0353, 261.0287
346.5174, 261.4163
346.9995, 260.7268
347.4817, 260.1356
347.9638, 260.1965
348.4459, 260.9124
348.9280, 262.5613
349.4101, 265.3699
349.8922, 268.2091
350.3744, 269.5954
350.8565, 269.7310
351.3386, 269.4124
351.8207, 268.6958
352.3028, 267.8663
352.7849, 267.1644
353.2671, 266.5808
353.7492, 266.7448
354.2313, 268.9221
354.7134, 272.1173
355.1955, 274.5985
355.6776, 275.4019
356.1598, 275.5874
356.6419, 275.9647
357.1240, 276.5435
357.6061, 277.3708
358.0882, 278.9875
358.5703, 280.6317
359.0525, 281.5647
359.5346, 281.6540
360.0167, 280.9502
360.4988, 278.8983
360.9809, 276.0595
361.4630, 273.6885
361.9452, 272.8196
362.4273, 272.1684
362.9094, 271.0369
363.3915, 269.2965
363.8736, 267.2835
364.3557, 264.7396
364.8379, 262.1159
365.3200, 259.9543
365.8021, 258.7546
366.2842, 257.6530
366.7663, 256.4574
367.2484, 255.1563
367.7306, 253.7877
368.2127, 251.9545
368.6948, 250.3138
369.1769, 249.2876
369.6590, 249.7790
370.1411, 249.7929
370.6233, 249.0057
371.1054, 247.6397
371.5875, 246.5289
372.0696, 245.8090
372.5517, 245.1908
373.0338, 244.4877
373.5160, 243.4538
373.9981, 243.1121
374.4802, 243.8806
374.9623, 245.0026
375.4444, 245.2003
375.9265, 244.1717
376.4087, 243.0407
376.8908, 242.0380
377.3729, 241.1670
377.8550, 240.7907
378.3371, 241.0069
378.8192, 241.4648
379.3014, 241.8558
379.7835, 242.1824
380.2656, 242.4504
380.7477, 242.6290
381.2298, 242.7763
381.7119, 243.1797
382.1941, 243.8462
382.6762, 244.2168
383.1583, 243.6266
383.6404, 242.3642
384.1225, 241.6010
384.6046, 241.4935
385.0868, 241.7340
385.5689, 242.0640
386.0510, 242.4454
386.5331, 242.7391
387.0152, 242.6647
387.4973, 242.5585
387.9795, 243.0695
388.4616, 244.2033
388.9437, 245.1968
389.4258, 245.0756
389.9079, 244.5437
390.3900, 244.6549
390.8722, 246.2916
391.3543, 248.0088
391.8364, 248.6189
392.3185, 248.3770
392.8006, 248.2479
393.2827, 248.7823
393.7649, 249.5390
394.2470, 250.1467
394.7291, 250.3676
395.2112, 250.9283
395.6933, 252.6885
396.1754, 254.8141
396.6576, 256.0586
397.1397, 254.9389
397.6218, 254.0095
398.1039, 254.2429
398.5860, 255.7947
399.0681, 257.1064
399.5503, 257.7478
400.0324, 258.2682
400.5145, 259.0660
400.9966, 260.3420
401.4787, 261.6387
401.9608, 263.0647
402.4430, 264.5072
402.9251, 265.4736
403.4072, 265.6286
403.8893, 265.8199
404.3714, 266.3829
404.8535, 267.3139
405.3357, 268.6678
405.8178, 270.5232
406.2999, 272.6700
406.7820, 274.9458
407.2641, 277.4591
407.7462, 279.4191
408.2284, 280.3006
408.7105, 280.4239
409.1926, 281.6707
409.6747, 284.1777
410.1568, 286.8060
410.6389, 288.6491
411.1211, 289.7684
411.6032, 290.4745
412.0853, 290.6101
412.5674, 290.7885
413.0495, 292.4613
413.5316, 295.2598
414.0138, 297.2611
414.4959, 296.8298
414.9780, 295.1703
415.4601, 293.9893
415.9422, 293.3709
416.4243, 293.1956
416.9065, 293.8557
417.3886, 294.7809
417.8707, 295.0987
418.3528, 293.8411
418.8349, 292.5183
419.3170, 291.8468
419.7992, 291.8443
420.2813, 292.5932
420.7634, 294.4587
421.2455, 296.8674
421.7276, 299.4948
422.2097, 302.4592
422.6919, 305.2792
423.1740, 307.8107
423.6561, 310.1408
424.1382, 312.4665
424.6203, 314.4873
425.1024, 316.7762
425.5846, 319.4842
426.0667, 322.6068
426.5488, 326.0768
427.0309, 330.3647
427.5130, 334.6255
427.9951, 338.2348
428.4773, 340.7628
428.9594, 343.5677
429.4415, 346.7301
429.9236, 350.2179
430.4057, 354.0742
430.8878, 358.3838
431.3700, 362.7375
431.8521, 366.7472
432.3342, 370.4156
432.8163, 375.2204
433.2984, 381.2973
433.7805, 388.0504
434.2627, 394.8238
434.7448, 401.6510
435.2269, 408.7791
435.7090, 416.1905
436.1911, 424.1645
436.6732, 433.4810
437.1554, 444.0302
437.6375, 454.6457
438.1196, 464.7058
438.6017, 474.2740
439.0838, 483.6519
439.5659, 493.0540
440.0480, 501.3873
440.5302, 508.7922
441.0123, 514.4438
441.4944, 516.9594
441.9765, 515.8052
442.4586, 511.3233
442.9407, 503.1021
443.4229, 491.4403
443.9050, 478.0638
444.3871, 462.4621
444.8692, 446.3470
445.3513, 430.8011
445.8334, 415.7653
446.3156, 401.6779
446.7977, 388.8951
447.2798, 377.1480
447.7619, 366.0294
448.2440, 354.8026
448.7261, 345.0823
449.2083, 337.5831
449.6904, 332.3633
450.1725, 327.4232
450.6546, 322.9932
451.1367, 318.6273
451.6188, 313.8861
452.1010, 308.4158
452.5831, 303.6862
453.0652, 299.7656
453.5473, 296.6190
454.0294, 294.2263
454.5115, 292.6551
454.9937, 291.2379
455.4758, 289.6554
455.9579, 287.9549
456.4400, 286.3788
456.9221, 284.9174
457.4042, 283.5273
457.8864, 281.8934
458.3685, 280.2610
458.8506, 279.4140
459.3327, 279.9164
459.8148, 280.6729
460.2969, 280.3300
460.7791, 279.1300
461.2612, 277.8835
461.7433, 276.6523
462.2254, 275.8150
462.7075, 276.0218
463.1896, 277.4478
463.6718, 278.4509
464.1539, 277.6252
464.6360, 276.1912
465.1181, 275.3754
465.6002, 276.0555
466.0823, 276.7902
466.5645, 277.2212
467.0466, 277.4195
467.5287, 277.6647
468.0108, 277.6299
468.4929, 277.9806
468.9750, 279.1274
469.4572, 281.5107
469.9393, 283.0044
470.4214, 283.2319
470.9035, 282.8930
471.3856, 282.7002
471.8677, 282.6556
472.3499, 282.7404
472.8320, 282.9433
473.3141, 283.2781
473.7962, 283.8033
474.2783, 284.5292
474.7604, 285.3896
475.2426, 286.5332
475.7247, 287.8542
476.2068, 288.4732
476.6889, 288.2403
477.1710, 288.1124
477.6531, 289.3581
478.1353, 291.5804
478.6174, 293.7180
479.0995, 295.6063
479.5816, 297.0582
480.0637, 297.3599
480.5458, 296.8828
481.0280, 297.0198
481.5101, 299.3937
481.9922, 302.1590
482.4743, 303.6972
482.9564, 303.6211
483.4385, 303.5275
483.9207, 304.2954
484.4028, 305.2734
484.8849, 305.7778
485.3670, 305.2324
485.8491, 304.6856
486.3312, 304.3173
486.8134, 304.1115
487.2955, 303.9224
487.7776, 303.4420
488.2597, 303.3692
488.7418, 304.1178
489.2239, 305.9459
489.7061, 307.3161
490.1882, 308.1331
490.6703, 308.6376
491.1524, 309.0052
491.6345, 309.1840
492.1166, 309.6886
492.5988, 310.7686
493.0809, 312.0915
493.5630, 312.8114
494.0451, 312.9393
494.5272, 312.7685
495.0093, 311.8183
495.4915, 310.7938
495.9736, 311.6772
496.4557, 314.6458
496.9378, 317.7264
497.4199, 318.9530
497.9020, 319.1950
498.3842, 319.7773
498.8663, 321.3839
499.3484, 323.0433
499.8305, 323.9804
500.3126, 324.4867
500.7947, 325.2941
501.2769, 327.0261
501.7590, 328.8317
502.2411, 330.1119
502.7232, 330.6561
503.2053, 332.0312
503.6874, 335.5828
504.1696, 339.3036
504.6517, 341.6060
505.1338, 340.9845
505.6159, 341.6376
506.0980, 344.3852
506.5801, 348.2679
507.0623, 350.9586
507.5444, 352.0787
508.0265, 353.2952
508.5086, 355.1696
508.9907, 357.6708
509.4728, 360.6236
509.9550, 364.0415
510.4371, 367.7088
510.9192, 371.5080
511.4013, 375.4026
511.8834, 378.9793
512.3655, 381.9647
512.8477, 385.3986
513.3298, 390.8892
513.8119, 397.7938
514.2940, 404.5778
514.7761, 409.8023
515.2582, 415.2135
515.7404, 422.5466
516.2225, 431.5612
516.7046, 440.3666
517.1867, 447.9150
517.6688, 455.1186
518.1509, 462.5844
518.6331, 470.5690
519.1152, 478.4156
519.5973, 485.8218
520.0794, 493.0626
520.5615, 500.3089
521.0436, 506.9785
521.5258, 514.6178
522.0079, 523.6701
522.4900, 533.8871
522.9721, 544.0717
523.4542, 553.8077
523.9363, 564.1326
524.4185, 575.3295
524.9006, 587.4581
525.3827, 601.2709
525.8648, 616.9379
526.3469, 633.7608
526.8290, 651.1573
527.3112, 669.1013
527.7933, 687.7144
528.2754, 707.3801
528.7575, 727.4261
529.2396, 748.4783
529.7217, 769.7538
530.2039, 788.5447
530.6860, 804.0397
531.1681, 816.3022
531.6502, 826.1200
532.1323, 833.4890
532.6144, 836.5479
533.0966, 835.7372
533.5787, 829.6621
534.0608, 817.2091
534.5429, 796.8683
535.0250, 772.2103
535.5071, 741.8127
535.9893, 708.1433
536.4714, 675.2018
536.9535, 643.1321
537.4356, 611.5490
537.9177, 580.1130
538.3998, 549.0692
538.8820, 521.6281
539.3641, 498.3549
539.8462, 477.5280
540.3283, 458.3850
540.8104, 441.0689
541.2925, 426.2767
541.7747, 414.2740
542.2568, 403.7883
542.7389, 393.5581
543.2210, 383.7919
543.7031, 375.0035
544.1852, 367.4917
544.6674, 360.7729
545.1495, 354.6510
545.6316, 349.0656
546.1137, 343.8647
546.5958, 338.7979
547.0779, 334.2533
547.5601, 330.5440
548.0422, 327.6972
548.5243, 325.0587
549.0064, 322.4888
549.4885, 320.0870
549.9706, 317.8971
550.4528, 315.8070
550.9349, 314.1587
551.4170, 313.1728
551.8991, 312.4175
552.3812, 311.1792
552.8633, 309.2780
553.3455, 307.6388
553.8276, 306.5699
554.3097, 305.8685
554.7918, 304.8048
555.2739, 303.3986
555.7560, 302.1110
556.2382, 301.4564
556.7203, 301.0869
557.2024, 300.0978
557.6845, 298.4318
558.1666, 296.8464
558.6487, 295.7784
559.1309, 295.2451
559.6130, 295.4336
560.0951, 297.0335
560.5772, 298.0864
561.0593, 297.2456
561.5414, 295.2816
562.0236, 293.5729
562.5057, 292.3764
562.9878, 291.5286
563.4699, 291.0048
563.9520, 290.7934
564.4341, 290.8829
564.9163, 291.5976
565.3984, 292.1504
565.8805, 292.0687
566.3626, 291.1899
566.8447, 290.7421
567.3268, 290.8766
567.8090, 291.0021
568.2911, 290.1992
568.7732, 288.6153
569.2553, 287.7417
569.7374, 288.1244
570.2195, 288.8275
570.7017, 288.1479
571.1838, 286.6100
571.6659, 285.8807
572.1480, 287.7391
572.6301, 290.0419
573.1122, 291.0523
573.5944, 290.8333
574.0765, 290.1625
574.5586, 288.9932
575.0407, 287.7748
575.5228, 286.7331
576.0049, 285.8469
576.4871, 285.3043
576.9692, 285.1127
577.4513, 285.2632
577.9334, 285.8671
578.4155, 287.4066
578.8976, 288.1757
579.3798, 287.7101
579.8619, 286.5736
580.3440, 286.1344
580.8261, 286.4353
581.3082, 286.9106
581.7903, 287.4111
582.2725, 287.8896
582.7546, 288.1506
583.2367, 288.2107
583.7188, 288.2807
584.2009, 288.6288
584.6830, 289.0273
585.1652, 289.0565
585.6473, 288.5671
586.1294, 288.3570
586.6115, 289.1807
587.0936, 290.3957
587.5757, 291.3173
588.0578, 291.9142
588.5399, 292.0284
589.0220, 291.1268
589.5042, 289.7554
589.9863, 289.2228
590.4684, 290.2556
590.9505, 290.9224
591.4326, 290.4600
591.9147, 289.0949
592.3969, 289.0246
592.8790, 290.5351
593.3611, 292.1237
593.8432, 292.8068
594.3253, 292.7139
594.8074, 292.5960
595.2896, 292.4913
595.7717, 292.3096
596.2538, 291.8143
596.7359, 291.2116
597.2180, 290.8903
597.7001, 291.0452
598.1823, 291.3130
598.6644, 291.5377
599.1465, 291.6974
599.6286, 291.7538
600.1107, 291.6772
600.5928, 291.5107
601.0750, 291.2165
601.5571, 290.8152
602.0392, 290.4721
602.5213, 290.1180
603.0034, 289.9128
603.4855, 289.9991
603.9677, 290.4181
604.4498, 290.4097
604.9319, 289.8076
605.4140, 289.2836
605.8961, 289.7340
606.3782, 290.9463
606.8604, 291.3633
607.3425, 290.6706
607.8246, 289.6632
608.3067, 289.1187
608.7888, 288.9890
609.2709, 289.2130
609.7531, 290.1551
610.2352, 290.9840
610.7173, 291.0801
611.1994, 290.6308
611.6815, 290.1506
612.1636, 289.8675
612.6458, 289.5257
613.1279, 288.8438
613.6100, 287.8074
614.0921, 287.5107
614.5742, 288.6221
615.0563, 289.5930
615.5385, 289.3791
616.0206, 287.6170
616.5027, 286.9283
616.9848, 287.5558
617.4669, 288.5279
617.9490, 288.6182
618.4312, 288.0215
618.9133, 287.7900
619.3954, 288.2458
619.8775, 288.8340
620.3596, 288.9142
620.8417, 288.6153
621.3239, 288.2284
621.8060, 287.3053
622.2881, 286.8467
622.7702, 287.9882
623.2523, 290.2334
623.7344, 291.5501
624.2166, 290.4305
624.6987, 289.2014
625.1808, 288.7338
625.6629, 289.0565
626.1450, 289.7381
626.6271, 291.2336
627.1093, 292.3502
627.5914, 291.8921
628.0735, 289.6688
628.5556, 288.7741
629.0377, 289.5332
629.5198, 290.9504
630.0020, 292.2475
630.4841, 293.2812
630.9662, 293.4693
631.4483, 292.3151
631.9304, 291.0389
632.4125, 291.0136
632.8947, 291.7328
633.3768, 292.1680
633.8589, 291.5868
634.3410, 290.9595
634.8231, 290.5745
635.3052, 290.4577
635.7874, 290.7027
636.2695, 291.7941
636.7516, 292.7106
637.2337, 293.1053
637.7158, 292.9627
638.1979, 292.3980
638.6801, 291.0865
639.1622, 290.2358
639.6443, 291.2826
640.1264, 293.9059
640.6085, 295.2730
641.0906, 295.0256
641.5728, 294.3002
642.0549, 294.2363
642.5370, 294.5631
643.0191, 294.7850
643.5012, 294.7559
643.9833, 294.6267
644.4655, 294.5471
644.9476, 294.4301
645.4297, 294.1217
645.9118, 293.0210
646.3939, 292.3521
646.8760, 292.6811
647.3582, 293.7347
647.8403, 294.5212
648.3224, 295.1043
648.8045, 295.2917
649.2866, 294.8573
649.7687, 293.9022
650.2509, 293.4504
650.7330, 293.5261
651.2151, 293.7997
651.6972, 294.0627
652.1793, 294.3355
652.6614, 294.7690
653.1436, 295.3971
653.6257, 295.7238
654.1078, 294.8907
654.5899, 293.7647
655.0720, 293.3183
655.5541, 294.0552
656.0363, 294.9081
656.5184, 295.5497
657.0005, 296.1194
657.4826, 296.8444
657.9647, 298.2892
658.4468, 298.8903
658.9290, 298.0816
659.4111, 296.5347
659.8932, 295.9390
660.3753, 296.3943
660.8574, 296.9467
661.3395, 297.2534
661.8217, 297.4109
662.3038, 297.6674
662.7859, 298.0041
663.2680, 298.3058
663.7501, 298.5952
664.2322, 298.7506
664.7144, 298.5527
665.1965, 298.0103
665.6786, 297.6019
666.1607, 297.4974
666.6428, 297.6202
667.1249, 297.9532
667.6071, 298.5980
668.0892, 299.2108
668.5713, 299.8994
669.0534, 300.4566
669.5355, 300.6836
670.0176, 300.5585
670.4998, 300.1973
670.9819, 299.4740
671.4640, 298.8761
671.9461, 299.2715
672.4282, 300.4350
672.9103, 301.5372
673.3925, 302.3791
673.8746, 302.9778
674.3567, 303.2676
674.8388, 303.3224
675.3209, 303.2998
675.8030, 303.3157
676.2852, 303.2069
676.7673, 302.6191
677.2494, 301.7305
677.7315, 301.6575
678.2136, 303.0691
678.6957, 304.3799
679.1779, 304.9498
679.6600, 304.8307
680.1421, 305.1751
680.6242, 306.0672
681.1063, 306.9575
681.5884, 307.5646
682.0706, 307.8778
682.5527, 307.6422
683.0348, 306.8232
683.5169, 306.3082
683.9990, 307.2080
684.4811, 308.5916
684.9633, 309.4149
685.4454, 309.3478
685.9275, 309.1267
686.4096, 308.4747
686.8917, 308.0528
687.3738, 308.6446
687.8560, 311.1359
688.3381, 313.0546
688.8202, 314.1234
689.3023, 314.7131
689.7844, 315.3788
690.2665, 316.1154
690.7487, 317.0363
691.2308, 318.2500
691.7129, 319.5285
692.1950, 320.6800
692.6771, 321.6133
693.1592, 322.0357
693.6414, 321.0760
694.1235, 320.1494
694.6056, 320.4189
695.0877, 321.6961
695.5698, 323.1445
696.0519, 325.4588
696.5341, 326.9630
697.0162, 326.4327
697.4983, 323.9275
697.9804, 323.1253
698.4625, 324.6422
698.9446, 326.6228
699.4268, 328.0524
699.9089, 328.9688
700.3910, 330.0761
700.8731, 331.4224
701.3552, 332.3646
701.8373, 331.9401
702.3195, 330.8426
702.8016, 330.4125
703.2837, 330.9508
703.7658, 331.2195
704.2479, 329.7932
704.7300, 328.0782
705.2122, 327.4723
705.6943, 329.3916
706.1764, 330.5074
706.6585, 330.2951
707.1406, 329.3865
707.6227, 328.3662
708.1049, 327.0357
708.5870, 326.4916
709.0691, 327.0834
709.5512, 328.1948
710.0333, 328.8814
710.5154, 329.1581
710.9976, 329.0718
711.4797, 328.4673
711.9618, 327.7434
712.4439, 327.2392
712.9260, 326.9420
713.4081, 326.8091
713.8903, 327.2185
714.3724, 327.3896
714.8545, 326.7750
715.3366, 325.5561
715.8187, 324.9197
716.3008, 325.0660
716.7830, 325.4912
717.2651, 326.2624
717.7472, 327.2346
718.2293, 326.9921
718.7114, 325.4651
719.1935, 323.9176
719.6757, 323.0137
720.1578, 322.6862
720.6399, 322.9212
721.1220, 323.6855
721.6041, 324.5545
722.0862, 325.4099
722.5684, 326.1253
723.0505, 326.6729
723.5326, 327.1068
724.0147, 327.0006
724.4968, 325.4771
724.9789, 324.0985
725.4611, 324.0230
725.9432, 325.8707
726.4253, 326.5421
726.9074, 325.8468
727.3895, 324.5152
727.8716, 323.1136
728.3538, 321.7120
728.8359, 320.6745
729.3180, 320.1116
729.8001, 319.6866
730.2822, 319.0210
730.7643, 318.3207
731.2465, 317.8898
731.7286, 318.1005
732.2107, 318.1358
732.6928, 317.8052
733.1749, 317.1382
733.6570, 316.1581
734.1392, 314.5688
734.6213, 313.3438
735.1034, 312.6826
735.5855, 312.3607
736.0676, 312.0075
736.5497, 311.6131
737.0319, 311.0040
737.5140, 309.9074
737.9961, 308.8879
738.4782, 308.9865
738.9603, 309.7843
739.4424, 310.1988
739.9246, 309.4201
740.4067, 308.4818
740.8888, 307.7802
741.3709, 307.3116
741.8530, 306.9522
742.3351, 306.5663
742.8173, 306.4836
743.2994, 306.8545
743.7815, 307.6039
744.2636, 308.4867
744.7457, 309.5465
745.2278, 310.1152
745.7100, 309.3687
746.1921, 308.0305
746.6742, 307.5619
747.1563, 307.8576
747.6384, 308.1862
748.1205, 308.0262
748.6027, 307.8214
749.0848, 308.0079
749.5669, 308.6342
750.0490, 308.7538
750.5311, 307.4845
751.0132, 306.5534
751.4954, 307.0058
751.9775, 309.0221
752.4596, 309.6519
752.9417, 308.6797
753.4238, 307.4076
753.9059, 306.7424
754.3881, 306.5720
754.8702, 306.6004
755.3523, 306.8076
755.8344, 307.2425
756.3165, 308.3878
756.7986, 309.5013
757.2808, 309.7630
757.7629, 308.6786
758.2450, 308.1937
758.7271, 309.5954
759.2092, 310.8996
759.6913, 310.4610
760.1735, 307.4620
760.6556, 306.3652
761.1377, 307.6891
761.6198, 309.5970
762.1019, 309.9040
762.5840, 309.1098
763.0662, 308.9193
763.5483, 309.7313
764.0304, 310.4957
764.5125, 310.1064
764.9946, 309.2688
765.4767, 308.8297
765.9589, 309.4207
766.4410, 309.6234
766.9231, 308.5668
767.4052, 307.4092
767.8873, 307.4623
768.3694, 309.1025
768.8516, 310.6152
769.3337, 312.0058
769.8158, 312.7879
770.2979, 311.8130
770.7800, 309.5497
771.2621, 307.5970
771.7443, 306.1960
772.2264, 305.6670
772.7085, 306.9755
773.1906, 309.1352
773.6727, 310.6756
774.1548, 310.7998
774.6370, 310.7350
775.1191, 310.7016
775.6012, 310.5956
776.0833, 310.1416
776.5654, 309.1295
777.0475, 308.6914
777.5297, 309.1581
778.0118, 310.0758
778.4939, 310.7104
778.9760, 311.1012
779.4581, 311.3887
779.9402, 311.5440
780.4224, 311.7154
780.9045, 312.0354
781.3866, 312.4434
781.8687, 312.8281
782.3508, 313.6147
782.8329, 313.7592
783.3151, 312.5576
783.7972, 310.8005
784.2793, 310.3887
784.7614, 311.6018
785.2435, 312.6414
785.7256, 312.9641
786.2077, 312.9176
786.6898, 313.3318
787.1719, 314.0207
787.6541, 314.2714
788.1362, 313.4145
788.6183, 312.3780
789.1004, 311.6519
789.5825, 311.2334
790.0646, 311.1291
790.5468, 311.8326
791.0289, 312.2316
791.5110, 311.8526
791.9931, 311.0952
792.4752, 311.4021
792.9573, 312.9392
793.4395, 314.0084
793.9216, 313.8106
794.4037, 313.0076
794.8858, 312.8310
795.3679, 313.1246
795.8500, 313.4126
796.3322, 313.2877
796.8143, 313.2574
797.2964, 313.7319
797.7785, 314.5529
798.2606, 315.1406
798.7427, 315.4493
799.2249, 315.4702
799.7070, 314.9603
800.1891, 314.2578
800.6712, 314.8334
801.1533, 316.7129
801.6354, 317.9057
802.1176, 317.2216
802.5997, 315.7303
803.0818, 314.6281
803.5639, 314.0063
804.0460, 314.1397
804.5281, 316.1328
805.0103, 317.9000
805.4924, 318.5222
805.9745, 318.1294
806.4566, 317.4959
806.9387, 316.2189
807.4208, 315.6469
807.9030, 316.4243
808.3851, 317.9836
808.8672, 318.5641
809.3493, 318.2552
809.8314, 317.8862
810.3135, 317.7673
810.7957, 317.8507
811.2778, 318.3023
811.7599, 318.9323
812.2420, 319.2096
812.7241, 318.4539
813.2062, 317.8675
813.6884, 317.9505
814.1705, 318.4760
814.6526, 318.7311
815.1347, 318.6737
815.6168, 318.5248
816.0989, 318.3071
816.5811, 318.0927
817.0632, 318.0229
817.5453, 318.0948
818.0274, 318.2919
818.5095, 318.8997
818.9916, 319.3522
819.4738, 319.1975
819.9559, 318.5952
820.4380, 317.9751
820.9201, 316.9859
821.4022, 316.5674
821.8843, 317.0528
822.3665, 318.1235
822.8486, 319.0494
823.3307, 319.8285
823.8128, 320.2324
824.2949, 319.9357
824.7770, 319.5927
825.2592, 320.7146
825.7413, 322.5366
826.2234, 323.2814
826.7055, 320.6841
827.1876, 318.5376
827.6697, 318.6279
828.1519, 320.1440
828.6340, 321.1774
829.1161, 321.7091
829.5982, 321.6769
830.0803, 320.8308
830.5624, 319.7477
831.0446, 319.6271
831.5267, 320.3174
832.0088, 321.0623
832.4909, 321.7614
832.9730, 322.1519
833.4551, 321.5908
833.9373, 320.6682
834.4194, 320.3349
834.9015, 321.8319
835.3836, 322.6171
835.8657, 322.0101
836.3478, 320.8270
836.8300, 320.2592
837.3121, 320.3416
837.7942, 320.7711
838.2763, 321.5758
838.7584, 322.4794
839.2405, 323.1635
839.7227, 323.6563
840.2048, 324.0433
840.6869, 324.4645
841.1690, 324.5278
841.6511, 323.5030
842.1332, 322.2769
842.6154, 321.9709
843.0975, 323.1806
843.5796, 324.0670
844.0617, 324.5605
844.5438, 324.7104
845.0259, 324.3334
845.5081, 323.6002
845.9902, 323.4983
846.4723, 324.2833
846.9544, 325.0107
847.4365, 324.4295
847.9186, 323.5738
848.4008, 323.7945
848.8829, 326.2373
849.3650, 327.1758
849.8471, 325.0099
850.3292, 322.4102
850.8113, 321.3354
851.2935, 321.9200
851.7756, 322.9142
852.2577, 324.3900
852.7398, 325.4984
853.2219, 325.1382
853.7040, 324.0424
854.1862, 323.2157
854.6683, 322.7655
855.1504, 322.9174
855.6325, 324.5080
856.1146, 326.1434
856.5967, 326.7888
857.0789, 326.2801
857.5610, 326.4029
858.0431, 327.3837
858.5252, 328.2827
859.0073, 328.4357
859.4894, 328.0029
859.9716, 327.4172
860.4537, 326.7186
860.9358, 326.3108
861.4179, 326.8112
861.9000, 327.3935
862.3821, 327.2338
862.8643, 326.3815
863.3464, 326.4764
863.8285, 328.5148
864.3106, 330.0131
864.7927, 329.9759
865.2748, 328.7324
865.7570, 327.5096
866.2391, 326.3363
866.7212, 325.8499
867.2033, 327.0952
867.6854, 328.6099
868.1675, 328.5742
868.6497, 327.5079
869.1318, 326.9037
869.6139, 327.6098
870.0960, 328.4122
870.5781, 329.1243
871.0602, 329.6724
871.5424, 329.7884
872.0245, 329.4089
872.5066, 329.2625
872.9887, 329.7303
873.4708, 330.1522
873.9529, 329.1632
874.4351, 327.3988
874.9172, 326.2666
875.3993, 326.5635
875.8814, 327.0593
876.3635, 327.4144
876.8456, 327.6599
877.3278, 327.8413
877.8099, 327.9409
878.2920, 328.0194
878.7741, 328.0417
879.2562, 328.1508
879.7383, 328.6757
880.2205, 329.4302
880.7026, 329.8408
881.1847, 329.7507
881.6668, 329.6333
882.1489, 330.0966
882.6310, 330.4901
883.1132, 330.0936
883.5953, 328.2754
884.0774, 327.4373
884.5595, 327.9091
885.0416, 328.7283
885.5237, 329.2921
886.0059, 329.5885
886.4880, 329.3969
886.9701, 328.7269
887.4522, 328.1494
887.9343, 328.2349
888.4164, 328.4872
888.8986, 328.3868
889.3807, 327.9145
889.8628, 327.8285
890.3449, 328.2266
890.8270, 329.0860
891.3091, 330.8226
891.7913, 333.0102
892.2734, 332.8178
892.7555, 330.3735
893.2376, 328.3389
893.7197, 328.2936
894.2018, 329.2129
894.6840, 330.4602
895.1661, 331.8027
895.6482, 332.5803
896.1303, 331.9201
896.6124, 331.5251
897.0945, 331.9795
897.5767, 332.7634
898.0588, 332.6262
898.5409, 331.5176
899.0230, 330.7843
899.5051, 330.7740
899.9872, 331.1487
900.4694, 331.8315
900.9515, 332.5085
901.4336, 332.5640
901.9157, 331.1764
902.3978, 330.4632
902.8799, 331.9787
903.3621, 333.7349
903.8442, 333.8627
904.3263, 331.9485
904.8084, 330.9011
905.2905, 330.9266
905.7726, 331.2779
906.2548, 331.2536
906.7369, 331.0558
907.2190, 330.9284
907.7011, 330.8923
908.1832, 331.2155
908.6653, 332.5385
909.1475, 333.7785
909.6296, 334.3072
910.1117, 334.1380
910.5938, 334.0457
911.0759, 334.0617
911.5580, 333.9965
912.0402, 333.7253
912.5223, 333.3139
913.0044, 332.6208
913.4865, 331.8446
913.9686, 331.7574
914.4507, 333.6035
914.9329, 335.2808
915.4150, 335.9034
915.8971, 335.6935
916.3792, 335.0345
916.8613, 333.5959
917.3434, 333.2133
917.8256, 334.6396
918.3077, 336.5366
918.7898, 336.5138
919.2719, 335.2765
919.7540, 334.5796
920.2361, 335.3383
920.7183, 335.7179
921.2004, 334.0150
921.6825, 332.0219
922.1646, 331.6441
922.6467, 333.6714
923.1288, 334.9496
923.6110, 335.3530
924.0931, 335.3701
924.5752, 335.3983
925.0573, 335.4026
925.5394, 335.1743
926.0215, 334.7153
926.5037, 334.6113
926.9858, 335.7310
927.4679, 336.8288
927.9500, 336.8593
928.4321, 335.9415
928.9142, 336.0567
929.3964, 337.5272
929.8785, 338.8403
930.3606, 339.4127
930.8427, 339.3395
931.3248, 338.4135
931.8069, 336.9674
932.2891, 336.0953
932.7712, 336.5880
933.2533, 337.4214
933.7354, 338.6831
934.2175, 339.8514
934.6996, 339.8436
935.1818, 338.1336
935.6639, 337.0917
936.1460, 337.0954
936.6281, 337.6177
937.1102, 338.1215
937.5923, 338.5836
938.0745, 338.9521
938.5566, 339.2349
939.0387, 339.3611
939.5208, 338.7961
940.0029, 338.4623
940.4850, 339.2110
940.9672, 341.2653
941.4493, 342.4457
941.9314, 342.6435
942.4135, 342.4066
942.8956, 341.7966
943.3777, 341.1271
943.8599, 341.0693
944.3420, 341.5399
944.8241, 342.0899
945.3062, 343.3807
945.7883, 344.5467
946.2704, 345.2245
946.7526, 345.4405
947.2347, 343.8110
947.7168, 344.5645
948.1989, 344.3630
948.6810, 344.1224
949.1631, 345.2113
949.6453, 343.8503
950.1274, 344.9180
950.6095, 345.0163
951.0916, 345.5583
951.5737, 345.1394
952.0558, 345.0173
952.5380, 345.8564
953.0201, 346.1632
953.5022, 345.6338
953.9843, 344.5918
954.4664, 345.1775
954.9485, 345.5289
955.4307, 345.1631
955.9128, 344.7281
956.3949, 345.2665
956.8770, 346.7276
957.3591, 347.8580
957.8412, 347.9679
958.3234, 347.9886
958.8055, 348.0908
959.2876, 348.3711
959.7697, 349.4073
960.2518, 351.1803
960.7339, 352.4447
961.2161, 352.4478
961.6982, 352.3231
962.1803, 353.5509
962.6624, 355.3932
963.1445, 356.7084
963.6266, 356.7142
964.1088, 356.8885
964.5909, 357.3886
965.0730, 357.9759
965.5551, 358.5405
966.0372, 359.0259
966.5193, 358.7783
967.0015, 357.7437
967.4836, 356.7328
967.9657, 356.3458
968.4478, 356.2898
968.9299, 356.4964
969.4120, 356.9380
969.8942, 356.9004
970.3763, 356.1430
970.8584, 355.3536
971.3405, 354.6857
971.8226, 354.2216
972.3047, 354.2843
972.7869, 354.7648
973.2690, 355.2141
973.7511, 355.4394
974.2332, 355.5996
974.7153, 355.6748
975.1974, 355.7890
975.6796, 356.1715
976.1617, 357.1026
976.6438, 357.4117
977.1259, 356.8823
977.6080, 356.2846
978.0901, 356.5995
978.5723, 357.3729
979.0544, 357.7162
979.5365, 357.5428
980.0186, 357.0760
980.5007, 356.0076
980.9828, 355.0966
981.4650, 354.7701
981.9471, 354.9337
982.4291, 354.9691
982.9113, 354.8640
983.3934, 354.7534
983.8755, 354.6469
984.3576, 354.6286
984.8397, 355.1483
985.3218, 355.7702
985.8040, 355.6580
986.2861, 353.2779
986.7682, 352.0128
987.2503, 352.4637
987.7324, 353.8705
988.2145, 355.8623
988.6967, 358.3628
989.1788, 359.3615
989.6609, 358.6893
990.1430, 357.9568
990.6251, 358.6618
991.1072, 359.7121
991.5894, 360.1520
992.0715, 359.9356
992.5536, 359.8508
993.0357, 360.2563
993.5178, 360.0714
993.9999, 358.5560
994.4821, 356.6464
994.9642, 357.0005
995.4463, 358.9771
995.9284, 360.3449
996.4105, 359.9547
996.8926, 359.4463
997.3748, 359.6496
997.8569, 360.1967
998.3390, 360.7086
998.8211, 361.2842
999.3032, 361.2986
999.7853, 360.6004
1000.267, 360.0973
1000.750, 360.8360
1001.232, 362.1506
1001.714, 363.0090
1002.196, 363.4023
1002.678, 363.7484
1003.160, 364.2454
1003.642, 364.6807
1004.124, 365.0796
1004.607, 365.3359
1005.089, 364.9170
1005.571, 363.8745
1006.053, 363.4890
1006.535, 364.3066
1007.017, 365.2811
1007.499, 365.3957
1007.981, 365.1114
1008.463, 364.9691
1008.946, 365.1327
1009.428, 365.2346
1009.910, 365.2021
1010.392, 365.2453
1010.874, 365.4520
1011.356, 365.8581
1011.838, 366.9424
1012.320, 368.4876
1012.802, 369.2747
1013.285, 367.8126
1013.767, 366.2921
1014.249, 365.8561
1014.731, 366.1191
1015.213, 366.2352
1015.695, 366.1298
1016.177, 366.4474
1016.659, 367.4072
1017.142, 368.3602
1017.624, 368.3683
1018.106, 367.9302
1018.588, 367.6530
1019.070, 367.5801
1019.552, 368.0523
1020.034, 369.7354
1020.516, 371.1621
1020.998, 371.4580
1021.481, 370.9399
1021.963, 371.3532
1022.445, 372.6029
1022.927, 374.0542
1023.409, 375.6365
1023.891, 377.0314
1024.373, 377.8167
1024.855, 378.3354
1025.338, 379.2091
1025.820, 380.5673
1026.302, 381.9780
1026.784, 383.4544
1027.266, 384.8492
1027.748, 385.9997
1028.230, 386.9614
1028.712, 387.7052
1029.194, 388.2639
1029.677, 389.2607
1030.159, 391.3569
1030.641, 393.4824
1031.123, 395.1512
1031.605, 396.5944
1032.087, 398.6719
1032.569, 401.3351
1033.051, 404.0644
1033.534, 406.7645
1034.016, 409.2397
1034.498, 410.7477
1034.980, 412.2465
1035.462, 414.9637
1035.944, 419.7249
1036.426, 423.9198
1036.908, 427.4167
1037.391, 430.6999
1037.873, 434.6334
1038.355, 438.4445
1038.837, 439.7348
1039.319, 438.9086
1039.801, 437.7505
1040.283, 437.7590
1040.765, 436.7567
1041.247, 433.6358
1041.729, 429.3541
1042.212, 425.3574
1042.694, 421.6693
1043.176, 417.2637
1043.658, 411.8232
1044.140, 406.5549
1044.622, 402.1973
1045.104, 398.6383
1045.586, 396.0930
1046.069, 394.6455
1046.551, 392.1172
1047.033, 387.6909
1047.515, 384.1132
1047.997, 382.7151
1048.479, 382.5038
1048.961, 381.3192
1049.443, 379.5537
1049.926, 378.2146
1050.408, 378.0317
1050.890, 377.6707
1051.372, 376.5363
1051.854, 375.1365
1052.336, 373.7706
1052.818, 372.4100
1053.300, 371.4623
1053.782, 370.9323
1054.265, 370.7379
1054.747, 371.0659
1055.229, 371.4923
1055.711, 371.9635
1056.193, 372.2509
1056.675, 371.4175
1057.157, 368.4599
1057.639, 367.0328
1058.121, 368.0585
1058.604, 369.8925
1059.086, 370.4642
1059.568, 370.1076
1060.050, 369.2493
1060.532, 367.8576
1061.014, 367.1486
1061.496, 368.5683
1061.978, 369.7143
1062.461, 369.3070
1062.943, 367.8285
1063.425, 367.8196
1063.907, 369.1067
1064.389, 369.8833
1064.871, 369.0593
1065.353, 368.2430
1065.835, 369.0800
1066.318, 370.4375
1066.800, 370.7802
1067.282, 369.6191
1067.764, 368.7819
1068.246, 368.1906
1068.728, 368.3053
1069.210, 370.0529
1069.692, 372.4125
1070.174, 373.7453
1070.656, 374.2142
1071.139, 374.6329
1071.621, 375.3743
1072.103, 375.9068
1072.585, 376.1113
1073.067, 376.1173
1073.549, 375.8721
1074.031, 375.5701
1074.513, 376.3297
1074.996, 378.3679
1075.478, 379.9798
1075.960, 379.5751
1076.442, 378.8477
1076.924, 378.9754
1077.406, 379.7723
1077.888, 379.9505
1078.370, 379.4797
1078.853, 378.9968
1079.335, 378.5955
1079.817, 378.5529
1080.299, 379.5637
1080.781, 380.9532
1081.263, 381.7736
1081.745, 381.5546
1082.227, 381.5965
1082.709, 381.9875
1083.192, 382.4290
1083.674, 382.8729
1084.156, 383.1754
1084.638, 382.6274
1085.120, 381.5747
1085.602, 381.1852
1086.084, 382.7332
1086.566, 383.9886
1087.048, 384.5546
1087.531, 384.4863
1088.013, 383.5279
1088.495, 381.8061
1088.977, 380.8915
1089.459, 380.8901
1089.941, 381.1859
1090.423, 381.5890
1090.905, 381.9121
1091.387, 382.2385
1091.870, 382.3826
1092.352, 381.3887
1092.834, 378.9528
1093.316, 377.6227
1093.798, 378.2124
1094.280, 379.2335
1094.762, 378.9704
1095.244, 378.0807
1095.727, 377.4478
1096.209, 377.3321
1096.691, 376.4979
1097.173, 374.4714
1097.655, 372.7132
1098.137, 371.8572
1098.619, 371.7215
1099.101, 372.3007
1099.583, 373.2242
1100.066, 373.5475
1100.548, 372.6901
1101.030, 371.6315
1101.512, 370.1502
1101.994, 369.0714
1102.476, 369.3720
1102.958, 370.8998
1103.440, 371.1986
1103.922, 370.3516
1104.405, 369.4003
1104.887, 369.0185
1105.369, 368.6456
1105.851, 367.4970
1106.333, 366.3134
1106.815, 366.6876
1107.297, 368.9577
1107.779, 370.2583
1108.262, 370.2691
1108.744, 369.7525
1109.226, 369.0176
1109.708, 368.3986
1110.190, 368.2740
1110.672, 368.6330
1111.154, 369.0543
1111.636, 369.6036
1112.119, 369.8762
1112.601, 369.6343
1113.083, 369.4189
1113.565, 370.6785
1114.047, 372.3295
1114.529, 372.0020
1115.011, 368.7774
1115.493, 367.1436
1115.975, 369.3847
1116.458, 371.3536
1116.940, 371.1354
1117.422, 369.5015
1117.904, 368.9041
1118.386, 369.0930
1118.868, 369.1592
1119.350, 368.5985
1119.832, 368.2226
1120.314, 368.7207
1120.797, 369.2381
1121.279, 368.9452
1121.761, 367.8575
1122.243, 367.8130
1122.725, 368.7625
1123.207, 369.9971
1123.689, 371.7533
1124.171, 372.9608
1124.654, 372.6017
1125.136, 371.3066
1125.618, 370.1956
1126.100, 369.2021
1126.582, 368.9075
1127.064, 369.4306
1127.546, 369.8815
1128.028, 369.1780
1128.510, 368.2526
1128.993, 368.2113
1129.475, 368.8879
1129.957, 369.1083
1130.439, 368.5167
1130.921, 368.3349
1131.403, 368.9301
1131.885, 369.5019
1132.367, 368.4528
1132.849, 366.9557
1133.332, 367.1005
1133.814, 369.1656
1134.296, 370.6191
1134.778, 370.8097
1135.260, 370.4707
1135.742, 369.5472
1136.224, 368.5546
1136.706, 368.7530
1137.189, 369.7501
1137.671, 370.5027
1138.153, 370.7088
1138.635, 370.9150
1139.117, 371.5406
1139.599, 371.9614
1140.081, 371.7091
1140.563, 371.0239
1141.046, 371.2997
1141.528, 372.2839
1142.010, 372.6457
1142.492, 371.4038
1142.974, 370.2140
1143.456, 369.8835
1143.938, 370.0514
1144.420, 370.5379
1144.902, 371.3847
1145.385, 371.1538
1145.867, 369.9110
1146.349, 369.0834
1146.831, 370.1924
1147.313, 371.3687
1147.795, 371.1131
1148.277, 370.1328
1148.759, 369.6632
1149.241, 369.8385
1149.724, 369.8687
1150.206, 369.7046
1150.688, 369.5491
1151.170, 369.3964
1151.652, 369.4814
1152.134, 370.3123
1152.616, 371.5987
1153.098, 372.2125
1153.581, 371.9691
1154.063, 371.4591
1154.545, 370.6494
1155.027, 370.0831
1155.509, 370.6515
1155.991, 371.6576
1156.473, 372.3972
1156.955, 372.7813
1157.438, 372.4367
1157.920, 371.0610
1158.402, 369.6956
1158.884, 368.4984
1159.366, 367.6449
1159.848, 367.3634
1160.330, 367.6336
1160.812, 368.6110
1161.294, 370.4204
1161.776, 371.7729
1162.259, 372.2820
1162.741, 372.6018
1163.223, 373.0346
1163.705, 373.3224
1164.187, 372.4502
1164.669, 371.0412
1165.151, 370.7066
1165.633, 372.2793
1166.116, 373.3794
1166.598, 373.1193
1167.080, 372.5755
1167.562, 372.1772
1168.044, 371.9388
1168.526, 371.9478
1169.008, 372.1711
1169.490, 372.5122
1169.973, 373.1857
1170.455, 373.5014
1170.937, 372.9438
1171.419, 372.2248
1171.901, 371.6812
1172.383, 371.3675
1172.865, 371.9401
1173.347, 373.2071
1173.829, 374.1291
1174.312, 374.0889
1174.794, 373.6914
1175.276, 372.3895
1175.758, 371.4400
1176.240, 372.5380
1176.722, 375.5738
1177.204, 376.6295
1177.686, 375.7515
1178.168, 374.6358
1178.651, 373.8923
1179.133, 373.6827
1179.615, 374.6593
1180.097, 375.9271
1180.579, 376.0881
1181.061, 375.1219
1181.543, 374.4836
1182.025, 374.2715
1182.508, 374.3755
1182.990, 375.0772
1183.472, 375.7065
1183.954, 375.8286
1184.436, 375.5375
1184.918, 374.8753
1185.400, 373.7902
1185.882, 373.6568
1186.365, 374.7386
1186.847, 375.7025
1187.329, 375.2303
1187.811, 374.4086
1188.293, 373.9843
1188.775, 373.9574
1189.257, 374.2510
1189.739, 374.8976
1190.221, 375.5131
1190.703, 376.0714
1191.186, 376.3226
1191.668, 375.6977
1192.150, 374.9165
1192.632, 374.6322
1193.114, 374.8208
1193.596, 375.0181
1194.078, 375.2242
1194.560, 375.3594
1195.043, 375.3484
1195.525, 375.4307
1196.007, 375.9794
1196.489, 376.6517
1196.971, 377.2126
1197.453, 377.6361
1197.935, 377.2831
1198.417, 376.0086
1198.900, 375.3329
1199.382, 376.1002
1199.864, 376.9391
1200.346, 376.0502
1200.828, 374.6409
1201.310, 374.1701
1201.792, 374.8526
1202.274, 375.4045
1202.756, 375.7870
1203.239, 376.4553
1203.721, 378.0383
1204.203, 379.2299
1204.685, 377.6859
1205.167, 375.2959
1205.649, 374.8924
1206.131, 377.2370
1206.613, 378.3857
1207.095, 378.2478
1207.578, 377.7589
1208.060, 377.1639
1208.542, 376.7951
1209.024, 377.4277
1209.506, 378.3790
1209.988, 378.4171
1210.470, 377.0267
1210.952, 376.7256
1211.435, 377.6469
1211.917, 378.6032
1212.399, 378.7986
1212.881, 378.7169
1213.363, 378.8044
1213.845, 378.9975
1214.327, 379.2087
1214.809, 379.5546
1215.292, 379.3441
1215.774, 378.4704
1216.256, 377.8838
1216.738, 378.4169
1217.220, 379.4384
1217.702, 380.6595
1218.184, 381.8289
1218.666, 382.4224
1219.148, 382.2716
1219.630, 382.2812
1220.113, 382.5391
1220.595, 382.4529
1221.077, 381.0226
1221.559, 379.5433
1222.041, 379.4612
1222.523, 380.1938
1223.005, 380.0690
1223.487, 378.5856
1223.970, 378.7791
1224.452, 381.0159
1224.934, 383.1194
1225.416, 383.2742
1225.898, 382.6136
1226.380, 381.6994
1226.862, 380.8031
1227.344, 380.5683
1227.827, 381.1353
1228.309, 381.4606
1228.791, 381.4551
1229.273, 381.1521
1229.755, 379.8556
1230.237, 378.9402
1230.719, 380.0857
1231.201, 382.4036
1231.683, 383.1704
1232.166, 382.1949
1232.648, 382.0256
1233.130, 383.0090
1233.612, 383.6916
1234.094, 382.3036
1234.576, 380.7329
1235.058, 380.4643
1235.540, 381.0681
1236.022, 381.5804
1236.505, 382.0087
1236.987, 381.6858
1237.469, 380.4737
1237.951, 379.5576
1238.433, 380.1055
1238.915, 381.0190
1239.397, 381.8165
1239.879, 382.3775
1240.362, 382.3023
1240.844, 381.6458
1241.326, 381.2434
1241.808, 381.2428
1242.290, 381.1574
1242.772, 380.2617
1243.254, 379.6147
1243.736, 379.8461
1244.219, 380.6389
1244.701, 381.2519
1245.183, 381.7375
1245.665, 382.7316
1246.147, 384.3841
1246.629, 385.4068
1247.111, 384.3719
1247.593, 383.3441
1248.075, 383.2975
1248.557, 383.7902
1249.040, 383.7254
1249.522, 383.2941
1250.004, 383.3238
1250.486, 383.9848
1250.968, 384.5713
1251.450, 384.7315
1251.932, 384.7920
1252.414, 384.8819
1252.897, 384.9385
1253.379, 384.9390
1253.861, 384.7742
1254.343, 383.8496
1254.825, 381.9674
1255.307, 381.1397
1255.789, 382.7425
1256.271, 384.5040
1256.754, 386.0269
1257.236, 386.9404
1257.718, 385.8856
1258.200, 383.9426
1258.682, 383.3331
1259.164, 384.5235
1259.646, 385.2880
1260.128, 385.0475
1260.610, 384.9646
1261.093, 385.4746
1261.575, 386.1013
1262.057, 386.0210
1262.539, 385.6371
1263.021, 385.5419
1263.503, 385.8423
1263.985, 386.1925
1264.467, 386.7145
1264.949, 386.7047
1265.432, 385.7622
1265.914, 384.7872
1266.396, 385.0593
1266.878, 385.8667
1267.360, 386.6445
1267.842, 387.2803
1268.324, 386.3914
1268.806, 383.6328
1269.289, 382.3579
1269.771, 383.8963
1270.253, 385.8219
1270.735, 385.5155
1271.217, 384.6415
1271.699, 384.9106
1272.181, 386.1282
1272.663, 386.9257
1273.146, 387.2993
1273.628, 387.1455
1274.110, 386.2531
1274.592, 385.7148
1275.074, 386.9297
1275.556, 388.2284
1276.038, 388.5070
1276.520, 387.9807
1277.002, 387.2312
1277.484, 386.3778
1277.967, 386.2391
1278.449, 387.1855
1278.931, 387.8407
1279.413, 387.1367
1279.895, 386.3029
1280.377, 385.7062
1280.859, 385.5290
1281.341, 386.9034
1281.823, 389.0343
1282.306, 389.2653
1282.788, 386.6646
1283.270, 385.1868
1283.752, 386.8846
1284.234, 388.4591
1284.716, 388.8553
1285.198, 388.5346
1285.680, 387.9941
1286.163, 387.4843
1286.645, 387.6537
1287.127, 388.7066
1287.609, 388.7111
##END=



