##NAMES=Natrodufrenite
##RRUFFID=R070599
##IDEAL CHEMISTRY=NaFe^2+^Fe^3+^_5_(PO_4_)_4_(OH)_6_&#183;2H_2_O
##LOCALITY=Hout Bay, Cape of Good Hope Province, South Africa
##OWNER=RRUFF
##SOURCE=James Shigley
##DESCRIPTION=Sheaflike, dark brown to red-brown aggregates
##STATUS=The identification of this mineral has been confirmed by X-ray diffraction and chemical analysis
##URL=rruff.info/R070599
##MEASURED CHEMISTRY=(Na_0.62_[box]_0.19_Mn_0.10_Ca_0.09_)_Σ=1_Fe^2+^_1.00_(Fe^3+^_4.95_Al_0.05_)_Σ=5_(P_1.00_O_4_)_4_((OH)_4.76_F_0.24_)_Σ=6_·2H_2_O ; H not measured but estimated by difference and charge balance
172.5112, 5844.742
172.9933, 5797.449
173.4754, 5757.177
173.9575, 5729.247
174.4396, 5711.257
174.9218, 5704.066
175.4039, 5707.936
175.8860, 5712.400
176.3681, 5707.019
176.8502, 5655.114
177.3323, 5697.064
177.8144, 5718.180
178.2966, 5719.618
178.7787, 5640.300
179.2608, 5666.907
179.7429, 5652.069
180.2250, 5636.220
180.7071, 5679.787
181.1893, 5615.906
181.6714, 5659.977
182.1535, 5661.959
182.6356, 5684.250
183.1177, 5664.836
183.5998, 5659.242
184.0820, 5696.802
184.5641, 5711.582
185.0462, 5690.154
185.5283, 5717.995
186.0104, 5659.806
186.4925, 5678.456
186.9747, 5730.668
187.4568, 5714.960
187.9389, 5679.875
188.4210, 5675.518
188.9031, 5681.517
189.3852, 5697.459
189.8674, 5722.092
190.3495, 5740.211
190.8316, 5743.224
191.3137, 5735.630
191.7958, 5740.174
192.2779, 5759.669
192.7601, 5781.733
193.2422, 5787.912
193.7243, 5777.347
194.2064, 5770.758
194.6885, 5782.339
195.1706, 5811.070
195.6528, 5817.228
196.1349, 5791.742
196.6170, 5758.552
197.0991, 5764.676
197.5812, 5814.628
198.0633, 5868.401
198.5455, 5903.624
199.0276, 5918.895
199.5097, 5937.262
199.9918, 5962.288
200.4739, 5989.510
200.9560, 6002.792
201.4381, 5996.542
201.9203, 5996.956
202.4024, 6026.221
202.8845, 6089.602
203.3666, 6146.559
203.8487, 6193.733
204.3308, 6230.559
204.8130, 6246.802
205.2951, 6231.080
205.7772, 6221.700
206.2593, 6258.872
206.7414, 6356.270
207.2235, 6442.259
207.7057, 6499.654
208.1878, 6529.803
208.6699, 6564.569
209.1520, 6605.146
209.6341, 6648.679
210.1162, 6693.869
210.5984, 6741.896
211.0805, 6787.858
211.5626, 6831.325
212.0447, 6872.971
212.5268, 6905.257
213.0089, 6923.542
213.4911, 6937.186
213.9732, 6962.667
214.4553, 7006.011
214.9374, 7046.486
215.4195, 7075.412
215.9016, 7088.645
216.3838, 7103.301
216.8659, 7115.808
217.3480, 7131.561
217.8301, 7165.387
218.3122, 7228.065
218.7943, 7289.507
219.2765, 7336.343
219.7586, 7365.383
220.2407, 7388.096
220.7228, 7403.943
221.2049, 7414.005
221.6870, 7422.706
222.1691, 7431.472
222.6513, 7436.951
223.1334, 7436.481
223.6155, 7427.143
224.0976, 7418.909
224.5797, 7413.020
225.0618, 7409.222
225.5440, 7406.081
226.0261, 7409.243
226.5082, 7406.172
226.9903, 7385.949
227.4724, 7338.513
227.9545, 7293.466
228.4367, 7256.411
228.9188, 7226.864
229.4009, 7192.176
229.8830, 7149.123
230.3651, 7104.374
230.8472, 7063.784
231.3294, 7022.589
231.8115, 6994.830
232.2936, 6989.504
232.7757, 7010.712
233.2578, 7013.715
233.7399, 6996.364
234.2221, 6962.657
234.7042, 6913.619
235.1863, 6832.215
235.6684, 6765.247
236.1505, 6728.836
236.6326, 6730.803
237.1148, 6728.219
237.5969, 6715.643
238.0790, 6701.863
238.5611, 6702.623
239.0432, 6732.479
239.5253, 6754.004
240.0075, 6750.537
240.4896, 6705.670
240.9717, 6684.886
241.4538, 6699.292
241.9359, 6733.255
242.4180, 6754.186
242.9002, 6755.232
243.3823, 6752.900
243.8644, 6754.733
244.3465, 6767.563
244.8286, 6767.813
245.3107, 6745.460
245.7928, 6712.308
246.2750, 6704.557
246.7571, 6738.735
247.2392, 6774.644
247.7213, 6790.357
248.2034, 6768.867
248.6855, 6766.089
249.1677, 6791.715
249.6498, 6838.294
250.1319, 6873.396
250.6140, 6891.522
251.0961, 6906.615
251.5782, 6926.442
252.0604, 6951.287
252.5425, 6981.281
253.0246, 7022.390
253.5067, 7069.889
253.9888, 7095.586
254.4709, 7084.790
254.9531, 7072.213
255.4352, 7083.631
255.9173, 7131.697
256.3994, 7173.314
256.8815, 7199.019
257.3636, 7211.708
257.8458, 7241.585
258.3279, 7294.608
258.8100, 7355.964
259.2921, 7414.754
259.7742, 7474.567
260.2563, 7522.712
260.7385, 7552.300
261.2206, 7564.931
261.7027, 7593.585
262.1848, 7645.136
262.6669, 7702.491
263.1490, 7748.430
263.6312, 7775.482
264.1133, 7812.523
264.5954, 7869.792
265.0775, 7946.364
265.5596, 8006.334
266.0417, 8039.804
266.5239, 8071.322
267.0060, 8135.184
267.4881, 8250.488
267.9702, 8335.101
268.4523, 8355.060
268.9344, 8310.406
269.4166, 8311.879
269.8987, 8370.456
270.3808, 8456.692
270.8629, 8537.245
271.3450, 8610.202
271.8271, 8683.844
272.3093, 8761.063
272.7914, 8841.798
273.2735, 8917.936
273.7556, 8991.317
274.2377, 9058.419
274.7198, 9107.536
275.2020, 9133.106
275.6841, 9175.080
276.1662, 9255.563
276.6483, 9373.884
277.1304, 9470.472
277.6125, 9543.355
278.0946, 9599.303
278.5768, 9643.968
279.0589, 9676.721
279.5410, 9707.119
280.0231, 9738.306
280.5052, 9770.079
280.9873, 9799.709
281.4695, 9824.154
281.9516, 9852.854
282.4337, 9905.793
282.9158, 9984.527
283.3979, 10053.76
283.8800, 10093.71
284.3622, 10107.11
284.8443, 10127.08
285.3264, 10156.43
285.8085, 10184.73
286.2906, 10194.20
286.7727, 10185.27
287.2549, 10175.50
287.7370, 10174.84
288.2191, 10181.10
288.7012, 10183.74
289.1833, 10183.96
289.6654, 10176.23
290.1476, 10150.70
290.6297, 10108.69
291.1118, 10060.20
291.5939, 10004.28
292.0760, 9945.364
292.5581, 9901.825
293.0403, 9877.485
293.5224, 9856.771
294.0045, 9818.096
294.4866, 9763.473
294.9687, 9706.504
295.4508, 9654.774
295.9330, 9605.603
296.4151, 9551.520
296.8972, 9491.052
297.3793, 9432.025
297.8614, 9390.737
298.3435, 9361.697
298.8257, 9323.650
299.3078, 9259.324
299.7899, 9180.420
300.2720, 9109.746
300.7541, 9050.494
301.2362, 8989.063
301.7184, 8909.454
302.2005, 8816.196
302.6826, 8717.329
303.1647, 8603.170
303.6468, 8492.079
304.1289, 8416.565
304.6111, 8385.925
305.0932, 8354.880
305.5753, 8274.675
306.0574, 8162.555
306.5395, 8060.703
307.0216, 7999.618
307.5038, 7951.276
307.9859, 7886.611
308.4680, 7798.881
308.9501, 7712.517
309.4322, 7649.387
309.9143, 7598.973
310.3965, 7543.468
310.8786, 7466.357
311.3607, 7385.751
311.8428, 7317.171
312.3249, 7264.590
312.8070, 7211.429
313.2892, 7145.289
313.7713, 7072.676
314.2534, 7003.672
314.7355, 6944.516
315.2176, 6889.375
315.6997, 6832.888
316.1819, 6772.751
316.6640, 6721.658
317.1461, 6690.559
317.6282, 6670.211
318.1103, 6647.407
318.5924, 6616.506
319.0746, 6584.034
319.5567, 6554.338
320.0388, 6529.860
320.5209, 6497.980
321.0030, 6436.604
321.4851, 6371.714
321.9673, 6335.778
322.4494, 6375.152
322.9315, 6407.638
323.4136, 6404.085
323.8957, 6352.765
324.3778, 6313.843
324.8599, 6302.422
325.3420, 6303.312
325.8242, 6299.120
326.3063, 6276.728
326.7884, 6261.243
327.2705, 6260.945
327.7526, 6279.845
328.2347, 6290.733
328.7169, 6290.271
329.1990, 6283.468
329.6811, 6275.279
330.1632, 6264.272
330.6453, 6253.109
331.1274, 6236.758
331.6096, 6212.609
332.0917, 6217.693
332.5738, 6273.618
333.0559, 6338.301
333.5380, 6366.899
334.0201, 6338.177
334.5023, 6318.163
334.9844, 6320.325
335.4665, 6344.080
335.9486, 6373.013
336.4307, 6411.968
336.9128, 6448.718
337.3950, 6469.733
337.8771, 6470.015
338.3592, 6476.195
338.8413, 6494.924
339.3234, 6524.026
339.8055, 6551.018
340.2877, 6575.194
340.7698, 6599.102
341.2519, 6622.292
341.7340, 6644.558
342.2161, 6676.291
342.6982, 6722.709
343.1804, 6777.694
343.6625, 6825.105
344.1446, 6864.494
344.6267, 6896.872
345.1088, 6917.742
345.5909, 6929.778
346.0731, 6952.886
346.5552, 6994.931
347.0373, 7044.370
347.5194, 7080.309
348.0015, 7103.353
348.4836, 7125.477
348.9658, 7154.558
349.4479, 7189.373
349.9300, 7228.246
350.4121, 7272.303
350.8942, 7316.476
351.3763, 7353.685
351.8585, 7384.708
352.3406, 7412.790
352.8227, 7437.001
353.3048, 7460.713
353.7869, 7491.408
354.2690, 7534.591
354.7512, 7571.605
355.2333, 7579.231
355.7154, 7567.783
356.1975, 7562.544
356.6796, 7582.717
357.1617, 7610.913
357.6439, 7631.356
358.1260, 7638.966
358.6081, 7651.009
359.0902, 7689.830
359.5723, 7737.785
360.0544, 7765.270
360.5366, 7735.207
361.0187, 7702.319
361.5008, 7698.287
361.9829, 7732.874
362.4650, 7760.187
362.9471, 7766.961
363.4293, 7759.128
363.9114, 7743.979
364.3935, 7703.576
364.8756, 7674.614
365.3577, 7675.074
365.8398, 7712.073
366.3220, 7733.044
366.8041, 7714.874
367.2862, 7686.507
367.7683, 7675.424
368.2504, 7703.515
368.7325, 7723.751
369.2146, 7730.151
369.6967, 7722.516
370.1789, 7703.864
370.6610, 7664.100
371.1431, 7623.115
371.6252, 7598.311
372.1073, 7602.859
372.5894, 7595.174
373.0716, 7566.334
373.5537, 7520.115
374.0358, 7480.968
374.5179, 7450.766
375.0000, 7424.247
375.4821, 7401.429
375.9643, 7384.906
376.4464, 7354.358
376.9285, 7301.817
377.4106, 7238.833
377.8927, 7201.296
378.3748, 7192.910
378.8570, 7181.814
379.3391, 7144.055
379.8212, 7083.136
380.3033, 7028.964
380.7854, 6984.152
381.2675, 6947.194
381.7497, 6918.723
382.2318, 6897.658
382.7139, 6878.391
383.1960, 6859.447
383.6781, 6839.547
384.1602, 6816.669
384.6424, 6790.500
385.1245, 6760.855
385.6066, 6724.294
386.0887, 6683.418
386.5708, 6646.519
387.0529, 6620.812
387.5351, 6598.544
388.0172, 6571.747
388.4993, 6540.150
388.9814, 6508.136
389.4635, 6478.768
389.9456, 6450.356
390.4278, 6420.892
390.9099, 6382.200
391.3920, 6348.259
391.8741, 6333.565
392.3562, 6335.462
392.8383, 6326.079
393.3205, 6285.530
393.8026, 6233.637
394.2847, 6186.599
394.7668, 6145.815
395.2489, 6112.123
395.7310, 6087.806
396.2132, 6071.466
396.6953, 6056.962
397.1774, 6042.041
397.6595, 6030.024
398.1416, 6022.130
398.6237, 6012.849
399.1059, 6017.047
399.5880, 6045.953
400.0701, 6086.456
400.5522, 6107.839
401.0343, 6090.509
401.5164, 6082.184
401.9986, 6104.253
402.4807, 6167.448
402.9628, 6208.929
403.4449, 6216.836
403.9270, 6215.909
404.4091, 6247.333
404.8913, 6321.093
405.3734, 6382.060
405.8555, 6406.115
406.3376, 6398.221
406.8197, 6414.069
407.3018, 6456.956
407.7840, 6508.948
408.2661, 6550.729
408.7482, 6583.730
409.2303, 6623.491
409.7124, 6676.196
410.1945, 6736.399
410.6767, 6791.424
411.1588, 6841.363
411.6409, 6890.088
412.1230, 6948.792
412.6051, 7007.240
413.0872, 7041.501
413.5693, 7034.949
414.0515, 7026.160
414.5336, 7059.791
415.0157, 7125.142
415.4978, 7189.342
415.9799, 7240.464
416.4620, 7278.360
416.9442, 7300.146
417.4263, 7300.779
417.9084, 7302.302
418.3905, 7322.736
418.8726, 7350.336
419.3547, 7366.707
419.8369, 7354.958
420.3190, 7340.355
420.8011, 7332.629
421.2832, 7332.984
421.7653, 7336.158
422.2474, 7350.997
422.7296, 7363.615
423.2117, 7361.771
423.6938, 7330.698
424.1759, 7300.958
424.6580, 7279.761
425.1401, 7265.434
425.6223, 7238.058
426.1044, 7186.873
426.5865, 7134.473
427.0686, 7094.171
427.5507, 7070.614
428.0328, 7046.869
428.5150, 7023.535
428.9971, 6998.418
429.4792, 6963.442
429.9613, 6914.130
430.4434, 6869.890
430.9255, 6845.175
431.4077, 6839.114
431.8898, 6814.462
432.3719, 6767.288
432.8540, 6712.021
433.3361, 6669.483
433.8182, 6637.976
434.3004, 6604.849
434.7825, 6558.547
435.2646, 6509.502
435.7467, 6481.248
436.2288, 6473.817
436.7109, 6472.063
437.1931, 6464.579
437.6752, 6454.094
438.1573, 6445.223
438.6394, 6439.372
439.1215, 6435.549
439.6036, 6432.966
440.0858, 6431.750
440.5679, 6432.325
441.0500, 6437.875
441.5321, 6443.372
442.0142, 6444.364
442.4963, 6437.342
442.9785, 6431.996
443.4606, 6425.187
443.9427, 6422.625
444.4248, 6434.276
444.9069, 6473.894
445.3890, 6516.687
445.8712, 6557.050
446.3533, 6595.252
446.8354, 6625.336
447.3175, 6632.138
447.7996, 6641.211
448.2817, 6678.224
448.7639, 6760.921
449.2460, 6837.564
449.7281, 6900.290
450.2102, 6950.896
450.6923, 7000.073
451.1744, 7046.570
451.6566, 7096.537
452.1387, 7153.379
452.6208, 7217.446
453.1029, 7287.095
453.5850, 7361.590
454.0671, 7442.042
454.5493, 7533.869
455.0314, 7636.756
455.5135, 7735.611
455.9956, 7821.986
456.4777, 7899.326
456.9598, 7975.575
457.4420, 8050.047
457.9240, 8128.903
458.4062, 8217.452
458.8883, 8314.650
459.3704, 8416.484
459.8525, 8518.818
460.3346, 8628.881
460.8167, 8760.523
461.2989, 8910.821
461.7810, 9047.830
462.2631, 9142.199
462.7452, 9229.122
463.2273, 9337.053
463.7094, 9495.846
464.1916, 9637.375
464.6737, 9733.017
465.1558, 9800.386
465.6379, 9877.740
466.1200, 9972.415
466.6021, 10075.25
467.0843, 10187.93
467.5664, 10318.80
468.0485, 10423.77
468.5306, 10488.86
469.0127, 10540.13
469.4948, 10608.64
469.9770, 10707.61
470.4591, 10781.91
470.9412, 10810.96
471.4233, 10807.74
471.9054, 10844.29
472.3875, 10931.14
472.8697, 11002.51
473.3518, 10996.69
473.8339, 10926.17
474.3160, 10881.76
474.7981, 10880.15
475.2802, 10889.15
475.7624, 10864.58
476.2445, 10811.68
476.7266, 10750.78
477.2087, 10689.39
477.6908, 10627.14
478.1729, 10562.42
478.6551, 10495.09
479.1372, 10426.33
479.6193, 10367.30
480.1014, 10303.29
480.5835, 10217.05
481.0656, 10079.18
481.5478, 9942.230
482.0299, 9827.165
482.5120, 9729.009
482.9941, 9627.479
483.4762, 9512.261
483.9583, 9396.653
484.4405, 9286.847
484.9226, 9189.077
485.4047, 9084.821
485.8868, 8967.561
486.3689, 8846.807
486.8510, 8733.570
487.3332, 8626.673
487.8153, 8530.289
488.2974, 8448.040
488.7795, 8378.576
489.2616, 8301.630
489.7437, 8215.129
490.2259, 8128.869
490.7080, 8057.173
491.1901, 7998.128
491.6722, 7921.552
492.1543, 7813.256
492.6364, 7701.252
493.1186, 7640.535
493.6007, 7623.180
494.0828, 7599.426
494.5649, 7526.608
495.0470, 7436.485
495.5291, 7374.840
496.0113, 7346.443
496.4934, 7326.375
496.9755, 7306.910
497.4576, 7281.729
497.9397, 7242.055
498.4218, 7162.607
498.9040, 7090.162
499.3861, 7049.261
499.8682, 7034.975
500.3503, 7020.044
500.8324, 7006.072
501.3145, 6983.937
501.7967, 6948.245
502.2788, 6893.410
502.7609, 6835.356
503.2430, 6766.065
503.7251, 6697.118
504.2072, 6647.008
504.6893, 6624.622
505.1714, 6601.135
505.6536, 6572.276
506.1357, 6536.853
506.6178, 6476.909
507.0999, 6384.767
507.5820, 6299.369
508.0641, 6261.797
508.5463, 6265.426
509.0284, 6249.262
509.5105, 6199.246
509.9926, 6138.167
510.4747, 6101.696
510.9568, 6083.860
511.4390, 6061.416
511.9211, 6021.343
512.4032, 5970.702
512.8853, 5915.884
513.3674, 5856.960
513.8495, 5798.423
514.3317, 5740.061
514.8138, 5684.742
515.2959, 5635.353
515.7780, 5600.699
516.2601, 5563.322
516.7422, 5518.272
517.2244, 5467.018
517.7065, 5413.404
518.1886, 5350.896
518.6707, 5292.662
519.1528, 5243.760
519.6349, 5207.106
520.1171, 5171.155
520.5992, 5139.159
521.0813, 5104.271
521.5634, 5053.821
522.0455, 4983.022
522.5276, 4925.104
523.0098, 4889.170
523.4919, 4870.001
523.9740, 4856.743
524.4561, 4849.568
524.9382, 4833.740
525.4203, 4792.670
525.9025, 4735.987
526.3846, 4686.497
526.8667, 4647.160
527.3488, 4610.603
527.8309, 4563.716
528.3130, 4514.833
528.7952, 4478.942
529.2773, 4473.181
529.7594, 4472.111
530.2415, 4461.464
530.7236, 4442.031
531.2057, 4421.165
531.6879, 4395.495
532.1700, 4373.304
532.6521, 4361.061
533.1342, 4370.443
533.6163, 4369.084
534.0984, 4346.798
534.5806, 4317.534
535.0627, 4302.259
535.5448, 4305.680
536.0269, 4313.096
536.5090, 4318.859
536.9911, 4324.593
537.4733, 4347.479
537.9554, 4390.361
538.4375, 4437.212
538.9196, 4477.086
539.4017, 4510.535
539.8839, 4540.122
540.3660, 4564.348
540.8481, 4591.488
541.3302, 4633.861
541.8123, 4688.152
542.2944, 4746.181
542.7766, 4798.332
543.2587, 4855.967
543.7408, 4935.790
544.2229, 5035.951
544.7050, 5126.481
545.1871, 5184.076
545.6693, 5231.736
546.1514, 5285.460
546.6335, 5341.504
547.1156, 5413.837
547.5977, 5514.285
548.0798, 5631.756
548.5620, 5743.809
549.0441, 5851.865
549.5262, 5953.082
550.0083, 6043.690
550.4904, 6124.231
550.9725, 6214.603
551.4547, 6316.717
551.9368, 6423.640
552.4189, 6536.485
552.9010, 6653.779
553.3831, 6741.292
553.8652, 6788.485
554.3474, 6821.938
554.8295, 6888.979
555.3116, 6977.345
555.7937, 7043.188
556.2758, 7059.750
556.7579, 7047.139
557.2401, 7022.398
557.7222, 6985.774
558.2043, 6937.737
558.6864, 6872.089
559.1685, 6798.599
559.6506, 6725.186
560.1328, 6659.293
560.6149, 6584.005
561.0970, 6492.595
561.5791, 6389.906
562.0612, 6283.349
562.5433, 6162.578
563.0255, 6055.221
563.5076, 5972.110
563.9897, 5912.110
564.4718, 5836.428
564.9539, 5737.371
565.4360, 5643.701
565.9182, 5572.413
566.4003, 5523.930
566.8824, 5503.112
567.3645, 5519.212
567.8466, 5535.582
568.3287, 5493.096
568.8109, 5408.359
569.2930, 5331.410
569.7750, 5274.513
570.2571, 5242.473
570.7393, 5256.169
571.2214, 5307.822
571.7035, 5345.624
572.1856, 5325.370
572.6677, 5295.629
573.1498, 5291.658
573.6320, 5334.066
574.1141, 5364.897
574.5962, 5362.890
575.0783, 5349.396
575.5604, 5351.569
576.0425, 5379.104
576.5247, 5405.788
577.0068, 5429.341
577.4889, 5448.663
577.9710, 5456.928
578.4531, 5453.315
578.9352, 5442.506
579.4174, 5427.282
579.8995, 5407.443
580.3816, 5380.605
580.8637, 5346.671
581.3458, 5306.897
581.8279, 5256.735
582.3101, 5202.576
582.7922, 5158.027
583.2743, 5131.999
583.7564, 5111.893
584.2385, 5094.066
584.7206, 5075.602
585.2028, 5047.379
585.6849, 4990.351
586.1670, 4935.884
586.6491, 4898.871
587.1312, 4882.491
587.6133, 4873.451
588.0955, 4882.203
588.5776, 4888.185
589.0597, 4875.889
589.5418, 4843.283
590.0239, 4795.285
590.5060, 4724.026
590.9882, 4645.740
591.4703, 4600.926
591.9524, 4590.132
592.4345, 4576.479
592.9166, 4537.939
593.3987, 4487.175
593.8809, 4455.796
594.3630, 4442.959
594.8451, 4431.719
595.3272, 4411.805
595.8093, 4385.130
596.2914, 4352.697
596.7736, 4311.208
597.2557, 4273.482
597.7378, 4247.320
598.2199, 4228.130
598.7020, 4209.403
599.1841, 4199.445
599.6663, 4178.543
600.1484, 4132.822
600.6305, 4068.812
601.1126, 4032.045
601.5947, 4034.044
602.0768, 4042.868
602.5590, 4041.413
603.0411, 4028.405
603.5232, 4027.152
604.0053, 4041.935
604.4874, 4052.697
604.9695, 4024.808
605.4517, 3971.050
605.9338, 3942.080
606.4159, 3961.494
606.8980, 3994.346
607.3801, 4001.417
607.8622, 3990.592
608.3444, 3983.484
608.8265, 3992.684
609.3086, 4006.747
609.7907, 4024.781
610.2728, 4047.564
610.7549, 4052.085
611.2371, 4006.299
611.7192, 3961.137
612.2013, 3949.371
612.6834, 3993.656
613.1655, 4026.000
613.6476, 4044.435
614.1298, 4052.334
614.6119, 4052.870
615.0940, 4045.156
615.5761, 4039.875
616.0582, 4040.528
616.5403, 4045.418
617.0225, 4052.693
617.5046, 4061.748
617.9867, 4067.191
618.4688, 4062.033
618.9509, 4053.021
619.4330, 4046.325
619.9152, 4042.181
620.3973, 4044.688
620.8794, 4059.902
621.3615, 4080.960
621.8436, 4101.358
622.3257, 4124.285
622.8079, 4140.583
623.2900, 4147.313
623.7721, 4147.130
624.2542, 4143.552
624.7363, 4130.024
625.2184, 4127.712
625.7006, 4147.160
626.1827, 4184.814
626.6648, 4210.881
627.1469, 4224.712
627.6290, 4234.467
628.1111, 4244.897
628.5933, 4256.171
629.0754, 4268.188
629.5575, 4280.822
630.0396, 4295.560
630.5217, 4314.919
631.0038, 4337.000
631.4860, 4359.105
631.9681, 4383.439
632.4502, 4404.393
632.9323, 4410.010
633.4144, 4409.156
633.8965, 4430.712
634.3787, 4505.361
634.8608, 4571.238
635.3429, 4609.031
635.8250, 4617.855
636.3071, 4630.721
636.7892, 4646.594
637.2714, 4668.886
637.7535, 4706.155
638.2356, 4755.237
638.7177, 4788.535
639.1998, 4800.182
639.6819, 4808.829
640.1641, 4838.999
640.6462, 4883.228
641.1283, 4923.793
641.6104, 4939.177
642.0925, 4964.556
642.5746, 5048.621
643.0568, 5165.529
643.5389, 5233.447
644.0210, 5166.647
644.5031, 5100.090
644.9852, 5094.492
645.4673, 5156.707
645.9495, 5206.608
646.4316, 5242.885
646.9137, 5269.749
647.3958, 5289.852
647.8779, 5302.775
648.3600, 5309.543
648.8422, 5307.600
649.3243, 5306.854
649.8064, 5321.032
650.2885, 5348.095
650.7706, 5381.771
651.2527, 5430.490
651.7349, 5473.300
652.2170, 5478.970
652.6991, 5459.867
653.1812, 5455.434
653.6633, 5499.761
654.1454, 5547.893
654.6276, 5577.246
655.1097, 5583.504
655.5918, 5594.771
656.0739, 5624.316
656.5560, 5646.872
657.0381, 5644.540
657.5203, 5610.995
658.0024, 5576.599
658.4845, 5538.634
658.9666, 5507.924
659.4487, 5504.472
659.9308, 5524.271
660.4129, 5542.430
660.8950, 5554.143
661.3771, 5557.115
661.8593, 5549.213
662.3414, 5530.287
662.8235, 5499.858
663.3056, 5442.867
663.7877, 5387.019
664.2698, 5352.991
664.7520, 5341.980
665.2341, 5318.317
665.7162, 5262.333
666.1983, 5203.792
666.6804, 5158.763
667.1625, 5135.866
667.6447, 5097.257
668.1268, 5039.198
668.6089, 4972.022
669.0910, 4906.095
669.5731, 4841.270
670.0552, 4778.540
670.5374, 4717.018
671.0195, 4659.651
671.5016, 4613.669
671.9837, 4574.508
672.4658, 4530.285
672.9479, 4466.869
673.4301, 4404.173
673.9122, 4354.988
674.3943, 4318.145
674.8764, 4282.784
675.3585, 4250.258
675.8406, 4214.562
676.3228, 4175.294
676.8049, 4134.702
677.2870, 4075.438
677.7691, 3989.429
678.2512, 3899.787
678.7333, 3827.038
679.2155, 3770.391
679.6976, 3729.390
680.1797, 3707.694
680.6618, 3688.403
681.1439, 3648.336
681.6260, 3593.929
682.1082, 3538.491
682.5903, 3479.437
683.0724, 3429.417
683.5545, 3402.793
684.0366, 3392.878
684.5187, 3377.854
685.0009, 3353.692
685.4830, 3321.879
685.9651, 3280.615
686.4472, 3229.228
686.9293, 3185.053
687.4114, 3148.456
687.8936, 3118.119
688.3757, 3095.510
688.8578, 3079.896
689.3399, 3065.049
689.8220, 3051.109
690.3041, 3034.004
690.7863, 3007.032
691.2684, 2974.242
691.7505, 2942.783
692.2326, 2913.980
692.7147, 2888.038
693.1968, 2862.211
693.6790, 2839.933
694.1611, 2826.859
694.6432, 2833.919
695.1253, 2839.904
695.6074, 2843.715
696.0895, 2843.533
696.5717, 2828.591
697.0538, 2793.638
697.5359, 2760.379
698.0180, 2740.488
698.5001, 2731.184
698.9822, 2715.975
699.4644, 2694.647
699.9465, 2675.195
700.4286, 2666.026
700.9107, 2661.538
701.3928, 2653.934
701.8749, 2641.487
702.3571, 2629.168
702.8392, 2620.896
703.3213, 2613.439
703.8034, 2603.409
704.2855, 2587.741
704.7676, 2572.602
705.2498, 2556.422
705.7319, 2542.139
706.2140, 2536.585
706.6961, 2541.709
707.1782, 2544.981
707.6603, 2542.599
708.1425, 2536.318
708.6246, 2530.469
709.1067, 2524.620
709.5888, 2516.165
710.0709, 2496.579
710.5530, 2478.296
711.0352, 2477.974
711.5173, 2494.731
711.9994, 2504.853
712.4815, 2496.447
712.9636, 2480.669
713.4457, 2461.799
713.9279, 2435.044
714.4100, 2422.733
714.8921, 2430.327
715.3742, 2444.539
715.8563, 2454.589
716.3384, 2460.415
716.8206, 2462.843
717.3027, 2462.737
717.7848, 2456.945
718.2669, 2435.092
718.7490, 2404.377
719.2311, 2382.251
719.7133, 2379.645
720.1954, 2381.590
720.6775, 2378.450
721.1596, 2372.735
721.6417, 2370.708
722.1238, 2380.628
722.6060, 2387.014
723.0881, 2383.794
723.5702, 2372.633
724.0523, 2370.115
724.5344, 2381.000
725.0165, 2385.046
725.4987, 2362.859
725.9808, 2321.763
726.4629, 2307.847
726.9450, 2321.826
727.4271, 2339.175
727.9092, 2339.563
728.3914, 2332.356
728.8735, 2329.446
729.3556, 2334.094
729.8377, 2337.384
730.3198, 2334.547
730.8019, 2329.262
731.2841, 2325.326
731.7662, 2325.237
732.2483, 2322.111
732.7304, 2313.613
733.2125, 2304.042
733.6946, 2299.979
734.1768, 2301.462
734.6589, 2308.428
735.1410, 2323.603
735.6231, 2340.331
736.1052, 2350.535
736.5873, 2353.659
737.0695, 2347.970
737.5516, 2317.487
738.0337, 2291.221
738.5158, 2292.933
738.9979, 2318.815
739.4800, 2332.587
739.9622, 2316.246
740.4443, 2298.296
740.9264, 2288.079
741.4085, 2285.808
741.8906, 2287.115
742.3727, 2292.608
742.8549, 2299.186
743.3370, 2308.326
743.8191, 2316.865
744.3012, 2307.587
744.7833, 2276.734
745.2654, 2255.555
745.7476, 2285.168
746.2297, 2332.153
746.7118, 2358.354
747.1939, 2344.998
747.6760, 2330.390
748.1581, 2324.161
748.6403, 2321.515
749.1224, 2316.696
749.6044, 2309.374
750.0865, 2299.892
750.5687, 2285.191
751.0508, 2272.315
751.5329, 2282.268
752.0150, 2311.511
752.4971, 2329.202
752.9792, 2276.905
753.4614, 2325.095
753.9435, 2351.647
754.4256, 2357.723
754.9077, 2281.995
755.3898, 2311.900
755.8719, 2299.472
756.3541, 2285.307
756.8362, 2330.080
757.3183, 2266.250
757.8004, 2310.087
758.2825, 2310.946
758.7646, 2331.475
759.2468, 2309.409
759.7289, 2300.500
760.2110, 2334.199
760.6931, 2344.305
761.1752, 2317.337
761.6573, 2339.116
762.1395, 2273.799
762.6216, 2284.910
763.1037, 2328.997
763.5858, 2304.170
764.0679, 2326.729
764.5500, 2331.240
765.0322, 2264.195
765.5143, 2254.761
765.9964, 2265.573
766.4785, 2281.363
766.9606, 2281.807
767.4427, 2266.066
767.9249, 2253.670
768.4070, 2247.733
768.8891, 2246.857
769.3712, 2249.871
769.8533, 2256.402
770.3354, 2265.647
770.8176, 2280.855
771.2997, 2294.813
771.7818, 2305.939
772.2639, 2313.037
772.7460, 2312.454
773.2281, 2294.146
773.7103, 2281.520
774.1924, 2281.708
774.6745, 2291.013
775.1566, 2293.612
775.6387, 2289.010
776.1208, 2228.838
776.6030, 2295.125
777.0851, 2332.561
777.5672, 2342.695
778.0493, 2243.758
778.5314, 2285.664
779.0135, 2271.126
779.4957, 2254.274
779.9778, 2316.004
780.4599, 2232.931
780.9420, 2293.414
781.4241, 2296.592
781.9063, 2325.997
782.3884, 2298.610
782.8705, 2288.764
783.3526, 2335.729
783.8347, 2351.237
784.3168, 2317.312
784.7990, 2348.385
785.2811, 2263.328
785.7632, 2280.176
786.2453, 2340.991
786.7274, 2309.922
787.2095, 2342.032
787.6917, 2350.081
788.1738, 2248.776
788.6559, 2337.647
789.1380, 2344.273
789.6201, 2266.452
790.1022, 2348.807
790.5844, 2282.627
791.0665, 2269.466
791.5486, 2296.203
792.0307, 2281.347
792.5128, 2332.068
792.9949, 2319.614
793.4771, 2301.516
793.9592, 2308.050
794.4413, 2244.783
794.9234, 2346.641
795.4055, 2355.070
795.8876, 2337.620
796.3698, 2327.011
796.8519, 2334.514
797.3340, 2336.496
797.8161, 2326.642
798.2982, 2309.558
798.7803, 2298.647
799.2625, 2294.010
799.7446, 2294.694
800.2267, 2304.490
800.7088, 2316.123
801.1909, 2313.630
801.6730, 2301.761
802.1552, 2299.173
802.6373, 2329.982
803.1194, 2358.444
803.6015, 2365.417
804.0836, 2350.566
804.5657, 2335.222
805.0479, 2313.706
805.5300, 2302.786
806.0121, 2315.406
806.4942, 2346.863
806.9763, 2358.204
807.4584, 2349.698
807.9406, 2336.534
808.4227, 2326.461
808.9048, 2319.780
809.3869, 2318.384
809.8690, 2322.308
810.3511, 2324.961
810.8333, 2320.521
811.3154, 2316.583
811.7975, 2318.161
812.2796, 2326.549
812.7617, 2334.090
813.2438, 2341.820
813.7260, 2346.232
814.2081, 2343.002
814.6902, 2333.588
815.1723, 2325.703
815.6544, 2320.197
816.1365, 2312.367
816.6187, 2293.763
817.1008, 2272.974
817.5829, 2257.377
818.0650, 2244.762
818.5471, 2248.309
819.0292, 2289.761
819.5114, 2335.065
819.9935, 2356.552
820.4756, 2349.070
820.9577, 2340.012
821.4398, 2330.666
821.9219, 2320.759
822.4041, 2309.517
822.8862, 2297.496
823.3683, 2284.743
823.8504, 2268.837
824.3325, 2259.563
824.8146, 2269.017
825.2968, 2286.625
825.7789, 2299.317
826.2610, 2306.008
826.7431, 2304.816
827.2252, 2291.863
827.7073, 2274.551
828.1895, 2262.802
828.6716, 2256.496
829.1537, 2259.332
829.6358, 2276.142
830.1179, 2292.356
830.6000, 2284.671
831.0822, 2262.756
831.5643, 2245.725
832.0464, 2241.844
832.5285, 2242.552
833.0106, 2249.079
833.4927, 2257.269
833.9749, 2258.301
834.4570, 2246.392
834.9391, 2241.893
835.4212, 2251.043
835.9033, 2266.279
836.3854, 2270.447
836.8676, 2265.285
837.3497, 2260.704
837.8318, 2258.678
838.3139, 2260.884
838.7960, 2274.360
839.2781, 2292.951
839.7602, 2302.572
840.2423, 2291.500
840.7244, 2279.891
841.2065, 2271.414
841.6887, 2265.681
842.1708, 2261.351
842.6529, 2258.006
843.1350, 2259.946
843.6171, 2272.019
844.0992, 2286.765
844.5814, 2290.031
845.0635, 2284.018
845.5456, 2275.715
846.0277, 2264.815
846.5098, 2256.096
846.9919, 2250.830
847.4741, 2249.704
847.9562, 2255.912
848.4383, 2278.267
848.9204, 2288.914
849.4025, 2248.151
849.8846, 2280.102
850.3668, 2297.627
850.8489, 2301.501
851.3310, 2250.840
851.8131, 2270.601
852.2952, 2262.139
852.7773, 2252.521
853.2595, 2282.192
853.7416, 2239.463
854.2237, 2268.512
854.7058, 2268.908
855.1879, 2282.418
855.6700, 2267.532
856.1522, 2261.416
856.6343, 2283.706
857.1164, 2290.267
857.5985, 2272.112
858.0806, 2286.456
858.5627, 2242.735
859.0449, 2249.966
859.5270, 2279.181
860.0091, 2262.454
860.4912, 2277.316
860.9733, 2280.148
861.4554, 2228.302
861.9376, 2255.618
862.4197, 2259.033
862.9018, 2256.920
863.3839, 2243.912
863.8660, 2225.923
864.3481, 2229.032
864.8303, 2250.420
865.3124, 2268.000
865.7945, 2263.334
866.2766, 2253.576
866.7587, 2255.205
867.2408, 2265.931
867.7230, 2270.931
868.2051, 2254.559
868.6872, 2246.178
869.1693, 2258.184
869.6514, 2285.250
870.1335, 2294.201
870.6157, 2283.965
871.0978, 2275.731
871.5799, 2285.156
872.0620, 2300.427
872.5441, 2302.254
873.0262, 2293.830
873.5084, 2288.924
873.9905, 2295.901
874.4726, 2305.551
874.9547, 2314.458
875.4368, 2322.796
875.9189, 2331.643
876.4011, 2341.799
876.8832, 2349.503
877.3653, 2351.906
877.8474, 2351.676
878.3295, 2357.292
878.8116, 2367.019
879.2938, 2372.980
879.7759, 2363.925
880.2580, 2356.288
880.7401, 2360.110
881.2222, 2374.227
881.7043, 2391.226
882.1865, 2413.709
882.6686, 2432.969
883.1507, 2445.945
883.6328, 2454.416
884.1149, 2465.536
884.5970, 2478.465
885.0792, 2486.623
885.5613, 2479.709
886.0434, 2472.454
886.5255, 2476.892
887.0076, 2491.735
887.4897, 2512.716
887.9719, 2549.119
888.4540, 2578.988
888.9361, 2596.443
889.4182, 2604.612
889.9003, 2612.923
890.3824, 2621.318
890.8646, 2628.951
891.3467, 2631.044
891.8288, 2637.762
892.3109, 2669.557
892.7930, 2716.855
893.2751, 2757.089
893.7573, 2770.738
894.2394, 2787.758
894.7215, 2823.686
895.2036, 2867.301
895.6857, 2894.093
896.1678, 2899.699
896.6500, 2910.874
897.1321, 2936.201
897.6142, 2966.842
898.0963, 2984.943
898.5784, 2995.719
899.0605, 3011.790
899.5427, 3051.582
900.0248, 3080.813
900.5069, 3072.202
900.9890, 3047.098
901.4711, 3046.426
901.9532, 3081.344
902.4354, 3111.206
902.9175, 3130.651
903.3996, 3143.341
903.8817, 3152.803
904.3638, 3160.523
904.8459, 3171.595
905.3281, 3190.157
905.8102, 3206.222
906.2923, 3204.707
906.7744, 3200.117
907.2565, 3213.064
907.7386, 3266.998
908.2208, 3298.067
908.7029, 3296.721
909.1850, 3283.459
909.6671, 3284.559
910.1492, 3296.931
910.6313, 3305.775
911.1135, 3308.782
911.5956, 3306.604
912.0777, 3294.986
912.5598, 3280.939
913.0419, 3271.616
913.5240, 3268.780
914.0062, 3270.367
914.4883, 3278.244
914.9704, 3287.519
915.4525, 3296.519
915.9346, 3304.479
916.4167, 3299.551
916.8989, 3280.344
917.3810, 3257.012
917.8631, 3230.779
918.3452, 3209.456
918.8273, 3204.417
919.3094, 3221.432
919.7916, 3229.232
920.2737, 3214.725
920.7558, 3200.391
921.2379, 3199.887
921.7200, 3213.096
922.2021, 3221.897
922.6843, 3226.199
923.1664, 3230.202
923.6485, 3237.901
924.1306, 3246.450
924.6127, 3252.142
925.0948, 3254.903
925.5770, 3259.238
926.0591, 3272.001
926.5412, 3280.358
927.0233, 3279.118
927.5054, 3269.084
927.9875, 3252.709
928.4697, 3229.631
928.9517, 3220.324
929.4338, 3254.914
929.9160, 3297.343
930.3981, 3295.031
930.8802, 3259.941
931.3623, 3239.126
931.8444, 3269.306
932.3265, 3291.687
932.8087, 3287.105
933.2908, 3264.471
933.7729, 3249.063
934.2550, 3240.542
934.7371, 3245.683
935.2192, 3272.316
935.7014, 3305.164
936.1835, 3328.565
936.6656, 3342.763
937.1477, 3348.549
937.6298, 3328.957
938.1119, 3323.394
938.5941, 3352.313
939.0762, 3391.406
939.5583, 3400.041
940.0404, 3375.297
940.5225, 3363.040
941.0046, 3372.571
941.4868, 3392.601
941.9689, 3415.262
942.4510, 3437.403
942.9331, 3454.146
943.4152, 3463.597
943.8973, 3469.186
944.3795, 3469.719
944.8616, 3468.356
945.3437, 3464.589
945.8258, 3456.461
946.3079, 3470.006
946.7900, 3509.142
947.2722, 3547.621
947.7543, 3556.714
948.2364, 3552.476
948.7185, 3557.729
949.2006, 3576.709
949.6827, 3586.625
950.1649, 3570.948
950.6470, 3552.897
951.1291, 3539.783
951.6112, 3531.839
952.0933, 3550.301
952.5754, 3596.974
953.0576, 3636.229
953.5397, 3637.244
954.0218, 3623.076
954.5039, 3621.762
954.9860, 3630.967
955.4681, 3633.355
955.9503, 3613.024
956.4324, 3597.448
956.9145, 3597.136
957.3966, 3606.691
957.8787, 3605.275
958.3608, 3593.130
958.8430, 3582.772
959.3251, 3577.288
959.8072, 3578.484
960.2893, 3597.062
960.7714, 3622.811
961.2535, 3634.456
961.7357, 3607.825
962.2178, 3591.638
962.6999, 3593.624
963.1820, 3606.647
963.6641, 3624.444
964.1462, 3646.018
964.6284, 3654.874
965.1105, 3645.418
965.5926, 3634.186
966.0747, 3632.629
966.5568, 3640.121
967.0389, 3656.961
967.5211, 3687.590
968.0032, 3716.480
968.4853, 3743.707
968.9674, 3767.063
969.4495, 3779.319
969.9316, 3783.592
970.4138, 3812.019
970.8959, 3865.063
971.3780, 3915.233
971.8601, 3938.137
972.3422, 3952.135
972.8243, 3970.065
973.3065, 3993.034
973.7886, 4019.854
974.2707, 4048.104
974.7528, 4085.058
975.2349, 4139.966
975.7170, 4203.203
976.1992, 4236.216
976.6813, 4246.185
977.1634, 4268.648
977.6455, 4329.539
978.1276, 4400.430
978.6097, 4469.945
979.0919, 4537.211
979.5740, 4599.604
980.0561, 4656.471
980.5382, 4707.083
981.0203, 4747.743
981.5024, 4789.056
981.9846, 4851.613
982.4667, 4928.229
982.9488, 5000.475
983.4309, 5061.297
983.9130, 5124.128
984.3951, 5194.951
984.8773, 5271.955
985.3594, 5355.743
985.8415, 5453.695
986.3236, 5526.881
986.8057, 5571.637
987.2878, 5609.933
987.7700, 5660.858
988.2521, 5717.944
988.7342, 5770.712
989.2163, 5818.675
989.6984, 5865.318
990.1805, 5911.212
990.6627, 5958.285
991.1448, 6013.980
991.6269, 6073.017
992.1090, 6085.021
992.5911, 6048.832
993.0732, 6028.181
993.5554, 6067.996
994.0375, 6123.957
994.5196, 6144.960
995.0017, 6141.892
995.4838, 6142.015
995.9659, 6171.547
996.4481, 6177.417
996.9302, 6144.747
997.4123, 6095.120
997.8944, 6067.710
998.3765, 6058.103
998.8586, 6033.588
999.3408, 5986.383
999.8229, 5931.105
1000.305, 5865.160
1000.787, 5805.792
1001.269, 5773.199
1001.751, 5784.648
1002.233, 5776.710
1002.716, 5746.145
1003.198, 5704.174
1003.680, 5652.604
1004.162, 5596.818
1004.644, 5560.490
1005.126, 5541.288
1005.608, 5514.749
1006.090, 5455.957
1006.573, 5397.149
1007.055, 5358.523
1007.537, 5334.956
1008.019, 5306.197
1008.501, 5270.461
1008.983, 5241.561
1009.465, 5226.552
1009.947, 5216.927
1010.429, 5199.200
1010.912, 5176.932
1011.394, 5157.393
1011.876, 5153.731
1012.358, 5136.836
1012.840, 5092.646
1013.322, 5041.202
1013.804, 5005.898
1014.286, 4986.007
1014.768, 4957.748
1015.251, 4918.398
1015.733, 4879.537
1016.215, 4853.255
1016.697, 4831.000
1017.179, 4806.012
1017.661, 4777.527
1018.143, 4742.978
1018.625, 4695.009
1019.107, 4655.472
1019.590, 4637.064
1020.072, 4633.472
1020.554, 4625.094
1021.036, 4612.717
1021.518, 4599.561
1022.000, 4587.511
1022.482, 4574.734
1022.964, 4558.770
1023.447, 4542.005
1023.929, 4529.985
1024.411, 4524.537
1024.893, 4514.872
1025.375, 4498.610
1025.857, 4480.359
1026.339, 4462.305
1026.821, 4447.495
1027.303, 4442.467
1027.786, 4452.005
1028.268, 4455.572
1028.750, 4445.337
1029.232, 4430.477
1029.714, 4414.170
1030.196, 4396.768
1030.678, 4383.872
1031.160, 4375.543
1031.643, 4370.602
1032.125, 4366.268
1032.607, 4367.006
1033.089, 4384.039
1033.571, 4410.274
1034.053, 4416.323
1034.535, 4390.608
1035.017, 4368.955
1035.500, 4356.630
1035.982, 4354.459
1036.464, 4369.048
1036.946, 4394.089
1037.428, 4413.155
1037.910, 4420.067
1038.392, 4426.773
1038.874, 4443.788
1039.356, 4458.031
1039.839, 4455.566
1040.321, 4431.982
1040.803, 4438.067
1041.285, 4476.113
1041.767, 4509.630
1042.249, 4500.782
1042.731, 4480.908
1043.213, 4483.540
1043.695, 4506.865
1044.178, 4532.067
1044.660, 4563.615
1045.142, 4582.694
1045.624, 4581.305
1046.106, 4569.600
1046.588, 4565.559
1047.070, 4570.002
1047.552, 4588.981
1048.035, 4635.904
1048.517, 4669.475
1048.999, 4649.338
1049.481, 4616.432
1049.963, 4613.261
1050.445, 4650.425
1050.927, 4673.685
1051.409, 4683.117
1051.891, 4678.909
1052.374, 4644.553
1052.856, 4606.845
1053.338, 4608.877
1053.820, 4646.031
1054.302, 4664.775
1054.784, 4634.502
1055.266, 4609.505
1055.748, 4605.023
1056.230, 4611.208
1056.713, 4603.665
1057.195, 4585.218
1057.677, 4569.703
1058.159, 4564.017
1058.641, 4555.410
1059.123, 4535.308
1059.605, 4508.751
1060.087, 4481.010
1060.570, 4452.679
1061.052, 4419.704
1061.534, 4379.333
1062.016, 4350.375
1062.498, 4362.818
1062.980, 4386.375
1063.462, 4377.289
1063.944, 4338.036
1064.426, 4301.760
1064.909, 4277.392
1065.391, 4258.589
1065.873, 4245.556
1066.355, 4235.660
1066.837, 4223.777
1067.319, 4209.763
1067.801, 4194.086
1068.283, 4178.380
1068.766, 4156.515
1069.248, 4116.312
1069.730, 4073.946
1070.212, 4046.835
1070.694, 4039.225
1071.176, 4022.840
1071.658, 3995.739
1072.140, 3974.651
1072.622, 3979.275
1073.104, 3993.107
1073.587, 4000.778
1074.069, 4000.159
1074.551, 3983.074
1075.033, 3922.269
1075.515, 3884.684
1075.997, 3890.492
1076.479, 3917.427
1076.961, 3925.885
1077.444, 3918.684
1077.926, 3903.448
1078.408, 3879.046
1078.890, 3858.297
1079.372, 3849.890
1079.854, 3846.725
1080.336, 3844.659
1080.818, 3844.538
1081.301, 3828.134
1081.783, 3793.801
1082.265, 3772.404
1082.747, 3804.206
1083.229, 3843.128
1083.711, 3836.304
1084.193, 3796.011
1084.675, 3766.059
1085.157, 3754.826
1085.640, 3750.841
1086.122, 3756.005
1086.604, 3760.765
1087.086, 3743.923
1087.568, 3716.925
1088.050, 3711.104
1088.532, 3736.489
1089.014, 3752.372
1089.496, 3735.803
1089.979, 3709.597
1090.461, 3684.081
1090.943, 3659.488
1091.425, 3638.883
1091.907, 3622.334
1092.389, 3609.772
1092.871, 3601.782
1093.353, 3597.193
1093.836, 3603.137
1094.318, 3609.640
1094.800, 3595.471
1095.282, 3549.779
1095.764, 3517.088
1096.246, 3502.642
1096.728, 3493.267
1097.210, 3473.410
1097.693, 3450.221
1098.175, 3437.186
1098.657, 3435.576
1099.139, 3427.082
1099.621, 3394.003
1100.103, 3373.073
1100.585, 3381.992
1101.067, 3406.876
1101.549, 3404.059
1102.031, 3380.358
1102.514, 3362.693
1102.996, 3368.667
1103.478, 3367.915
1103.960, 3336.207
1104.442, 3296.895
1104.924, 3273.530
1105.406, 3267.905
1105.888, 3263.998
1106.371, 3262.001
1106.853, 3254.521
1107.335, 3230.121
1107.817, 3202.456
1108.299, 3185.067
1108.781, 3176.375
1109.263, 3163.957
1109.745, 3144.492
1110.228, 3129.311
1110.710, 3120.938
1111.192, 3117.706
1111.674, 3120.017
1112.156, 3124.816
1112.638, 3127.125
1113.120, 3126.519
1113.602, 3120.976
1114.084, 3111.770
1114.567, 3094.977
1115.049, 3061.288
1115.531, 3018.862
1116.013, 3013.928
1116.495, 3039.534
1116.977, 3058.186
1117.459, 3047.923
1117.941, 3029.963
1118.423, 3002.936
1118.906, 2979.430
1119.388, 2982.034
1119.870, 3014.518
1120.352, 3020.641
1120.834, 2993.612
1121.316, 2963.441
1121.798, 2956.151
1122.280, 2957.486
1122.763, 2956.393
1123.245, 2951.974
1123.727, 2944.045
1124.209, 2927.221
1124.691, 2928.988
1125.173, 2967.017
1125.655, 3009.997
1126.137, 3001.297
1126.620, 2965.753
1127.102, 2947.723
1127.584, 2973.444
1128.066, 2978.097
1128.548, 2944.675
1129.030, 2909.521
1129.512, 2900.580
1129.994, 2910.643
1130.476, 2913.629
1130.958, 2910.047
1131.441, 2903.238
1131.923, 2889.231
1132.405, 2878.978
1132.887, 2875.760
1133.369, 2878.472
1133.851, 2888.667
1134.333, 2905.473
1134.815, 2914.474
1135.298, 2913.595
1135.780, 2906.858
1136.262, 2890.816
1136.744, 2875.431
1137.226, 2871.520
1137.708, 2877.053
1138.190, 2869.867
1138.672, 2848.145
1139.155, 2831.935
1139.637, 2828.863
1140.119, 2834.055
1140.601, 2850.471
1141.083, 2868.294
1141.565, 2871.749
1142.047, 2847.895
1142.529, 2837.962
1143.011, 2846.908
1143.494, 2852.821
1143.976, 2833.207
1144.458, 2802.727
1144.940, 2787.753
1145.422, 2785.563
1145.904, 2783.239
1146.386, 2769.477
1146.868, 2767.055
1147.350, 2785.044
1147.833, 2806.225
1148.315, 2800.706
1148.797, 2778.340
1149.279, 2768.613
1149.761, 2776.079
1150.243, 2787.525
1150.725, 2809.350
1151.207, 2818.723
1151.690, 2799.782
1152.172, 2763.166
1152.654, 2753.115
1153.136, 2766.014
1153.618, 2776.369
1154.100, 2775.398
1154.582, 2769.769
1155.064, 2762.233
1155.546, 2752.623
1156.029, 2739.751
1156.511, 2722.532
1156.993, 2714.125
1157.475, 2714.662
1157.957, 2717.585
1158.439, 2722.984
1158.921, 2724.978
1159.403, 2716.226
1159.885, 2700.709
1160.368, 2688.602
1160.850, 2679.786
1161.332, 2678.565
1161.814, 2687.641
1162.296, 2693.152
1162.778, 2673.148
1163.260, 2646.327
1163.742, 2635.196
1164.224, 2641.635
1164.707, 2645.152
1165.189, 2642.421
1165.671, 2642.194
1166.153, 2648.305
1166.635, 2655.781
1167.117, 2654.744
1167.599, 2649.669
1168.081, 2648.076
1168.564, 2650.831
1169.046, 2661.646
1169.528, 2689.860
1170.010, 2707.822
1170.492, 2690.159
1170.974, 2653.287
1171.456, 2647.761
1171.938, 2665.686
1172.421, 2680.162
1172.903, 2672.392
1173.385, 2671.021
1173.867, 2685.524
1174.349, 2702.790
1174.831, 2705.354
1175.313, 2697.729
1175.795, 2704.509
1176.277, 2725.947
1176.760, 2743.681
1177.242, 2736.264
1177.724, 2737.081
1178.206, 2767.600
1178.688, 2810.208
1179.170, 2821.777
1179.652, 2806.819
1180.134, 2800.615
1180.616, 2811.100
1181.099, 2823.935
1181.581, 2824.496
1182.063, 2828.544
1182.545, 2851.871
1183.027, 2890.006
1183.509, 2905.322
1183.991, 2898.713
1184.473, 2892.608
1184.956, 2898.667
1185.438, 2903.007
1185.920, 2893.561
1186.402, 2876.954
1186.884, 2860.882
1187.366, 2845.785
1187.848, 2831.520
1188.330, 2818.405
1188.813, 2801.650
1189.295, 2774.960
1189.777, 2745.881
1190.259, 2723.883
1190.741, 2704.244
1191.223, 2675.252
1191.705, 2634.279
1192.187, 2591.703
1192.669, 2546.690
1193.151, 2510.805
1193.634, 2505.906
1194.116, 2508.541
1194.598, 2492.094
1195.080, 2457.376
1195.562, 2430.937
1196.044, 2415.465
1196.526, 2404.038
1197.008, 2396.583
1197.491, 2388.043
1197.973, 2372.869
1198.455, 2351.844
1198.937, 2323.535
1199.419, 2285.180
1199.901, 2259.358
1200.383, 2248.884
1200.865, 2245.304
1201.348, 2250.060
1201.830, 2252.698
1202.312, 2226.656
1202.794, 2188.288
1203.276, 2167.801
1203.758, 2185.112
1204.240, 2197.055
1204.722, 2203.323
1205.204, 2201.269
1205.687, 2187.861
1206.169, 2165.399
1206.651, 2128.302
1207.133, 2085.088
1207.615, 2062.988
1208.097, 2091.852
1208.579, 2111.276
1209.061, 2114.931
1209.543, 2111.196
1210.026, 2106.850
1210.508, 2102.787
1210.990, 2101.626
1211.472, 2103.135
1211.954, 2103.602
1212.436, 2101.469
1212.918, 2098.094
1213.400, 2091.926
1213.883, 2087.669
1214.365, 2100.585
1214.847, 2119.498
1215.329, 2114.335
1215.811, 2077.229
1216.293, 2055.407
1216.775, 2073.973
1217.257, 2092.120
1217.740, 2096.698
1218.222, 2090.565
1218.704, 2074.252
1219.186, 2053.687
1219.668, 2044.031
1220.150, 2054.227
1220.632, 2061.441
1221.114, 2058.012
1221.596, 2054.653
1222.078, 2059.784
1222.561, 2068.698
1223.043, 2061.851
1223.525, 2045.022
1224.007, 2035.542
1224.489, 2049.641
1224.971, 2058.089
1225.453, 2053.149
1225.935, 2046.390
1226.418, 2048.598
1226.900, 2057.303
1227.382, 2065.886
1227.864, 2073.568
1228.346, 2077.328
1228.828, 2074.716
1229.310, 2068.769
1229.792, 2057.626
1230.275, 2047.451
1230.757, 2047.516
1231.239, 2054.683
1231.721, 2062.415
1232.203, 2069.521
1232.685, 2067.394
1233.167, 2039.405
1233.649, 2018.055
1234.131, 2011.191
1234.614, 2015.604
1235.096, 2033.058
1235.578, 2055.845
1236.060, 2059.603
1236.542, 2037.284
1237.024, 2024.212
1237.506, 2043.580
1237.988, 2060.645
1238.470, 2062.393
1238.953, 2055.519
1239.435, 2057.354
1239.917, 2064.304
1240.399, 2067.370
1240.881, 2064.747
1241.363, 2055.164
1241.845, 2029.295
1242.327, 2011.210
1242.810, 2017.917
1243.292, 2039.189
1243.774, 2045.425
1244.256, 2041.057
1244.738, 2038.842
1245.220, 2045.788
1245.702, 2050.631
1246.184, 2051.237
1246.666, 2051.051
1247.149, 2053.066
1247.631, 2056.258
1248.113, 2058.845
1248.595, 2060.162
1249.077, 2057.835
1249.559, 2048.888
1250.041, 2038.228
1250.523, 2023.505
1251.005, 2012.951
1251.488, 2018.672
1251.970, 2033.224
1252.452, 2045.627
1252.934, 2053.767
1253.416, 2049.464
1253.898, 2015.308
1254.380, 1993.426
1254.862, 1990.308
1255.344, 2000.014
1255.827, 2026.178
1256.309, 2054.464
1256.791, 2056.961
1257.273, 2032.322
1257.755, 2011.473
1258.237, 1999.518
1258.719, 1989.611
1259.201, 1978.076
1259.684, 1973.324
1260.166, 1996.304
1260.648, 2029.669
1261.130, 2047.822
1261.612, 2046.084
1262.094, 2039.231
1262.576, 2025.400
1263.058, 2018.188
1263.541, 2026.115
1264.023, 2034.739
1264.505, 2015.641
1264.987, 1988.765
1265.469, 1983.652
1265.951, 2011.261
1266.433, 2025.724
1266.915, 2025.124
1267.397, 2022.751
1267.880, 2026.590
1268.362, 2028.906
1268.844, 2012.648
1269.326, 1992.443
1269.808, 1994.142
1270.290, 2026.478
1270.772, 2037.432
1271.254, 2025.483
1271.736, 2009.775
1272.219, 2001.063
1272.701, 1994.208
1273.183, 1985.033
1273.665, 1974.576
1274.147, 1962.372
1274.629, 1945.347
1275.111, 1950.390
1275.593, 1978.304
1276.076, 2005.150
1276.558, 2017.541
1277.040, 2020.627
1277.522, 2011.014
1278.004, 1997.785
1278.486, 1996.093
1278.968, 2006.002
1279.450, 2012.461
1279.932, 2014.558
1280.415, 2015.939
1280.897, 2020.259
1281.379, 2023.106
1281.861, 2022.972
1282.343, 2019.509
1282.825, 2009.684
1283.307, 1994.981
1283.789, 1987.092
1284.271, 1987.300
1284.754, 1986.874
1285.236, 1971.700
1285.718, 1968.175
1286.200, 1991.482
1286.682, 2024.179
1287.164, 2030.036
1287.646, 2016.957
1288.128, 2009.172
1288.611, 2010.821
1289.093, 2010.416
1289.575, 2002.443
1290.057, 1992.313
1290.539, 1978.253
1291.021, 1967.554
1291.503, 1981.091
1291.985, 2006.567
1292.468, 2018.828
1292.950, 2011.343
1293.432, 2004.837
1293.914, 2003.718
1294.396, 1999.535
1294.878, 1986.156
1295.360, 1973.268
1295.842, 1980.670
1296.324, 1997.242
1296.807, 2005.846
1297.289, 2000.694
1297.771, 2000.981
1298.253, 2008.483
1298.735, 2014.490
1299.217, 2015.471
1299.699, 2011.077
##END=



