##NAMES=Natropalermoite
##RRUFFID=R130092
##IDEAL CHEMISTRY=Na_2_SrAl_4_(PO_4_)_4_(OH)_4_
##LOCALITY=Palermo No. 1 mine, Groton, New Hampshire, USA
##OWNER=RRUFF
##SOURCE=Benjamin N. Schumer
##DESCRIPTION=Colorless, prismatic, striated, elongated along [100], visually indistinguishable from palermoite (R120141). Associated with grey to colorless bladed eosphorite, groups of acicular childrenite, quartz, goethite and lefontite R140539. Type sample
##STATUS=The identification of this mineral is confirmed by single-crystal X-ray diffraction and chemical analysis.
##URL=rruff.info/R130092
##MEASURED CHEMISTRY=(Na_1.70_Li_0.30_)_2.00_(Sr_0.96_Ca_0.02_Ba_0.01_)(Al_3.83_Mg_0.04_Mn_0.03_Fe_0.03_)(PO_4_)_4.06_(OH)_4.00_
8.975323e+001, 0.000000e+000
9.023535e+001, 3.755504e+002
9.071747e+001, 3.730044e+002
9.119958e+001, 3.706619e+002
9.168170e+001, 3.756469e+002
9.216382e+001, 3.790660e+002
9.264594e+001, 3.793315e+002
9.312805e+001, 3.776512e+002
9.361017e+001, 3.756031e+002
9.409229e+001, 3.735467e+002
9.457440e+001, 3.720102e+002
9.505651e+001, 3.694587e+002
9.553863e+001, 3.657929e+002
9.602074e+001, 3.617023e+002
9.650286e+001, 3.577697e+002
9.698498e+001, 3.540070e+002
9.746709e+001, 3.497089e+002
9.794921e+001, 3.456003e+002
9.843133e+001, 3.414697e+002
9.891344e+001, 3.377614e+002
9.939556e+001, 3.347790e+002
9.987768e+001, 3.322454e+002
1.003598e+002, 3.294328e+002
1.008419e+002, 3.256012e+002
1.013240e+002, 3.212172e+002
1.018061e+002, 3.180643e+002
1.022883e+002, 3.168509e+002
1.027704e+002, 3.163133e+002
1.032525e+002, 3.153039e+002
1.037346e+002, 3.137202e+002
1.042167e+002, 3.120963e+002
1.046988e+002, 3.107032e+002
1.051810e+002, 3.094305e+002
1.056631e+002, 3.081552e+002
1.061452e+002, 3.068648e+002
1.066273e+002, 3.055230e+002
1.071094e+002, 3.039564e+002
1.075915e+002, 3.018587e+002
1.080737e+002, 2.998881e+002
1.085558e+002, 2.982816e+002
1.090379e+002, 2.969985e+002
1.095200e+002, 2.959474e+002
1.100021e+002, 2.951499e+002
1.104842e+002, 2.947499e+002
1.109664e+002, 2.938421e+002
1.114485e+002, 2.918987e+002
1.119306e+002, 2.899194e+002
1.124127e+002, 2.883979e+002
1.128948e+002, 2.873896e+002
1.133769e+002, 2.865871e+002
1.138591e+002, 2.855479e+002
1.143412e+002, 2.839172e+002
1.148233e+002, 2.826927e+002
1.153054e+002, 2.820443e+002
1.157875e+002, 2.816909e+002
1.162696e+002, 2.814524e+002
1.167517e+002, 2.812801e+002
1.172339e+002, 2.810247e+002
1.177160e+002, 2.802453e+002
1.181981e+002, 2.786694e+002
1.186802e+002, 2.772433e+002
1.191623e+002, 2.762621e+002
1.196444e+002, 2.756408e+002
1.201266e+002, 2.751693e+002
1.206087e+002, 2.748343e+002
1.210908e+002, 2.745340e+002
1.215729e+002, 2.740680e+002
1.220550e+002, 2.733599e+002
1.225371e+002, 2.726133e+002
1.230193e+002, 2.721415e+002
1.235014e+002, 2.720168e+002
1.239835e+002, 2.715418e+002
1.244656e+002, 2.699971e+002
1.249477e+002, 2.680622e+002
1.254298e+002, 2.662739e+002
1.259120e+002, 2.647912e+002
1.263941e+002, 2.636114e+002
1.268762e+002, 2.627726e+002
1.273583e+002, 2.624117e+002
1.278404e+002, 2.622018e+002
1.283225e+002, 2.622833e+002
1.288047e+002, 2.623830e+002
1.292868e+002, 2.620941e+002
1.297689e+002, 2.610882e+002
1.302510e+002, 2.594388e+002
1.307331e+002, 2.582240e+002
1.312152e+002, 2.579738e+002
1.316974e+002, 2.576680e+002
1.321795e+002, 2.569831e+002
1.326616e+002, 2.560196e+002
1.331437e+002, 2.550798e+002
1.336258e+002, 2.544286e+002
1.341079e+002, 2.541134e+002
1.345901e+002, 2.537960e+002
1.350722e+002, 2.534583e+002
1.355543e+002, 2.531326e+002
1.360364e+002, 2.527842e+002
1.365185e+002, 2.524305e+002
1.370006e+002, 2.522052e+002
1.374828e+002, 2.523383e+002
1.379649e+002, 2.529607e+002
1.384470e+002, 2.532033e+002
1.389291e+002, 2.527593e+002
1.394112e+002, 2.520149e+002
1.398933e+002, 2.513496e+002
1.403755e+002, 2.508113e+002
1.408576e+002, 2.505029e+002
1.413397e+002, 2.507579e+002
1.418218e+002, 2.515289e+002
1.423039e+002, 2.520697e+002
1.427860e+002, 2.518460e+002
1.432681e+002, 2.510906e+002
1.437503e+002, 2.506989e+002
1.442324e+002, 2.511539e+002
1.447145e+002, 2.516962e+002
1.451966e+002, 2.515282e+002
1.456787e+002, 2.506497e+002
1.461608e+002, 2.498275e+002
1.466430e+002, 2.497933e+002
1.471251e+002, 2.506319e+002
1.476072e+002, 2.514287e+002
1.480893e+002, 2.523096e+002
1.485714e+002, 2.529015e+002
1.490535e+002, 2.528312e+002
1.495357e+002, 2.520531e+002
1.500178e+002, 2.510181e+002
1.504999e+002, 2.505168e+002
1.509820e+002, 2.511651e+002
1.514641e+002, 2.509353e+002
1.519462e+002, 2.488999e+002
1.524284e+002, 2.465042e+002
1.529105e+002, 2.448815e+002
1.533926e+002, 2.444620e+002
1.538747e+002, 2.448531e+002
1.543568e+002, 2.450987e+002
1.548389e+002, 2.454210e+002
1.553211e+002, 2.452623e+002
1.558032e+002, 2.442670e+002
1.562853e+002, 2.428812e+002
1.567674e+002, 2.416142e+002
1.572495e+002, 2.407159e+002
1.577316e+002, 2.401257e+002
1.582138e+002, 2.396088e+002
1.586959e+002, 2.393346e+002
1.591780e+002, 2.389353e+002
1.596601e+002, 2.382254e+002
1.601422e+002, 2.373157e+002
1.606243e+002, 2.364652e+002
1.611065e+002, 2.358387e+002
1.615886e+002, 2.353833e+002
1.620707e+002, 2.348517e+002
1.625528e+002, 2.341877e+002
1.630349e+002, 2.335116e+002
1.635170e+002, 2.328893e+002
1.639991e+002, 2.323176e+002
1.644813e+002, 2.317825e+002
1.649634e+002, 2.313314e+002
1.654455e+002, 2.308940e+002
1.659276e+002, 2.303112e+002
1.664097e+002, 2.294429e+002
1.668918e+002, 2.285164e+002
1.673740e+002, 2.277726e+002
1.678561e+002, 2.272198e+002
1.683382e+002, 2.268171e+002
1.688203e+002, 2.268450e+002
1.693024e+002, 2.269458e+002
1.697845e+002, 2.265968e+002
1.702667e+002, 2.253516e+002
1.707488e+002, 2.236855e+002
1.712309e+002, 2.227566e+002
1.717130e+002, 2.229718e+002
1.721951e+002, 2.232088e+002
1.726772e+002, 2.229065e+002
1.731594e+002, 2.223614e+002
1.736415e+002, 2.220378e+002
1.741236e+002, 2.223225e+002
1.746057e+002, 2.230405e+002
1.750878e+002, 2.230811e+002
1.755699e+002, 2.216345e+002
1.760521e+002, 2.203859e+002
1.765342e+002, 2.197801e+002
1.770163e+002, 2.196884e+002
1.774984e+002, 2.198854e+002
1.779805e+002, 2.202636e+002
1.784626e+002, 2.208278e+002
1.789448e+002, 2.209966e+002
1.794269e+002, 2.204573e+002
1.799090e+002, 2.198351e+002
1.803911e+002, 2.192522e+002
1.808732e+002, 2.187325e+002
1.813553e+002, 2.182554e+002
1.818375e+002, 2.177759e+002
1.823196e+002, 2.172554e+002
1.828017e+002, 2.171763e+002
1.832838e+002, 2.178458e+002
1.837659e+002, 2.185739e+002
1.842480e+002, 2.191292e+002
1.847301e+002, 2.194543e+002
1.852123e+002, 2.194568e+002
1.856944e+002, 2.189357e+002
1.861765e+002, 2.177722e+002
1.866586e+002, 2.173798e+002
1.871407e+002, 2.185938e+002
1.876228e+002, 2.199599e+002
1.881050e+002, 2.202485e+002
1.885871e+002, 2.193611e+002
1.890692e+002, 2.183320e+002
1.895513e+002, 2.182601e+002
1.900334e+002, 2.191150e+002
1.905155e+002, 2.195851e+002
1.909977e+002, 2.190785e+002
1.914798e+002, 2.183288e+002
1.919619e+002, 2.182454e+002
1.924440e+002, 2.190220e+002
1.929261e+002, 2.199855e+002
1.934082e+002, 2.205500e+002
1.938904e+002, 2.207993e+002
1.943725e+002, 2.208696e+002
1.948546e+002, 2.208549e+002
1.953367e+002, 2.206811e+002
1.958188e+002, 2.200822e+002
1.963009e+002, 2.187735e+002
1.967831e+002, 2.176303e+002
1.972652e+002, 2.174023e+002
1.977473e+002, 2.178358e+002
1.982294e+002, 2.183362e+002
1.987115e+002, 2.187427e+002
1.991936e+002, 2.190034e+002
1.996758e+002, 2.188472e+002
2.001579e+002, 2.179888e+002
2.006400e+002, 2.170813e+002
2.011221e+002, 2.165048e+002
2.016042e+002, 2.161667e+002
2.020863e+002, 2.158329e+002
2.025685e+002, 2.152702e+002
2.030506e+002, 2.145052e+002
2.035327e+002, 2.140451e+002
2.040148e+002, 2.141982e+002
2.044969e+002, 2.143596e+002
2.049790e+002, 2.143450e+002
2.054612e+002, 2.141564e+002
2.059433e+002, 2.138266e+002
2.064254e+002, 2.133122e+002
2.069075e+002, 2.125866e+002
2.073896e+002, 2.121962e+002
2.078717e+002, 2.126461e+002
2.083539e+002, 2.129862e+002
2.088360e+002, 2.128423e+002
2.093181e+002, 2.123102e+002
2.098002e+002, 2.117148e+002
2.102823e+002, 2.113450e+002
2.107644e+002, 2.112326e+002
2.112466e+002, 2.110864e+002
2.117287e+002, 2.108020e+002
2.122108e+002, 2.105844e+002
2.126929e+002, 2.105523e+002
2.131750e+002, 2.106732e+002
2.136571e+002, 2.108260e+002
2.141393e+002, 2.109030e+002
2.146214e+002, 2.108953e+002
2.151035e+002, 2.108678e+002
2.155856e+002, 2.108103e+002
2.160677e+002, 2.107478e+002
2.165498e+002, 2.106318e+002
2.170320e+002, 2.104991e+002
2.175141e+002, 2.104990e+002
2.179962e+002, 2.108164e+002
2.184783e+002, 2.115175e+002
2.189604e+002, 2.118279e+002
2.194425e+002, 2.113751e+002
2.199247e+002, 2.108830e+002
2.204068e+002, 2.108127e+002
2.208889e+002, 2.111632e+002
2.213710e+002, 2.116360e+002
2.218531e+002, 2.120082e+002
2.223352e+002, 2.122633e+002
2.228174e+002, 2.124041e+002
2.232995e+002, 2.123389e+002
2.237816e+002, 2.122280e+002
2.242637e+002, 2.121525e+002
2.247458e+002, 2.121238e+002
2.252279e+002, 2.122087e+002
2.257100e+002, 2.125627e+002
2.261922e+002, 2.131138e+002
2.266743e+002, 2.133493e+002
2.271564e+002, 2.127956e+002
2.276385e+002, 2.121882e+002
2.281206e+002, 2.123462e+002
2.286027e+002, 2.133306e+002
2.290849e+002, 2.142884e+002
2.295670e+002, 2.144951e+002
2.300491e+002, 2.141888e+002
2.305312e+002, 2.140403e+002
2.310133e+002, 2.141269e+002
2.314954e+002, 2.144359e+002
2.319776e+002, 2.150298e+002
2.324597e+002, 2.159502e+002
2.329418e+002, 2.168637e+002
2.334239e+002, 2.175589e+002
2.339060e+002, 2.181106e+002
2.343881e+002, 2.186324e+002
2.348703e+002, 2.192517e+002
2.353524e+002, 2.197677e+002
2.358345e+002, 2.198118e+002
2.363166e+002, 2.192503e+002
2.367987e+002, 2.187710e+002
2.372808e+002, 2.188558e+002
2.377630e+002, 2.191805e+002
2.382451e+002, 2.193882e+002
2.387272e+002, 2.193146e+002
2.392093e+002, 2.191568e+002
2.396914e+002, 2.192970e+002
2.401735e+002, 2.198888e+002
2.406557e+002, 2.202813e+002
2.411378e+002, 2.200168e+002
2.416199e+002, 2.195265e+002
2.421020e+002, 2.192587e+002
2.425841e+002, 2.194245e+002
2.430662e+002, 2.196898e+002
2.435484e+002, 2.193628e+002
2.440305e+002, 2.180828e+002
2.445126e+002, 2.172132e+002
2.449947e+002, 2.173766e+002
2.454768e+002, 2.179461e+002
2.459589e+002, 2.184723e+002
2.464410e+002, 2.188142e+002
2.469232e+002, 2.189492e+002
2.474053e+002, 2.187921e+002
2.478874e+002, 2.181832e+002
2.483695e+002, 2.176600e+002
2.488516e+002, 2.171015e+002
2.493337e+002, 2.167715e+002
2.498159e+002, 2.170481e+002
2.502980e+002, 2.180194e+002
2.507801e+002, 2.191666e+002
2.512622e+002, 2.196016e+002
2.517443e+002, 2.190274e+002
2.522264e+002, 2.183687e+002
2.527086e+002, 2.177170e+002
2.531907e+002, 2.170261e+002
2.536728e+002, 2.162607e+002
2.541549e+002, 2.154129e+002
2.546370e+002, 2.144935e+002
2.551191e+002, 2.135086e+002
2.556013e+002, 2.124483e+002
2.560834e+002, 2.113445e+002
2.565655e+002, 2.099827e+002
2.570476e+002, 2.087370e+002
2.575297e+002, 2.078928e+002
2.580118e+002, 2.074807e+002
2.584940e+002, 2.072776e+002
2.589761e+002, 2.069915e+002
2.594582e+002, 2.065867e+002
2.599403e+002, 2.061845e+002
2.604224e+002, 2.056574e+002
2.609045e+002, 2.052234e+002
2.613867e+002, 2.051093e+002
2.618688e+002, 2.052841e+002
2.623509e+002, 2.054595e+002
2.628330e+002, 2.052658e+002
2.633151e+002, 2.044931e+002
2.637972e+002, 2.041378e+002
2.642794e+002, 2.044521e+002
2.647615e+002, 2.048847e+002
2.652436e+002, 2.051734e+002
2.657257e+002, 2.052887e+002
2.662078e+002, 2.052903e+002
2.666899e+002, 2.051902e+002
2.671721e+002, 2.049041e+002
2.676542e+002, 2.051247e+002
2.681363e+002, 2.062593e+002
2.686184e+002, 2.074198e+002
2.691005e+002, 2.082029e+002
2.695826e+002, 2.086137e+002
2.700648e+002, 2.088211e+002
2.705469e+002, 2.089282e+002
2.710290e+002, 2.089239e+002
2.715111e+002, 2.091443e+002
2.719932e+002, 2.098010e+002
2.724753e+002, 2.104230e+002
2.729575e+002, 2.107618e+002
2.734396e+002, 2.108909e+002
2.739217e+002, 2.110428e+002
2.744038e+002, 2.113831e+002
2.748859e+002, 2.118905e+002
2.753680e+002, 2.122900e+002
2.758501e+002, 2.127608e+002
2.763322e+002, 2.129709e+002
2.768144e+002, 2.126580e+002
2.772965e+002, 2.119967e+002
2.777786e+002, 2.113986e+002
2.782607e+002, 2.111144e+002
2.787428e+002, 2.110234e+002
2.792249e+002, 2.105802e+002
2.797071e+002, 2.096674e+002
2.801892e+002, 2.086239e+002
2.806713e+002, 2.073616e+002
2.811534e+002, 2.060442e+002
2.816355e+002, 2.049821e+002
2.821176e+002, 2.043265e+002
2.825998e+002, 2.039449e+002
2.830819e+002, 2.035402e+002
2.835640e+002, 2.032074e+002
2.840461e+002, 2.026896e+002
2.845282e+002, 2.017139e+002
2.850103e+002, 2.005789e+002
2.854925e+002, 1.997419e+002
2.859746e+002, 1.993647e+002
2.864567e+002, 1.992486e+002
2.869388e+002, 1.990964e+002
2.874209e+002, 1.989480e+002
2.879030e+002, 1.986459e+002
2.883852e+002, 1.978926e+002
2.888673e+002, 1.970821e+002
2.893494e+002, 1.967978e+002
2.898315e+002, 1.971887e+002
2.903136e+002, 1.977308e+002
2.907957e+002, 1.977626e+002
2.912779e+002, 1.972081e+002
2.917600e+002, 1.967090e+002
2.922421e+002, 1.963635e+002
2.927242e+002, 1.960789e+002
2.932063e+002, 1.957073e+002
2.936884e+002, 1.952339e+002
2.941706e+002, 1.948994e+002
2.946527e+002, 1.950000e+002
2.951348e+002, 1.955412e+002
2.956169e+002, 1.958509e+002
2.960990e+002, 1.956645e+002
2.965811e+002, 1.954141e+002
2.970633e+002, 1.954685e+002
2.975454e+002, 1.958203e+002
2.980275e+002, 1.961861e+002
2.985096e+002, 1.963543e+002
2.989917e+002, 1.963636e+002
2.994738e+002, 1.964886e+002
2.999560e+002, 1.967931e+002
3.004381e+002, 1.971504e+002
3.009202e+002, 1.975154e+002
3.014023e+002, 1.978799e+002
3.018844e+002, 1.982183e+002
3.023665e+002, 1.985224e+002
3.028487e+002, 1.987854e+002
3.033308e+002, 1.989825e+002
3.038129e+002, 1.989861e+002
3.042950e+002, 1.991286e+002
3.047771e+002, 1.996122e+002
3.052592e+002, 2.003512e+002
3.057414e+002, 2.011631e+002
3.062235e+002, 2.020305e+002
3.067056e+002, 2.028423e+002
3.071877e+002, 2.032514e+002
3.076698e+002, 2.030465e+002
3.081519e+002, 2.032799e+002
3.086341e+002, 2.046924e+002
3.091162e+002, 2.066815e+002
3.095983e+002, 2.081313e+002
3.100804e+002, 2.086833e+002
3.105625e+002, 2.089639e+002
3.110446e+002, 2.098246e+002
3.115268e+002, 2.112746e+002
3.120089e+002, 2.126809e+002
3.124910e+002, 2.137781e+002
3.129731e+002, 2.148322e+002
3.134552e+002, 2.161695e+002
3.139373e+002, 2.178363e+002
3.144195e+002, 2.197049e+002
3.149016e+002, 2.217831e+002
3.153837e+002, 2.240384e+002
3.158658e+002, 2.259787e+002
3.163479e+002, 2.274700e+002
3.168300e+002, 2.286974e+002
3.173121e+002, 2.298183e+002
3.177943e+002, 2.308360e+002
3.182764e+002, 2.316585e+002
3.187585e+002, 2.322740e+002
3.192406e+002, 2.326047e+002
3.197227e+002, 2.325120e+002
3.202048e+002, 2.319519e+002
3.206870e+002, 2.310355e+002
3.211691e+002, 2.297668e+002
3.216512e+002, 2.281821e+002
3.221333e+002, 2.263367e+002
3.226154e+002, 2.241854e+002
3.230975e+002, 2.218870e+002
3.235797e+002, 2.198960e+002
3.240618e+002, 2.182635e+002
3.245439e+002, 2.167387e+002
3.250260e+002, 2.151831e+002
3.255081e+002, 2.136785e+002
3.259902e+002, 2.123356e+002
3.264724e+002, 2.111679e+002
3.269545e+002, 2.102538e+002
3.274366e+002, 2.099048e+002
3.279187e+002, 2.103113e+002
3.284008e+002, 2.101360e+002
3.288829e+002, 2.085710e+002
3.293651e+002, 2.065551e+002
3.298472e+002, 2.052039e+002
3.303293e+002, 2.047096e+002
3.308114e+002, 2.045307e+002
3.312935e+002, 2.041409e+002
3.317756e+002, 2.035199e+002
3.322578e+002, 2.030565e+002
3.327399e+002, 2.028872e+002
3.332220e+002, 2.027860e+002
3.337041e+002, 2.026419e+002
3.341862e+002, 2.024320e+002
3.346683e+002, 2.020947e+002
3.351505e+002, 2.015930e+002
3.356326e+002, 2.009179e+002
3.361147e+002, 2.000937e+002
3.365968e+002, 1.988481e+002
3.370789e+002, 1.977463e+002
3.375610e+002, 1.971026e+002
3.380432e+002, 1.967846e+002
3.385253e+002, 1.965150e+002
3.390074e+002, 1.961929e+002
3.394895e+002, 1.957805e+002
3.399716e+002, 1.951478e+002
3.404537e+002, 1.942122e+002
3.409359e+002, 1.932523e+002
3.414180e+002, 1.922892e+002
3.419001e+002, 1.913408e+002
3.423822e+002, 1.904192e+002
3.428643e+002, 1.895312e+002
3.433464e+002, 1.887148e+002
3.438286e+002, 1.880351e+002
3.443107e+002, 1.875531e+002
3.447928e+002, 1.870474e+002
3.452749e+002, 1.864015e+002
3.457570e+002, 1.858158e+002
3.462391e+002, 1.855268e+002
3.467213e+002, 1.855100e+002
3.472034e+002, 1.854552e+002
3.476855e+002, 1.850561e+002
3.481676e+002, 1.842847e+002
3.486497e+002, 1.837974e+002
3.491318e+002, 1.837536e+002
3.496140e+002, 1.837818e+002
3.500961e+002, 1.838248e+002
3.505782e+002, 1.838197e+002
3.510603e+002, 1.836294e+002
3.515424e+002, 1.831545e+002
3.520245e+002, 1.824784e+002
3.525067e+002, 1.819535e+002
3.529888e+002, 1.816864e+002
3.534709e+002, 1.814385e+002
3.539530e+002, 1.810880e+002
3.544351e+002, 1.807782e+002
3.549172e+002, 1.807529e+002
3.553994e+002, 1.810846e+002
3.558815e+002, 1.815019e+002
3.563636e+002, 1.815223e+002
3.568457e+002, 1.807832e+002
3.573278e+002, 1.803847e+002
3.578099e+002, 1.806188e+002
3.582920e+002, 1.809401e+002
3.587741e+002, 1.809451e+002
3.592563e+002, 1.806260e+002
3.597384e+002, 1.802504e+002
3.602205e+002, 1.800695e+002
3.607026e+002, 1.800925e+002
3.611847e+002, 1.802318e+002
3.616668e+002, 1.808234e+002
3.621490e+002, 1.811779e+002
3.626311e+002, 1.808614e+002
3.631132e+002, 1.801515e+002
3.635953e+002, 1.795963e+002
3.640774e+002, 1.795385e+002
3.645595e+002, 1.798559e+002
3.650417e+002, 1.800283e+002
3.655238e+002, 1.799368e+002
3.660059e+002, 1.798528e+002
3.664880e+002, 1.798191e+002
3.669701e+002, 1.798023e+002
3.674522e+002, 1.797825e+002
3.679344e+002, 1.797495e+002
3.684165e+002, 1.796801e+002
3.688986e+002, 1.795641e+002
3.693807e+002, 1.794782e+002
3.698628e+002, 1.791215e+002
3.703449e+002, 1.779885e+002
3.708271e+002, 1.770132e+002
3.713092e+002, 1.767862e+002
3.717913e+002, 1.772367e+002
3.722734e+002, 1.778500e+002
3.727555e+002, 1.782444e+002
3.732376e+002, 1.784185e+002
3.737198e+002, 1.782694e+002
3.742019e+002, 1.774299e+002
3.746840e+002, 1.767145e+002
3.751661e+002, 1.764237e+002
3.756482e+002, 1.764154e+002
3.761303e+002, 1.764909e+002
3.766125e+002, 1.765813e+002
3.770946e+002, 1.766345e+002
3.775767e+002, 1.765085e+002
3.780588e+002, 1.761260e+002
3.785409e+002, 1.757814e+002
3.790230e+002, 1.755632e+002
3.795052e+002, 1.754074e+002
3.799873e+002, 1.752493e+002
3.804694e+002, 1.750772e+002
3.809515e+002, 1.749788e+002
3.814336e+002, 1.751064e+002
3.819157e+002, 1.754529e+002
3.823979e+002, 1.756682e+002
3.828800e+002, 1.757239e+002
3.833621e+002, 1.755981e+002
3.838442e+002, 1.751527e+002
3.843263e+002, 1.745022e+002
3.848084e+002, 1.740439e+002
3.852906e+002, 1.740896e+002
3.857727e+002, 1.744620e+002
3.862548e+002, 1.747530e+002
3.867369e+002, 1.749267e+002
3.872190e+002, 1.751484e+002
3.877011e+002, 1.757055e+002
3.881833e+002, 1.763161e+002
3.886654e+002, 1.765193e+002
3.891475e+002, 1.760458e+002
3.896296e+002, 1.754844e+002
3.901117e+002, 1.754174e+002
3.905938e+002, 1.757764e+002
3.910760e+002, 1.759989e+002
3.915581e+002, 1.758053e+002
3.920402e+002, 1.755213e+002
3.925223e+002, 1.756578e+002
3.930044e+002, 1.762516e+002
3.934865e+002, 1.767261e+002
3.939687e+002, 1.766529e+002
3.944508e+002, 1.763863e+002
3.949329e+002, 1.765453e+002
3.954150e+002, 1.772498e+002
3.958971e+002, 1.780446e+002
3.963792e+002, 1.784954e+002
3.968614e+002, 1.786448e+002
3.973435e+002, 1.790230e+002
3.978256e+002, 1.797541e+002
3.983077e+002, 1.806341e+002
3.987898e+002, 1.816676e+002
3.992719e+002, 1.827674e+002
3.997540e+002, 1.836241e+002
4.002361e+002, 1.840453e+002
4.007183e+002, 1.841810e+002
4.012004e+002, 1.844392e+002
4.016825e+002, 1.846994e+002
4.021646e+002, 1.852583e+002
4.026467e+002, 1.864255e+002
4.031288e+002, 1.878019e+002
4.036110e+002, 1.888576e+002
4.040931e+002, 1.894885e+002
4.045752e+002, 1.901059e+002
4.050573e+002, 1.912518e+002
4.055394e+002, 1.931343e+002
4.060215e+002, 1.944283e+002
4.065037e+002, 1.948250e+002
4.069858e+002, 1.950079e+002
4.074679e+002, 1.951643e+002
4.079500e+002, 1.953838e+002
4.084321e+002, 1.958384e+002
4.089142e+002, 1.966792e+002
4.093964e+002, 1.977478e+002
4.098785e+002, 1.983200e+002
4.103606e+002, 1.977460e+002
4.108427e+002, 1.975018e+002
4.113248e+002, 1.981046e+002
4.118069e+002, 1.988685e+002
4.122891e+002, 1.990512e+002
4.127712e+002, 1.984994e+002
4.132533e+002, 1.977310e+002
4.137354e+002, 1.974965e+002
4.142175e+002, 1.980227e+002
4.146996e+002, 1.981635e+002
4.151818e+002, 1.975475e+002
4.156639e+002, 1.968811e+002
4.161460e+002, 1.964187e+002
4.166281e+002, 1.961261e+002
4.171102e+002, 1.958627e+002
4.175923e+002, 1.955191e+002
4.180745e+002, 1.951538e+002
4.185566e+002, 1.949472e+002
4.190387e+002, 1.948725e+002
4.195208e+002, 1.950314e+002
4.200029e+002, 1.956690e+002
4.204850e+002, 1.964231e+002
4.209672e+002, 1.969740e+002
4.214493e+002, 1.972455e+002
4.219314e+002, 1.973363e+002
4.224135e+002, 1.971948e+002
4.228956e+002, 1.968499e+002
4.233777e+002, 1.969117e+002
4.238599e+002, 1.976291e+002
4.243420e+002, 1.985702e+002
4.248241e+002, 1.994410e+002
4.253062e+002, 2.002504e+002
4.257883e+002, 2.010336e+002
4.262704e+002, 2.015820e+002
4.267526e+002, 2.022167e+002
4.272347e+002, 2.035515e+002
4.277168e+002, 2.056417e+002
4.281989e+002, 2.076725e+002
4.286810e+002, 2.093561e+002
4.291631e+002, 2.105931e+002
4.296453e+002, 2.113024e+002
4.301274e+002, 2.113908e+002
4.306095e+002, 2.111619e+002
4.310916e+002, 2.107648e+002
4.315737e+002, 2.101563e+002
4.320558e+002, 2.092606e+002
4.325380e+002, 2.080689e+002
4.330201e+002, 2.065320e+002
4.335022e+002, 2.045024e+002
4.339843e+002, 2.018958e+002
4.344664e+002, 1.994471e+002
4.349485e+002, 1.970708e+002
4.354307e+002, 1.949493e+002
4.359128e+002, 1.933402e+002
4.363949e+002, 1.921264e+002
4.368770e+002, 1.909293e+002
4.373591e+002, 1.895357e+002
4.378412e+002, 1.879833e+002
4.383234e+002, 1.864387e+002
4.388055e+002, 1.847537e+002
4.392876e+002, 1.832678e+002
4.397697e+002, 1.821465e+002
4.402518e+002, 1.811600e+002
4.407339e+002, 1.801194e+002
4.412160e+002, 1.789826e+002
4.416982e+002, 1.777717e+002
4.421803e+002, 1.764633e+002
4.426624e+002, 1.749718e+002
4.431445e+002, 1.739930e+002
4.436266e+002, 1.741536e+002
4.441087e+002, 1.741856e+002
4.445909e+002, 1.735799e+002
4.450730e+002, 1.726093e+002
4.455551e+002, 1.717428e+002
4.460372e+002, 1.712276e+002
4.465193e+002, 1.709391e+002
4.470014e+002, 1.706072e+002
4.474836e+002, 1.702101e+002
4.479657e+002, 1.698361e+002
4.484478e+002, 1.696072e+002
4.489299e+002, 1.693260e+002
4.494120e+002, 1.688560e+002
4.498941e+002, 1.681948e+002
4.503763e+002, 1.674394e+002
4.508584e+002, 1.664770e+002
4.513405e+002, 1.654439e+002
4.518226e+002, 1.650406e+002
4.523047e+002, 1.655132e+002
4.527868e+002, 1.660324e+002
4.532690e+002, 1.661878e+002
4.537511e+002, 1.660600e+002
4.542332e+002, 1.656818e+002
4.547153e+002, 1.649278e+002
4.551974e+002, 1.641836e+002
4.556795e+002, 1.637316e+002
4.561617e+002, 1.635525e+002
4.566438e+002, 1.636086e+002
4.571259e+002, 1.639816e+002
4.576080e+002, 1.643909e+002
4.580901e+002, 1.644293e+002
4.585722e+002, 1.641075e+002
4.590544e+002, 1.637934e+002
4.595365e+002, 1.635592e+002
4.600186e+002, 1.633560e+002
4.605007e+002, 1.631258e+002
4.609828e+002, 1.628794e+002
4.614649e+002, 1.626851e+002
4.619471e+002, 1.625851e+002
4.624292e+002, 1.625683e+002
4.629113e+002, 1.625874e+002
4.633934e+002, 1.629042e+002
4.638755e+002, 1.629152e+002
4.643576e+002, 1.621926e+002
4.648398e+002, 1.613248e+002
4.653219e+002, 1.610002e+002
4.658040e+002, 1.613035e+002
4.662861e+002, 1.617195e+002
4.667682e+002, 1.616628e+002
4.672503e+002, 1.610640e+002
4.677325e+002, 1.606517e+002
4.682146e+002, 1.605896e+002
4.686967e+002, 1.605414e+002
4.691788e+002, 1.602829e+002
4.696609e+002, 1.600197e+002
4.701430e+002, 1.601351e+002
4.706252e+002, 1.608145e+002
4.711073e+002, 1.616775e+002
4.715894e+002, 1.619894e+002
4.720715e+002, 1.615838e+002
4.725536e+002, 1.613656e+002
4.730357e+002, 1.617493e+002
4.735179e+002, 1.621093e+002
4.740000e+002, 1.620452e+002
4.744821e+002, 1.616214e+002
4.749642e+002, 1.611761e+002
4.754463e+002, 1.609217e+002
4.759284e+002, 1.607782e+002
4.764106e+002, 1.605467e+002
4.768927e+002, 1.602038e+002
4.773748e+002, 1.599253e+002
4.778569e+002, 1.598007e+002
4.783390e+002, 1.597916e+002
4.788211e+002, 1.598226e+002
4.793033e+002, 1.598812e+002
4.797854e+002, 1.600132e+002
4.802675e+002, 1.603838e+002
4.807496e+002, 1.608069e+002
4.812317e+002, 1.609011e+002
4.817138e+002, 1.605892e+002
4.821959e+002, 1.601619e+002
4.826780e+002, 1.598269e+002
4.831602e+002, 1.595987e+002
4.836423e+002, 1.595792e+002
4.841244e+002, 1.600889e+002
4.846065e+002, 1.604472e+002
4.850886e+002, 1.602722e+002
4.855707e+002, 1.597798e+002
4.860529e+002, 1.593187e+002
4.865350e+002, 1.590197e+002
4.870171e+002, 1.588788e+002
4.874992e+002, 1.589107e+002
4.879813e+002, 1.592267e+002
4.884634e+002, 1.594103e+002
4.889456e+002, 1.594231e+002
4.894277e+002, 1.593649e+002
4.899098e+002, 1.592774e+002
4.903919e+002, 1.591586e+002
4.908740e+002, 1.589629e+002
4.913561e+002, 1.586382e+002
4.918383e+002, 1.582917e+002
4.923204e+002, 1.582480e+002
4.928025e+002, 1.586241e+002
4.932846e+002, 1.589800e+002
4.937667e+002, 1.593470e+002
4.942488e+002, 1.595708e+002
4.947310e+002, 1.594267e+002
4.952131e+002, 1.589586e+002
4.956952e+002, 1.585801e+002
4.961773e+002, 1.586687e+002
4.966594e+002, 1.590577e+002
4.971415e+002, 1.593238e+002
4.976237e+002, 1.594698e+002
4.981058e+002, 1.594248e+002
4.985879e+002, 1.589886e+002
4.990700e+002, 1.583925e+002
4.995521e+002, 1.580852e+002
5.000342e+002, 1.581652e+002
5.005164e+002, 1.583446e+002
5.009985e+002, 1.584413e+002
5.014806e+002, 1.585514e+002
5.019627e+002, 1.589716e+002
5.024448e+002, 1.597685e+002
5.029269e+002, 1.603820e+002
5.034091e+002, 1.601684e+002
5.038912e+002, 1.590874e+002
5.043733e+002, 1.586572e+002
5.048554e+002, 1.593230e+002
5.053375e+002, 1.600619e+002
5.058196e+002, 1.605484e+002
5.063018e+002, 1.608638e+002
5.067839e+002, 1.611715e+002
5.072660e+002, 1.615270e+002
5.077481e+002, 1.618193e+002
5.082302e+002, 1.617874e+002
5.087123e+002, 1.611479e+002
5.091945e+002, 1.612133e+002
5.096766e+002, 1.627423e+002
5.101587e+002, 1.642187e+002
5.106408e+002, 1.650024e+002
5.111229e+002, 1.653224e+002
5.116050e+002, 1.656894e+002
5.120872e+002, 1.663697e+002
5.125693e+002, 1.671799e+002
5.130514e+002, 1.677880e+002
5.135335e+002, 1.681744e+002
5.140156e+002, 1.685134e+002
5.144977e+002, 1.686990e+002
5.149799e+002, 1.690054e+002
5.154620e+002, 1.697311e+002
5.159441e+002, 1.708104e+002
5.164262e+002, 1.718018e+002
5.169083e+002, 1.724865e+002
5.173904e+002, 1.730058e+002
5.178726e+002, 1.734922e+002
5.183547e+002, 1.739572e+002
5.188368e+002, 1.745036e+002
5.193189e+002, 1.751871e+002
5.198010e+002, 1.759732e+002
5.202831e+002, 1.768296e+002
5.207653e+002, 1.779223e+002
5.212474e+002, 1.786214e+002
5.217295e+002, 1.785044e+002
5.222116e+002, 1.781698e+002
5.226937e+002, 1.782114e+002
5.231758e+002, 1.785918e+002
5.236580e+002, 1.788132e+002
5.241401e+002, 1.784810e+002
5.246222e+002, 1.777429e+002
5.251043e+002, 1.773795e+002
5.255864e+002, 1.780455e+002
5.260685e+002, 1.781364e+002
5.265507e+002, 1.770651e+002
5.270328e+002, 1.757088e+002
5.275149e+002, 1.748520e+002
5.279970e+002, 1.745301e+002
5.284791e+002, 1.741608e+002
5.289612e+002, 1.731239e+002
5.294434e+002, 1.715790e+002
5.299255e+002, 1.705621e+002
5.304076e+002, 1.703622e+002
5.308897e+002, 1.700263e+002
5.313718e+002, 1.689653e+002
5.318539e+002, 1.676460e+002
5.323361e+002, 1.665408e+002
5.328182e+002, 1.657484e+002
5.333003e+002, 1.649743e+002
5.337824e+002, 1.640156e+002
5.342645e+002, 1.629377e+002
5.347466e+002, 1.617778e+002
5.352288e+002, 1.605145e+002
5.357109e+002, 1.595394e+002
5.361930e+002, 1.592493e+002
5.366751e+002, 1.595200e+002
5.371572e+002, 1.595317e+002
5.376393e+002, 1.591710e+002
5.381215e+002, 1.587163e+002
5.386036e+002, 1.581612e+002
5.390857e+002, 1.575921e+002
5.395678e+002, 1.571658e+002
5.400499e+002, 1.568909e+002
5.405320e+002, 1.565539e+002
5.410142e+002, 1.558894e+002
5.414963e+002, 1.548776e+002
5.419784e+002, 1.542071e+002
5.424604e+002, 1.541079e+002
5.429426e+002, 1.541026e+002
5.434247e+002, 1.542610e+002
5.439068e+002, 1.543847e+002
5.443889e+002, 1.541942e+002
5.448710e+002, 1.536319e+002
5.453531e+002, 1.530218e+002
5.458353e+002, 1.527308e+002
5.463174e+002, 1.527336e+002
5.467995e+002, 1.527763e+002
5.472816e+002, 1.529211e+002
5.477637e+002, 1.529446e+002
5.482458e+002, 1.526145e+002
5.487280e+002, 1.520893e+002
5.492101e+002, 1.515674e+002
5.496922e+002, 1.509530e+002
5.501743e+002, 1.506259e+002
5.506564e+002, 1.511226e+002
5.511385e+002, 1.520255e+002
5.516207e+002, 1.523918e+002
5.521028e+002, 1.520156e+002
5.525849e+002, 1.514960e+002
5.530670e+002, 1.514209e+002
5.535491e+002, 1.517927e+002
5.540313e+002, 1.518478e+002
5.545134e+002, 1.511587e+002
5.549955e+002, 1.507143e+002
5.554776e+002, 1.510463e+002
5.559597e+002, 1.516541e+002
5.564418e+002, 1.519152e+002
5.569240e+002, 1.516742e+002
5.574061e+002, 1.511968e+002
5.578882e+002, 1.507439e+002
5.583703e+002, 1.503123e+002
5.588524e+002, 1.500328e+002
5.593345e+002, 1.498906e+002
5.598167e+002, 1.499405e+002
5.602988e+002, 1.503466e+002
5.607809e+002, 1.508617e+002
5.612630e+002, 1.512083e+002
5.617451e+002, 1.513169e+002
5.622272e+002, 1.512347e+002
5.627094e+002, 1.508758e+002
5.631915e+002, 1.503506e+002
5.636736e+002, 1.500644e+002
5.641557e+002, 1.501018e+002
5.646378e+002, 1.501699e+002
5.651199e+002, 1.499965e+002
5.656021e+002, 1.496882e+002
5.660842e+002, 1.496996e+002
5.665663e+002, 1.503959e+002
5.670484e+002, 1.508925e+002
5.675305e+002, 1.507153e+002
5.680126e+002, 1.502562e+002
5.684948e+002, 1.499787e+002
5.689769e+002, 1.499744e+002
5.694590e+002, 1.501307e+002
5.699411e+002, 1.503786e+002
5.704232e+002, 1.507027e+002
5.709053e+002, 1.507713e+002
5.713875e+002, 1.503138e+002
5.718696e+002, 1.499592e+002
5.723517e+002, 1.498246e+002
5.728338e+002, 1.498168e+002
5.733159e+002, 1.497854e+002
5.737980e+002, 1.497378e+002
5.742802e+002, 1.499104e+002
5.747623e+002, 1.507848e+002
5.752444e+002, 1.520857e+002
5.757265e+002, 1.525546e+002
5.762086e+002, 1.519944e+002
5.766907e+002, 1.514238e+002
5.771729e+002, 1.513094e+002
5.776550e+002, 1.514810e+002
5.781371e+002, 1.516419e+002
5.786192e+002, 1.517703e+002
5.791013e+002, 1.519651e+002
5.795834e+002, 1.521850e+002
5.800656e+002, 1.525374e+002
5.805477e+002, 1.532721e+002
5.810298e+002, 1.543238e+002
5.815119e+002, 1.552394e+002
5.819940e+002, 1.557114e+002
5.824761e+002, 1.558747e+002
5.829583e+002, 1.561785e+002
5.834404e+002, 1.563947e+002
5.839225e+002, 1.571387e+002
5.844046e+002, 1.589227e+002
5.848867e+002, 1.607849e+002
5.853688e+002, 1.620013e+002
5.858510e+002, 1.627053e+002
5.863331e+002, 1.635153e+002
5.868152e+002, 1.648401e+002
5.872973e+002, 1.664674e+002
5.877794e+002, 1.679292e+002
5.882615e+002, 1.692234e+002
5.887437e+002, 1.703639e+002
5.892258e+002, 1.712695e+002
5.897079e+002, 1.721185e+002
5.901900e+002, 1.729993e+002
5.906721e+002, 1.739348e+002
5.911542e+002, 1.750856e+002
5.916364e+002, 1.767422e+002
5.921185e+002, 1.784265e+002
5.926006e+002, 1.797756e+002
5.930827e+002, 1.808056e+002
5.935648e+002, 1.816335e+002
5.940469e+002, 1.823121e+002
5.945291e+002, 1.826584e+002
5.950112e+002, 1.823860e+002
5.954933e+002, 1.813730e+002
5.959754e+002, 1.802750e+002
5.964575e+002, 1.793173e+002
5.969396e+002, 1.780453e+002
5.974218e+002, 1.762185e+002
5.979039e+002, 1.740019e+002
5.983860e+002, 1.715387e+002
5.988681e+002, 1.688896e+002
5.993502e+002, 1.663050e+002
5.998323e+002, 1.640511e+002
6.003145e+002, 1.621164e+002
6.007966e+002, 1.604418e+002
6.012787e+002, 1.590366e+002
6.017608e+002, 1.578781e+002
6.022429e+002, 1.571304e+002
6.027250e+002, 1.565734e+002
6.032072e+002, 1.558689e+002
6.036893e+002, 1.548897e+002
6.041714e+002, 1.540107e+002
6.046535e+002, 1.533782e+002
6.051356e+002, 1.529754e+002
6.056177e+002, 1.527861e+002
6.060999e+002, 1.528056e+002
6.065820e+002, 1.530960e+002
6.070641e+002, 1.538012e+002
6.075462e+002, 1.547075e+002
6.080283e+002, 1.548267e+002
6.085104e+002, 1.531501e+002
6.089926e+002, 1.521232e+002
6.094747e+002, 1.519272e+002
6.099568e+002, 1.523130e+002
6.104389e+002, 1.535384e+002
6.109210e+002, 1.552380e+002
6.114031e+002, 1.563804e+002
6.118853e+002, 1.561729e+002
6.123674e+002, 1.552472e+002
6.128495e+002, 1.549157e+002
6.133316e+002, 1.552191e+002
6.138137e+002, 1.556481e+002
6.142958e+002, 1.561676e+002
6.147780e+002, 1.566594e+002
6.152601e+002, 1.569211e+002
6.157422e+002, 1.570111e+002
6.162243e+002, 1.573138e+002
6.167064e+002, 1.581831e+002
6.171885e+002, 1.590140e+002
6.176707e+002, 1.593134e+002
6.181528e+002, 1.593113e+002
6.186349e+002, 1.594815e+002
6.191170e+002, 1.599646e+002
6.195991e+002, 1.605986e+002
6.200812e+002, 1.612242e+002
6.205634e+002, 1.618584e+002
6.210455e+002, 1.622483e+002
6.215276e+002, 1.620567e+002
6.220097e+002, 1.620335e+002
6.224918e+002, 1.626525e+002
6.229739e+002, 1.633314e+002
6.234561e+002, 1.634255e+002
6.239382e+002, 1.628320e+002
6.244203e+002, 1.620091e+002
6.249023e+002, 1.612321e+002
6.253845e+002, 1.605239e+002
6.258666e+002, 1.599782e+002
6.263487e+002, 1.596087e+002
6.268308e+002, 1.592295e+002
6.273129e+002, 1.586625e+002
6.277950e+002, 1.581231e+002
6.282772e+002, 1.581668e+002
6.287593e+002, 1.590152e+002
6.292414e+002, 1.593144e+002
6.297235e+002, 1.581221e+002
6.302056e+002, 1.569819e+002
6.306877e+002, 1.571192e+002
6.311699e+002, 1.581729e+002
6.316520e+002, 1.591582e+002
6.321341e+002, 1.596203e+002
6.326162e+002, 1.597878e+002
6.330983e+002, 1.599972e+002
6.335804e+002, 1.602213e+002
6.340626e+002, 1.606420e+002
6.345447e+002, 1.613500e+002
6.350268e+002, 1.621458e+002
6.355089e+002, 1.630102e+002
6.359910e+002, 1.638743e+002
6.364731e+002, 1.646338e+002
6.369553e+002, 1.652552e+002
6.374374e+002, 1.657976e+002
6.379195e+002, 1.663171e+002
6.384016e+002, 1.667770e+002
6.388837e+002, 1.671254e+002
6.393658e+002, 1.673520e+002
6.398480e+002, 1.674199e+002
6.403301e+002, 1.672783e+002
6.408122e+002, 1.669902e+002
6.412943e+002, 1.667712e+002
6.417764e+002, 1.669288e+002
6.422585e+002, 1.666804e+002
6.427407e+002, 1.657141e+002
6.432228e+002, 1.646218e+002
6.437049e+002, 1.638471e+002
6.441870e+002, 1.632604e+002
6.446691e+002, 1.624311e+002
6.451512e+002, 1.611150e+002
6.456334e+002, 1.595678e+002
6.461155e+002, 1.581953e+002
6.465976e+002, 1.569966e+002
6.470797e+002, 1.557835e+002
6.475618e+002, 1.545105e+002
6.480439e+002, 1.532699e+002
6.485261e+002, 1.521538e+002
6.490082e+002, 1.511290e+002
6.494903e+002, 1.501238e+002
6.499724e+002, 1.491321e+002
6.504545e+002, 1.481617e+002
6.509366e+002, 1.471925e+002
6.514188e+002, 1.462620e+002
6.519009e+002, 1.453976e+002
6.523830e+002, 1.446166e+002
6.528651e+002, 1.439872e+002
6.533472e+002, 1.435849e+002
6.538293e+002, 1.433198e+002
6.543115e+002, 1.428424e+002
6.547936e+002, 1.420661e+002
6.552757e+002, 1.412880e+002
6.557578e+002, 1.403209e+002
6.562399e+002, 1.395643e+002
6.567220e+002, 1.393781e+002
6.572042e+002, 1.396028e+002
6.576863e+002, 1.397482e+002
6.581684e+002, 1.396382e+002
6.586505e+002, 1.393688e+002
6.591326e+002, 1.389499e+002
6.596147e+002, 1.384468e+002
6.600969e+002, 1.380453e+002
6.605790e+002, 1.377881e+002
6.610611e+002, 1.375842e+002
6.615432e+002, 1.373611e+002
6.620253e+002, 1.371189e+002
6.625074e+002, 1.368587e+002
6.629896e+002, 1.364897e+002
6.634717e+002, 1.362269e+002
6.639538e+002, 1.361609e+002
6.644359e+002, 1.361526e+002
6.649180e+002, 1.361022e+002
6.654001e+002, 1.360043e+002
6.658823e+002, 1.358963e+002
6.663644e+002, 1.357946e+002
6.668465e+002, 1.357056e+002
6.673286e+002, 1.356858e+002
6.678107e+002, 1.357288e+002
6.682928e+002, 1.355581e+002
6.687750e+002, 1.350004e+002
6.692571e+002, 1.344913e+002
6.697392e+002, 1.345474e+002
6.702213e+002, 1.350891e+002
6.707034e+002, 1.352798e+002
6.711855e+002, 1.346870e+002
6.716677e+002, 1.342569e+002
6.721498e+002, 1.344526e+002
6.726319e+002, 1.348648e+002
6.731140e+002, 1.350854e+002
6.735961e+002, 1.350467e+002
6.740782e+002, 1.348433e+002
6.745604e+002, 1.345156e+002
6.750425e+002, 1.341283e+002
6.755246e+002, 1.339070e+002
6.760067e+002, 1.338923e+002
6.764888e+002, 1.338684e+002
6.769709e+002, 1.338049e+002
6.774531e+002, 1.337082e+002
6.779352e+002, 1.335397e+002
6.784173e+002, 1.333378e+002
6.788994e+002, 1.332474e+002
6.793815e+002, 1.334020e+002
6.798636e+002, 1.335479e+002
6.803458e+002, 1.335547e+002
6.808279e+002, 1.334496e+002
6.813100e+002, 1.332258e+002
6.817921e+002, 1.329077e+002
6.822742e+002, 1.326394e+002
6.827563e+002, 1.325487e+002
6.832385e+002, 1.325950e+002
6.837206e+002, 1.325807e+002
6.842027e+002, 1.324913e+002
6.846848e+002, 1.323711e+002
6.851669e+002, 1.320186e+002
6.856490e+002, 1.318212e+002
6.861312e+002, 1.321772e+002
6.866133e+002, 1.328863e+002
6.870954e+002, 1.333456e+002
6.875775e+002, 1.332751e+002
6.880596e+002, 1.329778e+002
6.885417e+002, 1.325972e+002
6.890239e+002, 1.322151e+002
6.895060e+002, 1.320918e+002
6.899881e+002, 1.322647e+002
6.904702e+002, 1.323734e+002
6.909523e+002, 1.320893e+002
6.914344e+002, 1.315402e+002
6.919166e+002, 1.313833e+002
6.923987e+002, 1.320958e+002
6.928808e+002, 1.324356e+002
6.933629e+002, 1.320701e+002
6.938450e+002, 1.315913e+002
6.943271e+002, 1.313016e+002
6.948093e+002, 1.311993e+002
6.952914e+002, 1.312042e+002
6.957735e+002, 1.313010e+002
6.962556e+002, 1.314269e+002
6.967377e+002, 1.315090e+002
6.972198e+002, 1.315611e+002
6.977020e+002, 1.316739e+002
6.981841e+002, 1.318721e+002
6.986662e+002, 1.319328e+002
6.991483e+002, 1.316431e+002
6.996304e+002, 1.311302e+002
7.001125e+002, 1.308857e+002
7.005947e+002, 1.311950e+002
7.010768e+002, 1.313410e+002
7.015589e+002, 1.312368e+002
7.020410e+002, 1.310420e+002
7.025231e+002, 1.307506e+002
7.030052e+002, 1.304636e+002
7.034874e+002, 1.303726e+002
7.039695e+002, 1.305712e+002
7.044516e+002, 1.308911e+002
7.049337e+002, 1.312025e+002
7.054158e+002, 1.314708e+002
7.058979e+002, 1.315033e+002
7.063801e+002, 1.312616e+002
7.068622e+002, 1.308935e+002
7.073442e+002, 1.303684e+002
7.078264e+002, 1.298576e+002
7.083085e+002, 1.298534e+002
7.087906e+002, 1.306541e+002
7.092727e+002, 1.311662e+002
7.097548e+002, 1.311757e+002
7.102369e+002, 1.310166e+002
7.107191e+002, 1.308657e+002
7.112012e+002, 1.306935e+002
7.116833e+002, 1.303242e+002
7.121654e+002, 1.297048e+002
7.126475e+002, 1.292424e+002
7.131296e+002, 1.295722e+002
7.136118e+002, 1.305155e+002
7.140939e+002, 1.311030e+002
7.145760e+002, 1.312952e+002
7.150581e+002, 1.311689e+002
7.155402e+002, 1.305965e+002
7.160223e+002, 1.298895e+002
7.165045e+002, 1.296098e+002
7.169866e+002, 1.298304e+002
7.174687e+002, 1.299861e+002
7.179508e+002, 1.299548e+002
7.184329e+002, 1.299298e+002
7.189150e+002, 1.301129e+002
7.193972e+002, 1.303189e+002
7.198793e+002, 1.302062e+002
7.203614e+002, 1.297264e+002
7.208435e+002, 1.292538e+002
7.213256e+002, 1.291862e+002
7.218077e+002, 1.294146e+002
7.222899e+002, 1.295148e+002
7.227720e+002, 1.294767e+002
7.232541e+002, 1.293805e+002
7.237362e+002, 1.291945e+002
7.242183e+002, 1.290480e+002
7.247004e+002, 1.291917e+002
7.251826e+002, 1.296147e+002
7.256647e+002, 1.296817e+002
7.261468e+002, 1.289218e+002
7.266289e+002, 1.283266e+002
7.271110e+002, 1.283270e+002
7.275931e+002, 1.286367e+002
7.280753e+002, 1.290099e+002
7.285574e+002, 1.293604e+002
7.290395e+002, 1.296087e+002
7.295216e+002, 1.296796e+002
7.300037e+002, 1.296416e+002
7.304858e+002, 1.296399e+002
7.309680e+002, 1.296745e+002
7.314501e+002, 1.297884e+002
7.319322e+002, 1.301051e+002
7.324143e+002, 1.302142e+002
7.328964e+002, 1.295318e+002
7.333785e+002, 1.283183e+002
7.338607e+002, 1.279363e+002
7.343428e+002, 1.291756e+002
7.348249e+002, 1.300192e+002
7.353070e+002, 1.298833e+002
7.357891e+002, 1.293398e+002
7.362712e+002, 1.286482e+002
7.367534e+002, 1.279790e+002
7.372355e+002, 1.276333e+002
7.377176e+002, 1.277807e+002
7.381997e+002, 1.280869e+002
7.386818e+002, 1.279526e+002
7.391639e+002, 1.274569e+002
7.396461e+002, 1.274815e+002
7.401282e+002, 1.282510e+002
7.406103e+002, 1.288027e+002
7.410924e+002, 1.284565e+002
7.415745e+002, 1.276540e+002
7.420566e+002, 1.274148e+002
7.425388e+002, 1.279398e+002
7.430209e+002, 1.282792e+002
7.435030e+002, 1.282564e+002
7.439851e+002, 1.281355e+002
7.444672e+002, 1.280109e+002
7.449493e+002, 1.278975e+002
7.454315e+002, 1.277853e+002
7.459136e+002, 1.276777e+002
7.463957e+002, 1.276242e+002
7.468778e+002, 1.277117e+002
7.473599e+002, 1.278844e+002
7.478420e+002, 1.279518e+002
7.483242e+002, 1.279104e+002
7.488063e+002, 1.279238e+002
7.492884e+002, 1.280807e+002
7.497705e+002, 1.282248e+002
7.502526e+002, 1.281431e+002
7.507347e+002, 1.278163e+002
7.512169e+002, 1.276350e+002
7.516990e+002, 1.277129e+002
7.521811e+002, 1.277755e+002
7.526632e+002, 1.278686e+002
7.531453e+002, 1.278448e+002
7.536274e+002, 1.273967e+002
7.541096e+002, 1.266719e+002
7.545917e+002, 1.262765e+002
7.550738e+002, 1.266487e+002
7.555559e+002, 1.273076e+002
7.560380e+002, 1.275958e+002
7.565201e+002, 1.275844e+002
7.570023e+002, 1.275867e+002
7.574844e+002, 1.276581e+002
7.579665e+002, 1.276543e+002
7.584486e+002, 1.274301e+002
7.589307e+002, 1.270951e+002
7.594128e+002, 1.270249e+002
7.598950e+002, 1.274564e+002
7.603771e+002, 1.277224e+002
7.608592e+002, 1.278153e+002
7.613413e+002, 1.277616e+002
7.618234e+002, 1.274506e+002
7.623055e+002, 1.270450e+002
7.627877e+002, 1.267934e+002
7.632698e+002, 1.267677e+002
7.637519e+002, 1.268239e+002
7.642340e+002, 1.268418e+002
7.647161e+002, 1.268817e+002
7.651982e+002, 1.271072e+002
7.656804e+002, 1.274707e+002
7.661625e+002, 1.277060e+002
7.666446e+002, 1.277145e+002
7.671267e+002, 1.275134e+002
7.676088e+002, 1.270754e+002
7.680909e+002, 1.263761e+002
7.685731e+002, 1.260124e+002
7.690552e+002, 1.262012e+002
7.695373e+002, 1.263713e+002
7.700194e+002, 1.263441e+002
7.705015e+002, 1.262941e+002
7.709836e+002, 1.264504e+002
7.714658e+002, 1.267378e+002
7.719479e+002, 1.267476e+002
7.724300e+002, 1.260921e+002
7.729121e+002, 1.254486e+002
7.733942e+002, 1.253346e+002
7.738763e+002, 1.255188e+002
7.743585e+002, 1.256632e+002
7.748406e+002, 1.257190e+002
7.753227e+002, 1.257854e+002
7.758048e+002, 1.259352e+002
7.762869e+002, 1.261049e+002
7.767690e+002, 1.261279e+002
7.772512e+002, 1.259778e+002
7.777333e+002, 1.258614e+002
7.782154e+002, 1.257915e+002
7.786975e+002, 1.257595e+002
7.791796e+002, 1.258228e+002
7.796617e+002, 1.258943e+002
7.801439e+002, 1.257757e+002
7.806260e+002, 1.253740e+002
7.811081e+002, 1.252132e+002
7.815902e+002, 1.257990e+002
7.820723e+002, 1.262837e+002
7.825544e+002, 1.259084e+002
7.830366e+002, 1.251302e+002
7.835187e+002, 1.247980e+002
7.840008e+002, 1.250928e+002
7.844829e+002, 1.254479e+002
7.849650e+002, 1.252876e+002
7.854471e+002, 1.248226e+002
7.859293e+002, 1.247152e+002
7.864114e+002, 1.249711e+002
7.868935e+002, 1.252274e+002
7.873756e+002, 1.254181e+002
7.878577e+002, 1.255138e+002
7.883398e+002, 1.254663e+002
7.888220e+002, 1.252928e+002
7.893040e+002, 1.251381e+002
7.897861e+002, 1.249643e+002
7.902682e+002, 1.248639e+002
7.907504e+002, 1.248098e+002
7.912325e+002, 1.248638e+002
7.917146e+002, 1.251525e+002
7.921967e+002, 1.255632e+002
7.926788e+002, 1.258780e+002
7.931609e+002, 1.260188e+002
7.936431e+002, 1.260432e+002
7.941252e+002, 1.259663e+002
7.946073e+002, 1.258210e+002
7.950894e+002, 1.256626e+002
7.955715e+002, 1.254941e+002
7.960536e+002, 1.253128e+002
7.965358e+002, 1.251149e+002
7.970179e+002, 1.249157e+002
7.975000e+002, 1.247247e+002
7.979821e+002, 1.245359e+002
7.984642e+002, 1.244806e+002
7.989464e+002, 1.246559e+002
7.994285e+002, 1.247876e+002
7.999106e+002, 1.246938e+002
8.003927e+002, 1.246240e+002
8.008748e+002, 1.248762e+002
8.013569e+002, 1.253525e+002
8.018391e+002, 1.255533e+002
8.023212e+002, 1.251649e+002
8.028033e+002, 1.247465e+002
8.032854e+002, 1.245658e+002
8.037675e+002, 1.245303e+002
8.042496e+002, 1.245523e+002
8.047318e+002, 1.246134e+002
8.052139e+002, 1.247273e+002
8.056960e+002, 1.249061e+002
8.061781e+002, 1.250733e+002
8.066602e+002, 1.250902e+002
8.071423e+002, 1.249682e+002
8.076245e+002, 1.248529e+002
8.081066e+002, 1.247427e+002
8.085887e+002, 1.246881e+002
8.090708e+002, 1.247632e+002
8.095529e+002, 1.248315e+002
8.100350e+002, 1.246304e+002
8.105172e+002, 1.240701e+002
8.109993e+002, 1.238571e+002
8.114814e+002, 1.244233e+002
8.119635e+002, 1.247827e+002
8.124456e+002, 1.244909e+002
8.129277e+002, 1.240000e+002
8.134099e+002, 1.236968e+002
8.138920e+002, 1.236168e+002
8.143741e+002, 1.236460e+002
8.148562e+002, 1.237521e+002
8.153383e+002, 1.238933e+002
8.158204e+002, 1.240132e+002
8.163026e+002, 1.241375e+002
8.167847e+002, 1.243983e+002
8.172668e+002, 1.247713e+002
8.177489e+002, 1.249188e+002
8.182310e+002, 1.246248e+002
8.187131e+002, 1.241293e+002
8.191953e+002, 1.238922e+002
8.196774e+002, 1.239427e+002
8.201595e+002, 1.240891e+002
8.206416e+002, 1.244703e+002
8.211237e+002, 1.246818e+002
8.216058e+002, 1.244086e+002
8.220880e+002, 1.240044e+002
8.225701e+002, 1.238897e+002
8.230522e+002, 1.240563e+002
8.235343e+002, 1.241355e+002
8.240164e+002, 1.239872e+002
8.244985e+002, 1.238186e+002
8.249807e+002, 1.237177e+002
8.254628e+002, 1.236453e+002
8.259449e+002, 1.235350e+002
8.264270e+002, 1.234043e+002
8.269091e+002, 1.233580e+002
8.273912e+002, 1.234753e+002
8.278734e+002, 1.236049e+002
8.283555e+002, 1.234712e+002
8.288376e+002, 1.231586e+002
8.293197e+002, 1.230325e+002
8.298018e+002, 1.231261e+002
8.302839e+002, 1.232880e+002
8.307661e+002, 1.234638e+002
8.312482e+002, 1.236090e+002
8.317303e+002, 1.236516e+002
8.322124e+002, 1.235861e+002
8.326945e+002, 1.234515e+002
8.331766e+002, 1.230949e+002
8.336588e+002, 1.228943e+002
8.341409e+002, 1.230007e+002
8.346230e+002, 1.232321e+002
8.351051e+002, 1.234617e+002
8.355872e+002, 1.236830e+002
8.360693e+002, 1.239329e+002
8.365515e+002, 1.243640e+002
8.370336e+002, 1.246003e+002
8.375157e+002, 1.242568e+002
8.379978e+002, 1.237291e+002
8.384799e+002, 1.234903e+002
8.389620e+002, 1.235099e+002
8.394442e+002, 1.234853e+002
8.399263e+002, 1.232734e+002
8.404084e+002, 1.230724e+002
8.408905e+002, 1.232656e+002
8.413726e+002, 1.237397e+002
8.418547e+002, 1.237074e+002
8.423369e+002, 1.231072e+002
8.428190e+002, 1.228712e+002
8.433011e+002, 1.234243e+002
8.437832e+002, 1.242161e+002
8.442653e+002, 1.246343e+002
8.447474e+002, 1.246858e+002
8.452296e+002, 1.246255e+002
8.457117e+002, 1.243049e+002
8.461938e+002, 1.240900e+002
8.466759e+002, 1.242347e+002
8.471580e+002, 1.242796e+002
8.476401e+002, 1.237060e+002
8.481223e+002, 1.228508e+002
8.486044e+002, 1.224949e+002
8.490865e+002, 1.228959e+002
8.495686e+002, 1.235350e+002
8.500507e+002, 1.245080e+002
8.505328e+002, 1.252843e+002
8.510150e+002, 1.250967e+002
8.514971e+002, 1.243116e+002
8.519792e+002, 1.238083e+002
8.524613e+002, 1.238567e+002
8.529434e+002, 1.241572e+002
8.534255e+002, 1.244755e+002
8.539077e+002, 1.247708e+002
8.543898e+002, 1.248827e+002
8.548719e+002, 1.248118e+002
8.553540e+002, 1.247978e+002
8.558361e+002, 1.249365e+002
8.563182e+002, 1.249000e+002
8.568004e+002, 1.243512e+002
8.572825e+002, 1.235088e+002
8.577646e+002, 1.230872e+002
8.582467e+002, 1.233281e+002
8.587288e+002, 1.234687e+002
8.592109e+002, 1.234066e+002
8.596931e+002, 1.233660e+002
8.601752e+002, 1.234960e+002
8.606573e+002, 1.236508e+002
8.611394e+002, 1.236082e+002
8.616215e+002, 1.233599e+002
8.621036e+002, 1.232107e+002
8.625858e+002, 1.234612e+002
8.630679e+002, 1.236588e+002
8.635500e+002, 1.234762e+002
8.640321e+002, 1.230587e+002
8.645142e+002, 1.225104e+002
8.649963e+002, 1.219222e+002
8.654785e+002, 1.215507e+002
8.659606e+002, 1.215653e+002
8.664427e+002, 1.216971e+002
8.669248e+002, 1.214344e+002
8.674069e+002, 1.208992e+002
8.678890e+002, 1.207794e+002
8.683712e+002, 1.211243e+002
8.688533e+002, 1.216176e+002
8.693354e+002, 1.222043e+002
8.698175e+002, 1.226125e+002
8.702996e+002, 1.224132e+002
8.707817e+002, 1.215984e+002
8.712639e+002, 1.210962e+002
8.717459e+002, 1.210273e+002
8.722280e+002, 1.210587e+002
8.727101e+002, 1.212679e+002
8.731923e+002, 1.214419e+002
8.736744e+002, 1.213468e+002
8.741565e+002, 1.211312e+002
8.746386e+002, 1.212138e+002
8.751207e+002, 1.218423e+002
8.756028e+002, 1.222092e+002
8.760850e+002, 1.218008e+002
8.765671e+002, 1.212531e+002
8.770492e+002, 1.210158e+002
8.775313e+002, 1.209809e+002
8.780134e+002, 1.208797e+002
8.784955e+002, 1.206713e+002
8.789777e+002, 1.205971e+002
8.794598e+002, 1.209780e+002
8.799419e+002, 1.214430e+002
8.804240e+002, 1.212676e+002
8.809061e+002, 1.206430e+002
8.813882e+002, 1.202906e+002
8.818704e+002, 1.203154e+002
8.823525e+002, 1.204092e+002
8.828346e+002, 1.203853e+002
8.833167e+002, 1.202785e+002
8.837988e+002, 1.201343e+002
8.842809e+002, 1.199249e+002
8.847631e+002, 1.198957e+002
8.852452e+002, 1.201074e+002
8.857273e+002, 1.203604e+002
8.862094e+002, 1.206764e+002
8.866915e+002, 1.209100e+002
8.871736e+002, 1.208202e+002
8.876558e+002, 1.204378e+002
8.881379e+002, 1.202477e+002
8.886200e+002, 1.205297e+002
8.891021e+002, 1.206281e+002
8.895842e+002, 1.201468e+002
8.900663e+002, 1.197140e+002
8.905485e+002, 1.199140e+002
8.910306e+002, 1.204499e+002
8.915127e+002, 1.206646e+002
8.919948e+002, 1.203683e+002
8.924769e+002, 1.200349e+002
8.929590e+002, 1.199057e+002
8.934412e+002, 1.199418e+002
8.939233e+002, 1.202310e+002
8.944054e+002, 1.206180e+002
8.948875e+002, 1.207766e+002
8.953696e+002, 1.206518e+002
8.958517e+002, 1.203999e+002
8.963339e+002, 1.201152e+002
8.968160e+002, 1.198520e+002
8.972981e+002, 1.197124e+002
8.977802e+002, 1.196950e+002
8.982623e+002, 1.198132e+002
8.987444e+002, 1.200810e+002
8.992266e+002, 1.203056e+002
8.997087e+002, 1.203680e+002
9.001908e+002, 1.204286e+002
9.006729e+002, 1.207603e+002
9.011550e+002, 1.213851e+002
9.016371e+002, 1.217743e+002
9.021193e+002, 1.219384e+002
9.026014e+002, 1.218413e+002
9.030835e+002, 1.211387e+002
9.035656e+002, 1.205032e+002
9.040477e+002, 1.204384e+002
9.045298e+002, 1.207844e+002
9.050120e+002, 1.211632e+002
9.054941e+002, 1.216211e+002
9.059762e+002, 1.218648e+002
9.064583e+002, 1.216301e+002
9.069404e+002, 1.213664e+002
9.074225e+002, 1.213965e+002
9.079047e+002, 1.215374e+002
9.083868e+002, 1.214564e+002
9.088689e+002, 1.211527e+002
9.093510e+002, 1.210059e+002
9.098331e+002, 1.213275e+002
9.103152e+002, 1.217606e+002
9.107974e+002, 1.219652e+002
9.112795e+002, 1.220125e+002
9.117616e+002, 1.219992e+002
9.122437e+002, 1.219554e+002
9.127258e+002, 1.219008e+002
9.132079e+002, 1.218440e+002
9.136901e+002, 1.219119e+002
9.141722e+002, 1.223951e+002
9.146543e+002, 1.231621e+002
9.151364e+002, 1.233819e+002
9.156185e+002, 1.230308e+002
9.161006e+002, 1.228143e+002
9.165828e+002, 1.229152e+002
9.170649e+002, 1.231666e+002
9.175470e+002, 1.234590e+002
9.180291e+002, 1.237696e+002
9.185112e+002, 1.240035e+002
9.189933e+002, 1.240761e+002
9.194755e+002, 1.243050e+002
9.199576e+002, 1.248700e+002
9.204397e+002, 1.253357e+002
9.209218e+002, 1.254031e+002
9.214039e+002, 1.253705e+002
9.218860e+002, 1.256100e+002
9.223682e+002, 1.261089e+002
9.228503e+002, 1.264381e+002
9.233324e+002, 1.263092e+002
9.238145e+002, 1.263148e+002
9.242966e+002, 1.268002e+002
9.247787e+002, 1.273208e+002
9.252609e+002, 1.274586e+002
9.257430e+002, 1.273703e+002
9.262251e+002, 1.274337e+002
9.267072e+002, 1.277616e+002
9.271893e+002, 1.281555e+002
9.276714e+002, 1.284131e+002
9.281536e+002, 1.287333e+002
9.286357e+002, 1.294970e+002
9.291178e+002, 1.304160e+002
9.295999e+002, 1.308179e+002
9.300820e+002, 1.307069e+002
9.305641e+002, 1.308019e+002
9.310463e+002, 1.316024e+002
9.315284e+002, 1.325981e+002
9.320105e+002, 1.328464e+002
9.324926e+002, 1.325858e+002
9.329747e+002, 1.329643e+002
9.334568e+002, 1.339840e+002
9.339390e+002, 1.345261e+002
9.344211e+002, 1.341340e+002
9.349032e+002, 1.335564e+002
9.353853e+002, 1.336253e+002
9.358674e+002, 1.342118e+002
9.363495e+002, 1.345582e+002
9.368317e+002, 1.346258e+002
9.373138e+002, 1.346195e+002
9.377959e+002, 1.345506e+002
9.382780e+002, 1.344385e+002
9.387601e+002, 1.343186e+002
9.392422e+002, 1.341364e+002
9.397244e+002, 1.337464e+002
9.402065e+002, 1.330663e+002
9.406886e+002, 1.326606e+002
9.411707e+002, 1.327144e+002
9.416528e+002, 1.327744e+002
9.421349e+002, 1.329304e+002
9.426171e+002, 1.329055e+002
9.430992e+002, 1.323137e+002
9.435813e+002, 1.314024e+002
9.440634e+002, 1.308423e+002
9.445455e+002, 1.308573e+002
9.450276e+002, 1.308599e+002
9.455098e+002, 1.306141e+002
9.459919e+002, 1.303188e+002
9.464740e+002, 1.300202e+002
9.469561e+002, 1.298043e+002
9.474382e+002, 1.298858e+002
9.479203e+002, 1.301938e+002
9.484025e+002, 1.302664e+002
9.488846e+002, 1.297406e+002
9.493667e+002, 1.291987e+002
9.498488e+002, 1.292812e+002
9.503309e+002, 1.296565e+002
9.508130e+002, 1.298882e+002
9.512952e+002, 1.299285e+002
9.517773e+002, 1.296962e+002
9.522594e+002, 1.292005e+002
9.527415e+002, 1.288363e+002
9.532236e+002, 1.290467e+002
9.537057e+002, 1.295739e+002
9.541878e+002, 1.296942e+002
9.546699e+002, 1.295132e+002
9.551520e+002, 1.298708e+002
9.556342e+002, 1.308832e+002
9.561163e+002, 1.315862e+002
9.565984e+002, 1.314221e+002
9.570805e+002, 1.309120e+002
9.575626e+002, 1.309025e+002
9.580447e+002, 1.313828e+002
9.585269e+002, 1.317076e+002
9.590090e+002, 1.318564e+002
9.594911e+002, 1.319015e+002
9.599732e+002, 1.317151e+002
9.604553e+002, 1.317805e+002
9.609374e+002, 1.326199e+002
9.614196e+002, 1.338795e+002
9.619017e+002, 1.345261e+002
9.623838e+002, 1.342515e+002
9.628659e+002, 1.343113e+002
9.633480e+002, 1.349026e+002
9.638301e+002, 1.355615e+002
9.643123e+002, 1.362712e+002
9.647944e+002, 1.369062e+002
9.652765e+002, 1.372736e+002
9.657586e+002, 1.374559e+002
9.662407e+002, 1.378400e+002
9.667228e+002, 1.385948e+002
9.672050e+002, 1.393071e+002
9.676871e+002, 1.399922e+002
9.681692e+002, 1.405018e+002
9.686513e+002, 1.404698e+002
9.691334e+002, 1.403701e+002
9.696155e+002, 1.409257e+002
9.700977e+002, 1.421338e+002
9.705798e+002, 1.432215e+002
9.710619e+002, 1.437880e+002
9.715440e+002, 1.442486e+002
9.720261e+002, 1.449062e+002
9.725082e+002, 1.455598e+002
9.729904e+002, 1.459572e+002
9.734725e+002, 1.461740e+002
9.739546e+002, 1.464109e+002
9.744367e+002, 1.467292e+002
9.749188e+002, 1.470756e+002
9.754009e+002, 1.474654e+002
9.758831e+002, 1.477915e+002
9.763652e+002, 1.477835e+002
9.768473e+002, 1.476424e+002
9.773294e+002, 1.478935e+002
9.778115e+002, 1.484979e+002
9.782936e+002, 1.489201e+002
9.787758e+002, 1.489083e+002
9.792579e+002, 1.487519e+002
9.797400e+002, 1.488144e+002
9.802221e+002, 1.490226e+002
9.807042e+002, 1.490965e+002
9.811863e+002, 1.490654e+002
9.816685e+002, 1.491751e+002
9.821506e+002, 1.494743e+002
9.826327e+002, 1.498542e+002
9.831148e+002, 1.502576e+002
9.835969e+002, 1.506343e+002
9.840790e+002, 1.508776e+002
9.845612e+002, 1.509870e+002
9.850433e+002, 1.510897e+002
9.855254e+002, 1.511835e+002
9.860075e+002, 1.512605e+002
9.864896e+002, 1.512717e+002
9.869717e+002, 1.514144e+002
9.874539e+002, 1.518613e+002
9.879360e+002, 1.525500e+002
9.884181e+002, 1.533198e+002
9.889002e+002, 1.542738e+002
9.893823e+002, 1.549064e+002
9.898644e+002, 1.550161e+002
9.903466e+002, 1.551798e+002
9.908287e+002, 1.554522e+002
9.913108e+002, 1.559947e+002
9.917929e+002, 1.571045e+002
9.922750e+002, 1.586585e+002
9.927571e+002, 1.599090e+002
9.932393e+002, 1.607166e+002
9.937214e+002, 1.614716e+002
9.942035e+002, 1.621598e+002
9.946856e+002, 1.628284e+002
9.951677e+002, 1.637198e+002
9.956498e+002, 1.644436e+002
9.961320e+002, 1.642265e+002
9.966141e+002, 1.632873e+002
9.970962e+002, 1.633348e+002
9.975783e+002, 1.655461e+002
9.980604e+002, 1.673313e+002
9.985425e+002, 1.676105e+002
9.990247e+002, 1.677123e+002
9.995068e+002, 1.683244e+002
9.999889e+002, 1.693549e+002
1.000471e+003, 1.707452e+002
1.000953e+003, 1.724017e+002
1.001435e+003, 1.737782e+002
1.001917e+003, 1.744769e+002
1.002399e+003, 1.750986e+002
1.002882e+003, 1.759822e+002
1.003364e+003, 1.769236e+002
1.003846e+003, 1.776404e+002
1.004328e+003, 1.783031e+002
1.004810e+003, 1.794149e+002
1.005292e+003, 1.810211e+002
1.005774e+003, 1.823367e+002
1.006256e+003, 1.827794e+002
1.006739e+003, 1.828565e+002
1.007221e+003, 1.830433e+002
1.007703e+003, 1.831654e+002
1.008185e+003, 1.830926e+002
1.008667e+003, 1.827131e+002
1.009149e+003, 1.816469e+002
1.009631e+003, 1.798309e+002
1.010113e+003, 1.780967e+002
1.010595e+003, 1.774366e+002
1.011078e+003, 1.770048e+002
1.011560e+003, 1.754884e+002
1.012042e+003, 1.732114e+002
1.012524e+003, 1.707974e+002
1.013006e+003, 1.683838e+002
1.013488e+003, 1.661021e+002
1.013970e+003, 1.639993e+002
1.014452e+003, 1.620027e+002
1.014935e+003, 1.600361e+002
1.015417e+003, 1.581041e+002
1.015899e+003, 1.562345e+002
1.016381e+003, 1.544092e+002
1.016863e+003, 1.525653e+002
1.017345e+003, 1.507049e+002
1.017827e+003, 1.488566e+002
1.018309e+003, 1.470304e+002
1.018791e+003, 1.453443e+002
1.019274e+003, 1.439678e+002
1.019756e+003, 1.428723e+002
1.020238e+003, 1.419380e+002
1.020720e+003, 1.411605e+002
1.021202e+003, 1.403075e+002
1.021684e+003, 1.393340e+002
1.022166e+003, 1.383689e+002
1.022648e+003, 1.374943e+002
1.023130e+003, 1.366209e+002
1.023613e+003, 1.355642e+002
1.024095e+003, 1.343462e+002
1.024577e+003, 1.334067e+002
1.025059e+003, 1.327895e+002
1.025541e+003, 1.320828e+002
1.026023e+003, 1.311755e+002
1.026505e+003, 1.302953e+002
1.026987e+003, 1.295482e+002
1.027469e+003, 1.289955e+002
1.027952e+003, 1.288109e+002
1.028434e+003, 1.290201e+002
1.028916e+003, 1.289195e+002
1.029398e+003, 1.284926e+002
1.029880e+003, 1.277528e+002
1.030362e+003, 1.264829e+002
1.030844e+003, 1.254075e+002
1.031326e+003, 1.249752e+002
1.031809e+003, 1.250888e+002
1.032291e+003, 1.256836e+002
1.032773e+003, 1.269295e+002
1.033255e+003, 1.271784e+002
1.033737e+003, 1.259133e+002
1.034219e+003, 1.247810e+002
1.034701e+003, 1.241115e+002
1.035183e+003, 1.236030e+002
1.035666e+003, 1.230146e+002
1.036148e+003, 1.224880e+002
1.036630e+003, 1.223928e+002
1.037112e+003, 1.228786e+002
1.037594e+003, 1.229403e+002
1.038076e+003, 1.221583e+002
1.038558e+003, 1.216222e+002
1.039040e+003, 1.216090e+002
1.039522e+003, 1.217946e+002
1.040005e+003, 1.222333e+002
1.040487e+003, 1.226433e+002
1.040969e+003, 1.222919e+002
1.041451e+003, 1.209091e+002
1.041933e+003, 1.201879e+002
1.042415e+003, 1.206427e+002
1.042897e+003, 1.210794e+002
1.043379e+003, 1.213579e+002
1.043861e+003, 1.214762e+002
1.044344e+003, 1.213874e+002
1.044826e+003, 1.211554e+002
1.045308e+003, 1.208508e+002
1.045790e+003, 1.204375e+002
1.046272e+003, 1.202647e+002
1.046754e+003, 1.206543e+002
1.047236e+003, 1.208971e+002
1.047718e+003, 1.207467e+002
1.048201e+003, 1.204668e+002
1.048683e+003, 1.201058e+002
1.049165e+003, 1.197958e+002
1.049647e+003, 1.198169e+002
1.050129e+003, 1.202397e+002
1.050611e+003, 1.204995e+002
1.051093e+003, 1.203337e+002
1.051575e+003, 1.201970e+002
1.052057e+003, 1.202532e+002
1.052540e+003, 1.203540e+002
1.053022e+003, 1.204051e+002
1.053504e+003, 1.204152e+002
1.053986e+003, 1.204105e+002
1.054468e+003, 1.203944e+002
1.054950e+003, 1.203756e+002
1.055432e+003, 1.202536e+002
1.055914e+003, 1.202688e+002
1.056396e+003, 1.206745e+002
1.056879e+003, 1.210824e+002
1.057361e+003, 1.211920e+002
1.057843e+003, 1.210998e+002
1.058325e+003, 1.209794e+002
1.058807e+003, 1.208623e+002
1.059289e+003, 1.207921e+002
1.059771e+003, 1.206476e+002
1.060253e+003, 1.207367e+002
1.060736e+003, 1.214312e+002
1.061218e+003, 1.221538e+002
1.061700e+003, 1.224127e+002
1.062182e+003, 1.224187e+002
1.062664e+003, 1.226065e+002
1.063146e+003, 1.230198e+002
1.063628e+003, 1.232466e+002
1.064110e+003, 1.229253e+002
1.064593e+003, 1.226940e+002
1.065075e+003, 1.228217e+002
1.065557e+003, 1.231320e+002
1.066039e+003, 1.235701e+002
1.066521e+003, 1.240591e+002
1.067003e+003, 1.244658e+002
1.067485e+003, 1.247941e+002
1.067967e+003, 1.252547e+002
1.068449e+003, 1.260310e+002
1.068932e+003, 1.267691e+002
1.069414e+003, 1.272792e+002
1.069896e+003, 1.277234e+002
1.070378e+003, 1.281933e+002
1.070860e+003, 1.286945e+002
1.071342e+003, 1.292102e+002
1.071824e+003, 1.297493e+002
1.072306e+003, 1.304003e+002
1.072788e+003, 1.313270e+002
1.073271e+003, 1.320627e+002
1.073753e+003, 1.322608e+002
1.074235e+003, 1.323237e+002
1.074717e+003, 1.324193e+002
1.075199e+003, 1.326356e+002
1.075681e+003, 1.331196e+002
1.076163e+003, 1.338247e+002
1.076645e+003, 1.345145e+002
1.077127e+003, 1.351668e+002
1.077610e+003, 1.356140e+002
1.078092e+003, 1.357590e+002
1.078574e+003, 1.356967e+002
1.079056e+003, 1.353626e+002
1.079538e+003, 1.349506e+002
1.080020e+003, 1.347233e+002
1.080502e+003, 1.346298e+002
1.080984e+003, 1.344427e+002
1.081467e+003, 1.341350e+002
1.081949e+003, 1.335170e+002
1.082431e+003, 1.321394e+002
1.082913e+003, 1.308446e+002
1.083395e+003, 1.303812e+002
1.083877e+003, 1.300915e+002
1.084359e+003, 1.292247e+002
1.084841e+003, 1.279025e+002
1.085323e+003, 1.265781e+002
1.085806e+003, 1.253413e+002
1.086288e+003, 1.244246e+002
1.086770e+003, 1.241987e+002
1.087252e+003, 1.239789e+002
1.087734e+003, 1.233828e+002
1.088216e+003, 1.226455e+002
1.088698e+003, 1.219141e+002
1.089180e+003, 1.212505e+002
1.089662e+003, 1.207350e+002
1.090145e+003, 1.203799e+002
1.090627e+003, 1.201395e+002
1.091109e+003, 1.202280e+002
1.091591e+003, 1.201175e+002
1.092073e+003, 1.194566e+002
1.092555e+003, 1.186318e+002
1.093037e+003, 1.177450e+002
1.093519e+003, 1.170113e+002
1.094002e+003, 1.168567e+002
1.094484e+003, 1.172828e+002
1.094966e+003, 1.175097e+002
1.095448e+003, 1.170828e+002
1.095930e+003, 1.167318e+002
1.096412e+003, 1.167426e+002
1.096894e+003, 1.168521e+002
1.097376e+003, 1.170428e+002
1.097859e+003, 1.171372e+002
1.098341e+003, 1.167577e+002
1.098823e+003, 1.160044e+002
1.099305e+003, 1.156935e+002
1.099787e+003, 1.163554e+002
1.100269e+003, 1.167475e+002
1.100751e+003, 1.162758e+002
1.101233e+003, 1.157884e+002
1.101715e+003, 1.157885e+002
1.102198e+003, 1.159162e+002
1.102680e+003, 1.157324e+002
1.103162e+003, 1.153179e+002
1.103644e+003, 1.150885e+002
1.104126e+003, 1.151784e+002
1.104608e+003, 1.152155e+002
1.105090e+003, 1.150413e+002
1.105572e+003, 1.149276e+002
1.106054e+003, 1.149633e+002
1.106537e+003, 1.151012e+002
1.107019e+003, 1.154186e+002
1.107501e+003, 1.157810e+002
1.107983e+003, 1.158581e+002
1.108465e+003, 1.155791e+002
1.108947e+003, 1.152889e+002
1.109429e+003, 1.148540e+002
1.109911e+003, 1.146412e+002
1.110394e+003, 1.148998e+002
1.110876e+003, 1.152149e+002
1.111358e+003, 1.154566e+002
1.111840e+003, 1.155389e+002
1.112322e+003, 1.152056e+002
1.112804e+003, 1.144159e+002
1.113286e+003, 1.140582e+002
1.113768e+003, 1.142776e+002
1.114250e+003, 1.146995e+002
1.114733e+003, 1.155936e+002
1.115215e+003, 1.162845e+002
1.115697e+003, 1.164095e+002
1.116179e+003, 1.162556e+002
1.116661e+003, 1.160480e+002
1.117143e+003, 1.158358e+002
1.117625e+003, 1.160104e+002
1.118107e+003, 1.169144e+002
1.118589e+003, 1.173729e+002
1.119072e+003, 1.171701e+002
1.119554e+003, 1.169272e+002
1.120036e+003, 1.167884e+002
1.120518e+003, 1.167533e+002
1.121000e+003, 1.168185e+002
1.121482e+003, 1.169889e+002
1.121964e+003, 1.172840e+002
1.122446e+003, 1.177177e+002
1.122929e+003, 1.182116e+002
1.123411e+003, 1.188351e+002
1.123893e+003, 1.192640e+002
1.124375e+003, 1.193682e+002
1.124857e+003, 1.194370e+002
1.125339e+003, 1.196215e+002
1.125821e+003, 1.199465e+002
1.126303e+003, 1.204605e+002
1.126786e+003, 1.211580e+002
1.127268e+003, 1.219849e+002
1.127750e+003, 1.229689e+002
1.128232e+003, 1.237706e+002
1.128714e+003, 1.243166e+002
1.129196e+003, 1.248633e+002
1.129678e+003, 1.255197e+002
1.130160e+003, 1.262572e+002
1.130642e+003, 1.270739e+002
1.131125e+003, 1.278968e+002
1.131607e+003, 1.283727e+002
1.132089e+003, 1.285382e+002
1.132571e+003, 1.291584e+002
1.133053e+003, 1.302586e+002
1.133535e+003, 1.309209e+002
1.134017e+003, 1.308667e+002
1.134499e+003, 1.306124e+002
1.134981e+003, 1.305215e+002
1.135464e+003, 1.306620e+002
1.135946e+003, 1.312871e+002
1.136428e+003, 1.322336e+002
1.136910e+003, 1.327622e+002
1.137392e+003, 1.330011e+002
1.137874e+003, 1.336490e+002
1.138356e+003, 1.347956e+002
1.138838e+003, 1.360971e+002
1.139321e+003, 1.373842e+002
1.139803e+003, 1.384886e+002
1.140285e+003, 1.392455e+002
1.140767e+003, 1.396912e+002
1.141249e+003, 1.398223e+002
1.141731e+003, 1.397326e+002
1.142213e+003, 1.397114e+002
1.142695e+003, 1.396683e+002
1.143177e+003, 1.392096e+002
1.143660e+003, 1.382283e+002
1.144142e+003, 1.369599e+002
1.144624e+003, 1.355189e+002
1.145106e+003, 1.339719e+002
1.145588e+003, 1.322390e+002
1.146070e+003, 1.305592e+002
1.146552e+003, 1.293251e+002
1.147034e+003, 1.283343e+002
1.147516e+003, 1.271550e+002
1.147999e+003, 1.257822e+002
1.148481e+003, 1.245875e+002
1.148963e+003, 1.237622e+002
1.149445e+003, 1.228853e+002
1.149927e+003, 1.214937e+002
1.150409e+003, 1.201771e+002
1.150891e+003, 1.193802e+002
1.151373e+003, 1.188662e+002
1.151856e+003, 1.183978e+002
1.152338e+003, 1.179783e+002
1.152820e+003, 1.177166e+002
1.153302e+003, 1.176338e+002
1.153784e+003, 1.175063e+002
1.154266e+003, 1.172260e+002
1.154748e+003, 1.169350e+002
1.155230e+003, 1.166414e+002
1.155713e+003, 1.163946e+002
1.156195e+003, 1.162581e+002
1.156677e+003, 1.161648e+002
1.157159e+003, 1.160459e+002
1.157641e+003, 1.158907e+002
1.158123e+003, 1.156620e+002
1.158605e+003, 1.152312e+002
1.159087e+003, 1.149948e+002
1.159569e+003, 1.153362e+002
1.160052e+003, 1.153722e+002
1.160534e+003, 1.144220e+002
1.161016e+003, 1.135973e+002
1.161498e+003, 1.138583e+002
1.161980e+003, 1.147447e+002
1.162462e+003, 1.152669e+002
1.162944e+003, 1.153967e+002
1.163426e+003, 1.154805e+002
1.163908e+003, 1.155587e+002
1.164391e+003, 1.154666e+002
1.164873e+003, 1.151731e+002
1.165355e+003, 1.146940e+002
1.165837e+003, 1.139248e+002
1.166319e+003, 1.132621e+002
1.166801e+003, 1.131975e+002
1.167283e+003, 1.136058e+002
1.167765e+003, 1.140603e+002
1.168247e+003, 1.145762e+002
1.168730e+003, 1.145359e+002
1.169212e+003, 1.138912e+002
1.169694e+003, 1.136000e+002
1.170176e+003, 1.139327e+002
1.170658e+003, 1.142105e+002
1.171140e+003, 1.139325e+002
1.171622e+003, 1.135888e+002
1.172104e+003, 1.142004e+002
1.172587e+003, 1.153022e+002
1.173069e+003, 1.151272e+002
1.173551e+003, 1.140593e+002
1.174033e+003, 1.135778e+002
1.174515e+003, 1.137695e+002
1.174997e+003, 1.139920e+002
1.175479e+003, 1.139885e+002
1.175961e+003, 1.137923e+002
1.176443e+003, 1.133215e+002
1.176926e+003, 1.129198e+002
1.177408e+003, 1.131021e+002
1.177890e+003, 1.135607e+002
1.178372e+003, 1.139964e+002
1.178854e+003, 1.142893e+002
1.179336e+003, 1.142104e+002
1.179818e+003, 1.138099e+002
1.180300e+003, 1.133859e+002
1.180782e+003, 1.130344e+002
1.181265e+003, 1.128988e+002
1.181747e+003, 1.131893e+002
1.182229e+003, 1.135790e+002
1.182711e+003, 1.139440e+002
1.183193e+003, 1.142269e+002
1.183675e+003, 1.144451e+002
1.184157e+003, 1.145177e+002
1.184639e+003, 1.141745e+002
1.185122e+003, 1.134242e+002
1.185604e+003, 1.130508e+002
1.186086e+003, 1.135128e+002
1.186568e+003, 1.139049e+002
1.187050e+003, 1.140727e+002
1.187532e+003, 1.141472e+002
1.188014e+003, 1.141505e+002
1.188496e+003, 1.141098e+002
1.188979e+003, 1.140181e+002
1.189461e+003, 1.139096e+002
1.189943e+003, 1.138970e+002
1.190425e+003, 1.140081e+002
1.190907e+003, 1.140438e+002
1.191389e+003, 1.139694e+002
1.191871e+003, 1.139135e+002
1.192353e+003, 1.138910e+002
1.192835e+003, 1.139157e+002
1.193318e+003, 1.140182e+002
1.193800e+003, 1.140990e+002
1.194282e+003, 1.140224e+002
1.194764e+003, 1.138389e+002
1.195246e+003, 1.137437e+002
1.195728e+003, 1.137348e+002
1.196210e+003, 1.137783e+002
1.196692e+003, 1.138698e+002
1.197174e+003, 1.139653e+002
1.197657e+003, 1.140519e+002
1.198139e+003, 1.141080e+002
1.198621e+003, 1.141181e+002
1.199103e+003, 1.141164e+002
1.199585e+003, 1.141761e+002
1.200067e+003, 1.142341e+002
1.200549e+003, 1.141800e+002
1.201031e+003, 1.140180e+002
1.201514e+003, 1.136773e+002
1.201996e+003, 1.132489e+002
1.202478e+003, 1.129694e+002
1.202960e+003, 1.129090e+002
1.203442e+003, 1.130573e+002
1.203924e+003, 1.135039e+002
1.204406e+003, 1.138642e+002
1.204888e+003, 1.136764e+002
1.205370e+003, 1.134649e+002
1.205853e+003, 1.138066e+002
1.206335e+003, 1.142737e+002
1.206817e+003, 1.142865e+002
1.207299e+003, 1.139684e+002
1.207781e+003, 1.137745e+002
1.208263e+003, 1.137982e+002
1.208745e+003, 1.138684e+002
1.209227e+003, 1.139298e+002
1.209709e+003, 1.140547e+002
1.210192e+003, 1.144124e+002
1.210674e+003, 1.146534e+002
1.211156e+003, 1.144898e+002
1.211638e+003, 1.142218e+002
1.212120e+003, 1.141478e+002
1.212602e+003, 1.142188e+002
1.213084e+003, 1.142668e+002
1.213566e+003, 1.143232e+002
1.214049e+003, 1.141463e+002
1.214531e+003, 1.136022e+002
1.215013e+003, 1.133996e+002
1.215495e+003, 1.137484e+002
1.215977e+003, 1.140802e+002
1.216459e+003, 1.140983e+002
1.216941e+003, 1.139229e+002
1.217423e+003, 1.136443e+002
1.217906e+003, 1.133837e+002
1.218388e+003, 1.136139e+002
1.218870e+003, 1.142102e+002
1.219352e+003, 1.145708e+002
1.219834e+003, 1.146773e+002
1.220316e+003, 1.145842e+002
1.220798e+003, 1.143421e+002
1.221280e+003, 1.140943e+002
1.221762e+003, 1.139072e+002
1.222245e+003, 1.139998e+002
1.222727e+003, 1.150854e+002
1.223209e+003, 1.160672e+002
1.223691e+003, 1.152410e+002
1.224173e+003, 1.138906e+002
1.224655e+003, 1.137694e+002
1.225137e+003, 1.144541e+002
1.225619e+003, 1.149146e+002
1.226101e+003, 1.149532e+002
1.226584e+003, 1.147934e+002
1.227066e+003, 1.144495e+002
1.227548e+003, 1.140996e+002
1.228030e+003, 1.137112e+002
1.228512e+003, 1.134558e+002
1.228994e+003, 1.134301e+002
1.229476e+003, 1.135430e+002
1.229958e+003, 1.139395e+002
1.230441e+003, 1.143114e+002
1.230923e+003, 1.139779e+002
1.231405e+003, 1.129772e+002
1.231887e+003, 1.127309e+002
1.232369e+003, 1.136348e+002
1.232851e+003, 1.140201e+002
1.233333e+003, 1.135995e+002
1.233815e+003, 1.134745e+002
1.234297e+003, 1.140548e+002
1.234780e+003, 1.146347e+002
1.235262e+003, 1.146833e+002
1.235744e+003, 1.145213e+002
1.236226e+003, 1.147374e+002
1.236708e+003, 1.151947e+002
1.237190e+003, 1.153502e+002
1.237672e+003, 1.152244e+002
1.238154e+003, 1.147552e+002
1.238636e+003, 1.140744e+002
1.239119e+003, 1.138566e+002
1.239601e+003, 1.142184e+002
1.240083e+003, 1.144489e+002
1.240565e+003, 1.140672e+002
1.241047e+003, 1.135729e+002
1.241529e+003, 1.134394e+002
1.242011e+003, 1.134335e+002
1.242493e+003, 1.132896e+002
1.242975e+003, 1.131645e+002
1.243458e+003, 1.132789e+002
1.243940e+003, 1.135696e+002
1.244422e+003, 1.139733e+002
1.244904e+003, 1.144354e+002
1.245386e+003, 1.144675e+002
1.245868e+003, 1.135233e+002
1.246350e+003, 1.129205e+002
1.246832e+003, 1.131038e+002
1.247315e+003, 1.133579e+002
1.247797e+003, 1.133862e+002
1.248279e+003, 1.134800e+002
1.248761e+003, 1.139606e+002
1.249243e+003, 1.145141e+002
1.249725e+003, 1.144930e+002
1.250207e+003, 1.139573e+002
1.250689e+003, 1.140631e+002
1.251172e+003, 1.149024e+002
1.251654e+003, 1.153097e+002
1.252136e+003, 1.151789e+002
1.252618e+003, 1.152246e+002
1.253100e+003, 1.156584e+002
1.253582e+003, 1.157560e+002
1.254064e+003, 1.149793e+002
1.254546e+003, 1.140579e+002
1.255028e+003, 1.141190e+002
1.255510e+003, 1.146544e+002
1.255993e+003, 1.147046e+002
1.256475e+003, 1.145222e+002
1.256957e+003, 1.146378e+002
1.257439e+003, 1.149212e+002
1.257921e+003, 1.148173e+002
1.258403e+003, 1.143355e+002
1.258885e+003, 1.142771e+002
1.259367e+003, 1.151693e+002
1.259850e+003, 1.157954e+002
1.260332e+003, 1.152919e+002
1.260814e+003, 1.147831e+002
1.261296e+003, 1.148409e+002
1.261778e+003, 1.150566e+002
1.262260e+003, 1.151772e+002
1.262742e+003, 1.152001e+002
1.263224e+003, 1.150687e+002
1.263707e+003, 1.148324e+002
1.264189e+003, 1.149368e+002
1.264671e+003, 1.155804e+002
1.265153e+003, 1.158761e+002
1.265635e+003, 1.157580e+002
1.266117e+003, 1.155321e+002
1.266599e+003, 1.152391e+002
1.267081e+003, 1.150522e+002
1.267563e+003, 1.150813e+002
1.268046e+003, 1.151211e+002
1.268528e+003, 1.148771e+002
1.269010e+003, 1.145590e+002
1.269492e+003, 1.146654e+002
1.269974e+003, 1.150776e+002
1.270456e+003, 1.156526e+002
1.270938e+003, 1.162259e+002
1.271420e+003, 1.163791e+002
1.271902e+003, 1.161262e+002
1.272385e+003, 1.157719e+002
1.272867e+003, 1.154324e+002
1.273349e+003, 1.152312e+002
1.273831e+003, 1.152812e+002
1.274313e+003, 1.154311e+002
1.274795e+003, 1.156569e+002
1.275277e+003, 1.158992e+002
1.275759e+003, 1.162018e+002
1.276242e+003, 1.164363e+002
1.276724e+003, 1.165075e+002
1.277206e+003, 1.163795e+002
1.277688e+003, 1.159056e+002
1.278170e+003, 1.149989e+002
1.278652e+003, 1.145479e+002
1.279134e+003, 1.145799e+002
1.279616e+003, 1.150742e+002
1.280099e+003, 1.161906e+002
1.280581e+003, 1.168602e+002
1.281063e+003, 1.166607e+002
1.281545e+003, 1.162182e+002
1.282027e+003, 1.160096e+002
1.282509e+003, 1.159481e+002
1.282991e+003, 1.159609e+002
1.283473e+003, 1.159681e+002
1.283955e+003, 1.158224e+002
##END=



