##NAMES=Nchwaningite
##RRUFFID=R140275
##IDEAL CHEMISTRY=Mn^2+^_2_SiO_3_(OH)_2_&#183;H_2_O
##LOCALITY=N'Chwaning mine, Kuruman, Kalahari manganese field, Northern Cape Province, South Africa
##OWNER=RRUFF
##SOURCE=Rock Currier
##DESCRIPTION=Micro brown tufts
##STATUS=The identification of this mineral has been confirmed by single-crystal X-ray diffraction.
##URL=rruff.info/R140275
8.930109e+001, 0.000000e+000
8.978320e+001, 1.248701e+002
9.026532e+001, 1.214115e+002
9.074744e+001, 1.211233e+002
9.122955e+001, 1.254068e+002
9.171167e+001, 1.309353e+002
9.219379e+001, 1.341379e+002
9.267590e+001, 1.352094e+002
9.315802e+001, 1.345644e+002
9.364014e+001, 1.310613e+002
9.412225e+001, 1.259459e+002
9.460437e+001, 1.229546e+002
9.508649e+001, 1.240798e+002
9.556860e+001, 1.272150e+002
9.605072e+001, 1.273212e+002
9.653284e+001, 1.243607e+002
9.701495e+001, 1.205808e+002
9.749707e+001, 1.178359e+002
9.797919e+001, 1.160735e+002
9.846130e+001, 1.151797e+002
9.894342e+001, 1.153349e+002
9.942554e+001, 1.164351e+002
9.990765e+001, 1.172953e+002
1.003898e+002, 1.180286e+002
1.008719e+002, 1.183794e+002
1.013540e+002, 1.177615e+002
1.018361e+002, 1.158344e+002
1.023182e+002, 1.142253e+002
1.028004e+002, 1.135390e+002
1.032825e+002, 1.139087e+002
1.037646e+002, 1.144826e+002
1.042467e+002, 1.150585e+002
1.047288e+002, 1.159030e+002
1.052109e+002, 1.176788e+002
1.056931e+002, 1.205824e+002
1.061752e+002, 1.240644e+002
1.066573e+002, 1.280642e+002
1.071394e+002, 1.339060e+002
1.076215e+002, 1.380717e+002
1.081036e+002, 1.405382e+002
1.085858e+002, 1.413750e+002
1.090679e+002, 1.406386e+002
1.095500e+002, 1.367741e+002
1.100321e+002, 1.325211e+002
1.105142e+002, 1.293604e+002
1.109963e+002, 1.274905e+002
1.114785e+002, 1.264204e+002
1.119606e+002, 1.263628e+002
1.124427e+002, 1.272678e+002
1.129248e+002, 1.281063e+002
1.134069e+002, 1.282860e+002
1.138890e+002, 1.285562e+002
1.143712e+002, 1.295243e+002
1.148533e+002, 1.319913e+002
1.153354e+002, 1.345351e+002
1.158175e+002, 1.367619e+002
1.162996e+002, 1.386827e+002
1.167817e+002, 1.402983e+002
1.172639e+002, 1.415760e+002
1.177460e+002, 1.425854e+002
1.182281e+002, 1.434129e+002
1.187102e+002, 1.440447e+002
1.191923e+002, 1.445403e+002
1.196744e+002, 1.447391e+002
1.201566e+002, 1.444501e+002
1.206387e+002, 1.446713e+002
1.211208e+002, 1.460875e+002
1.216029e+002, 1.484527e+002
1.220850e+002, 1.512734e+002
1.225671e+002, 1.547466e+002
1.230493e+002, 1.583502e+002
1.235314e+002, 1.618262e+002
1.240135e+002, 1.655637e+002
1.244956e+002, 1.680900e+002
1.249777e+002, 1.671949e+002
1.254598e+002, 1.635685e+002
1.259420e+002, 1.598228e+002
1.264241e+002, 1.573176e+002
1.269062e+002, 1.558842e+002
1.273883e+002, 1.552338e+002
1.278704e+002, 1.553401e+002
1.283525e+002, 1.561554e+002
1.288347e+002, 1.580067e+002
1.293168e+002, 1.608373e+002
1.297989e+002, 1.634673e+002
1.302810e+002, 1.646153e+002
1.307631e+002, 1.646644e+002
1.312452e+002, 1.652967e+002
1.317274e+002, 1.672547e+002
1.322095e+002, 1.699185e+002
1.326916e+002, 1.714085e+002
1.331737e+002, 1.715801e+002
1.336558e+002, 1.716639e+002
1.341379e+002, 1.725451e+002
1.346201e+002, 1.742333e+002
1.351022e+002, 1.773801e+002
1.355843e+002, 1.825789e+002
1.360664e+002, 1.895451e+002
1.365485e+002, 1.961864e+002
1.370306e+002, 2.027485e+002
1.375128e+002, 2.084573e+002
1.379949e+002, 2.126821e+002
1.384770e+002, 2.154726e+002
1.389591e+002, 2.165161e+002
1.394412e+002, 2.154720e+002
1.399233e+002, 2.122314e+002
1.404055e+002, 2.083750e+002
1.408876e+002, 2.035683e+002
1.413697e+002, 1.984628e+002
1.418518e+002, 1.940128e+002
1.423339e+002, 1.901559e+002
1.428160e+002, 1.871169e+002
1.432982e+002, 1.850102e+002
1.437803e+002, 1.839553e+002
1.442624e+002, 1.835953e+002
1.447445e+002, 1.844155e+002
1.452266e+002, 1.857779e+002
1.457087e+002, 1.861662e+002
1.461909e+002, 1.850888e+002
1.466730e+002, 1.836808e+002
1.471551e+002, 1.823509e+002
1.476372e+002, 1.810643e+002
1.481193e+002, 1.799322e+002
1.486014e+002, 1.787906e+002
1.490836e+002, 1.777816e+002
1.495657e+002, 1.773550e+002
1.500478e+002, 1.772872e+002
1.505299e+002, 1.779841e+002
1.510120e+002, 1.796424e+002
1.514941e+002, 1.830506e+002
1.519763e+002, 1.864577e+002
1.524584e+002, 1.902481e+002
1.529405e+002, 1.941754e+002
1.534226e+002, 1.971042e+002
1.539047e+002, 1.992916e+002
1.543868e+002, 2.002350e+002
1.548690e+002, 1.996606e+002
1.553511e+002, 1.973361e+002
1.558332e+002, 1.937114e+002
1.563153e+002, 1.880787e+002
1.567974e+002, 1.807514e+002
1.572795e+002, 1.742274e+002
1.577617e+002, 1.691911e+002
1.582438e+002, 1.650757e+002
1.587259e+002, 1.614722e+002
1.592080e+002, 1.582112e+002
1.596901e+002, 1.555277e+002
1.601722e+002, 1.536648e+002
1.606544e+002, 1.525893e+002
1.611365e+002, 1.516382e+002
1.616186e+002, 1.502267e+002
1.621007e+002, 1.489830e+002
1.625828e+002, 1.484545e+002
1.630649e+002, 1.497900e+002
1.635471e+002, 1.510808e+002
1.640292e+002, 1.512568e+002
1.645113e+002, 1.502793e+002
1.649934e+002, 1.494229e+002
1.654755e+002, 1.495091e+002
1.659576e+002, 1.500299e+002
1.664398e+002, 1.503557e+002
1.669219e+002, 1.499968e+002
1.674040e+002, 1.495385e+002
1.678861e+002, 1.493477e+002
1.683682e+002, 1.494456e+002
1.688503e+002, 1.497155e+002
1.693325e+002, 1.500469e+002
1.698146e+002, 1.505083e+002
1.702967e+002, 1.512021e+002
1.707788e+002, 1.525508e+002
1.712609e+002, 1.539521e+002
1.717430e+002, 1.546371e+002
1.722252e+002, 1.544588e+002
1.727073e+002, 1.545200e+002
1.731894e+002, 1.559672e+002
1.736715e+002, 1.583522e+002
1.741536e+002, 1.606093e+002
1.746357e+002, 1.618990e+002
1.751179e+002, 1.629509e+002
1.756000e+002, 1.646329e+002
1.760821e+002, 1.670183e+002
1.765642e+002, 1.699188e+002
1.770463e+002, 1.735892e+002
1.775284e+002, 1.777408e+002
1.780106e+002, 1.814267e+002
1.784927e+002, 1.842439e+002
1.789748e+002, 1.862654e+002
1.794569e+002, 1.874961e+002
1.799390e+002, 1.879006e+002
1.804211e+002, 1.877136e+002
1.809033e+002, 1.872214e+002
1.813854e+002, 1.863884e+002
1.818675e+002, 1.850734e+002
1.823496e+002, 1.829776e+002
1.828317e+002, 1.803553e+002
1.833138e+002, 1.776675e+002
1.837960e+002, 1.749654e+002
1.842781e+002, 1.722646e+002
1.847602e+002, 1.695471e+002
1.852423e+002, 1.668193e+002
1.857244e+002, 1.643564e+002
1.862065e+002, 1.622202e+002
1.866887e+002, 1.604490e+002
1.871708e+002, 1.592106e+002
1.876529e+002, 1.586170e+002
1.881350e+002, 1.583624e+002
1.886171e+002, 1.578572e+002
1.890992e+002, 1.571106e+002
1.895814e+002, 1.566364e+002
1.900635e+002, 1.568844e+002
1.905456e+002, 1.577623e+002
1.910277e+002, 1.586065e+002
1.915098e+002, 1.593411e+002
1.919919e+002, 1.600199e+002
1.924741e+002, 1.606484e+002
1.929562e+002, 1.612104e+002
1.934383e+002, 1.619982e+002
1.939204e+002, 1.633408e+002
1.944025e+002, 1.651974e+002
1.948846e+002, 1.668662e+002
1.953668e+002, 1.682542e+002
1.958489e+002, 1.694224e+002
1.963310e+002, 1.705266e+002
1.968131e+002, 1.715770e+002
1.972952e+002, 1.724776e+002
1.977773e+002, 1.732007e+002
1.982595e+002, 1.737439e+002
1.987416e+002, 1.739630e+002
1.992237e+002, 1.736976e+002
1.997058e+002, 1.732119e+002
2.001879e+002, 1.732880e+002
2.006700e+002, 1.740166e+002
2.011522e+002, 1.749097e+002
2.016343e+002, 1.756070e+002
2.021164e+002, 1.760733e+002
2.025985e+002, 1.767112e+002
2.030806e+002, 1.775460e+002
2.035627e+002, 1.785890e+002
2.040449e+002, 1.798562e+002
2.045270e+002, 1.813335e+002
2.050091e+002, 1.830782e+002
2.054912e+002, 1.851553e+002
2.059733e+002, 1.875923e+002
2.064554e+002, 1.901863e+002
2.069376e+002, 1.929067e+002
2.074197e+002, 1.957617e+002
2.079018e+002, 1.988169e+002
2.083839e+002, 2.019655e+002
2.088660e+002, 2.056074e+002
2.093481e+002, 2.100208e+002
2.098303e+002, 2.153241e+002
2.103124e+002, 2.210237e+002
2.107945e+002, 2.272870e+002
2.112766e+002, 2.338561e+002
2.117587e+002, 2.398936e+002
2.122408e+002, 2.453271e+002
2.127230e+002, 2.504113e+002
2.132051e+002, 2.555548e+002
2.136872e+002, 2.611512e+002
2.141693e+002, 2.654846e+002
2.146514e+002, 2.684408e+002
2.151335e+002, 2.699709e+002
2.156157e+002, 2.696192e+002
2.160978e+002, 2.669366e+002
2.165799e+002, 2.631771e+002
2.170620e+002, 2.590305e+002
2.175441e+002, 2.543773e+002
2.180262e+002, 2.495943e+002
2.185084e+002, 2.445028e+002
2.189905e+002, 2.392355e+002
2.194726e+002, 2.347459e+002
2.199547e+002, 2.311548e+002
2.204368e+002, 2.280147e+002
2.209189e+002, 2.250782e+002
2.214011e+002, 2.222687e+002
2.218832e+002, 2.198046e+002
2.223653e+002, 2.176504e+002
2.228474e+002, 2.158535e+002
2.233295e+002, 2.145495e+002
2.238116e+002, 2.138604e+002
2.242938e+002, 2.135142e+002
2.247759e+002, 2.133977e+002
2.252580e+002, 2.136306e+002
2.257401e+002, 2.138100e+002
2.262222e+002, 2.139467e+002
2.267043e+002, 2.140073e+002
2.271865e+002, 2.139280e+002
2.276686e+002, 2.140006e+002
2.281507e+002, 2.135003e+002
2.286328e+002, 2.118574e+002
2.291149e+002, 2.083451e+002
2.295970e+002, 2.054390e+002
2.300792e+002, 2.035554e+002
2.305613e+002, 2.023889e+002
2.310434e+002, 2.007642e+002
2.315255e+002, 1.983919e+002
2.320076e+002, 1.960259e+002
2.324897e+002, 1.941404e+002
2.329719e+002, 1.930578e+002
2.334540e+002, 1.917169e+002
2.339361e+002, 1.898587e+002
2.344182e+002, 1.877240e+002
2.349003e+002, 1.861617e+002
2.353824e+002, 1.854771e+002
2.358646e+002, 1.849275e+002
2.363467e+002, 1.841111e+002
2.368288e+002, 1.827477e+002
2.373109e+002, 1.817572e+002
2.377930e+002, 1.813364e+002
2.382751e+002, 1.812696e+002
2.387573e+002, 1.808779e+002
2.392394e+002, 1.798384e+002
2.397215e+002, 1.789311e+002
2.402036e+002, 1.785683e+002
2.406857e+002, 1.791877e+002
2.411678e+002, 1.793354e+002
2.416500e+002, 1.788272e+002
2.421321e+002, 1.778972e+002
2.426142e+002, 1.771203e+002
2.430963e+002, 1.765326e+002
2.435784e+002, 1.760539e+002
2.440605e+002, 1.757095e+002
2.445427e+002, 1.756951e+002
2.450248e+002, 1.752891e+002
2.455069e+002, 1.743198e+002
2.459890e+002, 1.730264e+002
2.464711e+002, 1.719702e+002
2.469532e+002, 1.713299e+002
2.474354e+002, 1.706203e+002
2.479175e+002, 1.696387e+002
2.483996e+002, 1.682619e+002
2.488817e+002, 1.669982e+002
2.493638e+002, 1.658347e+002
2.498459e+002, 1.647950e+002
2.503281e+002, 1.639211e+002
2.508102e+002, 1.632176e+002
2.512923e+002, 1.626786e+002
2.517744e+002, 1.623485e+002
2.522565e+002, 1.623257e+002
2.527386e+002, 1.620838e+002
2.532208e+002, 1.614401e+002
2.537029e+002, 1.607127e+002
2.541850e+002, 1.604147e+002
2.546671e+002, 1.607210e+002
2.551492e+002, 1.611175e+002
2.556313e+002, 1.614879e+002
2.561135e+002, 1.618539e+002
2.565956e+002, 1.619893e+002
2.570777e+002, 1.617275e+002
2.575598e+002, 1.613878e+002
2.580419e+002, 1.614067e+002
2.585240e+002, 1.618694e+002
2.590062e+002, 1.624951e+002
2.594883e+002, 1.632659e+002
2.599704e+002, 1.641856e+002
2.604525e+002, 1.649575e+002
2.609346e+002, 1.654897e+002
2.614167e+002, 1.659776e+002
2.618989e+002, 1.666692e+002
2.623810e+002, 1.676529e+002
2.628631e+002, 1.685836e+002
2.633452e+002, 1.693000e+002
2.638273e+002, 1.698179e+002
2.643094e+002, 1.707011e+002
2.647916e+002, 1.720336e+002
2.652737e+002, 1.736228e+002
2.657558e+002, 1.752742e+002
2.662379e+002, 1.768960e+002
2.667200e+002, 1.788803e+002
2.672021e+002, 1.814502e+002
2.676843e+002, 1.845160e+002
2.681664e+002, 1.872676e+002
2.686485e+002, 1.895987e+002
2.691306e+002, 1.918235e+002
2.696127e+002, 1.941637e+002
2.700948e+002, 1.966177e+002
2.705770e+002, 1.991594e+002
2.710591e+002, 2.018198e+002
2.715412e+002, 2.045330e+002
2.720233e+002, 2.069883e+002
2.725054e+002, 2.089988e+002
2.729875e+002, 2.111470e+002
2.734697e+002, 2.139012e+002
2.739518e+002, 2.173821e+002
2.744339e+002, 2.208000e+002
2.749160e+002, 2.239540e+002
2.753981e+002, 2.270358e+002
2.758802e+002, 2.306409e+002
2.763624e+002, 2.346816e+002
2.768445e+002, 2.393974e+002
2.773266e+002, 2.451383e+002
2.778087e+002, 2.519834e+002
2.782908e+002, 2.586838e+002
2.787729e+002, 2.650785e+002
2.792551e+002, 2.713460e+002
2.797372e+002, 2.780023e+002
2.802193e+002, 2.852558e+002
2.807014e+002, 2.916763e+002
2.811835e+002, 2.966120e+002
2.816656e+002, 3.000677e+002
2.821478e+002, 3.023072e+002
2.826299e+002, 3.032801e+002
2.831120e+002, 3.031622e+002
2.835941e+002, 3.021360e+002
2.840762e+002, 3.001768e+002
2.845583e+002, 2.976255e+002
2.850405e+002, 2.942661e+002
2.855226e+002, 2.902413e+002
2.860047e+002, 2.869095e+002
2.864868e+002, 2.843445e+002
2.869689e+002, 2.822500e+002
2.874510e+002, 2.802035e+002
2.879332e+002, 2.782189e+002
2.884153e+002, 2.765738e+002
2.888974e+002, 2.752122e+002
2.893795e+002, 2.742774e+002
2.898616e+002, 2.744907e+002
2.903438e+002, 2.759176e+002
2.908259e+002, 2.780348e+002
2.913080e+002, 2.805225e+002
2.917901e+002, 2.832885e+002
2.922722e+002, 2.859033e+002
2.927543e+002, 2.880034e+002
2.932365e+002, 2.899348e+002
2.937186e+002, 2.927158e+002
2.942007e+002, 2.963383e+002
2.946828e+002, 2.998487e+002
2.951649e+002, 3.022900e+002
2.956470e+002, 3.038846e+002
2.961292e+002, 3.054769e+002
2.966113e+002, 3.073948e+002
2.970934e+002, 3.092691e+002
2.975755e+002, 3.105838e+002
2.980576e+002, 3.113491e+002
2.985397e+002, 3.116319e+002
2.990219e+002, 3.115533e+002
2.995040e+002, 3.110309e+002
2.999861e+002, 3.098410e+002
3.004682e+002, 3.078292e+002
3.009503e+002, 3.053842e+002
3.014324e+002, 3.029934e+002
3.019146e+002, 3.005935e+002
3.023967e+002, 2.978046e+002
3.028788e+002, 2.943286e+002
3.033609e+002, 2.903552e+002
3.038430e+002, 2.861006e+002
3.043251e+002, 2.814837e+002
3.048073e+002, 2.770139e+002
3.052894e+002, 2.729488e+002
3.057715e+002, 2.693651e+002
3.062536e+002, 2.663368e+002
3.067357e+002, 2.642664e+002
3.072178e+002, 2.626095e+002
3.077000e+002, 2.608072e+002
3.081821e+002, 2.587835e+002
3.086642e+002, 2.568972e+002
3.091463e+002, 2.557103e+002
3.096284e+002, 2.547900e+002
3.101105e+002, 2.534435e+002
3.105927e+002, 2.507017e+002
3.110748e+002, 2.479362e+002
3.115569e+002, 2.462728e+002
3.120390e+002, 2.457283e+002
3.125211e+002, 2.451279e+002
3.130032e+002, 2.439030e+002
3.134854e+002, 2.422335e+002
3.139675e+002, 2.403251e+002
3.144496e+002, 2.382905e+002
3.149317e+002, 2.360090e+002
3.154138e+002, 2.333464e+002
3.158959e+002, 2.303481e+002
3.163781e+002, 2.272064e+002
3.168602e+002, 2.236669e+002
3.173423e+002, 2.202461e+002
3.178244e+002, 2.173432e+002
3.183065e+002, 2.152424e+002
3.187886e+002, 2.133916e+002
3.192708e+002, 2.117741e+002
3.197529e+002, 2.103033e+002
3.202350e+002, 2.087300e+002
3.207171e+002, 2.065640e+002
3.211992e+002, 2.046053e+002
3.216813e+002, 2.033460e+002
3.221635e+002, 2.032697e+002
3.226456e+002, 2.029191e+002
3.231277e+002, 2.016580e+002
3.236098e+002, 2.000025e+002
3.240919e+002, 1.988124e+002
3.245740e+002, 1.988168e+002
3.250562e+002, 1.987743e+002
3.255383e+002, 1.983985e+002
3.260204e+002, 1.977422e+002
3.265025e+002, 1.964712e+002
3.269846e+002, 1.937597e+002
3.274667e+002, 1.907585e+002
3.279489e+002, 1.886617e+002
3.284310e+002, 1.884207e+002
3.289131e+002, 1.880308e+002
3.293952e+002, 1.871123e+002
3.298773e+002, 1.856503e+002
3.303594e+002, 1.843604e+002
3.308416e+002, 1.832943e+002
3.313237e+002, 1.823709e+002
3.318058e+002, 1.815353e+002
3.322879e+002, 1.807551e+002
3.327700e+002, 1.801152e+002
3.332521e+002, 1.796382e+002
3.337343e+002, 1.793018e+002
3.342164e+002, 1.790047e+002
3.346985e+002, 1.787515e+002
3.351806e+002, 1.785304e+002
3.356627e+002, 1.783447e+002
3.361448e+002, 1.782205e+002
3.366270e+002, 1.780271e+002
3.371091e+002, 1.776726e+002
3.375912e+002, 1.773164e+002
3.380733e+002, 1.773367e+002
3.385554e+002, 1.778521e+002
3.390375e+002, 1.783686e+002
3.395197e+002, 1.787859e+002
3.400018e+002, 1.791239e+002
3.404839e+002, 1.788562e+002
3.409660e+002, 1.778334e+002
3.414481e+002, 1.765430e+002
3.419302e+002, 1.756459e+002
3.424124e+002, 1.751626e+002
3.428945e+002, 1.746763e+002
3.433766e+002, 1.740298e+002
3.438587e+002, 1.732796e+002
3.443408e+002, 1.726788e+002
3.448229e+002, 1.722481e+002
3.453051e+002, 1.718446e+002
3.457872e+002, 1.714042e+002
3.462693e+002, 1.709079e+002
3.467514e+002, 1.701598e+002
3.472335e+002, 1.690144e+002
3.477156e+002, 1.677451e+002
3.481978e+002, 1.668298e+002
3.486799e+002, 1.662700e+002
3.491620e+002, 1.660713e+002
3.496441e+002, 1.665230e+002
3.501262e+002, 1.673240e+002
3.506083e+002, 1.677375e+002
3.510905e+002, 1.676388e+002
3.515726e+002, 1.672962e+002
3.520547e+002, 1.669176e+002
3.525368e+002, 1.665331e+002
3.530189e+002, 1.662349e+002
3.535010e+002, 1.660700e+002
3.539832e+002, 1.660154e+002
3.544653e+002, 1.660969e+002
3.549474e+002, 1.663224e+002
3.554295e+002, 1.664919e+002
3.559116e+002, 1.663571e+002
3.563937e+002, 1.660828e+002
3.568759e+002, 1.659202e+002
3.573580e+002, 1.661993e+002
3.578401e+002, 1.664204e+002
3.583222e+002, 1.659934e+002
3.588043e+002, 1.650694e+002
3.592864e+002, 1.645759e+002
3.597686e+002, 1.653087e+002
3.602507e+002, 1.665277e+002
3.607328e+002, 1.676051e+002
3.612149e+002, 1.683914e+002
3.616970e+002, 1.690473e+002
3.621791e+002, 1.695604e+002
3.626613e+002, 1.699851e+002
3.631434e+002, 1.704487e+002
3.636255e+002, 1.711122e+002
3.641076e+002, 1.717239e+002
3.645897e+002, 1.720649e+002
3.650718e+002, 1.718970e+002
3.655540e+002, 1.721860e+002
3.660361e+002, 1.736976e+002
3.665182e+002, 1.755553e+002
3.670003e+002, 1.767076e+002
3.674824e+002, 1.762787e+002
3.679645e+002, 1.759178e+002
3.684467e+002, 1.758964e+002
3.689288e+002, 1.762222e+002
3.694109e+002, 1.769380e+002
3.698930e+002, 1.782816e+002
3.703751e+002, 1.798379e+002
3.708572e+002, 1.813273e+002
3.713394e+002, 1.825561e+002
3.718215e+002, 1.840426e+002
3.723036e+002, 1.860247e+002
3.727857e+002, 1.882863e+002
3.732678e+002, 1.900642e+002
3.737499e+002, 1.912177e+002
3.742321e+002, 1.921584e+002
3.747142e+002, 1.929534e+002
3.751963e+002, 1.934375e+002
3.756784e+002, 1.946068e+002
3.761605e+002, 1.967859e+002
3.766426e+002, 1.992239e+002
3.771248e+002, 2.006964e+002
3.776069e+002, 2.011362e+002
3.780890e+002, 2.011137e+002
3.785711e+002, 2.006648e+002
3.790532e+002, 1.998677e+002
3.795353e+002, 1.994368e+002
3.800175e+002, 1.994704e+002
3.804996e+002, 1.993562e+002
3.809817e+002, 1.982152e+002
3.814638e+002, 1.962233e+002
3.819459e+002, 1.948524e+002
3.824280e+002, 1.945506e+002
3.829102e+002, 1.948428e+002
3.833923e+002, 1.948821e+002
3.838744e+002, 1.946877e+002
3.843565e+002, 1.944646e+002
3.848386e+002, 1.944070e+002
3.853207e+002, 1.944039e+002
3.858029e+002, 1.942823e+002
3.862850e+002, 1.940523e+002
3.867671e+002, 1.935446e+002
3.872492e+002, 1.922957e+002
3.877313e+002, 1.906208e+002
3.882134e+002, 1.892628e+002
3.886956e+002, 1.885119e+002
3.891777e+002, 1.882740e+002
3.896598e+002, 1.889104e+002
3.901419e+002, 1.903282e+002
3.906240e+002, 1.910630e+002
3.911061e+002, 1.896101e+002
3.915883e+002, 1.872771e+002
3.920704e+002, 1.854198e+002
3.925525e+002, 1.844985e+002
3.930346e+002, 1.840018e+002
3.935167e+002, 1.839270e+002
3.939988e+002, 1.841146e+002
3.944810e+002, 1.841137e+002
3.949631e+002, 1.834996e+002
3.954452e+002, 1.828664e+002
3.959273e+002, 1.824957e+002
3.964094e+002, 1.824342e+002
3.968915e+002, 1.825884e+002
3.973737e+002, 1.831296e+002
3.978558e+002, 1.838132e+002
3.983379e+002, 1.843377e+002
3.988200e+002, 1.845694e+002
3.993021e+002, 1.847420e+002
3.997842e+002, 1.847753e+002
4.002664e+002, 1.846695e+002
4.007485e+002, 1.849846e+002
4.012306e+002, 1.859782e+002
4.017127e+002, 1.871323e+002
4.021948e+002, 1.881185e+002
4.026769e+002, 1.888476e+002
4.031591e+002, 1.895830e+002
4.036412e+002, 1.902794e+002
4.041233e+002, 1.910144e+002
4.046054e+002, 1.921324e+002
4.050875e+002, 1.938901e+002
4.055696e+002, 1.952297e+002
4.060518e+002, 1.954129e+002
4.065339e+002, 1.943795e+002
4.070160e+002, 1.945518e+002
4.074981e+002, 1.961709e+002
4.079802e+002, 1.983156e+002
4.084623e+002, 1.999634e+002
4.089445e+002, 2.011301e+002
4.094266e+002, 2.022269e+002
4.099087e+002, 2.033898e+002
4.103908e+002, 2.045327e+002
4.108729e+002, 2.054876e+002
4.113550e+002, 2.062560e+002
4.118372e+002, 2.067361e+002
4.123193e+002, 2.067833e+002
4.128014e+002, 2.064989e+002
4.132835e+002, 2.060876e+002
4.137656e+002, 2.055447e+002
4.142477e+002, 2.049888e+002
4.147299e+002, 2.045325e+002
4.152120e+002, 2.041598e+002
4.156941e+002, 2.038489e+002
4.161762e+002, 2.038350e+002
4.166583e+002, 2.037054e+002
4.171404e+002, 2.029915e+002
4.176226e+002, 2.016971e+002
4.181047e+002, 2.003704e+002
4.185868e+002, 1.989914e+002
4.190689e+002, 1.978776e+002
4.195510e+002, 1.973386e+002
4.200331e+002, 1.978262e+002
4.205153e+002, 1.984141e+002
4.209974e+002, 1.988559e+002
4.214795e+002, 1.991433e+002
4.219616e+002, 1.992321e+002
4.224437e+002, 1.985190e+002
4.229258e+002, 1.981177e+002
4.234080e+002, 1.986611e+002
4.238901e+002, 2.005900e+002
4.243722e+002, 2.020304e+002
4.248543e+002, 2.024461e+002
4.253364e+002, 2.025037e+002
4.258185e+002, 2.028445e+002
4.263007e+002, 2.036093e+002
4.267828e+002, 2.044649e+002
4.272649e+002, 2.053765e+002
4.277470e+002, 2.063396e+002
4.282291e+002, 2.074239e+002
4.287112e+002, 2.088630e+002
4.291934e+002, 2.099961e+002
4.296755e+002, 2.103249e+002
4.301576e+002, 2.095940e+002
4.306397e+002, 2.094008e+002
4.311218e+002, 2.099510e+002
4.316039e+002, 2.107800e+002
4.320861e+002, 2.111544e+002
4.325682e+002, 2.110472e+002
4.330503e+002, 2.108555e+002
4.335324e+002, 2.107163e+002
4.340145e+002, 2.105996e+002
4.344966e+002, 2.103642e+002
4.349788e+002, 2.100069e+002
4.354609e+002, 2.096847e+002
4.359430e+002, 2.096188e+002
4.364251e+002, 2.096950e+002
4.369072e+002, 2.096153e+002
4.373893e+002, 2.093522e+002
4.378715e+002, 2.088558e+002
4.383536e+002, 2.078314e+002
4.388357e+002, 2.064910e+002
4.393178e+002, 2.054259e+002
4.397999e+002, 2.050932e+002
4.402820e+002, 2.050728e+002
4.407642e+002, 2.049036e+002
4.412463e+002, 2.045554e+002
4.417284e+002, 2.045461e+002
4.422105e+002, 2.056747e+002
4.426926e+002, 2.070355e+002
4.431747e+002, 2.077484e+002
4.436569e+002, 2.071226e+002
4.441390e+002, 2.063587e+002
4.446211e+002, 2.057896e+002
4.451032e+002, 2.053580e+002
4.455853e+002, 2.049176e+002
4.460674e+002, 2.045414e+002
4.465496e+002, 2.040639e+002
4.470317e+002, 2.034074e+002
4.475138e+002, 2.025135e+002
4.479959e+002, 2.016394e+002
4.484780e+002, 2.009687e+002
4.489601e+002, 2.001955e+002
4.494423e+002, 1.989849e+002
4.499244e+002, 1.971766e+002
4.504065e+002, 1.952913e+002
4.508886e+002, 1.933496e+002
4.513707e+002, 1.914014e+002
4.518528e+002, 1.895844e+002
4.523350e+002, 1.878943e+002
4.528171e+002, 1.863125e+002
4.532992e+002, 1.847011e+002
4.537813e+002, 1.830464e+002
4.542634e+002, 1.820017e+002
4.547455e+002, 1.817007e+002
4.552277e+002, 1.815804e+002
4.557098e+002, 1.807482e+002
4.561919e+002, 1.793435e+002
4.566740e+002, 1.783170e+002
4.571561e+002, 1.782615e+002
4.576382e+002, 1.785457e+002
4.581204e+002, 1.779568e+002
4.586025e+002, 1.766058e+002
4.590846e+002, 1.753298e+002
4.595667e+002, 1.746081e+002
4.600488e+002, 1.743233e+002
4.605309e+002, 1.744450e+002
4.610131e+002, 1.750891e+002
4.614952e+002, 1.755690e+002
4.619773e+002, 1.750982e+002
4.624594e+002, 1.742219e+002
4.629415e+002, 1.737316e+002
4.634236e+002, 1.744906e+002
4.639058e+002, 1.751747e+002
4.643879e+002, 1.749818e+002
4.648700e+002, 1.740340e+002
4.653521e+002, 1.735428e+002
4.658342e+002, 1.744940e+002
4.663163e+002, 1.754728e+002
4.667985e+002, 1.756539e+002
4.672806e+002, 1.743622e+002
4.677627e+002, 1.733891e+002
4.682448e+002, 1.728349e+002
4.687269e+002, 1.725928e+002
4.692090e+002, 1.725209e+002
4.696912e+002, 1.726947e+002
4.701733e+002, 1.729085e+002
4.706554e+002, 1.731658e+002
4.711375e+002, 1.734431e+002
4.716196e+002, 1.734863e+002
4.721017e+002, 1.732292e+002
4.725839e+002, 1.729211e+002
4.730660e+002, 1.726311e+002
4.735481e+002, 1.723586e+002
4.740302e+002, 1.726080e+002
4.745123e+002, 1.735939e+002
4.749944e+002, 1.746387e+002
4.754766e+002, 1.745666e+002
4.759587e+002, 1.735491e+002
4.764408e+002, 1.726658e+002
4.769229e+002, 1.723633e+002
4.774050e+002, 1.724564e+002
4.778871e+002, 1.727153e+002
4.783693e+002, 1.731299e+002
4.788514e+002, 1.735942e+002
4.793335e+002, 1.740719e+002
4.798156e+002, 1.745434e+002
4.802977e+002, 1.749818e+002
4.807798e+002, 1.753800e+002
4.812620e+002, 1.757437e+002
4.817441e+002, 1.761517e+002
4.822262e+002, 1.765059e+002
4.827083e+002, 1.766626e+002
4.831904e+002, 1.763214e+002
4.836725e+002, 1.760126e+002
4.841547e+002, 1.758463e+002
4.846368e+002, 1.758402e+002
4.851189e+002, 1.761573e+002
4.856010e+002, 1.771595e+002
4.860831e+002, 1.782274e+002
4.865652e+002, 1.790229e+002
4.870474e+002, 1.793267e+002
4.875295e+002, 1.798785e+002
4.880116e+002, 1.810024e+002
4.884937e+002, 1.821280e+002
4.889758e+002, 1.823122e+002
4.894579e+002, 1.811100e+002
4.899401e+002, 1.803536e+002
4.904222e+002, 1.806282e+002
4.909043e+002, 1.816678e+002
4.913864e+002, 1.821991e+002
4.918685e+002, 1.821569e+002
4.923506e+002, 1.820664e+002
4.928328e+002, 1.824365e+002
4.933149e+002, 1.831038e+002
4.937970e+002, 1.832375e+002
4.942791e+002, 1.827014e+002
4.947612e+002, 1.820142e+002
4.952433e+002, 1.818951e+002
4.957255e+002, 1.820954e+002
4.962076e+002, 1.819607e+002
4.966897e+002, 1.809677e+002
4.971718e+002, 1.798208e+002
4.976539e+002, 1.792277e+002
4.981360e+002, 1.790822e+002
4.986182e+002, 1.789593e+002
4.991003e+002, 1.784888e+002
4.995824e+002, 1.780670e+002
5.000645e+002, 1.779969e+002
5.005466e+002, 1.783618e+002
5.010287e+002, 1.788365e+002
5.015109e+002, 1.797700e+002
5.019930e+002, 1.805685e+002
5.024751e+002, 1.806256e+002
5.029572e+002, 1.787688e+002
5.034393e+002, 1.774759e+002
5.039214e+002, 1.771990e+002
5.044036e+002, 1.776942e+002
5.048857e+002, 1.781348e+002
5.053678e+002, 1.785886e+002
5.058499e+002, 1.788742e+002
5.063320e+002, 1.788624e+002
5.068141e+002, 1.785239e+002
5.072963e+002, 1.783470e+002
5.077784e+002, 1.783569e+002
5.082605e+002, 1.784605e+002
5.087426e+002, 1.786064e+002
5.092247e+002, 1.787861e+002
5.097068e+002, 1.788467e+002
5.101890e+002, 1.787056e+002
5.106711e+002, 1.785332e+002
5.111532e+002, 1.786886e+002
5.116353e+002, 1.790996e+002
5.121174e+002, 1.794190e+002
5.125995e+002, 1.792196e+002
5.130817e+002, 1.789629e+002
5.135638e+002, 1.794283e+002
5.140459e+002, 1.805791e+002
5.145280e+002, 1.813845e+002
5.150101e+002, 1.808712e+002
5.154922e+002, 1.798716e+002
5.159744e+002, 1.791375e+002
5.164565e+002, 1.787814e+002
5.169386e+002, 1.787873e+002
5.174207e+002, 1.794301e+002
5.179028e+002, 1.803790e+002
5.183849e+002, 1.810905e+002
5.188671e+002, 1.813818e+002
5.193492e+002, 1.815264e+002
5.198313e+002, 1.815547e+002
5.203134e+002, 1.814732e+002
5.207955e+002, 1.813860e+002
5.212776e+002, 1.812803e+002
5.217598e+002, 1.811836e+002
5.222419e+002, 1.811607e+002
5.227240e+002, 1.812790e+002
5.232061e+002, 1.810346e+002
5.236882e+002, 1.802771e+002
5.241703e+002, 1.794561e+002
5.246525e+002, 1.791884e+002
5.251346e+002, 1.794454e+002
5.256167e+002, 1.798211e+002
5.260988e+002, 1.802754e+002
5.265809e+002, 1.807038e+002
5.270630e+002, 1.808930e+002
5.275452e+002, 1.808679e+002
5.280273e+002, 1.807732e+002
5.285094e+002, 1.805260e+002
5.289915e+002, 1.803461e+002
5.294736e+002, 1.805914e+002
5.299557e+002, 1.813058e+002
5.304379e+002, 1.818962e+002
5.309200e+002, 1.820414e+002
5.314021e+002, 1.818730e+002
5.318842e+002, 1.815009e+002
5.323663e+002, 1.806682e+002
5.328484e+002, 1.800381e+002
5.333306e+002, 1.797582e+002
5.338127e+002, 1.797931e+002
5.342948e+002, 1.800883e+002
5.347769e+002, 1.812199e+002
5.352590e+002, 1.819255e+002
5.357411e+002, 1.816609e+002
5.362233e+002, 1.804781e+002
5.367054e+002, 1.802497e+002
5.371875e+002, 1.814709e+002
5.376696e+002, 1.826993e+002
5.381517e+002, 1.828851e+002
5.386339e+002, 1.819277e+002
5.391160e+002, 1.813162e+002
5.395981e+002, 1.811851e+002
5.400802e+002, 1.812602e+002
5.405623e+002, 1.811666e+002
5.410444e+002, 1.809435e+002
5.415266e+002, 1.808128e+002
5.420087e+002, 1.808613e+002
5.424908e+002, 1.810135e+002
5.429729e+002, 1.812486e+002
5.434550e+002, 1.815176e+002
5.439371e+002, 1.816365e+002
5.444193e+002, 1.811742e+002
5.449014e+002, 1.807342e+002
5.453835e+002, 1.809860e+002
5.458656e+002, 1.820302e+002
5.463477e+002, 1.827795e+002
5.468298e+002, 1.824282e+002
5.473120e+002, 1.817997e+002
5.477941e+002, 1.815818e+002
5.482762e+002, 1.824080e+002
5.487583e+002, 1.829236e+002
5.492404e+002, 1.829000e+002
5.497225e+002, 1.825456e+002
5.502047e+002, 1.821860e+002
5.506868e+002, 1.817531e+002
5.511689e+002, 1.814484e+002
5.516510e+002, 1.813463e+002
5.521331e+002, 1.814207e+002
5.526152e+002, 1.815471e+002
5.530974e+002, 1.817614e+002
5.535795e+002, 1.818624e+002
5.540616e+002, 1.816126e+002
5.545437e+002, 1.810999e+002
5.550258e+002, 1.807893e+002
5.555079e+002, 1.806971e+002
5.559901e+002, 1.808815e+002
5.564722e+002, 1.817251e+002
5.569543e+002, 1.828608e+002
5.574364e+002, 1.834642e+002
5.579185e+002, 1.829796e+002
5.584006e+002, 1.824082e+002
5.588828e+002, 1.827556e+002
5.593649e+002, 1.836228e+002
5.598470e+002, 1.840957e+002
5.603291e+002, 1.832814e+002
5.608112e+002, 1.824607e+002
5.612933e+002, 1.822318e+002
5.617755e+002, 1.826231e+002
5.622576e+002, 1.830278e+002
5.627397e+002, 1.834113e+002
5.632218e+002, 1.837398e+002
5.637039e+002, 1.839945e+002
5.641860e+002, 1.841572e+002
5.646682e+002, 1.843198e+002
5.651503e+002, 1.845750e+002
5.656324e+002, 1.847227e+002
5.661145e+002, 1.843358e+002
5.665966e+002, 1.833019e+002
5.670787e+002, 1.828565e+002
5.675609e+002, 1.834383e+002
5.680430e+002, 1.845458e+002
5.685251e+002, 1.851189e+002
5.690072e+002, 1.852075e+002
5.694893e+002, 1.851543e+002
5.699714e+002, 1.849660e+002
5.704536e+002, 1.848335e+002
5.709357e+002, 1.851045e+002
5.714178e+002, 1.857579e+002
5.718999e+002, 1.864225e+002
5.723820e+002, 1.869034e+002
5.728641e+002, 1.872539e+002
5.733463e+002, 1.875276e+002
5.738284e+002, 1.877787e+002
5.743105e+002, 1.878324e+002
5.747926e+002, 1.873512e+002
5.752747e+002, 1.867440e+002
5.757568e+002, 1.865361e+002
5.762390e+002, 1.873311e+002
5.767211e+002, 1.877543e+002
5.772032e+002, 1.874346e+002
5.776853e+002, 1.866511e+002
5.781674e+002, 1.864482e+002
5.786495e+002, 1.870713e+002
5.791317e+002, 1.875473e+002
5.796138e+002, 1.873328e+002
5.800959e+002, 1.865595e+002
5.805780e+002, 1.863478e+002
5.810601e+002, 1.867258e+002
5.815422e+002, 1.873511e+002
5.820244e+002, 1.881224e+002
5.825065e+002, 1.889097e+002
5.829886e+002, 1.893148e+002
5.834707e+002, 1.892354e+002
5.839528e+002, 1.890922e+002
5.844349e+002, 1.893125e+002
5.849171e+002, 1.897008e+002
5.853992e+002, 1.899635e+002
5.858813e+002, 1.897519e+002
5.863634e+002, 1.896601e+002
5.868455e+002, 1.899294e+002
5.873276e+002, 1.905038e+002
5.878098e+002, 1.912295e+002
5.882919e+002, 1.926289e+002
5.887740e+002, 1.935963e+002
5.892561e+002, 1.936234e+002
5.897382e+002, 1.926854e+002
5.902203e+002, 1.922728e+002
5.907025e+002, 1.926281e+002
5.911846e+002, 1.930783e+002
5.916667e+002, 1.931187e+002
5.921488e+002, 1.927004e+002
5.926309e+002, 1.926083e+002
5.931130e+002, 1.928949e+002
5.935952e+002, 1.934121e+002
5.940773e+002, 1.939843e+002
5.945594e+002, 1.946390e+002
5.950415e+002, 1.954995e+002
5.955236e+002, 1.967176e+002
5.960057e+002, 1.979418e+002
5.964879e+002, 1.987061e+002
5.969700e+002, 1.991631e+002
5.974521e+002, 1.996602e+002
5.979342e+002, 2.003656e+002
5.984163e+002, 2.011512e+002
5.988984e+002, 2.019495e+002
5.993806e+002, 2.027639e+002
5.998627e+002, 2.036213e+002
6.003448e+002, 2.044725e+002
6.008269e+002, 2.054134e+002
6.013090e+002, 2.064351e+002
6.017911e+002, 2.074285e+002
6.022733e+002, 2.090286e+002
6.027554e+002, 2.116052e+002
6.032375e+002, 2.142637e+002
6.037196e+002, 2.159638e+002
6.042017e+002, 2.165761e+002
6.046838e+002, 2.177089e+002
6.051660e+002, 2.195679e+002
6.056481e+002, 2.220029e+002
6.061302e+002, 2.249549e+002
6.066123e+002, 2.283160e+002
6.070944e+002, 2.315623e+002
6.075765e+002, 2.344316e+002
6.080587e+002, 2.371905e+002
6.085408e+002, 2.399851e+002
6.090229e+002, 2.429067e+002
6.095050e+002, 2.463884e+002
6.099871e+002, 2.506139e+002
6.104692e+002, 2.554641e+002
6.109514e+002, 2.610864e+002
6.114335e+002, 2.675801e+002
6.119156e+002, 2.737435e+002
6.123977e+002, 2.787027e+002
6.128798e+002, 2.837539e+002
6.133619e+002, 2.895776e+002
6.138441e+002, 2.965115e+002
6.143262e+002, 3.036484e+002
6.148083e+002, 3.111573e+002
6.152904e+002, 3.187023e+002
6.157725e+002, 3.255865e+002
6.162546e+002, 3.317456e+002
6.167368e+002, 3.385180e+002
6.172189e+002, 3.465495e+002
6.177010e+002, 3.548134e+002
6.181831e+002, 3.617211e+002
6.186652e+002, 3.672785e+002
6.191473e+002, 3.714861e+002
6.196295e+002, 3.741813e+002
6.201116e+002, 3.755706e+002
6.205937e+002, 3.756534e+002
6.210758e+002, 3.745394e+002
6.215579e+002, 3.727414e+002
6.220400e+002, 3.711482e+002
6.225222e+002, 3.684628e+002
6.230043e+002, 3.636331e+002
6.234864e+002, 3.561657e+002
6.239685e+002, 3.488629e+002
6.244506e+002, 3.420186e+002
6.249327e+002, 3.354016e+002
6.254149e+002, 3.289295e+002
6.258970e+002, 3.229337e+002
6.263791e+002, 3.161520e+002
6.268612e+002, 3.082290e+002
6.273433e+002, 3.000418e+002
6.278254e+002, 2.925963e+002
6.283076e+002, 2.859073e+002
6.287897e+002, 2.804035e+002
6.292718e+002, 2.765019e+002
6.297539e+002, 2.733138e+002
6.302360e+002, 2.696490e+002
6.307181e+002, 2.655701e+002
6.312003e+002, 2.613157e+002
6.316824e+002, 2.565389e+002
6.321645e+002, 2.519870e+002
6.326466e+002, 2.483918e+002
6.331287e+002, 2.456242e+002
6.336108e+002, 2.430031e+002
6.340930e+002, 2.403774e+002
6.345751e+002, 2.377248e+002
6.350572e+002, 2.349066e+002
6.355393e+002, 2.317003e+002
6.360214e+002, 2.294756e+002
6.365035e+002, 2.289610e+002
6.369857e+002, 2.285298e+002
6.374678e+002, 2.267485e+002
6.379499e+002, 2.233261e+002
6.384320e+002, 2.207264e+002
6.389141e+002, 2.192010e+002
6.393962e+002, 2.182963e+002
6.398784e+002, 2.175404e+002
6.403605e+002, 2.169254e+002
6.408426e+002, 2.164371e+002
6.413247e+002, 2.162393e+002
6.418068e+002, 2.158715e+002
6.422889e+002, 2.145209e+002
6.427711e+002, 2.126214e+002
6.432532e+002, 2.111226e+002
6.437353e+002, 2.106131e+002
6.442174e+002, 2.104620e+002
6.446995e+002, 2.106361e+002
6.451816e+002, 2.110213e+002
6.456638e+002, 2.109395e+002
6.461459e+002, 2.096515e+002
6.466280e+002, 2.085371e+002
6.471101e+002, 2.081420e+002
6.475922e+002, 2.085264e+002
6.480743e+002, 2.085506e+002
6.485565e+002, 2.080992e+002
6.490386e+002, 2.075769e+002
6.495207e+002, 2.072869e+002
6.500028e+002, 2.072094e+002
6.504849e+002, 2.072397e+002
6.509670e+002, 2.073914e+002
6.514492e+002, 2.074941e+002
6.519313e+002, 2.071493e+002
6.524134e+002, 2.066635e+002
6.528955e+002, 2.067531e+002
6.533776e+002, 2.080672e+002
6.538597e+002, 2.089283e+002
6.543419e+002, 2.076195e+002
6.548240e+002, 2.053391e+002
6.553061e+002, 2.039435e+002
6.557882e+002, 2.045021e+002
6.562703e+002, 2.053450e+002
6.567524e+002, 2.063051e+002
6.572346e+002, 2.072857e+002
6.577167e+002, 2.080050e+002
6.581988e+002, 2.084519e+002
6.586809e+002, 2.086579e+002
6.591630e+002, 2.085594e+002
6.596451e+002, 2.082222e+002
6.601273e+002, 2.079422e+002
6.606094e+002, 2.077019e+002
6.610915e+002, 2.078002e+002
6.615736e+002, 2.087974e+002
6.620557e+002, 2.101675e+002
6.625378e+002, 2.107018e+002
6.630200e+002, 2.103441e+002
6.635021e+002, 2.101474e+002
6.639842e+002, 2.113165e+002
6.644663e+002, 2.127362e+002
6.649484e+002, 2.132772e+002
6.654305e+002, 2.124327e+002
6.659127e+002, 2.116519e+002
6.663948e+002, 2.108522e+002
6.668769e+002, 2.105293e+002
6.673590e+002, 2.112660e+002
6.678411e+002, 2.140717e+002
6.683232e+002, 2.157390e+002
6.688054e+002, 2.156325e+002
6.692875e+002, 2.147112e+002
6.697696e+002, 2.147863e+002
6.702517e+002, 2.158850e+002
6.707338e+002, 2.164613e+002
6.712159e+002, 2.157743e+002
6.716981e+002, 2.146902e+002
6.721802e+002, 2.149265e+002
6.726623e+002, 2.161277e+002
6.731444e+002, 2.170289e+002
6.736265e+002, 2.166764e+002
6.741086e+002, 2.160091e+002
6.745908e+002, 2.157807e+002
6.750729e+002, 2.159116e+002
6.755550e+002, 2.157619e+002
6.760371e+002, 2.147735e+002
6.765192e+002, 2.137913e+002
6.770013e+002, 2.132042e+002
6.774835e+002, 2.130531e+002
6.779656e+002, 2.128624e+002
6.784477e+002, 2.126151e+002
6.789298e+002, 2.123566e+002
6.794119e+002, 2.121505e+002
6.798940e+002, 2.119939e+002
6.803762e+002, 2.116621e+002
6.808583e+002, 2.111166e+002
6.813404e+002, 2.105554e+002
6.818225e+002, 2.102324e+002
6.823046e+002, 2.100316e+002
6.827867e+002, 2.096305e+002
6.832689e+002, 2.088417e+002
6.837510e+002, 2.082793e+002
6.842331e+002, 2.086627e+002
6.847152e+002, 2.094507e+002
6.851973e+002, 2.099470e+002
6.856794e+002, 2.097448e+002
6.861616e+002, 2.095114e+002
6.866437e+002, 2.095620e+002
6.871258e+002, 2.096042e+002
6.876079e+002, 2.090155e+002
6.880900e+002, 2.074542e+002
6.885721e+002, 2.061725e+002
6.890543e+002, 2.054925e+002
6.895364e+002, 2.052864e+002
6.900185e+002, 2.051613e+002
6.905006e+002, 2.051239e+002
6.909827e+002, 2.053551e+002
6.914648e+002, 2.063437e+002
6.919470e+002, 2.074530e+002
6.924291e+002, 2.075089e+002
6.929112e+002, 2.066973e+002
6.933933e+002, 2.060527e+002
6.938754e+002, 2.064586e+002
6.943575e+002, 2.069730e+002
6.948397e+002, 2.068297e+002
6.953218e+002, 2.058906e+002
6.958039e+002, 2.054923e+002
6.962860e+002, 2.063594e+002
6.967681e+002, 2.072891e+002
6.972502e+002, 2.076416e+002
6.977324e+002, 2.072437e+002
6.982145e+002, 2.071647e+002
6.986966e+002, 2.074977e+002
6.991787e+002, 2.078904e+002
6.996608e+002, 2.080417e+002
7.001429e+002, 2.079598e+002
7.006251e+002, 2.075667e+002
7.011072e+002, 2.067581e+002
7.015893e+002, 2.061734e+002
7.020714e+002, 2.066558e+002
7.025535e+002, 2.077038e+002
7.030356e+002, 2.085795e+002
7.035178e+002, 2.089407e+002
7.039999e+002, 2.093113e+002
7.044820e+002, 2.099653e+002
7.049641e+002, 2.107257e+002
7.054462e+002, 2.113173e+002
7.059283e+002, 2.115377e+002
7.064105e+002, 2.118884e+002
7.068926e+002, 2.124293e+002
7.073747e+002, 2.131416e+002
7.078568e+002, 2.140168e+002
7.083389e+002, 2.150722e+002
7.088210e+002, 2.161449e+002
7.093032e+002, 2.172803e+002
7.097853e+002, 2.183087e+002
7.102674e+002, 2.186191e+002
7.107495e+002, 2.184255e+002
7.112316e+002, 2.186132e+002
7.117137e+002, 2.203752e+002
7.121959e+002, 2.221120e+002
7.126780e+002, 2.223696e+002
7.131601e+002, 2.213564e+002
7.136422e+002, 2.207824e+002
7.141243e+002, 2.214461e+002
7.146064e+002, 2.223438e+002
7.150886e+002, 2.231255e+002
7.155707e+002, 2.237980e+002
7.160528e+002, 2.242454e+002
7.165349e+002, 2.243858e+002
7.170170e+002, 2.245222e+002
7.174991e+002, 2.250221e+002
7.179813e+002, 2.257720e+002
7.184634e+002, 2.257861e+002
7.189455e+002, 2.250168e+002
7.194276e+002, 2.240710e+002
7.199097e+002, 2.233092e+002
7.203918e+002, 2.227546e+002
7.208740e+002, 2.225754e+002
7.213561e+002, 2.228955e+002
7.218382e+002, 2.229258e+002
7.223203e+002, 2.219454e+002
7.228024e+002, 2.207065e+002
7.232845e+002, 2.198892e+002
7.237667e+002, 2.201117e+002
7.242488e+002, 2.196840e+002
7.247309e+002, 2.180375e+002
7.252130e+002, 2.163384e+002
7.256951e+002, 2.162095e+002
7.261772e+002, 2.177978e+002
7.266594e+002, 2.186507e+002
7.271415e+002, 2.182808e+002
7.276236e+002, 2.173754e+002
7.281057e+002, 2.167684e+002
7.285878e+002, 2.163786e+002
7.290699e+002, 2.159815e+002
7.295521e+002, 2.154586e+002
7.300342e+002, 2.149821e+002
7.305163e+002, 2.145283e+002
7.309984e+002, 2.142272e+002
7.314805e+002, 2.143096e+002
7.319626e+002, 2.153596e+002
7.324448e+002, 2.161703e+002
7.329269e+002, 2.165602e+002
7.334090e+002, 2.165705e+002
7.338911e+002, 2.161810e+002
7.343732e+002, 2.152098e+002
7.348553e+002, 2.146287e+002
7.353375e+002, 2.148797e+002
7.358196e+002, 2.156120e+002
7.363017e+002, 2.159027e+002
7.367838e+002, 2.158164e+002
7.372659e+002, 2.157463e+002
7.377480e+002, 2.160636e+002
7.382302e+002, 2.163779e+002
7.387123e+002, 2.161685e+002
7.391944e+002, 2.155709e+002
7.396765e+002, 2.152701e+002
7.401586e+002, 2.158876e+002
7.406407e+002, 2.165046e+002
7.411229e+002, 2.167510e+002
7.416050e+002, 2.166360e+002
7.420871e+002, 2.161805e+002
7.425692e+002, 2.150971e+002
7.430513e+002, 2.143486e+002
7.435334e+002, 2.146391e+002
7.440156e+002, 2.158043e+002
7.444977e+002, 2.164291e+002
7.449798e+002, 2.165182e+002
7.454619e+002, 2.164101e+002
7.459440e+002, 2.161877e+002
7.464261e+002, 2.160116e+002
7.469083e+002, 2.159826e+002
7.473904e+002, 2.161058e+002
7.478725e+002, 2.167425e+002
7.483546e+002, 2.187197e+002
7.488367e+002, 2.207761e+002
7.493188e+002, 2.219617e+002
7.498010e+002, 2.218373e+002
7.502831e+002, 2.222139e+002
7.507652e+002, 2.233906e+002
7.512473e+002, 2.246042e+002
7.517294e+002, 2.250814e+002
7.522115e+002, 2.248354e+002
7.526937e+002, 2.253405e+002
7.531758e+002, 2.267621e+002
7.536579e+002, 2.284243e+002
7.541400e+002, 2.298017e+002
7.546221e+002, 2.309010e+002
7.551042e+002, 2.317105e+002
7.555864e+002, 2.321711e+002
7.560685e+002, 2.325585e+002
7.565506e+002, 2.323980e+002
7.570327e+002, 2.325540e+002
7.575148e+002, 2.339182e+002
7.579969e+002, 2.382777e+002
7.584791e+002, 2.412346e+002
7.589612e+002, 2.422719e+002
7.594433e+002, 2.424795e+002
7.599254e+002, 2.431686e+002
7.604075e+002, 2.443747e+002
7.608896e+002, 2.453419e+002
7.613718e+002, 2.459796e+002
7.618539e+002, 2.462574e+002
7.623360e+002, 2.459374e+002
7.628181e+002, 2.452512e+002
7.633002e+002, 2.447295e+002
7.637823e+002, 2.447864e+002
7.642645e+002, 2.445593e+002
7.647466e+002, 2.435871e+002
7.652287e+002, 2.420358e+002
7.657108e+002, 2.401125e+002
7.661929e+002, 2.372741e+002
7.666750e+002, 2.348985e+002
7.671572e+002, 2.331990e+002
7.676393e+002, 2.319551e+002
7.681214e+002, 2.307285e+002
7.686035e+002, 2.295070e+002
7.690856e+002, 2.285092e+002
7.695677e+002, 2.277558e+002
7.700499e+002, 2.272939e+002
7.705320e+002, 2.274777e+002
7.710141e+002, 2.280179e+002
7.714962e+002, 2.281752e+002
7.719783e+002, 2.274628e+002
7.724604e+002, 2.264595e+002
7.729426e+002, 2.251909e+002
7.734247e+002, 2.238713e+002
7.739068e+002, 2.230289e+002
7.743889e+002, 2.230044e+002
7.748710e+002, 2.230671e+002
7.753531e+002, 2.231588e+002
7.758353e+002, 2.232310e+002
7.763174e+002, 2.230858e+002
7.767995e+002, 2.227112e+002
7.772816e+002, 2.224622e+002
7.777637e+002, 2.225550e+002
7.782458e+002, 2.227571e+002
7.787280e+002, 2.226502e+002
7.792101e+002, 2.223145e+002
7.796922e+002, 2.220064e+002
7.801743e+002, 2.217378e+002
7.806564e+002, 2.216361e+002
7.811385e+002, 2.217731e+002
7.816207e+002, 2.221338e+002
7.821028e+002, 2.226668e+002
7.825849e+002, 2.236191e+002
7.830670e+002, 2.243345e+002
7.835491e+002, 2.246152e+002
7.840313e+002, 2.245316e+002
7.845134e+002, 2.242580e+002
7.849955e+002, 2.237835e+002
7.854776e+002, 2.235754e+002
7.859597e+002, 2.240538e+002
7.864418e+002, 2.247814e+002
7.869240e+002, 2.248981e+002
7.874061e+002, 2.246127e+002
7.878882e+002, 2.246999e+002
7.883703e+002, 2.260053e+002
7.888524e+002, 2.273379e+002
7.893345e+002, 2.280504e+002
7.898167e+002, 2.282118e+002
7.902988e+002, 2.285323e+002
7.907809e+002, 2.292339e+002
7.912630e+002, 2.297208e+002
7.917451e+002, 2.297603e+002
7.922272e+002, 2.294370e+002
7.927094e+002, 2.292203e+002
7.931915e+002, 2.290938e+002
7.936736e+002, 2.285518e+002
7.941557e+002, 2.269373e+002
7.946378e+002, 2.249750e+002
7.951199e+002, 2.234347e+002
7.956021e+002, 2.223559e+002
7.960842e+002, 2.217860e+002
7.965663e+002, 2.223123e+002
7.970484e+002, 2.228230e+002
7.975305e+002, 2.227751e+002
7.980126e+002, 2.222268e+002
7.984948e+002, 2.217076e+002
7.989769e+002, 2.211891e+002
7.994590e+002, 2.207778e+002
7.999411e+002, 2.205217e+002
8.004232e+002, 2.204099e+002
8.009053e+002, 2.205435e+002
8.013875e+002, 2.208781e+002
8.018696e+002, 2.209659e+002
8.023517e+002, 2.202734e+002
8.028338e+002, 2.193920e+002
8.033159e+002, 2.189349e+002
8.037980e+002, 2.188428e+002
8.042802e+002, 2.186971e+002
8.047623e+002, 2.179827e+002
8.052444e+002, 2.176050e+002
8.057265e+002, 2.180647e+002
8.062086e+002, 2.192205e+002
8.066907e+002, 2.197744e+002
8.071729e+002, 2.195805e+002
8.076550e+002, 2.194096e+002
8.081371e+002, 2.197828e+002
8.086192e+002, 2.203780e+002
8.091013e+002, 2.202315e+002
8.095834e+002, 2.194582e+002
8.100656e+002, 2.187106e+002
8.105477e+002, 2.182885e+002
8.110298e+002, 2.181053e+002
8.115119e+002, 2.182435e+002
8.119940e+002, 2.186353e+002
8.124761e+002, 2.187819e+002
8.129583e+002, 2.183602e+002
8.134404e+002, 2.180116e+002
8.139225e+002, 2.179688e+002
8.144046e+002, 2.181679e+002
8.148867e+002, 2.181365e+002
8.153688e+002, 2.178530e+002
8.158510e+002, 2.177894e+002
8.163331e+002, 2.183431e+002
8.168152e+002, 2.191786e+002
8.172973e+002, 2.198183e+002
8.177794e+002, 2.202575e+002
8.182615e+002, 2.204698e+002
8.187437e+002, 2.203078e+002
8.192258e+002, 2.200370e+002
8.197079e+002, 2.196976e+002
8.201900e+002, 2.193263e+002
8.206721e+002, 2.191276e+002
8.211542e+002, 2.190695e+002
8.216364e+002, 2.192874e+002
8.221185e+002, 2.200546e+002
8.226006e+002, 2.210147e+002
8.230827e+002, 2.207694e+002
8.235648e+002, 2.194805e+002
8.240469e+002, 2.184397e+002
8.245291e+002, 2.186064e+002
8.250112e+002, 2.191139e+002
8.254933e+002, 2.191273e+002
8.259754e+002, 2.187884e+002
8.264575e+002, 2.185480e+002
8.269396e+002, 2.186024e+002
8.274218e+002, 2.187184e+002
8.279039e+002, 2.188044e+002
8.283860e+002, 2.189062e+002
8.288681e+002, 2.192141e+002
8.293502e+002, 2.197809e+002
8.298323e+002, 2.202513e+002
8.303145e+002, 2.204777e+002
8.307966e+002, 2.205715e+002
8.312787e+002, 2.208090e+002
8.317608e+002, 2.211039e+002
8.322429e+002, 2.211829e+002
8.327250e+002, 2.206394e+002
8.332072e+002, 2.201297e+002
8.336893e+002, 2.201673e+002
8.341714e+002, 2.205014e+002
8.346535e+002, 2.204089e+002
8.351356e+002, 2.192563e+002
8.356177e+002, 2.187914e+002
8.360999e+002, 2.195373e+002
8.365820e+002, 2.209412e+002
8.370641e+002, 2.217958e+002
8.375462e+002, 2.221353e+002
8.380283e+002, 2.223667e+002
8.385104e+002, 2.226931e+002
8.389926e+002, 2.228277e+002
8.394747e+002, 2.221964e+002
8.399568e+002, 2.212016e+002
8.404389e+002, 2.205369e+002
8.409210e+002, 2.204539e+002
8.414031e+002, 2.207194e+002
8.418853e+002, 2.214196e+002
8.423674e+002, 2.223676e+002
8.428495e+002, 2.234464e+002
8.433316e+002, 2.248243e+002
8.438137e+002, 2.253626e+002
8.442958e+002, 2.246737e+002
8.447780e+002, 2.236128e+002
8.452601e+002, 2.236023e+002
8.457422e+002, 2.241998e+002
8.462243e+002, 2.242390e+002
8.467064e+002, 2.230728e+002
8.471885e+002, 2.221495e+002
8.476707e+002, 2.225988e+002
8.481528e+002, 2.236127e+002
8.486349e+002, 2.242420e+002
8.491170e+002, 2.241475e+002
8.495991e+002, 2.241306e+002
8.500812e+002, 2.242721e+002
8.505634e+002, 2.243947e+002
8.510455e+002, 2.242428e+002
8.515276e+002, 2.238644e+002
8.520097e+002, 2.236321e+002
8.524918e+002, 2.236111e+002
8.529739e+002, 2.236184e+002
8.534561e+002, 2.233967e+002
8.539382e+002, 2.231557e+002
8.544203e+002, 2.231600e+002
8.549024e+002, 2.235462e+002
8.553845e+002, 2.238674e+002
8.558666e+002, 2.240360e+002
8.563488e+002, 2.241087e+002
8.568309e+002, 2.241178e+002
8.573130e+002, 2.240645e+002
8.577951e+002, 2.238148e+002
8.582772e+002, 2.233050e+002
8.587593e+002, 2.230272e+002
8.592415e+002, 2.237828e+002
8.597236e+002, 2.249161e+002
8.602057e+002, 2.251482e+002
8.606878e+002, 2.243794e+002
8.611699e+002, 2.239109e+002
8.616520e+002, 2.247577e+002
8.621342e+002, 2.257817e+002
8.626163e+002, 2.262903e+002
8.630984e+002, 2.262626e+002
8.635805e+002, 2.261172e+002
8.640626e+002, 2.257431e+002
8.645447e+002, 2.256010e+002
8.650269e+002, 2.261308e+002
8.655090e+002, 2.270824e+002
8.659911e+002, 2.274294e+002
8.664732e+002, 2.272777e+002
8.669553e+002, 2.273625e+002
8.674374e+002, 2.283979e+002
8.679196e+002, 2.296069e+002
8.684017e+002, 2.305941e+002
8.688838e+002, 2.313057e+002
8.693659e+002, 2.314616e+002
8.698480e+002, 2.306398e+002
8.703301e+002, 2.299512e+002
8.708123e+002, 2.296768e+002
8.712944e+002, 2.297731e+002
8.717765e+002, 2.302988e+002
8.722586e+002, 2.311770e+002
8.727407e+002, 2.316440e+002
8.732228e+002, 2.311099e+002
8.737050e+002, 2.302886e+002
8.741871e+002, 2.298800e+002
8.746692e+002, 2.297525e+002
8.751513e+002, 2.296143e+002
8.756334e+002, 2.294489e+002
8.761155e+002, 2.291867e+002
8.765977e+002, 2.289441e+002
8.770798e+002, 2.285361e+002
8.775619e+002, 2.273636e+002
8.780440e+002, 2.253126e+002
8.785261e+002, 2.242653e+002
8.790082e+002, 2.248052e+002
8.794904e+002, 2.258894e+002
8.799725e+002, 2.263717e+002
8.804546e+002, 2.263753e+002
8.809367e+002, 2.260673e+002
8.814188e+002, 2.252913e+002
8.819009e+002, 2.246550e+002
8.823831e+002, 2.244804e+002
8.828652e+002, 2.244804e+002
8.833473e+002, 2.243764e+002
8.838294e+002, 2.241570e+002
8.843115e+002, 2.238286e+002
8.847936e+002, 2.233291e+002
8.852758e+002, 2.229611e+002
8.857579e+002, 2.230222e+002
8.862400e+002, 2.234540e+002
8.867221e+002, 2.242993e+002
8.872042e+002, 2.255991e+002
8.876863e+002, 2.265265e+002
8.881685e+002, 2.262874e+002
8.886506e+002, 2.257594e+002
8.891327e+002, 2.255969e+002
8.896148e+002, 2.259071e+002
8.900969e+002, 2.259484e+002
8.905790e+002, 2.256398e+002
8.910612e+002, 2.252563e+002
8.915433e+002, 2.249795e+002
8.920254e+002, 2.247532e+002
8.925075e+002, 2.243448e+002
8.929896e+002, 2.237734e+002
8.934717e+002, 2.232301e+002
8.939539e+002, 2.226771e+002
8.944360e+002, 2.223211e+002
8.949181e+002, 2.224149e+002
8.954002e+002, 2.228815e+002
8.958823e+002, 2.231945e+002
8.963644e+002, 2.232911e+002
8.968466e+002, 2.233150e+002
8.973287e+002, 2.233224e+002
8.978108e+002, 2.232771e+002
8.982929e+002, 2.230965e+002
8.987750e+002, 2.227787e+002
8.992571e+002, 2.222513e+002
8.997393e+002, 2.211855e+002
9.002214e+002, 2.203617e+002
9.007035e+002, 2.207863e+002
9.011856e+002, 2.218226e+002
9.016677e+002, 2.223927e+002
9.021498e+002, 2.215923e+002
9.026320e+002, 2.212840e+002
9.031141e+002, 2.218613e+002
9.035962e+002, 2.226278e+002
9.040783e+002, 2.224802e+002
9.045604e+002, 2.215094e+002
9.050425e+002, 2.210681e+002
9.055247e+002, 2.214384e+002
9.060068e+002, 2.218043e+002
9.064889e+002, 2.209742e+002
9.069710e+002, 2.199378e+002
9.074531e+002, 2.199587e+002
9.079352e+002, 2.216749e+002
9.084174e+002, 2.227662e+002
9.088995e+002, 2.224934e+002
9.093816e+002, 2.220229e+002
9.098637e+002, 2.220922e+002
9.103458e+002, 2.227001e+002
9.108279e+002, 2.229614e+002
9.113101e+002, 2.228661e+002
9.117922e+002, 2.228940e+002
9.122743e+002, 2.238123e+002
9.127564e+002, 2.247523e+002
9.132385e+002, 2.243779e+002
9.137206e+002, 2.229104e+002
9.142028e+002, 2.222322e+002
9.146849e+002, 2.234324e+002
9.151670e+002, 2.249484e+002
9.156491e+002, 2.265061e+002
9.161312e+002, 2.279878e+002
9.166133e+002, 2.289497e+002
9.170955e+002, 2.293940e+002
9.175776e+002, 2.293160e+002
9.180597e+002, 2.283503e+002
9.185418e+002, 2.274262e+002
9.190239e+002, 2.277184e+002
9.195060e+002, 2.289072e+002
9.199882e+002, 2.303595e+002
9.204703e+002, 2.321869e+002
9.209524e+002, 2.338505e+002
9.214345e+002, 2.350735e+002
9.219166e+002, 2.362263e+002
9.223987e+002, 2.378771e+002
9.228809e+002, 2.400882e+002
9.233630e+002, 2.417090e+002
9.238451e+002, 2.425239e+002
9.243272e+002, 2.432939e+002
9.248093e+002, 2.447716e+002
9.252914e+002, 2.467177e+002
9.257736e+002, 2.488450e+002
9.262557e+002, 2.511515e+002
9.267378e+002, 2.534406e+002
9.272199e+002, 2.559374e+002
9.277020e+002, 2.580844e+002
9.281841e+002, 2.593481e+002
9.286663e+002, 2.597296e+002
9.291484e+002, 2.614598e+002
9.296305e+002, 2.646194e+002
9.301126e+002, 2.676696e+002
9.305947e+002, 2.695851e+002
9.310768e+002, 2.709009e+002
9.315590e+002, 2.721618e+002
9.320411e+002, 2.734024e+002
9.325232e+002, 2.746302e+002
9.330053e+002, 2.757471e+002
9.334874e+002, 2.770097e+002
9.339695e+002, 2.785277e+002
9.344517e+002, 2.802077e+002
9.349338e+002, 2.820616e+002
9.354159e+002, 2.840956e+002
9.358980e+002, 2.852994e+002
9.363801e+002, 2.852677e+002
9.368622e+002, 2.846016e+002
9.373444e+002, 2.834827e+002
9.378265e+002, 2.823785e+002
9.383086e+002, 2.820620e+002
9.387907e+002, 2.835437e+002
9.392728e+002, 2.841870e+002
9.397549e+002, 2.828354e+002
9.402371e+002, 2.812409e+002
9.407192e+002, 2.809741e+002
9.412013e+002, 2.820936e+002
9.416834e+002, 2.824413e+002
9.421655e+002, 2.819150e+002
9.426476e+002, 2.812279e+002
9.431298e+002, 2.811064e+002
9.436119e+002, 2.810581e+002
9.440940e+002, 2.803272e+002
9.445761e+002, 2.789174e+002
9.450582e+002, 2.781533e+002
9.455403e+002, 2.790619e+002
9.460225e+002, 2.797754e+002
9.465046e+002, 2.795827e+002
9.469867e+002, 2.787783e+002
9.474688e+002, 2.787342e+002
9.479509e+002, 2.793806e+002
9.484330e+002, 2.796046e+002
9.489152e+002, 2.786885e+002
9.493973e+002, 2.774914e+002
9.498794e+002, 2.768989e+002
9.503615e+002, 2.766009e+002
9.508436e+002, 2.760459e+002
9.513257e+002, 2.747854e+002
9.518079e+002, 2.737045e+002
9.522900e+002, 2.728217e+002
9.527721e+002, 2.721725e+002
9.532542e+002, 2.721808e+002
9.537363e+002, 2.726277e+002
9.542184e+002, 2.716203e+002
9.547006e+002, 2.688425e+002
9.551827e+002, 2.658524e+002
9.556648e+002, 2.637580e+002
9.561469e+002, 2.620925e+002
9.566290e+002, 2.606201e+002
9.571111e+002, 2.593706e+002
9.575933e+002, 2.575490e+002
9.580754e+002, 2.549133e+002
9.585575e+002, 2.521172e+002
9.590396e+002, 2.492308e+002
9.595217e+002, 2.465349e+002
9.600038e+002, 2.453171e+002
9.604860e+002, 2.452973e+002
9.609681e+002, 2.450179e+002
9.614502e+002, 2.435221e+002
9.619323e+002, 2.417249e+002
9.624144e+002, 2.400042e+002
9.628965e+002, 2.383988e+002
9.633787e+002, 2.370218e+002
9.638608e+002, 2.358967e+002
9.643429e+002, 2.348812e+002
9.648250e+002, 2.339271e+002
9.653071e+002, 2.331281e+002
9.657892e+002, 2.327542e+002
9.662714e+002, 2.326273e+002
9.667535e+002, 2.323092e+002
9.672356e+002, 2.317244e+002
9.677177e+002, 2.309724e+002
9.681998e+002, 2.297964e+002
9.686819e+002, 2.287312e+002
9.691641e+002, 2.282315e+002
9.696462e+002, 2.283366e+002
9.701283e+002, 2.283370e+002
9.706104e+002, 2.282637e+002
9.710925e+002, 2.279128e+002
9.715746e+002, 2.269499e+002
9.720568e+002, 2.257477e+002
9.725389e+002, 2.249543e+002
9.730210e+002, 2.244989e+002
9.735031e+002, 2.241745e+002
9.739852e+002, 2.238832e+002
9.744673e+002, 2.237346e+002
9.749495e+002, 2.239461e+002
9.754316e+002, 2.242134e+002
9.759137e+002, 2.239017e+002
9.763958e+002, 2.229642e+002
9.768779e+002, 2.223732e+002
9.773600e+002, 2.223229e+002
9.778422e+002, 2.225486e+002
9.783243e+002, 2.229715e+002
9.788064e+002, 2.233974e+002
9.792885e+002, 2.234966e+002
9.797706e+002, 2.230926e+002
9.802527e+002, 2.230232e+002
9.807349e+002, 2.237170e+002
9.812170e+002, 2.243616e+002
9.816991e+002, 2.244760e+002
9.821812e+002, 2.241396e+002
9.826633e+002, 2.239608e+002
9.831454e+002, 2.239242e+002
9.836276e+002, 2.238795e+002
9.841097e+002, 2.236400e+002
9.845918e+002, 2.234433e+002
9.850739e+002, 2.235736e+002
9.855560e+002, 2.238833e+002
9.860381e+002, 2.239230e+002
9.865203e+002, 2.231798e+002
9.870024e+002, 2.232746e+002
9.874845e+002, 2.246985e+002
9.879666e+002, 2.264733e+002
9.884487e+002, 2.272507e+002
9.889308e+002, 2.272094e+002
9.894130e+002, 2.267061e+002
9.898951e+002, 2.256932e+002
9.903772e+002, 2.251075e+002
9.908593e+002, 2.256194e+002
9.913414e+002, 2.266768e+002
9.918235e+002, 2.281122e+002
9.923057e+002, 2.299700e+002
9.927878e+002, 2.308312e+002
9.932699e+002, 2.305963e+002
9.937520e+002, 2.300307e+002
9.942341e+002, 2.291605e+002
9.947162e+002, 2.285039e+002
9.951984e+002, 2.292218e+002
9.956805e+002, 2.309069e+002
9.961626e+002, 2.324278e+002
9.966447e+002, 2.334174e+002
9.971268e+002, 2.341135e+002
9.976089e+002, 2.344441e+002
9.980911e+002, 2.346431e+002
9.985732e+002, 2.349426e+002
9.990553e+002, 2.353450e+002
9.995374e+002, 2.362499e+002
1.000020e+003, 2.377309e+002
1.000502e+003, 2.393473e+002
1.000984e+003, 2.405843e+002
1.001466e+003, 2.418013e+002
1.001948e+003, 2.434439e+002
1.002430e+003, 2.456004e+002
1.002912e+003, 2.474421e+002
1.003394e+003, 2.488845e+002
1.003876e+003, 2.500628e+002
1.004359e+003, 2.510489e+002
1.004841e+003, 2.518053e+002
1.005323e+003, 2.517763e+002
1.005805e+003, 2.512955e+002
1.006287e+003, 2.517615e+002
1.006769e+003, 2.551029e+002
1.007251e+003, 2.578352e+002
1.007733e+003, 2.572773e+002
1.008216e+003, 2.554287e+002
1.008698e+003, 2.551694e+002
1.009180e+003, 2.571039e+002
1.009662e+003, 2.584098e+002
1.010144e+003, 2.589210e+002
1.010626e+003, 2.589046e+002
1.011108e+003, 2.583795e+002
1.011590e+003, 2.576069e+002
1.012072e+003, 2.570294e+002
1.012555e+003, 2.566526e+002
1.013037e+003, 2.560904e+002
1.013519e+003, 2.551987e+002
1.014001e+003, 2.540901e+002
1.014483e+003, 2.527524e+002
1.014965e+003, 2.512343e+002
1.015447e+003, 2.496623e+002
1.015929e+003, 2.480462e+002
1.016411e+003, 2.465399e+002
1.016894e+003, 2.451484e+002
1.017376e+003, 2.439975e+002
1.017858e+003, 2.434792e+002
1.018340e+003, 2.431492e+002
1.018822e+003, 2.424540e+002
1.019304e+003, 2.412050e+002
1.019786e+003, 2.398522e+002
1.020268e+003, 2.383378e+002
1.020751e+003, 2.368810e+002
1.021233e+003, 2.356081e+002
1.021715e+003, 2.345295e+002
1.022197e+003, 2.339240e+002
1.022679e+003, 2.336506e+002
1.023161e+003, 2.329007e+002
1.023643e+003, 2.301951e+002
1.024125e+003, 2.281461e+002
1.024607e+003, 2.283795e+002
1.025090e+003, 2.297497e+002
1.025572e+003, 2.298719e+002
1.026054e+003, 2.286575e+002
1.026536e+003, 2.272954e+002
1.027018e+003, 2.258846e+002
1.027500e+003, 2.248723e+002
1.027982e+003, 2.250385e+002
1.028464e+003, 2.257041e+002
1.028947e+003, 2.261508e+002
1.029429e+003, 2.262876e+002
1.029911e+003, 2.259691e+002
1.030393e+003, 2.249214e+002
1.030875e+003, 2.239854e+002
1.031357e+003, 2.236989e+002
1.031839e+003, 2.238153e+002
1.032321e+003, 2.233631e+002
1.032803e+003, 2.225117e+002
1.033286e+003, 2.219529e+002
1.033768e+003, 2.223423e+002
1.034250e+003, 2.227500e+002
1.034732e+003, 2.227111e+002
1.035214e+003, 2.224723e+002
1.035696e+003, 2.224446e+002
1.036178e+003, 2.227337e+002
1.036660e+003, 2.225488e+002
1.037143e+003, 2.217616e+002
1.037625e+003, 2.209517e+002
1.038107e+003, 2.205847e+002
1.038589e+003, 2.205283e+002
1.039071e+003, 2.206989e+002
1.039553e+003, 2.210686e+002
1.040035e+003, 2.213931e+002
1.040517e+003, 2.218305e+002
1.041000e+003, 2.218671e+002
1.041482e+003, 2.212334e+002
1.041964e+003, 2.202385e+002
1.042446e+003, 2.194574e+002
1.042928e+003, 2.189526e+002
1.043410e+003, 2.191363e+002
1.043892e+003, 2.204714e+002
1.044374e+003, 2.214966e+002
1.044856e+003, 2.212440e+002
1.045339e+003, 2.203023e+002
1.045821e+003, 2.190316e+002
1.046303e+003, 2.172783e+002
1.046785e+003, 2.166188e+002
1.047267e+003, 2.171293e+002
1.047749e+003, 2.180557e+002
1.048231e+003, 2.193473e+002
1.048713e+003, 2.204444e+002
1.049195e+003, 2.204412e+002
1.049677e+003, 2.196290e+002
1.050160e+003, 2.188539e+002
1.050642e+003, 2.180662e+002
1.051124e+003, 2.178193e+002
1.051606e+003, 2.184427e+002
1.052088e+003, 2.192185e+002
1.052570e+003, 2.190849e+002
1.053052e+003, 2.182625e+002
1.053534e+003, 2.175159e+002
1.054017e+003, 2.169263e+002
1.054499e+003, 2.167188e+002
1.054981e+003, 2.174795e+002
1.055463e+003, 2.182616e+002
1.055945e+003, 2.183804e+002
1.056427e+003, 2.179701e+002
1.056909e+003, 2.178767e+002
1.057391e+003, 2.181608e+002
1.057874e+003, 2.180053e+002
1.058356e+003, 2.168589e+002
1.058838e+003, 2.157396e+002
1.059320e+003, 2.162541e+002
1.059802e+003, 2.174559e+002
1.060284e+003, 2.179479e+002
1.060766e+003, 2.169166e+002
1.061248e+003, 2.164388e+002
1.061730e+003, 2.168291e+002
1.062213e+003, 2.173030e+002
1.062695e+003, 2.173409e+002
1.063177e+003, 2.170048e+002
1.063659e+003, 2.162836e+002
1.064141e+003, 2.153250e+002
1.064623e+003, 2.148486e+002
1.065105e+003, 2.157527e+002
1.065587e+003, 2.165927e+002
1.066070e+003, 2.168197e+002
1.066552e+003, 2.166341e+002
1.067034e+003, 2.161182e+002
1.067516e+003, 2.152384e+002
1.067998e+003, 2.152909e+002
1.068480e+003, 2.165378e+002
1.068962e+003, 2.175765e+002
1.069444e+003, 2.166250e+002
1.069927e+003, 2.152501e+002
1.070409e+003, 2.150612e+002
1.070891e+003, 2.161704e+002
1.071373e+003, 2.165453e+002
1.071855e+003, 2.157956e+002
1.072337e+003, 2.152553e+002
1.072819e+003, 2.153519e+002
1.073301e+003, 2.158622e+002
1.073783e+003, 2.167001e+002
1.074266e+003, 2.175826e+002
1.074748e+003, 2.178363e+002
1.075230e+003, 2.169471e+002
1.075712e+003, 2.163748e+002
1.076194e+003, 2.168867e+002
1.076676e+003, 2.173797e+002
1.077158e+003, 2.170154e+002
1.077640e+003, 2.159474e+002
1.078122e+003, 2.159571e+002
1.078604e+003, 2.169093e+002
1.079087e+003, 2.176584e+002
1.079569e+003, 2.174522e+002
1.080051e+003, 2.169590e+002
1.080533e+003, 2.164891e+002
1.081015e+003, 2.160174e+002
1.081497e+003, 2.154192e+002
1.081979e+003, 2.145639e+002
1.082461e+003, 2.143260e+002
1.082944e+003, 2.148497e+002
1.083426e+003, 2.154504e+002
1.083908e+003, 2.154050e+002
1.084390e+003, 2.151078e+002
1.084872e+003, 2.150302e+002
1.085354e+003, 2.151836e+002
1.085836e+003, 2.152958e+002
1.086318e+003, 2.152966e+002
1.086801e+003, 2.153392e+002
1.087283e+003, 2.155404e+002
1.087765e+003, 2.156767e+002
1.088247e+003, 2.152395e+002
1.088729e+003, 2.144118e+002
1.089211e+003, 2.135831e+002
1.089693e+003, 2.127348e+002
1.090175e+003, 2.123986e+002
1.090657e+003, 2.133384e+002
1.091140e+003, 2.143405e+002
1.091622e+003, 2.148277e+002
1.092104e+003, 2.148069e+002
1.092586e+003, 2.140135e+002
1.093068e+003, 2.125572e+002
1.093550e+003, 2.118351e+002
1.094032e+003, 2.130667e+002
1.094514e+003, 2.143408e+002
1.094997e+003, 2.140686e+002
1.095479e+003, 2.130950e+002
1.095961e+003, 2.125847e+002
1.096443e+003, 2.127652e+002
1.096925e+003, 2.127471e+002
1.097407e+003, 2.124912e+002
1.097889e+003, 2.122653e+002
1.098371e+003, 2.124111e+002
1.098854e+003, 2.126178e+002
1.099336e+003, 2.123481e+002
1.099818e+003, 2.117638e+002
1.100300e+003, 2.115379e+002
1.100782e+003, 2.121943e+002
1.101264e+003, 2.125354e+002
1.101746e+003, 2.122994e+002
1.102228e+003, 2.119329e+002
1.102710e+003, 2.120368e+002
1.103193e+003, 2.124801e+002
1.103675e+003, 2.130273e+002
1.104157e+003, 2.136478e+002
1.104639e+003, 2.140491e+002
1.105121e+003, 2.140050e+002
1.105603e+003, 2.138117e+002
1.106085e+003, 2.135069e+002
1.106567e+003, 2.131844e+002
1.107049e+003, 2.132165e+002
1.107531e+003, 2.135444e+002
1.108014e+003, 2.137047e+002
1.108496e+003, 2.135564e+002
1.108978e+003, 2.132706e+002
1.109460e+003, 2.126387e+002
1.109942e+003, 2.121733e+002
1.110424e+003, 2.125482e+002
1.110906e+003, 2.138298e+002
1.111388e+003, 2.137570e+002
1.111871e+003, 2.121995e+002
1.112353e+003, 2.111916e+002
1.112835e+003, 2.121406e+002
1.113317e+003, 2.136404e+002
1.113799e+003, 2.144057e+002
1.114281e+003, 2.145783e+002
1.114763e+003, 2.143498e+002
1.115245e+003, 2.133201e+002
1.115728e+003, 2.128659e+002
1.116210e+003, 2.131064e+002
1.116692e+003, 2.135422e+002
1.117174e+003, 2.139326e+002
1.117656e+003, 2.141531e+002
1.118138e+003, 2.137062e+002
1.118620e+003, 2.128222e+002
1.119102e+003, 2.124492e+002
1.119584e+003, 2.134337e+002
1.120067e+003, 2.142467e+002
1.120549e+003, 2.146546e+002
1.121031e+003, 2.147972e+002
1.121513e+003, 2.147760e+002
1.121995e+003, 2.146478e+002
1.122477e+003, 2.146329e+002
1.122959e+003, 2.147479e+002
1.123441e+003, 2.148340e+002
1.123924e+003, 2.151443e+002
1.124406e+003, 2.149869e+002
1.124888e+003, 2.138259e+002
1.125370e+003, 2.121492e+002
1.125852e+003, 2.112486e+002
1.126334e+003, 2.110965e+002
1.126816e+003, 2.114475e+002
1.127298e+003, 2.123285e+002
1.127781e+003, 2.132683e+002
1.128263e+003, 2.141727e+002
1.128745e+003, 2.147880e+002
1.129227e+003, 2.147632e+002
1.129709e+003, 2.141494e+002
1.130191e+003, 2.138750e+002
1.130673e+003, 2.139615e+002
1.131155e+003, 2.140064e+002
1.131637e+003, 2.137849e+002
1.132120e+003, 2.135599e+002
1.132602e+003, 2.135599e+002
1.133084e+003, 2.137523e+002
1.133566e+003, 2.141575e+002
1.134048e+003, 2.149987e+002
1.134530e+003, 2.151737e+002
1.135012e+003, 2.144945e+002
1.135494e+003, 2.139012e+002
1.135976e+003, 2.141423e+002
1.136458e+003, 2.147549e+002
1.136941e+003, 2.151113e+002
1.137423e+003, 2.152248e+002
1.137905e+003, 2.151283e+002
1.138387e+003, 2.146174e+002
1.138869e+003, 2.142416e+002
1.139351e+003, 2.141331e+002
1.139833e+003, 2.139399e+002
1.140315e+003, 2.128587e+002
1.140798e+003, 2.115694e+002
1.141280e+003, 2.121428e+002
1.141762e+003, 2.142936e+002
1.142244e+003, 2.157500e+002
1.142726e+003, 2.148628e+002
1.143208e+003, 2.141212e+002
1.143690e+003, 2.140972e+002
1.144172e+003, 2.144705e+002
1.144655e+003, 2.148932e+002
1.145137e+003, 2.152948e+002
1.145619e+003, 2.153480e+002
1.146101e+003, 2.150095e+002
1.146583e+003, 2.147042e+002
1.147065e+003, 2.147601e+002
1.147547e+003, 2.147936e+002
1.148029e+003, 2.145027e+002
1.148511e+003, 2.141195e+002
1.148994e+003, 2.145328e+002
1.149476e+003, 2.156051e+002
1.149958e+003, 2.160198e+002
1.150440e+003, 2.153808e+002
1.150922e+003, 2.145394e+002
1.151404e+003, 2.138738e+002
1.151886e+003, 2.134499e+002
1.152368e+003, 2.134049e+002
1.152851e+003, 2.136724e+002
1.153333e+003, 2.136392e+002
1.153815e+003, 2.132997e+002
1.154297e+003, 2.132241e+002
1.154779e+003, 2.137609e+002
1.155261e+003, 2.143235e+002
1.155743e+003, 2.140391e+002
1.156225e+003, 2.136634e+002
1.156708e+003, 2.143115e+002
1.157190e+003, 2.162936e+002
1.157672e+003, 2.169490e+002
1.158154e+003, 2.161205e+002
1.158636e+003, 2.153448e+002
1.159118e+003, 2.156552e+002
1.159600e+003, 2.162678e+002
1.160082e+003, 2.162900e+002
1.160564e+003, 2.160080e+002
1.161047e+003, 2.159486e+002
1.161529e+003, 2.165452e+002
1.162011e+003, 2.163975e+002
1.162493e+003, 2.152962e+002
1.162975e+003, 2.143105e+002
1.163457e+003, 2.145754e+002
1.163939e+003, 2.152381e+002
1.164421e+003, 2.149381e+002
1.164903e+003, 2.140115e+002
1.165385e+003, 2.135372e+002
1.165868e+003, 2.141690e+002
1.166350e+003, 2.144476e+002
1.166832e+003, 2.141626e+002
1.167314e+003, 2.137810e+002
1.167796e+003, 2.136721e+002
1.168278e+003, 2.138587e+002
1.168760e+003, 2.145406e+002
1.169242e+003, 2.156312e+002
1.169725e+003, 2.165330e+002
1.170207e+003, 2.173353e+002
1.170689e+003, 2.174909e+002
1.171171e+003, 2.168091e+002
1.171653e+003, 2.156591e+002
1.172135e+003, 2.139954e+002
1.172617e+003, 2.124236e+002
1.173099e+003, 2.126387e+002
1.173582e+003, 2.147825e+002
1.174064e+003, 2.164946e+002
1.174546e+003, 2.166262e+002
1.175028e+003, 2.165420e+002
1.175510e+003, 2.165649e+002
1.175992e+003, 2.165757e+002
1.176474e+003, 2.160968e+002
1.176956e+003, 2.154251e+002
1.177438e+003, 2.156987e+002
1.177921e+003, 2.173182e+002
1.178403e+003, 2.181456e+002
1.178885e+003, 2.162044e+002
1.179367e+003, 2.145625e+002
1.179849e+003, 2.145331e+002
1.180331e+003, 2.155998e+002
1.180813e+003, 2.163384e+002
1.181295e+003, 2.167860e+002
1.181778e+003, 2.171038e+002
1.182260e+003, 2.173921e+002
1.182742e+003, 2.173496e+002
1.183224e+003, 2.161471e+002
1.183706e+003, 2.153119e+002
1.184188e+003, 2.158890e+002
1.184670e+003, 2.175258e+002
1.185152e+003, 2.183286e+002
1.185635e+003, 2.183772e+002
1.186117e+003, 2.180768e+002
1.186599e+003, 2.173541e+002
1.187081e+003, 2.167835e+002
1.187563e+003, 2.168121e+002
1.188045e+003, 2.169713e+002
1.188527e+003, 2.168947e+002
1.189009e+003, 2.166094e+002
1.189491e+003, 2.163870e+002
1.189974e+003, 2.162537e+002
1.190456e+003, 2.164082e+002
1.190938e+003, 2.172794e+002
1.191420e+003, 2.180142e+002
1.191902e+003, 2.181550e+002
1.192384e+003, 2.179730e+002
1.192866e+003, 2.176539e+002
1.193348e+003, 2.171872e+002
1.193830e+003, 2.171308e+002
1.194313e+003, 2.174656e+002
1.194795e+003, 2.179546e+002
1.195277e+003, 2.187252e+002
1.195759e+003, 2.193115e+002
1.196241e+003, 2.194325e+002
1.196723e+003, 2.192195e+002
1.197205e+003, 2.187116e+002
1.197687e+003, 2.178893e+002
1.198169e+003, 2.176272e+002
1.198652e+003, 2.179541e+002
1.199134e+003, 2.185105e+002
1.199616e+003, 2.195242e+002
1.200098e+003, 2.201950e+002
1.200580e+003, 2.197575e+002
1.201062e+003, 2.187809e+002
1.201544e+003, 2.182222e+002
1.202026e+003, 2.180984e+002
1.202509e+003, 2.176191e+002
1.202991e+003, 2.167107e+002
1.203473e+003, 2.161935e+002
1.203955e+003, 2.170090e+002
1.204437e+003, 2.180617e+002
1.204919e+003, 2.188569e+002
1.205401e+003, 2.192964e+002
1.205883e+003, 2.190040e+002
1.206365e+003, 2.179490e+002
1.206848e+003, 2.175902e+002
1.207330e+003, 2.181598e+002
1.207812e+003, 2.186874e+002
1.208294e+003, 2.182185e+002
1.208776e+003, 2.176382e+002
1.209258e+003, 2.176087e+002
1.209740e+003, 2.179604e+002
1.210222e+003, 2.182564e+002
1.210705e+003, 2.185018e+002
1.211187e+003, 2.186293e+002
1.211669e+003, 2.186357e+002
1.212151e+003, 2.184874e+002
1.212633e+003, 2.178205e+002
1.213115e+003, 2.172953e+002
1.213597e+003, 2.175772e+002
1.214079e+003, 2.184132e+002
1.214562e+003, 2.188614e+002
1.215044e+003, 2.189372e+002
1.215526e+003, 2.194520e+002
1.216008e+003, 2.207702e+002
1.216490e+003, 2.215794e+002
1.216972e+003, 2.201121e+002
1.217454e+003, 2.183719e+002
1.217936e+003, 2.180328e+002
1.218418e+003, 2.187862e+002
1.218901e+003, 2.190602e+002
1.219383e+003, 2.188739e+002
1.219865e+003, 2.186343e+002
1.220347e+003, 2.184048e+002
1.220829e+003, 2.183516e+002
1.221311e+003, 2.187721e+002
1.221793e+003, 2.192624e+002
1.222275e+003, 2.194541e+002
1.222757e+003, 2.194244e+002
1.223240e+003, 2.199245e+002
1.223722e+003, 2.208892e+002
1.224204e+003, 2.214034e+002
1.224686e+003, 2.210146e+002
1.225168e+003, 2.205566e+002
1.225650e+003, 2.204458e+002
1.226132e+003, 2.206404e+002
1.226614e+003, 2.211730e+002
1.227096e+003, 2.219767e+002
1.227579e+003, 2.225297e+002
1.228061e+003, 2.228136e+002
1.228543e+003, 2.225918e+002
1.229025e+003, 2.214828e+002
1.229507e+003, 2.205412e+002
1.229989e+003, 2.204569e+002
1.230471e+003, 2.207486e+002
1.230953e+003, 2.211359e+002
1.231436e+003, 2.215656e+002
1.231918e+003, 2.213849e+002
1.232400e+003, 2.206957e+002
1.232882e+003, 2.202295e+002
1.233364e+003, 2.204598e+002
1.233846e+003, 2.206418e+002
1.234328e+003, 2.203445e+002
1.234810e+003, 2.199211e+002
1.235292e+003, 2.196449e+002
1.235775e+003, 2.194837e+002
1.236257e+003, 2.189597e+002
1.236739e+003, 2.182166e+002
1.237221e+003, 2.180059e+002
1.237703e+003, 2.188792e+002
1.238185e+003, 2.199847e+002
1.238667e+003, 2.213020e+002
1.239149e+003, 2.224221e+002
1.239632e+003, 2.229543e+002
1.240114e+003, 2.230037e+002
1.240596e+003, 2.232890e+002
1.241078e+003, 2.237320e+002
1.241560e+003, 2.240179e+002
1.242042e+003, 2.241855e+002
1.242524e+003, 2.238556e+002
1.243006e+003, 2.225320e+002
1.243489e+003, 2.212479e+002
1.243971e+003, 2.209500e+002
1.244453e+003, 2.213644e+002
1.244935e+003, 2.213652e+002
1.245417e+003, 2.210574e+002
1.245899e+003, 2.208392e+002
1.246381e+003, 2.209267e+002
1.246863e+003, 2.210570e+002
1.247345e+003, 2.212264e+002
1.247828e+003, 2.213550e+002
1.248310e+003, 2.212753e+002
1.248792e+003, 2.211328e+002
1.249274e+003, 2.213747e+002
1.249756e+003, 2.219101e+002
1.250238e+003, 2.224104e+002
1.250720e+003, 2.229888e+002
1.251202e+003, 2.231069e+002
1.251684e+003, 2.226004e+002
1.252167e+003, 2.219561e+002
1.252649e+003, 2.215069e+002
1.253131e+003, 2.212539e+002
1.253613e+003, 2.212069e+002
1.254095e+003, 2.213532e+002
1.254577e+003, 2.216664e+002
1.255059e+003, 2.223440e+002
1.255541e+003, 2.227645e+002
1.256023e+003, 2.228232e+002
1.256506e+003, 2.228615e+002
1.256988e+003, 2.234688e+002
1.257470e+003, 2.240421e+002
1.257952e+003, 2.233277e+002
1.258434e+003, 2.218688e+002
1.258916e+003, 2.214572e+002
1.259398e+003, 2.229804e+002
1.259880e+003, 2.233107e+002
1.260363e+003, 2.220554e+002
1.260845e+003, 2.209196e+002
1.261327e+003, 2.217908e+002
1.261809e+003, 2.231327e+002
1.262291e+003, 2.234187e+002
1.262773e+003, 2.228696e+002
1.263255e+003, 2.221853e+002
1.263737e+003, 2.213353e+002
1.264219e+003, 2.206252e+002
1.264702e+003, 2.200574e+002
1.265184e+003, 2.199177e+002
1.265666e+003, 2.208642e+002
1.266148e+003, 2.218963e+002
1.266630e+003, 2.220949e+002
1.267112e+003, 2.218627e+002
1.267594e+003, 2.221821e+002
1.268076e+003, 2.231334e+002
1.268559e+003, 2.232742e+002
1.269041e+003, 2.225196e+002
1.269523e+003, 2.218592e+002
1.270005e+003, 2.222783e+002
1.270487e+003, 2.226550e+002
1.270969e+003, 2.220375e+002
1.271451e+003, 2.211579e+002
1.271933e+003, 2.210806e+002
1.272416e+003, 2.217359e+002
1.272898e+003, 2.222866e+002
1.273380e+003, 2.226656e+002
1.273862e+003, 2.227921e+002
1.274344e+003, 2.220958e+002
1.274826e+003, 2.218356e+002
1.275308e+003, 2.227682e+002
1.275790e+003, 2.239482e+002
1.276272e+003, 2.241649e+002
1.276755e+003, 2.236193e+002
1.277237e+003, 2.228544e+002
1.277719e+003, 2.219998e+002
1.278201e+003, 2.215942e+002
1.278683e+003, 2.225446e+002
1.279165e+003, 2.229546e+002
1.279647e+003, 2.221846e+002
1.280129e+003, 2.213634e+002
1.280611e+003, 2.219292e+002
1.281094e+003, 2.233002e+002
1.281576e+003, 2.244470e+002
1.282058e+003, 2.252717e+002
1.282540e+003, 2.255522e+002
1.283022e+003, 2.246453e+002
1.283504e+003, 2.243708e+002
1.283986e+003, 2.250401e+002
1.284468e+003, 2.258987e+002
1.284950e+003, 2.265378e+002
1.285433e+003, 2.266763e+002
1.285915e+003, 2.253092e+002
1.286397e+003, 2.230540e+002
1.286879e+003, 2.224552e+002
1.287361e+003, 2.242935e+002
1.287843e+003, 2.251423e+002
1.288325e+003, 2.245872e+002
1.288807e+003, 2.239907e+002
1.289290e+003, 2.248077e+002
1.289772e+003, 2.258338e+002
1.290254e+003, 2.260392e+002
1.290736e+003, 2.256196e+002
1.291218e+003, 2.250971e+002
1.291700e+003, 2.244273e+002
1.292182e+003, 2.243667e+002
1.292664e+003, 2.249599e+002
1.293146e+003, 2.254948e+002
1.293629e+003, 2.254722e+002
1.294111e+003, 2.252458e+002
1.294593e+003, 2.248176e+002
1.295075e+003, 2.244342e+002
1.295557e+003, 2.245122e+002
1.296039e+003, 2.249655e+002
1.296521e+003, 2.249952e+002
1.297003e+003, 2.246171e+002
1.297486e+003, 2.243821e+002
1.297968e+003, 2.245619e+002
1.298450e+003, 2.250628e+002
1.298932e+003, 2.261216e+002
1.299414e+003, 2.270408e+002
1.299896e+003, 2.266526e+002
1.300378e+003, 2.256185e+002
1.300860e+003, 2.254608e+002
1.301343e+003, 2.263486e+002
1.301825e+003, 2.286084e+002
##END=



