##NAMES=Nchwaningite
##RRUFFID=R140275
##IDEAL CHEMISTRY=Mn^2+^_2_SiO_3_(OH)_2_&#183;H_2_O
##LOCALITY=N'Chwaning mine, Kuruman, Kalahari manganese field, Northern Cape Province, South Africa
##OWNER=RRUFF
##SOURCE=Rock Currier
##DESCRIPTION=Micro brown tufts
##STATUS=The identification of this mineral has been confirmed by single-crystal X-ray diffraction.
##URL=rruff.info/R140275
9.059570e+001, 1.541196e+002
9.107782e+001, 1.532914e+002
9.155994e+001, 1.530045e+002
9.204205e+001, 1.543787e+002
9.252417e+001, 1.554971e+002
9.300629e+001, 1.552666e+002
9.348840e+001, 1.527909e+002
9.397052e+001, 1.479631e+002
9.445264e+001, 1.418499e+002
9.493475e+001, 1.362706e+002
9.541687e+001, 1.319028e+002
9.589898e+001, 1.294856e+002
9.638110e+001, 1.277823e+002
9.686321e+001, 1.255972e+002
9.734533e+001, 1.223305e+002
9.782745e+001, 1.182238e+002
9.830956e+001, 1.151948e+002
9.879168e+001, 1.135847e+002
9.927380e+001, 1.122872e+002
9.975591e+001, 1.112835e+002
1.002380e+002, 1.103968e+002
1.007201e+002, 1.091246e+002
1.012023e+002, 1.069932e+002
1.016844e+002, 1.042652e+002
1.021665e+002, 1.020995e+002
1.026486e+002, 1.009213e+002
1.031307e+002, 9.998110e+001
1.036128e+002, 9.843770e+001
1.040950e+002, 9.610616e+001
1.045771e+002, 9.406823e+001
1.050592e+002, 9.301892e+001
1.055413e+002, 9.268535e+001
1.060234e+002, 9.282826e+001
1.065055e+002, 9.354322e+001
1.069877e+002, 9.467895e+001
1.074698e+002, 9.570531e+001
1.079519e+002, 9.713208e+001
1.084340e+002, 9.770422e+001
1.089161e+002, 9.679601e+001
1.093982e+002, 9.467264e+001
1.098804e+002, 9.198118e+001
1.103625e+002, 8.911411e+001
1.108446e+002, 8.591650e+001
1.113267e+002, 8.343996e+001
1.118088e+002, 8.220121e+001
1.122909e+002, 8.118509e+001
1.127731e+002, 7.982928e+001
1.132552e+002, 7.811094e+001
1.137373e+002, 7.643900e+001
1.142194e+002, 7.540815e+001
1.147015e+002, 7.523416e+001
1.151836e+002, 7.545371e+001
1.156658e+002, 7.645230e+001
1.161479e+002, 7.765086e+001
1.166300e+002, 7.846730e+001
1.171121e+002, 7.868767e+001
1.175942e+002, 7.853625e+001
1.180763e+002, 7.850297e+001
1.185584e+002, 7.857055e+001
1.190406e+002, 7.874216e+001
1.195227e+002, 7.901694e+001
1.200048e+002, 7.939529e+001
1.204869e+002, 7.987463e+001
1.209690e+002, 8.042551e+001
1.214511e+002, 8.112366e+001
1.219333e+002, 8.201060e+001
1.224154e+002, 8.302649e+001
1.228975e+002, 8.432616e+001
1.233796e+002, 8.623882e+001
1.238617e+002, 8.887386e+001
1.243438e+002, 9.122520e+001
1.248260e+002, 9.295969e+001
1.253081e+002, 9.408536e+001
1.257902e+002, 9.444283e+001
1.262723e+002, 9.385791e+001
1.267544e+002, 9.260777e+001
1.272365e+002, 9.116683e+001
1.277187e+002, 8.890704e+001
1.282008e+002, 8.760992e+001
1.286829e+002, 8.805241e+001
1.291650e+002, 8.954353e+001
1.296471e+002, 9.121195e+001
1.301292e+002, 9.254465e+001
1.306114e+002, 9.355629e+001
1.310935e+002, 9.444859e+001
1.315756e+002, 9.482085e+001
1.320577e+002, 9.546584e+001
1.325398e+002, 9.671267e+001
1.330219e+002, 9.842581e+001
1.335041e+002, 1.002301e+002
1.339862e+002, 1.017876e+002
1.344683e+002, 1.030268e+002
1.349504e+002, 1.045687e+002
1.354325e+002, 1.060763e+002
1.359146e+002, 1.080688e+002
1.363968e+002, 1.110288e+002
1.368789e+002, 1.149225e+002
1.373610e+002, 1.192118e+002
1.378431e+002, 1.235011e+002
1.383252e+002, 1.280252e+002
1.388073e+002, 1.307779e+002
1.392895e+002, 1.311082e+002
1.397716e+002, 1.298312e+002
1.402537e+002, 1.277672e+002
1.407358e+002, 1.250425e+002
1.412179e+002, 1.217494e+002
1.417000e+002, 1.175764e+002
1.421821e+002, 1.125902e+002
1.426643e+002, 1.082878e+002
1.431464e+002, 1.053582e+002
1.436285e+002, 1.036276e+002
1.441106e+002, 1.025274e+002
1.445927e+002, 1.023378e+002
1.450748e+002, 1.023222e+002
1.455570e+002, 1.017871e+002
1.460391e+002, 1.007277e+002
1.465212e+002, 9.956783e+001
1.470033e+002, 9.869711e+001
1.474854e+002, 9.815358e+001
1.479675e+002, 9.751270e+001
1.484497e+002, 9.656300e+001
1.489318e+002, 9.556453e+001
1.494139e+002, 9.457875e+001
1.498960e+002, 9.363937e+001
1.503781e+002, 9.286314e+001
1.508602e+002, 9.238609e+001
1.513424e+002, 9.207687e+001
1.518245e+002, 9.243421e+001
1.523066e+002, 9.371697e+001
1.527887e+002, 9.540847e+001
1.532708e+002, 9.731075e+001
1.537529e+002, 9.930795e+001
1.542351e+002, 1.011381e+002
1.547172e+002, 1.021466e+002
1.551993e+002, 1.023852e+002
1.556814e+002, 1.015208e+002
1.561635e+002, 9.917935e+001
1.566456e+002, 9.585899e+001
1.571278e+002, 9.203167e+001
1.576099e+002, 8.789840e+001
1.580920e+002, 8.357506e+001
1.585741e+002, 7.957198e+001
1.590562e+002, 7.547785e+001
1.595383e+002, 7.207751e+001
1.600205e+002, 6.983472e+001
1.605026e+002, 6.846650e+001
1.609847e+002, 6.731743e+001
1.614668e+002, 6.600700e+001
1.619489e+002, 6.466334e+001
1.624310e+002, 6.380086e+001
1.629131e+002, 6.365762e+001
1.633953e+002, 6.371737e+001
1.638774e+002, 6.388461e+001
1.643595e+002, 6.411880e+001
1.648416e+002, 6.395602e+001
1.653237e+002, 6.271690e+001
1.658058e+002, 6.097089e+001
1.662880e+002, 6.004002e+001
1.667701e+002, 6.052961e+001
1.672522e+002, 6.151705e+001
1.677343e+002, 6.192859e+001
1.682164e+002, 6.164143e+001
1.686985e+002, 6.135902e+001
1.691807e+002, 6.149833e+001
1.696628e+002, 6.188435e+001
1.701449e+002, 6.234991e+001
1.706270e+002, 6.289003e+001
1.711091e+002, 6.343680e+001
1.715912e+002, 6.379759e+001
1.720734e+002, 6.381329e+001
1.725555e+002, 6.394024e+001
1.730376e+002, 6.433915e+001
1.735197e+002, 6.494287e+001
1.740018e+002, 6.565340e+001
1.744839e+002, 6.638911e+001
1.749661e+002, 6.718479e+001
1.754482e+002, 6.826314e+001
1.759303e+002, 6.996685e+001
1.764124e+002, 7.158639e+001
1.768945e+002, 7.290416e+001
1.773766e+002, 7.400523e+001
1.778588e+002, 7.503920e+001
1.783409e+002, 7.611771e+001
1.788230e+002, 7.724355e+001
1.793051e+002, 7.833768e+001
1.797872e+002, 7.976904e+001
1.802693e+002, 8.081441e+001
1.807515e+002, 8.114890e+001
1.812336e+002, 8.088418e+001
1.817157e+002, 8.031866e+001
1.821978e+002, 7.968461e+001
1.826799e+002, 7.897337e+001
1.831620e+002, 7.827354e+001
1.836441e+002, 7.767501e+001
1.841263e+002, 7.700865e+001
1.846084e+002, 7.622320e+001
1.850905e+002, 7.530328e+001
1.855726e+002, 7.420083e+001
1.860547e+002, 7.281161e+001
1.865368e+002, 7.107014e+001
1.870190e+002, 6.977016e+001
1.875011e+002, 6.907047e+001
1.879832e+002, 6.868305e+001
1.884653e+002, 6.847776e+001
1.889474e+002, 6.842854e+001
1.894296e+002, 6.840739e+001
1.899117e+002, 6.823614e+001
1.903938e+002, 6.793201e+001
1.908759e+002, 6.789022e+001
1.913580e+002, 6.815440e+001
1.918401e+002, 6.870180e+001
1.923223e+002, 6.960522e+001
1.928044e+002, 7.093456e+001
1.932865e+002, 7.230500e+001
1.937686e+002, 7.327785e+001
1.942507e+002, 7.397243e+001
1.947328e+002, 7.472904e+001
1.952150e+002, 7.558476e+001
1.956971e+002, 7.658462e+001
1.961792e+002, 7.800533e+001
1.966613e+002, 8.026208e+001
1.971434e+002, 8.203800e+001
1.976255e+002, 8.207980e+001
1.981077e+002, 8.089491e+001
1.985898e+002, 7.970887e+001
1.990719e+002, 7.929073e+001
1.995540e+002, 7.942229e+001
2.000361e+002, 7.909819e+001
2.005182e+002, 7.781481e+001
2.010004e+002, 7.676041e+001
2.014825e+002, 7.675732e+001
2.019646e+002, 7.747766e+001
2.024467e+002, 7.809806e+001
2.029288e+002, 7.787973e+001
2.034109e+002, 7.690047e+001
2.038930e+002, 7.651993e+001
2.043752e+002, 7.725323e+001
2.048573e+002, 7.810744e+001
2.053394e+002, 7.859566e+001
2.058215e+002, 7.887503e+001
2.063036e+002, 7.938773e+001
2.067857e+002, 8.058231e+001
2.072679e+002, 8.251105e+001
2.077500e+002, 8.409912e+001
2.082321e+002, 8.468829e+001
2.087142e+002, 8.552678e+001
2.091963e+002, 8.704780e+001
2.096784e+002, 8.917477e+001
2.101606e+002, 9.162227e+001
2.106427e+002, 9.420412e+001
2.111248e+002, 9.696188e+001
2.116069e+002, 9.933220e+001
2.120890e+002, 1.009412e+002
2.125711e+002, 1.025442e+002
2.130533e+002, 1.044565e+002
2.135354e+002, 1.066449e+002
2.140175e+002, 1.089602e+002
2.144996e+002, 1.113315e+002
2.149817e+002, 1.138761e+002
2.154638e+002, 1.155453e+002
2.159460e+002, 1.162379e+002
2.164281e+002, 1.163805e+002
2.169102e+002, 1.160162e+002
2.173923e+002, 1.152457e+002
2.178744e+002, 1.143118e+002
2.183565e+002, 1.134320e+002
2.188387e+002, 1.126194e+002
2.193208e+002, 1.117197e+002
2.198029e+002, 1.107553e+002
2.202850e+002, 1.096959e+002
2.207671e+002, 1.082927e+002
2.212492e+002, 1.066399e+002
2.217314e+002, 1.053587e+002
2.222135e+002, 1.050716e+002
2.226956e+002, 1.058684e+002
2.231777e+002, 1.063980e+002
2.236598e+002, 1.064305e+002
2.241419e+002, 1.063687e+002
2.246240e+002, 1.065474e+002
2.251062e+002, 1.069743e+002
2.255883e+002, 1.073791e+002
2.260704e+002, 1.075292e+002
2.265525e+002, 1.074452e+002
2.270346e+002, 1.073825e+002
2.275167e+002, 1.075171e+002
2.279989e+002, 1.075786e+002
2.284810e+002, 1.073957e+002
2.289631e+002, 1.069676e+002
2.294452e+002, 1.061223e+002
2.299273e+002, 1.044997e+002
2.304094e+002, 1.023489e+002
2.308916e+002, 1.003617e+002
2.313737e+002, 9.891799e+001
2.318558e+002, 9.754362e+001
2.323379e+002, 9.557509e+001
2.328200e+002, 9.291019e+001
2.333021e+002, 9.037214e+001
2.337843e+002, 8.861602e+001
2.342664e+002, 8.730155e+001
2.347485e+002, 8.593143e+001
2.352306e+002, 8.430529e+001
2.357127e+002, 8.263587e+001
2.361948e+002, 8.118771e+001
2.366770e+002, 7.996249e+001
2.371591e+002, 7.892357e+001
2.376412e+002, 7.819533e+001
2.381233e+002, 7.759489e+001
2.386054e+002, 7.690701e+001
2.390875e+002, 7.601883e+001
2.395697e+002, 7.508287e+001
2.400518e+002, 7.436674e+001
2.405339e+002, 7.393108e+001
2.410160e+002, 7.351401e+001
2.414981e+002, 7.294170e+001
2.419802e+002, 7.236617e+001
2.424624e+002, 7.198622e+001
2.429445e+002, 7.192057e+001
2.434266e+002, 7.191965e+001
2.439087e+002, 7.148571e+001
2.443908e+002, 7.039230e+001
2.448729e+002, 6.948852e+001
2.453550e+002, 6.918996e+001
2.458372e+002, 6.907319e+001
2.463193e+002, 6.880668e+001
2.468014e+002, 6.827946e+001
2.472835e+002, 6.755051e+001
2.477656e+002, 6.666718e+001
2.482477e+002, 6.551077e+001
2.487299e+002, 6.449464e+001
2.492120e+002, 6.367748e+001
2.496941e+002, 6.301666e+001
2.501762e+002, 6.258221e+001
2.506583e+002, 6.237878e+001
2.511404e+002, 6.216804e+001
2.516226e+002, 6.145805e+001
2.521047e+002, 5.982043e+001
2.525868e+002, 5.868317e+001
2.530689e+002, 5.847250e+001
2.535510e+002, 5.852540e+001
2.540331e+002, 5.834746e+001
2.545153e+002, 5.782662e+001
2.549974e+002, 5.722581e+001
2.554795e+002, 5.697589e+001
2.559616e+002, 5.733208e+001
2.564437e+002, 5.749234e+001
2.569258e+002, 5.728676e+001
2.574080e+002, 5.702996e+001
2.578901e+002, 5.693696e+001
2.583722e+002, 5.704100e+001
2.588543e+002, 5.721831e+001
2.593364e+002, 5.729729e+001
2.598185e+002, 5.721282e+001
2.603007e+002, 5.719492e+001
2.607828e+002, 5.701299e+001
2.612649e+002, 5.705108e+001
2.617470e+002, 5.767291e+001
2.622291e+002, 5.884220e+001
2.627112e+002, 6.014250e+001
2.631934e+002, 6.110125e+001
2.636755e+002, 6.161885e+001
2.641576e+002, 6.213206e+001
2.646397e+002, 6.257921e+001
2.651218e+002, 6.307056e+001
2.656039e+002, 6.369160e+001
2.660861e+002, 6.442561e+001
2.665682e+002, 6.515926e+001
2.670503e+002, 6.574072e+001
2.675324e+002, 6.607181e+001
2.680145e+002, 6.693922e+001
2.684966e+002, 6.866617e+001
2.689788e+002, 7.051502e+001
2.694609e+002, 7.215965e+001
2.699430e+002, 7.359597e+001
2.704251e+002, 7.498550e+001
2.709072e+002, 7.649876e+001
2.713893e+002, 7.814532e+001
2.718715e+002, 7.928091e+001
2.723536e+002, 7.940483e+001
2.728357e+002, 7.962125e+001
2.733178e+002, 8.036441e+001
2.737999e+002, 8.158455e+001
2.742820e+002, 8.308300e+001
2.747642e+002, 8.476405e+001
2.752463e+002, 8.660577e+001
2.757284e+002, 8.829430e+001
2.762105e+002, 8.960526e+001
2.766926e+002, 9.104464e+001
2.771747e+002, 9.281557e+001
2.776568e+002, 9.485184e+001
2.781389e+002, 9.697585e+001
2.786211e+002, 9.908571e+001
2.791032e+002, 1.012172e+002
2.795853e+002, 1.035684e+002
2.800674e+002, 1.062330e+002
2.805495e+002, 1.089632e+002
2.810316e+002, 1.119392e+002
2.815138e+002, 1.149140e+002
2.819959e+002, 1.174434e+002
2.824780e+002, 1.193238e+002
2.829601e+002, 1.206924e+002
2.834422e+002, 1.218231e+002
2.839243e+002, 1.227838e+002
2.844065e+002, 1.234560e+002
2.848886e+002, 1.237459e+002
2.853707e+002, 1.237500e+002
2.858528e+002, 1.234951e+002
2.863349e+002, 1.229429e+002
2.868170e+002, 1.224237e+002
2.872992e+002, 1.225524e+002
2.877813e+002, 1.234748e+002
2.882634e+002, 1.244640e+002
2.887455e+002, 1.253436e+002
2.892276e+002, 1.262567e+002
2.897097e+002, 1.274293e+002
2.901919e+002, 1.289228e+002
2.906740e+002, 1.304594e+002
2.911561e+002, 1.315959e+002
2.916382e+002, 1.322066e+002
2.921203e+002, 1.334566e+002
2.926024e+002, 1.359327e+002
2.930846e+002, 1.388340e+002
2.935667e+002, 1.414319e+002
2.940488e+002, 1.436390e+002
2.945309e+002, 1.456175e+002
2.950130e+002, 1.474251e+002
2.954951e+002, 1.490738e+002
2.959773e+002, 1.510065e+002
2.964594e+002, 1.537101e+002
2.969415e+002, 1.563614e+002
2.974236e+002, 1.583466e+002
2.979057e+002, 1.596452e+002
2.983878e+002, 1.605597e+002
2.988700e+002, 1.613689e+002
2.993521e+002, 1.619156e+002
2.998342e+002, 1.616651e+002
3.003163e+002, 1.600510e+002
3.007984e+002, 1.581795e+002
3.012805e+002, 1.567305e+002
3.017627e+002, 1.555994e+002
3.022448e+002, 1.542232e+002
3.027269e+002, 1.521992e+002
3.032090e+002, 1.497984e+002
3.036911e+002, 1.478715e+002
3.041732e+002, 1.468507e+002
3.046554e+002, 1.455548e+002
3.051375e+002, 1.431526e+002
3.056196e+002, 1.400524e+002
3.061017e+002, 1.372926e+002
3.065838e+002, 1.352599e+002
3.070659e+002, 1.337634e+002
3.075481e+002, 1.325735e+002
3.080302e+002, 1.318209e+002
3.085123e+002, 1.308298e+002
3.089944e+002, 1.289165e+002
3.094765e+002, 1.267187e+002
3.099586e+002, 1.255057e+002
3.104408e+002, 1.257337e+002
3.109229e+002, 1.264261e+002
3.114050e+002, 1.262953e+002
3.118871e+002, 1.253443e+002
3.123692e+002, 1.242965e+002
3.128513e+002, 1.231041e+002
3.133335e+002, 1.219733e+002
3.138156e+002, 1.213584e+002
3.142977e+002, 1.213586e+002
3.147798e+002, 1.210871e+002
3.152619e+002, 1.196866e+002
3.157440e+002, 1.171639e+002
3.162262e+002, 1.143172e+002
3.167083e+002, 1.107835e+002
3.171904e+002, 1.072470e+002
3.176725e+002, 1.042889e+002
3.181546e+002, 1.018982e+002
3.186367e+002, 9.975320e+001
3.191188e+002, 9.766303e+001
3.196010e+002, 9.566201e+001
3.200831e+002, 9.380064e+001
3.205652e+002, 9.205728e+001
3.210473e+002, 9.045862e+001
3.215294e+002, 8.903149e+001
3.220115e+002, 8.776694e+001
3.224937e+002, 8.661977e+001
3.229758e+002, 8.559745e+001
3.234579e+002, 8.465992e+001
3.239400e+002, 8.375666e+001
3.244221e+002, 8.300149e+001
3.249042e+002, 8.204275e+001
3.253864e+002, 8.053945e+001
3.258685e+002, 7.877688e+001
3.263506e+002, 7.734014e+001
3.268327e+002, 7.646491e+001
3.273148e+002, 7.576268e+001
3.277969e+002, 7.457175e+001
3.282791e+002, 7.280570e+001
3.287612e+002, 7.117384e+001
3.292433e+002, 6.990998e+001
3.297254e+002, 6.880409e+001
3.302075e+002, 6.753359e+001
3.306896e+002, 6.604260e+001
3.311718e+002, 6.470953e+001
3.316539e+002, 6.397834e+001
3.321360e+002, 6.390989e+001
3.326181e+002, 6.365091e+001
3.331002e+002, 6.304712e+001
3.335823e+002, 6.234433e+001
3.340645e+002, 6.166010e+001
3.345466e+002, 6.102295e+001
3.350287e+002, 6.051622e+001
3.355108e+002, 6.025630e+001
3.359929e+002, 6.017864e+001
3.364750e+002, 5.983403e+001
3.369572e+002, 5.900880e+001
3.374393e+002, 5.817056e+001
3.379214e+002, 5.737295e+001
3.384035e+002, 5.670426e+001
3.388856e+002, 5.643477e+001
3.393677e+002, 5.674641e+001
3.398499e+002, 5.739807e+001
3.403320e+002, 5.774041e+001
3.408141e+002, 5.772353e+001
3.412962e+002, 5.755093e+001
3.417783e+002, 5.729263e+001
3.422604e+002, 5.688741e+001
3.427426e+002, 5.622744e+001
3.432247e+002, 5.528468e+001
3.437068e+002, 5.415618e+001
3.441889e+002, 5.289769e+001
3.446710e+002, 5.125372e+001
3.451531e+002, 5.038745e+001
3.456353e+002, 5.106763e+001
3.461174e+002, 5.200730e+001
3.465995e+002, 5.219447e+001
3.470816e+002, 5.157758e+001
3.475637e+002, 5.073064e+001
3.480458e+002, 5.016250e+001
3.485280e+002, 4.989075e+001
3.490101e+002, 4.948669e+001
3.494922e+002, 4.867010e+001
3.499743e+002, 4.802288e+001
3.504564e+002, 4.797639e+001
3.509385e+002, 4.830488e+001
3.514207e+002, 4.845689e+001
3.519028e+002, 4.809387e+001
3.523849e+002, 4.734945e+001
3.528670e+002, 4.679085e+001
3.533491e+002, 4.646105e+001
3.538312e+002, 4.626295e+001
3.543134e+002, 4.626844e+001
3.547955e+002, 4.636796e+001
3.552776e+002, 4.646105e+001
3.557597e+002, 4.650881e+001
3.562418e+002, 4.648578e+001
3.567239e+002, 4.634039e+001
3.572061e+002, 4.597771e+001
3.576882e+002, 4.568236e+001
3.581703e+002, 4.537219e+001
3.586524e+002, 4.518102e+001
3.591345e+002, 4.523418e+001
3.596166e+002, 4.551929e+001
3.600987e+002, 4.591043e+001
3.605808e+002, 4.629063e+001
3.610630e+002, 4.665583e+001
3.615451e+002, 4.704950e+001
3.620272e+002, 4.760106e+001
3.625093e+002, 4.804531e+001
3.629914e+002, 4.817957e+001
3.634735e+002, 4.814993e+001
3.639557e+002, 4.826252e+001
3.644378e+002, 4.872459e+001
3.649199e+002, 4.940736e+001
3.654020e+002, 4.974975e+001
3.658841e+002, 4.941345e+001
3.663662e+002, 4.918642e+001
3.668484e+002, 4.896703e+001
3.673305e+002, 4.898885e+001
3.678126e+002, 4.966734e+001
3.682947e+002, 5.107699e+001
3.687768e+002, 5.261530e+001
3.692589e+002, 5.323508e+001
3.697411e+002, 5.240324e+001
3.702232e+002, 5.210731e+001
3.707053e+002, 5.278057e+001
3.711874e+002, 5.365918e+001
3.716695e+002, 5.439760e+001
3.721516e+002, 5.496567e+001
3.726338e+002, 5.549757e+001
3.731159e+002, 5.609357e+001
3.735980e+002, 5.675202e+001
3.740801e+002, 5.747456e+001
3.745622e+002, 5.835580e+001
3.750443e+002, 5.918452e+001
3.755265e+002, 5.986562e+001
3.760086e+002, 6.045921e+001
3.764907e+002, 6.107032e+001
3.769728e+002, 6.177548e+001
3.774549e+002, 6.247606e+001
3.779370e+002, 6.292908e+001
3.784192e+002, 6.304442e+001
3.789013e+002, 6.316581e+001
3.793834e+002, 6.351851e+001
3.798655e+002, 6.383614e+001
3.803476e+002, 6.383972e+001
3.808297e+002, 6.347947e+001
3.813119e+002, 6.309335e+001
3.817940e+002, 6.312580e+001
3.822761e+002, 6.356313e+001
3.827582e+002, 6.365668e+001
3.832403e+002, 6.301978e+001
3.837224e+002, 6.236178e+001
3.842046e+002, 6.221686e+001
3.846867e+002, 6.246894e+001
3.851688e+002, 6.268042e+001
3.856509e+002, 6.253268e+001
3.861330e+002, 6.219590e+001
3.866151e+002, 6.215969e+001
3.870973e+002, 6.258470e+001
3.875794e+002, 6.272351e+001
3.880615e+002, 6.171423e+001
3.885436e+002, 6.026175e+001
3.890257e+002, 5.943447e+001
3.895078e+002, 5.973438e+001
3.899900e+002, 6.014550e+001
3.904721e+002, 5.961560e+001
3.909542e+002, 5.828210e+001
3.914363e+002, 5.729282e+001
3.919184e+002, 5.720785e+001
3.924005e+002, 5.739623e+001
3.928827e+002, 5.687754e+001
3.933648e+002, 5.558760e+001
3.938469e+002, 5.453529e+001
3.943290e+002, 5.429942e+001
3.948111e+002, 5.448775e+001
3.952932e+002, 5.448265e+001
3.957754e+002, 5.418518e+001
3.962575e+002, 5.380965e+001
3.967396e+002, 5.344690e+001
3.972217e+002, 5.314298e+001
3.977038e+002, 5.320872e+001
3.981859e+002, 5.412116e+001
3.986681e+002, 5.500224e+001
3.991501e+002, 5.523659e+001
3.996323e+002, 5.493658e+001
4.001144e+002, 5.450941e+001
4.005965e+002, 5.410744e+001
4.010786e+002, 5.379113e+001
4.015607e+002, 5.377992e+001
4.020428e+002, 5.430283e+001
4.025250e+002, 5.467854e+001
4.030071e+002, 5.461800e+001
4.034892e+002, 5.442739e+001
4.039713e+002, 5.441962e+001
4.044534e+002, 5.467466e+001
4.049355e+002, 5.516874e+001
4.054177e+002, 5.590619e+001
4.058998e+002, 5.695279e+001
4.063819e+002, 5.789763e+001
4.068640e+002, 5.867462e+001
4.073461e+002, 5.942327e+001
4.078282e+002, 6.031029e+001
4.083104e+002, 6.123328e+001
4.087925e+002, 6.193489e+001
4.092746e+002, 6.225101e+001
4.097567e+002, 6.224519e+001
4.102388e+002, 6.220876e+001
4.107209e+002, 6.181398e+001
4.112031e+002, 6.184291e+001
4.116852e+002, 6.269910e+001
4.121673e+002, 6.381231e+001
4.126494e+002, 6.466143e+001
4.131315e+002, 6.510539e+001
4.136136e+002, 6.532604e+001
4.140958e+002, 6.560695e+001
4.145779e+002, 6.606979e+001
4.150600e+002, 6.610127e+001
4.155421e+002, 6.528226e+001
4.160242e+002, 6.441015e+001
4.165063e+002, 6.372430e+001
4.169885e+002, 6.323174e+001
4.174706e+002, 6.289013e+001
4.179527e+002, 6.268489e+001
4.184348e+002, 6.259390e+001
4.189169e+002, 6.256685e+001
4.193990e+002, 6.269441e+001
4.198812e+002, 6.267999e+001
4.203633e+002, 6.226989e+001
4.208454e+002, 6.177302e+001
4.213275e+002, 6.143939e+001
4.218096e+002, 6.132532e+001
4.222917e+002, 6.143652e+001
4.227739e+002, 6.188752e+001
4.232560e+002, 6.265499e+001
4.237381e+002, 6.323412e+001
4.242202e+002, 6.333861e+001
4.247023e+002, 6.353804e+001
4.251844e+002, 6.442582e+001
4.256666e+002, 6.580141e+001
4.261487e+002, 6.693713e+001
4.266308e+002, 6.740652e+001
4.271129e+002, 6.751730e+001
4.275950e+002, 6.762521e+001
4.280771e+002, 6.771971e+001
4.285593e+002, 6.806985e+001
4.290414e+002, 6.895877e+001
4.295235e+002, 7.013365e+001
4.300056e+002, 7.103722e+001
4.304877e+002, 7.166054e+001
4.309698e+002, 7.203215e+001
4.314520e+002, 7.200684e+001
4.319341e+002, 7.176228e+001
4.324162e+002, 7.171992e+001
4.328983e+002, 7.201923e+001
4.333804e+002, 7.227428e+001
4.338625e+002, 7.197762e+001
4.343447e+002, 7.103205e+001
4.348268e+002, 7.029668e+001
4.353089e+002, 6.998556e+001
4.357910e+002, 6.973345e+001
4.362731e+002, 6.938267e+001
4.367552e+002, 6.889471e+001
4.372374e+002, 6.817262e+001
4.377195e+002, 6.712654e+001
4.382016e+002, 6.587285e+001
4.386837e+002, 6.487471e+001
4.391658e+002, 6.449229e+001
4.396479e+002, 6.390234e+001
4.401301e+002, 6.281887e+001
4.406122e+002, 6.163816e+001
4.410943e+002, 6.071836e+001
4.415764e+002, 6.014233e+001
4.420585e+002, 5.979650e+001
4.425406e+002, 5.958412e+001
4.430227e+002, 5.953484e+001
4.435049e+002, 5.939993e+001
4.439870e+002, 5.926010e+001
4.444691e+002, 5.894779e+001
4.449512e+002, 5.837855e+001
4.454333e+002, 5.760802e+001
4.459154e+002, 5.667561e+001
4.463976e+002, 5.558394e+001
4.468797e+002, 5.446466e+001
4.473618e+002, 5.363910e+001
4.478439e+002, 5.321681e+001
4.483260e+002, 5.276354e+001
4.488081e+002, 5.221809e+001
4.492903e+002, 5.159872e+001
4.497724e+002, 5.090645e+001
4.502545e+002, 5.014375e+001
4.507366e+002, 4.932039e+001
4.512187e+002, 4.842186e+001
4.517008e+002, 4.746413e+001
4.521830e+002, 4.650700e+001
4.526651e+002, 4.549383e+001
4.531472e+002, 4.463732e+001
4.536293e+002, 4.418485e+001
4.541114e+002, 4.394104e+001
4.545935e+002, 4.366686e+001
4.550757e+002, 4.338247e+001
4.555578e+002, 4.292316e+001
4.560399e+002, 4.190580e+001
4.565220e+002, 4.052592e+001
4.570041e+002, 3.970321e+001
4.574862e+002, 3.985433e+001
4.579684e+002, 4.031465e+001
4.584505e+002, 4.018642e+001
4.589326e+002, 3.948308e+001
4.594147e+002, 3.883292e+001
4.598968e+002, 3.822999e+001
4.603789e+002, 3.781144e+001
4.608611e+002, 3.783915e+001
4.613432e+002, 3.822661e+001
4.618253e+002, 3.849591e+001
4.623074e+002, 3.833757e+001
4.627895e+002, 3.785473e+001
4.632716e+002, 3.746891e+001
4.637538e+002, 3.719926e+001
4.642359e+002, 3.699329e+001
4.647180e+002, 3.684331e+001
4.652001e+002, 3.675330e+001
4.656822e+002, 3.673242e+001
4.661643e+002, 3.677964e+001
4.666465e+002, 3.689095e+001
4.671286e+002, 3.709234e+001
4.676107e+002, 3.742132e+001
4.680928e+002, 3.748341e+001
4.685749e+002, 3.689560e+001
4.690570e+002, 3.644781e+001
4.695392e+002, 3.646436e+001
4.700213e+002, 3.672528e+001
4.705034e+002, 3.691162e+001
4.709855e+002, 3.688528e+001
4.714676e+002, 3.670057e+001
4.719497e+002, 3.639919e+001
4.724319e+002, 3.591329e+001
4.729140e+002, 3.561179e+001
4.733961e+002, 3.565284e+001
4.738782e+002, 3.581510e+001
4.743603e+002, 3.606641e+001
4.748424e+002, 3.635101e+001
4.753246e+002, 3.649784e+001
4.758067e+002, 3.629109e+001
4.762888e+002, 3.591752e+001
4.767709e+002, 3.580951e+001
4.772530e+002, 3.600700e+001
4.777351e+002, 3.622001e+001
4.782173e+002, 3.629597e+001
4.786994e+002, 3.631960e+001
4.791815e+002, 3.646305e+001
4.796636e+002, 3.680744e+001
4.801457e+002, 3.699694e+001
4.806278e+002, 3.669225e+001
4.811100e+002, 3.615213e+001
4.815920e+002, 3.583356e+001
4.820742e+002, 3.581740e+001
4.825563e+002, 3.599479e+001
4.830384e+002, 3.631875e+001
4.835205e+002, 3.678338e+001
4.840026e+002, 3.713132e+001
4.844847e+002, 3.734154e+001
4.849669e+002, 3.746589e+001
4.854490e+002, 3.744691e+001
4.859311e+002, 3.737334e+001
4.864132e+002, 3.740080e+001
4.868953e+002, 3.758685e+001
4.873774e+002, 3.786277e+001
4.878596e+002, 3.812351e+001
4.883417e+002, 3.840003e+001
4.888238e+002, 3.857479e+001
4.893059e+002, 3.853239e+001
4.897880e+002, 3.851554e+001
4.902701e+002, 3.879486e+001
4.907523e+002, 3.919078e+001
4.912344e+002, 3.921840e+001
4.917165e+002, 3.850429e+001
4.921986e+002, 3.746479e+001
4.926807e+002, 3.737225e+001
4.931628e+002, 3.871748e+001
4.936450e+002, 3.965159e+001
4.941271e+002, 3.939259e+001
4.946092e+002, 3.887275e+001
4.950913e+002, 3.872984e+001
4.955734e+002, 3.897632e+001
4.960555e+002, 3.916329e+001
4.965377e+002, 3.888238e+001
4.970198e+002, 3.831455e+001
4.975019e+002, 3.799060e+001
4.979840e+002, 3.797868e+001
4.984661e+002, 3.793452e+001
4.989482e+002, 3.764360e+001
4.994304e+002, 3.720420e+001
4.999125e+002, 3.680592e+001
5.003946e+002, 3.645091e+001
5.008767e+002, 3.615206e+001
5.013588e+002, 3.597338e+001
5.018409e+002, 3.583807e+001
5.023231e+002, 3.557033e+001
5.028052e+002, 3.513285e+001
5.032873e+002, 3.470799e+001
5.037694e+002, 3.445373e+001
5.042515e+002, 3.437578e+001
5.047336e+002, 3.445874e+001
5.052158e+002, 3.503326e+001
5.056979e+002, 3.538292e+001
5.061800e+002, 3.509728e+001
5.066621e+002, 3.446974e+001
5.071442e+002, 3.392702e+001
5.076263e+002, 3.362693e+001
5.081085e+002, 3.348595e+001
5.085906e+002, 3.338811e+001
5.090727e+002, 3.334519e+001
5.095548e+002, 3.330213e+001
5.100369e+002, 3.336472e+001
5.105190e+002, 3.332046e+001
5.110012e+002, 3.293920e+001
5.114833e+002, 3.241054e+001
5.119654e+002, 3.210643e+001
5.124475e+002, 3.223890e+001
5.129296e+002, 3.259406e+001
5.134117e+002, 3.280692e+001
5.138939e+002, 3.286951e+001
5.143760e+002, 3.284855e+001
5.148581e+002, 3.266910e+001
5.153402e+002, 3.250055e+001
5.158223e+002, 3.246363e+001
5.163044e+002, 3.255532e+001
5.167866e+002, 3.274230e+001
5.172687e+002, 3.319468e+001
5.177508e+002, 3.363025e+001
5.182329e+002, 3.355772e+001
5.187150e+002, 3.302135e+001
5.191971e+002, 3.270545e+001
5.196793e+002, 3.302562e+001
5.201614e+002, 3.364863e+001
5.206435e+002, 3.377658e+001
5.211256e+002, 3.324799e+001
5.216077e+002, 3.281565e+001
5.220898e+002, 3.268198e+001
5.225720e+002, 3.264178e+001
5.230541e+002, 3.245232e+001
5.235362e+002, 3.215345e+001
5.240183e+002, 3.204307e+001
5.245004e+002, 3.237073e+001
5.249825e+002, 3.301696e+001
5.254647e+002, 3.336816e+001
5.259468e+002, 3.327149e+001
5.264289e+002, 3.306944e+001
5.269110e+002, 3.256163e+001
5.273931e+002, 3.212450e+001
5.278752e+002, 3.217225e+001
5.283574e+002, 3.267761e+001
5.288395e+002, 3.317750e+001
5.293216e+002, 3.324974e+001
5.298037e+002, 3.296055e+001
5.302858e+002, 3.269282e+001
5.307679e+002, 3.241579e+001
5.312501e+002, 3.223463e+001
5.317322e+002, 3.222873e+001
5.322143e+002, 3.232757e+001
5.326964e+002, 3.245451e+001
5.331785e+002, 3.258821e+001
5.336606e+002, 3.282450e+001
5.341428e+002, 3.347758e+001
5.346249e+002, 3.423072e+001
5.351070e+002, 3.426379e+001
5.355891e+002, 3.341957e+001
5.360712e+002, 3.257599e+001
5.365533e+002, 3.243792e+001
5.370355e+002, 3.287727e+001
5.375176e+002, 3.304444e+001
5.379997e+002, 3.278217e+001
5.384818e+002, 3.246814e+001
5.389639e+002, 3.214810e+001
5.394460e+002, 3.186186e+001
5.399282e+002, 3.169166e+001
5.404103e+002, 3.163867e+001
5.408924e+002, 3.157041e+001
5.413745e+002, 3.132031e+001
5.418566e+002, 3.087591e+001
5.423387e+002, 3.068472e+001
5.428209e+002, 3.104545e+001
5.433029e+002, 3.131183e+001
5.437850e+002, 3.128165e+001
5.442672e+002, 3.112617e+001
5.447493e+002, 3.104948e+001
5.452314e+002, 3.110386e+001
5.457135e+002, 3.117617e+001
5.461956e+002, 3.110395e+001
5.466777e+002, 3.090882e+001
5.471599e+002, 3.087982e+001
5.476420e+002, 3.112833e+001
5.481241e+002, 3.133863e+001
5.486062e+002, 3.124136e+001
5.490883e+002, 3.099071e+001
5.495704e+002, 3.082905e+001
5.500526e+002, 3.081606e+001
5.505347e+002, 3.085501e+001
5.510168e+002, 3.090922e+001
5.514989e+002, 3.096749e+001
5.519810e+002, 3.099635e+001
5.524631e+002, 3.098772e+001
5.529453e+002, 3.100082e+001
5.534274e+002, 3.112638e+001
5.539095e+002, 3.136463e+001
5.543916e+002, 3.133854e+001
5.548737e+002, 3.072769e+001
5.553558e+002, 3.027631e+001
5.558380e+002, 3.035091e+001
5.563201e+002, 3.062240e+001
5.568022e+002, 3.061808e+001
5.572843e+002, 3.024799e+001
5.577664e+002, 2.989096e+001
5.582485e+002, 3.006274e+001
5.587307e+002, 3.079607e+001
5.592128e+002, 3.108078e+001
5.596949e+002, 3.052775e+001
5.601770e+002, 3.007522e+001
5.606591e+002, 3.014419e+001
5.611412e+002, 3.042966e+001
5.616234e+002, 3.053517e+001
5.621055e+002, 3.034456e+001
5.625876e+002, 3.015818e+001
5.630697e+002, 3.030930e+001
5.635518e+002, 3.068059e+001
5.640339e+002, 3.086858e+001
5.645161e+002, 3.080877e+001
5.649982e+002, 3.066465e+001
5.654803e+002, 3.057560e+001
5.659624e+002, 3.049124e+001
5.664445e+002, 3.020744e+001
5.669266e+002, 2.936208e+001
5.674088e+002, 2.883139e+001
5.678909e+002, 2.913490e+001
5.683730e+002, 2.981346e+001
5.688551e+002, 3.035601e+001
5.693372e+002, 3.064372e+001
5.698193e+002, 3.072584e+001
5.703015e+002, 3.061797e+001
5.707836e+002, 3.033394e+001
5.712657e+002, 3.014922e+001
5.717478e+002, 3.009282e+001
5.722299e+002, 3.010499e+001
5.727120e+002, 3.027640e+001
5.731942e+002, 3.044674e+001
5.736763e+002, 3.039712e+001
5.741584e+002, 3.013075e+001
5.746405e+002, 2.994851e+001
5.751226e+002, 3.028036e+001
5.756047e+002, 3.093563e+001
5.760869e+002, 3.100344e+001
5.765690e+002, 3.029774e+001
5.770511e+002, 2.980331e+001
5.775332e+002, 3.022387e+001
5.780153e+002, 3.099453e+001
5.784974e+002, 3.112851e+001
5.789796e+002, 3.042833e+001
5.794617e+002, 2.991680e+001
5.799438e+002, 3.016229e+001
5.804259e+002, 3.068904e+001
5.809080e+002, 3.095520e+001
5.813901e+002, 3.094116e+001
5.818723e+002, 3.090209e+001
5.823544e+002, 3.100079e+001
5.828365e+002, 3.118934e+001
5.833186e+002, 3.130579e+001
5.838007e+002, 3.132917e+001
5.842828e+002, 3.130670e+001
5.847650e+002, 3.109468e+001
5.852471e+002, 3.096095e+001
5.857292e+002, 3.118943e+001
5.862113e+002, 3.166816e+001
5.866934e+002, 3.202326e+001
5.871755e+002, 3.200595e+001
5.876577e+002, 3.174794e+001
5.881398e+002, 3.145609e+001
5.886219e+002, 3.106992e+001
5.891040e+002, 3.110827e+001
5.895861e+002, 3.203664e+001
5.900682e+002, 3.305846e+001
5.905504e+002, 3.335955e+001
5.910325e+002, 3.304949e+001
5.915146e+002, 3.282744e+001
5.919967e+002, 3.299767e+001
5.924788e+002, 3.326091e+001
5.929609e+002, 3.326273e+001
5.934431e+002, 3.313897e+001
5.939252e+002, 3.340340e+001
5.944073e+002, 3.427595e+001
5.948894e+002, 3.522814e+001
5.953715e+002, 3.548119e+001
5.958536e+002, 3.481277e+001
5.963358e+002, 3.444829e+001
5.968179e+002, 3.433797e+001
5.973000e+002, 3.453601e+001
5.977821e+002, 3.533517e+001
5.982642e+002, 3.635632e+001
5.987463e+002, 3.703918e+001
5.992285e+002, 3.720225e+001
5.997106e+002, 3.720917e+001
6.001927e+002, 3.748026e+001
6.006748e+002, 3.801027e+001
6.011569e+002, 3.863446e+001
6.016390e+002, 3.936551e+001
6.021212e+002, 4.014488e+001
6.026033e+002, 4.099458e+001
6.030854e+002, 4.185346e+001
6.035675e+002, 4.257349e+001
6.040496e+002, 4.304840e+001
6.045317e+002, 4.365930e+001
6.050139e+002, 4.463203e+001
6.054960e+002, 4.584871e+001
6.059781e+002, 4.719879e+001
6.064602e+002, 4.864085e+001
6.069423e+002, 5.001421e+001
6.074244e+002, 5.116798e+001
6.079066e+002, 5.218431e+001
6.083887e+002, 5.345078e+001
6.088708e+002, 5.505925e+001
6.093529e+002, 5.680323e+001
6.098350e+002, 5.889342e+001
6.103171e+002, 6.093375e+001
6.107993e+002, 6.251515e+001
6.112814e+002, 6.376722e+001
6.117635e+002, 6.517080e+001
6.122456e+002, 6.700210e+001
6.127277e+002, 6.921806e+001
6.132098e+002, 7.185322e+001
6.136920e+002, 7.497038e+001
6.141741e+002, 7.792018e+001
6.146562e+002, 8.045989e+001
6.151383e+002, 8.291173e+001
6.156204e+002, 8.557487e+001
6.161025e+002, 8.843828e+001
6.165847e+002, 9.146946e+001
6.170668e+002, 9.496597e+001
6.175489e+002, 9.832321e+001
6.180310e+002, 1.011224e+002
6.185131e+002, 1.035037e+002
6.189952e+002, 1.058320e+002
6.194774e+002, 1.082052e+002
6.199595e+002, 1.103255e+002
6.204416e+002, 1.118735e+002
6.209237e+002, 1.128631e+002
6.214058e+002, 1.131483e+002
6.218879e+002, 1.124071e+002
6.223701e+002, 1.113069e+002
6.228522e+002, 1.099014e+002
6.233343e+002, 1.082628e+002
6.238164e+002, 1.065406e+002
6.242985e+002, 1.047407e+002
6.247806e+002, 1.025475e+002
6.252628e+002, 9.951480e+001
6.257448e+002, 9.593076e+001
6.262269e+002, 9.255676e+001
6.267090e+002, 8.940926e+001
6.271912e+002, 8.639079e+001
6.276733e+002, 8.341828e+001
6.281554e+002, 8.056776e+001
6.286375e+002, 7.800888e+001
6.291196e+002, 7.581407e+001
6.296017e+002, 7.353344e+001
6.300839e+002, 7.087704e+001
6.305660e+002, 6.830463e+001
6.310481e+002, 6.617909e+001
6.315302e+002, 6.438503e+001
6.320123e+002, 6.255514e+001
6.324944e+002, 6.052872e+001
6.329766e+002, 5.853412e+001
6.334587e+002, 5.698360e+001
6.339408e+002, 5.593624e+001
6.344229e+002, 5.502158e+001
6.349050e+002, 5.449243e+001
6.353871e+002, 5.375523e+001
6.358693e+002, 5.233233e+001
6.363514e+002, 5.063293e+001
6.368335e+002, 4.929314e+001
6.373156e+002, 4.850981e+001
6.377977e+002, 4.790162e+001
6.382798e+002, 4.723235e+001
6.387620e+002, 4.654801e+001
6.392441e+002, 4.594865e+001
6.397262e+002, 4.544388e+001
6.402083e+002, 4.490242e+001
6.406904e+002, 4.421560e+001
6.411725e+002, 4.345650e+001
6.416547e+002, 4.286524e+001
6.421368e+002, 4.257841e+001
6.426189e+002, 4.226922e+001
6.431010e+002, 4.195241e+001
6.435831e+002, 4.160115e+001
6.440652e+002, 4.121511e+001
6.445474e+002, 4.077826e+001
6.450295e+002, 4.021288e+001
6.455116e+002, 3.944446e+001
6.459937e+002, 3.870275e+001
6.464758e+002, 3.844993e+001
6.469579e+002, 3.868064e+001
6.474401e+002, 3.873066e+001
6.479222e+002, 3.847060e+001
6.484043e+002, 3.808057e+001
6.488864e+002, 3.758699e+001
6.493685e+002, 3.707111e+001
6.498506e+002, 3.680138e+001
6.503328e+002, 3.682951e+001
6.508149e+002, 3.705718e+001
6.512970e+002, 3.775794e+001
6.517791e+002, 3.846775e+001
6.522612e+002, 3.848689e+001
6.527433e+002, 3.784580e+001
6.532255e+002, 3.722494e+001
6.537076e+002, 3.713227e+001
6.541897e+002, 3.744040e+001
6.546718e+002, 3.769382e+001
6.551539e+002, 3.791206e+001
6.556360e+002, 3.802516e+001
6.561182e+002, 3.788180e+001
6.566003e+002, 3.775056e+001
6.570824e+002, 3.781358e+001
6.575645e+002, 3.801511e+001
6.580466e+002, 3.816247e+001
6.585287e+002, 3.814427e+001
6.590109e+002, 3.810786e+001
6.594930e+002, 3.820866e+001
6.599751e+002, 3.840181e+001
6.604572e+002, 3.854393e+001
6.609393e+002, 3.860114e+001
6.614214e+002, 3.870611e+001
6.619036e+002, 3.900249e+001
6.623857e+002, 3.946062e+001
6.628678e+002, 3.975273e+001
6.633499e+002, 3.976261e+001
6.638320e+002, 3.975692e+001
6.643141e+002, 3.961104e+001
6.647963e+002, 3.957095e+001
6.652784e+002, 4.000453e+001
6.657605e+002, 4.076212e+001
6.662426e+002, 4.122303e+001
6.667247e+002, 4.088581e+001
6.672068e+002, 4.023833e+001
6.676890e+002, 4.024453e+001
6.681711e+002, 4.088125e+001
6.686532e+002, 4.132752e+001
6.691353e+002, 4.136614e+001
6.696174e+002, 4.124958e+001
6.700995e+002, 4.114210e+001
6.705817e+002, 4.106505e+001
6.710638e+002, 4.117213e+001
6.715459e+002, 4.175368e+001
6.720280e+002, 4.216433e+001
6.725101e+002, 4.208564e+001
6.729922e+002, 4.179806e+001
6.734744e+002, 4.154245e+001
6.739565e+002, 4.138926e+001
6.744386e+002, 4.140660e+001
6.749207e+002, 4.170525e+001
6.754028e+002, 4.211383e+001
6.758849e+002, 4.201149e+001
6.763671e+002, 4.125932e+001
6.768492e+002, 4.060548e+001
6.773313e+002, 4.015448e+001
6.778134e+002, 3.989222e+001
6.782955e+002, 3.985653e+001
6.787776e+002, 3.999446e+001
6.792598e+002, 4.012725e+001
6.797419e+002, 4.036169e+001
6.802240e+002, 4.039272e+001
6.807061e+002, 3.996014e+001
6.811882e+002, 3.923948e+001
6.816703e+002, 3.838470e+001
6.821525e+002, 3.748311e+001
6.826346e+002, 3.682683e+001
6.831167e+002, 3.669218e+001
6.835988e+002, 3.695913e+001
6.840809e+002, 3.703081e+001
6.845630e+002, 3.682494e+001
6.850452e+002, 3.660375e+001
6.855273e+002, 3.648450e+001
6.860094e+002, 3.628554e+001
6.864915e+002, 3.580101e+001
6.869736e+002, 3.514283e+001
6.874557e+002, 3.464603e+001
6.879379e+002, 3.448401e+001
6.884200e+002, 3.444000e+001
6.889021e+002, 3.432337e+001
6.893842e+002, 3.417817e+001
6.898663e+002, 3.413276e+001
6.903484e+002, 3.420663e+001
6.908306e+002, 3.426928e+001
6.913127e+002, 3.422699e+001
6.917948e+002, 3.408241e+001
6.922769e+002, 3.384169e+001
6.927590e+002, 3.339581e+001
6.932411e+002, 3.302835e+001
6.937233e+002, 3.286517e+001
6.942054e+002, 3.267889e+001
6.946875e+002, 3.222288e+001
6.951696e+002, 3.163387e+001
6.956517e+002, 3.131295e+001
6.961339e+002, 3.152693e+001
6.966160e+002, 3.178021e+001
6.970981e+002, 3.139014e+001
6.975802e+002, 3.056893e+001
6.980623e+002, 3.008523e+001
6.985444e+002, 3.006989e+001
6.990266e+002, 3.020116e+001
6.995087e+002, 3.029251e+001
6.999908e+002, 3.033333e+001
7.004729e+002, 3.027913e+001
7.009550e+002, 2.995441e+001
7.014371e+002, 2.980651e+001
7.019193e+002, 2.994788e+001
7.024014e+002, 3.016817e+001
7.028835e+002, 3.034219e+001
7.033656e+002, 3.049260e+001
7.038477e+002, 3.071823e+001
7.043298e+002, 3.107096e+001
7.048120e+002, 3.140918e+001
7.052941e+002, 3.152215e+001
7.057762e+002, 3.145726e+001
7.062583e+002, 3.148362e+001
7.067404e+002, 3.165641e+001
7.072225e+002, 3.167974e+001
7.077046e+002, 3.127216e+001
7.081867e+002, 3.068016e+001
7.086688e+002, 3.056950e+001
7.091509e+002, 3.119938e+001
7.096331e+002, 3.161979e+001
7.101152e+002, 3.155563e+001
7.105973e+002, 3.147469e+001
7.110794e+002, 3.171160e+001
7.115615e+002, 3.211387e+001
7.120436e+002, 3.236311e+001
7.125258e+002, 3.234759e+001
7.130079e+002, 3.226106e+001
7.134900e+002, 3.232755e+001
7.139721e+002, 3.252136e+001
7.144542e+002, 3.267649e+001
7.149363e+002, 3.276197e+001
7.154185e+002, 3.300472e+001
7.159006e+002, 3.366520e+001
7.163827e+002, 3.437587e+001
7.168648e+002, 3.442659e+001
7.173469e+002, 3.368491e+001
7.178290e+002, 3.316316e+001
7.183112e+002, 3.315626e+001
7.187933e+002, 3.316285e+001
7.192754e+002, 3.290021e+001
7.197575e+002, 3.250805e+001
7.202396e+002, 3.220016e+001
7.207217e+002, 3.203189e+001
7.212039e+002, 3.190848e+001
7.216860e+002, 3.169737e+001
7.221681e+002, 3.146484e+001
7.226502e+002, 3.157388e+001
7.231323e+002, 3.210256e+001
7.236144e+002, 3.229610e+001
7.240966e+002, 3.177316e+001
7.245787e+002, 3.103347e+001
7.250608e+002, 3.066034e+001
7.255429e+002, 3.064406e+001
7.260250e+002, 3.061214e+001
7.265071e+002, 3.057500e+001
7.269893e+002, 3.048307e+001
7.274714e+002, 3.022620e+001
7.279535e+002, 2.995954e+001
7.284356e+002, 2.986954e+001
7.289177e+002, 2.996617e+001
7.293998e+002, 3.015549e+001
7.298820e+002, 3.042640e+001
7.303641e+002, 3.064001e+001
7.308462e+002, 3.031685e+001
7.313283e+002, 2.942316e+001
7.318104e+002, 2.906450e+001
7.322925e+002, 2.964174e+001
7.327747e+002, 3.035308e+001
7.332568e+002, 3.050266e+001
7.337389e+002, 3.021877e+001
7.342210e+002, 3.021669e+001
7.347031e+002, 3.078424e+001
7.351852e+002, 3.118569e+001
7.356674e+002, 3.125554e+001
7.361495e+002, 3.111697e+001
7.366316e+002, 3.070431e+001
7.371137e+002, 3.017973e+001
7.375958e+002, 2.995199e+001
7.380779e+002, 3.024478e+001
7.385601e+002, 3.069452e+001
7.390422e+002, 3.071811e+001
7.395243e+002, 3.037007e+001
7.400064e+002, 3.018567e+001
7.404885e+002, 3.023039e+001
7.409706e+002, 3.033932e+001
7.414528e+002, 3.045668e+001
7.419349e+002, 3.055516e+001
7.424170e+002, 3.054988e+001
7.428991e+002, 3.037558e+001
7.433812e+002, 3.032990e+001
7.438633e+002, 3.051331e+001
7.443455e+002, 3.075139e+001
7.448276e+002, 3.102464e+001
7.453097e+002, 3.126437e+001
7.457918e+002, 3.133764e+001
7.462739e+002, 3.122529e+001
7.467560e+002, 3.112637e+001
7.472382e+002, 3.124723e+001
7.477203e+002, 3.152868e+001
7.482024e+002, 3.181658e+001
7.486845e+002, 3.211335e+001
7.491666e+002, 3.231362e+001
7.496487e+002, 3.234424e+001
7.501309e+002, 3.235918e+001
7.506130e+002, 3.255508e+001
7.510951e+002, 3.294474e+001
7.515772e+002, 3.326339e+001
7.520593e+002, 3.348530e+001
7.525414e+002, 3.367455e+001
7.530236e+002, 3.363608e+001
7.535057e+002, 3.372234e+001
7.539878e+002, 3.441378e+001
7.544699e+002, 3.557315e+001
7.549520e+002, 3.652594e+001
7.554341e+002, 3.680412e+001
7.559163e+002, 3.688820e+001
7.563984e+002, 3.748174e+001
7.568805e+002, 3.847626e+001
7.573626e+002, 3.941444e+001
7.578447e+002, 4.022894e+001
7.583268e+002, 4.090758e+001
7.588090e+002, 4.141457e+001
7.592911e+002, 4.180666e+001
7.597732e+002, 4.228266e+001
7.602553e+002, 4.299471e+001
7.607374e+002, 4.351393e+001
7.612195e+002, 4.368227e+001
7.617017e+002, 4.383844e+001
7.621838e+002, 4.427801e+001
7.626659e+002, 4.476314e+001
7.631480e+002, 4.488152e+001
7.636301e+002, 4.450997e+001
7.641122e+002, 4.400877e+001
7.645944e+002, 4.366060e+001
7.650765e+002, 4.334252e+001
7.655586e+002, 4.289219e+001
7.660407e+002, 4.229247e+001
7.665228e+002, 4.148400e+001
7.670049e+002, 4.042843e+001
7.674871e+002, 3.931009e+001
7.679692e+002, 3.837175e+001
7.684513e+002, 3.761044e+001
7.689334e+002, 3.692103e+001
7.694155e+002, 3.618109e+001
7.698976e+002, 3.571514e+001
7.703798e+002, 3.596645e+001
7.708619e+002, 3.621165e+001
7.713440e+002, 3.576180e+001
7.718261e+002, 3.473883e+001
7.723082e+002, 3.391950e+001
7.727903e+002, 3.379398e+001
7.732725e+002, 3.365541e+001
7.737546e+002, 3.275912e+001
7.742367e+002, 3.164494e+001
7.747188e+002, 3.128794e+001
7.752009e+002, 3.169642e+001
7.756830e+002, 3.205795e+001
7.761652e+002, 3.183109e+001
7.766473e+002, 3.124714e+001
7.771294e+002, 3.082715e+001
7.776115e+002, 3.057506e+001
7.780936e+002, 3.047161e+001
7.785757e+002, 3.060460e+001
7.790579e+002, 3.072122e+001
7.795400e+002, 3.062132e+001
7.800221e+002, 3.044723e+001
7.805042e+002, 3.045610e+001
7.809863e+002, 3.070136e+001
7.814684e+002, 3.089741e+001
7.819506e+002, 3.088842e+001
7.824327e+002, 3.089594e+001
7.829148e+002, 3.116758e+001
7.833969e+002, 3.151700e+001
7.838790e+002, 3.159622e+001
7.843611e+002, 3.133677e+001
7.848433e+002, 3.098283e+001
7.853254e+002, 3.065143e+001
7.858075e+002, 3.046331e+001
7.862896e+002, 3.101147e+001
7.867717e+002, 3.231286e+001
7.872538e+002, 3.292785e+001
7.877360e+002, 3.230221e+001
7.882181e+002, 3.149907e+001
7.887002e+002, 3.151553e+001
7.891823e+002, 3.224404e+001
7.896644e+002, 3.276984e+001
7.901465e+002, 3.305098e+001
7.906286e+002, 3.320271e+001
7.911107e+002, 3.316710e+001
7.915928e+002, 3.306552e+001
7.920750e+002, 3.292795e+001
7.925571e+002, 3.279607e+001
7.930392e+002, 3.275943e+001
7.935213e+002, 3.286574e+001
7.940034e+002, 3.293444e+001
7.944855e+002, 3.284327e+001
7.949677e+002, 3.259187e+001
7.954498e+002, 3.206289e+001
7.959319e+002, 3.131956e+001
7.964140e+002, 3.083106e+001
7.968961e+002, 3.080457e+001
7.973782e+002, 3.095113e+001
7.978604e+002, 3.087911e+001
7.983425e+002, 3.057937e+001
7.988246e+002, 3.025033e+001
7.993067e+002, 2.984637e+001
7.997888e+002, 2.949319e+001
8.002709e+002, 2.914012e+001
8.007531e+002, 2.891690e+001
8.012352e+002, 2.905630e+001
8.017173e+002, 2.945494e+001
8.021994e+002, 2.960931e+001
8.026815e+002, 2.921461e+001
8.031636e+002, 2.880362e+001
8.036458e+002, 2.863636e+001
8.041279e+002, 2.861584e+001
8.046100e+002, 2.870794e+001
8.050921e+002, 2.884242e+001
8.055742e+002, 2.881306e+001
8.060563e+002, 2.849656e+001
8.065385e+002, 2.812605e+001
8.070206e+002, 2.812350e+001
8.075027e+002, 2.845476e+001
8.079848e+002, 2.865045e+001
8.084669e+002, 2.868567e+001
8.089490e+002, 2.860904e+001
8.094312e+002, 2.840509e+001
8.099133e+002, 2.814962e+001
8.103954e+002, 2.794431e+001
8.108775e+002, 2.778720e+001
8.113596e+002, 2.770893e+001
8.118417e+002, 2.778988e+001
8.123239e+002, 2.784650e+001
8.128060e+002, 2.783849e+001
8.132881e+002, 2.777732e+001
8.137702e+002, 2.767461e+001
8.142523e+002, 2.753114e+001
8.147344e+002, 2.731475e+001
8.152166e+002, 2.691497e+001
8.156987e+002, 2.663793e+001
8.161808e+002, 2.700081e+001
8.166629e+002, 2.768032e+001
8.171450e+002, 2.789793e+001
8.176271e+002, 2.760889e+001
8.181093e+002, 2.732486e+001
8.185914e+002, 2.734044e+001
8.190735e+002, 2.750976e+001
8.195556e+002, 2.752429e+001
8.200377e+002, 2.732378e+001
8.205198e+002, 2.738432e+001
8.210020e+002, 2.794833e+001
8.214841e+002, 2.831081e+001
8.219662e+002, 2.799535e+001
8.224483e+002, 2.749749e+001
8.229304e+002, 2.741808e+001
8.234125e+002, 2.774374e+001
8.238947e+002, 2.790021e+001
8.243768e+002, 2.745753e+001
8.248589e+002, 2.720446e+001
8.253410e+002, 2.775439e+001
8.258231e+002, 2.849767e+001
8.263052e+002, 2.873817e+001
8.267874e+002, 2.847873e+001
8.272695e+002, 2.810623e+001
8.277516e+002, 2.781311e+001
8.282337e+002, 2.761041e+001
8.287158e+002, 2.748468e+001
8.291979e+002, 2.745900e+001
8.296801e+002, 2.773705e+001
8.301622e+002, 2.833769e+001
8.306443e+002, 2.868386e+001
8.311264e+002, 2.844198e+001
8.316085e+002, 2.792506e+001
8.320906e+002, 2.762599e+001
8.325728e+002, 2.755388e+001
8.330549e+002, 2.764635e+001
8.335370e+002, 2.809595e+001
8.340191e+002, 2.842997e+001
8.345012e+002, 2.856260e+001
8.349833e+002, 2.852999e+001
8.354655e+002, 2.822488e+001
8.359476e+002, 2.774769e+001
8.364297e+002, 2.754790e+001
8.369118e+002, 2.792259e+001
8.373939e+002, 2.834239e+001
8.378760e+002, 2.853798e+001
8.383582e+002, 2.861262e+001
8.388403e+002, 2.867724e+001
8.393224e+002, 2.873676e+001
8.398045e+002, 2.873408e+001
8.402866e+002, 2.864145e+001
8.407687e+002, 2.856180e+001
8.412509e+002, 2.864578e+001
8.417330e+002, 2.887066e+001
8.422151e+002, 2.912031e+001
8.426972e+002, 2.939475e+001
8.431793e+002, 2.964623e+001
8.436614e+002, 2.986277e+001
8.441436e+002, 3.003253e+001
8.446257e+002, 3.015648e+001
8.451078e+002, 3.023204e+001
8.455899e+002, 3.013375e+001
8.460720e+002, 2.962789e+001
8.465541e+002, 2.929202e+001
8.470363e+002, 2.930706e+001
8.475184e+002, 2.937678e+001
8.480005e+002, 2.933062e+001
8.484826e+002, 2.919211e+001
8.489647e+002, 2.902569e+001
8.494468e+002, 2.882824e+001
8.499290e+002, 2.869169e+001
8.504111e+002, 2.869678e+001
8.508932e+002, 2.876174e+001
8.513753e+002, 2.878172e+001
8.518574e+002, 2.879611e+001
8.523395e+002, 2.893363e+001
8.528217e+002, 2.921901e+001
8.533038e+002, 2.952051e+001
8.537859e+002, 2.974625e+001
8.542680e+002, 2.985274e+001
8.547501e+002, 2.962333e+001
8.552322e+002, 2.905821e+001
8.557144e+002, 2.860552e+001
8.561965e+002, 2.832480e+001
8.566786e+002, 2.832219e+001
8.571607e+002, 2.875751e+001
8.576428e+002, 2.947372e+001
8.581249e+002, 2.997002e+001
8.586071e+002, 3.017331e+001
8.590892e+002, 3.030826e+001
8.595713e+002, 3.030796e+001
8.600534e+002, 3.031903e+001
8.605355e+002, 3.030097e+001
8.610176e+002, 3.037467e+001
8.614998e+002, 3.077068e+001
8.619819e+002, 3.148570e+001
8.624640e+002, 3.204079e+001
8.629461e+002, 3.228131e+001
8.634282e+002, 3.226481e+001
8.639103e+002, 3.162829e+001
8.643925e+002, 3.097289e+001
8.648746e+002, 3.137572e+001
8.653567e+002, 3.270401e+001
8.658388e+002, 3.380452e+001
8.663209e+002, 3.399752e+001
8.668030e+002, 3.372454e+001
8.672852e+002, 3.356057e+001
8.677673e+002, 3.351166e+001
8.682494e+002, 3.363747e+001
8.687315e+002, 3.394570e+001
8.692136e+002, 3.432020e+001
8.696957e+002, 3.476334e+001
8.701779e+002, 3.507398e+001
8.706600e+002, 3.493980e+001
8.711421e+002, 3.435548e+001
8.716242e+002, 3.395295e+001
8.721063e+002, 3.377330e+001
8.725884e+002, 3.370330e+001
8.730705e+002, 3.387162e+001
8.735526e+002, 3.400944e+001
8.740347e+002, 3.398631e+001
8.745168e+002, 3.380408e+001
8.749990e+002, 3.341075e+001
8.754811e+002, 3.261027e+001
8.759632e+002, 3.218630e+001
8.764453e+002, 3.292774e+001
8.769274e+002, 3.364943e+001
8.774095e+002, 3.329017e+001
8.778917e+002, 3.235800e+001
8.783738e+002, 3.177320e+001
8.788559e+002, 3.174636e+001
8.793380e+002, 3.189331e+001
8.798201e+002, 3.198023e+001
8.803022e+002, 3.199338e+001
8.807844e+002, 3.189718e+001
8.812665e+002, 3.170712e+001
8.817486e+002, 3.141955e+001
8.822307e+002, 3.105042e+001
8.827128e+002, 3.088084e+001
8.831949e+002, 3.112045e+001
8.836771e+002, 3.153460e+001
8.841592e+002, 3.163450e+001
8.846413e+002, 3.138989e+001
8.851234e+002, 3.100548e+001
8.856055e+002, 3.027908e+001
8.860876e+002, 2.993275e+001
8.865698e+002, 3.042938e+001
8.870519e+002, 3.119319e+001
8.875340e+002, 3.162469e+001
8.880161e+002, 3.173493e+001
8.884982e+002, 3.173496e+001
8.889803e+002, 3.157618e+001
8.894625e+002, 3.138424e+001
8.899446e+002, 3.115751e+001
8.904267e+002, 3.092539e+001
8.909088e+002, 3.063423e+001
8.913909e+002, 3.037438e+001
8.918730e+002, 3.039577e+001
8.923552e+002, 3.078628e+001
8.928373e+002, 3.098253e+001
8.933194e+002, 3.034834e+001
8.938015e+002, 2.957331e+001
8.942836e+002, 2.955406e+001
8.947657e+002, 2.992499e+001
8.952479e+002, 2.980114e+001
8.957300e+002, 2.907003e+001
8.962121e+002, 2.838791e+001
8.966942e+002, 2.825988e+001
8.971763e+002, 2.842548e+001
8.976584e+002, 2.833183e+001
8.981406e+002, 2.801977e+001
8.986227e+002, 2.792562e+001
8.991048e+002, 2.810487e+001
8.995869e+002, 2.832063e+001
9.000690e+002, 2.849413e+001
9.005511e+002, 2.854593e+001
9.010333e+002, 2.830382e+001
9.015154e+002, 2.773868e+001
9.019975e+002, 2.756473e+001
9.024796e+002, 2.811887e+001
9.029617e+002, 2.843526e+001
9.034438e+002, 2.813005e+001
9.039260e+002, 2.773335e+001
9.044081e+002, 2.763227e+001
9.048902e+002, 2.771500e+001
9.053723e+002, 2.767785e+001
9.058544e+002, 2.741831e+001
9.063365e+002, 2.724265e+001
9.068187e+002, 2.715274e+001
9.073008e+002, 2.724454e+001
9.077829e+002, 2.768456e+001
9.082650e+002, 2.828530e+001
9.087471e+002, 2.887962e+001
9.092292e+002, 2.938652e+001
9.097114e+002, 2.962797e+001
9.101935e+002, 2.936444e+001
9.106756e+002, 2.900261e+001
9.111577e+002, 2.894784e+001
9.116398e+002, 2.909423e+001
9.121219e+002, 2.924535e+001
9.126041e+002, 2.939456e+001
9.130862e+002, 2.964699e+001
9.135683e+002, 3.005252e+001
9.140504e+002, 3.053219e+001
9.145325e+002, 3.101569e+001
9.150146e+002, 3.148286e+001
9.154968e+002, 3.180087e+001
9.159789e+002, 3.196363e+001
9.164610e+002, 3.216257e+001
9.169431e+002, 3.243071e+001
9.174252e+002, 3.284061e+001
9.179073e+002, 3.350056e+001
9.183895e+002, 3.431246e+001
9.188716e+002, 3.490137e+001
9.193537e+002, 3.511385e+001
9.198358e+002, 3.551059e+001
9.203179e+002, 3.620147e+001
9.208000e+002, 3.691999e+001
9.212822e+002, 3.743926e+001
9.217643e+002, 3.801434e+001
9.222464e+002, 3.905101e+001
9.227285e+002, 4.051774e+001
9.232106e+002, 4.162595e+001
9.236927e+002, 4.199959e+001
9.241749e+002, 4.236383e+001
9.246570e+002, 4.273317e+001
9.251391e+002, 4.333364e+001
9.256212e+002, 4.450198e+001
9.261033e+002, 4.599473e+001
9.265854e+002, 4.729241e+001
9.270676e+002, 4.823908e+001
9.275497e+002, 4.915582e+001
9.280318e+002, 5.026057e+001
9.285139e+002, 5.142310e+001
9.289960e+002, 5.267900e+001
9.294781e+002, 5.384444e+001
9.299603e+002, 5.437029e+001
9.304424e+002, 5.435102e+001
9.309245e+002, 5.474180e+001
9.314066e+002, 5.620160e+001
9.318887e+002, 5.807682e+001
9.323708e+002, 5.936636e+001
9.328530e+002, 6.017523e+001
9.333351e+002, 6.089190e+001
9.338172e+002, 6.154378e+001
9.342993e+002, 6.226403e+001
9.347814e+002, 6.311602e+001
9.352635e+002, 6.383605e+001
9.357457e+002, 6.410448e+001
9.362278e+002, 6.400602e+001
9.367099e+002, 6.409716e+001
9.371920e+002, 6.451644e+001
9.376741e+002, 6.443515e+001
9.381563e+002, 6.341121e+001
9.386384e+002, 6.268785e+001
9.391205e+002, 6.325377e+001
9.396026e+002, 6.428464e+001
9.400847e+002, 6.424742e+001
9.405668e+002, 6.291727e+001
9.410490e+002, 6.185332e+001
9.415311e+002, 6.119107e+001
9.420132e+002, 6.059541e+001
9.424953e+002, 5.996128e+001
9.429774e+002, 5.941106e+001
9.434595e+002, 5.908162e+001
9.439417e+002, 5.890264e+001
9.444238e+002, 5.866339e+001
9.449059e+002, 5.825393e+001
9.453880e+002, 5.805068e+001
9.458701e+002, 5.860061e+001
9.463522e+002, 5.896112e+001
9.468344e+002, 5.821279e+001
9.473165e+002, 5.705309e+001
9.477986e+002, 5.652321e+001
9.482807e+002, 5.665639e+001
9.487628e+002, 5.666756e+001
9.492449e+002, 5.609408e+001
9.497271e+002, 5.536885e+001
9.502092e+002, 5.498643e+001
9.506913e+002, 5.467079e+001
9.511734e+002, 5.379876e+001
9.516555e+002, 5.258887e+001
9.521376e+002, 5.195340e+001
9.526198e+002, 5.214993e+001
9.531019e+002, 5.235820e+001
9.535840e+002, 5.173387e+001
9.540661e+002, 5.063309e+001
9.545482e+002, 5.005134e+001
9.550303e+002, 4.984556e+001
9.555124e+002, 4.891668e+001
9.559945e+002, 4.710853e+001
9.564766e+002, 4.550629e+001
9.569587e+002, 4.470841e+001
9.574409e+002, 4.430711e+001
9.579230e+002, 4.368771e+001
9.584051e+002, 4.284717e+001
9.588872e+002, 4.186823e+001
9.593693e+002, 4.071441e+001
9.598514e+002, 3.954469e+001
9.603336e+002, 3.834320e+001
9.608157e+002, 3.724789e+001
9.612978e+002, 3.636056e+001
9.617799e+002, 3.567236e+001
9.622620e+002, 3.518721e+001
9.627441e+002, 3.504718e+001
9.632263e+002, 3.467199e+001
9.637084e+002, 3.392621e+001
9.641905e+002, 3.312846e+001
9.646726e+002, 3.220714e+001
9.651547e+002, 3.139825e+001
9.656368e+002, 3.100859e+001
9.661190e+002, 3.092890e+001
9.666011e+002, 3.063706e+001
9.670832e+002, 2.988697e+001
9.675653e+002, 2.929147e+001
9.680474e+002, 2.904392e+001
9.685295e+002, 2.891628e+001
9.690117e+002, 2.889474e+001
9.694938e+002, 2.884906e+001
9.699759e+002, 2.854618e+001
9.704580e+002, 2.801442e+001
9.709401e+002, 2.765530e+001
9.714222e+002, 2.777936e+001
9.719044e+002, 2.790358e+001
9.723865e+002, 2.766299e+001
9.728686e+002, 2.731618e+001
9.733507e+002, 2.706183e+001
9.738328e+002, 2.695425e+001
9.743149e+002, 2.713293e+001
9.747971e+002, 2.759672e+001
9.752792e+002, 2.793641e+001
9.757613e+002, 2.780525e+001
9.762434e+002, 2.739670e+001
9.767255e+002, 2.677689e+001
9.772076e+002, 2.614105e+001
9.776898e+002, 2.597058e+001
9.781719e+002, 2.624238e+001
9.786540e+002, 2.657644e+001
9.791361e+002, 2.679234e+001
9.796182e+002, 2.687254e+001
9.801003e+002, 2.676718e+001
9.805825e+002, 2.651944e+001
9.810646e+002, 2.619669e+001
9.815467e+002, 2.583663e+001
9.820288e+002, 2.583206e+001
9.825109e+002, 2.625900e+001
9.829930e+002, 2.654540e+001
9.834752e+002, 2.627993e+001
9.839573e+002, 2.583856e+001
9.844394e+002, 2.603177e+001
9.849215e+002, 2.686704e+001
9.854036e+002, 2.710284e+001
9.858857e+002, 2.659801e+001
9.863679e+002, 2.637085e+001
9.868500e+002, 2.678492e+001
9.873321e+002, 2.720202e+001
9.878142e+002, 2.702124e+001
9.882963e+002, 2.652495e+001
9.887784e+002, 2.666570e+001
9.892606e+002, 2.777383e+001
9.897427e+002, 2.830066e+001
9.902248e+002, 2.780319e+001
9.907069e+002, 2.759826e+001
9.911890e+002, 2.838449e+001
9.916711e+002, 2.930761e+001
9.921533e+002, 2.951721e+001
9.926354e+002, 2.913037e+001
9.931175e+002, 2.882926e+001
9.935996e+002, 2.846259e+001
9.940817e+002, 2.845413e+001
9.945638e+002, 2.908188e+001
9.950460e+002, 2.974393e+001
9.955281e+002, 3.022690e+001
9.960102e+002, 3.061524e+001
9.964923e+002, 3.099500e+001
9.969744e+002, 3.137105e+001
9.974565e+002, 3.172098e+001
9.979387e+002, 3.197668e+001
9.984208e+002, 3.231059e+001
9.989029e+002, 3.277782e+001
9.993850e+002, 3.332212e+001
9.998671e+002, 3.396888e+001
1.000349e+003, 3.463435e+001
1.000831e+003, 3.515770e+001
1.001313e+003, 3.554769e+001
1.001796e+003, 3.606334e+001
1.002278e+003, 3.697111e+001
1.002760e+003, 3.778206e+001
1.003242e+003, 3.808859e+001
1.003724e+003, 3.829856e+001
1.004206e+003, 3.881427e+001
1.004688e+003, 3.953106e+001
1.005170e+003, 4.017019e+001
1.005653e+003, 4.067508e+001
1.006135e+003, 4.125217e+001
1.006617e+003, 4.220251e+001
1.007099e+003, 4.305485e+001
1.007581e+003, 4.318075e+001
1.008063e+003, 4.304566e+001
1.008545e+003, 4.337147e+001
1.009027e+003, 4.404598e+001
1.009509e+003, 4.453595e+001
1.009992e+003, 4.465959e+001
1.010474e+003, 4.468946e+001
1.010956e+003, 4.499256e+001
1.011438e+003, 4.519747e+001
1.011920e+003, 4.447053e+001
1.012402e+003, 4.328506e+001
1.012884e+003, 4.296105e+001
1.013366e+003, 4.339113e+001
1.013849e+003, 4.325387e+001
1.014331e+003, 4.198104e+001
1.014813e+003, 4.038815e+001
1.015295e+003, 3.932410e+001
1.015777e+003, 3.866718e+001
1.016259e+003, 3.826508e+001
1.016741e+003, 3.801368e+001
1.017223e+003, 3.733012e+001
1.017705e+003, 3.618091e+001
1.018188e+003, 3.519753e+001
1.018670e+003, 3.471331e+001
1.019152e+003, 3.439585e+001
1.019634e+003, 3.377802e+001
1.020116e+003, 3.293421e+001
1.020598e+003, 3.217385e+001
1.021080e+003, 3.150384e+001
1.021562e+003, 3.111817e+001
1.022044e+003, 3.107186e+001
1.022527e+003, 3.086488e+001
1.023009e+003, 3.018265e+001
1.023491e+003, 2.931174e+001
1.023973e+003, 2.871105e+001
1.024455e+003, 2.836338e+001
1.024937e+003, 2.800177e+001
1.025419e+003, 2.762757e+001
1.025901e+003, 2.722759e+001
1.026384e+003, 2.677951e+001
1.026866e+003, 2.638562e+001
1.027348e+003, 2.610414e+001
1.027830e+003, 2.592965e+001
1.028312e+003, 2.587806e+001
1.028794e+003, 2.595970e+001
1.029276e+003, 2.587955e+001
1.029758e+003, 2.557739e+001
1.030240e+003, 2.534046e+001
1.030723e+003, 2.528613e+001
1.031205e+003, 2.515856e+001
1.031687e+003, 2.480255e+001
1.032169e+003, 2.424146e+001
1.032651e+003, 2.344567e+001
1.033133e+003, 2.231643e+001
1.033615e+003, 2.181370e+001
1.034097e+003, 2.220436e+001
1.034579e+003, 2.266781e+001
1.035062e+003, 2.327611e+001
1.035544e+003, 2.356491e+001
1.036026e+003, 2.298417e+001
1.036508e+003, 2.201758e+001
1.036990e+003, 2.171696e+001
1.037472e+003, 2.222667e+001
1.037954e+003, 2.259977e+001
1.038436e+003, 2.295054e+001
1.038919e+003, 2.296957e+001
1.039401e+003, 2.231338e+001
1.039883e+003, 2.162854e+001
1.040365e+003, 2.136743e+001
1.040847e+003, 2.135690e+001
1.041329e+003, 2.119165e+001
1.041811e+003, 2.077969e+001
1.042293e+003, 2.069865e+001
1.042776e+003, 2.154887e+001
1.043258e+003, 2.190175e+001
1.043740e+003, 2.090780e+001
1.044222e+003, 1.992444e+001
1.044704e+003, 1.997059e+001
1.045186e+003, 2.060095e+001
1.045668e+003, 2.093648e+001
1.046150e+003, 2.088951e+001
1.046632e+003, 2.077485e+001
1.047115e+003, 2.052217e+001
1.047597e+003, 2.034869e+001
1.048079e+003, 2.031488e+001
1.048561e+003, 2.037078e+001
1.049043e+003, 2.052987e+001
1.049525e+003, 2.073496e+001
1.050007e+003, 2.092651e+001
1.050489e+003, 2.111299e+001
1.050971e+003, 2.108190e+001
1.051454e+003, 2.059816e+001
1.051936e+003, 2.015652e+001
1.052418e+003, 1.989667e+001
1.052900e+003, 1.973586e+001
1.053382e+003, 1.962492e+001
1.053864e+003, 1.956220e+001
1.054346e+003, 1.958360e+001
1.054828e+003, 1.969776e+001
1.055311e+003, 1.972092e+001
1.055793e+003, 1.953330e+001
1.056275e+003, 1.934405e+001
1.056757e+003, 1.922589e+001
1.057239e+003, 1.913088e+001
1.057721e+003, 1.902761e+001
1.058203e+003, 1.891990e+001
1.058685e+003, 1.880858e+001
1.059167e+003, 1.869548e+001
1.059650e+003, 1.862707e+001
1.060132e+003, 1.855778e+001
1.060614e+003, 1.861782e+001
1.061096e+003, 1.908677e+001
1.061578e+003, 1.947913e+001
1.062060e+003, 1.925787e+001
1.062542e+003, 1.877924e+001
1.063024e+003, 1.867671e+001
1.063506e+003, 1.903065e+001
1.063989e+003, 1.941424e+001
1.064471e+003, 1.989890e+001
1.064953e+003, 2.006561e+001
1.065435e+003, 1.940241e+001
1.065917e+003, 1.869232e+001
1.066399e+003, 1.852998e+001
1.066881e+003, 1.872862e+001
1.067363e+003, 1.899343e+001
1.067846e+003, 1.925602e+001
1.068328e+003, 1.948258e+001
1.068810e+003, 1.976747e+001
1.069292e+003, 1.982646e+001
1.069774e+003, 1.936972e+001
1.070256e+003, 1.880483e+001
1.070738e+003, 1.836024e+001
1.071220e+003, 1.804784e+001
1.071703e+003, 1.783933e+001
1.072185e+003, 1.773759e+001
1.072667e+003, 1.778878e+001
1.073149e+003, 1.810270e+001
1.073631e+003, 1.835666e+001
1.074113e+003, 1.830301e+001
1.074595e+003, 1.823737e+001
1.075077e+003, 1.842758e+001
1.075559e+003, 1.870326e+001
1.076042e+003, 1.882470e+001
1.076524e+003, 1.878848e+001
1.077006e+003, 1.875108e+001
1.077488e+003, 1.878581e+001
1.077970e+003, 1.876050e+001
1.078452e+003, 1.863581e+001
1.078934e+003, 1.840544e+001
1.079416e+003, 1.789142e+001
1.079898e+003, 1.738970e+001
1.080380e+003, 1.732182e+001
1.080863e+003, 1.759567e+001
1.081345e+003, 1.775206e+001
1.081827e+003, 1.761839e+001
1.082309e+003, 1.752227e+001
1.082791e+003, 1.763954e+001
1.083273e+003, 1.780529e+001
1.083755e+003, 1.790440e+001
1.084237e+003, 1.801027e+001
1.084720e+003, 1.827182e+001
1.085202e+003, 1.860180e+001
1.085684e+003, 1.877892e+001
1.086166e+003, 1.874975e+001
1.086648e+003, 1.851384e+001
1.087130e+003, 1.778338e+001
1.087612e+003, 1.720371e+001
1.088094e+003, 1.727909e+001
1.088577e+003, 1.750759e+001
1.089059e+003, 1.739581e+001
1.089541e+003, 1.706333e+001
1.090023e+003, 1.680359e+001
1.090505e+003, 1.667553e+001
1.090987e+003, 1.676705e+001
1.091469e+003, 1.746089e+001
1.091951e+003, 1.791536e+001
1.092433e+003, 1.761078e+001
1.092916e+003, 1.708404e+001
1.093398e+003, 1.662503e+001
1.093880e+003, 1.630844e+001
1.094362e+003, 1.623775e+001
1.094844e+003, 1.640680e+001
1.095326e+003, 1.655983e+001
1.095808e+003, 1.660301e+001
1.096290e+003, 1.663840e+001
1.096772e+003, 1.666546e+001
1.097255e+003, 1.673136e+001
1.097737e+003, 1.691551e+001
1.098219e+003, 1.712707e+001
1.098701e+003, 1.729242e+001
1.099183e+003, 1.737819e+001
1.099665e+003, 1.724726e+001
1.100147e+003, 1.663299e+001
1.100629e+003, 1.629388e+001
1.101112e+003, 1.656616e+001
1.101594e+003, 1.699158e+001
1.102076e+003, 1.766370e+001
1.102558e+003, 1.813313e+001
1.103040e+003, 1.775696e+001
1.103522e+003, 1.675814e+001
1.104004e+003, 1.604609e+001
1.104486e+003, 1.578040e+001
1.104969e+003, 1.570826e+001
1.105451e+003, 1.598239e+001
1.105933e+003, 1.618887e+001
1.106415e+003, 1.600301e+001
1.106897e+003, 1.585918e+001
1.107379e+003, 1.628995e+001
1.107861e+003, 1.699745e+001
1.108343e+003, 1.716940e+001
1.108825e+003, 1.660404e+001
1.109307e+003, 1.633785e+001
1.109790e+003, 1.674306e+001
1.110272e+003, 1.705219e+001
1.110754e+003, 1.698496e+001
1.111236e+003, 1.691404e+001
1.111718e+003, 1.720516e+001
1.112200e+003, 1.757124e+001
1.112682e+003, 1.745418e+001
1.113164e+003, 1.681263e+001
1.113647e+003, 1.647514e+001
1.114129e+003, 1.671823e+001
1.114611e+003, 1.680709e+001
1.115093e+003, 1.661903e+001
1.115575e+003, 1.636666e+001
1.116057e+003, 1.602213e+001
1.116539e+003, 1.576862e+001
1.117021e+003, 1.588482e+001
1.117504e+003, 1.630382e+001
1.117986e+003, 1.652288e+001
1.118468e+003, 1.643325e+001
1.118950e+003, 1.640844e+001
1.119432e+003, 1.653610e+001
1.119914e+003, 1.655365e+001
1.120396e+003, 1.634644e+001
1.120878e+003, 1.604460e+001
1.121360e+003, 1.569734e+001
1.121843e+003, 1.538427e+001
1.122325e+003, 1.536863e+001
1.122807e+003, 1.572253e+001
1.123289e+003, 1.591635e+001
1.123771e+003, 1.587103e+001
1.124253e+003, 1.595360e+001
1.124735e+003, 1.628859e+001
1.125217e+003, 1.663883e+001
1.125699e+003, 1.689203e+001
1.126182e+003, 1.698199e+001
1.126664e+003, 1.674582e+001
1.127146e+003, 1.621279e+001
1.127628e+003, 1.591838e+001
1.128110e+003, 1.587488e+001
1.128592e+003, 1.601385e+001
1.129074e+003, 1.636447e+001
1.129556e+003, 1.659023e+001
1.130039e+003, 1.652069e+001
1.130521e+003, 1.636534e+001
1.131003e+003, 1.636253e+001
1.131485e+003, 1.646667e+001
1.131967e+003, 1.649500e+001
1.132449e+003, 1.645853e+001
1.132931e+003, 1.667201e+001
1.133413e+003, 1.713424e+001
1.133896e+003, 1.699333e+001
1.134378e+003, 1.599134e+001
1.134860e+003, 1.518953e+001
1.135342e+003, 1.544958e+001
1.135824e+003, 1.619747e+001
1.136306e+003, 1.646295e+001
1.136788e+003, 1.631700e+001
1.137270e+003, 1.591368e+001
1.137752e+003, 1.534079e+001
1.138234e+003, 1.500821e+001
1.138717e+003, 1.496783e+001
1.139199e+003, 1.499442e+001
1.139681e+003, 1.497245e+001
1.140163e+003, 1.494318e+001
1.140645e+003, 1.490413e+001
1.141127e+003, 1.493496e+001
1.141609e+003, 1.531706e+001
1.142091e+003, 1.582788e+001
1.142574e+003, 1.587068e+001
1.143056e+003, 1.556243e+001
1.143538e+003, 1.558905e+001
1.144020e+003, 1.609862e+001
1.144502e+003, 1.634946e+001
1.144984e+003, 1.563505e+001
1.145466e+003, 1.488637e+001
1.145948e+003, 1.525715e+001
1.146431e+003, 1.601181e+001
1.146913e+003, 1.634283e+001
1.147395e+003, 1.628871e+001
1.147877e+003, 1.588552e+001
1.148359e+003, 1.528196e+001
1.148841e+003, 1.494559e+001
1.149323e+003, 1.509866e+001
1.149805e+003, 1.537155e+001
1.150287e+003, 1.563267e+001
1.150770e+003, 1.581535e+001
1.151252e+003, 1.593004e+001
1.151734e+003, 1.589444e+001
1.152216e+003, 1.553850e+001
1.152698e+003, 1.498315e+001
1.153180e+003, 1.440010e+001
1.153662e+003, 1.382991e+001
1.154144e+003, 1.374267e+001
1.154626e+003, 1.484223e+001
1.155109e+003, 1.567105e+001
1.155591e+003, 1.550044e+001
1.156073e+003, 1.518729e+001
1.156555e+003, 1.527071e+001
1.157037e+003, 1.552373e+001
1.157519e+003, 1.570062e+001
1.158001e+003, 1.575455e+001
1.158483e+003, 1.550176e+001
1.158966e+003, 1.451666e+001
1.159448e+003, 1.409940e+001
1.159930e+003, 1.490476e+001
1.160412e+003, 1.549419e+001
1.160894e+003, 1.529671e+001
1.161376e+003, 1.497391e+001
1.161858e+003, 1.502733e+001
1.162340e+003, 1.528854e+001
1.162822e+003, 1.537755e+001
1.163305e+003, 1.526685e+001
1.163787e+003, 1.530638e+001
1.164269e+003, 1.562871e+001
1.164751e+003, 1.567049e+001
1.165233e+003, 1.520961e+001
1.165715e+003, 1.492532e+001
1.166197e+003, 1.521181e+001
1.166679e+003, 1.561348e+001
1.167161e+003, 1.556006e+001
1.167644e+003, 1.520389e+001
1.168126e+003, 1.523642e+001
1.168608e+003, 1.568016e+001
1.169090e+003, 1.574601e+001
1.169572e+003, 1.538676e+001
1.170054e+003, 1.520269e+001
1.170536e+003, 1.536104e+001
1.171018e+003, 1.554582e+001
1.171500e+003, 1.553601e+001
1.171983e+003, 1.545999e+001
1.172465e+003, 1.556669e+001
1.172947e+003, 1.576013e+001
1.173429e+003, 1.570510e+001
1.173911e+003, 1.545015e+001
1.174393e+003, 1.511862e+001
1.174875e+003, 1.476959e+001
1.175357e+003, 1.454650e+001
1.175840e+003, 1.450821e+001
1.176322e+003, 1.468784e+001
1.176804e+003, 1.520008e+001
1.177286e+003, 1.574289e+001
1.177768e+003, 1.596076e+001
1.178250e+003, 1.595520e+001
1.178732e+003, 1.579785e+001
1.179214e+003, 1.556649e+001
1.179697e+003, 1.531038e+001
1.180179e+003, 1.510311e+001
1.180661e+003, 1.520904e+001
1.181143e+003, 1.579156e+001
1.181625e+003, 1.624224e+001
1.182107e+003, 1.611165e+001
1.182589e+003, 1.582134e+001
1.183071e+003, 1.555412e+001
1.183553e+003, 1.534067e+001
1.184036e+003, 1.510656e+001
1.184518e+003, 1.498302e+001
1.185000e+003, 1.532703e+001
1.185482e+003, 1.614329e+001
1.185964e+003, 1.663056e+001
1.186446e+003, 1.645107e+001
1.186928e+003, 1.618817e+001
1.187410e+003, 1.587367e+001
1.187892e+003, 1.557478e+001
1.188375e+003, 1.521316e+001
1.188857e+003, 1.497876e+001
1.189339e+003, 1.515442e+001
1.189821e+003, 1.556289e+001
1.190303e+003, 1.568599e+001
1.190785e+003, 1.548254e+001
1.191267e+003, 1.521804e+001
1.191749e+003, 1.480387e+001
1.192232e+003, 1.459253e+001
1.192714e+003, 1.468711e+001
1.193196e+003, 1.486028e+001
1.193678e+003, 1.501729e+001
1.194160e+003, 1.515294e+001
1.194642e+003, 1.528237e+001
1.195124e+003, 1.535719e+001
1.195606e+003, 1.509450e+001
1.196089e+003, 1.451900e+001
1.196571e+003, 1.439904e+001
1.197053e+003, 1.473956e+001
1.197535e+003, 1.483096e+001
1.198017e+003, 1.451579e+001
1.198499e+003, 1.435044e+001
1.198981e+003, 1.469312e+001
1.199463e+003, 1.515645e+001
1.199945e+003, 1.515221e+001
1.200427e+003, 1.496319e+001
1.200910e+003, 1.528519e+001
1.201392e+003, 1.581462e+001
1.201874e+003, 1.585017e+001
1.202356e+003, 1.545903e+001
1.202838e+003, 1.497257e+001
1.203320e+003, 1.454507e+001
1.203802e+003, 1.448233e+001
1.204284e+003, 1.512062e+001
1.204767e+003, 1.568929e+001
1.205249e+003, 1.539418e+001
1.205731e+003, 1.501232e+001
1.206213e+003, 1.521572e+001
1.206695e+003, 1.569069e+001
1.207177e+003, 1.621471e+001
1.207659e+003, 1.660734e+001
1.208141e+003, 1.643683e+001
1.208624e+003, 1.556903e+001
1.209106e+003, 1.504576e+001
1.209588e+003, 1.539548e+001
1.210070e+003, 1.569562e+001
1.210552e+003, 1.566452e+001
1.211034e+003, 1.564865e+001
1.211516e+003, 1.601007e+001
1.211998e+003, 1.630214e+001
1.212480e+003, 1.597960e+001
1.212963e+003, 1.522884e+001
1.213445e+003, 1.474164e+001
1.213927e+003, 1.450329e+001
1.214409e+003, 1.466850e+001
1.214891e+003, 1.541246e+001
1.215373e+003, 1.583664e+001
1.215855e+003, 1.572294e+001
1.216337e+003, 1.550855e+001
1.216819e+003, 1.541094e+001
1.217302e+003, 1.539294e+001
1.217784e+003, 1.541558e+001
1.218266e+003, 1.547218e+001
1.218748e+003, 1.558045e+001
1.219230e+003, 1.570612e+001
1.219712e+003, 1.564755e+001
1.220194e+003, 1.542857e+001
1.220676e+003, 1.517267e+001
1.221159e+003, 1.494279e+001
1.221641e+003, 1.492405e+001
1.222123e+003, 1.522233e+001
1.222605e+003, 1.560547e+001
1.223087e+003, 1.591048e+001
1.223569e+003, 1.610578e+001
1.224051e+003, 1.604462e+001
1.224533e+003, 1.593633e+001
1.225016e+003, 1.619011e+001
1.225498e+003, 1.655908e+001
1.225980e+003, 1.646471e+001
1.226462e+003, 1.588937e+001
1.226944e+003, 1.537010e+001
1.227426e+003, 1.505745e+001
1.227908e+003, 1.492572e+001
1.228390e+003, 1.513202e+001
1.228872e+003, 1.530147e+001
1.229354e+003, 1.523785e+001
1.229837e+003, 1.511469e+001
1.230319e+003, 1.498079e+001
1.230801e+003, 1.493013e+001
1.231283e+003, 1.517073e+001
1.231765e+003, 1.568926e+001
1.232247e+003, 1.599191e+001
1.232729e+003, 1.603370e+001
1.233211e+003, 1.595131e+001
1.233694e+003, 1.562385e+001
1.234176e+003, 1.570170e+001
1.234658e+003, 1.650996e+001
1.235140e+003, 1.717236e+001
1.235622e+003, 1.703357e+001
1.236104e+003, 1.646906e+001
1.236586e+003, 1.606392e+001
1.237068e+003, 1.581383e+001
1.237551e+003, 1.564815e+001
1.238033e+003, 1.561429e+001
1.238515e+003, 1.613402e+001
1.238997e+003, 1.703936e+001
1.239479e+003, 1.731108e+001
1.239961e+003, 1.673841e+001
1.240443e+003, 1.614777e+001
1.240925e+003, 1.605803e+001
1.241407e+003, 1.614356e+001
1.241890e+003, 1.611080e+001
1.242372e+003, 1.608049e+001
1.242854e+003, 1.634446e+001
1.243336e+003, 1.654523e+001
1.243818e+003, 1.597249e+001
1.244300e+003, 1.507872e+001
1.244782e+003, 1.497851e+001
1.245264e+003, 1.578531e+001
1.245746e+003, 1.638262e+001
1.246229e+003, 1.635779e+001
1.246711e+003, 1.633326e+001
1.247193e+003, 1.657655e+001
1.247675e+003, 1.660801e+001
1.248157e+003, 1.597053e+001
1.248639e+003, 1.543918e+001
1.249121e+003, 1.569456e+001
1.249603e+003, 1.626773e+001
1.250085e+003, 1.626502e+001
1.250568e+003, 1.573730e+001
1.251050e+003, 1.563976e+001
1.251532e+003, 1.603972e+001
1.252014e+003, 1.607830e+001
1.252496e+003, 1.567419e+001
1.252978e+003, 1.541223e+001
1.253460e+003, 1.546700e+001
1.253942e+003, 1.549535e+001
1.254425e+003, 1.524806e+001
1.254907e+003, 1.500035e+001
1.255389e+003, 1.519118e+001
1.255871e+003, 1.560400e+001
1.256353e+003, 1.591221e+001
1.256835e+003, 1.609320e+001
1.257317e+003, 1.599021e+001
1.257799e+003, 1.575055e+001
1.258281e+003, 1.579144e+001
1.258764e+003, 1.612703e+001
1.259246e+003, 1.629389e+001
1.259728e+003, 1.607437e+001
1.260210e+003, 1.574611e+001
1.260692e+003, 1.524589e+001
1.261174e+003, 1.492085e+001
1.261656e+003, 1.508218e+001
1.262138e+003, 1.533114e+001
1.262620e+003, 1.530745e+001
1.263103e+003, 1.520088e+001
1.263585e+003, 1.532888e+001
1.264067e+003, 1.567322e+001
1.264549e+003, 1.609509e+001
1.265031e+003, 1.675316e+001
1.265513e+003, 1.689937e+001
1.265995e+003, 1.639190e+001
1.266477e+003, 1.598178e+001
1.266960e+003, 1.583428e+001
1.267442e+003, 1.584060e+001
1.267924e+003, 1.595915e+001
1.268406e+003, 1.601848e+001
1.268888e+003, 1.576169e+001
1.269370e+003, 1.539830e+001
1.269852e+003, 1.543505e+001
1.270334e+003, 1.574069e+001
1.270817e+003, 1.609000e+001
1.271299e+003, 1.638619e+001
1.271781e+003, 1.639512e+001
1.272263e+003, 1.614317e+001
1.272745e+003, 1.582949e+001
1.273227e+003, 1.552994e+001
1.273709e+003, 1.544878e+001
1.274191e+003, 1.598469e+001
1.274673e+003, 1.638273e+001
1.275156e+003, 1.610131e+001
1.275638e+003, 1.574395e+001
1.276120e+003, 1.575274e+001
1.276602e+003, 1.587280e+001
1.277084e+003, 1.572846e+001
1.277566e+003, 1.544329e+001
1.278048e+003, 1.549503e+001
1.278530e+003, 1.595370e+001
1.279012e+003, 1.607543e+001
1.279495e+003, 1.570613e+001
1.279977e+003, 1.559299e+001
1.280459e+003, 1.588559e+001
1.280941e+003, 1.603245e+001
1.281423e+003, 1.581498e+001
1.281905e+003, 1.558549e+001
1.282387e+003, 1.563196e+001
1.282869e+003, 1.577443e+001
1.283352e+003, 1.570668e+001
1.283834e+003, 1.550394e+001
1.284316e+003, 1.532601e+001
1.284798e+003, 1.517352e+001
##END=



