##NAMES=Nelenite
##RRUFFID=R120148
##IDEAL CHEMISTRY=Mn^2+^_16_As^3+^_3_Si_12_O_36_(OH)_17_
##LOCALITY=Huanggang mine, Inner Mongolia, China
##OWNER=RRUFF
##SOURCE=James Zigras
##DESCRIPTION=Stacks of brown hexagonal plates, associated with sphalerite and calcite
##STATUS=The identification of this mineral is confirmed by single-crystal X-ray diffraction and chemical analysis.
##URL=rruff.info/R120148
##MEASURED CHEMISTRY=(Mn^2+^_9.44_Fe^2+^_6.02_Mg_0.48_Ca_0.11_)As^3+^_2.95_Si_12_O_36_[(OH)_16.87_Cl_0.08_]
8.936163e+001, 0.000000e+000
8.984375e+001, 2.250008e+002
9.032587e+001, 2.259941e+002
9.080798e+001, 2.262197e+002
9.129010e+001, 2.254747e+002
9.177222e+001, 2.241936e+002
9.225433e+001, 2.228852e+002
9.273645e+001, 2.215321e+002
9.321857e+001, 2.199890e+002
9.370068e+001, 2.183201e+002
9.418280e+001, 2.164142e+002
9.466492e+001, 2.138817e+002
9.514703e+001, 2.101279e+002
9.562915e+001, 2.057503e+002
9.611127e+001, 2.023152e+002
9.659338e+001, 1.998969e+002
9.707550e+001, 1.981696e+002
9.755762e+001, 1.970144e+002
9.803973e+001, 1.964417e+002
9.852185e+001, 1.955799e+002
9.900397e+001, 1.938484e+002
9.948608e+001, 1.912101e+002
9.996820e+001, 1.891882e+002
1.004503e+002, 1.880257e+002
1.009324e+002, 1.871782e+002
1.014146e+002, 1.853560e+002
1.018967e+002, 1.821689e+002
1.023788e+002, 1.790766e+002
1.028609e+002, 1.768610e+002
1.033430e+002, 1.758004e+002
1.038251e+002, 1.748149e+002
1.043073e+002, 1.739680e+002
1.047894e+002, 1.731665e+002
1.052715e+002, 1.719171e+002
1.057536e+002, 1.700689e+002
1.062357e+002, 1.679286e+002
1.067178e+002, 1.656010e+002
1.072000e+002, 1.623932e+002
1.076821e+002, 1.600573e+002
1.081642e+002, 1.593306e+002
1.086463e+002, 1.604156e+002
1.091284e+002, 1.602923e+002
1.096105e+002, 1.581832e+002
1.100927e+002, 1.551955e+002
1.105748e+002, 1.523829e+002
1.110569e+002, 1.492983e+002
1.115390e+002, 1.468253e+002
1.120211e+002, 1.453654e+002
1.125032e+002, 1.452582e+002
1.129854e+002, 1.449397e+002
1.134675e+002, 1.442478e+002
1.139496e+002, 1.432184e+002
1.144317e+002, 1.418889e+002
1.149138e+002, 1.394640e+002
1.153959e+002, 1.373453e+002
1.158781e+002, 1.363951e+002
1.163602e+002, 1.376161e+002
1.168423e+002, 1.381439e+002
1.173244e+002, 1.364327e+002
1.178065e+002, 1.331996e+002
1.182886e+002, 1.302695e+002
1.187708e+002, 1.276824e+002
1.192529e+002, 1.260655e+002
1.197350e+002, 1.261476e+002
1.202171e+002, 1.298864e+002
1.206992e+002, 1.332336e+002
1.211813e+002, 1.332043e+002
1.216635e+002, 1.302645e+002
1.221456e+002, 1.269476e+002
1.226277e+002, 1.246049e+002
1.231098e+002, 1.228792e+002
1.235919e+002, 1.213037e+002
1.240740e+002, 1.198412e+002
1.245562e+002, 1.183716e+002
1.250383e+002, 1.166504e+002
1.255204e+002, 1.146723e+002
1.260025e+002, 1.129317e+002
1.264846e+002, 1.119663e+002
1.269667e+002, 1.115852e+002
1.274489e+002, 1.113120e+002
1.279310e+002, 1.110902e+002
1.284131e+002, 1.108132e+002
1.288952e+002, 1.102132e+002
1.293773e+002, 1.092342e+002
1.298594e+002, 1.081568e+002
1.303416e+002, 1.073860e+002
1.308237e+002, 1.068738e+002
1.313058e+002, 1.062188e+002
1.317879e+002, 1.050079e+002
1.322700e+002, 1.034045e+002
1.327521e+002, 1.022432e+002
1.332343e+002, 1.016566e+002
1.337164e+002, 1.014073e+002
1.341985e+002, 1.011269e+002
1.346806e+002, 1.008276e+002
1.351627e+002, 1.003332e+002
1.356448e+002, 9.944102e+001
1.361270e+002, 9.814034e+001
1.366091e+002, 9.695232e+001
1.370912e+002, 9.593333e+001
1.375733e+002, 9.507715e+001
1.380554e+002, 9.432487e+001
1.385375e+002, 9.370651e+001
1.390197e+002, 9.309870e+001
1.395018e+002, 9.236797e+001
1.399839e+002, 9.147210e+001
1.404660e+002, 9.067467e+001
1.409481e+002, 9.005046e+001
1.414302e+002, 8.958449e+001
1.419124e+002, 8.903901e+001
1.423945e+002, 8.839151e+001
1.428766e+002, 8.769946e+001
1.433587e+002, 8.699780e+001
1.438408e+002, 8.622575e+001
1.443229e+002, 8.558469e+001
1.448051e+002, 8.515733e+001
1.452872e+002, 8.497487e+001
1.457693e+002, 8.473991e+001
1.462514e+002, 8.447848e+001
1.467335e+002, 8.414656e+001
1.472156e+002, 8.366419e+001
1.476978e+002, 8.281724e+001
1.481799e+002, 8.209289e+001
1.486620e+002, 8.166444e+001
1.491441e+002, 8.174804e+001
1.496262e+002, 8.154491e+001
1.501083e+002, 8.082925e+001
1.505905e+002, 7.986719e+001
1.510726e+002, 7.912086e+001
1.515547e+002, 7.889906e+001
1.520368e+002, 7.863398e+001
1.525189e+002, 7.813079e+001
1.530010e+002, 7.717671e+001
1.534832e+002, 7.635381e+001
1.539653e+002, 7.568236e+001
1.544474e+002, 7.516580e+001
1.549295e+002, 7.481246e+001
1.554116e+002, 7.508339e+001
1.558937e+002, 7.518516e+001
1.563759e+002, 7.472038e+001
1.568580e+002, 7.298523e+001
1.573401e+002, 7.155730e+001
1.578222e+002, 7.073691e+001
1.583043e+002, 7.046017e+001
1.587864e+002, 7.049123e+001
1.592686e+002, 7.121633e+001
1.597507e+002, 7.196728e+001
1.602328e+002, 7.231373e+001
1.607149e+002, 7.167020e+001
1.611970e+002, 7.109638e+001
1.616791e+002, 7.091689e+001
1.621613e+002, 7.110422e+001
1.626434e+002, 7.146276e+001
1.631255e+002, 7.213825e+001
1.636076e+002, 7.285464e+001
1.640897e+002, 7.336604e+001
1.645718e+002, 7.329450e+001
1.650540e+002, 7.324644e+001
1.655361e+002, 7.362553e+001
1.660182e+002, 7.441427e+001
1.665003e+002, 7.508381e+001
1.669824e+002, 7.526473e+001
1.674645e+002, 7.519153e+001
1.679467e+002, 7.515227e+001
1.684288e+002, 7.506077e+001
1.689109e+002, 7.517543e+001
1.693930e+002, 7.563919e+001
1.698751e+002, 7.645898e+001
1.703572e+002, 7.768794e+001
1.708394e+002, 7.961044e+001
1.713215e+002, 8.196163e+001
1.718036e+002, 8.426181e+001
1.722857e+002, 8.639394e+001
1.727678e+002, 8.834946e+001
1.732499e+002, 8.989359e+001
1.737321e+002, 9.092025e+001
1.742142e+002, 9.234751e+001
1.746963e+002, 9.554784e+001
1.751784e+002, 9.983189e+001
1.756605e+002, 1.035817e+002
1.761426e+002, 1.053913e+002
1.766248e+002, 1.063439e+002
1.771069e+002, 1.079410e+002
1.775890e+002, 1.104180e+002
1.780711e+002, 1.131339e+002
1.785532e+002, 1.154909e+002
1.790353e+002, 1.175470e+002
1.795175e+002, 1.194191e+002
1.799996e+002, 1.210251e+002
1.804817e+002, 1.225238e+002
1.809638e+002, 1.242597e+002
1.814459e+002, 1.262955e+002
1.819280e+002, 1.285270e+002
1.824102e+002, 1.309542e+002
1.828923e+002, 1.335071e+002
1.833744e+002, 1.360340e+002
1.838565e+002, 1.382728e+002
1.843386e+002, 1.403826e+002
1.848207e+002, 1.426968e+002
1.853029e+002, 1.452138e+002
1.857850e+002, 1.480806e+002
1.862671e+002, 1.517091e+002
1.867492e+002, 1.560642e+002
1.872313e+002, 1.606859e+002
1.877134e+002, 1.652409e+002
1.881956e+002, 1.698091e+002
1.886777e+002, 1.745758e+002
1.891598e+002, 1.796925e+002
1.896419e+002, 1.849585e+002
1.901240e+002, 1.898662e+002
1.906061e+002, 1.944563e+002
1.910883e+002, 1.991807e+002
1.915704e+002, 2.045298e+002
1.920525e+002, 2.104851e+002
1.925346e+002, 2.163712e+002
1.930167e+002, 2.220083e+002
1.934988e+002, 2.273877e+002
1.939810e+002, 2.319672e+002
1.944631e+002, 2.354830e+002
1.949452e+002, 2.391732e+002
1.954273e+002, 2.432070e+002
1.959094e+002, 2.475707e+002
1.963915e+002, 2.518633e+002
1.968737e+002, 2.561304e+002
1.973558e+002, 2.602260e+002
1.978379e+002, 2.635792e+002
1.983200e+002, 2.660783e+002
1.988021e+002, 2.683579e+002
1.992842e+002, 2.708425e+002
1.997664e+002, 2.735316e+002
2.002485e+002, 2.765703e+002
2.007306e+002, 2.800424e+002
2.012127e+002, 2.839039e+002
2.016948e+002, 2.879443e+002
2.021769e+002, 2.921082e+002
2.026591e+002, 2.966418e+002
2.031412e+002, 3.018490e+002
2.036233e+002, 3.078545e+002
2.041054e+002, 3.137917e+002
2.045875e+002, 3.195331e+002
2.050696e+002, 3.250700e+002
2.055518e+002, 3.302836e+002
2.060339e+002, 3.352100e+002
2.065160e+002, 3.397585e+002
2.069981e+002, 3.442894e+002
2.074802e+002, 3.492823e+002
2.079623e+002, 3.519300e+002
2.084445e+002, 3.513258e+002
2.089266e+002, 3.475676e+002
2.094087e+002, 3.428719e+002
2.098908e+002, 3.370815e+002
2.103729e+002, 3.306089e+002
2.108550e+002, 3.238334e+002
2.113372e+002, 3.168054e+002
2.118193e+002, 3.095059e+002
2.123014e+002, 3.017328e+002
2.127835e+002, 2.935460e+002
2.132656e+002, 2.860156e+002
2.137477e+002, 2.792459e+002
2.142299e+002, 2.729341e+002
2.147120e+002, 2.667087e+002
2.151941e+002, 2.602292e+002
2.156762e+002, 2.546209e+002
2.161583e+002, 2.502673e+002
2.166404e+002, 2.472668e+002
2.171226e+002, 2.441805e+002
2.176047e+002, 2.408979e+002
2.180868e+002, 2.376532e+002
2.185689e+002, 2.347011e+002
2.190510e+002, 2.321131e+002
2.195331e+002, 2.296023e+002
2.200153e+002, 2.269523e+002
2.204974e+002, 2.240787e+002
2.209795e+002, 2.219584e+002
2.214616e+002, 2.208261e+002
2.219437e+002, 2.201778e+002
2.224258e+002, 2.194138e+002
2.229080e+002, 2.185925e+002
2.233901e+002, 2.175338e+002
2.238722e+002, 2.160777e+002
2.243543e+002, 2.140956e+002
2.248364e+002, 2.127225e+002
2.253185e+002, 2.122101e+002
2.258007e+002, 2.120759e+002
2.262828e+002, 2.116811e+002
2.267649e+002, 2.108063e+002
2.272470e+002, 2.100977e+002
2.277291e+002, 2.097935e+002
2.282112e+002, 2.099610e+002
2.286934e+002, 2.099433e+002
2.291755e+002, 2.096997e+002
2.296576e+002, 2.093051e+002
2.301397e+002, 2.088010e+002
2.306218e+002, 2.079142e+002
2.311039e+002, 2.074382e+002
2.315861e+002, 2.078267e+002
2.320682e+002, 2.093699e+002
2.325503e+002, 2.097214e+002
2.330324e+002, 2.081824e+002
2.335145e+002, 2.060597e+002
2.339966e+002, 2.050539e+002
2.344788e+002, 2.058789e+002
2.349609e+002, 2.065657e+002
2.354430e+002, 2.065790e+002
2.359251e+002, 2.058190e+002
2.364072e+002, 2.050808e+002
2.368893e+002, 2.042863e+002
2.373715e+002, 2.035732e+002
2.378536e+002, 2.031584e+002
2.383357e+002, 2.033033e+002
2.388178e+002, 2.032625e+002
2.392999e+002, 2.027426e+002
2.397820e+002, 2.016313e+002
2.402642e+002, 2.009366e+002
2.407463e+002, 2.009082e+002
2.412284e+002, 2.010777e+002
2.417105e+002, 2.008628e+002
2.421926e+002, 2.000821e+002
2.426747e+002, 1.992348e+002
2.431569e+002, 1.983819e+002
2.436390e+002, 1.974838e+002
2.441211e+002, 1.969155e+002
2.446032e+002, 1.969041e+002
2.450853e+002, 1.970148e+002
2.455674e+002, 1.966880e+002
2.460496e+002, 1.955396e+002
2.465317e+002, 1.946772e+002
2.470138e+002, 1.944562e+002
2.474959e+002, 1.949633e+002
2.479780e+002, 1.951025e+002
2.484601e+002, 1.946255e+002
2.489423e+002, 1.940361e+002
2.494244e+002, 1.939624e+002
2.499065e+002, 1.948555e+002
2.503886e+002, 1.953700e+002
2.508707e+002, 1.950669e+002
2.513528e+002, 1.938977e+002
2.518350e+002, 1.931409e+002
2.523171e+002, 1.929078e+002
2.527992e+002, 1.929704e+002
2.532813e+002, 1.931313e+002
2.537634e+002, 1.934589e+002
2.542455e+002, 1.937249e+002
2.547277e+002, 1.938716e+002
2.552098e+002, 1.938950e+002
2.556919e+002, 1.938972e+002
2.561740e+002, 1.938489e+002
2.566561e+002, 1.938082e+002
2.571382e+002, 1.938054e+002
2.576204e+002, 1.937695e+002
2.581025e+002, 1.939540e+002
2.585846e+002, 1.945135e+002
2.590667e+002, 1.954185e+002
2.595488e+002, 1.959176e+002
2.600309e+002, 1.957521e+002
2.605131e+002, 1.955473e+002
2.609952e+002, 1.959386e+002
2.614773e+002, 1.972549e+002
2.619594e+002, 1.982438e+002
2.624415e+002, 1.985891e+002
2.629236e+002, 1.983743e+002
2.634058e+002, 1.983916e+002
2.638879e+002, 1.986464e+002
2.643700e+002, 1.991283e+002
2.648521e+002, 1.999673e+002
2.653342e+002, 2.014083e+002
2.658163e+002, 2.023172e+002
2.662985e+002, 2.023159e+002
2.667806e+002, 2.016198e+002
2.672627e+002, 2.015202e+002
2.677448e+002, 2.022177e+002
2.682269e+002, 2.030892e+002
2.687090e+002, 2.036142e+002
2.691912e+002, 2.036407e+002
2.696733e+002, 2.040253e+002
2.701554e+002, 2.050215e+002
2.706375e+002, 2.064159e+002
2.711196e+002, 2.072392e+002
2.716017e+002, 2.072912e+002
2.720839e+002, 2.073193e+002
2.725660e+002, 2.078894e+002
2.730481e+002, 2.091145e+002
2.735302e+002, 2.101641e+002
2.740123e+002, 2.109971e+002
2.744944e+002, 2.115939e+002
2.749766e+002, 2.118363e+002
2.754587e+002, 2.116409e+002
2.759408e+002, 2.114243e+002
2.764229e+002, 2.114548e+002
2.769050e+002, 2.117531e+002
2.773871e+002, 2.120931e+002
2.778693e+002, 2.125547e+002
2.783514e+002, 2.129453e+002
2.788335e+002, 2.127004e+002
2.793156e+002, 2.116973e+002
2.797977e+002, 2.107753e+002
2.802798e+002, 2.105495e+002
2.807620e+002, 2.110275e+002
2.812441e+002, 2.109908e+002
2.817262e+002, 2.102418e+002
2.822083e+002, 2.092053e+002
2.826904e+002, 2.087004e+002
2.831725e+002, 2.087666e+002
2.836547e+002, 2.087743e+002
2.841368e+002, 2.082698e+002
2.846189e+002, 2.073270e+002
2.851010e+002, 2.068498e+002
2.855831e+002, 2.069421e+002
2.860652e+002, 2.072610e+002
2.865474e+002, 2.073768e+002
2.870295e+002, 2.072899e+002
2.875116e+002, 2.070039e+002
2.879937e+002, 2.062571e+002
2.884758e+002, 2.052154e+002
2.889579e+002, 2.050417e+002
2.894401e+002, 2.058702e+002
2.899222e+002, 2.068570e+002
2.904043e+002, 2.068545e+002
2.908864e+002, 2.059852e+002
2.913685e+002, 2.052301e+002
2.918506e+002, 2.050241e+002
2.923328e+002, 2.052028e+002
2.928149e+002, 2.053729e+002
2.932970e+002, 2.055497e+002
2.937791e+002, 2.055492e+002
2.942612e+002, 2.049661e+002
2.947433e+002, 2.039781e+002
2.952255e+002, 2.033169e+002
2.957076e+002, 2.033650e+002
2.961897e+002, 2.038139e+002
2.966718e+002, 2.040665e+002
2.971539e+002, 2.041265e+002
2.976360e+002, 2.041805e+002
2.981182e+002, 2.044484e+002
2.986003e+002, 2.048337e+002
2.990824e+002, 2.050696e+002
2.995645e+002, 2.049301e+002
3.000466e+002, 2.047781e+002
3.005287e+002, 2.052686e+002
3.010109e+002, 2.063119e+002
3.014930e+002, 2.072906e+002
3.019751e+002, 2.075155e+002
3.024572e+002, 2.074149e+002
3.029393e+002, 2.077511e+002
3.034214e+002, 2.088434e+002
3.039036e+002, 2.101433e+002
3.043857e+002, 2.110304e+002
3.048678e+002, 2.116078e+002
3.053499e+002, 2.122702e+002
3.058320e+002, 2.132917e+002
3.063141e+002, 2.145173e+002
3.067963e+002, 2.157657e+002
3.072784e+002, 2.170450e+002
3.077605e+002, 2.182722e+002
3.082426e+002, 2.192531e+002
3.087247e+002, 2.201177e+002
3.092068e+002, 2.211795e+002
3.096890e+002, 2.225911e+002
3.101711e+002, 2.242691e+002
3.106532e+002, 2.261611e+002
3.111353e+002, 2.282741e+002
3.116174e+002, 2.304714e+002
3.120995e+002, 2.328883e+002
3.125817e+002, 2.352695e+002
3.130638e+002, 2.372411e+002
3.135459e+002, 2.381019e+002
3.140280e+002, 2.389346e+002
3.145101e+002, 2.404603e+002
3.149922e+002, 2.427528e+002
3.154744e+002, 2.451860e+002
3.159565e+002, 2.474906e+002
3.164386e+002, 2.497642e+002
3.169207e+002, 2.520872e+002
3.174028e+002, 2.548314e+002
3.178849e+002, 2.573490e+002
3.183671e+002, 2.592210e+002
3.188492e+002, 2.604990e+002
3.193313e+002, 2.619213e+002
3.198134e+002, 2.636549e+002
3.202955e+002, 2.656845e+002
3.207776e+002, 2.679740e+002
3.212598e+002, 2.713951e+002
3.217419e+002, 2.741585e+002
3.222240e+002, 2.752804e+002
3.227061e+002, 2.751516e+002
3.231882e+002, 2.758297e+002
3.236703e+002, 2.783997e+002
3.241525e+002, 2.814094e+002
3.246346e+002, 2.840259e+002
3.251167e+002, 2.856071e+002
3.255988e+002, 2.875768e+002
3.260809e+002, 2.903833e+002
3.265630e+002, 2.936994e+002
3.270452e+002, 2.966383e+002
3.275273e+002, 2.980650e+002
3.280094e+002, 3.000148e+002
3.284915e+002, 3.033055e+002
3.289736e+002, 3.086196e+002
3.294557e+002, 3.136699e+002
3.299379e+002, 3.180930e+002
3.304200e+002, 3.223884e+002
3.309021e+002, 3.273080e+002
3.313842e+002, 3.333776e+002
3.318663e+002, 3.394201e+002
3.323484e+002, 3.452360e+002
3.328306e+002, 3.507536e+002
3.333127e+002, 3.558247e+002
3.337948e+002, 3.604510e+002
3.342769e+002, 3.646395e+002
3.347590e+002, 3.682817e+002
3.352411e+002, 3.711484e+002
3.357233e+002, 3.741358e+002
3.362054e+002, 3.779083e+002
3.366875e+002, 3.823082e+002
3.371696e+002, 3.839873e+002
3.376517e+002, 3.822593e+002
3.381339e+002, 3.791592e+002
3.386160e+002, 3.763588e+002
3.390981e+002, 3.740135e+002
3.395802e+002, 3.710795e+002
3.400623e+002, 3.672809e+002
3.405444e+002, 3.628417e+002
3.410266e+002, 3.587773e+002
3.415087e+002, 3.551019e+002
3.419908e+002, 3.514354e+002
3.424729e+002, 3.476322e+002
3.429550e+002, 3.437177e+002
3.434371e+002, 3.390321e+002
3.439193e+002, 3.333932e+002
3.444014e+002, 3.272782e+002
3.448835e+002, 3.215855e+002
3.453656e+002, 3.163150e+002
3.458477e+002, 3.112838e+002
3.463298e+002, 3.063897e+002
3.468120e+002, 3.016357e+002
3.472941e+002, 2.972955e+002
3.477762e+002, 2.933791e+002
3.482583e+002, 2.896592e+002
3.487404e+002, 2.857812e+002
3.492225e+002, 2.818267e+002
3.497047e+002, 2.781311e+002
3.501868e+002, 2.747992e+002
3.506689e+002, 2.718284e+002
3.511510e+002, 2.692143e+002
3.516331e+002, 2.669645e+002
3.521152e+002, 2.649297e+002
3.525974e+002, 2.630293e+002
3.530795e+002, 2.612480e+002
3.535616e+002, 2.595572e+002
3.540437e+002, 2.579336e+002
3.545258e+002, 2.564209e+002
3.550079e+002, 2.550726e+002
3.554901e+002, 2.538747e+002
3.559722e+002, 2.527354e+002
3.564543e+002, 2.518611e+002
3.569364e+002, 2.508979e+002
3.574185e+002, 2.493600e+002
3.579006e+002, 2.469103e+002
3.583828e+002, 2.445817e+002
3.588649e+002, 2.431831e+002
3.593470e+002, 2.423576e+002
3.598291e+002, 2.413676e+002
3.603112e+002, 2.397492e+002
3.607933e+002, 2.379766e+002
3.612755e+002, 2.362708e+002
3.617576e+002, 2.346418e+002
3.622397e+002, 2.331558e+002
3.627218e+002, 2.318536e+002
3.632039e+002, 2.306992e+002
3.636860e+002, 2.296529e+002
3.641682e+002, 2.287684e+002
3.646503e+002, 2.279193e+002
3.651324e+002, 2.270759e+002
3.656145e+002, 2.262321e+002
3.660966e+002, 2.254486e+002
3.665787e+002, 2.249147e+002
3.670609e+002, 2.243336e+002
3.675430e+002, 2.235153e+002
3.680251e+002, 2.220596e+002
3.685072e+002, 2.208157e+002
3.689893e+002, 2.198709e+002
3.694714e+002, 2.191891e+002
3.699536e+002, 2.186940e+002
3.704357e+002, 2.184526e+002
3.709178e+002, 2.183291e+002
3.713999e+002, 2.182926e+002
3.718820e+002, 2.184135e+002
3.723641e+002, 2.184290e+002
3.728463e+002, 2.182599e+002
3.733284e+002, 2.180363e+002
3.738105e+002, 2.179974e+002
3.742926e+002, 2.183021e+002
3.747747e+002, 2.184158e+002
3.752568e+002, 2.180732e+002
3.757390e+002, 2.172631e+002
3.762211e+002, 2.168974e+002
3.767032e+002, 2.170420e+002
3.771853e+002, 2.174812e+002
3.776674e+002, 2.181376e+002
3.781495e+002, 2.190732e+002
3.786317e+002, 2.196427e+002
3.791138e+002, 2.196146e+002
3.795959e+002, 2.192107e+002
3.800780e+002, 2.190643e+002
3.805601e+002, 2.191781e+002
3.810422e+002, 2.195547e+002
3.815244e+002, 2.203237e+002
3.820065e+002, 2.214114e+002
3.824886e+002, 2.223684e+002
3.829707e+002, 2.231643e+002
3.834528e+002, 2.238120e+002
3.839349e+002, 2.242771e+002
3.844171e+002, 2.245941e+002
3.848992e+002, 2.249406e+002
3.853813e+002, 2.254138e+002
3.858634e+002, 2.259745e+002
3.863455e+002, 2.265825e+002
3.868276e+002, 2.272347e+002
3.873098e+002, 2.278833e+002
3.877919e+002, 2.283234e+002
3.882740e+002, 2.287576e+002
3.887561e+002, 2.295579e+002
3.892382e+002, 2.311530e+002
3.897203e+002, 2.328618e+002
3.902025e+002, 2.339416e+002
3.906846e+002, 2.345436e+002
3.911667e+002, 2.354249e+002
3.916488e+002, 2.371867e+002
3.921309e+002, 2.393013e+002
3.926130e+002, 2.413626e+002
3.930952e+002, 2.433042e+002
3.935773e+002, 2.450943e+002
3.940594e+002, 2.466026e+002
3.945415e+002, 2.479453e+002
3.950236e+002, 2.493373e+002
3.955057e+002, 2.505994e+002
3.959879e+002, 2.521421e+002
3.964700e+002, 2.543227e+002
3.969521e+002, 2.573355e+002
3.974342e+002, 2.598659e+002
3.979163e+002, 2.612006e+002
3.983984e+002, 2.622115e+002
3.988806e+002, 2.636939e+002
3.993627e+002, 2.664292e+002
3.998448e+002, 2.688005e+002
4.003269e+002, 2.705050e+002
4.008090e+002, 2.716364e+002
4.012911e+002, 2.728348e+002
4.017733e+002, 2.740581e+002
4.022554e+002, 2.754059e+002
4.027375e+002, 2.769532e+002
4.032196e+002, 2.788114e+002
4.037017e+002, 2.806001e+002
4.041838e+002, 2.822930e+002
4.046660e+002, 2.839217e+002
4.051481e+002, 2.855397e+002
4.056302e+002, 2.872117e+002
4.061123e+002, 2.886600e+002
4.065944e+002, 2.896289e+002
4.070765e+002, 2.901692e+002
4.075587e+002, 2.913582e+002
4.080408e+002, 2.933224e+002
4.085229e+002, 2.954659e+002
4.090050e+002, 2.970508e+002
4.094871e+002, 2.981295e+002
4.099692e+002, 2.995639e+002
4.104514e+002, 3.015436e+002
4.109335e+002, 3.039897e+002
4.114156e+002, 3.068430e+002
4.118977e+002, 3.100595e+002
4.123798e+002, 3.134470e+002
4.128619e+002, 3.167970e+002
4.133441e+002, 3.201976e+002
4.138262e+002, 3.239907e+002
4.143083e+002, 3.283369e+002
4.147904e+002, 3.325293e+002
4.152725e+002, 3.355938e+002
4.157546e+002, 3.380301e+002
4.162368e+002, 3.409523e+002
4.167189e+002, 3.455797e+002
4.172010e+002, 3.503346e+002
4.176831e+002, 3.540130e+002
4.181652e+002, 3.565972e+002
4.186473e+002, 3.587640e+002
4.191295e+002, 3.608974e+002
4.196116e+002, 3.627433e+002
4.200937e+002, 3.640643e+002
4.205758e+002, 3.649773e+002
4.210579e+002, 3.651316e+002
4.215400e+002, 3.641813e+002
4.220222e+002, 3.623963e+002
4.225043e+002, 3.604144e+002
4.229864e+002, 3.587909e+002
4.234685e+002, 3.566694e+002
4.239506e+002, 3.535639e+002
4.244327e+002, 3.491005e+002
4.249149e+002, 3.448940e+002
4.253970e+002, 3.411693e+002
4.258791e+002, 3.376474e+002
4.263612e+002, 3.339995e+002
4.268433e+002, 3.301046e+002
4.273254e+002, 3.263127e+002
4.278076e+002, 3.227313e+002
4.282897e+002, 3.192900e+002
4.287718e+002, 3.156598e+002
4.292539e+002, 3.116822e+002
4.297360e+002, 3.079111e+002
4.302181e+002, 3.049088e+002
4.307003e+002, 3.028865e+002
4.311824e+002, 3.001139e+002
4.316645e+002, 2.963113e+002
4.321466e+002, 2.921025e+002
4.326287e+002, 2.885161e+002
4.331108e+002, 2.855874e+002
4.335930e+002, 2.831200e+002
4.340751e+002, 2.813055e+002
4.345572e+002, 2.798719e+002
4.350393e+002, 2.777824e+002
4.355214e+002, 2.750319e+002
4.360035e+002, 2.722878e+002
4.364857e+002, 2.703008e+002
4.369678e+002, 2.688062e+002
4.374499e+002, 2.671032e+002
4.379320e+002, 2.649942e+002
4.384141e+002, 2.627155e+002
4.388962e+002, 2.604043e+002
4.393784e+002, 2.581126e+002
4.398605e+002, 2.559966e+002
4.403426e+002, 2.542571e+002
4.408247e+002, 2.526537e+002
4.413068e+002, 2.509050e+002
4.417889e+002, 2.489776e+002
4.422711e+002, 2.472224e+002
4.427532e+002, 2.461261e+002
4.432353e+002, 2.451681e+002
4.437174e+002, 2.438080e+002
4.441995e+002, 2.413779e+002
4.446816e+002, 2.390678e+002
4.451638e+002, 2.370240e+002
4.456459e+002, 2.353204e+002
4.461280e+002, 2.341836e+002
4.466101e+002, 2.340336e+002
4.470922e+002, 2.341402e+002
4.475743e+002, 2.342122e+002
4.480565e+002, 2.342434e+002
4.485386e+002, 2.342316e+002
4.490207e+002, 2.340798e+002
4.495028e+002, 2.339469e+002
4.499849e+002, 2.340623e+002
4.504670e+002, 2.345546e+002
4.509492e+002, 2.349984e+002
4.514313e+002, 2.352237e+002
4.519134e+002, 2.353031e+002
4.523955e+002, 2.357718e+002
4.528776e+002, 2.366678e+002
4.533597e+002, 2.377962e+002
4.538419e+002, 2.391542e+002
4.543240e+002, 2.407198e+002
4.548061e+002, 2.420105e+002
4.552882e+002, 2.429864e+002
4.557703e+002, 2.436468e+002
4.562524e+002, 2.438233e+002
4.567346e+002, 2.435903e+002
4.572167e+002, 2.434369e+002
4.576988e+002, 2.437688e+002
4.581809e+002, 2.442200e+002
4.586630e+002, 2.440637e+002
4.591451e+002, 2.433329e+002
4.596273e+002, 2.425682e+002
4.601094e+002, 2.424579e+002
4.605915e+002, 2.424644e+002
4.610736e+002, 2.418487e+002
4.615557e+002, 2.402559e+002
4.620378e+002, 2.384301e+002
4.625200e+002, 2.365958e+002
4.630021e+002, 2.348834e+002
4.634842e+002, 2.335853e+002
4.639663e+002, 2.335083e+002
4.644484e+002, 2.332686e+002
4.649305e+002, 2.320523e+002
4.654127e+002, 2.297590e+002
4.658948e+002, 2.277187e+002
4.663769e+002, 2.262898e+002
4.668590e+002, 2.251740e+002
4.673411e+002, 2.241651e+002
4.678232e+002, 2.234777e+002
4.683054e+002, 2.225574e+002
4.687875e+002, 2.210805e+002
4.692696e+002, 2.194200e+002
4.697517e+002, 2.185832e+002
4.702338e+002, 2.190884e+002
4.707159e+002, 2.194568e+002
4.711981e+002, 2.190879e+002
4.716802e+002, 2.179421e+002
4.721623e+002, 2.170813e+002
4.726444e+002, 2.165685e+002
4.731265e+002, 2.161935e+002
4.736086e+002, 2.157169e+002
4.740908e+002, 2.151431e+002
4.745729e+002, 2.147982e+002
4.750550e+002, 2.147729e+002
4.755371e+002, 2.149507e+002
4.760192e+002, 2.151986e+002
4.765013e+002, 2.154931e+002
4.769835e+002, 2.156590e+002
4.774656e+002, 2.154862e+002
4.779477e+002, 2.151621e+002
4.784298e+002, 2.149055e+002
4.789119e+002, 2.147197e+002
4.793940e+002, 2.148351e+002
4.798762e+002, 2.155929e+002
4.803583e+002, 2.167129e+002
4.808404e+002, 2.178407e+002
4.813225e+002, 2.190085e+002
4.818046e+002, 2.199958e+002
4.822867e+002, 2.204403e+002
4.827689e+002, 2.206025e+002
4.832510e+002, 2.211486e+002
4.837331e+002, 2.225736e+002
4.842152e+002, 2.242049e+002
4.846973e+002, 2.257467e+002
4.851794e+002, 2.271523e+002
4.856616e+002, 2.286526e+002
4.861437e+002, 2.301530e+002
4.866258e+002, 2.318260e+002
4.871079e+002, 2.338169e+002
4.875900e+002, 2.361346e+002
4.880721e+002, 2.387958e+002
4.885543e+002, 2.419376e+002
4.890364e+002, 2.453715e+002
4.895185e+002, 2.484361e+002
4.900006e+002, 2.508777e+002
4.904827e+002, 2.536641e+002
4.909648e+002, 2.573243e+002
4.914470e+002, 2.618151e+002
4.919291e+002, 2.659331e+002
4.924112e+002, 2.695743e+002
4.928933e+002, 2.732445e+002
4.933754e+002, 2.774972e+002
4.938575e+002, 2.822429e+002
4.943397e+002, 2.870122e+002
4.948218e+002, 2.916144e+002
4.953039e+002, 2.962927e+002
4.957860e+002, 3.014023e+002
4.962681e+002, 3.068334e+002
4.967502e+002, 3.121810e+002
4.972324e+002, 3.172660e+002
4.977145e+002, 3.222079e+002
4.981966e+002, 3.271834e+002
4.986787e+002, 3.322430e+002
4.991608e+002, 3.370098e+002
4.996429e+002, 3.415845e+002
5.001251e+002, 3.456474e+002
5.006072e+002, 3.490317e+002
5.010893e+002, 3.515199e+002
5.015714e+002, 3.534938e+002
5.020535e+002, 3.550322e+002
5.025356e+002, 3.561195e+002
5.030178e+002, 3.567412e+002
5.034999e+002, 3.571251e+002
5.039820e+002, 3.567970e+002
5.044641e+002, 3.555483e+002
5.049462e+002, 3.533616e+002
5.054283e+002, 3.510532e+002
5.059105e+002, 3.489872e+002
5.063926e+002, 3.462686e+002
5.068747e+002, 3.420589e+002
5.073568e+002, 3.361744e+002
5.078389e+002, 3.301481e+002
5.083210e+002, 3.241455e+002
5.088032e+002, 3.181922e+002
5.092853e+002, 3.123918e+002
5.097674e+002, 3.067357e+002
5.102495e+002, 3.011505e+002
5.107316e+002, 2.956631e+002
5.112137e+002, 2.901405e+002
5.116959e+002, 2.840262e+002
5.121780e+002, 2.774263e+002
5.126601e+002, 2.710842e+002
5.131422e+002, 2.656367e+002
5.136243e+002, 2.607481e+002
5.141064e+002, 2.560912e+002
5.145886e+002, 2.517287e+002
5.150707e+002, 2.471583e+002
5.155528e+002, 2.414980e+002
5.160349e+002, 2.355974e+002
5.165170e+002, 2.305921e+002
5.169991e+002, 2.274362e+002
5.174813e+002, 2.246434e+002
5.179634e+002, 2.217798e+002
5.184455e+002, 2.188621e+002
5.189276e+002, 2.160967e+002
5.194097e+002, 2.135511e+002
5.198918e+002, 2.111508e+002
5.203740e+002, 2.088746e+002
5.208561e+002, 2.066400e+002
5.213382e+002, 2.047662e+002
5.218203e+002, 2.033475e+002
5.223024e+002, 2.021726e+002
5.227845e+002, 2.009553e+002
5.232667e+002, 1.996470e+002
5.237488e+002, 1.985764e+002
5.242309e+002, 1.979072e+002
5.247130e+002, 1.974344e+002
5.251951e+002, 1.965154e+002
5.256772e+002, 1.951609e+002
5.261594e+002, 1.940240e+002
5.266415e+002, 1.937012e+002
5.271236e+002, 1.938097e+002
5.276057e+002, 1.934546e+002
5.280878e+002, 1.926070e+002
5.285699e+002, 1.916765e+002
5.290521e+002, 1.909349e+002
5.295342e+002, 1.903490e+002
5.300163e+002, 1.898925e+002
5.304984e+002, 1.896284e+002
5.309805e+002, 1.893748e+002
5.314626e+002, 1.889688e+002
5.319448e+002, 1.885101e+002
5.324269e+002, 1.881929e+002
5.329090e+002, 1.881959e+002
5.333911e+002, 1.882222e+002
5.338732e+002, 1.882424e+002
5.343553e+002, 1.882559e+002
5.348375e+002, 1.879647e+002
5.353196e+002, 1.869371e+002
5.358017e+002, 1.860252e+002
5.362838e+002, 1.857715e+002
5.367659e+002, 1.865667e+002
5.372480e+002, 1.868745e+002
5.377302e+002, 1.865351e+002
5.382123e+002, 1.859062e+002
5.386944e+002, 1.855508e+002
5.391765e+002, 1.854953e+002
5.396586e+002, 1.852783e+002
5.401407e+002, 1.846722e+002
5.406229e+002, 1.839230e+002
5.411050e+002, 1.836714e+002
5.415871e+002, 1.838837e+002
5.420692e+002, 1.841988e+002
5.425513e+002, 1.844419e+002
5.430334e+002, 1.846339e+002
5.435156e+002, 1.848268e+002
5.439977e+002, 1.850310e+002
5.444798e+002, 1.851421e+002
5.449619e+002, 1.847884e+002
5.454440e+002, 1.844262e+002
5.459261e+002, 1.846091e+002
5.464083e+002, 1.862148e+002
5.468904e+002, 1.873251e+002
5.473725e+002, 1.869565e+002
5.478546e+002, 1.856487e+002
5.483367e+002, 1.845546e+002
5.488188e+002, 1.836274e+002
5.493010e+002, 1.831684e+002
5.497831e+002, 1.834478e+002
5.502652e+002, 1.844485e+002
5.507473e+002, 1.849523e+002
5.512294e+002, 1.847228e+002
5.517115e+002, 1.843973e+002
5.521937e+002, 1.843742e+002
5.526758e+002, 1.846850e+002
5.531579e+002, 1.850547e+002
5.536400e+002, 1.855147e+002
5.541221e+002, 1.859274e+002
5.546042e+002, 1.860510e+002
5.550864e+002, 1.859337e+002
5.555685e+002, 1.858652e+002
5.560506e+002, 1.859282e+002
5.565327e+002, 1.860865e+002
5.570148e+002, 1.863941e+002
5.574969e+002, 1.867810e+002
5.579791e+002, 1.869887e+002
5.584612e+002, 1.866728e+002
5.589433e+002, 1.862457e+002
5.594254e+002, 1.859995e+002
5.599075e+002, 1.859519e+002
5.603896e+002, 1.861166e+002
5.608718e+002, 1.867218e+002
5.613539e+002, 1.874028e+002
5.618360e+002, 1.878968e+002
5.623181e+002, 1.882207e+002
5.628002e+002, 1.882656e+002
5.632823e+002, 1.878488e+002
5.637645e+002, 1.872427e+002
5.642466e+002, 1.868579e+002
5.647287e+002, 1.867597e+002
5.652108e+002, 1.867604e+002
5.656929e+002, 1.868584e+002
5.661750e+002, 1.870190e+002
5.666572e+002, 1.870253e+002
5.671393e+002, 1.868349e+002
5.676214e+002, 1.867916e+002
5.681035e+002, 1.873113e+002
5.685856e+002, 1.881685e+002
5.690677e+002, 1.884301e+002
5.695499e+002, 1.880318e+002
5.700320e+002, 1.875010e+002
5.705141e+002, 1.872945e+002
5.709962e+002, 1.872950e+002
5.714783e+002, 1.873136e+002
5.719604e+002, 1.872961e+002
5.724426e+002, 1.873024e+002
5.729247e+002, 1.874388e+002
5.734068e+002, 1.876173e+002
5.738889e+002, 1.876831e+002
5.743710e+002, 1.873148e+002
5.748531e+002, 1.871009e+002
5.753353e+002, 1.873364e+002
5.758174e+002, 1.879875e+002
5.762995e+002, 1.884881e+002
5.767816e+002, 1.887619e+002
5.772637e+002, 1.889542e+002
5.777458e+002, 1.891185e+002
5.782280e+002, 1.892458e+002
5.787101e+002, 1.893827e+002
5.791922e+002, 1.895216e+002
5.796743e+002, 1.896857e+002
5.801564e+002, 1.898645e+002
5.806385e+002, 1.900638e+002
5.811207e+002, 1.904664e+002
5.816028e+002, 1.911790e+002
5.820849e+002, 1.919293e+002
5.825670e+002, 1.921786e+002
5.830491e+002, 1.920902e+002
5.835313e+002, 1.922091e+002
5.840134e+002, 1.929341e+002
5.844955e+002, 1.938787e+002
5.849776e+002, 1.947480e+002
5.854597e+002, 1.955402e+002
5.859418e+002, 1.962602e+002
5.864240e+002, 1.967895e+002
5.869061e+002, 1.973355e+002
5.873882e+002, 1.980485e+002
5.878703e+002, 1.989875e+002
5.883524e+002, 1.999028e+002
5.888345e+002, 2.007877e+002
5.893167e+002, 2.016219e+002
5.897988e+002, 2.023446e+002
5.902809e+002, 2.027266e+002
5.907630e+002, 2.035684e+002
5.912451e+002, 2.050923e+002
5.917272e+002, 2.069423e+002
5.922094e+002, 2.083742e+002
5.926915e+002, 2.093359e+002
5.931736e+002, 2.105210e+002
5.936557e+002, 2.121619e+002
5.941378e+002, 2.141792e+002
5.946199e+002, 2.164720e+002
5.951021e+002, 2.189993e+002
5.955842e+002, 2.215855e+002
5.960663e+002, 2.240067e+002
5.965484e+002, 2.264709e+002
5.970305e+002, 2.292621e+002
5.975126e+002, 2.324062e+002
5.979948e+002, 2.357548e+002
5.984769e+002, 2.391728e+002
5.989590e+002, 2.427465e+002
5.994411e+002, 2.465607e+002
5.999232e+002, 2.504872e+002
6.004053e+002, 2.549082e+002
6.008875e+002, 2.599897e+002
6.013696e+002, 2.655341e+002
6.018517e+002, 2.712347e+002
6.023338e+002, 2.768333e+002
6.028159e+002, 2.830154e+002
6.032980e+002, 2.900058e+002
6.037802e+002, 2.976568e+002
6.042623e+002, 3.056266e+002
6.047444e+002, 3.137958e+002
6.052265e+002, 3.226968e+002
6.057086e+002, 3.329182e+002
6.061907e+002, 3.440807e+002
6.066729e+002, 3.549365e+002
6.071550e+002, 3.654478e+002
6.076371e+002, 3.762704e+002
6.081192e+002, 3.877068e+002
6.086013e+002, 3.997480e+002
6.090834e+002, 4.123918e+002
6.095656e+002, 4.260283e+002
6.100477e+002, 4.391285e+002
6.105298e+002, 4.513006e+002
6.110119e+002, 4.622923e+002
6.114940e+002, 4.719629e+002
6.119761e+002, 4.812140e+002
6.124583e+002, 4.878784e+002
6.129404e+002, 4.916452e+002
6.134225e+002, 4.926953e+002
6.139046e+002, 4.912890e+002
6.143867e+002, 4.874398e+002
6.148688e+002, 4.811365e+002
6.153510e+002, 4.719680e+002
6.158331e+002, 4.602543e+002
6.163152e+002, 4.476651e+002
6.167973e+002, 4.342037e+002
6.172794e+002, 4.202133e+002
6.177615e+002, 4.057292e+002
6.182437e+002, 3.910632e+002
6.187258e+002, 3.766342e+002
6.192079e+002, 3.623226e+002
6.196900e+002, 3.486212e+002
6.201721e+002, 3.356735e+002
6.206542e+002, 3.236400e+002
6.211364e+002, 3.128081e+002
6.216185e+002, 3.032666e+002
6.221006e+002, 2.945716e+002
6.225827e+002, 2.865561e+002
6.230648e+002, 2.791660e+002
6.235469e+002, 2.723232e+002
6.240291e+002, 2.662049e+002
6.245112e+002, 2.604369e+002
6.249933e+002, 2.548999e+002
6.254754e+002, 2.496635e+002
6.259575e+002, 2.450424e+002
6.264396e+002, 2.410057e+002
6.269218e+002, 2.376136e+002
6.274039e+002, 2.350358e+002
6.278860e+002, 2.331444e+002
6.283681e+002, 2.311971e+002
6.288502e+002, 2.291916e+002
6.293323e+002, 2.271593e+002
6.298145e+002, 2.248847e+002
6.302966e+002, 2.226632e+002
6.307787e+002, 2.211208e+002
6.312608e+002, 2.203547e+002
6.317429e+002, 2.197230e+002
6.322250e+002, 2.188834e+002
6.327072e+002, 2.178619e+002
6.331893e+002, 2.166395e+002
6.336714e+002, 2.149652e+002
6.341535e+002, 2.135302e+002
6.346356e+002, 2.125520e+002
6.351177e+002, 2.119193e+002
6.355999e+002, 2.114476e+002
6.360820e+002, 2.113549e+002
6.365641e+002, 2.110427e+002
6.370462e+002, 2.103102e+002
6.375283e+002, 2.093202e+002
6.380104e+002, 2.086136e+002
6.384926e+002, 2.082139e+002
6.389747e+002, 2.079223e+002
6.394568e+002, 2.076873e+002
6.399389e+002, 2.074847e+002
6.404210e+002, 2.071991e+002
6.409031e+002, 2.068390e+002
6.413853e+002, 2.065567e+002
6.418674e+002, 2.065751e+002
6.423495e+002, 2.066790e+002
6.428316e+002, 2.065578e+002
6.433137e+002, 2.061465e+002
6.437958e+002, 2.058436e+002
6.442780e+002, 2.058856e+002
6.447601e+002, 2.061008e+002
6.452422e+002, 2.063379e+002
6.457243e+002, 2.065157e+002
6.462064e+002, 2.068077e+002
6.466885e+002, 2.073801e+002
6.471707e+002, 2.079689e+002
6.476528e+002, 2.081883e+002
6.481349e+002, 2.079232e+002
6.486170e+002, 2.076524e+002
6.490991e+002, 2.074524e+002
6.495812e+002, 2.073022e+002
6.500634e+002, 2.071006e+002
6.505455e+002, 2.068598e+002
6.510276e+002, 2.067842e+002
6.515097e+002, 2.071618e+002
6.519918e+002, 2.076452e+002
6.524739e+002, 2.075650e+002
6.529561e+002, 2.070389e+002
6.534382e+002, 2.066762e+002
6.539203e+002, 2.070417e+002
6.544024e+002, 2.075400e+002
6.548845e+002, 2.077732e+002
6.553666e+002, 2.076860e+002
6.558488e+002, 2.075197e+002
6.563309e+002, 2.072564e+002
6.568130e+002, 2.069850e+002
6.572951e+002, 2.067576e+002
6.577772e+002, 2.065803e+002
6.582593e+002, 2.064449e+002
6.587415e+002, 2.063874e+002
6.592236e+002, 2.063145e+002
6.597057e+002, 2.060717e+002
6.601878e+002, 2.056658e+002
6.606699e+002, 2.053804e+002
6.611520e+002, 2.052778e+002
6.616342e+002, 2.052978e+002
6.621163e+002, 2.054439e+002
6.625984e+002, 2.056497e+002
6.630805e+002, 2.057380e+002
6.635626e+002, 2.055641e+002
6.640447e+002, 2.053211e+002
6.645269e+002, 2.051023e+002
6.650090e+002, 2.049192e+002
6.654911e+002, 2.047993e+002
6.659732e+002, 2.050189e+002
6.664553e+002, 2.050416e+002
6.669374e+002, 2.044641e+002
6.674196e+002, 2.033565e+002
6.679017e+002, 2.028686e+002
6.683838e+002, 2.033772e+002
6.688659e+002, 2.037967e+002
6.693480e+002, 2.034738e+002
6.698301e+002, 2.024243e+002
6.703123e+002, 2.017648e+002
6.707944e+002, 2.015176e+002
6.712765e+002, 2.014852e+002
6.717586e+002, 2.016326e+002
6.722407e+002, 2.018399e+002
6.727228e+002, 2.018072e+002
6.732050e+002, 2.014619e+002
6.736871e+002, 2.010675e+002
6.741692e+002, 2.007014e+002
6.746513e+002, 2.004388e+002
6.751334e+002, 2.003870e+002
6.756155e+002, 2.008045e+002
6.760977e+002, 2.010754e+002
6.765798e+002, 2.009535e+002
6.770619e+002, 2.006348e+002
6.775440e+002, 2.004277e+002
6.780261e+002, 2.004773e+002
6.785082e+002, 2.003086e+002
6.789904e+002, 1.997054e+002
6.794725e+002, 1.989363e+002
6.799546e+002, 1.988159e+002
6.804367e+002, 1.993562e+002
6.809188e+002, 1.997008e+002
6.814009e+002, 1.993634e+002
6.818831e+002, 1.986870e+002
6.823652e+002, 1.983191e+002
6.828473e+002, 1.982007e+002
6.833294e+002, 1.980485e+002
6.838115e+002, 1.975006e+002
6.842936e+002, 1.970059e+002
6.847758e+002, 1.970904e+002
6.852579e+002, 1.977715e+002
6.857400e+002, 1.979132e+002
6.862221e+002, 1.963239e+002
6.867042e+002, 1.948817e+002
6.871863e+002, 1.946388e+002
6.876685e+002, 1.959791e+002
6.881506e+002, 1.968343e+002
6.886327e+002, 1.970613e+002
6.891148e+002, 1.971167e+002
6.895969e+002, 1.974995e+002
6.900790e+002, 1.981667e+002
6.905612e+002, 1.983762e+002
6.910433e+002, 1.979904e+002
6.915254e+002, 1.974478e+002
6.920075e+002, 1.971521e+002
6.924896e+002, 1.970855e+002
6.929717e+002, 1.972849e+002
6.934539e+002, 1.980203e+002
6.939360e+002, 1.984975e+002
6.944181e+002, 1.980267e+002
6.949002e+002, 1.970580e+002
6.953823e+002, 1.962870e+002
6.958644e+002, 1.957790e+002
6.963466e+002, 1.956248e+002
6.968287e+002, 1.960057e+002
6.973108e+002, 1.967035e+002
6.977929e+002, 1.971146e+002
6.982750e+002, 1.971599e+002
6.987571e+002, 1.972529e+002
6.992393e+002, 1.976051e+002
6.997214e+002, 1.980592e+002
7.002035e+002, 1.980355e+002
7.006856e+002, 1.975908e+002
7.011677e+002, 1.972134e+002
7.016498e+002, 1.972088e+002
7.021320e+002, 1.974097e+002
7.026141e+002, 1.976810e+002
7.030962e+002, 1.980034e+002
7.035783e+002, 1.982699e+002
7.040604e+002, 1.983447e+002
7.045425e+002, 1.984159e+002
7.050247e+002, 1.986011e+002
7.055068e+002, 1.989364e+002
7.059889e+002, 1.992177e+002
7.064710e+002, 1.994416e+002
7.069531e+002, 1.996088e+002
7.074352e+002, 1.996811e+002
7.079174e+002, 1.996364e+002
7.083995e+002, 1.998015e+002
7.088816e+002, 2.002381e+002
7.093637e+002, 2.006212e+002
7.098458e+002, 2.004387e+002
7.103279e+002, 1.999540e+002
7.108101e+002, 1.999149e+002
7.112922e+002, 2.005802e+002
7.117743e+002, 2.011428e+002
7.122564e+002, 2.008064e+002
7.127385e+002, 2.000977e+002
7.132206e+002, 1.996412e+002
7.137028e+002, 1.996606e+002
7.141849e+002, 1.998721e+002
7.146670e+002, 2.003489e+002
7.151491e+002, 2.009433e+002
7.156312e+002, 2.014629e+002
7.161133e+002, 2.018689e+002
7.165955e+002, 2.022822e+002
7.170776e+002, 2.026823e+002
7.175597e+002, 2.031405e+002
7.180418e+002, 2.038112e+002
7.185239e+002, 2.046865e+002
7.190060e+002, 2.056744e+002
7.194882e+002, 2.069313e+002
7.199703e+002, 2.080638e+002
7.204524e+002, 2.084971e+002
7.209345e+002, 2.083900e+002
7.214166e+002, 2.082326e+002
7.218987e+002, 2.080894e+002
7.223809e+002, 2.080994e+002
7.228630e+002, 2.083503e+002
7.233451e+002, 2.088289e+002
7.238272e+002, 2.094084e+002
7.243093e+002, 2.100416e+002
7.247914e+002, 2.108336e+002
7.252736e+002, 2.118977e+002
7.257557e+002, 2.131954e+002
7.262378e+002, 2.141982e+002
7.267199e+002, 2.148978e+002
7.272020e+002, 2.154954e+002
7.276841e+002, 2.160072e+002
7.281663e+002, 2.165566e+002
7.286484e+002, 2.174749e+002
7.291305e+002, 2.187595e+002
7.296126e+002, 2.200470e+002
7.300947e+002, 2.210392e+002
7.305768e+002, 2.219659e+002
7.310590e+002, 2.229881e+002
7.315411e+002, 2.241148e+002
7.320232e+002, 2.253906e+002
7.325053e+002, 2.268659e+002
7.329874e+002, 2.284510e+002
7.334695e+002, 2.301177e+002
7.339517e+002, 2.318726e+002
7.344338e+002, 2.336715e+002
7.349159e+002, 2.355336e+002
7.353980e+002, 2.374052e+002
7.358801e+002, 2.391894e+002
7.363622e+002, 2.409264e+002
7.368444e+002, 2.428580e+002
7.373265e+002, 2.450906e+002
7.378086e+002, 2.471815e+002
7.382907e+002, 2.486902e+002
7.387728e+002, 2.498017e+002
7.392549e+002, 2.507211e+002
7.397371e+002, 2.513313e+002
7.402192e+002, 2.520612e+002
7.407013e+002, 2.533551e+002
7.411834e+002, 2.546933e+002
7.416655e+002, 2.553948e+002
7.421476e+002, 2.552060e+002
7.426298e+002, 2.549474e+002
7.431119e+002, 2.546704e+002
7.435940e+002, 2.544155e+002
7.440761e+002, 2.543956e+002
7.445582e+002, 2.545502e+002
7.450403e+002, 2.542826e+002
7.455225e+002, 2.533440e+002
7.460046e+002, 2.520072e+002
7.464867e+002, 2.504903e+002
7.469688e+002, 2.488380e+002
7.474509e+002, 2.471618e+002
7.479330e+002, 2.455228e+002
7.484152e+002, 2.438534e+002
7.488973e+002, 2.420238e+002
7.493794e+002, 2.401165e+002
7.498615e+002, 2.384750e+002
7.503436e+002, 2.372920e+002
7.508257e+002, 2.360076e+002
7.513079e+002, 2.345084e+002
7.517900e+002, 2.328116e+002
7.522721e+002, 2.309506e+002
7.527542e+002, 2.289205e+002
7.532363e+002, 2.270193e+002
7.537184e+002, 2.254487e+002
7.542006e+002, 2.240775e+002
7.546827e+002, 2.226796e+002
7.551648e+002, 2.212820e+002
7.556469e+002, 2.200532e+002
7.561290e+002, 2.192609e+002
7.566111e+002, 2.184789e+002
7.570933e+002, 2.173495e+002
7.575754e+002, 2.159173e+002
7.580575e+002, 2.148661e+002
7.585396e+002, 2.145668e+002
7.590217e+002, 2.141399e+002
7.595038e+002, 2.131177e+002
7.599860e+002, 2.115971e+002
7.604681e+002, 2.106970e+002
7.609502e+002, 2.104673e+002
7.614323e+002, 2.103092e+002
7.619144e+002, 2.097798e+002
7.623965e+002, 2.090686e+002
7.628787e+002, 2.085497e+002
7.633608e+002, 2.082175e+002
7.638429e+002, 2.078452e+002
7.643250e+002, 2.072036e+002
7.648071e+002, 2.065500e+002
7.652892e+002, 2.060791e+002
7.657714e+002, 2.058232e+002
7.662535e+002, 2.055765e+002
7.667356e+002, 2.053607e+002
7.672177e+002, 2.051080e+002
7.676998e+002, 2.047475e+002
7.681819e+002, 2.042615e+002
7.686641e+002, 2.040091e+002
7.691462e+002, 2.040364e+002
7.696283e+002, 2.039706e+002
7.701104e+002, 2.033969e+002
7.705925e+002, 2.025371e+002
7.710746e+002, 2.017226e+002
7.715568e+002, 2.009756e+002
7.720389e+002, 2.005723e+002
7.725210e+002, 2.011107e+002
7.730031e+002, 2.017738e+002
7.734852e+002, 2.018825e+002
7.739673e+002, 2.011267e+002
7.744495e+002, 2.004985e+002
7.749316e+002, 1.999581e+002
7.754137e+002, 1.996409e+002
7.758958e+002, 1.997952e+002
7.763779e+002, 2.004974e+002
7.768600e+002, 2.005829e+002
7.773422e+002, 1.999468e+002
7.778243e+002, 1.991148e+002
7.783064e+002, 1.984809e+002
7.787885e+002, 1.980651e+002
7.792706e+002, 1.979828e+002
7.797527e+002, 1.983175e+002
7.802349e+002, 1.985819e+002
7.807170e+002, 1.985002e+002
7.811991e+002, 1.982131e+002
7.816812e+002, 1.978154e+002
7.821633e+002, 1.971026e+002
7.826454e+002, 1.967518e+002
7.831276e+002, 1.969496e+002
7.836097e+002, 1.972881e+002
7.840918e+002, 1.973095e+002
7.845739e+002, 1.970040e+002
7.850560e+002, 1.969567e+002
7.855381e+002, 1.972536e+002
7.860203e+002, 1.976479e+002
7.865024e+002, 1.979355e+002
7.869845e+002, 1.981115e+002
7.874666e+002, 1.981808e+002
7.879487e+002, 1.981573e+002
7.884308e+002, 1.979765e+002
7.889130e+002, 1.972556e+002
7.893951e+002, 1.965409e+002
7.898772e+002, 1.964188e+002
7.903593e+002, 1.974050e+002
7.908414e+002, 1.981060e+002
7.913235e+002, 1.984415e+002
7.918057e+002, 1.985746e+002
7.922878e+002, 1.986604e+002
7.927699e+002, 1.987013e+002
7.932520e+002, 1.987309e+002
7.937341e+002, 1.987472e+002
7.942162e+002, 1.987807e+002
7.946984e+002, 1.988361e+002
7.951805e+002, 1.989408e+002
7.956626e+002, 1.991462e+002
7.961447e+002, 1.995141e+002
7.966268e+002, 1.998776e+002
7.971089e+002, 2.001940e+002
7.975911e+002, 2.004728e+002
7.980732e+002, 2.007480e+002
7.985553e+002, 2.011476e+002
7.990374e+002, 2.011958e+002
7.995195e+002, 2.006994e+002
8.000016e+002, 2.001677e+002
8.004838e+002, 2.003149e+002
8.009659e+002, 2.010402e+002
8.014480e+002, 2.017805e+002
8.019301e+002, 2.024510e+002
8.024122e+002, 2.030327e+002
8.028943e+002, 2.035295e+002
8.033765e+002, 2.039075e+002
8.038586e+002, 2.041011e+002
8.043407e+002, 2.038645e+002
8.048228e+002, 2.038591e+002
8.053049e+002, 2.044370e+002
8.057870e+002, 2.051826e+002
8.062692e+002, 2.057147e+002
8.067513e+002, 2.060303e+002
8.072334e+002, 2.060879e+002
8.077155e+002, 2.058130e+002
8.081976e+002, 2.054668e+002
8.086797e+002, 2.054036e+002
8.091619e+002, 2.055439e+002
8.096440e+002, 2.056806e+002
8.101261e+002, 2.057911e+002
8.106082e+002, 2.058022e+002
8.110903e+002, 2.055914e+002
8.115724e+002, 2.052861e+002
8.120546e+002, 2.050277e+002
8.125367e+002, 2.048942e+002
8.130188e+002, 2.047329e+002
8.135009e+002, 2.045274e+002
8.139830e+002, 2.043085e+002
8.144651e+002, 2.041594e+002
8.149473e+002, 2.040986e+002
8.154294e+002, 2.037687e+002
8.159115e+002, 2.030911e+002
8.163936e+002, 2.023463e+002
8.168757e+002, 2.018403e+002
8.173578e+002, 2.014994e+002
8.178400e+002, 2.011848e+002
8.183221e+002, 2.008581e+002
8.188042e+002, 2.005775e+002
8.192863e+002, 2.002690e+002
8.197684e+002, 2.000712e+002
8.202505e+002, 2.001561e+002
8.207327e+002, 2.007916e+002
8.212148e+002, 2.010721e+002
8.216969e+002, 2.008943e+002
8.221790e+002, 2.005352e+002
8.226611e+002, 2.003575e+002
8.231432e+002, 2.002900e+002
8.236254e+002, 1.998433e+002
8.241075e+002, 1.989275e+002
8.245896e+002, 1.979436e+002
8.250717e+002, 1.970522e+002
8.255538e+002, 1.964097e+002
8.260359e+002, 1.963246e+002
8.265181e+002, 1.971074e+002
8.270002e+002, 1.975306e+002
8.274823e+002, 1.969702e+002
8.279644e+002, 1.962424e+002
8.284465e+002, 1.958914e+002
8.289286e+002, 1.960358e+002
8.294108e+002, 1.959987e+002
8.298929e+002, 1.957516e+002
8.303750e+002, 1.954645e+002
8.308571e+002, 1.953097e+002
8.313392e+002, 1.952315e+002
8.318214e+002, 1.950983e+002
8.323035e+002, 1.948961e+002
8.327856e+002, 1.946985e+002
8.332677e+002, 1.945873e+002
8.337498e+002, 1.944710e+002
8.342319e+002, 1.942675e+002
8.347141e+002, 1.939312e+002
8.351962e+002, 1.936350e+002
8.356783e+002, 1.933492e+002
8.361604e+002, 1.931443e+002
8.366425e+002, 1.931627e+002
8.371246e+002, 1.933681e+002
8.376068e+002, 1.931033e+002
8.380889e+002, 1.923606e+002
8.385710e+002, 1.917628e+002
8.390531e+002, 1.919402e+002
8.395352e+002, 1.924230e+002
8.400173e+002, 1.927424e+002
8.404995e+002, 1.928654e+002
8.409816e+002, 1.928863e+002
8.414637e+002, 1.926511e+002
8.419458e+002, 1.925060e+002
8.424279e+002, 1.926223e+002
8.429100e+002, 1.929942e+002
8.433922e+002, 1.933048e+002
8.438743e+002, 1.935188e+002
8.443564e+002, 1.938548e+002
8.448385e+002, 1.947876e+002
8.453206e+002, 1.958389e+002
8.458027e+002, 1.956665e+002
8.462849e+002, 1.944675e+002
8.467670e+002, 1.933463e+002
8.472491e+002, 1.929882e+002
8.477312e+002, 1.928258e+002
8.482133e+002, 1.925650e+002
8.486954e+002, 1.922082e+002
8.491776e+002, 1.918898e+002
8.496597e+002, 1.915308e+002
8.501418e+002, 1.914055e+002
8.506239e+002, 1.917414e+002
8.511060e+002, 1.923139e+002
8.515881e+002, 1.922128e+002
8.520703e+002, 1.915323e+002
8.525524e+002, 1.910603e+002
8.530345e+002, 1.913572e+002
8.535166e+002, 1.918813e+002
8.539987e+002, 1.921306e+002
8.544808e+002, 1.922127e+002
8.549630e+002, 1.924050e+002
8.554451e+002, 1.929746e+002
8.559272e+002, 1.934155e+002
8.564093e+002, 1.935396e+002
8.568914e+002, 1.935096e+002
8.573735e+002, 1.938112e+002
8.578557e+002, 1.945027e+002
8.583378e+002, 1.947525e+002
8.588199e+002, 1.942146e+002
8.593020e+002, 1.933992e+002
8.597841e+002, 1.930209e+002
8.602662e+002, 1.929473e+002
8.607484e+002, 1.929187e+002
8.612305e+002, 1.928920e+002
8.617126e+002, 1.928296e+002
8.621947e+002, 1.925238e+002
8.626768e+002, 1.922673e+002
8.631589e+002, 1.925483e+002
8.636411e+002, 1.938352e+002
8.641232e+002, 1.942260e+002
8.646053e+002, 1.933163e+002
8.650874e+002, 1.920378e+002
8.655695e+002, 1.916389e+002
8.660516e+002, 1.918838e+002
8.665338e+002, 1.920355e+002
8.670159e+002, 1.919549e+002
8.674980e+002, 1.917841e+002
8.679801e+002, 1.915891e+002
8.684622e+002, 1.913722e+002
8.689443e+002, 1.911239e+002
8.694265e+002, 1.907873e+002
8.699086e+002, 1.905369e+002
8.703907e+002, 1.902968e+002
8.708728e+002, 1.902653e+002
8.713549e+002, 1.908063e+002
8.718370e+002, 1.918303e+002
8.723192e+002, 1.921346e+002
8.728013e+002, 1.916660e+002
8.732834e+002, 1.911212e+002
8.737655e+002, 1.912500e+002
8.742476e+002, 1.914699e+002
8.747297e+002, 1.910050e+002
8.752119e+002, 1.897558e+002
8.756940e+002, 1.890497e+002
8.761761e+002, 1.896467e+002
8.766582e+002, 1.904152e+002
8.771403e+002, 1.909944e+002
8.776224e+002, 1.913786e+002
8.781046e+002, 1.914205e+002
8.785867e+002, 1.911047e+002
8.790688e+002, 1.908006e+002
8.795509e+002, 1.907910e+002
8.800330e+002, 1.908966e+002
8.805151e+002, 1.908626e+002
8.809973e+002, 1.907197e+002
8.814794e+002, 1.905842e+002
8.819615e+002, 1.905614e+002
8.824436e+002, 1.904976e+002
8.829257e+002, 1.903155e+002
8.834078e+002, 1.900546e+002
8.838900e+002, 1.897693e+002
8.843721e+002, 1.894136e+002
8.848542e+002, 1.893080e+002
8.853363e+002, 1.896488e+002
8.858184e+002, 1.901125e+002
8.863005e+002, 1.900161e+002
8.867827e+002, 1.895836e+002
8.872648e+002, 1.894021e+002
8.877469e+002, 1.898634e+002
8.882290e+002, 1.903427e+002
8.887111e+002, 1.905971e+002
8.891932e+002, 1.906899e+002
8.896754e+002, 1.907305e+002
8.901575e+002, 1.907754e+002
8.906396e+002, 1.905793e+002
8.911217e+002, 1.900181e+002
8.916038e+002, 1.894684e+002
8.920859e+002, 1.895610e+002
8.925681e+002, 1.900490e+002
8.930502e+002, 1.900709e+002
8.935323e+002, 1.894070e+002
8.940144e+002, 1.888956e+002
8.944965e+002, 1.891976e+002
8.949786e+002, 1.898562e+002
8.954608e+002, 1.905611e+002
8.959429e+002, 1.913851e+002
8.964250e+002, 1.917553e+002
8.969071e+002, 1.915126e+002
8.973892e+002, 1.911254e+002
8.978713e+002, 1.908721e+002
8.983535e+002, 1.907434e+002
8.988356e+002, 1.907149e+002
8.993177e+002, 1.907827e+002
8.997998e+002, 1.908935e+002
9.002819e+002, 1.910869e+002
9.007640e+002, 1.912486e+002
9.012462e+002, 1.912626e+002
9.017283e+002, 1.911441e+002
9.022104e+002, 1.910690e+002
9.026925e+002, 1.909571e+002
9.031746e+002, 1.910841e+002
9.036567e+002, 1.916910e+002
9.041389e+002, 1.925083e+002
9.046210e+002, 1.925077e+002
9.051031e+002, 1.917989e+002
9.055852e+002, 1.913948e+002
9.060673e+002, 1.919917e+002
9.065494e+002, 1.926689e+002
9.070316e+002, 1.924489e+002
9.075137e+002, 1.917479e+002
9.079958e+002, 1.912978e+002
9.084779e+002, 1.915197e+002
9.089600e+002, 1.916927e+002
9.094421e+002, 1.917837e+002
9.099243e+002, 1.917647e+002
9.104064e+002, 1.915057e+002
9.108885e+002, 1.910337e+002
9.113706e+002, 1.908353e+002
9.118527e+002, 1.910048e+002
9.123348e+002, 1.913154e+002
9.128170e+002, 1.917235e+002
9.132991e+002, 1.920593e+002
9.137812e+002, 1.920480e+002
9.142633e+002, 1.914893e+002
9.147454e+002, 1.912751e+002
9.152275e+002, 1.917907e+002
9.157097e+002, 1.923807e+002
9.161918e+002, 1.927087e+002
9.166739e+002, 1.927759e+002
9.171560e+002, 1.924956e+002
9.176381e+002, 1.918652e+002
9.181202e+002, 1.914552e+002
9.186024e+002, 1.919465e+002
9.190845e+002, 1.926665e+002
9.195666e+002, 1.928738e+002
9.200487e+002, 1.926206e+002
9.205308e+002, 1.923640e+002
9.210129e+002, 1.922572e+002
9.214951e+002, 1.921195e+002
9.219772e+002, 1.918315e+002
9.224593e+002, 1.915078e+002
9.229414e+002, 1.915292e+002
9.234235e+002, 1.918884e+002
9.239056e+002, 1.923362e+002
9.243878e+002, 1.928842e+002
9.248699e+002, 1.932977e+002
9.253520e+002, 1.932788e+002
9.258341e+002, 1.929578e+002
9.263162e+002, 1.925316e+002
9.267983e+002, 1.917133e+002
9.272805e+002, 1.913455e+002
9.277626e+002, 1.917654e+002
9.282447e+002, 1.923966e+002
9.287268e+002, 1.926636e+002
9.292089e+002, 1.925679e+002
9.296910e+002, 1.923520e+002
9.301732e+002, 1.920202e+002
9.306553e+002, 1.917620e+002
9.311374e+002, 1.917559e+002
9.316195e+002, 1.919179e+002
9.321016e+002, 1.922079e+002
9.325837e+002, 1.926242e+002
9.330659e+002, 1.929320e+002
9.335480e+002, 1.930137e+002
9.340301e+002, 1.930313e+002
9.345122e+002, 1.929713e+002
9.349943e+002, 1.928818e+002
9.354764e+002, 1.932619e+002
9.359586e+002, 1.940912e+002
9.364407e+002, 1.946078e+002
9.369228e+002, 1.941333e+002
9.374049e+002, 1.934464e+002
9.378870e+002, 1.933647e+002
9.383691e+002, 1.936993e+002
9.388513e+002, 1.940165e+002
9.393334e+002, 1.943144e+002
9.398155e+002, 1.944036e+002
9.402976e+002, 1.940715e+002
9.407797e+002, 1.937268e+002
9.412618e+002, 1.942735e+002
9.417440e+002, 1.956014e+002
9.422261e+002, 1.960352e+002
9.427082e+002, 1.951676e+002
9.431903e+002, 1.941145e+002
9.436724e+002, 1.939138e+002
9.441545e+002, 1.941163e+002
9.446367e+002, 1.942290e+002
9.451188e+002, 1.940763e+002
9.456009e+002, 1.942649e+002
9.460830e+002, 1.950864e+002
9.465651e+002, 1.958422e+002
9.470472e+002, 1.961253e+002
9.475294e+002, 1.959699e+002
9.480115e+002, 1.955398e+002
9.484936e+002, 1.948701e+002
9.489757e+002, 1.944102e+002
9.494578e+002, 1.945562e+002
9.499399e+002, 1.949261e+002
9.504221e+002, 1.952661e+002
9.509042e+002, 1.955898e+002
9.513863e+002, 1.959904e+002
9.518684e+002, 1.967782e+002
9.523505e+002, 1.970652e+002
9.528326e+002, 1.965225e+002
9.533148e+002, 1.956472e+002
9.537969e+002, 1.953714e+002
9.542790e+002, 1.955920e+002
9.547611e+002, 1.958696e+002
9.552432e+002, 1.961042e+002
9.557253e+002, 1.963380e+002
9.562075e+002, 1.967266e+002
9.566896e+002, 1.970502e+002
9.571717e+002, 1.970368e+002
9.576538e+002, 1.964682e+002
9.581359e+002, 1.962127e+002
9.586180e+002, 1.963485e+002
9.591002e+002, 1.965855e+002
9.595823e+002, 1.966278e+002
9.600644e+002, 1.966071e+002
9.605465e+002, 1.971108e+002
9.610286e+002, 1.980474e+002
9.615107e+002, 1.986540e+002
9.619929e+002, 1.980463e+002
9.624750e+002, 1.974487e+002
9.629571e+002, 1.975570e+002
9.634392e+002, 1.982227e+002
9.639213e+002, 1.988952e+002
9.644034e+002, 1.996520e+002
9.648856e+002, 2.000450e+002
9.653677e+002, 1.998643e+002
9.658498e+002, 1.994822e+002
9.663319e+002, 1.994817e+002
9.668140e+002, 1.997326e+002
9.672961e+002, 1.999804e+002
9.677783e+002, 2.001963e+002
9.682604e+002, 2.003024e+002
9.687425e+002, 2.002422e+002
9.692246e+002, 2.000775e+002
9.697067e+002, 1.998237e+002
9.701888e+002, 1.994487e+002
9.706710e+002, 1.992396e+002
9.711531e+002, 1.991998e+002
9.716352e+002, 1.992958e+002
9.721173e+002, 1.996155e+002
9.725994e+002, 1.999835e+002
9.730815e+002, 2.001676e+002
9.735637e+002, 2.001792e+002
9.740458e+002, 2.001492e+002
9.745279e+002, 2.001773e+002
9.750100e+002, 2.000736e+002
9.754921e+002, 1.996474e+002
9.759742e+002, 1.991504e+002
9.764564e+002, 1.993980e+002
9.769385e+002, 2.003308e+002
9.774206e+002, 2.006611e+002
9.779027e+002, 1.998532e+002
9.783848e+002, 1.989894e+002
9.788669e+002, 1.992266e+002
9.793491e+002, 1.999497e+002
9.798312e+002, 2.004090e+002
9.803133e+002, 2.003199e+002
9.807954e+002, 2.003634e+002
9.812775e+002, 2.006513e+002
9.817596e+002, 2.009206e+002
9.822418e+002, 2.009395e+002
9.827239e+002, 2.007679e+002
9.832060e+002, 2.007396e+002
9.836881e+002, 2.008415e+002
9.841702e+002, 2.009665e+002
9.846523e+002, 2.009885e+002
9.851345e+002, 2.010654e+002
9.856166e+002, 2.013164e+002
9.860987e+002, 2.017038e+002
9.865808e+002, 2.020932e+002
9.870629e+002, 2.025366e+002
9.875450e+002, 2.027915e+002
9.880272e+002, 2.027669e+002
9.885093e+002, 2.026454e+002
9.889914e+002, 2.027153e+002
9.894735e+002, 2.028952e+002
9.899556e+002, 2.029848e+002
9.904377e+002, 2.028878e+002
9.909199e+002, 2.029417e+002
9.914020e+002, 2.034404e+002
9.918841e+002, 2.040131e+002
9.923662e+002, 2.044008e+002
9.928483e+002, 2.045905e+002
9.933304e+002, 2.049227e+002
9.938126e+002, 2.054123e+002
9.942947e+002, 2.057808e+002
9.947768e+002, 2.056375e+002
9.952589e+002, 2.054309e+002
9.957410e+002, 2.057327e+002
9.962231e+002, 2.064191e+002
9.967053e+002, 2.071339e+002
9.971874e+002, 2.076603e+002
9.976695e+002, 2.083629e+002
9.981516e+002, 2.093288e+002
9.986337e+002, 2.104397e+002
9.991158e+002, 2.115022e+002
9.995980e+002, 2.125544e+002
1.000080e+003, 2.139183e+002
1.000562e+003, 2.157326e+002
1.001044e+003, 2.171834e+002
1.001526e+003, 2.175895e+002
1.002009e+003, 2.174325e+002
1.002491e+003, 2.171151e+002
1.002973e+003, 2.166853e+002
1.003455e+003, 2.157075e+002
1.003937e+003, 2.139552e+002
1.004419e+003, 2.123867e+002
1.004901e+003, 2.114835e+002
1.005383e+003, 2.109968e+002
1.005865e+003, 2.103843e+002
1.006348e+003, 2.097136e+002
1.006830e+003, 2.091601e+002
1.007312e+003, 2.089170e+002
1.007794e+003, 2.086628e+002
1.008276e+003, 2.081841e+002
1.008758e+003, 2.077086e+002
1.009240e+003, 2.074658e+002
1.009722e+003, 2.074619e+002
1.010205e+003, 2.076690e+002
1.010687e+003, 2.081078e+002
1.011169e+003, 2.085612e+002
1.011651e+003, 2.087593e+002
1.012133e+003, 2.089270e+002
1.012615e+003, 2.093445e+002
1.013097e+003, 2.100151e+002
1.013579e+003, 2.106296e+002
1.014061e+003, 2.111290e+002
1.014544e+003, 2.115693e+002
1.015026e+003, 2.118903e+002
1.015508e+003, 2.122295e+002
1.015990e+003, 2.130313e+002
1.016472e+003, 2.141793e+002
1.016954e+003, 2.151535e+002
1.017436e+003, 2.156619e+002
1.017918e+003, 2.163274e+002
1.018401e+003, 2.177147e+002
1.018883e+003, 2.193416e+002
1.019365e+003, 2.206708e+002
1.019847e+003, 2.215015e+002
1.020329e+003, 2.229518e+002
1.020811e+003, 2.250596e+002
1.021293e+003, 2.275888e+002
1.021775e+003, 2.306133e+002
1.022257e+003, 2.338123e+002
1.022740e+003, 2.366020e+002
1.023222e+003, 2.391320e+002
1.023704e+003, 2.419949e+002
1.024186e+003, 2.453579e+002
1.024668e+003, 2.491731e+002
1.025150e+003, 2.535020e+002
1.025632e+003, 2.581564e+002
1.026114e+003, 2.627223e+002
1.026596e+003, 2.672103e+002
1.027079e+003, 2.725382e+002
1.027561e+003, 2.789228e+002
1.028043e+003, 2.854935e+002
1.028525e+003, 2.919652e+002
1.029007e+003, 2.980296e+002
1.029489e+003, 3.033892e+002
1.029971e+003, 3.079866e+002
1.030453e+003, 3.119832e+002
1.030936e+003, 3.155663e+002
1.031418e+003, 3.179854e+002
1.031900e+003, 3.191087e+002
1.032382e+003, 3.187119e+002
1.032864e+003, 3.161001e+002
1.033346e+003, 3.116274e+002
1.033828e+003, 3.061512e+002
1.034310e+003, 2.993981e+002
1.034792e+003, 2.926006e+002
1.035275e+003, 2.860547e+002
1.035757e+003, 2.795842e+002
1.036239e+003, 2.728090e+002
1.036721e+003, 2.657829e+002
1.037203e+003, 2.593570e+002
1.037685e+003, 2.536599e+002
1.038167e+003, 2.485281e+002
1.038649e+003, 2.440001e+002
1.039132e+003, 2.399076e+002
1.039614e+003, 2.359704e+002
1.040096e+003, 2.322984e+002
1.040578e+003, 2.293353e+002
1.041060e+003, 2.271867e+002
1.041542e+003, 2.254035e+002
1.042024e+003, 2.239381e+002
1.042506e+003, 2.226217e+002
1.042989e+003, 2.211312e+002
1.043471e+003, 2.195842e+002
1.043953e+003, 2.182288e+002
1.044435e+003, 2.171079e+002
1.044917e+003, 2.160854e+002
1.045399e+003, 2.152490e+002
1.045881e+003, 2.143267e+002
1.046363e+003, 2.130995e+002
1.046845e+003, 2.116521e+002
1.047328e+003, 2.107490e+002
1.047810e+003, 2.103491e+002
1.048292e+003, 2.098904e+002
1.048774e+003, 2.090249e+002
1.049256e+003, 2.081204e+002
1.049738e+003, 2.073684e+002
1.050220e+003, 2.068039e+002
1.050702e+003, 2.065063e+002
1.051184e+003, 2.066250e+002
1.051667e+003, 2.066544e+002
1.052149e+003, 2.066122e+002
1.052631e+003, 2.063837e+002
1.053113e+003, 2.057860e+002
1.053595e+003, 2.049563e+002
1.054077e+003, 2.040254e+002
1.054559e+003, 2.030628e+002
1.055041e+003, 2.024428e+002
1.055523e+003, 2.026199e+002
1.056006e+003, 2.027951e+002
1.056488e+003, 2.026814e+002
1.056970e+003, 2.024843e+002
1.057452e+003, 2.027785e+002
1.057934e+003, 2.034690e+002
1.058416e+003, 2.035905e+002
1.058898e+003, 2.028901e+002
1.059380e+003, 2.020597e+002
1.059863e+003, 2.015352e+002
1.060345e+003, 2.012278e+002
1.060827e+003, 2.011320e+002
1.061309e+003, 2.012469e+002
1.061791e+003, 2.012309e+002
1.062273e+003, 2.010261e+002
1.062755e+003, 2.009570e+002
1.063237e+003, 2.011859e+002
1.063719e+003, 2.015967e+002
1.064202e+003, 2.023309e+002
1.064684e+003, 2.030459e+002
1.065166e+003, 2.030505e+002
1.065648e+003, 2.014399e+002
1.066130e+003, 2.003554e+002
1.066612e+003, 2.001681e+002
1.067094e+003, 2.002975e+002
1.067576e+003, 2.001378e+002
1.068059e+003, 1.998452e+002
1.068541e+003, 2.006776e+002
1.069023e+003, 2.024599e+002
1.069505e+003, 2.036490e+002
1.069987e+003, 2.027923e+002
1.070469e+003, 2.016610e+002
1.070951e+003, 2.011092e+002
1.071433e+003, 2.009441e+002
1.071916e+003, 2.008024e+002
1.072398e+003, 2.006710e+002
1.072880e+003, 2.007485e+002
1.073362e+003, 2.011072e+002
1.073844e+003, 2.013753e+002
1.074326e+003, 2.008755e+002
1.074808e+003, 2.002858e+002
1.075290e+003, 2.005222e+002
1.075772e+003, 2.016607e+002
1.076255e+003, 2.021030e+002
1.076737e+003, 2.013875e+002
1.077219e+003, 2.008719e+002
1.077701e+003, 2.011169e+002
1.078183e+003, 2.016308e+002
1.078665e+003, 2.013598e+002
1.079147e+003, 2.006053e+002
1.079629e+003, 2.000485e+002
1.080111e+003, 1.998504e+002
1.080594e+003, 1.999058e+002
1.081076e+003, 2.005677e+002
1.081558e+003, 2.010865e+002
1.082040e+003, 2.009047e+002
1.082522e+003, 2.001240e+002
1.083004e+003, 1.998437e+002
1.083486e+003, 2.000235e+002
1.083968e+003, 2.003132e+002
1.084450e+003, 2.006709e+002
1.084933e+003, 2.009125e+002
1.085415e+003, 2.007956e+002
1.085897e+003, 2.005373e+002
1.086379e+003, 2.005077e+002
1.086861e+003, 2.008135e+002
1.087343e+003, 2.009275e+002
1.087825e+003, 2.008041e+002
1.088307e+003, 2.006512e+002
1.088790e+003, 2.007929e+002
1.089272e+003, 2.009149e+002
1.089754e+003, 2.003336e+002
1.090236e+003, 1.992717e+002
1.090718e+003, 1.990869e+002
1.091200e+003, 2.008058e+002
1.091682e+003, 2.019410e+002
1.092164e+003, 2.019163e+002
1.092646e+003, 2.014236e+002
1.093129e+003, 2.016820e+002
1.093611e+003, 2.022821e+002
1.094093e+003, 2.020527e+002
1.094575e+003, 2.007466e+002
1.095057e+003, 1.997293e+002
1.095539e+003, 1.996989e+002
1.096021e+003, 2.000471e+002
1.096503e+003, 2.006403e+002
1.096986e+003, 2.013458e+002
1.097468e+003, 2.014367e+002
1.097950e+003, 2.010512e+002
1.098432e+003, 2.015249e+002
1.098914e+003, 2.038224e+002
1.099396e+003, 2.056294e+002
1.099878e+003, 2.045970e+002
1.100360e+003, 2.026937e+002
1.100843e+003, 2.019350e+002
1.101325e+003, 2.025095e+002
1.101807e+003, 2.026738e+002
1.102289e+003, 2.023879e+002
1.102771e+003, 2.021329e+002
1.103253e+003, 2.021847e+002
1.103735e+003, 2.024081e+002
1.104217e+003, 2.027468e+002
1.104699e+003, 2.031152e+002
1.105182e+003, 2.033496e+002
1.105664e+003, 2.033140e+002
1.106146e+003, 2.033045e+002
1.106628e+003, 2.032686e+002
1.107110e+003, 2.034178e+002
1.107592e+003, 2.041535e+002
1.108074e+003, 2.051273e+002
1.108556e+003, 2.055467e+002
1.109038e+003, 2.054981e+002
1.109521e+003, 2.056011e+002
1.110003e+003, 2.063593e+002
1.110485e+003, 2.069398e+002
1.110967e+003, 2.071606e+002
1.111449e+003, 2.071453e+002
1.111931e+003, 2.070085e+002
1.112413e+003, 2.067917e+002
1.112895e+003, 2.066821e+002
1.113377e+003, 2.067017e+002
1.113860e+003, 2.068080e+002
1.114342e+003, 2.069366e+002
1.114824e+003, 2.071980e+002
1.115306e+003, 2.078008e+002
1.115788e+003, 2.085483e+002
1.116270e+003, 2.087005e+002
1.116752e+003, 2.082716e+002
1.117234e+003, 2.079672e+002
1.117717e+003, 2.080129e+002
1.118199e+003, 2.080292e+002
1.118681e+003, 2.076880e+002
1.119163e+003, 2.071490e+002
1.119645e+003, 2.064648e+002
1.120127e+003, 2.056289e+002
1.120609e+003, 2.052236e+002
1.121091e+003, 2.053226e+002
1.121573e+003, 2.053689e+002
1.122056e+003, 2.050883e+002
1.122538e+003, 2.046977e+002
1.123020e+003, 2.043881e+002
1.123502e+003, 2.041853e+002
1.123984e+003, 2.041519e+002
1.124466e+003, 2.044778e+002
1.124948e+003, 2.045295e+002
1.125430e+003, 2.042160e+002
1.125913e+003, 2.038551e+002
1.126395e+003, 2.036730e+002
1.126877e+003, 2.035903e+002
1.127359e+003, 2.034222e+002
1.127841e+003, 2.031987e+002
1.128323e+003, 2.030000e+002
1.128805e+003, 2.029298e+002
1.129287e+003, 2.027502e+002
1.129770e+003, 2.022236e+002
1.130252e+003, 2.018845e+002
1.130734e+003, 2.025468e+002
1.131216e+003, 2.038430e+002
1.131698e+003, 2.042158e+002
1.132180e+003, 2.037036e+002
1.132662e+003, 2.030847e+002
1.133144e+003, 2.024281e+002
1.133626e+003, 2.021656e+002
1.134109e+003, 2.026638e+002
1.134591e+003, 2.034422e+002
1.135073e+003, 2.038020e+002
1.135555e+003, 2.037601e+002
1.136037e+003, 2.034838e+002
1.136519e+003, 2.029834e+002
1.137001e+003, 2.025854e+002
1.137483e+003, 2.026203e+002
1.137965e+003, 2.027467e+002
1.138448e+003, 2.027673e+002
1.138930e+003, 2.027053e+002
1.139412e+003, 2.026152e+002
1.139894e+003, 2.024941e+002
1.140376e+003, 2.024903e+002
1.140858e+003, 2.026689e+002
1.141340e+003, 2.028014e+002
1.141822e+003, 2.024927e+002
1.142304e+003, 2.021726e+002
1.142787e+003, 2.023251e+002
1.143269e+003, 2.029683e+002
1.143751e+003, 2.033230e+002
1.144233e+003, 2.033396e+002
1.144715e+003, 2.032813e+002
1.145197e+003, 2.031694e+002
1.145679e+003, 2.031682e+002
1.146161e+003, 2.037168e+002
1.146644e+003, 2.043916e+002
1.147126e+003, 2.045707e+002
1.147608e+003, 2.039183e+002
1.148090e+003, 2.037249e+002
1.148572e+003, 2.041753e+002
1.149054e+003, 2.045580e+002
1.149536e+003, 2.044780e+002
1.150018e+003, 2.041799e+002
1.150500e+003, 2.038055e+002
1.150983e+003, 2.036054e+002
1.151465e+003, 2.041480e+002
1.151947e+003, 2.063951e+002
1.152429e+003, 2.076174e+002
1.152911e+003, 2.073161e+002
1.153393e+003, 2.066968e+002
1.153875e+003, 2.065980e+002
1.154357e+003, 2.068045e+002
1.154840e+003, 2.067036e+002
1.155322e+003, 2.063934e+002
1.155804e+003, 2.061917e+002
1.156286e+003, 2.062148e+002
1.156768e+003, 2.063935e+002
1.157250e+003, 2.068253e+002
1.157732e+003, 2.072262e+002
1.158214e+003, 2.072827e+002
1.158697e+003, 2.070805e+002
1.159179e+003, 2.069821e+002
1.159661e+003, 2.069819e+002
1.160143e+003, 2.069889e+002
1.160625e+003, 2.069349e+002
1.161107e+003, 2.069102e+002
1.161589e+003, 2.069556e+002
1.162071e+003, 2.070255e+002
1.162553e+003, 2.071601e+002
1.163036e+003, 2.072989e+002
1.163518e+003, 2.068824e+002
1.164000e+003, 2.059121e+002
1.164482e+003, 2.051166e+002
1.164964e+003, 2.051615e+002
1.165446e+003, 2.052403e+002
1.165928e+003, 2.048574e+002
1.166410e+003, 2.043259e+002
1.166892e+003, 2.043115e+002
1.167375e+003, 2.047686e+002
1.167857e+003, 2.050270e+002
1.168339e+003, 2.050005e+002
1.168821e+003, 2.047791e+002
1.169303e+003, 2.041227e+002
1.169785e+003, 2.035815e+002
1.170267e+003, 2.036228e+002
1.170749e+003, 2.040386e+002
1.171231e+003, 2.043140e+002
1.171714e+003, 2.044481e+002
1.172196e+003, 2.042789e+002
1.172678e+003, 2.036999e+002
1.173160e+003, 2.032927e+002
1.173642e+003, 2.037060e+002
1.174124e+003, 2.043720e+002
1.174606e+003, 2.049381e+002
1.175088e+003, 2.053629e+002
1.175571e+003, 2.053372e+002
1.176053e+003, 2.048315e+002
1.176535e+003, 2.044923e+002
1.177017e+003, 2.045144e+002
1.177499e+003, 2.047112e+002
1.177981e+003, 2.050568e+002
1.178463e+003, 2.053791e+002
1.178945e+003, 2.054935e+002
1.179427e+003, 2.053939e+002
1.179910e+003, 2.052007e+002
1.180392e+003, 2.048796e+002
1.180874e+003, 2.048091e+002
1.181356e+003, 2.052180e+002
1.181838e+003, 2.057252e+002
1.182320e+003, 2.060174e+002
1.182802e+003, 2.061237e+002
1.183284e+003, 2.060452e+002
1.183767e+003, 2.057631e+002
1.184249e+003, 2.054536e+002
1.184731e+003, 2.050757e+002
1.185213e+003, 2.049728e+002
1.185695e+003, 2.055156e+002
1.186177e+003, 2.060914e+002
1.186659e+003, 2.059153e+002
1.187141e+003, 2.053441e+002
1.187624e+003, 2.048845e+002
1.188106e+003, 2.046397e+002
1.188588e+003, 2.043375e+002
1.189070e+003, 2.039428e+002
1.189552e+003, 2.037274e+002
1.190034e+003, 2.040245e+002
1.190516e+003, 2.043979e+002
1.190998e+003, 2.040588e+002
1.191480e+003, 2.034855e+002
1.191963e+003, 2.035802e+002
1.192445e+003, 2.050806e+002
1.192927e+003, 2.055611e+002
1.193409e+003, 2.048218e+002
1.193891e+003, 2.039641e+002
1.194373e+003, 2.037074e+002
1.194855e+003, 2.037879e+002
1.195337e+003, 2.039321e+002
1.195819e+003, 2.041286e+002
1.196302e+003, 2.043699e+002
1.196784e+003, 2.048044e+002
1.197266e+003, 2.048662e+002
1.197748e+003, 2.044411e+002
1.198230e+003, 2.040825e+002
1.198712e+003, 2.044206e+002
1.199194e+003, 2.049577e+002
1.199676e+003, 2.049760e+002
1.200158e+003, 2.046375e+002
1.200641e+003, 2.044166e+002
1.201123e+003, 2.045502e+002
1.201605e+003, 2.043579e+002
1.202087e+003, 2.036817e+002
1.202569e+003, 2.031877e+002
1.203051e+003, 2.038873e+002
1.203533e+003, 2.048513e+002
1.204015e+003, 2.046027e+002
1.204498e+003, 2.035116e+002
1.204980e+003, 2.030587e+002
1.205462e+003, 2.039059e+002
1.205944e+003, 2.042155e+002
1.206426e+003, 2.037175e+002
1.206908e+003, 2.031247e+002
1.207390e+003, 2.031089e+002
1.207872e+003, 2.034361e+002
1.208354e+003, 2.040882e+002
1.208837e+003, 2.048635e+002
1.209319e+003, 2.048203e+002
1.209801e+003, 2.033694e+002
1.210283e+003, 2.024776e+002
1.210765e+003, 2.024419e+002
1.211247e+003, 2.027215e+002
1.211729e+003, 2.027796e+002
1.212211e+003, 2.027924e+002
1.212694e+003, 2.030466e+002
1.213176e+003, 2.034923e+002
1.213658e+003, 2.037154e+002
1.214140e+003, 2.035468e+002
1.214622e+003, 2.036417e+002
1.215104e+003, 2.041847e+002
1.215586e+003, 2.046360e+002
1.216068e+003, 2.043246e+002
1.216551e+003, 2.036519e+002
1.217033e+003, 2.029503e+002
1.217515e+003, 2.023066e+002
1.217997e+003, 2.021538e+002
1.218479e+003, 2.026995e+002
1.218961e+003, 2.029730e+002
1.219443e+003, 2.027262e+002
1.219925e+003, 2.025345e+002
1.220407e+003, 2.033667e+002
1.220890e+003, 2.043847e+002
1.221372e+003, 2.044920e+002
1.221854e+003, 2.037293e+002
1.222336e+003, 2.034107e+002
1.222818e+003, 2.037379e+002
1.223300e+003, 2.038310e+002
1.223782e+003, 2.034637e+002
1.224264e+003, 2.030764e+002
1.224746e+003, 2.033336e+002
1.225229e+003, 2.036976e+002
1.225711e+003, 2.034513e+002
1.226193e+003, 2.026516e+002
1.226675e+003, 2.025065e+002
1.227157e+003, 2.031917e+002
1.227639e+003, 2.036001e+002
1.228121e+003, 2.034551e+002
1.228603e+003, 2.031793e+002
1.229085e+003, 2.031372e+002
1.229568e+003, 2.032453e+002
1.230050e+003, 2.035988e+002
1.230532e+003, 2.040934e+002
1.231014e+003, 2.037835e+002
1.231496e+003, 2.024965e+002
1.231978e+003, 2.019810e+002
1.232460e+003, 2.027446e+002
1.232942e+003, 2.038251e+002
1.233425e+003, 2.045605e+002
1.233907e+003, 2.049899e+002
1.234389e+003, 2.050984e+002
1.234871e+003, 2.049244e+002
1.235353e+003, 2.045194e+002
1.235835e+003, 2.038577e+002
1.236317e+003, 2.037714e+002
1.236799e+003, 2.046013e+002
1.237281e+003, 2.052750e+002
1.237764e+003, 2.045401e+002
1.238246e+003, 2.035776e+002
1.238728e+003, 2.034535e+002
1.239210e+003, 2.039395e+002
1.239692e+003, 2.040176e+002
1.240174e+003, 2.037033e+002
1.240656e+003, 2.034452e+002
1.241138e+003, 2.033618e+002
1.241621e+003, 2.032826e+002
1.242103e+003, 2.028780e+002
1.242585e+003, 2.026434e+002
1.243067e+003, 2.029853e+002
1.243549e+003, 2.037312e+002
1.244031e+003, 2.043567e+002
1.244513e+003, 2.048447e+002
1.244995e+003, 2.049542e+002
1.245478e+003, 2.045528e+002
1.245960e+003, 2.042607e+002
1.246442e+003, 2.047323e+002
1.246924e+003, 2.051083e+002
1.247406e+003, 2.048657e+002
1.247888e+003, 2.042327e+002
1.248370e+003, 2.038465e+002
1.248852e+003, 2.036978e+002
1.249334e+003, 2.037716e+002
1.249817e+003, 2.040923e+002
1.250299e+003, 2.044560e+002
1.250781e+003, 2.050699e+002
1.251263e+003, 2.052977e+002
1.251745e+003, 2.047122e+002
1.252227e+003, 2.037625e+002
1.252709e+003, 2.035998e+002
1.253191e+003, 2.039909e+002
1.253673e+003, 2.042193e+002
1.254156e+003, 2.040957e+002
1.254638e+003, 2.041958e+002
1.255120e+003, 2.050846e+002
1.255602e+003, 2.056189e+002
1.256084e+003, 2.052954e+002
1.256566e+003, 2.045699e+002
1.257048e+003, 2.042532e+002
1.257530e+003, 2.042573e+002
1.258012e+003, 2.044456e+002
1.258495e+003, 2.048112e+002
1.258977e+003, 2.051499e+002
1.259459e+003, 2.054104e+002
1.259941e+003, 2.056985e+002
1.260423e+003, 2.060953e+002
1.260905e+003, 2.064296e+002
1.261387e+003, 2.063047e+002
1.261869e+003, 2.060020e+002
1.262352e+003, 2.059925e+002
1.262834e+003, 2.063690e+002
1.263316e+003, 2.064844e+002
1.263798e+003, 2.062457e+002
1.264280e+003, 2.059743e+002
1.264762e+003, 2.057444e+002
1.265244e+003, 2.055907e+002
1.265726e+003, 2.055789e+002
1.266208e+003, 2.056496e+002
1.266691e+003, 2.057204e+002
1.267173e+003, 2.057934e+002
1.267655e+003, 2.060779e+002
1.268137e+003, 2.066451e+002
1.268619e+003, 2.067707e+002
1.269101e+003, 2.061531e+002
1.269583e+003, 2.055357e+002
1.270065e+003, 2.057512e+002
1.270548e+003, 2.061742e+002
1.271030e+003, 2.061750e+002
1.271512e+003, 2.058746e+002
1.271994e+003, 2.059638e+002
1.272476e+003, 2.064273e+002
1.272958e+003, 2.064741e+002
1.273440e+003, 2.058665e+002
1.273922e+003, 2.053191e+002
1.274405e+003, 2.053836e+002
1.274887e+003, 2.056517e+002
1.275369e+003, 2.059749e+002
1.275851e+003, 2.062561e+002
1.276333e+003, 2.060842e+002
1.276815e+003, 2.055969e+002
1.277297e+003, 2.056125e+002
1.277779e+003, 2.063265e+002
1.278261e+003, 2.068094e+002
1.278744e+003, 2.062217e+002
1.279226e+003, 2.057428e+002
1.279708e+003, 2.058168e+002
1.280190e+003, 2.062102e+002
1.280672e+003, 2.065417e+002
1.281154e+003, 2.068132e+002
1.281636e+003, 2.070744e+002
1.282118e+003, 2.073320e+002
1.282600e+003, 2.073598e+002
1.283083e+003, 2.068398e+002
1.283565e+003, 2.065645e+002
1.284047e+003, 2.068323e+002
1.284529e+003, 2.071342e+002
1.285011e+003, 2.065396e+002
1.285493e+003, 2.056096e+002
1.285975e+003, 2.052281e+002
1.286457e+003, 2.054532e+002
1.286939e+003, 2.057578e+002
1.287422e+003, 2.061785e+002
1.287904e+003, 2.063127e+002
1.288386e+003, 2.060204e+002
1.288868e+003, 2.057307e+002
1.289350e+003, 2.060229e+002
1.289832e+003, 2.064602e+002
1.290314e+003, 2.066387e+002
1.290796e+003, 2.065416e+002
1.291279e+003, 2.062630e+002
1.291761e+003, 2.057590e+002
1.292243e+003, 2.055660e+002
1.292725e+003, 2.057838e+002
1.293207e+003, 2.058785e+002
1.293689e+003, 2.051406e+002
1.294171e+003, 2.044091e+002
1.294653e+003, 2.043165e+002
1.295135e+003, 2.045893e+002
1.295618e+003, 2.047968e+002
1.296100e+003, 2.049555e+002
1.296582e+003, 2.052864e+002
1.297064e+003, 2.058154e+002
1.297546e+003, 2.062526e+002
1.298028e+003, 2.063156e+002
1.298510e+003, 2.063143e+002
1.298992e+003, 2.064075e+002
1.299475e+003, 2.064584e+002
1.299957e+003, 2.061205e+002
1.300439e+003, 2.056349e+002
1.300921e+003, 2.058299e+002
1.301403e+003, 2.066158e+002
1.301885e+003, 2.071540e+002
##END=



