##NAMES=Nelenite
##RRUFFID=R120148
##IDEAL CHEMISTRY=Mn^2+^_16_As^3+^_3_Si_12_O_36_(OH)_17_
##LOCALITY=Huanggang mine, Inner Mongolia, China
##OWNER=RRUFF
##SOURCE=James Zigras
##DESCRIPTION=Stacks of brown hexagonal plates, associated with sphalerite and calcite
##STATUS=The identification of this mineral is confirmed by single-crystal X-ray diffraction and chemical analysis.
##URL=rruff.info/R120148
##MEASURED CHEMISTRY=(Mn^2+^_9.44_Fe^2+^_6.02_Mg_0.48_Ca_0.11_)As^3+^_2.95_Si_12_O_36_[(OH)_16.87_Cl_0.08_]
8.975323e+001, 0.000000e+000
9.023535e+001, 2.750856e+002
9.071747e+001, 2.746927e+002
9.119958e+001, 2.735023e+002
9.168170e+001, 2.762150e+002
9.216382e+001, 2.771776e+002
9.264594e+001, 2.756423e+002
9.312805e+001, 2.725879e+002
9.361017e+001, 2.689966e+002
9.409229e+001, 2.646476e+002
9.457440e+001, 2.578431e+002
9.505651e+001, 2.531944e+002
9.553863e+001, 2.529248e+002
9.602074e+001, 2.536450e+002
9.650286e+001, 2.519993e+002
9.698498e+001, 2.463795e+002
9.746709e+001, 2.377470e+002
9.794921e+001, 2.313105e+002
9.843133e+001, 2.279324e+002
9.891344e+001, 2.250462e+002
9.939556e+001, 2.221311e+002
9.987768e+001, 2.191564e+002
1.003598e+002, 2.161031e+002
1.008419e+002, 2.128048e+002
1.013240e+002, 2.094496e+002
1.018061e+002, 2.066825e+002
1.022883e+002, 2.049074e+002
1.027704e+002, 2.034002e+002
1.032525e+002, 2.013108e+002
1.037346e+002, 1.984216e+002
1.042167e+002, 1.959597e+002
1.046988e+002, 1.952221e+002
1.051810e+002, 1.953526e+002
1.056631e+002, 1.950938e+002
1.061452e+002, 1.934875e+002
1.066273e+002, 1.909829e+002
1.071094e+002, 1.895057e+002
1.075915e+002, 1.898280e+002
1.080737e+002, 1.902979e+002
1.085558e+002, 1.902655e+002
1.090379e+002, 1.898044e+002
1.095200e+002, 1.891681e+002
1.100021e+002, 1.885075e+002
1.104842e+002, 1.877536e+002
1.109664e+002, 1.873664e+002
1.114485e+002, 1.875470e+002
1.119306e+002, 1.878915e+002
1.124127e+002, 1.883704e+002
1.128948e+002, 1.888995e+002
1.133769e+002, 1.892713e+002
1.138591e+002, 1.891801e+002
1.143412e+002, 1.883872e+002
1.148233e+002, 1.874636e+002
1.153054e+002, 1.862755e+002
1.157875e+002, 1.850174e+002
1.162696e+002, 1.838014e+002
1.167517e+002, 1.826479e+002
1.172339e+002, 1.816821e+002
1.177160e+002, 1.813090e+002
1.181981e+002, 1.817404e+002
1.186802e+002, 1.821518e+002
1.191623e+002, 1.822422e+002
1.196444e+002, 1.821171e+002
1.201266e+002, 1.820960e+002
1.206087e+002, 1.824079e+002
1.210908e+002, 1.828279e+002
1.215729e+002, 1.829426e+002
1.220550e+002, 1.827142e+002
1.225371e+002, 1.822461e+002
1.230193e+002, 1.815269e+002
1.235014e+002, 1.805131e+002
1.239835e+002, 1.796036e+002
1.244656e+002, 1.788161e+002
1.249477e+002, 1.783034e+002
1.254298e+002, 1.783131e+002
1.259120e+002, 1.790352e+002
1.263941e+002, 1.802025e+002
1.268762e+002, 1.812759e+002
1.273583e+002, 1.824698e+002
1.278404e+002, 1.831499e+002
1.283225e+002, 1.830447e+002
1.288047e+002, 1.824333e+002
1.292868e+002, 1.816736e+002
1.297689e+002, 1.809861e+002
1.302510e+002, 1.803585e+002
1.307331e+002, 1.796037e+002
1.312152e+002, 1.789026e+002
1.316974e+002, 1.778790e+002
1.321795e+002, 1.763100e+002
1.326616e+002, 1.743105e+002
1.331437e+002, 1.721372e+002
1.336258e+002, 1.699649e+002
1.341079e+002, 1.677272e+002
1.345901e+002, 1.659849e+002
1.350722e+002, 1.651809e+002
1.355543e+002, 1.644164e+002
1.360364e+002, 1.631352e+002
1.365185e+002, 1.613060e+002
1.370006e+002, 1.593026e+002
1.374828e+002, 1.575383e+002
1.379649e+002, 1.560390e+002
1.384470e+002, 1.547165e+002
1.389291e+002, 1.535959e+002
1.394112e+002, 1.526349e+002
1.398933e+002, 1.518124e+002
1.403755e+002, 1.511480e+002
1.408576e+002, 1.505447e+002
1.413397e+002, 1.498135e+002
1.418218e+002, 1.489590e+002
1.423039e+002, 1.483117e+002
1.427860e+002, 1.481734e+002
1.432681e+002, 1.483915e+002
1.437503e+002, 1.483975e+002
1.442324e+002, 1.479640e+002
1.447145e+002, 1.473862e+002
1.451966e+002, 1.469536e+002
1.456787e+002, 1.466692e+002
1.461608e+002, 1.463755e+002
1.466430e+002, 1.459125e+002
1.471251e+002, 1.452574e+002
1.476072e+002, 1.446475e+002
1.480893e+002, 1.442212e+002
1.485714e+002, 1.437879e+002
1.490535e+002, 1.432298e+002
1.495357e+002, 1.425274e+002
1.500178e+002, 1.417520e+002
1.504999e+002, 1.409815e+002
1.509820e+002, 1.400992e+002
1.514641e+002, 1.394915e+002
1.519462e+002, 1.392762e+002
1.524284e+002, 1.392386e+002
1.529105e+002, 1.392192e+002
1.533926e+002, 1.391572e+002
1.538747e+002, 1.390871e+002
1.543568e+002, 1.390993e+002
1.548389e+002, 1.393684e+002
1.553211e+002, 1.395068e+002
1.558032e+002, 1.393114e+002
1.562853e+002, 1.390300e+002
1.567674e+002, 1.389881e+002
1.572495e+002, 1.393589e+002
1.577316e+002, 1.400285e+002
1.582138e+002, 1.405132e+002
1.586959e+002, 1.406943e+002
1.591780e+002, 1.408548e+002
1.596601e+002, 1.410124e+002
1.601422e+002, 1.411941e+002
1.606243e+002, 1.414307e+002
1.611065e+002, 1.416927e+002
1.615886e+002, 1.420683e+002
1.620707e+002, 1.428383e+002
1.625528e+002, 1.441253e+002
1.630349e+002, 1.456378e+002
1.635170e+002, 1.477598e+002
1.639991e+002, 1.503402e+002
1.644813e+002, 1.517185e+002
1.649634e+002, 1.500763e+002
1.654455e+002, 1.466298e+002
1.659276e+002, 1.443013e+002
1.664097e+002, 1.438750e+002
1.668918e+002, 1.442961e+002
1.673740e+002, 1.444645e+002
1.678561e+002, 1.443471e+002
1.683382e+002, 1.441320e+002
1.688203e+002, 1.439219e+002
1.693024e+002, 1.436831e+002
1.697845e+002, 1.433642e+002
1.702667e+002, 1.429590e+002
1.707488e+002, 1.424560e+002
1.712309e+002, 1.418130e+002
1.717130e+002, 1.409642e+002
1.721951e+002, 1.400887e+002
1.726772e+002, 1.392451e+002
1.731594e+002, 1.384223e+002
1.736415e+002, 1.375762e+002
1.741236e+002, 1.366314e+002
1.746057e+002, 1.356509e+002
1.750878e+002, 1.350469e+002
1.755699e+002, 1.351732e+002
1.760521e+002, 1.353134e+002
1.765342e+002, 1.352392e+002
1.770163e+002, 1.350424e+002
1.774984e+002, 1.349105e+002
1.779805e+002, 1.349951e+002
1.784626e+002, 1.352990e+002
1.789448e+002, 1.354874e+002
1.794269e+002, 1.354332e+002
1.799090e+002, 1.353892e+002
1.803911e+002, 1.352855e+002
1.808732e+002, 1.352333e+002
1.813553e+002, 1.354960e+002
1.818375e+002, 1.363512e+002
1.823196e+002, 1.378999e+002
1.828017e+002, 1.390241e+002
1.832838e+002, 1.394915e+002
1.837659e+002, 1.398447e+002
1.842480e+002, 1.402467e+002
1.847301e+002, 1.407493e+002
1.852123e+002, 1.414409e+002
1.856944e+002, 1.424488e+002
1.861765e+002, 1.438372e+002
1.866586e+002, 1.449453e+002
1.871407e+002, 1.453170e+002
1.876228e+002, 1.457285e+002
1.881050e+002, 1.468050e+002
1.885871e+002, 1.485963e+002
1.890692e+002, 1.506658e+002
1.895513e+002, 1.526799e+002
1.900334e+002, 1.546237e+002
1.905155e+002, 1.564154e+002
1.909977e+002, 1.577416e+002
1.914798e+002, 1.590413e+002
1.919619e+002, 1.608721e+002
1.924440e+002, 1.633598e+002
1.929261e+002, 1.660700e+002
1.934082e+002, 1.686843e+002
1.938904e+002, 1.712151e+002
1.943725e+002, 1.736336e+002
1.948546e+002, 1.758490e+002
1.953367e+002, 1.779673e+002
1.958188e+002, 1.802378e+002
1.963009e+002, 1.827642e+002
1.967831e+002, 1.852546e+002
1.972652e+002, 1.872867e+002
1.977473e+002, 1.890876e+002
1.982294e+002, 1.912348e+002
1.987115e+002, 1.940781e+002
1.991936e+002, 1.975378e+002
1.996758e+002, 2.012573e+002
2.001579e+002, 2.053423e+002
2.006400e+002, 2.095769e+002
2.011221e+002, 2.136730e+002
2.016042e+002, 2.177658e+002
2.020863e+002, 2.221589e+002
2.025685e+002, 2.273110e+002
2.030506e+002, 2.331496e+002
2.035327e+002, 2.382650e+002
2.040148e+002, 2.425326e+002
2.044969e+002, 2.460489e+002
2.049790e+002, 2.490799e+002
2.054612e+002, 2.514311e+002
2.059433e+002, 2.527062e+002
2.064254e+002, 2.526292e+002
2.069075e+002, 2.512085e+002
2.073896e+002, 2.482423e+002
2.078717e+002, 2.428736e+002
2.083539e+002, 2.366207e+002
2.088360e+002, 2.295887e+002
2.093181e+002, 2.220076e+002
2.098002e+002, 2.142107e+002
2.102823e+002, 2.064107e+002
2.107644e+002, 1.985922e+002
2.112466e+002, 1.913490e+002
2.117287e+002, 1.848974e+002
2.122108e+002, 1.787694e+002
2.126929e+002, 1.726618e+002
2.131750e+002, 1.666785e+002
2.136571e+002, 1.611083e+002
2.141393e+002, 1.562387e+002
2.146214e+002, 1.521293e+002
2.151035e+002, 1.483715e+002
2.155856e+002, 1.449898e+002
2.160677e+002, 1.418361e+002
2.165498e+002, 1.387778e+002
2.170320e+002, 1.358521e+002
2.175141e+002, 1.331902e+002
2.179962e+002, 1.309426e+002
2.184783e+002, 1.291618e+002
2.189604e+002, 1.275158e+002
2.194425e+002, 1.262003e+002
2.199247e+002, 1.248383e+002
2.204068e+002, 1.230043e+002
2.208889e+002, 1.207741e+002
2.213710e+002, 1.187946e+002
2.218531e+002, 1.176876e+002
2.223352e+002, 1.175329e+002
2.228174e+002, 1.171524e+002
2.232995e+002, 1.163607e+002
2.237816e+002, 1.154814e+002
2.242637e+002, 1.147657e+002
2.247458e+002, 1.142219e+002
2.252279e+002, 1.137015e+002
2.257100e+002, 1.131006e+002
2.261922e+002, 1.124169e+002
2.266743e+002, 1.116758e+002
2.271564e+002, 1.107008e+002
2.276385e+002, 1.097808e+002
2.281206e+002, 1.092296e+002
2.286027e+002, 1.090695e+002
2.290849e+002, 1.090297e+002
2.295670e+002, 1.089886e+002
2.300491e+002, 1.089185e+002
2.305312e+002, 1.087418e+002
2.310133e+002, 1.083417e+002
2.314954e+002, 1.078869e+002
2.319776e+002, 1.076220e+002
2.324597e+002, 1.075879e+002
2.329418e+002, 1.074551e+002
2.334239e+002, 1.068781e+002
2.339060e+002, 1.060856e+002
2.343881e+002, 1.054261e+002
2.348703e+002, 1.050492e+002
2.353524e+002, 1.047890e+002
2.358345e+002, 1.044263e+002
2.363166e+002, 1.039466e+002
2.367987e+002, 1.034126e+002
2.372808e+002, 1.028065e+002
2.377630e+002, 1.021769e+002
2.382451e+002, 1.015700e+002
2.387272e+002, 1.009950e+002
2.392093e+002, 1.004553e+002
2.396914e+002, 9.993862e+001
2.401735e+002, 9.940989e+001
2.406557e+002, 9.901710e+001
2.411378e+002, 9.890224e+001
2.416199e+002, 9.890855e+001
2.421020e+002, 9.890412e+001
2.425841e+002, 9.884801e+001
2.430662e+002, 9.875328e+001
2.435484e+002, 9.865205e+001
2.440305e+002, 9.857114e+001
2.445126e+002, 9.840667e+001
2.449947e+002, 9.807988e+001
2.454768e+002, 9.769197e+001
2.459589e+002, 9.732336e+001
2.464410e+002, 9.700050e+001
2.469232e+002, 9.670482e+001
2.474053e+002, 9.638685e+001
2.478874e+002, 9.600211e+001
2.483695e+002, 9.570972e+001
2.488516e+002, 9.561466e+001
2.493337e+002, 9.556505e+001
2.498159e+002, 9.544197e+001
2.502980e+002, 9.520943e+001
2.507801e+002, 9.492284e+001
2.512622e+002, 9.468094e+001
2.517443e+002, 9.453594e+001
2.522264e+002, 9.431509e+001
2.527086e+002, 9.377902e+001
2.531907e+002, 9.331457e+001
2.536728e+002, 9.326658e+001
2.541549e+002, 9.369471e+001
2.546370e+002, 9.431041e+001
2.551191e+002, 9.466756e+001
2.556013e+002, 9.461335e+001
2.560834e+002, 9.461906e+001
2.565655e+002, 9.469609e+001
2.570476e+002, 9.482224e+001
2.575297e+002, 9.504045e+001
2.580118e+002, 9.533006e+001
2.584940e+002, 9.556653e+001
2.589761e+002, 9.554717e+001
2.594582e+002, 9.506133e+001
2.599403e+002, 9.486459e+001
2.604224e+002, 9.504101e+001
2.609045e+002, 9.537255e+001
2.613867e+002, 9.573382e+001
2.618688e+002, 9.610869e+001
2.623509e+002, 9.655988e+001
2.628330e+002, 9.720044e+001
2.633151e+002, 9.818623e+001
2.637972e+002, 9.876015e+001
2.642794e+002, 9.868072e+001
2.647615e+002, 9.847839e+001
2.652436e+002, 9.836991e+001
2.657257e+002, 9.840406e+001
2.662078e+002, 9.856747e+001
2.666899e+002, 9.883635e+001
2.671721e+002, 9.918686e+001
2.676542e+002, 9.984702e+001
2.681363e+002, 1.012292e+002
2.686184e+002, 1.024844e+002
2.691005e+002, 1.031320e+002
2.695826e+002, 1.032442e+002
2.700648e+002, 1.031821e+002
2.705469e+002, 1.032038e+002
2.710290e+002, 1.033037e+002
2.715111e+002, 1.036951e+002
2.719932e+002, 1.047484e+002
2.724753e+002, 1.056656e+002
2.729575e+002, 1.060663e+002
2.734396e+002, 1.060410e+002
2.739217e+002, 1.058706e+002
2.744038e+002, 1.057252e+002
2.748859e+002, 1.056064e+002
2.753680e+002, 1.055431e+002
2.758501e+002, 1.056453e+002
2.763322e+002, 1.056729e+002
2.768144e+002, 1.054783e+002
2.772965e+002, 1.051463e+002
2.777786e+002, 1.048690e+002
2.782607e+002, 1.047540e+002
2.787428e+002, 1.047670e+002
2.792249e+002, 1.047660e+002
2.797071e+002, 1.047680e+002
2.801892e+002, 1.047403e+002
2.806713e+002, 1.047301e+002
2.811534e+002, 1.046786e+002
2.816355e+002, 1.044409e+002
2.821176e+002, 1.039282e+002
2.825998e+002, 1.032816e+002
2.830819e+002, 1.028855e+002
2.835640e+002, 1.028338e+002
2.840461e+002, 1.028036e+002
2.845282e+002, 1.027682e+002
2.850103e+002, 1.027062e+002
2.854925e+002, 1.025908e+002
2.859746e+002, 1.024146e+002
2.864567e+002, 1.021703e+002
2.869388e+002, 1.017942e+002
2.874209e+002, 1.011779e+002
2.879030e+002, 1.008053e+002
2.883852e+002, 1.009213e+002
2.888673e+002, 1.012562e+002
2.893494e+002, 1.015142e+002
2.898315e+002, 1.016306e+002
2.903136e+002, 1.016293e+002
2.907957e+002, 1.015220e+002
2.912779e+002, 1.012997e+002
2.917600e+002, 1.010262e+002
2.922421e+002, 1.006396e+002
2.927242e+002, 1.002419e+002
2.932063e+002, 9.997311e+001
2.936884e+002, 9.984594e+001
2.941706e+002, 9.967673e+001
2.946527e+002, 9.924362e+001
2.951348e+002, 9.854842e+001
2.956169e+002, 9.807344e+001
2.960990e+002, 9.783865e+001
2.965811e+002, 9.782767e+001
2.970633e+002, 9.814130e+001
2.975454e+002, 9.874357e+001
2.980275e+002, 9.930382e+001
2.985096e+002, 9.958471e+001
2.989917e+002, 9.961163e+001
2.994738e+002, 9.966067e+001
2.999560e+002, 9.964927e+001
3.004381e+002, 9.973228e+001
3.009202e+002, 1.000502e+002
3.014023e+002, 1.005612e+002
3.018844e+002, 1.010654e+002
3.023665e+002, 1.014335e+002
3.028487e+002, 1.017482e+002
3.033308e+002, 1.022516e+002
3.038129e+002, 1.030043e+002
3.042950e+002, 1.038238e+002
3.047771e+002, 1.046253e+002
3.052592e+002, 1.054316e+002
3.057414e+002, 1.063404e+002
3.062235e+002, 1.074419e+002
3.067056e+002, 1.085605e+002
3.071877e+002, 1.092816e+002
3.076698e+002, 1.094950e+002
3.081519e+002, 1.098370e+002
3.086341e+002, 1.105784e+002
3.091162e+002, 1.115669e+002
3.095983e+002, 1.125134e+002
3.100804e+002, 1.133195e+002
3.105625e+002, 1.141692e+002
3.110446e+002, 1.153978e+002
3.115268e+002, 1.170313e+002
3.120089e+002, 1.184311e+002
3.124910e+002, 1.193484e+002
3.129731e+002, 1.200228e+002
3.134552e+002, 1.206955e+002
3.139373e+002, 1.213943e+002
3.144195e+002, 1.221871e+002
3.149016e+002, 1.232138e+002
3.153837e+002, 1.244482e+002
3.158658e+002, 1.254719e+002
3.163479e+002, 1.260305e+002
3.168300e+002, 1.265218e+002
3.173121e+002, 1.272959e+002
3.177943e+002, 1.283510e+002
3.182764e+002, 1.294474e+002
3.187585e+002, 1.304653e+002
3.192406e+002, 1.313828e+002
3.197227e+002, 1.321827e+002
3.202048e+002, 1.327560e+002
3.206870e+002, 1.333289e+002
3.211691e+002, 1.336889e+002
3.216512e+002, 1.340639e+002
3.221333e+002, 1.355127e+002
3.226154e+002, 1.389695e+002
3.230975e+002, 1.432605e+002
3.235797e+002, 1.452435e+002
3.240618e+002, 1.441729e+002
3.245439e+002, 1.429372e+002
3.250260e+002, 1.422262e+002
3.255081e+002, 1.420860e+002
3.259902e+002, 1.426504e+002
3.264724e+002, 1.440075e+002
3.269545e+002, 1.459272e+002
3.274366e+002, 1.481746e+002
3.279187e+002, 1.507944e+002
3.284008e+002, 1.533835e+002
3.288829e+002, 1.557988e+002
3.293651e+002, 1.581688e+002
3.298472e+002, 1.606494e+002
3.303293e+002, 1.632670e+002
3.308114e+002, 1.659411e+002
3.312935e+002, 1.686590e+002
3.317756e+002, 1.714184e+002
3.322578e+002, 1.739208e+002
3.327399e+002, 1.761752e+002
3.332220e+002, 1.781383e+002
3.337041e+002, 1.797935e+002
3.341862e+002, 1.811277e+002
3.346683e+002, 1.821813e+002
3.351505e+002, 1.830553e+002
3.356326e+002, 1.836363e+002
3.361147e+002, 1.833361e+002
3.365968e+002, 1.815526e+002
3.370789e+002, 1.796350e+002
3.375610e+002, 1.782895e+002
3.380432e+002, 1.772455e+002
3.385253e+002, 1.758555e+002
3.390074e+002, 1.738132e+002
3.394895e+002, 1.712713e+002
3.399716e+002, 1.686015e+002
3.404537e+002, 1.657857e+002
3.409359e+002, 1.629126e+002
3.414180e+002, 1.599797e+002
3.419001e+002, 1.570019e+002
3.423822e+002, 1.540144e+002
3.428643e+002, 1.510387e+002
3.433464e+002, 1.480485e+002
3.438286e+002, 1.450013e+002
3.443107e+002, 1.418363e+002
3.447928e+002, 1.388144e+002
3.452749e+002, 1.358150e+002
3.457570e+002, 1.330675e+002
3.462391e+002, 1.308797e+002
3.467213e+002, 1.292179e+002
3.472034e+002, 1.276292e+002
3.476855e+002, 1.257244e+002
3.481676e+002, 1.234745e+002
3.486497e+002, 1.213825e+002
3.491318e+002, 1.193797e+002
3.496140e+002, 1.175716e+002
3.500961e+002, 1.160670e+002
3.505782e+002, 1.148102e+002
3.510603e+002, 1.136865e+002
3.515424e+002, 1.126503e+002
3.520245e+002, 1.116692e+002
3.525067e+002, 1.105879e+002
3.529888e+002, 1.092020e+002
3.534709e+002, 1.079721e+002
3.539530e+002, 1.070600e+002
3.544351e+002, 1.062927e+002
3.549172e+002, 1.054557e+002
3.553994e+002, 1.044767e+002
3.558815e+002, 1.034477e+002
3.563636e+002, 1.025183e+002
3.568457e+002, 1.017451e+002
3.573278e+002, 1.009634e+002
3.578099e+002, 1.001908e+002
3.582920e+002, 9.939598e+001
3.587741e+002, 9.858876e+001
3.592563e+002, 9.774962e+001
3.597384e+002, 9.680362e+001
3.602205e+002, 9.562017e+001
3.607026e+002, 9.412589e+001
3.611847e+002, 9.312405e+001
3.616668e+002, 9.312375e+001
3.621490e+002, 9.305559e+001
3.626311e+002, 9.234747e+001
3.631132e+002, 9.132348e+001
3.635953e+002, 9.068559e+001
3.640774e+002, 9.089114e+001
3.645595e+002, 9.170613e+001
3.650417e+002, 9.214704e+001
3.655238e+002, 9.220084e+001
3.660059e+002, 9.183279e+001
3.664880e+002, 9.066007e+001
3.669701e+002, 8.928303e+001
3.674522e+002, 8.828693e+001
3.679344e+002, 8.785878e+001
3.684165e+002, 8.775053e+001
3.688986e+002, 8.762208e+001
3.693807e+002, 8.753547e+001
3.698628e+002, 8.724828e+001
3.703449e+002, 8.635144e+001
3.708271e+002, 8.559881e+001
3.713092e+002, 8.534698e+001
3.717913e+002, 8.562123e+001
3.722734e+002, 8.630042e+001
3.727555e+002, 8.743493e+001
3.732376e+002, 8.899465e+001
3.737198e+002, 8.999836e+001
3.742019e+002, 9.013168e+001
3.746840e+002, 9.004655e+001
3.751661e+002, 9.008018e+001
3.756482e+002, 9.003187e+001
3.761303e+002, 8.950457e+001
3.766125e+002, 8.819955e+001
3.770946e+002, 8.655347e+001
3.775767e+002, 8.557320e+001
3.780588e+002, 8.547598e+001
3.785409e+002, 8.543560e+001
3.790230e+002, 8.508411e+001
3.795052e+002, 8.478306e+001
3.799873e+002, 8.487334e+001
3.804694e+002, 8.541817e+001
3.809515e+002, 8.609258e+001
3.814336e+002, 8.654955e+001
3.819157e+002, 8.679581e+001
3.823979e+002, 8.716673e+001
3.828800e+002, 8.789047e+001
3.833621e+002, 8.851624e+001
3.838442e+002, 8.859702e+001
3.843263e+002, 8.829770e+001
3.848084e+002, 8.822264e+001
3.852906e+002, 8.891867e+001
3.857727e+002, 9.002442e+001
3.862548e+002, 9.067934e+001
3.867369e+002, 9.076962e+001
3.872190e+002, 9.080988e+001
3.877011e+002, 9.102881e+001
3.881833e+002, 9.140128e+001
3.886654e+002, 9.193367e+001
3.891475e+002, 9.270602e+001
3.896296e+002, 9.349510e+001
3.901117e+002, 9.405355e+001
3.905938e+002, 9.442117e+001
3.910760e+002, 9.490269e+001
3.915581e+002, 9.564448e+001
3.920402e+002, 9.648769e+001
3.925223e+002, 9.718506e+001
3.930044e+002, 9.771989e+001
3.934865e+002, 9.833804e+001
3.939687e+002, 9.920567e+001
3.944508e+002, 1.001929e+002
3.949329e+002, 1.010439e+002
3.954150e+002, 1.017121e+002
3.958971e+002, 1.024455e+002
3.963792e+002, 1.035651e+002
3.968614e+002, 1.050109e+002
3.973435e+002, 1.061121e+002
3.978256e+002, 1.065869e+002
3.983077e+002, 1.069409e+002
3.987898e+002, 1.075083e+002
3.992719e+002, 1.082413e+002
3.997540e+002, 1.089158e+002
4.002361e+002, 1.093895e+002
4.007183e+002, 1.097797e+002
4.012004e+002, 1.104453e+002
4.016825e+002, 1.115758e+002
4.021646e+002, 1.126031e+002
4.026467e+002, 1.133508e+002
4.031288e+002, 1.139815e+002
4.036110e+002, 1.147027e+002
4.040931e+002, 1.155520e+002
4.045752e+002, 1.163783e+002
4.050573e+002, 1.169880e+002
4.055394e+002, 1.173103e+002
4.060215e+002, 1.177520e+002
4.065037e+002, 1.183481e+002
4.069858e+002, 1.190114e+002
4.074679e+002, 1.196711e+002
4.079500e+002, 1.203631e+002
4.084321e+002, 1.211954e+002
4.089142e+002, 1.222562e+002
4.093964e+002, 1.234864e+002
4.098785e+002, 1.246286e+002
4.103606e+002, 1.255283e+002
4.108427e+002, 1.265378e+002
4.113248e+002, 1.276649e+002
4.118069e+002, 1.289216e+002
4.122891e+002, 1.303491e+002
4.127712e+002, 1.319451e+002
4.132533e+002, 1.336259e+002
4.137354e+002, 1.353042e+002
4.142175e+002, 1.370225e+002
4.146996e+002, 1.385941e+002
4.151818e+002, 1.399311e+002
4.156639e+002, 1.411911e+002
4.161460e+002, 1.425185e+002
4.166281e+002, 1.438229e+002
4.171102e+002, 1.448516e+002
4.175923e+002, 1.454036e+002
4.180745e+002, 1.456115e+002
4.185566e+002, 1.459948e+002
4.190387e+002, 1.467951e+002
4.195208e+002, 1.472168e+002
4.200029e+002, 1.469424e+002
4.204850e+002, 1.462475e+002
4.209672e+002, 1.453046e+002
4.214493e+002, 1.441504e+002
4.219314e+002, 1.429155e+002
4.224135e+002, 1.418143e+002
4.228956e+002, 1.408272e+002
4.233777e+002, 1.394471e+002
4.238599e+002, 1.372845e+002
4.243420e+002, 1.351541e+002
4.248241e+002, 1.338178e+002
4.253062e+002, 1.330590e+002
4.257883e+002, 1.320757e+002
4.262704e+002, 1.303247e+002
4.267526e+002, 1.282488e+002
4.272347e+002, 1.265684e+002
4.277168e+002, 1.253038e+002
4.281989e+002, 1.239566e+002
4.286810e+002, 1.222024e+002
4.291631e+002, 1.202299e+002
4.296453e+002, 1.184828e+002
4.301274e+002, 1.170352e+002
4.306095e+002, 1.156429e+002
4.310916e+002, 1.141049e+002
4.315737e+002, 1.125552e+002
4.320558e+002, 1.112939e+002
4.325380e+002, 1.104230e+002
4.330201e+002, 1.096956e+002
4.335022e+002, 1.088623e+002
4.339843e+002, 1.079169e+002
4.344664e+002, 1.068303e+002
4.349485e+002, 1.055184e+002
4.354307e+002, 1.041341e+002
4.359128e+002, 1.027208e+002
4.363949e+002, 1.013175e+002
4.368770e+002, 1.000066e+002
4.373591e+002, 9.883096e+001
4.378412e+002, 9.779520e+001
4.383234e+002, 9.694056e+001
4.388055e+002, 9.656459e+001
4.392876e+002, 9.598680e+001
4.397697e+002, 9.503511e+001
4.402518e+002, 9.393735e+001
4.407339e+002, 9.293533e+001
4.412160e+002, 9.206822e+001
4.416982e+002, 9.115350e+001
4.421803e+002, 8.992638e+001
4.426624e+002, 8.826907e+001
4.431445e+002, 8.714515e+001
4.436266e+002, 8.691000e+001
4.441087e+002, 8.685368e+001
4.445909e+002, 8.689394e+001
4.450730e+002, 8.694638e+001
4.455551e+002, 8.691234e+001
4.460372e+002, 8.673975e+001
4.465193e+002, 8.646091e+001
4.470014e+002, 8.610194e+001
4.474836e+002, 8.556285e+001
4.479657e+002, 8.524525e+001
4.484478e+002, 8.535285e+001
4.489299e+002, 8.561197e+001
4.494120e+002, 8.586661e+001
4.498941e+002, 8.610583e+001
4.503763e+002, 8.640282e+001
4.508584e+002, 8.685682e+001
4.513405e+002, 8.742346e+001
4.518226e+002, 8.792372e+001
4.523047e+002, 8.838566e+001
4.527868e+002, 8.869576e+001
4.532690e+002, 8.866855e+001
4.537511e+002, 8.847320e+001
4.542332e+002, 8.834122e+001
4.547153e+002, 8.833733e+001
4.551974e+002, 8.837424e+001
4.556795e+002, 8.843920e+001
4.561617e+002, 8.849990e+001
4.566438e+002, 8.839652e+001
4.571259e+002, 8.804648e+001
4.576080e+002, 8.759652e+001
4.580901e+002, 8.727206e+001
4.585722e+002, 8.708015e+001
4.590544e+002, 8.671690e+001
4.595365e+002, 8.590329e+001
4.600186e+002, 8.506060e+001
4.605007e+002, 8.466767e+001
4.609828e+002, 8.464921e+001
4.614649e+002, 8.445414e+001
4.619471e+002, 8.368782e+001
4.624292e+002, 8.254172e+001
4.629113e+002, 8.180062e+001
4.633934e+002, 8.184576e+001
4.638755e+002, 8.176690e+001
4.643576e+002, 8.142613e+001
4.648398e+002, 8.093018e+001
4.653219e+002, 8.037492e+001
4.658040e+002, 7.978356e+001
4.662861e+002, 7.913974e+001
4.667682e+002, 7.840192e+001
4.672503e+002, 7.753304e+001
4.677325e+002, 7.687411e+001
4.682146e+002, 7.669334e+001
4.686967e+002, 7.643686e+001
4.691788e+002, 7.586938e+001
4.696609e+002, 7.515662e+001
4.701430e+002, 7.453468e+001
4.706252e+002, 7.410392e+001
4.711073e+002, 7.384692e+001
4.715894e+002, 7.381230e+001
4.720715e+002, 7.411291e+001
4.725536e+002, 7.413664e+001
4.730357e+002, 7.346391e+001
4.735179e+002, 7.277135e+001
4.740000e+002, 7.248847e+001
4.744821e+002, 7.255092e+001
4.749642e+002, 7.259671e+001
4.754463e+002, 7.232796e+001
4.759284e+002, 7.192943e+001
4.764106e+002, 7.185519e+001
4.768927e+002, 7.216493e+001
4.773748e+002, 7.241686e+001
4.778569e+002, 7.231022e+001
4.783390e+002, 7.207717e+001
4.788211e+002, 7.207532e+001
4.793033e+002, 7.234470e+001
4.797854e+002, 7.274720e+001
4.802675e+002, 7.329675e+001
4.807496e+002, 7.391227e+001
4.812317e+002, 7.442786e+001
4.817138e+002, 7.480990e+001
4.821959e+002, 7.519144e+001
4.826780e+002, 7.569756e+001
4.831602e+002, 7.632749e+001
4.836423e+002, 7.693822e+001
4.841244e+002, 7.742439e+001
4.846065e+002, 7.800373e+001
4.850886e+002, 7.873859e+001
4.855707e+002, 7.963622e+001
4.860529e+002, 8.074979e+001
4.865350e+002, 8.209939e+001
4.870171e+002, 8.352435e+001
4.874992e+002, 8.473373e+001
4.879813e+002, 8.559138e+001
4.884634e+002, 8.663499e+001
4.889456e+002, 8.778421e+001
4.894277e+002, 8.915735e+001
4.899098e+002, 9.089645e+001
4.903919e+002, 9.289926e+001
4.908740e+002, 9.494808e+001
4.913561e+002, 9.690915e+001
4.918383e+002, 9.881744e+001
4.923204e+002, 1.007594e+002
4.928025e+002, 1.027134e+002
4.932846e+002, 1.047480e+002
4.937667e+002, 1.069670e+002
4.942488e+002, 1.091932e+002
4.947310e+002, 1.113133e+002
4.952131e+002, 1.133170e+002
4.956952e+002, 1.152724e+002
4.961773e+002, 1.172756e+002
4.966594e+002, 1.192471e+002
4.971415e+002, 1.209166e+002
4.976237e+002, 1.222288e+002
4.981058e+002, 1.234914e+002
4.985879e+002, 1.249945e+002
4.990700e+002, 1.265129e+002
4.995521e+002, 1.276116e+002
5.000342e+002, 1.281645e+002
5.005164e+002, 1.285637e+002
5.009985e+002, 1.291675e+002
5.014806e+002, 1.297104e+002
5.019627e+002, 1.296956e+002
5.024448e+002, 1.290188e+002
5.029269e+002, 1.279574e+002
5.034091e+002, 1.267401e+002
5.038912e+002, 1.253512e+002
5.043733e+002, 1.239047e+002
5.048554e+002, 1.226749e+002
5.053375e+002, 1.210948e+002
5.058196e+002, 1.188038e+002
5.063018e+002, 1.160783e+002
5.067839e+002, 1.132895e+002
5.072660e+002, 1.105823e+002
5.077481e+002, 1.079988e+002
5.082302e+002, 1.056576e+002
5.087123e+002, 1.036754e+002
5.091945e+002, 1.015031e+002
5.096766e+002, 9.895214e+001
5.101587e+002, 9.640420e+001
5.106408e+002, 9.398250e+001
5.111229e+002, 9.166462e+001
5.116050e+002, 8.937875e+001
5.120872e+002, 8.707661e+001
5.125693e+002, 8.481787e+001
5.130514e+002, 8.273203e+001
5.135335e+002, 8.083615e+001
5.140156e+002, 7.890527e+001
5.144977e+002, 7.671281e+001
5.149799e+002, 7.465002e+001
5.154620e+002, 7.311673e+001
5.159441e+002, 7.204053e+001
5.164262e+002, 7.092872e+001
5.169083e+002, 6.946560e+001
5.173904e+002, 6.791103e+001
5.178726e+002, 6.659775e+001
5.183547e+002, 6.551929e+001
5.188368e+002, 6.449619e+001
5.193189e+002, 6.340866e+001
5.198010e+002, 6.236636e+001
5.202831e+002, 6.169635e+001
5.207653e+002, 6.154622e+001
5.212474e+002, 6.124646e+001
5.217295e+002, 6.060519e+001
5.222116e+002, 5.982761e+001
5.226937e+002, 5.900324e+001
5.231758e+002, 5.819875e+001
5.236580e+002, 5.758488e+001
5.241401e+002, 5.731448e+001
5.246222e+002, 5.730389e+001
5.251043e+002, 5.710529e+001
5.255864e+002, 5.648603e+001
5.260685e+002, 5.601315e+001
5.265507e+002, 5.582845e+001
5.270328e+002, 5.573503e+001
5.275149e+002, 5.552628e+001
5.279970e+002, 5.521082e+001
5.284791e+002, 5.501733e+001
5.289612e+002, 5.527900e+001
5.294434e+002, 5.585912e+001
5.299255e+002, 5.585339e+001
5.304076e+002, 5.500701e+001
5.308897e+002, 5.416619e+001
5.313718e+002, 5.369999e+001
5.318539e+002, 5.342402e+001
5.323361e+002, 5.315860e+001
5.328182e+002, 5.287326e+001
5.333003e+002, 5.263525e+001
5.337824e+002, 5.251948e+001
5.342645e+002, 5.247567e+001
5.347466e+002, 5.235952e+001
5.352288e+002, 5.214080e+001
5.357109e+002, 5.203004e+001
5.361930e+002, 5.227192e+001
5.366751e+002, 5.276463e+001
5.371572e+002, 5.288459e+001
5.376393e+002, 5.228313e+001
5.381215e+002, 5.177107e+001
5.386036e+002, 5.165047e+001
5.390857e+002, 5.171003e+001
5.395678e+002, 5.168840e+001
5.400499e+002, 5.153176e+001
5.405320e+002, 5.133087e+001
5.410142e+002, 5.114595e+001
5.414963e+002, 5.096730e+001
5.419784e+002, 5.113720e+001
5.424604e+002, 5.186867e+001
5.429426e+002, 5.271835e+001
5.434247e+002, 5.407748e+001
5.439068e+002, 5.527629e+001
5.443889e+002, 5.542101e+001
5.448710e+002, 5.431625e+001
5.453531e+002, 5.283022e+001
5.458353e+002, 5.180675e+001
5.463174e+002, 5.122938e+001
5.467995e+002, 5.099532e+001
5.472816e+002, 5.123166e+001
5.477637e+002, 5.152880e+001
5.482458e+002, 5.162737e+001
5.487280e+002, 5.161935e+001
5.492101e+002, 5.163997e+001
5.496922e+002, 5.169249e+001
5.501743e+002, 5.181661e+001
5.506564e+002, 5.216088e+001
5.511385e+002, 5.257364e+001
5.516207e+002, 5.270681e+001
5.521028e+002, 5.248385e+001
5.525849e+002, 5.213549e+001
5.530670e+002, 5.184465e+001
5.535491e+002, 5.161166e+001
5.540313e+002, 5.154429e+001
5.545134e+002, 5.181118e+001
5.549955e+002, 5.201638e+001
5.554776e+002, 5.199142e+001
5.559597e+002, 5.187282e+001
5.564418e+002, 5.180797e+001
5.569240e+002, 5.184441e+001
5.574061e+002, 5.198223e+001
5.578882e+002, 5.226125e+001
5.583703e+002, 5.269099e+001
5.588524e+002, 5.294524e+001
5.593345e+002, 5.292915e+001
5.598167e+002, 5.286084e+001
5.602988e+002, 5.283331e+001
5.607809e+002, 5.279340e+001
5.612630e+002, 5.266707e+001
5.617451e+002, 5.243114e+001
5.622272e+002, 5.215925e+001
5.627094e+002, 5.185470e+001
5.631915e+002, 5.156187e+001
5.636736e+002, 5.143527e+001
5.641557e+002, 5.150076e+001
5.646378e+002, 5.169458e+001
5.651199e+002, 5.201305e+001
5.656021e+002, 5.242682e+001
5.660842e+002, 5.280373e+001
5.665663e+002, 5.331751e+001
5.670484e+002, 5.355140e+001
5.675305e+002, 5.310696e+001
5.680126e+002, 5.242666e+001
5.684948e+002, 5.209126e+001
5.689769e+002, 5.218414e+001
5.694590e+002, 5.238061e+001
5.699411e+002, 5.238008e+001
5.704232e+002, 5.219523e+001
5.709053e+002, 5.206707e+001
5.713875e+002, 5.205103e+001
5.718696e+002, 5.201851e+001
5.723517e+002, 5.187112e+001
5.728338e+002, 5.174752e+001
5.733159e+002, 5.182275e+001
5.737980e+002, 5.209931e+001
5.742802e+002, 5.236306e+001
5.747623e+002, 5.241829e+001
5.752444e+002, 5.230476e+001
5.757265e+002, 5.214432e+001
5.762086e+002, 5.188792e+001
5.766907e+002, 5.179329e+001
5.771729e+002, 5.202851e+001
5.776550e+002, 5.248194e+001
5.781371e+002, 5.298898e+001
5.786192e+002, 5.358332e+001
5.791013e+002, 5.406600e+001
5.795834e+002, 5.434630e+001
5.800656e+002, 5.448462e+001
5.805477e+002, 5.446601e+001
5.810298e+002, 5.433881e+001
5.815119e+002, 5.431021e+001
5.819940e+002, 5.449281e+001
5.824761e+002, 5.490879e+001
5.829583e+002, 5.565765e+001
5.834404e+002, 5.744048e+001
5.839225e+002, 5.846657e+001
5.844046e+002, 5.773131e+001
5.848867e+002, 5.709592e+001
5.853688e+002, 5.827219e+001
5.858510e+002, 6.072199e+001
5.863331e+002, 6.245607e+001
5.868152e+002, 6.208754e+001
5.872973e+002, 6.049568e+001
5.877794e+002, 5.963436e+001
5.882615e+002, 5.957233e+001
5.887437e+002, 5.978831e+001
5.892258e+002, 6.028469e+001
5.897079e+002, 6.088976e+001
5.901900e+002, 6.142043e+001
5.906721e+002, 6.189718e+001
5.911542e+002, 6.245355e+001
5.916364e+002, 6.314614e+001
5.921185e+002, 6.391900e+001
5.926006e+002, 6.467602e+001
5.930827e+002, 6.546395e+001
5.935648e+002, 6.644844e+001
5.940469e+002, 6.769341e+001
5.945291e+002, 6.908214e+001
5.950112e+002, 7.046120e+001
5.954933e+002, 7.182125e+001
5.959754e+002, 7.323109e+001
5.964575e+002, 7.469511e+001
5.969396e+002, 7.619621e+001
5.974218e+002, 7.765104e+001
5.979039e+002, 7.917382e+001
5.983860e+002, 8.092628e+001
5.988681e+002, 8.296653e+001
5.993502e+002, 8.521206e+001
5.998323e+002, 8.753576e+001
6.003145e+002, 8.995452e+001
6.007966e+002, 9.270029e+001
6.012787e+002, 9.576903e+001
6.017608e+002, 9.917177e+001
6.022429e+002, 1.030074e+002
6.027250e+002, 1.071567e+002
6.032072e+002, 1.113613e+002
6.036893e+002, 1.155251e+002
6.041714e+002, 1.199906e+002
6.046535e+002, 1.251040e+002
6.051356e+002, 1.305770e+002
6.056177e+002, 1.359322e+002
6.060999e+002, 1.411256e+002
6.065820e+002, 1.465003e+002
6.070641e+002, 1.523166e+002
6.075462e+002, 1.584392e+002
6.080283e+002, 1.643334e+002
6.085104e+002, 1.701677e+002
6.089926e+002, 1.754599e+002
6.094747e+002, 1.802467e+002
6.099568e+002, 1.844632e+002
6.104389e+002, 1.884461e+002
6.109210e+002, 1.918697e+002
6.114031e+002, 1.937506e+002
6.118853e+002, 1.933123e+002
6.123674e+002, 1.912108e+002
6.128495e+002, 1.888547e+002
6.133316e+002, 1.862904e+002
6.138137e+002, 1.826877e+002
6.142958e+002, 1.775629e+002
6.147780e+002, 1.716680e+002
6.152601e+002, 1.656109e+002
6.157422e+002, 1.593912e+002
6.162243e+002, 1.530193e+002
6.167064e+002, 1.461845e+002
6.171885e+002, 1.395146e+002
6.176707e+002, 1.334459e+002
6.181528e+002, 1.278329e+002
6.186349e+002, 1.223032e+002
6.191170e+002, 1.167539e+002
6.195991e+002, 1.114447e+002
6.200812e+002, 1.066755e+002
6.205634e+002, 1.024324e+002
6.210455e+002, 9.867803e+001
6.215276e+002, 9.575915e+001
6.220097e+002, 9.292426e+001
6.224918e+002, 8.993143e+001
6.229739e+002, 8.700769e+001
6.234561e+002, 8.440439e+001
6.239382e+002, 8.217866e+001
6.244203e+002, 8.020566e+001
6.249023e+002, 7.843147e+001
6.253845e+002, 7.683739e+001
6.258666e+002, 7.538918e+001
6.263487e+002, 7.408547e+001
6.268308e+002, 7.292030e+001
6.273129e+002, 7.191703e+001
6.277950e+002, 7.101893e+001
6.282772e+002, 7.008266e+001
6.287593e+002, 6.905586e+001
6.292414e+002, 6.823164e+001
6.297235e+002, 6.784694e+001
6.302056e+002, 6.750187e+001
6.306877e+002, 6.692392e+001
6.311699e+002, 6.615504e+001
6.316520e+002, 6.527313e+001
6.321341e+002, 6.431672e+001
6.326162e+002, 6.347695e+001
6.330983e+002, 6.316697e+001
6.335804e+002, 6.354345e+001
6.340626e+002, 6.363148e+001
6.345447e+002, 6.325018e+001
6.350268e+002, 6.279097e+001
6.355089e+002, 6.241440e+001
6.359910e+002, 6.208190e+001
6.364731e+002, 6.171674e+001
6.369553e+002, 6.128113e+001
6.374374e+002, 6.091002e+001
6.379195e+002, 6.071239e+001
6.384016e+002, 6.064376e+001
6.388837e+002, 6.066526e+001
6.393658e+002, 6.076419e+001
6.398480e+002, 6.076556e+001
6.403301e+002, 6.050791e+001
6.408122e+002, 6.012212e+001
6.412943e+002, 6.005097e+001
6.417764e+002, 6.067241e+001
6.422585e+002, 6.105555e+001
6.427407e+002, 6.113417e+001
6.432228e+002, 6.103477e+001
6.437049e+002, 6.074870e+001
6.441870e+002, 6.035644e+001
6.446691e+002, 5.998876e+001
6.451512e+002, 5.969777e+001
6.456334e+002, 5.954815e+001
6.461155e+002, 5.972090e+001
6.465976e+002, 6.021265e+001
6.470797e+002, 6.059678e+001
6.475618e+002, 6.083686e+001
6.480439e+002, 6.090014e+001
6.485261e+002, 6.064189e+001
6.490082e+002, 6.018149e+001
6.494903e+002, 5.990074e+001
6.499724e+002, 5.989286e+001
6.504545e+002, 5.996754e+001
6.509366e+002, 6.010082e+001
6.514188e+002, 6.024931e+001
6.519009e+002, 6.040649e+001
6.523830e+002, 6.054126e+001
6.528651e+002, 6.051258e+001
6.533472e+002, 6.018435e+001
6.538293e+002, 5.968031e+001
6.543115e+002, 5.949144e+001
6.547936e+002, 5.979872e+001
6.552757e+002, 5.998200e+001
6.557578e+002, 5.987805e+001
6.562399e+002, 5.969279e+001
6.567220e+002, 5.949221e+001
6.572042e+002, 5.929874e+001
6.576863e+002, 5.915752e+001
6.581684e+002, 5.908541e+001
6.586505e+002, 5.907039e+001
6.591326e+002, 5.920463e+001
6.596147e+002, 5.938432e+001
6.600969e+002, 5.925893e+001
6.605790e+002, 5.874512e+001
6.610611e+002, 5.819724e+001
6.615432e+002, 5.792782e+001
6.620253e+002, 5.790950e+001
6.625074e+002, 5.784934e+001
6.629896e+002, 5.771708e+001
6.634717e+002, 5.758271e+001
6.639538e+002, 5.741392e+001
6.644359e+002, 5.727422e+001
6.649180e+002, 5.727062e+001
6.654001e+002, 5.735456e+001
6.658823e+002, 5.732555e+001
6.663644e+002, 5.700424e+001
6.668465e+002, 5.659303e+001
6.673286e+002, 5.651756e+001
6.678107e+002, 5.676445e+001
6.682928e+002, 5.685045e+001
6.687750e+002, 5.662984e+001
6.692571e+002, 5.631536e+001
6.697392e+002, 5.609432e+001
6.702213e+002, 5.595865e+001
6.707034e+002, 5.581549e+001
6.711855e+002, 5.562239e+001
6.716677e+002, 5.547152e+001
6.721498e+002, 5.550575e+001
6.726319e+002, 5.553047e+001
6.731140e+002, 5.526256e+001
6.735961e+002, 5.472677e+001
6.740782e+002, 5.423209e+001
6.745604e+002, 5.401387e+001
6.750425e+002, 5.400753e+001
6.755246e+002, 5.402703e+001
6.760067e+002, 5.409949e+001
6.764888e+002, 5.408119e+001
6.769709e+002, 5.396186e+001
6.774531e+002, 5.371759e+001
6.779352e+002, 5.323117e+001
6.784173e+002, 5.259706e+001
6.788994e+002, 5.216497e+001
6.793815e+002, 5.213953e+001
6.798636e+002, 5.217432e+001
6.803458e+002, 5.208770e+001
6.808279e+002, 5.192170e+001
6.813100e+002, 5.171224e+001
6.817921e+002, 5.148059e+001
6.822742e+002, 5.130445e+001
6.827563e+002, 5.126223e+001
6.832385e+002, 5.131060e+001
6.837206e+002, 5.122042e+001
6.842027e+002, 5.088337e+001
6.846848e+002, 5.064465e+001
6.851669e+002, 5.065926e+001
6.856490e+002, 5.068910e+001
6.861312e+002, 5.058561e+001
6.866133e+002, 5.038210e+001
6.870954e+002, 5.019067e+001
6.875775e+002, 5.002987e+001
6.880596e+002, 4.993703e+001
6.885417e+002, 4.999811e+001
6.890239e+002, 5.014454e+001
6.895060e+002, 5.021520e+001
6.899881e+002, 5.018169e+001
6.904702e+002, 5.010270e+001
6.909523e+002, 5.001837e+001
6.914344e+002, 4.993144e+001
6.919166e+002, 4.985027e+001
6.923987e+002, 4.971172e+001
6.928808e+002, 4.968547e+001
6.933629e+002, 4.994280e+001
6.938450e+002, 5.015798e+001
6.943271e+002, 5.010630e+001
6.948093e+002, 4.984968e+001
6.952914e+002, 4.956709e+001
6.957735e+002, 4.931688e+001
6.962556e+002, 4.912955e+001
6.967377e+002, 4.907730e+001
6.972198e+002, 4.911849e+001
6.977020e+002, 4.907218e+001
6.981841e+002, 4.890037e+001
6.986662e+002, 4.881246e+001
6.991483e+002, 4.897310e+001
6.996304e+002, 4.932033e+001
7.001125e+002, 4.961930e+001
7.005947e+002, 4.996162e+001
7.010768e+002, 5.010536e+001
7.015589e+002, 4.983826e+001
7.020410e+002, 4.956660e+001
7.025231e+002, 4.949886e+001
7.030052e+002, 4.962984e+001
7.034874e+002, 4.981730e+001
7.039695e+002, 4.996444e+001
7.044516e+002, 5.046748e+001
7.049337e+002, 5.226690e+001
7.054158e+002, 5.494825e+001
7.058979e+002, 5.640598e+001
7.063801e+002, 5.633994e+001
7.068622e+002, 5.569863e+001
7.073442e+002, 5.477876e+001
7.078264e+002, 5.383512e+001
7.083085e+002, 5.354311e+001
7.087906e+002, 5.408202e+001
7.092727e+002, 5.476999e+001
7.097548e+002, 5.596046e+001
7.102369e+002, 5.690413e+001
7.107191e+002, 5.704137e+001
7.112012e+002, 5.664454e+001
7.116833e+002, 5.616602e+001
7.121654e+002, 5.577696e+001
7.126475e+002, 5.554406e+001
7.131296e+002, 5.554660e+001
7.136118e+002, 5.577191e+001
7.140939e+002, 5.618958e+001
7.145760e+002, 5.682814e+001
7.150581e+002, 5.748406e+001
7.155402e+002, 5.816112e+001
7.160223e+002, 5.870047e+001
7.165045e+002, 5.877730e+001
7.169866e+002, 5.832591e+001
7.174687e+002, 5.787685e+001
7.179508e+002, 5.743521e+001
7.184329e+002, 5.704713e+001
7.189150e+002, 5.696415e+001
7.193972e+002, 5.685480e+001
7.198793e+002, 5.585961e+001
7.203614e+002, 5.396061e+001
7.208435e+002, 5.275212e+001
7.213256e+002, 5.443790e+001
7.218077e+002, 5.793804e+001
7.222899e+002, 5.860626e+001
7.227720e+002, 5.605127e+001
7.232541e+002, 5.393368e+001
7.237362e+002, 5.344742e+001
7.242183e+002, 5.380770e+001
7.247004e+002, 5.426071e+001
7.251826e+002, 5.480625e+001
7.256647e+002, 5.523983e+001
7.261468e+002, 5.536657e+001
7.266289e+002, 5.560378e+001
7.271110e+002, 5.622283e+001
7.275931e+002, 5.696125e+001
7.280753e+002, 5.748832e+001
7.285574e+002, 5.779255e+001
7.290395e+002, 5.811686e+001
7.295216e+002, 5.865488e+001
7.300037e+002, 5.929856e+001
7.304858e+002, 5.976354e+001
7.309680e+002, 6.003802e+001
7.314501e+002, 6.047962e+001
7.319322e+002, 6.122610e+001
7.324143e+002, 6.198966e+001
7.328964e+002, 6.250932e+001
7.333785e+002, 6.283952e+001
7.338607e+002, 6.328466e+001
7.343428e+002, 6.389691e+001
7.348249e+002, 6.453647e+001
7.353070e+002, 6.530186e+001
7.357891e+002, 6.598451e+001
7.362712e+002, 6.631084e+001
7.367534e+002, 6.640669e+001
7.372355e+002, 6.665726e+001
7.377176e+002, 6.726648e+001
7.381997e+002, 6.801082e+001
7.386818e+002, 6.863042e+001
7.391639e+002, 6.911263e+001
7.396461e+002, 6.928294e+001
7.401282e+002, 6.905453e+001
7.406103e+002, 6.885509e+001
7.410924e+002, 6.897858e+001
7.415745e+002, 6.924229e+001
7.420566e+002, 6.920457e+001
7.425388e+002, 6.873569e+001
7.430209e+002, 6.844067e+001
7.435030e+002, 6.872696e+001
7.439851e+002, 6.882558e+001
7.444672e+002, 6.816737e+001
7.449493e+002, 6.711642e+001
7.454315e+002, 6.622303e+001
7.459136e+002, 6.565367e+001
7.463957e+002, 6.525229e+001
7.468778e+002, 6.496337e+001
7.473599e+002, 6.471268e+001
7.478420e+002, 6.424397e+001
7.483242e+002, 6.355090e+001
7.488063e+002, 6.284995e+001
7.492884e+002, 6.220567e+001
7.497705e+002, 6.160003e+001
7.502526e+002, 6.101169e+001
7.507347e+002, 6.044457e+001
7.512169e+002, 5.986299e+001
7.516990e+002, 5.926149e+001
7.521811e+002, 5.865545e+001
7.526632e+002, 5.797731e+001
7.531453e+002, 5.734459e+001
7.536274e+002, 5.692023e+001
7.541096e+002, 5.665678e+001
7.545917e+002, 5.632304e+001
7.550738e+002, 5.577505e+001
7.555559e+002, 5.511901e+001
7.560380e+002, 5.447224e+001
7.565201e+002, 5.384162e+001
7.570023e+002, 5.326007e+001
7.574844e+002, 5.272917e+001
7.579665e+002, 5.228849e+001
7.584486e+002, 5.198215e+001
7.589307e+002, 5.177125e+001
7.594128e+002, 5.151989e+001
7.598950e+002, 5.113884e+001
7.603771e+002, 5.088089e+001
7.608592e+002, 5.088645e+001
7.613413e+002, 5.085932e+001
7.618234e+002, 5.059951e+001
7.623055e+002, 5.023590e+001
7.627877e+002, 5.000999e+001
7.632698e+002, 4.999610e+001
7.637519e+002, 4.993414e+001
7.642340e+002, 4.955120e+001
7.647161e+002, 4.904051e+001
7.651982e+002, 4.870161e+001
7.656804e+002, 4.852655e+001
7.661625e+002, 4.841407e+001
7.666446e+002, 4.832760e+001
7.671267e+002, 4.825224e+001
7.676088e+002, 4.818107e+001
7.680909e+002, 4.811790e+001
7.685731e+002, 4.792012e+001
7.690552e+002, 4.734172e+001
7.695373e+002, 4.703434e+001
7.700194e+002, 4.745877e+001
7.705015e+002, 4.794288e+001
7.709836e+002, 4.795079e+001
7.714658e+002, 4.752217e+001
7.719479e+002, 4.701744e+001
7.724300e+002, 4.643618e+001
7.729121e+002, 4.598446e+001
7.733942e+002, 4.595136e+001
7.738763e+002, 4.607985e+001
7.743585e+002, 4.590926e+001
7.748406e+002, 4.543404e+001
7.753227e+002, 4.502977e+001
7.758048e+002, 4.494514e+001
7.762869e+002, 4.507708e+001
7.767690e+002, 4.522729e+001
7.772512e+002, 4.543165e+001
7.777333e+002, 4.538884e+001
7.782154e+002, 4.491370e+001
7.786975e+002, 4.449774e+001
7.791796e+002, 4.447752e+001
7.796617e+002, 4.465483e+001
7.801439e+002, 4.468486e+001
7.806260e+002, 4.451458e+001
7.811081e+002, 4.441409e+001
7.815902e+002, 4.451166e+001
7.820723e+002, 4.463516e+001
7.825544e+002, 4.468091e+001
7.830366e+002, 4.467309e+001
7.835187e+002, 4.467939e+001
7.840008e+002, 4.470800e+001
7.844829e+002, 4.467132e+001
7.849650e+002, 4.443769e+001
7.854471e+002, 4.410858e+001
7.859293e+002, 4.402080e+001
7.864114e+002, 4.417844e+001
7.868935e+002, 4.429571e+001
7.873756e+002, 4.426886e+001
7.878577e+002, 4.429590e+001
7.883398e+002, 4.462914e+001
7.888220e+002, 4.520143e+001
7.893040e+002, 4.542785e+001
7.897861e+002, 4.500415e+001
7.902682e+002, 4.469084e+001
7.907504e+002, 4.449432e+001
7.912325e+002, 4.447039e+001
7.917146e+002, 4.481053e+001
7.921967e+002, 4.531907e+001
7.926788e+002, 4.557703e+001
7.931609e+002, 4.540985e+001
7.936431e+002, 4.518138e+001
7.941252e+002, 4.520018e+001
7.946073e+002, 4.537879e+001
7.950894e+002, 4.558816e+001
7.955715e+002, 4.580925e+001
7.960536e+002, 4.596423e+001
7.965358e+002, 4.601413e+001
7.970179e+002, 4.606967e+001
7.975000e+002, 4.631656e+001
7.979821e+002, 4.677464e+001
7.984642e+002, 4.693447e+001
7.989464e+002, 4.658377e+001
7.994285e+002, 4.632031e+001
7.999106e+002, 4.637859e+001
8.003927e+002, 4.650854e+001
8.008748e+002, 4.648204e+001
8.013569e+002, 4.634920e+001
8.018391e+002, 4.638349e+001
8.023212e+002, 4.678392e+001
8.028033e+002, 4.717891e+001
8.032854e+002, 4.736530e+001
8.037675e+002, 4.744576e+001
8.042496e+002, 4.753732e+001
8.047318e+002, 4.764307e+001
8.052139e+002, 4.771953e+001
8.056960e+002, 4.774412e+001
8.061781e+002, 4.770634e+001
8.066602e+002, 4.753810e+001
8.071423e+002, 4.725862e+001
8.076245e+002, 4.715760e+001
8.081066e+002, 4.727187e+001
8.085887e+002, 4.745583e+001
8.090708e+002, 4.772567e+001
8.095529e+002, 4.792219e+001
8.100350e+002, 4.777815e+001
8.105172e+002, 4.723195e+001
8.109993e+002, 4.672803e+001
8.114814e+002, 4.621201e+001
8.119635e+002, 4.580832e+001
8.124456e+002, 4.562816e+001
8.129277e+002, 4.552144e+001
8.134099e+002, 4.534845e+001
8.138920e+002, 4.511101e+001
8.143741e+002, 4.489452e+001
8.148562e+002, 4.473779e+001
8.153383e+002, 4.462672e+001
8.158204e+002, 4.464459e+001
8.163026e+002, 4.467400e+001
8.167847e+002, 4.434361e+001
8.172668e+002, 4.367199e+001
8.177489e+002, 4.320854e+001
8.182310e+002, 4.328879e+001
8.187131e+002, 4.362451e+001
8.191953e+002, 4.364775e+001
8.196774e+002, 4.329937e+001
8.201595e+002, 4.301117e+001
8.206416e+002, 4.282258e+001
8.211237e+002, 4.261357e+001
8.216058e+002, 4.229370e+001
8.220880e+002, 4.196452e+001
8.225701e+002, 4.175081e+001
8.230522e+002, 4.164929e+001
8.235343e+002, 4.153905e+001
8.240164e+002, 4.132002e+001
8.244985e+002, 4.118017e+001
8.249807e+002, 4.134627e+001
8.254628e+002, 4.153972e+001
8.259449e+002, 4.139291e+001
8.264270e+002, 4.095162e+001
8.269091e+002, 4.054575e+001
8.273912e+002, 4.035670e+001
8.278734e+002, 4.029183e+001
8.283555e+002, 4.024224e+001
8.288376e+002, 4.020507e+001
8.293197e+002, 4.019718e+001
8.298018e+002, 4.022096e+001
8.302839e+002, 4.011768e+001
8.307661e+002, 3.977940e+001
8.312482e+002, 3.935830e+001
8.317303e+002, 3.910291e+001
8.322124e+002, 3.903499e+001
8.326945e+002, 3.898090e+001
8.331766e+002, 3.891671e+001
8.336588e+002, 3.890306e+001
8.341409e+002, 3.895918e+001
8.346230e+002, 3.906257e+001
8.351051e+002, 3.924979e+001
8.355872e+002, 3.948125e+001
8.360693e+002, 3.959233e+001
8.365515e+002, 3.956782e+001
8.370336e+002, 3.935945e+001
8.375157e+002, 3.866955e+001
8.379978e+002, 3.796095e+001
8.384799e+002, 3.784675e+001
8.389620e+002, 3.823262e+001
8.394442e+002, 3.867620e+001
8.399263e+002, 3.897055e+001
8.404084e+002, 3.907151e+001
8.408905e+002, 3.879110e+001
8.413726e+002, 3.823083e+001
8.418547e+002, 3.802148e+001
8.423369e+002, 3.819447e+001
8.428190e+002, 3.838870e+001
8.433011e+002, 3.850240e+001
8.437832e+002, 3.850624e+001
8.442653e+002, 3.833120e+001
8.447474e+002, 3.798408e+001
8.452296e+002, 3.777939e+001
8.457117e+002, 3.778602e+001
8.461938e+002, 3.783932e+001
8.466759e+002, 3.801506e+001
8.471580e+002, 3.814627e+001
8.476401e+002, 3.808659e+001
8.481223e+002, 3.790952e+001
8.486044e+002, 3.777987e+001
8.490865e+002, 3.773396e+001
8.495686e+002, 3.776169e+001
8.500507e+002, 3.784923e+001
8.505328e+002, 3.801494e+001
8.510150e+002, 3.840531e+001
8.514971e+002, 3.886700e+001
8.519792e+002, 3.902068e+001
8.524613e+002, 3.877203e+001
8.529434e+002, 3.840674e+001
8.534255e+002, 3.819873e+001
8.539077e+002, 3.809642e+001
8.543898e+002, 3.790686e+001
8.548719e+002, 3.762970e+001
8.553540e+002, 3.753139e+001
8.558361e+002, 3.769255e+001
8.563182e+002, 3.793434e+001
8.568004e+002, 3.817727e+001
8.572825e+002, 3.835895e+001
8.577646e+002, 3.825695e+001
8.582467e+002, 3.761885e+001
8.587288e+002, 3.724699e+001
8.592109e+002, 3.742538e+001
8.596931e+002, 3.753048e+001
8.601752e+002, 3.719581e+001
8.606573e+002, 3.675218e+001
8.611394e+002, 3.663344e+001
8.616215e+002, 3.687392e+001
8.621036e+002, 3.710711e+001
8.625858e+002, 3.726276e+001
8.630679e+002, 3.728249e+001
8.635500e+002, 3.699806e+001
8.640321e+002, 3.662140e+001
8.645142e+002, 3.643589e+001
8.649963e+002, 3.646889e+001
8.654785e+002, 3.665674e+001
8.659606e+002, 3.698374e+001
8.664427e+002, 3.727645e+001
8.669248e+002, 3.720864e+001
8.674069e+002, 3.685476e+001
8.678890e+002, 3.658393e+001
8.683712e+002, 3.641622e+001
8.688533e+002, 3.641864e+001
8.693354e+002, 3.666002e+001
8.698175e+002, 3.693944e+001
8.702996e+002, 3.697417e+001
8.707817e+002, 3.676154e+001
8.712639e+002, 3.663926e+001
8.717459e+002, 3.669283e+001
8.722280e+002, 3.668600e+001
8.727101e+002, 3.654697e+001
8.731923e+002, 3.636753e+001
8.736744e+002, 3.616966e+001
8.741565e+002, 3.597788e+001
8.746386e+002, 3.584661e+001
8.751207e+002, 3.579908e+001
8.756028e+002, 3.577110e+001
8.760850e+002, 3.575875e+001
8.765671e+002, 3.574078e+001
8.770492e+002, 3.565114e+001
8.775313e+002, 3.556403e+001
8.780134e+002, 3.567268e+001
8.784955e+002, 3.597676e+001
8.789777e+002, 3.614527e+001
8.794598e+002, 3.581358e+001
8.799419e+002, 3.532472e+001
8.804240e+002, 3.531948e+001
8.809061e+002, 3.564889e+001
8.813882e+002, 3.571006e+001
8.818704e+002, 3.542590e+001
8.823525e+002, 3.524706e+001
8.828346e+002, 3.547901e+001
8.833167e+002, 3.590027e+001
8.837988e+002, 3.602486e+001
8.842809e+002, 3.579605e+001
8.847631e+002, 3.572344e+001
8.852452e+002, 3.592165e+001
8.857273e+002, 3.597897e+001
8.862094e+002, 3.561568e+001
8.866915e+002, 3.519133e+001
8.871736e+002, 3.512844e+001
8.876558e+002, 3.540513e+001
8.881379e+002, 3.566236e+001
8.886200e+002, 3.604409e+001
8.891021e+002, 3.618867e+001
8.895842e+002, 3.580815e+001
8.900663e+002, 3.538434e+001
8.905485e+002, 3.527024e+001
8.910306e+002, 3.535938e+001
8.915127e+002, 3.540125e+001
8.919948e+002, 3.532636e+001
8.924769e+002, 3.522505e+001
8.929590e+002, 3.510441e+001
8.934412e+002, 3.502851e+001
8.939233e+002, 3.513282e+001
8.944054e+002, 3.531718e+001
8.948875e+002, 3.535163e+001
8.953696e+002, 3.520546e+001
8.958517e+002, 3.503612e+001
8.963339e+002, 3.495692e+001
8.968160e+002, 3.494013e+001
8.972981e+002, 3.490894e+001
8.977802e+002, 3.487648e+001
8.982623e+002, 3.501665e+001
8.987444e+002, 3.536435e+001
8.992266e+002, 3.564182e+001
8.997087e+002, 3.571968e+001
9.001908e+002, 3.565363e+001
9.006729e+002, 3.550145e+001
9.011550e+002, 3.525348e+001
9.016371e+002, 3.514146e+001
9.021193e+002, 3.523834e+001
9.026014e+002, 3.533526e+001
9.030835e+002, 3.539718e+001
9.035656e+002, 3.544428e+001
9.040477e+002, 3.550220e+001
9.045298e+002, 3.555495e+001
9.050120e+002, 3.556330e+001
9.054941e+002, 3.553075e+001
9.059762e+002, 3.543238e+001
9.064583e+002, 3.506259e+001
9.069404e+002, 3.483751e+001
9.074225e+002, 3.518874e+001
9.079047e+002, 3.574581e+001
9.083868e+002, 3.600505e+001
9.088689e+002, 3.589224e+001
9.093510e+002, 3.563661e+001
9.098331e+002, 3.529094e+001
9.103152e+002, 3.499017e+001
9.107974e+002, 3.493241e+001
9.112795e+002, 3.499141e+001
9.117616e+002, 3.489607e+001
9.122437e+002, 3.466690e+001
9.127258e+002, 3.454143e+001
9.132079e+002, 3.463223e+001
9.136901e+002, 3.483630e+001
9.141722e+002, 3.505235e+001
9.146543e+002, 3.526170e+001
9.151364e+002, 3.535317e+001
9.156185e+002, 3.532345e+001
9.161006e+002, 3.525629e+001
9.165828e+002, 3.516170e+001
9.170649e+002, 3.508814e+001
9.175470e+002, 3.509214e+001
9.180291e+002, 3.513400e+001
9.185112e+002, 3.505195e+001
9.189933e+002, 3.472383e+001
9.194755e+002, 3.459277e+001
9.199576e+002, 3.484704e+001
9.204397e+002, 3.502930e+001
9.209218e+002, 3.490664e+001
9.214039e+002, 3.465664e+001
9.218860e+002, 3.442341e+001
9.223682e+002, 3.421685e+001
9.228503e+002, 3.415212e+001
9.233324e+002, 3.429022e+001
9.238145e+002, 3.451058e+001
9.242966e+002, 3.492599e+001
9.247787e+002, 3.528077e+001
9.252609e+002, 3.530466e+001
9.257430e+002, 3.512666e+001
9.262251e+002, 3.505317e+001
9.267072e+002, 3.517751e+001
9.271893e+002, 3.526759e+001
9.276714e+002, 3.511999e+001
9.281536e+002, 3.490912e+001
9.286357e+002, 3.480259e+001
9.291178e+002, 3.476841e+001
9.295999e+002, 3.469246e+001
9.300820e+002, 3.459070e+001
9.305641e+002, 3.467928e+001
9.310463e+002, 3.512856e+001
9.315284e+002, 3.564579e+001
9.320105e+002, 3.574457e+001
9.324926e+002, 3.550965e+001
9.329747e+002, 3.526555e+001
9.334568e+002, 3.503335e+001
9.339390e+002, 3.480165e+001
9.344211e+002, 3.455639e+001
9.349032e+002, 3.444724e+001
9.353853e+002, 3.468032e+001
9.358674e+002, 3.516682e+001
9.363495e+002, 3.534858e+001
9.368317e+002, 3.512574e+001
9.373138e+002, 3.505990e+001
9.377959e+002, 3.532707e+001
9.382780e+002, 3.549445e+001
9.387601e+002, 3.522447e+001
9.392422e+002, 3.479129e+001
9.397244e+002, 3.472063e+001
9.402065e+002, 3.511187e+001
9.406886e+002, 3.527729e+001
9.411707e+002, 3.502625e+001
9.416528e+002, 3.481861e+001
9.421349e+002, 3.475188e+001
9.426171e+002, 3.474672e+001
9.430992e+002, 3.473053e+001
9.435813e+002, 3.472955e+001
9.440634e+002, 3.483327e+001
9.445455e+002, 3.509532e+001
9.450276e+002, 3.532323e+001
9.455098e+002, 3.545514e+001
9.459919e+002, 3.552620e+001
9.464740e+002, 3.552884e+001
9.469561e+002, 3.550129e+001
9.474382e+002, 3.553478e+001
9.479203e+002, 3.560267e+001
9.484025e+002, 3.550078e+001
9.488846e+002, 3.501180e+001
9.493667e+002, 3.459817e+001
9.498488e+002, 3.485966e+001
9.503309e+002, 3.538915e+001
9.508130e+002, 3.556786e+001
9.512952e+002, 3.542256e+001
9.517773e+002, 3.517437e+001
9.522594e+002, 3.491816e+001
9.527415e+002, 3.476664e+001
9.532236e+002, 3.484291e+001
9.537057e+002, 3.508098e+001
9.541878e+002, 3.537164e+001
9.546699e+002, 3.569168e+001
9.551520e+002, 3.588285e+001
9.556342e+002, 3.592373e+001
9.561163e+002, 3.586202e+001
9.565984e+002, 3.570814e+001
9.570805e+002, 3.554986e+001
9.575626e+002, 3.552475e+001
9.580447e+002, 3.563192e+001
9.585269e+002, 3.584687e+001
9.590090e+002, 3.623334e+001
9.594911e+002, 3.642915e+001
9.599732e+002, 3.625331e+001
9.604553e+002, 3.612071e+001
9.609374e+002, 3.642985e+001
9.614196e+002, 3.695739e+001
9.619017e+002, 3.705444e+001
9.623838e+002, 3.654329e+001
9.628659e+002, 3.614738e+001
9.633480e+002, 3.584716e+001
9.638301e+002, 3.569281e+001
9.643123e+002, 3.579555e+001
9.647944e+002, 3.596458e+001
9.652765e+002, 3.603667e+001
9.657586e+002, 3.602954e+001
9.662407e+002, 3.604179e+001
9.667228e+002, 3.606564e+001
9.672050e+002, 3.614973e+001
9.676871e+002, 3.647402e+001
9.681692e+002, 3.667825e+001
9.686513e+002, 3.642311e+001
9.691334e+002, 3.599824e+001
9.696155e+002, 3.581946e+001
9.700977e+002, 3.590826e+001
9.705798e+002, 3.593808e+001
9.710619e+002, 3.565833e+001
9.715440e+002, 3.545992e+001
9.720261e+002, 3.572460e+001
9.725082e+002, 3.608934e+001
9.729904e+002, 3.581685e+001
9.734725e+002, 3.539777e+001
9.739546e+002, 3.641393e+001
9.744367e+002, 3.911671e+001
9.749188e+002, 4.103298e+001
9.754009e+002, 3.960699e+001
9.758831e+002, 3.697808e+001
9.763652e+002, 3.557161e+001
9.768473e+002, 3.529535e+001
9.773294e+002, 3.626787e+001
9.778115e+002, 3.824242e+001
9.782936e+002, 4.044387e+001
9.787758e+002, 4.250710e+001
9.792579e+002, 4.346271e+001
9.797400e+002, 4.146094e+001
9.802221e+002, 3.761520e+001
9.807042e+002, 3.575833e+001
9.811863e+002, 3.569469e+001
9.816685e+002, 3.592089e+001
9.821506e+002, 3.613885e+001
9.826327e+002, 3.633925e+001
9.831148e+002, 3.651966e+001
9.835969e+002, 3.665705e+001
9.840790e+002, 3.668736e+001
9.845612e+002, 3.660949e+001
9.850433e+002, 3.661568e+001
9.855254e+002, 3.672316e+001
9.860075e+002, 3.681057e+001
9.864896e+002, 3.684016e+001
9.869717e+002, 3.686355e+001
9.874539e+002, 3.692839e+001
9.879360e+002, 3.701348e+001
9.884181e+002, 3.705421e+001
9.889002e+002, 3.705028e+001
9.893823e+002, 3.699438e+001
9.898644e+002, 3.683043e+001
9.903466e+002, 3.672083e+001
9.908287e+002, 3.670303e+001
9.913108e+002, 3.677384e+001
9.917929e+002, 3.693868e+001
9.922750e+002, 3.719154e+001
9.927571e+002, 3.750319e+001
9.932393e+002, 3.804486e+001
9.937214e+002, 3.833644e+001
9.942035e+002, 3.810542e+001
9.946856e+002, 3.794388e+001
9.951677e+002, 3.808307e+001
9.956498e+002, 3.840208e+001
9.961320e+002, 3.882736e+001
9.966141e+002, 3.932616e+001
9.970962e+002, 3.972520e+001
9.975783e+002, 3.990710e+001
9.980604e+002, 4.012613e+001
9.985425e+002, 4.036621e+001
9.990247e+002, 4.074412e+001
9.995068e+002, 4.159859e+001
9.999889e+002, 4.249422e+001
1.000471e+003, 4.278188e+001
1.000953e+003, 4.241533e+001
1.001435e+003, 4.189551e+001
1.001917e+003, 4.131037e+001
1.002399e+003, 4.079955e+001
1.002882e+003, 4.051078e+001
1.003364e+003, 4.026992e+001
1.003846e+003, 3.987685e+001
1.004328e+003, 3.941335e+001
1.004810e+003, 3.907121e+001
1.005292e+003, 3.888763e+001
1.005774e+003, 3.870869e+001
1.006256e+003, 3.835513e+001
1.006739e+003, 3.807543e+001
1.007221e+003, 3.819924e+001
1.007703e+003, 3.848318e+001
1.008185e+003, 3.857682e+001
1.008667e+003, 3.850929e+001
1.009149e+003, 3.848503e+001
1.009631e+003, 3.857143e+001
1.010113e+003, 3.864619e+001
1.010595e+003, 3.853432e+001
1.011078e+003, 3.842278e+001
1.011560e+003, 3.872157e+001
1.012042e+003, 3.920444e+001
1.012524e+003, 3.929553e+001
1.013006e+003, 3.900428e+001
1.013488e+003, 3.868142e+001
1.013970e+003, 3.848661e+001
1.014452e+003, 3.851181e+001
1.014935e+003, 3.891452e+001
1.015417e+003, 3.956947e+001
1.015899e+003, 4.012578e+001
1.016381e+003, 4.064358e+001
1.016863e+003, 4.148002e+001
1.017345e+003, 4.264514e+001
1.017827e+003, 4.367518e+001
1.018309e+003, 4.432825e+001
1.018791e+003, 4.478107e+001
1.019274e+003, 4.519675e+001
1.019756e+003, 4.564548e+001
1.020238e+003, 4.656800e+001
1.020720e+003, 4.793943e+001
1.021202e+003, 4.910002e+001
1.021684e+003, 4.991504e+001
1.022166e+003, 5.098198e+001
1.022648e+003, 5.267382e+001
1.023130e+003, 5.466222e+001
1.023613e+003, 5.638639e+001
1.024095e+003, 5.788893e+001
1.024577e+003, 5.986675e+001
1.025059e+003, 6.235989e+001
1.025541e+003, 6.499641e+001
1.026023e+003, 6.781751e+001
1.026505e+003, 7.030790e+001
1.026987e+003, 7.210403e+001
1.027469e+003, 7.347926e+001
1.027952e+003, 7.495600e+001
1.028434e+003, 7.656685e+001
1.028916e+003, 7.773138e+001
1.029398e+003, 7.851663e+001
1.029880e+003, 7.863022e+001
1.030362e+003, 7.800210e+001
1.030844e+003, 7.670022e+001
1.031326e+003, 7.459093e+001
1.031809e+003, 7.202615e+001
1.032291e+003, 6.972896e+001
1.032773e+003, 6.776601e+001
1.033255e+003, 6.552683e+001
1.033737e+003, 6.281277e+001
1.034219e+003, 6.025437e+001
1.034701e+003, 5.803316e+001
1.035183e+003, 5.588090e+001
1.035666e+003, 5.349094e+001
1.036148e+003, 5.115213e+001
1.036630e+003, 4.953566e+001
1.037112e+003, 4.879274e+001
1.037594e+003, 4.792736e+001
1.038076e+003, 4.683588e+001
1.038558e+003, 4.579472e+001
1.039040e+003, 4.484480e+001
1.039522e+003, 4.396994e+001
1.040005e+003, 4.316820e+001
1.040487e+003, 4.243131e+001
1.040969e+003, 4.171820e+001
1.041451e+003, 4.097998e+001
1.041933e+003, 4.050960e+001
1.042415e+003, 4.065600e+001
1.042897e+003, 4.058487e+001
1.043379e+003, 3.996311e+001
1.043861e+003, 3.925843e+001
1.044344e+003, 3.874474e+001
1.044826e+003, 3.837315e+001
1.045308e+003, 3.803495e+001
1.045790e+003, 3.771692e+001
1.046272e+003, 3.749127e+001
1.046754e+003, 3.750254e+001
1.047236e+003, 3.741877e+001
1.047718e+003, 3.704830e+001
1.048201e+003, 3.666597e+001
1.048683e+003, 3.651047e+001
1.049165e+003, 3.646021e+001
1.049647e+003, 3.623354e+001
1.050129e+003, 3.577363e+001
1.050611e+003, 3.547125e+001
1.051093e+003, 3.555558e+001
1.051575e+003, 3.559784e+001
1.052057e+003, 3.538106e+001
1.052540e+003, 3.516450e+001
1.053022e+003, 3.517311e+001
1.053504e+003, 3.530423e+001
1.053986e+003, 3.536458e+001
1.054468e+003, 3.532646e+001
1.054950e+003, 3.523394e+001
1.055432e+003, 3.503132e+001
1.055914e+003, 3.486750e+001
1.056396e+003, 3.485288e+001
1.056879e+003, 3.483809e+001
1.057361e+003, 3.465001e+001
1.057843e+003, 3.440847e+001
1.058325e+003, 3.436581e+001
1.058807e+003, 3.455380e+001
1.059289e+003, 3.464725e+001
1.059771e+003, 3.439707e+001
1.060253e+003, 3.422849e+001
1.060736e+003, 3.443878e+001
1.061218e+003, 3.465785e+001
1.061700e+003, 3.458393e+001
1.062182e+003, 3.432997e+001
1.062664e+003, 3.406707e+001
1.063146e+003, 3.383810e+001
1.063628e+003, 3.374494e+001
1.064110e+003, 3.402079e+001
1.064593e+003, 3.415929e+001
1.065075e+003, 3.375140e+001
1.065557e+003, 3.332644e+001
1.066039e+003, 3.337310e+001
1.066521e+003, 3.363468e+001
1.067003e+003, 3.366181e+001
1.067485e+003, 3.341237e+001
1.067967e+003, 3.319851e+001
1.068449e+003, 3.312666e+001
1.068932e+003, 3.312765e+001
1.069414e+003, 3.324684e+001
1.069896e+003, 3.334997e+001
1.070378e+003, 3.328186e+001
1.070860e+003, 3.316372e+001
1.071342e+003, 3.324704e+001
1.071824e+003, 3.349650e+001
1.072306e+003, 3.350230e+001
1.072788e+003, 3.294400e+001
1.073271e+003, 3.251477e+001
1.073753e+003, 3.260814e+001
1.074235e+003, 3.287310e+001
1.074717e+003, 3.321946e+001
1.075199e+003, 3.347846e+001
1.075681e+003, 3.333844e+001
1.076163e+003, 3.289384e+001
1.076645e+003, 3.270881e+001
1.077127e+003, 3.309162e+001
1.077610e+003, 3.337398e+001
1.078092e+003, 3.304430e+001
1.078574e+003, 3.273018e+001
1.079056e+003, 3.299741e+001
1.079538e+003, 3.342387e+001
1.080020e+003, 3.344548e+001
1.080502e+003, 3.312519e+001
1.080984e+003, 3.291257e+001
1.081467e+003, 3.297406e+001
1.081949e+003, 3.300535e+001
1.082431e+003, 3.279102e+001
1.082913e+003, 3.259636e+001
1.083395e+003, 3.260250e+001
1.083877e+003, 3.269828e+001
1.084359e+003, 3.276376e+001
1.084841e+003, 3.280714e+001
1.085323e+003, 3.290192e+001
1.085806e+003, 3.307571e+001
1.086288e+003, 3.321049e+001
1.086770e+003, 3.327061e+001
1.087252e+003, 3.326129e+001
1.087734e+003, 3.309384e+001
1.088216e+003, 3.293735e+001
1.088698e+003, 3.298333e+001
1.089180e+003, 3.315467e+001
1.089662e+003, 3.328327e+001
1.090145e+003, 3.333515e+001
1.090627e+003, 3.330630e+001
1.091109e+003, 3.312234e+001
1.091591e+003, 3.295466e+001
1.092073e+003, 3.286119e+001
1.092555e+003, 3.282715e+001
1.093037e+003, 3.286356e+001
1.093519e+003, 3.294123e+001
1.094002e+003, 3.304071e+001
1.094484e+003, 3.314950e+001
1.094966e+003, 3.317363e+001
1.095448e+003, 3.305215e+001
1.095930e+003, 3.288771e+001
1.096412e+003, 3.263024e+001
1.096894e+003, 3.243018e+001
1.097376e+003, 3.244247e+001
1.097859e+003, 3.253229e+001
1.098341e+003, 3.246600e+001
1.098823e+003, 3.227108e+001
1.099305e+003, 3.226465e+001
1.099787e+003, 3.259072e+001
1.100269e+003, 3.295993e+001
1.100751e+003, 3.344625e+001
1.101233e+003, 3.378129e+001
1.101715e+003, 3.376302e+001
1.102198e+003, 3.358218e+001
1.102680e+003, 3.335631e+001
1.103162e+003, 3.314948e+001
1.103644e+003, 3.314529e+001
1.104126e+003, 3.345490e+001
1.104608e+003, 3.369458e+001
1.105090e+003, 3.363568e+001
1.105572e+003, 3.370696e+001
1.106054e+003, 3.426731e+001
1.106537e+003, 3.482388e+001
1.107019e+003, 3.495466e+001
1.107501e+003, 3.477694e+001
1.107983e+003, 3.457784e+001
1.108465e+003, 3.434801e+001
1.108947e+003, 3.427399e+001
1.109429e+003, 3.458833e+001
1.109911e+003, 3.475118e+001
1.110394e+003, 3.448332e+001
1.110876e+003, 3.421460e+001
1.111358e+003, 3.425211e+001
1.111840e+003, 3.443129e+001
1.112322e+003, 3.445588e+001
1.112804e+003, 3.430944e+001
1.113286e+003, 3.429121e+001
1.113768e+003, 3.448829e+001
1.114250e+003, 3.467416e+001
1.114733e+003, 3.499812e+001
1.115215e+003, 3.507866e+001
1.115697e+003, 3.459296e+001
1.116179e+003, 3.392850e+001
1.116661e+003, 3.347966e+001
1.117143e+003, 3.324660e+001
1.117625e+003, 3.325559e+001
1.118107e+003, 3.375423e+001
1.118589e+003, 3.388359e+001
1.119072e+003, 3.340399e+001
1.119554e+003, 3.303182e+001
1.120036e+003, 3.306634e+001
1.120518e+003, 3.315193e+001
1.121000e+003, 3.295222e+001
1.121482e+003, 3.259180e+001
1.121964e+003, 3.244776e+001
1.122446e+003, 3.256109e+001
1.122929e+003, 3.263728e+001
1.123411e+003, 3.265310e+001
1.123893e+003, 3.273238e+001
1.124375e+003, 3.295891e+001
1.124857e+003, 3.305902e+001
1.125339e+003, 3.280785e+001
1.125821e+003, 3.243876e+001
1.126303e+003, 3.237004e+001
1.126786e+003, 3.258072e+001
1.127268e+003, 3.268726e+001
1.127750e+003, 3.268086e+001
1.128232e+003, 3.262820e+001
1.128714e+003, 3.252401e+001
1.129196e+003, 3.249473e+001
1.129678e+003, 3.261217e+001
1.130160e+003, 3.273775e+001
1.130642e+003, 3.269825e+001
1.131125e+003, 3.256303e+001
1.131607e+003, 3.259986e+001
1.132089e+003, 3.279527e+001
1.132571e+003, 3.290633e+001
1.133053e+003, 3.292066e+001
1.133535e+003, 3.290942e+001
1.134017e+003, 3.289445e+001
1.134499e+003, 3.279679e+001
1.134981e+003, 3.253281e+001
1.135464e+003, 3.226713e+001
1.135946e+003, 3.235814e+001
1.136428e+003, 3.269621e+001
1.136910e+003, 3.287182e+001
1.137392e+003, 3.289683e+001
1.137874e+003, 3.284518e+001
1.138356e+003, 3.274083e+001
1.138838e+003, 3.262140e+001
1.139321e+003, 3.250533e+001
1.139803e+003, 3.242805e+001
1.140285e+003, 3.244490e+001
1.140767e+003, 3.251087e+001
1.141249e+003, 3.250723e+001
1.141731e+003, 3.250230e+001
1.142213e+003, 3.273589e+001
1.142695e+003, 3.311390e+001
1.143177e+003, 3.322882e+001
1.143660e+003, 3.298335e+001
1.144142e+003, 3.272494e+001
1.144624e+003, 3.269965e+001
1.145106e+003, 3.276065e+001
1.145588e+003, 3.270391e+001
1.146070e+003, 3.268499e+001
1.146552e+003, 3.302851e+001
1.147034e+003, 3.350174e+001
1.147516e+003, 3.361124e+001
1.147999e+003, 3.337034e+001
1.148481e+003, 3.322318e+001
1.148963e+003, 3.336905e+001
1.149445e+003, 3.355040e+001
1.149927e+003, 3.353506e+001
1.150409e+003, 3.357651e+001
1.150891e+003, 3.396654e+001
1.151373e+003, 3.442182e+001
1.151856e+003, 3.465196e+001
1.152338e+003, 3.468055e+001
1.152820e+003, 3.461767e+001
1.153302e+003, 3.448732e+001
1.153784e+003, 3.436184e+001
1.154266e+003, 3.420809e+001
1.154748e+003, 3.414392e+001
1.155230e+003, 3.436280e+001
1.155713e+003, 3.451326e+001
1.156195e+003, 3.414611e+001
1.156677e+003, 3.373219e+001
1.157159e+003, 3.406794e+001
1.157641e+003, 3.502285e+001
1.158123e+003, 3.541094e+001
1.158605e+003, 3.475755e+001
1.159087e+003, 3.432493e+001
1.159569e+003, 3.442081e+001
1.160052e+003, 3.442767e+001
1.160534e+003, 3.409906e+001
1.161016e+003, 3.371785e+001
1.161498e+003, 3.345516e+001
1.161980e+003, 3.330922e+001
1.162462e+003, 3.330088e+001
1.162944e+003, 3.345377e+001
1.163426e+003, 3.348503e+001
1.163908e+003, 3.335935e+001
1.164391e+003, 3.320308e+001
1.164873e+003, 3.300130e+001
1.165355e+003, 3.286645e+001
1.165837e+003, 3.286312e+001
1.166319e+003, 3.292003e+001
1.166801e+003, 3.295531e+001
1.167283e+003, 3.297756e+001
1.167765e+003, 3.302988e+001
1.168247e+003, 3.311432e+001
1.168730e+003, 3.319069e+001
1.169212e+003, 3.326116e+001
1.169694e+003, 3.312051e+001
1.170176e+003, 3.270662e+001
1.170658e+003, 3.237912e+001
1.171140e+003, 3.239325e+001
1.171622e+003, 3.258052e+001
1.172104e+003, 3.270123e+001
1.172587e+003, 3.276200e+001
1.173069e+003, 3.277837e+001
1.173551e+003, 3.275515e+001
1.174033e+003, 3.270059e+001
1.174515e+003, 3.262379e+001
1.174997e+003, 3.254903e+001
1.175479e+003, 3.248814e+001
1.175961e+003, 3.246437e+001
1.176443e+003, 3.248782e+001
1.176926e+003, 3.257714e+001
1.177408e+003, 3.284980e+001
1.177890e+003, 3.313364e+001
1.178372e+003, 3.312162e+001
1.178854e+003, 3.294579e+001
1.179336e+003, 3.290565e+001
1.179818e+003, 3.301374e+001
1.180300e+003, 3.305495e+001
1.180782e+003, 3.292204e+001
1.181265e+003, 3.286837e+001
1.181747e+003, 3.321630e+001
1.182229e+003, 3.349117e+001
1.182711e+003, 3.325600e+001
1.183193e+003, 3.291315e+001
1.183675e+003, 3.292953e+001
1.184157e+003, 3.310168e+001
1.184639e+003, 3.291740e+001
1.185122e+003, 3.233765e+001
1.185604e+003, 3.203218e+001
1.186086e+003, 3.243510e+001
1.186568e+003, 3.266273e+001
1.187050e+003, 3.229395e+001
1.187532e+003, 3.206400e+001
1.188014e+003, 3.251648e+001
1.188496e+003, 3.303684e+001
1.188979e+003, 3.294812e+001
1.189461e+003, 3.250833e+001
1.189943e+003, 3.249742e+001
1.190425e+003, 3.303270e+001
1.190907e+003, 3.329870e+001
1.191389e+003, 3.322387e+001
1.191871e+003, 3.306218e+001
1.192353e+003, 3.280779e+001
1.192835e+003, 3.261108e+001
1.193318e+003, 3.256405e+001
1.193800e+003, 3.255380e+001
1.194282e+003, 3.242077e+001
1.194764e+003, 3.223680e+001
1.195246e+003, 3.235316e+001
1.195728e+003, 3.274957e+001
1.196210e+003, 3.280922e+001
1.196692e+003, 3.252649e+001
1.197174e+003, 3.233776e+001
1.197657e+003, 3.236356e+001
1.198139e+003, 3.273378e+001
1.198621e+003, 3.354841e+001
1.199103e+003, 3.447443e+001
1.199585e+003, 3.526685e+001
1.200067e+003, 3.570437e+001
1.200549e+003, 3.503735e+001
1.201031e+003, 3.379712e+001
1.201514e+003, 3.317438e+001
1.201996e+003, 3.309467e+001
1.202478e+003, 3.286977e+001
1.202960e+003, 3.235390e+001
1.203442e+003, 3.204712e+001
1.203924e+003, 3.231491e+001
1.204406e+003, 3.264735e+001
1.204888e+003, 3.270415e+001
1.205370e+003, 3.261742e+001
1.205853e+003, 3.242243e+001
1.206335e+003, 3.220316e+001
1.206817e+003, 3.201212e+001
1.207299e+003, 3.188454e+001
1.207781e+003, 3.189024e+001
1.208263e+003, 3.204870e+001
1.208745e+003, 3.223641e+001
1.209227e+003, 3.267116e+001
1.209709e+003, 3.276012e+001
1.210192e+003, 3.190737e+001
1.210674e+003, 3.124269e+001
1.211156e+003, 3.147948e+001
1.211638e+003, 3.204850e+001
1.212120e+003, 3.246122e+001
1.212602e+003, 3.271802e+001
1.213084e+003, 3.279721e+001
1.213566e+003, 3.264605e+001
1.214049e+003, 3.259855e+001
1.214531e+003, 3.271124e+001
1.215013e+003, 3.268605e+001
1.215495e+003, 3.243851e+001
1.215977e+003, 3.218113e+001
1.216459e+003, 3.202007e+001
1.216941e+003, 3.194080e+001
1.217423e+003, 3.193524e+001
1.217906e+003, 3.198265e+001
1.218388e+003, 3.201004e+001
1.218870e+003, 3.203094e+001
1.219352e+003, 3.216269e+001
1.219834e+003, 3.236520e+001
1.220316e+003, 3.235583e+001
1.220798e+003, 3.211669e+001
1.221280e+003, 3.187966e+001
1.221762e+003, 3.175089e+001
1.222245e+003, 3.214997e+001
1.222727e+003, 3.439181e+001
1.223209e+003, 3.648108e+001
1.223691e+003, 3.561866e+001
1.224173e+003, 3.360848e+001
1.224655e+003, 3.263414e+001
1.225137e+003, 3.250170e+001
1.225619e+003, 3.243479e+001
1.226101e+003, 3.228717e+001
1.226584e+003, 3.225427e+001
1.227066e+003, 3.245017e+001
1.227548e+003, 3.262783e+001
1.228030e+003, 3.277137e+001
1.228512e+003, 3.278984e+001
1.228994e+003, 3.256371e+001
1.229476e+003, 3.227760e+001
1.229958e+003, 3.200111e+001
1.230441e+003, 3.180198e+001
1.230923e+003, 3.181318e+001
1.231405e+003, 3.202728e+001
1.231887e+003, 3.219107e+001
1.232369e+003, 3.232635e+001
1.232851e+003, 3.232387e+001
1.233333e+003, 3.211919e+001
1.233815e+003, 3.199314e+001
1.234297e+003, 3.204060e+001
1.234780e+003, 3.214503e+001
1.235262e+003, 3.223207e+001
1.235744e+003, 3.228239e+001
1.236226e+003, 3.223354e+001
1.236708e+003, 3.213454e+001
1.237190e+003, 3.223716e+001
1.237672e+003, 3.247861e+001
1.238154e+003, 3.257957e+001
1.238636e+003, 3.253141e+001
1.239119e+003, 3.243078e+001
1.239601e+003, 3.231981e+001
1.240083e+003, 3.225648e+001
1.240565e+003, 3.228527e+001
1.241047e+003, 3.233394e+001
1.241529e+003, 3.232948e+001
1.242011e+003, 3.231532e+001
1.242493e+003, 3.233182e+001
1.242975e+003, 3.236631e+001
1.243458e+003, 3.241846e+001
1.243940e+003, 3.246843e+001
1.244422e+003, 3.246573e+001
1.244904e+003, 3.240979e+001
1.245386e+003, 3.239775e+001
1.245868e+003, 3.247743e+001
1.246350e+003, 3.256082e+001
1.246832e+003, 3.277370e+001
1.247315e+003, 3.279264e+001
1.247797e+003, 3.232133e+001
1.248279e+003, 3.184730e+001
1.248761e+003, 3.170757e+001
1.249243e+003, 3.178982e+001
1.249725e+003, 3.190425e+001
1.250207e+003, 3.204962e+001
1.250689e+003, 3.223971e+001
1.251172e+003, 3.249433e+001
1.251654e+003, 3.253053e+001
1.252136e+003, 3.231637e+001
1.252618e+003, 3.220696e+001
1.253100e+003, 3.230808e+001
1.253582e+003, 3.237602e+001
1.254064e+003, 3.223182e+001
1.254546e+003, 3.209236e+001
1.255028e+003, 3.231812e+001
1.255510e+003, 3.271200e+001
1.255993e+003, 3.294712e+001
1.256475e+003, 3.304915e+001
1.256957e+003, 3.305529e+001
1.257439e+003, 3.296954e+001
1.257921e+003, 3.273133e+001
1.258403e+003, 3.237661e+001
1.258885e+003, 3.213442e+001
1.259367e+003, 3.211096e+001
1.259850e+003, 3.217869e+001
1.260332e+003, 3.240573e+001
1.260814e+003, 3.254229e+001
1.261296e+003, 3.236051e+001
1.261778e+003, 3.215475e+001
1.262260e+003, 3.212834e+001
1.262742e+003, 3.224227e+001
1.263224e+003, 3.248418e+001
1.263707e+003, 3.281454e+001
1.264189e+003, 3.288265e+001
1.264671e+003, 3.256076e+001
1.265153e+003, 3.243103e+001
1.265635e+003, 3.255836e+001
1.266117e+003, 3.256495e+001
1.266599e+003, 3.232850e+001
1.267081e+003, 3.226661e+001
1.267563e+003, 3.263581e+001
1.268046e+003, 3.306915e+001
1.268528e+003, 3.312521e+001
1.269010e+003, 3.294013e+001
1.269492e+003, 3.274446e+001
1.269974e+003, 3.259804e+001
1.270456e+003, 3.272045e+001
1.270938e+003, 3.300807e+001
1.271420e+003, 3.319262e+001
1.271902e+003, 3.322458e+001
1.272385e+003, 3.311939e+001
1.272867e+003, 3.288228e+001
1.273349e+003, 3.270053e+001
1.273831e+003, 3.275071e+001
1.274313e+003, 3.279300e+001
1.274795e+003, 3.274224e+001
1.275277e+003, 3.260351e+001
1.275759e+003, 3.216953e+001
1.276242e+003, 3.181521e+001
1.276724e+003, 3.211910e+001
1.277206e+003, 3.283628e+001
1.277688e+003, 3.311982e+001
1.278170e+003, 3.292021e+001
1.278652e+003, 3.271510e+001
1.279134e+003, 3.246661e+001
1.279616e+003, 3.236449e+001
1.280099e+003, 3.245300e+001
1.280581e+003, 3.256242e+001
1.281063e+003, 3.263327e+001
1.281545e+003, 3.268896e+001
1.282027e+003, 3.274514e+001
1.282509e+003, 3.281723e+001
1.282991e+003, 3.296267e+001
1.283473e+003, 3.312610e+001
1.283955e+003, 3.319549e+001
##END=



