##NAMES=Nepheline
##RRUFFID=R040025
##IDEAL CHEMISTRY=Na_3_K(Al_4_Si_4_O_16_)
##LOCALITY=Bancroft, Ontario, Canada
##OWNER=RRUFF
##SOURCE=University of Arizona Mineral Museum
##DESCRIPTION=White massive
##STATUS=The identification of this mineral has been confirmed by X-ray diffraction and chemical analysis
##URL=rruff.info/R040025
##MEASURED CHEMISTRY=(Na_0.77_K_0.23_)_Î£=1_Al_1.00_Si_1.00_O_4_
123.2975, 314.8701
123.7796, 319.0229
124.2617, 323.6512
124.7438, 329.0685
125.2259, 334.7168
125.7081, 340.0280
126.1902, 344.9114
126.6723, 348.1006
127.1544, 350.5961
127.6365, 353.2965
128.1186, 355.5133
128.6008, 357.1478
129.0829, 358.1868
129.5650, 358.2564
130.0471, 357.4229
130.5292, 356.7004
131.0113, 357.7693
131.4935, 359.9429
131.9756, 360.1489
132.4577, 356.6904
132.9398, 351.0423
133.4219, 347.5070
133.9040, 346.1905
134.3862, 345.7306
134.8683, 344.8163
135.3504, 343.4513
135.8325, 342.0388
136.3146, 340.4585
136.7967, 338.8135
137.2789, 338.2772
137.7610, 339.0531
138.2431, 340.4034
138.7252, 341.4671
139.2073, 342.2780
139.6894, 342.6650
140.1716, 342.3483
140.6537, 341.1295
141.1358, 340.7564
141.6179, 341.4232
142.1000, 342.7221
142.5821, 343.8434
143.0643, 344.6162
143.5464, 345.5976
144.0285, 347.0373
144.5106, 349.0233
144.9927, 351.2139
145.4748, 353.5878
145.9570, 356.1538
146.4391, 358.8158
146.9212, 361.4957
147.4033, 364.3877
147.8854, 367.6502
148.3675, 371.6799
148.8497, 375.4252
149.3318, 378.7757
149.8139, 381.7630
150.2960, 384.5440
150.7781, 386.5923
151.2602, 388.7947
151.7424, 391.6061
152.2245, 396.4523
152.7066, 400.2790
153.1887, 402.4330
153.6708, 403.0417
154.1529, 403.9628
154.6351, 405.9766
155.1172, 407.9594
155.5993, 409.1608
156.0814, 409.4226
156.5635, 409.0013
157.0456, 407.5738
157.5278, 405.1628
158.0099, 403.2506
158.4920, 402.4474
158.9741, 402.1155
159.4562, 401.6833
159.9383, 401.2215
160.4205, 400.4657
160.9026, 399.1080
161.3847, 397.0884
161.8668, 395.4589
162.3489, 394.8014
162.8310, 394.6662
163.3132, 394.5284
163.7953, 394.1771
164.2774, 393.8005
164.7595, 393.5201
165.2416, 393.3625
165.7237, 393.1273
166.2059, 392.5976
166.6880, 391.9349
167.1701, 391.3874
167.6522, 391.0557
168.1343, 390.8725
168.6164, 390.7638
169.0985, 390.6933
169.5807, 390.8224
170.0628, 391.5688
170.5449, 392.5960
171.0270, 393.2362
171.5091, 392.6079
171.9912, 391.7121
172.4734, 391.5085
172.9555, 392.1813
173.4376, 393.3845
173.9197, 395.1317
174.4018, 397.2312
174.8839, 399.1430
175.3661, 400.3231
175.8482, 401.1931
176.3303, 402.2310
176.8124, 403.4449
177.2945, 405.0115
177.7766, 407.2012
178.2588, 409.9523
178.7409, 412.9210
179.2230, 415.9036
179.7051, 418.9860
180.1872, 422.3105
180.6693, 425.9910
181.1515, 429.8145
181.6336, 433.3592
182.1157, 436.6818
182.5978, 440.1729
183.0799, 444.0074
183.5620, 448.2493
184.0442, 453.0724
184.5263, 458.7773
185.0084, 464.7782
185.4905, 470.0421
185.9726, 474.5817
186.4547, 479.2924
186.9369, 485.0938
187.4190, 491.7564
187.9011, 498.0183
188.3832, 503.5386
188.8653, 508.6871
189.3474, 514.3269
189.8296, 520.5239
190.3117, 526.8759
190.7938, 533.1793
191.2759, 539.4167
191.7580, 545.3515
192.2401, 550.8329
192.7223, 556.0952
193.2044, 561.8889
193.6865, 568.2985
194.1686, 575.0085
194.6507, 581.7665
195.1328, 588.5599
195.6150, 595.2776
196.0971, 601.9278
196.5792, 608.4142
197.0613, 614.3030
197.5434, 619.4974
198.0255, 624.4562
198.5077, 629.6915
198.9898, 635.2687
199.4719, 640.0339
199.9540, 643.7111
200.4361, 646.3470
200.9182, 648.3312
201.4004, 649.7469
201.8825, 650.2287
202.3646, 649.2422
202.8467, 646.6886
203.3288, 643.7103
203.8109, 640.8467
204.2931, 637.9049
204.7752, 632.9067
205.2573, 625.3508
205.7394, 616.9525
206.2215, 609.7927
206.7036, 604.4324
207.1858, 597.6616
207.6679, 588.3705
208.1500, 576.7411
208.6321, 565.4947
209.1142, 554.5912
209.5963, 544.1396
210.0785, 534.3748
210.5606, 525.5928
211.0427, 516.5784
211.5248, 506.7030
212.0069, 496.0145
212.4890, 486.6567
212.9712, 478.7951
213.4533, 471.9810
213.9354, 465.8583
214.4175, 460.4150
214.8996, 455.5214
215.3817, 450.9942
215.8639, 446.8662
216.3460, 443.9418
216.8281, 442.7224
217.3102, 442.0268
217.7923, 440.4663
218.2744, 437.5641
218.7565, 434.9757
219.2387, 433.1349
219.7208, 432.0296
220.2029, 431.2536
220.6850, 431.0619
221.1671, 430.9016
221.6492, 430.0427
222.1314, 427.9513
222.6135, 426.3895
223.0956, 425.9638
223.5777, 426.7324
224.0598, 427.0889
224.5419, 427.2525
225.0241, 426.7733
225.5062, 425.0152
225.9883, 421.3506
226.4704, 417.7455
226.9525, 414.6928
227.4346, 412.1727
227.9168, 409.7125
228.3989, 407.4972
228.8810, 405.1471
229.3631, 402.3233
229.8452, 398.9645
230.3273, 395.1646
230.8095, 390.7157
231.2916, 385.5694
231.7737, 381.2339
232.2558, 378.2466
232.7379, 375.5146
233.2200, 371.9330
233.7022, 367.0456
234.1843, 362.2149
234.6664, 357.6661
235.1485, 353.4365
235.6306, 349.5242
236.1127, 345.9717
236.5949, 342.6407
237.0770, 339.3739
237.5591, 336.0934
238.0412, 333.0403
238.5233, 330.3149
239.0054, 327.9071
239.4876, 325.5527
239.9697, 323.1753
240.4518, 320.9145
240.9339, 318.8734
241.4160, 316.9947
241.8981, 315.4719
242.3803, 314.4798
242.8624, 313.9928
243.3445, 313.2047
243.8266, 311.8063
244.3087, 310.4462
244.7908, 309.7333
245.2730, 310.1675
245.7551, 310.2125
246.2372, 309.4272
246.7193, 307.9091
247.2014, 307.0675
247.6835, 307.1860
248.1657, 307.6397
248.6478, 307.9218
249.1299, 307.7763
249.6120, 308.0222
250.0941, 308.8427
250.5762, 310.1742
251.0584, 311.5201
251.5405, 312.8778
252.0226, 314.2443
252.5047, 315.6240
252.9868, 317.1180
253.4689, 318.4363
253.9511, 319.6135
254.4332, 320.6154
254.9153, 321.1204
255.3974, 320.7769
255.8795, 320.4932
256.3616, 320.8713
256.8438, 322.1624
257.3259, 323.4647
257.8080, 324.6787
258.2901, 325.8524
258.7722, 327.1591
259.2543, 328.4199
259.7365, 330.1228
260.2186, 332.8043
260.7007, 337.0988
261.1828, 340.3372
261.6649, 342.1525
262.1470, 342.8754
262.6292, 343.5426
263.1113, 344.2034
263.5934, 344.6806
264.0755, 344.8198
264.5576, 344.4727
265.0397, 344.4439
265.5219, 345.2284
266.0040, 346.0368
266.4861, 344.8046
266.9682, 340.8265
267.4503, 336.5958
267.9324, 333.4821
268.4146, 331.8699
268.8967, 329.2966
269.3788, 325.4083
269.8609, 320.9236
270.3430, 317.4188
270.8251, 315.2909
271.3073, 312.8307
271.7894, 309.1250
272.2715, 303.9667
272.7536, 299.8189
273.2357, 296.9339
273.7178, 294.7436
274.2000, 292.3836
274.6821, 289.8184
275.1642, 287.2675
275.6463, 284.6986
276.1284, 282.1086
276.6105, 280.1328
277.0927, 278.9028
277.5748, 278.0003
278.0569, 276.9496
278.5390, 275.7563
279.0211, 274.3919
279.5032, 272.5894
279.9854, 270.5165
280.4675, 269.7578
280.9496, 270.6023
281.4317, 271.8028
281.9138, 271.9832
282.3959, 271.1092
282.8781, 270.1924
283.3602, 269.4826
283.8423, 268.9301
284.3244, 268.2462
284.8065, 267.3686
285.2886, 266.7190
285.7708, 266.8339
286.2529, 267.6659
286.7350, 268.3587
287.2171, 268.7580
287.6992, 268.8831
288.1813, 268.6578
288.6635, 268.0550
289.1456, 267.5438
289.6277, 267.6320
290.1098, 268.2090
290.5919, 268.4691
291.0740, 268.1388
291.5562, 267.6512
292.0383, 268.0753
292.5204, 269.3612
293.0025, 270.3808
293.4846, 270.2310
293.9667, 269.1985
294.4489, 268.2982
294.9310, 267.7126
295.4131, 267.1621
295.8952, 265.9595
296.3773, 264.2723
296.8594, 263.1215
297.3416, 263.4971
297.8237, 264.7801
298.3058, 265.5423
298.7879, 265.6479
299.2700, 265.4506
299.7521, 265.2502
300.2343, 265.0634
300.7164, 264.9554
301.1985, 265.0922
301.6806, 265.2783
302.1627, 265.2701
302.6448, 265.0672
303.1270, 264.5286
303.6091, 262.8293
304.0912, 260.7123
304.5733, 259.6458
305.0554, 261.0994
305.5375, 263.4469
306.0197, 264.8809
306.5018, 265.4357
306.9839, 265.8352
307.4660, 266.7589
307.9481, 267.8207
308.4302, 268.4384
308.9124, 267.9364
309.3945, 267.4278
309.8766, 268.0589
310.3587, 269.6178
310.8408, 270.9531
311.3229, 271.1892
311.8051, 270.9456
312.2872, 270.8188
312.7693, 270.9075
313.2514, 271.2113
313.7335, 271.8915
314.2156, 272.8169
314.6978, 273.6105
315.1799, 274.0025
315.6620, 274.2585
316.1441, 274.5380
316.6262, 274.8438
317.1083, 275.2382
317.5905, 275.8122
318.0726, 276.4801
318.5547, 277.1029
319.0368, 277.4219
319.5189, 277.8447
320.0010, 278.6729
320.4832, 280.0639
320.9653, 281.1871
321.4474, 281.6018
321.9295, 281.6960
322.4116, 281.9242
322.8937, 281.8573
323.3759, 282.4523
323.8580, 284.3834
324.3401, 287.7399
324.8222, 290.4542
325.3043, 291.6863
325.7864, 292.4583
326.2686, 293.5578
326.7507, 295.5540
327.2328, 297.3347
327.7149, 298.3858
328.1970, 298.8380
328.6791, 300.2547
329.1613, 303.7565
329.6434, 307.3344
330.1255, 309.9320
330.6076, 310.0036
331.0897, 311.3465
331.5718, 314.6429
332.0540, 319.2374
332.5361, 323.3223
333.0182, 326.9961
333.5003, 330.0821
333.9824, 332.3275
334.4645, 333.2554
334.9467, 334.8268
335.4288, 336.9746
335.9109, 339.8098
336.3930, 343.6041
336.8751, 348.8660
337.3572, 353.9837
337.8394, 358.5563
338.3215, 362.5362
338.8036, 366.0757
339.2857, 368.8816
339.7678, 371.7695
340.2499, 375.7373
340.7320, 380.8241
341.2141, 386.4122
341.6963, 392.6012
342.1784, 399.1211
342.6605, 404.4969
343.1426, 408.5431
343.6247, 412.0937
344.1068, 415.7023
344.5890, 419.3178
345.0711, 422.9170
345.5532, 426.5075
346.0353, 430.0031
346.5174, 433.3935
346.9995, 436.6935
347.4817, 439.0602
347.9638, 439.8530
348.4459, 439.2823
348.9280, 438.1641
349.4101, 436.6301
349.8922, 434.2931
350.3744, 430.2779
350.8565, 424.9464
351.3386, 419.5933
351.8207, 414.8687
352.3028, 410.5558
352.7849, 406.3476
353.2671, 402.2090
353.7492, 397.8705
354.2313, 392.4103
354.7134, 386.6869
355.1955, 382.1879
355.6776, 380.2389
356.1598, 378.9969
356.6419, 376.4981
357.1240, 373.0201
357.6061, 370.0428
358.0882, 368.4581
358.5703, 367.8126
359.0525, 367.7514
359.5346, 368.3755
360.0167, 369.2030
360.4988, 370.0138
360.9809, 370.8140
361.4630, 371.6126
361.9452, 372.2280
362.4273, 372.9708
362.9094, 373.8713
363.3915, 374.7907
363.8736, 376.5370
364.3557, 379.9933
364.8379, 384.1919
365.3200, 387.9886
365.8021, 390.4203
366.2842, 393.1255
366.7663, 396.6817
367.2484, 401.1249
367.7306, 405.4314
368.2127, 409.2676
368.6948, 413.0682
369.1769, 417.1579
369.6590, 421.4647
370.1411, 426.1912
370.6233, 431.3972
371.1054, 437.0584
371.5875, 443.1092
372.0696, 449.5607
372.5517, 456.3061
373.0338, 463.3326
373.5160, 470.6402
373.9981, 478.2766
374.4802, 486.2255
374.9623, 494.6054
375.4444, 503.6313
375.9265, 513.7607
376.4087, 523.4218
376.8908, 531.5008
377.3729, 538.1630
377.8550, 548.1202
378.3371, 562.0121
378.8192, 577.2726
379.3014, 591.2930
379.7835, 604.1490
380.2656, 616.6388
380.7477, 628.6085
381.2298, 640.5400
381.7119, 653.9603
382.1941, 668.7662
382.6762, 684.3505
383.1583, 700.4277
383.6404, 716.9426
384.1225, 732.8771
384.6046, 747.9058
385.0868, 763.1157
385.5689, 780.2594
386.0510, 798.9565
386.5331, 817.9582
387.0152, 837.0088
387.4973, 856.0651
387.9795, 875.2228
388.4616, 894.4894
388.9437, 913.7012
389.4258, 932.5939
389.9079, 951.4648
390.3900, 970.4163
390.8722, 989.3506
391.3543, 1008.578
391.8364, 1028.437
392.3185, 1048.592
392.8006, 1068.472
393.2827, 1087.548
393.7649, 1106.398
394.2470, 1125.344
394.7291, 1144.752
395.2112, 1163.353
395.6933, 1181.181
396.1754, 1197.793
396.6576, 1212.532
397.1397, 1225.727
397.6218, 1236.536
398.1039, 1244.460
398.5860, 1249.375
399.0681, 1252.708
399.5503, 1254.530
400.0324, 1254.849
400.5145, 1253.725
400.9966, 1251.674
401.4787, 1247.467
401.9608, 1240.279
402.4430, 1230.818
402.9251, 1221.885
403.4072, 1214.214
403.8893, 1205.931
404.3714, 1196.179
404.8535, 1184.554
405.3357, 1172.714
405.8178, 1160.320
406.2999, 1148.316
406.7820, 1138.773
407.2641, 1132.375
407.7462, 1124.371
408.2284, 1112.569
408.7105, 1098.100
409.1926, 1085.826
409.6747, 1076.001
410.1568, 1066.526
410.6389, 1055.710
411.1211, 1043.764
411.6032, 1031.385
412.0853, 1018.748
412.5674, 1005.518
413.0495, 990.6560
413.5316, 974.2337
414.0138, 957.0809
414.4959, 939.6110
414.9780, 921.4681
415.4601, 902.2453
415.9422, 881.7087
416.4243, 860.6377
416.9065, 838.9261
417.3886, 817.1157
417.8707, 796.4831
418.3528, 778.1328
418.8349, 760.2026
419.3170, 740.9907
419.7992, 720.7079
420.2813, 701.4180
420.7634, 683.4426
421.2455, 666.6879
421.7276, 651.2675
422.2097, 637.5779
422.6919, 623.9489
423.1740, 609.5752
423.6561, 595.0465
424.1382, 580.9053
424.6203, 566.8730
425.1024, 553.9918
425.5846, 542.6171
426.0667, 532.8454
426.5488, 523.4987
427.0309, 514.6099
427.5130, 506.0121
427.9951, 497.4967
428.4773, 488.6740
428.9594, 480.8796
429.4415, 474.6877
429.9236, 469.3857
430.4057, 462.8151
430.8878, 454.4633
431.3700, 446.5477
431.8521, 439.9753
432.3342, 434.7479
432.8163, 430.5400
433.2984, 427.5492
433.7805, 424.9024
434.2627, 421.6084
434.7448, 417.7259
435.2269, 413.7871
435.7090, 409.6707
436.1911, 405.7709
436.6732, 402.9256
437.1554, 401.0646
437.6375, 399.7728
438.1196, 399.2723
438.6017, 399.0124
439.0838, 397.9551
439.5659, 395.8362
440.0480, 393.6823
440.5302, 392.3997
441.0123, 391.6494
441.4944, 390.8636
441.9765, 389.2281
442.4586, 387.9725
442.9407, 388.0704
443.4229, 389.3887
443.9050, 390.7413
444.3871, 391.7961
444.8692, 392.6140
445.3513, 393.1441
445.8334, 392.8169
446.3156, 393.2278
446.7977, 395.0274
447.2798, 397.6811
447.7619, 400.2524
448.2440, 402.2968
448.7261, 404.6507
449.2083, 407.5283
449.6904, 410.9651
450.1725, 414.4256
450.6546, 417.8086
451.1367, 421.2906
451.6188, 425.0591
452.1010, 429.3121
452.5831, 433.1581
453.0652, 436.2641
453.5473, 439.2349
454.0294, 443.7140
454.5115, 449.9000
454.9937, 456.1443
455.4758, 461.6290
455.9579, 466.5346
456.4400, 472.0805
456.9221, 478.3664
457.4042, 484.7608
457.8864, 490.4341
458.3685, 495.7239
458.8506, 501.8635
459.3327, 509.3150
459.8148, 517.3793
460.2969, 525.1028
460.7791, 532.7468
461.2612, 540.9356
461.7433, 550.7925
462.2254, 560.8958
462.7075, 570.2279
463.1896, 578.8692
463.6718, 585.7543
464.1539, 590.0549
464.6360, 592.4307
465.1181, 593.4440
465.6002, 594.2041
466.0823, 592.6050
466.5645, 588.2115
467.0466, 581.0575
467.5287, 571.2803
468.0108, 557.5338
468.4929, 542.3491
468.9750, 526.4212
469.4572, 509.5132
469.9393, 492.8552
470.4214, 476.3132
470.9035, 460.2702
471.3856, 445.0814
471.8677, 430.6073
472.3499, 417.3388
472.8320, 405.1160
473.3141, 394.0473
473.7962, 384.5622
474.2783, 376.8197
474.7604, 369.5373
475.2426, 361.5181
475.7247, 353.1078
476.2068, 346.8491
476.6889, 342.9790
477.1710, 340.0879
477.6531, 336.6378
478.1353, 332.9116
478.6174, 329.7223
479.0995, 327.6078
479.5816, 325.8186
480.0637, 323.3542
480.5458, 320.4462
481.0280, 318.0101
481.5101, 317.1958
481.9922, 316.6405
482.4743, 315.2581
482.9564, 312.8300
483.4385, 310.0404
483.9207, 306.5933
484.4028, 303.1859
484.8849, 300.5566
485.3670, 299.4340
485.8491, 298.5045
486.3312, 297.6288
486.8134, 296.7891
487.2955, 295.8933
487.7776, 295.0499
488.2597, 294.0545
488.7418, 292.6867
489.2239, 290.7170
489.7061, 289.6839
490.1882, 290.0552
490.6703, 290.6733
491.1524, 289.9903
491.6345, 287.7315
492.1166, 286.3263
492.5988, 286.5034
493.0809, 287.5274
493.5630, 287.4703
494.0451, 286.3579
494.5272, 285.1498
495.0093, 284.2538
495.4915, 283.6876
495.9736, 283.7022
496.4557, 284.3513
496.9378, 284.7507
497.4199, 283.8129
497.9020, 282.1894
498.3842, 280.9012
498.8663, 280.3817
499.3484, 280.0766
499.8305, 279.7416
500.3126, 279.3571
500.7947, 278.8714
501.2769, 278.1696
501.7590, 277.4427
502.2411, 276.7786
502.7232, 276.1845
503.2053, 275.6041
503.6874, 274.9137
504.1696, 274.3135
504.6517, 273.9755
505.1338, 274.1633
505.6159, 274.1099
506.0980, 273.5136
506.5801, 272.7618
507.0623, 272.9199
507.5444, 274.3963
508.0265, 275.4594
508.5086, 275.3322
508.9907, 274.1827
509.4728, 273.3790
509.9550, 272.9461
510.4371, 272.6811
510.9192, 272.6335
511.4013, 272.6522
511.8834, 272.0081
512.3655, 270.3778
512.8477, 268.7635
513.3298, 268.5551
513.8119, 269.2858
514.2940, 269.8401
514.7761, 269.5419
515.2582, 269.0084
515.7404, 268.7509
516.2225, 268.7221
516.7046, 268.5219
517.1867, 267.7423
517.6688, 266.8894
518.1509, 266.3011
518.6331, 266.1235
519.1152, 265.9572
519.5973, 265.4479
520.0794, 265.0287
520.5615, 265.2639
521.0436, 266.7398
521.5258, 267.9541
522.0079, 268.6883
522.4900, 268.9755
522.9721, 268.9080
523.4542, 268.3486
523.9363, 267.8384
524.4185, 267.6960
524.9006, 267.9203
525.3827, 268.1797
525.8648, 268.5449
526.3469, 268.6273
526.8290, 267.7549
527.3112, 266.1888
527.7933, 264.8759
528.2754, 263.9633
528.7575, 263.5298
529.2396, 263.7973
529.7217, 264.6355
530.2039, 265.6471
530.6860, 267.1341
531.1681, 268.3423
531.6502, 268.6078
532.1323, 267.9163
532.6144, 267.1694
533.0966, 266.5753
533.5787, 266.1363
534.0608, 265.8432
534.5429, 265.6697
535.0250, 265.6886
535.5071, 266.1664
535.9893, 266.7394
536.4714, 266.8346
536.9535, 266.1219
537.4356, 265.5547
537.9177, 265.2618
538.3998, 265.2780
538.8820, 266.2018
539.3641, 268.4130
539.8462, 269.7594
540.3283, 268.0622
540.8104, 263.9289
541.2925, 261.8112
541.7747, 262.0792
542.2568, 263.2006
542.7389, 263.7227
543.2210, 263.8291
543.7031, 263.9814
544.1852, 264.4535
544.6674, 264.7835
545.1495, 264.4234
545.6316, 263.5800
546.1137, 262.7674
546.5958, 262.0090
547.0779, 261.5226
547.5601, 261.6406
548.0422, 262.3966
548.5243, 262.6932
549.0064, 261.6577
549.4885, 260.5457
549.9706, 260.1588
550.4528, 261.0140
550.9349, 261.6154
551.4170, 261.8529
551.8991, 261.9287
552.3812, 262.2162
552.8633, 262.8569
553.3455, 263.0825
553.8276, 262.5416
554.3097, 261.5511
554.7918, 261.0865
555.2739, 261.1555
555.7560, 261.5950
556.2382, 262.6769
556.7203, 263.9956
557.2024, 264.6682
557.6845, 264.6529
558.1666, 264.1611
558.6487, 262.7264
559.1309, 261.1561
559.6130, 260.6042
560.0951, 261.8809
560.5772, 263.1635
561.0593, 263.5549
561.5414, 263.3673
562.0236, 263.1499
562.5057, 263.0088
562.9878, 262.8759
563.4699, 262.7257
563.9520, 262.5604
564.4341, 262.4088
564.9163, 262.2550
565.3984, 262.1309
565.8805, 261.9651
566.3626, 261.6591
566.8447, 262.0080
567.3268, 263.1496
567.8090, 264.5652
568.2911, 265.8568
568.7732, 266.9865
569.2553, 267.4148
569.7374, 266.8264
570.2195, 265.9342
570.7017, 265.7116
571.1838, 266.0162
571.6659, 266.3943
572.1480, 266.5973
572.6301, 266.8024
573.1122, 267.2255
573.5944, 267.8356
574.0765, 268.3185
574.5586, 268.3230
575.0407, 268.3146
575.5228, 268.6407
576.0049, 269.5802
576.4871, 270.1689
576.9692, 270.0805
577.4513, 269.7737
577.9334, 269.6737
578.4155, 269.8765
578.8976, 270.1181
579.3798, 270.5481
579.8619, 270.8633
580.3440, 270.0500
580.8261, 267.9911
581.3082, 266.3601
581.7903, 266.0428
582.2725, 266.6290
582.7546, 267.1060
583.2367, 267.4586
583.7188, 267.4364
584.2009, 266.3340
584.6830, 264.9625
585.1652, 264.5428
585.6473, 265.3777
586.1294, 266.1360
586.6115, 265.8700
587.0936, 265.1927
587.5757, 264.7520
588.0578, 265.1750
588.5399, 265.2951
589.0220, 264.4023
589.5042, 263.1028
589.9863, 262.8432
590.4684, 264.4501
590.9505, 265.7614
591.4326, 266.2077
591.9147, 265.8652
592.3969, 265.3305
592.8790, 264.5464
593.3611, 263.8247
593.8432, 263.3941
594.3253, 263.2174
594.8074, 262.9717
595.2896, 262.6174
595.7717, 262.4912
596.2538, 263.1837
596.7359, 264.2904
597.2180, 265.0848
597.7001, 265.3244
598.1823, 265.3126
598.6644, 265.1636
599.1465, 264.9131
599.6286, 264.6202
600.1107, 263.7724
600.5928, 263.4371
601.0750, 264.3464
601.5571, 266.2859
602.0392, 267.4120
602.5213, 267.1679
603.0034, 266.8430
603.4855, 266.9675
603.9677, 267.5813
604.4498, 268.0588
604.9319, 268.3806
605.4140, 268.6268
605.8961, 268.8412
606.3782, 269.0316
606.8604, 269.2182
607.3425, 269.3820
607.8246, 269.6324
608.3067, 270.2569
608.7888, 271.0574
609.2709, 271.5895
609.7531, 271.5696
610.2352, 271.3784
610.7173, 271.2414
611.1994, 271.1307
611.6815, 270.9681
612.1636, 270.7704
612.6458, 270.4808
613.1279, 270.1079
613.6100, 269.6574
614.0921, 268.9274
614.5742, 267.4413
615.0563, 266.2995
615.5385, 266.3534
616.0206, 268.0014
616.5027, 268.3409
616.9848, 267.0612
617.4669, 265.4162
617.9490, 264.9777
618.4312, 265.5062
618.9133, 265.7304
619.3954, 265.2759
619.8775, 264.7527
620.3596, 264.8863
620.8417, 265.5115
621.3239, 266.2509
621.8060, 267.5360
622.2881, 268.3555
622.7702, 267.7554
623.2523, 266.0934
623.7344, 264.8505
624.2166, 264.3023
624.6987, 264.3544
625.1808, 265.3012
625.6629, 267.2744
626.1450, 268.0368
626.6271, 267.0856
627.1093, 265.7412
627.5914, 264.7210
628.0735, 263.9868
628.5556, 264.3820
629.0377, 266.2243
629.5198, 268.1338
630.0020, 268.2129
630.4841, 266.9983
630.9662, 266.2040
631.4483, 266.4152
631.9304, 266.8747
632.4125, 266.9028
632.8947, 266.6386
633.3768, 266.3583
633.8589, 266.1706
634.3410, 266.0058
634.8231, 265.7974
635.3052, 265.5736
635.7874, 265.4918
636.2695, 265.4893
636.7516, 265.7232
637.2337, 266.3192
637.7158, 267.3030
638.1979, 268.0986
638.6801, 268.7301
639.1622, 269.0948
639.6443, 269.0395
640.1264, 268.5989
640.6085, 268.0384
641.0906, 267.3334
641.5728, 266.7800
642.0549, 266.6885
642.5370, 266.9690
643.0191, 267.5197
643.5012, 268.5567
643.9833, 269.3767
644.4655, 269.4262
644.9476, 268.9900
645.4297, 268.5526
645.9118, 267.8653
646.3939, 267.6222
646.8760, 268.3414
647.3582, 269.7088
647.8403, 270.5011
648.3224, 270.5236
648.8045, 270.3748
649.2866, 270.2938
649.7687, 270.2492
650.2509, 269.8696
650.7330, 269.1128
651.2151, 268.4262
651.6972, 268.1470
652.1793, 268.1821
652.6614, 268.3720
653.1436, 268.7114
653.6257, 269.0408
654.1078, 269.1661
654.5899, 269.2434
655.0720, 269.4477
655.5541, 269.8527
656.0363, 270.3178
656.5184, 270.9314
657.0005, 271.5271
657.4826, 271.8878
657.9647, 271.9374
658.4468, 271.8626
658.9290, 271.6450
659.4111, 271.3356
659.8932, 270.9497
660.3753, 270.4244
660.8574, 270.3657
661.3395, 271.1873
661.8217, 272.5000
662.3038, 273.4898
662.7859, 274.1410
663.2680, 274.3602
663.7501, 273.5710
664.2322, 272.6530
664.7144, 272.5865
665.1965, 273.3887
665.6786, 274.1143
666.1607, 274.0495
666.6428, 274.0120
667.1249, 274.5712
667.6071, 276.1074
668.0892, 277.3941
668.5713, 278.5359
669.0534, 279.3391
669.5355, 279.4746
670.0176, 278.7876
670.4998, 278.5369
670.9819, 278.8673
671.4640, 279.5917
671.9461, 280.5169
672.4282, 281.6101
672.9103, 282.8625
673.3925, 284.4770
673.8746, 285.8973
674.3567, 286.1627
674.8388, 285.8117
675.3209, 286.0031
675.8030, 288.0569
676.2852, 289.8763
676.7673, 290.4166
677.2494, 289.8963
677.7315, 289.7924
678.2136, 290.3955
678.6957, 291.1030
679.1779, 291.8394
679.6600, 292.5826
680.1421, 292.4262
680.6242, 291.1636
681.1063, 290.2052
681.5884, 290.9998
682.0706, 292.8829
682.5527, 293.7039
683.0348, 293.3529
683.5169, 292.3376
683.9990, 290.2919
684.4811, 288.1879
684.9633, 287.2293
685.4454, 288.0617
685.9275, 288.7396
686.4096, 288.4483
686.8917, 287.7427
687.3738, 287.2198
687.8560, 286.9896
688.3381, 286.8113
688.8202, 286.7544
689.3023, 286.6594
689.7844, 286.1667
690.2665, 285.2229
690.7487, 284.4668
691.2308, 283.9877
691.7129, 283.8832
692.1950, 284.6765
692.6771, 286.0668
693.1592, 286.9862
693.6414, 286.5920
694.1235, 285.7869
694.6056, 285.2153
695.0877, 284.8277
695.5698, 284.3597
696.0519, 283.5040
696.5341, 282.7820
697.0162, 282.4973
697.4983, 282.6451
697.9804, 282.4843
698.4625, 281.8331
698.9446, 281.2581
699.4268, 281.1039
699.9089, 281.3531
700.3910, 281.7289
700.8731, 282.2523
701.3552, 282.6425
701.8373, 282.3897
702.3195, 281.9124
702.8016, 282.0818
703.2837, 283.1308
703.7658, 283.9427
704.2479, 283.5524
704.7300, 282.7384
705.2122, 282.2236
705.6943, 282.0820
706.1764, 282.3893
706.6585, 283.7265
707.1406, 285.0951
707.6227, 285.0986
708.1049, 283.1869
708.5870, 282.3085
709.0691, 283.2315
709.5512, 284.7705
710.0333, 284.6605
710.5154, 283.2048
710.9976, 282.0226
711.4797, 281.7536
711.9618, 281.9040
712.4439, 281.9420
712.9260, 282.0009
713.4081, 282.4035
713.8903, 284.0219
714.3724, 285.2537
714.8545, 285.2890
715.3366, 284.3055
715.8187, 283.6097
716.3008, 283.3229
716.7830, 283.1243
717.2651, 282.9007
717.7472, 282.6682
718.2293, 282.5728
718.7114, 282.6226
719.1935, 282.6896
719.6757, 282.7669
720.1578, 282.7794
720.6399, 282.5033
721.1220, 281.9543
721.6041, 281.4763
722.0862, 281.3931
722.5684, 281.4017
723.0505, 281.3459
723.5326, 281.2660
724.0147, 280.7794
724.4968, 279.1700
724.9789, 277.7125
725.4611, 277.3291
725.9432, 278.4805
726.4253, 278.8596
726.9074, 278.3040
727.3895, 277.4342
727.8716, 276.7125
728.3538, 276.2150
728.8359, 276.4237
729.3180, 277.5878
729.8001, 278.6867
730.2822, 278.6510
730.7643, 278.0391
731.2465, 277.6145
731.7286, 277.9339
732.2107, 277.9231
732.6928, 276.6342
733.1749, 275.0688
733.6570, 274.8275
734.1392, 276.7656
734.6213, 278.0702
735.1034, 278.1836
735.5855, 277.6662
736.0676, 277.8170
736.5497, 278.5573
737.0319, 278.6089
737.5140, 277.0620
737.9961, 275.3063
738.4782, 275.4337
738.9603, 276.8492
739.4424, 278.0168
739.9246, 278.0921
740.4067, 277.9281
740.8888, 277.8641
741.3709, 277.8849
741.8530, 277.8575
742.3351, 277.7257
742.8173, 277.6340
743.2994, 277.6756
743.7815, 277.7911
744.2636, 277.5384
744.7457, 276.8712
745.2278, 276.4541
745.7100, 276.9592
746.1921, 277.8596
746.6742, 277.9993
747.1563, 277.4970
747.6384, 277.1935
748.1205, 278.0412
748.6027, 278.8906
749.0848, 278.8677
749.5669, 277.8875
750.0490, 276.9866
750.5311, 276.0296
751.0132, 275.4709
751.4954, 275.6422
751.9775, 276.6210
752.4596, 277.1914
752.9417, 277.3038
753.4238, 277.2798
753.9059, 277.3733
754.3881, 277.5306
754.8702, 277.5886
755.3523, 277.5344
755.8344, 277.5212
756.3165, 278.3171
756.7986, 278.8011
757.2808, 277.5313
757.7629, 273.3194
758.2450, 271.0545
758.7271, 273.2427
759.2092, 276.2129
759.6913, 277.3545
760.1735, 275.9771
760.6556, 275.7606
761.1377, 277.0752
761.6198, 278.6436
762.1019, 278.9344
762.5840, 278.3063
763.0662, 277.8809
763.5483, 277.8397
764.0304, 278.0116
764.5125, 278.5203
764.9946, 279.0424
765.4767, 279.1740
765.9589, 278.4980
766.4410, 278.0083
766.9231, 277.9111
767.4052, 278.0556
767.8873, 278.3241
768.3694, 278.7514
768.8516, 279.2000
769.3337, 279.7206
769.8158, 280.1127
770.2979, 279.9658
770.7800, 279.4200
771.2621, 278.9566
771.7443, 278.6584
772.2264, 278.5868
772.7085, 279.0478
773.1906, 279.6978
773.6727, 280.0243
774.1548, 279.4327
774.6370, 279.0691
775.1191, 279.2806
775.6012, 279.7590
776.0833, 280.0785
776.5654, 280.2941
777.0475, 280.0598
777.5297, 279.1315
778.0118, 278.0472
778.4939, 277.8175
778.9760, 278.2791
779.4581, 278.8324
779.9402, 279.2676
780.4224, 279.6902
780.9045, 280.1831
781.3866, 280.7115
781.8687, 281.2106
782.3508, 281.8497
782.8329, 282.2101
783.3151, 282.2057
783.7972, 281.8861
784.2793, 281.2218
784.7614, 280.0716
785.2435, 279.4069
785.7256, 279.5982
786.2077, 280.2928
786.6898, 280.9447
787.1719, 281.5211
787.6541, 281.8563
788.1362, 281.8043
788.6183, 281.5840
789.1004, 281.2187
789.5825, 280.8036
790.0646, 280.5808
790.5468, 281.1592
791.0289, 281.2137
791.5110, 280.1376
791.9931, 278.4675
792.4752, 278.0345
792.9573, 278.9767
793.4395, 279.8497
793.9216, 280.0801
794.4037, 280.0101
794.8858, 280.4834
795.3679, 281.2461
795.8500, 281.4754
796.3322, 279.8989
796.8143, 278.5191
797.2964, 278.6893
797.7785, 280.0066
798.2606, 281.0129
798.7427, 281.6793
799.2249, 281.7909
799.7070, 280.9648
800.1891, 279.6820
800.6712, 279.7964
801.1533, 281.3336
801.6354, 282.5799
802.1176, 282.6552
802.5997, 282.1950
803.0818, 282.0401
803.5639, 282.1314
804.0460, 282.2859
804.5281, 282.8219
805.0103, 282.9921
805.4924, 282.1649
805.9745, 280.6237
806.4566, 279.6604
806.9387, 279.3806
807.4208, 279.4845
807.9030, 279.9507
808.3851, 280.6997
808.8672, 281.6439
809.3493, 282.7317
809.8314, 283.5078
810.3135, 283.6517
810.7957, 283.4648
811.2778, 283.1892
811.7599, 282.8279
812.2420, 282.3904
812.7241, 281.2790
813.2062, 280.7734
813.6884, 281.6638
814.1705, 283.4338
814.6526, 284.4280
815.1347, 284.4899
815.6168, 284.4588
816.0989, 284.6065
816.5811, 284.8135
817.0632, 284.8172
817.5453, 284.6432
818.0274, 284.3946
818.5095, 284.2736
818.9916, 283.9545
819.4738, 282.7739
819.9559, 281.2161
820.4380, 280.5893
820.9201, 282.4313
821.4022, 283.5493
821.8843, 283.1325
822.3665, 281.7815
822.8486, 280.8974
823.3307, 280.4810
823.8128, 280.8095
824.2949, 282.3581
824.7770, 284.1351
825.2592, 284.5417
825.7413, 284.0260
826.2234, 283.6840
826.7055, 284.3638
827.1876, 284.8646
827.6697, 284.5298
828.1519, 283.7189
828.6340, 283.2534
829.1161, 283.1711
829.5982, 283.3945
830.0803, 284.0070
830.5624, 284.7828
831.0446, 285.3749
831.5267, 285.7642
832.0088, 285.8263
832.4909, 285.3289
832.9730, 284.8517
833.4551, 284.9896
833.9373, 285.4836
834.4194, 285.9128
834.9015, 286.3877
835.3836, 286.4759
835.8657, 285.8935
836.3478, 285.0846
836.8300, 284.7479
837.3121, 284.9314
837.7942, 285.1223
838.2763, 285.2296
838.7584, 285.3249
839.2405, 285.3908
839.7227, 285.5365
840.2048, 286.1067
840.6869, 287.7067
841.1690, 288.6113
841.6511, 286.9708
842.1332, 284.6825
842.6154, 284.1406
843.0975, 286.6166
843.5796, 288.1390
844.0617, 288.3509
844.5438, 287.9529
845.0259, 287.7967
845.5081, 287.7876
845.9902, 287.3715
846.4723, 286.3994
846.9544, 285.4549
847.4365, 285.0327
847.9186, 284.9201
848.4008, 284.9196
848.8829, 285.0711
849.3650, 285.1219
849.8471, 284.9193
850.3292, 284.7406
850.8113, 284.8097
851.2935, 285.1559
851.7756, 285.5031
852.2577, 285.8512
852.7398, 286.1453
853.2219, 286.2354
853.7040, 286.2801
854.1862, 286.5712
854.6683, 287.1470
855.1504, 287.6937
855.6325, 288.1414
856.1146, 288.4405
856.5967, 288.4659
857.0789, 288.1485
857.5610, 288.2643
858.0431, 288.9252
858.5252, 289.6576
859.0073, 290.3224
859.4894, 290.8012
859.9716, 290.2693
860.4537, 288.8790
860.9358, 288.2661
861.4179, 290.7198
861.9000, 293.2889
862.3821, 293.6036
862.8643, 291.6932
863.3464, 290.5305
863.8285, 290.8948
864.3106, 291.1267
864.7927, 290.5172
865.2748, 289.3452
865.7570, 289.0082
866.2391, 289.4570
866.7212, 289.8622
867.2033, 289.5799
867.6854, 289.2123
868.1675, 289.4745
868.6497, 290.1832
869.1318, 290.8091
869.6139, 291.5270
870.0960, 291.6834
870.5781, 290.7891
871.0602, 289.3777
871.5424, 288.8284
872.0245, 289.2213
872.5066, 289.6661
872.9887, 289.8885
873.4708, 290.1344
873.9529, 291.0579
874.4351, 292.2671
874.9172, 292.8777
875.3993, 292.2435
875.8814, 291.5170
876.3635, 291.1009
876.8456, 290.8591
877.3278, 290.5563
877.8099, 290.0450
878.2920, 289.9907
878.7741, 290.5708
879.2562, 291.3296
879.7383, 291.7157
880.2205, 291.8159
880.7026, 291.8871
881.1847, 291.9935
881.6668, 291.9620
882.1489, 291.4452
882.6310, 290.8796
883.1132, 290.6861
883.5953, 291.0809
884.0774, 291.3017
884.5595, 291.2744
885.0416, 291.1997
885.5237, 291.2166
886.0059, 291.3142
886.4880, 291.4391
886.9701, 291.5883
887.4522, 291.7758
887.9343, 291.8360
888.4164, 292.0729
888.8986, 292.9760
889.3807, 294.5545
889.8628, 295.5070
890.3449, 295.5206
890.8270, 295.0855
891.3091, 294.1748
891.7913, 292.9706
892.2734, 292.6192
892.7555, 293.0799
893.2376, 293.3915
893.7197, 292.6060
894.2018, 291.7830
894.6840, 292.2259
895.1661, 293.5386
895.6482, 294.6139
896.1303, 295.0560
896.6124, 295.2809
897.0945, 295.3294
897.5767, 295.2539
898.0588, 295.1675
898.5409, 295.0693
899.0230, 294.8637
899.5051, 294.4179
899.9872, 294.1524
900.4694, 294.9446
900.9515, 296.1841
901.4336, 296.8163
901.9157, 296.2148
902.3978, 295.6561
902.8799, 295.4581
903.3621, 295.4733
903.8442, 295.6654
904.3263, 296.1309
904.8084, 296.0809
905.2905, 295.3734
905.7726, 294.7450
906.2548, 295.0206
906.7369, 295.7978
907.2190, 296.4996
907.7011, 297.0641
908.1832, 297.3926
908.6653, 297.4047
909.1475, 297.1764
909.6296, 296.6067
910.1117, 295.7141
910.5938, 295.5650
911.0759, 296.3225
911.5580, 296.9683
912.0402, 296.8017
912.5223, 296.2211
913.0044, 295.9823
913.4865, 296.0330
913.9686, 296.1964
914.4507, 296.6044
914.9329, 296.8762
915.4150, 296.6996
915.8971, 296.2849
916.3792, 296.1558
916.8613, 296.3529
917.3434, 296.7029
917.8256, 297.2453
918.3077, 297.7563
918.7898, 297.7215
919.2719, 297.3834
919.7540, 297.3945
920.2361, 298.2555
920.7183, 298.7341
921.2004, 297.8335
921.6825, 296.5148
922.1646, 295.7726
922.6467, 295.8372
923.1288, 295.7885
923.6110, 295.5525
924.0931, 295.4413
924.5752, 295.7850
925.0573, 296.4666
925.5394, 297.3127
926.0215, 298.3050
926.5037, 299.1588
926.9858, 299.9984
927.4679, 300.4218
927.9500, 299.8793
928.4321, 298.4904
928.9142, 297.7836
929.3964, 297.8590
929.8785, 298.2591
930.3606, 298.9102
930.8427, 299.6520
931.3248, 300.2145
931.8069, 300.5609
932.2891, 300.5741
932.7712, 299.7206
933.2533, 299.0537
933.7354, 299.1371
934.2175, 299.6664
934.6996, 300.0630
935.1818, 300.3712
935.6639, 300.3408
936.1460, 299.8234
936.6281, 299.3096
937.1102, 299.5407
937.5923, 300.2526
938.0745, 300.8638
938.5566, 301.2447
939.0387, 301.6639
939.5208, 302.1937
940.0029, 302.8636
940.4850, 303.8209
940.9672, 305.1948
941.4493, 305.4973
941.9314, 304.4216
942.4135, 303.6934
942.8956, 305.0239
943.3777, 307.2979
943.8599, 308.2248
944.3420, 308.0144
944.8241, 307.9256
945.3062, 308.5533
945.7883, 309.4301
946.2704, 310.4734
946.7526, 311.6123
947.2347, 312.6507
947.7168, 313.5650
948.1989, 314.5592
948.6810, 315.6518
949.1631, 316.9383
949.6453, 318.7856
950.1274, 320.8785
950.6095, 322.5219
951.0916, 323.0775
951.5737, 324.1938
952.0558, 326.6592
952.5380, 329.6653
953.0201, 332.6642
953.5022, 335.6714
953.9843, 338.4239
954.4664, 340.8477
954.9485, 343.4614
955.4307, 346.7928
955.9128, 350.4992
956.3949, 354.1988
956.8770, 357.8671
957.3591, 361.5101
957.8412, 365.1212
958.3234, 368.7160
958.8055, 372.1751
959.2876, 375.7097
959.7697, 380.1921
960.2518, 385.6306
960.7339, 391.3782
961.2161, 397.5770
961.6982, 403.4324
962.1803, 407.4431
962.6624, 410.7922
963.1445, 415.4228
963.6266, 423.7987
964.1088, 430.4820
964.5909, 434.8340
965.0730, 437.9991
965.5551, 441.1309
966.0372, 444.1344
966.5193, 446.3449
967.0015, 447.7013
967.4836, 448.0491
967.9657, 446.4777
968.4478, 444.4335
968.9299, 443.2234
969.4120, 442.9285
969.8942, 442.1475
970.3763, 440.6471
970.8584, 439.0033
971.3405, 437.3303
971.8226, 435.7142
972.3047, 434.0845
972.7869, 432.6278
973.2690, 432.0755
973.7511, 432.9046
974.2332, 434.4555
974.7153, 436.5305
975.1974, 439.0580
975.6796, 441.9764
976.1617, 445.3114
976.6438, 448.8583
977.1259, 452.5306
977.6080, 456.5257
978.0901, 460.7705
978.5723, 465.4838
979.0544, 471.4770
979.5365, 478.7725
980.0186, 485.9201
980.5007, 491.6966
980.9828, 497.5294
981.4650, 504.1386
981.9471, 511.4330
982.4291, 519.2943
982.9113, 527.8459
983.3934, 535.4702
983.8755, 541.1900
984.3576, 546.1807
984.8397, 552.1808
985.3218, 558.6825
985.8040, 564.6281
986.2861, 569.3644
986.7682, 574.0224
987.2503, 579.3593
987.7324, 584.0633
988.2145, 586.5818
988.6967, 587.0186
989.1788, 587.3785
989.6609, 587.8305
990.1430, 586.8005
990.6251, 582.6198
991.1072, 576.7299
991.5894, 570.3515
992.0715, 563.5740
992.5536, 555.3407
993.0357, 544.9378
993.5178, 534.5605
993.9999, 525.0151
994.4821, 515.9747
994.9642, 506.6548
995.4463, 497.2651
995.9284, 488.2478
996.4105, 480.0810
996.8926, 471.9083
997.3748, 463.1632
997.8569, 454.2718
998.3390, 445.5436
998.8211, 436.8676
999.3032, 428.6728
999.7853, 421.0710
1000.267, 414.0928
1000.750, 408.2833
1001.232, 403.0091
1001.714, 397.0187
1002.196, 390.4886
1002.678, 384.7706
1003.160, 380.6789
1003.642, 377.4308
1004.124, 375.2626
1004.607, 373.5298
1005.089, 370.2101
1005.571, 365.3756
1006.053, 361.1870
1006.535, 358.2358
1007.017, 355.9555
1007.499, 353.9998
1007.981, 352.2151
1008.463, 350.3314
1008.946, 348.0059
1009.428, 346.5579
1009.910, 346.5097
1010.392, 346.2342
1010.874, 344.3664
1011.356, 341.3657
1011.838, 338.7560
1012.320, 336.5858
1012.802, 335.0045
1013.285, 334.6940
1013.767, 334.3985
1014.249, 333.3749
1014.731, 331.9763
1015.213, 331.0008
1015.695, 330.5255
1016.177, 330.0311
1016.659, 329.4372
1017.142, 328.7835
1017.624, 328.1831
1018.106, 327.5297
1018.588, 326.5676
1019.070, 325.1543
1019.552, 324.1143
1020.034, 323.8457
1020.516, 323.6707
1020.998, 323.2505
1021.481, 322.6642
1021.963, 322.3775
1022.445, 322.3572
1022.927, 322.3955
1023.409, 322.4491
1023.891, 322.4566
1024.373, 322.6992
1024.855, 322.7636
1025.338, 321.7440
1025.820, 318.7015
1026.302, 317.3772
1026.784, 318.3068
1027.266, 319.9135
1027.748, 320.6144
1028.230, 320.8045
1028.712, 321.2645
1029.194, 322.0360
1029.677, 322.6827
1030.159, 323.0909
1030.641, 323.2458
1031.123, 323.0527
1031.605, 322.6534
1032.087, 322.4383
1032.569, 322.4214
1033.051, 322.9322
1033.534, 324.2990
1034.016, 325.6371
1034.498, 326.3054
1034.980, 326.4167
1035.462, 326.0150
1035.944, 324.7680
1036.426, 323.9684
1036.908, 323.6179
1037.391, 323.7160
1037.873, 324.6938
1038.355, 326.0098
1038.837, 326.1771
1039.319, 325.3634
1039.801, 324.3358
1040.283, 323.0399
1040.765, 322.1020
1041.247, 322.0848
1041.729, 322.3082
1042.212, 321.4734
1042.694, 319.5564
1043.176, 318.3405
1043.658, 318.1143
1044.140, 318.2004
1044.622, 318.1238
1045.104, 317.9413
1045.586, 317.9337
1046.069, 318.1655
1046.551, 316.9276
1047.033, 313.1086
1047.515, 310.6143
1047.997, 311.4685
1048.479, 313.9760
1048.961, 314.4390
1049.443, 313.5307
1049.926, 312.9854
1050.408, 313.7505
1050.890, 314.3556
1051.372, 314.1092
1051.854, 313.6377
1052.336, 313.4383
1052.818, 313.5292
1053.300, 313.4743
1053.782, 313.2686
1054.265, 313.1563
1054.747, 313.5447
1055.229, 313.8989
1055.711, 313.7453
1056.193, 313.1662
1056.675, 312.4445
1057.157, 311.2118
1057.639, 310.9643
1058.121, 312.2370
1058.604, 313.7983
1059.086, 313.7033
1059.568, 312.7097
1060.050, 312.3973
1060.532, 313.0743
1061.014, 313.6382
1061.496, 313.4513
1061.978, 313.2778
1062.461, 313.4188
1062.943, 313.8460
1063.425, 314.4370
1063.907, 315.1963
1064.389, 316.1503
1064.871, 317.5960
1065.353, 318.7402
1065.835, 318.6817
1066.318, 318.1133
1066.800, 317.9688
1067.282, 318.5218
1067.764, 318.6308
1068.246, 318.1450
1068.728, 317.9110
1069.210, 318.9566
1069.692, 320.4503
1070.174, 321.0267
1070.656, 320.8440
1071.139, 320.6541
1071.621, 320.3275
1072.103, 320.5539
1072.585, 321.5769
1073.067, 323.0053
1073.549, 324.4308
1074.031, 325.7671
1074.513, 326.6291
1074.996, 326.9290
1075.478, 327.3615
1075.960, 328.6831
1076.442, 329.9869
1076.924, 330.7281
1077.406, 330.9535
1077.888, 330.6669
1078.370, 329.8181
1078.853, 329.4777
1079.335, 330.1817
1079.817, 331.1472
1080.299, 331.5297
1080.781, 331.6305
1081.263, 331.8473
1081.745, 332.2958
1082.227, 332.8390
1082.709, 333.6924
1083.192, 334.0822
1083.674, 333.2550
1084.156, 331.6932
1084.638, 330.4916
1085.120, 329.6259
1085.602, 328.9750
1086.084, 328.6012
1086.566, 328.2994
1087.048, 328.1697
1087.531, 327.9388
1088.013, 327.0700
1088.495, 325.6678
1088.977, 325.2652
1089.459, 325.9585
1089.941, 326.1532
1090.423, 323.7541
1090.905, 321.3641
1091.387, 321.0142
1091.870, 322.2053
1092.352, 322.7102
1092.834, 322.4849
1093.316, 321.8057
1093.798, 320.5758
1094.280, 319.4772
1094.762, 319.7980
1095.244, 320.4632
1095.727, 319.9377
1096.209, 317.6933
1096.691, 316.2994
1097.173, 316.1211
1097.655, 316.3159
1098.137, 316.6615
1098.619, 316.9930
1099.101, 316.7749
1099.583, 316.2325
1100.066, 315.9649
1100.548, 316.5800
1101.030, 316.7613
1101.512, 315.8219
1101.994, 314.6958
1102.476, 313.9778
1102.958, 313.6792
1103.440, 314.1463
1103.922, 315.2838
1104.405, 316.0766
1104.887, 315.5391
1105.369, 314.8905
1105.851, 315.0611
1106.333, 315.4893
1106.815, 314.9075
1107.297, 313.0251
1107.779, 312.4069
1108.262, 313.4135
1108.744, 314.6583
1109.226, 314.9339
1109.708, 314.7644
1110.190, 314.6172
1110.672, 314.5227
1111.154, 314.3806
1111.636, 314.0916
1112.119, 314.0458
1112.601, 314.4185
1113.083, 314.8751
1113.565, 314.7944
1114.047, 314.4862
1114.529, 314.6515
1115.011, 315.5830
1115.493, 315.8172
1115.975, 314.6828
1116.458, 313.3296
1116.940, 312.0163
1117.422, 310.9551
1117.904, 311.0326
1118.386, 311.9662
1118.868, 312.8322
1119.350, 313.4862
1119.832, 313.6277
1120.314, 312.3807
1120.797, 311.2033
1121.279, 311.4117
1121.761, 312.9800
1122.243, 313.3541
1122.725, 312.6231
1123.207, 312.1781
1123.689, 313.5185
1124.171, 314.7249
1124.654, 314.1754
1125.136, 312.7784
1125.618, 312.2253
1126.100, 312.7138
1126.582, 313.1168
1127.064, 313.3881
1127.546, 313.3904
1128.028, 312.6509
1128.510, 311.8538
1128.993, 311.7438
1129.475, 312.2529
1129.957, 312.8398
1130.439, 313.5829
1130.921, 314.0937
1131.403, 314.3560
1131.885, 314.2277
1132.367, 313.0356
1132.849, 311.5616
1133.332, 311.2826
1133.814, 312.3997
1134.296, 312.6071
1134.778, 310.3787
1135.260, 309.0201
1135.742, 309.7623
1136.224, 311.6610
1136.706, 312.9034
1137.189, 313.6510
1137.671, 314.4727
1138.153, 315.7398
1138.635, 316.0879
1139.117, 314.0174
1139.599, 311.8888
1140.081, 310.7106
1140.563, 310.4373
1141.046, 311.1233
1141.528, 312.5366
1142.010, 313.4977
1142.492, 313.2771
1142.974, 312.9347
1143.456, 312.9160
1143.938, 313.0985
1144.420, 313.4352
1144.902, 313.9460
1145.385, 314.0150
1145.867, 313.6619
1146.349, 313.3377
1146.831, 313.4658
1147.313, 313.5683
1147.795, 313.0297
1148.277, 312.3737
1148.759, 312.5632
1149.241, 313.8953
1149.724, 314.4634
1150.206, 314.1390
1150.688, 313.5455
1151.170, 312.8105
1151.652, 312.3804
1152.134, 313.2112
1152.616, 314.7502
1153.098, 314.7104
1153.581, 312.1205
1154.063, 311.1176
1154.545, 312.4849
1155.027, 314.4639
1155.509, 315.3204
1155.991, 315.4669
1156.473, 315.2535
1156.955, 314.7490
1157.438, 314.3987
1157.920, 314.2750
1158.402, 314.2091
1158.884, 314.1316
1159.366, 314.1718
1159.848, 314.8398
1160.330, 315.6379
1160.812, 315.5113
1161.294, 314.1560
1161.776, 313.4825
1162.259, 314.1650
1162.741, 314.9954
1163.223, 315.6158
1163.705, 316.0478
1164.187, 316.3536
1164.669, 316.5038
1165.151, 316.3984
1165.633, 315.9035
1166.116, 315.5096
1166.598, 315.0843
1167.080, 315.1816
1167.562, 316.4934
1168.044, 318.3640
1168.526, 318.1657
1169.008, 316.4181
1169.490, 314.9318
1169.973, 314.2784
1170.455, 314.1491
1170.937, 314.8871
1171.419, 315.6949
1171.901, 316.0838
1172.383, 316.0745
1172.865, 315.6271
1173.347, 314.8669
1173.829, 314.4568
1174.312, 314.8233
1174.794, 315.5014
1175.276, 316.3953
1175.758, 317.4541
1176.240, 319.0329
1176.722, 321.0545
1177.204, 320.5824
1177.686, 317.7957
1178.168, 315.5634
1178.651, 316.1635
1179.133, 317.2710
1179.615, 317.8687
1180.097, 318.1413
1180.579, 318.4558
1181.061, 318.8150
1181.543, 318.3044
1182.025, 316.8572
1182.508, 315.9961
1182.990, 317.7023
1183.472, 319.4904
1183.954, 319.6189
1184.436, 318.6315
1184.918, 317.7148
1185.400, 316.8706
1185.882, 316.1171
1186.365, 315.4404
1186.847, 315.0882
1187.329, 315.4646
1187.811, 316.0728
1188.293, 316.4697
1188.775, 316.7659
1189.257, 317.5909
1189.739, 319.0442
1190.221, 319.5937
1190.703, 318.8244
1191.186, 317.8059
1191.668, 317.4886
1192.150, 317.4338
1192.632, 317.1348
1193.114, 316.6693
1193.596, 317.0678
1194.078, 318.4741
1194.560, 319.1995
1195.043, 318.5758
1195.525, 317.8466
1196.007, 318.4471
1196.489, 319.4597
1196.971, 319.9896
1197.453, 319.9746
1197.935, 319.6996
1198.417, 319.0841
1198.900, 318.9777
1199.382, 319.8409
1199.864, 320.9469
1200.346, 321.7148
1200.828, 322.1987
1201.310, 322.4936
1201.792, 322.6486
1202.274, 322.0639
1202.756, 320.6104
1203.239, 319.5909
1203.721, 319.7593
1204.203, 320.3176
1204.685, 320.6353
1205.167, 320.6823
1205.649, 320.2890
1206.131, 319.2529
1206.613, 318.9555
1207.095, 319.4731
1207.578, 319.9818
1208.060, 319.7641
1208.542, 319.6700
1209.024, 321.3347
1209.506, 323.4733
1209.988, 323.8173
1210.470, 321.6489
1210.952, 320.2278
1211.435, 319.5638
1211.917, 319.5253
1212.399, 320.4575
1212.881, 321.5669
1213.363, 321.9575
1213.845, 321.9632
1214.327, 322.2189
1214.809, 322.8586
1215.292, 323.4286
1215.774, 323.9212
1216.256, 324.3081
1216.738, 324.7051
1217.220, 324.8440
1217.702, 324.1319
1218.184, 323.0518
1218.666, 322.6312
1219.148, 322.9923
1219.630, 323.7555
1220.113, 324.9706
1220.595, 325.9380
1221.077, 326.0008
1221.559, 325.6671
1222.041, 325.3149
1222.523, 324.9377
1223.005, 324.3635
1223.487, 323.3327
1223.970, 323.6771
1224.452, 325.6749
1224.934, 327.3110
1225.416, 326.5543
1225.898, 325.1224
1226.380, 324.2267
1226.862, 323.8795
1227.344, 323.9089
1227.827, 324.3907
1228.309, 324.6713
1228.791, 324.6747
1229.273, 324.7372
1229.755, 325.2269
1230.237, 325.8055
1230.719, 326.2474
1231.201, 326.5536
1231.683, 326.7819
1232.166, 326.9346
1232.648, 326.9160
1233.130, 326.7012
1233.612, 326.5616
1234.094, 326.7525
1234.576, 327.0634
1235.058, 327.6397
1235.540, 328.1314
1236.022, 327.3727
1236.505, 325.3224
1236.987, 324.8388
1237.469, 326.3823
1237.951, 327.8211
1238.433, 327.2527
1238.915, 326.2993
1239.397, 325.9705
1239.879, 326.0617
1240.362, 326.0373
1240.844, 325.9311
1241.326, 326.4055
1241.808, 327.6226
1242.290, 328.4286
1242.772, 327.5331
1243.254, 326.5231
1243.736, 326.1331
1244.219, 326.2687
1244.701, 326.8752
1245.183, 327.8514
1245.665, 328.6913
1246.147, 329.3122
1246.629, 329.4068
1247.111, 327.9393
1247.593, 326.9292
1248.075, 327.3601
1248.557, 328.6600
1249.040, 329.8799
1249.522, 330.8418
1250.004, 330.3590
1250.486, 328.1172
1250.968, 326.8333
1251.450, 329.3469
1251.932, 331.0581
1252.414, 330.0878
1252.897, 327.7681
1253.379, 326.7008
1253.861, 326.6513
1254.343, 327.1237
1254.825, 328.0709
1255.307, 328.8418
1255.789, 328.9964
1256.271, 329.3208
1256.754, 330.2012
1257.236, 331.1133
1257.718, 330.8800
1258.200, 330.0251
1258.682, 329.4931
1259.164, 329.4368
1259.646, 329.7260
1260.128, 330.6128
1260.610, 331.0870
1261.093, 330.6596
1261.575, 330.1007
1262.057, 330.9180
1262.539, 332.2021
1263.021, 332.3798
1263.503, 331.1328
1263.985, 331.1361
1264.467, 333.0094
1264.949, 334.3415
1265.432, 334.3766
1265.914, 333.7580
1266.396, 332.8602
1266.878, 332.0610
1267.360, 331.9112
1267.842, 332.4710
1268.324, 332.8445
1268.806, 333.0702
1269.289, 332.5553
1269.771, 330.7486
1270.253, 329.5523
1270.735, 332.1725
1271.217, 335.2640
1271.699, 335.0166
1272.181, 332.0892
1272.663, 330.8804
1273.146, 331.3712
1273.628, 331.9434
1274.110, 332.1623
1274.592, 332.4335
1275.074, 333.3163
1275.556, 334.1190
1276.038, 334.4170
1276.520, 334.2833
1277.002, 333.7278
1277.484, 332.9135
1277.967, 332.9291
1278.449, 334.2116
1278.931, 335.3155
1279.413, 335.2081
1279.895, 335.0619
1280.377, 335.5934
1280.859, 336.2716
1281.341, 335.1790
1281.823, 333.1356
1282.306, 332.7583
1282.788, 334.8702
1283.270, 336.4589
1283.752, 336.4951
1284.234, 336.0637
1284.716, 335.3513
1285.198, 334.6168
1285.680, 334.2559
1286.163, 334.2417
##END=



