##NAMES=Newberyite
##RRUFFID=R050513
##IDEAL CHEMISTRY=Mg(PO_3_OH)&#183;3H_2_O
##LOCALITY=Australia
##OWNER=RRUFF
##SOURCE=American Museum of Natural History
##DESCRIPTION=An aggregate of beige fragments
##STATUS=The identification of this mineral has been confirmed by X-ray diffraction and chemical analysis
##URL=rruff.info/R050513
##MEASURED CHEMISTRY=(Mg_0.98_Mn_0.01_Ca_0.01_)_Σ=1_(P_1.00_O_3_OH)·3H_2_O
92.37695, 647.2936
92.85907, 640.3763
93.34119, 641.9785
93.82330, 646.6944
94.30542, 649.7241
94.78754, 650.6335
95.26965, 650.6365
95.75177, 649.9636
96.23389, 648.3697
96.71600, 646.9886
97.19812, 647.0524
97.68024, 648.7529
98.16235, 652.1879
98.64447, 657.2094
99.12659, 663.1726
99.60870, 670.9754
100.0908, 683.2577
100.5729, 698.5262
101.0551, 716.3065
101.5372, 737.0730
102.0193, 758.9872
102.5014, 772.0165
102.9835, 774.7922
103.4656, 769.0714
103.9478, 751.7703
104.4299, 725.9762
104.9120, 696.5635
105.3941, 666.9099
105.8762, 636.3580
106.3583, 610.8445
106.8405, 590.1027
107.3226, 573.0264
107.8047, 559.6057
108.2868, 549.6393
108.7689, 541.8542
109.2510, 535.1799
109.7332, 529.6205
110.2153, 525.1682
110.6974, 522.0806
111.1795, 520.0325
111.6616, 518.5007
112.1437, 517.3182
112.6259, 516.8620
113.1080, 517.4007
113.5901, 518.8494
114.0722, 521.1508
114.5543, 524.5707
115.0364, 529.0650
115.5185, 533.4470
116.0007, 537.4799
116.4828, 541.3150
116.9649, 545.3903
117.4470, 549.6977
117.9291, 553.3956
118.4112, 555.3275
118.8934, 555.0440
119.3755, 553.8702
119.8576, 551.6986
120.3397, 549.0320
120.8218, 546.0486
121.3039, 542.8375
121.7861, 539.6733
122.2682, 537.3352
122.7503, 536.6612
123.2324, 536.0184
123.7145, 535.3448
124.1966, 534.6222
124.6788, 533.9581
125.1609, 533.4754
125.6430, 533.0351
126.1251, 531.4140
126.6072, 527.7573
127.0893, 524.0743
127.5715, 521.1810
128.0536, 519.0037
128.5357, 517.0353
129.0178, 514.8487
129.4999, 512.5687
129.9821, 510.7763
130.4642, 509.4685
130.9463, 508.6588
131.4284, 508.3580
131.9105, 508.5725
132.3926, 509.2881
132.8748, 510.5710
133.3569, 512.3290
133.8390, 514.5109
134.3211, 517.2308
134.8032, 520.3756
135.2853, 523.6428
135.7674, 527.2472
136.2496, 530.6603
136.7317, 533.4633
137.2138, 535.8597
137.6959, 538.3237
138.1780, 541.1633
138.6601, 544.3676
139.1423, 548.0967
139.6244, 552.7368
140.1065, 557.6135
140.5886, 562.3909
141.0707, 567.1141
141.5528, 572.1635
142.0350, 578.0051
142.5171, 584.9217
142.9992, 592.0322
143.4813, 599.2605
143.9634, 606.6502
144.4455, 614.5676
144.9277, 622.9714
145.4098, 631.2720
145.8919, 638.5071
146.3740, 644.3488
146.8561, 649.5226
147.3382, 654.7755
147.8204, 659.1612
148.3025, 661.5607
148.7846, 661.5712
149.2667, 659.4543
149.7488, 655.5211
150.2309, 650.2401
150.7131, 642.9332
151.1952, 632.6680
151.6773, 620.0215
152.1594, 606.8906
152.6415, 593.6569
153.1236, 580.5130
153.6058, 567.5023
154.0879, 554.5128
154.5700, 542.1741
155.0521, 531.0339
155.5342, 521.1395
156.0163, 512.1437
156.4985, 504.4306
156.9806, 497.4665
157.4627, 490.8776
157.9448, 484.5593
158.4269, 478.6876
158.9090, 473.5300
159.3912, 469.2524
159.8733, 465.3681
160.3554, 461.4139
160.8375, 457.8734
161.3196, 455.3613
161.8017, 454.2198
162.2839, 453.8922
162.7660, 452.6801
163.2481, 449.4077
163.7302, 446.8106
164.2123, 445.8216
164.6944, 445.5460
165.1766, 444.8273
165.6587, 442.9706
166.1408, 440.2219
166.6229, 438.1606
167.1050, 436.9344
167.5871, 436.2242
168.0693, 436.3491
168.5514, 436.9521
169.0335, 437.3692
169.5156, 437.1432
169.9977, 436.3195
170.4798, 435.7105
170.9620, 435.4396
171.4441, 435.2173
171.9262, 434.9466
172.4083, 434.6210
172.8904, 434.2315
173.3725, 433.7409
173.8547, 433.1748
174.3368, 432.7249
174.8189, 432.4080
175.3010, 432.1904
175.7831, 432.0512
176.2652, 431.9889
176.7474, 431.9985
177.2295, 432.1065
177.7116, 432.2862
178.1937, 432.4730
178.6758, 432.7460
179.1579, 432.9851
179.6401, 432.9214
180.1222, 432.3955
180.6043, 432.0405
181.0864, 432.5089
181.5685, 433.3864
182.0506, 433.9946
182.5328, 433.9381
183.0149, 433.3981
183.4970, 432.8935
183.9791, 432.2861
184.4612, 431.9700
184.9433, 432.4169
185.4255, 433.2062
185.9076, 433.5714
186.3897, 432.8240
186.8718, 431.1178
187.3539, 430.1775
187.8360, 430.8636
188.3182, 431.4638
188.8003, 431.3315
189.2824, 430.7223
189.7645, 430.2153
190.2466, 430.2998
190.7287, 431.0091
191.2109, 431.5117
191.6930, 431.7435
192.1751, 431.8373
192.6572, 431.6153
193.1393, 431.2504
193.6214, 431.1750
194.1036, 431.8469
194.5857, 433.4523
195.0678, 434.2621
195.5499, 433.6701
196.0320, 433.0269
196.5141, 433.1311
196.9963, 433.8672
197.4784, 434.4894
197.9605, 434.2717
198.4426, 433.0632
198.9247, 432.0363
199.4068, 431.1960
199.8890, 430.5092
200.3711, 429.9112
200.8532, 429.4101
201.3353, 429.1455
201.8174, 429.3058
202.2995, 429.9266
202.7817, 430.4529
203.2638, 430.8333
203.7459, 431.1306
204.2280, 431.3551
204.7101, 431.5024
205.1922, 431.7219
205.6744, 432.2655
206.1565, 433.0446
206.6386, 433.6016
207.1207, 433.6612
207.6028, 433.5229
208.0849, 433.6546
208.5671, 434.1791
209.0492, 434.6381
209.5313, 434.4958
210.0134, 434.0018
210.4955, 433.6847
210.9776, 433.9570
211.4598, 434.5123
211.9419, 434.5934
212.4240, 433.9385
212.9061, 433.3437
213.3882, 433.3377
213.8703, 433.7124
214.3525, 434.1154
214.8346, 434.4518
215.3167, 434.6758
215.7988, 434.5821
216.2809, 433.9542
216.7630, 433.3251
217.2451, 432.8613
217.7273, 432.5566
218.2094, 432.3997
218.6915, 432.3993
219.1736, 432.5399
219.6557, 432.7338
220.1378, 432.9695
220.6200, 433.2829
221.1021, 433.7990
221.5842, 434.3811
222.0663, 434.7935
222.5484, 434.8385
223.0305, 434.5749
223.5127, 434.5681
223.9948, 435.0430
224.4769, 435.5683
224.9590, 435.9739
225.4411, 436.3779
225.9232, 436.9796
226.4054, 437.9198
226.8875, 439.1761
227.3696, 440.5729
227.8517, 442.6620
228.3338, 444.3030
228.8159, 444.8163
229.2981, 444.7307
229.7802, 444.9857
230.2623, 446.2184
230.7444, 448.3311
231.2265, 450.1773
231.7086, 451.5674
232.1908, 452.9223
232.6729, 454.5457
233.1550, 456.2074
233.6371, 457.4382
234.1192, 457.9203
234.6013, 457.7555
235.0835, 457.6866
235.5656, 458.0676
236.0477, 458.1460
236.5298, 457.5587
237.0119, 456.4949
237.4940, 455.3339
237.9762, 454.2509
238.4583, 453.2687
238.9404, 452.4989
239.4225, 451.9702
239.9046, 451.5677
240.3867, 451.1774
240.8689, 450.8768
241.3510, 450.8502
241.8331, 451.1762
242.3152, 451.8716
242.7973, 452.9902
243.2794, 454.8582
243.7616, 456.5618
244.2437, 457.5699
244.7258, 458.0719
245.2079, 458.6051
245.6900, 459.3332
246.1721, 460.2996
246.6543, 461.6290
247.1364, 463.4990
247.6185, 465.2176
248.1006, 466.1650
248.5827, 466.6064
249.0648, 467.6258
249.5470, 469.9774
250.0291, 472.5992
250.5112, 473.9005
250.9933, 473.7520
251.4754, 473.3113
251.9576, 473.4857
252.4397, 473.9961
252.9218, 473.4957
253.4039, 471.1225
253.8860, 468.2397
254.3681, 466.3814
254.8503, 465.5331
255.3324, 464.8664
255.8145, 463.9576
256.2966, 462.8277
256.7787, 461.5743
257.2608, 460.1742
257.7430, 458.6978
258.2251, 457.1222
258.7072, 455.4886
259.1893, 454.0602
259.6714, 453.0215
260.1535, 452.3419
260.6357, 451.8441
261.1178, 451.5709
261.5999, 451.4308
262.0820, 451.3661
262.5641, 451.3679
263.0462, 451.4085
263.5284, 451.4566
264.0105, 451.5230
264.4926, 451.6523
264.9747, 451.7359
265.4568, 452.0654
265.9389, 452.9788
266.4211, 454.2018
266.9032, 455.1548
267.3853, 455.3484
267.8674, 455.0057
268.3495, 455.1176
268.8316, 455.8656
269.3138, 456.8383
269.7959, 457.9189
270.2780, 459.0764
270.7601, 460.2704
271.2422, 461.4788
271.7243, 462.7099
272.2065, 464.0172
272.6886, 465.6309
273.1707, 466.8910
273.6528, 467.4015
274.1349, 467.6059
274.6170, 467.9341
275.0992, 468.5522
275.5813, 469.5285
276.0634, 471.1363
276.5455, 474.0062
277.0276, 476.3159
277.5097, 477.6202
277.9919, 478.3856
278.4740, 479.0443
278.9561, 479.7545
279.4382, 480.3610
279.9203, 480.5353
280.4024, 480.0283
280.8846, 479.6034
281.3667, 479.3754
281.8488, 479.2220
282.3309, 479.1470
282.8130, 479.1172
283.2951, 478.9483
283.7773, 478.2931
284.2594, 476.8191
284.7415, 475.6915
285.2236, 475.0919
285.7057, 474.6738
286.1878, 474.3207
286.6700, 473.9721
287.1521, 473.5314
287.6342, 472.8157
288.1163, 471.6480
288.5984, 470.9352
289.0805, 470.8954
289.5627, 471.0691
290.0448, 471.3244
290.5269, 471.6185
291.0090, 471.9269
291.4911, 472.2279
291.9732, 472.5191
292.4554, 472.8174
292.9375, 473.0382
293.4196, 473.3491
293.9017, 473.9105
294.3838, 474.6096
294.8659, 475.1830
295.3481, 475.4124
295.8302, 475.3452
296.3123, 475.6031
296.7944, 476.7005
297.2765, 477.5869
297.7586, 477.9119
298.2408, 477.9263
298.7229, 478.0354
299.2050, 478.4716
299.6871, 479.1131
300.1692, 479.4857
300.6513, 479.4362
301.1335, 479.2687
301.6156, 478.7205
302.0977, 478.1874
302.5798, 478.2173
303.0619, 479.0114
303.5440, 480.1212
304.0262, 480.5936
304.5083, 479.8955
304.9904, 479.3068
305.4725, 478.9460
305.9546, 478.6315
306.4367, 478.1790
306.9189, 477.5614
307.4010, 476.9158
307.8831, 476.3864
308.3652, 475.7651
308.8473, 475.8849
309.3294, 477.2576
309.8116, 478.8237
310.2937, 479.9432
310.7758, 480.5885
311.2579, 481.1117
311.7400, 481.8791
312.2221, 482.9756
312.7043, 483.7309
313.1864, 483.5488
313.6685, 483.6576
314.1506, 484.6768
314.6327, 486.4097
315.1148, 488.3118
315.5970, 489.9953
316.0791, 491.4758
316.5612, 492.9485
317.0433, 494.5533
317.5254, 496.0088
318.0075, 496.9964
318.4897, 497.8474
318.9718, 499.1496
319.4539, 501.2281
319.9360, 503.7372
320.4181, 505.5786
320.9002, 505.9937
321.3824, 506.6248
321.8645, 507.5078
322.3466, 508.6584
322.8287, 510.2836
323.3108, 512.3885
323.7929, 514.5092
324.2751, 515.8168
324.7572, 515.9427
325.2393, 515.8879
325.7214, 515.7800
326.2035, 515.4304
326.6856, 514.6972
327.1678, 513.5731
327.6499, 512.1337
328.1320, 510.3868
328.6141, 508.1713
329.0962, 506.4570
329.5783, 505.9191
330.0605, 505.1724
330.5426, 503.4506
331.0247, 500.9895
331.5068, 498.5316
331.9889, 496.6439
332.4710, 495.2853
332.9532, 493.7959
333.4353, 491.8411
333.9174, 490.1041
334.3995, 488.8325
334.8816, 487.8383
335.3637, 486.8214
335.8459, 485.6318
336.3280, 484.3984
336.8101, 483.5444
337.2922, 483.3181
337.7743, 483.1338
338.2564, 483.1405
338.7386, 483.0585
339.2206, 482.4979
339.7028, 481.4046
340.1849, 480.2525
340.6670, 479.7989
341.1491, 480.3825
341.6312, 480.8359
342.1133, 480.9865
342.5955, 481.1635
343.0776, 481.6108
343.5597, 482.2878
344.0418, 482.9423
344.5239, 483.3167
345.0060, 483.3887
345.4882, 483.5719
345.9703, 483.9037
346.4524, 484.3247
346.9345, 484.7360
347.4166, 485.2369
347.8987, 486.0691
348.3809, 487.4443
348.8630, 489.1431
349.3451, 490.2133
349.8272, 490.2263
350.3093, 490.2490
350.7914, 490.5107
351.2736, 490.8686
351.7557, 491.1768
352.2378, 491.3843
352.7199, 491.5391
353.2020, 491.7138
353.6841, 491.9025
354.1663, 492.1239
354.6484, 492.3837
355.1305, 492.6714
355.6126, 493.0265
356.0947, 493.4278
356.5768, 493.7697
357.0590, 494.0882
357.5411, 494.4109
358.0232, 494.0017
358.5053, 491.9312
358.9874, 490.1612
359.4695, 489.6295
359.9517, 489.9965
360.4338, 490.5484
360.9159, 490.9655
361.3980, 491.2123
361.8801, 491.0941
362.3622, 490.3146
362.8444, 489.8340
363.3265, 490.3453
363.8086, 491.1451
364.2907, 491.4662
364.7728, 491.0361
365.2549, 490.3228
365.7371, 489.7930
366.2192, 489.4071
366.7013, 489.5685
367.1834, 490.9190
367.6655, 492.4224
368.1476, 493.2704
368.6298, 493.4566
369.1119, 493.5495
369.5940, 494.0009
370.0761, 494.7230
370.5582, 495.2649
371.0403, 495.5005
371.5225, 495.7207
372.0046, 495.9908
372.4867, 496.3864
372.9688, 497.1332
373.4509, 498.5273
373.9330, 500.1868
374.4152, 501.4738
374.8973, 502.3213
375.3794, 503.3236
375.8615, 504.8742
376.3436, 506.7110
376.8257, 508.4245
377.3079, 509.9253
377.7900, 511.4369
378.2721, 513.1754
378.7542, 515.0782
379.2363, 516.8363
379.7184, 518.2748
380.2006, 519.7022
380.6827, 521.5306
381.1648, 523.7301
381.6469, 526.0619
382.1290, 528.5995
382.6111, 531.1781
383.0933, 533.5623
383.5754, 535.7336
384.0575, 537.7402
384.5396, 539.5259
385.0217, 541.1608
385.5038, 543.1680
385.9860, 545.7103
386.4681, 548.4875
386.9502, 551.4203
387.4323, 554.4496
387.9144, 557.3698
388.3965, 559.9830
388.8787, 562.5623
389.3608, 565.9297
389.8429, 570.5876
390.3250, 574.8681
390.8071, 578.1084
391.2892, 580.9319
391.7714, 584.0942
392.2535, 587.7559
392.7356, 591.6035
393.2177, 595.2321
393.6998, 598.5550
394.1819, 602.1345
394.6641, 606.8994
395.1462, 611.0871
395.6283, 613.4177
396.1104, 614.2491
396.5925, 614.8143
397.0746, 615.9564
397.5568, 617.4498
398.0389, 618.0365
398.5210, 617.4518
399.0031, 616.2270
399.4852, 614.5673
399.9673, 612.2242
400.4495, 608.6573
400.9316, 603.7835
401.4137, 598.3844
401.8958, 593.6676
402.3779, 589.9421
402.8600, 586.0844
403.3422, 582.1277
403.8243, 578.0049
404.3064, 573.4764
404.7885, 568.7131
405.2706, 564.1933
405.7527, 560.3739
406.2349, 557.1162
406.7170, 553.4499
407.1991, 548.7565
407.6812, 544.5903
408.1633, 541.4243
408.6454, 538.8752
409.1276, 536.5920
409.6097, 534.4632
410.0918, 532.3707
410.5739, 530.0844
411.0560, 527.5535
411.5381, 525.1543
412.0203, 522.8710
412.5024, 520.8283
412.9845, 519.3360
413.4666, 518.2552
413.9487, 516.9369
414.4308, 514.7195
414.9130, 511.8840
415.3951, 509.4835
415.8772, 507.5698
416.3593, 505.9703
416.8414, 505.0375
417.3235, 504.2323
417.8057, 502.7231
418.2878, 500.0586
418.7699, 497.1429
419.2520, 494.8725
419.7341, 493.1805
420.2162, 491.4132
420.6984, 489.3404
421.1805, 487.1699
421.6626, 485.2133
422.1447, 483.4565
422.6268, 481.6367
423.1089, 479.7788
423.5911, 477.7519
424.0732, 475.2955
424.5553, 472.3893
425.0374, 469.3278
425.5195, 466.2344
426.0016, 463.1853
426.4838, 460.5421
426.9659, 458.6276
427.4480, 456.7665
427.9301, 454.6352
428.4122, 452.3422
428.8943, 450.1035
429.3765, 447.9843
429.8586, 446.0253
430.3407, 444.3001
430.8228, 442.8748
431.3049, 441.5899
431.7870, 440.5292
432.2692, 439.5559
432.7513, 438.6561
433.2334, 437.7771
433.7155, 436.7230
434.1976, 435.2926
434.6797, 433.5385
435.1619, 432.2072
435.6440, 431.6210
436.1261, 431.0952
436.6082, 430.4912
437.0903, 429.9000
437.5724, 429.4859
438.0546, 429.2935
438.5367, 429.1236
439.0188, 428.6105
439.5009, 427.5690
439.9830, 426.7781
440.4651, 426.3525
440.9473, 426.0915
441.4294, 425.8954
441.9115, 425.7902
442.3936, 425.9210
442.8757, 426.5548
443.3578, 427.3905
443.8400, 427.2916
444.3221, 425.8823
444.8042, 424.4757
445.2863, 423.3422
445.7684, 422.5331
446.2505, 422.1827
446.7327, 422.3307
447.2148, 422.7440
447.6969, 423.5233
448.1790, 424.5026
448.6611, 424.5818
449.1432, 423.1317
449.6254, 421.6660
450.1075, 421.8518
450.5896, 423.1512
451.0717, 423.9095
451.5538, 423.1253
452.0359, 422.0164
452.5181, 421.8400
453.0002, 422.4755
453.4823, 423.0608
453.9644, 423.2064
454.4465, 423.0671
454.9286, 422.9390
455.4108, 422.7224
455.8929, 422.7729
456.3750, 423.4178
456.8571, 424.2366
457.3392, 424.7662
457.8214, 424.9472
458.3035, 425.0030
458.7856, 425.1144
459.2677, 425.2819
459.7498, 425.5184
460.2319, 426.0749
460.7141, 426.4052
461.1962, 426.1148
461.6783, 425.5810
462.1604, 425.3706
462.6425, 425.6930
463.1246, 426.2603
463.6068, 426.5868
464.0889, 426.5906
464.5710, 426.5628
465.0531, 426.4242
465.5352, 426.3302
466.0173, 426.2127
466.4995, 426.1964
466.9816, 426.5285
467.4637, 425.8030
467.9458, 426.7678
468.4279, 427.5860
468.9100, 428.2657
469.3922, 428.3918
469.8743, 429.2328
470.3564, 429.7872
470.8385, 430.3298
471.3206, 431.2714
471.8027, 431.4779
472.2849, 432.4133
472.7670, 433.0576
473.2491, 435.7045
473.7312, 437.3894
474.2133, 438.9795
474.6954, 440.1092
475.1776, 440.9301
475.6597, 441.7557
476.1418, 442.5489
476.6239, 443.4571
477.1060, 444.7188
477.5881, 446.1866
478.0703, 447.4059
478.5524, 448.1737
479.0345, 448.7959
479.5166, 449.6528
479.9987, 450.7285
480.4808, 452.2153
480.9630, 454.5507
481.4451, 456.9466
481.9272, 458.8040
482.4093, 460.2233
482.8914, 461.6461
483.3735, 463.3450
483.8557, 465.2469
484.3378, 467.0903
484.8199, 468.5773
485.3020, 470.4491
485.7841, 473.1984
486.2662, 476.0008
486.7484, 478.0957
487.2305, 479.4975
487.7126, 480.8463
488.1947, 482.7355
488.6768, 485.1372
489.1589, 487.6191
489.6411, 490.3339
490.1232, 492.8870
490.6053, 495.0854
491.0874, 497.1200
491.5695, 499.1573
492.0516, 501.2313
492.5338, 503.4443
493.0159, 506.1840
493.4980, 509.3229
493.9801, 511.4506
494.4622, 511.8844
494.9443, 512.1951
495.4265, 513.9940
495.9086, 516.7406
496.3907, 518.8861
496.8728, 519.4432
497.3549, 519.8139
497.8370, 521.4254
498.3192, 523.9001
498.8013, 525.7645
499.2834, 526.3674
499.7655, 526.3520
500.2476, 526.7400
500.7297, 527.6259
501.2119, 528.5840
501.6940, 529.4430
502.1761, 530.4826
502.6582, 532.0920
503.1403, 534.0892
503.6224, 535.8745
504.1045, 537.0488
504.5866, 537.8181
505.0688, 538.9282
505.5509, 540.5224
506.0330, 542.2714
506.5151, 544.2179
506.9972, 546.2581
507.4793, 548.2443
507.9615, 550.2214
508.4436, 552.4124
508.9257, 554.9423
509.4078, 557.8559
509.8899, 561.3690
510.3720, 565.7032
510.8542, 570.1777
511.3363, 574.5900
511.8184, 578.9887
512.3005, 583.3517
512.7827, 587.6570
513.2648, 592.2118
513.7469, 597.5497
514.2290, 603.3259
514.7111, 608.6510
515.1932, 613.4418
515.6754, 617.6728
516.1575, 621.2350
516.6396, 624.1804
517.1217, 626.8939
517.6038, 629.6940
518.0859, 631.8952
518.5681, 633.4276
519.0502, 634.0987
519.5323, 633.3947
520.0144, 631.1855
520.4965, 628.2260
520.9786, 625.4558
521.4608, 623.0267
521.9429, 619.7995
522.4250, 615.7078
522.9071, 610.9895
523.3892, 605.4707
523.8713, 599.4652
524.3535, 593.3333
524.8356, 587.2662
525.3177, 581.3264
525.7998, 575.7066
526.2819, 570.4225
526.7640, 565.4127
527.2462, 560.7819
527.7283, 556.3640
528.2104, 551.9758
528.6925, 547.7416
529.1746, 543.9474
529.6567, 540.8181
530.1389, 538.0204
530.6210, 535.1533
531.1031, 532.2258
531.5852, 529.4080
532.0673, 526.8045
532.5494, 524.2496
533.0316, 521.4900
533.5137, 518.5571
533.9958, 515.6569
534.4779, 513.0341
534.9600, 510.2990
535.4421, 506.8683
535.9243, 503.0038
536.4064, 499.6491
536.8885, 497.3484
537.3706, 495.4142
537.8527, 492.3924
538.3348, 487.4071
538.8170, 483.0033
539.2991, 479.3091
539.7812, 476.0485
540.2633, 473.3776
540.7454, 470.9906
541.2275, 468.0930
541.7097, 464.1000
542.1918, 459.6203
542.6739, 456.3478
543.1560, 454.6694
543.6381, 452.9159
544.1202, 450.7447
544.6024, 448.4289
545.0845, 446.0786
545.5666, 443.7132
546.0487, 441.4404
546.5308, 439.3248
547.0129, 437.3140
547.4951, 435.2516
547.9772, 433.1436
548.4593, 431.4049
548.9414, 430.2891
549.4235, 429.5490
549.9056, 428.8315
550.3878, 428.1935
550.8699, 427.3183
551.3520, 426.0603
551.8341, 424.6145
552.3162, 422.8934
552.7983, 421.0878
553.2805, 419.8700
553.7626, 419.6961
554.2447, 420.0802
554.7268, 419.5544
555.2089, 417.2225
555.6910, 415.5738
556.1732, 415.2118
556.6553, 414.9923
557.1374, 414.1602
557.6195, 412.8196
558.1016, 411.5138
558.5837, 410.5495
559.0659, 409.8766
559.5480, 409.4580
560.0301, 409.3642
560.5122, 409.1035
560.9943, 408.4437
561.4764, 407.6509
561.9586, 406.9593
562.4407, 406.3721
562.9228, 405.8798
563.4049, 405.4862
563.8870, 405.1822
564.3691, 405.0427
564.8513, 405.0177
565.3334, 404.8470
565.8155, 404.4022
566.2976, 403.7812
566.7797, 403.1303
567.2618, 402.2708
567.7440, 401.8560
568.2261, 402.3787
568.7082, 402.8929
569.1903, 402.9154
569.6724, 402.4739
570.1545, 401.6500
570.6367, 400.4536
571.1188, 399.2345
571.6009, 398.8697
572.0830, 399.6811
572.5651, 400.0843
573.0472, 399.4510
573.5294, 398.8197
574.0115, 398.8828
574.4936, 399.4048
574.9757, 399.6888
575.4578, 399.3451
575.9399, 398.7836
576.4221, 398.3428
576.9042, 398.0589
577.3863, 398.2552
577.8684, 399.1881
578.3505, 400.1446
578.8326, 400.2752
579.3148, 399.5123
579.7969, 398.6756
580.2790, 397.3749
580.7611, 396.4367
581.2432, 396.5069
581.7253, 397.1398
582.2075, 397.6087
582.6896, 397.6563
583.1717, 397.4852
583.6538, 397.3575
584.1359, 397.2774
584.6180, 397.2140
585.1002, 397.2254
585.5823, 397.1778
586.0643, 396.8984
586.5464, 396.5878
587.0286, 396.6318
587.5107, 397.1810
587.9928, 397.5329
588.4749, 396.7515
588.9570, 395.1721
589.4391, 394.1310
589.9213, 393.8156
590.4034, 393.8013
590.8855, 393.8716
591.3676, 394.0128
591.8497, 394.1726
592.3318, 394.4605
592.8140, 394.5884
593.2961, 394.2907
593.7782, 393.8881
594.2603, 393.8801
594.7424, 394.2302
595.2245, 394.3443
595.7067, 393.7030
596.1888, 392.4669
596.6709, 391.5478
597.1530, 391.0830
597.6351, 390.7114
598.1172, 390.3540
598.5994, 390.0864
599.0815, 390.0280
599.5636, 390.1352
600.0457, 390.1909
600.5278, 390.0326
601.0099, 389.7483
601.4921, 389.5694
601.9742, 389.4991
602.4563, 389.1017
602.9384, 387.9862
603.4205, 386.8026
603.9026, 386.6420
604.3848, 387.5295
604.8669, 388.0900
605.3490, 387.9543
605.8311, 387.6068
606.3132, 387.3480
606.7953, 387.1220
607.2775, 386.7013
607.7596, 386.0055
608.2417, 385.3109
608.7238, 385.0934
609.2059, 385.4825
609.6880, 385.7071
610.1702, 385.6211
610.6523, 385.5335
611.1344, 385.4595
611.6165, 385.4753
612.0986, 385.7666
612.5807, 386.4175
613.0629, 386.9511
613.5450, 386.9607
614.0271, 386.4966
614.5092, 385.5203
614.9913, 383.9053
615.4734, 382.7450
615.9556, 383.0435
616.4377, 384.2261
616.9198, 384.2085
617.4019, 382.0702
617.8840, 380.6101
618.3661, 381.0210
618.8483, 381.8872
619.3304, 381.8322
619.8125, 380.9494
620.2946, 380.2393
620.7767, 380.3853
621.2589, 381.0598
621.7410, 381.2724
622.2231, 380.8327
622.7052, 380.4984
623.1873, 380.4762
623.6694, 380.4868
624.1516, 380.3824
624.6337, 380.1805
625.1158, 379.9411
625.5979, 379.6108
626.0800, 379.3621
626.5621, 379.4747
627.0443, 379.8290
627.5264, 380.0319
628.0085, 379.9937
628.4906, 379.7298
628.9727, 379.1909
629.4548, 378.3771
629.9370, 377.7900
630.4191, 377.5365
630.9012, 377.3385
631.3833, 377.1735
631.8654, 377.0088
632.3475, 376.8461
632.8297, 376.6642
633.3118, 376.3634
633.7939, 375.7737
634.2760, 375.0345
634.7581, 374.7885
635.2402, 375.1615
635.7224, 375.5541
636.2045, 375.9108
636.6866, 376.0887
637.1687, 375.8559
637.6508, 375.2413
638.1329, 374.7796
638.6151, 374.8174
639.0972, 374.9164
639.5793, 374.7023
640.0614, 374.2527
640.5435, 373.7248
641.0256, 373.1742
641.5078, 372.7962
641.9899, 372.9420
642.4720, 373.7520
642.9541, 373.9219
643.4362, 372.6494
643.9183, 371.6554
644.4005, 371.3804
644.8826, 371.5464
645.3647, 371.9002
645.8468, 372.3689
646.3289, 372.8653
646.8110, 373.5455
647.2932, 374.1542
647.7753, 373.7714
648.2574, 372.3240
648.7395, 371.4203
649.2216, 372.0015
649.7037, 373.2247
650.1859, 373.5680
650.6680, 372.8504
651.1501, 372.1486
651.6322, 371.2320
652.1143, 370.6542
652.5964, 370.9642
653.0786, 371.7960
653.5607, 372.5563
654.0428, 373.0032
654.5249, 373.0916
655.0070, 372.6125
655.4891, 371.5319
655.9713, 370.8019
656.4534, 370.4460
656.9355, 370.3951
657.4176, 371.0832
657.8997, 371.8497
658.3818, 371.7611
658.8640, 370.5857
659.3461, 369.6179
659.8282, 369.4045
660.3103, 369.7200
660.7924, 370.6852
661.2745, 372.0267
661.7567, 372.6571
662.2388, 371.9910
662.7209, 370.7082
663.2030, 370.0906
663.6851, 370.3102
664.1672, 370.6266
664.6494, 371.3431
665.1315, 371.8266
665.6136, 371.7536
666.0957, 371.3598
666.5778, 370.8338
667.0599, 370.2025
667.5421, 370.0255
668.0242, 371.3773
668.5063, 373.4333
668.9884, 373.9522
669.4705, 372.7714
669.9526, 371.5710
670.4348, 371.1919
670.9169, 371.4238
671.3990, 371.8700
671.8811, 372.7685
672.3632, 373.2827
672.8453, 372.9797
673.3275, 372.7018
673.8096, 373.1648
674.2917, 373.9090
674.7738, 374.0478
675.2559, 373.2422
675.7380, 372.0679
676.2202, 371.0388
676.7023, 370.2023
677.1844, 370.1449
677.6665, 371.0911
678.1486, 372.1400
678.6307, 372.9659
679.1129, 373.5348
679.5950, 373.7977
680.0771, 373.7234
680.5592, 373.5102
681.0413, 373.0415
681.5234, 372.5934
682.0056, 372.3748
682.4877, 372.3520
682.9698, 372.3850
683.4519, 372.4162
683.9340, 372.5692
684.4161, 373.1933
684.8983, 374.3942
685.3804, 374.6971
685.8625, 373.4848
686.3446, 372.4540
686.8267, 372.5732
687.3088, 373.1445
687.7910, 373.3899
688.2731, 373.2028
688.7552, 373.0181
689.2373, 373.2453
689.7194, 373.4110
690.2015, 372.7771
690.6837, 371.6086
691.1658, 370.9193
691.6479, 371.1432
692.1300, 371.6924
692.6121, 371.6505
693.0942, 370.8803
693.5764, 370.5124
694.0585, 370.8712
694.5406, 371.2089
695.0227, 371.4219
695.5048, 371.4503
695.9869, 371.1613
696.4691, 370.5531
696.9512, 369.9669
697.4333, 369.6626
697.9154, 369.4550
698.3975, 369.0011
698.8796, 368.3815
699.3618, 368.0287
699.8439, 368.1088
700.3260, 368.4592
700.8081, 368.9162
701.2902, 369.5219
701.7723, 369.8331
702.2545, 369.7531
702.7366, 369.4821
703.2187, 368.7490
703.7008, 368.0372
704.1829, 368.0326
704.6650, 368.6638
705.1472, 368.9155
705.6293, 367.6884
706.1114, 365.9969
706.5935, 365.7095
707.0756, 366.5749
707.5577, 366.8161
708.0399, 365.7964
708.5220, 364.6212
709.0041, 364.5305
709.4862, 365.5279
709.9683, 366.1546
710.4504, 366.4933
710.9326, 366.3786
711.4147, 365.3379
711.8968, 364.1539
712.3789, 363.5024
712.8610, 363.3827
713.3431, 363.4380
713.8253, 363.5266
714.3074, 363.5472
714.7895, 363.3695
715.2716, 362.9910
715.7537, 362.2653
716.2358, 361.0625
716.7180, 360.0389
717.2001, 359.8106
717.6822, 360.2504
718.1643, 360.5110
718.6464, 360.4160
719.1285, 360.4026
719.6107, 360.8311
720.0928, 361.0835
720.5749, 360.5311
721.0570, 359.4192
721.5391, 358.4548
722.0212, 357.9824
722.5034, 357.7992
722.9855, 357.7474
723.4676, 357.7764
723.9497, 357.5426
724.4318, 356.9655
724.9139, 356.3947
725.3961, 356.0413
725.8782, 355.8497
726.3603, 355.6754
726.8424, 355.4899
727.3245, 355.3868
727.8066, 355.5850
728.2888, 355.6559
728.7709, 355.2193
729.2530, 354.5235
729.7351, 354.0005
730.2172, 353.8011
730.6993, 353.7912
731.1815, 353.9107
731.6636, 354.1054
732.1457, 354.2015
732.6278, 354.2005
733.1099, 353.9623
733.5920, 353.3233
734.0742, 352.5773
734.5563, 352.1432
735.0384, 352.0325
735.5205, 352.2549
736.0026, 353.2806
736.4847, 354.0830
736.9669, 354.1388
737.4490, 353.8619
737.9311, 353.7412
738.4132, 353.8543
738.8953, 353.9704
739.3774, 353.9908
739.8596, 353.8314
740.3417, 353.1472
740.8238, 351.9884
741.3059, 351.2227
741.7880, 351.1190
742.2701, 351.3133
742.7523, 351.4824
743.2344, 351.6335
743.7165, 351.8772
744.1986, 352.5427
744.6807, 352.8370
745.1628, 352.4899
745.6450, 351.8795
746.1271, 351.0111
746.6092, 350.1420
747.0913, 349.9226
747.5734, 350.8160
748.0555, 351.8904
748.5377, 351.9178
749.0198, 351.1454
749.5019, 350.4597
749.9840, 349.9622
750.4661, 349.5570
750.9482, 349.1498
751.4304, 348.8480
751.9125, 348.9463
752.3946, 349.7868
752.8767, 350.2174
753.3588, 350.1345
753.8409, 349.7945
754.3231, 349.1017
754.8052, 348.3052
755.2873, 347.7070
755.7694, 347.3813
756.2515, 347.2521
756.7336, 347.4107
757.2158, 347.6532
757.6979, 347.6333
758.1800, 347.3703
758.6621, 346.9359
759.1442, 346.3150
759.6263, 345.9014
760.1085, 346.2574
760.5906, 347.3864
761.0727, 347.8740
761.5548, 347.2172
762.0369, 346.6575
762.5190, 346.3130
763.0012, 346.1865
763.4833, 346.4189
763.9654, 346.8914
764.4475, 347.1927
764.9296, 347.1394
765.4117, 346.9037
765.8939, 346.5409
766.3760, 345.3323
766.8581, 345.6120
767.3402, 345.7452
767.8223, 345.7398
768.3044, 345.1807
768.7866, 345.3366
769.2687, 345.2060
769.7508, 345.0636
770.2329, 345.3202
770.7150, 344.5739
771.1971, 344.9620
771.6793, 345.2038
772.1614, 345.3069
772.6435, 344.8563
773.1256, 345.1207
773.6077, 345.0985
774.0898, 345.0647
774.5720, 345.4297
775.0541, 345.0597
775.5362, 345.4184
776.0183, 345.9257
776.5004, 346.0577
776.9825, 345.9371
777.4647, 345.6752
777.9468, 345.3265
778.4289, 345.2391
778.9110, 345.5209
779.3931, 345.4354
779.8752, 344.5237
780.3574, 343.6329
780.8395, 343.6330
781.3216, 344.3490
781.8037, 344.8666
782.2858, 345.1610
782.7679, 345.2397
783.2501, 344.9649
783.7322, 344.5904
784.2143, 344.2634
784.6964, 344.0259
785.1785, 343.9338
785.6606, 344.0182
786.1428, 344.1389
786.6249, 344.1357
787.1070, 344.0195
787.5891, 343.7751
788.0712, 343.3905
788.5533, 343.1658
789.0355, 343.2282
789.5176, 343.5573
789.9997, 344.2536
790.4818, 345.5371
790.9639, 345.7978
791.4460, 343.9678
791.9282, 342.5218
792.4103, 342.2420
792.8924, 342.4182
793.3745, 342.4084
793.8566, 342.1837
794.3387, 342.0546
794.8209, 342.1860
795.3030, 342.4546
795.7851, 342.9563
796.2672, 343.4539
796.7493, 343.3018
797.2314, 342.4706
797.7136, 341.5848
798.1957, 341.0164
798.6778, 340.7854
799.1599, 341.0054
799.6420, 341.8081
800.1241, 342.5359
800.6063, 343.3449
801.0884, 343.8088
801.5705, 343.5932
802.0526, 342.9811
802.5347, 342.1457
803.0168, 341.0453
803.4990, 340.4429
803.9811, 341.0497
804.4632, 341.7064
804.9453, 341.5225
805.4274, 340.9936
805.9095, 340.9951
806.3917, 341.5999
806.8738, 342.0611
807.3559, 341.7188
807.8380, 340.9841
808.3201, 340.8538
808.8022, 341.2958
809.2844, 341.4618
809.7665, 341.1075
810.2486, 340.9800
810.7307, 341.7514
811.2128, 343.0331
811.6949, 343.6019
812.1771, 343.0319
812.6592, 342.5913
813.1413, 342.5311
813.6234, 342.3198
814.1055, 341.3341
814.5876, 340.2469
815.0698, 340.1257
815.5519, 341.1205
816.0340, 342.0694
816.5161, 342.1724
816.9982, 341.9088
817.4803, 341.7382
817.9625, 341.6670
818.4446, 341.7637
818.9267, 342.0179
819.4088, 342.1301
819.8909, 341.8113
820.3730, 341.2166
820.8552, 340.9520
821.3373, 341.1479
821.8194, 341.0496
822.3015, 340.3155
822.7836, 339.7161
823.2657, 339.9474
823.7479, 340.5549
824.2300, 340.5382
824.7121, 339.5795
825.1942, 339.1552
825.6763, 339.9507
826.1584, 340.9469
826.6406, 341.7728
827.1227, 342.3313
827.6048, 342.4510
828.0869, 342.1623
828.5690, 341.8502
829.0511, 341.8852
829.5333, 341.9910
830.0154, 341.4636
830.4975, 340.5172
830.9796, 340.2927
831.4617, 341.0249
831.9438, 342.0372
832.4260, 342.9054
832.9081, 343.5724
833.3902, 343.8468
833.8723, 343.5338
834.3544, 343.3214
834.8365, 343.1959
835.3187, 343.1920
835.8008, 343.5073
836.2829, 343.8415
836.7650, 343.7144
837.2471, 343.0710
837.7292, 342.6992
838.2114, 342.9886
838.6935, 343.4829
839.1756, 344.0220
839.6577, 344.5238
840.1398, 344.8634
840.6219, 345.0504
841.1041, 345.2354
841.5862, 345.5472
842.0683, 345.8193
842.5504, 345.6246
843.0325, 345.0724
843.5146, 344.9438
843.9968, 345.3509
844.4789, 345.8706
844.9610, 346.3335
845.4431, 346.6499
845.9252, 346.5924
846.4073, 345.9967
846.8895, 345.8643
847.3716, 346.6338
847.8537, 347.2805
848.3358, 347.4498
848.8179, 347.5083
849.3000, 347.8204
849.7822, 348.3420
850.2643, 348.7309
850.7464, 348.8002
851.2285, 348.8441
851.7106, 349.0536
852.1927, 349.3149
852.6749, 349.3724
853.1570, 349.3544
853.6391, 349.7752
854.1212, 350.8673
854.6033, 352.0587
855.0854, 352.4940
855.5676, 352.3683
856.0497, 352.6676
856.5318, 353.4168
857.0139, 354.0051
857.4960, 354.1686
857.9781, 354.3725
858.4603, 355.2141
858.9424, 356.5885
859.4245, 357.2529
859.9066, 356.3639
860.3887, 356.2139
860.8708, 357.6193
861.3530, 359.1236
861.8351, 360.1449
862.3172, 360.6842
862.7993, 360.6786
863.2814, 359.9982
863.7635, 359.5474
864.2457, 359.6191
864.7278, 360.7541
865.2099, 361.9948
865.6920, 363.0891
866.1741, 364.0447
866.6563, 364.4470
867.1384, 365.5640
867.6205, 366.3943
868.1026, 367.2130
868.5847, 368.4307
869.0668, 368.9131
869.5490, 370.1247
870.0311, 371.0451
870.5132, 372.0985
870.9953, 372.8637
871.4774, 373.7180
871.9595, 374.8607
872.4417, 375.8439
872.9238, 376.5760
873.4059, 376.9333
873.8880, 378.6311
874.3701, 379.8679
874.8522, 381.1871
875.3344, 383.0965
875.8165, 385.5284
876.2986, 388.0199
876.7807, 390.3642
877.2628, 392.9179
877.7449, 396.0333
878.2271, 399.2101
878.7092, 401.9292
879.1913, 404.3311
879.6734, 406.8556
880.1555, 409.6429
880.6376, 412.3705
881.1198, 414.5999
881.6019, 416.6030
882.0840, 418.7309
882.5661, 421.0688
883.0482, 424.1012
883.5303, 427.9278
884.0125, 431.7431
884.4946, 434.8705
884.9767, 437.4567
885.4588, 439.9619
885.9409, 442.3848
886.4230, 444.7858
886.9052, 447.3335
887.3873, 449.4801
887.8694, 450.8034
888.3515, 451.6996
888.8336, 452.9929
889.3157, 454.8700
889.7979, 455.6659
890.2800, 454.5389
890.7621, 453.3662
891.2442, 452.6483
891.7263, 452.0884
892.2084, 451.6997
892.6906, 451.2271
893.1727, 450.0214
893.6548, 447.7428
894.1369, 445.1133
894.6190, 442.6954
895.1011, 440.1314
895.5833, 436.9413
896.0654, 433.2784
896.5475, 429.6031
897.0296, 426.0633
897.5117, 422.3763
897.9938, 418.1239
898.4760, 413.7108
898.9581, 410.5255
899.4402, 408.4214
899.9223, 405.3661
900.4044, 400.9139
900.8865, 396.5378
901.3687, 393.1547
901.8508, 390.4595
902.3329, 387.8283
902.8150, 385.2617
903.2971, 382.7035
903.7792, 380.1382
904.2614, 377.6089
904.7435, 375.0597
905.2256, 372.6088
905.7077, 370.4807
906.1898, 368.5966
906.6719, 366.5215
907.1541, 363.9047
907.6362, 361.5877
908.1183, 359.8829
908.6004, 358.4679
909.0825, 357.1642
909.5646, 355.9800
910.0468, 354.9663
910.5289, 354.1372
911.0110, 353.3992
911.4931, 352.7227
911.9752, 352.0759
912.4573, 351.4823
912.9395, 350.8658
913.4216, 349.9863
913.9037, 348.8749
914.3858, 347.9258
914.8679, 347.4030
915.3500, 346.9522
915.8321, 345.7816
916.3142, 344.0612
916.7963, 343.2283
917.2784, 343.3740
917.7606, 343.4129
918.2427, 342.9599
918.7248, 342.3086
919.2069, 341.7803
919.6890, 341.3364
920.1711, 340.6147
920.6533, 339.3464
921.1354, 338.4488
921.6175, 338.0769
922.0996, 337.9826
922.5817, 338.4523
923.0638, 338.9349
923.5460, 338.4034
924.0281, 336.6527
924.5102, 335.5611
924.9923, 335.7225
925.4744, 336.1475
925.9565, 336.8087
926.4387, 337.3211
926.9208, 337.1966
927.4029, 336.6222
927.8850, 336.2206
928.3671, 336.2371
928.8492, 336.3222
929.3314, 336.0847
929.8135, 335.9100
930.2956, 336.3928
930.7777, 337.2477
931.2598, 337.8452
931.7419, 338.0309
932.2241, 337.9715
932.7062, 337.7682
933.1883, 337.4758
933.6704, 337.1232
934.1525, 336.7628
934.6346, 336.6945
935.1168, 336.9337
935.5989, 337.0474
936.0810, 336.8138
936.5631, 336.5130
937.0452, 336.4821
937.5273, 336.7354
938.0095, 337.5996
938.4916, 339.3643
938.9737, 340.5627
939.4558, 340.8792
939.9379, 340.6484
940.4200, 339.7774
940.9022, 338.6983
941.3843, 338.5905
941.8664, 339.9715
942.3485, 340.7272
942.8306, 340.2579
943.3127, 339.9555
943.7949, 340.3932
944.2770, 340.9860
944.7591, 341.0585
945.2412, 340.7867
945.7233, 340.9823
946.2054, 341.8251
946.6876, 343.1461
947.1697, 345.6755
947.6518, 347.8913
948.1339, 348.4753
948.6160, 348.0450
949.0981, 347.4359
949.5803, 346.9409
950.0624, 346.9015
950.5445, 347.6931
951.0266, 348.7759
951.5087, 349.6983
951.9908, 350.5097
952.4730, 351.1662
952.9551, 351.7873
953.4372, 352.7880
953.9193, 354.3309
954.4014, 356.1022
954.8835, 357.8593
955.3657, 359.5000
955.8478, 360.5593
956.3299, 361.1501
956.8120, 362.1696
957.2941, 363.7938
957.7762, 365.5102
958.2584, 366.9466
958.7405, 368.4587
959.2226, 370.8384
959.7047, 374.1530
960.1868, 377.2651
960.6689, 380.0910
961.1511, 383.1172
961.6332, 386.5641
962.1153, 390.0935
962.5974, 393.2686
963.0795, 396.2945
963.5616, 400.0509
964.0438, 404.6412
964.5259, 409.7921
965.0080, 415.7557
965.4901, 421.9672
965.9722, 428.2807
966.4543, 434.7071
966.9365, 440.9958
967.4186, 447.2697
967.9007, 454.4904
968.3828, 463.1891
968.8649, 472.2912
969.3470, 481.2531
969.8292, 490.7939
970.3113, 501.4560
970.7934, 512.9129
971.2755, 524.7593
971.7576, 536.8352
972.2397, 548.8763
972.7219, 559.8165
973.2040, 571.6817
973.6861, 586.1596
974.1682, 602.0595
974.6503, 618.1705
975.1324, 634.4586
975.6146, 651.1475
976.0967, 668.4056
976.5788, 686.6009
977.0609, 706.5208
977.5430, 727.2102
978.0251, 747.9200
978.5073, 768.2581
978.9894, 787.7173
979.4715, 806.1981
979.9536, 823.8240
980.4357, 840.7849
980.9178, 855.9421
981.4000, 868.1553
981.8821, 877.1443
982.3642, 881.9543
982.8463, 882.4830
983.3284, 877.6470
983.8105, 867.1696
984.2927, 851.8661
984.7748, 832.1133
985.2569, 808.8013
985.7390, 783.4388
986.2211, 755.9954
986.7032, 727.7244
987.1854, 698.2657
987.6675, 669.8163
988.1496, 642.6631
988.6317, 617.2001
989.1138, 593.9741
989.5959, 572.7202
990.0781, 552.4219
990.5602, 532.6837
991.0423, 515.0848
991.5244, 500.2842
992.0065, 486.5526
992.4886, 473.0928
992.9708, 460.4829
993.4529, 449.5670
993.9350, 440.2556
994.4171, 431.2759
994.8992, 422.0881
995.3813, 414.0991
995.8635, 407.9708
996.3456, 402.3710
996.8277, 396.6388
997.3098, 391.1970
997.7919, 386.7216
998.2740, 383.1933
998.7562, 379.5708
999.2383, 375.1813
999.7204, 371.3774
1000.203, 368.9051
1000.685, 366.7430
1001.167, 364.2744
1001.649, 361.6100
1002.131, 358.9096
1002.613, 356.2204
1003.095, 353.9827
1003.577, 352.7081
1004.059, 351.5305
1004.542, 349.9355
1005.024, 348.2321
1005.506, 346.5709
1005.988, 345.1002
1006.470, 344.1122
1006.952, 343.6595
1007.434, 343.2221
1007.916, 342.5186
1008.398, 341.5968
1008.881, 340.3544
1009.363, 339.0156
1009.845, 337.8905
1010.327, 336.9908
1010.809, 336.1495
1011.291, 335.3143
1011.773, 334.7013
1012.255, 334.7241
1012.738, 334.9287
1013.220, 334.6447
1013.702, 333.9579
1014.184, 332.9770
1014.666, 331.7899
1015.148, 330.5134
1015.630, 329.2100
1016.112, 328.4516
1016.594, 329.5009
1017.077, 331.3398
1017.559, 330.8233
1018.041, 328.4896
1018.523, 327.0239
1019.005, 326.8519
1019.487, 327.0173
1019.969, 326.9959
1020.451, 326.8762
1020.934, 326.8150
1021.416, 326.7751
1021.898, 326.4583
1022.380, 325.8787
1022.862, 325.5841
1023.344, 325.6986
1023.826, 325.7774
1024.308, 325.5050
1024.791, 325.2009
1025.273, 325.5122
1025.755, 326.4139
1026.237, 326.8892
1026.719, 326.8762
1027.201, 326.9769
1027.683, 327.4029
1028.165, 327.5160
1028.647, 326.7345
1029.130, 325.6732
1029.612, 325.7088
1030.094, 326.9652
1030.576, 327.6216
1031.058, 327.4580
1031.540, 327.4422
1032.022, 327.7739
1032.504, 328.3287
1032.986, 329.1161
1033.469, 329.9709
1033.951, 330.4879
1034.433, 330.5617
1034.915, 330.9415
1035.397, 331.7257
1035.879, 332.6094
1036.361, 333.5538
1036.843, 334.5606
1037.326, 335.6812
1037.808, 336.8349
1038.290, 337.7745
1038.772, 338.3548
1039.254, 339.4085
1039.736, 341.2503
1040.218, 343.0669
1040.700, 344.7275
1041.182, 346.2835
1041.665, 347.4413
1042.147, 348.5895
1042.629, 350.7000
1043.111, 354.0495
1043.593, 357.1558
1044.075, 360.1310
1044.557, 362.6486
1045.039, 364.1390
1045.521, 365.6361
1046.004, 367.8073
1046.486, 370.5070
1046.968, 373.4032
1047.450, 376.4543
1047.932, 379.7549
1048.414, 384.0186
1048.896, 387.5961
1049.378, 389.3820
1049.861, 390.9878
1050.343, 393.6655
1050.825, 396.9910
1051.307, 400.2674
1051.789, 403.5438
1052.271, 405.4566
1052.753, 404.4003
1053.235, 403.7383
1053.718, 405.5185
1054.200, 407.1171
1054.682, 406.6172
1055.164, 404.4738
1055.646, 401.6058
1056.128, 398.1229
1056.610, 394.5650
1057.092, 391.4958
1057.574, 387.8122
1058.057, 382.2862
1058.539, 376.7814
1059.021, 372.7743
1059.503, 369.8082
1059.985, 367.0573
1060.467, 364.3561
1060.949, 361.1548
1061.431, 356.5597
1061.913, 352.3784
1062.396, 349.6490
1062.878, 347.2523
1063.360, 344.2528
1063.842, 341.0041
1064.324, 338.1729
1064.806, 335.8783
1065.288, 333.9547
1065.770, 332.6642
1066.253, 331.3064
1066.735, 329.4019
1067.217, 327.5119
1067.699, 325.9580
1068.181, 324.7595
1068.663, 324.0296
1069.145, 323.7007
1069.627, 323.1494
1070.109, 321.9773
1070.592, 320.8133
1071.074, 319.9947
1071.556, 319.2295
1072.038, 318.2030
1072.520, 317.1279
1073.002, 316.2682
1073.484, 315.6834
1073.966, 315.4293
1074.448, 315.7974
1074.931, 315.8799
1075.413, 314.7754
1075.895, 313.7208
1076.377, 313.8749
1076.859, 314.4689
1077.341, 314.1867
1077.823, 313.1988
1078.305, 313.0966
1078.788, 314.8428
1079.270, 316.1544
1079.752, 315.8370
1080.234, 314.8487
1080.716, 313.1823
1081.198, 311.6755
1081.680, 311.7255
1082.162, 312.8179
1082.644, 312.7150
1083.127, 310.4043
1083.609, 308.5586
1084.091, 308.6599
1084.573, 309.2421
1085.055, 309.8215
1085.537, 310.0958
1086.019, 309.5556
1086.501, 308.5085
1086.984, 307.7867
1087.466, 307.6200
1087.948, 307.5865
1088.430, 307.5672
1088.912, 307.5610
1089.394, 307.4793
1089.876, 307.4854
1090.358, 307.8934
1090.840, 308.4529
1091.323, 308.5900
1091.805, 308.1880
1092.287, 307.8679
1092.769, 308.0043
1093.251, 308.0757
1093.733, 307.8169
1094.215, 307.4535
1094.697, 307.1445
1095.179, 306.8651
1095.662, 306.5450
1096.144, 306.1781
1096.626, 305.8293
1097.108, 305.3125
1097.590, 305.1393
1098.072, 305.9655
1098.554, 306.6576
1099.036, 306.2989
1099.519, 305.5087
1100.001, 305.0388
1100.483, 304.9644
1100.965, 305.1602
1101.447, 305.8813
1101.929, 306.2401
1102.411, 305.6987
1102.893, 305.1179
1103.375, 304.9665
1103.858, 304.9283
1104.340, 304.6164
1104.822, 304.1144
1105.304, 303.7721
1105.786, 303.6192
1106.268, 303.6876
1106.750, 304.0927
1107.232, 304.5744
1107.714, 305.2741
1108.197, 305.8058
1108.679, 305.7264
1109.161, 305.2866
1109.643, 305.0813
1110.125, 305.1986
1110.607, 305.2195
1111.089, 305.1377
1111.571, 304.9070
1112.054, 304.3923
1112.536, 303.8615
1113.018, 303.1945
1113.500, 302.7404
1113.982, 303.2841
1114.464, 304.8560
1114.946, 305.5703
1115.428, 304.6166
1115.911, 304.1687
1116.393, 304.8208
1116.875, 305.3189
1117.357, 305.0352
1117.839, 304.4793
1118.321, 304.0926
1118.803, 303.9105
1119.285, 304.1996
1119.767, 305.5601
1120.250, 305.8178
1120.732, 304.2080
1121.214, 303.0629
1121.696, 303.1297
1122.178, 303.7687
1122.660, 304.6294
1123.142, 305.5448
1123.624, 306.0612
1124.106, 306.1370
1124.589, 306.1073
1125.071, 305.9253
1125.553, 305.7428
1126.035, 305.4529
1126.517, 305.6559
1126.999, 306.9103
1127.481, 308.3939
1127.963, 308.7324
1128.446, 308.0527
1128.928, 307.8471
1129.410, 308.1525
1129.892, 308.6792
1130.374, 309.4637
1130.856, 309.8578
1131.338, 309.5319
1131.820, 309.0394
1132.302, 308.9057
1132.785, 309.1869
1133.267, 310.2432
1133.749, 312.0007
1134.231, 313.2650
1134.713, 313.9932
1135.195, 314.5182
1135.677, 314.9350
1136.159, 315.2029
1136.641, 315.2592
1137.124, 315.3705
1137.606, 316.1501
1138.088, 317.3441
1138.570, 317.7360
1139.052, 317.6302
1139.534, 318.5426
1140.016, 320.6093
1140.498, 323.0158
1140.981, 325.3693
1141.463, 327.2260
1141.945, 327.7003
1142.427, 327.9032
1142.909, 330.2187
1143.391, 333.5675
1143.873, 335.5429
1144.355, 336.3039
1144.838, 336.9750
1145.320, 337.9552
1145.802, 339.3465
1146.284, 341.2176
1146.766, 343.5123
1147.248, 346.4538
1147.730, 349.5454
1148.212, 352.2374
1148.694, 354.6183
1149.177, 357.0084
1149.659, 359.3469
1150.141, 361.1555
1150.623, 362.2119
1151.105, 363.2887
1151.587, 365.2150
1152.069, 366.9247
1152.551, 367.8892
1153.033, 368.0987
1153.516, 367.3570
1153.998, 365.9291
1154.480, 364.2525
1154.962, 362.4229
1155.444, 360.4639
1155.926, 358.3350
1156.408, 356.1599
1156.890, 354.0330
1157.373, 351.8086
1157.855, 349.2213
1158.337, 346.6111
1158.819, 344.2724
1159.301, 342.2422
1159.783, 340.6173
1160.265, 339.5389
1160.747, 338.4674
1161.229, 337.2092
1161.712, 336.1819
1162.194, 335.6016
1162.676, 335.1191
1163.158, 334.5014
1163.640, 333.8365
1164.122, 333.2885
1164.604, 332.8574
1165.086, 332.3826
1165.568, 331.6712
1166.051, 331.5962
1166.533, 332.5589
1167.015, 333.1670
1167.497, 332.7451
1167.979, 332.0060
1168.461, 331.6422
1168.943, 331.5976
1169.425, 331.7512
1169.908, 332.1126
1170.390, 332.3834
1170.872, 332.5707
1171.354, 331.8015
1171.836, 329.8483
1172.318, 328.3202
1172.800, 328.2413
1173.282, 328.4813
1173.765, 327.3101
1174.247, 325.3305
1174.729, 324.3757
1175.211, 324.1797
1175.693, 323.9619
1176.175, 323.5518
1176.657, 322.5854
1177.139, 321.0107
1177.621, 319.4753
1178.104, 318.4482
1178.586, 317.6725
1179.068, 316.7426
1179.550, 315.9733
1180.032, 316.2075
1180.514, 316.7333
1180.996, 315.9499
1181.478, 314.1336
1181.960, 313.1368
1182.443, 313.6682
1182.925, 314.0746
1183.407, 313.0767
1183.889, 312.0459
1184.371, 311.9430
1184.853, 312.0494
1185.335, 311.8016
1185.817, 311.2831
1186.300, 310.6654
1186.782, 309.9869
1187.264, 309.3205
1187.746, 308.6058
1188.228, 308.0564
1188.710, 307.7578
1189.192, 307.5690
1189.674, 307.4732
1190.156, 307.4369
1190.639, 307.5015
1191.121, 307.5765
1191.603, 307.4938
1192.085, 307.2630
1192.567, 306.6839
1193.049, 305.4722
1193.531, 304.7821
1194.013, 304.9350
1194.495, 304.9954
1194.978, 304.5316
1195.460, 303.9380
1195.942, 303.5968
1196.424, 303.4878
1196.906, 303.5854
1197.388, 303.8813
1197.870, 304.2280
1198.352, 304.6032
1198.835, 304.6681
1199.317, 304.3638
1199.799, 303.8032
1200.281, 303.0383
1200.763, 302.4938
1201.245, 302.7917
1201.727, 303.4429
1202.209, 303.7022
1202.692, 303.5725
1203.174, 302.8234
1203.656, 301.7500
1204.138, 301.0720
1204.620, 300.9355
1205.102, 301.1557
1205.584, 301.7357
1206.066, 302.1194
1206.548, 301.8042
1207.031, 301.2514
1207.513, 300.5132
1207.995, 299.9822
1208.477, 300.2632
1208.959, 300.9923
1209.441, 301.4339
1209.923, 301.4647
1210.405, 301.1987
1210.887, 300.3834
1211.370, 299.7155
1211.852, 298.9005
1212.334, 298.7682
1212.816, 300.5084
1213.298, 302.2430
1213.780, 302.3456
1214.262, 301.3154
1214.744, 300.3165
1215.227, 299.2929
1215.709, 298.9320
1216.191, 299.3655
1216.673, 299.9821
1217.155, 300.7986
1217.637, 301.3513
1218.119, 301.4827
1218.601, 300.8861
1219.083, 299.0264
1219.566, 296.8553
1220.048, 297.1063
1220.530, 299.1059
1221.012, 299.5919
1221.494, 298.8220
1221.976, 298.4754
1222.458, 298.7544
1222.940, 298.7764
1223.422, 298.1623
1223.905, 297.6657
1224.387, 298.0933
1224.869, 298.7228
1225.351, 298.8615
1225.833, 298.6821
1226.315, 298.0146
1226.797, 297.3877
1227.279, 297.8385
1227.762, 299.1847
1228.244, 300.1544
1228.726, 300.2970
1229.208, 300.4362
1229.690, 301.0498
1230.172, 301.4145
1230.654, 301.1386
1231.136, 300.6732
1231.619, 300.2642
1232.101, 299.8676
1232.583, 299.2955
1233.065, 298.6465
1233.547, 298.6172
1234.029, 299.5880
1234.511, 299.8032
1234.993, 298.9282
1235.475, 298.6522
1235.958, 299.5007
1236.440, 300.3466
1236.922, 300.5602
1237.404, 300.2865
1237.886, 299.5923
1238.368, 298.7442
1238.850, 298.7281
1239.332, 299.2724
1239.814, 299.1908
1240.297, 298.5728
1240.779, 298.1271
1241.261, 298.0068
1241.743, 297.9859
1242.225, 297.9453
1242.707, 298.0092
1243.189, 298.3828
1243.671, 298.8007
1244.154, 299.0091
1244.636, 299.1478
1245.118, 299.4444
1245.600, 299.7435
1246.082, 299.6819
1246.564, 299.3074
1247.046, 299.1495
1247.528, 299.4201
1248.010, 299.6283
1248.493, 299.7069
1248.975, 299.6855
1249.457, 299.4697
1249.939, 299.3005
1250.421, 299.4174
1250.903, 299.5182
1251.385, 299.1516
1251.867, 298.4236
1252.349, 297.8888
1252.832, 297.5379
1253.314, 297.5843
1253.796, 298.0461
1254.278, 298.5941
1254.760, 299.1503
1255.242, 299.5345
1255.724, 299.6476
1256.206, 299.6508
1256.689, 299.7357
1257.171, 299.8028
1257.653, 299.5820
1258.135, 299.2949
1258.617, 299.3866
1259.099, 299.6932
1259.581, 299.8750
1260.063, 299.8656
1260.546, 299.6146
1261.028, 299.0424
1261.510, 298.9096
1261.992, 300.1723
1262.474, 301.0681
1262.956, 300.4294
1263.438, 299.7318
1263.920, 299.9243
1264.402, 300.5473
1264.885, 301.1115
1265.367, 301.5909
1265.849, 301.9046
1266.331, 302.0379
1266.813, 302.1067
1267.295, 302.1195
1267.777, 302.0226
1268.259, 301.8031
1268.741, 301.4406
1269.224, 300.8965
1269.706, 300.6985
1270.188, 301.4603
1270.670, 302.4324
1271.152, 301.9157
1271.634, 300.7104
1272.116, 300.8291
1272.598, 301.7468
1273.081, 302.2214
1273.563, 302.1645
1274.045, 301.8613
1274.527, 301.4366
1275.009, 301.1399
1275.491, 301.1168
1275.973, 301.1940
1276.455, 301.3582
1276.938, 301.5085
1277.420, 301.3993
1277.902, 301.4247
1278.384, 302.2766
1278.866, 303.3562
1279.348, 303.3439
1279.830, 302.2997
1280.312, 301.8438
1280.794, 302.1717
1281.276, 302.3043
1281.759, 302.1276
1282.241, 302.2014
1282.723, 302.7193
1283.205, 302.9549
1283.687, 302.4458
1284.169, 301.7149
1284.651, 301.4048
1285.133, 301.3882
1285.616, 301.4063
1286.098, 301.4338
##END=



