##NAMES=Nickelskutterudite
##RRUFFID=R061007
##IDEAL CHEMISTRY=(Ni^4+^,Co^3+^,Fe^3+^)As_3_
##LOCALITY=Hasserode, Harz, Germany
##OWNER=RRUFF
##SOURCE=Michael Scott
##DESCRIPTION=Aggregate of silver-gray cubes, some tarnished to a brassy color
##STATUS=The identification of this mineral is confirmed by single-crystal X-ray diffraction and chemical analysis.
##URL=rruff.info/R061007
##MEASURED CHEMISTRY=(Ni_0.48_Co_0.36_Fe_0.13_)_Σ=0.97_(As_2.79_S_0.21_)_Σ=3.00_
168.6560, 84.13156
169.1381, 83.81474
169.6203, 82.75925
170.1024, 81.11595
170.5845, 78.55225
171.0666, 76.71098
171.5487, 77.04499
172.0309, 79.40047
172.5130, 82.07015
172.9951, 85.03553
173.4772, 87.39259
173.9593, 87.70083
174.4414, 82.84258
174.9236, 77.04958
175.4057, 75.49479
175.8878, 78.18938
176.3699, 81.51226
176.8520, 82.39650
177.3341, 81.66414
177.8163, 81.09196
178.2984, 81.65514
178.7805, 82.74693
179.2626, 83.62601
179.7447, 84.29510
180.2268, 84.47126
180.7090, 83.45012
181.1911, 81.60265
181.6732, 80.08395
182.1553, 79.23270
182.6374, 79.09230
183.1195, 80.14072
183.6017, 82.60703
184.0838, 85.05055
184.5659, 85.50061
185.0480, 84.32493
185.5301, 83.40183
186.0123, 83.80704
186.4944, 85.18073
186.9765, 86.55192
187.4586, 88.00584
187.9407, 89.06909
188.4228, 88.66231
188.9050, 86.94803
189.3871, 85.63401
189.8692, 85.62736
190.3513, 86.76968
190.8334, 88.67403
191.3155, 91.69645
191.7977, 94.48204
192.2798, 94.13923
192.7619, 90.67906
193.2440, 87.90640
193.7261, 88.20203
194.2082, 91.28477
194.6904, 94.05218
195.1725, 96.51968
195.6546, 98.31330
196.1367, 98.06491
196.6188, 95.57295
197.1009, 93.69740
197.5831, 94.36543
198.0652, 97.56628
198.5473, 100.2508
199.0294, 102.3583
199.5115, 103.7324
199.9937, 103.7235
200.4758, 102.1110
200.9579, 100.5375
201.4400, 100.0448
201.9221, 100.7293
202.4042, 101.1149
202.8864, 101.0997
203.3685, 100.7623
203.8506, 99.89011
204.3327, 98.07598
204.8148, 97.37514
205.2969, 99.63435
205.7791, 105.5287
206.2612, 109.2828
206.7433, 109.9746
207.2254, 108.7984
207.7075, 109.1035
208.1896, 111.6532
208.6718, 113.4687
209.1539, 112.4274
209.6360, 107.6992
210.1181, 104.4934
210.6002, 103.4954
211.0823, 103.9561
211.5645, 103.7640
212.0466, 102.7048
212.5287, 101.5030
213.0108, 100.4194
213.4929, 99.28262
213.9750, 98.96269
214.4572, 99.78786
214.9393, 101.3443
215.4214, 102.4818
215.9035, 103.2104
216.3856, 103.5042
216.8678, 103.2298
217.3499, 102.1148
217.8320, 101.3506
218.3141, 101.2002
218.7962, 101.3760
219.2783, 100.9403
219.7605, 99.67078
220.2426, 98.19624
220.7247, 96.72722
221.2068, 94.96807
221.6889, 94.14371
222.1710, 94.76525
222.6532, 96.25076
223.1353, 96.71898
223.6174, 95.78288
224.0995, 94.48925
224.5816, 93.36674
225.0637, 92.53478
225.5459, 91.48933
226.0280, 89.92225
226.5101, 88.19186
226.9922, 87.60522
227.4743, 89.05503
227.9564, 90.23662
228.4386, 89.81184
228.9207, 86.57420
229.4028, 84.76192
229.8849, 85.12142
230.3670, 86.77192
230.8492, 87.18771
231.3313, 85.72572
231.8134, 84.00050
232.2955, 82.61182
232.7776, 81.30054
233.2597, 81.06634
233.7419, 82.47179
234.2240, 84.80367
234.7061, 86.17390
235.1882, 86.36191
235.6703, 85.93731
236.1524, 84.95499
236.6346, 82.64680
237.1167, 81.60349
237.5988, 82.20874
238.0809, 83.92159
238.5630, 85.54235
239.0451, 87.06540
239.5273, 88.48826
240.0094, 89.88808
240.4915, 91.56126
240.9736, 92.35528
241.4557, 91.72713
241.9378, 90.46342
242.4200, 90.30161
242.9021, 92.06940
243.3842, 93.64531
243.8663, 94.15627
244.3484, 93.14989
244.8306, 92.40717
245.3127, 91.88554
245.7948, 91.65364
246.2769, 91.89839
246.7590, 92.88220
247.2411, 93.89467
247.7233, 94.72734
248.2054, 95.40466
248.6875, 95.79991
249.1696, 95.80856
249.6517, 95.60476
250.1338, 95.52278
250.6160, 95.85561
251.0981, 95.76674
251.5802, 94.78112
252.0623, 92.53103
252.5444, 91.34913
253.0265, 91.84729
253.5087, 92.92062
253.9908, 92.87402
254.4729, 90.96085
254.9550, 89.45985
255.4371, 89.19547
255.9192, 90.40174
256.4014, 90.94991
256.8835, 90.69892
257.3656, 89.92805
257.8477, 88.83152
258.3298, 87.01365
258.8120, 85.78322
259.2941, 85.69924
259.7762, 86.87449
260.2583, 87.23656
260.7404, 86.61589
261.2225, 85.39474
261.7047, 83.86092
262.1868, 81.79559
262.6689, 79.98351
263.1510, 78.63245
263.6331, 77.73879
264.1152, 76.74496
264.5974, 75.56409
265.0795, 74.42699
265.5616, 73.48575
266.0437, 72.56941
266.5258, 72.40337
267.0079, 73.32696
267.4901, 75.19885
267.9722, 76.73872
268.4543, 78.02419
268.9364, 78.86019
269.4185, 78.95181
269.9006, 78.08193
270.3828, 77.44239
270.8649, 77.30901
271.3470, 77.53105
271.8291, 77.25124
272.3112, 76.17606
272.7933, 75.35740
273.2755, 75.93007
273.7576, 78.26718
274.2397, 79.26147
274.7218, 78.01812
275.2039, 75.49578
275.6860, 74.95063
276.1682, 76.95106
276.6503, 78.77079
277.1324, 78.16679
277.6145, 74.84787
278.0966, 73.33292
278.5787, 74.56602
279.0609, 77.08268
279.5430, 77.19386
280.0251, 74.40014
280.5072, 72.30141
280.9893, 73.82314
281.4715, 78.92329
281.9536, 80.90877
282.4357, 78.68937
282.9178, 74.84869
283.3999, 74.18510
283.8820, 76.89233
284.3642, 79.25140
284.8463, 79.09091
285.3284, 76.68331
285.8105, 75.39831
286.2926, 75.46560
286.7747, 75.94756
287.2569, 75.51295
287.7390, 74.19369
288.2211, 72.84097
288.7032, 71.35342
289.1853, 70.04678
289.6674, 70.66475
290.1496, 73.44106
290.6317, 76.61162
291.1138, 78.19160
291.5959, 78.35770
292.0780, 78.32909
292.5602, 78.79643
293.0423, 79.24333
293.5244, 77.63293
294.0065, 73.85527
294.4886, 70.80110
294.9707, 72.13742
295.4529, 76.62223
295.9350, 79.72639
296.4171, 80.06265
296.8992, 78.60912
297.3813, 76.56477
297.8634, 74.01773
298.3456, 71.87697
298.8277, 70.97539
299.3098, 70.99999
299.7919, 71.30128
300.2740, 71.76023
300.7561, 72.41818
301.2383, 73.53450
301.7204, 74.98713
302.2025, 76.14147
302.6846, 76.43455
303.1667, 76.23322
303.6488, 76.10174
304.1310, 76.15731
304.6131, 76.19226
305.0952, 75.64877
305.5773, 74.86408
306.0594, 74.74985
306.5415, 76.97974
307.0237, 79.53219
307.5058, 79.99093
307.9879, 77.87591
308.4700, 75.40468
308.9521, 73.87511
309.4343, 73.18295
309.9164, 73.09199
310.3985, 74.18227
310.8806, 75.37086
311.3627, 75.56359
311.8448, 74.70045
312.3270, 74.25212
312.8091, 76.00674
313.2912, 78.38396
313.7733, 79.51707
314.2554, 77.36004
314.7375, 74.98924
315.2197, 74.21683
315.7018, 74.84827
316.1839, 75.20658
316.6660, 74.33569
317.1481, 72.97117
317.6302, 71.70512
318.1124, 70.45159
318.5945, 69.58919
319.0766, 69.18349
319.5587, 69.25402
320.0408, 69.84995
320.5229, 71.69066
321.0051, 73.56734
321.4872, 74.83486
321.9693, 75.34653
322.4514, 75.30698
322.9335, 74.28000
323.4156, 72.76382
323.8978, 71.71877
324.3799, 71.72569
324.8620, 71.86867
325.3441, 71.71499
325.8262, 70.92941
326.3083, 70.82023
326.7905, 72.47999
327.2726, 74.55183
327.7547, 75.34789
328.2368, 72.99035
328.7189, 71.26458
329.2010, 71.22112
329.6832, 73.08857
330.1653, 74.05885
330.6474, 73.16064
331.1295, 72.06456
331.6116, 72.21937
332.0938, 75.06138
332.5759, 76.86754
333.0580, 77.01088
333.5401, 75.65830
334.0222, 73.91586
334.5043, 71.08611
334.9865, 68.80400
335.4686, 68.23184
335.9507, 70.26450
336.4328, 71.56046
336.9149, 71.79195
337.3970, 71.26003
337.8792, 70.68458
338.3613, 69.95426
338.8434, 69.46818
339.3255, 69.45605
339.8076, 69.98288
340.2898, 70.53252
340.7719, 71.16967
341.2540, 71.72985
341.7361, 71.95213
342.2182, 71.80949
342.7003, 71.55938
343.1825, 71.28437
343.6646, 70.97575
344.1467, 70.44733
344.6288, 69.58990
345.1109, 69.03847
345.5930, 69.73043
346.0752, 71.51328
346.5573, 72.94531
347.0394, 73.72088
347.5215, 73.90720
348.0036, 73.52951
348.4857, 72.59776
348.9679, 71.53202
349.4500, 70.52741
349.9321, 69.61712
350.4142, 68.89029
350.8963, 68.34603
351.3784, 68.01102
351.8606, 67.92321
352.3427, 68.07965
352.8248, 68.47456
353.3069, 69.39230
353.7890, 70.43284
354.2711, 71.07506
354.7533, 71.26863
355.2354, 71.15914
355.7175, 70.75670
356.1996, 70.14562
356.6817, 69.47266
357.1638, 68.48093
357.6460, 67.68259
358.1281, 67.59237
358.6102, 68.16130
359.0923, 68.74065
359.5744, 68.70767
360.0565, 68.61687
360.5387, 69.08533
361.0208, 71.44071
361.5029, 72.93931
361.9850, 71.48788
362.4671, 68.04417
362.9492, 65.56921
363.4314, 65.60896
363.9135, 66.51673
364.3956, 67.48435
364.8777, 68.54810
365.3598, 69.31365
365.8419, 69.69360
366.3241, 69.73069
366.8062, 69.48246
367.2883, 68.12140
367.7704, 67.28091
368.2526, 67.65079
368.7347, 69.55621
369.2168, 70.85669
369.6989, 71.66172
370.1810, 71.77361
370.6631, 70.97209
371.1453, 68.30315
371.6274, 66.12137
372.1095, 64.62044
372.5916, 63.79551
373.0737, 63.73878
373.5558, 64.99836
374.0380, 66.21111
374.5201, 66.49360
375.0022, 65.35580
375.4843, 64.97593
375.9664, 65.72249
376.4485, 66.99801
376.9307, 67.56461
377.4128, 67.24474
377.8949, 66.95943
378.3770, 67.24210
378.8591, 68.03325
379.3412, 67.89320
379.8234, 66.56194
380.3055, 65.21928
380.7876, 65.46056
381.2697, 67.18648
381.7518, 68.60256
382.2339, 69.24477
382.7161, 69.27477
383.1982, 68.98161
383.6803, 68.37389
384.1624, 67.61185
384.6445, 66.47846
385.1266, 65.29434
385.6088, 64.99382
386.0909, 65.90905
386.5730, 67.12149
387.0551, 67.66578
387.5372, 67.64449
388.0193, 67.35349
388.5015, 66.36452
388.9836, 65.49440
389.4657, 65.93613
389.9478, 67.79738
390.4299, 69.42844
390.9120, 69.99368
391.3942, 69.58870
391.8763, 68.29616
392.3584, 64.44407
392.8405, 61.34262
393.3226, 61.12883
393.8047, 63.28910
394.2869, 65.47391
394.7690, 67.33065
395.2511, 68.54579
395.7332, 68.81009
396.2154, 67.52567
396.6975, 66.44957
397.1796, 65.80343
397.6617, 65.61278
398.1438, 65.91456
398.6259, 67.98444
399.1081, 69.31078
399.5902, 68.70403
400.0723, 65.67076
400.5544, 64.16844
401.0365, 65.51439
401.5186, 67.41199
402.0008, 67.94123
402.4829, 66.37036
402.9650, 64.77240
403.4471, 63.07591
403.9292, 61.52051
404.4113, 61.23018
404.8935, 62.54443
405.3756, 64.32652
405.8577, 66.20522
406.3398, 68.28362
406.8219, 69.52503
407.3040, 69.80046
407.7862, 69.46880
408.2683, 69.02566
408.7504, 68.47630
409.2325, 67.62735
409.7146, 65.96638
410.1967, 64.06462
410.6789, 64.13427
411.1610, 66.24763
411.6431, 68.45955
412.1252, 69.04895
412.6073, 68.39295
413.0894, 67.47952
413.5716, 66.43236
414.0537, 65.38393
414.5358, 64.38311
415.0179, 63.50120
415.5000, 62.93873
415.9821, 62.93626
416.4643, 63.24400
416.9464, 63.60085
417.4285, 63.97883
417.9106, 64.51741
418.3927, 65.89292
418.8748, 67.28588
419.3570, 67.70153
419.8391, 65.55801
420.3212, 63.58673
420.8033, 62.94054
421.2854, 63.45272
421.7675, 64.29054
422.2497, 65.62144
422.7318, 66.89847
423.2139, 67.94366
423.6960, 69.20578
424.1781, 69.20914
424.6602, 66.15749
425.1424, 62.18968
425.6245, 60.49896
426.1066, 62.89915
426.5887, 65.32714
427.0709, 67.13225
427.5530, 68.31436
428.0351, 68.59897
428.5172, 67.56810
428.9993, 66.21217
429.4814, 65.12115
429.9636, 64.18112
430.4457, 64.05943
430.9278, 65.14194
431.4099, 66.74334
431.8920, 67.35384
432.3741, 66.90096
432.8563, 66.04030
433.3384, 64.63218
433.8205, 62.91204
434.3026, 62.91636
434.7847, 64.86233
435.2668, 66.79089
435.7490, 65.92017
436.2311, 63.19436
436.7132, 62.18277
437.1953, 64.57455
437.6774, 68.03984
438.1595, 69.58739
438.6417, 69.49119
439.1238, 68.88364
439.6059, 68.26177
440.0880, 67.57198
440.5701, 66.51582
441.0522, 64.90887
441.5344, 64.02485
442.0165, 65.48584
442.4986, 67.86089
442.9807, 69.38979
443.4628, 68.66619
443.9449, 67.79668
444.4271, 67.56238
444.9092, 67.88701
445.3913, 68.27117
445.8734, 69.07515
446.3555, 69.53110
446.8376, 69.16496
447.3198, 67.27525
447.8019, 65.88381
448.2840, 65.04772
448.7661, 64.73014
449.2482, 65.02575
449.7303, 66.91090
450.2125, 67.68242
450.6946, 66.25318
451.1767, 62.85826
451.6588, 61.14101
452.1409, 61.46426
452.6230, 62.58533
453.1052, 63.77248
453.5873, 65.05706
454.0694, 66.12150
454.5515, 66.92783
455.0337, 67.53133
455.5158, 67.94307
455.9979, 68.17956
456.4800, 68.44346
456.9621, 69.02344
457.4442, 69.63456
457.9264, 69.46656
458.4085, 68.54800
458.8906, 67.58419
459.3727, 67.13830
459.8548, 67.03317
460.3369, 67.05430
460.8191, 67.28011
461.3012, 67.32421
461.7833, 66.74306
462.2654, 65.75548
462.7475, 64.81929
463.2296, 63.88874
463.7118, 63.25368
464.1939, 63.10929
464.6760, 63.46755
465.1581, 64.06075
465.6402, 65.23709
466.1223, 66.35201
466.6045, 66.93384
467.0866, 66.05336
467.5687, 65.71185
468.0508, 66.77489
468.5329, 68.37234
469.0150, 68.46069
469.4972, 65.75437
469.9793, 63.48400
470.4614, 62.69405
470.9435, 63.44507
471.4256, 64.63609
471.9077, 66.64588
472.3899, 68.34299
472.8720, 68.44260
473.3541, 66.76789
473.8362, 65.63660
474.3183, 65.43397
474.8004, 65.81088
475.2826, 66.12915
475.7647, 66.39848
476.2468, 66.76024
476.7289, 67.38145
477.2110, 68.12909
477.6931, 68.83866
478.1753, 69.50932
478.6574, 69.72728
479.1395, 68.86223
479.6216, 67.40746
480.1037, 66.06476
480.5858, 64.96445
481.0680, 64.10226
481.5501, 63.50434
482.0322, 63.13713
482.5143, 62.93847
482.9964, 62.89741
483.4786, 63.00858
483.9607, 63.35071
484.4428, 63.94811
484.9249, 64.39983
485.4070, 64.20778
485.8892, 64.10239
486.3713, 64.63960
486.8534, 66.84695
487.3355, 68.15797
487.8176, 68.14098
488.2997, 67.31554
488.7819, 66.78172
489.2640, 66.66028
489.7461, 66.56551
490.2282, 66.45815
490.7103, 66.31329
491.1924, 65.55848
491.6746, 63.99498
492.1567, 62.61653
492.6388, 62.26488
493.1209, 62.88964
493.6030, 64.26619
494.0851, 66.67074
494.5673, 68.99760
495.0494, 69.41511
495.5315, 68.31679
496.0136, 67.11050
496.4957, 65.89963
496.9778, 65.25019
497.4600, 66.37952
497.9421, 69.04891
498.4242, 70.98021
498.9063, 69.71394
499.3884, 67.74714
499.8705, 67.48981
500.3527, 70.41181
500.8348, 72.55718
501.3169, 71.81618
501.7990, 69.62894
502.2811, 68.01259
502.7632, 68.23795
503.2454, 68.09592
503.7275, 66.49328
504.2096, 63.69918
504.6917, 62.80883
505.1738, 65.21156
505.6559, 67.64076
506.1381, 68.16416
506.6202, 66.05145
507.1023, 65.09480
507.5844, 65.60414
508.0665, 66.71064
508.5486, 67.33508
509.0308, 67.47337
509.5129, 67.26720
509.9950, 66.56812
510.4771, 65.73254
510.9592, 65.70557
511.4413, 66.39428
511.9235, 66.91468
512.4056, 66.26331
512.8877, 65.25656
513.3698, 65.27800
513.8519, 66.49370
514.3340, 67.72637
514.8162, 68.36355
515.2983, 68.43339
515.7804, 67.90923
516.2625, 65.78595
516.7446, 64.34200
517.2267, 65.10892
517.7089, 67.25845
518.1910, 68.75134
518.6731, 68.72892
519.1552, 68.38273
519.6373, 67.94241
520.1194, 67.34501
520.6016, 67.42709
521.0837, 69.07551
521.5658, 70.41458
522.0479, 69.79919
522.5300, 66.38351
523.0121, 64.15998
523.4943, 63.58963
523.9764, 64.06116
524.4585, 64.63517
524.9406, 65.30534
525.4227, 65.93605
525.9048, 66.52865
526.3870, 67.02074
526.8691, 67.44642
527.3513, 67.76863
527.8334, 67.44486
528.3155, 65.28962
528.7976, 62.53088
529.2797, 60.98243
529.7618, 60.94360
530.2440, 61.56521
530.7261, 62.54520
531.2082, 63.73747
531.6903, 64.93630
532.1724, 66.37894
532.6545, 67.51003
533.1367, 68.36105
533.6188, 68.80936
534.1009, 68.45717
534.5830, 65.47359
535.0651, 63.41292
535.5472, 63.87533
536.0294, 67.42461
536.5115, 69.40447
536.9936, 69.28500
537.4757, 68.33951
537.9578, 67.60452
538.4399, 67.14778
538.9221, 66.32291
539.4042, 64.83194
539.8863, 63.33343
540.3684, 63.11110
540.8505, 64.07925
541.3326, 65.25052
541.8148, 66.60604
542.2969, 67.68481
542.7790, 67.17107
543.2611, 65.30420
543.7432, 63.97127
544.2253, 65.17948
544.7075, 67.18276
545.1896, 68.22112
545.6717, 67.99789
546.1538, 67.13257
546.6359, 65.07092
547.1180, 62.88256
547.6002, 61.73289
548.0823, 63.33265
548.5644, 64.33122
549.0465, 63.47054
549.5286, 61.54696
550.0107, 60.91517
550.4929, 62.39207
550.9750, 63.93470
551.4571, 64.87566
551.9392, 65.21376
552.4213, 65.76475
552.9034, 66.61776
553.3856, 67.41386
553.8677, 67.96064
554.3498, 68.23991
554.8319, 67.97240
555.3140, 67.06961
555.7961, 65.83887
556.2783, 64.17622
556.7604, 62.46626
557.2425, 61.87347
557.7246, 63.43323
558.2067, 65.66557
558.6888, 67.49453
559.1710, 68.86015
559.6531, 69.51763
560.1352, 69.39063
560.6173, 68.47684
561.0994, 66.00979
561.5815, 61.49134
562.0637, 59.39861
562.5458, 63.62702
563.0279, 68.62749
563.5100, 70.26070
563.9921, 65.29256
564.4742, 62.75277
564.9564, 63.90138
565.4385, 66.72775
565.9206, 67.82899
566.4027, 66.92406
566.8848, 65.59159
567.3669, 64.04883
567.8491, 62.52021
568.3312, 61.78538
568.8133, 61.83193
569.2954, 62.34505
569.7775, 63.51493
570.2596, 64.90449
570.7418, 65.45182
571.2239, 65.06557
571.7060, 65.00983
572.1881, 67.21066
572.6702, 69.83691
573.1523, 70.72810
573.6345, 68.24522
574.1166, 65.95499
574.5987, 65.47909
575.0808, 66.00454
575.5629, 66.17537
576.0450, 64.93301
576.5272, 64.29357
577.0093, 65.04395
577.4914, 66.86233
577.9735, 67.56306
578.4556, 66.72858
578.9377, 65.62809
579.4199, 64.88954
579.9020, 64.53310
580.3841, 63.72137
580.8662, 62.28716
581.3483, 61.29507
581.8304, 62.24644
582.3126, 64.59774
582.7947, 66.48986
583.2768, 67.58509
583.7589, 68.11909
584.2410, 68.48851
584.7231, 68.46840
585.2053, 67.61375
585.6874, 64.67994
586.1696, 61.83912
586.6517, 59.97883
587.1338, 59.12468
587.6159, 59.32560
588.0980, 62.10490
588.5801, 64.59683
589.0623, 65.47923
589.5444, 64.54072
590.0265, 63.36646
590.5086, 61.50671
590.9907, 59.98690
591.4728, 59.71354
591.9550, 60.87787
592.4371, 62.11878
592.9192, 63.38226
593.4013, 64.56772
593.8834, 65.65310
594.3655, 66.58133
594.8477, 66.92368
595.3298, 66.24835
595.8119, 65.29253
596.2940, 65.02444
596.7761, 65.32172
597.2582, 65.76418
597.7404, 66.83997
598.2225, 67.43345
598.7046, 66.12734
599.1867, 62.90370
599.6688, 60.98877
600.1509, 62.73885
600.6331, 65.07090
601.1152, 65.96614
601.5973, 64.41187
602.0794, 63.71312
602.5615, 64.34598
603.0436, 65.38435
603.5258, 65.78854
604.0079, 65.47500
604.4900, 64.90324
604.9721, 63.96730
605.4542, 63.08101
605.9363, 63.18655
606.4185, 64.20077
606.9006, 65.41650
607.3827, 66.89566
607.8648, 68.13347
608.3469, 68.07893
608.8290, 66.94151
609.3112, 65.90128
609.7933, 66.06695
610.2754, 66.30479
610.7575, 65.62022
611.2396, 63.78286
611.7217, 62.10299
612.2039, 60.59465
612.6860, 59.61789
613.1681, 59.46949
613.6502, 60.58368
614.1323, 61.79801
614.6144, 63.34869
615.0966, 64.76538
615.5787, 65.15756
616.0608, 64.25856
616.5429, 64.15019
617.0250, 65.68012
617.5071, 67.86670
617.9893, 68.14837
618.4714, 66.77499
618.9535, 65.69057
619.4356, 66.25758
619.9177, 67.48772
620.3998, 68.32881
620.8820, 68.74072
621.3641, 68.55721
621.8462, 66.98167
622.3283, 65.25314
622.8104, 64.38581
623.2925, 64.76585
623.7747, 64.91203
624.2568, 64.01749
624.7389, 63.12774
625.2210, 63.13934
625.7031, 64.65685
626.1852, 65.78728
626.6674, 66.50384
627.1495, 66.69724
627.6316, 65.77685
628.1137, 63.65975
628.5958, 62.55695
629.0779, 63.47426
629.5601, 65.34756
630.0422, 66.29946
630.5243, 66.38432
631.0064, 65.89654
631.4885, 64.18187
631.9706, 62.52491
632.4528, 62.70432
632.9349, 64.52036
633.4170, 65.30355
633.8991, 61.73921
634.3812, 58.40527
634.8633, 58.44542
635.3455, 63.75245
635.8276, 67.41246
636.3097, 69.14285
636.7918, 69.27574
637.2739, 67.51824
637.7560, 62.83695
638.2382, 60.72278
638.7203, 62.20523
639.2024, 65.27513
639.6845, 67.09515
640.1666, 67.76809
640.6487, 68.11150
641.1309, 68.43013
641.6130, 68.46433
642.0951, 67.37554
642.5772, 65.64317
643.0594, 64.66934
643.5415, 65.84935
644.0236, 67.36055
644.5057, 68.39419
644.9879, 68.88122
645.4700, 68.56679
645.9521, 66.50345
646.4342, 64.42725
646.9163, 62.97314
647.3984, 62.10024
647.8806, 62.21335
648.3627, 63.82904
648.8448, 65.46847
649.3269, 65.70486
649.8090, 64.54070
650.2911, 64.24087
650.7733, 65.13111
651.2554, 66.18918
651.7375, 66.04439
652.2196, 65.12576
652.7017, 64.48798
653.1838, 64.48094
653.6660, 64.72452
654.1481, 65.22916
654.6302, 65.73038
655.1123, 65.76495
655.5944, 64.26622
656.0765, 63.23983
656.5587, 63.68391
657.0408, 65.22504
657.5229, 66.11643
658.0050, 66.32950
658.4871, 65.86130
658.9692, 64.35645
659.4514, 62.00209
659.9335, 60.98613
660.4156, 61.40710
660.8977, 62.35539
661.3798, 63.65957
661.8619, 64.94418
662.3441, 64.89114
662.8262, 63.38567
663.3083, 62.10989
663.7904, 62.63705
664.2725, 64.00455
664.7546, 65.28427
665.2368, 66.54414
665.7189, 67.00036
666.2010, 65.18774
666.6831, 62.97644
667.1652, 62.62048
667.6473, 66.08356
668.1295, 68.24034
668.6116, 68.51218
669.0937, 67.47478
669.5758, 65.80626
670.0579, 63.29295
670.5400, 62.29717
671.0222, 64.26820
671.5043, 67.36030
671.9864, 67.25527
672.4685, 64.57677
672.9506, 62.41385
673.4327, 63.01418
673.9149, 64.53033
674.3970, 65.59486
674.8791, 66.15173
675.3612, 66.11158
675.8433, 64.25247
676.3254, 62.79000
676.8076, 63.25145
677.2897, 66.18777
677.7718, 67.91436
678.2539, 68.21780
678.7360, 67.59408
679.2181, 65.90240
679.7003, 62.89996
680.1824, 61.81690
680.6645, 63.07520
681.1466, 64.89059
681.6287, 65.01945
682.1108, 64.14157
682.5930, 64.36459
683.0751, 66.50198
683.5572, 68.42619
684.0393, 68.04197
684.5214, 66.39803
685.0035, 64.99963
685.4857, 63.70653
685.9678, 63.42139
686.4499, 65.59679
686.9320, 68.78002
687.4141, 69.70686
687.8962, 66.90829
688.3784, 64.61574
688.8605, 63.87346
689.3426, 64.24292
689.8247, 64.10323
690.3068, 63.41695
690.7889, 63.22865
691.2711, 64.46559
691.7532, 66.35025
692.2353, 67.40224
692.7174, 67.65936
693.1995, 67.41712
693.6816, 66.47646
694.1638, 65.38386
694.6459, 64.31889
695.1280, 63.27367
695.6101, 63.16116
696.0922, 65.51403
696.5743, 67.75999
697.0565, 68.36996
697.5386, 66.74679
698.0207, 66.12691
698.5028, 66.89554
698.9849, 67.85226
699.4670, 67.85105
699.9492, 66.96841
700.4313, 65.83901
700.9135, 64.43114
701.3956, 63.39524
701.8777, 64.10348
702.3598, 65.51710
702.8419, 65.63933
703.3240, 62.85627
703.8062, 60.87400
704.2883, 62.70953
704.7704, 66.22745
705.2525, 68.27805
705.7346, 66.52068
706.2167, 65.65583
706.6989, 66.65414
707.1810, 68.57710
707.6631, 69.39705
708.1452, 69.04716
708.6273, 67.77542
709.1094, 65.03104
709.5916, 62.02529
710.0737, 62.20164
710.5558, 64.94619
711.0379, 67.08901
711.5200, 66.45148
712.0021, 64.81155
712.4843, 63.49261
712.9664, 62.51474
713.4485, 61.82812
713.9306, 60.86964
714.4127, 60.70287
714.8948, 62.53275
715.3770, 66.41636
715.8591, 68.01319
716.3412, 66.36122
716.8233, 64.31876
717.3054, 63.41632
717.7875, 63.61761
718.2697, 64.31784
718.7518, 65.56461
719.2339, 66.75011
719.7160, 67.50018
720.1981, 67.79632
720.6802, 67.45981
721.1624, 66.41319
721.6445, 65.43653
722.1266, 64.86801
722.6087, 64.65236
723.0908, 64.79433
723.5729, 65.58656
724.0551, 66.13163
724.5372, 66.35198
725.0193, 66.34927
725.5014, 66.13031
725.9835, 65.60001
726.4656, 65.50976
726.9478, 66.06042
727.4299, 66.73699
727.9120, 66.74502
728.3941, 66.26150
728.8762, 65.77788
729.3583, 65.25574
729.8405, 65.15846
730.3226, 66.33538
730.8047, 68.10563
731.2868, 69.30876
731.7689, 69.46185
732.2510, 69.17921
732.7332, 68.18755
733.2153, 66.93578
733.6974, 66.42166
734.1795, 67.10226
734.6616, 67.17782
735.1437, 65.84932
735.6259, 63.95277
736.1080, 64.16946
736.5901, 66.20039
737.0722, 67.37041
737.5543, 65.11043
738.0364, 62.30758
738.5186, 62.89904
739.0007, 65.98045
739.4828, 68.33606
739.9649, 68.13984
740.4470, 67.33138
740.9291, 66.50273
741.4113, 65.73434
741.8934, 65.46725
742.3755, 65.92695
742.8576, 66.49561
743.3397, 67.00731
743.8218, 67.43387
744.3040, 67.53684
744.7861, 67.31467
745.2682, 66.82629
745.7503, 65.60913
746.2324, 64.35851
746.7145, 64.45753
747.1967, 65.85548
747.6788, 67.15907
748.1609, 67.68008
748.6430, 67.78140
749.1251, 67.56727
749.6072, 66.90717
750.0894, 66.77045
750.5715, 67.63151
751.0536, 68.42977
751.5357, 68.37676
752.0178, 67.36653
752.4999, 66.84518
752.9821, 66.85728
753.4642, 67.05712
753.9463, 67.23576
754.4284, 67.33920
754.9105, 67.13820
755.3926, 66.54626
755.8748, 66.23369
756.3569, 67.30452
756.8390, 68.44926
757.3211, 68.35217
757.8032, 65.75181
758.2853, 64.31457
758.7675, 64.86315
759.2496, 65.99094
759.7318, 66.31516
760.2139, 65.63276
760.6960, 65.91111
761.1781, 67.59263
761.6602, 69.21791
762.1423, 68.53828
762.6245, 66.45502
763.1066, 65.21325
763.5887, 65.48386
764.0708, 66.04924
764.5529, 65.81503
765.0350, 65.50014
765.5172, 65.95820
765.9993, 69.28326
766.4814, 70.71452
766.9635, 68.99424
767.4456, 66.08159
767.9277, 64.48819
768.4099, 64.33967
768.8920, 64.72266
769.3741, 65.69713
769.8562, 66.64364
770.3383, 66.19005
770.8204, 64.96931
771.3026, 64.88503
771.7847, 67.47874
772.2668, 69.56518
772.7489, 67.96340
773.2310, 64.70400
773.7131, 62.99409
774.1953, 64.94789
774.6774, 66.68283
775.1595, 67.91402
775.6416, 68.62156
776.1237, 68.65951
776.6058, 67.94302
777.0880, 67.21021
777.5701, 66.65794
778.0522, 66.14434
778.5343, 65.09203
779.0164, 63.85456
779.4985, 63.48942
779.9807, 65.04941
780.4628, 66.84522
780.9449, 68.28596
781.4270, 69.16312
781.9091, 69.07826
782.3912, 66.20361
782.8734, 64.61552
783.3555, 65.32689
783.8376, 67.46190
784.3197, 68.94313
784.8018, 69.76421
785.2839, 70.12256
785.7661, 69.99021
786.2482, 69.56565
786.7303, 69.03625
787.2124, 68.47954
787.6945, 68.10170
788.1766, 68.52072
788.6588, 68.61769
789.1409, 67.44627
789.6230, 65.50172
790.1051, 64.15812
790.5872, 63.42004
791.0693, 63.53853
791.5515, 64.87834
792.0336, 66.94855
792.5157, 68.50452
792.9978, 69.54842
793.4799, 69.54256
793.9620, 67.54263
794.4442, 65.26432
794.9263, 65.89175
795.4084, 68.36768
795.8905, 69.75117
796.3726, 66.88424
796.8547, 64.57427
797.3369, 65.89367
797.8190, 69.48326
798.3011, 70.33787
798.7832, 66.14568
799.2653, 63.87648
799.7474, 66.05126
800.2296, 70.63338
800.7117, 71.52017
801.1938, 69.04973
801.6759, 66.90665
802.1580, 66.77574
802.6401, 67.59202
803.1223, 68.62001
803.6044, 69.63844
804.0865, 70.05744
804.5686, 69.29270
805.0507, 68.31435
805.5328, 66.80003
806.0150, 65.34347
806.4971, 65.96291
806.9792, 69.88651
807.4613, 71.73434
807.9434, 69.20238
808.4255, 64.60279
808.9077, 63.11567
809.3898, 64.28895
809.8719, 66.13528
810.3540, 68.61733
810.8361, 70.53812
811.3182, 70.46390
811.8004, 69.12119
812.2825, 68.23414
812.7646, 68.66544
813.2467, 69.09026
813.7288, 69.34080
814.2109, 69.39437
814.6931, 69.06326
815.1752, 68.26247
815.6573, 67.91230
816.1394, 68.49599
816.6215, 69.30624
817.1037, 68.96966
817.5858, 67.88931
818.0679, 67.11242
818.5500, 66.73059
819.0322, 67.15525
819.5143, 69.58346
819.9964, 72.81516
820.4785, 74.17575
820.9606, 72.13277
821.4427, 70.95171
821.9249, 71.65139
822.4070, 73.14529
822.8891, 73.01795
823.3712, 71.43056
823.8533, 70.14835
824.3354, 69.66831
824.8176, 69.68403
825.2997, 70.39323
825.7818, 71.24352
826.2639, 71.27412
826.7460, 69.00964
827.2281, 67.29901
827.7103, 67.07755
828.1924, 67.61345
828.6745, 67.98485
829.1566, 68.11940
829.6387, 68.37344
830.1208, 68.81326
830.6030, 69.34773
831.0851, 69.94888
831.5672, 70.51982
832.0493, 70.78415
832.5314, 70.63428
833.0135, 70.24217
833.4957, 69.41597
833.9778, 68.55191
834.4599, 68.10553
834.9420, 68.30009
835.4241, 68.84277
835.9063, 70.12945
836.3884, 71.28606
836.8705, 70.93826
837.3526, 69.14945
837.8347, 68.35939
838.3168, 68.98913
838.7990, 69.92905
839.2811, 69.98115
839.7632, 69.62733
840.2453, 69.58715
840.7274, 70.16245
841.2095, 70.49304
841.6917, 70.26299
842.1738, 69.67490
842.6559, 68.71912
843.1380, 66.87035
843.6201, 66.86344
844.1022, 69.23559
844.5844, 71.59935
845.0665, 71.38573
845.5486, 69.42655
846.0307, 67.75441
846.5128, 66.53635
846.9949, 66.24675
847.4771, 68.51026
847.9592, 70.89070
848.4413, 71.21878
848.9234, 68.68226
849.4055, 67.30938
849.8876, 67.76189
850.3698, 68.51583
850.8519, 68.64549
851.3340, 68.22367
851.8161, 68.13629
852.2982, 68.38280
852.7803, 68.95590
853.2625, 70.65327
853.7446, 72.14143
854.2267, 71.34251
854.7088, 68.48560
855.1909, 66.98265
855.6730, 69.99120
856.1552, 72.41555
856.6373, 72.07372
857.1194, 69.35018
857.6015, 67.30844
858.0836, 65.95389
858.5657, 65.12569
859.0479, 64.76488
859.5300, 64.85377
860.0121, 65.61164
860.4942, 66.83981
860.9763, 67.83585
861.4584, 68.52779
861.9406, 68.59747
862.4227, 67.16448
862.9048, 64.93440
863.3869, 64.38619
863.8690, 66.29105
864.3511, 68.04381
864.8333, 69.29218
865.3154, 69.75021
865.7975, 67.95428
866.2796, 64.63343
866.7617, 63.10328
867.2438, 65.69670
867.7260, 68.42303
868.2081, 67.40446
868.6902, 64.78543
869.1723, 63.90370
869.6544, 67.44664
870.1365, 69.97327
870.6187, 71.13817
871.1008, 71.25847
871.5829, 70.24265
872.0650, 68.20014
872.5471, 67.64027
873.0292, 69.21364
873.5114, 70.89267
873.9935, 70.44808
874.4756, 68.93175
874.9577, 67.57147
875.4399, 66.44957
875.9220, 65.98167
876.4041, 66.94386
876.8862, 68.04100
877.3683, 68.39760
877.8505, 67.86490
878.3326, 67.59859
878.8147, 67.61509
879.2968, 67.77237
879.7789, 67.93777
880.2610, 68.16704
880.7432, 68.78198
881.2253, 69.75644
881.7074, 70.10165
882.1895, 68.55718
882.6716, 66.97617
883.1537, 66.35545
883.6359, 66.66338
884.1180, 67.31390
884.6001, 68.36991
885.0822, 69.56747
885.5643, 71.30663
886.0464, 72.80025
886.5286, 71.32200
887.0107, 67.65660
887.4928, 65.02402
887.9749, 66.48760
888.4570, 68.09798
888.9391, 67.29723
889.4213, 65.02710
889.9034, 64.60466
890.3855, 67.45134
890.8676, 68.81091
891.3497, 67.25683
891.8318, 64.42164
892.3140, 63.22079
892.7961, 63.39363
893.2782, 64.01952
893.7603, 65.10300
894.2424, 65.89342
894.7245, 65.55190
895.2067, 64.70863
895.6888, 64.13230
896.1709, 64.25886
896.6530, 64.07961
897.1351, 63.22965
897.6172, 62.64971
898.0994, 63.68922
898.5815, 66.05201
899.0636, 67.48973
899.5457, 67.74455
900.0278, 67.67281
900.5099, 67.81663
900.9921, 68.06519
901.4742, 68.32899
901.9563, 68.59660
902.4384, 68.91273
902.9205, 69.83225
903.4026, 69.96953
903.8848, 68.09469
904.3669, 64.67225
904.8490, 63.95313
905.3311, 65.84270
905.8132, 67.63573
906.2953, 67.44779
906.7775, 66.56717
907.2596, 66.07803
907.7417, 65.97732
908.2238, 66.17030
908.7059, 67.21073
909.1880, 67.81392
909.6702, 67.65879
910.1523, 66.95199
910.6344, 65.95596
911.1165, 64.68963
911.5986, 64.17001
912.0807, 64.95280
912.5629, 65.88924
913.0450, 65.68753
913.5271, 64.77314
914.0092, 63.64486
914.4913, 61.28418
914.9734, 60.98731
915.4556, 65.03323
915.9377, 69.57887
916.4198, 71.09980
916.9019, 69.44006
917.3840, 67.13258
917.8661, 64.14802
918.3483, 61.96357
918.8304, 62.42598
919.3125, 64.14167
919.7946, 65.72302
920.2767, 67.01530
920.7589, 67.35746
921.2410, 65.20257
921.7231, 63.49329
922.2052, 63.76093
922.6873, 65.63408
923.1694, 65.37950
923.6516, 62.91611
924.1337, 61.26827
924.6158, 62.48979
925.0979, 64.89339
925.5800, 66.79421
926.0621, 68.06454
926.5443, 68.40540
927.0264, 66.18814
927.5085, 65.00725
927.9906, 66.32465
928.4727, 68.50695
928.9548, 68.52050
929.4370, 66.25591
929.9191, 65.21474
930.4012, 66.27444
930.8833, 67.53544
931.3654, 66.25555
931.8475, 64.11697
932.3297, 63.56879
932.8118, 65.61005
933.2939, 67.33553
933.7761, 68.24212
934.2582, 68.44595
934.7403, 67.66460
935.2224, 65.84216
935.7045, 65.68478
936.1866, 67.26752
936.6688, 68.35954
937.1509, 66.45902
937.6330, 63.86524
938.1151, 63.48128
938.5972, 64.92501
939.0793, 65.88665
939.5615, 64.90868
940.0436, 64.35191
940.5257, 65.11594
941.0078, 66.51315
941.4899, 66.42624
941.9720, 64.92857
942.4542, 64.00187
942.9363, 64.31669
943.4184, 65.12923
943.9005, 66.07130
944.3826, 66.82275
944.8647, 66.89076
945.3469, 65.39866
945.8290, 64.73298
946.3111, 65.65755
946.7932, 66.68845
947.2753, 66.33882
947.7574, 64.70029
948.2396, 63.93305
948.7217, 64.11295
949.2038, 64.33061
949.6859, 63.53573
950.1680, 62.71604
950.6501, 62.96942
951.1323, 64.26851
951.6144, 65.02027
952.0965, 64.53320
952.5786, 64.36283
953.0607, 65.12454
953.5428, 66.42904
954.0250, 67.36209
954.5071, 67.84986
954.9892, 67.37724
955.4713, 65.25040
955.9534, 62.95313
956.4355, 61.13704
956.9177, 60.02607
957.3998, 59.99253
957.8819, 61.91632
958.3640, 63.23643
958.8461, 63.68699
959.3282, 63.97101
959.8104, 64.93515
960.2925, 66.34372
960.7746, 67.52067
961.2567, 68.40638
961.7388, 68.56933
962.2209, 67.16951
962.7031, 65.43186
963.1852, 63.98210
963.6673, 62.89681
964.1494, 62.79483
964.6315, 64.13812
965.1136, 64.75909
965.5958, 63.27079
966.0779, 61.19212
966.5600, 62.11914
967.0421, 65.07160
967.5242, 67.36451
968.0063, 67.83434
968.4885, 67.64274
968.9706, 66.97558
969.4527, 66.00673
969.9348, 64.81551
970.4169, 63.20000
970.8990, 62.38177
971.3812, 62.43569
971.8633, 63.25117
972.3454, 65.46779
972.8275, 68.00797
973.3096, 69.43689
973.7917, 69.59781
974.2739, 68.65138
974.7560, 64.51085
975.2381, 61.71295
975.7202, 62.64699
976.2023, 66.28814
976.6844, 67.19861
977.1666, 65.42165
977.6487, 63.94847
978.1308, 64.19035
978.6129, 64.96275
979.0950, 65.14857
979.5771, 64.97633
980.0593, 64.82376
980.5414, 64.71460
981.0235, 64.73659
981.5056, 64.87635
981.9877, 65.16696
982.4698, 65.80575
982.9520, 66.67831
983.4341, 67.05876
983.9162, 66.90158
984.3983, 66.41957
984.8804, 65.20987
985.3625, 64.19254
985.8447, 64.07423
986.3268, 64.88927
986.8089, 66.11616
987.2910, 68.29282
987.7731, 69.26862
988.2552, 68.01025
988.7374, 65.60690
989.2195, 63.80232
989.7016, 62.70911
990.1837, 62.79209
990.6658, 65.06485
991.1479, 66.82634
991.6301, 66.31341
992.1122, 65.16747
992.5944, 65.14881
993.0765, 66.68555
993.5586, 66.68290
994.0407, 64.88289
994.5228, 63.37714
995.0049, 64.54627
995.4871, 66.62823
995.9692, 67.31791
996.4513, 66.66127
996.9334, 65.77415
997.4155, 64.46819
997.8976, 63.69723
998.3798, 63.96505
998.8619, 64.70908
999.3440, 64.17506
999.8261, 62.60181
1000.308, 62.50196
1000.790, 65.00068
1001.272, 67.52482
1001.755, 67.75430
1002.237, 66.97095
1002.719, 66.45228
1003.201, 66.26102
1003.683, 66.97933
1004.165, 69.34090
1004.647, 70.77822
1005.129, 68.38602
1005.612, 64.04296
1006.094, 64.06902
1006.576, 67.46317
1007.058, 69.49760
1007.540, 65.55511
1008.022, 62.18715
1008.504, 62.94100
1008.986, 65.67702
1009.468, 66.84531
1009.951, 66.30039
1010.433, 65.06774
1010.915, 63.08221
1011.397, 61.43673
1011.879, 61.70803
1012.361, 62.85961
1012.843, 63.67204
1013.325, 63.94102
1013.807, 64.00738
1014.290, 63.45599
1014.772, 63.46251
1015.254, 64.94957
1015.736, 67.28362
1016.218, 67.49100
1016.700, 65.96896
1017.182, 65.03068
1017.664, 66.24865
1018.147, 67.67185
1018.629, 68.37195
1019.111, 68.35191
1019.593, 67.45922
1020.075, 64.84922
1020.557, 64.25399
1021.039, 66.24905
1021.521, 68.58616
1022.003, 68.77943
1022.486, 67.98839
1022.968, 68.77428
1023.450, 71.02180
1023.932, 71.81005
1024.414, 67.82506
1024.896, 64.78149
1025.378, 65.04400
1025.860, 67.25275
1026.343, 67.20232
1026.825, 65.10711
1027.307, 64.05001
1027.789, 65.13233
1028.271, 66.63033
1028.753, 67.13926
1029.235, 67.14542
1029.717, 67.13755
1030.199, 67.12477
1030.682, 67.40071
1031.164, 68.17216
1031.646, 68.65599
1032.128, 68.09863
1032.610, 66.99596
1033.092, 66.55128
1033.574, 66.69065
1034.056, 67.15876
1034.539, 68.60802
1035.021, 69.41995
1035.503, 68.74413
1035.985, 67.38611
1036.467, 66.24475
1036.949, 65.32191
1037.431, 64.87872
1037.913, 64.95388
1038.396, 65.45287
1038.878, 66.85471
1039.360, 68.23832
1039.842, 68.79269
1040.324, 68.41833
1040.806, 67.34151
1041.288, 64.88951
1041.770, 63.45784
1042.252, 64.11246
1042.734, 65.78280
1043.217, 66.22305
1043.699, 65.87287
1044.181, 65.93433
1044.663, 67.01437
1045.145, 67.97335
1045.627, 68.72924
1046.109, 68.86673
1046.591, 67.83731
1047.074, 65.56267
1047.556, 64.11911
1048.038, 63.49639
1048.520, 63.58037
1049.002, 64.90896
1049.484, 66.36034
1049.966, 67.00235
1050.448, 66.97889
1050.931, 66.68283
1051.413, 65.76044
1051.895, 65.57529
1052.377, 66.51401
1052.859, 67.64092
1053.341, 67.55508
1053.823, 66.86705
1054.305, 67.24387
1054.787, 68.88118
1055.270, 69.69511
1055.752, 67.96498
1056.234, 66.01026
1056.716, 64.59537
1057.198, 63.80284
1057.680, 64.35828
1058.162, 66.14648
1058.644, 67.33047
1059.126, 67.16290
1059.609, 66.60485
1060.091, 66.25932
1060.573, 66.13324
1061.055, 66.27808
1061.537, 66.76259
1062.019, 67.26168
1062.501, 67.81794
1062.983, 68.23637
1063.466, 68.39320
1063.948, 68.32180
1064.430, 68.02649
1064.912, 67.55291
1065.394, 67.03448
1065.876, 66.39068
1066.358, 65.88760
1066.840, 65.48832
1067.323, 65.32119
1067.805, 65.72047
1068.287, 66.56197
1068.769, 66.75838
1069.251, 66.23016
1069.733, 66.04096
1070.215, 67.74856
1070.697, 69.30386
1071.179, 69.07935
1071.661, 67.47151
1072.144, 66.08413
1072.626, 64.86375
1073.108, 64.37637
1073.590, 64.91222
1074.072, 65.81284
1074.554, 66.58685
1075.036, 67.05399
1075.518, 66.88667
1076.001, 65.85611
1076.483, 64.98681
1076.965, 64.36877
1077.447, 63.89105
1077.929, 63.37518
1078.411, 63.03855
1078.893, 63.80276
1079.375, 65.32180
1079.858, 66.46230
1080.340, 66.47035
1080.822, 66.45114
1081.304, 66.79032
1081.786, 67.26391
1082.268, 67.74046
1082.750, 68.22103
1083.232, 68.46072
1083.714, 68.45271
1084.197, 68.01604
1084.679, 66.48728
1085.161, 64.97420
1085.643, 64.51965
1086.125, 64.78506
1086.607, 64.48450
1087.089, 63.32655
1087.571, 62.51287
1088.054, 62.18334
1088.536, 62.37477
1089.018, 63.55782
1089.500, 65.07951
1089.982, 65.94979
1090.464, 66.05651
1090.946, 66.06392
1091.428, 65.91493
1091.911, 66.02341
1092.393, 66.66068
1092.875, 67.48447
1093.357, 67.65958
1093.839, 67.32336
1094.321, 66.79445
1094.803, 65.90413
1095.285, 65.67402
1095.767, 67.95419
1096.250, 69.77648
1096.732, 68.63879
1097.214, 64.81008
1097.696, 64.16206
1098.178, 66.52017
1098.660, 68.28647
1099.142, 67.28849
1099.624, 65.38934
1100.106, 63.09370
1100.589, 61.18831
1101.071, 61.04838
1101.553, 63.46746
1102.035, 64.88667
1102.517, 65.07623
1102.999, 65.20004
1103.481, 66.81694
1103.963, 68.55748
1104.446, 68.14957
1104.928, 66.11652
1105.410, 64.84345
1105.892, 65.20306
1106.374, 65.84606
1106.856, 66.75058
1107.338, 67.59388
1107.820, 67.74868
1108.302, 67.54942
1108.785, 68.01145
1109.267, 69.24197
1109.749, 69.96125
1110.231, 68.89432
1110.713, 68.11726
1111.195, 68.80811
1111.677, 70.05144
1112.159, 68.68266
1112.641, 65.27410
1113.124, 63.57382
1113.606, 64.84958
1114.088, 66.49097
1114.570, 67.11209
1115.052, 67.06336
1115.534, 66.38371
1116.016, 65.15502
1116.498, 64.76462
1116.981, 65.23107
1117.463, 65.88589
1117.945, 66.45621
1118.427, 67.05611
1118.909, 68.22683
1119.391, 69.31711
1119.873, 69.31925
1120.355, 67.84190
1120.838, 65.89518
1121.320, 63.05948
1121.802, 61.56287
1122.284, 64.54214
1122.766, 68.80303
1123.248, 69.01223
1123.730, 66.49714
1124.212, 64.91306
1124.694, 66.59184
1125.177, 67.28883
1125.659, 66.28715
1126.141, 65.08477
1126.623, 65.58450
1127.105, 67.05540
1127.587, 67.41634
1128.069, 66.72076
1128.551, 66.22672
1129.033, 66.61964
1129.516, 67.17822
1129.998, 67.98965
1130.480, 68.54832
1130.962, 67.67026
1131.444, 65.69986
1131.926, 64.14504
1132.408, 63.17745
1132.890, 63.57341
1133.373, 67.70698
1133.855, 71.45312
1134.337, 72.36105
1134.819, 71.09321
1135.301, 69.39650
1135.783, 67.33375
1136.265, 66.57567
1136.747, 67.91940
1137.229, 69.17023
1137.712, 68.16580
1138.194, 66.43375
1138.676, 65.16037
1139.158, 64.38543
1139.640, 64.73880
1140.122, 66.39930
1140.604, 67.37759
1141.086, 66.39012
1141.569, 65.25256
1142.051, 66.68371
1142.533, 68.91551
1143.015, 69.37708
1143.497, 66.85790
1143.979, 65.49086
1144.461, 65.39414
1144.943, 66.07351
1145.426, 68.13451
1145.908, 70.02398
1146.390, 68.39035
1146.872, 64.76957
1147.354, 62.35567
1147.836, 62.76017
1148.318, 63.53683
1148.800, 64.80785
1149.282, 65.99563
1149.765, 66.82015
1150.247, 67.12752
1150.729, 65.79143
1151.211, 63.45186
1151.693, 62.73003
1152.175, 66.89947
1152.657, 69.52600
1153.139, 69.09544
1153.621, 67.58033
1154.104, 67.39935
1154.586, 68.07055
1155.068, 67.93242
1155.550, 66.92879
1156.032, 65.79197
1156.514, 64.77270
1156.996, 63.74951
1157.478, 62.23105
1157.961, 61.08323
1158.443, 62.44429
1158.925, 65.74102
1159.407, 67.67266
1159.889, 67.74722
1160.371, 67.37470
1160.853, 67.02422
1161.335, 66.86912
1161.818, 67.24604
1162.300, 67.78110
1162.782, 67.00140
1163.264, 65.09541
1163.746, 64.52866
1164.228, 66.06539
1164.710, 67.56652
1165.192, 66.98778
1165.674, 66.22186
1166.156, 67.02064
1166.639, 68.98170
1167.121, 69.29602
1167.603, 67.96997
1168.085, 66.45011
1168.567, 65.01893
1169.049, 64.04164
1169.531, 63.87904
1170.013, 64.30001
1170.496, 65.33146
1170.978, 66.96069
1171.460, 67.75591
1171.942, 67.71780
1172.424, 66.82351
1172.906, 64.41890
1173.388, 62.29332
1173.870, 62.63027
1174.353, 64.15781
1174.835, 65.20860
1175.317, 65.56517
1175.799, 66.06253
1176.281, 66.70576
1176.763, 67.52374
1177.245, 69.26820
1177.727, 70.41002
1178.209, 68.01168
1178.692, 64.20901
1179.174, 62.85560
1179.656, 65.88603
1180.138, 67.00245
1180.620, 65.89882
1181.102, 64.49285
1181.584, 63.74463
1182.066, 63.80301
1182.548, 65.56611
1183.031, 68.18052
1183.513, 69.65791
1183.995, 69.52671
1184.477, 68.40105
1184.959, 65.90580
1185.441, 63.94524
1185.923, 64.86840
1186.405, 66.89628
1186.888, 67.38081
1187.370, 66.77054
1187.852, 66.94821
1188.334, 69.24374
1188.816, 70.05093
1189.298, 68.64367
1189.780, 67.05412
1190.262, 67.78249
1190.745, 69.44706
1191.227, 69.95189
1191.709, 69.37310
1192.191, 68.74751
1192.673, 67.80057
1193.155, 67.98631
1193.637, 69.95190
1194.119, 71.85464
1194.601, 71.05662
1195.084, 68.96721
1195.566, 67.87022
1196.048, 67.84340
1196.530, 67.61409
1197.012, 66.36118
1197.494, 66.13023
1197.976, 67.60928
1198.458, 69.52840
1198.941, 70.22610
1199.423, 70.06194
1199.905, 69.46189
1200.387, 68.49466
1200.869, 67.70575
1201.351, 66.91098
1201.833, 66.99385
1202.315, 68.53783
1202.797, 70.30740
1203.280, 69.81894
1203.762, 68.34062
1204.244, 68.42113
1204.726, 70.55209
1205.208, 71.36768
1205.690, 69.69422
1206.172, 67.89101
1206.654, 66.42558
1207.136, 65.58620
1207.619, 66.25921
1208.101, 67.75801
1208.583, 68.98481
1209.065, 69.77929
1209.547, 70.00332
1210.029, 69.65404
1210.511, 68.75633
1210.993, 67.03221
1211.476, 65.20004
1211.958, 64.16750
1212.440, 64.08272
1212.922, 65.69188
1213.404, 69.81843
1213.886, 71.73317
1214.368, 69.99770
1214.850, 68.54227
1215.333, 69.32732
1215.815, 70.82989
1216.297, 70.09122
1216.779, 68.08623
1217.261, 66.45174
1217.743, 65.38868
1218.225, 65.55904
1218.707, 67.65230
1219.189, 69.09531
1219.672, 68.45257
1220.154, 66.76267
1220.636, 65.20982
1221.118, 64.24271
1221.600, 64.87552
1222.082, 68.19185
1222.564, 70.39185
1223.046, 71.18483
1223.528, 71.18632
1224.011, 70.31010
1224.493, 69.31639
1224.975, 70.04979
1225.457, 71.42493
1225.939, 71.47637
1226.421, 69.07409
1226.903, 66.95687
1227.385, 64.81880
1227.868, 64.22468
1228.350, 67.03197
1228.832, 70.78275
1229.314, 71.86754
1229.796, 71.14262
1230.278, 69.84193
1230.760, 67.36778
1231.242, 67.06653
1231.724, 69.41287
1232.207, 71.65266
1232.689, 71.96680
1233.171, 71.47705
1233.653, 71.73941
1234.135, 72.19184
1234.617, 71.75059
1235.099, 69.71305
1235.581, 68.83569
1236.063, 69.24725
1236.546, 69.98740
1237.028, 70.86226
1237.510, 71.34743
1237.992, 70.40243
1238.474, 68.87730
1238.956, 68.29440
1239.438, 69.07595
1239.920, 69.21085
1240.403, 68.66098
1240.885, 67.95848
1241.367, 66.97025
1241.849, 66.46922
1242.331, 67.59083
1242.813, 69.43224
1243.295, 70.72481
1243.777, 71.53127
1244.260, 70.93803
1244.742, 68.93782
1245.224, 67.44797
1245.706, 68.52760
1246.188, 69.57240
1246.670, 68.00821
1247.152, 69.20098
1247.634, 66.05662
1248.116, 68.98161
1248.599, 69.61086
1249.081, 68.06062
1249.563, 66.46624
1250.045, 65.59068
1250.527, 65.62218
1251.009, 67.58025
1251.491, 69.83775
1251.973, 70.69765
1252.455, 70.21358
1252.938, 69.50581
1253.420, 68.65086
1253.902, 68.12290
1254.384, 68.26653
1254.866, 68.69449
1255.348, 69.68436
1255.830, 70.47402
1256.313, 70.23573
1256.795, 69.14671
1257.277, 68.05309
1257.759, 67.08389
1258.241, 66.82076
1258.723, 68.59545
1259.205, 69.54675
1259.687, 68.88940
1260.169, 67.69391
1260.651, 66.37348
1261.134, 65.36875
1261.616, 67.18137
1262.098, 70.68558
1262.580, 72.00179
1263.062, 66.06593
1263.544, 63.79515
1264.026, 67.48579
1264.508, 71.63380
1264.991, 70.92342
1265.473, 67.88290
1265.955, 67.25605
1266.437, 68.40469
1266.919, 69.53646
1267.401, 70.37411
1267.883, 70.73495
1268.365, 70.44817
1268.848, 70.35677
1269.330, 71.82111
1269.812, 73.29298
1270.294, 71.81098
1270.776, 72.99535
1271.258, 73.62568
1271.740, 72.81367
1272.222, 74.67524
1272.704, 74.10158
1273.187, 72.89603
1273.669, 72.25195
1274.151, 71.57935
1274.633, 69.75396
1275.115, 67.87159
1275.597, 67.76970
1276.079, 69.84879
1276.561, 71.12476
1277.043, 71.57780
1277.526, 71.15293
1278.008, 68.52538
1278.490, 66.49682
1278.972, 67.24294
1279.454, 69.10055
1279.936, 70.51362
1280.418, 71.46268
1280.900, 71.96593
1281.383, 72.01443
1281.865, 71.57823
1282.347, 70.30585
1282.829, 68.98472
1283.311, 67.33910
1283.793, 66.37636
1284.275, 67.40399
1284.757, 69.71350
1285.240, 70.27575
1285.722, 69.50286
1286.204, 68.69029
1286.686, 67.91654
1287.168, 67.97773
1287.650, 69.20262
1288.132, 70.55925
1288.614, 71.17779
1289.096, 71.55363
1289.578, 73.39481
1290.061, 75.62055
1290.543, 75.85008
1291.025, 71.82956
1291.507, 69.95847
1291.989, 70.58607
1292.471, 71.77547
1292.953, 72.89473
1293.435, 73.38602
1293.918, 71.52669
1294.400, 69.11431
1294.882, 69.34367
1295.364, 68.47884
1295.846, 67.45358
1296.328, 69.45606
1296.810, 67.19132
1297.292, 69.03862
1297.775, 71.59520
1298.257, 72.65787
1298.739, 72.84095
1299.221, 72.65734
1299.703, 72.17430
1300.185, 72.20204
1300.667, 72.62212
1301.149, 72.73085
1301.631, 72.27757
1302.114, 71.42405
1302.596, 70.25681
##END=



