##NAMES=Nickeline
##RRUFFID=R060121
##IDEAL CHEMISTRY=NiAs
##LOCALITY=Yellowknife, Great Slave Lake, Canada
##OWNER=RRUFF
##SOURCE=University of Arizona Mineral Museum
##DESCRIPTION=Bronze colored massive
##STATUS=The identification of this mineral has been confirmed by X-ray diffraction and chemical analysis
##URL=rruff.info/R060121
##MEASURED CHEMISTRY=Ni_1.06_As_0.94_
92.02539, 256.2944
92.50751, 270.6851
92.98962, 279.3481
93.47174, 272.8515
93.95386, 260.1305
94.43597, 247.6203
94.91809, 238.4682
95.40021, 231.8353
95.88232, 224.1289
96.36444, 215.5923
96.84656, 205.6903
97.32867, 193.0304
97.81078, 179.2900
98.29290, 167.3069
98.77502, 159.5901
99.25713, 156.6494
99.73925, 150.8095
100.2214, 140.7290
100.7035, 129.8036
101.1856, 118.6205
101.6677, 107.6348
102.1498, 97.88345
102.6320, 90.59710
103.1141, 86.17062
103.5962, 83.98122
104.0783, 85.78494
104.5604, 89.06776
105.0425, 91.34373
105.5247, 92.02105
106.0068, 91.00152
106.4889, 87.78343
106.9710, 82.37037
107.4531, 76.20312
107.9352, 69.19636
108.4173, 61.64133
108.8995, 55.12103
109.3816, 50.44621
109.8637, 46.99306
110.3458, 43.97697
110.8279, 41.27327
111.3100, 39.12788
111.7922, 37.96405
112.2743, 38.06262
112.7564, 38.27785
113.2385, 38.42549
113.7206, 38.46289
114.2027, 38.34332
114.6849, 38.04581
115.1670, 37.57980
115.6491, 36.96815
116.1312, 35.84503
116.6133, 35.00892
117.0954, 34.77118
117.5776, 34.87535
118.0597, 34.91546
118.5418, 34.59142
119.0239, 33.89342
119.5060, 33.47957
119.9881, 33.37289
120.4703, 33.45508
120.9524, 33.76772
121.4345, 34.26220
121.9166, 34.80099
122.3987, 35.31590
122.8808, 35.80659
123.3630, 35.84346
123.8451, 35.00187
124.3272, 33.92210
124.8093, 33.28835
125.2914, 33.25412
125.7735, 33.35957
126.2557, 33.02296
126.7378, 32.34218
127.2199, 31.73150
127.7020, 31.36855
128.1841, 31.20190
128.6662, 31.09507
129.1483, 31.11591
129.6305, 31.07323
130.1126, 30.84794
130.5947, 30.44338
131.0768, 29.91530
131.5589, 29.22985
132.0410, 28.34301
132.5232, 27.66328
133.0053, 27.29330
133.4874, 27.11425
133.9695, 27.18056
134.4516, 27.46809
134.9337, 27.77926
135.4159, 27.80301
135.8980, 27.38091
136.3801, 26.94215
136.8622, 26.45656
137.3443, 25.99318
137.8264, 25.57896
138.3086, 25.22771
138.7907, 24.98187
139.2728, 24.96924
139.7549, 25.64445
140.2370, 26.03410
140.7191, 26.00269
141.2013, 25.65314
141.6834, 25.08628
142.1655, 24.31849
142.6476, 23.43215
143.1297, 22.80841
143.6118, 22.53551
144.0939, 22.36584
144.5761, 22.29517
145.0582, 22.28380
145.5403, 22.14513
146.0224, 21.74647
146.5045, 21.12651
146.9866, 20.46553
147.4688, 19.68024
147.9509, 18.93180
148.4330, 18.36735
148.9151, 17.99364
149.3972, 17.76013
149.8793, 17.79300
150.3615, 17.91733
150.8436, 17.90533
151.3257, 17.62045
151.8078, 17.17620
152.2899, 16.81954
152.7720, 16.52944
153.2542, 16.37925
153.7363, 16.47427
154.2184, 16.68914
154.7005, 16.83194
155.1826, 16.77007
155.6647, 16.52433
156.1469, 16.30947
156.6290, 16.17711
157.1111, 16.02697
157.5932, 15.79644
158.0753, 15.52382
158.5574, 15.29398
159.0396, 15.18499
159.5217, 15.21368
160.0038, 15.21053
160.4859, 15.12291
160.9680, 15.05448
161.4501, 15.08623
161.9323, 15.19560
162.4144, 15.27362
162.8965, 15.19358
163.3786, 14.88745
163.8607, 14.73158
164.3428, 14.83621
164.8250, 15.00076
165.3071, 15.09269
165.7892, 15.08934
166.2713, 15.02927
166.7534, 14.94513
167.2355, 14.83150
167.7177, 14.73746
168.1998, 14.68603
168.6819, 14.65044
169.1640, 14.58951
169.6461, 14.48791
170.1282, 14.38713
170.6104, 14.34830
171.0925, 14.36340
171.5746, 14.37680
172.0567, 14.35559
172.5388, 14.31478
173.0209, 14.29661
173.5031, 14.30508
173.9852, 14.34724
174.4673, 14.47565
174.9494, 14.67379
175.4315, 14.77804
175.9136, 14.58572
176.3958, 14.11119
176.8779, 13.80735
177.3600, 13.90088
177.8421, 14.05293
178.3242, 14.07219
178.8063, 13.95211
179.2885, 13.79069
179.7706, 13.68380
180.2527, 13.64016
180.7348, 13.61467
181.2169, 13.64540
181.6990, 13.66294
182.1812, 13.61509
182.6633, 13.50057
183.1454, 13.37010
183.6275, 13.29590
184.1096, 13.30496
184.5917, 13.31766
185.0738, 13.33292
185.5560, 13.35079
186.0381, 13.37761
186.5202, 13.41259
187.0023, 13.44195
187.4844, 13.44131
187.9665, 13.38520
188.4487, 13.33685
188.9308, 13.28874
189.4129, 13.25177
189.8950, 13.26284
190.3771, 13.33204
190.8592, 13.39056
191.3414, 13.29111
191.8235, 12.91495
192.3056, 12.60626
192.7877, 12.42232
193.2698, 12.32074
193.7519, 12.25213
194.2341, 12.20307
194.7162, 12.16663
195.1983, 12.13158
195.6804, 12.10101
196.1625, 12.06302
196.6446, 12.01003
197.1268, 11.94684
197.6089, 11.87175
198.0910, 11.76021
198.5731, 11.67803
199.0552, 11.75963
199.5373, 12.04673
200.0195, 12.26231
200.5016, 12.18430
200.9837, 11.87628
201.4658, 11.67008
201.9479, 11.70227
202.4300, 11.84370
202.9122, 11.96250
203.3943, 12.05999
203.8764, 12.09500
204.3585, 11.99407
204.8406, 11.75820
205.3227, 11.58329
205.8048, 11.54455
206.2870, 11.56868
206.7691, 11.62527
207.2512, 11.70894
207.7333, 11.77672
208.2154, 11.78875
208.6975, 11.74505
209.1797, 11.64433
209.6618, 11.37705
210.1439, 11.12551
210.6260, 11.01499
211.1081, 11.05857
211.5902, 11.15056
212.0724, 11.14201
212.5545, 10.97696
213.0366, 10.88320
213.5187, 10.91963
214.0008, 10.99448
214.4829, 11.07333
214.9651, 11.14054
215.4472, 11.17762
215.9293, 11.14572
216.4114, 10.97751
216.8935, 10.88225
217.3756, 10.89880
217.8578, 10.94739
218.3399, 10.97091
218.8220, 10.95807
219.3041, 10.94002
219.7862, 10.96869
220.2683, 11.09816
220.7505, 11.16643
221.2326, 11.12704
221.7147, 11.06275
222.1968, 11.03590
222.6789, 11.06152
223.1610, 11.11648
223.6432, 11.16942
224.1253, 11.23363
224.6074, 11.26147
225.0895, 11.24737
225.5716, 11.20101
226.0537, 11.11425
226.5358, 10.98773
227.0180, 10.86329
227.5001, 10.80242
227.9822, 10.82707
228.4643, 10.85218
228.9464, 10.88426
229.4285, 10.90930
229.9107, 10.89877
230.3928, 10.84461
230.8749, 10.79602
231.3570, 10.83349
231.8391, 10.96914
232.3212, 11.05649
232.8034, 11.02116
233.2855, 10.94501
233.7676, 10.94731
234.2497, 11.06080
234.7318, 11.18471
235.2139, 11.18702
235.6961, 11.08445
236.1782, 10.99929
236.6603, 10.95692
237.1424, 10.95178
237.6245, 10.99540
238.1066, 11.11101
238.5888, 11.20141
239.0709, 11.13153
239.5530, 10.95095
240.0351, 10.81283
240.5172, 10.80070
240.9993, 10.85820
241.4815, 10.87127
241.9636, 10.81330
242.4457, 10.76337
242.9278, 10.79915
243.4099, 10.88594
243.8920, 10.95290
244.3742, 10.97080
244.8563, 10.94852
245.3384, 10.89840
245.8205, 10.80373
246.3026, 10.71951
246.7847, 10.71579
247.2668, 10.73813
247.7490, 10.69063
248.2311, 10.49511
248.7132, 10.21935
249.1953, 10.02672
249.6774, 9.940151
250.1595, 9.897461
250.6417, 9.879407
251.1238, 9.880949
251.6059, 9.902066
252.0880, 9.952666
252.5701, 10.01047
253.0522, 10.01967
253.5344, 9.969960
254.0165, 9.887195
254.4986, 9.754477
254.9807, 9.608367
255.4628, 9.486506
255.9449, 9.405656
256.4271, 9.357998
256.9092, 9.331456
257.3913, 9.353313
257.8734, 9.342481
258.3555, 9.232638
258.8376, 9.112321
259.3198, 9.079026
259.8019, 9.172076
260.2840, 9.323045
260.7661, 9.389970
261.2482, 9.344568
261.7303, 9.260068
262.2125, 9.084729
262.6946, 8.914892
263.1767, 8.844615
263.6588, 8.899525
264.1409, 9.014917
264.6230, 9.082287
265.1052, 9.103669
265.5873, 9.063519
266.0694, 8.910348
266.5515, 8.740354
267.0336, 8.607042
267.5157, 8.529768
267.9979, 8.516509
268.4800, 8.596348
268.9621, 8.864724
269.4442, 9.012490
269.9263, 8.973252
270.4084, 8.887710
270.8906, 8.849941
271.3727, 8.869985
271.8548, 8.890458
272.3369, 8.833755
272.8190, 8.655099
273.3011, 8.552610
273.7833, 8.574273
274.2654, 8.616205
274.7475, 8.628577
275.2296, 8.605265
275.7117, 8.560207
276.1938, 8.504989
276.6760, 8.436458
277.1581, 8.377210
277.6402, 8.293032
278.1223, 8.245973
278.6044, 8.294903
279.0865, 8.414403
279.5686, 8.518945
280.0508, 8.535028
280.5329, 8.459920
281.0150, 8.428746
281.4971, 8.441271
281.9792, 8.340864
282.4613, 8.513161
282.9435, 8.608927
283.4256, 8.632275
283.9077, 8.366305
284.3898, 8.473929
284.8719, 8.431834
285.3540, 8.383599
285.8362, 8.543804
286.3183, 8.319915
286.8004, 8.476815
287.2825, 8.481710
287.7646, 8.556174
288.2467, 8.479995
288.7289, 8.450342
289.2110, 8.326001
289.6931, 8.219328
290.1752, 8.165400
290.6573, 8.142666
291.1394, 8.121405
291.6216, 8.089952
292.1037, 8.056764
292.5858, 8.036939
293.0679, 8.011931
293.5500, 8.036980
294.0321, 8.201821
294.5143, 8.383273
294.9964, 8.422665
295.4785, 8.278103
295.9606, 8.064168
296.4427, 7.941222
296.9248, 7.945558
297.4070, 7.940082
297.8891, 7.860995
298.3712, 7.805627
298.8533, 7.894803
299.3354, 8.135957
299.8175, 8.395197
300.2997, 8.549485
300.7818, 8.584292
301.2639, 8.514606
301.7460, 8.200346
302.2281, 7.893661
302.7102, 7.783531
303.1924, 7.862752
303.6745, 7.985015
304.1566, 8.049824
304.6387, 8.055263
305.1208, 8.033164
305.6029, 7.962640
306.0851, 7.887656
306.5672, 7.817866
307.0493, 7.759448
307.5314, 7.730917
308.0135, 7.747000
308.4956, 7.797883
308.9778, 7.840910
309.4599, 7.920491
309.9420, 7.941915
310.4241, 7.819737
310.9062, 7.622409
311.3883, 7.488932
311.8705, 7.481996
312.3526, 7.550627
312.8347, 7.588196
313.3168, 7.600316
313.7989, 7.577811
314.2810, 7.468419
314.7632, 7.340591
315.2453, 7.291532
315.7274, 7.349717
316.2095, 7.460931
316.6916, 7.566141
317.1737, 7.678435
317.6559, 7.717734
318.1380, 7.633167
318.6201, 7.499107
319.1022, 7.347074
319.5843, 7.189712
320.0664, 7.115687
320.5485, 7.244036
321.0306, 7.594564
321.5128, 7.773267
321.9949, 7.681664
322.4770, 7.508654
322.9591, 7.335588
323.4412, 7.179127
323.9233, 7.069162
324.4055, 7.029458
324.8876, 7.055026
325.3697, 7.100393
325.8518, 7.186150
326.3339, 7.266309
326.8160, 7.317008
327.2982, 7.349640
327.7803, 7.395052
328.2624, 7.472102
328.7445, 7.559098
329.2266, 7.594675
329.7087, 7.559684
330.1909, 7.517086
330.6730, 7.482204
331.1551, 7.444642
331.6372, 7.376166
332.1193, 7.267630
332.6014, 7.171107
333.0836, 7.173953
333.5657, 7.338928
334.0478, 7.410997
334.5299, 7.309658
335.0120, 7.159707
335.4941, 7.053582
335.9763, 7.005669
336.4584, 6.995214
336.9405, 7.014903
337.4226, 7.070552
337.9047, 7.051046
338.3868, 6.867080
338.8690, 6.700135
339.3511, 6.636498
339.8332, 6.668619
340.3153, 6.767103
340.7974, 6.925667
341.2795, 7.125551
341.7617, 7.239482
342.2438, 7.195971
342.7259, 7.164599
343.2080, 7.241984
343.6901, 7.340990
344.1722, 7.296243
344.6544, 7.035322
345.1365, 6.690779
345.6186, 6.540934
346.1007, 6.780741
346.5828, 6.929948
347.0649, 6.933448
347.5471, 6.875444
348.0292, 6.821816
348.5113, 6.788209
348.9934, 6.757534
349.4755, 6.703791
349.9576, 6.604086
350.4398, 6.584770
350.9219, 6.687081
351.4040, 6.818188
351.8861, 6.979952
352.3682, 7.135378
352.8503, 7.188781
353.3325, 7.049476
353.8146, 6.737429
354.2967, 6.569178
354.7788, 6.681800
355.2609, 6.780852
355.7430, 6.804815
356.2252, 6.778148
356.7073, 6.742793
357.1894, 6.718697
357.6715, 6.691548
358.1536, 6.619469
358.6357, 6.414905
359.1179, 6.303694
359.5999, 6.342860
360.0821, 6.439019
360.5642, 6.522927
361.0463, 6.578233
361.5284, 6.624997
362.0105, 6.694615
362.4926, 6.806804
362.9748, 6.863541
363.4569, 6.838823
363.9390, 6.787332
364.4211, 6.728435
364.9032, 6.662122
365.3853, 6.580035
365.8675, 6.472542
366.3496, 6.343537
366.8317, 6.227088
367.3138, 6.073587
367.7959, 6.003949
368.2780, 6.098091
368.7602, 6.267321
369.2423, 6.412826
369.7244, 6.492677
370.2065, 6.513841
370.6886, 6.472250
371.1707, 6.316354
371.6529, 6.230651
372.1350, 6.326646
372.6171, 6.435111
373.0992, 6.415349
373.5813, 6.263059
374.0634, 6.117656
374.5456, 6.153891
375.0277, 6.384134
375.5098, 6.522684
375.9919, 6.524393
376.4740, 6.465937
376.9561, 6.343386
377.4383, 6.191201
377.9204, 6.083082
378.4025, 6.067381
378.8846, 6.120456
379.3667, 6.192360
379.8488, 6.315189
380.3310, 6.371527
380.8131, 6.251131
381.2952, 6.069647
381.7773, 5.940190
382.2594, 5.893352
382.7415, 5.893031
383.2237, 5.903122
383.7058, 5.923656
384.1879, 5.970047
384.6700, 6.075660
385.1521, 6.177083
385.6342, 6.220534
386.1164, 6.207582
386.5985, 6.170862
387.0806, 6.107576
387.5627, 6.035491
388.0448, 6.003549
388.5269, 6.026445
389.0091, 6.053277
389.4912, 6.035151
389.9733, 5.992983
390.4554, 5.973261
390.9375, 5.982225
391.4196, 6.019881
391.9018, 6.121527
392.3839, 6.274416
392.8660, 6.346891
393.3481, 6.244051
393.8302, 6.062048
394.3123, 6.001771
394.7945, 6.105863
395.2766, 6.180772
395.7587, 6.097299
396.2408, 5.948616
396.7229, 5.910209
397.2050, 6.028834
397.6872, 6.181528
398.1693, 6.227077
398.6514, 6.152908
399.1335, 6.119019
399.6156, 6.207787
400.0977, 6.277784
400.5798, 6.190130
401.0620, 5.977698
401.5441, 5.805058
402.0262, 5.782298
402.5083, 5.873492
402.9904, 5.897970
403.4725, 5.785291
403.9547, 5.703646
404.4368, 5.690406
404.9189, 5.723159
405.4010, 5.792443
405.8831, 5.891457
406.3652, 5.976136
406.8474, 5.974925
407.3295, 5.839503
407.8116, 5.757975
408.2937, 5.757243
408.7758, 5.779569
409.2579, 5.812445
409.7401, 5.841789
410.2222, 5.837960
410.7043, 5.772882
411.1864, 5.657901
411.6685, 5.590816
412.1506, 5.599021
412.6328, 5.626325
413.1149, 5.684617
413.5970, 5.748402
414.0791, 5.788314
414.5612, 5.794908
415.0433, 5.786150
415.5255, 5.789502
416.0076, 5.808360
416.4897, 5.827771
416.9718, 5.892771
417.4539, 5.917941
417.9360, 5.816547
418.4182, 5.627182
418.9003, 5.483461
419.3824, 5.496259
419.8645, 5.629957
420.3466, 5.735906
420.8287, 5.835186
421.3109, 5.857767
421.7930, 5.695978
422.2751, 5.480668
422.7572, 5.368925
423.2393, 5.416672
423.7214, 5.511690
424.2036, 5.538349
424.6857, 5.498698
425.1678, 5.446264
425.6499, 5.379139
426.1320, 5.320247
426.6141, 5.273756
427.0963, 5.243778
427.5784, 5.269967
428.0605, 5.432798
428.5426, 5.636426
429.0247, 5.724522
429.5068, 5.685133
429.9890, 5.606369
430.4711, 5.511048
430.9532, 5.427505
431.4353, 5.434091
431.9174, 5.608474
432.3995, 5.757998
432.8817, 5.779833
433.3638, 5.707763
433.8459, 5.587622
434.3280, 5.422369
434.8101, 5.288322
435.2922, 5.314485
435.7744, 5.565641
436.2565, 5.708127
436.7386, 5.635116
437.2207, 5.526639
437.7028, 5.507084
438.1849, 5.570796
438.6671, 5.654828
439.1492, 5.721860
439.6313, 5.768801
440.1134, 5.775040
440.5955, 5.743639
441.0776, 5.665825
441.5598, 5.460188
442.0418, 5.248355
442.5240, 5.168471
443.0061, 5.249975
443.4882, 5.404855
443.9703, 5.528403
444.4524, 5.625611
444.9345, 5.668948
445.4167, 5.610480
445.8988, 5.544600
446.3809, 5.468990
446.8630, 5.414522
447.3451, 5.453079
447.8272, 5.651186
448.3094, 5.903908
448.7915, 5.909540
449.2736, 5.545193
449.7557, 5.285531
450.2378, 5.338390
450.7199, 5.476480
451.2021, 5.560319
451.6842, 5.569490
452.1663, 5.530422
452.6484, 5.434872
453.1305, 5.301763
453.6126, 5.224464
454.0948, 5.228587
454.5769, 5.241584
455.0590, 5.200212
455.5411, 5.135522
456.0232, 5.105049
456.5053, 5.138100
456.9875, 5.185934
457.4696, 5.196189
457.9517, 5.181799
458.4338, 5.212004
458.9159, 5.327289
459.3980, 5.462400
459.8802, 5.518026
460.3623, 5.494894
460.8444, 5.437813
461.3265, 5.296244
461.8086, 5.163795
462.2907, 5.140049
462.7729, 5.217643
463.2550, 5.311586
463.7371, 5.367645
464.2192, 5.390396
464.7013, 5.407441
465.1834, 5.436765
465.6656, 5.438209
466.1477, 5.361527
466.6298, 5.276413
467.1119, 5.277639
467.5940, 5.377853
468.0761, 5.489202
468.5583, 5.504247
469.0404, 5.407608
469.5225, 5.313711
470.0046, 5.210862
470.4867, 5.123193
470.9688, 5.060067
471.4510, 5.017135
471.9331, 4.980455
472.4152, 4.940201
472.8973, 4.923584
473.3794, 5.014316
473.8615, 5.265108
474.3437, 5.395907
474.8258, 5.208570
475.3079, 5.003048
475.7900, 4.987879
476.2721, 5.141665
476.7542, 5.286650
477.2364, 5.294606
477.7185, 5.221509
478.2006, 5.204859
478.6827, 5.258492
479.1648, 5.287061
479.6469, 5.217643
480.1291, 5.102774
480.6112, 5.039604
481.0933, 5.046598
481.5754, 5.064914
482.0575, 5.056851
482.5396, 5.041881
483.0217, 5.064598
483.5038, 5.135566
483.9860, 5.206171
484.4681, 5.219110
484.9502, 5.172266
485.4323, 5.197354
485.9144, 5.372619
486.3965, 5.531919
486.8787, 5.614941
487.3608, 5.631011
487.8429, 5.591631
488.3250, 5.501639
488.8071, 5.388888
489.2892, 5.297917
489.7714, 5.204548
490.2535, 5.196921
490.7356, 5.398930
491.2177, 5.557296
491.6998, 5.512956
492.1819, 5.316203
492.6641, 5.100392
493.1462, 4.937778
493.6283, 4.839658
494.1104, 4.868665
494.5925, 5.109912
495.0746, 5.246382
495.5568, 5.060524
496.0389, 4.842936
496.5210, 4.815930
497.0031, 4.985793
497.4852, 5.173302
497.9673, 5.264852
498.4495, 5.277235
498.9316, 5.235721
499.4137, 5.122598
499.8958, 5.045125
500.3779, 5.099088
500.8600, 5.219057
501.3422, 5.266768
501.8243, 5.210571
502.3064, 5.136248
502.7885, 5.081914
503.2706, 5.039297
503.7527, 4.986509
504.2349, 4.918599
504.7170, 4.862332
505.1991, 4.837253
505.6812, 4.843770
506.1633, 4.921785
506.6454, 5.205130
507.1276, 5.404170
507.6097, 5.351767
508.0918, 5.163795
508.5739, 5.010772
509.0560, 4.957810
509.5381, 4.976876
510.0203, 5.042721
510.5024, 5.205806
510.9845, 5.242187
511.4666, 4.987175
511.9487, 4.768487
512.4308, 4.729667
512.9130, 4.820100
513.3951, 4.933403
513.8772, 5.024997
514.3593, 5.085783
514.8414, 5.083790
515.3235, 5.006598
515.8057, 4.964822
516.2878, 5.024461
516.7699, 5.085654
517.2520, 5.060660
517.7341, 4.958087
518.2162, 4.846107
518.6984, 4.729889
519.1805, 4.632716
519.6626, 4.586861
520.1447, 4.591127
520.6268, 4.621291
521.1089, 4.664165
521.5911, 4.728238
522.0732, 4.848541
522.5553, 5.070936
523.0374, 5.211274
523.5195, 5.179209
524.0016, 5.093919
524.4838, 5.056905
524.9659, 5.071798
525.4480, 5.089844
525.9301, 5.075418
526.4122, 5.036073
526.8943, 5.012055
527.3765, 5.047156
527.8586, 5.032534
528.3407, 4.896239
528.8228, 4.752824
529.3049, 4.696615
529.7870, 4.735705
530.2692, 4.817659
530.7513, 4.910506
531.2334, 5.008210
531.7155, 5.070684
532.1976, 5.080297
532.6797, 5.095425
533.1619, 5.191264
533.6440, 5.279844
534.1261, 5.237094
534.6082, 5.022995
535.0903, 4.855114
535.5724, 4.936628
536.0546, 5.152439
536.5367, 5.238269
537.0188, 5.153120
537.5009, 5.066398
537.9830, 5.116100
538.4651, 5.269402
538.9473, 5.337407
539.4294, 5.248731
539.9115, 5.173176
540.3936, 5.164331
540.8757, 5.191300
541.3578, 5.223984
541.8400, 5.252833
542.3221, 5.264506
542.8042, 5.229989
543.2863, 5.146261
543.7684, 5.205945
544.2505, 5.597378
544.7326, 5.907767
545.2147, 6.014365
545.6968, 6.023494
546.1790, 6.053091
546.6611, 6.132977
547.1432, 6.210192
547.6253, 6.231345
548.1074, 6.198390
548.5895, 6.118650
549.0717, 5.951928
549.5538, 5.826076
550.0359, 5.872216
550.5180, 5.994669
551.0001, 6.051223
551.4822, 6.006017
551.9644, 5.924535
552.4465, 5.820331
552.9286, 5.714021
553.4107, 5.663086
553.8928, 5.680164
554.3749, 5.686439
554.8571, 5.603398
555.3392, 5.434113
555.8213, 5.311747
556.3034, 5.278218
556.7855, 5.233172
557.2676, 5.105347
557.7498, 4.973302
558.2319, 4.946783
558.7140, 5.042665
559.1961, 5.175244
559.6782, 5.259148
560.1603, 5.294137
560.6425, 5.276683
561.1246, 5.169957
561.6067, 5.063332
562.0888, 4.964676
562.5709, 4.890164
563.0530, 4.879571
563.5352, 4.945912
564.0173, 4.981850
564.4994, 4.834403
564.9815, 4.580234
565.4636, 4.502601
565.9457, 4.662262
566.4279, 4.814965
566.9100, 4.776509
567.3921, 4.605140
567.8742, 4.518204
568.3563, 4.536204
568.8384, 4.602801
569.3206, 4.789579
569.8027, 4.968993
570.2848, 4.926583
570.7669, 4.664786
571.2490, 4.440215
571.7311, 4.493686
572.2133, 4.790580
572.6954, 4.947536
573.1775, 4.864146
573.6596, 4.771806
574.1417, 4.670843
574.6238, 4.592755
575.1060, 4.576914
575.5881, 4.619585
576.0702, 4.667501
576.5523, 4.676804
577.0344, 4.655965
577.5165, 4.626681
577.9987, 4.578234
578.4808, 4.571950
578.9629, 4.676772
579.4450, 4.809117
579.9271, 4.838717
580.4092, 4.745031
580.8914, 4.681965
581.3735, 4.758319
581.8556, 4.862806
582.3377, 4.857076
582.8198, 4.749605
583.3019, 4.641610
583.7841, 4.587921
584.2662, 4.581401
584.7483, 4.601701
585.2304, 4.643575
585.7125, 4.725162
586.1946, 4.950413
586.6768, 5.121970
587.1589, 5.070868
587.6410, 4.860175
588.1231, 4.677547
588.6052, 4.636055
589.0873, 4.670568
589.5695, 4.633074
590.0516, 4.505328
590.5337, 4.441352
591.0158, 4.503386
591.4979, 4.600434
591.9800, 4.667913
592.4622, 4.707570
592.9443, 4.724344
593.4264, 4.717897
593.9085, 4.690679
594.3906, 4.629755
594.8727, 4.549436
595.3549, 4.482894
595.8370, 4.439311
596.3191, 4.432200
596.8012, 4.486600
597.2833, 4.617477
597.7654, 4.703690
598.2476, 4.745329
598.7297, 4.749774
599.2118, 4.571110
599.6939, 4.751850
600.1760, 4.856059
600.6581, 4.887850
601.1403, 4.630325
601.6224, 4.746392
602.1045, 4.712740
602.5866, 4.672950
603.0687, 4.841599
603.5508, 4.626153
604.0330, 4.791499
604.5151, 4.804838
604.9972, 4.887746
605.4793, 4.820011
605.9614, 4.798804
606.4435, 4.770134
606.9257, 4.663963
607.4078, 4.654818
607.8899, 4.619749
608.3720, 4.793605
608.8541, 4.890930
609.3362, 4.915837
609.8184, 4.651427
610.3005, 4.760611
610.7826, 4.720075
611.2647, 4.673399
611.7468, 4.696126
612.2289, 4.683645
612.7111, 4.698758
613.1932, 4.731925
613.6753, 4.782321
614.1574, 4.833347
614.6395, 4.855850
615.1216, 4.849411
615.6038, 4.817668
616.0859, 4.748142
616.5680, 4.671982
617.0501, 4.599286
617.5322, 4.537994
618.0143, 4.522275
618.4965, 4.572551
618.9786, 4.654685
619.4607, 4.803938
619.9428, 4.957252
620.4249, 4.971846
620.9070, 4.820164
621.3892, 4.637084
621.8713, 4.557328
622.3534, 4.579435
622.8355, 4.613176
623.3176, 4.692961
623.7997, 4.738811
624.2819, 4.703848
624.7640, 4.653541
625.2461, 4.650109
625.7282, 4.698242
626.2103, 4.754998
626.6924, 4.783839
627.1745, 4.799078
627.6566, 4.850135
628.1387, 4.942793
628.6208, 4.985837
629.1030, 4.925652
629.5851, 4.822827
630.0672, 4.768002
630.5493, 4.762788
631.0314, 4.751781
631.5135, 4.716974
631.9957, 4.683350
632.4778, 4.684646
632.9599, 4.696044
633.4420, 4.646154
633.9241, 4.512014
634.4063, 4.383664
634.8884, 4.410729
635.3705, 4.626093
635.8526, 4.713224
636.3347, 4.530357
636.8168, 4.418407
637.2990, 4.598014
637.7811, 4.856447
638.2632, 4.899239
638.7453, 4.654056
639.2274, 4.441912
639.7095, 4.564172
640.1917, 4.836996
640.6738, 4.900232
641.1559, 4.740087
641.6380, 4.619164
642.1201, 4.693902
642.6022, 4.868842
643.0844, 4.924644
643.5665, 4.779983
644.0486, 4.680091
644.5307, 4.608193
645.0128, 4.596750
645.4949, 4.728939
645.9771, 4.923285
646.4592, 5.014801
646.9413, 4.928075
647.4234, 4.775470
647.9055, 4.724372
648.3876, 4.772085
648.8698, 4.775320
649.3519, 4.698091
649.8340, 4.633609
650.3161, 4.667792
650.7982, 4.746599
651.2803, 4.747950
651.7625, 4.606590
652.2446, 4.535865
652.7267, 4.737216
653.2088, 4.977277
653.6909, 4.950362
654.1730, 4.686079
654.6552, 4.446782
655.1373, 4.391900
655.6194, 4.467812
656.1015, 4.547785
656.5836, 4.659096
657.0657, 4.703092
657.5479, 4.590807
658.0300, 4.489680
658.5121, 4.468883
658.9942, 4.512277
659.4763, 4.584019
659.9584, 4.676810
660.4406, 4.780008
660.9227, 4.911413
661.4048, 5.042826
661.8869, 5.091878
662.3690, 5.045321
662.8511, 4.972488
663.3333, 4.918562
663.8154, 4.878690
664.2975, 4.832979
664.7796, 4.724176
665.2617, 4.692126
665.7438, 4.825947
666.2260, 4.962926
666.7081, 4.980132
667.1902, 4.906035
667.6723, 4.840421
668.1544, 4.835988
668.6365, 4.857826
669.1187, 4.850852
669.6008, 4.816416
670.0829, 4.782660
670.5650, 4.748542
671.0471, 4.729160
671.5292, 4.742405
672.0114, 4.779834
672.4935, 4.809435
672.9756, 4.833392
673.4577, 4.844796
673.9398, 4.845840
674.4219, 4.830235
674.9041, 4.762189
675.3862, 4.665735
675.8683, 4.635702
676.3504, 4.738184
676.8325, 4.904103
677.3146, 4.967848
677.7968, 4.911783
678.2789, 4.833537
678.7610, 4.691674
679.2431, 4.595343
679.7252, 4.647250
680.2073, 4.780787
680.6895, 4.861508
681.1716, 4.855237
681.6537, 4.811244
682.1358, 4.704607
682.6179, 4.602837
683.1000, 4.631320
683.5822, 4.782575
684.0643, 4.920589
684.5464, 4.957246
685.0285, 4.920775
685.5106, 4.888465
685.9927, 4.852661
686.4749, 4.839178
686.9570, 4.851233
687.4391, 4.884189
687.9212, 4.971219
688.4033, 5.069976
688.8854, 5.094873
689.3676, 5.002882
689.8497, 4.903872
690.3318, 4.912110
690.8139, 4.975092
691.2960, 4.971650
691.7781, 4.891316
692.2603, 4.809650
692.7424, 4.768334
693.2245, 4.762697
693.7066, 4.782145
694.1887, 4.847913
694.6708, 4.896063
695.1530, 4.925642
695.6351, 4.939822
696.1172, 4.942777
696.5993, 4.930698
697.0814, 4.892564
697.5635, 4.823491
698.0457, 4.748377
698.5278, 4.668463
699.0099, 4.603091
699.4920, 4.624598
699.9741, 4.741504
700.4562, 4.892621
700.9384, 5.071293
701.4205, 5.232230
701.9026, 5.269885
702.3847, 5.123003
702.8668, 5.014212
703.3489, 4.988751
703.8311, 4.957827
704.3132, 4.844483
704.7953, 4.708029
705.2774, 4.645609
705.7595, 4.686640
706.2416, 4.776278
706.7238, 4.880260
707.2059, 4.986153
707.6880, 5.032364
708.1701, 5.011493
708.6522, 4.979339
709.1343, 4.956728
709.6164, 4.937184
710.0985, 4.904908
710.5806, 4.853699
711.0627, 4.834457
711.5449, 4.869375
712.0270, 4.916472
712.5091, 4.962947
712.9912, 5.006014
713.4733, 5.053922
713.9554, 5.103284
714.4376, 5.117543
714.9197, 5.036966
715.4018, 4.901041
715.8839, 4.876006
716.3660, 4.977271
716.8481, 5.082429
717.3303, 5.179648
717.8124, 5.230327
718.2945, 5.154243
718.7766, 4.964199
719.2587, 4.847002
719.7408, 4.853810
720.2230, 4.894579
720.7051, 4.970532
721.1872, 5.040617
721.6693, 5.040827
722.1514, 4.976872
722.6335, 4.927119
723.1157, 4.956093
723.5978, 5.031547
724.0799, 5.069549
724.5620, 5.068595
725.0441, 5.043288
725.5262, 4.978154
726.0084, 4.921749
726.4905, 4.918854
726.9726, 4.958846
727.4547, 5.002586
727.9368, 5.090025
728.4189, 5.115606
728.9011, 4.962441
729.3832, 4.795922
729.8653, 4.808019
730.3474, 4.960288
730.8295, 5.065305
731.3116, 5.014792
731.7938, 4.904938
732.2759, 4.926280
732.7580, 5.081978
733.2401, 5.123496
733.7222, 4.975298
734.2043, 4.862206
734.6865, 4.958192
735.1686, 5.157136
735.6507, 5.218124
736.1328, 5.095235
736.6149, 4.994235
737.0970, 4.937431
737.5792, 4.933539
738.0613, 4.995328
738.5434, 5.112700
739.0255, 5.308033
739.5076, 5.578568
739.9897, 5.776890
740.4719, 5.681670
740.9540, 5.342619
741.4361, 5.110200
741.9182, 4.992737
742.4003, 4.948576
742.8824, 4.985642
743.3646, 5.063863
743.8467, 5.153047
744.3288, 5.255879
744.8109, 5.276743
745.2930, 5.108325
745.7751, 4.972815
746.2573, 5.007535
746.7394, 5.097697
747.2215, 5.078710
747.7036, 4.950406
748.1857, 4.867926
748.6678, 4.963127
749.1500, 5.155009
749.6321, 5.271631
750.1142, 5.313086
750.5963, 5.298758
751.0784, 5.211160
751.5605, 5.131925
752.0427, 5.138289
752.5248, 5.210426
753.0069, 5.236016
753.4890, 5.169629
753.9711, 5.131425
754.4532, 5.156521
754.9354, 5.196856
755.4175, 5.225268
755.8996, 5.239406
756.3817, 5.242903
756.8638, 5.237082
757.3459, 5.223670
757.8281, 5.188014
758.3102, 5.145504
758.7923, 5.173318
759.2744, 5.280742
759.7565, 5.355766
760.2386, 5.336249
760.7208, 5.269145
761.2029, 5.231961
761.6850, 5.226571
762.1671, 5.245509
762.6492, 5.358891
763.1313, 5.410904
763.6135, 5.271967
764.0956, 5.094967
764.5777, 5.062417
765.0598, 5.187274
765.5419, 5.324850
766.0240, 5.391705
766.5062, 5.409207
766.9883, 5.417613
767.4704, 5.405175
767.9525, 5.291596
768.4346, 5.052395
768.9167, 4.855688
769.3989, 4.867773
769.8810, 5.043526
770.3631, 5.099426
770.8452, 4.907092
771.3273, 4.829544
771.8094, 4.974235
772.2916, 5.154160
772.7737, 5.317772
773.2558, 5.433098
773.7379, 5.429517
774.2200, 5.256440
774.7021, 5.097018
775.1843, 5.077980
775.6664, 5.140305
776.1485, 5.231551
776.6306, 5.331773
777.1127, 5.387107
777.5948, 5.372836
778.0770, 5.330599
778.5591, 5.320503
779.0412, 5.343315
779.5233, 5.387054
780.0054, 5.481841
780.4875, 5.533203
780.9697, 5.470563
781.4518, 5.380789
781.9339, 5.353905
782.4160, 5.385034
782.8981, 5.403333
783.3802, 5.391821
783.8624, 5.363590
784.3445, 5.248456
784.8266, 5.162490
785.3087, 5.339344
785.7908, 5.730637
786.2729, 5.983245
786.7551, 5.839012
787.2372, 5.517739
787.7193, 5.505223
788.2014, 5.796376
788.6835, 5.929055
789.1656, 5.829192
789.6478, 5.644739
790.1299, 5.408092
790.6120, 5.182165
791.0941, 5.137439
791.5762, 5.345376
792.0583, 5.509284
792.5404, 5.624530
793.0225, 5.680535
793.5046, 5.629461
793.9868, 5.537521
794.4689, 5.495351
794.9510, 5.518666
795.4331, 5.546001
795.9152, 5.508980
796.3973, 5.463012
796.8795, 5.536928
797.3616, 5.695520
797.8437, 5.741853
798.3258, 5.622828
798.8079, 5.499061
799.2900, 5.519233
799.7722, 5.651507
800.2543, 5.714149
800.7364, 5.656164
801.2185, 5.633307
801.7006, 5.703049
802.1827, 5.764297
802.6649, 5.752196
803.1470, 5.703542
803.6291, 5.699052
804.1112, 5.771015
804.5933, 5.798907
805.0754, 5.647106
805.5576, 5.482438
806.0397, 5.496180
806.5218, 5.633647
807.0039, 5.755977
807.4860, 5.811126
807.9681, 5.799345
808.4503, 5.696375
808.9324, 5.532721
809.4145, 5.490426
809.8966, 5.592804
810.3787, 5.672612
810.8608, 5.691631
811.3430, 5.668947
811.8251, 5.590363
812.3072, 5.476023
812.7893, 5.459173
813.2714, 5.574090
813.7535, 5.732918
814.2357, 6.063756
814.7178, 6.305565
815.1999, 6.209741
815.6820, 5.897717
816.1641, 5.610106
816.6462, 5.429149
817.1284, 5.359827
817.6105, 5.501103
818.0926, 5.720065
818.5747, 5.741195
819.0568, 5.582376
819.5389, 5.393734
820.0211, 5.222541
820.5032, 5.116176
820.9853, 5.138965
821.4674, 5.281770
821.9495, 5.404304
822.4316, 5.513678
822.9138, 5.588891
823.3959, 5.613362
823.8780, 5.614180
824.3601, 5.598824
824.8422, 5.574826
825.3243, 5.560559
825.8065, 5.558298
826.2886, 5.568026
826.7707, 5.576348
827.2528, 5.607971
827.7349, 5.726512
828.2170, 5.878287
828.6992, 5.944427
829.1813, 5.885109
829.6634, 5.762972
830.1455, 5.627538
830.6276, 5.487097
831.1097, 5.339359
831.5919, 5.187147
832.0740, 5.196963
832.5561, 5.449058
833.0382, 5.745856
833.5203, 5.916175
834.0024, 5.963406
834.4846, 5.911446
834.9667, 5.632853
835.4488, 5.465929
835.9309, 5.495994
836.4130, 5.563327
836.8951, 5.587960
837.3773, 5.591638
837.8594, 5.627145
838.3415, 5.711409
838.8236, 5.779617
839.3057, 5.814853
839.7878, 5.805048
840.2700, 5.694454
840.7521, 5.539751
841.2342, 5.472050
841.7163, 5.518265
842.1984, 5.583635
842.6805, 5.580572
843.1627, 5.532770
843.6448, 5.519934
844.1269, 5.544373
844.6090, 5.513113
845.0911, 5.388285
845.5732, 5.289515
846.0554, 5.323549
846.5375, 5.428216
847.0196, 5.412261
847.5017, 5.137007
847.9838, 5.063161
848.4659, 5.411537
848.9481, 5.697534
849.4302, 5.675371
849.9123, 5.525434
850.3944, 5.478998
850.8765, 5.558562
851.3586, 5.609935
851.8408, 5.547289
852.3229, 5.433650
852.8050, 5.259449
853.2871, 5.096616
853.7692, 5.099556
854.2513, 5.261014
854.7335, 5.430440
855.2156, 5.515421
855.6977, 5.532837
856.1798, 5.497213
856.6619, 5.410863
857.1440, 5.345551
857.6262, 5.303746
858.1083, 5.286500
858.5904, 5.288138
859.0725, 5.327784
859.5546, 5.461311
860.0367, 5.710287
860.5189, 5.793033
861.0010, 5.530093
861.4831, 5.351439
861.9652, 5.379161
862.4473, 5.466554
862.9294, 5.528381
863.4116, 5.553589
863.8937, 5.534154
864.3758, 5.451274
864.8579, 5.380368
865.3400, 5.386564
865.8221, 5.416337
866.3043, 5.422869
866.7864, 5.398634
867.2685, 5.317433
867.7506, 5.178652
868.2327, 5.065081
868.7148, 5.067958
869.1970, 5.161285
869.6791, 5.283181
870.1612, 5.433329
870.6433, 5.494164
871.1254, 5.424626
871.6075, 5.344803
872.0897, 5.359964
872.5718, 5.422193
873.0539, 5.363285
873.5360, 5.047098
874.0181, 4.922410
874.5002, 5.246867
874.9823, 5.466451
875.4644, 5.278873
875.9465, 4.967473
876.4286, 4.870940
876.9108, 5.009046
877.3929, 5.133792
877.8750, 5.155095
878.3571, 5.148826
878.8392, 5.170810
879.3214, 5.179468
879.8035, 5.098279
880.2856, 4.952800
880.7677, 4.845711
881.2498, 4.829221
881.7319, 4.858850
882.2141, 4.891208
882.6962, 4.923262
883.1783, 4.945044
883.6604, 4.956690
884.1425, 4.964693
884.6246, 4.971689
885.1068, 4.968927
885.5889, 4.939582
886.0710, 4.893409
886.5531, 4.920732
887.0352, 5.073755
887.5173, 5.141968
887.9995, 5.034037
888.4816, 4.928735
888.9637, 4.975539
889.4458, 5.088805
889.9279, 5.082869
890.4100, 4.912830
890.8922, 4.795494
891.3743, 4.808002
891.8564, 4.824816
892.3385, 4.793340
892.8206, 4.733060
893.3027, 4.650614
893.7849, 4.561013
894.2670, 4.516376
894.7491, 4.563268
895.2312, 4.618907
895.7133, 4.590489
896.1954, 4.528778
896.6776, 4.533157
897.1597, 4.589229
897.6418, 4.588074
898.1239, 4.484911
898.6060, 4.386973
899.0881, 4.457449
899.5703, 4.646394
900.0524, 4.652157
900.5345, 4.459554
901.0166, 4.407028
901.4987, 4.612606
901.9808, 4.820673
902.4630, 4.828443
902.9451, 4.677787
903.4272, 4.506046
903.9093, 4.247715
904.3914, 4.120752
904.8735, 4.236073
905.3557, 4.345362
905.8378, 4.350545
906.3199, 4.314114
906.8020, 4.313689
907.2841, 4.348260
907.7662, 4.335378
908.2484, 4.156932
908.7305, 4.053248
909.2126, 4.189095
909.6947, 4.388263
910.1768, 4.519273
910.6589, 4.565660
911.1411, 4.523577
911.6232, 4.389136
912.1053, 4.252261
912.5874, 4.179987
913.0695, 4.159575
913.5516, 4.186945
914.0338, 4.248558
914.5159, 4.318720
914.9980, 4.386025
915.4801, 4.409209
915.9622, 4.346676
916.4443, 4.249211
916.9265, 4.262202
917.4086, 4.384963
917.8907, 4.392281
918.3728, 4.246105
918.8549, 4.106628
919.3370, 4.031855
919.8192, 4.030357
920.3013, 4.138038
920.7834, 4.361470
921.2655, 4.445099
921.7476, 4.296503
922.2297, 4.167974
922.7119, 4.122262
923.1940, 4.077505
923.6761, 3.927492
924.1582, 3.760534
924.6403, 3.786274
925.1224, 4.084085
925.6046, 4.301305
926.0867, 4.322200
926.5688, 4.273678
927.0509, 4.188357
927.5330, 4.092741
928.0151, 3.999523
928.4973, 3.920413
928.9794, 3.884593
929.4615, 3.911681
929.9436, 3.971451
930.4257, 4.065866
930.9078, 4.159997
931.3900, 4.208556
931.8721, 4.209321
932.3542, 4.143969
932.8363, 4.016276
933.3184, 3.930459
933.8005, 4.011817
934.2827, 4.187538
934.7648, 4.255766
935.2469, 4.228290
935.7290, 4.220296
936.2111, 4.250634
936.6932, 4.285917
937.1754, 4.311186
937.6575, 4.314601
938.1396, 4.272668
938.6217, 4.182858
939.1038, 4.065207
939.5859, 3.872492
940.0681, 3.785053
940.5502, 3.915809
941.0323, 4.070610
941.5144, 4.062473
941.9965, 3.941493
942.4786, 3.927357
942.9608, 4.110982
943.4429, 4.208477
943.9250, 4.147902
944.4071, 4.071027
944.8892, 4.032908
945.3713, 4.010008
945.8535, 3.962592
946.3356, 3.895527
946.8177, 3.869088
947.2998, 3.935035
947.7819, 3.995601
948.2640, 4.001244
948.7462, 3.982258
949.2283, 3.956960
949.7104, 3.932545
950.1925, 3.912824
950.6746, 3.900152
951.1567, 3.906911
951.6389, 3.977632
952.1210, 4.042167
952.6031, 3.964455
953.0852, 3.824729
953.5673, 3.810144
954.0494, 3.929889
954.5316, 4.080867
955.0137, 4.210752
955.4958, 4.290050
955.9779, 4.245535
956.4600, 4.110192
956.9421, 4.056337
957.4242, 4.080924
957.9063, 4.100711
958.3884, 4.096192
958.8705, 4.056798
959.3527, 3.965162
959.8348, 3.850699
960.3169, 3.799144
960.7990, 3.813074
961.2811, 3.894696
961.7632, 4.105977
962.2454, 4.201463
962.7275, 4.023408
963.2096, 3.786826
963.6917, 3.738788
964.1738, 3.858480
964.6559, 3.913142
965.1381, 3.873087
965.6202, 3.815085
966.1023, 3.683976
966.5844, 3.601312
967.0665, 3.605444
967.5486, 3.696298
968.0308, 3.948109
968.5129, 4.356801
968.9950, 4.524165
969.4771, 4.156906
969.9592, 3.815658
970.4413, 3.688797
970.9235, 3.661746
971.4056, 3.673103
971.8877, 3.701442
972.3698, 3.729300
972.8519, 3.752028
973.3340, 3.764000
973.8162, 3.733593
974.2983, 3.720496
974.7804, 3.809435
975.2625, 3.925997
975.7446, 3.944177
976.2267, 3.881925
976.7089, 3.869006
977.1910, 3.969959
977.6731, 4.060994
978.1552, 3.965718
978.6373, 3.803632
979.1194, 3.801914
979.6016, 3.914327
980.0837, 3.995449
980.5658, 4.009487
981.0479, 3.952071
981.5300, 3.809769
982.0121, 3.664016
982.4943, 3.701798
982.9764, 3.875566
983.4585, 3.884944
983.9406, 3.727937
984.4227, 3.642540
984.9048, 3.705644
985.3870, 3.844460
985.8691, 4.018467
986.3512, 4.169085
986.8333, 4.050370
987.3154, 3.603008
987.7975, 3.402088
988.2797, 3.534615
988.7618, 3.683217
989.2439, 3.732277
989.7260, 3.724499
990.2081, 3.698729
990.6902, 3.659608
991.1724, 3.650024
991.6545, 3.670080
992.1366, 3.723054
992.6187, 3.851885
993.1008, 3.950038
993.5829, 3.972198
994.0651, 3.934658
994.5472, 3.829518
995.0293, 3.654255
995.5114, 3.573273
995.9935, 3.649183
996.4756, 3.730830
996.9578, 3.851942
997.4399, 3.918162
997.9220, 3.808975
998.4041, 3.641570
998.8862, 3.626782
999.3683, 3.791187
999.8505, 3.874082
1000.333, 3.716301
1000.815, 3.591341
1001.297, 3.632194
1001.779, 3.717299
1002.261, 3.766056
1002.743, 3.773134
1003.225, 3.733097
1003.707, 3.643746
1004.190, 3.588888
1004.672, 3.649895
1005.154, 3.714282
1005.636, 3.687904
1006.118, 3.636184
1006.600, 3.639953
1007.082, 3.691726
1007.564, 3.750616
1008.046, 3.802352
1008.529, 3.823985
1009.011, 3.754812
1009.493, 3.684404
1009.975, 3.764668
1010.457, 3.892133
1010.939, 3.827994
1011.421, 3.607685
1011.903, 3.516840
1012.385, 3.698410
1012.868, 3.931817
1013.350, 3.987975
1013.832, 3.924919
1014.314, 3.808322
1014.796, 3.671591
1015.278, 3.608205
1015.760, 3.630898
1016.242, 3.707030
1016.725, 3.821439
1017.207, 3.925568
1017.689, 3.937918
1018.171, 3.882801
1018.653, 3.841481
1019.135, 3.814203
1019.617, 3.787961
1020.099, 3.761276
1020.581, 3.772457
1021.064, 3.852020
1021.546, 3.960530
1022.028, 4.034345
1022.510, 4.072262
1022.992, 4.052988
1023.474, 3.975273
1023.956, 3.903348
1024.438, 3.855426
1024.921, 3.784187
1025.403, 3.637235
1025.885, 3.489047
1026.367, 3.547195
1026.849, 3.832572
1027.331, 3.975152
1027.813, 3.956178
1028.295, 3.892915
1028.777, 3.799089
1029.260, 3.731847
1029.742, 3.743873
1030.224, 3.808351
1030.706, 3.848578
1031.188, 3.857570
1031.670, 3.888359
1032.152, 3.970164
1032.634, 3.981251
1033.116, 3.849856
1033.599, 3.708873
1034.081, 3.665115
1034.563, 3.699235
1035.045, 3.759567
1035.527, 3.879181
1036.009, 3.904920
1036.491, 3.780464
1036.973, 3.667717
1037.456, 3.590701
1037.938, 3.568641
1038.420, 3.655194
1038.902, 3.803050
1039.384, 3.845710
1039.866, 3.728553
1040.348, 3.659381
1040.830, 3.673573
1041.313, 3.685366
1041.795, 3.657949
1042.277, 3.633594
1042.759, 3.649176
1043.241, 3.694978
1043.723, 3.745347
1044.205, 3.818976
1044.687, 3.843666
1045.169, 3.748185
1045.651, 3.693143
1046.134, 3.753973
1046.616, 3.845746
1047.098, 3.920688
1047.580, 3.967625
1048.062, 3.955491
1048.544, 3.855076
1049.026, 3.788617
1049.508, 3.786491
1049.991, 3.801942
1050.473, 3.829290
1050.955, 3.859180
1051.437, 3.906239
1051.919, 3.946908
1052.401, 3.912570
1052.883, 3.770839
1053.365, 3.658456
1053.848, 3.622203
1054.330, 3.596913
1054.812, 3.556845
1055.294, 3.517981
1055.776, 3.510621
1056.258, 3.513062
1056.740, 3.447634
1057.222, 3.272689
1057.704, 3.219000
1058.187, 3.491430
1058.669, 3.719325
1059.151, 3.742941
1059.633, 3.656767
1060.115, 3.463840
1060.597, 3.253472
1061.079, 3.216670
1061.561, 3.407267
1062.043, 3.577952
1062.526, 3.670468
1063.008, 3.692184
1063.490, 3.554283
1063.972, 3.429270
1064.454, 3.531283
1064.936, 3.744462
1065.418, 3.802404
1065.900, 3.648974
1066.383, 3.490572
1066.865, 3.364970
1067.347, 3.306499
1067.829, 3.377673
1068.311, 3.480424
1068.793, 3.543650
1069.275, 3.568949
1069.757, 3.569811
1070.240, 3.550220
1070.722, 3.528947
1071.204, 3.474782
1071.686, 3.471801
1072.168, 3.640985
1072.650, 3.800006
1073.132, 3.786840
1073.614, 3.659829
1074.096, 3.504022
1074.578, 3.349685
1075.061, 3.283926
1075.543, 3.394561
1076.025, 3.518458
1076.507, 3.590618
1076.989, 3.631933
1077.471, 3.652256
1077.953, 3.656642
1078.435, 3.645041
1078.918, 3.621213
1079.400, 3.604774
1079.882, 3.614860
1080.364, 3.608223
1080.846, 3.524401
1081.328, 3.457901
1081.810, 3.513931
1082.292, 3.607857
1082.774, 3.620450
1083.257, 3.549751
1083.739, 3.461483
1084.221, 3.344809
1084.703, 3.313080
1085.185, 3.537689
1085.667, 3.732014
1086.149, 3.665975
1086.631, 3.493015
1087.114, 3.365520
1087.596, 3.310295
1088.078, 3.343371
1088.560, 3.498021
1089.042, 3.598091
1089.524, 3.500450
1090.006, 3.412156
1090.488, 3.469196
1090.970, 3.579455
1091.453, 3.678212
1091.935, 3.740616
1092.417, 3.719584
1092.899, 3.595140
1093.381, 3.489371
1093.863, 3.467934
1094.345, 3.448764
1094.827, 3.344507
1095.309, 3.272565
1095.792, 3.408087
1096.274, 3.624013
1096.756, 3.638958
1097.238, 3.406216
1097.720, 3.250481
1098.202, 3.353071
1098.684, 3.436358
1099.166, 3.358797
1099.649, 3.279370
1100.131, 3.358092
1100.613, 3.480639
1101.095, 3.420375
1101.577, 3.183584
1102.059, 3.106262
1102.541, 3.438247
1103.023, 3.658149
1103.505, 3.578098
1103.988, 3.431664
1104.470, 3.279342
1104.952, 3.173743
1105.434, 3.190458
1105.916, 3.308028
1106.398, 3.403593
1106.880, 3.442385
1107.362, 3.498246
1107.844, 3.636375
1108.327, 3.725135
1108.809, 3.700656
1109.291, 3.618952
1109.773, 3.509099
1110.255, 3.386366
1110.737, 3.278675
1111.219, 3.168517
1111.701, 3.148714
1112.184, 3.338180
1112.666, 3.461728
1113.148, 3.399702
1113.630, 3.314988
1114.112, 3.345644
1114.594, 3.413560
1115.076, 3.338452
1115.558, 3.088374
1116.041, 3.022396
1116.523, 3.334765
1117.005, 3.494069
1117.487, 3.301524
1117.969, 3.158399
1118.451, 3.326955
1118.933, 3.576894
1119.415, 3.587396
1119.897, 3.389048
1120.380, 3.333504
1120.862, 3.524959
1121.344, 3.595333
1121.826, 3.473610
1122.308, 3.356656
1122.790, 3.316258
1123.272, 3.297050
1123.754, 3.233779
1124.236, 3.159691
1124.719, 3.210302
1125.201, 3.444717
1125.683, 3.459707
1126.165, 3.159606
1126.647, 3.024014
1127.129, 3.210526
1127.611, 3.438517
1128.093, 3.521533
1128.576, 3.513886
1129.058, 3.514589
1129.540, 3.522216
1130.022, 3.486774
1130.504, 3.397235
1130.986, 3.419529
1131.468, 3.592715
1131.950, 3.712170
1132.432, 3.666837
1132.915, 3.620520
1133.397, 3.805343
1133.879, 4.103338
1134.361, 4.029974
1134.843, 3.628941
1135.325, 3.446556
1135.807, 3.511250
1136.289, 3.586332
1136.771, 3.593867
1137.254, 3.520347
1137.736, 3.340341
1138.218, 3.141058
1138.700, 3.080601
1139.182, 3.133006
1139.664, 3.252108
1140.146, 3.405529
1140.628, 3.450655
1141.111, 3.377508
1141.593, 3.315277
1142.075, 3.332145
1142.557, 3.366002
1143.039, 3.336436
1143.521, 3.286108
1144.003, 3.314444
1144.485, 3.364532
1144.968, 3.266130
1145.450, 3.079488
1145.932, 3.066976
1146.414, 3.291339
1146.896, 3.503276
1147.378, 3.523663
1147.860, 3.469401
1148.342, 3.425814
1148.824, 3.392886
1149.307, 3.361399
1149.789, 3.344945
1150.271, 3.397920
1150.753, 3.496327
1151.235, 3.506032
1151.717, 3.351468
1152.199, 3.204386
1152.681, 3.164407
1153.163, 3.162337
1153.646, 3.172997
1154.128, 3.181407
1154.610, 3.166156
1155.092, 3.139784
1155.574, 3.127460
1156.056, 3.133532
1156.538, 3.172742
1157.020, 3.257205
1157.503, 3.363855
1157.985, 3.530585
1158.467, 3.669074
1158.949, 3.721191
1159.431, 3.718818
1159.913, 3.716166
1160.395, 3.706302
1160.877, 3.611624
1161.359, 3.346560
1161.842, 3.160958
1162.324, 3.129607
1162.806, 3.060719
1163.288, 2.801816
1163.770, 2.627188
1164.252, 2.799669
1164.734, 3.157208
1165.216, 3.342266
1165.698, 3.343189
1166.181, 3.306957
1166.663, 3.198434
1167.145, 3.198152
1167.627, 3.367351
1168.109, 3.514362
1168.591, 3.550787
1169.073, 3.512202
1169.555, 3.421432
1170.037, 3.314763
1170.520, 3.364493
1171.002, 3.563226
1171.484, 3.593841
1171.966, 3.446762
1172.448, 3.306764
1172.930, 3.223578
1173.412, 3.188841
1173.894, 3.199471
1174.377, 3.230714
1174.859, 3.254058
1175.341, 3.265451
1175.823, 3.219709
1176.305, 3.158975
1176.787, 3.257272
1177.269, 3.479881
1177.751, 3.582878
1178.234, 3.488233
1178.716, 3.354496
1179.198, 3.285193
1179.680, 3.272772
1180.162, 3.358644
1180.644, 3.456073
1181.126, 3.416715
1181.608, 3.325322
1182.090, 3.387694
1182.573, 3.568341
1183.055, 3.593405
1183.537, 3.332790
1184.019, 3.119961
1184.501, 3.165570
1184.983, 3.262056
1185.465, 3.309330
1185.947, 3.342832
1186.429, 3.408763
1186.912, 3.479664
1187.394, 3.488050
1187.876, 3.432190
1188.358, 3.423125
1188.840, 3.544212
1189.322, 3.607926
1189.804, 3.559348
1190.286, 3.497171
1190.769, 3.441416
1191.251, 3.402677
1191.733, 3.415715
1192.215, 3.438993
1192.697, 3.340684
1193.179, 3.084802
1193.661, 3.045306
1194.143, 3.314433
1194.625, 3.436834
1195.108, 3.305048
1195.590, 3.194268
1196.072, 3.240285
1196.554, 3.347792
1197.036, 3.411508
1197.518, 3.442854
1198.000, 3.488764
1198.482, 3.540176
1198.964, 3.484024
1199.447, 3.338441
1199.929, 3.308041
1200.411, 3.426689
1200.893, 3.532344
1201.375, 3.531268
1201.857, 3.486078
1202.339, 3.458630
1202.821, 3.442986
1203.304, 3.436641
1203.786, 3.430646
1204.268, 3.425986
1204.750, 3.403193
1205.232, 3.276387
1205.714, 3.060406
1206.196, 2.970107
1206.678, 3.155600
1207.161, 3.358147
1207.643, 3.432436
1208.125, 3.450119
1208.607, 3.442655
1209.089, 3.420601
1209.571, 3.382459
1210.053, 3.339389
1210.535, 3.317243
1211.017, 3.321265
1211.500, 3.314287
1211.982, 3.242862
1212.464, 3.234643
1212.946, 3.389957
1213.428, 3.501448
1213.910, 3.497471
1214.392, 3.406135
1214.874, 3.208709
1215.356, 2.972106
1215.839, 2.911121
1216.321, 3.046762
1216.803, 3.168075
1217.285, 3.284885
1217.767, 3.298218
1218.249, 3.174988
1218.731, 3.119967
1219.213, 3.238100
1219.696, 3.390584
1220.178, 3.425560
1220.660, 3.384265
1221.142, 3.346783
1221.624, 3.317528
1222.106, 3.294461
1222.588, 3.294723
1223.070, 3.423209
1223.552, 3.652575
1224.035, 3.736621
1224.517, 3.559465
1224.999, 3.394736
1225.481, 3.556627
1225.963, 3.739217
1226.445, 3.613703
1226.927, 3.408226
1227.409, 3.329193
1227.891, 3.367045
1228.374, 3.527932
1228.856, 3.762825
1229.338, 3.865947
1229.820, 3.747715
1230.302, 3.620439
1230.784, 3.516875
1231.266, 3.432602
1231.748, 3.384487
1232.231, 3.334893
1232.713, 3.251625
1233.195, 3.159726
1233.677, 3.084975
1234.159, 3.032834
1234.641, 3.055071
1235.123, 3.162042
1235.605, 3.318636
1236.088, 3.553160
1236.570, 3.628509
1237.052, 3.465022
1237.534, 3.324046
1238.016, 3.378043
1238.498, 3.499583
1238.980, 3.506928
1239.462, 3.446051
1239.944, 3.446721
1240.427, 3.482482
1240.909, 3.467305
1241.391, 3.413051
1241.873, 3.384444
1242.355, 3.392856
1242.837, 3.398686
1243.319, 3.378752
1243.801, 3.368989
1244.283, 3.398060
1244.766, 3.446008
1245.248, 3.550588
1245.730, 3.618354
1246.212, 3.505319
1246.694, 3.314700
1247.176, 3.220188
1247.658, 3.240214
1248.140, 3.323485
1248.622, 3.537962
1249.105, 3.654892
1249.587, 3.632437
1250.069, 3.553421
1250.551, 3.382878
1251.033, 3.255104
1251.515, 3.263656
1251.997, 3.345649
1252.479, 3.414006
1252.962, 3.467316
1253.444, 3.506092
1253.926, 3.529379
1254.408, 3.441434
1254.890, 3.253304
1255.372, 3.235176
1255.854, 3.433998
1256.336, 3.593536
1256.818, 3.565947
1257.301, 3.451333
1257.783, 3.298526
1258.265, 3.191925
1258.747, 3.317475
1259.229, 3.509527
1259.711, 3.514250
1260.193, 3.415995
1260.675, 3.411884
1261.157, 3.510278
1261.640, 3.579484
1262.122, 3.571032
1262.604, 3.574276
1263.086, 3.640274
1263.568, 3.689779
1264.050, 3.660830
1264.532, 3.651321
1265.014, 3.764693
1265.497, 3.883373
1265.979, 3.858840
1266.461, 3.728240
1266.943, 3.649200
1267.425, 3.631099
1267.907, 3.592002
1268.389, 3.527769
1268.871, 3.491704
1269.354, 3.493677
1269.836, 3.484616
1270.318, 3.441311
1270.800, 3.445436
1271.282, 3.599812
1271.764, 3.776354
1272.246, 3.729339
1272.728, 3.588964
1273.210, 3.590185
1273.693, 3.671700
1274.175, 3.738357
1274.657, 3.750167
1275.139, 3.603840
1275.621, 3.286782
1276.103, 3.140330
1276.585, 3.488768
1277.067, 3.726193
1277.549, 3.542432
1278.032, 3.342836
1278.514, 3.303391
1278.996, 3.352195
1279.478, 3.462218
1279.960, 3.585312
1280.442, 3.622588
1280.924, 3.577132
1281.406, 3.546290
1281.889, 3.529691
1282.371, 3.539671
1282.853, 3.579695
1283.335, 3.595676
1283.817, 3.572376
1284.299, 3.510574
1284.781, 3.408263
1285.263, 3.309746
1285.745, 3.260170
1286.228, 3.259594
##END=



