##NAMES=Niter
##RRUFFID=R090001
##IDEAL CHEMISTRY=KN^5+^O_3_
##LOCALITY=Searcy County, Arkansas, USA
##OWNER=RRUFF
##SOURCE=James Shigley
##DESCRIPTION=Unconsolidated, granular fragments exhibiting a sandy color
##STATUS=The identification of this mineral has been confirmed by single-crystal X-ray diffraction.
##URL=rruff.info/R090001
90.52570, 0.0000000E+00
91.00781, 11.10839
91.48993, 12.25019
91.97205, 12.70710
92.45416, 11.90205
92.93628, 10.43814
93.41840, 9.732275
93.90051, 10.23151
94.38263, 11.18470
94.86475, 11.21239
95.34686, 10.32520
95.82898, 9.540091
96.31110, 9.855870
96.79321, 11.15951
97.27533, 12.21099
97.75745, 12.53625
98.23956, 12.41373
98.72168, 13.10260
99.20380, 14.75569
99.68591, 16.71814
100.1680, 18.22738
100.6501, 19.14112
101.1323, 20.21762
101.6144, 21.53779
102.0965, 23.05040
102.5786, 25.43201
103.0607, 28.77593
103.5428, 32.92045
104.0250, 37.70574
104.5071, 43.13274
104.9892, 49.13284
105.4713, 55.66499
105.9534, 62.83599
106.4355, 70.19419
106.9177, 76.84981
107.3998, 83.63887
107.8819, 93.53468
108.3640, 108.8331
108.8461, 125.2794
109.3282, 141.1369
109.8104, 153.3877
110.2925, 168.1267
110.7746, 186.4722
111.2567, 207.9204
111.7388, 229.3315
112.2209, 251.4205
112.7031, 272.5713
113.1852, 291.9120
113.6673, 308.6729
114.1494, 323.9587
114.6315, 338.0015
115.1136, 350.9314
115.5958, 362.9028
116.0779, 371.3591
116.5600, 379.6743
117.0421, 391.5771
117.5242, 410.5788
118.0063, 431.9714
118.4885, 453.3083
118.9706, 474.0841
119.4527, 496.3604
119.9348, 520.9509
120.4169, 547.7164
120.8990, 576.8463
121.3812, 609.0283
121.8633, 643.2196
122.3454, 678.7051
122.8275, 716.6849
123.3096, 753.2410
123.7917, 786.5380
124.2739, 816.0483
124.7560, 839.8374
125.2381, 854.7941
125.7202, 863.5244
126.2023, 870.4367
126.6844, 877.2567
127.1666, 881.8224
127.6487, 879.8873
128.1308, 871.7378
128.6129, 862.3853
129.0950, 854.9147
129.5771, 849.3278
130.0593, 845.7834
130.5414, 845.3463
131.0235, 846.6146
131.5056, 845.0883
131.9877, 837.6400
132.4698, 825.8069
132.9520, 814.9065
133.4341, 804.9581
133.9162, 796.9130
134.3983, 791.3484
134.8804, 788.0745
135.3625, 785.9747
135.8447, 785.3232
136.3268, 785.1544
136.8089, 784.2736
137.2910, 782.7109
137.7731, 780.3685
138.2552, 776.5140
138.7374, 770.6714
139.2195, 767.7893
139.7016, 769.2897
140.1837, 772.2955
140.6658, 769.9468
141.1479, 759.3480
141.6301, 750.0135
142.1122, 747.2183
142.5943, 755.0326
143.0764, 758.0033
143.5585, 754.7256
144.0406, 746.5402
144.5228, 737.8564
145.0049, 728.8486
145.4870, 719.2271
145.9691, 708.8654
146.4512, 696.6293
146.9333, 685.3023
147.4155, 675.1516
147.8976, 666.0172
148.3797, 657.2941
148.8618, 648.8469
149.3439, 640.8102
149.8260, 633.2777
150.3082, 627.6328
150.7903, 620.8659
151.2724, 611.4285
151.7545, 599.2196
152.2366, 589.9049
152.7188, 585.5986
153.2009, 583.2447
153.6830, 580.4455
154.1651, 577.0710
154.6472, 573.1039
155.1293, 568.7814
155.6115, 564.2003
156.0936, 558.3664
156.5757, 549.8174
157.0578, 540.3655
157.5399, 532.1112
158.0220, 526.1649
158.5042, 520.9204
158.9863, 515.7920
159.4684, 510.6011
159.9505, 506.1050
160.4326, 503.0584
160.9147, 500.8051
161.3969, 498.3654
161.8790, 494.8777
162.3611, 491.4957
162.8432, 489.1686
163.3253, 488.7011
163.8074, 487.2169
164.2896, 483.0897
164.7717, 477.0131
165.2538, 470.3733
165.7359, 462.6283
166.2180, 455.2032
166.7001, 449.3397
167.1823, 445.9040
167.6644, 442.7128
168.1465, 437.5428
168.6286, 431.3507
169.1107, 426.8400
169.5928, 427.2299
170.0750, 429.3361
170.5571, 429.8114
171.0392, 427.4425
171.5213, 424.0623
172.0034, 420.9620
172.4855, 418.0845
172.9677, 415.2507
173.4498, 412.3167
173.9319, 409.3367
174.4140, 406.2840
174.8961, 402.6079
175.3782, 399.4809
175.8604, 398.7586
176.3425, 400.1444
176.8246, 401.1917
177.3067, 399.8451
177.7888, 396.8460
178.2709, 393.7273
178.7531, 390.9253
179.2352, 388.2037
179.7173, 384.9832
180.1994, 381.2802
180.6815, 377.9061
181.1636, 375.7332
181.6458, 374.4996
182.1279, 373.5158
182.6100, 372.6769
183.0921, 371.8849
183.5742, 370.9763
184.0563, 369.9740
184.5385, 368.7124
185.0206, 366.8002
185.5027, 364.3866
185.9848, 362.2973
186.4669, 360.9237
186.9490, 360.0620
187.4312, 359.2035
187.9133, 358.4133
188.3954, 357.2899
188.8775, 355.2839
189.3596, 352.4701
189.8417, 349.4082
190.3239, 345.8903
190.8060, 342.1894
191.2881, 339.9650
191.7702, 339.3770
192.2523, 339.7142
192.7344, 340.5952
193.2166, 342.0157
193.6987, 342.5225
194.1808, 341.0251
194.6629, 337.7604
195.1450, 335.5443
195.6271, 334.5713
196.1093, 334.1462
196.5914, 333.1400
197.0735, 331.4738
197.5556, 330.1789
198.0377, 330.1129
198.5198, 331.2896
199.0020, 331.0306
199.4841, 328.9907
199.9662, 326.1130
200.4483, 323.9653
200.9304, 322.6973
201.4125, 321.2368
201.8947, 318.3629
202.3768, 313.7250
202.8589, 312.6537
203.3410, 316.4450
203.8231, 322.1477
204.3052, 323.9028
204.7874, 320.9092
205.2695, 317.4450
205.7516, 315.3552
206.2337, 314.7965
206.7158, 314.6911
207.1979, 315.3870
207.6801, 316.1844
208.1622, 315.3151
208.6443, 312.1115
209.1264, 309.2939
209.6085, 308.4267
210.0906, 310.1731
210.5728, 310.7534
211.0549, 309.7700
211.5370, 307.8398
212.0191, 306.3284
212.5012, 305.2587
212.9833, 304.5240
213.4655, 304.3000
213.9476, 305.0000
214.4297, 304.5568
214.9118, 302.3579
215.3939, 299.2954
215.8760, 297.6342
216.3581, 297.9280
216.8403, 298.5081
217.3224, 298.4769
217.8045, 297.3980
218.2866, 297.1364
218.7687, 298.1976
219.2508, 299.9138
219.7330, 300.2955
220.2151, 298.5426
220.6972, 296.9152
221.1793, 296.5716
221.6614, 298.0026
222.1435, 299.4285
222.6257, 301.0903
223.1078, 302.6456
223.5899, 303.1289
224.0720, 302.1668
224.5541, 300.7309
225.0362, 299.0986
225.5184, 296.8318
226.0005, 295.6573
226.4826, 296.5290
226.9647, 298.2780
227.4468, 297.3141
227.9289, 291.7310
228.4111, 286.3889
228.8932, 283.5316
229.3753, 283.9051
229.8574, 285.1210
230.3395, 287.8617
230.8216, 291.2489
231.3038, 292.7724
231.7859, 291.4579
232.2680, 289.6882
232.7501, 288.4872
233.2322, 287.9903
233.7143, 287.7834
234.1965, 288.0733
234.6786, 288.6036
235.1607, 288.5833
235.6428, 287.4509
236.1249, 286.5748
236.6070, 286.7303
237.0892, 288.9768
237.5713, 289.8110
238.0534, 288.4913
238.5355, 285.9481
239.0176, 284.6090
239.4997, 285.0281
239.9819, 285.8394
240.4640, 286.6078
240.9461, 287.8294
241.4282, 287.7267
241.9103, 285.3861
242.3924, 282.0135
242.8746, 280.6165
243.3567, 282.3013
243.8388, 284.2878
244.3209, 285.5494
244.8030, 286.0367
245.2851, 285.9022
245.7673, 285.0406
246.2494, 283.6068
246.7315, 281.7247
247.2136, 278.4005
247.6957, 276.2193
248.1778, 276.5634
248.6600, 280.8146
249.1421, 283.3206
249.6242, 283.3906
250.1063, 282.1055
250.5884, 281.6087
251.0705, 282.4572
251.5527, 283.1418
252.0348, 283.1052
252.5169, 282.2050
252.9990, 281.0038
253.4811, 279.0924
253.9632, 277.1290
254.4454, 276.3576
254.9275, 277.2152
255.4096, 278.4273
255.8917, 279.7915
256.3738, 281.5771
256.8560, 282.1295
257.3381, 280.9508
257.8202, 278.9658
258.3023, 277.4555
258.7844, 276.3157
259.2665, 275.9438
259.7487, 276.8513
260.2308, 279.4352
260.7129, 280.2495
261.1950, 278.2865
261.6771, 275.6494
262.1592, 275.6579
262.6414, 279.9219
263.1235, 282.6824
263.6056, 281.6332
264.0877, 276.3639
264.5698, 273.5560
265.0519, 274.1136
265.5341, 275.8951
266.0162, 276.2885
266.4983, 274.7239
266.9804, 273.5408
267.4625, 273.4689
267.9446, 274.4857
268.4268, 275.0297
268.9089, 275.0279
269.3910, 274.6671
269.8731, 274.0837
270.3552, 273.2337
270.8373, 272.3185
271.3195, 271.2249
271.8016, 270.0323
272.2837, 269.6301
272.7658, 270.2336
273.2479, 271.1329
273.7300, 271.3964
274.2122, 270.7195
274.6943, 271.4300
275.1764, 274.6223
275.6585, 279.5665
276.1406, 282.2965
276.6227, 282.4806
277.1049, 281.5630
277.5870, 280.7146
278.0691, 280.0006
278.5512, 278.4673
279.0333, 275.5012
279.5154, 271.8481
279.9976, 270.2275
280.4797, 270.9312
280.9618, 272.1514
281.4439, 272.6229
281.9260, 272.3327
282.4081, 272.2336
282.8903, 272.5698
283.3724, 273.0241
283.8545, 272.7304
284.3366, 271.6239
284.8187, 270.4474
285.3008, 269.5989
285.7830, 269.0732
286.2651, 268.9238
286.7472, 269.1988
287.2293, 269.7608
287.7114, 270.4070
288.1935, 271.1358
288.6757, 271.8907
289.1578, 272.7379
289.6399, 273.6158
290.1220, 274.1999
290.6041, 274.4908
291.0862, 274.4373
291.5684, 273.9091
292.0505, 272.9256
292.5326, 271.7157
293.0147, 270.0824
293.4968, 268.2962
293.9789, 267.2481
294.4611, 267.0582
294.9432, 267.0796
295.4253, 266.3506
295.9074, 265.1055
296.3895, 264.3611
296.8716, 264.6184
297.3538, 265.6452
297.8359, 267.3250
298.3180, 269.7238
298.8001, 271.6552
299.2822, 271.6329
299.7643, 270.2482
300.2465, 269.0469
300.7286, 268.6992
301.2107, 268.7491
301.6928, 268.5278
302.1749, 268.0619
302.6570, 267.7271
303.1392, 268.0723
303.6213, 268.7183
304.1034, 268.9647
304.5855, 268.3188
305.0676, 267.5464
305.5497, 267.2697
306.0319, 267.4938
306.5140, 268.2345
306.9961, 270.9315
307.4782, 273.6190
307.9603, 273.6381
308.4424, 269.1412
308.9246, 264.1618
309.4067, 261.4542
309.8888, 260.7306
310.3709, 261.1506
310.8530, 264.0815
311.3351, 266.9622
311.8173, 267.0089
312.2994, 262.5804
312.7815, 259.0579
313.2636, 261.2596
313.7457, 266.4754
314.2278, 269.8520
314.7100, 267.2025
315.1921, 263.5941
315.6742, 262.1385
316.1563, 263.4189
316.6384, 265.1707
317.1205, 267.3728
317.6027, 269.2205
318.0848, 269.6734
318.5669, 266.7549
319.0490, 263.8535
319.5311, 262.3139
320.0132, 262.2377
320.4954, 262.6124
320.9775, 263.9915
321.4596, 265.2947
321.9417, 265.5789
322.4238, 262.8154
322.9059, 260.9201
323.3881, 261.2475
323.8702, 263.6035
324.3523, 265.5082
324.8344, 267.0142
325.3165, 267.7042
325.7986, 267.3516
326.2808, 263.3181
326.7629, 261.3322
327.2450, 263.5086
327.7271, 268.4673
328.2092, 270.7394
328.6913, 267.0286
329.1735, 263.4981
329.6556, 262.7346
330.1377, 267.3029
330.6198, 269.7270
331.1019, 268.9466
331.5840, 266.3320
332.0662, 264.3786
332.5483, 262.9547
333.0304, 262.4043
333.5125, 263.2056
333.9946, 265.9095
334.4767, 267.0005
334.9589, 265.8316
335.4410, 263.6727
335.9231, 261.8975
336.4052, 260.1830
336.8873, 259.8624
337.3694, 261.9981
337.8515, 266.3255
338.3336, 267.9620
338.8158, 266.2029
339.2979, 263.2584
339.7800, 260.8852
340.2621, 259.1018
340.7442, 257.9258
341.2263, 257.4259
341.7085, 257.5258
342.1906, 258.1921
342.6727, 259.5469
343.1548, 260.7445
343.6369, 260.8712
344.1190, 260.0373
344.6012, 260.2947
345.0833, 262.1857
345.5654, 264.6137
346.0475, 265.5778
346.5296, 265.1456
347.0117, 264.4348
347.4939, 263.7525
347.9760, 263.2419
348.4581, 263.5644
348.9402, 264.8881
349.4223, 266.2658
349.9044, 266.3344
350.3866, 265.5051
350.8687, 265.1982
351.3508, 266.9046
351.8329, 269.0781
352.3150, 268.8805
352.7971, 266.3790
353.2793, 263.9413
353.7614, 263.6989
354.2435, 264.6713
354.7256, 265.2187
355.2077, 264.4654
355.6898, 263.6236
356.1720, 264.2666
356.6541, 265.9384
357.1362, 266.6971
357.6183, 263.8395
358.1004, 260.4171
358.5826, 259.4821
359.0647, 262.5805
359.5468, 265.6748
360.0289, 266.2845
360.5110, 265.3807
360.9931, 264.8112
361.4753, 265.4801
361.9574, 266.5231
362.4395, 267.7203
362.9216, 269.1767
363.4037, 269.9452
363.8858, 268.9267
364.3680, 267.4015
364.8501, 266.7153
365.3322, 268.1404
365.8143, 269.4314
366.2964, 270.1078
366.7785, 270.1650
367.2607, 269.8641
367.7428, 268.1358
368.2249, 266.7872
368.7070, 266.9542
369.1891, 270.8891
369.6712, 273.3402
370.1534, 273.7666
370.6355, 272.6017
371.1176, 271.0909
371.5997, 268.4377
372.0818, 266.4541
372.5639, 265.9712
373.0461, 267.5210
373.5282, 268.8451
374.0103, 269.9482
374.4924, 270.8394
374.9745, 271.6870
375.4566, 272.8232
375.9388, 272.8301
376.4209, 270.8561
376.9030, 267.0685
377.3851, 264.6792
377.8672, 263.8889
378.3493, 263.7653
378.8315, 263.3645
379.3136, 262.6727
379.7957, 262.5728
380.2778, 263.2736
380.7599, 264.6203
381.2420, 266.6339
381.7242, 269.2808
382.2063, 271.3900
382.6884, 272.2679
383.1705, 271.9722
383.6526, 270.0864
384.1347, 266.0587
384.6169, 262.5050
385.0990, 263.8887
385.5811, 268.8110
386.0632, 272.6949
386.5453, 272.2125
387.0274, 270.0080
387.5096, 269.8540
387.9917, 271.7770
388.4738, 273.5489
388.9559, 273.2674
389.4380, 271.8273
389.9201, 270.3455
390.4023, 268.7499
390.8844, 267.7309
391.3665, 268.2280
391.8486, 269.8297
392.3307, 271.0033
392.8128, 270.4880
393.2950, 269.6345
393.7771, 269.4060
394.2592, 270.2120
394.7413, 270.9393
395.2234, 271.0208
395.7055, 270.8347
396.1877, 270.9678
396.6698, 272.3543
397.1519, 273.3074
397.6340, 272.9801
398.1161, 271.1153
398.5982, 270.1403
399.0804, 271.0829
399.5625, 272.4524
400.0446, 273.1827
400.5267, 272.9726
401.0088, 272.5513
401.4909, 271.7335
401.9731, 270.7336
402.4552, 270.4449
402.9373, 271.0528
403.4194, 272.0759
403.9015, 273.5840
404.3836, 276.1196
404.8658, 276.7602
405.3479, 274.8328
405.8300, 271.9070
406.3121, 270.2475
406.7942, 269.9578
407.2763, 270.2351
407.7585, 271.1676
408.2406, 272.4908
408.7227, 272.3324
409.2048, 270.4811
409.6869, 268.8864
410.1690, 269.7083
410.6512, 272.4448
411.1333, 274.8032
411.6154, 276.5296
412.0975, 277.3680
412.5796, 276.0825
413.0617, 273.2079
413.5439, 271.3658
414.0260, 273.0667
414.5081, 276.3086
414.9902, 278.3712
415.4723, 279.0497
415.9544, 278.7776
416.4366, 277.3115
416.9187, 275.2433
417.4008, 273.4659
417.8829, 271.5211
418.3650, 270.6263
418.8471, 272.3703
419.3293, 276.2103
419.8114, 279.0211
420.2935, 278.4389
420.7756, 277.0050
421.2577, 276.4532
421.7398, 277.5070
422.2220, 278.5749
422.7041, 279.2876
423.1862, 279.8062
423.6683, 280.4229
424.1504, 282.0449
424.6325, 282.9000
425.1147, 282.1227
425.5968, 279.3956
426.0789, 277.8785
426.5610, 278.2756
427.0431, 279.2409
427.5252, 279.6572
428.0074, 279.1633
428.4895, 279.0181
428.9716, 279.6535
429.4537, 280.6249
429.9358, 280.2707
430.4179, 278.1366
430.9001, 276.2782
431.3822, 275.8369
431.8643, 276.8317
432.3464, 278.0275
432.8285, 279.5354
433.3106, 280.8760
433.7928, 281.2807
434.2749, 280.8589
434.7570, 280.5201
435.2391, 280.5112
435.7212, 280.7837
436.2033, 281.6146
436.6855, 282.8880
437.1676, 283.4908
437.6497, 281.8286
438.1318, 279.2214
438.6139, 277.7233
439.0960, 277.7850
439.5782, 278.5201
440.0603, 279.6925
440.5424, 280.9834
441.0245, 281.7824
441.5066, 281.4622
441.9887, 280.8879
442.4709, 280.4321
442.9530, 280.1212
443.4351, 280.1350
443.9172, 281.0608
444.3993, 282.0266
444.8814, 282.3549
445.3636, 280.8989
445.8457, 280.1932
446.3278, 281.0960
446.8099, 282.9912
447.2920, 284.3882
447.7741, 285.6176
448.2563, 285.9211
448.7384, 284.6319
449.2205, 281.3260
449.7026, 279.7946
450.1847, 280.6788
450.6668, 282.5504
451.1490, 284.2142
451.6311, 285.7089
452.1132, 286.8903
452.5953, 287.8021
453.0774, 288.3537
453.5595, 288.0350
454.0417, 286.7003
454.5238, 285.8482
455.0059, 286.7811
455.4880, 289.0396
455.9701, 290.2598
456.4522, 290.3139
456.9344, 289.6530
457.4165, 288.0728
457.8986, 286.0973
458.3807, 285.4030
458.8628, 287.6850
459.3449, 290.1577
459.8271, 289.0732
460.3092, 285.1640
460.7913, 281.5755
461.2734, 279.8736
461.7555, 279.4611
462.2376, 280.0152
462.7198, 281.6588
463.2019, 283.4541
463.6840, 285.2736
464.1661, 286.8835
464.6482, 288.0004
465.1303, 287.5722
465.6125, 287.6565
466.0946, 289.6108
466.5767, 293.0789
467.0588, 294.5544
467.5409, 292.2425
468.0230, 289.2464
468.5052, 286.8082
468.9873, 284.8542
469.4694, 283.6530
469.9515, 283.2582
470.4336, 283.5699
470.9157, 284.7515
471.3979, 287.3404
471.8800, 288.8647
472.3621, 288.3081
472.8442, 286.2280
473.3263, 285.5026
473.8084, 286.3299
474.2906, 286.9721
474.7727, 285.3803
475.2548, 282.2809
475.7369, 281.4362
476.2190, 283.5164
476.7011, 286.7122
477.1833, 289.4688
477.6654, 291.6552
478.1475, 292.9058
478.6296, 292.4731
479.1117, 291.4473
479.5938, 290.8470
480.0760, 290.6340
480.5581, 290.5612
481.0402, 290.6880
481.5223, 290.7739
482.0044, 290.4568
482.4865, 289.2271
482.9687, 288.8227
483.4508, 291.2321
483.9329, 294.4601
484.4150, 295.6369
484.8971, 291.3493
485.3792, 288.0420
485.8614, 287.7523
486.3435, 290.2178
486.8256, 291.6569
487.3077, 291.5056
487.7898, 290.9769
488.2719, 290.5703
488.7541, 290.0317
489.2362, 290.6750
489.7183, 293.2066
490.2004, 295.9949
490.6825, 296.1755
491.1646, 293.4175
491.6468, 291.4534
492.1289, 291.7195
492.6110, 293.3630
493.0931, 293.7481
493.5752, 292.8925
494.0573, 292.1224
494.5395, 292.4747
495.0216, 293.5795
495.5037, 294.8779
495.9858, 296.4017
496.4679, 297.4235
496.9500, 296.5888
497.4322, 294.8973
497.9143, 294.0226
498.3964, 295.8286
498.8785, 297.5554
499.3606, 297.4273
499.8427, 295.7816
500.3249, 294.2199
500.8070, 292.1126
501.2891, 291.1440
501.7712, 292.7279
502.2533, 298.6291
502.7354, 302.3963
503.2176, 301.8378
503.6997, 299.7831
504.1818, 299.1811
504.6639, 301.5132
505.1460, 302.4524
505.6281, 300.8188
506.1103, 297.4069
506.5924, 295.4674
507.0745, 295.3297
507.5566, 295.4882
508.0387, 295.0361
508.5208, 294.0355
509.0030, 294.0537
509.4851, 295.3044
509.9672, 296.3738
510.4493, 295.0432
510.9314, 292.1641
511.4135, 290.6737
511.8957, 291.5771
512.3778, 293.7303
512.8599, 296.6688
513.3420, 299.9061
513.8242, 302.0009
514.3063, 301.6078
514.7884, 300.2347
515.2705, 298.7988
515.7526, 297.3687
516.2347, 296.3491
516.7169, 296.0908
517.1990, 296.1927
517.6811, 296.3206
518.1632, 295.4990
518.6453, 295.9474
519.1274, 299.4260
519.6096, 304.0313
520.0917, 306.1793
520.5738, 304.6562
521.0559, 302.6479
521.5380, 300.7308
522.0201, 298.9336
522.5023, 297.7142
522.9844, 297.0305
523.4665, 297.0546
523.9486, 298.3312
524.4307, 300.7683
524.9128, 302.2175
525.3950, 302.3896
525.8771, 301.9372
526.3592, 301.5252
526.8413, 301.1748
527.3234, 300.9295
527.8055, 300.5899
528.2877, 300.5700
528.7698, 301.9645
529.2519, 304.3090
529.7340, 305.6873
530.2161, 304.1984
530.6982, 301.8831
531.1804, 300.1681
531.6625, 299.2981
532.1446, 298.7963
532.6267, 298.4343
533.1088, 298.4221
533.5909, 298.9583
534.0731, 301.3055
534.5552, 302.6560
535.0373, 302.2193
535.5194, 300.7556
536.0015, 300.1455
536.4836, 300.5520
536.9658, 301.5377
537.4479, 303.3459
537.9300, 305.8709
538.4121, 306.4417
538.8942, 304.5997
539.3763, 302.6943
539.8585, 303.1695
540.3406, 305.5095
540.8227, 306.5412
541.3048, 305.5850
541.7869, 304.2917
542.2690, 305.3480
542.7512, 307.7171
543.2333, 308.7733
543.7154, 305.5316
544.1975, 302.1209
544.6796, 302.5425
545.1617, 305.9669
545.6439, 308.7297
546.1260, 308.5717
546.6081, 307.6989
547.0902, 307.3005
547.5723, 307.5299
548.0544, 308.1666
548.5366, 310.2635
549.0187, 312.1359
549.5008, 312.2385
549.9829, 309.2570
550.4650, 306.9000
550.9471, 305.5823
551.4293, 305.0111
551.9114, 304.3796
552.3935, 303.5431
552.8756, 303.3818
553.3577, 304.5305
553.8398, 306.6259
554.3220, 307.9161
554.8041, 308.3834
555.2862, 308.6983
555.7683, 309.4218
556.2504, 310.3672
556.7325, 311.2925
557.2147, 312.2479
557.6968, 312.7181
558.1789, 311.5744
558.6610, 309.8326
559.1431, 309.0027
559.6252, 310.9636
560.1074, 312.5585
560.5895, 311.5051
561.0716, 308.8982
561.5537, 308.4122
562.0358, 314.1477
562.5179, 318.8471
563.0001, 319.5994
563.4822, 315.9986
563.9643, 312.8460
564.4464, 309.8677
564.9285, 307.7249
565.4106, 307.2009
565.8928, 308.6505
566.3749, 309.1949
566.8570, 308.2705
567.3391, 307.1526
567.8212, 308.2567
568.3033, 311.2303
568.7855, 313.4165
569.2676, 313.9423
569.7497, 313.1874
570.2318, 310.7526
570.7139, 307.2297
571.1960, 305.0085
571.6782, 306.5991
572.1603, 309.3616
572.6424, 311.3522
573.1245, 312.4127
573.6066, 312.7326
574.0887, 311.4883
574.5709, 310.0789
575.0530, 309.5937
575.5351, 310.9006
576.0172, 312.0888
576.4993, 312.9526
576.9814, 313.7437
577.4636, 315.0609
577.9457, 317.5967
578.4278, 318.6533
578.9099, 316.8160
579.3920, 313.2564
579.8741, 313.0347
580.3563, 316.4283
580.8384, 319.4150
581.3205, 318.5779
581.8026, 315.5271
582.2847, 315.7039
582.7668, 319.3386
583.2490, 322.1379
583.7311, 318.7146
584.2131, 312.9863
584.6953, 310.2674
585.1774, 313.0124
585.6595, 316.0493
586.1416, 316.7159
586.6237, 315.9623
587.1058, 315.2441
587.5880, 314.0683
588.0701, 313.8758
588.5522, 315.5061
589.0343, 318.5268
589.5164, 321.2045
589.9985, 324.4630
590.4807, 325.7492
590.9628, 323.1134
591.4449, 316.4187
591.9270, 313.1753
592.4091, 313.9017
592.8912, 315.8402
593.3734, 316.8968
593.8555, 317.1121
594.3376, 316.2740
594.8197, 313.9580
595.3018, 312.2545
595.7839, 314.3834
596.2661, 318.6965
596.7482, 322.0385
597.2303, 323.2523
597.7124, 323.1037
598.1945, 320.8339
598.6766, 317.4288
599.1588, 315.7838
599.6409, 318.8224
600.1230, 321.8456
600.6051, 322.9661
601.0872, 322.0367
601.5693, 321.0821
602.0515, 319.7238
602.5336, 318.8608
603.0157, 319.3189
603.4978, 321.4791
603.9799, 322.4649
604.4620, 321.9590
604.9442, 320.9590
605.4263, 320.7503
605.9084, 321.1978
606.3905, 321.5574
606.8726, 321.6971
607.3547, 321.5945
607.8369, 320.7008
608.3190, 319.5132
608.8011, 319.2755
609.2832, 322.0491
609.7653, 324.7094
610.2474, 325.2514
610.7296, 323.8243
611.2117, 321.9518
611.6938, 318.1915
612.1759, 315.6381
612.6580, 316.3834
613.1401, 321.6397
613.6223, 324.7441
614.1044, 324.9392
614.5865, 323.9733
615.0686, 323.0859
615.5507, 322.1978
616.0328, 322.2585
616.5150, 323.6253
616.9971, 325.3417
617.4792, 326.1791
617.9613, 326.1656
618.4434, 325.3649
618.9255, 323.5417
619.4077, 321.2781
619.8898, 318.2909
620.3719, 315.2498
620.8540, 314.2055
621.3361, 317.9474
621.8182, 322.4669
622.3004, 325.9381
622.7825, 328.2308
623.2646, 329.2033
623.7467, 327.8922
624.2288, 325.9715
624.7109, 324.0699
625.1931, 321.7653
625.6752, 321.0605
626.1573, 322.4980
626.6394, 324.6073
627.1215, 325.8271
627.6036, 326.1391
628.0858, 326.6646
628.5679, 327.6359
629.0500, 328.7192
629.5321, 329.6923
630.0142, 330.3984
630.4963, 330.2713
630.9785, 328.2903
631.4606, 326.1840
631.9427, 326.0256
632.4248, 327.0922
632.9069, 327.0649
633.3890, 322.9893
633.8712, 319.4208
634.3533, 318.6736
634.8354, 321.0683
635.3175, 323.2225
635.7996, 325.4860
636.2817, 326.9438
636.7639, 326.6454
637.2460, 323.7819
637.7281, 323.6292
638.2102, 326.8808
638.6923, 330.8458
639.1744, 332.3957
639.6566, 331.9113
640.1387, 331.9059
640.6208, 333.0856
641.1029, 334.0963
641.5850, 332.8953
642.0671, 330.4101
642.5493, 328.4715
643.0314, 328.0467
643.5135, 328.1831
643.9956, 328.4557
644.4777, 328.9165
644.9598, 329.7195
645.4420, 331.7492
645.9241, 333.2446
646.4062, 333.6914
646.8883, 333.1185
647.3704, 331.8471
647.8525, 329.3163
648.3347, 327.3426
648.8168, 327.3625
649.2989, 329.2933
649.7810, 330.4114
650.2631, 330.6366
650.7452, 330.5924
651.2274, 331.1046
651.7095, 331.7431
652.1916, 331.3303
652.6737, 329.2516
653.1558, 327.7124
653.6379, 328.8355
654.1201, 331.2948
654.6022, 333.3454
655.0843, 334.8879
655.5664, 335.4895
656.0485, 334.5291
656.5306, 332.5861
657.0128, 330.8804
657.4949, 328.9074
657.9770, 328.2418
658.4591, 329.9239
658.9412, 333.1208
659.4233, 333.7698
659.9055, 331.6240
660.3876, 329.6761
660.8697, 329.9110
661.3518, 331.4810
661.8339, 332.3133
662.3160, 332.4331
662.7982, 332.4114
663.2803, 332.3779
663.7624, 332.5654
664.2445, 333.2991
664.7266, 334.7245
665.2087, 336.0475
665.6909, 337.0319
666.1730, 337.7856
666.6551, 338.4409
667.1372, 339.9538
667.6193, 339.5521
668.1014, 336.0963
668.5836, 331.8919
669.0657, 330.0418
669.5478, 330.6606
670.0299, 332.7220
670.5120, 336.6576
670.9941, 340.8022
671.4763, 341.8312
671.9584, 340.3870
672.4405, 338.9964
672.9226, 339.4130
673.4047, 339.8568
673.8868, 338.1120
674.3690, 334.9424
674.8511, 333.0021
675.3332, 334.5241
675.8153, 336.3713
676.2974, 337.1472
676.7795, 336.7560
677.2617, 336.6839
677.7438, 337.1658
678.2259, 337.6023
678.7080, 337.6008
679.1901, 337.1126
679.6722, 337.2235
680.1544, 338.1141
680.6365, 338.5581
681.1186, 336.5895
681.6007, 333.3550
682.0828, 331.8270
682.5649, 332.5751
683.0471, 334.2534
683.5292, 336.4138
684.0113, 338.5841
684.4934, 340.1379
684.9755, 340.6591
685.4576, 340.9633
685.9398, 341.3858
686.4219, 341.6635
686.9040, 341.3282
687.3861, 339.7735
687.8682, 338.8377
688.3503, 338.8987
688.8325, 339.6930
689.3146, 340.6126
689.7967, 341.6572
690.2788, 342.8027
690.7609, 344.2588
691.2430, 345.6353
691.7252, 346.1597
692.2073, 345.9567
692.6894, 345.5632
693.1715, 344.8709
693.6536, 344.4272
694.1357, 344.9219
694.6179, 346.3112
695.1000, 347.0727
695.5821, 346.1815
696.0642, 345.1365
696.5463, 344.3820
697.0284, 343.7132
697.5106, 344.9792
697.9927, 348.9090
698.4748, 353.0860
698.9569, 354.5520
699.4390, 353.9524
699.9211, 356.8555
700.4033, 363.8491
700.8854, 372.8503
701.3675, 380.1451
701.8496, 388.5400
702.3317, 403.6069
702.8138, 429.6471
703.2960, 454.0169
703.7781, 470.2706
704.2602, 481.2747
704.7423, 490.5363
705.2244, 496.4696
705.7065, 503.2567
706.1887, 509.6781
706.6708, 517.9149
707.1529, 531.6381
707.6350, 550.4873
708.1171, 577.0548
708.5992, 612.4362
709.0814, 655.4576
709.5635, 708.9858
710.0456, 770.4687
710.5277, 826.6047
711.0098, 866.5241
711.4919, 901.6061
711.9741, 935.9930
712.4562, 972.3270
712.9383, 1022.056
713.4204, 1082.296
713.9025, 1163.776
714.3846, 1290.879
714.8668, 1459.896
715.3489, 1580.203
715.8310, 1673.467
716.3131, 1675.838
716.7952, 1524.560
717.2773, 1234.081
717.7595, 982.4567
718.2416, 770.4976
718.7237, 606.1469
719.2058, 510.7053
719.6879, 461.0936
720.1700, 426.5471
720.6522, 403.9489
721.1343, 388.5543
721.6164, 380.6743
722.0985, 376.6477
722.5806, 373.3430
723.0627, 370.1257
723.5449, 368.3155
724.0270, 369.0716
724.5091, 370.1515
724.9912, 369.3692
725.4733, 366.3600
725.9554, 363.4588
726.4376, 360.7934
726.9197, 358.4728
727.4018, 356.7023
727.8839, 355.4360
728.3660, 354.5351
728.8481, 353.9595
729.3303, 353.7255
729.8124, 354.1787
730.2945, 354.8954
730.7766, 355.2251
731.2587, 355.3884
731.7408, 354.6649
732.2230, 351.8264
732.7051, 348.2451
733.1872, 346.6022
733.6693, 347.5877
734.1514, 348.5657
734.6335, 348.9096
735.1157, 348.8796
735.5978, 349.0030
736.0799, 349.3070
736.5620, 350.0370
737.0441, 352.1925
737.5262, 354.1212
738.0084, 353.4690
738.4905, 350.8998
738.9726, 348.6702
739.4547, 347.1467
739.9368, 346.7547
740.4189, 348.4235
740.9011, 351.9470
741.3832, 353.7285
741.8653, 352.7594
742.3474, 351.9301
742.8295, 352.8439
743.3116, 355.0803
743.7938, 354.6365
744.2759, 351.4151
744.7580, 348.6479
745.2401, 349.2529
745.7222, 351.4563
746.2043, 352.5043
746.6865, 352.3358
747.1686, 352.1822
747.6507, 353.3802
748.1328, 354.3456
748.6149, 353.5237
749.0970, 349.9950
749.5792, 348.9440
750.0613, 352.3587
750.5434, 355.9295
751.0255, 356.6911
751.5076, 354.3213
751.9897, 352.8304
752.4719, 352.2869
752.9540, 352.4079
753.4361, 353.6833
753.9182, 355.2386
754.4003, 354.8932
754.8824, 352.0758
755.3646, 349.7413
755.8467, 350.7392
756.3288, 352.6569
756.8109, 353.1157
757.2930, 350.5212
757.7751, 349.0150
758.2573, 349.1678
758.7394, 350.1386
759.2215, 351.2739
759.7036, 352.6644
760.1857, 353.5848
760.6678, 353.8729
761.1500, 353.9883
761.6321, 354.4271
762.1142, 355.1447
762.5963, 356.1464
763.0784, 357.6400
763.5605, 358.7963
764.0427, 359.2105
764.5248, 358.8724
765.0069, 357.7701
765.4890, 354.0517
765.9711, 352.0964
766.4532, 352.9301
766.9354, 355.1108
767.4175, 356.6971
767.8996, 357.6940
768.3817, 357.9924
768.8638, 357.3939
769.3459, 356.5325
769.8281, 356.5333
770.3102, 357.1209
770.7923, 357.4518
771.2744, 356.9969
771.7565, 356.5774
772.2386, 356.7054
772.7208, 357.2618
773.2029, 358.0402
773.6850, 359.5743
774.1671, 360.5618
774.6492, 360.5897
775.1313, 360.0845
775.6135, 360.0516
776.0956, 360.6150
776.5777, 360.5702
777.0598, 359.0841
777.5419, 357.6024
778.0240, 359.3952
778.5062, 363.4728
778.9883, 366.7729
779.4704, 368.6500
779.9525, 368.5445
780.4346, 364.2877
780.9167, 357.8105
781.3989, 353.8047
781.8810, 355.4175
782.3631, 356.9202
782.8452, 357.1323
783.3273, 356.6233
783.8094, 357.2653
784.2916, 359.2139
784.7737, 360.7626
785.2558, 361.1938
785.7379, 361.0235
786.2200, 360.7933
786.7021, 360.7118
787.1843, 361.4733
787.6664, 365.1535
788.1485, 368.0995
788.6306, 367.3943
789.1127, 364.1002
789.5948, 362.3789
790.0770, 364.5301
790.5591, 365.3558
791.0412, 362.8010
791.5233, 358.3063
792.0054, 357.3813
792.4875, 360.0978
792.9697, 363.1638
793.4518, 365.3051
793.9339, 366.7764
794.4160, 367.9921
794.8981, 368.8583
795.3802, 369.0676
795.8624, 368.5111
796.3445, 367.2281
796.8266, 364.5728
797.3087, 361.0308
797.7908, 358.8801
798.2729, 358.5024
798.7551, 358.9162
799.2372, 359.9517
799.7193, 361.5266
800.2014, 363.7943
800.6835, 366.6353
801.1656, 368.3931
801.6478, 366.8847
802.1299, 364.8506
802.6120, 366.5173
803.0941, 370.5235
803.5762, 372.5380
804.0583, 368.3069
804.5405, 364.3078
805.0226, 363.0376
805.5047, 364.0186
805.9868, 365.7009
806.4689, 368.4340
806.9510, 370.7238
807.4332, 372.0312
807.9153, 372.5639
808.3974, 372.9313
808.8795, 373.0666
809.3616, 372.5786
809.8438, 370.7534
810.3259, 368.6681
810.8080, 366.6905
811.2901, 365.1251
811.7722, 364.8631
812.2543, 366.9614
812.7365, 369.5834
813.2186, 373.2724
813.7007, 377.0113
814.1828, 376.3265
814.6649, 370.5320
815.1470, 365.6504
815.6292, 363.9171
816.1113, 364.4609
816.5934, 366.2151
817.0755, 368.9698
817.5576, 371.9978
818.0397, 376.5453
818.5219, 379.6606
819.0040, 378.6960
819.4861, 374.9742
819.9682, 372.8765
820.4503, 373.3676
820.9324, 374.2923
821.4146, 375.4593
821.8967, 376.5807
822.3788, 376.6694
822.8609, 375.8030
823.3430, 375.1883
823.8251, 375.4512
824.3073, 375.9313
824.7894, 376.1028
825.2715, 375.8609
825.7536, 374.9861
826.2357, 371.8608
826.7178, 369.8492
827.2000, 371.1122
827.6821, 373.8246
828.1642, 374.4383
828.6463, 372.1717
829.1284, 370.6863
829.6105, 370.9526
830.0927, 371.9570
830.5748, 371.7586
831.0569, 370.7027
831.5390, 369.9321
832.0211, 369.6409
832.5032, 370.0788
832.9854, 372.2241
833.4675, 374.9781
833.9496, 376.6245
834.4317, 375.2564
834.9138, 375.0237
835.3959, 377.0604
835.8781, 379.5045
836.3602, 379.1509
836.8423, 376.0114
837.3244, 373.3834
837.8065, 371.8429
838.2886, 371.1693
838.7708, 371.4534
839.2529, 372.3188
839.7350, 373.1787
840.2171, 373.9761
840.6992, 374.5346
841.1813, 374.8154
841.6635, 374.8109
842.1456, 374.4035
842.6277, 373.1527
843.1098, 372.9424
843.5919, 374.0343
844.0740, 375.7522
844.5562, 377.9293
845.0383, 380.0642
845.5204, 380.2567
846.0025, 377.9481
846.4846, 375.6891
846.9667, 375.4154
847.4489, 376.0095
847.9310, 376.4350
848.4131, 376.4170
848.8952, 376.5923
849.3773, 377.1046
849.8594, 377.6323
850.3416, 377.6016
850.8237, 377.0599
851.3058, 378.6628
851.7879, 382.7051
852.2700, 385.8622
852.7521, 384.2686
853.2343, 380.9007
853.7164, 379.3659
854.1985, 380.1122
854.6806, 380.7540
855.1627, 380.6501
855.6448, 380.0743
856.1270, 378.9987
856.6091, 377.3919
857.0912, 376.4759
857.5733, 376.2571
858.0554, 376.7143
858.5375, 378.3834
859.0197, 380.5536
859.5018, 381.8249
859.9839, 382.1876
860.4660, 381.7051
860.9481, 379.6298
861.4302, 377.4375
861.9124, 375.1211
862.3945, 373.0933
862.8766, 374.4429
863.3587, 381.2142
863.8408, 386.5773
864.3229, 388.0840
864.8051, 386.5746
865.2872, 383.6124
865.7693, 379.5370
866.2514, 376.4817
866.7335, 376.0674
867.2156, 376.5361
867.6978, 376.4081
868.1799, 376.1543
868.6620, 376.8593
869.1441, 380.7144
869.6262, 382.9035
870.1083, 382.2154
870.5905, 379.9772
871.0726, 378.9225
871.5547, 378.9987
872.0368, 378.3909
872.5189, 376.0898
873.0010, 374.5003
873.4832, 377.8715
873.9653, 383.4468
874.4474, 386.6158
874.9295, 384.6043
875.4116, 382.7210
875.8937, 382.0094
876.3759, 382.0867
876.8580, 382.9263
877.3401, 384.8810
877.8222, 385.3625
878.3043, 383.9289
878.7864, 382.1695
879.2686, 381.7531
879.7507, 382.2067
880.2328, 382.5495
880.7149, 382.5630
881.1970, 383.3003
881.6791, 387.5131
882.1613, 390.8835
882.6434, 389.5470
883.1255, 382.4504
883.6076, 379.1949
884.0897, 380.6822
884.5718, 383.1102
885.0540, 383.8811
885.5361, 383.5888
886.0182, 384.3718
886.5003, 386.0542
886.9824, 387.0669
887.4645, 385.4483
887.9467, 383.7546
888.4288, 383.7704
888.9109, 385.3840
889.3930, 386.5001
889.8751, 386.9455
890.3572, 387.0338
890.8394, 386.5276
891.3215, 385.9803
891.8036, 387.5889
892.2857, 390.8467
892.7678, 393.0371
893.2499, 392.0516
893.7321, 390.6458
894.2142, 391.1840
894.6963, 392.7143
895.1784, 393.4059
895.6605, 392.9865
896.1426, 391.4134
896.6248, 387.7790
897.1069, 384.0287
897.5890, 383.5301
898.0711, 385.9272
898.5532, 387.7588
899.0353, 388.3517
899.5175, 388.5611
899.9996, 388.8096
900.4817, 389.3417
900.9638, 390.6849
901.4459, 393.8098
901.9280, 395.0847
902.4102, 392.9187
902.8923, 390.3532
903.3744, 389.4527
903.8565, 390.2350
904.3386, 391.6290
904.8207, 393.6432
905.3029, 395.2539
905.7850, 394.6359
906.2671, 393.8206
906.7492, 395.9099
907.2313, 400.6877
907.7134, 403.4261
908.1956, 401.1691
908.6777, 398.3140
909.1598, 396.3210
909.6419, 394.9098
910.1240, 392.0875
910.6061, 387.8079
911.0883, 385.4832
911.5704, 387.3580
912.0525, 391.0569
912.5346, 394.1508
913.0167, 396.6530
913.4988, 398.5916
913.9810, 400.3945
914.4631, 401.0322
914.9452, 399.4230
915.4273, 397.1688
915.9094, 396.8957
916.3915, 398.8469
916.8737, 399.2796
917.3558, 397.3516
917.8379, 395.2690
918.3200, 396.0362
918.8021, 398.0651
919.2842, 398.8838
919.7664, 397.6827
920.2485, 396.8543
920.7306, 397.8874
921.2127, 398.8384
921.6948, 398.2129
922.1769, 395.7832
922.6591, 395.5930
923.1412, 397.8718
923.6233, 400.0897
924.1054, 400.3388
924.5875, 399.5430
925.0696, 398.8996
925.5518, 398.4117
926.0339, 397.8574
926.5160, 396.8978
926.9981, 396.1625
927.4802, 395.9440
927.9623, 396.0768
928.4445, 395.7139
928.9266, 394.6951
929.4087, 395.5257
929.8908, 399.8103
930.3729, 404.5376
930.8550, 405.6077
931.3372, 404.2026
931.8193, 402.3248
932.3014, 399.7691
932.7835, 398.1587
933.2656, 398.7470
933.7477, 399.7621
934.2299, 399.3906
934.7120, 397.3698
935.1941, 396.6776
935.6762, 397.5625
936.1583, 398.9030
936.6404, 399.4672
937.1226, 399.9553
937.6047, 401.6038
938.0868, 404.5096
938.5689, 406.6430
939.0510, 407.7534
939.5331, 407.3496
940.0153, 404.2726
940.4974, 399.3357
940.9795, 399.0636
941.4616, 403.5440
941.9437, 406.5551
942.4258, 404.0130
942.9080, 399.9142
943.3901, 398.7838
943.8722, 399.8214
944.3543, 401.3096
944.8364, 404.2072
945.3185, 405.3726
945.8007, 403.1361
946.2828, 400.2165
946.7649, 400.8211
947.2470, 404.8247
947.7291, 407.0400
948.2112, 406.6422
948.6934, 405.4970
949.1755, 404.6041
949.6576, 404.3692
950.1397, 405.8107
950.6218, 409.6779
951.1039, 411.0091
951.5861, 407.7126
952.0682, 403.9651
952.5503, 401.3315
953.0324, 399.9451
953.5145, 401.8443
953.9966, 406.6500
954.4788, 409.8573
954.9609, 406.1568
955.4430, 402.3355
955.9251, 405.3500
956.4072, 412.4922
956.8893, 416.3571
957.3715, 413.7314
957.8536, 411.3859
958.3357, 410.0158
958.8178, 409.5139
959.2999, 409.7232
959.7820, 410.6654
960.2642, 412.7598
960.7463, 416.4075
961.2284, 419.3750
961.7105, 419.6326
962.1926, 418.7847
962.6747, 418.2044
963.1569, 418.0930
963.6390, 417.8036
964.1211, 417.1519
964.6032, 416.8261
965.0853, 417.7266
965.5674, 419.1600
966.0496, 418.9161
966.5317, 417.2623
967.0138, 415.4531
967.4959, 413.6747
967.9780, 412.4226
968.4601, 412.1780
968.9423, 412.6295
969.4244, 412.9452
969.9065, 412.8468
970.3886, 414.0374
970.8707, 417.1869
971.3528, 420.6100
971.8350, 422.2900
972.3171, 422.5719
972.7992, 421.8541
973.2813, 419.8625
973.7634, 418.5563
974.2455, 419.5033
974.7277, 420.5991
975.2098, 420.3209
975.6919, 418.6323
976.1740, 418.7679
976.6561, 420.8266
977.1382, 422.5219
977.6204, 421.6171
978.1025, 420.1714
978.5846, 421.1275
979.0667, 423.6447
979.5488, 425.2158
980.0309, 423.2045
980.5131, 422.7892
980.9952, 425.6882
981.4773, 429.5898
981.9594, 430.2779
982.4415, 428.1810
982.9236, 426.8293
983.4058, 426.8622
983.8879, 427.6943
984.3700, 430.1327
984.8521, 432.2946
985.3342, 431.9832
985.8163, 428.1188
986.2985, 426.2535
986.7806, 427.3711
987.2627, 428.3156
987.7448, 427.0823
988.2269, 424.5841
988.7090, 423.3425
989.1912, 423.3132
989.6733, 424.2971
990.1554, 427.1359
990.6375, 429.9635
991.1196, 432.2337
991.6017, 433.7448
992.0839, 434.0583
992.5660, 432.8758
993.0481, 431.8015
993.5302, 431.0098
994.0123, 430.3431
994.4944, 429.5759
994.9766, 428.8226
995.4587, 428.2130
995.9408, 427.7530
996.4229, 427.6219
996.9050, 428.1074
997.3871, 428.6988
997.8693, 429.2384
998.3514, 429.7009
998.8335, 429.7241
999.3156, 429.3595
999.7977, 429.5299
1000.280, 430.9097
1000.762, 432.6460
1001.244, 434.3389
1001.726, 435.7433
1002.208, 436.4414
1002.690, 436.1415
1003.173, 435.3996
1003.655, 433.9019
1004.137, 432.6435
1004.619, 432.8941
1005.101, 434.2411
1005.583, 435.3232
1006.065, 436.0545
1006.547, 436.4824
1007.029, 436.0831
1007.512, 435.8974
1007.994, 436.9622
1008.476, 438.8282
1008.958, 439.0890
1009.440, 437.2319
1009.922, 437.3004
1010.404, 441.5430
1010.886, 445.9976
1011.369, 444.0103
1011.851, 438.7095
1012.333, 435.4874
1012.815, 436.6337
1013.297, 437.6478
1013.779, 437.5103
1014.261, 437.2734
1014.743, 437.7455
1015.225, 438.8822
1015.708, 439.5269
1016.190, 439.7201
1016.672, 440.0919
1017.154, 440.9318
1017.636, 442.2044
1018.118, 444.4403
1018.600, 447.0860
1019.082, 448.2673
1019.565, 446.8555
1020.047, 446.8235
1020.529, 449.0489
1021.011, 452.2241
1021.493, 454.6594
1021.975, 456.6845
1022.457, 458.9675
1022.939, 461.6165
1023.421, 464.5333
1023.904, 467.8759
1024.386, 471.2736
1024.868, 474.4299
1025.350, 477.4553
1025.832, 481.4326
1026.314, 486.3586
1026.796, 491.6854
1027.278, 497.1923
1027.760, 502.9869
1028.243, 507.2590
1028.725, 512.4539
1029.207, 522.8033
1029.689, 544.5622
1030.171, 563.5137
1030.653, 582.3284
1031.135, 592.4102
1031.617, 579.7455
1032.100, 552.3478
1032.582, 531.7756
1033.064, 519.1033
1033.546, 512.0348
1034.028, 508.7396
1034.510, 511.3019
1034.992, 521.1172
1035.474, 537.4628
1035.957, 557.3658
1036.439, 580.6365
1036.921, 611.9242
1037.403, 648.6341
1037.885, 707.4767
1038.367, 792.9369
1038.849, 919.0378
1039.331, 1105.644
1039.813, 1372.238
1040.296, 1652.436
1040.778, 1969.553
1041.260, 2240.792
1041.742, 2399.422
1042.224, 2482.315
1042.706, 2592.995
1043.188, 2731.875
1043.670, 2907.679
1044.152, 3084.732
1044.635, 3343.664
1045.117, 3661.068
1045.599, 4115.232
1046.081, 4826.455
1046.563, 5836.558
1047.045, 6852.238
1047.527, 7857.108
1048.009, 8849.354
1048.492, 9492.775
1048.974, 10342.23
1049.456, 12326.90
1049.938, 15335.64
1050.420, 17554.46
1050.902, 19541.13
1051.384, 19265.98
1051.866, 15613.90
1052.349, 10382.48
1052.831, 6614.442
1053.313, 4119.211
1053.795, 2455.067
1054.277, 1652.948
1054.759, 1174.942
1055.241, 933.6638
1055.723, 806.6854
1056.205, 720.6821
1056.688, 674.8107
1057.170, 636.5385
1057.652, 605.7595
1058.134, 581.1046
1058.616, 562.8868
1059.098, 548.8909
1059.580, 538.8431
1060.062, 531.1163
1060.544, 522.5295
1061.027, 510.2356
1061.509, 502.3266
1061.991, 500.1943
1062.473, 499.4121
1062.955, 495.5096
1063.437, 489.8629
1063.919, 485.2494
1064.401, 481.8294
1064.884, 479.0917
1065.366, 477.9188
1065.848, 476.0139
1066.330, 471.9114
1066.812, 467.2305
1067.294, 466.0636
1067.776, 468.0497
1068.258, 469.3443
1068.740, 469.1651
1069.223, 468.1144
1069.705, 466.1978
1070.187, 463.9637
1070.669, 461.8025
1071.151, 459.7289
1071.633, 457.8584
1072.115, 456.1610
1072.597, 454.7230
1073.079, 453.5238
1073.562, 452.6761
1074.044, 452.4715
1074.526, 452.7081
1075.008, 453.0271
1075.490, 453.6009
1075.972, 453.7177
1076.454, 453.1825
1076.936, 452.4562
1077.419, 451.9763
1077.901, 451.6222
1078.383, 450.5680
1078.865, 448.9571
1079.347, 447.8773
1079.829, 448.5382
1080.311, 449.1837
1080.793, 448.3071
1081.275, 447.2396
1081.758, 448.8666
1082.240, 453.5150
1082.722, 454.4246
1083.204, 450.4535
1083.686, 445.8178
1084.168, 443.2745
1084.650, 442.4755
1085.132, 443.9478
1085.615, 447.4911
1086.097, 448.8315
1086.579, 447.1034
1087.061, 445.5832
1087.543, 445.2079
1088.025, 445.5267
1088.507, 446.4456
1088.989, 447.3682
1089.471, 446.9138
1089.953, 444.0667
1090.436, 442.6361
1090.918, 444.6883
1091.400, 446.5865
1091.882, 446.0005
1092.364, 443.8108
1092.846, 444.4674
1093.328, 447.3817
1093.810, 449.8254
1094.293, 450.8692
1094.775, 450.7089
1095.257, 448.1190
1095.739, 445.2240
1096.221, 444.2401
1096.703, 445.2961
1097.185, 447.8793
1097.667, 452.0737
1098.150, 454.7782
1098.632, 452.0153
1099.114, 448.2019
1099.596, 446.9412
1100.078, 447.7909
1100.560, 448.9657
1101.042, 450.3518
1101.524, 452.0731
1102.006, 454.4065
1102.489, 456.1935
1102.971, 455.8409
1103.453, 454.2678
1103.935, 452.7260
1104.417, 451.3443
1104.899, 450.2448
1105.381, 449.4765
1105.863, 448.9641
1106.345, 448.7086
1106.828, 448.6872
1107.310, 449.1871
1107.792, 449.8813
1108.274, 449.4466
1108.756, 447.1221
1109.238, 445.8214
1109.720, 447.9937
1110.202, 450.6077
1110.685, 451.9581
1111.167, 452.2133
1111.649, 452.6749
1112.131, 453.2625
1112.613, 453.1300
1113.095, 451.5740
1113.577, 449.7855
1114.059, 447.8967
1114.542, 446.7005
1115.024, 447.3744
1115.506, 450.5980
1115.988, 451.8617
1116.470, 450.9435
1116.952, 450.2895
1117.434, 452.3569
1117.916, 454.8871
1118.398, 455.2391
1118.880, 454.1269
1119.363, 453.3082
1119.845, 453.0338
1120.327, 453.0029
1120.809, 453.1134
1121.291, 453.7266
1121.773, 455.8230
1122.255, 458.3818
1122.737, 459.6662
1123.220, 459.6585
1123.702, 458.9666
1124.184, 457.8687
1124.666, 455.6807
1125.148, 451.3251
1125.630, 447.2357
1126.112, 448.3310
1126.594, 452.8706
1127.077, 455.2838
1127.559, 454.7211
1128.041, 454.3754
1128.523, 456.2289
1129.005, 458.2703
1129.487, 460.1552
1129.969, 461.3197
1130.451, 458.5727
1130.933, 452.7992
1131.416, 451.5398
1131.898, 457.9925
1132.380, 464.1422
1132.862, 464.1358
1133.344, 461.9514
1133.826, 460.4699
1134.308, 459.7585
1134.790, 460.0258
1135.272, 461.3070
1135.755, 461.8172
1136.237, 460.4940
1136.719, 458.7217
1137.201, 457.3600
1137.683, 456.5543
1138.165, 456.7663
1138.647, 458.5175
1139.129, 458.5168
1139.612, 456.3747
1140.094, 455.1175
1140.576, 458.2239
1141.058, 461.9691
1141.540, 460.4245
1142.022, 456.1011
1142.504, 454.4025
1142.986, 458.2122
1143.469, 461.2663
1143.951, 463.5562
1144.433, 464.7368
1144.915, 464.2083
1145.397, 462.5362
1145.879, 459.9506
1146.361, 457.0160
1146.843, 455.8439
1147.325, 458.9062
1147.807, 461.2787
1148.290, 462.3742
1148.772, 462.5688
1149.254, 461.9685
1149.736, 460.9081
1150.218, 459.8903
1150.700, 459.0584
1151.182, 459.5558
1151.664, 463.7663
1152.147, 466.9985
1152.629, 468.0701
1153.111, 467.3707
1153.593, 464.7371
1154.075, 460.8716
1154.557, 458.4789
1155.039, 457.9832
1155.521, 458.7935
1156.004, 462.5343
1156.486, 465.3561
1156.968, 465.4814
1157.450, 463.4830
1157.932, 460.0121
1158.414, 455.6286
1158.896, 454.9242
1159.378, 459.8233
1159.860, 464.5405
1160.343, 465.0384
1160.825, 464.0660
1161.307, 463.2234
1161.789, 462.6693
1162.271, 464.0655
1162.753, 467.2671
1163.235, 468.6889
1163.717, 466.2375
1164.199, 463.6679
1164.682, 464.9422
1165.164, 466.9802
1165.646, 466.3589
1166.128, 462.8178
1166.610, 461.3363
1167.092, 461.9919
1167.574, 462.7677
1168.056, 462.3669
1168.539, 462.1256
1169.021, 464.2804
1169.503, 466.8697
1169.985, 466.5861
1170.467, 461.8943
1170.949, 461.7059
1171.431, 466.6023
1171.913, 470.8268
1172.396, 469.8285
1172.878, 467.0668
1173.360, 465.6284
1173.842, 465.2210
1174.324, 465.2870
1174.806, 465.6451
1175.288, 466.9810
1175.770, 469.6374
1176.252, 471.4721
1176.734, 469.4116
1177.217, 466.5897
1177.699, 468.0801
1178.181, 472.0255
1178.663, 472.5097
1179.145, 466.1102
1179.627, 463.0505
1180.109, 464.6219
1180.591, 467.3033
1181.074, 467.7799
1181.556, 467.2401
1182.038, 467.4325
1182.520, 468.1948
1183.002, 468.2612
1183.484, 466.7093
1183.966, 466.0493
1184.448, 466.6227
1184.931, 468.0592
1185.413, 471.2199
1185.895, 474.3228
1186.377, 473.3470
1186.859, 468.7972
1187.341, 467.0925
1187.823, 471.4219
1188.305, 474.6779
1188.787, 475.6461
1189.270, 474.8048
1189.752, 470.5325
1190.234, 465.9139
1190.716, 467.8295
1191.198, 476.6372
1191.680, 481.2798
1192.162, 476.9088
1192.644, 473.0821
1193.126, 472.0895
1193.609, 472.5860
1194.091, 473.0466
1194.573, 473.1935
1195.055, 471.9746
1195.537, 469.1042
1196.019, 468.2147
1196.501, 471.6683
1196.983, 474.2235
1197.466, 474.0174
1197.948, 472.6082
1198.430, 472.8814
1198.912, 474.0957
1199.394, 474.8083
1199.876, 474.7060
1200.358, 474.3100
1200.840, 473.7979
1201.323, 472.7744
1201.805, 470.6362
1202.287, 468.5394
1202.769, 469.4150
1203.251, 472.0717
1203.733, 474.1466
1204.215, 475.3122
1204.697, 474.8229
1205.179, 470.7107
1205.661, 468.7822
1206.144, 472.7487
1206.626, 479.2315
1207.108, 480.4482
1207.590, 478.1639
1208.072, 475.9644
1208.554, 474.5616
1209.036, 474.3177
1209.518, 476.2148
1210.001, 477.2327
1210.483, 475.2787
1210.965, 471.9313
1211.447, 471.0926
1211.929, 471.8863
1212.411, 472.3585
1212.893, 471.7630
1213.375, 471.2201
1213.858, 470.1581
1214.340, 470.6652
1214.822, 475.0767
1215.304, 481.0117
1215.786, 482.3705
1216.268, 480.7614
1216.750, 479.6671
1217.232, 480.1605
1217.714, 481.3856
1218.197, 484.0831
1218.679, 485.5876
1219.161, 483.3520
1219.643, 479.3738
1220.125, 477.9128
1220.607, 478.1170
1221.089, 477.9520
1221.571, 475.7393
1222.053, 475.4398
1222.536, 477.9679
1223.018, 480.4574
1223.500, 480.7843
1223.982, 479.9253
1224.464, 479.7235
1224.946, 479.8703
1225.428, 479.6586
1225.910, 478.5512
1226.393, 477.5654
1226.875, 476.6154
1227.357, 476.1090
1227.839, 476.0259
1228.321, 476.7829
1228.803, 480.5068
1229.285, 485.4130
1229.767, 487.2652
1230.250, 482.1939
1230.732, 479.9235
1231.214, 481.0929
1231.696, 482.9627
1232.178, 484.1034
1232.660, 484.1946
1233.142, 481.6078
1233.624, 477.7922
1234.106, 476.3426
1234.589, 479.1848
1235.071, 480.2511
1235.553, 478.9756
1236.035, 478.2504
1236.517, 480.7402
1236.999, 484.6311
1237.481, 489.4590
1237.963, 493.7023
1238.445, 493.3036
1238.928, 485.3425
1239.410, 483.3454
1239.892, 488.4091
1240.374, 493.4779
1240.856, 491.9882
1241.338, 489.1538
1241.820, 490.7004
1242.302, 494.1121
1242.785, 493.5396
1243.267, 487.3012
1243.749, 486.0077
1244.231, 490.3003
1244.713, 493.7646
1245.195, 489.8213
1245.677, 485.2393
1246.159, 485.9617
1246.641, 489.2104
1247.124, 489.5876
1247.606, 486.7449
1248.088, 484.9879
1248.570, 484.5150
1249.052, 484.9706
1249.534, 486.9106
1250.016, 488.8474
1250.498, 489.4178
1250.980, 489.7328
1251.463, 491.8499
1251.945, 495.6947
1252.427, 496.0190
1252.909, 492.9468
1253.391, 490.2118
1253.873, 490.5604
1254.355, 491.2144
1254.837, 490.5346
1255.320, 489.9417
1255.802, 491.7221
1256.284, 495.2202
1256.766, 495.6851
1257.248, 493.3892
1257.730, 491.6743
1258.212, 492.5771
1258.694, 493.9746
1259.177, 495.7431
1259.659, 497.0877
1260.141, 496.6049
1260.623, 495.0751
1261.105, 495.3107
1261.587, 497.0841
1262.069, 498.8583
1262.551, 500.0136
1263.033, 501.0920
1263.516, 502.2515
1263.998, 503.1941
1264.480, 503.7020
1264.962, 503.7473
1265.444, 502.9996
1265.926, 501.7091
1266.408, 500.7905
1266.890, 501.4510
1267.372, 500.2956
1267.855, 496.3691
1268.337, 493.2927
1268.819, 495.4494
1269.301, 499.4542
1269.783, 500.2728
1270.265, 499.0466
1270.747, 499.4179
1271.229, 502.8669
1271.712, 503.8615
1272.194, 501.8275
1272.676, 499.8782
1273.158, 500.6629
1273.640, 502.4131
1274.122, 504.1369
1274.604, 505.3556
1275.086, 505.1052
1275.568, 503.0225
1276.051, 501.9989
1276.533, 502.1112
1277.015, 502.2119
1277.497, 500.8955
1277.979, 500.0427
1278.461, 500.8920
1278.943, 502.8760
1279.425, 506.0221
1279.907, 510.2739
1280.390, 509.4604
1280.872, 504.2289
1281.354, 500.5084
1281.836, 503.0044
1282.318, 505.7162
1282.800, 506.7787
1283.282, 506.9606
1283.764, 506.5079
1284.247, 505.6812
1284.729, 506.1110
1285.211, 507.4162
1285.693, 508.1533
1286.175, 507.9298
1286.657, 506.4012
1287.139, 502.1732
1287.621, 499.6064
1288.104, 503.9928
1288.586, 511.2846
1289.068, 512.8358
1289.550, 510.4307
1290.032, 508.2325
1290.514, 507.9518
1290.996, 506.3391
1291.478, 502.8174
1291.960, 500.3682
1292.443, 501.0541
1292.925, 503.6257
1293.407, 507.7578
1293.889, 512.2275
1294.371, 514.9458
1294.853, 515.7912
1295.335, 515.5443
1295.817, 514.2042
1296.299, 511.6830
1296.782, 506.2556
1297.264, 502.3130
1297.746, 504.6671
1298.228, 509.0491
1298.710, 511.1159
1299.192, 511.0108
1299.674, 511.0278
1300.156, 511.1716
1300.639, 511.5070
1301.121, 512.4931
1301.603, 512.7264
1302.085, 510.0695
1302.567, 508.2357
1303.049, 508.9556
1303.531, 512.1411
##END=



