##NAMES=Nordite-(Ce)
##RRUFFID=R130530
##IDEAL CHEMISTRY=Na_3_Sr^2+^Ce^3+^Zn^2+^Si_6_O_17_
##LOCALITY=Karnasurt Mt., Lovosero Massif, Kola Peninsula, Russia
##OWNER=RRUFF
##SOURCE=Rock Currier
##DESCRIPTION=Pale brownish tabular crystals in rosette-like aggregates, associated with ussingite
##STATUS=The identification of this mineral is confirmed by single-crystal X-ray diffraction and chemical analysis.
##URL=rruff.info/R130530
##MEASURED CHEMISTRY=Na_2.96_(Sr_1.10_Ba_0.02_)_Σ=1.12_(Ce_0.52_La_0.35_Nd_0.06_Pr_0.04_Ca_0.04_)_Σ=1.01_(Zn_0.335_Mn_0.329_Fe_0.19_Mg_0.12_)_Σ=0.97_Si_5.96_O_17_ ;   Dark phase is ussingite.
8.806445e+001, 1.063107e+003
8.854657e+001, 1.041471e+003
8.902869e+001, 1.034004e+003
8.951080e+001, 1.047671e+003
8.999292e+001, 1.072346e+003
9.047504e+001, 1.099141e+003
9.095715e+001, 1.126544e+003
9.143927e+001, 1.152916e+003
9.192139e+001, 1.175779e+003
9.240350e+001, 1.195276e+003
9.288562e+001, 1.213756e+003
9.336774e+001, 1.224849e+003
9.384985e+001, 1.220393e+003
9.433197e+001, 1.198216e+003
9.481409e+001, 1.171938e+003
9.529620e+001, 1.143553e+003
9.577832e+001, 1.120909e+003
9.626044e+001, 1.105006e+003
9.674255e+001, 1.093452e+003
9.722467e+001, 1.083280e+003
9.770679e+001, 1.073862e+003
9.818890e+001, 1.066705e+003
9.867102e+001, 1.063245e+003
9.915314e+001, 1.060826e+003
9.963525e+001, 1.057030e+003
1.001174e+002, 1.050687e+003
1.005995e+002, 1.042732e+003
1.010816e+002, 1.036650e+003
1.015637e+002, 1.034854e+003
1.020458e+002, 1.032242e+003
1.025280e+002, 1.026960e+003
1.030101e+002, 1.020264e+003
1.034922e+002, 1.014424e+003
1.039743e+002, 1.011211e+003
1.044564e+002, 1.010552e+003
1.049385e+002, 1.008021e+003
1.054207e+002, 1.003412e+003
1.059028e+002, 9.974924e+002
1.063849e+002, 9.903077e+002
1.068670e+002, 9.819631e+002
1.073491e+002, 9.729800e+002
1.078312e+002, 9.634821e+002
1.083134e+002, 9.535438e+002
1.087955e+002, 9.447316e+002
1.092776e+002, 9.376331e+002
1.097597e+002, 9.316367e+002
1.102418e+002, 9.257830e+002
1.107239e+002, 9.197316e+002
1.112061e+002, 9.143420e+002
1.116882e+002, 9.105681e+002
1.121703e+002, 9.080920e+002
1.126524e+002, 9.059220e+002
1.131345e+002, 9.032430e+002
1.136166e+002, 9.001238e+002
1.140988e+002, 8.979417e+002
1.145809e+002, 8.987669e+002
1.150630e+002, 8.989330e+002
1.155451e+002, 8.958641e+002
1.160272e+002, 8.896359e+002
1.165093e+002, 8.827362e+002
1.169915e+002, 8.784844e+002
1.174736e+002, 8.784526e+002
1.179557e+002, 8.769334e+002
1.184378e+002, 8.724291e+002
1.189199e+002, 8.672664e+002
1.194020e+002, 8.628713e+002
1.198842e+002, 8.597563e+002
1.203663e+002, 8.576888e+002
1.208484e+002, 8.561400e+002
1.213305e+002, 8.561242e+002
1.218126e+002, 8.554713e+002
1.222947e+002, 8.540172e+002
1.227769e+002, 8.519183e+002
1.232590e+002, 8.494025e+002
1.237411e+002, 8.465762e+002
1.242232e+002, 8.433917e+002
1.247053e+002, 8.394570e+002
1.251874e+002, 8.325004e+002
1.256696e+002, 8.272806e+002
1.261517e+002, 8.260970e+002
1.266338e+002, 8.283516e+002
1.271159e+002, 8.315799e+002
1.275980e+002, 8.346763e+002
1.280801e+002, 8.375087e+002
1.285623e+002, 8.398737e+002
1.290444e+002, 8.418158e+002
1.295265e+002, 8.432542e+002
1.300086e+002, 8.446324e+002
1.304907e+002, 8.463302e+002
1.309728e+002, 8.459814e+002
1.314550e+002, 8.397204e+002
1.319371e+002, 8.307962e+002
1.324192e+002, 8.237394e+002
1.329013e+002, 8.218358e+002
1.333834e+002, 8.228505e+002
1.338655e+002, 8.197747e+002
1.343477e+002, 8.095593e+002
1.348298e+002, 7.995181e+002
1.353119e+002, 7.928700e+002
1.357940e+002, 7.886174e+002
1.362761e+002, 7.848400e+002
1.367582e+002, 7.799794e+002
1.372404e+002, 7.739984e+002
1.377225e+002, 7.694147e+002
1.382046e+002, 7.688827e+002
1.386867e+002, 7.674892e+002
1.391688e+002, 7.632062e+002
1.396509e+002, 7.564224e+002
1.401331e+002, 7.488668e+002
1.406152e+002, 7.420946e+002
1.410973e+002, 7.360172e+002
1.415794e+002, 7.315327e+002
1.420615e+002, 7.290828e+002
1.425436e+002, 7.275169e+002
1.430258e+002, 7.260800e+002
1.435079e+002, 7.246627e+002
1.439900e+002, 7.237470e+002
1.444721e+002, 7.241796e+002
1.449542e+002, 7.270765e+002
1.454363e+002, 7.282906e+002
1.459185e+002, 7.263386e+002
1.464006e+002, 7.231381e+002
1.468827e+002, 7.211012e+002
1.473648e+002, 7.210768e+002
1.478469e+002, 7.216008e+002
1.483290e+002, 7.196846e+002
1.488112e+002, 7.149776e+002
1.492933e+002, 7.113737e+002
1.497754e+002, 7.110164e+002
1.502575e+002, 7.129553e+002
1.507396e+002, 7.142328e+002
1.512217e+002, 7.133190e+002
1.517039e+002, 7.122327e+002
1.521860e+002, 7.134364e+002
1.526681e+002, 7.171292e+002
1.531502e+002, 7.215226e+002
1.536323e+002, 7.258489e+002
1.541144e+002, 7.301429e+002
1.545966e+002, 7.328844e+002
1.550787e+002, 7.316378e+002
1.555608e+002, 7.298356e+002
1.560429e+002, 7.303413e+002
1.565250e+002, 7.338179e+002
1.570071e+002, 7.376151e+002
1.574893e+002, 7.376757e+002
1.579714e+002, 7.323506e+002
1.584535e+002, 7.276472e+002
1.589356e+002, 7.239586e+002
1.594177e+002, 7.215422e+002
1.598998e+002, 7.212933e+002
1.603820e+002, 7.235138e+002
1.608641e+002, 7.267285e+002
1.613462e+002, 7.273102e+002
1.618283e+002, 7.226975e+002
1.623104e+002, 7.188572e+002
1.627925e+002, 7.158433e+002
1.632747e+002, 7.140028e+002
1.637568e+002, 7.141570e+002
1.642389e+002, 7.167834e+002
1.647210e+002, 7.209257e+002
1.652031e+002, 7.224969e+002
1.656852e+002, 7.179389e+002
1.661674e+002, 7.148490e+002
1.666495e+002, 7.151505e+002
1.671316e+002, 7.176929e+002
1.676137e+002, 7.206674e+002
1.680958e+002, 7.232479e+002
1.685779e+002, 7.252260e+002
1.690601e+002, 7.253507e+002
1.695422e+002, 7.223212e+002
1.700243e+002, 7.192042e+002
1.705064e+002, 7.174087e+002
1.709885e+002, 7.166461e+002
1.714706e+002, 7.156770e+002
1.719528e+002, 7.137149e+002
1.724349e+002, 7.108767e+002
1.729170e+002, 7.080642e+002
1.733991e+002, 7.048169e+002
1.738812e+002, 7.019346e+002
1.743633e+002, 7.006560e+002
1.748455e+002, 7.010370e+002
1.753276e+002, 7.003266e+002
1.758097e+002, 6.950936e+002
1.762918e+002, 6.879379e+002
1.767739e+002, 6.835999e+002
1.772560e+002, 6.843679e+002
1.777382e+002, 6.874748e+002
1.782203e+002, 6.893365e+002
1.787024e+002, 6.899022e+002
1.791845e+002, 6.893372e+002
1.796666e+002, 6.864747e+002
1.801487e+002, 6.828753e+002
1.806309e+002, 6.806395e+002
1.811130e+002, 6.809997e+002
1.815951e+002, 6.830809e+002
1.820772e+002, 6.845314e+002
1.825593e+002, 6.850429e+002
1.830414e+002, 6.853667e+002
1.835236e+002, 6.847377e+002
1.840057e+002, 6.842938e+002
1.844878e+002, 6.860407e+002
1.849699e+002, 6.919053e+002
1.854520e+002, 7.007490e+002
1.859341e+002, 7.051518e+002
1.864163e+002, 7.004996e+002
1.868984e+002, 6.961661e+002
1.873805e+002, 6.938316e+002
1.878626e+002, 6.933737e+002
1.883447e+002, 6.945485e+002
1.888268e+002, 6.974944e+002
1.893090e+002, 7.020858e+002
1.897911e+002, 7.042064e+002
1.902732e+002, 6.999291e+002
1.907553e+002, 6.971661e+002
1.912374e+002, 6.990446e+002
1.917195e+002, 7.042723e+002
1.922017e+002, 7.097079e+002
1.926838e+002, 7.129666e+002
1.931659e+002, 7.139908e+002
1.936480e+002, 7.147283e+002
1.941301e+002, 7.146659e+002
1.946122e+002, 7.148667e+002
1.950944e+002, 7.159075e+002
1.955765e+002, 7.176605e+002
1.960586e+002, 7.194918e+002
1.965407e+002, 7.207090e+002
1.970228e+002, 7.213262e+002
1.975049e+002, 7.236884e+002
1.979871e+002, 7.297880e+002
1.984692e+002, 7.358212e+002
1.989513e+002, 7.389574e+002
1.994334e+002, 7.393121e+002
1.999155e+002, 7.396378e+002
2.003976e+002, 7.425900e+002
2.008798e+002, 7.478159e+002
2.013619e+002, 7.506806e+002
2.018440e+002, 7.480439e+002
2.023261e+002, 7.448480e+002
2.028082e+002, 7.463926e+002
2.032903e+002, 7.531425e+002
2.037725e+002, 7.596711e+002
2.042546e+002, 7.606516e+002
2.047367e+002, 7.579591e+002
2.052188e+002, 7.569474e+002
2.057009e+002, 7.587677e+002
2.061830e+002, 7.627345e+002
2.066652e+002, 7.685406e+002
2.071473e+002, 7.767386e+002
2.076294e+002, 7.845778e+002
2.081115e+002, 7.896041e+002
2.085936e+002, 7.930814e+002
2.090757e+002, 7.969186e+002
2.095579e+002, 8.022083e+002
2.100400e+002, 8.080953e+002
2.105221e+002, 8.127744e+002
2.110042e+002, 8.157328e+002
2.114863e+002, 8.186131e+002
2.119685e+002, 8.211877e+002
2.124506e+002, 8.243694e+002
2.129327e+002, 8.298444e+002
2.134148e+002, 8.393760e+002
2.138969e+002, 8.513173e+002
2.143790e+002, 8.601942e+002
2.148612e+002, 8.637059e+002
2.153433e+002, 8.679393e+002
2.158254e+002, 8.757902e+002
2.163075e+002, 8.853801e+002
2.167896e+002, 8.939401e+002
2.172717e+002, 8.994680e+002
2.177539e+002, 9.030970e+002
2.182360e+002, 9.100356e+002
2.187181e+002, 9.239728e+002
2.192002e+002, 9.364435e+002
2.196823e+002, 9.431087e+002
2.201644e+002, 9.475902e+002
2.206466e+002, 9.552651e+002
2.211287e+002, 9.696584e+002
2.216108e+002, 9.892990e+002
2.220929e+002, 1.005636e+003
2.225750e+002, 1.015312e+003
2.230571e+002, 1.025084e+003
2.235393e+002, 1.036052e+003
2.240214e+002, 1.047743e+003
2.245035e+002, 1.059371e+003
2.249856e+002, 1.070412e+003
2.254677e+002, 1.080966e+003
2.259498e+002, 1.091516e+003
2.264320e+002, 1.100206e+003
2.269141e+002, 1.110996e+003
2.273962e+002, 1.125286e+003
2.278783e+002, 1.142015e+003
2.283604e+002, 1.160153e+003
2.288425e+002, 1.179364e+003
2.293247e+002, 1.198948e+003
2.298068e+002, 1.214912e+003
2.302889e+002, 1.222533e+003
2.307710e+002, 1.232154e+003
2.312531e+002, 1.247218e+003
2.317352e+002, 1.265599e+003
2.322174e+002, 1.283723e+003
2.326995e+002, 1.299778e+003
2.331816e+002, 1.313956e+003
2.336637e+002, 1.326914e+003
2.341458e+002, 1.336001e+003
2.346279e+002, 1.347095e+003
2.351101e+002, 1.363435e+003
2.355922e+002, 1.382759e+003
2.360743e+002, 1.400546e+003
2.365564e+002, 1.414343e+003
2.370385e+002, 1.425455e+003
2.375206e+002, 1.437739e+003
2.380028e+002, 1.452353e+003
2.384849e+002, 1.466187e+003
2.389670e+002, 1.478170e+003
2.394491e+002, 1.488543e+003
2.399312e+002, 1.497913e+003
2.404133e+002, 1.506296e+003
2.408955e+002, 1.513951e+003
2.413776e+002, 1.521676e+003
2.418597e+002, 1.529896e+003
2.423418e+002, 1.537181e+003
2.428239e+002, 1.542247e+003
2.433060e+002, 1.545806e+003
2.437882e+002, 1.550165e+003
2.442703e+002, 1.556787e+003
2.447524e+002, 1.563515e+003
2.452345e+002, 1.567188e+003
2.457166e+002, 1.567906e+003
2.461987e+002, 1.566143e+003
2.466809e+002, 1.560818e+003
2.471630e+002, 1.552948e+003
2.476451e+002, 1.546410e+003
2.481272e+002, 1.544039e+003
2.486093e+002, 1.540766e+003
2.490914e+002, 1.529201e+003
2.495736e+002, 1.509203e+003
2.500557e+002, 1.491075e+003
2.505378e+002, 1.483086e+003
2.510199e+002, 1.482443e+003
2.515020e+002, 1.477224e+003
2.519841e+002, 1.463084e+003
2.524663e+002, 1.446541e+003
2.529484e+002, 1.433535e+003
2.534305e+002, 1.423757e+003
2.539126e+002, 1.414119e+003
2.543947e+002, 1.402660e+003
2.548768e+002, 1.389730e+003
2.553590e+002, 1.377092e+003
2.558411e+002, 1.364307e+003
2.563232e+002, 1.352777e+003
2.568053e+002, 1.344592e+003
2.572874e+002, 1.338635e+003
2.577695e+002, 1.330867e+003
2.582516e+002, 1.316887e+003
2.587338e+002, 1.298237e+003
2.592159e+002, 1.284095e+003
2.596980e+002, 1.277335e+003
2.601801e+002, 1.271386e+003
2.606622e+002, 1.262296e+003
2.611443e+002, 1.251210e+003
2.616265e+002, 1.240585e+003
2.621086e+002, 1.231216e+003
2.625907e+002, 1.223440e+003
2.630728e+002, 1.219651e+003
2.635549e+002, 1.223618e+003
2.640370e+002, 1.225734e+003
2.645192e+002, 1.220615e+003
2.650013e+002, 1.211530e+003
2.654834e+002, 1.203892e+003
2.659655e+002, 1.201017e+003
2.664476e+002, 1.201434e+003
2.669297e+002, 1.199736e+003
2.674119e+002, 1.194369e+003
2.678940e+002, 1.189353e+003
2.683761e+002, 1.185541e+003
2.688582e+002, 1.182848e+003
2.693403e+002, 1.181149e+003
2.698224e+002, 1.180403e+003
2.703046e+002, 1.180610e+003
2.707867e+002, 1.181800e+003
2.712688e+002, 1.184208e+003
2.717509e+002, 1.187306e+003
2.722330e+002, 1.191972e+003
2.727151e+002, 1.196708e+003
2.731973e+002, 1.199415e+003
2.736794e+002, 1.199166e+003
2.741615e+002, 1.198226e+003
2.746436e+002, 1.201617e+003
2.751257e+002, 1.211598e+003
2.756078e+002, 1.221730e+003
2.760900e+002, 1.230429e+003
2.765721e+002, 1.239261e+003
2.770542e+002, 1.249644e+003
2.775363e+002, 1.261964e+003
2.780184e+002, 1.275213e+003
2.785005e+002, 1.287992e+003
2.789827e+002, 1.301366e+003
2.794648e+002, 1.311610e+003
2.799469e+002, 1.314132e+003
2.804290e+002, 1.317098e+003
2.809111e+002, 1.326466e+003
2.813932e+002, 1.342993e+003
2.818754e+002, 1.362794e+003
2.823575e+002, 1.381212e+003
2.828396e+002, 1.398429e+003
2.833217e+002, 1.413480e+003
2.838038e+002, 1.425917e+003
2.842859e+002, 1.436905e+003
2.847681e+002, 1.446013e+003
2.852502e+002, 1.453875e+003
2.857323e+002, 1.462360e+003
2.862144e+002, 1.473739e+003
2.866965e+002, 1.488949e+003
2.871786e+002, 1.501688e+003
2.876608e+002, 1.512326e+003
2.881429e+002, 1.520495e+003
2.886250e+002, 1.524576e+003
2.891071e+002, 1.525770e+003
2.895892e+002, 1.527206e+003
2.900714e+002, 1.531678e+003
2.905535e+002, 1.539253e+003
2.910356e+002, 1.544340e+003
2.915177e+002, 1.545103e+003
2.919998e+002, 1.545328e+003
2.924819e+002, 1.545671e+003
2.929641e+002, 1.546250e+003
2.934462e+002, 1.547222e+003
2.939283e+002, 1.548798e+003
2.944104e+002, 1.550705e+003
2.948925e+002, 1.551107e+003
2.953746e+002, 1.548584e+003
2.958568e+002, 1.546033e+003
2.963389e+002, 1.543806e+003
2.968210e+002, 1.541776e+003
2.973031e+002, 1.540188e+003
2.977852e+002, 1.539201e+003
2.982673e+002, 1.537826e+003
2.987495e+002, 1.533187e+003
2.992316e+002, 1.523599e+003
2.997137e+002, 1.512281e+003
3.001958e+002, 1.496836e+003
3.006779e+002, 1.480897e+003
3.011600e+002, 1.468877e+003
3.016422e+002, 1.461986e+003
3.021243e+002, 1.456920e+003
3.026064e+002, 1.447596e+003
3.030885e+002, 1.430348e+003
3.035706e+002, 1.415150e+003
3.040527e+002, 1.404123e+003
3.045349e+002, 1.393594e+003
3.050170e+002, 1.380213e+003
3.054991e+002, 1.363743e+003
3.059812e+002, 1.347108e+003
3.064633e+002, 1.334017e+003
3.069454e+002, 1.325755e+003
3.074276e+002, 1.316813e+003
3.079097e+002, 1.306994e+003
3.083918e+002, 1.296886e+003
3.088739e+002, 1.286651e+003
3.093560e+002, 1.276384e+003
3.098381e+002, 1.266366e+003
3.103203e+002, 1.256769e+003
3.108024e+002, 1.247708e+003
3.112845e+002, 1.238219e+003
3.117666e+002, 1.227565e+003
3.122487e+002, 1.217289e+003
3.127308e+002, 1.207536e+003
3.132130e+002, 1.198534e+003
3.136951e+002, 1.191094e+003
3.141772e+002, 1.186011e+003
3.146593e+002, 1.182536e+003
3.151414e+002, 1.175593e+003
3.156235e+002, 1.161035e+003
3.161057e+002, 1.147704e+003
3.165878e+002, 1.137363e+003
3.170699e+002, 1.128977e+003
3.175520e+002, 1.121192e+003
3.180341e+002, 1.113416e+003
3.185162e+002, 1.105652e+003
3.189984e+002, 1.098033e+003
3.194805e+002, 1.091765e+003
3.199626e+002, 1.083944e+003
3.204447e+002, 1.072958e+003
3.209268e+002, 1.061304e+003
3.214089e+002, 1.051188e+003
3.218911e+002, 1.043204e+003
3.223732e+002, 1.036635e+003
3.228553e+002, 1.030464e+003
3.233374e+002, 1.025123e+003
3.238195e+002, 1.019178e+003
3.243016e+002, 1.013067e+003
3.247838e+002, 1.006158e+003
3.252659e+002, 9.971467e+002
3.257480e+002, 9.865332e+002
3.262301e+002, 9.767216e+002
3.267122e+002, 9.700081e+002
3.271943e+002, 9.666573e+002
3.276765e+002, 9.645485e+002
3.281586e+002, 9.656963e+002
3.286407e+002, 9.659116e+002
3.291228e+002, 9.628602e+002
3.296049e+002, 9.575818e+002
3.300870e+002, 9.524974e+002
3.305692e+002, 9.492003e+002
3.310513e+002, 9.475485e+002
3.315334e+002, 9.465048e+002
3.320155e+002, 9.463649e+002
3.324976e+002, 9.465463e+002
3.329797e+002, 9.472964e+002
3.334619e+002, 9.482311e+002
3.339440e+002, 9.492622e+002
3.344261e+002, 9.503527e+002
3.349082e+002, 9.507047e+002
3.353904e+002, 9.480358e+002
3.358725e+002, 9.373160e+002
3.363546e+002, 9.317113e+002
3.368367e+002, 9.340000e+002
3.373188e+002, 9.396240e+002
3.378009e+002, 9.458856e+002
3.382831e+002, 9.517382e+002
3.387652e+002, 9.564330e+002
3.392473e+002, 9.586229e+002
3.397294e+002, 9.570379e+002
3.402115e+002, 9.569565e+002
3.406936e+002, 9.580325e+002
3.411758e+002, 9.606590e+002
3.416579e+002, 9.655302e+002
3.421400e+002, 9.722678e+002
3.426221e+002, 9.796475e+002
3.431042e+002, 9.865396e+002
3.435863e+002, 9.929432e+002
3.440685e+002, 1.000830e+003
3.445506e+002, 1.013590e+003
3.450327e+002, 1.024320e+003
3.455148e+002, 1.029276e+003
3.459969e+002, 1.031564e+003
3.464790e+002, 1.036446e+003
3.469612e+002, 1.047076e+003
3.474433e+002, 1.061105e+003
3.479254e+002, 1.070907e+003
3.484075e+002, 1.071882e+003
3.488896e+002, 1.076051e+003
3.493717e+002, 1.087103e+003
3.498539e+002, 1.100500e+003
3.503360e+002, 1.112409e+003
3.508181e+002, 1.121607e+003
3.513002e+002, 1.129572e+003
3.517823e+002, 1.137871e+003
3.522644e+002, 1.145474e+003
3.527466e+002, 1.156890e+003
3.532287e+002, 1.176793e+003
3.537108e+002, 1.196938e+003
3.541929e+002, 1.212706e+003
3.546750e+002, 1.224381e+003
3.551571e+002, 1.235318e+003
3.556393e+002, 1.247784e+003
3.561214e+002, 1.261839e+003
3.566035e+002, 1.279492e+003
3.570856e+002, 1.305119e+003
3.575677e+002, 1.329045e+003
3.580498e+002, 1.345731e+003
3.585320e+002, 1.358723e+003
3.590141e+002, 1.374311e+003
3.594962e+002, 1.396116e+003
3.599783e+002, 1.422176e+003
3.604604e+002, 1.447250e+003
3.609425e+002, 1.471500e+003
3.614247e+002, 1.494492e+003
3.619068e+002, 1.515029e+003
3.623889e+002, 1.534878e+003
3.628710e+002, 1.555231e+003
3.633531e+002, 1.576389e+003
3.638352e+002, 1.598633e+003
3.643174e+002, 1.622406e+003
3.647995e+002, 1.647784e+003
3.652816e+002, 1.674366e+003
3.657637e+002, 1.702024e+003
3.662458e+002, 1.731098e+003
3.667279e+002, 1.762953e+003
3.672101e+002, 1.796959e+003
3.676922e+002, 1.829536e+003
3.681743e+002, 1.856286e+003
3.686564e+002, 1.879099e+003
3.691385e+002, 1.907092e+003
3.696206e+002, 1.944099e+003
3.701028e+002, 1.979934e+003
3.705849e+002, 2.006960e+003
3.710670e+002, 2.028927e+003
3.715491e+002, 2.051865e+003
3.720312e+002, 2.077754e+003
3.725133e+002, 2.106094e+003
3.729955e+002, 2.137211e+003
3.734776e+002, 2.171359e+003
3.739597e+002, 2.205269e+003
3.744418e+002, 2.239089e+003
3.749239e+002, 2.271068e+003
3.754060e+002, 2.298482e+003
3.758882e+002, 2.320283e+003
3.763703e+002, 2.340964e+003
3.768524e+002, 2.363250e+003
3.773345e+002, 2.386969e+003
3.778166e+002, 2.412130e+003
3.782987e+002, 2.439971e+003
3.787809e+002, 2.466929e+003
3.792630e+002, 2.490087e+003
3.797451e+002, 2.509780e+003
3.802272e+002, 2.523967e+003
3.807093e+002, 2.526712e+003
3.811914e+002, 2.525958e+003
3.816736e+002, 2.533976e+003
3.821557e+002, 2.552019e+003
3.826378e+002, 2.568878e+003
3.831199e+002, 2.576667e+003
3.836020e+002, 2.576141e+003
3.840841e+002, 2.573791e+003
3.845663e+002, 2.569850e+003
3.850484e+002, 2.564022e+003
3.855305e+002, 2.554484e+003
3.860126e+002, 2.542628e+003
3.864947e+002, 2.533534e+003
3.869768e+002, 2.530276e+003
3.874590e+002, 2.528930e+003
3.879411e+002, 2.520825e+003
3.884232e+002, 2.505200e+003
3.889053e+002, 2.487160e+003
3.893874e+002, 2.465287e+003
3.898695e+002, 2.442670e+003
3.903517e+002, 2.423236e+003
3.908338e+002, 2.407519e+003
3.913159e+002, 2.392961e+003
3.917980e+002, 2.376703e+003
3.922801e+002, 2.358395e+003
3.927622e+002, 2.341863e+003
3.932444e+002, 2.329245e+003
3.937265e+002, 2.316227e+003
3.942086e+002, 2.300347e+003
3.946907e+002, 2.282260e+003
3.951728e+002, 2.263903e+003
3.956549e+002, 2.246628e+003
3.961371e+002, 2.229706e+003
3.966192e+002, 2.210785e+003
3.971013e+002, 2.184971e+003
3.975834e+002, 2.163281e+003
3.980655e+002, 2.150438e+003
3.985476e+002, 2.140177e+003
3.990298e+002, 2.125247e+003
3.995119e+002, 2.104177e+003
3.999940e+002, 2.082222e+003
4.004761e+002, 2.066892e+003
4.009582e+002, 2.061006e+003
4.014403e+002, 2.051923e+003
4.019225e+002, 2.036816e+003
4.024046e+002, 2.021642e+003
4.028867e+002, 2.009730e+003
4.033688e+002, 2.000120e+003
4.038509e+002, 1.989483e+003
4.043330e+002, 1.975132e+003
4.048152e+002, 1.958135e+003
4.052973e+002, 1.944742e+003
4.057794e+002, 1.937235e+003
4.062615e+002, 1.930066e+003
4.067436e+002, 1.922178e+003
4.072257e+002, 1.914063e+003
4.077079e+002, 1.906769e+003
4.081900e+002, 1.900503e+003
4.086721e+002, 1.893543e+003
4.091542e+002, 1.882905e+003
4.096363e+002, 1.867573e+003
4.101184e+002, 1.853783e+003
4.106006e+002, 1.842206e+003
4.110827e+002, 1.832407e+003
4.115648e+002, 1.824905e+003
4.120469e+002, 1.819140e+003
4.125290e+002, 1.813558e+003
4.130111e+002, 1.807535e+003
4.134933e+002, 1.800873e+003
4.139754e+002, 1.792797e+003
4.144575e+002, 1.783007e+003
4.149396e+002, 1.772645e+003
4.154217e+002, 1.760707e+003
4.159038e+002, 1.749104e+003
4.163860e+002, 1.740701e+003
4.168681e+002, 1.736902e+003
4.173502e+002, 1.733798e+003
4.178323e+002, 1.727110e+003
4.183144e+002, 1.717351e+003
4.187965e+002, 1.709510e+003
4.192787e+002, 1.705995e+003
4.197608e+002, 1.703031e+003
4.202429e+002, 1.695765e+003
4.207250e+002, 1.684626e+003
4.212071e+002, 1.674650e+003
4.216892e+002, 1.669480e+003
4.221714e+002, 1.665505e+003
4.226535e+002, 1.657472e+003
4.231356e+002, 1.644989e+003
4.236177e+002, 1.631750e+003
4.240998e+002, 1.619747e+003
4.245819e+002, 1.609074e+003
4.250641e+002, 1.599721e+003
4.255462e+002, 1.592670e+003
4.260283e+002, 1.585685e+003
4.265104e+002, 1.579209e+003
4.269925e+002, 1.571954e+003
4.274746e+002, 1.560990e+003
4.279568e+002, 1.545074e+003
4.284389e+002, 1.526599e+003
4.289210e+002, 1.508568e+003
4.294031e+002, 1.490058e+003
4.298852e+002, 1.475360e+003
4.303673e+002, 1.467503e+003
4.308495e+002, 1.460935e+003
4.313316e+002, 1.451862e+003
4.318137e+002, 1.440350e+003
4.322958e+002, 1.428233e+003
4.327779e+002, 1.416667e+003
4.332600e+002, 1.405677e+003
4.337422e+002, 1.395678e+003
4.342243e+002, 1.387077e+003
4.347064e+002, 1.379026e+003
4.351885e+002, 1.372056e+003
4.356706e+002, 1.365309e+003
4.361527e+002, 1.357656e+003
4.366349e+002, 1.348850e+003
4.371170e+002, 1.339981e+003
4.375991e+002, 1.332634e+003
4.380812e+002, 1.327158e+003
4.385633e+002, 1.321941e+003
4.390454e+002, 1.317347e+003
4.395276e+002, 1.312713e+003
4.400097e+002, 1.307421e+003
4.404918e+002, 1.301905e+003
4.409739e+002, 1.297209e+003
4.414560e+002, 1.294342e+003
4.419381e+002, 1.292324e+003
4.424203e+002, 1.287950e+003
4.429024e+002, 1.280146e+003
4.433845e+002, 1.272922e+003
4.438666e+002, 1.266917e+003
4.443487e+002, 1.262353e+003
4.448308e+002, 1.259692e+003
4.453130e+002, 1.259021e+003
4.457951e+002, 1.259400e+003
4.462772e+002, 1.261422e+003
4.467593e+002, 1.264273e+003
4.472414e+002, 1.262481e+003
4.477235e+002, 1.252372e+003
4.482057e+002, 1.244029e+003
4.486878e+002, 1.249299e+003
4.491699e+002, 1.262368e+003
4.496520e+002, 1.269103e+003
4.501341e+002, 1.259772e+003
4.506162e+002, 1.248447e+003
4.510984e+002, 1.249400e+003
4.515805e+002, 1.260847e+003
4.520626e+002, 1.271835e+003
4.525447e+002, 1.278260e+003
4.530268e+002, 1.281512e+003
4.535089e+002, 1.283405e+003
4.539911e+002, 1.283280e+003
4.544732e+002, 1.284908e+003
4.549553e+002, 1.290521e+003
4.554374e+002, 1.297491e+003
4.559195e+002, 1.303554e+003
4.564016e+002, 1.308319e+003
4.568838e+002, 1.311402e+003
4.573659e+002, 1.312161e+003
4.578480e+002, 1.310797e+003
4.583301e+002, 1.311153e+003
4.588122e+002, 1.313795e+003
4.592943e+002, 1.317182e+003
4.597765e+002, 1.322167e+003
4.602586e+002, 1.327242e+003
4.607407e+002, 1.330258e+003
4.612228e+002, 1.330561e+003
4.617049e+002, 1.329598e+003
4.621870e+002, 1.329644e+003
4.626692e+002, 1.331542e+003
4.631513e+002, 1.331721e+003
4.636334e+002, 1.326911e+003
4.641155e+002, 1.323680e+003
4.645976e+002, 1.325952e+003
4.650797e+002, 1.332024e+003
4.655619e+002, 1.337883e+003
4.660440e+002, 1.341172e+003
4.665261e+002, 1.342538e+003
4.670082e+002, 1.343675e+003
4.674903e+002, 1.344652e+003
4.679724e+002, 1.345209e+003
4.684546e+002, 1.342993e+003
4.689367e+002, 1.341877e+003
4.694188e+002, 1.346039e+003
4.699009e+002, 1.355491e+003
4.703830e+002, 1.364271e+003
4.708651e+002, 1.367607e+003
4.713473e+002, 1.366570e+003
4.718294e+002, 1.364816e+003
4.723115e+002, 1.362284e+003
4.727936e+002, 1.359744e+003
4.732757e+002, 1.356581e+003
4.737578e+002, 1.354004e+003
4.742400e+002, 1.354747e+003
4.747221e+002, 1.361047e+003
4.752042e+002, 1.367745e+003
4.756863e+002, 1.371247e+003
4.761684e+002, 1.372345e+003
4.766505e+002, 1.373193e+003
4.771327e+002, 1.374350e+003
4.776148e+002, 1.375696e+003
4.780969e+002, 1.377107e+003
4.785790e+002, 1.378583e+003
4.790611e+002, 1.380162e+003
4.795432e+002, 1.381054e+003
4.800254e+002, 1.382750e+003
4.805075e+002, 1.386010e+003
4.809896e+002, 1.390896e+003
4.814717e+002, 1.397715e+003
4.819538e+002, 1.406848e+003
4.824359e+002, 1.417146e+003
4.829181e+002, 1.425272e+003
4.834002e+002, 1.429217e+003
4.838823e+002, 1.433877e+003
4.843644e+002, 1.439343e+003
4.848465e+002, 1.445464e+003
4.853286e+002, 1.452437e+003
4.858108e+002, 1.460050e+003
4.862929e+002, 1.467538e+003
4.867750e+002, 1.474089e+003
4.872571e+002, 1.479898e+003
4.877392e+002, 1.487075e+003
4.882213e+002, 1.496859e+003
4.887035e+002, 1.505952e+003
4.891856e+002, 1.511607e+003
4.896677e+002, 1.517184e+003
4.901498e+002, 1.527289e+003
4.906319e+002, 1.543048e+003
4.911140e+002, 1.558366e+003
4.915962e+002, 1.565009e+003
4.920783e+002, 1.564533e+003
4.925604e+002, 1.570467e+003
4.930425e+002, 1.587472e+003
4.935246e+002, 1.604513e+003
4.940067e+002, 1.610544e+003
4.944889e+002, 1.610587e+003
4.949710e+002, 1.616240e+003
4.954531e+002, 1.633327e+003
4.959352e+002, 1.653073e+003
4.964173e+002, 1.669635e+003
4.968994e+002, 1.683205e+003
4.973816e+002, 1.694391e+003
4.978637e+002, 1.703116e+003
4.983458e+002, 1.710216e+003
4.988279e+002, 1.716049e+003
4.993100e+002, 1.719585e+003
4.997921e+002, 1.727541e+003
5.002743e+002, 1.743925e+003
5.007564e+002, 1.761727e+003
5.012385e+002, 1.776429e+003
5.017206e+002, 1.788518e+003
5.022027e+002, 1.800302e+003
5.026848e+002, 1.813171e+003
5.031670e+002, 1.826291e+003
5.036491e+002, 1.836862e+003
5.041312e+002, 1.842031e+003
5.046133e+002, 1.849367e+003
5.050954e+002, 1.859551e+003
5.055775e+002, 1.871367e+003
5.060597e+002, 1.885562e+003
5.065418e+002, 1.901017e+003
5.070239e+002, 1.914124e+003
5.075060e+002, 1.921608e+003
5.079881e+002, 1.924635e+003
5.084702e+002, 1.928806e+003
5.089524e+002, 1.934778e+003
5.094345e+002, 1.940406e+003
5.099166e+002, 1.944642e+003
5.103987e+002, 1.948398e+003
5.108808e+002, 1.952508e+003
5.113629e+002, 1.957114e+003
5.118451e+002, 1.961543e+003
5.123271e+002, 1.965143e+003
5.128093e+002, 1.968165e+003
5.132914e+002, 1.971599e+003
5.137735e+002, 1.975830e+003
5.142556e+002, 1.978942e+003
5.147377e+002, 1.979791e+003
5.152198e+002, 1.978295e+003
5.157020e+002, 1.974857e+003
5.161841e+002, 1.969020e+003
5.166662e+002, 1.961925e+003
5.171483e+002, 1.953495e+003
5.176304e+002, 1.944285e+003
5.181125e+002, 1.934802e+003
5.185947e+002, 1.925200e+003
5.190768e+002, 1.916532e+003
5.195589e+002, 1.910095e+003
5.200410e+002, 1.906183e+003
5.205231e+002, 1.901417e+003
5.210052e+002, 1.897678e+003
5.214874e+002, 1.891135e+003
5.219695e+002, 1.877441e+003
5.224516e+002, 1.861204e+003
5.229337e+002, 1.850168e+003
5.234158e+002, 1.846870e+003
5.238979e+002, 1.845289e+003
5.243801e+002, 1.835122e+003
5.248622e+002, 1.813798e+003
5.253443e+002, 1.797786e+003
5.258264e+002, 1.791942e+003
5.263085e+002, 1.786780e+003
5.267906e+002, 1.778865e+003
5.272728e+002, 1.768587e+003
5.277549e+002, 1.756734e+003
5.282370e+002, 1.743164e+003
5.287191e+002, 1.729104e+003
5.292012e+002, 1.715596e+003
5.296833e+002, 1.702714e+003
5.301655e+002, 1.692063e+003
5.306476e+002, 1.685303e+003
5.311297e+002, 1.678803e+003
5.316118e+002, 1.666927e+003
5.320939e+002, 1.650653e+003
5.325760e+002, 1.638046e+003
5.330582e+002, 1.635878e+003
5.335403e+002, 1.633506e+003
5.340224e+002, 1.620935e+003
5.345045e+002, 1.601125e+003
5.349866e+002, 1.583933e+003
5.354688e+002, 1.573898e+003
5.359509e+002, 1.567528e+003
5.364330e+002, 1.558380e+003
5.369151e+002, 1.545062e+003
5.373972e+002, 1.532243e+003
5.378793e+002, 1.520167e+003
5.383615e+002, 1.508262e+003
5.388436e+002, 1.495872e+003
5.393257e+002, 1.483442e+003
5.398078e+002, 1.472140e+003
5.402899e+002, 1.462703e+003
5.407720e+002, 1.454282e+003
5.412542e+002, 1.444709e+003
5.417363e+002, 1.433486e+003
5.422184e+002, 1.422859e+003
5.427005e+002, 1.414914e+003
5.431826e+002, 1.406114e+003
5.436647e+002, 1.392743e+003
5.441469e+002, 1.376285e+003
5.446290e+002, 1.362471e+003
5.451111e+002, 1.356350e+003
5.455932e+002, 1.352922e+003
5.460753e+002, 1.343695e+003
5.465574e+002, 1.328955e+003
5.470396e+002, 1.316176e+003
5.475217e+002, 1.308774e+003
5.480038e+002, 1.303910e+003
5.484859e+002, 1.297353e+003
5.489680e+002, 1.289215e+003
5.494501e+002, 1.279954e+003
5.499323e+002, 1.268017e+003
5.504144e+002, 1.256325e+003
5.508965e+002, 1.247118e+003
5.513786e+002, 1.240248e+003
5.518607e+002, 1.235036e+003
5.523428e+002, 1.231349e+003
5.528250e+002, 1.227842e+003
5.533071e+002, 1.220899e+003
5.537892e+002, 1.206645e+003
5.542713e+002, 1.195977e+003
5.547534e+002, 1.192108e+003
5.552355e+002, 1.188420e+003
5.557177e+002, 1.179834e+003
5.561998e+002, 1.168152e+003
5.566819e+002, 1.159039e+003
5.571640e+002, 1.156390e+003
5.576461e+002, 1.157266e+003
5.581282e+002, 1.155300e+003
5.586104e+002, 1.150065e+003
5.590925e+002, 1.144761e+003
5.595746e+002, 1.140302e+003
5.600567e+002, 1.135844e+003
5.605388e+002, 1.130311e+003
5.610209e+002, 1.123946e+003
5.615031e+002, 1.118338e+003
5.619852e+002, 1.115527e+003
5.624673e+002, 1.112752e+003
5.629494e+002, 1.105681e+003
5.634315e+002, 1.095551e+003
5.639136e+002, 1.088729e+003
5.643958e+002, 1.088161e+003
5.648779e+002, 1.091031e+003
5.653600e+002, 1.092674e+003
5.658421e+002, 1.092711e+003
5.663242e+002, 1.092409e+003
5.668063e+002, 1.090644e+003
5.672885e+002, 1.089602e+003
5.677706e+002, 1.091632e+003
5.682527e+002, 1.095216e+003
5.687348e+002, 1.096826e+003
5.692169e+002, 1.094689e+003
5.696990e+002, 1.090887e+003
5.701812e+002, 1.089973e+003
5.706633e+002, 1.093344e+003
5.711454e+002, 1.093816e+003
5.716275e+002, 1.086340e+003
5.721096e+002, 1.080575e+003
5.725917e+002, 1.083595e+003
5.730739e+002, 1.091863e+003
5.735560e+002, 1.096931e+003
5.740381e+002, 1.094743e+003
5.745202e+002, 1.089649e+003
5.750023e+002, 1.084946e+003
5.754844e+002, 1.081142e+003
5.759666e+002, 1.081852e+003
5.764487e+002, 1.089000e+003
5.769308e+002, 1.097456e+003
5.774129e+002, 1.101569e+003
5.778950e+002, 1.101211e+003
5.783771e+002, 1.102641e+003
5.788593e+002, 1.108472e+003
5.793414e+002, 1.113446e+003
5.798235e+002, 1.114288e+003
5.803056e+002, 1.112984e+003
5.807877e+002, 1.112627e+003
5.812698e+002, 1.114204e+003
5.817520e+002, 1.116938e+003
5.822341e+002, 1.119830e+003
5.827162e+002, 1.122829e+003
5.831984e+002, 1.126686e+003
5.836805e+002, 1.131842e+003
5.841626e+002, 1.137346e+003
5.846447e+002, 1.143310e+003
5.851268e+002, 1.149309e+003
5.856089e+002, 1.154867e+003
5.860911e+002, 1.159862e+003
5.865732e+002, 1.164351e+003
5.870553e+002, 1.167753e+003
5.875374e+002, 1.170635e+003
5.880195e+002, 1.175835e+003
5.885016e+002, 1.184385e+003
5.889838e+002, 1.190998e+003
5.894659e+002, 1.190528e+003
5.899480e+002, 1.186170e+003
5.904301e+002, 1.187558e+003
5.909122e+002, 1.196907e+003
5.913943e+002, 1.207424e+003
5.918765e+002, 1.218029e+003
5.923586e+002, 1.228222e+003
5.928407e+002, 1.237972e+003
5.933228e+002, 1.246939e+003
5.938049e+002, 1.253685e+003
5.942870e+002, 1.256872e+003
5.947692e+002, 1.257465e+003
5.952513e+002, 1.260010e+003
5.957334e+002, 1.264811e+003
5.962155e+002, 1.271150e+003
5.966976e+002, 1.279703e+003
5.971797e+002, 1.288928e+003
5.976619e+002, 1.298269e+003
5.981440e+002, 1.307416e+003
5.986261e+002, 1.315715e+003
5.991082e+002, 1.322082e+003
5.995903e+002, 1.327998e+003
6.000724e+002, 1.336395e+003
6.005546e+002, 1.347277e+003
6.010367e+002, 1.358559e+003
6.015188e+002, 1.370085e+003
6.020009e+002, 1.381001e+003
6.024830e+002, 1.390060e+003
6.029651e+002, 1.397352e+003
6.034473e+002, 1.404235e+003
6.039294e+002, 1.410852e+003
6.044115e+002, 1.417118e+003
6.048936e+002, 1.421681e+003
6.053757e+002, 1.426045e+003
6.058578e+002, 1.433742e+003
6.063400e+002, 1.445965e+003
6.068221e+002, 1.459603e+003
6.073042e+002, 1.470137e+003
6.077863e+002, 1.476969e+003
6.082684e+002, 1.484597e+003
6.087505e+002, 1.493614e+003
6.092327e+002, 1.502775e+003
6.097148e+002, 1.512462e+003
6.101969e+002, 1.521762e+003
6.106790e+002, 1.528858e+003
6.111611e+002, 1.533158e+003
6.116432e+002, 1.538527e+003
6.121254e+002, 1.549877e+003
6.126075e+002, 1.565057e+003
6.130896e+002, 1.577172e+003
6.135717e+002, 1.585591e+003
6.140538e+002, 1.592200e+003
6.145359e+002, 1.597392e+003
6.150181e+002, 1.601887e+003
6.155002e+002, 1.607627e+003
6.159823e+002, 1.614241e+003
6.164644e+002, 1.622662e+003
6.169465e+002, 1.634756e+003
6.174286e+002, 1.647443e+003
6.179108e+002, 1.657909e+003
6.183929e+002, 1.666405e+003
6.188750e+002, 1.674941e+003
6.193571e+002, 1.684830e+003
6.198392e+002, 1.695126e+003
6.203214e+002, 1.703123e+003
6.208035e+002, 1.707944e+003
6.212856e+002, 1.713161e+003
6.217677e+002, 1.718574e+003
6.222498e+002, 1.725091e+003
6.227319e+002, 1.733580e+003
6.232141e+002, 1.743546e+003
6.236962e+002, 1.753896e+003
6.241783e+002, 1.764992e+003
6.246604e+002, 1.775007e+003
6.251425e+002, 1.781428e+003
6.256246e+002, 1.785280e+003
6.261068e+002, 1.789960e+003
6.265889e+002, 1.796267e+003
6.270710e+002, 1.803021e+003
6.275531e+002, 1.808887e+003
6.280352e+002, 1.813943e+003
6.285173e+002, 1.820967e+003
6.289995e+002, 1.831441e+003
6.294816e+002, 1.841616e+003
6.299637e+002, 1.849708e+003
6.304458e+002, 1.857757e+003
6.309279e+002, 1.868102e+003
6.314100e+002, 1.880762e+003
6.318922e+002, 1.893922e+003
6.323743e+002, 1.906238e+003
6.328564e+002, 1.917771e+003
6.333385e+002, 1.927768e+003
6.338206e+002, 1.934658e+003
6.343027e+002, 1.946570e+003
6.347849e+002, 1.968391e+003
6.352670e+002, 1.993890e+003
6.357491e+002, 2.016241e+003
6.362312e+002, 2.036096e+003
6.367133e+002, 2.058972e+003
6.371954e+002, 2.091321e+003
6.376776e+002, 2.123264e+003
6.381597e+002, 2.146631e+003
6.386418e+002, 2.163376e+003
6.391239e+002, 2.179581e+003
6.396060e+002, 2.197169e+003
6.400881e+002, 2.210845e+003
6.405703e+002, 2.214054e+003
6.410524e+002, 2.206607e+003
6.415345e+002, 2.191521e+003
6.420166e+002, 2.168798e+003
6.424987e+002, 2.137770e+003
6.429808e+002, 2.093836e+003
6.434630e+002, 2.044195e+003
6.439451e+002, 1.994648e+003
6.444272e+002, 1.946969e+003
6.449093e+002, 1.901261e+003
6.453914e+002, 1.857054e+003
6.458735e+002, 1.814987e+003
6.463557e+002, 1.776152e+003
6.468378e+002, 1.740159e+003
6.473199e+002, 1.711400e+003
6.478020e+002, 1.693150e+003
6.482841e+002, 1.680700e+003
6.487662e+002, 1.666506e+003
6.492484e+002, 1.649958e+003
6.497305e+002, 1.635022e+003
6.502126e+002, 1.620912e+003
6.506947e+002, 1.609632e+003
6.511768e+002, 1.604238e+003
6.516589e+002, 1.601900e+003
6.521411e+002, 1.598460e+003
6.526232e+002, 1.592299e+003
6.531053e+002, 1.583396e+003
6.535874e+002, 1.571261e+003
6.540695e+002, 1.555891e+003
6.545516e+002, 1.540511e+003
6.550338e+002, 1.526444e+003
6.555159e+002, 1.509932e+003
6.559980e+002, 1.488248e+003
6.564801e+002, 1.463732e+003
6.569622e+002, 1.438900e+003
6.574443e+002, 1.414113e+003
6.579265e+002, 1.387471e+003
6.584086e+002, 1.355735e+003
6.588907e+002, 1.323496e+003
6.593728e+002, 1.295461e+003
6.598549e+002, 1.271576e+003
6.603370e+002, 1.250552e+003
6.608192e+002, 1.231851e+003
6.613013e+002, 1.215274e+003
6.617834e+002, 1.200879e+003
6.622655e+002, 1.189342e+003
6.627476e+002, 1.177262e+003
6.632297e+002, 1.161950e+003
6.637119e+002, 1.149023e+003
6.641940e+002, 1.144027e+003
6.646761e+002, 1.140801e+003
6.651582e+002, 1.129813e+003
6.656403e+002, 1.108517e+003
6.661224e+002, 1.087448e+003
6.666046e+002, 1.076151e+003
6.670867e+002, 1.071314e+003
6.675688e+002, 1.065124e+003
6.680509e+002, 1.057177e+003
6.685330e+002, 1.049742e+003
6.690151e+002, 1.044270e+003
6.694973e+002, 1.039488e+003
6.699794e+002, 1.032628e+003
6.704615e+002, 1.022186e+003
6.709436e+002, 1.013888e+003
6.714257e+002, 1.008547e+003
6.719078e+002, 1.004657e+003
6.723900e+002, 1.002313e+003
6.728721e+002, 1.000630e+003
6.733542e+002, 9.982365e+002
6.738363e+002, 9.946566e+002
6.743184e+002, 9.907007e+002
6.748005e+002, 9.869170e+002
6.752827e+002, 9.834221e+002
6.757648e+002, 9.820801e+002
6.762469e+002, 9.840363e+002
6.767290e+002, 9.840502e+002
6.772111e+002, 9.779604e+002
6.776932e+002, 9.694476e+002
6.781754e+002, 9.648768e+002
6.786575e+002, 9.646906e+002
6.791396e+002, 9.657789e+002
6.796217e+002, 9.698328e+002
6.801038e+002, 9.727827e+002
6.805859e+002, 9.702051e+002
6.810681e+002, 9.642078e+002
6.815502e+002, 9.597248e+002
6.820323e+002, 9.587275e+002
6.825144e+002, 9.597928e+002
6.829965e+002, 9.609061e+002
6.834786e+002, 9.619825e+002
6.839608e+002, 9.649450e+002
6.844429e+002, 9.725280e+002
6.849250e+002, 9.770140e+002
6.854071e+002, 9.714008e+002
6.858892e+002, 9.631761e+002
6.863713e+002, 9.607073e+002
6.868535e+002, 9.650203e+002
6.873356e+002, 9.697861e+002
6.878177e+002, 9.723485e+002
6.882998e+002, 9.739805e+002
6.887819e+002, 9.758544e+002
6.892640e+002, 9.779377e+002
6.897462e+002, 9.799807e+002
6.902283e+002, 9.819085e+002
6.907104e+002, 9.834167e+002
6.911925e+002, 9.838916e+002
6.916746e+002, 9.830913e+002
6.921567e+002, 9.834730e+002
6.926389e+002, 9.851478e+002
6.931210e+002, 9.879548e+002
6.936031e+002, 9.930259e+002
6.940852e+002, 9.984230e+002
6.945673e+002, 1.001979e+003
6.950494e+002, 1.003528e+003
6.955316e+002, 1.004983e+003
6.960137e+002, 1.007115e+003
6.964958e+002, 1.009997e+003
6.969779e+002, 1.014427e+003
6.974600e+002, 1.019877e+003
6.979421e+002, 1.023636e+003
6.984243e+002, 1.024565e+003
6.989064e+002, 1.025125e+003
6.993885e+002, 1.028683e+003
6.998706e+002, 1.035657e+003
7.003527e+002, 1.040189e+003
7.008348e+002, 1.039978e+003
7.013170e+002, 1.040112e+003
7.017991e+002, 1.040376e+003
7.022812e+002, 1.042102e+003
7.027633e+002, 1.048234e+003
7.032454e+002, 1.057890e+003
7.037275e+002, 1.064624e+003
7.042097e+002, 1.062080e+003
7.046918e+002, 1.056262e+003
7.051739e+002, 1.056996e+003
7.056560e+002, 1.063273e+003
7.061381e+002, 1.068528e+003
7.066202e+002, 1.070842e+003
7.071024e+002, 1.072358e+003
7.075845e+002, 1.075325e+003
7.080666e+002, 1.079718e+003
7.085487e+002, 1.083053e+003
7.090308e+002, 1.086660e+003
7.095129e+002, 1.087489e+003
7.099951e+002, 1.081737e+003
7.104772e+002, 1.075553e+003
7.109593e+002, 1.075057e+003
7.114414e+002, 1.079342e+003
7.119235e+002, 1.082542e+003
7.124056e+002, 1.080979e+003
7.128878e+002, 1.077159e+003
7.133699e+002, 1.075059e+003
7.138520e+002, 1.074338e+003
7.143341e+002, 1.072351e+003
7.148162e+002, 1.068316e+003
7.152983e+002, 1.064545e+003
7.157805e+002, 1.063428e+003
7.162626e+002, 1.064172e+003
7.167447e+002, 1.062115e+003
7.172268e+002, 1.054433e+003
7.177089e+002, 1.048215e+003
7.181910e+002, 1.045219e+003
7.186732e+002, 1.042833e+003
7.191553e+002, 1.039289e+003
7.196374e+002, 1.034762e+003
7.201195e+002, 1.030300e+003
7.206016e+002, 1.026525e+003
7.210837e+002, 1.022302e+003
7.215659e+002, 1.015809e+003
7.220480e+002, 1.007442e+003
7.225301e+002, 9.993939e+002
7.230122e+002, 9.918220e+002
7.234943e+002, 9.847225e+002
7.239764e+002, 9.782147e+002
7.244586e+002, 9.720276e+002
7.249407e+002, 9.654821e+002
7.254228e+002, 9.589035e+002
7.259049e+002, 9.511232e+002
7.263870e+002, 9.394425e+002
7.268691e+002, 9.292167e+002
7.273513e+002, 9.255439e+002
7.278334e+002, 9.247227e+002
7.283155e+002, 9.200432e+002
7.287976e+002, 9.094201e+002
7.292797e+002, 8.973324e+002
7.297618e+002, 8.887755e+002
7.302440e+002, 8.826742e+002
7.307261e+002, 8.746563e+002
7.312082e+002, 8.644582e+002
7.316903e+002, 8.549667e+002
7.321724e+002, 8.470333e+002
7.326545e+002, 8.410873e+002
7.331367e+002, 8.386310e+002
7.336188e+002, 8.409940e+002
7.341009e+002, 8.388673e+002
7.345830e+002, 8.291932e+002
7.350651e+002, 8.187529e+002
7.355472e+002, 8.083514e+002
7.360294e+002, 7.992619e+002
7.365115e+002, 7.942501e+002
7.369936e+002, 7.927109e+002
7.374757e+002, 7.891359e+002
7.379578e+002, 7.776481e+002
7.384399e+002, 7.631699e+002
7.389221e+002, 7.560905e+002
7.394042e+002, 7.560028e+002
7.398863e+002, 7.566191e+002
7.403684e+002, 7.567235e+002
7.408505e+002, 7.559193e+002
7.413326e+002, 7.536403e+002
7.418148e+002, 7.500251e+002
7.422969e+002, 7.466665e+002
7.427790e+002, 7.445862e+002
7.432611e+002, 7.413278e+002
7.437432e+002, 7.347250e+002
7.442253e+002, 7.284434e+002
7.447075e+002, 7.254115e+002
7.451896e+002, 7.250690e+002
7.456717e+002, 7.252633e+002
7.461538e+002, 7.250429e+002
7.466359e+002, 7.247225e+002
7.471180e+002, 7.249288e+002
7.476002e+002, 7.253663e+002
7.480823e+002, 7.248242e+002
7.485644e+002, 7.231320e+002
7.490465e+002, 7.212914e+002
7.495286e+002, 7.198704e+002
7.500107e+002, 7.186952e+002
7.504929e+002, 7.172969e+002
7.509750e+002, 7.152186e+002
7.514571e+002, 7.140718e+002
7.519392e+002, 7.147933e+002
7.524213e+002, 7.153246e+002
7.529034e+002, 7.150616e+002
7.533856e+002, 7.140165e+002
7.538677e+002, 7.118000e+002
7.543498e+002, 7.084486e+002
7.548319e+002, 7.059077e+002
7.553140e+002, 7.062437e+002
7.557961e+002, 7.079813e+002
7.562783e+002, 7.086295e+002
7.567604e+002, 7.083599e+002
7.572425e+002, 7.085529e+002
7.577246e+002, 7.097194e+002
7.582067e+002, 7.108398e+002
7.586888e+002, 7.104704e+002
7.591710e+002, 7.086345e+002
7.596531e+002, 7.089525e+002
7.601352e+002, 7.137206e+002
7.606173e+002, 7.171308e+002
7.610994e+002, 7.179734e+002
7.615815e+002, 7.175699e+002
7.620637e+002, 7.162538e+002
7.625458e+002, 7.144981e+002
7.630279e+002, 7.135321e+002
7.635100e+002, 7.139837e+002
7.639921e+002, 7.151010e+002
7.644742e+002, 7.165126e+002
7.649564e+002, 7.180785e+002
7.654385e+002, 7.199075e+002
7.659206e+002, 7.218188e+002
7.664027e+002, 7.225320e+002
7.668848e+002, 7.211786e+002
7.673669e+002, 7.183885e+002
7.678491e+002, 7.152269e+002
7.683312e+002, 7.108201e+002
7.688133e+002, 7.094979e+002
7.692954e+002, 7.135404e+002
7.697775e+002, 7.175987e+002
7.702596e+002, 7.199352e+002
7.707418e+002, 7.206559e+002
7.712239e+002, 7.196611e+002
7.717060e+002, 7.168508e+002
7.721881e+002, 7.133023e+002
7.726702e+002, 7.089630e+002
7.731523e+002, 7.044589e+002
7.736345e+002, 7.002416e+002
7.741166e+002, 6.962846e+002
7.745987e+002, 6.928041e+002
7.750808e+002, 6.897127e+002
7.755629e+002, 6.858885e+002
7.760450e+002, 6.800673e+002
7.765272e+002, 6.726508e+002
7.770093e+002, 6.653718e+002
7.774914e+002, 6.580955e+002
7.779735e+002, 6.516694e+002
7.784556e+002, 6.462999e+002
7.789377e+002, 6.417484e+002
7.794199e+002, 6.385536e+002
7.799020e+002, 6.361456e+002
7.803841e+002, 6.316607e+002
7.808662e+002, 6.236449e+002
7.813483e+002, 6.155431e+002
7.818304e+002, 6.070473e+002
7.823126e+002, 5.996561e+002
7.827947e+002, 5.960311e+002
7.832768e+002, 5.944300e+002
7.837589e+002, 5.898575e+002
7.842410e+002, 5.799054e+002
7.847231e+002, 5.697475e+002
7.852053e+002, 5.670032e+002
7.856874e+002, 5.694795e+002
7.861695e+002, 5.677463e+002
7.866516e+002, 5.611094e+002
7.871337e+002, 5.559135e+002
7.876158e+002, 5.554840e+002
7.880980e+002, 5.566613e+002
7.885801e+002, 5.545990e+002
7.890622e+002, 5.487555e+002
7.895443e+002, 5.432552e+002
7.900264e+002, 5.375174e+002
7.905085e+002, 5.328834e+002
7.909907e+002, 5.297316e+002
7.914728e+002, 5.277477e+002
7.919549e+002, 5.277623e+002
7.924370e+002, 5.289530e+002
7.929191e+002, 5.278443e+002
7.934012e+002, 5.213173e+002
7.938834e+002, 5.140280e+002
7.943655e+002, 5.107188e+002
7.948476e+002, 5.099970e+002
7.953297e+002, 5.091166e+002
7.958118e+002, 5.076215e+002
7.962939e+002, 5.058505e+002
7.967761e+002, 5.039774e+002
7.972582e+002, 5.021445e+002
7.977403e+002, 5.008424e+002
7.982224e+002, 5.003780e+002
7.987045e+002, 4.990393e+002
7.991866e+002, 4.961305e+002
7.996688e+002, 4.933859e+002
8.001509e+002, 4.917075e+002
8.006330e+002, 4.905687e+002
8.011151e+002, 4.893474e+002
8.015972e+002, 4.879951e+002
8.020793e+002, 4.868658e+002
8.025615e+002, 4.870215e+002
8.030436e+002, 4.864347e+002
8.035257e+002, 4.831474e+002
8.040078e+002, 4.786281e+002
8.044899e+002, 4.748845e+002
8.049720e+002, 4.723907e+002
8.054542e+002, 4.708255e+002
8.059363e+002, 4.701414e+002
8.064184e+002, 4.698834e+002
8.069005e+002, 4.688784e+002
8.073826e+002, 4.671782e+002
8.078647e+002, 4.660509e+002
8.083469e+002, 4.657362e+002
8.088290e+002, 4.658366e+002
8.093111e+002, 4.660444e+002
8.097932e+002, 4.664940e+002
8.102753e+002, 4.677352e+002
8.107574e+002, 4.715880e+002
8.112396e+002, 4.724306e+002
8.117217e+002, 4.666705e+002
8.122038e+002, 4.619896e+002
8.126859e+002, 4.631647e+002
8.131680e+002, 4.666491e+002
8.136501e+002, 4.672006e+002
8.141323e+002, 4.639478e+002
8.146144e+002, 4.608627e+002
8.150965e+002, 4.607873e+002
8.155786e+002, 4.618495e+002
8.160607e+002, 4.619923e+002
8.165428e+002, 4.614937e+002
8.170250e+002, 4.612630e+002
8.175071e+002, 4.614632e+002
8.179892e+002, 4.611865e+002
8.184713e+002, 4.594107e+002
8.189534e+002, 4.570416e+002
8.194355e+002, 4.578330e+002
8.199177e+002, 4.628740e+002
8.203998e+002, 4.659127e+002
8.208819e+002, 4.653264e+002
8.213640e+002, 4.642696e+002
8.218461e+002, 4.647013e+002
8.223282e+002, 4.659268e+002
8.228104e+002, 4.665519e+002
8.232925e+002, 4.663913e+002
8.237746e+002, 4.662549e+002
8.242567e+002, 4.655975e+002
8.247388e+002, 4.657559e+002
8.252209e+002, 4.681640e+002
8.257031e+002, 4.715713e+002
8.261852e+002, 4.744415e+002
8.266673e+002, 4.763179e+002
8.271494e+002, 4.771081e+002
8.276315e+002, 4.763558e+002
8.281136e+002, 4.748909e+002
8.285958e+002, 4.736253e+002
8.290779e+002, 4.727999e+002
8.295600e+002, 4.741198e+002
8.300421e+002, 4.779818e+002
8.305242e+002, 4.812640e+002
8.310063e+002, 4.814315e+002
8.314885e+002, 4.797520e+002
8.319706e+002, 4.802639e+002
8.324527e+002, 4.841319e+002
8.329348e+002, 4.871194e+002
8.334169e+002, 4.893283e+002
8.338990e+002, 4.904330e+002
8.343812e+002, 4.888872e+002
8.348633e+002, 4.870076e+002
8.353454e+002, 4.883528e+002
8.358275e+002, 4.933444e+002
8.363096e+002, 4.967528e+002
8.367917e+002, 4.940760e+002
8.372739e+002, 4.922923e+002
8.377560e+002, 4.976611e+002
8.382381e+002, 5.056888e+002
8.387202e+002, 5.096826e+002
8.392023e+002, 5.091342e+002
8.396844e+002, 5.079945e+002
8.401666e+002, 5.087834e+002
8.406487e+002, 5.108221e+002
8.411308e+002, 5.134697e+002
8.416129e+002, 5.164847e+002
8.420950e+002, 5.178261e+002
8.425771e+002, 5.171377e+002
8.430593e+002, 5.166108e+002
8.435414e+002, 5.173148e+002
8.440235e+002, 5.191375e+002
8.445056e+002, 5.220915e+002
8.449877e+002, 5.266365e+002
8.454698e+002, 5.299312e+002
8.459520e+002, 5.310784e+002
8.464341e+002, 5.321439e+002
8.469162e+002, 5.340499e+002
8.473983e+002, 5.357262e+002
8.478804e+002, 5.363417e+002
8.483625e+002, 5.358617e+002
8.488447e+002, 5.344327e+002
8.493268e+002, 5.309962e+002
8.498089e+002, 5.283535e+002
8.502910e+002, 5.277251e+002
8.507731e+002, 5.289552e+002
8.512552e+002, 5.335197e+002
8.517374e+002, 5.397932e+002
8.522195e+002, 5.428504e+002
8.527016e+002, 5.404178e+002
8.531837e+002, 5.360421e+002
8.536658e+002, 5.340393e+002
8.541479e+002, 5.340516e+002
8.546301e+002, 5.345792e+002
8.551122e+002, 5.356165e+002
8.555943e+002, 5.366277e+002
8.560764e+002, 5.377938e+002
8.565585e+002, 5.373154e+002
8.570406e+002, 5.324213e+002
8.575228e+002, 5.238208e+002
8.580049e+002, 5.199625e+002
8.584870e+002, 5.243812e+002
8.589691e+002, 5.276118e+002
8.594512e+002, 5.284941e+002
8.599333e+002, 5.284317e+002
8.604155e+002, 5.280894e+002
8.608976e+002, 5.273433e+002
8.613797e+002, 5.258430e+002
8.618618e+002, 5.234532e+002
8.623439e+002, 5.207709e+002
8.628260e+002, 5.177776e+002
8.633082e+002, 5.148411e+002
8.637903e+002, 5.116587e+002
8.642724e+002, 5.089681e+002
8.647545e+002, 5.086441e+002
8.652366e+002, 5.105977e+002
8.657188e+002, 5.117648e+002
8.662009e+002, 5.095042e+002
8.666830e+002, 5.054662e+002
8.671651e+002, 5.029445e+002
8.676472e+002, 5.016167e+002
8.681293e+002, 4.991255e+002
8.686115e+002, 4.950359e+002
8.690936e+002, 4.920474e+002
8.695757e+002, 4.919725e+002
8.700578e+002, 4.935172e+002
8.705399e+002, 4.942211e+002
8.710220e+002, 4.942906e+002
8.715042e+002, 4.922448e+002
8.719863e+002, 4.857209e+002
8.724684e+002, 4.809047e+002
8.729505e+002, 4.816521e+002
8.734326e+002, 4.834650e+002
8.739147e+002, 4.818786e+002
8.743969e+002, 4.775094e+002
8.748790e+002, 4.749819e+002
8.753611e+002, 4.775024e+002
8.758432e+002, 4.786812e+002
8.763253e+002, 4.748902e+002
8.768074e+002, 4.700052e+002
8.772896e+002, 4.673641e+002
8.777717e+002, 4.664846e+002
8.782538e+002, 4.652676e+002
8.787359e+002, 4.629594e+002
8.792180e+002, 4.613046e+002
8.797001e+002, 4.628797e+002
8.801823e+002, 4.657066e+002
8.806644e+002, 4.661698e+002
8.811465e+002, 4.645276e+002
8.816286e+002, 4.615962e+002
8.821107e+002, 4.576820e+002
8.825928e+002, 4.550772e+002
8.830750e+002, 4.561890e+002
8.835571e+002, 4.594159e+002
8.840392e+002, 4.588141e+002
8.845213e+002, 4.534213e+002
8.850034e+002, 4.498647e+002
8.854855e+002, 4.491942e+002
8.859677e+002, 4.493268e+002
8.864498e+002, 4.496619e+002
8.869319e+002, 4.498468e+002
8.874140e+002, 4.492626e+002
8.878961e+002, 4.478552e+002
8.883782e+002, 4.460663e+002
8.888604e+002, 4.422337e+002
8.893425e+002, 4.401988e+002
8.898246e+002, 4.427440e+002
8.903067e+002, 4.461377e+002
8.907888e+002, 4.472622e+002
8.912709e+002, 4.462754e+002
8.917531e+002, 4.446830e+002
8.922352e+002, 4.428124e+002
8.927173e+002, 4.411024e+002
8.931994e+002, 4.399504e+002
8.936815e+002, 4.390534e+002
8.941636e+002, 4.379979e+002
8.946458e+002, 4.368927e+002
8.951279e+002, 4.361661e+002
8.956100e+002, 4.359190e+002
8.960921e+002, 4.357185e+002
8.965742e+002, 4.349954e+002
8.970563e+002, 4.341609e+002
8.975385e+002, 4.345551e+002
8.980206e+002, 4.360517e+002
8.985027e+002, 4.371555e+002
8.989848e+002, 4.376571e+002
8.994669e+002, 4.370291e+002
8.999490e+002, 4.346070e+002
9.004312e+002, 4.314482e+002
9.009133e+002, 4.300096e+002
9.013954e+002, 4.306563e+002
9.018775e+002, 4.314477e+002
9.023596e+002, 4.332628e+002
9.028417e+002, 4.337065e+002
9.033239e+002, 4.308978e+002
9.038060e+002, 4.273231e+002
9.042881e+002, 4.250716e+002
9.047702e+002, 4.240977e+002
9.052523e+002, 4.240171e+002
9.057344e+002, 4.260412e+002
9.062166e+002, 4.270914e+002
9.066987e+002, 4.257188e+002
9.071808e+002, 4.238076e+002
9.076629e+002, 4.222122e+002
9.081450e+002, 4.212516e+002
9.086271e+002, 4.212815e+002
9.091093e+002, 4.223756e+002
9.095914e+002, 4.241129e+002
9.100735e+002, 4.275262e+002
9.105556e+002, 4.303004e+002
9.110377e+002, 4.291543e+002
9.115198e+002, 4.256302e+002
9.120020e+002, 4.224827e+002
9.124841e+002, 4.203975e+002
9.129662e+002, 4.196378e+002
9.134483e+002, 4.204307e+002
9.139304e+002, 4.221996e+002
9.144125e+002, 4.247396e+002
9.148947e+002, 4.276582e+002
9.153768e+002, 4.271067e+002
9.158589e+002, 4.227327e+002
9.163410e+002, 4.194993e+002
9.168231e+002, 4.192904e+002
9.173052e+002, 4.206391e+002
9.177874e+002, 4.221631e+002
9.182695e+002, 4.237537e+002
9.187516e+002, 4.241455e+002
9.192337e+002, 4.223563e+002
9.197158e+002, 4.217529e+002
9.201979e+002, 4.231964e+002
9.206801e+002, 4.251842e+002
9.211622e+002, 4.269798e+002
9.216443e+002, 4.287630e+002
9.221264e+002, 4.308336e+002
9.226085e+002, 4.332407e+002
9.230906e+002, 4.356275e+002
9.235728e+002, 4.388113e+002
9.240549e+002, 4.408838e+002
9.245370e+002, 4.394819e+002
9.250191e+002, 4.378943e+002
9.255012e+002, 4.399198e+002
9.259833e+002, 4.446010e+002
9.264655e+002, 4.477093e+002
9.269476e+002, 4.469930e+002
9.274297e+002, 4.473332e+002
9.279118e+002, 4.540101e+002
9.283939e+002, 4.620076e+002
9.288760e+002, 4.654934e+002
9.293582e+002, 4.656965e+002
9.298403e+002, 4.654128e+002
9.303224e+002, 4.657618e+002
9.308045e+002, 4.680634e+002
9.312866e+002, 4.737792e+002
9.317687e+002, 4.812447e+002
9.322509e+002, 4.875422e+002
9.327330e+002, 4.928154e+002
9.332151e+002, 4.973286e+002
9.336972e+002, 5.011904e+002
9.341793e+002, 5.061650e+002
9.346614e+002, 5.132487e+002
9.351436e+002, 5.208058e+002
9.356257e+002, 5.261727e+002
9.361078e+002, 5.295400e+002
9.365899e+002, 5.352999e+002
9.370720e+002, 5.446066e+002
9.375541e+002, 5.513913e+002
9.380363e+002, 5.539155e+002
9.385184e+002, 5.545937e+002
9.390005e+002, 5.546500e+002
9.394826e+002, 5.543796e+002
9.399647e+002, 5.547293e+002
9.404468e+002, 5.563978e+002
9.409290e+002, 5.567438e+002
9.414111e+002, 5.570099e+002
9.418932e+002, 5.544324e+002
9.423753e+002, 5.453445e+002
9.428574e+002, 5.352642e+002
9.433395e+002, 5.299195e+002
9.438217e+002, 5.284845e+002
9.443038e+002, 5.256430e+002
9.447859e+002, 5.194720e+002
9.452680e+002, 5.132062e+002
9.457501e+002, 5.082040e+002
9.462322e+002, 5.033446e+002
9.467144e+002, 4.968835e+002
9.471965e+002, 4.903458e+002
9.476786e+002, 4.868055e+002
9.481607e+002, 4.865500e+002
9.486428e+002, 4.858946e+002
9.491249e+002, 4.817846e+002
9.496071e+002, 4.771880e+002
9.500892e+002, 4.761170e+002
9.505713e+002, 4.761781e+002
9.510534e+002, 4.725163e+002
9.515355e+002, 4.657674e+002
9.520176e+002, 4.604034e+002
9.524998e+002, 4.584295e+002
9.529819e+002, 4.584439e+002
9.534640e+002, 4.595436e+002
9.539461e+002, 4.610633e+002
9.544282e+002, 4.605578e+002
9.549103e+002, 4.583536e+002
9.553925e+002, 4.571822e+002
9.558746e+002, 4.576145e+002
9.563567e+002, 4.579715e+002
9.568388e+002, 4.570185e+002
9.573209e+002, 4.554779e+002
9.578030e+002, 4.551369e+002
9.582852e+002, 4.562121e+002
9.587673e+002, 4.557430e+002
9.592494e+002, 4.532021e+002
9.597315e+002, 4.511347e+002
9.602136e+002, 4.500951e+002
9.606957e+002, 4.503027e+002
9.611779e+002, 4.523922e+002
9.616600e+002, 4.558792e+002
9.621421e+002, 4.581422e+002
9.626242e+002, 4.591423e+002
9.631063e+002, 4.589585e+002
9.635884e+002, 4.553832e+002
9.640706e+002, 4.534220e+002
9.645527e+002, 4.565064e+002
9.650348e+002, 4.610521e+002
9.655169e+002, 4.628765e+002
9.659990e+002, 4.620850e+002
9.664811e+002, 4.619664e+002
9.669633e+002, 4.630565e+002
9.674454e+002, 4.647249e+002
9.679275e+002, 4.681812e+002
9.684096e+002, 4.708434e+002
9.688917e+002, 4.705718e+002
9.693738e+002, 4.684756e+002
9.698560e+002, 4.661733e+002
9.703381e+002, 4.640501e+002
9.708202e+002, 4.629381e+002
9.713023e+002, 4.631773e+002
9.717844e+002, 4.646159e+002
9.722665e+002, 4.687247e+002
9.727487e+002, 4.728974e+002
9.732308e+002, 4.730881e+002
9.737129e+002, 4.705253e+002
9.741950e+002, 4.696725e+002
9.746771e+002, 4.722455e+002
9.751592e+002, 4.756403e+002
9.756414e+002, 4.773930e+002
9.761235e+002, 4.786832e+002
9.766056e+002, 4.818688e+002
9.770877e+002, 4.857995e+002
9.775698e+002, 4.871706e+002
9.780519e+002, 4.859297e+002
9.785341e+002, 4.852922e+002
9.790162e+002, 4.871972e+002
9.794983e+002, 4.901677e+002
9.799804e+002, 4.924781e+002
9.804625e+002, 4.940165e+002
9.809446e+002, 4.936299e+002
9.814268e+002, 4.916508e+002
9.819089e+002, 4.917438e+002
9.823910e+002, 4.948882e+002
9.828731e+002, 4.986484e+002
9.833552e+002, 5.010958e+002
9.838373e+002, 5.026931e+002
9.843195e+002, 5.042661e+002
9.848016e+002, 5.057297e+002
9.852837e+002, 5.095614e+002
9.857658e+002, 5.165842e+002
9.862479e+002, 5.214134e+002
9.867300e+002, 5.215527e+002
9.872122e+002, 5.206368e+002
9.876943e+002, 5.221512e+002
9.881764e+002, 5.258694e+002
9.886585e+002, 5.307926e+002
9.891406e+002, 5.381805e+002
9.896227e+002, 5.429308e+002
9.901049e+002, 5.428540e+002
9.905870e+002, 5.438173e+002
9.910691e+002, 5.489894e+002
9.915512e+002, 5.556141e+002
9.920333e+002, 5.604144e+002
9.925154e+002, 5.634376e+002
9.929976e+002, 5.668481e+002
9.934797e+002, 5.698635e+002
9.939618e+002, 5.744550e+002
9.944439e+002, 5.822510e+002
9.949260e+002, 5.899645e+002
9.954081e+002, 5.951987e+002
9.958903e+002, 5.998916e+002
9.963724e+002, 6.066432e+002
9.968545e+002, 6.156192e+002
9.973366e+002, 6.255189e+002
9.978187e+002, 6.375891e+002
9.983008e+002, 6.484982e+002
9.987830e+002, 6.557718e+002
9.992651e+002, 6.630933e+002
9.997472e+002, 6.731449e+002
1.000229e+003, 6.851292e+002
1.000711e+003, 6.979323e+002
1.001194e+003, 7.112131e+002
1.001676e+003, 7.232415e+002
1.002158e+003, 7.328658e+002
1.002640e+003, 7.415150e+002
1.003122e+003, 7.511732e+002
1.003604e+003, 7.593699e+002
1.004086e+003, 7.637101e+002
1.004568e+003, 7.643612e+002
1.005050e+003, 7.618716e+002
1.005533e+003, 7.564874e+002
1.006015e+003, 7.506702e+002
1.006497e+003, 7.473074e+002
1.006979e+003, 7.431547e+002
1.007461e+003, 7.336819e+002
1.007943e+003, 7.220367e+002
1.008425e+003, 7.134603e+002
1.008907e+003, 7.076320e+002
1.009390e+003, 7.008998e+002
1.009872e+003, 6.916796e+002
1.010354e+003, 6.830658e+002
1.010836e+003, 6.788134e+002
1.011318e+003, 6.765349e+002
1.011800e+003, 6.714507e+002
1.012282e+003, 6.654176e+002
1.012764e+003, 6.647114e+002
1.013246e+003, 6.687919e+002
1.013729e+003, 6.688380e+002
1.014211e+003, 6.600593e+002
1.014693e+003, 6.494950e+002
1.015175e+003, 6.465870e+002
1.015657e+003, 6.491054e+002
1.016139e+003, 6.512343e+002
1.016621e+003, 6.528677e+002
1.017103e+003, 6.532521e+002
1.017586e+003, 6.523439e+002
1.018068e+003, 6.515866e+002
1.018550e+003, 6.519291e+002
1.019032e+003, 6.523946e+002
1.019514e+003, 6.506031e+002
1.019996e+003, 6.472592e+002
1.020478e+003, 6.483210e+002
1.020960e+003, 6.536312e+002
1.021442e+003, 6.565720e+002
1.021925e+003, 6.554572e+002
1.022407e+003, 6.552048e+002
1.022889e+003, 6.595611e+002
1.023371e+003, 6.655646e+002
1.023853e+003, 6.665919e+002
1.024335e+003, 6.625640e+002
1.024817e+003, 6.624579e+002
1.025299e+003, 6.666784e+002
1.025781e+003, 6.721313e+002
1.026264e+003, 6.786797e+002
1.026746e+003, 6.835748e+002
1.027228e+003, 6.841482e+002
1.027710e+003, 6.827406e+002
1.028192e+003, 6.850904e+002
1.028674e+003, 6.916793e+002
1.029156e+003, 6.981208e+002
1.029638e+003, 7.042605e+002
1.030120e+003, 7.107153e+002
1.030603e+003, 7.177701e+002
1.031085e+003, 7.248842e+002
1.031567e+003, 7.315597e+002
1.032049e+003, 7.379885e+002
1.032531e+003, 7.445101e+002
1.033013e+003, 7.505572e+002
1.033495e+003, 7.595948e+002
1.033977e+003, 7.736036e+002
1.034460e+003, 7.863361e+002
1.034942e+003, 7.953905e+002
1.035424e+003, 8.040443e+002
1.035906e+003, 8.159116e+002
1.036388e+003, 8.289012e+002
1.036870e+003, 8.368008e+002
1.037352e+003, 8.380786e+002
1.037834e+003, 8.395257e+002
1.038317e+003, 8.420707e+002
1.038799e+003, 8.433749e+002
1.039281e+003, 8.437980e+002
1.039763e+003, 8.419182e+002
1.040245e+003, 8.363827e+002
1.040727e+003, 8.277186e+002
1.041209e+003, 8.169875e+002
1.041691e+003, 8.031017e+002
1.042173e+003, 7.907398e+002
1.042656e+003, 7.779883e+002
1.043138e+003, 7.692773e+002
1.043620e+003, 7.692359e+002
1.044102e+003, 7.703298e+002
1.044584e+003, 7.645772e+002
1.045066e+003, 7.559141e+002
1.045548e+003, 7.559080e+002
1.046030e+003, 7.689680e+002
1.046512e+003, 7.759856e+002
1.046995e+003, 7.698518e+002
1.047477e+003, 7.641302e+002
1.047959e+003, 7.620703e+002
1.048441e+003, 7.625765e+002
1.048923e+003, 7.666877e+002
1.049405e+003, 7.721968e+002
1.049887e+003, 7.735743e+002
1.050369e+003, 7.689863e+002
1.050852e+003, 7.666147e+002
1.051334e+003, 7.698182e+002
1.051816e+003, 7.731059e+002
1.052298e+003, 7.738879e+002
1.052780e+003, 7.746522e+002
1.053262e+003, 7.774767e+002
1.053744e+003, 7.819077e+002
1.054226e+003, 7.869551e+002
1.054708e+003, 7.926993e+002
1.055191e+003, 7.971721e+002
1.055673e+003, 7.990370e+002
1.056155e+003, 8.005928e+002
1.056637e+003, 8.023411e+002
1.057119e+003, 8.044908e+002
1.057601e+003, 8.073502e+002
1.058083e+003, 8.106750e+002
1.058565e+003, 8.142040e+002
1.059047e+003, 8.179321e+002
1.059530e+003, 8.206265e+002
1.060012e+003, 8.201199e+002
1.060494e+003, 8.207472e+002
1.060976e+003, 8.255285e+002
1.061458e+003, 8.310897e+002
1.061940e+003, 8.342718e+002
1.062422e+003, 8.362562e+002
1.062904e+003, 8.398302e+002
1.063387e+003, 8.455139e+002
1.063869e+003, 8.513719e+002
1.064351e+003, 8.575182e+002
1.064833e+003, 8.626141e+002
1.065315e+003, 8.647493e+002
1.065797e+003, 8.668268e+002
1.066279e+003, 8.712998e+002
1.066761e+003, 8.774736e+002
1.067244e+003, 8.843118e+002
1.067726e+003, 8.914454e+002
1.068208e+003, 8.970548e+002
1.068690e+003, 8.988906e+002
1.069172e+003, 9.010875e+002
1.069654e+003, 9.055225e+002
1.070136e+003, 9.110477e+002
1.070618e+003, 9.172219e+002
1.071100e+003, 9.235864e+002
1.071583e+003, 9.290920e+002
1.072065e+003, 9.338187e+002
1.072547e+003, 9.399979e+002
1.073029e+003, 9.512985e+002
1.073511e+003, 9.593872e+002
1.073993e+003, 9.559189e+002
1.074475e+003, 9.520814e+002
1.074957e+003, 9.573284e+002
1.075439e+003, 9.674471e+002
1.075922e+003, 9.761102e+002
1.076404e+003, 9.823887e+002
1.076886e+003, 9.879894e+002
1.077368e+003, 9.928860e+002
1.077850e+003, 9.987194e+002
1.078332e+003, 1.006460e+003
1.078814e+003, 1.015285e+003
1.079297e+003, 1.026042e+003
1.079779e+003, 1.036589e+003
1.080261e+003, 1.043439e+003
1.080743e+003, 1.047227e+003
1.081225e+003, 1.051819e+003
1.081707e+003, 1.058222e+003
1.082189e+003, 1.066498e+003
1.082671e+003, 1.080306e+003
1.083153e+003, 1.091892e+003
1.083635e+003, 1.092332e+003
1.084118e+003, 1.090498e+003
1.084600e+003, 1.097381e+003
1.085082e+003, 1.111673e+003
1.085564e+003, 1.125435e+003
1.086046e+003, 1.136527e+003
1.086528e+003, 1.146418e+003
1.087010e+003, 1.156637e+003
1.087492e+003, 1.164733e+003
1.087975e+003, 1.166534e+003
1.088457e+003, 1.167857e+003
1.088939e+003, 1.175263e+003
1.089421e+003, 1.187046e+003
1.089903e+003, 1.197614e+003
1.090385e+003, 1.205517e+003
1.090867e+003, 1.214609e+003
1.091349e+003, 1.229210e+003
1.091832e+003, 1.241598e+003
1.092314e+003, 1.245045e+003
1.092796e+003, 1.247640e+003
1.093278e+003, 1.257324e+003
1.093760e+003, 1.270950e+003
1.094242e+003, 1.281006e+003
1.094724e+003, 1.286304e+003
1.095206e+003, 1.294242e+003
1.095688e+003, 1.310802e+003
1.096171e+003, 1.325309e+003
1.096653e+003, 1.331050e+003
1.097135e+003, 1.336563e+003
1.097617e+003, 1.348857e+003
1.098099e+003, 1.364197e+003
1.098581e+003, 1.377108e+003
1.099063e+003, 1.387010e+003
1.099545e+003, 1.395383e+003
1.100027e+003, 1.400119e+003
1.100510e+003, 1.407676e+003
1.100992e+003, 1.421484e+003
1.101474e+003, 1.436534e+003
1.101956e+003, 1.450443e+003
1.102438e+003, 1.463874e+003
1.102920e+003, 1.478239e+003
1.103402e+003, 1.493073e+003
1.103884e+003, 1.505722e+003
1.104367e+003, 1.514023e+003
1.104849e+003, 1.524479e+003
1.105331e+003, 1.541506e+003
1.105813e+003, 1.556651e+003
1.106295e+003, 1.563779e+003
1.106777e+003, 1.570116e+003
1.107259e+003, 1.583226e+003
1.107741e+003, 1.600715e+003
1.108224e+003, 1.614698e+003
1.108706e+003, 1.623195e+003
1.109188e+003, 1.633431e+003
1.109670e+003, 1.646216e+003
1.110152e+003, 1.660493e+003
1.110634e+003, 1.675780e+003
1.111116e+003, 1.692781e+003
1.111598e+003, 1.713380e+003
1.112080e+003, 1.735588e+003
1.112563e+003, 1.755827e+003
1.113045e+003, 1.774045e+003
1.113527e+003, 1.790153e+003
1.114009e+003, 1.802896e+003
1.114491e+003, 1.815702e+003
1.114973e+003, 1.829266e+003
1.115455e+003, 1.842425e+003
1.115937e+003, 1.853395e+003
1.116419e+003, 1.864732e+003
1.116902e+003, 1.879688e+003
1.117384e+003, 1.898050e+003
1.117866e+003, 1.918067e+003
1.118348e+003, 1.941817e+003
1.118830e+003, 1.962110e+003
1.119312e+003, 1.976039e+003
1.119794e+003, 1.991953e+003
1.120276e+003, 2.013538e+003
1.120759e+003, 2.036903e+003
1.121241e+003, 2.059064e+003
1.121723e+003, 2.079913e+003
1.122205e+003, 2.098828e+003
1.122687e+003, 2.114424e+003
1.123169e+003, 2.135091e+003
1.123651e+003, 2.162378e+003
1.124133e+003, 2.190171e+003
1.124615e+003, 2.217827e+003
1.125098e+003, 2.242954e+003
1.125580e+003, 2.263131e+003
1.126062e+003, 2.281221e+003
1.126544e+003, 2.302804e+003
1.127026e+003, 2.327718e+003
1.127508e+003, 2.351386e+003
1.127990e+003, 2.373627e+003
1.128472e+003, 2.395543e+003
1.128954e+003, 2.416749e+003
1.129437e+003, 2.442974e+003
1.129919e+003, 2.478193e+003
1.130401e+003, 2.513916e+003
1.130883e+003, 2.539326e+003
1.131365e+003, 2.557546e+003
1.131847e+003, 2.581026e+003
1.132329e+003, 2.609740e+003
1.132811e+003, 2.642692e+003
1.133294e+003, 2.679753e+003
1.133776e+003, 2.715479e+003
1.134258e+003, 2.748067e+003
1.134740e+003, 2.779933e+003
1.135222e+003, 2.812771e+003
1.135704e+003, 2.847381e+003
1.136186e+003, 2.885526e+003
1.136668e+003, 2.926603e+003
1.137151e+003, 2.968471e+003
1.137633e+003, 3.010685e+003
1.138115e+003, 3.050200e+003
1.138597e+003, 3.087118e+003
1.139079e+003, 3.129576e+003
1.139561e+003, 3.182041e+003
1.140043e+003, 3.235623e+003
1.140525e+003, 3.276195e+003
1.141007e+003, 3.313056e+003
1.141490e+003, 3.365789e+003
1.141972e+003, 3.427745e+003
1.142454e+003, 3.483473e+003
1.142936e+003, 3.533793e+003
1.143418e+003, 3.588826e+003
1.143900e+003, 3.651600e+003
1.144382e+003, 3.715788e+003
1.144864e+003, 3.775304e+003
1.145346e+003, 3.836148e+003
1.145829e+003, 3.906831e+003
1.146311e+003, 3.980404e+003
1.146793e+003, 4.046262e+003
1.147275e+003, 4.109058e+003
1.147757e+003, 4.178655e+003
1.148239e+003, 4.256186e+003
1.148721e+003, 4.336305e+003
1.149203e+003, 4.416988e+003
1.149686e+003, 4.498506e+003
1.150168e+003, 4.576209e+003
1.150650e+003, 4.659735e+003
1.151132e+003, 4.759780e+003
1.151614e+003, 4.867366e+003
1.152096e+003, 4.974215e+003
1.152578e+003, 5.078574e+003
1.153060e+003, 5.177266e+003
1.153542e+003, 5.268664e+003
1.154025e+003, 5.372776e+003
1.154507e+003, 5.502651e+003
1.154989e+003, 5.637135e+003
1.155471e+003, 5.767106e+003
1.155953e+003, 5.900920e+003
1.156435e+003, 6.047253e+003
1.156917e+003, 6.200201e+003
1.157399e+003, 6.351108e+003
1.157881e+003, 6.499773e+003
1.158364e+003, 6.655065e+003
1.158846e+003, 6.822288e+003
1.159328e+003, 6.987797e+003
1.159810e+003, 7.142122e+003
1.160292e+003, 7.305720e+003
1.160774e+003, 7.489011e+003
1.161256e+003, 7.677344e+003
1.161738e+003, 7.855225e+003
1.162221e+003, 8.031770e+003
1.162703e+003, 8.231662e+003
1.163185e+003, 8.458447e+003
1.163667e+003, 8.675944e+003
1.164149e+003, 8.876924e+003
1.164631e+003, 9.089125e+003
1.165113e+003, 9.319525e+003
1.165595e+003, 9.552245e+003
1.166078e+003, 9.779273e+003
1.166560e+003, 1.000871e+004
1.167042e+003, 1.025290e+004
1.167524e+003, 1.050983e+004
1.168006e+003, 1.076738e+004
1.168488e+003, 1.102729e+004
1.168970e+003, 1.128650e+004
1.169452e+003, 1.154562e+004
1.169934e+003, 1.181071e+004
1.170417e+003, 1.208440e+004
1.170899e+003, 1.235754e+004
1.171381e+003, 1.262224e+004
1.171863e+003, 1.288466e+004
1.172345e+003, 1.315858e+004
1.172827e+003, 1.343800e+004
1.173309e+003, 1.369854e+004
1.173791e+003, 1.394381e+004
1.174273e+003, 1.419034e+004
1.174756e+003, 1.443827e+004
1.175238e+003, 1.467832e+004
1.175720e+003, 1.490801e+004
1.176202e+003, 1.513598e+004
1.176684e+003, 1.537356e+004
1.177166e+003, 1.560631e+004
1.177648e+003, 1.582569e+004
1.178130e+003, 1.602508e+004
1.178613e+003, 1.618756e+004
1.179095e+003, 1.632759e+004
1.179577e+003, 1.648113e+004
1.180059e+003, 1.664668e+004
1.180541e+003, 1.678674e+004
1.181023e+003, 1.688192e+004
1.181505e+003, 1.696849e+004
1.181987e+003, 1.707795e+004
1.182469e+003, 1.717570e+004
1.182952e+003, 1.723748e+004
1.183434e+003, 1.727760e+004
1.183916e+003, 1.731219e+004
1.184398e+003, 1.733599e+004
1.184880e+003, 1.733255e+004
1.185362e+003, 1.730038e+004
1.185844e+003, 1.726555e+004
1.186326e+003, 1.724563e+004
1.186808e+003, 1.720575e+004
1.187291e+003, 1.713627e+004
1.187773e+003, 1.705021e+004
1.188255e+003, 1.695089e+004
1.188737e+003, 1.683919e+004
1.189219e+003, 1.671201e+004
1.189701e+003, 1.657307e+004
1.190183e+003, 1.643285e+004
1.190665e+003, 1.629165e+004
1.191148e+003, 1.614509e+004
1.191630e+003, 1.599214e+004
1.192112e+003, 1.583581e+004
1.192594e+003, 1.567895e+004
1.193076e+003, 1.551072e+004
1.193558e+003, 1.532339e+004
1.194040e+003, 1.512816e+004
1.194522e+003, 1.493878e+004
1.195005e+003, 1.475631e+004
1.195487e+003, 1.459077e+004
1.195969e+003, 1.444155e+004
1.196451e+003, 1.426331e+004
1.196933e+003, 1.405523e+004
1.197415e+003, 1.385199e+004
1.197897e+003, 1.366184e+004
1.198379e+003, 1.347945e+004
1.198861e+003, 1.329992e+004
1.199344e+003, 1.312152e+004
1.199826e+003, 1.293885e+004
1.200308e+003, 1.275564e+004
1.200790e+003, 1.257537e+004
1.201272e+003, 1.240031e+004
1.201754e+003, 1.224057e+004
1.202236e+003, 1.208958e+004
1.202718e+003, 1.192329e+004
1.203200e+003, 1.173717e+004
1.203683e+003, 1.155865e+004
1.204165e+003, 1.140872e+004
1.204647e+003, 1.125769e+004
1.205129e+003, 1.106917e+004
1.205611e+003, 1.088472e+004
1.206093e+003, 1.074910e+004
1.206575e+003, 1.063365e+004
1.207057e+003, 1.050544e+004
1.207540e+003, 1.036462e+004
1.208022e+003, 1.022042e+004
1.208504e+003, 1.007510e+004
1.208986e+003, 9.929361e+003
1.209468e+003, 9.773354e+003
1.209950e+003, 9.630986e+003
1.210432e+003, 9.513342e+003
1.210914e+003, 9.402813e+003
1.211396e+003, 9.293940e+003
1.211879e+003, 9.184164e+003
1.212361e+003, 9.068743e+003
1.212843e+003, 8.950308e+003
1.213325e+003, 8.841648e+003
1.213807e+003, 8.745897e+003
1.214289e+003, 8.646668e+003
1.214771e+003, 8.543098e+003
1.215253e+003, 8.439584e+003
1.215735e+003, 8.337089e+003
1.216218e+003, 8.237663e+003
1.216700e+003, 8.142393e+003
1.217182e+003, 8.050738e+003
1.217664e+003, 7.960354e+003
1.218146e+003, 7.873173e+003
1.218628e+003, 7.795380e+003
1.219110e+003, 7.725163e+003
1.219592e+003, 7.650835e+003
1.220075e+003, 7.573315e+003
1.220557e+003, 7.500949e+003
1.221039e+003, 7.434703e+003
1.221521e+003, 7.363919e+003
1.222003e+003, 7.282649e+003
1.222485e+003, 7.202288e+003
1.222967e+003, 7.135055e+003
1.223449e+003, 7.074129e+003
1.223932e+003, 7.013362e+003
1.224414e+003, 6.952813e+003
1.224896e+003, 6.893318e+003
1.225378e+003, 6.833776e+003
1.225860e+003, 6.771906e+003
1.226342e+003, 6.707487e+003
1.226824e+003, 6.644255e+003
1.227306e+003, 6.581629e+003
1.227788e+003, 6.524770e+003
1.228271e+003, 6.479404e+003
1.228753e+003, 6.434495e+003
1.229235e+003, 6.384269e+003
1.229717e+003, 6.333866e+003
1.230199e+003, 6.287577e+003
1.230681e+003, 6.244269e+003
1.231163e+003, 6.202165e+003
1.231645e+003, 6.161209e+003
1.232127e+003, 6.116071e+003
1.232610e+003, 6.065274e+003
1.233092e+003, 6.014353e+003
1.233574e+003, 5.962110e+003
1.234056e+003, 5.913919e+003
1.234538e+003, 5.871158e+003
1.235020e+003, 5.833771e+003
1.235502e+003, 5.802820e+003
1.235984e+003, 5.773465e+003
1.236467e+003, 5.736428e+003
1.236949e+003, 5.694864e+003
1.237431e+003, 5.665000e+003
1.237913e+003, 5.643363e+003
1.238395e+003, 5.613987e+003
1.238877e+003, 5.576887e+003
1.239359e+003, 5.539241e+003
1.239841e+003, 5.503895e+003
1.240323e+003, 5.471871e+003
1.240806e+003, 5.443844e+003
1.241288e+003, 5.419932e+003
1.241770e+003, 5.404815e+003
1.242252e+003, 5.389099e+003
1.242734e+003, 5.361350e+003
1.243216e+003, 5.328985e+003
1.243698e+003, 5.299851e+003
1.244180e+003, 5.274596e+003
1.244662e+003, 5.252931e+003
1.245145e+003, 5.234550e+003
1.245627e+003, 5.216625e+003
1.246109e+003, 5.198557e+003
1.246591e+003, 5.180890e+003
1.247073e+003, 5.162534e+003
1.247555e+003, 5.146512e+003
1.248037e+003, 5.138385e+003
1.248519e+003, 5.127499e+003
1.249002e+003, 5.104119e+003
1.249484e+003, 5.075113e+003
1.249966e+003, 5.052124e+003
1.250448e+003, 5.035195e+003
1.250930e+003, 5.025497e+003
1.251412e+003, 5.023982e+003
1.251894e+003, 5.019246e+003
1.252376e+003, 5.010345e+003
1.252859e+003, 4.999032e+003
1.253341e+003, 4.985881e+003
1.253823e+003, 4.972414e+003
1.254305e+003, 4.959496e+003
1.254787e+003, 4.948647e+003
1.255269e+003, 4.943743e+003
1.255751e+003, 4.941000e+003
1.256233e+003, 4.932815e+003
1.256715e+003, 4.921756e+003
1.257198e+003, 4.912727e+003
1.257680e+003, 4.904992e+003
1.258162e+003, 4.894030e+003
1.258644e+003, 4.880270e+003
1.259126e+003, 4.871284e+003
1.259608e+003, 4.870649e+003
1.260090e+003, 4.873835e+003
1.260572e+003, 4.884878e+003
1.261054e+003, 4.891215e+003
1.261537e+003, 4.883131e+003
1.262019e+003, 4.871857e+003
1.262501e+003, 4.863670e+003
1.262983e+003, 4.859383e+003
1.263465e+003, 4.861072e+003
1.263947e+003, 4.867622e+003
1.264429e+003, 4.870066e+003
1.264911e+003, 4.865658e+003
1.265394e+003, 4.867041e+003
1.265876e+003, 4.875833e+003
1.266358e+003, 4.882736e+003
1.266840e+003, 4.885101e+003
1.267322e+003, 4.889310e+003
1.267804e+003, 4.898937e+003
1.268286e+003, 4.911691e+003
1.268768e+003, 4.925579e+003
1.269250e+003, 4.938949e+003
1.269733e+003, 4.947526e+003
1.270215e+003, 4.952844e+003
1.270697e+003, 4.957274e+003
1.271179e+003, 4.962321e+003
1.271661e+003, 4.972085e+003
1.272143e+003, 4.985910e+003
1.272625e+003, 4.998349e+003
1.273107e+003, 5.007377e+003
1.273589e+003, 5.017888e+003
1.274072e+003, 5.035028e+003
1.274554e+003, 5.051201e+003
1.275036e+003, 5.058969e+003
1.275518e+003, 5.068655e+003
1.276000e+003, 5.087861e+003
1.276482e+003, 5.111881e+003
1.276964e+003, 5.138016e+003
1.277446e+003, 5.164373e+003
1.277929e+003, 5.183397e+003
1.278411e+003, 5.194175e+003
1.278893e+003, 5.207161e+003
1.279375e+003, 5.222067e+003
1.279857e+003, 5.240832e+003
1.280339e+003, 5.264080e+003
1.280821e+003, 5.288913e+003
1.281303e+003, 5.314521e+003
1.281786e+003, 5.344007e+003
1.282268e+003, 5.379262e+003
##END=



