##NAMES=Nordstrandite
##RRUFFID=R130093
##IDEAL CHEMISTRY=Al(OH)_3_
##LOCALITY=Mont St. Hilaire, Quebec, Canada
##OWNER=RRUFF
##SOURCE=Donald Doell
##DESCRIPTION=Aggregates of colorless to white tabular crystals, associated with white natrolite, apatite, dark prismatic aegirine and annite
##STATUS=The identification of this mineral has been confirmed by single-crystal X-ray diffraction.
##URL=rruff.info/R130093
8.936163e+001, 0.000000e+000
8.984375e+001, 2.900888e+002
9.032587e+001, 2.918475e+002
9.080798e+001, 2.922575e+002
9.129010e+001, 2.910155e+002
9.177222e+001, 2.887686e+002
9.225433e+001, 2.860758e+002
9.273645e+001, 2.829598e+002
9.321857e+001, 2.797726e+002
9.370068e+001, 2.769555e+002
9.418280e+001, 2.743553e+002
9.466492e+001, 2.714917e+002
9.514703e+001, 2.679489e+002
9.562915e+001, 2.640904e+002
9.611127e+001, 2.609341e+002
9.659338e+001, 2.585911e+002
9.707550e+001, 2.564936e+002
9.755762e+001, 2.538342e+002
9.803973e+001, 2.505869e+002
9.852185e+001, 2.475693e+002
9.900397e+001, 2.450973e+002
9.948608e+001, 2.431695e+002
9.996820e+001, 2.416242e+002
1.004503e+002, 2.407151e+002
1.009324e+002, 2.398708e+002
1.014146e+002, 2.377453e+002
1.018967e+002, 2.339275e+002
1.023788e+002, 2.299508e+002
1.028609e+002, 2.264915e+002
1.033430e+002, 2.235629e+002
1.038251e+002, 2.212532e+002
1.043073e+002, 2.198168e+002
1.047894e+002, 2.190540e+002
1.052715e+002, 2.179558e+002
1.057536e+002, 2.165389e+002
1.062357e+002, 2.147590e+002
1.067178e+002, 2.124979e+002
1.072000e+002, 2.091431e+002
1.076821e+002, 2.062282e+002
1.081642e+002, 2.040793e+002
1.086463e+002, 2.027551e+002
1.091284e+002, 2.013830e+002
1.096105e+002, 2.000737e+002
1.100927e+002, 1.986646e+002
1.105748e+002, 1.970196e+002
1.110569e+002, 1.948155e+002
1.115390e+002, 1.926770e+002
1.120211e+002, 1.907603e+002
1.125032e+002, 1.891096e+002
1.129854e+002, 1.875420e+002
1.134675e+002, 1.863605e+002
1.139496e+002, 1.851961e+002
1.144317e+002, 1.834934e+002
1.149138e+002, 1.800878e+002
1.153959e+002, 1.768964e+002
1.158781e+002, 1.749233e+002
1.163602e+002, 1.749033e+002
1.168423e+002, 1.748246e+002
1.173244e+002, 1.740287e+002
1.178065e+002, 1.726438e+002
1.182886e+002, 1.709960e+002
1.187708e+002, 1.689282e+002
1.192529e+002, 1.667975e+002
1.197350e+002, 1.649071e+002
1.202171e+002, 1.633980e+002
1.206992e+002, 1.620622e+002
1.211813e+002, 1.608488e+002
1.216635e+002, 1.597338e+002
1.221456e+002, 1.586142e+002
1.226277e+002, 1.574859e+002
1.231098e+002, 1.563009e+002
1.235919e+002, 1.549933e+002
1.240740e+002, 1.534571e+002
1.245562e+002, 1.518315e+002
1.250383e+002, 1.502193e+002
1.255204e+002, 1.486138e+002
1.260025e+002, 1.471580e+002
1.264846e+002, 1.460664e+002
1.269667e+002, 1.452326e+002
1.274489e+002, 1.443901e+002
1.279310e+002, 1.433695e+002
1.284131e+002, 1.422714e+002
1.288952e+002, 1.413503e+002
1.293773e+002, 1.406527e+002
1.298594e+002, 1.399226e+002
1.303416e+002, 1.387615e+002
1.308237e+002, 1.372294e+002
1.313058e+002, 1.356851e+002
1.317879e+002, 1.343929e+002
1.322700e+002, 1.332775e+002
1.327521e+002, 1.318853e+002
1.332343e+002, 1.300314e+002
1.337164e+002, 1.281480e+002
1.341985e+002, 1.271247e+002
1.346806e+002, 1.270270e+002
1.351627e+002, 1.269197e+002
1.356448e+002, 1.261596e+002
1.361270e+002, 1.247356e+002
1.366091e+002, 1.232999e+002
1.370912e+002, 1.218957e+002
1.375733e+002, 1.205553e+002
1.380554e+002, 1.192789e+002
1.385375e+002, 1.180429e+002
1.390197e+002, 1.169317e+002
1.395018e+002, 1.160336e+002
1.399839e+002, 1.154144e+002
1.404660e+002, 1.147500e+002
1.409481e+002, 1.139422e+002
1.414302e+002, 1.130168e+002
1.419124e+002, 1.123346e+002
1.423945e+002, 1.121248e+002
1.428766e+002, 1.118477e+002
1.433587e+002, 1.108605e+002
1.438408e+002, 1.086512e+002
1.443229e+002, 1.067991e+002
1.448051e+002, 1.057044e+002
1.452872e+002, 1.054501e+002
1.457693e+002, 1.052823e+002
1.462514e+002, 1.054104e+002
1.467335e+002, 1.054939e+002
1.472156e+002, 1.050599e+002
1.476978e+002, 1.035694e+002
1.481799e+002, 1.022330e+002
1.486620e+002, 1.013717e+002
1.491441e+002, 1.011742e+002
1.496262e+002, 1.009625e+002
1.501083e+002, 1.009117e+002
1.505905e+002, 1.008233e+002
1.510726e+002, 1.003389e+002
1.515547e+002, 9.880196e+001
1.520368e+002, 9.744227e+001
1.525189e+002, 9.666380e+001
1.530010e+002, 9.694400e+001
1.534832e+002, 9.699992e+001
1.539653e+002, 9.672797e+001
1.544474e+002, 9.617597e+001
1.549295e+002, 9.545879e+001
1.554116e+002, 9.434280e+001
1.558937e+002, 9.324303e+001
1.563759e+002, 9.236449e+001
1.568580e+002, 9.192960e+001
1.573401e+002, 9.145448e+001
1.578222e+002, 9.072755e+001
1.583043e+002, 8.985324e+001
1.587864e+002, 8.921641e+001
1.592686e+002, 8.933593e+001
1.597507e+002, 8.948414e+001
1.602328e+002, 8.919317e+001
1.607149e+002, 8.789432e+001
1.611970e+002, 8.660356e+001
1.616791e+002, 8.557500e+001
1.621613e+002, 8.481731e+001
1.626434e+002, 8.429182e+001
1.631255e+002, 8.418149e+001
1.636076e+002, 8.422199e+001
1.640897e+002, 8.417786e+001
1.645718e+002, 8.384406e+001
1.650540e+002, 8.351487e+001
1.655361e+002, 8.340385e+001
1.660182e+002, 8.349845e+001
1.665003e+002, 8.348477e+001
1.669824e+002, 8.316110e+001
1.674645e+002, 8.263906e+001
1.679467e+002, 8.206258e+001
1.684288e+002, 8.117361e+001
1.689109e+002, 8.045760e+001
1.693930e+002, 8.032743e+001
1.698751e+002, 8.081375e+001
1.703572e+002, 8.148087e+001
1.708394e+002, 8.230894e+001
1.713215e+002, 8.309754e+001
1.718036e+002, 8.349974e+001
1.722857e+002, 8.308565e+001
1.727678e+002, 8.236382e+001
1.732499e+002, 8.181603e+001
1.737321e+002, 8.147752e+001
1.742142e+002, 8.124635e+001
1.746963e+002, 8.109178e+001
1.751784e+002, 8.097725e+001
1.756605e+002, 8.081538e+001
1.761426e+002, 8.031441e+001
1.766248e+002, 7.982376e+001
1.771069e+002, 8.000041e+001
1.775890e+002, 8.106834e+001
1.780711e+002, 8.209254e+001
1.785532e+002, 8.183072e+001
1.790353e+002, 8.059370e+001
1.795175e+002, 7.950648e+001
1.799996e+002, 7.922212e+001
1.804817e+002, 7.951208e+001
1.809638e+002, 7.999987e+001
1.814459e+002, 8.072144e+001
1.819280e+002, 8.142154e+001
1.824102e+002, 8.176801e+001
1.828923e+002, 8.178326e+001
1.833744e+002, 8.164963e+001
1.838565e+002, 8.121909e+001
1.843386e+002, 8.070140e+001
1.848207e+002, 8.086555e+001
1.853029e+002, 8.209454e+001
1.857850e+002, 8.352644e+001
1.862671e+002, 8.364874e+001
1.867492e+002, 8.250412e+001
1.872313e+002, 8.106816e+001
1.877134e+002, 7.971177e+001
1.881956e+002, 7.853129e+001
1.886777e+002, 7.816730e+001
1.891598e+002, 7.899863e+001
1.896419e+002, 8.036507e+001
1.901240e+002, 8.097019e+001
1.906061e+002, 8.081080e+001
1.910883e+002, 8.001317e+001
1.915704e+002, 7.825784e+001
1.920525e+002, 7.567834e+001
1.925346e+002, 7.379384e+001
1.930167e+002, 7.300318e+001
1.934988e+002, 7.292656e+001
1.939810e+002, 7.264991e+001
1.944631e+002, 7.217937e+001
1.949452e+002, 7.131590e+001
1.954273e+002, 6.927175e+001
1.959094e+002, 6.608836e+001
1.963915e+002, 6.352792e+001
1.968737e+002, 6.203406e+001
1.973558e+002, 6.133997e+001
1.978379e+002, 6.055049e+001
1.983200e+002, 5.966652e+001
1.988021e+002, 5.871386e+001
1.992842e+002, 5.765843e+001
1.997664e+002, 5.647895e+001
2.002485e+002, 5.551052e+001
2.007306e+002, 5.486710e+001
2.012127e+002, 5.448419e+001
2.016948e+002, 5.399138e+001
2.021769e+002, 5.337646e+001
2.026591e+002, 5.269758e+001
2.031412e+002, 5.195949e+001
2.036233e+002, 5.112203e+001
2.041054e+002, 5.048379e+001
2.045875e+002, 5.013712e+001
2.050696e+002, 5.005367e+001
2.055518e+002, 5.001868e+001
2.060339e+002, 5.005220e+001
2.065160e+002, 5.008662e+001
2.069981e+002, 5.006775e+001
2.074802e+002, 5.000757e+001
2.079623e+002, 4.983728e+001
2.084445e+002, 4.949870e+001
2.089266e+002, 4.900098e+001
2.094087e+002, 4.863609e+001
2.098908e+002, 4.844383e+001
2.103729e+002, 4.830268e+001
2.108550e+002, 4.807618e+001
2.113372e+002, 4.774366e+001
2.118193e+002, 4.740133e+001
2.123014e+002, 4.703225e+001
2.127835e+002, 4.663772e+001
2.132656e+002, 4.647960e+001
2.137477e+002, 4.668204e+001
2.142299e+002, 4.694403e+001
2.147120e+002, 4.689198e+001
2.151941e+002, 4.642809e+001
2.156762e+002, 4.591731e+001
2.161583e+002, 4.537710e+001
2.166404e+002, 4.479047e+001
2.171226e+002, 4.456111e+001
2.176047e+002, 4.478666e+001
2.180868e+002, 4.524818e+001
2.185689e+002, 4.573016e+001
2.190510e+002, 4.632819e+001
2.195331e+002, 4.671727e+001
2.200153e+002, 4.673138e+001
2.204974e+002, 4.630744e+001
2.209795e+002, 4.623078e+001
2.214616e+002, 4.660536e+001
2.219437e+002, 4.721340e+001
2.224258e+002, 4.778443e+001
2.229080e+002, 4.823849e+001
2.233901e+002, 4.882153e+001
2.238722e+002, 4.959959e+001
2.243543e+002, 5.059657e+001
2.248364e+002, 5.165600e+001
2.253185e+002, 5.287083e+001
2.258007e+002, 5.404860e+001
2.262828e+002, 5.499580e+001
2.267649e+002, 5.580360e+001
2.272470e+002, 5.618700e+001
2.277291e+002, 5.605648e+001
2.282112e+002, 5.539311e+001
2.286934e+002, 5.432375e+001
2.291755e+002, 5.264953e+001
2.296576e+002, 5.074458e+001
2.301397e+002, 4.906913e+001
2.306218e+002, 4.745290e+001
2.311039e+002, 4.635192e+001
2.315861e+002, 4.600292e+001
2.320682e+002, 4.653278e+001
2.325503e+002, 4.685407e+001
2.330324e+002, 4.674757e+001
2.335145e+002, 4.661692e+001
2.339966e+002, 4.701096e+001
2.344788e+002, 4.822035e+001
2.349609e+002, 4.943673e+001
2.354430e+002, 5.047876e+001
2.359251e+002, 5.134363e+001
2.364072e+002, 5.207111e+001
2.368893e+002, 5.270289e+001
2.373715e+002, 5.316460e+001
2.378536e+002, 5.338112e+001
2.383357e+002, 5.342543e+001
2.388178e+002, 5.308458e+001
2.392999e+002, 5.215513e+001
2.397820e+002, 5.050788e+001
2.402642e+002, 4.930169e+001
2.407463e+002, 4.857066e+001
2.412284e+002, 4.824751e+001
2.417105e+002, 4.826776e+001
2.421926e+002, 4.869366e+001
2.426747e+002, 4.933922e+001
2.431569e+002, 5.012558e+001
2.436390e+002, 5.102687e+001
2.441211e+002, 5.231976e+001
2.446032e+002, 5.406494e+001
2.450853e+002, 5.615126e+001
2.455674e+002, 5.845737e+001
2.460496e+002, 6.100198e+001
2.465317e+002, 6.374479e+001
2.470138e+002, 6.673837e+001
2.474959e+002, 7.002215e+001
2.479780e+002, 7.329958e+001
2.484601e+002, 7.683533e+001
2.489423e+002, 8.014122e+001
2.494244e+002, 8.284940e+001
2.499065e+002, 8.558729e+001
2.503886e+002, 8.650106e+001
2.508707e+002, 8.502676e+001
2.513528e+002, 8.112719e+001
2.518350e+002, 7.601875e+001
2.523171e+002, 6.889552e+001
2.527992e+002, 6.150574e+001
2.532813e+002, 5.563466e+001
2.537634e+002, 5.168448e+001
2.542455e+002, 4.849957e+001
2.547277e+002, 4.591988e+001
2.552098e+002, 4.393932e+001
2.556919e+002, 4.242565e+001
2.561740e+002, 4.151334e+001
2.566561e+002, 4.089646e+001
2.571382e+002, 4.028671e+001
2.576204e+002, 3.958835e+001
2.581025e+002, 3.912060e+001
2.585846e+002, 3.898529e+001
2.590667e+002, 3.916712e+001
2.595488e+002, 3.937886e+001
2.600309e+002, 3.961976e+001
2.605131e+002, 3.988576e+001
2.609952e+002, 4.016109e+001
2.614773e+002, 4.042692e+001
2.619594e+002, 4.076411e+001
2.624415e+002, 4.119867e+001
2.629236e+002, 4.172475e+001
2.634058e+002, 4.228106e+001
2.638879e+002, 4.299664e+001
2.643700e+002, 4.353526e+001
2.648521e+002, 4.362987e+001
2.653342e+002, 4.321088e+001
2.658163e+002, 4.256776e+001
2.662985e+002, 4.168019e+001
2.667806e+002, 4.060067e+001
2.672627e+002, 3.959201e+001
2.677448e+002, 3.866039e+001
2.682269e+002, 3.779929e+001
2.687090e+002, 3.694288e+001
2.691912e+002, 3.599036e+001
2.696733e+002, 3.548039e+001
2.701554e+002, 3.562806e+001
2.706375e+002, 3.622924e+001
2.711196e+002, 3.640104e+001
2.716017e+002, 3.598430e+001
2.720839e+002, 3.557765e+001
2.725660e+002, 3.564640e+001
2.730481e+002, 3.628226e+001
2.735302e+002, 3.676863e+001
2.740123e+002, 3.698328e+001
2.744944e+002, 3.704495e+001
2.749766e+002, 3.729656e+001
2.754587e+002, 3.775213e+001
2.759408e+002, 3.833873e+001
2.764229e+002, 3.901546e+001
2.769050e+002, 3.978804e+001
2.773871e+002, 4.059387e+001
2.778693e+002, 4.138451e+001
2.783514e+002, 4.225634e+001
2.788335e+002, 4.346656e+001
2.793156e+002, 4.507240e+001
2.797977e+002, 4.674541e+001
2.802798e+002, 4.820160e+001
2.807620e+002, 4.942437e+001
2.812441e+002, 5.118724e+001
2.817262e+002, 5.364827e+001
2.822083e+002, 5.644155e+001
2.826904e+002, 5.899611e+001
2.831725e+002, 6.131385e+001
2.836547e+002, 6.336437e+001
2.841368e+002, 6.531680e+001
2.846189e+002, 6.709527e+001
2.851010e+002, 6.798859e+001
2.855831e+002, 6.797449e+001
2.860652e+002, 6.709730e+001
2.865474e+002, 6.506803e+001
2.870295e+002, 6.191317e+001
2.875116e+002, 5.891562e+001
2.879937e+002, 5.649767e+001
2.884758e+002, 5.465693e+001
2.889579e+002, 5.356460e+001
2.894401e+002, 5.325978e+001
2.899222e+002, 5.340723e+001
2.904043e+002, 5.358715e+001
2.908864e+002, 5.383305e+001
2.913685e+002, 5.442439e+001
2.918506e+002, 5.553677e+001
2.923328e+002, 5.706539e+001
2.928149e+002, 5.860323e+001
2.932970e+002, 6.013223e+001
2.937791e+002, 6.195977e+001
2.942612e+002, 6.440768e+001
2.947433e+002, 6.741604e+001
2.952255e+002, 7.071413e+001
2.957076e+002, 7.403618e+001
2.961897e+002, 7.767265e+001
2.966718e+002, 8.218916e+001
2.971539e+002, 8.755223e+001
2.976360e+002, 9.339249e+001
2.981182e+002, 9.906933e+001
2.986003e+002, 1.049277e+002
2.990824e+002, 1.120960e+002
2.995645e+002, 1.214832e+002
3.000466e+002, 1.316893e+002
3.005287e+002, 1.408984e+002
3.010109e+002, 1.491435e+002
3.014930e+002, 1.569796e+002
3.019751e+002, 1.654715e+002
3.024572e+002, 1.736460e+002
3.029393e+002, 1.798082e+002
3.034214e+002, 1.839384e+002
3.039036e+002, 1.854751e+002
3.043857e+002, 1.836948e+002
3.048678e+002, 1.788108e+002
3.053499e+002, 1.714750e+002
3.058320e+002, 1.604756e+002
3.063141e+002, 1.478958e+002
3.067963e+002, 1.362546e+002
3.072784e+002, 1.257125e+002
3.077605e+002, 1.165026e+002
3.082426e+002, 1.088591e+002
3.087247e+002, 1.026684e+002
3.092068e+002, 9.766129e+001
3.096890e+002, 9.402660e+001
3.101711e+002, 9.131448e+001
3.106532e+002, 8.944782e+001
3.111353e+002, 8.861534e+001
3.116174e+002, 8.756369e+001
3.120995e+002, 8.583065e+001
3.125817e+002, 8.331758e+001
3.130638e+002, 7.985616e+001
3.135459e+002, 7.462495e+001
3.140280e+002, 6.894994e+001
3.145101e+002, 6.341224e+001
3.149922e+002, 5.804573e+001
3.154744e+002, 5.330760e+001
3.159565e+002, 4.953540e+001
3.164386e+002, 4.650690e+001
3.169207e+002, 4.401150e+001
3.174028e+002, 4.223236e+001
3.178849e+002, 4.070671e+001
3.183671e+002, 3.928703e+001
3.188492e+002, 3.795578e+001
3.193313e+002, 3.672987e+001
3.198134e+002, 3.560847e+001
3.202955e+002, 3.459117e+001
3.207776e+002, 3.368970e+001
3.212598e+002, 3.286910e+001
3.217419e+002, 3.219104e+001
3.222240e+002, 3.171110e+001
3.227061e+002, 3.140236e+001
3.231882e+002, 3.112633e+001
3.236703e+002, 3.096887e+001
3.241525e+002, 3.075777e+001
3.246346e+002, 3.038607e+001
3.251167e+002, 2.946526e+001
3.255988e+002, 2.889578e+001
3.260809e+002, 2.909631e+001
3.265630e+002, 2.973647e+001
3.270452e+002, 2.991035e+001
3.275273e+002, 2.906156e+001
3.280094e+002, 2.817215e+001
3.284915e+002, 2.757149e+001
3.289736e+002, 2.733752e+001
3.294557e+002, 2.723580e+001
3.299379e+002, 2.735623e+001
3.304200e+002, 2.758082e+001
3.309021e+002, 2.772304e+001
3.313842e+002, 2.778492e+001
3.318663e+002, 2.776202e+001
3.323484e+002, 2.763179e+001
3.328306e+002, 2.737596e+001
3.333127e+002, 2.714747e+001
3.337948e+002, 2.695738e+001
3.342769e+002, 2.678363e+001
3.347590e+002, 2.659591e+001
3.352411e+002, 2.635748e+001
3.357233e+002, 2.618816e+001
3.362054e+002, 2.613851e+001
3.366875e+002, 2.619799e+001
3.371696e+002, 2.619494e+001
3.376517e+002, 2.611558e+001
3.381339e+002, 2.600175e+001
3.386160e+002, 2.582763e+001
3.390981e+002, 2.552202e+001
3.395802e+002, 2.554284e+001
3.400623e+002, 2.608234e+001
3.405444e+002, 2.693657e+001
3.410266e+002, 2.737037e+001
3.415087e+002, 2.733483e+001
3.419908e+002, 2.714674e+001
3.424729e+002, 2.692200e+001
3.429550e+002, 2.666323e+001
3.434371e+002, 2.663126e+001
3.439193e+002, 2.687522e+001
3.444014e+002, 2.730056e+001
3.448835e+002, 2.777239e+001
3.453656e+002, 2.829017e+001
3.458477e+002, 2.878664e+001
3.463298e+002, 2.929464e+001
3.468120e+002, 2.977165e+001
3.472941e+002, 2.992446e+001
3.477762e+002, 2.968953e+001
3.482583e+002, 2.945034e+001
3.487404e+002, 2.981355e+001
3.492225e+002, 3.062034e+001
3.497047e+002, 3.118960e+001
3.501868e+002, 3.112287e+001
3.506689e+002, 3.071846e+001
3.511510e+002, 3.055398e+001
3.516331e+002, 3.062266e+001
3.521152e+002, 3.057498e+001
3.525974e+002, 2.987998e+001
3.530795e+002, 2.889108e+001
3.535616e+002, 2.830577e+001
3.540437e+002, 2.857080e+001
3.545258e+002, 2.898643e+001
3.550079e+002, 2.874588e+001
3.554901e+002, 2.798804e+001
3.559722e+002, 2.733319e+001
3.564543e+002, 2.721328e+001
3.569364e+002, 2.736724e+001
3.574185e+002, 2.754621e+001
3.579006e+002, 2.772835e+001
3.583828e+002, 2.786746e+001
3.588649e+002, 2.784680e+001
3.593470e+002, 2.776513e+001
3.598291e+002, 2.782147e+001
3.603112e+002, 2.822703e+001
3.607933e+002, 2.870321e+001
3.612755e+002, 2.906524e+001
3.617576e+002, 2.927063e+001
3.622397e+002, 2.954927e+001
3.627218e+002, 3.007255e+001
3.632039e+002, 3.068493e+001
3.636860e+002, 3.121284e+001
3.641682e+002, 3.144425e+001
3.646503e+002, 3.175052e+001
3.651324e+002, 3.224031e+001
3.656145e+002, 3.291515e+001
3.660966e+002, 3.368099e+001
3.665787e+002, 3.447715e+001
3.670609e+002, 3.538768e+001
3.675430e+002, 3.646648e+001
3.680251e+002, 3.775094e+001
3.685072e+002, 3.917705e+001
3.689893e+002, 4.070962e+001
3.694714e+002, 4.236674e+001
3.699536e+002, 4.417909e+001
3.704357e+002, 4.618760e+001
3.709178e+002, 4.831740e+001
3.713999e+002, 5.051003e+001
3.718820e+002, 5.273416e+001
3.723641e+002, 5.516213e+001
3.728463e+002, 5.791030e+001
3.733284e+002, 6.075840e+001
3.738105e+002, 6.338913e+001
3.742926e+002, 6.574861e+001
3.747747e+002, 6.803893e+001
3.752568e+002, 7.045084e+001
3.757390e+002, 7.299961e+001
3.762211e+002, 7.485673e+001
3.767032e+002, 7.604855e+001
3.771853e+002, 7.652766e+001
3.776674e+002, 7.624465e+001
3.781495e+002, 7.517404e+001
3.786317e+002, 7.347581e+001
3.791138e+002, 7.101976e+001
3.795959e+002, 6.804764e+001
3.800780e+002, 6.512468e+001
3.805601e+002, 6.224948e+001
3.810422e+002, 5.960611e+001
3.815244e+002, 5.725909e+001
3.820065e+002, 5.521824e+001
3.824886e+002, 5.371078e+001
3.829707e+002, 5.280715e+001
3.834528e+002, 5.225743e+001
3.839349e+002, 5.171807e+001
3.844171e+002, 5.120892e+001
3.848992e+002, 5.083496e+001
3.853813e+002, 5.063966e+001
3.858634e+002, 5.060760e+001
3.863455e+002, 5.075911e+001
3.868276e+002, 5.110138e+001
3.873098e+002, 5.145397e+001
3.877919e+002, 5.184252e+001
3.882740e+002, 5.211093e+001
3.887561e+002, 5.198506e+001
3.892382e+002, 5.133133e+001
3.897203e+002, 5.029300e+001
3.902025e+002, 4.887627e+001
3.906846e+002, 4.714305e+001
3.911667e+002, 4.534359e+001
3.916488e+002, 4.353450e+001
3.921309e+002, 4.178362e+001
3.926130e+002, 4.013301e+001
3.930952e+002, 3.859301e+001
3.935773e+002, 3.719913e+001
3.940594e+002, 3.600300e+001
3.945415e+002, 3.497461e+001
3.950236e+002, 3.405799e+001
3.955057e+002, 3.320434e+001
3.959879e+002, 3.248766e+001
3.964700e+002, 3.194133e+001
3.969521e+002, 3.157377e+001
3.974342e+002, 3.133735e+001
3.979163e+002, 3.127706e+001
3.983984e+002, 3.131962e+001
3.988806e+002, 3.139820e+001
3.993627e+002, 3.166973e+001
3.998448e+002, 3.178644e+001
4.003269e+002, 3.153632e+001
4.008090e+002, 3.101387e+001
4.012911e+002, 3.094891e+001
4.017733e+002, 3.158312e+001
4.022554e+002, 3.238569e+001
4.027375e+002, 3.307124e+001
4.032196e+002, 3.352204e+001
4.037017e+002, 3.415595e+001
4.041838e+002, 3.499405e+001
4.046660e+002, 3.600156e+001
4.051481e+002, 3.713332e+001
4.056302e+002, 3.845195e+001
4.061123e+002, 3.968231e+001
4.065944e+002, 4.066679e+001
4.070765e+002, 4.142971e+001
4.075587e+002, 4.245488e+001
4.080408e+002, 4.381600e+001
4.085229e+002, 4.517821e+001
4.090050e+002, 4.627810e+001
4.094871e+002, 4.710202e+001
4.099692e+002, 4.754634e+001
4.104514e+002, 4.757993e+001
4.109335e+002, 4.723802e+001
4.114156e+002, 4.653646e+001
4.118977e+002, 4.549334e+001
4.123798e+002, 4.424321e+001
4.128619e+002, 4.284156e+001
4.133441e+002, 4.131898e+001
4.138262e+002, 3.965490e+001
4.143083e+002, 3.779390e+001
4.147904e+002, 3.603585e+001
4.152725e+002, 3.462651e+001
4.157546e+002, 3.352555e+001
4.162368e+002, 3.261439e+001
4.167189e+002, 3.187173e+001
4.172010e+002, 3.129093e+001
4.176831e+002, 3.089529e+001
4.181652e+002, 3.068013e+001
4.186473e+002, 3.052353e+001
4.191295e+002, 3.043637e+001
4.196116e+002, 3.034147e+001
4.200937e+002, 3.015996e+001
4.205758e+002, 2.973303e+001
4.210579e+002, 2.941785e+001
4.215400e+002, 2.942046e+001
4.220222e+002, 2.962034e+001
4.225043e+002, 2.971997e+001
4.229864e+002, 2.957531e+001
4.234685e+002, 2.938523e+001
4.239506e+002, 2.922617e+001
4.244327e+002, 2.912306e+001
4.249149e+002, 2.898463e+001
4.253970e+002, 2.873507e+001
4.258791e+002, 2.848906e+001
4.263612e+002, 2.835762e+001
4.268433e+002, 2.836917e+001
4.273254e+002, 2.845200e+001
4.278076e+002, 2.859485e+001
4.282897e+002, 2.880023e+001
4.287718e+002, 2.908524e+001
4.292539e+002, 2.946528e+001
4.297360e+002, 2.988423e+001
4.302181e+002, 3.033193e+001
4.307003e+002, 3.083046e+001
4.311824e+002, 3.118284e+001
4.316645e+002, 3.132721e+001
4.321466e+002, 3.141364e+001
4.326287e+002, 3.174057e+001
4.331108e+002, 3.231161e+001
4.335930e+002, 3.280992e+001
4.340751e+002, 3.317905e+001
4.345572e+002, 3.337525e+001
4.350393e+002, 3.322493e+001
4.355214e+002, 3.272742e+001
4.360035e+002, 3.201354e+001
4.364857e+002, 3.108577e+001
4.369678e+002, 3.003983e+001
4.374499e+002, 2.907730e+001
4.379320e+002, 2.823207e+001
4.384141e+002, 2.750743e+001
4.388962e+002, 2.687775e+001
4.393784e+002, 2.636609e+001
4.398605e+002, 2.604067e+001
4.403426e+002, 2.606230e+001
4.408247e+002, 2.620710e+001
4.413068e+002, 2.629909e+001
4.417889e+002, 2.632052e+001
4.422711e+002, 2.631272e+001
4.427532e+002, 2.631750e+001
4.432353e+002, 2.629480e+001
4.437174e+002, 2.620298e+001
4.441995e+002, 2.610228e+001
4.446816e+002, 2.585484e+001
4.451638e+002, 2.532152e+001
4.456459e+002, 2.457770e+001
4.461280e+002, 2.394650e+001
4.466101e+002, 2.358383e+001
4.470922e+002, 2.325388e+001
4.475743e+002, 2.283744e+001
4.480565e+002, 2.224705e+001
4.485386e+002, 2.179977e+001
4.490207e+002, 2.156641e+001
4.495028e+002, 2.143430e+001
4.499849e+002, 2.125787e+001
4.504670e+002, 2.099297e+001
4.509492e+002, 2.078100e+001
4.514313e+002, 2.066105e+001
4.519134e+002, 2.062293e+001
4.523955e+002, 2.060168e+001
4.528776e+002, 2.060081e+001
4.533597e+002, 2.060688e+001
4.538419e+002, 2.059565e+001
4.543240e+002, 2.056908e+001
4.548061e+002, 2.062975e+001
4.552882e+002, 2.081823e+001
4.557703e+002, 2.101066e+001
4.562524e+002, 2.099555e+001
4.567346e+002, 2.079698e+001
4.572167e+002, 2.057836e+001
4.576988e+002, 2.034605e+001
4.581809e+002, 2.016195e+001
4.586630e+002, 2.015991e+001
4.591451e+002, 2.033115e+001
4.596273e+002, 2.053800e+001
4.601094e+002, 2.070951e+001
4.605915e+002, 2.084079e+001
4.610736e+002, 2.092249e+001
4.615557e+002, 2.094485e+001
4.620378e+002, 2.093678e+001
4.625200e+002, 2.086732e+001
4.630021e+002, 2.078407e+001
4.634842e+002, 2.078135e+001
4.639663e+002, 2.101718e+001
4.644484e+002, 2.123734e+001
4.649305e+002, 2.127515e+001
4.654127e+002, 2.110831e+001
4.658948e+002, 2.104579e+001
4.663769e+002, 2.125594e+001
4.668590e+002, 2.153006e+001
4.673411e+002, 2.171660e+001
4.678232e+002, 2.170945e+001
4.683054e+002, 2.174668e+001
4.687875e+002, 2.185260e+001
4.692696e+002, 2.200382e+001
4.697517e+002, 2.213566e+001
4.702338e+002, 2.220027e+001
4.707159e+002, 2.233311e+001
4.711981e+002, 2.258696e+001
4.716802e+002, 2.296477e+001
4.721623e+002, 2.343400e+001
4.726444e+002, 2.405857e+001
4.731265e+002, 2.458696e+001
4.736086e+002, 2.468105e+001
4.740908e+002, 2.434927e+001
4.745729e+002, 2.409782e+001
4.750550e+002, 2.399261e+001
4.755371e+002, 2.405136e+001
4.760192e+002, 2.440158e+001
4.765013e+002, 2.500446e+001
4.769835e+002, 2.554349e+001
4.774656e+002, 2.575999e+001
4.779477e+002, 2.583413e+001
4.784298e+002, 2.607635e+001
4.789119e+002, 2.650375e+001
4.793940e+002, 2.694761e+001
4.798762e+002, 2.724489e+001
4.803583e+002, 2.748873e+001
4.808404e+002, 2.780300e+001
4.813225e+002, 2.824540e+001
4.818046e+002, 2.873960e+001
4.822867e+002, 2.919784e+001
4.827689e+002, 2.967420e+001
4.832510e+002, 3.030760e+001
4.837331e+002, 3.142544e+001
4.842152e+002, 3.247267e+001
4.846973e+002, 3.315952e+001
4.851794e+002, 3.338823e+001
4.856616e+002, 3.368929e+001
4.861437e+002, 3.405251e+001
4.866258e+002, 3.453973e+001
4.871079e+002, 3.521308e+001
4.875900e+002, 3.617109e+001
4.880721e+002, 3.714955e+001
4.885543e+002, 3.812109e+001
4.890364e+002, 3.909728e+001
4.895185e+002, 4.014079e+001
4.900006e+002, 4.130870e+001
4.904827e+002, 4.233031e+001
4.909648e+002, 4.302494e+001
4.914470e+002, 4.341402e+001
4.919291e+002, 4.388128e+001
4.924112e+002, 4.443361e+001
4.928933e+002, 4.502003e+001
4.933754e+002, 4.565370e+001
4.938575e+002, 4.629711e+001
4.943397e+002, 4.674689e+001
4.948218e+002, 4.689742e+001
4.953039e+002, 4.694664e+001
4.957860e+002, 4.716710e+001
4.962681e+002, 4.751609e+001
4.967502e+002, 4.784535e+001
4.972324e+002, 4.806652e+001
4.977145e+002, 4.824057e+001
4.981966e+002, 4.841777e+001
4.986787e+002, 4.860242e+001
4.991608e+002, 4.879142e+001
4.996429e+002, 4.891714e+001
5.001251e+002, 4.908117e+001
5.006072e+002, 4.938019e+001
5.010893e+002, 4.990858e+001
5.015714e+002, 5.046663e+001
5.020535e+002, 5.105306e+001
5.025356e+002, 5.163969e+001
5.030178e+002, 5.216798e+001
5.034999e+002, 5.285843e+001
5.039820e+002, 5.324892e+001
5.044641e+002, 5.314507e+001
5.049462e+002, 5.252693e+001
5.054283e+002, 5.200225e+001
5.059105e+002, 5.159484e+001
5.063926e+002, 5.125208e+001
5.068747e+002, 5.102155e+001
5.073568e+002, 5.098116e+001
5.078389e+002, 5.048257e+001
5.083210e+002, 4.935866e+001
5.088032e+002, 4.795783e+001
5.092853e+002, 4.691768e+001
5.097674e+002, 4.621449e+001
5.102495e+002, 4.545771e+001
5.107316e+002, 4.436578e+001
5.112137e+002, 4.315649e+001
5.116959e+002, 4.231499e+001
5.121780e+002, 4.182853e+001
5.126601e+002, 4.144224e+001
5.131422e+002, 4.099213e+001
5.136243e+002, 4.052531e+001
5.141064e+002, 4.008106e+001
5.145886e+002, 3.963978e+001
5.150707e+002, 3.932009e+001
5.155528e+002, 3.931009e+001
5.160349e+002, 3.944060e+001
5.165170e+002, 3.946646e+001
5.169991e+002, 3.899738e+001
5.174813e+002, 3.872959e+001
5.179634e+002, 3.898186e+001
5.184455e+002, 3.969641e+001
5.189276e+002, 4.036748e+001
5.194097e+002, 4.088448e+001
5.198918e+002, 4.138812e+001
5.203740e+002, 4.189959e+001
5.208561e+002, 4.235327e+001
5.213382e+002, 4.305505e+001
5.218203e+002, 4.411195e+001
5.223024e+002, 4.529273e+001
5.227845e+002, 4.626930e+001
5.232667e+002, 4.694062e+001
5.237488e+002, 4.800449e+001
5.242309e+002, 4.968574e+001
5.247130e+002, 5.174487e+001
5.251951e+002, 5.356707e+001
5.256772e+002, 5.516784e+001
5.261594e+002, 5.689825e+001
5.266415e+002, 5.894050e+001
5.271236e+002, 6.128282e+001
5.276057e+002, 6.393142e+001
5.280878e+002, 6.687812e+001
5.285699e+002, 6.992178e+001
5.290521e+002, 7.287134e+001
5.295342e+002, 7.578901e+001
5.300163e+002, 7.872619e+001
5.304984e+002, 8.155759e+001
5.309805e+002, 8.462000e+001
5.314626e+002, 8.807342e+001
5.319448e+002, 9.186895e+001
5.324269e+002, 9.589458e+001
5.329090e+002, 1.008133e+002
5.333911e+002, 1.053159e+002
5.338732e+002, 1.088109e+002
5.343553e+002, 1.112060e+002
5.348375e+002, 1.139384e+002
5.353196e+002, 1.176313e+002
5.358017e+002, 1.210516e+002
5.362838e+002, 1.234969e+002
5.367659e+002, 1.247518e+002
5.372480e+002, 1.256718e+002
5.377302e+002, 1.262465e+002
5.382123e+002, 1.265099e+002
5.386944e+002, 1.266017e+002
5.391765e+002, 1.265576e+002
5.396586e+002, 1.258171e+002
5.401407e+002, 1.241527e+002
5.406229e+002, 1.217828e+002
5.411050e+002, 1.191834e+002
5.415871e+002, 1.163639e+002
5.420692e+002, 1.134103e+002
5.425513e+002, 1.103666e+002
5.430334e+002, 1.071874e+002
5.435156e+002, 1.038388e+002
5.439977e+002, 1.003201e+002
5.444798e+002, 9.659820e+001
5.449619e+002, 9.247105e+001
5.454440e+002, 8.824194e+001
5.459261e+002, 8.425182e+001
5.464083e+002, 8.077384e+001
5.468904e+002, 7.728509e+001
5.473725e+002, 7.344050e+001
5.478546e+002, 6.950827e+001
5.483367e+002, 6.597900e+001
5.488188e+002, 6.311887e+001
5.493010e+002, 6.047253e+001
5.497831e+002, 5.793268e+001
5.502652e+002, 5.550034e+001
5.507473e+002, 5.325899e+001
5.512294e+002, 5.120051e+001
5.517115e+002, 4.934320e+001
5.521937e+002, 4.767493e+001
5.526758e+002, 4.619307e+001
5.531579e+002, 4.496574e+001
5.536400e+002, 4.404319e+001
5.541221e+002, 4.324656e+001
5.546042e+002, 4.231885e+001
5.550864e+002, 4.129048e+001
5.555685e+002, 4.034817e+001
5.560506e+002, 3.956802e+001
5.565327e+002, 3.888964e+001
5.570148e+002, 3.823222e+001
5.574969e+002, 3.760593e+001
5.579791e+002, 3.704811e+001
5.584612e+002, 3.662511e+001
5.589433e+002, 3.625256e+001
5.594254e+002, 3.589213e+001
5.599075e+002, 3.553979e+001
5.603896e+002, 3.512547e+001
5.608718e+002, 3.453115e+001
5.613539e+002, 3.392340e+001
5.618360e+002, 3.342976e+001
5.623181e+002, 3.315761e+001
5.628002e+002, 3.286394e+001
5.632823e+002, 3.250418e+001
5.637645e+002, 3.212940e+001
5.642466e+002, 3.182753e+001
5.647287e+002, 3.165440e+001
5.652108e+002, 3.142504e+001
5.656929e+002, 3.103786e+001
5.661750e+002, 3.057074e+001
5.666572e+002, 3.042109e+001
5.671393e+002, 3.063704e+001
5.676214e+002, 3.082693e+001
5.681035e+002, 3.069229e+001
5.685856e+002, 3.033176e+001
5.690677e+002, 3.015035e+001
5.695499e+002, 3.017354e+001
5.700320e+002, 3.020255e+001
5.705141e+002, 2.991012e+001
5.709962e+002, 2.953422e+001
5.714783e+002, 2.951281e+001
5.719604e+002, 3.015128e+001
5.724426e+002, 3.074948e+001
5.729247e+002, 3.078292e+001
5.734068e+002, 3.047786e+001
5.738889e+002, 3.024007e+001
5.743710e+002, 3.017377e+001
5.748531e+002, 3.022577e+001
5.753353e+002, 3.044547e+001
5.758174e+002, 3.081271e+001
5.762995e+002, 3.106750e+001
5.767816e+002, 3.113548e+001
5.772637e+002, 3.116826e+001
5.777458e+002, 3.121602e+001
5.782280e+002, 3.126400e+001
5.787101e+002, 3.141014e+001
5.791922e+002, 3.166662e+001
5.796743e+002, 3.199423e+001
5.801564e+002, 3.240327e+001
5.806385e+002, 3.288151e+001
5.811207e+002, 3.318740e+001
5.816028e+002, 3.319954e+001
5.820849e+002, 3.319751e+001
5.825670e+002, 3.368452e+001
5.830491e+002, 3.452520e+001
5.835313e+002, 3.530747e+001
5.840134e+002, 3.577900e+001
5.844955e+002, 3.613697e+001
5.849776e+002, 3.647095e+001
5.854597e+002, 3.681569e+001
5.859418e+002, 3.735550e+001
5.864240e+002, 3.848030e+001
5.869061e+002, 3.958890e+001
5.873882e+002, 4.027745e+001
5.878703e+002, 4.033321e+001
5.883524e+002, 4.061831e+001
5.888345e+002, 4.147575e+001
5.893167e+002, 4.244456e+001
5.897988e+002, 4.314793e+001
5.902809e+002, 4.339115e+001
5.907630e+002, 4.383571e+001
5.912451e+002, 4.460997e+001
5.917272e+002, 4.552993e+001
5.922094e+002, 4.625139e+001
5.926915e+002, 4.675982e+001
5.931736e+002, 4.720614e+001
5.936557e+002, 4.762439e+001
5.941378e+002, 4.802423e+001
5.946199e+002, 4.849320e+001
5.951021e+002, 4.900208e+001
5.955842e+002, 4.934336e+001
5.960663e+002, 4.925852e+001
5.965484e+002, 4.899530e+001
5.970305e+002, 4.888307e+001
5.975126e+002, 4.895694e+001
5.979948e+002, 4.889991e+001
5.984769e+002, 4.847851e+001
5.989590e+002, 4.788148e+001
5.994411e+002, 4.726307e+001
5.999232e+002, 4.664103e+001
6.004053e+002, 4.601567e+001
6.008875e+002, 4.533424e+001
6.013696e+002, 4.467320e+001
6.018517e+002, 4.416148e+001
6.023338e+002, 4.393242e+001
6.028159e+002, 4.360618e+001
6.032980e+002, 4.314119e+001
6.037802e+002, 4.252050e+001
6.042623e+002, 4.154827e+001
6.047444e+002, 4.016951e+001
6.052265e+002, 3.897727e+001
6.057086e+002, 3.839010e+001
6.061907e+002, 3.823687e+001
6.066729e+002, 3.797081e+001
6.071550e+002, 3.759249e+001
6.076371e+002, 3.704187e+001
6.081192e+002, 3.607297e+001
6.086013e+002, 3.498695e+001
6.090834e+002, 3.420534e+001
6.095656e+002, 3.382801e+001
6.100477e+002, 3.359245e+001
6.105298e+002, 3.344136e+001
6.110119e+002, 3.331804e+001
6.114940e+002, 3.315672e+001
6.119761e+002, 3.296696e+001
6.124583e+002, 3.271272e+001
6.129404e+002, 3.233944e+001
6.134225e+002, 3.190620e+001
6.139046e+002, 3.152405e+001
6.143867e+002, 3.118622e+001
6.148688e+002, 3.093124e+001
6.153510e+002, 3.078664e+001
6.158331e+002, 3.073554e+001
6.163152e+002, 3.067816e+001
6.167973e+002, 3.061671e+001
6.172794e+002, 3.052484e+001
6.177615e+002, 3.037195e+001
6.182437e+002, 3.017564e+001
6.187258e+002, 2.996834e+001
6.192079e+002, 2.974756e+001
6.196900e+002, 2.956196e+001
6.201721e+002, 2.942068e+001
6.206542e+002, 2.935027e+001
6.211364e+002, 2.938988e+001
6.216185e+002, 2.957256e+001
6.221006e+002, 2.981277e+001
6.225827e+002, 3.015669e+001
6.230648e+002, 3.051214e+001
6.235469e+002, 3.075026e+001
6.240291e+002, 3.075335e+001
6.245112e+002, 3.075155e+001
6.249933e+002, 3.076103e+001
6.254754e+002, 3.079078e+001
6.259575e+002, 3.085905e+001
6.264396e+002, 3.094639e+001
6.269218e+002, 3.113704e+001
6.274039e+002, 3.152371e+001
6.278860e+002, 3.205071e+001
6.283681e+002, 3.235669e+001
6.288502e+002, 3.243571e+001
6.293323e+002, 3.245285e+001
6.298145e+002, 3.250771e+001
6.302966e+002, 3.259297e+001
6.307787e+002, 3.269007e+001
6.312608e+002, 3.279504e+001
6.317429e+002, 3.293798e+001
6.322250e+002, 3.325951e+001
6.327072e+002, 3.357598e+001
6.331893e+002, 3.366949e+001
6.336714e+002, 3.326063e+001
6.341535e+002, 3.300763e+001
6.346356e+002, 3.319107e+001
6.351177e+002, 3.360490e+001
6.355999e+002, 3.392306e+001
6.360820e+002, 3.411524e+001
6.365641e+002, 3.424618e+001
6.370462e+002, 3.431227e+001
6.375283e+002, 3.432798e+001
6.380104e+002, 3.436428e+001
6.384926e+002, 3.444080e+001
6.389747e+002, 3.441113e+001
6.394568e+002, 3.412443e+001
6.399389e+002, 3.369405e+001
6.404210e+002, 3.348633e+001
6.409031e+002, 3.349710e+001
6.413853e+002, 3.368178e+001
6.418674e+002, 3.413928e+001
6.423495e+002, 3.468693e+001
6.428316e+002, 3.513485e+001
6.433137e+002, 3.547445e+001
6.437958e+002, 3.562079e+001
6.442780e+002, 3.527290e+001
6.447601e+002, 3.485855e+001
6.452422e+002, 3.475990e+001
6.457243e+002, 3.526579e+001
6.462064e+002, 3.574690e+001
6.466885e+002, 3.616800e+001
6.471707e+002, 3.654600e+001
6.476528e+002, 3.689067e+001
6.481349e+002, 3.719413e+001
6.486170e+002, 3.750294e+001
6.490991e+002, 3.784766e+001
6.495812e+002, 3.818407e+001
6.500634e+002, 3.837877e+001
6.505455e+002, 3.844643e+001
6.510276e+002, 3.857774e+001
6.515097e+002, 3.895538e+001
6.519918e+002, 3.939516e+001
6.524739e+002, 3.960012e+001
6.529561e+002, 3.959777e+001
6.534382e+002, 3.954514e+001
6.539203e+002, 3.948974e+001
6.544024e+002, 3.944796e+001
6.548845e+002, 3.950304e+001
6.553666e+002, 3.969112e+001
6.558488e+002, 3.960443e+001
6.563309e+002, 3.889567e+001
6.568130e+002, 3.807733e+001
6.572951e+002, 3.746608e+001
6.577772e+002, 3.716289e+001
6.582593e+002, 3.680524e+001
6.587415e+002, 3.640918e+001
6.592236e+002, 3.593304e+001
6.597057e+002, 3.531316e+001
6.601878e+002, 3.455467e+001
6.606699e+002, 3.374545e+001
6.611520e+002, 3.290597e+001
6.616342e+002, 3.204496e+001
6.621163e+002, 3.113945e+001
6.625984e+002, 3.022388e+001
6.630805e+002, 2.938721e+001
6.635626e+002, 2.862399e+001
6.640447e+002, 2.799472e+001
6.645269e+002, 2.765366e+001
6.650090e+002, 2.749490e+001
6.654911e+002, 2.719882e+001
6.659732e+002, 2.649839e+001
6.664553e+002, 2.581075e+001
6.669374e+002, 2.531588e+001
6.674196e+002, 2.499574e+001
6.679017e+002, 2.459610e+001
6.683838e+002, 2.404358e+001
6.688659e+002, 2.354506e+001
6.693480e+002, 2.324593e+001
6.698301e+002, 2.314158e+001
6.703123e+002, 2.283336e+001
6.707944e+002, 2.229052e+001
6.712765e+002, 2.176987e+001
6.717586e+002, 2.149325e+001
6.722407e+002, 2.140262e+001
6.727228e+002, 2.139998e+001
6.732050e+002, 2.148833e+001
6.736871e+002, 2.155157e+001
6.741692e+002, 2.152900e+001
6.746513e+002, 2.142114e+001
6.751334e+002, 2.122040e+001
6.756155e+002, 2.079357e+001
6.760977e+002, 2.046854e+001
6.765798e+002, 2.043023e+001
6.770619e+002, 2.050412e+001
6.775440e+002, 2.041956e+001
6.780261e+002, 2.005515e+001
6.785082e+002, 1.980194e+001
6.789904e+002, 1.977269e+001
6.794725e+002, 1.986314e+001
6.799546e+002, 1.977591e+001
6.804367e+002, 1.951080e+001
6.809188e+002, 1.927083e+001
6.814009e+002, 1.911658e+001
6.818831e+002, 1.906088e+001
6.823652e+002, 1.918315e+001
6.828473e+002, 1.945047e+001
6.833294e+002, 1.969228e+001
6.838115e+002, 1.984267e+001
6.842936e+002, 1.990618e+001
6.847758e+002, 1.988184e+001
6.852579e+002, 1.977001e+001
6.857400e+002, 1.960121e+001
6.862221e+002, 1.924198e+001
6.867042e+002, 1.895115e+001
6.871863e+002, 1.888021e+001
6.876685e+002, 1.910154e+001
6.881506e+002, 1.922385e+001
6.886327e+002, 1.921448e+001
6.891148e+002, 1.917596e+001
6.895969e+002, 1.923064e+001
6.900790e+002, 1.936576e+001
6.905612e+002, 1.935446e+001
6.910433e+002, 1.914942e+001
6.915254e+002, 1.892080e+001
6.920075e+002, 1.887466e+001
6.924896e+002, 1.894680e+001
6.929717e+002, 1.902793e+001
6.934539e+002, 1.911196e+001
6.939360e+002, 1.914960e+001
6.944181e+002, 1.905645e+001
6.949002e+002, 1.891205e+001
6.953823e+002, 1.883966e+001
6.958644e+002, 1.892907e+001
6.963466e+002, 1.901864e+001
6.968287e+002, 1.909238e+001
6.973108e+002, 1.915017e+001
6.977929e+002, 1.919449e+001
6.982750e+002, 1.923459e+001
6.987571e+002, 1.922609e+001
6.992393e+002, 1.914053e+001
6.997214e+002, 1.900467e+001
7.002035e+002, 1.886800e+001
7.006856e+002, 1.873929e+001
7.011677e+002, 1.870362e+001
7.016498e+002, 1.890099e+001
7.021320e+002, 1.916228e+001
7.026141e+002, 1.928048e+001
7.030962e+002, 1.926650e+001
7.035783e+002, 1.926199e+001
7.040604e+002, 1.936443e+001
7.045425e+002, 1.946922e+001
7.050247e+002, 1.949032e+001
7.055068e+002, 1.938607e+001
7.059889e+002, 1.941627e+001
7.064710e+002, 1.965084e+001
7.069531e+002, 1.993066e+001
7.074352e+002, 2.018661e+001
7.079174e+002, 2.043156e+001
7.083995e+002, 2.045643e+001
7.088816e+002, 2.021572e+001
7.093637e+002, 1.995861e+001
7.098458e+002, 1.998259e+001
7.103279e+002, 2.018998e+001
7.108101e+002, 2.032117e+001
7.112922e+002, 2.030593e+001
7.117743e+002, 2.032006e+001
7.122564e+002, 2.043838e+001
7.127385e+002, 2.068691e+001
7.132206e+002, 2.111230e+001
7.137028e+002, 2.208159e+001
7.141849e+002, 2.273048e+001
7.146670e+002, 2.270939e+001
7.151491e+002, 2.235074e+001
7.156312e+002, 2.206098e+001
7.161133e+002, 2.181511e+001
7.165955e+002, 2.172550e+001
7.170776e+002, 2.184600e+001
7.175597e+002, 2.209290e+001
7.180418e+002, 2.230719e+001
7.185239e+002, 2.248959e+001
7.190060e+002, 2.263239e+001
7.194882e+002, 2.273698e+001
7.199703e+002, 2.279519e+001
7.204524e+002, 2.275801e+001
7.209345e+002, 2.266144e+001
7.214166e+002, 2.261148e+001
7.218987e+002, 2.276622e+001
7.223809e+002, 2.287582e+001
7.228630e+002, 2.274626e+001
7.233451e+002, 2.241955e+001
7.238272e+002, 2.228670e+001
7.243093e+002, 2.251332e+001
7.247914e+002, 2.271343e+001
7.252736e+002, 2.276101e+001
7.257557e+002, 2.266026e+001
7.262378e+002, 2.242038e+001
7.267199e+002, 2.201849e+001
7.272020e+002, 2.165106e+001
7.276841e+002, 2.148631e+001
7.281663e+002, 2.143674e+001
7.286484e+002, 2.129831e+001
7.291305e+002, 2.106843e+001
7.296126e+002, 2.086554e+001
7.300947e+002, 2.079911e+001
7.305768e+002, 2.077317e+001
7.310590e+002, 2.071312e+001
7.315411e+002, 2.060590e+001
7.320232e+002, 2.048230e+001
7.325053e+002, 2.031281e+001
7.329874e+002, 2.015693e+001
7.334695e+002, 2.006622e+001
7.339517e+002, 2.009283e+001
7.344338e+002, 1.996896e+001
7.349159e+002, 1.964002e+001
7.353980e+002, 1.931323e+001
7.358801e+002, 1.928151e+001
7.363622e+002, 1.945750e+001
7.368444e+002, 1.943999e+001
7.373265e+002, 1.912941e+001
7.378086e+002, 1.881460e+001
7.382907e+002, 1.878478e+001
7.387728e+002, 1.891014e+001
7.392549e+002, 1.902975e+001
7.397371e+002, 1.914005e+001
7.402192e+002, 1.917328e+001
7.407013e+002, 1.903003e+001
7.411834e+002, 1.883261e+001
7.416655e+002, 1.875381e+001
7.421476e+002, 1.888600e+001
7.426298e+002, 1.890626e+001
7.431119e+002, 1.873625e+001
7.435940e+002, 1.849027e+001
7.440761e+002, 1.836420e+001
7.445582e+002, 1.835347e+001
7.450403e+002, 1.841985e+001
7.455225e+002, 1.860700e+001
7.460046e+002, 1.877003e+001
7.464867e+002, 1.864943e+001
7.469688e+002, 1.837371e+001
7.474509e+002, 1.822111e+001
7.479330e+002, 1.847708e+001
7.484152e+002, 1.869808e+001
7.488973e+002, 1.867665e+001
7.493794e+002, 1.848025e+001
7.498615e+002, 1.834811e+001
7.503436e+002, 1.835499e+001
7.508257e+002, 1.829507e+001
7.513079e+002, 1.807980e+001
7.517900e+002, 1.777631e+001
7.522721e+002, 1.764307e+001
7.527542e+002, 1.767909e+001
7.532363e+002, 1.775481e+001
7.537184e+002, 1.783980e+001
7.542006e+002, 1.790527e+001
7.546827e+002, 1.785876e+001
7.551648e+002, 1.773767e+001
7.556469e+002, 1.769952e+001
7.561290e+002, 1.802657e+001
7.566111e+002, 1.827511e+001
7.570933e+002, 1.809375e+001
7.575754e+002, 1.751160e+001
7.580575e+002, 1.722477e+001
7.585396e+002, 1.746674e+001
7.590217e+002, 1.770621e+001
7.595038e+002, 1.771597e+001
7.599860e+002, 1.752475e+001
7.604681e+002, 1.749659e+001
7.609502e+002, 1.764718e+001
7.614323e+002, 1.777457e+001
7.619144e+002, 1.770824e+001
7.623965e+002, 1.754105e+001
7.628787e+002, 1.740252e+001
7.633608e+002, 1.730577e+001
7.638429e+002, 1.733234e+001
7.643250e+002, 1.768687e+001
7.648071e+002, 1.806374e+001
7.652892e+002, 1.824725e+001
7.657714e+002, 1.820225e+001
7.662535e+002, 1.811123e+001
7.667356e+002, 1.791847e+001
7.672177e+002, 1.777275e+001
7.676998e+002, 1.777697e+001
7.681819e+002, 1.794341e+001
7.686641e+002, 1.803664e+001
7.691462e+002, 1.804523e+001
7.696283e+002, 1.806233e+001
7.701104e+002, 1.824274e+001
7.705925e+002, 1.846526e+001
7.710746e+002, 1.845809e+001
7.715568e+002, 1.818778e+001
7.720389e+002, 1.792004e+001
7.725210e+002, 1.767434e+001
7.730031e+002, 1.759647e+001
7.734852e+002, 1.788107e+001
7.739673e+002, 1.879755e+001
7.744495e+002, 1.925391e+001
7.749316e+002, 1.895995e+001
7.754137e+002, 1.851177e+001
7.758958e+002, 1.835743e+001
7.763779e+002, 1.852163e+001
7.768600e+002, 1.864791e+001
7.773422e+002, 1.871448e+001
7.778243e+002, 1.880387e+001
7.783064e+002, 1.911018e+001
7.787885e+002, 1.947078e+001
7.792706e+002, 1.949886e+001
7.797527e+002, 1.906110e+001
7.802349e+002, 1.875659e+001
7.807170e+002, 1.909896e+001
7.811991e+002, 1.964360e+001
7.816812e+002, 2.000204e+001
7.821633e+002, 2.004039e+001
7.826454e+002, 2.001520e+001
7.831276e+002, 1.986086e+001
7.836097e+002, 1.972174e+001
7.840918e+002, 1.975048e+001
7.845739e+002, 1.994873e+001
7.850560e+002, 2.020026e+001
7.855381e+002, 2.050928e+001
7.860203e+002, 2.077661e+001
7.865024e+002, 2.084776e+001
7.869845e+002, 2.081134e+001
7.874666e+002, 2.082770e+001
7.879487e+002, 2.095144e+001
7.884308e+002, 2.106673e+001
7.889130e+002, 2.102941e+001
7.893951e+002, 2.100164e+001
7.898772e+002, 2.116440e+001
7.903593e+002, 2.173800e+001
7.908414e+002, 2.210707e+001
7.913235e+002, 2.218748e+001
7.918057e+002, 2.216904e+001
7.922878e+002, 2.231000e+001
7.927699e+002, 2.259349e+001
7.932520e+002, 2.268877e+001
7.937341e+002, 2.251054e+001
7.942162e+002, 2.231688e+001
7.946984e+002, 2.244713e+001
7.951805e+002, 2.273026e+001
7.956626e+002, 2.290369e+001
7.961447e+002, 2.291222e+001
7.966268e+002, 2.279154e+001
7.971089e+002, 2.235214e+001
7.975911e+002, 2.189640e+001
7.980732e+002, 2.177695e+001
7.985553e+002, 2.221383e+001
7.990374e+002, 2.247016e+001
7.995195e+002, 2.248703e+001
8.000016e+002, 2.235691e+001
8.004838e+002, 2.212863e+001
8.009659e+002, 2.183680e+001
8.014480e+002, 2.166920e+001
8.019301e+002, 2.165915e+001
8.024122e+002, 2.178539e+001
8.028943e+002, 2.229968e+001
8.033765e+002, 2.283128e+001
8.038586e+002, 2.285150e+001
8.043407e+002, 2.176305e+001
8.048228e+002, 2.100791e+001
8.053049e+002, 2.115929e+001
8.057870e+002, 2.161907e+001
8.062692e+002, 2.180434e+001
8.067513e+002, 2.163729e+001
8.072334e+002, 2.151200e+001
8.077155e+002, 2.148422e+001
8.081976e+002, 2.144518e+001
8.086797e+002, 2.119221e+001
8.091619e+002, 2.081249e+001
8.096440e+002, 2.053903e+001
8.101261e+002, 2.039913e+001
8.106082e+002, 2.046054e+001
8.110903e+002, 2.103574e+001
8.115724e+002, 2.171407e+001
8.120546e+002, 2.203322e+001
8.125367e+002, 2.159205e+001
8.130188e+002, 2.129773e+001
8.135009e+002, 2.124872e+001
8.139830e+002, 2.130517e+001
8.144651e+002, 2.132434e+001
8.149473e+002, 2.130446e+001
8.154294e+002, 2.127320e+001
8.159115e+002, 2.122403e+001
8.163936e+002, 2.120859e+001
8.168757e+002, 2.134071e+001
8.173578e+002, 2.153316e+001
8.178400e+002, 2.160159e+001
8.183221e+002, 2.143721e+001
8.188042e+002, 2.139475e+001
8.192863e+002, 2.177587e+001
8.197684e+002, 2.228273e+001
8.202505e+002, 2.263190e+001
8.207327e+002, 2.277664e+001
8.212148e+002, 2.281491e+001
8.216969e+002, 2.267131e+001
8.221790e+002, 2.255794e+001
8.226611e+002, 2.277658e+001
8.231432e+002, 2.325961e+001
8.236254e+002, 2.350552e+001
8.241075e+002, 2.342977e+001
8.245896e+002, 2.340635e+001
8.250717e+002, 2.390163e+001
8.255538e+002, 2.457653e+001
8.260359e+002, 2.502110e+001
8.265181e+002, 2.508691e+001
8.270002e+002, 2.519291e+001
8.274823e+002, 2.549918e+001
8.279644e+002, 2.582751e+001
8.284465e+002, 2.603432e+001
8.289286e+002, 2.604637e+001
8.294108e+002, 2.634191e+001
8.298929e+002, 2.698436e+001
8.303750e+002, 2.763104e+001
8.308571e+002, 2.789763e+001
8.313392e+002, 2.794722e+001
8.318214e+002, 2.811529e+001
8.323035e+002, 2.843465e+001
8.327856e+002, 2.886727e+001
8.332677e+002, 2.950687e+001
8.337498e+002, 3.016280e+001
8.342319e+002, 3.068747e+001
8.347141e+002, 3.103225e+001
8.351962e+002, 3.136117e+001
8.356783e+002, 3.165858e+001
8.361604e+002, 3.196363e+001
8.366425e+002, 3.229873e+001
8.371246e+002, 3.266248e+001
8.376068e+002, 3.303361e+001
8.380889e+002, 3.341180e+001
8.385710e+002, 3.381667e+001
8.390531e+002, 3.437920e+001
8.395352e+002, 3.490474e+001
8.400173e+002, 3.511802e+001
8.404995e+002, 3.501113e+001
8.409816e+002, 3.498024e+001
8.414637e+002, 3.528931e+001
8.419458e+002, 3.557240e+001
8.424279e+002, 3.564226e+001
8.429100e+002, 3.550434e+001
8.433922e+002, 3.549623e+001
8.438743e+002, 3.564607e+001
8.443564e+002, 3.576937e+001
8.448385e+002, 3.574665e+001
8.453206e+002, 3.562008e+001
8.458027e+002, 3.549211e+001
8.462849e+002, 3.535493e+001
8.467670e+002, 3.516690e+001
8.472491e+002, 3.483628e+001
8.477312e+002, 3.451154e+001
8.482133e+002, 3.434681e+001
8.486954e+002, 3.430391e+001
8.491776e+002, 3.399931e+001
8.496597e+002, 3.318381e+001
8.501418e+002, 3.260675e+001
8.506239e+002, 3.262550e+001
8.511060e+002, 3.301223e+001
8.515881e+002, 3.299397e+001
8.520703e+002, 3.260567e+001
8.525524e+002, 3.213432e+001
8.530345e+002, 3.160287e+001
8.535166e+002, 3.116831e+001
8.539987e+002, 3.101793e+001
8.544808e+002, 3.107481e+001
8.549630e+002, 3.114420e+001
8.554451e+002, 3.135506e+001
8.559272e+002, 3.132600e+001
8.564093e+002, 3.085741e+001
8.568914e+002, 3.017044e+001
8.573735e+002, 2.977649e+001
8.578557e+002, 2.970108e+001
8.583378e+002, 2.958108e+001
8.588199e+002, 2.927940e+001
8.593020e+002, 2.896926e+001
8.597841e+002, 2.898996e+001
8.602662e+002, 2.918781e+001
8.607484e+002, 2.924116e+001
8.612305e+002, 2.894303e+001
8.617126e+002, 2.862807e+001
8.621947e+002, 2.839980e+001
8.626768e+002, 2.823746e+001
8.631589e+002, 2.812045e+001
8.636411e+002, 2.809143e+001
8.641232e+002, 2.797077e+001
8.646053e+002, 2.771533e+001
8.650874e+002, 2.743023e+001
8.655695e+002, 2.727025e+001
8.660516e+002, 2.719408e+001
8.665338e+002, 2.706059e+001
8.670159e+002, 2.682947e+001
8.674980e+002, 2.660589e+001
8.679801e+002, 2.641718e+001
8.684622e+002, 2.629757e+001
8.689443e+002, 2.629369e+001
8.694265e+002, 2.651147e+001
8.699086e+002, 2.659736e+001
8.703907e+002, 2.649553e+001
8.708728e+002, 2.634809e+001
8.713549e+002, 2.627065e+001
8.718370e+002, 2.625694e+001
8.723192e+002, 2.621914e+001
8.728013e+002, 2.615180e+001
8.732834e+002, 2.613441e+001
8.737655e+002, 2.631891e+001
8.742476e+002, 2.652901e+001
8.747297e+002, 2.654546e+001
8.752119e+002, 2.634236e+001
8.756940e+002, 2.623956e+001
8.761761e+002, 2.637030e+001
8.766582e+002, 2.656704e+001
8.771403e+002, 2.681587e+001
8.776224e+002, 2.709852e+001
8.781046e+002, 2.709248e+001
8.785867e+002, 2.678061e+001
8.790688e+002, 2.655582e+001
8.795509e+002, 2.678885e+001
8.800330e+002, 2.717328e+001
8.805151e+002, 2.722631e+001
8.809973e+002, 2.703312e+001
8.814794e+002, 2.692541e+001
8.819615e+002, 2.711427e+001
8.824436e+002, 2.733605e+001
8.829257e+002, 2.749973e+001
8.834078e+002, 2.762083e+001
8.838900e+002, 2.775899e+001
8.843721e+002, 2.792355e+001
8.848542e+002, 2.804004e+001
8.853363e+002, 2.804073e+001
8.858184e+002, 2.805795e+001
8.863005e+002, 2.836213e+001
8.867827e+002, 2.887130e+001
8.872648e+002, 2.937565e+001
8.877469e+002, 2.982758e+001
8.882290e+002, 3.021308e+001
8.887111e+002, 3.046160e+001
8.891932e+002, 3.066352e+001
8.896754e+002, 3.094429e+001
8.901575e+002, 3.128795e+001
8.906396e+002, 3.178007e+001
8.911217e+002, 3.248777e+001
8.916038e+002, 3.319215e+001
8.920859e+002, 3.350764e+001
8.925681e+002, 3.360029e+001
8.930502e+002, 3.402405e+001
8.935323e+002, 3.490184e+001
8.940144e+002, 3.582807e+001
8.944965e+002, 3.665092e+001
8.949786e+002, 3.730262e+001
8.954608e+002, 3.764124e+001
8.959429e+002, 3.744002e+001
8.964250e+002, 3.779068e+001
8.969071e+002, 3.889419e+001
8.973892e+002, 4.014049e+001
8.978713e+002, 4.117086e+001
8.983535e+002, 4.199226e+001
8.988356e+002, 4.247552e+001
8.993177e+002, 4.265126e+001
8.997998e+002, 4.297048e+001
9.002819e+002, 4.394799e+001
9.007640e+002, 4.501592e+001
9.012462e+002, 4.562665e+001
9.017283e+002, 4.583501e+001
9.022104e+002, 4.650135e+001
9.026925e+002, 4.823060e+001
9.031746e+002, 4.950563e+001
9.036567e+002, 4.976219e+001
9.041389e+002, 4.932349e+001
9.046210e+002, 4.921065e+001
9.051031e+002, 4.939200e+001
9.055852e+002, 4.959121e+001
9.060673e+002, 4.980880e+001
9.065494e+002, 4.983955e+001
9.070316e+002, 4.927974e+001
9.075137e+002, 4.844991e+001
9.079958e+002, 4.790868e+001
9.084779e+002, 4.827077e+001
9.089600e+002, 4.827002e+001
9.094421e+002, 4.767457e+001
9.099243e+002, 4.681030e+001
9.104064e+002, 4.617290e+001
9.108885e+002, 4.573304e+001
9.113706e+002, 4.482513e+001
9.118527e+002, 4.327515e+001
9.123348e+002, 4.174322e+001
9.128170e+002, 4.098914e+001
9.132991e+002, 4.054060e+001
9.137812e+002, 3.982919e+001
9.142633e+002, 3.865718e+001
9.147454e+002, 3.767601e+001
9.152275e+002, 3.710823e+001
9.157097e+002, 3.660249e+001
9.161918e+002, 3.596529e+001
9.166739e+002, 3.519831e+001
9.171560e+002, 3.437941e+001
9.176381e+002, 3.351402e+001
9.181202e+002, 3.271111e+001
9.186024e+002, 3.207415e+001
9.190845e+002, 3.152253e+001
9.195666e+002, 3.097589e+001
9.200487e+002, 3.043846e+001
9.205308e+002, 2.992647e+001
9.210129e+002, 2.944841e+001
9.214951e+002, 2.899774e+001
9.219772e+002, 2.860024e+001
9.224593e+002, 2.821334e+001
9.229414e+002, 2.766883e+001
9.234235e+002, 2.697514e+001
9.239056e+002, 2.635843e+001
9.243878e+002, 2.589662e+001
9.248699e+002, 2.553414e+001
9.253520e+002, 2.520402e+001
9.258341e+002, 2.492527e+001
9.263162e+002, 2.472664e+001
9.267983e+002, 2.475643e+001
9.272805e+002, 2.465045e+001
9.277626e+002, 2.433765e+001
9.282447e+002, 2.391290e+001
9.287268e+002, 2.343440e+001
9.292089e+002, 2.290290e+001
9.296910e+002, 2.248336e+001
9.301732e+002, 2.218759e+001
9.306553e+002, 2.204169e+001
9.311374e+002, 2.221262e+001
9.316195e+002, 2.246380e+001
9.321016e+002, 2.251030e+001
9.325837e+002, 2.231115e+001
9.330659e+002, 2.213132e+001
9.335480e+002, 2.208255e+001
9.340301e+002, 2.200083e+001
9.345122e+002, 2.181009e+001
9.349943e+002, 2.152829e+001
9.354764e+002, 2.127204e+001
9.359586e+002, 2.103984e+001
9.364407e+002, 2.088911e+001
9.369228e+002, 2.089599e+001
9.374049e+002, 2.094777e+001
9.378870e+002, 2.093625e+001
9.383691e+002, 2.087774e+001
9.388513e+002, 2.081034e+001
9.393334e+002, 2.073499e+001
9.398155e+002, 2.066386e+001
9.402976e+002, 2.060273e+001
9.407797e+002, 2.054414e+001
9.412618e+002, 2.048161e+001
9.417440e+002, 2.041458e+001
9.422261e+002, 2.032570e+001
9.427082e+002, 2.020669e+001
9.431903e+002, 2.009229e+001
9.436724e+002, 2.002184e+001
9.441545e+002, 1.997094e+001
9.446367e+002, 1.990209e+001
9.451188e+002, 1.978541e+001
9.456009e+002, 1.976425e+001
9.460830e+002, 1.992578e+001
9.465651e+002, 2.005791e+001
9.470472e+002, 2.000667e+001
9.475294e+002, 1.980236e+001
9.480115e+002, 1.972707e+001
9.484936e+002, 1.976863e+001
9.489757e+002, 1.979311e+001
9.494578e+002, 1.967689e+001
9.499399e+002, 1.954551e+001
9.504221e+002, 1.952456e+001
9.509042e+002, 1.957692e+001
9.513863e+002, 1.953975e+001
9.518684e+002, 1.927258e+001
9.523505e+002, 1.916360e+001
9.528326e+002, 1.933042e+001
9.533148e+002, 1.962607e+001
9.537969e+002, 1.979621e+001
9.542790e+002, 1.985464e+001
9.547611e+002, 1.984853e+001
9.552432e+002, 1.977380e+001
9.557253e+002, 1.969473e+001
9.562075e+002, 1.961419e+001
9.566896e+002, 1.957724e+001
9.571717e+002, 1.963588e+001
9.576538e+002, 1.981815e+001
9.581359e+002, 2.002797e+001
9.586180e+002, 2.029990e+001
9.591002e+002, 2.051181e+001
9.595823e+002, 2.055402e+001
9.600644e+002, 2.046811e+001
9.605465e+002, 2.030524e+001
9.610286e+002, 2.009692e+001
9.615107e+002, 2.006669e+001
9.619929e+002, 2.055936e+001
9.624750e+002, 2.104641e+001
9.629571e+002, 2.124433e+001
9.634392e+002, 2.120228e+001
9.639213e+002, 2.110001e+001
9.644034e+002, 2.087298e+001
9.648856e+002, 2.088140e+001
9.653677e+002, 2.129679e+001
9.658498e+002, 2.181333e+001
9.663319e+002, 2.186596e+001
9.668140e+002, 2.166612e+001
9.672961e+002, 2.168312e+001
9.677783e+002, 2.216677e+001
9.682604e+002, 2.253647e+001
9.687425e+002, 2.236115e+001
9.692246e+002, 2.215027e+001
9.697067e+002, 2.234802e+001
9.701888e+002, 2.304072e+001
9.706710e+002, 2.345798e+001
9.711531e+002, 2.356952e+001
9.716352e+002, 2.366249e+001
9.721173e+002, 2.402576e+001
9.725994e+002, 2.445410e+001
9.730815e+002, 2.463298e+001
9.735637e+002, 2.460398e+001
9.740458e+002, 2.466706e+001
9.745279e+002, 2.496114e+001
9.750100e+002, 2.532250e+001
9.754921e+002, 2.576262e+001
9.759742e+002, 2.621217e+001
9.764564e+002, 2.650586e+001
9.769385e+002, 2.664942e+001
9.774206e+002, 2.666676e+001
9.779027e+002, 2.650209e+001
9.783848e+002, 2.641086e+001
9.788669e+002, 2.668928e+001
9.793491e+002, 2.715892e+001
9.798312e+002, 2.763429e+001
9.803133e+002, 2.818018e+001
9.807954e+002, 2.842133e+001
9.812775e+002, 2.817273e+001
9.817596e+002, 2.793318e+001
9.822418e+002, 2.815595e+001
9.827239e+002, 2.871261e+001
9.832060e+002, 2.891786e+001
9.836881e+002, 2.878830e+001
9.841702e+002, 2.851232e+001
9.846523e+002, 2.802421e+001
9.851345e+002, 2.759957e+001
9.856166e+002, 2.748015e+001
9.860987e+002, 2.756519e+001
9.865808e+002, 2.745360e+001
9.870629e+002, 2.705354e+001
9.875450e+002, 2.675759e+001
9.880272e+002, 2.667031e+001
9.885093e+002, 2.664887e+001
9.889914e+002, 2.658264e+001
9.894735e+002, 2.639889e+001
9.899556e+002, 2.587228e+001
9.904377e+002, 2.483561e+001
9.909199e+002, 2.397492e+001
9.914020e+002, 2.368529e+001
9.918841e+002, 2.358352e+001
9.923662e+002, 2.341082e+001
9.928483e+002, 2.316579e+001
9.933304e+002, 2.302179e+001
9.938126e+002, 2.298726e+001
9.942947e+002, 2.290661e+001
9.947768e+002, 2.262099e+001
9.952589e+002, 2.228005e+001
9.957410e+002, 2.208143e+001
9.962231e+002, 2.197623e+001
9.967053e+002, 2.181452e+001
9.971874e+002, 2.150601e+001
9.976695e+002, 2.119203e+001
9.981516e+002, 2.083843e+001
9.986337e+002, 2.054880e+001
9.991158e+002, 2.056015e+001
9.995980e+002, 2.081140e+001
1.000080e+003, 2.082773e+001
1.000562e+003, 2.051037e+001
1.001044e+003, 2.022644e+001
1.001526e+003, 2.032176e+001
1.002009e+003, 2.052233e+001
1.002491e+003, 2.059415e+001
1.002973e+003, 2.050265e+001
1.003455e+003, 2.046387e+001
1.003937e+003, 2.050437e+001
1.004419e+003, 2.051436e+001
1.004901e+003, 2.043721e+001
1.005383e+003, 2.030284e+001
1.005865e+003, 2.011366e+001
1.006348e+003, 1.991904e+001
1.006830e+003, 1.985508e+001
1.007312e+003, 2.013030e+001
1.007794e+003, 2.036151e+001
1.008276e+003, 2.036941e+001
1.008758e+003, 2.031493e+001
1.009240e+003, 2.037760e+001
1.009722e+003, 2.057288e+001
1.010205e+003, 2.073572e+001
1.010687e+003, 2.086205e+001
1.011169e+003, 2.090906e+001
1.011651e+003, 2.075443e+001
1.012133e+003, 2.056013e+001
1.012615e+003, 2.051685e+001
1.013097e+003, 2.062929e+001
1.013579e+003, 2.070996e+001
1.014061e+003, 2.075414e+001
1.014544e+003, 2.071267e+001
1.015026e+003, 2.052152e+001
1.015508e+003, 2.028215e+001
1.015990e+003, 2.028831e+001
1.016472e+003, 2.047483e+001
1.016954e+003, 2.057329e+001
1.017436e+003, 2.048759e+001
1.017918e+003, 2.033276e+001
1.018401e+003, 2.012485e+001
1.018883e+003, 1.991885e+001
1.019365e+003, 1.976539e+001
1.019847e+003, 1.966671e+001
1.020329e+003, 1.961788e+001
1.020811e+003, 1.962704e+001
1.021293e+003, 1.964221e+001
1.021775e+003, 1.965718e+001
1.022257e+003, 1.963710e+001
1.022740e+003, 1.946413e+001
1.023222e+003, 1.919497e+001
1.023704e+003, 1.904507e+001
1.024186e+003, 1.936923e+001
1.024668e+003, 1.943643e+001
1.025150e+003, 1.894502e+001
1.025632e+003, 1.827344e+001
1.026114e+003, 1.808809e+001
1.026596e+003, 1.833950e+001
1.027079e+003, 1.858837e+001
1.027561e+003, 1.878010e+001
1.028043e+003, 1.883843e+001
1.028525e+003, 1.857471e+001
1.029007e+003, 1.824201e+001
1.029489e+003, 1.806622e+001
1.029971e+003, 1.807604e+001
1.030453e+003, 1.807910e+001
1.030936e+003, 1.807973e+001
1.031418e+003, 1.805770e+001
1.031900e+003, 1.799414e+001
1.032382e+003, 1.791382e+001
1.032864e+003, 1.788011e+001
1.033346e+003, 1.786832e+001
1.033828e+003, 1.782069e+001
1.034310e+003, 1.770945e+001
1.034792e+003, 1.757046e+001
1.035275e+003, 1.738000e+001
1.035757e+003, 1.719402e+001
1.036239e+003, 1.703973e+001
1.036721e+003, 1.691824e+001
1.037203e+003, 1.696728e+001
1.037685e+003, 1.718907e+001
1.038167e+003, 1.736691e+001
1.038649e+003, 1.731715e+001
1.039132e+003, 1.717871e+001
1.039614e+003, 1.700912e+001
1.040096e+003, 1.684030e+001
1.040578e+003, 1.680144e+001
1.041060e+003, 1.695953e+001
1.041542e+003, 1.708802e+001
1.042024e+003, 1.716391e+001
1.042506e+003, 1.714867e+001
1.042989e+003, 1.689763e+001
1.043471e+003, 1.653204e+001
1.043953e+003, 1.630361e+001
1.044435e+003, 1.626608e+001
1.044917e+003, 1.631640e+001
1.045399e+003, 1.647998e+001
1.045881e+003, 1.665672e+001
1.046363e+003, 1.679856e+001
1.046845e+003, 1.690852e+001
1.047328e+003, 1.702297e+001
1.047810e+003, 1.713957e+001
1.048292e+003, 1.719448e+001
1.048774e+003, 1.713132e+001
1.049256e+003, 1.703513e+001
1.049738e+003, 1.693158e+001
1.050220e+003, 1.685440e+001
1.050702e+003, 1.686461e+001
1.051184e+003, 1.700386e+001
1.051667e+003, 1.715817e+001
1.052149e+003, 1.736685e+001
1.052631e+003, 1.745371e+001
1.053113e+003, 1.705912e+001
1.053595e+003, 1.651630e+001
1.054077e+003, 1.661265e+001
1.054559e+003, 1.726371e+001
1.055041e+003, 1.769932e+001
1.055523e+003, 1.733596e+001
1.056006e+003, 1.704876e+001
1.056488e+003, 1.713738e+001
1.056970e+003, 1.739567e+001
1.057452e+003, 1.737761e+001
1.057934e+003, 1.711764e+001
1.058416e+003, 1.693587e+001
1.058898e+003, 1.690092e+001
1.059380e+003, 1.690272e+001
1.059863e+003, 1.680221e+001
1.060345e+003, 1.673838e+001
1.060827e+003, 1.688008e+001
1.061309e+003, 1.724133e+001
1.061791e+003, 1.742481e+001
1.062273e+003, 1.739709e+001
1.062755e+003, 1.734945e+001
1.063237e+003, 1.737239e+001
1.063719e+003, 1.741201e+001
1.064202e+003, 1.736396e+001
1.064684e+003, 1.727466e+001
1.065166e+003, 1.723280e+001
1.065648e+003, 1.727855e+001
1.066130e+003, 1.735709e+001
1.066612e+003, 1.749434e+001
1.067094e+003, 1.761323e+001
1.067576e+003, 1.759556e+001
1.068059e+003, 1.749212e+001
1.068541e+003, 1.766215e+001
1.069023e+003, 1.807047e+001
1.069505e+003, 1.839362e+001
1.069987e+003, 1.841075e+001
1.070469e+003, 1.832088e+001
1.070951e+003, 1.820077e+001
1.071433e+003, 1.805038e+001
1.071916e+003, 1.783125e+001
1.072398e+003, 1.751869e+001
1.072880e+003, 1.739033e+001
1.073362e+003, 1.750027e+001
1.073844e+003, 1.769311e+001
1.074326e+003, 1.786253e+001
1.074808e+003, 1.799790e+001
1.075290e+003, 1.809464e+001
1.075772e+003, 1.815075e+001
1.076255e+003, 1.813029e+001
1.076737e+003, 1.800604e+001
1.077219e+003, 1.787088e+001
1.077701e+003, 1.774494e+001
1.078183e+003, 1.764104e+001
1.078665e+003, 1.758069e+001
1.079147e+003, 1.756277e+001
1.079629e+003, 1.759143e+001
1.080111e+003, 1.768672e+001
1.080594e+003, 1.777096e+001
1.081076e+003, 1.781643e+001
1.081558e+003, 1.784456e+001
1.082040e+003, 1.789699e+001
1.082522e+003, 1.795493e+001
1.083004e+003, 1.770673e+001
1.083486e+003, 1.720138e+001
1.083968e+003, 1.692748e+001
1.084450e+003, 1.738489e+001
1.084933e+003, 1.790299e+001
1.085415e+003, 1.808420e+001
1.085897e+003, 1.803566e+001
1.086379e+003, 1.793481e+001
1.086861e+003, 1.775937e+001
1.087343e+003, 1.764864e+001
1.087825e+003, 1.761426e+001
1.088307e+003, 1.760891e+001
1.088790e+003, 1.757905e+001
1.089272e+003, 1.756326e+001
1.089754e+003, 1.768967e+001
1.090236e+003, 1.790159e+001
1.090718e+003, 1.786195e+001
1.091200e+003, 1.727480e+001
1.091682e+003, 1.688028e+001
1.092164e+003, 1.685970e+001
1.092646e+003, 1.697864e+001
1.093129e+003, 1.685728e+001
1.093611e+003, 1.659484e+001
1.094093e+003, 1.641890e+001
1.094575e+003, 1.636309e+001
1.095057e+003, 1.641296e+001
1.095539e+003, 1.669048e+001
1.096021e+003, 1.693251e+001
1.096503e+003, 1.702658e+001
1.096986e+003, 1.699837e+001
1.097468e+003, 1.692663e+001
1.097950e+003, 1.681759e+001
1.098432e+003, 1.673502e+001
1.098914e+003, 1.672210e+001
1.099396e+003, 1.667718e+001
1.099878e+003, 1.644648e+001
1.100360e+003, 1.620186e+001
1.100843e+003, 1.612507e+001
1.101325e+003, 1.623493e+001
1.101807e+003, 1.635556e+001
1.102289e+003, 1.650142e+001
1.102771e+003, 1.650925e+001
1.103253e+003, 1.615934e+001
1.103735e+003, 1.574839e+001
1.104217e+003, 1.562251e+001
1.104699e+003, 1.569781e+001
1.105182e+003, 1.582071e+001
1.105664e+003, 1.602814e+001
1.106146e+003, 1.615101e+001
1.106628e+003, 1.617039e+001
1.107110e+003, 1.614523e+001
1.107592e+003, 1.609986e+001
1.108074e+003, 1.605953e+001
1.108556e+003, 1.612195e+001
1.109038e+003, 1.625440e+001
1.109521e+003, 1.627603e+001
1.110003e+003, 1.596533e+001
1.110485e+003, 1.574268e+001
1.110967e+003, 1.573137e+001
1.111449e+003, 1.580103e+001
1.111931e+003, 1.570645e+001
1.112413e+003, 1.551081e+001
1.112895e+003, 1.555416e+001
1.113377e+003, 1.588122e+001
1.113860e+003, 1.614173e+001
1.114342e+003, 1.605801e+001
1.114824e+003, 1.591321e+001
1.115306e+003, 1.586656e+001
1.115788e+003, 1.588271e+001
1.116270e+003, 1.581818e+001
1.116752e+003, 1.567544e+001
1.117234e+003, 1.562012e+001
1.117717e+003, 1.570629e+001
1.118199e+003, 1.583865e+001
1.118681e+003, 1.603179e+001
1.119163e+003, 1.616173e+001
1.119645e+003, 1.604479e+001
1.120127e+003, 1.566216e+001
1.120609e+003, 1.552435e+001
1.121091e+003, 1.567416e+001
1.121573e+003, 1.579369e+001
1.122056e+003, 1.571897e+001
1.122538e+003, 1.559502e+001
1.123020e+003, 1.561400e+001
1.123502e+003, 1.570854e+001
1.123984e+003, 1.577897e+001
1.124466e+003, 1.582458e+001
1.124948e+003, 1.576427e+001
1.125430e+003, 1.552833e+001
1.125913e+003, 1.536853e+001
1.126395e+003, 1.555925e+001
1.126877e+003, 1.589364e+001
1.127359e+003, 1.585522e+001
1.127841e+003, 1.556372e+001
1.128323e+003, 1.535111e+001
1.128805e+003, 1.542390e+001
1.129287e+003, 1.546567e+001
1.129770e+003, 1.541856e+001
1.130252e+003, 1.535150e+001
1.130734e+003, 1.534772e+001
1.131216e+003, 1.538149e+001
1.131698e+003, 1.530654e+001
1.132180e+003, 1.514242e+001
1.132662e+003, 1.507457e+001
1.133144e+003, 1.534031e+001
1.133626e+003, 1.555231e+001
1.134109e+003, 1.553880e+001
1.134591e+003, 1.542158e+001
1.135073e+003, 1.538058e+001
1.135555e+003, 1.541013e+001
1.136037e+003, 1.544413e+001
1.136519e+003, 1.547576e+001
1.137001e+003, 1.549459e+001
1.137483e+003, 1.547464e+001
1.137965e+003, 1.545758e+001
1.138448e+003, 1.547004e+001
1.138930e+003, 1.550764e+001
1.139412e+003, 1.556348e+001
1.139894e+003, 1.563997e+001
1.140376e+003, 1.571488e+001
1.140858e+003, 1.579741e+001
1.141340e+003, 1.580464e+001
1.141822e+003, 1.550992e+001
1.142304e+003, 1.521314e+001
1.142787e+003, 1.528652e+001
1.143269e+003, 1.573857e+001
1.143751e+003, 1.576618e+001
1.144233e+003, 1.525790e+001
1.144715e+003, 1.496367e+001
1.145197e+003, 1.521978e+001
1.145679e+003, 1.561554e+001
1.146161e+003, 1.563798e+001
1.146644e+003, 1.546679e+001
1.147126e+003, 1.531504e+001
1.147608e+003, 1.519903e+001
1.148090e+003, 1.524584e+001
1.148572e+003, 1.553485e+001
1.149054e+003, 1.573231e+001
1.149536e+003, 1.561681e+001
1.150018e+003, 1.537965e+001
1.150500e+003, 1.536551e+001
1.150983e+003, 1.548222e+001
1.151465e+003, 1.553901e+001
1.151947e+003, 1.540082e+001
1.152429e+003, 1.539856e+001
1.152911e+003, 1.564132e+001
1.153393e+003, 1.583533e+001
1.153875e+003, 1.574984e+001
1.154357e+003, 1.547392e+001
1.154840e+003, 1.516378e+001
1.155322e+003, 1.486582e+001
1.155804e+003, 1.474095e+001
1.156286e+003, 1.498769e+001
1.156768e+003, 1.522549e+001
1.157250e+003, 1.541908e+001
1.157732e+003, 1.555519e+001
1.158214e+003, 1.559768e+001
1.158697e+003, 1.557138e+001
1.159179e+003, 1.562665e+001
1.159661e+003, 1.573462e+001
1.160143e+003, 1.570714e+001
1.160625e+003, 1.519822e+001
1.161107e+003, 1.486794e+001
1.161589e+003, 1.499777e+001
1.162071e+003, 1.530993e+001
1.162553e+003, 1.550535e+001
1.163036e+003, 1.557830e+001
1.163518e+003, 1.541640e+001
1.164000e+003, 1.503314e+001
1.164482e+003, 1.478923e+001
1.164964e+003, 1.508179e+001
1.165446e+003, 1.536942e+001
1.165928e+003, 1.536504e+001
1.166410e+003, 1.520416e+001
1.166892e+003, 1.511298e+001
1.167375e+003, 1.508998e+001
1.167857e+003, 1.513497e+001
1.168339e+003, 1.525055e+001
1.168821e+003, 1.536874e+001
1.169303e+003, 1.551669e+001
1.169785e+003, 1.557743e+001
1.170267e+003, 1.539862e+001
1.170749e+003, 1.508527e+001
1.171231e+003, 1.491087e+001
1.171714e+003, 1.487390e+001
1.172196e+003, 1.495881e+001
1.172678e+003, 1.517517e+001
1.173160e+003, 1.542432e+001
1.173642e+003, 1.574837e+001
1.174124e+003, 1.596536e+001
1.174606e+003, 1.580990e+001
1.175088e+003, 1.537863e+001
1.175571e+003, 1.527372e+001
1.176053e+003, 1.551515e+001
1.176535e+003, 1.565539e+001
1.177017e+003, 1.553748e+001
1.177499e+003, 1.539017e+001
1.177981e+003, 1.545368e+001
1.178463e+003, 1.558232e+001
1.178945e+003, 1.562710e+001
1.179427e+003, 1.558046e+001
1.179910e+003, 1.558397e+001
1.180392e+003, 1.564706e+001
1.180874e+003, 1.566541e+001
1.181356e+003, 1.559936e+001
1.181838e+003, 1.547491e+001
1.182320e+003, 1.524076e+001
1.182802e+003, 1.500988e+001
1.183284e+003, 1.493343e+001
1.183767e+003, 1.504581e+001
1.184249e+003, 1.512978e+001
1.184731e+003, 1.518575e+001
1.185213e+003, 1.521574e+001
1.185695e+003, 1.522029e+001
1.186177e+003, 1.520020e+001
1.186659e+003, 1.510011e+001
1.187141e+003, 1.500062e+001
1.187624e+003, 1.503302e+001
1.188106e+003, 1.525391e+001
1.188588e+003, 1.546980e+001
1.189070e+003, 1.570211e+001
1.189552e+003, 1.579221e+001
1.190034e+003, 1.552416e+001
1.190516e+003, 1.519854e+001
1.190998e+003, 1.525358e+001
1.191480e+003, 1.549881e+001
1.191963e+003, 1.559760e+001
1.192445e+003, 1.539322e+001
1.192927e+003, 1.533245e+001
1.193409e+003, 1.545227e+001
1.193891e+003, 1.554417e+001
1.194373e+003, 1.544986e+001
1.194855e+003, 1.525605e+001
1.195337e+003, 1.500511e+001
1.195819e+003, 1.475534e+001
1.196302e+003, 1.464475e+001
1.196784e+003, 1.473542e+001
1.197266e+003, 1.487734e+001
1.197748e+003, 1.508870e+001
1.198230e+003, 1.526266e+001
1.198712e+003, 1.527533e+001
1.199194e+003, 1.522587e+001
1.199676e+003, 1.521818e+001
1.200158e+003, 1.526097e+001
1.200641e+003, 1.538472e+001
1.201123e+003, 1.569036e+001
1.201605e+003, 1.583275e+001
1.202087e+003, 1.577038e+001
1.202569e+003, 1.563989e+001
1.203051e+003, 1.555168e+001
1.203533e+003, 1.547923e+001
1.204015e+003, 1.533846e+001
1.204498e+003, 1.517833e+001
1.204980e+003, 1.518875e+001
1.205462e+003, 1.553294e+001
1.205944e+003, 1.569355e+001
1.206426e+003, 1.559824e+001
1.206908e+003, 1.543222e+001
1.207390e+003, 1.534427e+001
1.207872e+003, 1.531780e+001
1.208354e+003, 1.538704e+001
1.208837e+003, 1.550941e+001
1.209319e+003, 1.547011e+001
1.209801e+003, 1.508504e+001
1.210283e+003, 1.500615e+001
1.210765e+003, 1.538183e+001
1.211247e+003, 1.579816e+001
1.211729e+003, 1.573072e+001
1.212211e+003, 1.551474e+001
1.212694e+003, 1.564268e+001
1.213176e+003, 1.605478e+001
1.213658e+003, 1.623102e+001
1.214140e+003, 1.608825e+001
1.214622e+003, 1.581142e+001
1.215104e+003, 1.537306e+001
1.215586e+003, 1.503950e+001
1.216068e+003, 1.526814e+001
1.216551e+003, 1.564978e+001
1.217033e+003, 1.559898e+001
1.217515e+003, 1.517105e+001
1.217997e+003, 1.508922e+001
1.218479e+003, 1.554950e+001
1.218961e+003, 1.579664e+001
1.219443e+003, 1.567845e+001
1.219925e+003, 1.542695e+001
1.220407e+003, 1.522328e+001
1.220890e+003, 1.508594e+001
1.221372e+003, 1.505631e+001
1.221854e+003, 1.512753e+001
1.222336e+003, 1.518128e+001
1.222818e+003, 1.518251e+001
1.223300e+003, 1.531489e+001
1.223782e+003, 1.565044e+001
1.224264e+003, 1.595797e+001
1.224746e+003, 1.593992e+001
1.225229e+003, 1.579070e+001
1.225711e+003, 1.571767e+001
1.226193e+003, 1.572390e+001
1.226675e+003, 1.563810e+001
1.227157e+003, 1.542582e+001
1.227639e+003, 1.533290e+001
1.228121e+003, 1.544684e+001
1.228603e+003, 1.552026e+001
1.229085e+003, 1.512731e+001
1.229568e+003, 1.469181e+001
1.230050e+003, 1.466383e+001
1.230532e+003, 1.503071e+001
1.231014e+003, 1.535914e+001
1.231496e+003, 1.566361e+001
1.231978e+003, 1.579594e+001
1.232460e+003, 1.569667e+001
1.232942e+003, 1.554781e+001
1.233425e+003, 1.552307e+001
1.233907e+003, 1.552864e+001
1.234389e+003, 1.545109e+001
1.234871e+003, 1.531711e+001
1.235353e+003, 1.534131e+001
1.235835e+003, 1.553359e+001
1.236317e+003, 1.562460e+001
1.236799e+003, 1.551879e+001
1.237281e+003, 1.547019e+001
1.237764e+003, 1.588722e+001
1.238246e+003, 1.628373e+001
1.238728e+003, 1.617713e+001
1.239210e+003, 1.570535e+001
1.239692e+003, 1.540441e+001
1.240174e+003, 1.527681e+001
1.240656e+003, 1.530359e+001
1.241138e+003, 1.550662e+001
1.241621e+003, 1.570592e+001
1.242103e+003, 1.573477e+001
1.242585e+003, 1.574699e+001
1.243067e+003, 1.590670e+001
1.243549e+003, 1.611934e+001
1.244031e+003, 1.593414e+001
1.244513e+003, 1.541988e+001
1.244995e+003, 1.516084e+001
1.245478e+003, 1.532239e+001
1.245960e+003, 1.554859e+001
1.246442e+003, 1.575034e+001
1.246924e+003, 1.580094e+001
1.247406e+003, 1.556635e+001
1.247888e+003, 1.519381e+001
1.248370e+003, 1.519719e+001
1.248852e+003, 1.548388e+001
1.249334e+003, 1.564480e+001
1.249817e+003, 1.556429e+001
1.250299e+003, 1.551580e+001
1.250781e+003, 1.576598e+001
1.251263e+003, 1.590022e+001
1.251745e+003, 1.569484e+001
1.252227e+003, 1.532542e+001
1.252709e+003, 1.523936e+001
1.253191e+003, 1.534865e+001
1.253673e+003, 1.537839e+001
1.254156e+003, 1.525213e+001
1.254638e+003, 1.522262e+001
1.255120e+003, 1.546795e+001
1.255602e+003, 1.567845e+001
1.256084e+003, 1.576340e+001
1.256566e+003, 1.573738e+001
1.257048e+003, 1.552731e+001
1.257530e+003, 1.525882e+001
1.258012e+003, 1.522009e+001
1.258495e+003, 1.548448e+001
1.258977e+003, 1.571577e+001
1.259459e+003, 1.591518e+001
1.259941e+003, 1.593690e+001
1.260423e+003, 1.566064e+001
1.260905e+003, 1.534163e+001
1.261387e+003, 1.544117e+001
1.261869e+003, 1.573752e+001
1.262352e+003, 1.591800e+001
1.262834e+003, 1.593110e+001
1.263316e+003, 1.585414e+001
1.263798e+003, 1.564066e+001
1.264280e+003, 1.555801e+001
1.264762e+003, 1.573340e+001
1.265244e+003, 1.591851e+001
1.265726e+003, 1.573305e+001
1.266208e+003, 1.544259e+001
1.266691e+003, 1.531952e+001
1.267173e+003, 1.540124e+001
1.267655e+003, 1.570943e+001
1.268137e+003, 1.631127e+001
1.268619e+003, 1.653632e+001
1.269101e+003, 1.611544e+001
1.269583e+003, 1.568346e+001
1.270065e+003, 1.599550e+001
1.270548e+003, 1.644101e+001
1.271030e+003, 1.640176e+001
1.271512e+003, 1.599906e+001
1.271994e+003, 1.583227e+001
1.272476e+003, 1.589437e+001
1.272958e+003, 1.576883e+001
1.273440e+003, 1.531755e+001
1.273922e+003, 1.502076e+001
1.274405e+003, 1.542173e+001
1.274887e+003, 1.588616e+001
1.275369e+003, 1.604556e+001
1.275851e+003, 1.598180e+001
1.276333e+003, 1.589670e+001
1.276815e+003, 1.579772e+001
1.277297e+003, 1.571248e+001
1.277779e+003, 1.564429e+001
1.278261e+003, 1.563016e+001
1.278744e+003, 1.575255e+001
1.279226e+003, 1.585811e+001
1.279708e+003, 1.590279e+001
1.280190e+003, 1.588550e+001
1.280672e+003, 1.573350e+001
1.281154e+003, 1.553344e+001
1.281636e+003, 1.555879e+001
1.282118e+003, 1.584642e+001
1.282600e+003, 1.600478e+001
1.283083e+003, 1.577868e+001
1.283565e+003, 1.567347e+001
1.284047e+003, 1.585179e+001
1.284529e+003, 1.607902e+001
1.285011e+003, 1.596263e+001
1.285493e+003, 1.570460e+001
1.285975e+003, 1.564986e+001
1.286457e+003, 1.580924e+001
1.286939e+003, 1.581298e+001
1.287422e+003, 1.554301e+001
1.287904e+003, 1.544989e+001
1.288386e+003, 1.564953e+001
1.288868e+003, 1.590251e+001
1.289350e+003, 1.592070e+001
1.289832e+003, 1.588457e+001
1.290314e+003, 1.599138e+001
1.290796e+003, 1.621710e+001
1.291279e+003, 1.640399e+001
1.291761e+003, 1.656214e+001
1.292243e+003, 1.654083e+001
1.292725e+003, 1.630819e+001
1.293207e+003, 1.606333e+001
1.293689e+003, 1.593204e+001
1.294171e+003, 1.587674e+001
1.294653e+003, 1.592212e+001
1.295135e+003, 1.600345e+001
1.295618e+003, 1.604400e+001
1.296100e+003, 1.603438e+001
1.296582e+003, 1.579051e+001
1.297064e+003, 1.532071e+001
1.297546e+003, 1.506780e+001
1.298028e+003, 1.556838e+001
1.298510e+003, 1.595103e+001
1.298992e+003, 1.588794e+001
1.299475e+003, 1.567269e+001
1.299957e+003, 1.569953e+001
1.300439e+003, 1.588191e+001
1.300921e+003, 1.597782e+001
1.301403e+003, 1.597979e+001
1.301885e+003, 1.594747e+001
##END=



