##NAMES=Nordite-(La)
##RRUFFID=R140310
##IDEAL CHEMISTRY=Na_3_Sr^2+^La^3+^Zn^2+^Si_6_O_17_
##LOCALITY=Kukisvumchorr Mt, Khibiny Massif, Kola Peninsula, Murmanskaja Oblast', Northern Region, Russia
##OWNER=RRUFF
##SOURCE=Rock Currier
##DESCRIPTION=Colorless when thin, grey when thick, with good cleavage
##STATUS=The identification of this mineral is confirmed by single-crystal X-ray diffraction and chemical analysis.
##URL=rruff.info/R140310
##MEASURED CHEMISTRY=Na_3.11_(Sr_0.97_Ca_0.06_Ba_0.01_)_Σ1.04_(La_0.52_Ce_0.49_Nd_0.05_Pr_0.02_)_Σ1.08_(Zn_0.55_Fe_0.17_Mn_0.14_Mg_0.14_)_Σ1.00_Si_5.89_O_17_
8.758203e+001, 6.372230e+002
8.806415e+001, 6.074432e+002
8.854626e+001, 6.021707e+002
8.902838e+001, 6.216381e+002
8.951050e+001, 6.580366e+002
8.999261e+001, 7.185595e+002
9.047473e+001, 7.987446e+002
9.095685e+001, 8.758199e+002
9.143896e+001, 9.277236e+002
9.192108e+001, 9.535369e+002
9.240320e+001, 9.805502e+002
9.288531e+001, 1.000015e+003
9.336743e+001, 1.002319e+003
9.384955e+001, 9.909517e+002
9.433167e+001, 9.836008e+002
9.481378e+001, 9.666347e+002
9.529590e+001, 9.280460e+002
9.577802e+001, 8.754149e+002
9.626013e+001, 8.373026e+002
9.674225e+001, 8.350217e+002
9.722437e+001, 8.644254e+002
9.770648e+001, 8.872095e+002
9.818860e+001, 9.017958e+002
9.867072e+001, 9.060433e+002
9.915283e+001, 8.923422e+002
9.963495e+001, 8.623117e+002
1.001171e+002, 8.320969e+002
1.005992e+002, 8.238426e+002
1.010813e+002, 8.462320e+002
1.015634e+002, 8.696876e+002
1.020455e+002, 8.897731e+002
1.025277e+002, 9.104105e+002
1.030098e+002, 9.389898e+002
1.034919e+002, 9.781168e+002
1.039740e+002, 1.019236e+003
1.044561e+002, 1.034133e+003
1.049382e+002, 9.953047e+002
1.054204e+002, 9.603515e+002
1.059025e+002, 9.362270e+002
1.063846e+002, 9.198823e+002
1.068667e+002, 9.053771e+002
1.073488e+002, 8.885667e+002
1.078309e+002, 8.707457e+002
1.083131e+002, 8.610687e+002
1.087952e+002, 8.626265e+002
1.092773e+002, 8.680118e+002
1.097594e+002, 8.760075e+002
1.102415e+002, 8.861072e+002
1.107236e+002, 8.916622e+002
1.112058e+002, 8.830108e+002
1.116879e+002, 8.650637e+002
1.121700e+002, 8.538245e+002
1.126521e+002, 8.564747e+002
1.131342e+002, 8.665989e+002
1.136163e+002, 8.728629e+002
1.140985e+002, 8.718735e+002
1.145806e+002, 8.733292e+002
1.150627e+002, 8.877632e+002
1.155448e+002, 9.099238e+002
1.160269e+002, 9.272151e+002
1.165090e+002, 9.289712e+002
1.169912e+002, 9.155552e+002
1.174733e+002, 9.044906e+002
1.179554e+002, 8.903104e+002
1.184375e+002, 8.843004e+002
1.189196e+002, 8.969992e+002
1.194017e+002, 9.251584e+002
1.198839e+002, 9.544732e+002
1.203660e+002, 9.673979e+002
1.208481e+002, 9.549484e+002
1.213302e+002, 9.475793e+002
1.218123e+002, 9.518607e+002
1.222944e+002, 9.557139e+002
1.227766e+002, 9.511870e+002
1.232587e+002, 9.361422e+002
1.237408e+002, 9.139143e+002
1.242229e+002, 8.907498e+002
1.247050e+002, 8.593885e+002
1.251871e+002, 8.373148e+002
1.256693e+002, 8.329435e+002
1.261514e+002, 8.358940e+002
1.266335e+002, 8.298161e+002
1.271156e+002, 8.053391e+002
1.275977e+002, 7.740398e+002
1.280798e+002, 7.734888e+002
1.285620e+002, 8.210967e+002
1.290441e+002, 8.639615e+002
1.295262e+002, 8.758179e+002
1.300083e+002, 8.632181e+002
1.304904e+002, 8.534695e+002
1.309725e+002, 8.612204e+002
1.314547e+002, 8.808784e+002
1.319368e+002, 8.991066e+002
1.324189e+002, 9.173431e+002
1.329010e+002, 9.315703e+002
1.333831e+002, 9.373069e+002
1.338652e+002, 9.338312e+002
1.343474e+002, 9.257251e+002
1.348295e+002, 9.104910e+002
1.353116e+002, 8.933762e+002
1.357937e+002, 8.805922e+002
1.362758e+002, 8.763636e+002
1.367579e+002, 8.766305e+002
1.372401e+002, 8.702268e+002
1.377222e+002, 8.523227e+002
1.382043e+002, 8.347769e+002
1.386864e+002, 8.230543e+002
1.391685e+002, 8.139949e+002
1.396507e+002, 8.021356e+002
1.401328e+002, 7.824650e+002
1.406149e+002, 7.554578e+002
1.410970e+002, 7.387130e+002
1.415791e+002, 7.416572e+002
1.420612e+002, 7.466791e+002
1.425434e+002, 7.552084e+002
1.430255e+002, 7.629129e+002
1.435076e+002, 7.605541e+002
1.439897e+002, 7.374485e+002
1.444718e+002, 6.866572e+002
1.449539e+002, 6.557903e+002
1.454361e+002, 6.550048e+002
1.459182e+002, 6.610464e+002
1.464003e+002, 6.610844e+002
1.468824e+002, 6.538411e+002
1.473645e+002, 6.462213e+002
1.478466e+002, 6.466238e+002
1.483288e+002, 6.585560e+002
1.488109e+002, 6.664847e+002
1.492930e+002, 6.656618e+002
1.497751e+002, 6.627592e+002
1.502572e+002, 6.669977e+002
1.507393e+002, 6.815403e+002
1.512215e+002, 6.961493e+002
1.517036e+002, 6.931719e+002
1.521857e+002, 6.736285e+002
1.526678e+002, 6.553892e+002
1.531499e+002, 6.440693e+002
1.536320e+002, 6.382482e+002
1.541142e+002, 6.346879e+002
1.545963e+002, 6.330035e+002
1.550784e+002, 6.331807e+002
1.555605e+002, 6.344938e+002
1.560426e+002, 6.368859e+002
1.565247e+002, 6.413435e+002
1.570069e+002, 6.514826e+002
1.574890e+002, 6.670743e+002
1.579711e+002, 6.754585e+002
1.584532e+002, 6.651364e+002
1.589353e+002, 6.530173e+002
1.594174e+002, 6.521393e+002
1.598996e+002, 6.638984e+002
1.603817e+002, 6.769596e+002
1.608638e+002, 6.752766e+002
1.613459e+002, 6.516557e+002
1.618280e+002, 6.378497e+002
1.623102e+002, 6.451160e+002
1.627923e+002, 6.585695e+002
1.632744e+002, 6.695453e+002
1.637565e+002, 6.753646e+002
1.642386e+002, 6.777599e+002
1.647207e+002, 6.797335e+002
1.652029e+002, 6.795663e+002
1.656850e+002, 6.820171e+002
1.661671e+002, 6.879413e+002
1.666492e+002, 6.959623e+002
1.671313e+002, 7.064417e+002
1.676134e+002, 7.193846e+002
1.680956e+002, 7.321209e+002
1.685777e+002, 7.367488e+002
1.690598e+002, 7.223896e+002
1.695419e+002, 7.119750e+002
1.700240e+002, 7.086851e+002
1.705061e+002, 7.099807e+002
1.709883e+002, 7.122764e+002
1.714704e+002, 7.137817e+002
1.719525e+002, 7.150013e+002
1.724346e+002, 7.182416e+002
1.729167e+002, 7.326110e+002
1.733988e+002, 7.388870e+002
1.738810e+002, 7.227388e+002
1.743631e+002, 6.927363e+002
1.748452e+002, 6.722852e+002
1.753273e+002, 6.766857e+002
1.758094e+002, 6.988542e+002
1.762915e+002, 7.107220e+002
1.767737e+002, 7.049411e+002
1.772558e+002, 6.979628e+002
1.777379e+002, 7.001302e+002
1.782200e+002, 7.107960e+002
1.787021e+002, 7.230234e+002
1.791842e+002, 7.345961e+002
1.796664e+002, 7.445440e+002
1.801485e+002, 7.512890e+002
1.806306e+002, 7.534410e+002
1.811127e+002, 7.536247e+002
1.815948e+002, 7.542078e+002
1.820769e+002, 7.551230e+002
1.825591e+002, 7.568010e+002
1.830412e+002, 7.578645e+002
1.835233e+002, 7.603151e+002
1.840054e+002, 7.680950e+002
1.844875e+002, 7.861092e+002
1.849696e+002, 8.058032e+002
1.854518e+002, 8.082714e+002
1.859339e+002, 7.825488e+002
1.864160e+002, 7.645947e+002
1.868981e+002, 7.734603e+002
1.873802e+002, 7.945393e+002
1.878623e+002, 8.111917e+002
1.883445e+002, 8.144995e+002
1.888266e+002, 8.088603e+002
1.893087e+002, 8.101589e+002
1.897908e+002, 8.308941e+002
1.902729e+002, 8.401641e+002
1.907550e+002, 8.212409e+002
1.912372e+002, 7.896219e+002
1.917193e+002, 7.657877e+002
1.922014e+002, 7.621458e+002
1.926835e+002, 7.761372e+002
1.931656e+002, 7.907443e+002
1.936477e+002, 8.130598e+002
1.941299e+002, 8.282117e+002
1.946120e+002, 8.275808e+002
1.950941e+002, 8.185677e+002
1.955762e+002, 8.136455e+002
1.960583e+002, 8.217637e+002
1.965404e+002, 8.418404e+002
1.970226e+002, 8.543269e+002
1.975047e+002, 8.566998e+002
1.979868e+002, 8.548351e+002
1.984689e+002, 8.431806e+002
1.989510e+002, 8.278688e+002
1.994331e+002, 8.227084e+002
1.999153e+002, 8.388765e+002
2.003974e+002, 8.756105e+002
2.008795e+002, 9.017947e+002
2.013616e+002, 9.131106e+002
2.018437e+002, 9.206584e+002
2.023258e+002, 9.275983e+002
2.028080e+002, 9.345424e+002
2.032901e+002, 9.423922e+002
2.037722e+002, 9.520888e+002
2.042543e+002, 9.634751e+002
2.047364e+002, 9.741789e+002
2.052185e+002, 9.812629e+002
2.057007e+002, 9.901115e+002
2.061828e+002, 1.008495e+003
2.066649e+002, 1.034840e+003
2.071470e+002, 1.053364e+003
2.076291e+002, 1.047958e+003
2.081112e+002, 1.024725e+003
2.085934e+002, 1.015438e+003
2.090755e+002, 1.027451e+003
2.095576e+002, 1.049979e+003
2.100397e+002, 1.078417e+003
2.105218e+002, 1.113234e+003
2.110039e+002, 1.141190e+003
2.114861e+002, 1.149877e+003
2.119682e+002, 1.145566e+003
2.124503e+002, 1.140535e+003
2.129324e+002, 1.129301e+003
2.134145e+002, 1.123585e+003
2.138967e+002, 1.141101e+003
2.143788e+002, 1.186070e+003
2.148609e+002, 1.234606e+003
2.153430e+002, 1.283223e+003
2.158251e+002, 1.324872e+003
2.163072e+002, 1.346210e+003
2.167894e+002, 1.333125e+003
2.172715e+002, 1.306956e+003
2.177536e+002, 1.306302e+003
2.182357e+002, 1.339364e+003
2.187178e+002, 1.375655e+003
2.191999e+002, 1.402081e+003
2.196821e+002, 1.424209e+003
2.201642e+002, 1.447540e+003
2.206463e+002, 1.473653e+003
2.211284e+002, 1.503248e+003
2.216105e+002, 1.540603e+003
2.220926e+002, 1.594755e+003
2.225748e+002, 1.637698e+003
2.230569e+002, 1.651924e+003
2.235390e+002, 1.655332e+003
2.240211e+002, 1.667886e+003
2.245032e+002, 1.699314e+003
2.249853e+002, 1.743932e+003
2.254675e+002, 1.787252e+003
2.259496e+002, 1.829433e+003
2.264317e+002, 1.869211e+003
2.269138e+002, 1.906604e+003
2.273959e+002, 1.941622e+003
2.278780e+002, 1.971542e+003
2.283602e+002, 1.994273e+003
2.288423e+002, 2.015931e+003
2.293244e+002, 2.057799e+003
2.298065e+002, 2.144000e+003
2.302886e+002, 2.217583e+003
2.307707e+002, 2.271333e+003
2.312529e+002, 2.309867e+003
2.317350e+002, 2.333068e+003
2.322171e+002, 2.340316e+003
2.326992e+002, 2.342870e+003
2.331813e+002, 2.377510e+003
2.336634e+002, 2.490909e+003
2.341456e+002, 2.582440e+003
2.346277e+002, 2.631456e+003
2.351098e+002, 2.659798e+003
2.355919e+002, 2.692542e+003
2.360740e+002, 2.741167e+003
2.365561e+002, 2.799993e+003
2.370383e+002, 2.852341e+003
2.375204e+002, 2.882083e+003
2.380025e+002, 2.924167e+003
2.384846e+002, 2.996139e+003
2.389667e+002, 3.076632e+003
2.394488e+002, 3.137820e+003
2.399310e+002, 3.168086e+003
2.404131e+002, 3.178492e+003
2.408952e+002, 3.196959e+003
2.413773e+002, 3.233907e+003
2.418594e+002, 3.264769e+003
2.423415e+002, 3.282515e+003
2.428237e+002, 3.294337e+003
2.433058e+002, 3.310558e+003
2.437879e+002, 3.335488e+003
2.442700e+002, 3.363073e+003
2.447521e+002, 3.380746e+003
2.452342e+002, 3.389653e+003
2.457164e+002, 3.387425e+003
2.461985e+002, 3.366894e+003
2.466806e+002, 3.336914e+003
2.471627e+002, 3.309043e+003
2.476448e+002, 3.286785e+003
2.481269e+002, 3.268098e+003
2.486091e+002, 3.249589e+003
2.490912e+002, 3.231255e+003
2.495733e+002, 3.212936e+003
2.500554e+002, 3.200189e+003
2.505375e+002, 3.185790e+003
2.510196e+002, 3.156433e+003
2.515018e+002, 3.106860e+003
2.519839e+002, 3.050349e+003
2.524660e+002, 3.007339e+003
2.529481e+002, 2.978265e+003
2.534302e+002, 2.947217e+003
2.539123e+002, 2.910200e+003
2.543945e+002, 2.868955e+003
2.548766e+002, 2.824060e+003
2.553587e+002, 2.774071e+003
2.558408e+002, 2.726083e+003
2.563229e+002, 2.691435e+003
2.568051e+002, 2.668135e+003
2.572872e+002, 2.643495e+003
2.577693e+002, 2.616672e+003
2.582514e+002, 2.585464e+003
2.587335e+002, 2.543404e+003
2.592156e+002, 2.486887e+003
2.596978e+002, 2.430099e+003
2.601799e+002, 2.389225e+003
2.606620e+002, 2.359812e+003
2.611441e+002, 2.330039e+003
2.616262e+002, 2.287975e+003
2.621083e+002, 2.245746e+003
2.625905e+002, 2.227209e+003
2.630726e+002, 2.240233e+003
2.635547e+002, 2.253866e+003
2.640368e+002, 2.240510e+003
2.645189e+002, 2.209976e+003
2.650010e+002, 2.180112e+003
2.654832e+002, 2.157350e+003
2.659653e+002, 2.138271e+003
2.664474e+002, 2.117805e+003
2.669295e+002, 2.095888e+003
2.674116e+002, 2.073088e+003
2.678937e+002, 2.049609e+003
2.683759e+002, 2.025553e+003
2.688580e+002, 1.999589e+003
2.693401e+002, 1.964938e+003
2.698222e+002, 1.934126e+003
2.703043e+002, 1.928661e+003
2.707864e+002, 1.953506e+003
2.712686e+002, 1.982177e+003
2.717507e+002, 2.009123e+003
2.722328e+002, 2.030542e+003
2.727149e+002, 2.040202e+003
2.731970e+002, 2.034413e+003
2.736791e+002, 2.020756e+003
2.741613e+002, 2.007498e+003
2.746434e+002, 1.993734e+003
2.751255e+002, 1.984448e+003
2.756076e+002, 1.982146e+003
2.760897e+002, 1.985111e+003
2.765718e+002, 1.992440e+003
2.770540e+002, 2.003851e+003
2.775361e+002, 2.020306e+003
2.780182e+002, 2.046274e+003
2.785003e+002, 2.084054e+003
2.789824e+002, 2.114822e+003
2.794645e+002, 2.122600e+003
2.799467e+002, 2.128817e+003
2.804288e+002, 2.151322e+003
2.809109e+002, 2.192394e+003
2.813930e+002, 2.233059e+003
2.818751e+002, 2.249150e+003
2.823572e+002, 2.237659e+003
2.828394e+002, 2.238350e+003
2.833215e+002, 2.263255e+003
2.838036e+002, 2.298275e+003
2.842857e+002, 2.342544e+003
2.847678e+002, 2.392639e+003
2.852499e+002, 2.435079e+003
2.857321e+002, 2.450725e+003
2.862142e+002, 2.438504e+003
2.866963e+002, 2.442987e+003
2.871784e+002, 2.481987e+003
2.876605e+002, 2.523125e+003
2.881426e+002, 2.553381e+003
2.886248e+002, 2.572828e+003
2.891069e+002, 2.584572e+003
2.895890e+002, 2.586992e+003
2.900711e+002, 2.581482e+003
2.905532e+002, 2.586913e+003
2.910353e+002, 2.615221e+003
2.915175e+002, 2.639989e+003
2.919996e+002, 2.649888e+003
2.924817e+002, 2.649182e+003
2.929638e+002, 2.646909e+003
2.934459e+002, 2.650518e+003
2.939280e+002, 2.656202e+003
2.944102e+002, 2.645124e+003
2.948923e+002, 2.603203e+003
2.953744e+002, 2.566350e+003
2.958565e+002, 2.541352e+003
2.963386e+002, 2.528223e+003
2.968207e+002, 2.531575e+003
2.973029e+002, 2.557562e+003
2.977850e+002, 2.590547e+003
2.982671e+002, 2.588632e+003
2.987492e+002, 2.532848e+003
2.992313e+002, 2.479168e+003
2.997134e+002, 2.441031e+003
3.001956e+002, 2.410306e+003
3.006777e+002, 2.380286e+003
3.011598e+002, 2.348568e+003
3.016419e+002, 2.316768e+003
3.021240e+002, 2.286954e+003
3.026061e+002, 2.257535e+003
3.030883e+002, 2.235000e+003
3.035704e+002, 2.230866e+003
3.040525e+002, 2.226205e+003
3.045346e+002, 2.204990e+003
3.050167e+002, 2.165479e+003
3.054988e+002, 2.122694e+003
3.059810e+002, 2.097070e+003
3.064631e+002, 2.094058e+003
3.069452e+002, 2.083071e+003
3.074273e+002, 2.057838e+003
3.079094e+002, 2.027516e+003
3.083915e+002, 1.991292e+003
3.088737e+002, 1.952144e+003
3.093558e+002, 1.918361e+003
3.098379e+002, 1.900443e+003
3.103200e+002, 1.899381e+003
3.108021e+002, 1.892167e+003
3.112842e+002, 1.871636e+003
3.117664e+002, 1.851816e+003
3.122485e+002, 1.838270e+003
3.127306e+002, 1.829369e+003
3.132127e+002, 1.820901e+003
3.136948e+002, 1.810359e+003
3.141769e+002, 1.797872e+003
3.146591e+002, 1.784207e+003
3.151412e+002, 1.770807e+003
3.156233e+002, 1.753749e+003
3.161054e+002, 1.724042e+003
3.165875e+002, 1.692609e+003
3.170696e+002, 1.675445e+003
3.175518e+002, 1.681728e+003
3.180339e+002, 1.701796e+003
3.185160e+002, 1.711946e+003
3.189981e+002, 1.710829e+003
3.194802e+002, 1.701636e+003
3.199623e+002, 1.684261e+003
3.204445e+002, 1.660961e+003
3.209266e+002, 1.629457e+003
3.214087e+002, 1.589241e+003
3.218908e+002, 1.552489e+003
3.223729e+002, 1.542169e+003
3.228550e+002, 1.569349e+003
3.233372e+002, 1.583543e+003
3.238193e+002, 1.568000e+003
3.243014e+002, 1.545137e+003
3.247835e+002, 1.526455e+003
3.252656e+002, 1.513582e+003
3.257477e+002, 1.502189e+003
3.262299e+002, 1.487243e+003
3.267120e+002, 1.468127e+003
3.271941e+002, 1.452164e+003
3.276762e+002, 1.440416e+003
3.281583e+002, 1.431304e+003
3.286404e+002, 1.421335e+003
3.291226e+002, 1.412943e+003
3.296047e+002, 1.413443e+003
3.300868e+002, 1.434472e+003
3.305689e+002, 1.470297e+003
3.310510e+002, 1.479810e+003
3.315331e+002, 1.441820e+003
3.320153e+002, 1.408397e+003
3.324974e+002, 1.404703e+003
3.329795e+002, 1.415672e+003
3.334616e+002, 1.418084e+003
3.339437e+002, 1.398514e+003
3.344258e+002, 1.368861e+003
3.349080e+002, 1.357197e+003
3.353901e+002, 1.370180e+003
3.358722e+002, 1.384056e+003
3.363543e+002, 1.391466e+003
3.368365e+002, 1.396859e+003
3.373186e+002, 1.402448e+003
3.378007e+002, 1.408561e+003
3.382828e+002, 1.419303e+003
3.387649e+002, 1.445265e+003
3.392470e+002, 1.490457e+003
3.397292e+002, 1.519605e+003
3.402113e+002, 1.508180e+003
3.406934e+002, 1.491696e+003
3.411755e+002, 1.493528e+003
3.416576e+002, 1.513917e+003
3.421397e+002, 1.537024e+003
3.426219e+002, 1.548601e+003
3.431040e+002, 1.550063e+003
3.435861e+002, 1.557366e+003
3.440682e+002, 1.576295e+003
3.445503e+002, 1.594567e+003
3.450324e+002, 1.599927e+003
3.455146e+002, 1.598682e+003
3.459967e+002, 1.607175e+003
3.464788e+002, 1.640985e+003
3.469609e+002, 1.688024e+003
3.474430e+002, 1.716493e+003
3.479251e+002, 1.719209e+003
3.484073e+002, 1.723329e+003
3.488894e+002, 1.744818e+003
3.493715e+002, 1.774786e+003
3.498536e+002, 1.803822e+003
3.503357e+002, 1.830045e+003
3.508178e+002, 1.853227e+003
3.513000e+002, 1.870775e+003
3.517821e+002, 1.882173e+003
3.522642e+002, 1.898874e+003
3.527463e+002, 1.928455e+003
3.532284e+002, 1.962686e+003
3.537105e+002, 1.994018e+003
3.541927e+002, 2.022139e+003
3.546748e+002, 2.045953e+003
3.551569e+002, 2.059887e+003
3.556390e+002, 2.067532e+003
3.561211e+002, 2.085221e+003
3.566032e+002, 2.117191e+003
3.570854e+002, 2.158017e+003
3.575675e+002, 2.204532e+003
3.580496e+002, 2.256024e+003
3.585317e+002, 2.308163e+003
3.590138e+002, 2.361182e+003
3.594959e+002, 2.413342e+003
3.599781e+002, 2.461941e+003
3.604602e+002, 2.506203e+003
3.609423e+002, 2.549003e+003
3.614244e+002, 2.586633e+003
3.619065e+002, 2.624557e+003
3.623886e+002, 2.677427e+003
3.628708e+002, 2.761102e+003
3.633529e+002, 2.845850e+003
3.638350e+002, 2.901871e+003
3.643171e+002, 2.933618e+003
3.647992e+002, 2.973373e+003
3.652813e+002, 3.038455e+003
3.657635e+002, 3.116119e+003
3.662456e+002, 3.178574e+003
3.667277e+002, 3.216504e+003
3.672098e+002, 3.266837e+003
3.676919e+002, 3.354826e+003
3.681740e+002, 3.463637e+003
3.686562e+002, 3.560646e+003
3.691383e+002, 3.636707e+003
3.696204e+002, 3.705490e+003
3.701025e+002, 3.783288e+003
3.705846e+002, 3.870281e+003
3.710667e+002, 3.958308e+003
3.715489e+002, 4.048448e+003
3.720310e+002, 4.138067e+003
3.725131e+002, 4.225563e+003
3.729952e+002, 4.310759e+003
3.734773e+002, 4.391554e+003
3.739594e+002, 4.467570e+003
3.744416e+002, 4.538000e+003
3.749237e+002, 4.594324e+003
3.754058e+002, 4.612506e+003
3.758879e+002, 4.643616e+003
3.763700e+002, 4.721666e+003
3.768521e+002, 4.826919e+003
3.773343e+002, 4.915235e+003
3.778164e+002, 4.965491e+003
3.782985e+002, 4.994933e+003
3.787806e+002, 5.045067e+003
3.792627e+002, 5.147958e+003
3.797448e+002, 5.216843e+003
3.802270e+002, 5.222620e+003
3.807091e+002, 5.204523e+003
3.811912e+002, 5.198389e+003
3.816733e+002, 5.211428e+003
3.821554e+002, 5.231425e+003
3.826375e+002, 5.246579e+003
3.831197e+002, 5.259081e+003
3.836018e+002, 5.252530e+003
3.840839e+002, 5.216208e+003
3.845660e+002, 5.175014e+003
3.850481e+002, 5.139714e+003
3.855302e+002, 5.108859e+003
3.860124e+002, 5.077002e+003
3.864945e+002, 5.040861e+003
3.869766e+002, 5.000307e+003
3.874587e+002, 4.954089e+003
3.879408e+002, 4.902217e+003
3.884229e+002, 4.843551e+003
3.889051e+002, 4.763403e+003
3.893872e+002, 4.683507e+003
3.898693e+002, 4.632417e+003
3.903514e+002, 4.617704e+003
3.908335e+002, 4.612613e+003
3.913156e+002, 4.572510e+003
3.917978e+002, 4.481200e+003
3.922799e+002, 4.398625e+003
3.927620e+002, 4.326667e+003
3.932441e+002, 4.261479e+003
3.937262e+002, 4.204479e+003
3.942083e+002, 4.152940e+003
3.946905e+002, 4.099633e+003
3.951726e+002, 4.036200e+003
3.956547e+002, 3.964692e+003
3.961368e+002, 3.907716e+003
3.966189e+002, 3.880113e+003
3.971010e+002, 3.846098e+003
3.975832e+002, 3.789807e+003
3.980653e+002, 3.722786e+003
3.985474e+002, 3.658759e+003
3.990295e+002, 3.602011e+003
3.995116e+002, 3.553971e+003
3.999937e+002, 3.519902e+003
4.004759e+002, 3.503422e+003
4.009580e+002, 3.482287e+003
4.014401e+002, 3.445686e+003
4.019222e+002, 3.406706e+003
4.024043e+002, 3.375566e+003
4.028864e+002, 3.352428e+003
4.033686e+002, 3.328287e+003
4.038507e+002, 3.290823e+003
4.043328e+002, 3.245473e+003
4.048149e+002, 3.218608e+003
4.052970e+002, 3.219716e+003
4.057791e+002, 3.223429e+003
4.062613e+002, 3.215271e+003
4.067434e+002, 3.197071e+003
4.072255e+002, 3.170233e+003
4.077076e+002, 3.128547e+003
4.081897e+002, 3.084672e+003
4.086718e+002, 3.052901e+003
4.091540e+002, 3.032897e+003
4.096361e+002, 3.019009e+003
4.101182e+002, 3.014410e+003
4.106003e+002, 3.009825e+003
4.110824e+002, 2.987846e+003
4.115645e+002, 2.943180e+003
4.120467e+002, 2.902544e+003
4.125288e+002, 2.876060e+003
4.130109e+002, 2.861570e+003
4.134930e+002, 2.858512e+003
4.139751e+002, 2.867917e+003
4.144572e+002, 2.877881e+003
4.149394e+002, 2.874306e+003
4.154215e+002, 2.856503e+003
4.159036e+002, 2.847448e+003
4.163857e+002, 2.859633e+003
4.168678e+002, 2.870859e+003
4.173499e+002, 2.867169e+003
4.178321e+002, 2.849947e+003
4.183142e+002, 2.824885e+003
4.187963e+002, 2.793711e+003
4.192784e+002, 2.759729e+003
4.197605e+002, 2.734784e+003
4.202426e+002, 2.725767e+003
4.207248e+002, 2.715853e+003
4.212069e+002, 2.705643e+003
4.216890e+002, 2.692499e+003
4.221711e+002, 2.670441e+003
4.226532e+002, 2.639503e+003
4.231353e+002, 2.610079e+003
4.236175e+002, 2.595832e+003
4.240996e+002, 2.601658e+003
4.245817e+002, 2.597583e+003
4.250638e+002, 2.580545e+003
4.255459e+002, 2.558241e+003
4.260280e+002, 2.531309e+003
4.265102e+002, 2.501593e+003
4.269923e+002, 2.471291e+003
4.274744e+002, 2.441481e+003
4.279565e+002, 2.412852e+003
4.284386e+002, 2.388970e+003
4.289207e+002, 2.374237e+003
4.294029e+002, 2.356063e+003
4.298850e+002, 2.328467e+003
4.303671e+002, 2.300188e+003
4.308492e+002, 2.279678e+003
4.313313e+002, 2.267647e+003
4.318134e+002, 2.256983e+003
4.322956e+002, 2.241453e+003
4.327777e+002, 2.221061e+003
4.332598e+002, 2.193656e+003
4.337419e+002, 2.148698e+003
4.342241e+002, 2.110991e+003
4.347062e+002, 2.097891e+003
4.351883e+002, 2.098695e+003
4.356704e+002, 2.092380e+003
4.361525e+002, 2.066781e+003
4.366346e+002, 2.033816e+003
4.371168e+002, 2.014763e+003
4.375989e+002, 2.011630e+003
4.380810e+002, 2.001018e+003
4.385631e+002, 1.967131e+003
4.390452e+002, 1.927972e+003
4.395273e+002, 1.906311e+003
4.400095e+002, 1.904546e+003
4.404916e+002, 1.899420e+003
4.409737e+002, 1.872816e+003
4.414558e+002, 1.835195e+003
4.419379e+002, 1.810957e+003
4.424200e+002, 1.805240e+003
4.429022e+002, 1.798569e+003
4.433843e+002, 1.770995e+003
4.438664e+002, 1.727179e+003
4.443485e+002, 1.696316e+003
4.448306e+002, 1.688335e+003
4.453127e+002, 1.685383e+003
4.457949e+002, 1.677110e+003
4.462770e+002, 1.665719e+003
4.467591e+002, 1.657347e+003
4.472412e+002, 1.654559e+003
4.477233e+002, 1.655759e+003
4.482054e+002, 1.659310e+003
4.486876e+002, 1.673272e+003
4.491697e+002, 1.669963e+003
4.496518e+002, 1.627238e+003
4.501339e+002, 1.582229e+003
4.506160e+002, 1.568953e+003
4.510981e+002, 1.584274e+003
4.515803e+002, 1.597914e+003
4.520624e+002, 1.584253e+003
4.525445e+002, 1.546025e+003
4.530266e+002, 1.519703e+003
4.535087e+002, 1.513824e+003
4.539908e+002, 1.511074e+003
4.544730e+002, 1.510809e+003
4.549551e+002, 1.511836e+003
4.554372e+002, 1.513450e+003
4.559193e+002, 1.515307e+003
4.564014e+002, 1.516749e+003
4.568835e+002, 1.516902e+003
4.573657e+002, 1.515736e+003
4.578478e+002, 1.513292e+003
4.583299e+002, 1.506344e+003
4.588120e+002, 1.501245e+003
4.592941e+002, 1.503811e+003
4.597762e+002, 1.510344e+003
4.602584e+002, 1.511370e+003
4.607405e+002, 1.498822e+003
4.612226e+002, 1.480921e+003
4.617047e+002, 1.478876e+003
4.621868e+002, 1.498372e+003
4.626689e+002, 1.505592e+003
4.631511e+002, 1.473105e+003
4.636332e+002, 1.433387e+003
4.641153e+002, 1.419983e+003
4.645974e+002, 1.436506e+003
4.650795e+002, 1.457473e+003
4.655616e+002, 1.473542e+003
4.660438e+002, 1.482187e+003
4.665259e+002, 1.472813e+003
4.670080e+002, 1.440728e+003
4.674901e+002, 1.412120e+003
4.679722e+002, 1.408119e+003
4.684543e+002, 1.425781e+003
4.689365e+002, 1.445304e+003
4.694186e+002, 1.471970e+003
4.699007e+002, 1.494199e+003
4.703828e+002, 1.508692e+003
4.708649e+002, 1.513955e+003
4.713470e+002, 1.503653e+003
4.718292e+002, 1.474499e+003
4.723113e+002, 1.438280e+003
4.727934e+002, 1.411761e+003
4.732755e+002, 1.395448e+003
4.737576e+002, 1.391044e+003
4.742397e+002, 1.411389e+003
4.747219e+002, 1.431883e+003
4.752040e+002, 1.437139e+003
4.756861e+002, 1.429528e+003
4.761682e+002, 1.418541e+003
4.766503e+002, 1.409742e+003
4.771324e+002, 1.403718e+003
4.776146e+002, 1.403158e+003
4.780967e+002, 1.411813e+003
4.785788e+002, 1.420178e+003
4.790609e+002, 1.433614e+003
4.795430e+002, 1.442196e+003
4.800251e+002, 1.434360e+003
4.805073e+002, 1.411010e+003
4.809894e+002, 1.386852e+003
4.814715e+002, 1.377050e+003
4.819536e+002, 1.380365e+003
4.824357e+002, 1.379291e+003
4.829178e+002, 1.370128e+003
4.834000e+002, 1.363024e+003
4.838821e+002, 1.364629e+003
4.843642e+002, 1.369951e+003
4.848463e+002, 1.372582e+003
4.853284e+002, 1.370672e+003
4.858105e+002, 1.366199e+003
4.862927e+002, 1.358885e+003
4.867748e+002, 1.349787e+003
4.872569e+002, 1.346250e+003
4.877390e+002, 1.351529e+003
4.882211e+002, 1.359177e+003
4.887032e+002, 1.358274e+003
4.891854e+002, 1.351364e+003
4.896675e+002, 1.357238e+003
4.901496e+002, 1.401852e+003
4.906317e+002, 1.442368e+003
4.911138e+002, 1.432048e+003
4.915959e+002, 1.384360e+003
4.920781e+002, 1.354423e+003
4.925602e+002, 1.370788e+003
4.930423e+002, 1.413011e+003
4.935244e+002, 1.436497e+003
4.940065e+002, 1.430217e+003
4.944886e+002, 1.425356e+003
4.949708e+002, 1.419205e+003
4.954529e+002, 1.417582e+003
4.959350e+002, 1.430698e+003
4.964171e+002, 1.454219e+003
4.968992e+002, 1.469096e+003
4.973813e+002, 1.458314e+003
4.978635e+002, 1.428803e+003
4.983456e+002, 1.425307e+003
4.988277e+002, 1.473824e+003
4.993098e+002, 1.509936e+003
4.997919e+002, 1.515483e+003
5.002740e+002, 1.511168e+003
5.007562e+002, 1.514591e+003
5.012383e+002, 1.529081e+003
5.017204e+002, 1.547490e+003
5.022025e+002, 1.564103e+003
5.026846e+002, 1.578824e+003
5.031667e+002, 1.590021e+003
5.036489e+002, 1.595090e+003
5.041310e+002, 1.601603e+003
5.046131e+002, 1.618479e+003
5.050952e+002, 1.637943e+003
5.055773e+002, 1.646559e+003
5.060594e+002, 1.636291e+003
5.065416e+002, 1.627307e+003
5.070237e+002, 1.639748e+003
5.075058e+002, 1.667618e+003
5.079879e+002, 1.689144e+003
5.084700e+002, 1.697992e+003
5.089521e+002, 1.704384e+003
5.094343e+002, 1.718399e+003
5.099164e+002, 1.740196e+003
5.103985e+002, 1.766336e+003
5.108806e+002, 1.818340e+003
5.113627e+002, 1.853597e+003
5.118448e+002, 1.832511e+003
5.123270e+002, 1.777069e+003
5.128091e+002, 1.737193e+003
5.132912e+002, 1.734495e+003
5.137733e+002, 1.754866e+003
5.142554e+002, 1.773827e+003
5.147375e+002, 1.795196e+003
5.152197e+002, 1.805321e+003
5.157018e+002, 1.797810e+003
5.161839e+002, 1.786741e+003
5.166660e+002, 1.779447e+003
5.171481e+002, 1.774649e+003
5.176302e+002, 1.766352e+003
5.181124e+002, 1.749801e+003
5.185945e+002, 1.730988e+003
5.190766e+002, 1.727927e+003
5.195587e+002, 1.747570e+003
5.200408e+002, 1.760003e+003
5.205229e+002, 1.750273e+003
5.210051e+002, 1.737470e+003
5.214872e+002, 1.733940e+003
5.219693e+002, 1.739455e+003
5.224514e+002, 1.746682e+003
5.229335e+002, 1.752803e+003
5.234156e+002, 1.757333e+003
5.238978e+002, 1.757561e+003
5.243799e+002, 1.753075e+003
5.248620e+002, 1.753588e+003
5.253441e+002, 1.769615e+003
5.258262e+002, 1.789121e+003
5.263083e+002, 1.785214e+003
5.267905e+002, 1.750164e+003
5.272726e+002, 1.719922e+003
5.277547e+002, 1.704086e+003
5.282368e+002, 1.698907e+003
5.287189e+002, 1.705533e+003
5.292010e+002, 1.721378e+003
5.296832e+002, 1.732274e+003
5.301653e+002, 1.726296e+003
5.306474e+002, 1.706864e+003
5.311295e+002, 1.697198e+003
5.316116e+002, 1.708889e+003
5.320938e+002, 1.716135e+003
5.325759e+002, 1.715715e+003
5.330580e+002, 1.710667e+003
5.335401e+002, 1.699587e+003
5.340222e+002, 1.684903e+003
5.345043e+002, 1.677532e+003
5.349865e+002, 1.693304e+003
5.354686e+002, 1.728404e+003
5.359507e+002, 1.736093e+003
5.364328e+002, 1.700407e+003
5.369149e+002, 1.667141e+003
5.373970e+002, 1.648750e+003
5.378792e+002, 1.643211e+003
5.383613e+002, 1.654578e+003
5.388434e+002, 1.685505e+003
5.393255e+002, 1.711188e+003
5.398076e+002, 1.710041e+003
5.402897e+002, 1.689638e+003
5.407719e+002, 1.667889e+003
5.412540e+002, 1.646006e+003
5.417361e+002, 1.629424e+003
5.422182e+002, 1.625534e+003
5.427003e+002, 1.630414e+003
5.431824e+002, 1.624549e+003
5.436646e+002, 1.593131e+003
5.441467e+002, 1.570523e+003
5.446288e+002, 1.579125e+003
5.451109e+002, 1.598755e+003
5.455930e+002, 1.601209e+003
5.460751e+002, 1.581135e+003
5.465573e+002, 1.553681e+003
5.470394e+002, 1.533479e+003
5.475215e+002, 1.520667e+003
5.480036e+002, 1.511445e+003
5.484857e+002, 1.509887e+003
5.489678e+002, 1.507269e+003
5.494500e+002, 1.501900e+003
5.499321e+002, 1.494752e+003
5.504142e+002, 1.486639e+003
5.508963e+002, 1.477852e+003
5.513784e+002, 1.468931e+003
5.518605e+002, 1.460220e+003
5.523427e+002, 1.451765e+003
5.528248e+002, 1.443084e+003
5.533069e+002, 1.430546e+003
5.537890e+002, 1.425276e+003
5.542711e+002, 1.443632e+003
5.547532e+002, 1.470397e+003
5.552354e+002, 1.483071e+003
5.557175e+002, 1.475683e+003
5.561996e+002, 1.460134e+003
5.566817e+002, 1.439077e+003
5.571638e+002, 1.416266e+003
5.576459e+002, 1.397327e+003
5.581281e+002, 1.383260e+003
5.586102e+002, 1.380443e+003
5.590923e+002, 1.400786e+003
5.595744e+002, 1.441614e+003
5.600565e+002, 1.445688e+003
5.605386e+002, 1.373447e+003
5.610208e+002, 1.319749e+003
5.615029e+002, 1.318830e+003
5.619850e+002, 1.341618e+003
5.624671e+002, 1.356113e+003
5.629492e+002, 1.354799e+003
5.634313e+002, 1.347842e+003
5.639135e+002, 1.345909e+003
5.643956e+002, 1.348836e+003
5.648777e+002, 1.347914e+003
5.653598e+002, 1.340289e+003
5.658419e+002, 1.333289e+003
5.663240e+002, 1.332084e+003
5.668062e+002, 1.331052e+003
5.672883e+002, 1.320709e+003
5.677704e+002, 1.298803e+003
5.682525e+002, 1.283630e+003
5.687346e+002, 1.292428e+003
5.692167e+002, 1.318823e+003
5.696989e+002, 1.350038e+003
5.701810e+002, 1.387509e+003
5.706631e+002, 1.409887e+003
5.711452e+002, 1.398829e+003
5.716273e+002, 1.363396e+003
5.721094e+002, 1.335538e+003
5.725916e+002, 1.311736e+003
5.730737e+002, 1.300989e+003
5.735558e+002, 1.314485e+003
5.740379e+002, 1.337105e+003
5.745200e+002, 1.355663e+003
5.750021e+002, 1.367050e+003
5.754843e+002, 1.368932e+003
5.759664e+002, 1.357523e+003
5.764485e+002, 1.336669e+003
5.769306e+002, 1.331103e+003
5.774127e+002, 1.353821e+003
5.778948e+002, 1.371271e+003
5.783770e+002, 1.370377e+003
5.788591e+002, 1.369341e+003
5.793412e+002, 1.386378e+003
5.798233e+002, 1.419651e+003
5.803054e+002, 1.448798e+003
5.807875e+002, 1.457880e+003
5.812697e+002, 1.452723e+003
5.817518e+002, 1.446798e+003
5.822339e+002, 1.440013e+003
5.827161e+002, 1.432592e+003
5.831982e+002, 1.421461e+003
5.836803e+002, 1.412854e+003
5.841624e+002, 1.417928e+003
5.846445e+002, 1.438277e+003
5.851266e+002, 1.455314e+003
5.856088e+002, 1.465397e+003
5.860909e+002, 1.469275e+003
5.865730e+002, 1.462823e+003
5.870551e+002, 1.450033e+003
5.875372e+002, 1.443548e+003
5.880193e+002, 1.450165e+003
5.885015e+002, 1.465652e+003
5.889836e+002, 1.481504e+003
5.894657e+002, 1.501823e+003
5.899478e+002, 1.513228e+003
5.904299e+002, 1.505654e+003
5.909120e+002, 1.499977e+003
5.913942e+002, 1.504255e+003
5.918763e+002, 1.518522e+003
5.923584e+002, 1.542676e+003
5.928405e+002, 1.578580e+003
5.933226e+002, 1.617054e+003
5.938047e+002, 1.648854e+003
5.942869e+002, 1.673821e+003
5.947690e+002, 1.673726e+003
5.952511e+002, 1.631971e+003
5.957332e+002, 1.588182e+003
5.962153e+002, 1.579910e+003
5.966974e+002, 1.598645e+003
5.971796e+002, 1.618067e+003
5.976617e+002, 1.633883e+003
5.981438e+002, 1.650086e+003
5.986259e+002, 1.673316e+003
5.991080e+002, 1.697195e+003
5.995901e+002, 1.705930e+003
6.000723e+002, 1.696816e+003
6.005544e+002, 1.691237e+003
6.010365e+002, 1.715114e+003
6.015186e+002, 1.769690e+003
6.020007e+002, 1.799534e+003
6.024828e+002, 1.784194e+003
6.029650e+002, 1.767969e+003
6.034471e+002, 1.754153e+003
6.039292e+002, 1.745281e+003
6.044113e+002, 1.744048e+003
6.048934e+002, 1.750611e+003
6.053755e+002, 1.761689e+003
6.058577e+002, 1.774221e+003
6.063398e+002, 1.788958e+003
6.068219e+002, 1.811234e+003
6.073040e+002, 1.843428e+003
6.077861e+002, 1.868857e+003
6.082682e+002, 1.875608e+003
6.087504e+002, 1.874459e+003
6.092325e+002, 1.886507e+003
6.097146e+002, 1.915933e+003
6.101967e+002, 1.935402e+003
6.106788e+002, 1.923191e+003
6.111609e+002, 1.909141e+003
6.116431e+002, 1.926203e+003
6.121252e+002, 1.966595e+003
6.126073e+002, 1.997749e+003
6.130894e+002, 2.002126e+003
6.135715e+002, 1.991669e+003
6.140536e+002, 1.992848e+003
6.145358e+002, 2.012459e+003
6.150179e+002, 2.026945e+003
6.155000e+002, 2.027522e+003
6.159821e+002, 2.031746e+003
6.164642e+002, 2.051718e+003
6.169464e+002, 2.079938e+003
6.174285e+002, 2.101160e+003
6.179106e+002, 2.108439e+003
6.183927e+002, 2.111419e+003
6.188748e+002, 2.119212e+003
6.193569e+002, 2.131913e+003
6.198391e+002, 2.151394e+003
6.203212e+002, 2.179471e+003
6.208033e+002, 2.207746e+003
6.212854e+002, 2.227594e+003
6.217675e+002, 2.241429e+003
6.222496e+002, 2.263322e+003
6.227318e+002, 2.307319e+003
6.232139e+002, 2.340870e+003
6.236960e+002, 2.344852e+003
6.241781e+002, 2.339810e+003
6.246602e+002, 2.351023e+003
6.251423e+002, 2.378531e+003
6.256245e+002, 2.399727e+003
6.261066e+002, 2.393143e+003
6.265887e+002, 2.369707e+003
6.270708e+002, 2.384752e+003
6.275529e+002, 2.465084e+003
6.280350e+002, 2.518451e+003
6.285172e+002, 2.499262e+003
6.289993e+002, 2.467629e+003
6.294814e+002, 2.458579e+003
6.299635e+002, 2.472063e+003
6.304456e+002, 2.495005e+003
6.309277e+002, 2.534266e+003
6.314099e+002, 2.569486e+003
6.318920e+002, 2.568953e+003
6.323741e+002, 2.542644e+003
6.328562e+002, 2.530078e+003
6.333383e+002, 2.543123e+003
6.338204e+002, 2.576518e+003
6.343026e+002, 2.628582e+003
6.347847e+002, 2.703558e+003
6.352668e+002, 2.756871e+003
6.357489e+002, 2.771776e+003
6.362310e+002, 2.788508e+003
6.367131e+002, 2.817797e+003
6.371953e+002, 2.855353e+003
6.376774e+002, 2.898260e+003
6.381595e+002, 2.944301e+003
6.386416e+002, 2.987091e+003
6.391237e+002, 3.018853e+003
6.396058e+002, 3.041819e+003
6.400880e+002, 3.071969e+003
6.405701e+002, 3.115348e+003
6.410522e+002, 3.141448e+003
6.415343e+002, 3.139443e+003
6.420164e+002, 3.112131e+003
6.424985e+002, 3.064315e+003
6.429807e+002, 2.995396e+003
6.434628e+002, 2.916923e+003
6.439449e+002, 2.821741e+003
6.444270e+002, 2.726667e+003
6.449091e+002, 2.642938e+003
6.453912e+002, 2.570346e+003
6.458734e+002, 2.508553e+003
6.463555e+002, 2.457798e+003
6.468376e+002, 2.409323e+003
6.473197e+002, 2.347171e+003
6.478018e+002, 2.263553e+003
6.482839e+002, 2.209779e+003
6.487661e+002, 2.210120e+003
6.492482e+002, 2.211352e+003
6.497303e+002, 2.197385e+003
6.502124e+002, 2.175272e+003
6.506945e+002, 2.150256e+003
6.511766e+002, 2.123368e+003
6.516588e+002, 2.108005e+003
6.521409e+002, 2.124665e+003
6.526230e+002, 2.157135e+003
6.531051e+002, 2.173537e+003
6.535872e+002, 2.172074e+003
6.540693e+002, 2.157972e+003
6.545515e+002, 2.130915e+003
6.550336e+002, 2.097717e+003
6.555157e+002, 2.073467e+003
6.559978e+002, 2.068210e+003
6.564799e+002, 2.047398e+003
6.569620e+002, 1.991881e+003
6.574442e+002, 1.939791e+003
6.579263e+002, 1.924059e+003
6.584084e+002, 1.923460e+003
6.588905e+002, 1.892099e+003
6.593726e+002, 1.811927e+003
6.598547e+002, 1.723348e+003
6.603369e+002, 1.686051e+003
6.608190e+002, 1.695763e+003
6.613011e+002, 1.686912e+003
6.617832e+002, 1.650306e+003
6.622653e+002, 1.611087e+003
6.627474e+002, 1.579832e+003
6.632296e+002, 1.556462e+003
6.637117e+002, 1.543032e+003
6.641938e+002, 1.546176e+003
6.646759e+002, 1.536889e+003
6.651580e+002, 1.488954e+003
6.656401e+002, 1.437685e+003
6.661223e+002, 1.419379e+003
6.666044e+002, 1.427842e+003
6.670865e+002, 1.436083e+003
6.675686e+002, 1.430223e+003
6.680507e+002, 1.416796e+003
6.685328e+002, 1.408632e+003
6.690150e+002, 1.407938e+003
6.694971e+002, 1.402791e+003
6.699792e+002, 1.388958e+003
6.704613e+002, 1.375765e+003
6.709434e+002, 1.363370e+003
6.714255e+002, 1.355411e+003
6.719077e+002, 1.359442e+003
6.723898e+002, 1.379548e+003
6.728719e+002, 1.398455e+003
6.733540e+002, 1.405149e+003
6.738361e+002, 1.403782e+003
6.743182e+002, 1.400026e+003
6.748004e+002, 1.394500e+003
6.752825e+002, 1.386412e+003
6.757646e+002, 1.374769e+003
6.762467e+002, 1.361966e+003
6.767288e+002, 1.353107e+003
6.772109e+002, 1.346939e+003
6.776931e+002, 1.347909e+003
6.781752e+002, 1.373047e+003
6.786573e+002, 1.386869e+003
6.791394e+002, 1.360739e+003
6.796215e+002, 1.317106e+003
6.801036e+002, 1.294741e+003
6.805858e+002, 1.307613e+003
6.810679e+002, 1.328872e+003
6.815500e+002, 1.332910e+003
6.820321e+002, 1.325000e+003
6.825142e+002, 1.319983e+003
6.829963e+002, 1.319156e+003
6.834785e+002, 1.320054e+003
6.839606e+002, 1.323550e+003
6.844427e+002, 1.325238e+003
6.849248e+002, 1.313043e+003
6.854069e+002, 1.273865e+003
6.858890e+002, 1.252171e+003
6.863712e+002, 1.260689e+003
6.868533e+002, 1.275210e+003
6.873354e+002, 1.286355e+003
6.878175e+002, 1.293158e+003
6.882996e+002, 1.295086e+003
6.887817e+002, 1.292030e+003
6.892639e+002, 1.288348e+003
6.897460e+002, 1.289544e+003
6.902281e+002, 1.294972e+003
6.907102e+002, 1.299825e+003
6.911923e+002, 1.303404e+003
6.916744e+002, 1.308797e+003
6.921566e+002, 1.318115e+003
6.926387e+002, 1.329781e+003
6.931208e+002, 1.341851e+003
6.936029e+002, 1.356364e+003
6.940850e+002, 1.362971e+003
6.945671e+002, 1.352382e+003
6.950493e+002, 1.340640e+003
6.955314e+002, 1.335018e+003
6.960135e+002, 1.336717e+003
6.964956e+002, 1.349924e+003
6.969777e+002, 1.375157e+003
6.974598e+002, 1.399208e+003
6.979420e+002, 1.403574e+003
6.984241e+002, 1.389037e+003
6.989062e+002, 1.374693e+003
6.993883e+002, 1.358117e+003
6.998704e+002, 1.348795e+003
7.003525e+002, 1.355032e+003
7.008347e+002, 1.368007e+003
7.013168e+002, 1.375628e+003
7.017989e+002, 1.377335e+003
7.022810e+002, 1.379266e+003
7.027631e+002, 1.378563e+003
7.032452e+002, 1.382800e+003
7.037274e+002, 1.404023e+003
7.042095e+002, 1.432818e+003
7.046916e+002, 1.450846e+003
7.051737e+002, 1.452196e+003
7.056558e+002, 1.442880e+003
7.061379e+002, 1.426493e+003
7.066201e+002, 1.404236e+003
7.071022e+002, 1.400848e+003
7.075843e+002, 1.426036e+003
7.080664e+002, 1.447125e+003
7.085485e+002, 1.450375e+003
7.090306e+002, 1.447627e+003
7.095128e+002, 1.450253e+003
7.099949e+002, 1.457998e+003
7.104770e+002, 1.462479e+003
7.109591e+002, 1.457052e+003
7.114412e+002, 1.451306e+003
7.119233e+002, 1.456325e+003
7.124055e+002, 1.465054e+003
7.128876e+002, 1.462555e+003
7.133697e+002, 1.445789e+003
7.138518e+002, 1.424809e+003
7.143339e+002, 1.409502e+003
7.148160e+002, 1.398764e+003
7.152982e+002, 1.382934e+003
7.157803e+002, 1.354015e+003
7.162624e+002, 1.338918e+003
7.167445e+002, 1.355723e+003
7.172266e+002, 1.377448e+003
7.177087e+002, 1.387821e+003
7.181909e+002, 1.387244e+003
7.186730e+002, 1.379854e+003
7.191551e+002, 1.363621e+003
7.196372e+002, 1.345360e+003
7.201193e+002, 1.324243e+003
7.206014e+002, 1.306088e+003
7.210836e+002, 1.307960e+003
7.215657e+002, 1.328520e+003
7.220478e+002, 1.337663e+003
7.225299e+002, 1.310867e+003
7.230120e+002, 1.259395e+003
7.234941e+002, 1.224494e+003
7.239763e+002, 1.210846e+003
7.244584e+002, 1.200519e+003
7.249405e+002, 1.192762e+003
7.254226e+002, 1.187112e+003
7.259047e+002, 1.185815e+003
7.263868e+002, 1.185987e+003
7.268690e+002, 1.181756e+003
7.273511e+002, 1.171800e+003
7.278332e+002, 1.157218e+003
7.283153e+002, 1.133124e+003
7.287974e+002, 1.107903e+003
7.292795e+002, 1.090880e+003
7.297617e+002, 1.083615e+003
7.302438e+002, 1.091159e+003
7.307259e+002, 1.118250e+003
7.312080e+002, 1.146921e+003
7.316901e+002, 1.134742e+003
7.321722e+002, 1.064433e+003
7.326544e+002, 1.027126e+003
7.331365e+002, 1.043121e+003
7.336186e+002, 1.064547e+003
7.341007e+002, 1.079426e+003
7.345828e+002, 1.084550e+003
7.350649e+002, 1.071495e+003
7.355471e+002, 1.037452e+003
7.360292e+002, 1.008170e+003
7.365113e+002, 9.997201e+002
7.369934e+002, 9.984914e+002
7.374755e+002, 9.901638e+002
7.379576e+002, 9.774420e+002
7.384398e+002, 9.694152e+002
7.389219e+002, 9.693210e+002
7.394040e+002, 9.755436e+002
7.398861e+002, 9.879084e+002
7.403682e+002, 1.006186e+003
7.408503e+002, 1.014223e+003
7.413325e+002, 1.012538e+003
7.418146e+002, 9.992123e+002
7.422967e+002, 9.551676e+002
7.427788e+002, 9.133587e+002
7.432609e+002, 9.059834e+002
7.437430e+002, 9.297210e+002
7.442252e+002, 9.505817e+002
7.447073e+002, 9.607404e+002
7.451894e+002, 9.624196e+002
7.456715e+002, 9.535015e+002
7.461536e+002, 9.383492e+002
7.466357e+002, 9.199210e+002
7.471179e+002, 9.010065e+002
7.476000e+002, 8.928515e+002
7.480821e+002, 9.060004e+002
7.485642e+002, 9.322592e+002
7.490463e+002, 9.435398e+002
7.495284e+002, 9.356014e+002
7.500106e+002, 9.329011e+002
7.504927e+002, 9.449082e+002
7.509748e+002, 9.541147e+002
7.514569e+002, 9.426577e+002
7.519390e+002, 9.205948e+002
7.524211e+002, 9.099654e+002
7.529033e+002, 9.168223e+002
7.533854e+002, 9.263036e+002
7.538675e+002, 9.331174e+002
7.543496e+002, 9.400452e+002
7.548317e+002, 9.540227e+002
7.553138e+002, 9.703248e+002
7.557960e+002, 9.724011e+002
7.562781e+002, 9.526655e+002
7.567602e+002, 9.310289e+002
7.572423e+002, 9.440946e+002
7.577244e+002, 9.899991e+002
7.582065e+002, 1.002683e+003
7.586887e+002, 9.699492e+002
7.591708e+002, 9.431809e+002
7.596529e+002, 9.502098e+002
7.601350e+002, 9.696414e+002
7.606171e+002, 9.635712e+002
7.610992e+002, 9.285136e+002
7.615814e+002, 9.185582e+002
7.620635e+002, 9.775950e+002
7.625456e+002, 1.021017e+003
7.630277e+002, 9.900089e+002
7.635098e+002, 9.310420e+002
7.639919e+002, 9.057612e+002
7.644741e+002, 9.229647e+002
7.649562e+002, 9.509256e+002
7.654383e+002, 9.685317e+002
7.659204e+002, 9.756435e+002
7.664025e+002, 9.671956e+002
7.668846e+002, 9.439479e+002
7.673668e+002, 9.289899e+002
7.678489e+002, 9.292957e+002
7.683310e+002, 9.309295e+002
7.688131e+002, 9.215359e+002
7.692952e+002, 9.035706e+002
7.697773e+002, 8.911061e+002
7.702595e+002, 8.931677e+002
7.707416e+002, 8.871708e+002
7.712237e+002, 8.559000e+002
7.717058e+002, 8.310713e+002
7.721879e+002, 8.401092e+002
7.726700e+002, 8.697341e+002
7.731522e+002, 8.921103e+002
7.736343e+002, 8.970408e+002
7.741164e+002, 8.914185e+002
7.745985e+002, 8.784467e+002
7.750806e+002, 8.607018e+002
7.755627e+002, 8.419371e+002
7.760449e+002, 8.230161e+002
7.765270e+002, 8.124765e+002
7.770091e+002, 8.160212e+002
7.774912e+002, 8.199700e+002
7.779733e+002, 8.016931e+002
7.784554e+002, 7.563839e+002
7.789376e+002, 7.278583e+002
7.794197e+002, 7.317850e+002
7.799019e+002, 7.311846e+002
7.803840e+002, 7.105574e+002
7.808661e+002, 6.880390e+002
7.813482e+002, 6.800798e+002
7.818303e+002, 6.862941e+002
7.823124e+002, 6.960529e+002
7.827946e+002, 7.115456e+002
7.832767e+002, 7.208792e+002
7.837588e+002, 7.069125e+002
7.842409e+002, 6.827124e+002
7.847230e+002, 6.753466e+002
7.852051e+002, 6.860704e+002
7.856873e+002, 6.907855e+002
7.861694e+002, 6.713937e+002
7.866515e+002, 6.402215e+002
7.871336e+002, 6.314963e+002
7.876157e+002, 6.512647e+002
7.880978e+002, 6.600630e+002
7.885800e+002, 6.522775e+002
7.890621e+002, 6.384916e+002
7.895442e+002, 6.222729e+002
7.900263e+002, 6.044055e+002
7.905084e+002, 5.840336e+002
7.909905e+002, 5.589297e+002
7.914727e+002, 5.434744e+002
7.919548e+002, 5.478787e+002
7.924369e+002, 5.563898e+002
7.929190e+002, 5.607000e+002
7.934011e+002, 5.616213e+002
7.938832e+002, 5.612782e+002
7.943654e+002, 5.603377e+002
7.948475e+002, 5.585298e+002
7.953296e+002, 5.544400e+002
7.958117e+002, 5.502177e+002
7.962938e+002, 5.525837e+002
7.967759e+002, 5.614012e+002
7.972581e+002, 5.711347e+002
7.977402e+002, 5.822570e+002
7.982223e+002, 5.867109e+002
7.987044e+002, 5.755820e+002
7.991865e+002, 5.517159e+002
7.996686e+002, 5.322653e+002
8.001508e+002, 5.136769e+002
8.006329e+002, 5.049528e+002
8.011150e+002, 5.119376e+002
8.015971e+002, 5.231931e+002
8.020792e+002, 5.375634e+002
8.025613e+002, 5.499637e+002
8.030435e+002, 5.510671e+002
8.035256e+002, 5.374128e+002
8.040077e+002, 5.222535e+002
8.044898e+002, 5.119579e+002
8.049719e+002, 5.081189e+002
8.054540e+002, 5.180744e+002
8.059362e+002, 5.374530e+002
8.064183e+002, 5.477964e+002
8.069004e+002, 5.426029e+002
8.073825e+002, 5.329385e+002
8.078646e+002, 5.316802e+002
8.083467e+002, 5.380784e+002
8.088289e+002, 5.431216e+002
8.093110e+002, 5.482662e+002
8.097931e+002, 5.480675e+002
8.102752e+002, 5.404802e+002
8.107573e+002, 5.280563e+002
8.112394e+002, 5.030106e+002
8.117216e+002, 4.741551e+002
8.122037e+002, 4.737994e+002
8.126858e+002, 5.298832e+002
8.131679e+002, 5.711942e+002
8.136500e+002, 5.633948e+002
8.141321e+002, 5.396549e+002
8.146143e+002, 5.233457e+002
8.150964e+002, 5.163816e+002
8.155785e+002, 5.181057e+002
8.160606e+002, 5.280455e+002
8.165427e+002, 5.351710e+002
8.170248e+002, 5.209562e+002
8.175070e+002, 4.938171e+002
8.179891e+002, 4.854636e+002
8.184712e+002, 4.963060e+002
8.189533e+002, 5.081246e+002
8.194354e+002, 5.153912e+002
8.199175e+002, 5.176617e+002
8.203997e+002, 5.124822e+002
8.208818e+002, 5.001451e+002
8.213639e+002, 4.985608e+002
8.218460e+002, 5.214012e+002
8.223281e+002, 5.345914e+002
8.228102e+002, 5.225541e+002
8.232924e+002, 5.112112e+002
8.237745e+002, 5.223737e+002
8.242566e+002, 5.474940e+002
8.247387e+002, 5.630368e+002
8.252208e+002, 5.613641e+002
8.257029e+002, 5.527174e+002
8.261851e+002, 5.352484e+002
8.266672e+002, 5.197913e+002
8.271493e+002, 5.213152e+002
8.276314e+002, 5.364651e+002
8.281135e+002, 5.548325e+002
8.285956e+002, 5.718474e+002
8.290778e+002, 5.809053e+002
8.295599e+002, 5.703266e+002
8.300420e+002, 5.443124e+002
8.305241e+002, 5.318331e+002
8.310062e+002, 5.345283e+002
8.314883e+002, 5.405683e+002
8.319705e+002, 5.467108e+002
8.324526e+002, 5.555975e+002
8.329347e+002, 5.726356e+002
8.334168e+002, 5.959713e+002
8.338989e+002, 6.074567e+002
8.343810e+002, 6.019823e+002
8.348632e+002, 5.932766e+002
8.353453e+002, 5.763550e+002
8.358274e+002, 5.624976e+002
8.363095e+002, 5.616631e+002
8.367916e+002, 5.682744e+002
8.372737e+002, 5.701633e+002
8.377559e+002, 5.633800e+002
8.382380e+002, 5.584890e+002
8.387201e+002, 5.673127e+002
8.392022e+002, 5.798038e+002
8.396843e+002, 5.790659e+002
8.401664e+002, 5.698589e+002
8.406486e+002, 5.707470e+002
8.411307e+002, 5.867249e+002
8.416128e+002, 6.030411e+002
8.420949e+002, 6.043829e+002
8.425770e+002, 5.944064e+002
8.430591e+002, 5.899273e+002
8.435413e+002, 5.919166e+002
8.440234e+002, 5.948061e+002
8.445055e+002, 5.991940e+002
8.449876e+002, 6.015352e+002
8.454697e+002, 5.982590e+002
8.459518e+002, 5.913593e+002
8.464340e+002, 5.856808e+002
8.469161e+002, 5.776513e+002
8.473982e+002, 5.802072e+002
8.478803e+002, 6.084507e+002
8.483624e+002, 6.326672e+002
8.488445e+002, 6.341424e+002
8.493267e+002, 6.243828e+002
8.498088e+002, 6.198509e+002
8.502909e+002, 6.231615e+002
8.507730e+002, 6.252287e+002
8.512551e+002, 6.175292e+002
8.517372e+002, 6.082706e+002
8.522194e+002, 6.055685e+002
8.527015e+002, 6.093916e+002
8.531836e+002, 6.247346e+002
8.536657e+002, 6.500345e+002
8.541478e+002, 6.647711e+002
8.546299e+002, 6.540587e+002
8.551121e+002, 6.292345e+002
8.555942e+002, 6.157065e+002
8.560763e+002, 6.149586e+002
8.565584e+002, 6.142081e+002
8.570405e+002, 6.139927e+002
8.575226e+002, 6.110181e+002
8.580048e+002, 6.008098e+002
8.584869e+002, 5.897223e+002
8.589690e+002, 5.893826e+002
8.594511e+002, 6.009490e+002
8.599332e+002, 6.027816e+002
8.604153e+002, 5.837722e+002
8.608975e+002, 5.682373e+002
8.613796e+002, 5.636810e+002
8.618617e+002, 5.646273e+002
8.623438e+002, 5.682788e+002
8.628259e+002, 5.729335e+002
8.633080e+002, 5.753533e+002
8.637902e+002, 5.734377e+002
8.642723e+002, 5.722031e+002
8.647544e+002, 5.780414e+002
8.652365e+002, 5.860195e+002
8.657186e+002, 5.883564e+002
8.662007e+002, 5.855274e+002
8.666829e+002, 5.827181e+002
8.671650e+002, 5.817201e+002
8.676471e+002, 5.757701e+002
8.681292e+002, 5.535340e+002
8.686113e+002, 5.202484e+002
8.690934e+002, 5.106182e+002
8.695756e+002, 5.289092e+002
8.700577e+002, 5.387648e+002
8.705398e+002, 5.284802e+002
8.710219e+002, 5.183081e+002
8.715040e+002, 5.297072e+002
8.719861e+002, 5.524867e+002
8.724683e+002, 5.474105e+002
8.729504e+002, 4.857271e+002
8.734325e+002, 4.500963e+002
8.739146e+002, 4.545517e+002
8.743967e+002, 4.698235e+002
8.748788e+002, 4.896689e+002
8.753610e+002, 5.099219e+002
8.758431e+002, 5.281898e+002
8.763252e+002, 5.435008e+002
8.768073e+002, 5.500428e+002
8.772894e+002, 5.408323e+002
8.777715e+002, 5.262871e+002
8.782537e+002, 5.127062e+002
8.787358e+002, 4.998815e+002
8.792179e+002, 4.829526e+002
8.797000e+002, 4.652822e+002
8.801821e+002, 4.648463e+002
8.806642e+002, 4.934599e+002
8.811464e+002, 5.274345e+002
8.816285e+002, 5.247565e+002
8.821106e+002, 4.936853e+002
8.825927e+002, 4.841422e+002
8.830748e+002, 4.989938e+002
8.835569e+002, 5.070257e+002
8.840391e+002, 4.936836e+002
8.845212e+002, 4.805578e+002
8.850033e+002, 4.962371e+002
8.854854e+002, 5.382921e+002
8.859675e+002, 5.593019e+002
8.864496e+002, 5.505875e+002
8.869318e+002, 5.377977e+002
8.874139e+002, 5.199007e+002
8.878960e+002, 5.030065e+002
8.883781e+002, 4.914534e+002
8.888602e+002, 4.829862e+002
8.893423e+002, 4.725252e+002
8.898245e+002, 4.582721e+002
8.903066e+002, 4.475221e+002
8.907887e+002, 4.465982e+002
8.912708e+002, 4.450905e+002
8.917529e+002, 4.316426e+002
8.922350e+002, 4.166152e+002
8.927172e+002, 4.179010e+002
8.931993e+002, 4.346692e+002
8.936814e+002, 4.454554e+002
8.941635e+002, 4.317587e+002
8.946456e+002, 4.179198e+002
8.951277e+002, 4.427849e+002
8.956099e+002, 4.871173e+002
8.960920e+002, 5.065757e+002
8.965741e+002, 4.989420e+002
8.970562e+002, 4.823329e+002
8.975383e+002, 4.650883e+002
8.980204e+002, 4.498961e+002
8.985026e+002, 4.393036e+002
8.989847e+002, 4.339127e+002
8.994668e+002, 4.460848e+002
8.999489e+002, 4.818838e+002
9.004310e+002, 4.996916e+002
9.009131e+002, 4.823827e+002
9.013953e+002, 4.591310e+002
9.018774e+002, 4.536802e+002
9.023595e+002, 4.631895e+002
9.028416e+002, 4.753492e+002
9.033237e+002, 5.029767e+002
9.038058e+002, 5.096914e+002
9.042880e+002, 4.700037e+002
9.047701e+002, 4.396526e+002
9.052522e+002, 4.540968e+002
9.057343e+002, 4.826206e+002
9.062164e+002, 4.828270e+002
9.066985e+002, 4.524514e+002
9.071807e+002, 4.309803e+002
9.076628e+002, 4.371498e+002
9.081449e+002, 4.502293e+002
9.086270e+002, 4.630865e+002
9.091091e+002, 4.737790e+002
9.095912e+002, 4.792375e+002
9.100734e+002, 4.805429e+002
9.105555e+002, 4.820976e+002
9.110376e+002, 4.859533e+002
9.115197e+002, 4.878750e+002
9.120018e+002, 4.856198e+002
9.124839e+002, 4.772500e+002
9.129661e+002, 4.469366e+002
9.134482e+002, 4.040750e+002
9.139303e+002, 4.019468e+002
9.144124e+002, 4.537114e+002
9.148945e+002, 5.041733e+002
9.153766e+002, 5.029253e+002
9.158588e+002, 4.671412e+002
9.163409e+002, 4.504516e+002
9.168230e+002, 4.545731e+002
9.173051e+002, 4.619812e+002
9.177872e+002, 4.720998e+002
9.182693e+002, 4.827494e+002
9.187515e+002, 4.934518e+002
9.192336e+002, 5.033823e+002
9.197157e+002, 5.119744e+002
9.201978e+002, 5.198657e+002
9.206799e+002, 5.202554e+002
9.211620e+002, 5.046321e+002
9.216442e+002, 4.932858e+002
9.221263e+002, 4.922478e+002
9.226084e+002, 4.932002e+002
9.230905e+002, 4.886560e+002
9.235726e+002, 4.820994e+002
9.240547e+002, 4.827884e+002
9.245369e+002, 4.942351e+002
9.250190e+002, 5.052696e+002
9.255011e+002, 5.128452e+002
9.259832e+002, 5.177623e+002
9.264653e+002, 5.178220e+002
9.269474e+002, 5.170743e+002
9.274296e+002, 5.233165e+002
9.279117e+002, 5.356064e+002
9.283938e+002, 5.420847e+002
9.288759e+002, 5.315483e+002
9.293580e+002, 5.227982e+002
9.298401e+002, 5.457261e+002
9.303223e+002, 5.813239e+002
9.308044e+002, 5.884045e+002
9.312865e+002, 5.712293e+002
9.317686e+002, 5.661622e+002
9.322507e+002, 5.873250e+002
9.327328e+002, 6.091672e+002
9.332150e+002, 5.986187e+002
9.336971e+002, 5.671943e+002
9.341792e+002, 5.618898e+002
9.346613e+002, 5.826754e+002
9.351434e+002, 6.012913e+002
9.356255e+002, 6.131916e+002
9.361077e+002, 6.172783e+002
9.365898e+002, 6.109430e+002
9.370719e+002, 5.997162e+002
9.375540e+002, 5.959160e+002
9.380361e+002, 6.006917e+002
9.385182e+002, 6.072022e+002
9.390004e+002, 6.191089e+002
9.394825e+002, 6.256832e+002
9.399646e+002, 6.245637e+002
9.404467e+002, 6.163515e+002
9.409288e+002, 5.956631e+002
9.414109e+002, 5.671281e+002
9.418931e+002, 5.523823e+002
9.423752e+002, 5.609381e+002
9.428573e+002, 5.670320e+002
9.433394e+002, 5.693161e+002
9.438215e+002, 5.666416e+002
9.443036e+002, 5.527588e+002
9.447858e+002, 5.367128e+002
9.452679e+002, 5.321127e+002
9.457500e+002, 5.393061e+002
9.462321e+002, 5.431119e+002
9.467142e+002, 5.311596e+002
9.471964e+002, 5.218014e+002
9.476785e+002, 5.313867e+002
9.481606e+002, 5.455305e+002
9.486427e+002, 5.452542e+002
9.491248e+002, 5.354764e+002
9.496069e+002, 5.340861e+002
9.500891e+002, 5.473694e+002
9.505712e+002, 5.630966e+002
9.510533e+002, 5.759564e+002
9.515354e+002, 5.803688e+002
9.520175e+002, 5.580995e+002
9.524996e+002, 5.206985e+002
9.529818e+002, 5.048161e+002
9.534639e+002, 5.141855e+002
9.539460e+002, 5.214373e+002
9.544281e+002, 5.090033e+002
9.549102e+002, 4.886086e+002
9.553923e+002, 4.792198e+002
9.558745e+002, 4.802900e+002
9.563566e+002, 4.884518e+002
9.568387e+002, 5.039225e+002
9.573208e+002, 5.220969e+002
9.578029e+002, 5.429839e+002
9.582850e+002, 5.586680e+002
9.587672e+002, 5.609350e+002
9.592493e+002, 5.529280e+002
9.597314e+002, 5.462630e+002
9.602135e+002, 5.385226e+002
9.606956e+002, 5.427027e+002
9.611777e+002, 5.699449e+002
9.616599e+002, 5.864063e+002
9.621420e+002, 5.705724e+002
9.626241e+002, 5.444052e+002
9.631062e+002, 5.347105e+002
9.635883e+002, 5.414697e+002
9.640704e+002, 5.493133e+002
9.645526e+002, 5.676911e+002
9.650347e+002, 5.730851e+002
9.655168e+002, 5.510344e+002
9.659989e+002, 5.286949e+002
9.664810e+002, 5.196144e+002
9.669631e+002, 5.202059e+002
9.674453e+002, 5.256376e+002
9.679274e+002, 5.355291e+002
9.684095e+002, 5.427902e+002
9.688916e+002, 5.420607e+002
9.693737e+002, 5.425370e+002
9.698558e+002, 5.524415e+002
9.703380e+002, 5.620862e+002
9.708201e+002, 5.597525e+002
9.713022e+002, 5.495319e+002
9.717843e+002, 5.435778e+002
9.722664e+002, 5.460756e+002
9.727485e+002, 5.498377e+002
9.732307e+002, 5.476539e+002
9.737128e+002, 5.466982e+002
9.741949e+002, 5.565625e+002
9.746770e+002, 5.715455e+002
9.751591e+002, 5.823674e+002
9.756412e+002, 5.877209e+002
9.761234e+002, 5.909587e+002
9.766055e+002, 5.940621e+002
9.770876e+002, 5.947753e+002
9.775698e+002, 5.890467e+002
9.780519e+002, 5.794627e+002
9.785340e+002, 5.701595e+002
9.790161e+002, 5.621251e+002
9.794982e+002, 5.574503e+002
9.799803e+002, 5.569424e+002
9.804625e+002, 5.641622e+002
9.809446e+002, 5.837407e+002
9.814267e+002, 6.065705e+002
9.819088e+002, 6.087700e+002
9.823909e+002, 5.934764e+002
9.828730e+002, 5.942004e+002
9.833552e+002, 6.133875e+002
9.838373e+002, 6.271591e+002
9.843194e+002, 6.260434e+002
9.848015e+002, 6.216098e+002
9.852836e+002, 6.268201e+002
9.857657e+002, 6.385648e+002
9.862479e+002, 6.400419e+002
9.867300e+002, 6.282961e+002
9.872121e+002, 6.220096e+002
9.876942e+002, 6.230548e+002
9.881763e+002, 6.295948e+002
9.886584e+002, 6.460543e+002
9.891406e+002, 6.589791e+002
9.896227e+002, 6.456461e+002
9.901048e+002, 6.064232e+002
9.905869e+002, 5.933635e+002
9.910690e+002, 6.264409e+002
9.915511e+002, 6.464089e+002
9.920333e+002, 6.364817e+002
9.925154e+002, 6.261117e+002
9.929975e+002, 6.327766e+002
9.934796e+002, 6.476845e+002
9.939617e+002, 6.580757e+002
9.944438e+002, 6.638903e+002
9.949260e+002, 6.652199e+002
9.954081e+002, 6.465394e+002
9.958902e+002, 6.450006e+002
9.963723e+002, 6.836898e+002
9.968544e+002, 7.270333e+002
9.973365e+002, 7.480301e+002
9.978187e+002, 7.570553e+002
9.983008e+002, 7.778487e+002
9.987829e+002, 8.155537e+002
9.992650e+002, 8.478232e+002
9.997471e+002, 8.692277e+002
1.000229e+003, 8.821517e+002
1.000711e+003, 8.796226e+002
1.001193e+003, 8.757531e+002
1.001676e+003, 8.870922e+002
1.002158e+003, 9.082729e+002
1.002640e+003, 9.222681e+002
1.003122e+003, 9.234870e+002
1.003604e+003, 9.225796e+002
1.004086e+003, 9.229470e+002
1.004568e+003, 9.262744e+002
1.005050e+003, 9.433293e+002
1.005533e+003, 9.585708e+002
1.006015e+003, 9.434131e+002
1.006497e+003, 9.048387e+002
1.006979e+003, 8.784737e+002
1.007461e+003, 8.810652e+002
1.007943e+003, 8.885120e+002
1.008425e+003, 8.783607e+002
1.008907e+003, 8.619785e+002
1.009389e+003, 8.538810e+002
1.009872e+003, 8.513132e+002
1.010354e+003, 8.483583e+002
1.010836e+003, 8.435666e+002
1.011318e+003, 8.367424e+002
1.011800e+003, 8.275539e+002
1.012282e+003, 8.183392e+002
1.012764e+003, 8.097054e+002
1.013246e+003, 8.041411e+002
1.013729e+003, 8.102669e+002
1.014211e+003, 8.245374e+002
1.014693e+003, 8.319283e+002
1.015175e+003, 8.298976e+002
1.015657e+003, 8.309763e+002
1.016139e+003, 8.450674e+002
1.016621e+003, 8.599126e+002
1.017103e+003, 8.488364e+002
1.017585e+003, 8.198438e+002
1.018068e+003, 8.113475e+002
1.018550e+003, 8.224095e+002
1.019032e+003, 8.289066e+002
1.019514e+003, 8.240498e+002
1.019996e+003, 8.242934e+002
1.020478e+003, 8.445652e+002
1.020960e+003, 8.729763e+002
1.021442e+003, 8.799862e+002
1.021924e+003, 8.665081e+002
1.022407e+003, 8.556768e+002
1.022889e+003, 8.479654e+002
1.023371e+003, 8.502186e+002
1.023853e+003, 8.662770e+002
1.024335e+003, 8.818239e+002
1.024817e+003, 8.838547e+002
1.025299e+003, 8.760579e+002
1.025781e+003, 8.687920e+002
1.026264e+003, 8.614550e+002
1.026746e+003, 8.601824e+002
1.027228e+003, 8.664205e+002
1.027710e+003, 8.729546e+002
1.028192e+003, 8.775145e+002
1.028674e+003, 8.813727e+002
1.029156e+003, 8.863812e+002
1.029638e+003, 8.912516e+002
1.030120e+003, 8.889259e+002
1.030603e+003, 8.731580e+002
1.031085e+003, 8.755103e+002
1.031567e+003, 9.067014e+002
1.032049e+003, 9.299719e+002
1.032531e+003, 9.286621e+002
1.033013e+003, 9.211892e+002
1.033495e+003, 9.245503e+002
1.033977e+003, 9.376511e+002
1.034459e+003, 9.554238e+002
1.034942e+003, 9.811054e+002
1.035424e+003, 1.003738e+003
1.035906e+003, 1.022773e+003
1.036388e+003, 1.039477e+003
1.036870e+003, 1.053065e+003
1.037352e+003, 1.065803e+003
1.037834e+003, 1.081661e+003
1.038316e+003, 1.099144e+003
1.038799e+003, 1.109423e+003
1.039281e+003, 1.112144e+003
1.039763e+003, 1.108420e+003
1.040245e+003, 1.095439e+003
1.040727e+003, 1.079554e+003
1.041209e+003, 1.059879e+003
1.041691e+003, 1.040397e+003
1.042173e+003, 1.025333e+003
1.042656e+003, 1.013827e+003
1.043138e+003, 1.001508e+003
1.043620e+003, 9.821375e+002
1.044102e+003, 9.741746e+002
1.044584e+003, 9.877550e+002
1.045066e+003, 1.001653e+003
1.045548e+003, 1.009824e+003
1.046030e+003, 1.013479e+003
1.046512e+003, 1.010892e+003
1.046995e+003, 1.004544e+003
1.047477e+003, 1.005831e+003
1.047959e+003, 1.024284e+003
1.048441e+003, 1.031177e+003
1.048923e+003, 1.003344e+003
1.049405e+003, 9.862880e+002
1.049887e+003, 1.015051e+003
1.050369e+003, 1.050972e+003
1.050851e+003, 1.045678e+003
1.051334e+003, 1.011073e+003
1.051816e+003, 1.006596e+003
1.052298e+003, 1.061218e+003
1.052780e+003, 1.092982e+003
1.053262e+003, 1.060133e+003
1.053744e+003, 1.028577e+003
1.054226e+003, 1.028986e+003
1.054708e+003, 1.045215e+003
1.055191e+003, 1.066102e+003
1.055673e+003, 1.086919e+003
1.056155e+003, 1.097087e+003
1.056637e+003, 1.090163e+003
1.057119e+003, 1.087150e+003
1.057601e+003, 1.103558e+003
1.058083e+003, 1.114288e+003
1.058565e+003, 1.096146e+003
1.059047e+003, 1.074578e+003
1.059530e+003, 1.077557e+003
1.060012e+003, 1.100189e+003
1.060494e+003, 1.122919e+003
1.060976e+003, 1.144667e+003
1.061458e+003, 1.148775e+003
1.061940e+003, 1.107644e+003
1.062422e+003, 1.073539e+003
1.062904e+003, 1.072475e+003
1.063386e+003, 1.093001e+003
1.063869e+003, 1.135415e+003
1.064351e+003, 1.186716e+003
1.064833e+003, 1.216285e+003
1.065315e+003, 1.214079e+003
1.065797e+003, 1.209144e+003
1.066279e+003, 1.215290e+003
1.066761e+003, 1.219216e+003
1.067243e+003, 1.208407e+003
1.067726e+003, 1.196443e+003
1.068208e+003, 1.198676e+003
1.068690e+003, 1.210631e+003
1.069172e+003, 1.216643e+003
1.069654e+003, 1.211935e+003
1.070136e+003, 1.218384e+003
1.070618e+003, 1.257854e+003
1.071100e+003, 1.295387e+003
1.071583e+003, 1.308208e+003
1.072065e+003, 1.314177e+003
1.072547e+003, 1.332990e+003
1.073029e+003, 1.358033e+003
1.073511e+003, 1.371337e+003
1.073993e+003, 1.368921e+003
1.074475e+003, 1.367100e+003
1.074957e+003, 1.374904e+003
1.075439e+003, 1.382624e+003
1.075922e+003, 1.379189e+003
1.076404e+003, 1.379110e+003
1.076886e+003, 1.402943e+003
1.077368e+003, 1.436845e+003
1.077850e+003, 1.449927e+003
1.078332e+003, 1.438689e+003
1.078814e+003, 1.437909e+003
1.079296e+003, 1.472917e+003
1.079779e+003, 1.507106e+003
1.080261e+003, 1.526387e+003
1.080743e+003, 1.534417e+003
1.081225e+003, 1.518733e+003
1.081707e+003, 1.501331e+003
1.082189e+003, 1.526892e+003
1.082671e+003, 1.593109e+003
1.083153e+003, 1.630995e+003
1.083635e+003, 1.598639e+003
1.084118e+003, 1.562421e+003
1.084600e+003, 1.542359e+003
1.085082e+003, 1.539701e+003
1.085564e+003, 1.567489e+003
1.086046e+003, 1.606127e+003
1.086528e+003, 1.626462e+003
1.087010e+003, 1.629915e+003
1.087492e+003, 1.644820e+003
1.087974e+003, 1.687961e+003
1.088457e+003, 1.723611e+003
1.088939e+003, 1.733636e+003
1.089421e+003, 1.735421e+003
1.089903e+003, 1.731295e+003
1.090385e+003, 1.731189e+003
1.090867e+003, 1.753190e+003
1.091349e+003, 1.789270e+003
1.091831e+003, 1.805570e+003
1.092314e+003, 1.785157e+003
1.092796e+003, 1.777609e+003
1.093278e+003, 1.807824e+003
1.093760e+003, 1.847180e+003
1.094242e+003, 1.890594e+003
1.094724e+003, 1.928127e+003
1.095206e+003, 1.949957e+003
1.095688e+003, 1.958695e+003
1.096171e+003, 1.958953e+003
1.096653e+003, 1.948601e+003
1.097135e+003, 1.954996e+003
1.097617e+003, 2.005545e+003
1.098099e+003, 2.049079e+003
1.098581e+003, 2.056493e+003
1.099063e+003, 2.057794e+003
1.099545e+003, 2.074852e+003
1.100027e+003, 2.104522e+003
1.100510e+003, 2.144956e+003
1.100992e+003, 2.196601e+003
1.101474e+003, 2.218158e+003
1.101956e+003, 2.163368e+003
1.102438e+003, 2.130317e+003
1.102920e+003, 2.163308e+003
1.103402e+003, 2.205697e+003
1.103884e+003, 2.216101e+003
1.104366e+003, 2.217572e+003
1.104849e+003, 2.250504e+003
1.105331e+003, 2.314301e+003
1.105813e+003, 2.360419e+003
1.106295e+003, 2.362157e+003
1.106777e+003, 2.376727e+003
1.107259e+003, 2.423177e+003
1.107741e+003, 2.470331e+003
1.108223e+003, 2.511146e+003
1.108706e+003, 2.540466e+003
1.109188e+003, 2.546479e+003
1.109670e+003, 2.535095e+003
1.110152e+003, 2.537598e+003
1.110634e+003, 2.566518e+003
1.111116e+003, 2.585136e+003
1.111598e+003, 2.568614e+003
1.112080e+003, 2.572109e+003
1.112563e+003, 2.628982e+003
1.113045e+003, 2.695597e+003
1.113527e+003, 2.742131e+003
1.114009e+003, 2.771251e+003
1.114491e+003, 2.786074e+003
1.114973e+003, 2.778411e+003
1.115455e+003, 2.792634e+003
1.115937e+003, 2.849362e+003
1.116419e+003, 2.891238e+003
1.116901e+003, 2.893381e+003
1.117384e+003, 2.899733e+003
1.117866e+003, 2.943660e+003
1.118348e+003, 3.002055e+003
1.118830e+003, 3.034594e+003
1.119312e+003, 3.040342e+003
1.119794e+003, 3.053978e+003
1.120276e+003, 3.077505e+003
1.120758e+003, 3.102005e+003
1.121241e+003, 3.119184e+003
1.121723e+003, 3.157252e+003
1.122205e+003, 3.242750e+003
1.122687e+003, 3.329631e+003
1.123169e+003, 3.357090e+003
1.123651e+003, 3.338974e+003
1.124133e+003, 3.357900e+003
1.124615e+003, 3.425542e+003
1.125098e+003, 3.472500e+003
1.125580e+003, 3.491007e+003
1.126062e+003, 3.509178e+003
1.126544e+003, 3.532373e+003
1.127026e+003, 3.572553e+003
1.127508e+003, 3.643560e+003
1.127990e+003, 3.731654e+003
1.128472e+003, 3.803476e+003
1.128954e+003, 3.858921e+003
1.129437e+003, 3.906816e+003
1.129919e+003, 3.947284e+003
1.130401e+003, 3.976245e+003
1.130883e+003, 3.991010e+003
1.131365e+003, 4.022490e+003
1.131847e+003, 4.091091e+003
1.132329e+003, 4.172792e+003
1.132811e+003, 4.228731e+003
1.133293e+003, 4.267524e+003
1.133776e+003, 4.333271e+003
1.134258e+003, 4.421997e+003
1.134740e+003, 4.495137e+003
1.135222e+003, 4.549389e+003
1.135704e+003, 4.606665e+003
1.136186e+003, 4.675776e+003
1.136668e+003, 4.756267e+003
1.137150e+003, 4.849808e+003
1.137633e+003, 4.947803e+003
1.138115e+003, 5.033190e+003
1.138597e+003, 5.108657e+003
1.139079e+003, 5.183811e+003
1.139561e+003, 5.258414e+003
1.140043e+003, 5.325500e+003
1.140525e+003, 5.386251e+003
1.141007e+003, 5.460977e+003
1.141490e+003, 5.563518e+003
1.141972e+003, 5.676641e+003
1.142454e+003, 5.780256e+003
1.142936e+003, 5.881283e+003
1.143418e+003, 5.984838e+003
1.143900e+003, 6.096550e+003
1.144382e+003, 6.237835e+003
1.144864e+003, 6.398957e+003
1.145346e+003, 6.533964e+003
1.145828e+003, 6.625289e+003
1.146311e+003, 6.716136e+003
1.146793e+003, 6.835977e+003
1.147275e+003, 6.974386e+003
1.147757e+003, 7.127211e+003
1.148239e+003, 7.287218e+003
1.148721e+003, 7.445759e+003
1.149203e+003, 7.603825e+003
1.149685e+003, 7.763877e+003
1.150168e+003, 7.928128e+003
1.150650e+003, 8.110202e+003
1.151132e+003, 8.324204e+003
1.151614e+003, 8.539584e+003
1.152096e+003, 8.729114e+003
1.152578e+003, 8.928422e+003
1.153060e+003, 9.169847e+003
1.153542e+003, 9.429938e+003
1.154025e+003, 9.685321e+003
1.154507e+003, 9.934082e+003
1.154989e+003, 1.017762e+004
1.155471e+003, 1.040940e+004
1.155953e+003, 1.067231e+004
1.156435e+003, 1.098475e+004
1.156917e+003, 1.132132e+004
1.157399e+003, 1.170545e+004
1.157881e+003, 1.207910e+004
1.158364e+003, 1.238394e+004
1.158846e+003, 1.266286e+004
1.159328e+003, 1.299031e+004
1.159810e+003, 1.336886e+004
1.160292e+003, 1.375016e+004
1.160774e+003, 1.412094e+004
1.161256e+003, 1.451469e+004
1.161738e+003, 1.492868e+004
1.162220e+003, 1.537520e+004
1.162703e+003, 1.587093e+004
1.163185e+003, 1.638354e+004
1.163667e+003, 1.688250e+004
1.164149e+003, 1.737707e+004
1.164631e+003, 1.790174e+004
1.165113e+003, 1.846068e+004
1.165595e+003, 1.902688e+004
1.166077e+003, 1.960851e+004
1.166560e+003, 2.016557e+004
1.167042e+003, 2.067778e+004
1.167524e+003, 2.123043e+004
1.168006e+003, 2.187312e+004
1.168488e+003, 2.257426e+004
1.168970e+003, 2.328480e+004
1.169452e+003, 2.400090e+004
1.169934e+003, 2.469168e+004
1.170417e+003, 2.535793e+004
1.170899e+003, 2.599164e+004
1.171381e+003, 2.659285e+004
1.171863e+003, 2.718880e+004
1.172345e+003, 2.778856e+004
1.172827e+003, 2.840910e+004
1.173309e+003, 2.906673e+004
1.173791e+003, 2.974257e+004
1.174273e+003, 3.043071e+004
1.174755e+003, 3.110326e+004
1.175238e+003, 3.168295e+004
1.175720e+003, 3.219958e+004
1.176202e+003, 3.275534e+004
1.176684e+003, 3.334234e+004
1.177166e+003, 3.383350e+004
1.177648e+003, 3.417941e+004
1.178130e+003, 3.448672e+004
1.178612e+003, 3.487190e+004
1.179095e+003, 3.523552e+004
1.179577e+003, 3.546413e+004
1.180059e+003, 3.562711e+004
1.180541e+003, 3.582605e+004
1.181023e+003, 3.601989e+004
1.181505e+003, 3.610225e+004
1.181987e+003, 3.607064e+004
1.182469e+003, 3.603747e+004
1.182952e+003, 3.606257e+004
1.183434e+003, 3.604561e+004
1.183916e+003, 3.594520e+004
1.184398e+003, 3.578572e+004
1.184880e+003, 3.556342e+004
1.185362e+003, 3.530179e+004
1.185844e+003, 3.501980e+004
1.186326e+003, 3.471668e+004
1.186808e+003, 3.438163e+004
1.187291e+003, 3.400921e+004
1.187773e+003, 3.363013e+004
1.188255e+003, 3.326779e+004
1.188737e+003, 3.286472e+004
1.189219e+003, 3.240356e+004
1.189701e+003, 3.191334e+004
1.190183e+003, 3.137567e+004
1.190665e+003, 3.085556e+004
1.191147e+003, 3.044612e+004
1.191630e+003, 3.010899e+004
1.192112e+003, 2.968048e+004
1.192594e+003, 2.913435e+004
1.193076e+003, 2.863276e+004
1.193558e+003, 2.818623e+004
1.194040e+003, 2.773391e+004
1.194522e+003, 2.726336e+004
1.195004e+003, 2.678162e+004
1.195487e+003, 2.628752e+004
1.195969e+003, 2.581185e+004
1.196451e+003, 2.540203e+004
1.196933e+003, 2.503245e+004
1.197415e+003, 2.459331e+004
1.197897e+003, 2.410166e+004
1.198379e+003, 2.366896e+004
1.198861e+003, 2.329356e+004
1.199344e+003, 2.292419e+004
1.199826e+003, 2.254307e+004
1.200308e+003, 2.215673e+004
1.200790e+003, 2.176407e+004
1.201272e+003, 2.138945e+004
1.201754e+003, 2.108748e+004
1.202236e+003, 2.079965e+004
1.202718e+003, 2.042584e+004
1.203200e+003, 2.001536e+004
1.203682e+003, 1.964273e+004
1.204165e+003, 1.932004e+004
1.204647e+003, 1.905635e+004
1.205129e+003, 1.884914e+004
1.205611e+003, 1.863020e+004
1.206093e+003, 1.836500e+004
1.206575e+003, 1.808144e+004
1.207057e+003, 1.776910e+004
1.207539e+003, 1.747137e+004
1.208022e+003, 1.723440e+004
1.208504e+003, 1.701313e+004
1.208986e+003, 1.673242e+004
1.209468e+003, 1.641722e+004
1.209950e+003, 1.618011e+004
1.210432e+003, 1.605914e+004
1.210914e+003, 1.590458e+004
1.211396e+003, 1.568146e+004
1.211879e+003, 1.546036e+004
1.212361e+003, 1.524868e+004
1.212843e+003, 1.504475e+004
1.213325e+003, 1.485279e+004
1.213807e+003, 1.466149e+004
1.214289e+003, 1.445069e+004
1.214771e+003, 1.423047e+004
1.215253e+003, 1.404987e+004
1.215735e+003, 1.391404e+004
1.216218e+003, 1.378505e+004
1.216700e+003, 1.366415e+004
1.217182e+003, 1.351260e+004
1.217664e+003, 1.331860e+004
1.218146e+003, 1.313737e+004
1.218628e+003, 1.300157e+004
1.219110e+003, 1.288011e+004
1.219592e+003, 1.273086e+004
1.220074e+003, 1.256767e+004
1.220557e+003, 1.242178e+004
1.221039e+003, 1.228997e+004
1.221521e+003, 1.216331e+004
1.222003e+003, 1.204177e+004
1.222485e+003, 1.193335e+004
1.222967e+003, 1.183665e+004
1.223449e+003, 1.173396e+004
1.223931e+003, 1.161543e+004
1.224414e+003, 1.149477e+004
1.224896e+003, 1.138433e+004
1.225378e+003, 1.127513e+004
1.225860e+003, 1.116233e+004
1.226342e+003, 1.104568e+004
1.226824e+003, 1.091710e+004
1.227306e+003, 1.078822e+004
1.227788e+003, 1.068384e+004
1.228271e+003, 1.060544e+004
1.228753e+003, 1.052746e+004
1.229235e+003, 1.045621e+004
1.229717e+003, 1.036396e+004
1.230199e+003, 1.022669e+004
1.230681e+003, 1.009633e+004
1.231163e+003, 9.988024e+003
1.231645e+003, 9.892189e+003
1.232127e+003, 9.802595e+003
1.232609e+003, 9.719715e+003
1.233092e+003, 9.644564e+003
1.233574e+003, 9.576667e+003
1.234056e+003, 9.520534e+003
1.234538e+003, 9.480545e+003
1.235020e+003, 9.407542e+003
1.235502e+003, 9.294630e+003
1.235984e+003, 9.185360e+003
1.236466e+003, 9.094554e+003
1.236949e+003, 9.036113e+003
1.237431e+003, 9.024989e+003
1.237913e+003, 9.028799e+003
1.238395e+003, 9.000676e+003
1.238877e+003, 8.945339e+003
1.239359e+003, 8.859695e+003
1.239841e+003, 8.761333e+003
1.240323e+003, 8.695365e+003
1.240806e+003, 8.656063e+003
1.241288e+003, 8.602280e+003
1.241770e+003, 8.526317e+003
1.242252e+003, 8.470732e+003
1.242734e+003, 8.469075e+003
1.243216e+003, 8.466476e+003
1.243698e+003, 8.427346e+003
1.244180e+003, 8.375112e+003
1.244662e+003, 8.317806e+003
1.245145e+003, 8.262635e+003
1.245627e+003, 8.218544e+003
1.246109e+003, 8.180917e+003
1.246591e+003, 8.136788e+003
1.247073e+003, 8.084428e+003
1.247555e+003, 8.039732e+003
1.248037e+003, 8.005692e+003
1.248519e+003, 7.976697e+003
1.249001e+003, 7.961518e+003
1.249484e+003, 7.930064e+003
1.249966e+003, 7.861761e+003
1.250448e+003, 7.800440e+003
1.250930e+003, 7.783411e+003
1.251412e+003, 7.789262e+003
1.251894e+003, 7.778614e+003
1.252376e+003, 7.752242e+003
1.252858e+003, 7.710263e+003
1.253341e+003, 7.656143e+003
1.253823e+003, 7.624104e+003
1.254305e+003, 7.613479e+003
1.254787e+003, 7.589844e+003
1.255269e+003, 7.544979e+003
1.255751e+003, 7.510091e+003
1.256233e+003, 7.507070e+003
1.256715e+003, 7.513173e+003
1.257198e+003, 7.505630e+003
1.257680e+003, 7.492718e+003
1.258162e+003, 7.488859e+003
1.258644e+003, 7.481521e+003
1.259126e+003, 7.449948e+003
1.259608e+003, 7.403282e+003
1.260090e+003, 7.353575e+003
1.260572e+003, 7.307997e+003
1.261054e+003, 7.301380e+003
1.261536e+003, 7.372800e+003
1.262019e+003, 7.416668e+003
1.262501e+003, 7.392938e+003
1.262983e+003, 7.365834e+003
1.263465e+003, 7.349874e+003
1.263947e+003, 7.342816e+003
1.264429e+003, 7.347400e+003
1.264911e+003, 7.355254e+003
1.265393e+003, 7.354147e+003
1.265876e+003, 7.344735e+003
1.266358e+003, 7.329422e+003
1.266840e+003, 7.307381e+003
1.267322e+003, 7.296885e+003
1.267804e+003, 7.298714e+003
1.268286e+003, 7.309583e+003
1.268768e+003, 7.327913e+003
1.269250e+003, 7.340076e+003
1.269733e+003, 7.338603e+003
1.270215e+003, 7.327909e+003
1.270697e+003, 7.304976e+003
1.271179e+003, 7.286814e+003
1.271661e+003, 7.305318e+003
1.272143e+003, 7.338159e+003
1.272625e+003, 7.354762e+003
1.273107e+003, 7.360439e+003
1.273589e+003, 7.368987e+003
1.274072e+003, 7.380890e+003
1.274554e+003, 7.386253e+003
1.275036e+003, 7.379889e+003
1.275518e+003, 7.387042e+003
1.276000e+003, 7.446813e+003
1.276482e+003, 7.474096e+003
1.276964e+003, 7.391833e+003
1.277446e+003, 7.343208e+003
1.277929e+003, 7.428962e+003
1.278411e+003, 7.533368e+003
1.278893e+003, 7.539145e+003
1.279375e+003, 7.485631e+003
1.279857e+003, 7.479545e+003
1.280339e+003, 7.521695e+003
1.280821e+003, 7.570068e+003
1.281303e+003, 7.625786e+003
1.281786e+003, 7.681010e+003
1.282268e+003, 7.734698e+003
##END=



