##NAMES=Nordenskioldine
##RRUFFID=R061079
##IDEAL CHEMISTRY=CaSn^4+^(BO_3_)_2_
##LOCALITY=MW Claim, Cassiar Mountains, Yukon, Canada
##OWNER=RRUFF
##SOURCE=Lloyd Twaites
##DESCRIPTION=Colorless aggregates of tabular crystals
##STATUS=The identification of this mineral has been confirmed by single-crystal X-ray diffraction.
##URL=rruff.info/R061079
140.8068, 3100.449
141.2889, 3102.364
141.7710, 3144.075
142.2531, 3162.702
142.7352, 3149.968
143.2174, 3118.391
143.6995, 3104.002
144.1816, 3115.889
144.6637, 3131.881
145.1458, 3140.251
145.6279, 3139.713
146.1101, 3134.856
146.5922, 3123.633
147.0743, 3106.825
147.5564, 3095.969
148.0385, 3094.789
148.5206, 3096.755
149.0028, 3096.430
149.4849, 3084.863
149.9670, 3080.761
150.4491, 3092.188
150.9312, 3125.615
151.4133, 3140.828
151.8955, 3117.613
152.3776, 3081.915
152.8597, 3064.502
153.3418, 3089.319
153.8239, 3112.886
154.3060, 3121.653
154.7882, 3106.243
155.2703, 3094.452
155.7524, 3091.282
156.2345, 3093.987
156.7166, 3097.008
157.1987, 3098.609
157.6808, 3100.797
158.1630, 3104.918
158.6451, 3115.408
159.1272, 3122.494
159.6093, 3121.323
160.0914, 3113.946
160.5735, 3108.785
161.0557, 3107.075
161.5378, 3109.569
162.0199, 3116.857
162.5020, 3135.394
162.9841, 3153.057
163.4662, 3167.112
163.9484, 3177.307
164.4305, 3179.140
164.9126, 3161.335
165.3947, 3136.523
165.8768, 3119.482
166.3589, 3119.056
166.8411, 3125.794
167.3232, 3135.521
167.8053, 3148.575
168.2874, 3159.836
168.7695, 3168.452
169.2516, 3173.059
169.7338, 3171.062
170.2159, 3154.437
170.6980, 3134.010
171.1801, 3119.336
171.6622, 3111.179
172.1443, 3109.876
172.6265, 3119.921
173.1086, 3138.260
173.5907, 3154.758
174.0728, 3160.332
174.5549, 3161.307
175.0370, 3167.481
175.5192, 3184.323
176.0013, 3201.215
176.4834, 3204.502
176.9655, 3195.694
177.4476, 3185.884
177.9297, 3185.845
178.4118, 3190.604
178.8940, 3189.017
179.3761, 3172.877
179.8582, 3152.541
180.3403, 3145.505
180.8224, 3151.681
181.3046, 3161.173
181.7867, 3165.593
182.2688, 3166.143
182.7509, 3166.715
183.2330, 3167.825
183.7151, 3170.108
184.1973, 3176.311
184.6794, 3186.943
185.1615, 3197.340
185.6436, 3200.831
186.1257, 3198.337
186.6078, 3196.126
187.0900, 3199.544
187.5721, 3206.020
188.0542, 3204.256
188.5363, 3191.977
189.0184, 3177.064
189.5005, 3171.533
189.9827, 3175.295
190.4648, 3181.144
190.9469, 3186.448
191.4290, 3191.031
191.9111, 3193.040
192.3932, 3191.587
192.8754, 3188.873
193.3575, 3188.559
193.8396, 3190.573
194.3217, 3196.122
194.8038, 3208.057
195.2859, 3226.126
195.7681, 3240.554
196.2502, 3248.651
196.7323, 3252.919
197.2144, 3260.457
197.6965, 3271.076
198.1786, 3284.981
198.6607, 3301.528
199.1429, 3320.513
199.6250, 3345.527
200.1071, 3379.727
200.5892, 3420.570
201.0713, 3450.908
201.5534, 3465.197
202.0356, 3484.914
202.5177, 3533.500
202.9998, 3614.664
203.4819, 3702.459
203.9640, 3789.297
204.4461, 3876.045
204.9283, 3972.310
205.4104, 4080.382
205.8925, 4193.972
206.3746, 4307.478
206.8567, 4422.975
207.3388, 4531.438
207.8210, 4624.892
208.3031, 4702.997
208.7852, 4789.204
209.2673, 4883.443
209.7494, 4985.906
210.2315, 5095.593
210.7137, 5210.067
211.1958, 5340.025
211.6779, 5493.251
212.1600, 5679.588
212.6421, 5848.231
213.1242, 6011.737
213.6064, 6148.333
214.0885, 6219.933
214.5706, 6241.620
215.0527, 6166.423
215.5348, 5949.921
216.0169, 5545.002
216.4991, 5169.991
216.9812, 4821.902
217.4633, 4509.399
217.9454, 4247.624
218.4275, 4040.799
218.9096, 3876.718
219.3917, 3751.348
219.8739, 3676.881
220.3560, 3610.599
220.8381, 3549.398
221.3202, 3494.766
221.8023, 3450.676
222.2844, 3419.201
222.7666, 3395.188
223.2487, 3375.530
223.7308, 3360.799
224.2129, 3349.597
224.6950, 3342.391
225.1771, 3338.731
225.6593, 3336.372
226.1414, 3336.366
226.6235, 3336.165
227.1056, 3334.137
227.5877, 3330.698
228.0698, 3324.140
228.5520, 3312.577
229.0341, 3296.624
229.5162, 3283.928
229.9983, 3273.019
230.4804, 3267.095
230.9625, 3270.348
231.4447, 3291.143
231.9268, 3304.683
232.4089, 3304.852
232.8910, 3291.503
233.3731, 3283.554
233.8552, 3284.434
234.3374, 3287.396
234.8195, 3286.053
235.3016, 3279.634
235.7837, 3270.085
236.2658, 3254.158
236.7479, 3230.393
237.2301, 3224.067
237.7122, 3245.817
238.1943, 3275.604
238.6764, 3291.324
239.1585, 3285.536
239.6406, 3278.373
240.1227, 3275.032
240.6049, 3276.596
241.0870, 3272.560
241.5691, 3258.232
242.0512, 3241.945
242.5333, 3234.103
243.0154, 3236.269
243.4976, 3244.305
243.9797, 3259.456
244.4618, 3284.250
244.9439, 3300.651
245.4260, 3305.541
245.9081, 3304.132
246.3903, 3303.477
246.8724, 3303.168
247.3545, 3304.197
247.8366, 3307.748
248.3187, 3315.359
248.8008, 3317.677
249.2830, 3310.660
249.7651, 3300.948
250.2472, 3300.476
250.7293, 3316.676
251.2114, 3329.018
251.6935, 3328.998
252.1757, 3311.488
252.6578, 3303.197
253.1399, 3308.686
253.6220, 3320.719
254.1041, 3325.781
254.5862, 3318.919
255.0684, 3314.060
255.5505, 3316.292
256.0326, 3327.368
256.5147, 3340.438
256.9968, 3358.530
257.4789, 3376.904
257.9611, 3384.547
258.4432, 3374.520
258.9253, 3367.186
259.4074, 3369.450
259.8895, 3380.906
260.3716, 3404.870
260.8538, 3446.760
261.3359, 3497.581
261.8180, 3536.406
262.3001, 3555.833
262.7822, 3579.823
263.2643, 3615.735
263.7465, 3659.698
264.2286, 3729.892
264.7107, 3827.864
265.1928, 3949.894
265.6749, 4086.463
266.1570, 4241.676
266.6392, 4404.159
267.1213, 4573.527
267.6034, 4752.471
268.0855, 4922.398
268.5676, 5081.057
269.0497, 5231.520
269.5318, 5381.417
270.0139, 5528.073
270.4961, 5678.416
270.9782, 5836.004
271.4603, 5999.335
271.9424, 6172.405
272.4245, 6351.448
272.9066, 6544.086
273.3888, 6766.614
273.8709, 7019.889
274.3530, 7296.609
274.8351, 7619.825
275.3172, 8007.135
275.7993, 8300.327
276.2815, 8526.552
276.7636, 8619.707
277.2457, 8410.310
277.7278, 7858.334
278.2099, 7214.830
278.6920, 6559.689
279.1742, 5887.470
279.6563, 5342.447
280.1384, 4935.514
280.6205, 4639.514
281.1026, 4403.777
281.5847, 4231.264
282.0669, 4092.274
282.5490, 3974.222
283.0311, 3877.095
283.5132, 3804.473
283.9953, 3760.905
284.4774, 3733.177
284.9596, 3698.398
285.4417, 3656.071
285.9238, 3618.762
286.4059, 3594.978
286.8880, 3583.300
287.3701, 3570.481
287.8523, 3555.293
288.3344, 3541.151
288.8165, 3535.497
289.2986, 3537.880
289.7807, 3539.098
290.2628, 3533.689
290.7450, 3522.844
291.2271, 3510.439
291.7092, 3494.802
292.1913, 3483.165
292.6734, 3491.994
293.1555, 3518.139
293.6377, 3536.901
294.1198, 3528.475
294.6019, 3503.041
295.0840, 3492.935
295.5661, 3502.162
296.0482, 3513.901
296.5304, 3504.392
297.0125, 3478.258
297.4946, 3454.451
297.9767, 3441.664
298.4588, 3437.828
298.9409, 3441.627
299.4231, 3454.190
299.9052, 3466.700
300.3873, 3469.042
300.8694, 3463.642
301.3515, 3456.802
301.8336, 3452.951
302.3158, 3448.879
302.7979, 3437.809
303.2800, 3418.521
303.7621, 3401.728
304.2442, 3398.808
304.7263, 3405.334
305.2085, 3411.975
305.6906, 3413.498
306.1727, 3413.572
306.6548, 3416.512
307.1369, 3422.504
307.6190, 3427.946
308.1012, 3427.999
308.5833, 3425.966
309.0654, 3426.990
309.5475, 3439.299
310.0296, 3451.187
310.5117, 3451.958
310.9938, 3441.496
311.4760, 3431.554
311.9581, 3428.382
312.4402, 3429.983
312.9223, 3433.839
313.4044, 3445.188
313.8865, 3453.535
314.3687, 3450.424
314.8508, 3436.623
315.3329, 3424.701
315.8150, 3420.492
316.2971, 3420.980
316.7792, 3423.424
317.2614, 3434.382
317.7435, 3440.202
318.2256, 3428.755
318.7077, 3403.286
319.1898, 3390.477
319.6719, 3412.714
320.1541, 3443.428
320.6362, 3462.902
321.1183, 3456.233
321.6004, 3449.472
322.0825, 3448.936
322.5646, 3453.465
323.0468, 3456.878
323.5289, 3455.161
324.0110, 3453.760
324.4931, 3455.829
324.9752, 3469.669
325.4573, 3477.305
325.9395, 3471.713
326.4216, 3457.095
326.9037, 3449.750
327.3858, 3459.492
327.8679, 3469.618
328.3500, 3472.832
328.8322, 3461.277
329.3143, 3454.607
329.7964, 3455.531
330.2785, 3461.236
330.7606, 3464.612
331.2427, 3462.577
331.7249, 3461.946
332.2070, 3465.956
332.6891, 3478.427
333.1712, 3486.209
333.6533, 3487.614
334.1354, 3485.452
334.6176, 3485.052
335.0997, 3488.261
335.5818, 3489.864
336.0639, 3487.092
336.5460, 3478.268
337.0281, 3473.848
337.5103, 3473.231
337.9924, 3477.470
338.4745, 3490.875
338.9566, 3517.978
339.4387, 3537.192
339.9208, 3538.359
340.4030, 3522.074
340.8851, 3517.063
341.3672, 3526.576
341.8493, 3538.729
342.3314, 3538.181
342.8135, 3524.061
343.2957, 3512.745
343.7778, 3507.398
344.2599, 3508.669
344.7420, 3523.045
345.2241, 3552.073
345.7062, 3581.128
346.1884, 3595.575
346.6705, 3597.105
347.1526, 3594.998
347.6347, 3588.182
348.1168, 3582.104
348.5989, 3593.177
349.0811, 3620.299
349.5632, 3643.462
350.0453, 3638.352
350.5274, 3617.367
351.0095, 3612.527
351.4916, 3635.980
351.9737, 3667.455
352.4558, 3682.744
352.9380, 3683.666
353.4201, 3678.661
353.9022, 3666.784
354.3843, 3654.238
354.8664, 3650.050
355.3485, 3657.223
355.8307, 3667.545
356.3128, 3674.434
356.7949, 3679.221
357.2770, 3685.073
357.7591, 3695.387
358.2412, 3706.354
358.7234, 3714.107
359.2055, 3717.454
359.6876, 3722.998
360.1697, 3740.488
360.6518, 3760.910
361.1339, 3772.018
361.6161, 3749.824
362.0982, 3733.503
362.5803, 3747.697
363.0624, 3795.527
363.5445, 3834.187
364.0266, 3844.702
364.5088, 3842.731
364.9909, 3842.742
365.4730, 3841.335
365.9551, 3848.505
366.4372, 3872.758
366.9193, 3912.859
367.4015, 3941.767
367.8836, 3945.474
368.3657, 3944.306
368.8478, 3950.657
369.3299, 3967.079
369.8120, 3988.313
370.2942, 4016.817
370.7763, 4050.562
371.2584, 4079.493
371.7405, 4093.201
372.2226, 4114.937
372.7047, 4157.742
373.1869, 4233.574
373.6690, 4299.489
374.1511, 4347.174
374.6332, 4389.433
375.1153, 4453.766
375.5974, 4545.577
376.0796, 4642.434
376.5617, 4731.348
377.0438, 4808.231
377.5259, 4915.768
378.0080, 5057.568
378.4901, 5220.305
378.9723, 5385.377
379.4544, 5553.278
379.9365, 5726.800
380.4186, 5908.250
380.9007, 6096.649
381.3828, 6272.241
381.8650, 6436.090
382.3471, 6600.133
382.8292, 6777.418
383.3113, 6966.718
383.7934, 7154.419
384.2755, 7339.558
384.7577, 7522.005
385.2398, 7698.354
385.7219, 7870.227
386.2040, 8049.771
386.6861, 8260.641
387.1682, 8482.789
387.6504, 8688.920
388.1325, 8884.200
388.6146, 9043.452
389.0967, 9164.376
389.5788, 9236.655
390.0609, 9230.096
390.5431, 9121.968
391.0252, 8933.993
391.5073, 8671.267
391.9894, 8328.105
392.4715, 7950.231
392.9536, 7533.705
393.4357, 7108.818
393.9178, 6711.917
394.4000, 6344.331
394.8821, 6021.548
395.3642, 5756.955
395.8463, 5551.458
396.3284, 5367.824
396.8105, 5200.944
397.2927, 5052.509
397.7748, 4924.438
398.2569, 4820.641
398.7390, 4733.097
399.2211, 4666.846
399.7032, 4619.020
400.1854, 4573.177
400.6675, 4527.843
401.1496, 4486.011
401.6317, 4447.811
402.1138, 4408.961
402.5959, 4384.166
403.0781, 4379.417
403.5602, 4385.624
404.0423, 4383.816
404.5244, 4371.417
405.0065, 4357.069
405.4886, 4342.132
405.9708, 4326.180
406.4529, 4318.307
406.9350, 4320.169
407.4171, 4326.352
407.8992, 4330.708
408.3813, 4333.180
408.8635, 4335.384
409.3456, 4336.287
409.8277, 4337.775
410.3098, 4346.890
410.7919, 4363.882
411.2740, 4382.221
411.7562, 4395.471
412.2383, 4405.837
412.7204, 4419.969
413.2025, 4440.204
413.6846, 4462.854
414.1667, 4483.294
414.6489, 4502.048
415.1310, 4520.777
415.6131, 4538.513
416.0952, 4557.772
416.5773, 4580.545
417.0594, 4607.373
417.5416, 4638.302
418.0237, 4673.289
418.5058, 4712.985
418.9879, 4757.730
419.4700, 4816.104
419.9521, 4872.767
420.4343, 4918.233
420.9164, 4951.715
421.3985, 4989.529
421.8806, 5027.950
422.3627, 5077.376
422.8448, 5146.169
423.3270, 5258.854
423.8091, 5363.572
424.2912, 5443.601
424.7733, 5506.166
425.2554, 5587.354
425.7375, 5691.997
426.2197, 5809.251
426.7018, 5936.096
427.1839, 6070.814
427.6660, 6216.757
428.1481, 6371.434
428.6302, 6541.116
429.1124, 6738.461
429.5945, 6963.147
430.0766, 7214.723
430.5587, 7489.289
431.0408, 7787.997
431.5229, 8124.564
432.0051, 8498.638
432.4872, 8912.357
432.9693, 9353.723
433.4514, 9826.234
433.9335, 10388.62
434.4156, 11061.64
434.8977, 11818.24
435.3799, 12598.78
435.8620, 13407.63
436.3441, 14292.50
436.8262, 15292.47
437.3083, 16378.95
437.7904, 17500.66
438.2726, 18655.11
438.7547, 19827.85
439.2368, 20999.11
439.7189, 22179.56
440.2010, 23394.81
440.6831, 24641.50
441.1653, 25923.06
441.6474, 27238.13
442.1295, 28587.17
442.6116, 29973.04
443.0937, 31382.73
443.5758, 32838.85
444.0580, 34369.34
444.5401, 36064.39
445.0222, 37709.16
445.5043, 39288.02
445.9864, 40793.52
446.4685, 42203.07
446.9507, 43685.50
447.4328, 44912.99
447.9149, 45824.82
448.3970, 46490.20
448.8791, 46595.36
449.3612, 46156.04
449.8434, 45141.84
450.3255, 43451.51
450.8076, 40924.62
451.2897, 38151.41
451.7718, 35154.61
452.2539, 32000.68
452.7361, 29057.03
453.2182, 26291.12
453.7003, 23771.68
454.1824, 21518.32
454.6645, 19547.39
455.1466, 17813.72
455.6288, 16322.48
456.1109, 15036.55
456.5930, 13902.56
457.0751, 12920.26
457.5572, 12057.30
458.0393, 11331.53
458.5215, 10710.17
459.0036, 10164.85
459.4857, 9690.462
459.9678, 9262.790
460.4499, 8873.429
460.9320, 8516.232
461.4142, 8193.155
461.8963, 7904.669
462.3784, 7644.514
462.8605, 7414.308
463.3426, 7208.913
463.8247, 7018.087
464.3069, 6842.387
464.7890, 6676.329
465.2711, 6515.649
465.7532, 6356.334
466.2353, 6212.929
466.7174, 6097.101
467.1996, 5996.858
467.6817, 5895.711
468.1638, 5781.970
468.6459, 5680.470
469.1280, 5599.344
469.6101, 5537.688
470.0923, 5467.144
470.5744, 5383.014
471.0565, 5298.119
471.5386, 5221.150
472.0207, 5152.565
472.5028, 5087.498
472.9850, 5024.577
473.4671, 4965.424
473.9492, 4914.497
474.4313, 4871.402
474.9134, 4830.388
475.3955, 4789.556
475.8776, 4748.440
476.3597, 4705.021
476.8419, 4658.831
477.3240, 4615.659
477.8061, 4580.825
478.2882, 4552.881
478.7703, 4530.132
479.2524, 4517.718
479.7346, 4502.127
480.2167, 4464.679
480.6988, 4413.123
481.1809, 4370.979
481.6630, 4359.518
482.1451, 4354.340
482.6273, 4338.034
483.1094, 4304.997
483.5915, 4277.572
484.0736, 4271.835
484.5557, 4271.059
485.0378, 4257.780
485.5200, 4208.792
486.0021, 4170.724
486.4842, 4151.790
486.9663, 4149.863
487.4484, 4151.827
487.9305, 4164.988
488.4127, 4171.794
488.8948, 4161.007
489.3769, 4126.329
489.8590, 4099.491
490.3411, 4081.830
490.8232, 4070.169
491.3054, 4060.700
491.7875, 4053.674
492.2696, 4045.751
492.7517, 4034.898
493.2338, 4022.968
493.7159, 4017.438
494.1981, 4018.165
494.6802, 4014.241
495.1623, 3991.538
495.6444, 3959.510
496.1265, 3934.949
496.6086, 3919.967
497.0908, 3914.102
497.5729, 3922.907
498.0550, 3939.845
498.5371, 3952.681
499.0192, 3956.782
499.5013, 3954.361
499.9835, 3941.717
500.4656, 3919.506
500.9477, 3906.009
501.4298, 3919.269
501.9119, 3935.109
502.3940, 3937.548
502.8762, 3906.375
503.3583, 3887.044
503.8404, 3888.541
504.3225, 3900.532
504.8046, 3902.088
505.2867, 3885.937
505.7689, 3873.417
506.2510, 3873.769
506.7331, 3886.729
507.2152, 3888.083
507.6973, 3875.678
508.1794, 3858.231
508.6616, 3839.184
509.1437, 3819.383
509.6258, 3814.112
510.1079, 3829.513
510.5900, 3852.020
511.0721, 3859.577
511.5543, 3854.876
512.0364, 3850.180
512.5185, 3854.759
513.0006, 3861.366
513.4827, 3859.573
513.9648, 3849.247
514.4470, 3839.812
514.9291, 3840.295
515.4112, 3843.443
515.8933, 3841.858
516.3754, 3830.854
516.8575, 3819.323
517.3397, 3808.391
517.8218, 3799.155
518.3039, 3793.802
518.7860, 3794.765
519.2681, 3797.764
519.7502, 3801.420
520.2324, 3805.582
520.7145, 3812.648
521.1966, 3827.457
521.6787, 3839.330
522.1608, 3837.698
522.6429, 3817.831
523.1251, 3805.237
523.6072, 3804.437
524.0893, 3810.123
524.5714, 3810.742
525.0535, 3806.214
525.5356, 3804.240
526.0178, 3812.312
526.4999, 3825.056
526.9820, 3826.692
527.4641, 3817.158
527.9462, 3805.628
528.4283, 3801.286
528.9105, 3799.208
529.3926, 3790.323
529.8747, 3766.445
530.3568, 3748.513
530.8389, 3756.094
531.3210, 3778.780
531.8032, 3796.415
532.2853, 3806.125
532.7674, 3805.575
533.2495, 3788.174
533.7316, 3752.492
534.2137, 3728.194
534.6959, 3726.566
535.1780, 3730.087
535.6601, 3728.262
536.1422, 3715.293
536.6243, 3710.440
537.1064, 3716.641
537.5885, 3729.087
538.0706, 3741.464
538.5527, 3755.064
539.0349, 3759.866
539.5170, 3748.938
539.9991, 3727.279
540.4812, 3714.023
540.9633, 3709.112
541.4454, 3705.881
541.9276, 3698.947
542.4097, 3689.908
542.8918, 3681.535
543.3739, 3673.855
543.8560, 3668.279
544.3381, 3666.773
544.8203, 3667.995
545.3024, 3669.788
545.7845, 3666.977
546.2666, 3668.631
546.7487, 3686.469
547.2308, 3716.267
547.7130, 3730.049
548.1951, 3702.763
548.6772, 3673.294
549.1593, 3661.487
549.6414, 3675.784
550.1235, 3684.181
550.6057, 3683.420
551.0878, 3679.803
551.5699, 3681.610
552.0520, 3691.073
552.5341, 3695.885
553.0162, 3691.677
553.4984, 3682.731
553.9805, 3682.892
554.4626, 3692.169
554.9447, 3699.045
555.4268, 3693.832
555.9089, 3681.663
556.3911, 3673.442
556.8732, 3669.608
557.3553, 3669.545
557.8374, 3674.109
558.3195, 3681.664
558.8016, 3690.368
559.2838, 3702.617
559.7659, 3711.554
560.2480, 3711.448
560.7301, 3705.689
561.2122, 3701.469
561.6943, 3703.163
562.1765, 3704.271
562.6586, 3702.566
563.1407, 3697.979
563.6228, 3692.654
564.1049, 3686.913
564.5870, 3680.102
565.0692, 3670.381
565.5513, 3655.536
566.0334, 3648.941
566.5155, 3653.537
566.9976, 3662.729
567.4797, 3666.544
567.9619, 3665.228
568.4440, 3662.845
568.9261, 3659.566
569.4082, 3657.035
569.8903, 3653.953
570.3724, 3652.207
570.8546, 3633.338
571.3367, 3655.657
571.8188, 3667.345
572.3009, 3668.974
572.7830, 3630.415
573.2651, 3643.750
573.7473, 3636.288
574.2294, 3627.974
574.7115, 3648.613
575.1936, 3615.899
575.6757, 3636.079
576.1578, 3635.145
576.6400, 3643.873
577.1221, 3642.082
577.6042, 3639.666
578.0863, 3635.775
578.5684, 3631.007
579.0505, 3625.435
579.5327, 3620.588
580.0148, 3616.751
580.4969, 3612.461
580.9790, 3604.419
581.4611, 3594.208
581.9432, 3591.679
582.4254, 3600.413
582.9075, 3608.372
583.3896, 3599.424
583.8717, 3579.643
584.3538, 3561.966
584.8359, 3550.293
585.3181, 3543.809
585.8002, 3544.438
586.2823, 3550.671
586.7644, 3555.738
587.2465, 3560.268
587.7286, 3560.825
588.2108, 3552.415
588.6929, 3527.902
589.1750, 3522.282
589.6571, 3551.680
590.1392, 3584.531
590.6213, 3590.990
591.1035, 3561.553
591.5856, 3543.421
592.0677, 3544.100
592.5498, 3555.176
593.0319, 3562.211
593.5140, 3565.128
593.9962, 3562.846
594.4783, 3550.135
594.9604, 3534.442
595.4425, 3531.351
595.9246, 3539.556
596.4067, 3547.950
596.8889, 3549.475
597.3710, 3547.476
597.8531, 3545.695
598.3352, 3545.508
598.8173, 3541.528
599.2994, 3523.228
599.7816, 3503.800
600.2637, 3497.168
600.7458, 3525.223
601.2279, 3540.711
601.7100, 3534.017
602.1921, 3513.721
602.6743, 3501.441
603.1564, 3498.784
603.6385, 3499.925
604.1206, 3503.441
604.6027, 3509.130
605.0848, 3518.094
605.5670, 3530.984
606.0491, 3538.459
606.5312, 3527.661
607.0133, 3506.926
607.4954, 3494.624
607.9775, 3493.321
608.4597, 3498.977
608.9418, 3516.061
609.4239, 3535.739
609.9060, 3545.653
610.3881, 3533.960
610.8702, 3520.560
611.3524, 3511.927
611.8345, 3506.807
612.3166, 3501.881
612.7987, 3495.204
613.2808, 3490.314
613.7629, 3488.217
614.2451, 3488.896
614.7272, 3490.792
615.2093, 3492.969
615.6914, 3498.655
616.1735, 3514.022
616.6556, 3538.096
617.1378, 3549.196
617.6199, 3544.340
618.1020, 3533.559
618.5840, 3527.418
619.0662, 3524.479
619.5483, 3520.743
620.0304, 3511.691
620.5125, 3506.196
620.9946, 3515.938
621.4767, 3534.881
621.9589, 3548.681
622.4410, 3546.622
622.9231, 3543.512
623.4052, 3546.489
623.8873, 3556.098
624.3694, 3561.867
624.8516, 3563.528
625.3337, 3561.380
625.8158, 3553.506
626.2979, 3536.277
626.7800, 3531.545
627.2621, 3542.007
627.7443, 3558.640
628.2264, 3574.762
628.7085, 3589.376
629.1906, 3591.737
629.6727, 3574.558
630.1548, 3555.220
630.6370, 3557.985
631.1191, 3577.202
631.6012, 3597.355
632.0833, 3612.080
632.5654, 3624.934
633.0475, 3636.699
633.5297, 3647.971
634.0118, 3661.964
634.4939, 3689.156
634.9760, 3710.875
635.4581, 3714.344
635.9402, 3691.015
636.4224, 3687.492
636.9045, 3712.841
637.3866, 3745.135
637.8687, 3763.053
638.3508, 3764.735
638.8329, 3771.948
639.3151, 3787.741
639.7972, 3808.218
640.2793, 3830.614
640.7614, 3853.417
641.2435, 3870.899
641.7256, 3872.982
642.2078, 3877.030
642.6899, 3905.277
643.1720, 3951.344
643.6541, 3992.530
644.1362, 4017.120
644.6183, 4036.199
645.1005, 4056.590
645.5826, 4079.300
646.0647, 4095.567
646.5468, 4108.258
647.0289, 4111.409
647.5110, 4100.429
647.9932, 4071.674
648.4753, 4040.847
648.9574, 4007.216
649.4395, 3973.172
649.9216, 3945.651
650.4037, 3922.437
650.8859, 3887.301
651.3680, 3832.143
651.8501, 3772.728
652.3322, 3729.447
652.8143, 3699.183
653.2964, 3674.375
653.7786, 3656.169
654.2607, 3638.698
654.7428, 3617.415
655.2249, 3593.152
655.7070, 3572.555
656.1891, 3557.140
656.6713, 3546.170
657.1534, 3539.829
657.6355, 3538.524
658.1176, 3538.999
658.5997, 3543.583
659.0818, 3545.165
659.5640, 3534.256
660.0461, 3511.462
660.5282, 3501.434
661.0103, 3508.821
661.4924, 3517.388
661.9745, 3501.477
662.4567, 3471.959
662.9388, 3454.898
663.4209, 3467.007
663.9030, 3481.301
664.3851, 3479.034
664.8672, 3465.131
665.3494, 3450.079
665.8315, 3430.658
666.3136, 3417.223
666.7957, 3416.763
667.2778, 3426.956
667.7599, 3432.448
668.2421, 3432.178
668.7242, 3429.299
669.2063, 3423.522
669.6884, 3415.058
670.1705, 3414.067
670.6526, 3421.217
671.1348, 3430.426
671.6169, 3439.601
672.0990, 3446.280
672.5811, 3442.809
673.0632, 3426.002
673.5453, 3410.780
674.0275, 3411.707
674.5096, 3419.722
674.9917, 3423.761
675.4738, 3420.469
675.9559, 3413.051
676.4380, 3395.976
676.9202, 3376.444
677.4023, 3369.379
677.8844, 3383.775
678.3665, 3392.950
678.8486, 3388.526
679.3307, 3375.004
679.8129, 3370.872
680.2950, 3376.491
680.7771, 3384.267
681.2592, 3391.669
681.7413, 3397.879
682.2234, 3399.536
682.7056, 3397.014
683.1877, 3395.921
683.6698, 3405.434
684.1519, 3414.540
684.6340, 3411.139
685.1161, 3389.104
685.5983, 3375.001
686.0804, 3378.363
686.5625, 3390.829
687.0446, 3406.590
687.5267, 3435.525
688.0089, 3443.776
688.4910, 3422.438
688.9731, 3390.143
689.4552, 3374.858
689.9373, 3376.328
690.4194, 3379.883
690.9016, 3382.256
691.3837, 3384.244
691.8658, 3387.715
692.3479, 3391.974
692.8300, 3394.858
693.3121, 3396.393
693.7943, 3395.269
694.2764, 3387.630
694.7585, 3375.278
695.2406, 3368.397
695.7227, 3372.679
696.2048, 3379.764
696.6870, 3388.430
697.1691, 3399.137
697.6512, 3399.622
698.1333, 3386.389
698.6154, 3371.230
699.0975, 3362.324
699.5797, 3359.129
700.0618, 3357.205
700.5438, 3356.313
701.0259, 3357.718
701.5081, 3367.910
701.9902, 3379.857
702.4723, 3380.610
702.9544, 3362.638
703.4365, 3346.458
703.9186, 3344.137
704.4008, 3348.876
704.8829, 3320.671
705.3650, 3347.096
705.8471, 3362.890
706.3292, 3368.625
706.8113, 3334.173
707.2935, 3351.615
707.7756, 3348.259
708.2577, 3344.051
708.7398, 3368.795
709.2219, 3340.188
709.7040, 3364.473
710.1862, 3374.977
710.6683, 3376.344
711.1504, 3361.016
711.6325, 3343.748
712.1146, 3337.904
712.5967, 3343.439
713.0789, 3354.190
713.5610, 3376.130
714.0431, 3395.964
714.5252, 3405.535
715.0073, 3403.383
715.4894, 3401.643
715.9716, 3401.633
716.4537, 3399.820
716.9358, 3392.734
717.4179, 3380.265
717.9000, 3367.866
718.3821, 3355.218
718.8643, 3345.914
719.3464, 3342.417
719.8285, 3345.223
720.3106, 3357.680
720.7927, 3386.410
721.2748, 3409.255
721.7570, 3405.594
722.2391, 3389.674
722.7212, 3380.270
723.2033, 3390.323
723.6854, 3396.133
724.1675, 3393.546
724.6497, 3385.869
725.1318, 3378.781
725.6139, 3371.616
726.0960, 3367.819
726.5781, 3365.663
727.0602, 3369.875
727.5424, 3399.655
728.0245, 3449.800
728.5066, 3491.535
728.9887, 3491.780
729.4708, 3488.184
729.9529, 3519.332
730.4351, 3580.711
730.9172, 3643.001
731.3993, 3686.698
731.8814, 3735.715
732.3635, 3803.379
732.8456, 3890.773
733.3278, 3979.693
733.8099, 4071.805
734.2920, 4162.844
734.7741, 4248.533
735.2562, 4329.189
735.7383, 4420.082
736.2205, 4521.824
736.7026, 4630.360
737.1847, 4731.853
737.6668, 4839.919
738.1489, 4980.617
738.6310, 5165.603
739.1132, 5347.867
739.5953, 5488.552
740.0774, 5621.414
740.5595, 5781.839
741.0416, 5993.906
741.5237, 6203.332
742.0059, 6400.620
742.4880, 6604.024
742.9701, 6837.833
743.4522, 7103.932
743.9343, 7395.703
744.4164, 7721.420
744.8986, 8057.557
745.3807, 8375.776
745.8628, 8673.173
746.3449, 8934.719
746.8270, 9220.150
747.3091, 9399.366
747.7913, 9393.553
748.2734, 9216.126
748.7555, 8900.543
749.2376, 8350.857
749.7197, 7774.786
750.2018, 7183.928
750.6840, 6602.547
751.1661, 6109.821
751.6482, 5707.045
752.1303, 5382.227
752.6124, 5142.251
753.0945, 4971.439
753.5767, 4833.931
754.0588, 4726.970
754.5409, 4633.010
755.0230, 4537.170
755.5051, 4450.963
755.9872, 4380.252
756.4694, 4326.708
756.9515, 4294.465
757.4336, 4302.392
757.9157, 4315.686
758.3978, 4315.818
758.8799, 4299.504
759.3621, 4297.676
759.8442, 4312.328
760.3263, 4335.670
760.8084, 4363.795
761.2905, 4396.042
761.7726, 4428.189
762.2548, 4459.812
762.7369, 4498.811
763.2190, 4551.326
763.7011, 4615.691
764.1832, 4689.497
764.6653, 4774.332
765.1475, 4862.971
765.6296, 4970.416
766.1117, 5070.780
766.5938, 5144.579
767.0759, 5196.909
767.5580, 5209.961
768.0402, 5183.667
768.5223, 5117.443
769.0044, 5001.871
769.4865, 4842.563
769.9686, 4667.343
770.4507, 4474.644
770.9329, 4289.717
771.4150, 4139.509
771.8971, 4015.566
772.3792, 3906.338
772.8613, 3811.981
773.3434, 3727.034
773.8256, 3647.300
774.3077, 3577.371
774.7898, 3525.891
775.2719, 3499.186
775.7540, 3474.706
776.2361, 3449.184
776.7183, 3422.619
777.2004, 3392.620
777.6825, 3360.416
778.1646, 3334.367
778.6467, 3318.730
779.1288, 3309.737
779.6110, 3305.400
780.0931, 3304.580
780.5752, 3304.480
781.0573, 3306.760
781.5394, 3306.779
782.0215, 3303.750
782.5037, 3297.385
782.9857, 3285.055
783.4678, 3264.208
783.9500, 3244.898
784.4321, 3227.175
784.9142, 3215.191
785.3963, 3229.103
785.8784, 3265.222
786.3605, 3292.782
786.8427, 3291.864
787.3248, 3276.354
787.8069, 3252.050
788.2890, 3222.253
788.7711, 3203.832
789.2532, 3211.389
789.7354, 3222.299
790.2175, 3228.372
790.6996, 3229.772
791.1817, 3229.120
791.6638, 3226.046
792.1459, 3222.243
792.6281, 3218.810
793.1102, 3215.366
793.5923, 3208.698
794.0744, 3199.272
794.5565, 3193.426
795.0386, 3199.143
795.5208, 3207.417
796.0029, 3209.899
796.4850, 3205.903
796.9671, 3203.555
797.4492, 3213.425
797.9313, 3216.695
798.4135, 3200.499
798.8956, 3162.164
799.3777, 3149.494
799.8598, 3167.815
800.3419, 3186.524
800.8240, 3178.009
801.3062, 3153.284
801.7883, 3142.833
802.2704, 3147.953
802.7525, 3154.926
803.2346, 3152.752
803.7167, 3149.787
804.1989, 3154.869
804.6810, 3172.485
805.1631, 3178.943
805.6452, 3165.529
806.1273, 3148.988
806.6094, 3138.919
807.0916, 3135.608
807.5737, 3136.237
808.0558, 3141.405
808.5379, 3146.074
809.0200, 3142.751
809.5021, 3136.785
809.9843, 3140.827
810.4664, 3157.571
810.9485, 3166.240
811.4306, 3143.327
811.9127, 3116.184
812.3948, 3106.508
812.8770, 3122.598
813.3591, 3139.040
813.8412, 3159.488
814.3233, 3174.330
814.8054, 3170.577
815.2875, 3150.369
815.7697, 3146.626
816.2518, 3163.007
816.7339, 3179.646
817.2160, 3173.256
817.6981, 3158.647
818.1802, 3154.618
818.6624, 3166.000
819.1445, 3179.818
819.6266, 3194.419
820.1087, 3207.906
820.5908, 3218.826
821.0729, 3226.906
821.5551, 3233.727
822.0372, 3239.829
822.5193, 3243.003
823.0014, 3239.118
823.4835, 3230.316
823.9656, 3223.934
824.4478, 3220.991
824.9299, 3219.529
825.4120, 3217.828
825.8941, 3216.979
826.3762, 3217.994
826.8583, 3221.080
827.3405, 3226.475
827.8226, 3238.773
828.3047, 3248.578
828.7868, 3245.942
829.2689, 3228.933
829.7510, 3221.820
830.2332, 3226.738
830.7153, 3234.923
831.1974, 3235.201
831.6795, 3233.127
832.1616, 3241.066
832.6437, 3263.224
833.1259, 3279.238
833.6080, 3273.006
834.0901, 3259.870
834.5722, 3252.164
835.0543, 3250.994
835.5364, 3254.167
836.0186, 3264.074
836.5007, 3273.630
836.9828, 3275.952
837.4649, 3272.130
837.9470, 3268.225
838.4291, 3264.718
838.9113, 3261.327
839.3934, 3257.904
839.8755, 3254.483
840.3576, 3251.762
840.8397, 3250.875
841.3218, 3246.424
841.8040, 3229.578
842.2861, 3215.897
842.7682, 3217.479
843.2503, 3238.419
843.7324, 3246.427
844.2145, 3239.100
844.6967, 3232.198
845.1788, 3242.824
845.6609, 3262.928
846.1430, 3279.090
846.6251, 3289.980
847.1072, 3293.575
847.5894, 3282.952
848.0715, 3268.731
848.5536, 3258.065
849.0357, 3251.573
849.5178, 3247.268
849.9999, 3244.690
850.4821, 3245.078
850.9642, 3250.498
851.4463, 3260.006
851.9284, 3269.419
852.4105, 3278.578
852.8926, 3281.863
853.3748, 3269.822
853.8569, 3253.608
854.3390, 3243.311
854.8211, 3240.281
855.3032, 3238.393
855.7853, 3237.429
856.2675, 3236.700
856.7496, 3236.841
857.2317, 3237.933
857.7138, 3232.268
858.1959, 3219.045
858.6780, 3211.169
859.1602, 3224.660
859.6423, 3245.731
860.1244, 3253.583
860.6065, 3248.322
861.0886, 3238.307
861.5707, 3218.975
862.0529, 3203.446
862.5350, 3200.530
863.0171, 3208.772
863.4992, 3215.646
863.9813, 3220.823
864.4634, 3224.988
864.9456, 3228.640
865.4276, 3231.368
865.9097, 3230.195
866.3918, 3226.319
866.8740, 3226.544
867.3561, 3242.206
867.8382, 3256.542
868.3203, 3257.594
868.8024, 3247.360
869.2845, 3238.165
869.7667, 3233.992
870.2488, 3225.518
870.7309, 3206.633
871.2130, 3183.847
871.6951, 3183.474
872.1772, 3203.255
872.6594, 3216.395
873.1415, 3207.478
873.6236, 3191.192
874.1057, 3180.997
874.5878, 3175.671
875.0699, 3172.616
875.5521, 3167.390
876.0342, 3169.688
876.5163, 3187.996
876.9984, 3211.142
877.4805, 3213.918
877.9626, 3194.206
878.4448, 3177.206
878.9269, 3168.429
879.4090, 3165.497
879.8911, 3168.478
880.3732, 3174.257
880.8553, 3176.446
881.3375, 3168.230
881.8196, 3163.593
882.3017, 3173.220
882.7838, 3185.977
883.2659, 3187.116
883.7480, 3171.932
884.2302, 3160.162
884.7123, 3152.287
885.1944, 3151.426
885.6765, 3167.728
886.1586, 3193.640
886.6407, 3209.527
887.1229, 3210.206
887.6050, 3207.412
888.0871, 3208.892
888.5692, 3209.795
889.0513, 3204.971
889.5334, 3191.530
890.0156, 3180.151
890.4977, 3170.729
890.9798, 3163.622
891.4619, 3159.938
891.9440, 3159.016
892.4261, 3157.719
892.9083, 3155.904
893.3904, 3154.720
893.8725, 3153.120
894.3546, 3153.917
894.8367, 3161.714
895.3188, 3178.054
895.8010, 3186.431
896.2831, 3184.048
896.7652, 3176.368
897.2473, 3163.106
897.7294, 3146.234
898.2115, 3141.184
898.6937, 3147.310
899.1758, 3153.022
899.6579, 3147.314
900.1400, 3140.472
900.6221, 3142.865
901.1042, 3153.168
901.5864, 3164.343
902.0685, 3179.433
902.5506, 3189.093
903.0327, 3190.296
903.5148, 3184.794
903.9969, 3177.524
904.4791, 3168.532
904.9612, 3158.688
905.4433, 3145.038
905.9254, 3135.877
906.4075, 3147.702
906.8896, 3170.299
907.3718, 3183.618
907.8539, 3177.571
908.3360, 3165.222
908.8181, 3139.881
909.3002, 3115.937
909.7823, 3117.918
910.2645, 3148.663
910.7466, 3166.234
911.2287, 3162.398
911.7108, 3151.089
912.1929, 3147.819
912.6750, 3148.197
913.1572, 3145.565
913.6393, 3138.094
914.1214, 3129.047
914.6035, 3112.771
915.0856, 3100.742
915.5677, 3103.434
916.0499, 3125.189
916.5320, 3135.588
917.0141, 3133.236
917.4962, 3128.540
917.9783, 3132.076
918.4604, 3138.271
918.9426, 3136.232
919.4247, 3125.941
919.9068, 3119.642
920.3889, 3130.661
920.8710, 3138.896
921.3531, 3131.281
921.8353, 3110.146
922.3174, 3103.906
922.7995, 3115.219
923.2816, 3124.502
923.7637, 3120.065
924.2458, 3109.728
924.7280, 3105.383
925.2101, 3106.844
925.6922, 3113.408
926.1743, 3133.523
926.6564, 3149.087
927.1385, 3148.791
927.6207, 3140.542
928.1028, 3139.434
928.5849, 3147.696
929.0670, 3152.081
929.5491, 3150.196
930.0313, 3143.167
930.5134, 3125.866
930.9955, 3106.123
931.4776, 3100.534
931.9597, 3120.520
932.4418, 3136.417
932.9240, 3133.306
933.4061, 3122.937
933.8882, 3115.334
934.3703, 3109.819
934.8524, 3112.175
935.3345, 3124.633
935.8167, 3133.712
936.2988, 3121.370
936.7809, 3099.411
937.2630, 3089.360
937.7451, 3092.538
938.2272, 3096.544
938.7094, 3096.458
939.1915, 3094.917
939.6736, 3092.315
940.1557, 3089.102
940.6378, 3089.822
941.1199, 3095.051
941.6021, 3101.170
942.0842, 3108.279
942.5663, 3113.807
943.0484, 3111.360
943.5305, 3103.592
944.0126, 3097.729
944.4948, 3097.592
944.9769, 3098.812
945.4590, 3097.828
945.9411, 3098.349
946.4232, 3107.981
946.9053, 3128.277
947.3875, 3144.428
947.8695, 3153.039
948.3516, 3160.634
948.8337, 3178.368
949.3159, 3199.688
949.7980, 3212.884
950.2801, 3213.064
950.7622, 3214.531
951.2443, 3217.581
951.7264, 3227.269
952.2086, 3250.593
952.6907, 3290.104
953.1728, 3308.972
953.6549, 3305.504
954.1370, 3302.325
954.6191, 3313.511
955.1013, 3336.239
955.5834, 3371.662
956.0655, 3417.220
956.5476, 3458.668
957.0297, 3491.449
957.5118, 3518.352
957.9940, 3540.635
958.4761, 3557.509
958.9582, 3568.240
959.4403, 3572.653
959.9224, 3561.852
960.4045, 3530.307
960.8867, 3486.935
961.3688, 3435.607
961.8509, 3379.874
962.3330, 3324.771
962.8151, 3258.476
963.2972, 3216.127
963.7794, 3211.602
964.2615, 3215.357
964.7436, 3194.072
965.2257, 3150.681
965.7078, 3115.677
966.1899, 3090.993
966.6721, 3076.450
967.1542, 3082.211
967.6363, 3090.149
968.1184, 3080.605
968.6005, 3050.529
969.0826, 3034.995
969.5648, 3038.441
970.0469, 3051.494
970.5290, 3076.686
971.0111, 3105.489
971.4932, 3103.334
971.9753, 3076.128
972.4575, 3052.260
972.9396, 3046.384
973.4217, 3046.807
973.9038, 3051.630
974.3859, 3056.982
974.8680, 3054.070
975.3502, 3035.354
975.8323, 3029.480
976.3144, 3042.205
976.7965, 3060.735
977.2786, 3071.788
977.7607, 3075.772
978.2429, 3072.671
978.7250, 3061.895
979.2071, 3049.958
979.6892, 3034.857
980.1713, 3024.923
980.6534, 3028.205
981.1356, 3045.236
981.6177, 3051.694
982.0998, 3046.986
982.5819, 3036.310
983.0640, 3016.989
983.5461, 2997.253
984.0283, 2989.767
984.5104, 2992.588
984.9925, 2999.746
985.4746, 3017.988
985.9567, 3028.456
986.4388, 3022.910
986.9210, 3010.500
987.4031, 3006.719
987.8852, 3011.390
988.3673, 3020.524
988.8494, 3035.241
989.3315, 3044.746
989.8137, 3033.555
990.2958, 3013.790
990.7779, 2997.801
991.2600, 2986.269
991.7421, 2985.750
992.2242, 3003.406
992.7064, 3019.676
993.1885, 3023.685
993.6706, 3016.995
994.1527, 3002.494
994.6348, 2982.527
995.1169, 2971.738
995.5991, 2992.343
996.0812, 3011.265
996.5633, 3000.953
997.0454, 2973.556
997.5275, 2964.256
998.0096, 2979.141
998.4918, 2997.951
998.9739, 3021.279
999.4560, 3038.083
999.9381, 3023.850
1000.420, 2993.612
1000.902, 2981.727
1001.384, 2998.723
1001.867, 3012.928
1002.349, 3006.807
1002.831, 2997.545
1003.313, 2996.628
1003.795, 3004.282
1004.277, 3007.043
1004.759, 3004.713
1005.241, 3002.293
1005.724, 3004.541
1006.206, 3007.134
1006.688, 3001.900
1007.170, 2992.664
1007.652, 2990.784
1008.134, 3012.015
1008.616, 3022.876
1009.098, 3015.902
1009.580, 3000.474
1010.063, 2989.947
1010.545, 2983.933
1011.027, 2980.802
1011.509, 2980.558
1011.991, 2981.153
1012.473, 2978.423
1012.955, 2977.791
1013.437, 2986.865
1013.919, 3007.792
1014.402, 3014.695
1014.884, 3002.589
1015.366, 2994.019
1015.848, 2969.482
1016.330, 2993.278
1016.812, 3006.443
1017.294, 3009.550
1017.776, 2972.469
1018.259, 2987.281
1018.741, 2981.296
1019.223, 2974.460
1019.705, 2996.576
1020.187, 2965.340
1020.669, 2986.997
1021.151, 2987.541
1021.633, 2999.824
1022.115, 3015.908
1022.598, 3021.636
1023.080, 3020.629
1023.562, 3016.440
1024.044, 3009.457
1024.526, 2996.252
1025.008, 2967.994
1025.490, 2952.577
1025.972, 2966.410
1026.454, 2996.073
1026.937, 3003.611
1027.419, 2994.515
1027.901, 2988.508
1028.383, 2997.450
1028.865, 3005.506
1029.347, 3005.004
1029.829, 2999.998
1030.311, 2995.107
1030.794, 2990.003
1031.276, 2987.120
1031.758, 2986.834
1032.240, 2986.418
1032.722, 2980.014
1033.204, 2974.122
1033.686, 2980.569
1034.168, 2998.237
1034.651, 3006.660
1035.133, 2991.596
1035.615, 2980.091
1036.097, 2979.323
1036.579, 2986.094
1037.061, 2996.301
1037.543, 3007.864
1038.025, 3010.094
1038.507, 2995.469
1038.990, 2982.852
1039.472, 2989.052
1039.954, 2999.971
1040.436, 3000.918
1040.918, 2988.992
1041.400, 2979.916
1041.882, 2973.293
1042.364, 2971.124
1042.846, 2979.918
1043.329, 2990.887
1043.811, 2988.237
1044.293, 2975.711
1044.775, 2967.658
1045.257, 2974.330
1045.739, 2978.609
1046.221, 2976.178
1046.703, 2971.555
1047.186, 2974.688
1047.668, 2983.139
1048.150, 2979.247
1048.632, 2958.019
1049.114, 2942.301
1049.596, 2957.243
1050.078, 2977.599
1050.560, 2981.626
1051.042, 2969.036
1051.525, 2958.839
1052.007, 2950.697
1052.489, 2947.155
1052.971, 2951.921
1053.453, 2958.807
1053.935, 2956.447
1054.417, 2949.383
1054.899, 2946.789
1055.381, 2964.308
1055.864, 2966.385
1056.346, 2939.770
1056.828, 2911.574
1057.310, 2913.392
1057.792, 2938.883
1058.274, 2945.639
1058.756, 2932.759
1059.238, 2924.687
1059.721, 2941.740
1060.203, 2963.796
1060.685, 2983.819
1061.167, 2998.747
1061.649, 2997.514
1062.131, 2977.410
1062.613, 2957.462
1063.095, 2940.693
1063.578, 2929.569
1064.060, 2933.436
1064.542, 2942.133
1065.024, 2939.973
1065.506, 2920.455
1065.988, 2906.604
1066.470, 2900.309
1066.952, 2900.687
1067.434, 2910.990
1067.917, 2926.672
1068.399, 2929.280
1068.881, 2921.119
1069.363, 2911.882
1069.845, 2902.963
1070.327, 2897.504
1070.809, 2900.040
1071.291, 2905.000
1071.773, 2903.744
1072.255, 2894.618
1072.738, 2897.515
1073.220, 2914.656
1073.702, 2931.307
1074.184, 2932.458
1074.666, 2928.913
1075.148, 2932.536
1075.630, 2942.755
1076.112, 2946.572
1076.595, 2944.267
1077.077, 2931.750
1077.559, 2903.038
1078.041, 2873.053
1078.523, 2868.903
1079.005, 2882.499
1079.487, 2897.568
1079.969, 2911.979
1080.452, 2921.546
1080.934, 2921.357
1081.416, 2919.406
1081.898, 2920.946
1082.380, 2924.771
1082.862, 2917.677
1083.344, 2901.079
1083.826, 2887.294
1084.308, 2882.214
1084.791, 2882.598
1085.273, 2891.012
1085.755, 2901.738
1086.237, 2905.485
1086.719, 2900.570
1087.201, 2892.371
1087.683, 2879.583
1088.165, 2872.856
1088.647, 2888.202
1089.130, 2911.188
1089.612, 2924.544
1090.094, 2928.047
1090.576, 2927.807
1091.058, 2918.437
1091.540, 2918.065
1092.022, 2933.727
1092.504, 2955.209
1092.987, 2962.317
1093.469, 2960.818
1093.951, 2967.512
1094.433, 2987.726
1094.915, 3005.518
1095.397, 3016.352
1095.879, 3020.051
1096.361, 3016.332
1096.844, 3005.567
1097.326, 2989.492
1097.808, 2968.473
1098.290, 2947.208
1098.772, 2924.566
1099.254, 2906.850
1099.736, 2901.903
1100.218, 2903.491
1100.700, 2903.504
1101.182, 2901.259
1101.665, 2897.042
1102.147, 2889.844
1102.629, 2887.317
1103.111, 2907.252
1103.593, 2927.572
1104.075, 2909.425
1104.557, 2864.285
1105.039, 2838.917
1105.522, 2861.036
1106.004, 2875.306
1106.486, 2872.848
1106.968, 2864.210
1107.450, 2863.891
1107.932, 2868.670
1108.414, 2870.907
1108.896, 2869.659
1109.379, 2866.680
1109.861, 2861.317
1110.343, 2855.927
1110.825, 2850.549
1111.307, 2846.325
1111.789, 2845.530
1112.271, 2848.680
1112.753, 2861.969
1113.235, 2893.061
1113.718, 2915.245
1114.200, 2901.585
1114.682, 2876.524
1115.164, 2861.710
1115.646, 2858.220
1116.128, 2852.412
1116.610, 2843.757
1117.092, 2840.750
1117.574, 2856.366
1118.057, 2870.822
1118.539, 2856.359
1119.021, 2827.992
1119.503, 2813.753
1119.985, 2827.631
1120.467, 2832.582
1120.949, 2825.862
1121.431, 2817.232
1121.914, 2813.776
1122.396, 2814.923
1122.878, 2822.518
1123.360, 2834.657
1123.842, 2842.277
1124.324, 2838.247
1124.806, 2834.346
1125.288, 2830.707
1125.771, 2830.327
1126.253, 2843.045
1126.735, 2862.333
1127.217, 2865.666
1127.699, 2849.581
1128.181, 2836.050
1128.663, 2841.390
1129.145, 2845.224
1129.627, 2836.094
1130.109, 2819.968
1130.592, 2818.808
1131.074, 2830.537
1131.556, 2838.783
1132.038, 2838.461
1132.520, 2835.794
1133.002, 2833.106
1133.484, 2831.521
1133.966, 2833.457
1134.449, 2839.004
1134.931, 2832.781
1135.413, 2814.208
1135.895, 2805.285
1136.377, 2826.211
1136.859, 2848.791
1137.341, 2842.318
1137.823, 2821.365
1138.306, 2808.757
1138.788, 2808.795
1139.270, 2811.968
1139.752, 2819.530
1140.234, 2824.460
1140.716, 2819.443
1141.198, 2810.128
1141.680, 2801.932
1142.162, 2795.904
1142.645, 2795.137
1143.127, 2807.706
1143.609, 2809.958
1144.091, 2795.103
1144.573, 2780.621
1145.055, 2793.229
1145.537, 2818.343
1146.019, 2823.283
1146.501, 2808.105
1146.984, 2800.568
1147.466, 2820.060
1147.948, 2835.443
1148.430, 2838.647
1148.912, 2835.844
1149.394, 2840.787
1149.876, 2849.068
1150.358, 2845.002
1150.841, 2824.528
1151.323, 2806.753
1151.805, 2799.683
1152.287, 2799.286
1152.769, 2805.556
1153.251, 2815.996
1153.733, 2821.384
1154.215, 2822.131
1154.697, 2819.761
1155.180, 2812.902
1155.662, 2808.512
1156.144, 2815.522
1156.626, 2822.409
1157.108, 2819.334
1157.590, 2806.743
1158.072, 2795.586
1158.554, 2786.210
1159.036, 2786.121
1159.519, 2804.713
1160.001, 2825.548
1160.483, 2840.964
1160.965, 2848.852
1161.447, 2846.449
1161.929, 2831.739
1162.411, 2817.031
1162.893, 2802.021
1163.375, 2792.733
1163.858, 2796.965
1164.340, 2805.529
1164.822, 2809.920
1165.304, 2812.494
1165.786, 2820.483
1166.268, 2840.073
1166.750, 2842.672
1167.232, 2824.293
1167.715, 2801.367
1168.197, 2784.330
1168.679, 2773.959
1169.161, 2775.554
1169.643, 2785.912
1170.125, 2787.705
1170.607, 2772.469
1171.089, 2770.213
1171.572, 2789.053
1172.054, 2810.411
1172.536, 2811.391
1173.018, 2801.896
1173.500, 2794.408
1173.982, 2790.201
1174.464, 2789.959
1174.946, 2794.823
1175.428, 2800.885
1175.911, 2808.043
1176.393, 2814.381
1176.875, 2816.999
1177.357, 2816.816
1177.839, 2817.637
1178.321, 2821.763
1178.803, 2810.229
1179.285, 2764.700
1179.767, 2733.893
1180.250, 2740.374
1180.732, 2766.487
1181.214, 2772.479
1181.696, 2768.331
1182.178, 2779.073
1182.660, 2819.659
1183.142, 2844.574
1183.624, 2836.455
1184.107, 2823.396
1184.589, 2818.093
1185.071, 2819.092
1185.553, 2827.760
1186.035, 2839.107
1186.517, 2836.671
1186.999, 2799.717
1187.481, 2779.684
1187.964, 2801.907
1188.446, 2825.950
1188.928, 2819.195
1189.410, 2791.024
1189.892, 2788.524
1190.374, 2805.386
1190.856, 2816.988
1191.338, 2802.558
1191.820, 2794.994
1192.302, 2807.733
1192.785, 2824.171
1193.267, 2828.012
1193.749, 2821.967
1194.231, 2822.169
1194.713, 2828.110
1195.195, 2834.275
1195.677, 2835.819
1196.159, 2839.642
1196.642, 2849.088
1197.124, 2860.514
1197.606, 2866.184
1198.088, 2868.844
1198.570, 2892.757
1199.052, 2936.598
1199.534, 2967.135
1200.016, 2952.971
1200.499, 2936.190
1200.981, 2932.440
1201.463, 2936.457
1201.945, 2940.733
1202.427, 2945.561
1202.909, 2951.710
1203.391, 2959.425
1203.873, 2972.514
1204.355, 3003.974
1204.838, 3028.842
1205.320, 3031.765
1205.802, 3024.654
1206.284, 3032.206
1206.766, 3052.627
1207.248, 3072.738
1207.730, 3089.490
1208.212, 3119.202
1208.694, 3182.501
1209.177, 3249.618
1209.659, 3303.608
1210.141, 3350.914
1210.623, 3405.619
1211.105, 3468.847
1211.587, 3547.085
1212.069, 3643.825
1212.551, 3741.193
1213.034, 3821.263
1213.516, 3909.015
1213.998, 4019.126
1214.480, 4146.550
1214.962, 4271.816
1215.444, 4393.853
1215.926, 4502.794
1216.408, 4589.472
1216.891, 4689.425
1217.373, 4843.791
1217.855, 4996.154
1218.337, 5117.213
1218.819, 5207.515
1219.301, 5267.893
1219.783, 5298.770
1220.265, 5295.617
1220.747, 5250.957
1221.229, 5189.468
1221.712, 5132.614
1222.194, 5051.434
1222.676, 4919.159
1223.158, 4747.916
1223.640, 4598.584
1224.122, 4466.891
1224.604, 4331.281
1225.086, 4172.670
1225.569, 4031.028
1226.051, 3934.328
1226.533, 3850.878
1227.015, 3760.297
1227.497, 3665.343
1227.979, 3580.240
1228.461, 3505.369
1228.943, 3442.589
1229.426, 3396.537
1229.908, 3356.667
1230.390, 3327.299
1230.872, 3293.994
1231.354, 3238.971
1231.836, 3170.597
1232.318, 3136.376
1232.800, 3130.806
1233.282, 3131.243
1233.765, 3140.578
1234.247, 3135.229
1234.729, 3102.316
1235.211, 3065.102
1235.693, 3043.040
1236.175, 3032.121
1236.657, 3014.903
1237.139, 2993.776
1237.621, 2977.617
1238.104, 2977.220
1238.586, 2971.298
1239.068, 2952.632
1239.550, 2934.563
1240.032, 2934.548
1240.514, 2943.232
1240.996, 2929.651
1241.478, 2898.992
1241.960, 2873.448
1242.443, 2861.289
1242.925, 2856.362
1243.407, 2861.900
1243.889, 2865.564
1244.371, 2847.174
1244.853, 2821.779
1245.335, 2826.003
1245.817, 2852.814
1246.300, 2869.978
1246.782, 2860.755
1247.264, 2852.697
1247.746, 2848.336
1248.228, 2843.743
1248.710, 2833.855
1249.192, 2821.800
1249.674, 2810.560
1250.156, 2801.540
1250.639, 2800.651
1251.121, 2816.260
1251.603, 2821.053
1252.085, 2810.089
1252.567, 2797.654
1253.049, 2799.543
1253.531, 2806.599
1254.013, 2808.987
1254.495, 2806.299
1254.978, 2798.026
1255.460, 2780.449
1255.942, 2773.829
1256.424, 2781.978
1256.906, 2791.404
1257.388, 2789.610
1257.870, 2782.738
1258.352, 2773.268
1258.835, 2764.012
1259.317, 2764.563
1259.799, 2777.451
1260.281, 2783.528
1260.763, 2780.442
1261.245, 2771.610
1261.727, 2751.886
1262.209, 2735.040
1262.692, 2733.878
1263.174, 2744.049
1263.656, 2756.422
1264.138, 2771.231
1264.620, 2775.124
1265.102, 2766.343
1265.584, 2754.427
1266.066, 2738.112
1266.548, 2729.755
1267.031, 2742.675
1267.513, 2765.030
1267.995, 2774.033
1268.477, 2771.658
1268.959, 2779.683
1269.441, 2800.341
1269.923, 2813.242
1270.405, 2797.885
1270.887, 2782.222
1271.370, 2775.868
1271.852, 2776.250
1272.334, 2782.280
1272.816, 2791.240
1273.298, 2790.569
1273.780, 2779.762
1274.262, 2773.581
1274.744, 2785.242
1275.227, 2792.803
1275.709, 2790.442
1276.191, 2783.567
1276.673, 2779.573
1277.155, 2777.292
1277.637, 2773.659
1278.119, 2768.709
1278.601, 2766.401
1279.083, 2769.436
1279.566, 2771.826
1280.048, 2773.298
1280.530, 2771.237
1281.012, 2758.460
1281.494, 2742.605
1281.976, 2733.237
1282.458, 2731.001
1282.940, 2733.457
1283.422, 2742.480
1283.905, 2746.226
1284.387, 2741.475
1284.869, 2738.182
1285.351, 2752.323
1285.833, 2767.809
1286.315, 2767.918
1286.797, 2754.961
1287.279, 2742.264
1287.762, 2729.072
1288.244, 2727.460
1288.726, 2739.878
1289.208, 2752.454
1289.690, 2755.443
1290.172, 2753.454
1290.654, 2747.448
1291.136, 2739.415
##END=



