##NAMES=Nordenskioldine
##RRUFFID=R130017
##IDEAL CHEMISTRY=CaSn^4+^(BO_3_)_2_
##LOCALITY=Brooks Mountain, Seward Peninsula, Nome Borough, Alaska, USA
##OWNER=RRUFF
##SOURCE=Robert Lavinsky
##DESCRIPTION=Colorless to tan sheaf, associated with diopside, vesuvianite, and hulsite, R130016
##STATUS=The identification of this mineral has been confirmed by single-crystal X-ray diffraction.
##URL=rruff.info/R130017
8.975323e+001, 0.000000e+000
9.023535e+001, 2.371493e+002
9.071747e+001, 2.395680e+002
9.119958e+001, 2.395260e+002
9.168170e+001, 2.391692e+002
9.216382e+001, 2.368698e+002
9.264594e+001, 2.334639e+002
9.312805e+001, 2.300329e+002
9.361017e+001, 2.267666e+002
9.409229e+001, 2.225678e+002
9.457440e+001, 2.164609e+002
9.505651e+001, 2.110905e+002
9.553863e+001, 2.068437e+002
9.602074e+001, 2.032154e+002
9.650286e+001, 1.997420e+002
9.698498e+001, 1.960854e+002
9.746709e+001, 1.920171e+002
9.794921e+001, 1.885098e+002
9.843133e+001, 1.857671e+002
9.891344e+001, 1.831946e+002
9.939556e+001, 1.805257e+002
9.987768e+001, 1.778253e+002
1.003598e+002, 1.753820e+002
1.008419e+002, 1.733972e+002
1.013240e+002, 1.717977e+002
1.018061e+002, 1.701631e+002
1.022883e+002, 1.684563e+002
1.027704e+002, 1.667060e+002
1.032525e+002, 1.648695e+002
1.037346e+002, 1.628745e+002
1.042167e+002, 1.610678e+002
1.046988e+002, 1.597226e+002
1.051810e+002, 1.586622e+002
1.056631e+002, 1.576848e+002
1.061452e+002, 1.568180e+002
1.066273e+002, 1.559769e+002
1.071094e+002, 1.547627e+002
1.075915e+002, 1.527161e+002
1.080737e+002, 1.508438e+002
1.085558e+002, 1.496126e+002
1.090379e+002, 1.488848e+002
1.095200e+002, 1.483081e+002
1.100021e+002, 1.475354e+002
1.104842e+002, 1.464756e+002
1.109664e+002, 1.457230e+002
1.114485e+002, 1.455583e+002
1.119306e+002, 1.454444e+002
1.124127e+002, 1.451329e+002
1.128948e+002, 1.445905e+002
1.133769e+002, 1.439365e+002
1.138591e+002, 1.433467e+002
1.143412e+002, 1.428653e+002
1.148233e+002, 1.423625e+002
1.153054e+002, 1.419232e+002
1.157875e+002, 1.414245e+002
1.162696e+002, 1.407560e+002
1.167517e+002, 1.398770e+002
1.172339e+002, 1.387988e+002
1.177160e+002, 1.374483e+002
1.181981e+002, 1.354420e+002
1.186802e+002, 1.339484e+002
1.191623e+002, 1.335511e+002
1.196444e+002, 1.339668e+002
1.201266e+002, 1.344713e+002
1.206087e+002, 1.349007e+002
1.210908e+002, 1.350669e+002
1.215729e+002, 1.347278e+002
1.220550e+002, 1.337246e+002
1.225371e+002, 1.324904e+002
1.230193e+002, 1.313414e+002
1.235014e+002, 1.302694e+002
1.239835e+002, 1.293281e+002
1.244656e+002, 1.286680e+002
1.249477e+002, 1.281177e+002
1.254298e+002, 1.275021e+002
1.259120e+002, 1.267100e+002
1.263941e+002, 1.258933e+002
1.268762e+002, 1.254669e+002
1.273583e+002, 1.258212e+002
1.278404e+002, 1.259009e+002
1.283225e+002, 1.252044e+002
1.288047e+002, 1.241266e+002
1.292868e+002, 1.232063e+002
1.297689e+002, 1.228111e+002
1.302510e+002, 1.228946e+002
1.307331e+002, 1.227738e+002
1.312152e+002, 1.224401e+002
1.316974e+002, 1.218913e+002
1.321795e+002, 1.209030e+002
1.326616e+002, 1.196587e+002
1.331437e+002, 1.185747e+002
1.336258e+002, 1.180385e+002
1.341079e+002, 1.181680e+002
1.345901e+002, 1.180795e+002
1.350722e+002, 1.175786e+002
1.355543e+002, 1.170592e+002
1.360364e+002, 1.168724e+002
1.365185e+002, 1.170031e+002
1.370006e+002, 1.170176e+002
1.374828e+002, 1.163366e+002
1.379649e+002, 1.147444e+002
1.384470e+002, 1.135693e+002
1.389291e+002, 1.130305e+002
1.394112e+002, 1.128836e+002
1.398933e+002, 1.129598e+002
1.403755e+002, 1.132997e+002
1.408576e+002, 1.135606e+002
1.413397e+002, 1.131710e+002
1.418218e+002, 1.121958e+002
1.423039e+002, 1.112728e+002
1.427860e+002, 1.106434e+002
1.432681e+002, 1.102709e+002
1.437503e+002, 1.100305e+002
1.442324e+002, 1.099529e+002
1.447145e+002, 1.099469e+002
1.451966e+002, 1.099599e+002
1.456787e+002, 1.099881e+002
1.461608e+002, 1.099422e+002
1.466430e+002, 1.097339e+002
1.471251e+002, 1.093513e+002
1.476072e+002, 1.089161e+002
1.480893e+002, 1.082784e+002
1.485714e+002, 1.077005e+002
1.490535e+002, 1.073780e+002
1.495357e+002, 1.073424e+002
1.500178e+002, 1.074091e+002
1.504999e+002, 1.072972e+002
1.509820e+002, 1.069027e+002
1.514641e+002, 1.065477e+002
1.519462e+002, 1.063722e+002
1.524284e+002, 1.061829e+002
1.529105e+002, 1.057758e+002
1.533926e+002, 1.050850e+002
1.538747e+002, 1.042603e+002
1.543568e+002, 1.036770e+002
1.548389e+002, 1.035150e+002
1.553211e+002, 1.034182e+002
1.558032e+002, 1.034512e+002
1.562853e+002, 1.035145e+002
1.567674e+002, 1.035021e+002
1.572495e+002, 1.033625e+002
1.577316e+002, 1.031028e+002
1.582138e+002, 1.027395e+002
1.586959e+002, 1.021691e+002
1.591780e+002, 1.016263e+002
1.596601e+002, 1.011417e+002
1.601422e+002, 1.007253e+002
1.606243e+002, 1.004024e+002
1.611065e+002, 1.001993e+002
1.615886e+002, 1.001022e+002
1.620707e+002, 1.000238e+002
1.625528e+002, 9.994141e+001
1.630349e+002, 9.989628e+001
1.635170e+002, 9.997115e+001
1.639991e+002, 1.001472e+002
1.644813e+002, 1.002393e+002
1.649634e+002, 1.001540e+002
1.654455e+002, 9.988137e+001
1.659276e+002, 9.941726e+001
1.664097e+002, 9.852628e+001
1.668918e+002, 9.762568e+001
1.673740e+002, 9.729400e+001
1.678561e+002, 9.766502e+001
1.683382e+002, 9.797044e+001
1.688203e+002, 9.757664e+001
1.693024e+002, 9.689067e+001
1.697845e+002, 9.641055e+001
1.702667e+002, 9.640051e+001
1.707488e+002, 9.666560e+001
1.712309e+002, 9.676057e+001
1.717130e+002, 9.662739e+001
1.721951e+002, 9.641535e+001
1.726772e+002, 9.612124e+001
1.731594e+002, 9.581094e+001
1.736415e+002, 9.557973e+001
1.741236e+002, 9.549282e+001
1.746057e+002, 9.553054e+001
1.750878e+002, 9.557517e+001
1.755699e+002, 9.562756e+001
1.760521e+002, 9.568871e+001
1.765342e+002, 9.588904e+001
1.770163e+002, 9.609380e+001
1.774984e+002, 9.604609e+001
1.779805e+002, 9.550902e+001
1.784626e+002, 9.447527e+001
1.789448e+002, 9.378458e+001
1.794269e+002, 9.372755e+001
1.799090e+002, 9.372268e+001
1.803911e+002, 9.358454e+001
1.808732e+002, 9.334988e+001
1.813553e+002, 9.316286e+001
1.818375e+002, 9.315357e+001
1.823196e+002, 9.334543e+001
1.828017e+002, 9.348801e+001
1.832838e+002, 9.371757e+001
1.837659e+002, 9.379561e+001
1.842480e+002, 9.345448e+001
1.847301e+002, 9.277583e+001
1.852123e+002, 9.218198e+001
1.856944e+002, 9.210569e+001
1.861765e+002, 9.264598e+001
1.866586e+002, 9.288978e+001
1.871407e+002, 9.259343e+001
1.876228e+002, 9.218539e+001
1.881050e+002, 9.199248e+001
1.885871e+002, 9.204665e+001
1.890692e+002, 9.214930e+001
1.895513e+002, 9.212117e+001
1.900334e+002, 9.196095e+001
1.905155e+002, 9.175452e+001
1.909977e+002, 9.140008e+001
1.914798e+002, 9.105532e+001
1.919619e+002, 9.090929e+001
1.924440e+002, 9.099965e+001
1.929261e+002, 9.120477e+001
1.934082e+002, 9.153609e+001
1.938904e+002, 9.192825e+001
1.943725e+002, 9.211213e+001
1.948546e+002, 9.190051e+001
1.953367e+002, 9.144267e+001
1.958188e+002, 9.098235e+001
1.963009e+002, 9.045626e+001
1.967831e+002, 9.012241e+001
1.972652e+002, 9.028044e+001
1.977473e+002, 9.077649e+001
1.982294e+002, 9.122727e+001
1.987115e+002, 9.129142e+001
1.991936e+002, 9.111227e+001
1.996758e+002, 9.136840e+001
2.001579e+002, 9.248467e+001
2.006400e+002, 9.346230e+001
2.011221e+002, 9.362411e+001
2.016042e+002, 9.322481e+001
2.020863e+002, 9.289526e+001
2.025685e+002, 9.306584e+001
2.030506e+002, 9.371446e+001
2.035327e+002, 9.447881e+001
2.040148e+002, 9.540320e+001
2.044969e+002, 9.641069e+001
2.049790e+002, 9.751046e+001
2.054612e+002, 9.866588e+001
2.059433e+002, 9.980440e+001
2.064254e+002, 1.008266e+002
2.069075e+002, 1.017159e+002
2.073896e+002, 1.028118e+002
2.078717e+002, 1.041115e+002
2.083539e+002, 1.056401e+002
2.088360e+002, 1.073636e+002
2.093181e+002, 1.093206e+002
2.098002e+002, 1.116019e+002
2.102823e+002, 1.143151e+002
2.107644e+002, 1.174777e+002
2.112466e+002, 1.207835e+002
2.117287e+002, 1.250414e+002
2.122108e+002, 1.286883e+002
2.126929e+002, 1.316330e+002
2.131750e+002, 1.335207e+002
2.136571e+002, 1.336108e+002
2.141393e+002, 1.310579e+002
2.146214e+002, 1.254347e+002
2.151035e+002, 1.199433e+002
2.155856e+002, 1.141477e+002
2.160677e+002, 1.088053e+002
2.165498e+002, 1.042511e+002
2.170320e+002, 1.004999e+002
2.175141e+002, 9.733595e+001
2.179962e+002, 9.458499e+001
2.184783e+002, 9.227283e+001
2.189604e+002, 9.059365e+001
2.194425e+002, 8.989297e+001
2.199247e+002, 8.945100e+001
2.204068e+002, 8.885002e+001
2.208889e+002, 8.807271e+001
2.213710e+002, 8.731564e+001
2.218531e+002, 8.673759e+001
2.223352e+002, 8.636158e+001
2.228174e+002, 8.607607e+001
2.232995e+002, 8.596832e+001
2.237816e+002, 8.588538e+001
2.242637e+002, 8.566499e+001
2.247458e+002, 8.530985e+001
2.252279e+002, 8.504272e+001
2.257100e+002, 8.513224e+001
2.261922e+002, 8.550749e+001
2.266743e+002, 8.560438e+001
2.271564e+002, 8.517477e+001
2.276385e+002, 8.458560e+001
2.281206e+002, 8.412185e+001
2.286027e+002, 8.379556e+001
2.290849e+002, 8.364062e+001
2.295670e+002, 8.381403e+001
2.300491e+002, 8.418415e+001
2.305312e+002, 8.438194e+001
2.310133e+002, 8.419931e+001
2.314954e+002, 8.389935e+001
2.319776e+002, 8.381245e+001
2.324597e+002, 8.397449e+001
2.329418e+002, 8.409576e+001
2.334239e+002, 8.386468e+001
2.339060e+002, 8.349557e+001
2.343881e+002, 8.332342e+001
2.348703e+002, 8.347691e+001
2.353524e+002, 8.382555e+001
2.358345e+002, 8.429066e+001
2.363166e+002, 8.496376e+001
2.367987e+002, 8.537592e+001
2.372808e+002, 8.500263e+001
2.377630e+002, 8.431974e+001
2.382451e+002, 8.385590e+001
2.387272e+002, 8.384995e+001
2.392093e+002, 8.402000e+001
2.396914e+002, 8.386225e+001
2.401735e+002, 8.322703e+001
2.406557e+002, 8.274621e+001
2.411378e+002, 8.279605e+001
2.416199e+002, 8.305653e+001
2.421020e+002, 8.323931e+001
2.425841e+002, 8.323983e+001
2.430662e+002, 8.314577e+001
2.435484e+002, 8.310561e+001
2.440305e+002, 8.313919e+001
2.445126e+002, 8.317433e+001
2.449947e+002, 8.317042e+001
2.454768e+002, 8.316955e+001
2.459589e+002, 8.325594e+001
2.464410e+002, 8.346886e+001
2.469232e+002, 8.364658e+001
2.474053e+002, 8.347659e+001
2.478874e+002, 8.279900e+001
2.483695e+002, 8.214529e+001
2.488516e+002, 8.151400e+001
2.493337e+002, 8.099377e+001
2.498159e+002, 8.067659e+001
2.502980e+002, 8.058701e+001
2.507801e+002, 8.064758e+001
2.512622e+002, 8.076598e+001
2.517443e+002, 8.105820e+001
2.522264e+002, 8.112770e+001
2.527086e+002, 8.071031e+001
2.531907e+002, 8.024309e+001
2.536728e+002, 8.005374e+001
2.541549e+002, 8.021696e+001
2.546370e+002, 8.055153e+001
2.551191e+002, 8.080779e+001
2.556013e+002, 8.103395e+001
2.560834e+002, 8.105261e+001
2.565655e+002, 8.058597e+001
2.570476e+002, 8.014733e+001
2.575297e+002, 8.013171e+001
2.580118e+002, 8.057945e+001
2.584940e+002, 8.119225e+001
2.589761e+002, 8.157991e+001
2.594582e+002, 8.169821e+001
2.599403e+002, 8.167567e+001
2.604224e+002, 8.131480e+001
2.609045e+002, 8.099300e+001
2.613867e+002, 8.086632e+001
2.618688e+002, 8.099193e+001
2.623509e+002, 8.143145e+001
2.628330e+002, 8.231026e+001
2.633151e+002, 8.384225e+001
2.637972e+002, 8.502629e+001
2.642794e+002, 8.555183e+001
2.647615e+002, 8.605679e+001
2.652436e+002, 8.682528e+001
2.657257e+002, 8.789832e+001
2.662078e+002, 8.921574e+001
2.666899e+002, 9.072330e+001
2.671721e+002, 9.241770e+001
2.676542e+002, 9.435000e+001
2.681363e+002, 9.631332e+001
2.686184e+002, 9.863574e+001
2.691005e+002, 1.014465e+002
2.695826e+002, 1.047521e+002
2.700648e+002, 1.084636e+002
2.705469e+002, 1.124544e+002
2.710290e+002, 1.166731e+002
2.715111e+002, 1.221857e+002
2.719932e+002, 1.286964e+002
2.724753e+002, 1.364415e+002
2.729575e+002, 1.460764e+002
2.734396e+002, 1.570957e+002
2.739217e+002, 1.686772e+002
2.744038e+002, 1.808141e+002
2.748859e+002, 1.930480e+002
2.753680e+002, 1.989534e+002
2.758501e+002, 1.987908e+002
2.763322e+002, 1.938942e+002
2.768144e+002, 1.824686e+002
2.772965e+002, 1.665705e+002
2.777786e+002, 1.501979e+002
2.782607e+002, 1.351977e+002
2.787428e+002, 1.218131e+002
2.792249e+002, 1.113103e+002
2.797071e+002, 1.041783e+002
2.801892e+002, 9.860125e+001
2.806713e+002, 9.453612e+001
2.811534e+002, 9.167498e+001
2.816355e+002, 8.961744e+001
2.821176e+002, 8.827917e+001
2.825998e+002, 8.737356e+001
2.830819e+002, 8.617947e+001
2.835640e+002, 8.441723e+001
2.840461e+002, 8.292262e+001
2.845282e+002, 8.195547e+001
2.850103e+002, 8.133401e+001
2.854925e+002, 8.080223e+001
2.859746e+002, 8.027718e+001
2.864567e+002, 7.981379e+001
2.869388e+002, 7.953271e+001
2.874209e+002, 7.950401e+001
2.879030e+002, 7.940581e+001
2.883852e+002, 7.917910e+001
2.888673e+002, 7.886118e+001
2.893494e+002, 7.843450e+001
2.898315e+002, 7.788592e+001
2.903136e+002, 7.741386e+001
2.907957e+002, 7.731828e+001
2.912779e+002, 7.766628e+001
2.917600e+002, 7.786292e+001
2.922421e+002, 7.783628e+001
2.927242e+002, 7.764025e+001
2.932063e+002, 7.726241e+001
2.936884e+002, 7.670583e+001
2.941706e+002, 7.615687e+001
2.946527e+002, 7.578786e+001
2.951348e+002, 7.560833e+001
2.956169e+002, 7.544894e+001
2.960990e+002, 7.524785e+001
2.965811e+002, 7.510603e+001
2.970633e+002, 7.521034e+001
2.975454e+002, 7.552786e+001
2.980275e+002, 7.566770e+001
2.985096e+002, 7.526299e+001
2.989917e+002, 7.442766e+001
2.994738e+002, 7.394560e+001
2.999560e+002, 7.399184e+001
3.004381e+002, 7.422433e+001
3.009202e+002, 7.464507e+001
3.014023e+002, 7.515440e+001
3.018844e+002, 7.527067e+001
3.023665e+002, 7.460004e+001
3.028487e+002, 7.346082e+001
3.033308e+002, 7.282364e+001
3.038129e+002, 7.287651e+001
3.042950e+002, 7.305449e+001
3.047771e+002, 7.318674e+001
3.052592e+002, 7.325794e+001
3.057414e+002, 7.318752e+001
3.062235e+002, 7.288634e+001
3.067056e+002, 7.253905e+001
3.071877e+002, 7.256881e+001
3.076698e+002, 7.308702e+001
3.081519e+002, 7.346355e+001
3.086341e+002, 7.340446e+001
3.091162e+002, 7.309095e+001
3.095983e+002, 7.282096e+001
3.100804e+002, 7.266895e+001
3.105625e+002, 7.257931e+001
3.110446e+002, 7.247888e+001
3.115268e+002, 7.236250e+001
3.120089e+002, 7.230022e+001
3.124910e+002, 7.238858e+001
3.129731e+002, 7.249995e+001
3.134552e+002, 7.246275e+001
3.139373e+002, 7.224815e+001
3.144195e+002, 7.198797e+001
3.149016e+002, 7.175848e+001
3.153837e+002, 7.157374e+001
3.158658e+002, 7.155794e+001
3.163479e+002, 7.186135e+001
3.168300e+002, 7.223845e+001
3.173121e+002, 7.253406e+001
3.177943e+002, 7.273486e+001
3.182764e+002, 7.277628e+001
3.187585e+002, 7.252986e+001
3.192406e+002, 7.209600e+001
3.197227e+002, 7.194003e+001
3.202048e+002, 7.239050e+001
3.206870e+002, 7.278407e+001
3.211691e+002, 7.268257e+001
3.216512e+002, 7.220244e+001
3.221333e+002, 7.173136e+001
3.226154e+002, 7.141663e+001
3.230975e+002, 7.126565e+001
3.235797e+002, 7.132545e+001
3.240618e+002, 7.171815e+001
3.245439e+002, 7.202202e+001
3.250260e+002, 7.205968e+001
3.255081e+002, 7.191227e+001
3.259902e+002, 7.171800e+001
3.264724e+002, 7.151005e+001
3.269545e+002, 7.130125e+001
3.274366e+002, 7.109024e+001
3.279187e+002, 7.085023e+001
3.284008e+002, 7.073710e+001
3.288829e+002, 7.089709e+001
3.293651e+002, 7.114529e+001
3.298472e+002, 7.125694e+001
3.303293e+002, 7.119306e+001
3.308114e+002, 7.107884e+001
3.312935e+002, 7.104948e+001
3.317756e+002, 7.111255e+001
3.322578e+002, 7.107645e+001
3.327399e+002, 7.081402e+001
3.332220e+002, 7.054240e+001
3.337041e+002, 7.042569e+001
3.341862e+002, 7.046011e+001
3.346683e+002, 7.054701e+001
3.351505e+002, 7.063608e+001
3.356326e+002, 7.071822e+001
3.361147e+002, 7.073976e+001
3.365968e+002, 7.067278e+001
3.370789e+002, 7.058367e+001
3.375610e+002, 7.040864e+001
3.380432e+002, 7.022921e+001
3.385253e+002, 7.031361e+001
3.390074e+002, 7.085540e+001
3.394895e+002, 7.157358e+001
3.399716e+002, 7.163841e+001
3.404537e+002, 7.059502e+001
3.409359e+002, 6.982885e+001
3.414180e+002, 6.980968e+001
3.419001e+002, 7.013557e+001
3.423822e+002, 7.030343e+001
3.428643e+002, 7.016944e+001
3.433464e+002, 6.987222e+001
3.438286e+002, 6.957623e+001
3.443107e+002, 6.922965e+001
3.447928e+002, 6.908241e+001
3.452749e+002, 6.924387e+001
3.457570e+002, 6.953169e+001
3.462391e+002, 6.989413e+001
3.467213e+002, 7.028245e+001
3.472034e+002, 7.052870e+001
3.476855e+002, 7.044530e+001
3.481676e+002, 7.000788e+001
3.486497e+002, 6.977235e+001
3.491318e+002, 6.982201e+001
3.496140e+002, 6.995143e+001
3.500961e+002, 7.009273e+001
3.505782e+002, 7.024538e+001
3.510603e+002, 7.043930e+001
3.515424e+002, 7.070039e+001
3.520245e+002, 7.099499e+001
3.525067e+002, 7.117645e+001
3.529888e+002, 7.113303e+001
3.534709e+002, 7.111522e+001
3.539530e+002, 7.109884e+001
3.544351e+002, 7.114425e+001
3.549172e+002, 7.140221e+001
3.553994e+002, 7.191199e+001
3.558815e+002, 7.242736e+001
3.563636e+002, 7.251440e+001
3.568457e+002, 7.185896e+001
3.573278e+002, 7.139548e+001
3.578099e+002, 7.111065e+001
3.582920e+002, 7.100481e+001
3.587741e+002, 7.116167e+001
3.592563e+002, 7.153599e+001
3.597384e+002, 7.193126e+001
3.602205e+002, 7.215443e+001
3.607026e+002, 7.218621e+001
3.611847e+002, 7.222871e+001
3.616668e+002, 7.224618e+001
3.621490e+002, 7.230986e+001
3.626311e+002, 7.245086e+001
3.631132e+002, 7.265611e+001
3.635953e+002, 7.289963e+001
3.640774e+002, 7.316767e+001
3.645595e+002, 7.345669e+001
3.650417e+002, 7.375305e+001
3.655238e+002, 7.407841e+001
3.660059e+002, 7.437923e+001
3.664880e+002, 7.468380e+001
3.669701e+002, 7.494451e+001
3.674522e+002, 7.506712e+001
3.679344e+002, 7.503490e+001
3.684165e+002, 7.499608e+001
3.688986e+002, 7.521389e+001
3.693807e+002, 7.583213e+001
3.698628e+002, 7.631379e+001
3.703449e+002, 7.645114e+001
3.708271e+002, 7.661649e+001
3.713092e+002, 7.705119e+001
3.717913e+002, 7.772346e+001
3.722734e+002, 7.841523e+001
3.727555e+002, 7.888838e+001
3.732376e+002, 7.915591e+001
3.737198e+002, 7.969823e+001
3.742019e+002, 8.072859e+001
3.746840e+002, 8.179211e+001
3.751661e+002, 8.266648e+001
3.756482e+002, 8.348888e+001
3.761303e+002, 8.446301e+001
3.766125e+002, 8.569548e+001
3.770946e+002, 8.713280e+001
3.775767e+002, 8.863697e+001
3.780588e+002, 9.014046e+001
3.785409e+002, 9.191050e+001
3.790230e+002, 9.414520e+001
3.795052e+002, 9.659600e+001
3.799873e+002, 9.906257e+001
3.804694e+002, 1.015068e+002
3.809515e+002, 1.040976e+002
3.814336e+002, 1.069181e+002
3.819157e+002, 1.099764e+002
3.823979e+002, 1.134964e+002
3.828800e+002, 1.176600e+002
3.833621e+002, 1.221540e+002
3.838442e+002, 1.266181e+002
3.843263e+002, 1.311444e+002
3.848084e+002, 1.362006e+002
3.852906e+002, 1.422090e+002
3.857727e+002, 1.488423e+002
3.862548e+002, 1.556988e+002
3.867369e+002, 1.630957e+002
3.872190e+002, 1.694941e+002
3.877011e+002, 1.740387e+002
3.881833e+002, 1.769911e+002
3.886654e+002, 1.786036e+002
3.891475e+002, 1.791323e+002
3.896296e+002, 1.779409e+002
3.901117e+002, 1.741526e+002
3.905938e+002, 1.679416e+002
3.910760e+002, 1.606477e+002
3.915581e+002, 1.522709e+002
3.920402e+002, 1.435062e+002
3.925223e+002, 1.351355e+002
3.930044e+002, 1.270968e+002
3.934865e+002, 1.198013e+002
3.939687e+002, 1.134424e+002
3.944508e+002, 1.079315e+002
3.949329e+002, 1.032820e+002
3.954150e+002, 9.948366e+001
3.958971e+002, 9.625285e+001
3.963792e+002, 9.335415e+001
3.968614e+002, 9.082487e+001
3.973435e+002, 8.869712e+001
3.978256e+002, 8.704536e+001
3.983077e+002, 8.570869e+001
3.987898e+002, 8.464836e+001
3.992719e+002, 8.382434e+001
3.997540e+002, 8.314137e+001
4.002361e+002, 8.258666e+001
4.007183e+002, 8.208649e+001
4.012004e+002, 8.141655e+001
4.016825e+002, 8.041222e+001
4.021646e+002, 7.955075e+001
4.026467e+002, 7.898659e+001
4.031288e+002, 7.857463e+001
4.036110e+002, 7.813410e+001
4.040931e+002, 7.763099e+001
4.045752e+002, 7.719334e+001
4.050573e+002, 7.700063e+001
4.055394e+002, 7.714590e+001
4.060215e+002, 7.706560e+001
4.065037e+002, 7.650136e+001
4.069858e+002, 7.598775e+001
4.074679e+002, 7.584204e+001
4.079500e+002, 7.596797e+001
4.084321e+002, 7.606393e+001
4.089142e+002, 7.592970e+001
4.093964e+002, 7.564651e+001
4.098785e+002, 7.558979e+001
4.103606e+002, 7.598289e+001
4.108427e+002, 7.632583e+001
4.113248e+002, 7.652657e+001
4.118069e+002, 7.668682e+001
4.122891e+002, 7.689531e+001
4.127712e+002, 7.717879e+001
4.132533e+002, 7.752257e+001
4.137354e+002, 7.792316e+001
4.142175e+002, 7.841225e+001
4.146996e+002, 7.883692e+001
4.151818e+002, 7.910162e+001
4.156639e+002, 7.938792e+001
4.161460e+002, 7.984148e+001
4.166281e+002, 8.037837e+001
4.171102e+002, 8.076965e+001
4.175923e+002, 8.082019e+001
4.180745e+002, 8.066795e+001
4.185566e+002, 8.078873e+001
4.190387e+002, 8.123780e+001
4.195208e+002, 8.184618e+001
4.200029e+002, 8.263047e+001
4.204850e+002, 8.349857e+001
4.209672e+002, 8.438683e+001
4.214493e+002, 8.528113e+001
4.219314e+002, 8.613789e+001
4.224135e+002, 8.679407e+001
4.228956e+002, 8.727494e+001
4.233777e+002, 8.817464e+001
4.238599e+002, 8.985838e+001
4.243420e+002, 9.159864e+001
4.248241e+002, 9.265927e+001
4.253062e+002, 9.326482e+001
4.257883e+002, 9.425419e+001
4.262704e+002, 9.622498e+001
4.267526e+002, 9.867296e+001
4.272347e+002, 1.007576e+002
4.277168e+002, 1.024527e+002
4.281989e+002, 1.043903e+002
4.286810e+002, 1.068491e+002
4.291631e+002, 1.098243e+002
4.296453e+002, 1.131172e+002
4.301274e+002, 1.166740e+002
4.306095e+002, 1.206781e+002
4.310916e+002, 1.253204e+002
4.315737e+002, 1.304387e+002
4.320558e+002, 1.357567e+002
4.325380e+002, 1.411823e+002
4.330201e+002, 1.467586e+002
4.335022e+002, 1.523756e+002
4.339843e+002, 1.579481e+002
4.344664e+002, 1.647199e+002
4.349485e+002, 1.728759e+002
4.354307e+002, 1.821208e+002
4.359128e+002, 1.922798e+002
4.363949e+002, 2.033328e+002
4.368770e+002, 2.151561e+002
4.373591e+002, 2.275510e+002
4.378412e+002, 2.408822e+002
4.383234e+002, 2.563791e+002
4.388055e+002, 2.746909e+002
4.392876e+002, 2.944762e+002
4.397697e+002, 3.150146e+002
4.402518e+002, 3.372886e+002
4.407339e+002, 3.620175e+002
4.412160e+002, 3.893020e+002
4.416982e+002, 4.191729e+002
4.421803e+002, 4.514430e+002
4.426624e+002, 4.861753e+002
4.431445e+002, 5.234427e+002
4.436266e+002, 5.639618e+002
4.441087e+002, 6.062404e+002
4.445909e+002, 6.513181e+002
4.450730e+002, 6.973027e+002
4.455551e+002, 7.431498e+002
4.460372e+002, 7.885854e+002
4.465193e+002, 8.301396e+002
4.470014e+002, 8.608401e+002
4.474836e+002, 8.814109e+002
4.479657e+002, 8.886946e+002
4.484478e+002, 8.806635e+002
4.489299e+002, 8.599288e+002
4.494120e+002, 8.250817e+002
4.498941e+002, 7.771663e+002
4.503763e+002, 7.222344e+002
4.508584e+002, 6.615229e+002
4.513405e+002, 5.969371e+002
4.518226e+002, 5.379401e+002
4.523047e+002, 4.851119e+002
4.527868e+002, 4.375363e+002
4.532690e+002, 3.956364e+002
4.537511e+002, 3.585014e+002
4.542332e+002, 3.255970e+002
4.547153e+002, 2.972423e+002
4.551974e+002, 2.725539e+002
4.556795e+002, 2.511156e+002
4.561617e+002, 2.327991e+002
4.566438e+002, 2.167600e+002
4.571259e+002, 2.029284e+002
4.576080e+002, 1.909300e+002
4.580901e+002, 1.806335e+002
4.585722e+002, 1.719646e+002
4.590544e+002, 1.639590e+002
4.595365e+002, 1.563591e+002
4.600186e+002, 1.494586e+002
4.605007e+002, 1.436729e+002
4.609828e+002, 1.389016e+002
4.614649e+002, 1.345867e+002
4.619471e+002, 1.303878e+002
4.624292e+002, 1.263497e+002
4.629113e+002, 1.225662e+002
4.633934e+002, 1.190217e+002
4.638755e+002, 1.157286e+002
4.643576e+002, 1.126530e+002
4.648398e+002, 1.098170e+002
4.653219e+002, 1.072884e+002
4.658040e+002, 1.050501e+002
4.662861e+002, 1.030070e+002
4.667682e+002, 1.010779e+002
4.672503e+002, 9.926386e+001
4.677325e+002, 9.739868e+001
4.682146e+002, 9.504501e+001
4.686967e+002, 9.311419e+001
4.691788e+002, 9.221517e+001
4.696609e+002, 9.180419e+001
4.701430e+002, 9.105843e+001
4.706252e+002, 8.960584e+001
4.711073e+002, 8.783054e+001
4.715894e+002, 8.644836e+001
4.720715e+002, 8.559242e+001
4.725536e+002, 8.454916e+001
4.730357e+002, 8.291123e+001
4.735179e+002, 8.133030e+001
4.740000e+002, 8.015097e+001
4.744821e+002, 7.936510e+001
4.749642e+002, 7.881006e+001
4.754463e+002, 7.854471e+001
4.759284e+002, 7.839799e+001
4.764106e+002, 7.796821e+001
4.768927e+002, 7.722079e+001
4.773748e+002, 7.641069e+001
4.778569e+002, 7.557338e+001
4.783390e+002, 7.479093e+001
4.788211e+002, 7.418887e+001
4.793033e+002, 7.379739e+001
4.797854e+002, 7.349584e+001
4.802675e+002, 7.338996e+001
4.807496e+002, 7.329161e+001
4.812317e+002, 7.274797e+001
4.817138e+002, 7.165876e+001
4.821959e+002, 7.059398e+001
4.826780e+002, 7.008422e+001
4.831602e+002, 7.013095e+001
4.836423e+002, 7.005876e+001
4.841244e+002, 6.979337e+001
4.846065e+002, 6.949831e+001
4.850886e+002, 6.924174e+001
4.855707e+002, 6.899893e+001
4.860529e+002, 6.869716e+001
4.865350e+002, 6.830980e+001
4.870171e+002, 6.793818e+001
4.874992e+002, 6.777531e+001
4.879813e+002, 6.798796e+001
4.884634e+002, 6.794147e+001
4.889456e+002, 6.744595e+001
4.894277e+002, 6.691909e+001
4.899098e+002, 6.656729e+001
4.903919e+002, 6.635014e+001
4.908740e+002, 6.612514e+001
4.913561e+002, 6.579807e+001
4.918383e+002, 6.543494e+001
4.923204e+002, 6.523434e+001
4.928025e+002, 6.526656e+001
4.932846e+002, 6.526850e+001
4.937667e+002, 6.516281e+001
4.942488e+002, 6.502511e+001
4.947310e+002, 6.488255e+001
4.952131e+002, 6.474644e+001
4.956952e+002, 6.465381e+001
4.961773e+002, 6.475179e+001
4.966594e+002, 6.490379e+001
4.971415e+002, 6.464066e+001
4.976237e+002, 6.383974e+001
4.981058e+002, 6.316660e+001
4.985879e+002, 6.308672e+001
4.990700e+002, 6.333204e+001
4.995521e+002, 6.336449e+001
5.000342e+002, 6.306370e+001
5.005164e+002, 6.277922e+001
5.009985e+002, 6.270940e+001
5.014806e+002, 6.276489e+001
5.019627e+002, 6.279808e+001
5.024448e+002, 6.277942e+001
5.029269e+002, 6.271873e+001
5.034091e+002, 6.262264e+001
5.038912e+002, 6.248895e+001
5.043733e+002, 6.233734e+001
5.048554e+002, 6.202525e+001
5.053375e+002, 6.185491e+001
5.058196e+002, 6.211303e+001
5.063018e+002, 6.252840e+001
5.067839e+002, 6.267675e+001
5.072660e+002, 6.240998e+001
5.077481e+002, 6.191842e+001
5.082302e+002, 6.146171e+001
5.087123e+002, 6.098449e+001
5.091945e+002, 6.074215e+001
5.096766e+002, 6.089552e+001
5.101587e+002, 6.112455e+001
5.106408e+002, 6.143796e+001
5.111229e+002, 6.172112e+001
5.116050e+002, 6.176628e+001
5.120872e+002, 6.144064e+001
5.125693e+002, 6.092411e+001
5.130514e+002, 6.045906e+001
5.135335e+002, 6.000534e+001
5.140156e+002, 5.993647e+001
5.144977e+002, 6.072444e+001
5.149799e+002, 6.152979e+001
5.154620e+002, 6.156463e+001
5.159441e+002, 6.093628e+001
5.164262e+002, 6.040120e+001
5.169083e+002, 6.035160e+001
5.173904e+002, 6.052245e+001
5.178726e+002, 6.063113e+001
5.183547e+002, 6.066646e+001
5.188368e+002, 6.054781e+001
5.193189e+002, 6.017559e+001
5.198010e+002, 5.969867e+001
5.202831e+002, 5.947904e+001
5.207653e+002, 5.958063e+001
5.212474e+002, 5.968447e+001
5.217295e+002, 5.971635e+001
5.222116e+002, 5.974378e+001
5.226937e+002, 5.989621e+001
5.231758e+002, 6.012796e+001
5.236580e+002, 6.018917e+001
5.241401e+002, 5.986591e+001
5.246222e+002, 5.926971e+001
5.251043e+002, 5.898444e+001
5.255864e+002, 5.937873e+001
5.260685e+002, 5.956383e+001
5.265507e+002, 5.922857e+001
5.270328e+002, 5.882720e+001
5.275149e+002, 5.882692e+001
5.279970e+002, 5.921364e+001
5.284791e+002, 5.950982e+001
5.289612e+002, 5.916682e+001
5.294434e+002, 5.834787e+001
5.299255e+002, 5.813765e+001
5.304076e+002, 5.886834e+001
5.308897e+002, 5.943712e+001
5.313718e+002, 5.917612e+001
5.318539e+002, 5.860244e+001
5.323361e+002, 5.821720e+001
5.328182e+002, 5.810514e+001
5.333003e+002, 5.810646e+001
5.337824e+002, 5.820464e+001
5.342645e+002, 5.832447e+001
5.347466e+002, 5.826921e+001
5.352288e+002, 5.800096e+001
5.357109e+002, 5.773222e+001
5.361930e+002, 5.762454e+001
5.366751e+002, 5.765614e+001
5.371572e+002, 5.767259e+001
5.376393e+002, 5.769118e+001
5.381215e+002, 5.767527e+001
5.386036e+002, 5.755092e+001
5.390857e+002, 5.741520e+001
5.395678e+002, 5.744760e+001
5.400499e+002, 5.765696e+001
5.405320e+002, 5.780209e+001
5.410142e+002, 5.758958e+001
5.414963e+002, 5.700026e+001
5.419784e+002, 5.671002e+001
5.424604e+002, 5.710934e+001
5.429426e+002, 5.735017e+001
5.434247e+002, 5.709241e+001
5.439068e+002, 5.667125e+001
5.443889e+002, 5.650103e+001
5.448710e+002, 5.668296e+001
5.453531e+002, 5.693118e+001
5.458353e+002, 5.690730e+001
5.463174e+002, 5.663893e+001
5.467995e+002, 5.646021e+001
5.472816e+002, 5.641250e+001
5.477637e+002, 5.640443e+001
5.482458e+002, 5.639801e+001
5.487280e+002, 5.639018e+001
5.492101e+002, 5.638338e+001
5.496922e+002, 5.640701e+001
5.501743e+002, 5.637000e+001
5.506564e+002, 5.610219e+001
5.511385e+002, 5.575257e+001
5.516207e+002, 5.570685e+001
5.521028e+002, 5.605396e+001
5.525849e+002, 5.636291e+001
5.530670e+002, 5.615407e+001
5.535491e+002, 5.542498e+001
5.540313e+002, 5.524677e+001
5.545134e+002, 5.628837e+001
5.549955e+002, 5.699610e+001
5.554776e+002, 5.669754e+001
5.559597e+002, 5.594390e+001
5.564418e+002, 5.537649e+001
5.569240e+002, 5.517749e+001
5.574061e+002, 5.520123e+001
5.578882e+002, 5.531469e+001
5.583703e+002, 5.552309e+001
5.588524e+002, 5.565203e+001
5.593345e+002, 5.567802e+001
5.598167e+002, 5.564949e+001
5.602988e+002, 5.556105e+001
5.607809e+002, 5.544395e+001
5.612630e+002, 5.533594e+001
5.617451e+002, 5.524745e+001
5.622272e+002, 5.515749e+001
5.627094e+002, 5.501765e+001
5.631915e+002, 5.485944e+001
5.636736e+002, 5.481818e+001
5.641557e+002, 5.493752e+001
5.646378e+002, 5.502826e+001
5.651199e+002, 5.495205e+001
5.656021e+002, 5.473107e+001
5.660842e+002, 5.448939e+001
5.665663e+002, 5.406641e+001
5.670484e+002, 5.385021e+001
5.675305e+002, 5.412841e+001
5.680126e+002, 5.461300e+001
5.684948e+002, 5.499047e+001
5.689769e+002, 5.518460e+001
5.694590e+002, 5.519692e+001
5.699411e+002, 5.499046e+001
5.704232e+002, 5.458666e+001
5.709053e+002, 5.441624e+001
5.713875e+002, 5.479763e+001
5.718696e+002, 5.498310e+001
5.723517e+002, 5.470215e+001
5.728338e+002, 5.428121e+001
5.733159e+002, 5.400484e+001
5.737980e+002, 5.392355e+001
5.742802e+002, 5.393876e+001
5.747623e+002, 5.398556e+001
5.752444e+002, 5.405985e+001
5.757265e+002, 5.415084e+001
5.762086e+002, 5.426565e+001
5.766907e+002, 5.436657e+001
5.771729e+002, 5.443142e+001
5.776550e+002, 5.447244e+001
5.781371e+002, 5.452575e+001
5.786192e+002, 5.461200e+001
5.791013e+002, 5.461915e+001
5.795834e+002, 5.437082e+001
5.800656e+002, 5.410059e+001
5.805477e+002, 5.418091e+001
5.810298e+002, 5.456362e+001
5.815119e+002, 5.476947e+001
5.819940e+002, 5.446014e+001
5.824761e+002, 5.381781e+001
5.829583e+002, 5.346556e+001
5.834404e+002, 5.363555e+001
5.839225e+002, 5.375360e+001
5.844046e+002, 5.383748e+001
5.848867e+002, 5.384656e+001
5.853688e+002, 5.369585e+001
5.858510e+002, 5.344021e+001
5.863331e+002, 5.324885e+001
5.868152e+002, 5.325135e+001
5.872973e+002, 5.333921e+001
5.877794e+002, 5.322853e+001
5.882615e+002, 5.287426e+001
5.887437e+002, 5.263633e+001
5.892258e+002, 5.267536e+001
5.897079e+002, 5.277770e+001
5.901900e+002, 5.273970e+001
5.906721e+002, 5.258140e+001
5.911542e+002, 5.242899e+001
5.916364e+002, 5.232463e+001
5.921185e+002, 5.223871e+001
5.926006e+002, 5.213705e+001
5.930827e+002, 5.203390e+001
5.935648e+002, 5.199516e+001
5.940469e+002, 5.205297e+001
5.945291e+002, 5.209552e+001
5.950112e+002, 5.194048e+001
5.954933e+002, 5.149498e+001
5.959754e+002, 5.128234e+001
5.964575e+002, 5.156267e+001
5.969396e+002, 5.175206e+001
5.974218e+002, 5.154986e+001
5.979039e+002, 5.116334e+001
5.983860e+002, 5.088295e+001
5.988681e+002, 5.080948e+001
5.993502e+002, 5.087168e+001
5.998323e+002, 5.104425e+001
6.003145e+002, 5.131846e+001
6.007966e+002, 5.141799e+001
6.012787e+002, 5.126006e+001
6.017608e+002, 5.107698e+001
6.022429e+002, 5.099937e+001
6.027250e+002, 5.098101e+001
6.032072e+002, 5.095504e+001
6.036893e+002, 5.090429e+001
6.041714e+002, 5.087211e+001
6.046535e+002, 5.089612e+001
6.051356e+002, 5.094485e+001
6.056177e+002, 5.099725e+001
6.060999e+002, 5.104070e+001
6.065820e+002, 5.099208e+001
6.070641e+002, 5.076372e+001
6.075462e+002, 5.042553e+001
6.080283e+002, 5.030019e+001
6.085104e+002, 5.073951e+001
6.089926e+002, 5.088459e+001
6.094747e+002, 5.031506e+001
6.099568e+002, 4.976661e+001
6.104389e+002, 4.992436e+001
6.109210e+002, 5.061365e+001
6.114031e+002, 5.107307e+001
6.118853e+002, 5.074989e+001
6.123674e+002, 5.002358e+001
6.128495e+002, 4.968870e+001
6.133316e+002, 4.977229e+001
6.138137e+002, 4.993491e+001
6.142958e+002, 5.019182e+001
6.147780e+002, 5.037263e+001
6.152601e+002, 5.023023e+001
6.157422e+002, 4.982650e+001
6.162243e+002, 4.953753e+001
6.167064e+002, 4.956455e+001
6.171885e+002, 4.960490e+001
6.176707e+002, 4.932597e+001
6.181528e+002, 4.894517e+001
6.186349e+002, 4.899924e+001
6.191170e+002, 4.962986e+001
6.195991e+002, 5.032751e+001
6.200812e+002, 5.045556e+001
6.205634e+002, 4.995934e+001
6.210455e+002, 4.973407e+001
6.215276e+002, 5.011489e+001
6.220097e+002, 5.035926e+001
6.224918e+002, 5.024908e+001
6.229739e+002, 4.996769e+001
6.234561e+002, 4.966311e+001
6.239382e+002, 4.937983e+001
6.244203e+002, 4.917361e+001
6.249023e+002, 4.911938e+001
6.253845e+002, 4.917373e+001
6.258666e+002, 4.921236e+001
6.263487e+002, 4.922731e+001
6.268308e+002, 4.930727e+001
6.273129e+002, 4.953713e+001
6.277950e+002, 4.981360e+001
6.282772e+002, 4.992980e+001
6.287593e+002, 4.986393e+001
6.292414e+002, 4.978658e+001
6.297235e+002, 4.962173e+001
6.302056e+002, 4.954247e+001
6.306877e+002, 4.979089e+001
6.311699e+002, 5.021349e+001
6.316520e+002, 5.040355e+001
6.321341e+002, 5.017320e+001
6.326162e+002, 4.980841e+001
6.330983e+002, 4.983654e+001
6.335804e+002, 5.037051e+001
6.340626e+002, 5.071499e+001
6.345447e+002, 5.075289e+001
6.350268e+002, 5.073426e+001
6.355089e+002, 5.078073e+001
6.359910e+002, 5.084295e+001
6.364731e+002, 5.081183e+001
6.369553e+002, 5.062013e+001
6.374374e+002, 5.052618e+001
6.379195e+002, 5.080468e+001
6.384016e+002, 5.127942e+001
6.388837e+002, 5.158622e+001
6.393658e+002, 5.169066e+001
6.398480e+002, 5.188709e+001
6.403301e+002, 5.241911e+001
6.408122e+002, 5.312433e+001
6.412943e+002, 5.345707e+001
6.417764e+002, 5.294916e+001
6.422585e+002, 5.275260e+001
6.427407e+002, 5.301992e+001
6.432228e+002, 5.345996e+001
6.437049e+002, 5.400523e+001
6.441870e+002, 5.456224e+001
6.446691e+002, 5.496443e+001
6.451512e+002, 5.510923e+001
6.456334e+002, 5.512440e+001
6.461155e+002, 5.526598e+001
6.465976e+002, 5.553114e+001
6.470797e+002, 5.552365e+001
6.475618e+002, 5.510883e+001
6.480439e+002, 5.457494e+001
6.485261e+002, 5.412363e+001
6.490082e+002, 5.372686e+001
6.494903e+002, 5.331347e+001
6.499724e+002, 5.291560e+001
6.504545e+002, 5.244294e+001
6.509366e+002, 5.173404e+001
6.514188e+002, 5.100140e+001
6.519009e+002, 5.051480e+001
6.523830e+002, 5.029056e+001
6.528651e+002, 5.018065e+001
6.533472e+002, 5.008384e+001
6.538293e+002, 4.999807e+001
6.543115e+002, 4.993920e+001
6.547936e+002, 5.000471e+001
6.552757e+002, 4.985889e+001
6.557578e+002, 4.916920e+001
6.562399e+002, 4.850039e+001
6.567220e+002, 4.814669e+001
6.572042e+002, 4.807302e+001
6.576863e+002, 4.814859e+001
6.581684e+002, 4.845314e+001
6.586505e+002, 4.868108e+001
6.591326e+002, 4.839219e+001
6.596147e+002, 4.780026e+001
6.600969e+002, 4.757007e+001
6.605790e+002, 4.785521e+001
6.610611e+002, 4.815664e+001
6.615432e+002, 4.801136e+001
6.620253e+002, 4.747426e+001
6.625074e+002, 4.714170e+001
6.629896e+002, 4.711695e+001
6.634717e+002, 4.716695e+001
6.639538e+002, 4.738415e+001
6.644359e+002, 4.758403e+001
6.649180e+002, 4.755343e+001
6.654001e+002, 4.735318e+001
6.658823e+002, 4.727531e+001
6.663644e+002, 4.756578e+001
6.668465e+002, 4.796984e+001
6.673286e+002, 4.800396e+001
6.678107e+002, 4.767777e+001
6.682928e+002, 4.729696e+001
6.687750e+002, 4.687196e+001
6.692571e+002, 4.655239e+001
6.697392e+002, 4.655602e+001
6.702213e+002, 4.683802e+001
6.707034e+002, 4.692516e+001
6.711855e+002, 4.653881e+001
6.716677e+002, 4.629041e+001
6.721498e+002, 4.653807e+001
6.726319e+002, 4.692381e+001
6.731140e+002, 4.702596e+001
6.735961e+002, 4.682700e+001
6.740782e+002, 4.662053e+001
6.745604e+002, 4.664148e+001
6.750425e+002, 4.680093e+001
6.755246e+002, 4.678114e+001
6.760067e+002, 4.651902e+001
6.764888e+002, 4.636513e+001
6.769709e+002, 4.646776e+001
6.774531e+002, 4.660849e+001
6.779352e+002, 4.660920e+001
6.784173e+002, 4.650262e+001
6.788994e+002, 4.640397e+001
6.793815e+002, 4.636253e+001
6.798636e+002, 4.630600e+001
6.803458e+002, 4.612949e+001
6.808279e+002, 4.593456e+001
6.813100e+002, 4.592803e+001
6.817921e+002, 4.611890e+001
6.822742e+002, 4.627986e+001
6.827563e+002, 4.621901e+001
6.832385e+002, 4.598043e+001
6.837206e+002, 4.577491e+001
6.842027e+002, 4.559007e+001
6.846848e+002, 4.546560e+001
6.851669e+002, 4.540836e+001
6.856490e+002, 4.541326e+001
6.861312e+002, 4.551904e+001
6.866133e+002, 4.568758e+001
6.870954e+002, 4.580826e+001
6.875775e+002, 4.580667e+001
6.880596e+002, 4.580259e+001
6.885417e+002, 4.597081e+001
6.890239e+002, 4.620689e+001
6.895060e+002, 4.622626e+001
6.899881e+002, 4.598310e+001
6.904702e+002, 4.572402e+001
6.909523e+002, 4.563873e+001
6.914344e+002, 4.569981e+001
6.919166e+002, 4.577272e+001
6.923987e+002, 4.594371e+001
6.928808e+002, 4.598325e+001
6.933629e+002, 4.582840e+001
6.938450e+002, 4.559694e+001
6.943271e+002, 4.530836e+001
6.948093e+002, 4.500437e+001
6.952914e+002, 4.475537e+001
6.957735e+002, 4.457814e+001
6.962556e+002, 4.450866e+001
6.967377e+002, 4.465399e+001
6.972198e+002, 4.494486e+001
6.977020e+002, 4.513601e+001
6.981841e+002, 4.518676e+001
6.986662e+002, 4.518089e+001
6.991483e+002, 4.517145e+001
6.996304e+002, 4.515387e+001
7.001125e+002, 4.511012e+001
7.005947e+002, 4.499892e+001
7.010768e+002, 4.492626e+001
7.015589e+002, 4.492990e+001
7.020410e+002, 4.493929e+001
7.025231e+002, 4.489946e+001
7.030052e+002, 4.483364e+001
7.034874e+002, 4.480687e+001
7.039695e+002, 4.485242e+001
7.044516e+002, 4.489735e+001
7.049337e+002, 4.481421e+001
7.054158e+002, 4.464327e+001
7.058979e+002, 4.458968e+001
7.063801e+002, 4.468224e+001
7.068622e+002, 4.483422e+001
7.073442e+002, 4.503825e+001
7.078264e+002, 4.523654e+001
7.083085e+002, 4.526617e+001
7.087906e+002, 4.503640e+001
7.092727e+002, 4.487835e+001
7.097548e+002, 4.486147e+001
7.102369e+002, 4.487404e+001
7.107191e+002, 4.484928e+001
7.112012e+002, 4.480652e+001
7.116833e+002, 4.479322e+001
7.121654e+002, 4.482592e+001
7.126475e+002, 4.487077e+001
7.131296e+002, 4.490501e+001
7.136118e+002, 4.492131e+001
7.140939e+002, 4.484760e+001
7.145760e+002, 4.465470e+001
7.150581e+002, 4.456184e+001
7.155402e+002, 4.473439e+001
7.160223e+002, 4.499579e+001
7.165045e+002, 4.502134e+001
7.169866e+002, 4.476249e+001
7.174687e+002, 4.458947e+001
7.179508e+002, 4.459085e+001
7.184329e+002, 4.462317e+001
7.189150e+002, 4.460313e+001
7.193972e+002, 4.457365e+001
7.198793e+002, 4.462766e+001
7.203614e+002, 4.477519e+001
7.208435e+002, 4.489034e+001
7.213256e+002, 4.477623e+001
7.218077e+002, 4.454589e+001
7.222899e+002, 4.475544e+001
7.227720e+002, 4.549575e+001
7.232541e+002, 4.589140e+001
7.237362e+002, 4.549494e+001
7.242183e+002, 4.489872e+001
7.247004e+002, 4.486117e+001
7.251826e+002, 4.536687e+001
7.256647e+002, 4.559865e+001
7.261468e+002, 4.531346e+001
7.266289e+002, 4.498892e+001
7.271110e+002, 4.464600e+001
7.275931e+002, 4.444320e+001
7.280753e+002, 4.466899e+001
7.285574e+002, 4.526568e+001
7.290395e+002, 4.579614e+001
7.295216e+002, 4.590900e+001
7.300037e+002, 4.580530e+001
7.304858e+002, 4.595795e+001
7.309680e+002, 4.637556e+001
7.314501e+002, 4.679292e+001
7.319322e+002, 4.714317e+001
7.324143e+002, 4.752235e+001
7.328964e+002, 4.802700e+001
7.333785e+002, 4.863148e+001
7.338607e+002, 4.919048e+001
7.343428e+002, 4.959682e+001
7.348249e+002, 5.011692e+001
7.353070e+002, 5.068546e+001
7.357891e+002, 5.148627e+001
7.362712e+002, 5.272033e+001
7.367534e+002, 5.432521e+001
7.372355e+002, 5.608134e+001
7.377176e+002, 5.788981e+001
7.381997e+002, 5.986881e+001
7.386818e+002, 6.215419e+001
7.391639e+002, 6.475166e+001
7.396461e+002, 6.772636e+001
7.401282e+002, 7.101150e+001
7.406103e+002, 7.494113e+001
7.410924e+002, 7.965457e+001
7.415745e+002, 8.514193e+001
7.420566e+002, 9.133468e+001
7.425388e+002, 9.798522e+001
7.430209e+002, 1.060703e+002
7.435030e+002, 1.164285e+002
7.439851e+002, 1.274525e+002
7.444672e+002, 1.395690e+002
7.449493e+002, 1.513052e+002
7.454315e+002, 1.611978e+002
7.459136e+002, 1.685794e+002
7.463957e+002, 1.723629e+002
7.468778e+002, 1.713301e+002
7.473599e+002, 1.658818e+002
7.478420e+002, 1.562636e+002
7.483242e+002, 1.423484e+002
7.488063e+002, 1.284749e+002
7.492884e+002, 1.157264e+002
7.497705e+002, 1.044524e+002
7.502526e+002, 9.501118e+001
7.507347e+002, 8.750674e+001
7.512169e+002, 8.115510e+001
7.516990e+002, 7.613409e+001
7.521811e+002, 7.194057e+001
7.526632e+002, 6.859917e+001
7.531453e+002, 6.592072e+001
7.536274e+002, 6.384220e+001
7.541096e+002, 6.227930e+001
7.545917e+002, 6.103637e+001
7.550738e+002, 6.005499e+001
7.555559e+002, 5.921910e+001
7.560380e+002, 5.836087e+001
7.565201e+002, 5.750421e+001
7.570023e+002, 5.675175e+001
7.574844e+002, 5.611393e+001
7.579665e+002, 5.565316e+001
7.584486e+002, 5.543610e+001
7.589307e+002, 5.540767e+001
7.594128e+002, 5.536833e+001
7.598950e+002, 5.507402e+001
7.603771e+002, 5.522815e+001
7.608592e+002, 5.591620e+001
7.613413e+002, 5.692670e+001
7.618234e+002, 5.802804e+001
7.623055e+002, 5.942965e+001
7.627877e+002, 6.155696e+001
7.632698e+002, 6.454169e+001
7.637519e+002, 6.778394e+001
7.642340e+002, 7.099777e+001
7.647161e+002, 7.410628e+001
7.651982e+002, 7.722652e+001
7.656804e+002, 8.021547e+001
7.661625e+002, 8.235756e+001
7.666446e+002, 8.341087e+001
7.671267e+002, 8.323425e+001
7.676088e+002, 8.155935e+001
7.680909e+002, 7.832712e+001
7.685731e+002, 7.470654e+001
7.690552e+002, 7.025552e+001
7.695373e+002, 6.611519e+001
7.700194e+002, 6.245719e+001
7.705015e+002, 5.923790e+001
7.709836e+002, 5.648521e+001
7.714658e+002, 5.418604e+001
7.719479e+002, 5.228892e+001
7.724300e+002, 5.088374e+001
7.729121e+002, 4.973114e+001
7.733942e+002, 4.873565e+001
7.738763e+002, 4.786304e+001
7.743585e+002, 4.706551e+001
7.748406e+002, 4.633471e+001
7.753227e+002, 4.567208e+001
7.758048e+002, 4.507163e+001
7.762869e+002, 4.455742e+001
7.767690e+002, 4.419450e+001
7.772512e+002, 4.399467e+001
7.777333e+002, 4.386552e+001
7.782154e+002, 4.381422e+001
7.786975e+002, 4.381321e+001
7.791796e+002, 4.394692e+001
7.796617e+002, 4.407813e+001
7.801439e+002, 4.393048e+001
7.806260e+002, 4.340819e+001
7.811081e+002, 4.304240e+001
7.815902e+002, 4.309747e+001
7.820723e+002, 4.321119e+001
7.825544e+002, 4.316195e+001
7.830366e+002, 4.300514e+001
7.835187e+002, 4.286248e+001
7.840008e+002, 4.276096e+001
7.844829e+002, 4.262284e+001
7.849650e+002, 4.235179e+001
7.854471e+002, 4.200460e+001
7.859293e+002, 4.170869e+001
7.864114e+002, 4.146245e+001
7.868935e+002, 4.150327e+001
7.873756e+002, 4.198777e+001
7.878577e+002, 4.247420e+001
7.883398e+002, 4.251388e+001
7.888220e+002, 4.217517e+001
7.893040e+002, 4.203716e+001
7.897861e+002, 4.234357e+001
7.902682e+002, 4.249037e+001
7.907504e+002, 4.235048e+001
7.912325e+002, 4.211493e+001
7.917146e+002, 4.181907e+001
7.921967e+002, 4.154291e+001
7.926788e+002, 4.145276e+001
7.931609e+002, 4.163238e+001
7.936431e+002, 4.179547e+001
7.941252e+002, 4.159029e+001
7.946073e+002, 4.123886e+001
7.950894e+002, 4.115620e+001
7.955715e+002, 4.134440e+001
7.960536e+002, 4.169511e+001
7.965358e+002, 4.218620e+001
7.970179e+002, 4.258079e+001
7.975000e+002, 4.249958e+001
7.979821e+002, 4.190930e+001
7.984642e+002, 4.166867e+001
7.989464e+002, 4.204441e+001
7.994285e+002, 4.228466e+001
7.999106e+002, 4.207664e+001
8.003927e+002, 4.176662e+001
8.008748e+002, 4.153058e+001
8.013569e+002, 4.140232e+001
8.018391e+002, 4.150722e+001
8.023212e+002, 4.220863e+001
8.028033e+002, 4.266675e+001
8.032854e+002, 4.218374e+001
8.037675e+002, 4.138144e+001
8.042496e+002, 4.096416e+001
8.047318e+002, 4.095501e+001
8.052139e+002, 4.107561e+001
8.056960e+002, 4.118061e+001
8.061781e+002, 4.129481e+001
8.066602e+002, 4.151513e+001
8.071423e+002, 4.181929e+001
8.076245e+002, 4.183146e+001
8.081066e+002, 4.146515e+001
8.085887e+002, 4.118262e+001
8.090708e+002, 4.122540e+001
8.095529e+002, 4.140740e+001
8.100350e+002, 4.145854e+001
8.105172e+002, 4.135992e+001
8.109993e+002, 4.124056e+001
8.114814e+002, 4.103701e+001
8.119635e+002, 4.089400e+001
8.124456e+002, 4.087722e+001
8.129277e+002, 4.092003e+001
8.134099e+002, 4.095417e+001
8.138920e+002, 4.098431e+001
8.143741e+002, 4.107810e+001
8.148562e+002, 4.131869e+001
8.153383e+002, 4.152996e+001
8.158204e+002, 4.141954e+001
8.163026e+002, 4.116693e+001
8.167847e+002, 4.127057e+001
8.172668e+002, 4.172910e+001
8.177489e+002, 4.197181e+001
8.182310e+002, 4.164690e+001
8.187131e+002, 4.107490e+001
8.191953e+002, 4.089953e+001
8.196774e+002, 4.120302e+001
8.201595e+002, 4.137687e+001
8.206416e+002, 4.134594e+001
8.211237e+002, 4.133143e+001
8.216058e+002, 4.151219e+001
8.220880e+002, 4.167940e+001
8.225701e+002, 4.154937e+001
8.230522e+002, 4.113341e+001
8.235343e+002, 4.083072e+001
8.240164e+002, 4.078648e+001
8.244985e+002, 4.079219e+001
8.249807e+002, 4.078385e+001
8.254628e+002, 4.076027e+001
8.259449e+002, 4.070426e+001
8.264270e+002, 4.063176e+001
8.269091e+002, 4.058389e+001
8.273912e+002, 4.057389e+001
8.278734e+002, 4.064503e+001
8.283555e+002, 4.094324e+001
8.288376e+002, 4.138414e+001
8.293197e+002, 4.158960e+001
8.298018e+002, 4.152494e+001
8.302839e+002, 4.142233e+001
8.307661e+002, 4.140534e+001
8.312482e+002, 4.137695e+001
8.317303e+002, 4.113975e+001
8.322124e+002, 4.062426e+001
8.326945e+002, 4.041947e+001
8.331766e+002, 4.078069e+001
8.336588e+002, 4.108931e+001
8.341409e+002, 4.115015e+001
8.346230e+002, 4.115192e+001
8.351051e+002, 4.128204e+001
8.355872e+002, 4.150610e+001
8.360693e+002, 4.161657e+001
8.365515e+002, 4.150471e+001
8.370336e+002, 4.134147e+001
8.375157e+002, 4.117781e+001
8.379978e+002, 4.104036e+001
8.384799e+002, 4.096849e+001
8.389620e+002, 4.095261e+001
8.394442e+002, 4.095169e+001
8.399263e+002, 4.094635e+001
8.404084e+002, 4.095428e+001
8.408905e+002, 4.099545e+001
8.413726e+002, 4.107035e+001
8.418547e+002, 4.120644e+001
8.423369e+002, 4.141150e+001
8.428190e+002, 4.154536e+001
8.433011e+002, 4.155532e+001
8.437832e+002, 4.147652e+001
8.442653e+002, 4.133272e+001
8.447474e+002, 4.112609e+001
8.452296e+002, 4.096675e+001
8.457117e+002, 4.090188e+001
8.461938e+002, 4.081593e+001
8.466759e+002, 4.062702e+001
8.471580e+002, 4.048182e+001
8.476401e+002, 4.048586e+001
8.481223e+002, 4.060162e+001
8.486044e+002, 4.075396e+001
8.490865e+002, 4.094867e+001
8.495686e+002, 4.106698e+001
8.500507e+002, 4.100032e+001
8.505328e+002, 4.086214e+001
8.510150e+002, 4.072520e+001
8.514971e+002, 4.062061e+001
8.519792e+002, 4.063631e+001
8.524613e+002, 4.078011e+001
8.529434e+002, 4.088137e+001
8.534255e+002, 4.075214e+001
8.539077e+002, 4.046880e+001
8.543898e+002, 4.022168e+001
8.548719e+002, 4.001010e+001
8.553540e+002, 4.007954e+001
8.558361e+002, 4.055360e+001
8.563182e+002, 4.097294e+001
8.568004e+002, 4.094157e+001
8.572825e+002, 4.063267e+001
8.577646e+002, 4.061986e+001
8.582467e+002, 4.114762e+001
8.587288e+002, 4.143914e+001
8.592109e+002, 4.131089e+001
8.596931e+002, 4.116776e+001
8.601752e+002, 4.125209e+001
8.606573e+002, 4.134176e+001
8.611394e+002, 4.106810e+001
8.616215e+002, 4.042358e+001
8.621036e+002, 3.999818e+001
8.625858e+002, 4.017098e+001
8.630679e+002, 4.048322e+001
8.635500e+002, 4.061640e+001
8.640321e+002, 4.069688e+001
8.645142e+002, 4.101502e+001
8.649963e+002, 4.149756e+001
8.654785e+002, 4.166843e+001
8.659606e+002, 4.122398e+001
8.664427e+002, 4.055650e+001
8.669248e+002, 4.027716e+001
8.674069e+002, 4.031586e+001
8.678890e+002, 4.029336e+001
8.683712e+002, 4.018522e+001
8.688533e+002, 4.011007e+001
8.693354e+002, 4.011427e+001
8.698175e+002, 4.018610e+001
8.702996e+002, 4.033128e+001
8.707817e+002, 4.055181e+001
8.712639e+002, 4.062926e+001
8.717459e+002, 4.049092e+001
8.722280e+002, 4.033731e+001
8.727101e+002, 4.017014e+001
8.731923e+002, 4.002628e+001
8.736744e+002, 3.991003e+001
8.741565e+002, 3.983741e+001
8.746386e+002, 3.986034e+001
8.751207e+002, 4.003915e+001
8.756028e+002, 4.015361e+001
8.760850e+002, 4.014254e+001
8.765671e+002, 4.002462e+001
8.770492e+002, 3.969205e+001
8.775313e+002, 3.930862e+001
8.780134e+002, 3.916680e+001
8.784955e+002, 3.931169e+001
8.789777e+002, 3.950607e+001
8.794598e+002, 3.958011e+001
8.799419e+002, 3.958039e+001
8.804240e+002, 3.956282e+001
8.809061e+002, 3.953717e+001
8.813882e+002, 3.954212e+001
8.818704e+002, 3.958274e+001
8.823525e+002, 3.962748e+001
8.828346e+002, 3.965057e+001
8.833167e+002, 3.969115e+001
8.837988e+002, 3.984599e+001
8.842809e+002, 4.013905e+001
8.847631e+002, 4.038660e+001
8.852452e+002, 4.064882e+001
8.857273e+002, 4.070341e+001
8.862094e+002, 4.034835e+001
8.866915e+002, 3.988226e+001
8.871736e+002, 3.967156e+001
8.876558e+002, 3.969234e+001
8.881379e+002, 3.955846e+001
8.886200e+002, 3.896219e+001
8.891021e+002, 3.863012e+001
8.895842e+002, 3.881009e+001
8.900663e+002, 3.917556e+001
8.905485e+002, 3.961879e+001
8.910306e+002, 4.004353e+001
8.915127e+002, 4.030225e+001
8.919948e+002, 4.035327e+001
8.924769e+002, 4.032375e+001
8.929590e+002, 4.026594e+001
8.934412e+002, 4.019265e+001
8.939233e+002, 4.017747e+001
8.944054e+002, 4.014162e+001
8.948875e+002, 3.982693e+001
8.953696e+002, 3.924697e+001
8.958517e+002, 3.883379e+001
8.963339e+002, 3.894400e+001
8.968160e+002, 3.929932e+001
8.972981e+002, 3.929791e+001
8.977802e+002, 3.898805e+001
8.982623e+002, 3.886648e+001
8.987444e+002, 3.898766e+001
8.992266e+002, 3.919275e+001
8.997087e+002, 3.943726e+001
9.001908e+002, 3.964381e+001
9.006729e+002, 3.969260e+001
9.011550e+002, 3.957756e+001
9.016371e+002, 3.942649e+001
9.021193e+002, 3.913715e+001
9.026014e+002, 3.900257e+001
9.030835e+002, 3.920653e+001
9.035656e+002, 3.945586e+001
9.040477e+002, 3.958281e+001
9.045298e+002, 3.959868e+001
9.050120e+002, 3.952753e+001
9.054941e+002, 3.935541e+001
9.059762e+002, 3.914458e+001
9.064583e+002, 3.871808e+001
9.069404e+002, 3.846174e+001
9.074225e+002, 3.879702e+001
9.079047e+002, 3.934898e+001
9.083868e+002, 3.955646e+001
9.088689e+002, 3.937357e+001
9.093510e+002, 3.923263e+001
9.098331e+002, 3.940191e+001
9.103152e+002, 3.969682e+001
9.107974e+002, 4.006073e+001
9.112795e+002, 4.036240e+001
9.117616e+002, 4.026325e+001
9.122437e+002, 3.982612e+001
9.127258e+002, 3.948372e+001
9.132079e+002, 3.944113e+001
9.136901e+002, 3.950761e+001
9.141722e+002, 3.940849e+001
9.146543e+002, 3.918999e+001
9.151364e+002, 3.912335e+001
9.156185e+002, 3.921195e+001
9.161006e+002, 3.937748e+001
9.165828e+002, 3.962767e+001
9.170649e+002, 3.982350e+001
9.175470e+002, 3.983187e+001
9.180291e+002, 3.971278e+001
9.185112e+002, 3.969519e+001
9.189933e+002, 3.986513e+001
9.194755e+002, 3.991719e+001
9.199576e+002, 3.982290e+001
9.204397e+002, 3.965092e+001
9.209218e+002, 3.936794e+001
9.214039e+002, 3.905942e+001
9.218860e+002, 3.881300e+001
9.223682e+002, 3.862981e+001
9.228503e+002, 3.848675e+001
9.233324e+002, 3.831039e+001
9.238145e+002, 3.826882e+001
9.242966e+002, 3.854312e+001
9.247787e+002, 3.885093e+001
9.252609e+002, 3.898451e+001
9.257430e+002, 3.897137e+001
9.262251e+002, 3.887975e+001
9.267072e+002, 3.872566e+001
9.271893e+002, 3.863273e+001
9.276714e+002, 3.875024e+001
9.281536e+002, 3.890792e+001
9.286357e+002, 3.887222e+001
9.291178e+002, 3.876842e+001
9.295999e+002, 3.889954e+001
9.300820e+002, 3.926334e+001
9.305641e+002, 3.953831e+001
9.310463e+002, 3.950792e+001
9.315284e+002, 3.935451e+001
9.320105e+002, 3.939424e+001
9.324926e+002, 3.956054e+001
9.329747e+002, 3.952281e+001
9.334568e+002, 3.928292e+001
9.339390e+002, 3.921594e+001
9.344211e+002, 3.948011e+001
9.349032e+002, 3.975754e+001
9.353853e+002, 3.968678e+001
9.358674e+002, 3.933527e+001
9.363495e+002, 3.909217e+001
9.368317e+002, 3.896685e+001
9.373138e+002, 3.891191e+001
9.377959e+002, 3.893193e+001
9.382780e+002, 3.900271e+001
9.387601e+002, 3.914111e+001
9.392422e+002, 3.929942e+001
9.397244e+002, 3.940689e+001
9.402065e+002, 3.947645e+001
9.406886e+002, 3.941578e+001
9.411707e+002, 3.905034e+001
9.416528e+002, 3.879695e+001
9.421349e+002, 3.877090e+001
9.426171e+002, 3.884904e+001
9.430992e+002, 3.906222e+001
9.435813e+002, 3.929048e+001
9.440634e+002, 3.920022e+001
9.445455e+002, 3.859955e+001
9.450276e+002, 3.817244e+001
9.455098e+002, 3.825482e+001
9.459919e+002, 3.848780e+001
9.464740e+002, 3.872695e+001
9.469561e+002, 3.891862e+001
9.474382e+002, 3.894636e+001
9.479203e+002, 3.885295e+001
9.484025e+002, 3.892413e+001
9.488846e+002, 3.943458e+001
9.493667e+002, 3.984314e+001
9.498488e+002, 3.946147e+001
9.503309e+002, 3.874400e+001
9.508130e+002, 3.831050e+001
9.512952e+002, 3.820129e+001
9.517773e+002, 3.840898e+001
9.522594e+002, 3.889679e+001
9.527415e+002, 3.934243e+001
9.532236e+002, 3.941866e+001
9.537057e+002, 3.925853e+001
9.541878e+002, 3.914240e+001
9.546699e+002, 3.907810e+001
9.551520e+002, 3.914040e+001
9.556342e+002, 3.933971e+001
9.561163e+002, 3.956789e+001
9.565984e+002, 3.978553e+001
9.570805e+002, 3.989757e+001
9.575626e+002, 3.970372e+001
9.580447e+002, 3.921279e+001
9.585269e+002, 3.901959e+001
9.590090e+002, 3.920584e+001
9.594911e+002, 3.934465e+001
9.599732e+002, 3.935982e+001
9.604553e+002, 3.927007e+001
9.609374e+002, 3.906316e+001
9.614196e+002, 3.877653e+001
9.619017e+002, 3.851267e+001
9.623838e+002, 3.826949e+001
9.628659e+002, 3.805259e+001
9.633480e+002, 3.773159e+001
9.638301e+002, 3.761729e+001
9.643123e+002, 3.801338e+001
9.647944e+002, 3.846283e+001
9.652765e+002, 3.853313e+001
9.657586e+002, 3.830043e+001
9.662407e+002, 3.815895e+001
9.667228e+002, 3.820620e+001
9.672050e+002, 3.824585e+001
9.676871e+002, 3.820572e+001
9.681692e+002, 3.818031e+001
9.686513e+002, 3.827845e+001
9.691334e+002, 3.839349e+001
9.696155e+002, 3.834312e+001
9.700977e+002, 3.813654e+001
9.705798e+002, 3.801303e+001
9.710619e+002, 3.812806e+001
9.715440e+002, 3.827152e+001
9.720261e+002, 3.833732e+001
9.725082e+002, 3.834452e+001
9.729904e+002, 3.829405e+001
9.734725e+002, 3.820618e+001
9.739546e+002, 3.812880e+001
9.744367e+002, 3.807116e+001
9.749188e+002, 3.796384e+001
9.754009e+002, 3.763971e+001
9.758831e+002, 3.736062e+001
9.763652e+002, 3.763128e+001
9.768473e+002, 3.816390e+001
9.773294e+002, 3.827728e+001
9.778115e+002, 3.797987e+001
9.782936e+002, 3.779213e+001
9.787758e+002, 3.796011e+001
9.792579e+002, 3.819567e+001
9.797400e+002, 3.808568e+001
9.802221e+002, 3.777428e+001
9.807042e+002, 3.782605e+001
9.811863e+002, 3.817602e+001
9.816685e+002, 3.825568e+001
9.821506e+002, 3.795374e+001
9.826327e+002, 3.760388e+001
9.831148e+002, 3.740711e+001
9.835969e+002, 3.737413e+001
9.840790e+002, 3.761986e+001
9.845612e+002, 3.814942e+001
9.850433e+002, 3.808574e+001
9.855254e+002, 3.726576e+001
9.860075e+002, 3.686940e+001
9.864896e+002, 3.731251e+001
9.869717e+002, 3.791000e+001
9.874539e+002, 3.812939e+001
9.879360e+002, 3.805597e+001
9.884181e+002, 3.795125e+001
9.889002e+002, 3.781335e+001
9.893823e+002, 3.763552e+001
9.898644e+002, 3.729738e+001
9.903466e+002, 3.716228e+001
9.908287e+002, 3.748936e+001
9.913108e+002, 3.790257e+001
9.917929e+002, 3.800845e+001
9.922750e+002, 3.787290e+001
9.927571e+002, 3.789162e+001
9.932393e+002, 3.824764e+001
9.937214e+002, 3.842825e+001
9.942035e+002, 3.824783e+001
9.946856e+002, 3.810614e+001
9.951677e+002, 3.835060e+001
9.956498e+002, 3.857642e+001
9.961320e+002, 3.816484e+001
9.966141e+002, 3.723284e+001
9.970962e+002, 3.678954e+001
9.975783e+002, 3.735476e+001
9.980604e+002, 3.787000e+001
9.985425e+002, 3.806802e+001
9.990247e+002, 3.813759e+001
9.995068e+002, 3.815656e+001
9.999889e+002, 3.813980e+001
1.000471e+003, 3.809494e+001
1.000953e+003, 3.802253e+001
1.001435e+003, 3.791101e+001
1.001917e+003, 3.764161e+001
1.002399e+003, 3.750631e+001
1.002882e+003, 3.783041e+001
1.003364e+003, 3.821605e+001
1.003846e+003, 3.835907e+001
1.004328e+003, 3.824828e+001
1.004810e+003, 3.781250e+001
1.005292e+003, 3.709985e+001
1.005774e+003, 3.663415e+001
1.006256e+003, 3.685226e+001
1.006739e+003, 3.730889e+001
1.007221e+003, 3.769985e+001
1.007703e+003, 3.799547e+001
1.008185e+003, 3.813061e+001
1.008667e+003, 3.813185e+001
1.009149e+003, 3.807414e+001
1.009631e+003, 3.798705e+001
1.010113e+003, 3.786782e+001
1.010595e+003, 3.761277e+001
1.011078e+003, 3.743662e+001
1.011560e+003, 3.788686e+001
1.012042e+003, 3.860534e+001
1.012524e+003, 3.861223e+001
1.013006e+003, 3.797401e+001
1.013488e+003, 3.759631e+001
1.013970e+003, 3.786992e+001
1.014452e+003, 3.832948e+001
1.014935e+003, 3.846602e+001
1.015417e+003, 3.839098e+001
1.015899e+003, 3.834811e+001
1.016381e+003, 3.834323e+001
1.016863e+003, 3.843930e+001
1.017345e+003, 3.863010e+001
1.017827e+003, 3.875422e+001
1.018309e+003, 3.872794e+001
1.018791e+003, 3.861248e+001
1.019274e+003, 3.848742e+001
1.019756e+003, 3.834782e+001
1.020238e+003, 3.816525e+001
1.020720e+003, 3.794098e+001
1.021202e+003, 3.762398e+001
1.021684e+003, 3.718828e+001
1.022166e+003, 3.703358e+001
1.022648e+003, 3.743302e+001
1.023130e+003, 3.802819e+001
1.023613e+003, 3.823336e+001
1.024095e+003, 3.807384e+001
1.024577e+003, 3.797327e+001
1.025059e+003, 3.793929e+001
1.025541e+003, 3.790556e+001
1.026023e+003, 3.786592e+001
1.026505e+003, 3.777166e+001
1.026987e+003, 3.753895e+001
1.027469e+003, 3.735829e+001
1.027952e+003, 3.765281e+001
1.028434e+003, 3.846333e+001
1.028916e+003, 3.873182e+001
1.029398e+003, 3.829870e+001
1.029880e+003, 3.787017e+001
1.030362e+003, 3.752993e+001
1.030844e+003, 3.732588e+001
1.031326e+003, 3.727912e+001
1.031809e+003, 3.741013e+001
1.032291e+003, 3.783582e+001
1.032773e+003, 3.866005e+001
1.033255e+003, 3.885675e+001
1.033737e+003, 3.800012e+001
1.034219e+003, 3.746481e+001
1.034701e+003, 3.770228e+001
1.035183e+003, 3.801949e+001
1.035666e+003, 3.792698e+001
1.036148e+003, 3.762523e+001
1.036630e+003, 3.754769e+001
1.037112e+003, 3.775195e+001
1.037594e+003, 3.785436e+001
1.038076e+003, 3.777546e+001
1.038558e+003, 3.771969e+001
1.039040e+003, 3.771810e+001
1.039522e+003, 3.775289e+001
1.040005e+003, 3.785874e+001
1.040487e+003, 3.797854e+001
1.040969e+003, 3.798585e+001
1.041451e+003, 3.786078e+001
1.041933e+003, 3.772860e+001
1.042415e+003, 3.740759e+001
1.042897e+003, 3.733783e+001
1.043379e+003, 3.796723e+001
1.043861e+003, 3.850669e+001
1.044344e+003, 3.820757e+001
1.044826e+003, 3.753775e+001
1.045308e+003, 3.751831e+001
1.045790e+003, 3.836184e+001
1.046272e+003, 3.878105e+001
1.046754e+003, 3.829435e+001
1.047236e+003, 3.784734e+001
1.047718e+003, 3.766058e+001
1.048201e+003, 3.759752e+001
1.048683e+003, 3.760693e+001
1.049165e+003, 3.765178e+001
1.049647e+003, 3.769761e+001
1.050129e+003, 3.774970e+001
1.050611e+003, 3.768318e+001
1.051093e+003, 3.720208e+001
1.051575e+003, 3.696944e+001
1.052057e+003, 3.734757e+001
1.052540e+003, 3.788208e+001
1.053022e+003, 3.838656e+001
1.053504e+003, 3.875161e+001
1.053986e+003, 3.876884e+001
1.054468e+003, 3.840034e+001
1.054950e+003, 3.810351e+001
1.055432e+003, 3.803801e+001
1.055914e+003, 3.801004e+001
1.056396e+003, 3.788650e+001
1.056879e+003, 3.784145e+001
1.057361e+003, 3.817327e+001
1.057843e+003, 3.860646e+001
1.058325e+003, 3.859909e+001
1.058807e+003, 3.808094e+001
1.059289e+003, 3.768387e+001
1.059771e+003, 3.770275e+001
1.060253e+003, 3.775696e+001
1.060736e+003, 3.773344e+001
1.061218e+003, 3.766039e+001
1.061700e+003, 3.750837e+001
1.062182e+003, 3.734628e+001
1.062664e+003, 3.728347e+001
1.063146e+003, 3.733355e+001
1.063628e+003, 3.742235e+001
1.064110e+003, 3.765857e+001
1.064593e+003, 3.773647e+001
1.065075e+003, 3.732127e+001
1.065557e+003, 3.690741e+001
1.066039e+003, 3.690553e+001
1.066521e+003, 3.714482e+001
1.067003e+003, 3.738140e+001
1.067485e+003, 3.755304e+001
1.067967e+003, 3.758372e+001
1.068449e+003, 3.735798e+001
1.068932e+003, 3.713866e+001
1.069414e+003, 3.693968e+001
1.069896e+003, 3.689626e+001
1.070378e+003, 3.731582e+001
1.070860e+003, 3.783849e+001
1.071342e+003, 3.791976e+001
1.071824e+003, 3.754836e+001
1.072306e+003, 3.716685e+001
1.072788e+003, 3.689394e+001
1.073271e+003, 3.673340e+001
1.073753e+003, 3.676864e+001
1.074235e+003, 3.683185e+001
1.074717e+003, 3.676925e+001
1.075199e+003, 3.668006e+001
1.075681e+003, 3.671049e+001
1.076163e+003, 3.685741e+001
1.076645e+003, 3.702350e+001
1.077127e+003, 3.721041e+001
1.077610e+003, 3.730215e+001
1.078092e+003, 3.710376e+001
1.078574e+003, 3.694741e+001
1.079056e+003, 3.713566e+001
1.079538e+003, 3.743963e+001
1.080020e+003, 3.760292e+001
1.080502e+003, 3.761081e+001
1.080984e+003, 3.752340e+001
1.081467e+003, 3.732397e+001
1.081949e+003, 3.721014e+001
1.082431e+003, 3.735813e+001
1.082913e+003, 3.751638e+001
1.083395e+003, 3.753153e+001
1.083877e+003, 3.747649e+001
1.084359e+003, 3.741250e+001
1.084841e+003, 3.735665e+001
1.085323e+003, 3.733621e+001
1.085806e+003, 3.736675e+001
1.086288e+003, 3.734534e+001
1.086770e+003, 3.714824e+001
1.087252e+003, 3.698783e+001
1.087734e+003, 3.698361e+001
1.088216e+003, 3.705747e+001
1.088698e+003, 3.714847e+001
1.089180e+003, 3.725230e+001
1.089662e+003, 3.741207e+001
1.090145e+003, 3.763812e+001
1.090627e+003, 3.771865e+001
1.091109e+003, 3.735543e+001
1.091591e+003, 3.712286e+001
1.092073e+003, 3.743446e+001
1.092555e+003, 3.780941e+001
1.093037e+003, 3.790098e+001
1.093519e+003, 3.776960e+001
1.094002e+003, 3.750395e+001
1.094484e+003, 3.714083e+001
1.094966e+003, 3.689524e+001
1.095448e+003, 3.692923e+001
1.095930e+003, 3.695223e+001
1.096412e+003, 3.686236e+001
1.096894e+003, 3.673972e+001
1.097376e+003, 3.656091e+001
1.097859e+003, 3.642537e+001
1.098341e+003, 3.650404e+001
1.098823e+003, 3.676957e+001
1.099305e+003, 3.694957e+001
1.099787e+003, 3.689461e+001
1.100269e+003, 3.693373e+001
1.100751e+003, 3.734912e+001
1.101233e+003, 3.764196e+001
1.101715e+003, 3.746674e+001
1.102198e+003, 3.712294e+001
1.102680e+003, 3.694014e+001
1.103162e+003, 3.688178e+001
1.103644e+003, 3.668948e+001
1.104126e+003, 3.620005e+001
1.104608e+003, 3.597980e+001
1.105090e+003, 3.636333e+001
1.105572e+003, 3.672635e+001
1.106054e+003, 3.676605e+001
1.106537e+003, 3.678017e+001
1.107019e+003, 3.710675e+001
1.107501e+003, 3.757819e+001
1.107983e+003, 3.777020e+001
1.108465e+003, 3.762328e+001
1.108947e+003, 3.736591e+001
1.109429e+003, 3.675656e+001
1.109911e+003, 3.641007e+001
1.110394e+003, 3.666217e+001
1.110876e+003, 3.698727e+001
1.111358e+003, 3.709596e+001
1.111840e+003, 3.706260e+001
1.112322e+003, 3.700298e+001
1.112804e+003, 3.691791e+001
1.113286e+003, 3.682140e+001
1.113768e+003, 3.672675e+001
1.114250e+003, 3.659528e+001
1.114733e+003, 3.629045e+001
1.115215e+003, 3.613784e+001
1.115697e+003, 3.642791e+001
1.116179e+003, 3.679639e+001
1.116661e+003, 3.677296e+001
1.117143e+003, 3.643011e+001
1.117625e+003, 3.630596e+001
1.118107e+003, 3.646789e+001
1.118589e+003, 3.670617e+001
1.119072e+003, 3.714993e+001
1.119554e+003, 3.740052e+001
1.120036e+003, 3.727777e+001
1.120518e+003, 3.700562e+001
1.121000e+003, 3.672884e+001
1.121482e+003, 3.648149e+001
1.121964e+003, 3.637200e+001
1.122446e+003, 3.642098e+001
1.122929e+003, 3.648486e+001
1.123411e+003, 3.656699e+001
1.123893e+003, 3.666160e+001
1.124375e+003, 3.679125e+001
1.124857e+003, 3.684172e+001
1.125339e+003, 3.669231e+001
1.125821e+003, 3.652928e+001
1.126303e+003, 3.671022e+001
1.126786e+003, 3.720532e+001
1.127268e+003, 3.747391e+001
1.127750e+003, 3.750703e+001
1.128232e+003, 3.733850e+001
1.128714e+003, 3.693363e+001
1.129196e+003, 3.663701e+001
1.129678e+003, 3.661664e+001
1.130160e+003, 3.670562e+001
1.130642e+003, 3.672016e+001
1.131125e+003, 3.668209e+001
1.131607e+003, 3.667482e+001
1.132089e+003, 3.669443e+001
1.132571e+003, 3.664931e+001
1.133053e+003, 3.653743e+001
1.133535e+003, 3.648569e+001
1.134017e+003, 3.653283e+001
1.134499e+003, 3.662281e+001
1.134981e+003, 3.671587e+001
1.135464e+003, 3.680661e+001
1.135946e+003, 3.685682e+001
1.136428e+003, 3.689935e+001
1.136910e+003, 3.710105e+001
1.137392e+003, 3.742032e+001
1.137874e+003, 3.766216e+001
1.138356e+003, 3.778819e+001
1.138838e+003, 3.783577e+001
1.139321e+003, 3.782462e+001
1.139803e+003, 3.769020e+001
1.140285e+003, 3.721820e+001
1.140767e+003, 3.670697e+001
1.141249e+003, 3.680679e+001
1.141731e+003, 3.724915e+001
1.142213e+003, 3.746776e+001
1.142695e+003, 3.744877e+001
1.143177e+003, 3.740538e+001
1.143660e+003, 3.739877e+001
1.144142e+003, 3.730359e+001
1.144624e+003, 3.698018e+001
1.145106e+003, 3.665418e+001
1.145588e+003, 3.656629e+001
1.146070e+003, 3.660825e+001
1.146552e+003, 3.663063e+001
1.147034e+003, 3.668386e+001
1.147516e+003, 3.698665e+001
1.147999e+003, 3.745506e+001
1.148481e+003, 3.759325e+001
1.148963e+003, 3.713153e+001
1.149445e+003, 3.670366e+001
1.149927e+003, 3.676592e+001
1.150409e+003, 3.693988e+001
1.150891e+003, 3.704983e+001
1.151373e+003, 3.704674e+001
1.151856e+003, 3.674970e+001
1.152338e+003, 3.634399e+001
1.152820e+003, 3.629048e+001
1.153302e+003, 3.668299e+001
1.153784e+003, 3.696552e+001
1.154266e+003, 3.675358e+001
1.154748e+003, 3.668530e+001
1.155230e+003, 3.717870e+001
1.155713e+003, 3.765116e+001
1.156195e+003, 3.778751e+001
1.156677e+003, 3.765979e+001
1.157159e+003, 3.722433e+001
1.157641e+003, 3.658456e+001
1.158123e+003, 3.638952e+001
1.158605e+003, 3.702108e+001
1.159087e+003, 3.740401e+001
1.159569e+003, 3.733187e+001
1.160052e+003, 3.719543e+001
1.160534e+003, 3.702110e+001
1.161016e+003, 3.690627e+001
1.161498e+003, 3.697691e+001
1.161980e+003, 3.712742e+001
1.162462e+003, 3.711957e+001
1.162944e+003, 3.693586e+001
1.163426e+003, 3.677194e+001
1.163908e+003, 3.659248e+001
1.164391e+003, 3.654422e+001
1.164873e+003, 3.667194e+001
1.165355e+003, 3.686440e+001
1.165837e+003, 3.709006e+001
1.166319e+003, 3.730297e+001
1.166801e+003, 3.744148e+001
1.167283e+003, 3.753008e+001
1.167765e+003, 3.772834e+001
1.168247e+003, 3.805084e+001
1.168730e+003, 3.792555e+001
1.169212e+003, 3.730993e+001
1.169694e+003, 3.701685e+001
1.170176e+003, 3.727573e+001
1.170658e+003, 3.753762e+001
1.171140e+003, 3.741029e+001
1.171622e+003, 3.718232e+001
1.172104e+003, 3.737508e+001
1.172587e+003, 3.782425e+001
1.173069e+003, 3.794593e+001
1.173551e+003, 3.783438e+001
1.174033e+003, 3.790440e+001
1.174515e+003, 3.813966e+001
1.174997e+003, 3.812576e+001
1.175479e+003, 3.772803e+001
1.175961e+003, 3.734027e+001
1.176443e+003, 3.730413e+001
1.176926e+003, 3.739666e+001
1.177408e+003, 3.729345e+001
1.177890e+003, 3.717707e+001
1.178372e+003, 3.740831e+001
1.178854e+003, 3.779723e+001
1.179336e+003, 3.794686e+001
1.179818e+003, 3.782523e+001
1.180300e+003, 3.763212e+001
1.180782e+003, 3.744746e+001
1.181265e+003, 3.722528e+001
1.181747e+003, 3.665603e+001
1.182229e+003, 3.638195e+001
1.182711e+003, 3.717583e+001
1.183193e+003, 3.815089e+001
1.183675e+003, 3.841842e+001
1.184157e+003, 3.823598e+001
1.184639e+003, 3.823315e+001
1.185122e+003, 3.848333e+001
1.185604e+003, 3.854215e+001
1.186086e+003, 3.810339e+001
1.186568e+003, 3.780025e+001
1.187050e+003, 3.783321e+001
1.187532e+003, 3.790250e+001
1.188014e+003, 3.794636e+001
1.188496e+003, 3.791228e+001
1.188979e+003, 3.767025e+001
1.189461e+003, 3.733764e+001
1.189943e+003, 3.727275e+001
1.190425e+003, 3.752729e+001
1.190907e+003, 3.775885e+001
1.191389e+003, 3.802649e+001
1.191871e+003, 3.807387e+001
1.192353e+003, 3.776317e+001
1.192835e+003, 3.752506e+001
1.193318e+003, 3.760157e+001
1.193800e+003, 3.777248e+001
1.194282e+003, 3.776516e+001
1.194764e+003, 3.763256e+001
1.195246e+003, 3.757051e+001
1.195728e+003, 3.757882e+001
1.196210e+003, 3.768682e+001
1.196692e+003, 3.788833e+001
1.197174e+003, 3.802734e+001
1.197657e+003, 3.807027e+001
1.198139e+003, 3.817703e+001
1.198621e+003, 3.845319e+001
1.199103e+003, 3.874392e+001
1.199585e+003, 3.880505e+001
1.200067e+003, 3.876468e+001
1.200549e+003, 3.897478e+001
1.201031e+003, 3.924604e+001
1.201514e+003, 3.902865e+001
1.201996e+003, 3.849218e+001
1.202478e+003, 3.834042e+001
1.202960e+003, 3.870385e+001
1.203442e+003, 3.897763e+001
1.203924e+003, 3.873702e+001
1.204406e+003, 3.852803e+001
1.204888e+003, 3.897338e+001
1.205370e+003, 3.939710e+001
1.205853e+003, 3.909373e+001
1.206335e+003, 3.854713e+001
1.206817e+003, 3.829813e+001
1.207299e+003, 3.835290e+001
1.207781e+003, 3.854327e+001
1.208263e+003, 3.883617e+001
1.208745e+003, 3.926560e+001
1.209227e+003, 4.013401e+001
1.209709e+003, 4.069458e+001
1.210192e+003, 4.052568e+001
1.210674e+003, 4.033477e+001
1.211156e+003, 4.036391e+001
1.211638e+003, 4.063764e+001
1.212120e+003, 4.125322e+001
1.212602e+003, 4.212197e+001
1.213084e+003, 4.289804e+001
1.213566e+003, 4.355828e+001
1.214049e+003, 4.421571e+001
1.214531e+003, 4.481110e+001
1.215013e+003, 4.567420e+001
1.215495e+003, 4.692507e+001
1.215977e+003, 4.816889e+001
1.216459e+003, 4.919189e+001
1.216941e+003, 5.011859e+001
1.217423e+003, 5.111644e+001
1.217906e+003, 5.210902e+001
1.218388e+003, 5.288751e+001
1.218870e+003, 5.344096e+001
1.219352e+003, 5.372300e+001
1.219834e+003, 5.372956e+001
1.220316e+003, 5.340607e+001
1.220798e+003, 5.277751e+001
1.221280e+003, 5.204185e+001
1.221762e+003, 5.129920e+001
1.222245e+003, 5.057735e+001
1.222727e+003, 5.003436e+001
1.223209e+003, 4.939330e+001
1.223691e+003, 4.807230e+001
1.224173e+003, 4.666186e+001
1.224655e+003, 4.603901e+001
1.225137e+003, 4.591851e+001
1.225619e+003, 4.572307e+001
1.226101e+003, 4.530406e+001
1.226584e+003, 4.456631e+001
1.227066e+003, 4.330521e+001
1.227548e+003, 4.224891e+001
1.228030e+003, 4.166688e+001
1.228512e+003, 4.131905e+001
1.228994e+003, 4.121308e+001
1.229476e+003, 4.119773e+001
1.229958e+003, 4.128015e+001
1.230441e+003, 4.131112e+001
1.230923e+003, 4.096894e+001
1.231405e+003, 4.027118e+001
1.231887e+003, 3.988242e+001
1.232369e+003, 3.990818e+001
1.232851e+003, 3.992912e+001
1.233333e+003, 3.994138e+001
1.233815e+003, 3.988321e+001
1.234297e+003, 3.971139e+001
1.234780e+003, 3.957442e+001
1.235262e+003, 3.958175e+001
1.235744e+003, 3.968081e+001
1.236226e+003, 3.982407e+001
1.236708e+003, 3.996025e+001
1.237190e+003, 3.976992e+001
1.237672e+003, 3.937573e+001
1.238154e+003, 3.940377e+001
1.238636e+003, 3.980550e+001
1.239119e+003, 4.003827e+001
1.239601e+003, 3.995247e+001
1.240083e+003, 3.974141e+001
1.240565e+003, 3.949389e+001
1.241047e+003, 3.933898e+001
1.241529e+003, 3.948306e+001
1.242011e+003, 3.969326e+001
1.242493e+003, 3.983852e+001
1.242975e+003, 3.983836e+001
1.243458e+003, 3.944268e+001
1.243940e+003, 3.889161e+001
1.244422e+003, 3.875206e+001
1.244904e+003, 3.907545e+001
1.245386e+003, 3.922669e+001
1.245868e+003, 3.884223e+001
1.246350e+003, 3.864545e+001
1.246832e+003, 3.896349e+001
1.247315e+003, 3.920756e+001
1.247797e+003, 3.911580e+001
1.248279e+003, 3.895898e+001
1.248761e+003, 3.890025e+001
1.249243e+003, 3.892660e+001
1.249725e+003, 3.903953e+001
1.250207e+003, 3.922579e+001
1.250689e+003, 3.923809e+001
1.251172e+003, 3.904949e+001
1.251654e+003, 3.898824e+001
1.252136e+003, 3.908327e+001
1.252618e+003, 3.919808e+001
1.253100e+003, 3.929078e+001
1.253582e+003, 3.922348e+001
1.254064e+003, 3.888130e+001
1.254546e+003, 3.855294e+001
1.255028e+003, 3.871156e+001
1.255510e+003, 3.910921e+001
1.255993e+003, 3.934322e+001
1.256475e+003, 3.943355e+001
1.256957e+003, 3.929301e+001
1.257439e+003, 3.907455e+001
1.257921e+003, 3.920210e+001
1.258403e+003, 3.967714e+001
1.258885e+003, 3.998154e+001
1.259367e+003, 3.989077e+001
1.259850e+003, 3.962358e+001
1.260332e+003, 3.897593e+001
1.260814e+003, 3.857877e+001
1.261296e+003, 3.896837e+001
1.261778e+003, 3.947988e+001
1.262260e+003, 3.955735e+001
1.262742e+003, 3.944605e+001
1.263224e+003, 3.959783e+001
1.263707e+003, 3.996947e+001
1.264189e+003, 4.015419e+001
1.264671e+003, 4.006625e+001
1.265153e+003, 4.005456e+001
1.265635e+003, 4.007070e+001
1.266117e+003, 4.050763e+001
1.266599e+003, 4.157442e+001
1.267081e+003, 4.216833e+001
1.267563e+003, 4.163544e+001
1.268046e+003, 4.069214e+001
1.268528e+003, 4.012820e+001
1.269010e+003, 3.988442e+001
1.269492e+003, 3.994515e+001
1.269974e+003, 4.015675e+001
1.270456e+003, 4.005848e+001
1.270938e+003, 3.978553e+001
1.271420e+003, 3.978434e+001
1.271902e+003, 4.006439e+001
1.272385e+003, 4.035664e+001
1.272867e+003, 4.055841e+001
1.273349e+003, 4.060049e+001
1.273831e+003, 4.034645e+001
1.274313e+003, 4.005652e+001
1.274795e+003, 3.977618e+001
1.275277e+003, 3.959782e+001
1.275759e+003, 3.937978e+001
1.276242e+003, 3.945487e+001
1.276724e+003, 4.067926e+001
1.277206e+003, 4.243390e+001
1.277688e+003, 4.254757e+001
1.278170e+003, 4.071692e+001
1.278652e+003, 4.013446e+001
1.279134e+003, 4.130787e+001
1.279616e+003, 4.182906e+001
1.280099e+003, 4.131543e+001
1.280581e+003, 4.085736e+001
1.281063e+003, 4.085590e+001
1.281545e+003, 4.094093e+001
1.282027e+003, 4.082682e+001
1.282509e+003, 4.057920e+001
1.282991e+003, 4.021409e+001
1.283473e+003, 3.985108e+001
1.283955e+003, 3.975630e+001
##END=



