##NAMES=Nordstrandite
##RRUFFID=R130093
##IDEAL CHEMISTRY=Al(OH)_3_
##LOCALITY=Mont St. Hilaire, Quebec, Canada
##OWNER=RRUFF
##SOURCE=Donald Doell
##DESCRIPTION=Aggregates of colorless to white tabular crystals, associated with white natrolite, apatite, dark prismatic aegirine and annite
##STATUS=The identification of this mineral has been confirmed by single-crystal X-ray diffraction.
##URL=rruff.info/R130093
8.975323e+001, 0.000000e+000
9.023535e+001, 1.999715e+002
9.071747e+001, 2.035320e+002
9.119958e+001, 2.040393e+002
9.168170e+001, 2.026411e+002
9.216382e+001, 1.990764e+002
9.264594e+001, 1.944036e+002
9.312805e+001, 1.896909e+002
9.361017e+001, 1.852058e+002
9.409229e+001, 1.802102e+002
9.457440e+001, 1.740986e+002
9.505651e+001, 1.685038e+002
9.553863e+001, 1.634200e+002
9.602074e+001, 1.588996e+002
9.650286e+001, 1.550939e+002
9.698498e+001, 1.519646e+002
9.746709e+001, 1.490108e+002
9.794921e+001, 1.458946e+002
9.843133e+001, 1.422813e+002
9.891344e+001, 1.389366e+002
9.939556e+001, 1.360284e+002
9.987768e+001, 1.334774e+002
1.003598e+002, 1.311551e+002
1.008419e+002, 1.289819e+002
1.013240e+002, 1.269845e+002
1.018061e+002, 1.251677e+002
1.022883e+002, 1.235452e+002
1.027704e+002, 1.220586e+002
1.032525e+002, 1.206572e+002
1.037346e+002, 1.193190e+002
1.042167e+002, 1.181023e+002
1.046988e+002, 1.170307e+002
1.051810e+002, 1.160681e+002
1.056631e+002, 1.152014e+002
1.061452e+002, 1.144872e+002
1.066273e+002, 1.138683e+002
1.071094e+002, 1.131142e+002
1.075915e+002, 1.122029e+002
1.080737e+002, 1.111476e+002
1.085558e+002, 1.098023e+002
1.090379e+002, 1.082996e+002
1.095200e+002, 1.069491e+002
1.100021e+002, 1.059965e+002
1.104842e+002, 1.054497e+002
1.109664e+002, 1.053074e+002
1.114485e+002, 1.057117e+002
1.119306e+002, 1.063580e+002
1.124127e+002, 1.071035e+002
1.128948e+002, 1.079313e+002
1.133769e+002, 1.089348e+002
1.138591e+002, 1.102354e+002
1.143412e+002, 1.119343e+002
1.148233e+002, 1.138504e+002
1.153054e+002, 1.161439e+002
1.157875e+002, 1.185756e+002
1.162696e+002, 1.211198e+002
1.167517e+002, 1.238164e+002
1.172339e+002, 1.262392e+002
1.177160e+002, 1.272801e+002
1.181981e+002, 1.271627e+002
1.186802e+002, 1.257719e+002
1.191623e+002, 1.225467e+002
1.196444e+002, 1.179320e+002
1.201266e+002, 1.130430e+002
1.206087e+002, 1.081773e+002
1.210908e+002, 1.035281e+002
1.215729e+002, 9.930309e+001
1.220550e+002, 9.549841e+001
1.225371e+002, 9.211857e+001
1.230193e+002, 8.926930e+001
1.235014e+002, 8.697390e+001
1.239835e+002, 8.494637e+001
1.244656e+002, 8.318852e+001
1.249477e+002, 8.160191e+001
1.254298e+002, 8.007790e+001
1.259120e+002, 7.852283e+001
1.263941e+002, 7.710317e+001
1.268762e+002, 7.630821e+001
1.273583e+002, 7.669205e+001
1.278404e+002, 7.676762e+001
1.283225e+002, 7.597593e+001
1.288047e+002, 7.468269e+001
1.292868e+002, 7.335952e+001
1.297689e+002, 7.228999e+001
1.302510e+002, 7.146154e+001
1.307331e+002, 7.069517e+001
1.312152e+002, 7.003826e+001
1.316974e+002, 6.939703e+001
1.321795e+002, 6.872442e+001
1.326616e+002, 6.804520e+001
1.331437e+002, 6.742843e+001
1.336258e+002, 6.693829e+001
1.341079e+002, 6.659742e+001
1.345901e+002, 6.623329e+001
1.350722e+002, 6.585788e+001
1.355543e+002, 6.545547e+001
1.360364e+002, 6.498859e+001
1.365185e+002, 6.446549e+001
1.370006e+002, 6.396320e+001
1.374828e+002, 6.359026e+001
1.379649e+002, 6.338250e+001
1.384470e+002, 6.311335e+001
1.389291e+002, 6.280820e+001
1.394112e+002, 6.242076e+001
1.398933e+002, 6.183712e+001
1.403755e+002, 6.098930e+001
1.408576e+002, 6.012359e+001
1.413397e+002, 5.962024e+001
1.418218e+002, 5.944460e+001
1.423039e+002, 5.924241e+001
1.427860e+002, 5.886827e+001
1.432681e+002, 5.835139e+001
1.437503e+002, 5.776068e+001
1.442324e+002, 5.694999e+001
1.447145e+002, 5.627571e+001
1.451966e+002, 5.612580e+001
1.456787e+002, 5.649702e+001
1.461608e+002, 5.684946e+001
1.466430e+002, 5.668899e+001
1.471251e+002, 5.596470e+001
1.476072e+002, 5.521515e+001
1.480893e+002, 5.434095e+001
1.485714e+002, 5.359522e+001
1.490535e+002, 5.321270e+001
1.495357e+002, 5.322478e+001
1.500178e+002, 5.335271e+001
1.504999e+002, 5.314828e+001
1.509820e+002, 5.236076e+001
1.514641e+002, 5.178527e+001
1.519462e+002, 5.158571e+001
1.524284e+002, 5.153113e+001
1.529105e+002, 5.144342e+001
1.533926e+002, 5.125599e+001
1.538747e+002, 5.101867e+001
1.543568e+002, 5.086258e+001
1.548389e+002, 5.109398e+001
1.553211e+002, 5.101884e+001
1.558032e+002, 5.033886e+001
1.562853e+002, 4.941655e+001
1.567674e+002, 4.868622e+001
1.572495e+002, 4.836730e+001
1.577316e+002, 4.837432e+001
1.582138e+002, 4.835872e+001
1.586959e+002, 4.838324e+001
1.591780e+002, 4.832191e+001
1.596601e+002, 4.810586e+001
1.601422e+002, 4.777718e+001
1.606243e+002, 4.743304e+001
1.611065e+002, 4.713421e+001
1.615886e+002, 4.685918e+001
1.620707e+002, 4.652423e+001
1.625528e+002, 4.604917e+001
1.630349e+002, 4.559596e+001
1.635170e+002, 4.521722e+001
1.639991e+002, 4.491882e+001
1.644813e+002, 4.479285e+001
1.649634e+002, 4.506457e+001
1.654455e+002, 4.550860e+001
1.659276e+002, 4.560436e+001
1.664097e+002, 4.507734e+001
1.668918e+002, 4.435402e+001
1.673740e+002, 4.393096e+001
1.678561e+002, 4.386446e+001
1.683382e+002, 4.383383e+001
1.688203e+002, 4.361570e+001
1.693024e+002, 4.333007e+001
1.697845e+002, 4.312671e+001
1.702667e+002, 4.308360e+001
1.707488e+002, 4.314494e+001
1.712309e+002, 4.320053e+001
1.717130e+002, 4.329803e+001
1.721951e+002, 4.329038e+001
1.726772e+002, 4.303947e+001
1.731594e+002, 4.268167e+001
1.736415e+002, 4.240239e+001
1.741236e+002, 4.230151e+001
1.746057e+002, 4.236951e+001
1.750878e+002, 4.256611e+001
1.755699e+002, 4.312310e+001
1.760521e+002, 4.354543e+001
1.765342e+002, 4.359502e+001
1.770163e+002, 4.342460e+001
1.774984e+002, 4.332752e+001
1.779805e+002, 4.355445e+001
1.784626e+002, 4.411078e+001
1.789448e+002, 4.429380e+001
1.794269e+002, 4.393695e+001
1.799090e+002, 4.337761e+001
1.803911e+002, 4.260897e+001
1.808732e+002, 4.170070e+001
1.813553e+002, 4.076077e+001
1.818375e+002, 3.985036e+001
1.823196e+002, 3.893761e+001
1.828017e+002, 3.843925e+001
1.832838e+002, 3.869113e+001
1.837659e+002, 3.896025e+001
1.842480e+002, 3.889140e+001
1.847301e+002, 3.848469e+001
1.852123e+002, 3.793157e+001
1.856944e+002, 3.738040e+001
1.861765e+002, 3.682587e+001
1.866586e+002, 3.641698e+001
1.871407e+002, 3.618188e+001
1.876228e+002, 3.606594e+001
1.881050e+002, 3.609006e+001
1.885871e+002, 3.624589e+001
1.890692e+002, 3.637829e+001
1.895513e+002, 3.631556e+001
1.900334e+002, 3.606140e+001
1.905155e+002, 3.583706e+001
1.909977e+002, 3.568467e+001
1.914798e+002, 3.556545e+001
1.919619e+002, 3.540880e+001
1.924440e+002, 3.518820e+001
1.929261e+002, 3.502921e+001
1.934082e+002, 3.517428e+001
1.938904e+002, 3.551619e+001
1.943725e+002, 3.569818e+001
1.948546e+002, 3.546731e+001
1.953367e+002, 3.502681e+001
1.958188e+002, 3.481315e+001
1.963009e+002, 3.496725e+001
1.967831e+002, 3.511215e+001
1.972652e+002, 3.490352e+001
1.977473e+002, 3.445818e+001
1.982294e+002, 3.407399e+001
1.987115e+002, 3.388789e+001
1.991936e+002, 3.388332e+001
1.996758e+002, 3.401748e+001
2.001579e+002, 3.443318e+001
2.006400e+002, 3.478402e+001
2.011221e+002, 3.486877e+001
2.016042e+002, 3.474980e+001
2.020863e+002, 3.458401e+001
2.025685e+002, 3.449558e+001
2.030506e+002, 3.447437e+001
2.035327e+002, 3.434115e+001
2.040148e+002, 3.396262e+001
2.044969e+002, 3.360532e+001
2.049790e+002, 3.332460e+001
2.054612e+002, 3.314225e+001
2.059433e+002, 3.309673e+001
2.064254e+002, 3.327422e+001
2.069075e+002, 3.369733e+001
2.073896e+002, 3.389944e+001
2.078717e+002, 3.367956e+001
2.083539e+002, 3.340768e+001
2.088360e+002, 3.312378e+001
2.093181e+002, 3.287498e+001
2.098002e+002, 3.274766e+001
2.102823e+002, 3.285897e+001
2.107644e+002, 3.326875e+001
2.112466e+002, 3.336940e+001
2.117287e+002, 3.279166e+001
2.122108e+002, 3.227862e+001
2.126929e+002, 3.218311e+001
2.131750e+002, 3.244115e+001
2.136571e+002, 3.275264e+001
2.141393e+002, 3.283899e+001
2.146214e+002, 3.265568e+001
2.151035e+002, 3.255495e+001
2.155856e+002, 3.257525e+001
2.160677e+002, 3.262323e+001
2.165498e+002, 3.263756e+001
2.170320e+002, 3.262829e+001
2.175141e+002, 3.266712e+001
2.179962e+002, 3.283971e+001
2.184783e+002, 3.317442e+001
2.189604e+002, 3.333584e+001
2.194425e+002, 3.311210e+001
2.199247e+002, 3.290789e+001
2.204068e+002, 3.300494e+001
2.208889e+002, 3.339295e+001
2.213710e+002, 3.383137e+001
2.218531e+002, 3.409200e+001
2.223352e+002, 3.416636e+001
2.228174e+002, 3.444942e+001
2.232995e+002, 3.502225e+001
2.237816e+002, 3.573943e+001
2.242637e+002, 3.658938e+001
2.247458e+002, 3.755175e+001
2.252279e+002, 3.839855e+001
2.257100e+002, 3.900599e+001
2.261922e+002, 3.931855e+001
2.266743e+002, 3.921339e+001
2.271564e+002, 3.838135e+001
2.276385e+002, 3.731305e+001
2.281206e+002, 3.641108e+001
2.286027e+002, 3.569532e+001
2.290849e+002, 3.513199e+001
2.295670e+002, 3.476203e+001
2.300491e+002, 3.453706e+001
2.305312e+002, 3.431710e+001
2.310133e+002, 3.398913e+001
2.314954e+002, 3.370834e+001
2.319776e+002, 3.368554e+001
2.324597e+002, 3.395063e+001
2.329418e+002, 3.426030e+001
2.334239e+002, 3.431898e+001
2.339060e+002, 3.435332e+001
2.343881e+002, 3.477229e+001
2.348703e+002, 3.596119e+001
2.353524e+002, 3.733955e+001
2.358345e+002, 3.807348e+001
2.363166e+002, 3.803721e+001
2.367987e+002, 3.788927e+001
2.372808e+002, 3.808156e+001
2.377630e+002, 3.831712e+001
2.382451e+002, 3.822997e+001
2.387272e+002, 3.763574e+001
2.392093e+002, 3.677457e+001
2.396914e+002, 3.598110e+001
2.401735e+002, 3.521535e+001
2.406557e+002, 3.464455e+001
2.411378e+002, 3.440462e+001
2.416199e+002, 3.434993e+001
2.421020e+002, 3.435303e+001
2.425841e+002, 3.436204e+001
2.430662e+002, 3.444105e+001
2.435484e+002, 3.471113e+001
2.440305e+002, 3.521429e+001
2.445126e+002, 3.580132e+001
2.449947e+002, 3.628326e+001
2.454768e+002, 3.689185e+001
2.459589e+002, 3.785331e+001
2.464410e+002, 3.925233e+001
2.469232e+002, 4.095086e+001
2.474053e+002, 4.283038e+001
2.478874e+002, 4.514231e+001
2.483695e+002, 4.699083e+001
2.488516e+002, 4.844960e+001
2.493337e+002, 4.932652e+001
2.498159e+002, 4.945134e+001
2.502980e+002, 4.877014e+001
2.507801e+002, 4.734880e+001
2.512622e+002, 4.514088e+001
2.517443e+002, 4.161734e+001
2.522264e+002, 3.853187e+001
2.527086e+002, 3.596881e+001
2.531907e+002, 3.386169e+001
2.536728e+002, 3.220071e+001
2.541549e+002, 3.097242e+001
2.546370e+002, 3.008677e+001
2.551191e+002, 2.942500e+001
2.556013e+002, 2.906684e+001
2.560834e+002, 2.878547e+001
2.565655e+002, 2.864606e+001
2.570476e+002, 2.851571e+001
2.575297e+002, 2.825883e+001
2.580118e+002, 2.787568e+001
2.584940e+002, 2.751831e+001
2.589761e+002, 2.741109e+001
2.594582e+002, 2.770017e+001
2.599403e+002, 2.787481e+001
2.604224e+002, 2.785311e+001
2.609045e+002, 2.780682e+001
2.613867e+002, 2.784085e+001
2.618688e+002, 2.796561e+001
2.623509e+002, 2.812490e+001
2.628330e+002, 2.825493e+001
2.633151e+002, 2.834305e+001
2.637972e+002, 2.844802e+001
2.642794e+002, 2.877740e+001
2.647615e+002, 2.895268e+001
2.652436e+002, 2.867291e+001
2.657257e+002, 2.799177e+001
2.662078e+002, 2.722592e+001
2.666899e+002, 2.668278e+001
2.671721e+002, 2.640217e+001
2.676542e+002, 2.611566e+001
2.681363e+002, 2.578526e+001
2.686184e+002, 2.548365e+001
2.691005e+002, 2.523031e+001
2.695826e+002, 2.503518e+001
2.700648e+002, 2.491784e+001
2.705469e+002, 2.490087e+001
2.710290e+002, 2.498780e+001
2.715111e+002, 2.508082e+001
2.719932e+002, 2.524884e+001
2.724753e+002, 2.535558e+001
2.729575e+002, 2.526509e+001
2.734396e+002, 2.505322e+001
2.739217e+002, 2.493320e+001
2.744038e+002, 2.506326e+001
2.748859e+002, 2.541734e+001
2.753680e+002, 2.567047e+001
2.758501e+002, 2.568974e+001
2.763322e+002, 2.577612e+001
2.768144e+002, 2.603209e+001
2.772965e+002, 2.643253e+001
2.777786e+002, 2.693289e+001
2.782607e+002, 2.752866e+001
2.787428e+002, 2.817764e+001
2.792249e+002, 2.869459e+001
2.797071e+002, 2.884373e+001
2.801892e+002, 2.916243e+001
2.806713e+002, 2.979974e+001
2.811534e+002, 3.069480e+001
2.816355e+002, 3.177753e+001
2.821176e+002, 3.303890e+001
2.825998e+002, 3.440359e+001
2.830819e+002, 3.569450e+001
2.835640e+002, 3.724440e+001
2.840461e+002, 3.816398e+001
2.845282e+002, 3.801759e+001
2.850103e+002, 3.719743e+001
2.854925e+002, 3.621709e+001
2.859746e+002, 3.522332e+001
2.864567e+002, 3.423211e+001
2.869388e+002, 3.324046e+001
2.874209e+002, 3.219921e+001
2.879030e+002, 3.132772e+001
2.883852e+002, 3.061337e+001
2.888673e+002, 3.011224e+001
2.893494e+002, 2.993290e+001
2.898315e+002, 3.010503e+001
2.903136e+002, 3.048489e+001
2.907957e+002, 3.093040e+001
2.912779e+002, 3.144503e+001
2.917600e+002, 3.199533e+001
2.922421e+002, 3.260145e+001
2.927242e+002, 3.322882e+001
2.932063e+002, 3.374960e+001
2.936884e+002, 3.415870e+001
2.941706e+002, 3.478340e+001
2.946527e+002, 3.601482e+001
2.951348e+002, 3.786847e+001
2.956169e+002, 3.950854e+001
2.960990e+002, 4.058367e+001
2.965811e+002, 4.166961e+001
2.970633e+002, 4.320549e+001
2.975454e+002, 4.519262e+001
2.980275e+002, 4.741942e+001
2.985096e+002, 4.971688e+001
2.989917e+002, 5.215499e+001
2.994738e+002, 5.496904e+001
2.999560e+002, 5.844268e+001
3.004381e+002, 6.200075e+001
3.009202e+002, 6.558092e+001
3.014023e+002, 6.906235e+001
3.018844e+002, 7.204823e+001
3.023665e+002, 7.448837e+001
3.028487e+002, 7.612321e+001
3.033308e+002, 7.641837e+001
3.038129e+002, 7.520728e+001
3.042950e+002, 7.314396e+001
3.047771e+002, 7.026172e+001
3.052592e+002, 6.673040e+001
3.057414e+002, 6.287256e+001
3.062235e+002, 5.865719e+001
3.067056e+002, 5.446148e+001
3.071877e+002, 5.106503e+001
3.076698e+002, 4.845891e+001
3.081519e+002, 4.630703e+001
3.086341e+002, 4.455521e+001
3.091162e+002, 4.318074e+001
3.095983e+002, 4.226415e+001
3.100804e+002, 4.189711e+001
3.105625e+002, 4.169926e+001
3.110446e+002, 4.120259e+001
3.115268e+002, 4.042011e+001
3.120089e+002, 3.945771e+001
3.124910e+002, 3.831546e+001
3.129731e+002, 3.701286e+001
3.134552e+002, 3.550183e+001
3.139373e+002, 3.377040e+001
3.144195e+002, 3.203159e+001
3.149016e+002, 3.046092e+001
3.153837e+002, 2.905680e+001
3.158658e+002, 2.774662e+001
3.163479e+002, 2.637110e+001
3.168300e+002, 2.519689e+001
3.173121e+002, 2.455490e+001
3.177943e+002, 2.441372e+001
3.182764e+002, 2.431953e+001
3.187585e+002, 2.399038e+001
3.192406e+002, 2.345440e+001
3.197227e+002, 2.291208e+001
3.202048e+002, 2.218957e+001
3.206870e+002, 2.162765e+001
3.211691e+002, 2.156396e+001
3.216512e+002, 2.185556e+001
3.221333e+002, 2.195615e+001
3.226154e+002, 2.153550e+001
3.230975e+002, 2.086156e+001
3.235797e+002, 2.066097e+001
3.240618e+002, 2.117219e+001
3.245439e+002, 2.155112e+001
3.250260e+002, 2.134609e+001
3.255081e+002, 2.082787e+001
3.259902e+002, 2.053515e+001
3.264724e+002, 2.066621e+001
3.269545e+002, 2.095712e+001
3.274366e+002, 2.098690e+001
3.279187e+002, 2.072104e+001
3.284008e+002, 2.046758e+001
3.288829e+002, 2.026731e+001
3.293651e+002, 2.011573e+001
3.298472e+002, 2.002668e+001
3.303293e+002, 2.000256e+001
3.308114e+002, 1.997862e+001
3.312935e+002, 1.986999e+001
3.317756e+002, 1.966899e+001
3.322578e+002, 1.957528e+001
3.327399e+002, 1.971926e+001
3.332220e+002, 1.987864e+001
3.337041e+002, 1.988853e+001
3.341862e+002, 1.975161e+001
3.346683e+002, 1.954903e+001
3.351505e+002, 1.929804e+001
3.356326e+002, 1.903340e+001
3.361147e+002, 1.897435e+001
3.365968e+002, 1.931329e+001
3.370789e+002, 1.962971e+001
3.375610e+002, 1.973914e+001
3.380432e+002, 1.969159e+001
3.385253e+002, 1.958675e+001
3.390074e+002, 1.945185e+001
3.394895e+002, 1.933201e+001
3.399716e+002, 1.937515e+001
3.404537e+002, 1.973355e+001
3.409359e+002, 1.995627e+001
3.414180e+002, 1.989371e+001
3.419001e+002, 1.967215e+001
3.423822e+002, 1.941245e+001
3.428643e+002, 1.914953e+001
3.433464e+002, 1.895157e+001
3.438286e+002, 1.891883e+001
3.443107e+002, 1.910818e+001
3.447928e+002, 1.933388e+001
3.452749e+002, 1.967150e+001
3.457570e+002, 1.999078e+001
3.462391e+002, 2.017778e+001
3.467213e+002, 2.023133e+001
3.472034e+002, 2.023508e+001
3.476855e+002, 2.025173e+001
3.481676e+002, 2.028062e+001
3.486497e+002, 2.037526e+001
3.491318e+002, 2.072107e+001
3.496140e+002, 2.093803e+001
3.500961e+002, 2.077277e+001
3.505782e+002, 2.034684e+001
3.510603e+002, 1.994048e+001
3.515424e+002, 1.971454e+001
3.520245e+002, 1.964118e+001
3.525067e+002, 1.960416e+001
3.529888e+002, 1.964160e+001
3.534709e+002, 1.966802e+001
3.539530e+002, 1.972968e+001
3.544351e+002, 1.975289e+001
3.549172e+002, 1.961239e+001
3.553994e+002, 1.927076e+001
3.558815e+002, 1.886405e+001
3.563636e+002, 1.861457e+001
3.568457e+002, 1.854167e+001
3.573278e+002, 1.861873e+001
3.578099e+002, 1.904213e+001
3.582920e+002, 1.945535e+001
3.587741e+002, 1.956742e+001
3.592563e+002, 1.938821e+001
3.597384e+002, 1.915553e+001
3.602205e+002, 1.909813e+001
3.607026e+002, 1.923098e+001
3.611847e+002, 1.940081e+001
3.616668e+002, 1.965693e+001
3.621490e+002, 1.989606e+001
3.626311e+002, 2.008789e+001
3.631132e+002, 2.023756e+001
3.635953e+002, 2.035619e+001
3.640774e+002, 2.045044e+001
3.645595e+002, 2.052092e+001
3.650417e+002, 2.056522e+001
3.655238e+002, 2.049885e+001
3.660059e+002, 2.052894e+001
3.664880e+002, 2.065137e+001
3.669701e+002, 2.088814e+001
3.674522e+002, 2.127869e+001
3.679344e+002, 2.182853e+001
3.684165e+002, 2.247931e+001
3.688986e+002, 2.315784e+001
3.693807e+002, 2.389059e+001
3.698628e+002, 2.457399e+001
3.703449e+002, 2.516088e+001
3.708271e+002, 2.573937e+001
3.713092e+002, 2.631888e+001
3.717913e+002, 2.692520e+001
3.722734e+002, 2.763689e+001
3.727555e+002, 2.855013e+001
3.732376e+002, 2.965526e+001
3.737198e+002, 3.068529e+001
3.742019e+002, 3.156395e+001
3.746840e+002, 3.246187e+001
3.751661e+002, 3.358540e+001
3.756482e+002, 3.473457e+001
3.761303e+002, 3.561646e+001
3.766125e+002, 3.610923e+001
3.770946e+002, 3.622091e+001
3.775767e+002, 3.590453e+001
3.780588e+002, 3.500245e+001
3.785409e+002, 3.411541e+001
3.790230e+002, 3.345455e+001
3.795052e+002, 3.284415e+001
3.799873e+002, 3.210685e+001
3.804694e+002, 3.121081e+001
3.809515e+002, 3.036986e+001
3.814336e+002, 2.982532e+001
3.819157e+002, 2.957077e+001
3.823979e+002, 2.934226e+001
3.828800e+002, 2.903456e+001
3.833621e+002, 2.884623e+001
3.838442e+002, 2.892288e+001
3.843263e+002, 2.921944e+001
3.848084e+002, 2.957315e+001
3.852906e+002, 2.993731e+001
3.857727e+002, 3.028895e+001
3.862548e+002, 3.061143e+001
3.867369e+002, 3.094364e+001
3.872190e+002, 3.110077e+001
3.877011e+002, 3.088306e+001
3.881833e+002, 3.044247e+001
3.886654e+002, 2.999911e+001
3.891475e+002, 2.967916e+001
3.896296e+002, 2.920815e+001
3.901117e+002, 2.821025e+001
3.905938e+002, 2.676084e+001
3.910760e+002, 2.548579e+001
3.915581e+002, 2.461503e+001
3.920402e+002, 2.398089e+001
3.925223e+002, 2.333950e+001
3.930044e+002, 2.268239e+001
3.934865e+002, 2.209816e+001
3.939687e+002, 2.166924e+001
3.944508e+002, 2.132063e+001
3.949329e+002, 2.092329e+001
3.954150e+002, 2.044817e+001
3.958971e+002, 2.000056e+001
3.963792e+002, 1.965501e+001
3.968614e+002, 1.942066e+001
3.973435e+002, 1.929316e+001
3.978256e+002, 1.934911e+001
3.983077e+002, 1.944334e+001
3.987898e+002, 1.952899e+001
3.992719e+002, 1.958242e+001
3.997540e+002, 1.949067e+001
4.002361e+002, 1.914408e+001
4.007183e+002, 1.870122e+001
4.012004e+002, 1.866153e+001
4.016825e+002, 1.928938e+001
4.021646e+002, 1.978800e+001
4.026467e+002, 1.992537e+001
4.031288e+002, 1.990594e+001
4.036110e+002, 1.991877e+001
4.040931e+002, 2.001788e+001
4.045752e+002, 2.024407e+001
4.050573e+002, 2.067289e+001
4.055394e+002, 2.137336e+001
4.060215e+002, 2.191159e+001
4.065037e+002, 2.208844e+001
4.069858e+002, 2.231133e+001
4.074679e+002, 2.285244e+001
4.079500e+002, 2.361130e+001
4.084321e+002, 2.433670e+001
4.089142e+002, 2.489198e+001
4.093964e+002, 2.525913e+001
4.098785e+002, 2.536703e+001
4.103606e+002, 2.506739e+001
4.108427e+002, 2.467358e+001
4.113248e+002, 2.413617e+001
4.118069e+002, 2.355947e+001
4.122891e+002, 2.306570e+001
4.127712e+002, 2.267511e+001
4.132533e+002, 2.227524e+001
4.137354e+002, 2.169019e+001
4.142175e+002, 2.084005e+001
4.146996e+002, 2.011550e+001
4.151818e+002, 1.947866e+001
4.156639e+002, 1.901311e+001
4.161460e+002, 1.879497e+001
4.166281e+002, 1.878079e+001
4.171102e+002, 1.889259e+001
4.175923e+002, 1.912622e+001
4.180745e+002, 1.940658e+001
4.185566e+002, 1.946093e+001
4.190387e+002, 1.919963e+001
4.195208e+002, 1.890689e+001
4.200029e+002, 1.862435e+001
4.204850e+002, 1.837754e+001
4.209672e+002, 1.820189e+001
4.214493e+002, 1.810709e+001
4.219314e+002, 1.804870e+001
4.224135e+002, 1.796749e+001
4.228956e+002, 1.786813e+001
4.233777e+002, 1.785139e+001
4.238599e+002, 1.797743e+001
4.243420e+002, 1.812879e+001
4.248241e+002, 1.824448e+001
4.253062e+002, 1.831696e+001
4.257883e+002, 1.831415e+001
4.262704e+002, 1.810673e+001
4.267526e+002, 1.786871e+001
4.272347e+002, 1.789119e+001
4.277168e+002, 1.818884e+001
4.281989e+002, 1.851365e+001
4.286810e+002, 1.873936e+001
4.291631e+002, 1.890584e+001
4.296453e+002, 1.911854e+001
4.301274e+002, 1.942755e+001
4.306095e+002, 1.966989e+001
4.310916e+002, 1.968227e+001
4.315737e+002, 1.958243e+001
4.320558e+002, 1.963324e+001
4.325380e+002, 1.991458e+001
4.330201e+002, 2.024767e+001
4.335022e+002, 2.044777e+001
4.339843e+002, 2.050420e+001
4.344664e+002, 2.041697e+001
4.349485e+002, 2.007917e+001
4.354307e+002, 1.968805e+001
4.359128e+002, 1.935717e+001
4.363949e+002, 1.908600e+001
4.368770e+002, 1.884651e+001
4.373591e+002, 1.862876e+001
4.378412e+002, 1.841844e+001
4.383234e+002, 1.816403e+001
4.388055e+002, 1.768020e+001
4.392876e+002, 1.739263e+001
4.397697e+002, 1.740873e+001
4.402518e+002, 1.758953e+001
4.407339e+002, 1.788447e+001
4.412160e+002, 1.824265e+001
4.416982e+002, 1.851392e+001
4.421803e+002, 1.851236e+001
4.426624e+002, 1.820256e+001
4.431445e+002, 1.787893e+001
4.436266e+002, 1.748830e+001
4.441087e+002, 1.714039e+001
4.445909e+002, 1.691212e+001
4.450730e+002, 1.674355e+001
4.455551e+002, 1.651783e+001
4.460372e+002, 1.616792e+001
4.465193e+002, 1.577748e+001
4.470014e+002, 1.555237e+001
4.474836e+002, 1.556642e+001
4.479657e+002, 1.552576e+001
4.484478e+002, 1.529968e+001
4.489299e+002, 1.505748e+001
4.494120e+002, 1.488939e+001
4.498941e+002, 1.480702e+001
4.503763e+002, 1.479438e+001
4.508584e+002, 1.488324e+001
4.513405e+002, 1.504042e+001
4.518226e+002, 1.511219e+001
4.523047e+002, 1.506527e+001
4.527868e+002, 1.500855e+001
4.532690e+002, 1.503424e+001
4.537511e+002, 1.508363e+001
4.542332e+002, 1.505937e+001
4.547153e+002, 1.489891e+001
4.551974e+002, 1.474347e+001
4.556795e+002, 1.474565e+001
4.561617e+002, 1.486348e+001
4.566438e+002, 1.489322e+001
4.571259e+002, 1.473920e+001
4.576080e+002, 1.455975e+001
4.580901e+002, 1.459135e+001
4.585722e+002, 1.483043e+001
4.590544e+002, 1.503009e+001
4.595365e+002, 1.518355e+001
4.600186e+002, 1.525294e+001
4.605007e+002, 1.512598e+001
4.609828e+002, 1.485007e+001
4.614649e+002, 1.467867e+001
4.619471e+002, 1.478355e+001
4.624292e+002, 1.509473e+001
4.629113e+002, 1.532473e+001
4.633934e+002, 1.552652e+001
4.638755e+002, 1.558592e+001
4.643576e+002, 1.531754e+001
4.648398e+002, 1.499396e+001
4.653219e+002, 1.494884e+001
4.658040e+002, 1.521733e+001
4.662861e+002, 1.551622e+001
4.667682e+002, 1.551633e+001
4.672503e+002, 1.517073e+001
4.677325e+002, 1.497908e+001
4.682146e+002, 1.504899e+001
4.686967e+002, 1.516172e+001
4.691788e+002, 1.529106e+001
4.696609e+002, 1.541883e+001
4.701430e+002, 1.553186e+001
4.706252e+002, 1.562556e+001
4.711073e+002, 1.568627e+001
4.715894e+002, 1.567631e+001
4.720715e+002, 1.557333e+001
4.725536e+002, 1.549779e+001
4.730357e+002, 1.545642e+001
4.735179e+002, 1.545953e+001
4.740000e+002, 1.554473e+001
4.744821e+002, 1.568885e+001
4.749642e+002, 1.580463e+001
4.754463e+002, 1.581599e+001
4.759284e+002, 1.577225e+001
4.764106e+002, 1.576633e+001
4.768927e+002, 1.579208e+001
4.773748e+002, 1.589778e+001
4.778569e+002, 1.614804e+001
4.783390e+002, 1.647344e+001
4.788211e+002, 1.677593e+001
4.793033e+002, 1.706787e+001
4.797854e+002, 1.727576e+001
4.802675e+002, 1.728688e+001
4.807496e+002, 1.720762e+001
4.812317e+002, 1.721390e+001
4.817138e+002, 1.733477e+001
4.821959e+002, 1.757853e+001
4.826780e+002, 1.799440e+001
4.831602e+002, 1.857597e+001
4.836423e+002, 1.902975e+001
4.841244e+002, 1.930791e+001
4.846065e+002, 1.951872e+001
4.850886e+002, 1.965722e+001
4.855707e+002, 1.976973e+001
4.860529e+002, 1.993112e+001
4.865350e+002, 2.016972e+001
4.870171e+002, 2.046048e+001
4.874992e+002, 2.076297e+001
4.879813e+002, 2.108752e+001
4.884634e+002, 2.140157e+001
4.889456e+002, 2.177530e+001
4.894277e+002, 2.207408e+001
4.899098e+002, 2.216145e+001
4.903919e+002, 2.212204e+001
4.908740e+002, 2.215205e+001
4.913561e+002, 2.237805e+001
4.918383e+002, 2.272542e+001
4.923204e+002, 2.298594e+001
4.928025e+002, 2.312523e+001
4.932846e+002, 2.327124e+001
4.937667e+002, 2.349900e+001
4.942488e+002, 2.370563e+001
4.947310e+002, 2.380911e+001
4.952131e+002, 2.381158e+001
4.956952e+002, 2.379138e+001
4.961773e+002, 2.381551e+001
4.966594e+002, 2.385672e+001
4.971415e+002, 2.380388e+001
4.976237e+002, 2.361443e+001
4.981058e+002, 2.352744e+001
4.985879e+002, 2.374514e+001
4.990700e+002, 2.412697e+001
4.995521e+002, 2.440617e+001
5.000342e+002, 2.456851e+001
5.005164e+002, 2.463259e+001
5.009985e+002, 2.450477e+001
5.014806e+002, 2.431259e+001
5.019627e+002, 2.433830e+001
5.024448e+002, 2.464293e+001
5.029269e+002, 2.492101e+001
5.034091e+002, 2.484645e+001
5.038912e+002, 2.440220e+001
5.043733e+002, 2.418950e+001
5.048554e+002, 2.442780e+001
5.053375e+002, 2.462486e+001
5.058196e+002, 2.459251e+001
5.063018e+002, 2.441056e+001
5.067839e+002, 2.421717e+001
5.072660e+002, 2.406048e+001
5.077481e+002, 2.387203e+001
5.082302e+002, 2.352453e+001
5.087123e+002, 2.293345e+001
5.091945e+002, 2.248860e+001
5.096766e+002, 2.233518e+001
5.101587e+002, 2.218431e+001
5.106408e+002, 2.190891e+001
5.111229e+002, 2.155716e+001
5.116050e+002, 2.123206e+001
5.120872e+002, 2.098423e+001
5.125693e+002, 2.078797e+001
5.130514e+002, 2.058461e+001
5.135335e+002, 2.036221e+001
5.140156e+002, 2.022750e+001
5.144977e+002, 2.029399e+001
5.149799e+002, 2.036361e+001
5.154620e+002, 2.019374e+001
5.159441e+002, 1.983899e+001
5.164262e+002, 1.966564e+001
5.169083e+002, 1.997894e+001
5.173904e+002, 2.046963e+001
5.178726e+002, 2.076728e+001
5.183547e+002, 2.087107e+001
5.188368e+002, 2.083545e+001
5.193189e+002, 2.060710e+001
5.198010e+002, 2.034765e+001
5.202831e+002, 2.046986e+001
5.207653e+002, 2.109077e+001
5.212474e+002, 2.165989e+001
5.217295e+002, 2.205993e+001
5.222116e+002, 2.238768e+001
5.226937e+002, 2.268129e+001
5.231758e+002, 2.296991e+001
5.236580e+002, 2.331701e+001
5.241401e+002, 2.375720e+001
5.246222e+002, 2.430272e+001
5.251043e+002, 2.504507e+001
5.255864e+002, 2.618384e+001
5.260685e+002, 2.723080e+001
5.265507e+002, 2.804295e+001
5.270328e+002, 2.882517e+001
5.275149e+002, 2.975854e+001
5.279970e+002, 3.085054e+001
5.284791e+002, 3.196339e+001
5.289612e+002, 3.295805e+001
5.294434e+002, 3.386348e+001
5.299255e+002, 3.486847e+001
5.304076e+002, 3.597253e+001
5.308897e+002, 3.717226e+001
5.313718e+002, 3.851934e+001
5.318539e+002, 3.993539e+001
5.323361e+002, 4.138404e+001
5.328182e+002, 4.287203e+001
5.333003e+002, 4.429482e+001
5.337824e+002, 4.562711e+001
5.342645e+002, 4.684220e+001
5.347466e+002, 4.791157e+001
5.352288e+002, 4.883556e+001
5.357109e+002, 4.955256e+001
5.361930e+002, 4.997573e+001
5.366751e+002, 5.013961e+001
5.371572e+002, 5.029436e+001
5.376393e+002, 5.064556e+001
5.381215e+002, 5.074076e+001
5.386036e+002, 5.039334e+001
5.390857e+002, 4.974673e+001
5.395678e+002, 4.892711e+001
5.400499e+002, 4.798574e+001
5.405320e+002, 4.699239e+001
5.410142e+002, 4.601905e+001
5.414963e+002, 4.506520e+001
5.419784e+002, 4.414703e+001
5.424604e+002, 4.353467e+001
5.429426e+002, 4.262658e+001
5.434247e+002, 4.112120e+001
5.439068e+002, 3.934878e+001
5.443889e+002, 3.764496e+001
5.448710e+002, 3.610740e+001
5.453531e+002, 3.471189e+001
5.458353e+002, 3.349356e+001
5.463174e+002, 3.243233e+001
5.467995e+002, 3.133224e+001
5.472816e+002, 3.014061e+001
5.477637e+002, 2.900439e+001
5.482458e+002, 2.803561e+001
5.487280e+002, 2.718137e+001
5.492101e+002, 2.636171e+001
5.496922e+002, 2.557361e+001
5.501743e+002, 2.480527e+001
5.506564e+002, 2.400476e+001
5.511385e+002, 2.322392e+001
5.516207e+002, 2.257128e+001
5.521028e+002, 2.207015e+001
5.525849e+002, 2.167542e+001
5.530670e+002, 2.136746e+001
5.535491e+002, 2.114571e+001
5.540313e+002, 2.085163e+001
5.545134e+002, 2.041562e+001
5.549955e+002, 2.000229e+001
5.554776e+002, 1.961384e+001
5.559597e+002, 1.928993e+001
5.564418e+002, 1.913394e+001
5.569240e+002, 1.914619e+001
5.574061e+002, 1.914039e+001
5.578882e+002, 1.885286e+001
5.583703e+002, 1.826596e+001
5.588524e+002, 1.794655e+001
5.593345e+002, 1.809742e+001
5.598167e+002, 1.823530e+001
5.602988e+002, 1.821794e+001
5.607809e+002, 1.808935e+001
5.612630e+002, 1.788822e+001
5.617451e+002, 1.761961e+001
5.622272e+002, 1.733203e+001
5.627094e+002, 1.705260e+001
5.631915e+002, 1.678732e+001
5.636736e+002, 1.655126e+001
5.641557e+002, 1.634105e+001
5.646378e+002, 1.618166e+001
5.651199e+002, 1.609133e+001
5.656021e+002, 1.607105e+001
5.660842e+002, 1.610296e+001
5.665663e+002, 1.626712e+001
5.670484e+002, 1.636975e+001
5.675305e+002, 1.629868e+001
5.680126e+002, 1.615181e+001
5.684948e+002, 1.602869e+001
5.689769e+002, 1.595771e+001
5.694590e+002, 1.596194e+001
5.699411e+002, 1.608003e+001
5.704232e+002, 1.630148e+001
5.709053e+002, 1.641486e+001
5.713875e+002, 1.635416e+001
5.718696e+002, 1.626791e+001
5.723517e+002, 1.615657e+001
5.728338e+002, 1.604496e+001
5.733159e+002, 1.594625e+001
5.737980e+002, 1.586628e+001
5.742802e+002, 1.582097e+001
5.747623e+002, 1.585766e+001
5.752444e+002, 1.594471e+001
5.757265e+002, 1.591761e+001
5.762086e+002, 1.572816e+001
5.766907e+002, 1.563217e+001
5.771729e+002, 1.582062e+001
5.776550e+002, 1.613644e+001
5.781371e+002, 1.630970e+001
5.786192e+002, 1.629816e+001
5.791013e+002, 1.631572e+001
5.795834e+002, 1.650489e+001
5.800656e+002, 1.672856e+001
5.805477e+002, 1.678440e+001
5.810298e+002, 1.669176e+001
5.815119e+002, 1.668055e+001
5.819940e+002, 1.691310e+001
5.824761e+002, 1.730155e+001
5.829583e+002, 1.754523e+001
5.834404e+002, 1.751033e+001
5.839225e+002, 1.753025e+001
5.844046e+002, 1.761146e+001
5.848867e+002, 1.774489e+001
5.853688e+002, 1.794851e+001
5.858510e+002, 1.820096e+001
5.863331e+002, 1.844801e+001
5.868152e+002, 1.865495e+001
5.872973e+002, 1.883637e+001
5.877794e+002, 1.902040e+001
5.882615e+002, 1.920653e+001
5.887437e+002, 1.939709e+001
5.892258e+002, 1.956858e+001
5.897079e+002, 1.977456e+001
5.901900e+002, 2.011382e+001
5.906721e+002, 2.055320e+001
5.911542e+002, 2.086670e+001
5.916364e+002, 2.086727e+001
5.921185e+002, 2.081446e+001
5.926006e+002, 2.096972e+001
5.930827e+002, 2.125621e+001
5.935648e+002, 2.140989e+001
5.940469e+002, 2.132463e+001
5.945291e+002, 2.118933e+001
5.950112e+002, 2.128836e+001
5.954933e+002, 2.171629e+001
5.959754e+002, 2.194628e+001
5.964575e+002, 2.189435e+001
5.969396e+002, 2.177027e+001
5.974218e+002, 2.158847e+001
5.979039e+002, 2.140202e+001
5.983860e+002, 2.130380e+001
5.988681e+002, 2.131980e+001
5.993502e+002, 2.131914e+001
5.998323e+002, 2.109151e+001
6.003145e+002, 2.064893e+001
6.007966e+002, 2.037183e+001
6.012787e+002, 2.034573e+001
6.017608e+002, 2.033904e+001
6.022429e+002, 2.026443e+001
6.027250e+002, 2.011053e+001
6.032072e+002, 1.982953e+001
6.036893e+002, 1.935889e+001
6.041714e+002, 1.892753e+001
6.046535e+002, 1.873571e+001
6.051356e+002, 1.861475e+001
6.056177e+002, 1.826957e+001
6.060999e+002, 1.769200e+001
6.065820e+002, 1.714897e+001
6.070641e+002, 1.683131e+001
6.075462e+002, 1.670710e+001
6.080283e+002, 1.663040e+001
6.085104e+002, 1.658619e+001
6.089926e+002, 1.661876e+001
6.094747e+002, 1.687506e+001
6.099568e+002, 1.708834e+001
6.104389e+002, 1.704513e+001
6.109210e+002, 1.677898e+001
6.114031e+002, 1.645106e+001
6.118853e+002, 1.612208e+001
6.123674e+002, 1.586132e+001
6.128495e+002, 1.588894e+001
6.133316e+002, 1.624523e+001
6.138137e+002, 1.640187e+001
6.142958e+002, 1.615885e+001
6.147780e+002, 1.576819e+001
6.152601e+002, 1.541363e+001
6.157422e+002, 1.510585e+001
6.162243e+002, 1.495725e+001
6.167064e+002, 1.511601e+001
6.171885e+002, 1.531608e+001
6.176707e+002, 1.540755e+001
6.181528e+002, 1.541309e+001
6.186349e+002, 1.537133e+001
6.191170e+002, 1.529626e+001
6.195991e+002, 1.521806e+001
6.200812e+002, 1.517378e+001
6.205634e+002, 1.516593e+001
6.210455e+002, 1.515031e+001
6.215276e+002, 1.508799e+001
6.220097e+002, 1.506771e+001
6.224918e+002, 1.514551e+001
6.229739e+002, 1.525213e+001
6.234561e+002, 1.529160e+001
6.239382e+002, 1.525517e+001
6.244203e+002, 1.526618e+001
6.249023e+002, 1.552385e+001
6.253845e+002, 1.589146e+001
6.258666e+002, 1.593569e+001
6.263487e+002, 1.561498e+001
6.268308e+002, 1.537905e+001
6.273129e+002, 1.546462e+001
6.277950e+002, 1.572220e+001
6.282772e+002, 1.588063e+001
6.287593e+002, 1.593589e+001
6.292414e+002, 1.594416e+001
6.297235e+002, 1.586742e+001
6.302056e+002, 1.578758e+001
6.306877e+002, 1.575831e+001
6.311699e+002, 1.577263e+001
6.316520e+002, 1.579900e+001
6.321341e+002, 1.582279e+001
6.326162e+002, 1.586611e+001
6.330983e+002, 1.598100e+001
6.335804e+002, 1.619326e+001
6.340626e+002, 1.634879e+001
6.345447e+002, 1.645000e+001
6.350268e+002, 1.648284e+001
6.355089e+002, 1.643606e+001
6.359910e+002, 1.632689e+001
6.364731e+002, 1.615866e+001
6.369553e+002, 1.590750e+001
6.374374e+002, 1.571375e+001
6.379195e+002, 1.571439e+001
6.384016e+002, 1.583088e+001
6.388837e+002, 1.590229e+001
6.393658e+002, 1.591343e+001
6.398480e+002, 1.599208e+001
6.403301e+002, 1.625611e+001
6.408122e+002, 1.660947e+001
6.412943e+002, 1.672906e+001
6.417764e+002, 1.637549e+001
6.422585e+002, 1.613266e+001
6.427407e+002, 1.598532e+001
6.432228e+002, 1.596113e+001
6.437049e+002, 1.614307e+001
6.441870e+002, 1.646035e+001
6.446691e+002, 1.675484e+001
6.451512e+002, 1.694491e+001
6.456334e+002, 1.706333e+001
6.461155e+002, 1.716565e+001
6.465976e+002, 1.725159e+001
6.470797e+002, 1.726666e+001
6.475618e+002, 1.718107e+001
6.480439e+002, 1.706690e+001
6.485261e+002, 1.690601e+001
6.490082e+002, 1.676090e+001
6.494903e+002, 1.685030e+001
6.499724e+002, 1.744429e+001
6.504545e+002, 1.788174e+001
6.509366e+002, 1.772724e+001
6.514188e+002, 1.737180e+001
6.519009e+002, 1.732255e+001
6.523830e+002, 1.759883e+001
6.528651e+002, 1.784836e+001
6.533472e+002, 1.779600e+001
6.538293e+002, 1.754576e+001
6.543115e+002, 1.751806e+001
6.547936e+002, 1.789122e+001
6.552757e+002, 1.805314e+001
6.557578e+002, 1.771808e+001
6.562399e+002, 1.732007e+001
6.567220e+002, 1.711604e+001
6.572042e+002, 1.704763e+001
6.576863e+002, 1.690246e+001
6.581684e+002, 1.656885e+001
6.586505e+002, 1.617938e+001
6.591326e+002, 1.582573e+001
6.596147e+002, 1.551775e+001
6.600969e+002, 1.529500e+001
6.605790e+002, 1.516888e+001
6.610611e+002, 1.505759e+001
6.615432e+002, 1.488051e+001
6.620253e+002, 1.464975e+001
6.625074e+002, 1.449912e+001
6.629896e+002, 1.454193e+001
6.634717e+002, 1.451512e+001
6.639538e+002, 1.439185e+001
6.644359e+002, 1.419406e+001
6.649180e+002, 1.389813e+001
6.654001e+002, 1.353803e+001
6.658823e+002, 1.321354e+001
6.663644e+002, 1.298585e+001
6.668465e+002, 1.282628e+001
6.673286e+002, 1.268222e+001
6.678107e+002, 1.255409e+001
6.682928e+002, 1.245691e+001
6.687750e+002, 1.239553e+001
6.692571e+002, 1.236441e+001
6.697392e+002, 1.237670e+001
6.702213e+002, 1.242385e+001
6.707034e+002, 1.242371e+001
6.711855e+002, 1.236990e+001
6.716677e+002, 1.227494e+001
6.721498e+002, 1.206340e+001
6.726319e+002, 1.186011e+001
6.731140e+002, 1.184493e+001
6.735961e+002, 1.200236e+001
6.740782e+002, 1.213006e+001
6.745604e+002, 1.206405e+001
6.750425e+002, 1.187095e+001
6.755246e+002, 1.177417e+001
6.760067e+002, 1.179843e+001
6.764888e+002, 1.181226e+001
6.769709e+002, 1.181187e+001
6.774531e+002, 1.176761e+001
6.779352e+002, 1.161440e+001
6.784173e+002, 1.139416e+001
6.788994e+002, 1.125958e+001
6.793815e+002, 1.125463e+001
6.798636e+002, 1.133145e+001
6.803458e+002, 1.153291e+001
6.808279e+002, 1.177076e+001
6.813100e+002, 1.191256e+001
6.817921e+002, 1.193410e+001
6.822742e+002, 1.186373e+001
6.827563e+002, 1.170540e+001
6.832385e+002, 1.149717e+001
6.837206e+002, 1.144189e+001
6.842027e+002, 1.165256e+001
6.846848e+002, 1.176876e+001
6.851669e+002, 1.164079e+001
6.856490e+002, 1.149455e+001
6.861312e+002, 1.147136e+001
6.866133e+002, 1.153922e+001
6.870954e+002, 1.158441e+001
6.875775e+002, 1.156147e+001
6.880596e+002, 1.150773e+001
6.885417e+002, 1.144925e+001
6.890239e+002, 1.138650e+001
6.895060e+002, 1.131794e+001
6.899881e+002, 1.124332e+001
6.904702e+002, 1.117167e+001
6.909523e+002, 1.110471e+001
6.914344e+002, 1.104988e+001
6.919166e+002, 1.104674e+001
6.923987e+002, 1.116510e+001
6.928808e+002, 1.122276e+001
6.933629e+002, 1.112488e+001
6.938450e+002, 1.104640e+001
6.943271e+002, 1.115543e+001
6.948093e+002, 1.136884e+001
6.952914e+002, 1.145155e+001
6.957735e+002, 1.126785e+001
6.962556e+002, 1.102194e+001
6.967377e+002, 1.093917e+001
6.972198e+002, 1.098387e+001
6.977020e+002, 1.104827e+001
6.981841e+002, 1.112090e+001
6.986662e+002, 1.113622e+001
6.991483e+002, 1.102496e+001
6.996304e+002, 1.083505e+001
7.001125e+002, 1.075074e+001
7.005947e+002, 1.083233e+001
7.010768e+002, 1.093183e+001
7.015589e+002, 1.112684e+001
7.020410e+002, 1.126598e+001
7.025231e+002, 1.120118e+001
7.030052e+002, 1.101628e+001
7.034874e+002, 1.090359e+001
7.039695e+002, 1.095131e+001
7.044516e+002, 1.104490e+001
7.049337e+002, 1.103322e+001
7.054158e+002, 1.094190e+001
7.058979e+002, 1.089665e+001
7.063801e+002, 1.091179e+001
7.068622e+002, 1.095993e+001
7.073442e+002, 1.104776e+001
7.078264e+002, 1.114098e+001
7.083085e+002, 1.113107e+001
7.087906e+002, 1.090361e+001
7.092727e+002, 1.086932e+001
7.097548e+002, 1.126499e+001
7.102369e+002, 1.165666e+001
7.107191e+002, 1.177990e+001
7.112012e+002, 1.171663e+001
7.116833e+002, 1.162145e+001
7.121654e+002, 1.155304e+001
7.126475e+002, 1.152903e+001
7.131296e+002, 1.156794e+001
7.136118e+002, 1.166826e+001
7.140939e+002, 1.186750e+001
7.145760e+002, 1.220381e+001
7.150581e+002, 1.238045e+001
7.155402e+002, 1.217364e+001
7.160223e+002, 1.182193e+001
7.165045e+002, 1.174452e+001
7.169866e+002, 1.198582e+001
7.174687e+002, 1.219685e+001
7.179508e+002, 1.234345e+001
7.184329e+002, 1.245910e+001
7.189150e+002, 1.255258e+001
7.193972e+002, 1.262871e+001
7.198793e+002, 1.269720e+001
7.203614e+002, 1.275812e+001
7.208435e+002, 1.279531e+001
7.213256e+002, 1.279575e+001
7.218077e+002, 1.275888e+001
7.222899e+002, 1.266522e+001
7.227720e+002, 1.250174e+001
7.232541e+002, 1.238872e+001
7.237362e+002, 1.238383e+001
7.242183e+002, 1.241597e+001
7.247004e+002, 1.241060e+001
7.251826e+002, 1.236784e+001
7.256647e+002, 1.229898e+001
7.261468e+002, 1.215142e+001
7.266289e+002, 1.204136e+001
7.271110e+002, 1.206606e+001
7.275931e+002, 1.211754e+001
7.280753e+002, 1.201568e+001
7.285574e+002, 1.178677e+001
7.290395e+002, 1.169441e+001
7.295216e+002, 1.199465e+001
7.300037e+002, 1.244116e+001
7.304858e+002, 1.239064e+001
7.309680e+002, 1.182017e+001
7.314501e+002, 1.143162e+001
7.319322e+002, 1.140736e+001
7.324143e+002, 1.147546e+001
7.328964e+002, 1.137765e+001
7.333785e+002, 1.118070e+001
7.338607e+002, 1.122606e+001
7.343428e+002, 1.177145e+001
7.348249e+002, 1.215799e+001
7.353070e+002, 1.220379e+001
7.357891e+002, 1.208035e+001
7.362712e+002, 1.185593e+001
7.367534e+002, 1.159198e+001
7.372355e+002, 1.139660e+001
7.377176e+002, 1.132562e+001
7.381997e+002, 1.130660e+001
7.386818e+002, 1.123417e+001
7.391639e+002, 1.111387e+001
7.396461e+002, 1.097221e+001
7.401282e+002, 1.078224e+001
7.406103e+002, 1.071723e+001
7.410924e+002, 1.093707e+001
7.415745e+002, 1.129901e+001
7.420566e+002, 1.148330e+001
7.425388e+002, 1.145384e+001
7.430209e+002, 1.139370e+001
7.435030e+002, 1.130966e+001
7.439851e+002, 1.120638e+001
7.444672e+002, 1.105959e+001
7.449493e+002, 1.090541e+001
7.454315e+002, 1.080611e+001
7.459136e+002, 1.077523e+001
7.463957e+002, 1.075254e+001
7.468778e+002, 1.065830e+001
7.473599e+002, 1.053092e+001
7.478420e+002, 1.050321e+001
7.483242e+002, 1.057776e+001
7.488063e+002, 1.064629e+001
7.492884e+002, 1.067389e+001
7.497705e+002, 1.067736e+001
7.502526e+002, 1.066163e+001
7.507347e+002, 1.062235e+001
7.512169e+002, 1.066499e+001
7.516990e+002, 1.095447e+001
7.521811e+002, 1.110502e+001
7.526632e+002, 1.091253e+001
7.531453e+002, 1.063247e+001
7.536274e+002, 1.050816e+001
7.541096e+002, 1.053031e+001
7.545917e+002, 1.052114e+001
7.550738e+002, 1.035097e+001
7.555559e+002, 1.016434e+001
7.560380e+002, 1.021871e+001
7.565201e+002, 1.044379e+001
7.570023e+002, 1.050206e+001
7.574844e+002, 1.032850e+001
7.579665e+002, 1.016184e+001
7.584486e+002, 1.018312e+001
7.589307e+002, 1.032628e+001
7.594128e+002, 1.036647e+001
7.598950e+002, 1.020919e+001
7.603771e+002, 1.012036e+001
7.608592e+002, 1.011710e+001
7.613413e+002, 1.015924e+001
7.618234e+002, 1.031154e+001
7.623055e+002, 1.046668e+001
7.627877e+002, 1.039828e+001
7.632698e+002, 1.003046e+001
7.637519e+002, 9.777674e+000
7.642340e+002, 1.008477e+001
7.647161e+002, 1.062882e+001
7.651982e+002, 1.094355e+001
7.656804e+002, 1.101830e+001
7.661625e+002, 1.088447e+001
7.666446e+002, 1.054164e+001
7.671267e+002, 1.015396e+001
7.676088e+002, 9.933448e+000
7.680909e+002, 9.882455e+000
7.685731e+002, 9.910061e+000
7.690552e+002, 1.007465e+001
7.695373e+002, 1.022312e+001
7.700194e+002, 1.036700e+001
7.705015e+002, 1.044822e+001
7.709836e+002, 1.036368e+001
7.714658e+002, 1.015548e+001
7.719479e+002, 1.003464e+001
7.724300e+002, 1.008888e+001
7.729121e+002, 1.023223e+001
7.733942e+002, 1.050954e+001
7.738763e+002, 1.079176e+001
7.743585e+002, 1.082399e+001
7.748406e+002, 1.061686e+001
7.753227e+002, 1.044445e+001
7.758048e+002, 1.049502e+001
7.762869e+002, 1.065581e+001
7.767690e+002, 1.065004e+001
7.772512e+002, 1.044969e+001
7.777333e+002, 1.025785e+001
7.782154e+002, 1.002920e+001
7.786975e+002, 9.917278e+000
7.791796e+002, 1.003974e+001
7.796617e+002, 1.032056e+001
7.801439e+002, 1.066768e+001
7.806260e+002, 1.112606e+001
7.811081e+002, 1.142516e+001
7.815902e+002, 1.142194e+001
7.820723e+002, 1.131753e+001
7.825544e+002, 1.121549e+001
7.830366e+002, 1.111088e+001
7.835187e+002, 1.094636e+001
7.840008e+002, 1.072585e+001
7.844829e+002, 1.058837e+001
7.849650e+002, 1.072237e+001
7.854471e+002, 1.099973e+001
7.859293e+002, 1.096761e+001
7.864114e+002, 1.061904e+001
7.868935e+002, 1.048230e+001
7.873756e+002, 1.074905e+001
7.878577e+002, 1.107257e+001
7.883398e+002, 1.110829e+001
7.888220e+002, 1.090489e+001
7.893040e+002, 1.087539e+001
7.897861e+002, 1.120589e+001
7.902682e+002, 1.143427e+001
7.907504e+002, 1.155107e+001
7.912325e+002, 1.153332e+001
7.917146e+002, 1.125954e+001
7.921967e+002, 1.086195e+001
7.926788e+002, 1.059745e+001
7.931609e+002, 1.056184e+001
7.936431e+002, 1.064642e+001
7.941252e+002, 1.084560e+001
7.946073e+002, 1.106326e+001
7.950894e+002, 1.107609e+001
7.955715e+002, 1.090690e+001
7.960536e+002, 1.077846e+001
7.965358e+002, 1.078110e+001
7.970179e+002, 1.088121e+001
7.975000e+002, 1.105682e+001
7.979821e+002, 1.131821e+001
7.984642e+002, 1.140233e+001
7.989464e+002, 1.116668e+001
7.994285e+002, 1.101249e+001
7.999106e+002, 1.118469e+001
8.003927e+002, 1.135791e+001
8.008748e+002, 1.118800e+001
8.013569e+002, 1.077160e+001
8.018391e+002, 1.061555e+001
8.023212e+002, 1.110531e+001
8.028033e+002, 1.151106e+001
8.032854e+002, 1.135391e+001
8.037675e+002, 1.096769e+001
8.042496e+002, 1.069455e+001
8.047318e+002, 1.057872e+001
8.052139e+002, 1.057686e+001
8.056960e+002, 1.067062e+001
8.061781e+002, 1.081370e+001
8.066602e+002, 1.095990e+001
8.071423e+002, 1.110247e+001
8.076245e+002, 1.112269e+001
8.081066e+002, 1.099190e+001
8.085887e+002, 1.085512e+001
8.090708e+002, 1.075351e+001
8.095529e+002, 1.071162e+001
8.100350e+002, 1.079620e+001
8.105172e+002, 1.104674e+001
8.109993e+002, 1.115370e+001
8.114814e+002, 1.096985e+001
8.119635e+002, 1.083172e+001
8.124456e+002, 1.083214e+001
8.129277e+002, 1.091786e+001
8.134099e+002, 1.111113e+001
8.138920e+002, 1.135118e+001
8.143741e+002, 1.142738e+001
8.148562e+002, 1.116211e+001
8.153383e+002, 1.084886e+001
8.158204e+002, 1.081981e+001
8.163026e+002, 1.096858e+001
8.167847e+002, 1.106292e+001
8.172668e+002, 1.107871e+001
8.177489e+002, 1.108595e+001
8.182310e+002, 1.111973e+001
8.187131e+002, 1.119774e+001
8.191953e+002, 1.138662e+001
8.196774e+002, 1.173596e+001
8.201595e+002, 1.186522e+001
8.206416e+002, 1.164659e+001
8.211237e+002, 1.145053e+001
8.216058e+002, 1.143757e+001
8.220880e+002, 1.149974e+001
8.225701e+002, 1.152893e+001
8.230522e+002, 1.152384e+001
8.235343e+002, 1.149869e+001
8.240164e+002, 1.138182e+001
8.244985e+002, 1.133468e+001
8.249807e+002, 1.150222e+001
8.254628e+002, 1.172772e+001
8.259449e+002, 1.179565e+001
8.264270e+002, 1.173836e+001
8.269091e+002, 1.179274e+001
8.273912e+002, 1.211938e+001
8.278734e+002, 1.248329e+001
8.283555e+002, 1.245825e+001
8.288376e+002, 1.217354e+001
8.293197e+002, 1.223219e+001
8.298018e+002, 1.268827e+001
8.302839e+002, 1.307427e+001
8.307661e+002, 1.314340e+001
8.312482e+002, 1.306118e+001
8.317303e+002, 1.309179e+001
8.322124e+002, 1.324207e+001
8.326945e+002, 1.345698e+001
8.331766e+002, 1.384981e+001
8.336588e+002, 1.413937e+001
8.341409e+002, 1.417058e+001
8.346230e+002, 1.415258e+001
8.351051e+002, 1.428581e+001
8.355872e+002, 1.453740e+001
8.360693e+002, 1.469717e+001
8.365515e+002, 1.461771e+001
8.370336e+002, 1.456845e+001
8.375157e+002, 1.473892e+001
8.379978e+002, 1.499025e+001
8.384799e+002, 1.520346e+001
8.389620e+002, 1.534431e+001
8.394442e+002, 1.535360e+001
8.399263e+002, 1.520244e+001
8.404084e+002, 1.501911e+001
8.408905e+002, 1.497009e+001
8.413726e+002, 1.504336e+001
8.418547e+002, 1.522230e+001
8.423369e+002, 1.552145e+001
8.428190e+002, 1.564443e+001
8.433011e+002, 1.544087e+001
8.437832e+002, 1.514416e+001
8.442653e+002, 1.503124e+001
8.447474e+002, 1.509592e+001
8.452296e+002, 1.508155e+001
8.457117e+002, 1.489365e+001
8.461938e+002, 1.476527e+001
8.466759e+002, 1.478157e+001
8.471580e+002, 1.479972e+001
8.476401e+002, 1.466502e+001
8.481223e+002, 1.447435e+001
8.486044e+002, 1.449613e+001
8.490865e+002, 1.487778e+001
8.495686e+002, 1.511565e+001
8.500507e+002, 1.477064e+001
8.505328e+002, 1.428361e+001
8.510150e+002, 1.410034e+001
8.514971e+002, 1.414757e+001
8.519792e+002, 1.422690e+001
8.524613e+002, 1.426100e+001
8.529434e+002, 1.418918e+001
8.534255e+002, 1.390049e+001
8.539077e+002, 1.350496e+001
8.543898e+002, 1.338877e+001
8.548719e+002, 1.355132e+001
8.553540e+002, 1.365075e+001
8.558361e+002, 1.360942e+001
8.563182e+002, 1.354216e+001
8.568004e+002, 1.354619e+001
8.572825e+002, 1.358040e+001
8.577646e+002, 1.350369e+001
8.582467e+002, 1.321138e+001
8.587288e+002, 1.303659e+001
8.592109e+002, 1.313354e+001
8.596931e+002, 1.316464e+001
8.601752e+002, 1.289334e+001
8.606573e+002, 1.255831e+001
8.611394e+002, 1.247024e+001
8.616215e+002, 1.265374e+001
8.621036e+002, 1.284643e+001
8.625858e+002, 1.297733e+001
8.630679e+002, 1.304772e+001
8.635500e+002, 1.305931e+001
8.640321e+002, 1.301046e+001
8.645142e+002, 1.287095e+001
8.649963e+002, 1.266164e+001
8.654785e+002, 1.245603e+001
8.659606e+002, 1.228949e+001
8.664427e+002, 1.220188e+001
8.669248e+002, 1.231338e+001
8.674069e+002, 1.257166e+001
8.678890e+002, 1.268108e+001
8.683712e+002, 1.262016e+001
8.688533e+002, 1.255418e+001
8.693354e+002, 1.254912e+001
8.698175e+002, 1.258001e+001
8.702996e+002, 1.263094e+001
8.707817e+002, 1.270338e+001
8.712639e+002, 1.262586e+001
8.717459e+002, 1.219833e+001
8.722280e+002, 1.197348e+001
8.727101e+002, 1.230270e+001
8.731923e+002, 1.261835e+001
8.736744e+002, 1.249154e+001
8.741565e+002, 1.210040e+001
8.746386e+002, 1.190194e+001
8.751207e+002, 1.202401e+001
8.756028e+002, 1.217416e+001
8.760850e+002, 1.233797e+001
8.765671e+002, 1.240960e+001
8.770492e+002, 1.222248e+001
8.775313e+002, 1.192072e+001
8.780134e+002, 1.174126e+001
8.784955e+002, 1.173894e+001
8.789777e+002, 1.182061e+001
8.794598e+002, 1.194628e+001
8.799419e+002, 1.207635e+001
8.804240e+002, 1.211875e+001
8.809061e+002, 1.210821e+001
8.813882e+002, 1.221839e+001
8.818704e+002, 1.246332e+001
8.823525e+002, 1.255362e+001
8.828346e+002, 1.226729e+001
8.833167e+002, 1.188431e+001
8.837988e+002, 1.207005e+001
8.842809e+002, 1.295735e+001
8.847631e+002, 1.337661e+001
8.852452e+002, 1.312045e+001
8.857273e+002, 1.290448e+001
8.862094e+002, 1.296598e+001
8.866915e+002, 1.318610e+001
8.871736e+002, 1.353119e+001
8.876558e+002, 1.397487e+001
8.881379e+002, 1.412750e+001
8.886200e+002, 1.362683e+001
8.891021e+002, 1.333057e+001
8.895842e+002, 1.354349e+001
8.900663e+002, 1.385721e+001
8.905485e+002, 1.401848e+001
8.910306e+002, 1.405832e+001
8.915127e+002, 1.406079e+001
8.919948e+002, 1.404492e+001
8.924769e+002, 1.409605e+001
8.929590e+002, 1.432467e+001
8.934412e+002, 1.460077e+001
8.939233e+002, 1.477007e+001
8.944054e+002, 1.488237e+001
8.948875e+002, 1.504414e+001
8.953696e+002, 1.527730e+001
8.958517e+002, 1.554482e+001
8.963339e+002, 1.581449e+001
8.968160e+002, 1.611222e+001
8.972981e+002, 1.655812e+001
8.977802e+002, 1.711546e+001
8.982623e+002, 1.739694e+001
8.987444e+002, 1.734846e+001
8.992266e+002, 1.722626e+001
8.997087e+002, 1.710673e+001
9.001908e+002, 1.710842e+001
9.006729e+002, 1.745926e+001
9.011550e+002, 1.818867e+001
9.016371e+002, 1.858184e+001
9.021193e+002, 1.840332e+001
9.026014e+002, 1.833026e+001
9.030835e+002, 1.863869e+001
9.035656e+002, 1.894124e+001
9.040477e+002, 1.892567e+001
9.045298e+002, 1.870813e+001
9.050120e+002, 1.860394e+001
9.054941e+002, 1.872424e+001
9.059762e+002, 1.873444e+001
9.064583e+002, 1.841837e+001
9.069404e+002, 1.811339e+001
9.074225e+002, 1.802156e+001
9.079047e+002, 1.806802e+001
9.083868e+002, 1.822083e+001
9.088689e+002, 1.841669e+001
9.093510e+002, 1.839564e+001
9.098331e+002, 1.788635e+001
9.103152e+002, 1.728499e+001
9.107974e+002, 1.700269e+001
9.112795e+002, 1.691164e+001
9.117616e+002, 1.681838e+001
9.122437e+002, 1.668335e+001
9.127258e+002, 1.646640e+001
9.132079e+002, 1.614834e+001
9.136901e+002, 1.578889e+001
9.141722e+002, 1.546307e+001
9.146543e+002, 1.516596e+001
9.151364e+002, 1.482762e+001
9.156185e+002, 1.444130e+001
9.161006e+002, 1.422844e+001
9.165828e+002, 1.427791e+001
9.170649e+002, 1.435307e+001
9.175470e+002, 1.426117e+001
9.180291e+002, 1.403725e+001
9.185112e+002, 1.380037e+001
9.189933e+002, 1.350620e+001
9.194755e+002, 1.331357e+001
9.199576e+002, 1.332271e+001
9.204397e+002, 1.328968e+001
9.209218e+002, 1.309287e+001
9.214039e+002, 1.282243e+001
9.218860e+002, 1.252859e+001
9.223682e+002, 1.222176e+001
9.228503e+002, 1.207372e+001
9.233324e+002, 1.232115e+001
9.238145e+002, 1.244169e+001
9.242966e+002, 1.215634e+001
9.247787e+002, 1.180838e+001
9.252609e+002, 1.168393e+001
9.257430e+002, 1.170802e+001
9.262251e+002, 1.168193e+001
9.267072e+002, 1.154685e+001
9.271893e+002, 1.138492e+001
9.276714e+002, 1.118016e+001
9.281536e+002, 1.103743e+001
9.286357e+002, 1.113543e+001
9.291178e+002, 1.134938e+001
9.295999e+002, 1.145697e+001
9.300820e+002, 1.141518e+001
9.305641e+002, 1.124547e+001
9.310463e+002, 1.093927e+001
9.315284e+002, 1.064352e+001
9.320105e+002, 1.063814e+001
9.324926e+002, 1.084722e+001
9.329747e+002, 1.094209e+001
9.334568e+002, 1.091319e+001
9.339390e+002, 1.094116e+001
9.344211e+002, 1.110239e+001
9.349032e+002, 1.123500e+001
9.353853e+002, 1.115187e+001
9.358674e+002, 1.089208e+001
9.363495e+002, 1.067437e+001
9.368317e+002, 1.048981e+001
9.373138e+002, 1.039708e+001
9.377959e+002, 1.044879e+001
9.382780e+002, 1.048796e+001
9.387601e+002, 1.040966e+001
9.392422e+002, 1.028101e+001
9.397244e+002, 1.022378e+001
9.402065e+002, 1.025175e+001
9.406886e+002, 1.026983e+001
9.411707e+002, 1.028110e+001
9.416528e+002, 1.027857e+001
9.421349e+002, 1.027074e+001
9.426171e+002, 1.023979e+001
9.430992e+002, 1.011759e+001
9.435813e+002, 9.968706e+000
9.440634e+002, 9.985538e+000
9.445455e+002, 1.027969e+001
9.450276e+002, 1.045258e+001
9.455098e+002, 1.026317e+001
9.459919e+002, 1.001384e+001
9.464740e+002, 9.843970e+000
9.469561e+002, 9.772763e+000
9.474382e+002, 9.854472e+000
9.479203e+002, 1.005713e+001
9.484025e+002, 1.022549e+001
9.488846e+002, 1.027216e+001
9.493667e+002, 1.026793e+001
9.498488e+002, 1.027227e+001
9.503309e+002, 1.027456e+001
9.508130e+002, 1.025457e+001
9.512952e+002, 1.021703e+001
9.517773e+002, 1.016072e+001
9.522594e+002, 1.009314e+001
9.527415e+002, 1.010118e+001
9.532236e+002, 1.031909e+001
9.537057e+002, 1.060794e+001
9.541878e+002, 1.058834e+001
9.546699e+002, 1.031064e+001
9.551520e+002, 1.008896e+001
9.556342e+002, 9.967370e+000
9.561163e+002, 9.954687e+000
9.565984e+002, 1.006431e+001
9.570805e+002, 1.023643e+001
9.575626e+002, 1.038418e+001
9.580447e+002, 1.050797e+001
9.585269e+002, 1.058043e+001
9.590090e+002, 1.061436e+001
9.594911e+002, 1.051135e+001
9.599732e+002, 1.014414e+001
9.604553e+002, 9.887956e+000
9.609374e+002, 1.008896e+001
9.614196e+002, 1.057157e+001
9.619017e+002, 1.083893e+001
9.623838e+002, 1.081826e+001
9.628659e+002, 1.080501e+001
9.633480e+002, 1.076408e+001
9.638301e+002, 1.077896e+001
9.643123e+002, 1.094302e+001
9.647944e+002, 1.111209e+001
9.652765e+002, 1.115830e+001
9.657586e+002, 1.109876e+001
9.662407e+002, 1.101951e+001
9.667228e+002, 1.086720e+001
9.672050e+002, 1.082549e+001
9.676871e+002, 1.113086e+001
9.681692e+002, 1.134379e+001
9.686513e+002, 1.104096e+001
9.691334e+002, 1.059028e+001
9.696155e+002, 1.053697e+001
9.700977e+002, 1.089837e+001
9.705798e+002, 1.119517e+001
9.710619e+002, 1.112896e+001
9.715440e+002, 1.108891e+001
9.720261e+002, 1.137821e+001
9.725082e+002, 1.177230e+001
9.729904e+002, 1.208649e+001
9.734725e+002, 1.228832e+001
9.739546e+002, 1.233895e+001
9.744367e+002, 1.224022e+001
9.749188e+002, 1.211780e+001
9.754009e+002, 1.205366e+001
9.758831e+002, 1.203944e+001
9.763652e+002, 1.206206e+001
9.768473e+002, 1.212668e+001
9.773294e+002, 1.228407e+001
9.778115e+002, 1.250707e+001
9.782936e+002, 1.262446e+001
9.787758e+002, 1.255635e+001
9.792579e+002, 1.248874e+001
9.797400e+002, 1.272723e+001
9.802221e+002, 1.312660e+001
9.807042e+002, 1.313796e+001
9.811863e+002, 1.281453e+001
9.816685e+002, 1.257834e+001
9.821506e+002, 1.251362e+001
9.826327e+002, 1.254034e+001
9.831148e+002, 1.261394e+001
9.835969e+002, 1.271660e+001
9.840790e+002, 1.283334e+001
9.845612e+002, 1.296503e+001
9.850433e+002, 1.296901e+001
9.855254e+002, 1.282675e+001
9.860075e+002, 1.265807e+001
9.864896e+002, 1.248244e+001
9.869717e+002, 1.232487e+001
9.874539e+002, 1.221257e+001
9.879360e+002, 1.212732e+001
9.884181e+002, 1.200832e+001
9.889002e+002, 1.183747e+001
9.893823e+002, 1.169838e+001
9.898644e+002, 1.159635e+001
9.903466e+002, 1.151499e+001
9.908287e+002, 1.143992e+001
9.913108e+002, 1.139538e+001
9.917929e+002, 1.145699e+001
9.922750e+002, 1.158306e+001
9.927571e+002, 1.151331e+001
9.932393e+002, 1.097100e+001
9.937214e+002, 1.073244e+001
9.942035e+002, 1.114370e+001
9.946856e+002, 1.145791e+001
9.951677e+002, 1.129975e+001
9.956498e+002, 1.096298e+001
9.961320e+002, 1.075063e+001
9.966141e+002, 1.066570e+001
9.970962e+002, 1.058985e+001
9.975783e+002, 1.050507e+001
9.980604e+002, 1.042175e+001
9.985425e+002, 1.027780e+001
9.990247e+002, 1.020413e+001
9.995068e+002, 1.036888e+001
9.999889e+002, 1.061164e+001
1.000471e+003, 1.069069e+001
1.000953e+003, 1.058721e+001
1.001435e+003, 1.048051e+001
1.001917e+003, 1.042391e+001
1.002399e+003, 1.041220e+001
1.002882e+003, 1.054577e+001
1.003364e+003, 1.063360e+001
1.003846e+003, 1.037555e+001
1.004328e+003, 9.972148e+000
1.004810e+003, 9.849581e+000
1.005292e+003, 1.009278e+001
1.005774e+003, 1.039560e+001
1.006256e+003, 1.063276e+001
1.006739e+003, 1.076009e+001
1.007221e+003, 1.065747e+001
1.007703e+003, 1.046836e+001
1.008185e+003, 1.040300e+001
1.008667e+003, 1.044039e+001
1.009149e+003, 1.044784e+001
1.009631e+003, 1.038216e+001
1.010113e+003, 1.032542e+001
1.010595e+003, 1.035838e+001
1.011078e+003, 1.043245e+001
1.011560e+003, 1.051302e+001
1.012042e+003, 1.056589e+001
1.012524e+003, 1.045531e+001
1.013006e+003, 1.021987e+001
1.013488e+003, 1.014373e+001
1.013970e+003, 1.034365e+001
1.014452e+003, 1.048431e+001
1.014935e+003, 1.007208e+001
1.015417e+003, 9.414577e+000
1.015899e+003, 9.348465e+000
1.016381e+003, 9.749954e+000
1.016863e+003, 1.009603e+001
1.017345e+003, 1.029242e+001
1.017827e+003, 1.024698e+001
1.018309e+003, 9.899216e+000
1.018791e+003, 9.517521e+000
1.019274e+003, 9.501257e+000
1.019756e+003, 9.762424e+000
1.020238e+003, 9.845273e+000
1.020720e+003, 9.759632e+000
1.021202e+003, 9.811048e+000
1.021684e+003, 1.006330e+001
1.022166e+003, 1.024306e+001
1.022648e+003, 1.018968e+001
1.023130e+003, 9.991161e+000
1.023613e+003, 9.765186e+000
1.024095e+003, 9.518799e+000
1.024577e+003, 9.394014e+000
1.025059e+003, 9.410085e+000
1.025541e+003, 9.372394e+000
1.026023e+003, 9.219445e+000
1.026505e+003, 9.134416e+000
1.026987e+003, 9.255655e+000
1.027469e+003, 9.462564e+000
1.027952e+003, 9.534494e+000
1.028434e+003, 9.468128e+000
1.028916e+003, 9.332117e+000
1.029398e+003, 9.064059e+000
1.029880e+003, 8.969457e+000
1.030362e+003, 9.202490e+000
1.030844e+003, 9.383840e+000
1.031326e+003, 9.233529e+000
1.031809e+003, 8.905520e+000
1.032291e+003, 8.711329e+000
1.032773e+003, 8.668356e+000
1.033255e+003, 8.611406e+000
1.033737e+003, 8.511335e+000
1.034219e+003, 8.463795e+000
1.034701e+003, 8.512732e+000
1.035183e+003, 8.578077e+000
1.035666e+003, 8.598447e+000
1.036148e+003, 8.604342e+000
1.036630e+003, 8.661325e+000
1.037112e+003, 8.777345e+000
1.037594e+003, 8.901031e+000
1.038076e+003, 9.084437e+000
1.038558e+003, 9.188213e+000
1.039040e+003, 9.091581e+000
1.039522e+003, 9.013965e+000
1.040005e+003, 9.158317e+000
1.040487e+003, 9.401478e+000
1.040969e+003, 9.481275e+000
1.041451e+003, 9.374120e+000
1.041933e+003, 9.231107e+000
1.042415e+003, 8.869854e+000
1.042897e+003, 8.732733e+000
1.043379e+003, 9.175379e+000
1.043861e+003, 9.592845e+000
1.044344e+003, 9.485255e+000
1.044826e+003, 9.112560e+000
1.045308e+003, 9.028492e+000
1.045790e+003, 9.332103e+000
1.046272e+003, 9.460268e+000
1.046754e+003, 9.196613e+000
1.047236e+003, 8.968240e+000
1.047718e+003, 8.905684e+000
1.048201e+003, 8.886231e+000
1.048683e+003, 8.790944e+000
1.049165e+003, 8.688700e+000
1.049647e+003, 8.746764e+000
1.050129e+003, 9.005034e+000
1.050611e+003, 9.155560e+000
1.051093e+003, 9.031833e+000
1.051575e+003, 8.938169e+000
1.052057e+003, 9.024073e+000
1.052540e+003, 9.113562e+000
1.053022e+003, 9.052408e+000
1.053504e+003, 8.911982e+000
1.053986e+003, 8.835824e+000
1.054468e+003, 8.845379e+000
1.054950e+003, 8.854044e+000
1.055432e+003, 8.833812e+000
1.055914e+003, 8.816141e+000
1.056396e+003, 8.768521e+000
1.056879e+003, 8.769255e+000
1.057361e+003, 8.971240e+000
1.057843e+003, 9.223149e+000
1.058325e+003, 9.196046e+000
1.058807e+003, 8.852108e+000
1.059289e+003, 8.712539e+000
1.059771e+003, 9.251304e+000
1.060253e+003, 9.611930e+000
1.060736e+003, 9.211661e+000
1.061218e+003, 8.764937e+000
1.061700e+003, 8.909069e+000
1.062182e+003, 9.346066e+000
1.062664e+003, 9.508033e+000
1.063146e+003, 9.324238e+000
1.063628e+003, 9.193450e+000
1.064110e+003, 9.358311e+000
1.064593e+003, 9.462339e+000
1.065075e+003, 9.279082e+000
1.065557e+003, 9.058767e+000
1.066039e+003, 8.989966e+000
1.066521e+003, 9.015164e+000
1.067003e+003, 9.014716e+000
1.067485e+003, 8.980680e+000
1.067967e+003, 9.021600e+000
1.068449e+003, 9.247347e+000
1.068932e+003, 9.433421e+000
1.069414e+003, 9.408209e+000
1.069896e+003, 9.377872e+000
1.070378e+003, 9.609447e+000
1.070860e+003, 9.872480e+000
1.071342e+003, 9.747979e+000
1.071824e+003, 9.267232e+000
1.072306e+003, 8.959394e+000
1.072788e+003, 9.090568e+000
1.073271e+003, 9.254283e+000
1.073753e+003, 9.303807e+000
1.074235e+003, 9.273500e+000
1.074717e+003, 9.106205e+000
1.075199e+003, 8.925921e+000
1.075681e+003, 8.917728e+000
1.076163e+003, 9.061300e+000
1.076645e+003, 9.153939e+000
1.077127e+003, 9.096591e+000
1.077610e+003, 9.079411e+000
1.078092e+003, 9.347681e+000
1.078574e+003, 9.513979e+000
1.079056e+003, 9.120931e+000
1.079538e+003, 8.613448e+000
1.080020e+003, 8.589334e+000
1.080502e+003, 8.965699e+000
1.080984e+003, 9.232513e+000
1.081467e+003, 9.214664e+000
1.081949e+003, 9.173835e+000
1.082431e+003, 9.207993e+000
1.082913e+003, 9.277630e+000
1.083395e+003, 9.398176e+000
1.083877e+003, 9.510975e+000
1.084359e+003, 9.558826e+000
1.084841e+003, 9.544719e+000
1.085323e+003, 9.485572e+000
1.085806e+003, 9.380157e+000
1.086288e+003, 9.287410e+000
1.086770e+003, 9.308743e+000
1.087252e+003, 9.253978e+000
1.087734e+003, 8.858150e+000
1.088216e+003, 8.483352e+000
1.088698e+003, 8.519337e+000
1.089180e+003, 8.831236e+000
1.089662e+003, 9.146908e+000
1.090145e+003, 9.412217e+000
1.090627e+003, 9.420322e+000
1.091109e+003, 8.811296e+000
1.091591e+003, 8.306017e+000
1.092073e+003, 8.218592e+000
1.092555e+003, 8.347960e+000
1.093037e+003, 8.677945e+000
1.093519e+003, 9.045877e+000
1.094002e+003, 9.177641e+000
1.094484e+003, 9.054617e+000
1.094966e+003, 8.994658e+000
1.095448e+003, 9.220654e+000
1.095930e+003, 9.341546e+000
1.096412e+003, 9.156438e+000
1.096894e+003, 8.905377e+000
1.097376e+003, 8.713494e+000
1.097859e+003, 8.564719e+000
1.098341e+003, 8.393582e+000
1.098823e+003, 8.218754e+000
1.099305e+003, 8.191688e+000
1.099787e+003, 8.459939e+000
1.100269e+003, 8.640746e+000
1.100751e+003, 8.544415e+000
1.101233e+003, 8.446561e+000
1.101715e+003, 8.520814e+000
1.102198e+003, 8.632673e+000
1.102680e+003, 8.630741e+000
1.103162e+003, 8.533603e+000
1.103644e+003, 8.428578e+000
1.104126e+003, 8.261524e+000
1.104608e+003, 8.301107e+000
1.105090e+003, 8.907175e+000
1.105572e+003, 9.319827e+000
1.106054e+003, 9.171561e+000
1.106537e+003, 8.824376e+000
1.107019e+003, 8.452447e+000
1.107501e+003, 8.139660e+000
1.107983e+003, 8.087965e+000
1.108465e+003, 8.377920e+000
1.108947e+003, 8.541594e+000
1.109429e+003, 8.386332e+000
1.109911e+003, 8.318190e+000
1.110394e+003, 8.503132e+000
1.110876e+003, 8.707438e+000
1.111358e+003, 8.853405e+000
1.111840e+003, 8.899472e+000
1.112322e+003, 8.725961e+000
1.112804e+003, 8.314555e+000
1.113286e+003, 8.068099e+000
1.113768e+003, 8.057421e+000
1.114250e+003, 8.097569e+000
1.114733e+003, 8.230834e+000
1.115215e+003, 8.341315e+000
1.115697e+003, 8.410902e+000
1.116179e+003, 8.401579e+000
1.116661e+003, 8.202826e+000
1.117143e+003, 7.866832e+000
1.117625e+003, 7.797600e+000
1.118107e+003, 8.194726e+000
1.118589e+003, 8.374192e+000
1.119072e+003, 8.214114e+000
1.119554e+003, 8.066332e+000
1.120036e+003, 8.023984e+000
1.120518e+003, 8.062671e+000
1.121000e+003, 8.198866e+000
1.121482e+003, 8.373700e+000
1.121964e+003, 8.405918e+000
1.122446e+003, 8.269496e+000
1.122929e+003, 8.134376e+000
1.123411e+003, 7.965858e+000
1.123893e+003, 7.939993e+000
1.124375e+003, 8.161350e+000
1.124857e+003, 8.313903e+000
1.125339e+003, 8.159217e+000
1.125821e+003, 7.897795e+000
1.126303e+003, 7.877229e+000
1.126786e+003, 8.085650e+000
1.127268e+003, 8.353602e+000
1.127750e+003, 8.717065e+000
1.128232e+003, 8.735706e+000
1.128714e+003, 8.286851e+000
1.129196e+003, 8.040954e+000
1.129678e+003, 8.350865e+000
1.130160e+003, 8.678475e+000
1.130642e+003, 8.353881e+000
1.131125e+003, 7.639625e+000
1.131607e+003, 7.520689e+000
1.132089e+003, 7.955948e+000
1.132571e+003, 8.230520e+000
1.133053e+003, 8.304277e+000
1.133535e+003, 8.224277e+000
1.134017e+003, 8.005874e+000
1.134499e+003, 7.895568e+000
1.134981e+003, 8.105791e+000
1.135464e+003, 8.426202e+000
1.135946e+003, 8.425281e+000
1.136428e+003, 8.213527e+000
1.136910e+003, 8.273006e+000
1.137392e+003, 8.532132e+000
1.137874e+003, 8.576657e+000
1.138356e+003, 8.364992e+000
1.138838e+003, 8.215594e+000
1.139321e+003, 8.291681e+000
1.139803e+003, 8.407109e+000
1.140285e+003, 8.341330e+000
1.140767e+003, 8.187080e+000
1.141249e+003, 8.050034e+000
1.141731e+003, 7.982867e+000
1.142213e+003, 8.186558e+000
1.142695e+003, 8.573064e+000
1.143177e+003, 8.812585e+000
1.143660e+003, 8.805999e+000
1.144142e+003, 8.683361e+000
1.144624e+003, 8.492454e+000
1.145106e+003, 8.329825e+000
1.145588e+003, 8.313088e+000
1.146070e+003, 8.369200e+000
1.146552e+003, 8.413726e+000
1.147034e+003, 8.456760e+000
1.147516e+003, 8.562589e+000
1.147999e+003, 8.705555e+000
1.148481e+003, 8.746291e+000
1.148963e+003, 8.618681e+000
1.149445e+003, 8.431036e+000
1.149927e+003, 8.131465e+000
1.150409e+003, 7.932645e+000
1.150891e+003, 8.092634e+000
1.151373e+003, 8.349566e+000
1.151856e+003, 8.433095e+000
1.152338e+003, 8.369063e+000
1.152820e+003, 8.247998e+000
1.153302e+003, 8.090620e+000
1.153784e+003, 8.067711e+000
1.154266e+003, 8.373933e+000
1.154748e+003, 8.627951e+000
1.155230e+003, 8.740540e+000
1.155713e+003, 8.723149e+000
1.156195e+003, 8.502620e+000
1.156677e+003, 8.209391e+000
1.157159e+003, 7.941570e+000
1.157641e+003, 7.737609e+000
1.158123e+003, 7.787565e+000
1.158605e+003, 8.291301e+000
1.159087e+003, 8.657062e+000
1.159569e+003, 8.868743e+000
1.160052e+003, 8.906919e+000
1.160534e+003, 8.582328e+000
1.161016e+003, 8.295365e+000
1.161498e+003, 8.431408e+000
1.161980e+003, 8.759606e+000
1.162462e+003, 8.734364e+000
1.162944e+003, 8.293639e+000
1.163426e+003, 8.194768e+000
1.163908e+003, 8.609717e+000
1.164391e+003, 8.847295e+000
1.164873e+003, 8.744439e+000
1.165355e+003, 8.685459e+000
1.165837e+003, 8.891852e+000
1.166319e+003, 9.110459e+000
1.166801e+003, 9.019830e+000
1.167283e+003, 8.714075e+000
1.167765e+003, 8.589827e+000
1.168247e+003, 8.653956e+000
1.168730e+003, 8.681447e+000
1.169212e+003, 8.660943e+000
1.169694e+003, 8.697410e+000
1.170176e+003, 8.822227e+000
1.170658e+003, 8.859644e+000
1.171140e+003, 8.673465e+000
1.171622e+003, 8.440966e+000
1.172104e+003, 8.480453e+000
1.172587e+003, 8.693308e+000
1.173069e+003, 8.762265e+000
1.173551e+003, 8.709134e+000
1.174033e+003, 8.571543e+000
1.174515e+003, 8.390184e+000
1.174997e+003, 8.314285e+000
1.175479e+003, 8.397030e+000
1.175961e+003, 8.566413e+000
1.176443e+003, 8.812152e+000
1.176926e+003, 9.003477e+000
1.177408e+003, 8.916977e+000
1.177890e+003, 8.717299e+000
1.178372e+003, 8.649603e+000
1.178854e+003, 8.656689e+000
1.179336e+003, 8.609385e+000
1.179818e+003, 8.482871e+000
1.180300e+003, 8.281103e+000
1.180782e+003, 7.989537e+000
1.181265e+003, 7.758648e+000
1.181747e+003, 7.648217e+000
1.182229e+003, 7.668281e+000
1.182711e+003, 7.973647e+000
1.183193e+003, 8.280832e+000
1.183675e+003, 8.219172e+000
1.184157e+003, 7.998997e+000
1.184639e+003, 8.096064e+000
1.185122e+003, 8.553135e+000
1.185604e+003, 8.841865e+000
1.186086e+003, 8.728323e+000
1.186568e+003, 8.625527e+000
1.187050e+003, 8.529898e+000
1.187532e+003, 8.547782e+000
1.188014e+003, 8.928958e+000
1.188496e+003, 9.260592e+000
1.188979e+003, 9.038102e+000
1.189461e+003, 8.503130e+000
1.189943e+003, 8.391361e+000
1.190425e+003, 8.817170e+000
1.190907e+003, 8.975896e+000
1.191389e+003, 8.744721e+000
1.191871e+003, 8.581823e+000
1.192353e+003, 8.542563e+000
1.192835e+003, 8.656217e+000
1.193318e+003, 9.002213e+000
1.193800e+003, 9.310825e+000
1.194282e+003, 9.220017e+000
1.194764e+003, 8.853599e+000
1.195246e+003, 8.694659e+000
1.195728e+003, 8.737097e+000
1.196210e+003, 8.874465e+000
1.196692e+003, 9.090513e+000
1.197174e+003, 9.154895e+000
1.197657e+003, 9.019039e+000
1.198139e+003, 8.924844e+000
1.198621e+003, 9.031941e+000
1.199103e+003, 9.107465e+000
1.199585e+003, 8.695957e+000
1.200067e+003, 8.149206e+000
1.200549e+003, 8.315652e+000
1.201031e+003, 8.838233e+000
1.201514e+003, 8.895497e+000
1.201996e+003, 8.559710e+000
1.202478e+003, 8.304934e+000
1.202960e+003, 8.265958e+000
1.203442e+003, 8.320615e+000
1.203924e+003, 8.410402e+000
1.204406e+003, 8.533956e+000
1.204888e+003, 8.736301e+000
1.205370e+003, 8.921945e+000
1.205853e+003, 9.047333e+000
1.206335e+003, 9.081018e+000
1.206817e+003, 8.863448e+000
1.207299e+003, 8.554740e+000
1.207781e+003, 8.637916e+000
1.208263e+003, 9.244477e+000
1.208745e+003, 9.562400e+000
1.209227e+003, 9.093228e+000
1.209709e+003, 8.773088e+000
1.210192e+003, 8.914137e+000
1.210674e+003, 9.107275e+000
1.211156e+003, 9.193262e+000
1.211638e+003, 9.194398e+000
1.212120e+003, 9.121180e+000
1.212602e+003, 8.983109e+000
1.213084e+003, 8.791674e+000
1.213566e+003, 8.476795e+000
1.214049e+003, 8.499258e+000
1.214531e+003, 8.973984e+000
1.215013e+003, 9.325746e+000
1.215495e+003, 9.434317e+000
1.215977e+003, 9.476163e+000
1.216459e+003, 9.545977e+000
1.216941e+003, 9.576810e+000
1.217423e+003, 9.468564e+000
1.217906e+003, 9.286235e+000
1.218388e+003, 9.254952e+000
1.218870e+003, 9.335181e+000
1.219352e+003, 9.320991e+000
1.219834e+003, 9.218268e+000
1.220316e+003, 9.112824e+000
1.220798e+003, 9.028970e+000
1.221280e+003, 8.968478e+000
1.221762e+003, 8.931529e+000
1.222245e+003, 8.931890e+000
1.222727e+003, 9.003654e+000
1.223209e+003, 9.099337e+000
1.223691e+003, 9.155248e+000
1.224173e+003, 9.209298e+000
1.224655e+003, 9.345236e+000
1.225137e+003, 9.503861e+000
1.225619e+003, 9.546403e+000
1.226101e+003, 9.471255e+000
1.226584e+003, 9.435064e+000
1.227066e+003, 9.541306e+000
1.227548e+003, 9.542448e+000
1.228030e+003, 9.167175e+000
1.228512e+003, 8.915998e+000
1.228994e+003, 9.120992e+000
1.229476e+003, 9.411357e+000
1.229958e+003, 9.576086e+000
1.230441e+003, 9.581239e+000
1.230923e+003, 9.310159e+000
1.231405e+003, 8.779058e+000
1.231887e+003, 8.601218e+000
1.232369e+003, 8.926422e+000
1.232851e+003, 9.145887e+000
1.233333e+003, 9.214112e+000
1.233815e+003, 9.246173e+000
1.234297e+003, 9.272766e+000
1.234780e+003, 9.287142e+000
1.235262e+003, 9.283481e+000
1.235744e+003, 9.267498e+000
1.236226e+003, 9.235803e+000
1.236708e+003, 9.206944e+000
1.237190e+003, 9.278355e+000
1.237672e+003, 9.423827e+000
1.238154e+003, 9.568501e+000
1.238636e+003, 9.674691e+000
1.239119e+003, 9.591925e+000
1.239601e+003, 9.305280e+000
1.240083e+003, 9.013625e+000
1.240565e+003, 8.818893e+000
1.241047e+003, 8.789033e+000
1.241529e+003, 9.140552e+000
1.242011e+003, 9.529346e+000
1.242493e+003, 9.616623e+000
1.242975e+003, 9.544142e+000
1.243458e+003, 9.441652e+000
1.243940e+003, 9.354570e+000
1.244422e+003, 9.334899e+000
1.244904e+003, 9.386304e+000
1.245386e+003, 9.445049e+000
1.245868e+003, 9.560884e+000
1.246350e+003, 9.560193e+000
1.246832e+003, 9.189031e+000
1.247315e+003, 9.007109e+000
1.247797e+003, 9.447125e+000
1.248279e+003, 9.831423e+000
1.248761e+003, 9.572644e+000
1.249243e+003, 9.063879e+000
1.249725e+003, 9.048359e+000
1.250207e+003, 9.486910e+000
1.250689e+003, 9.672373e+000
1.251172e+003, 9.576299e+000
1.251654e+003, 9.518941e+000
1.252136e+003, 9.522588e+000
1.252618e+003, 9.655555e+000
1.253100e+003, 9.937031e+000
1.253582e+003, 1.011972e+001
1.254064e+003, 1.002421e+001
1.254546e+003, 9.839825e+000
1.255028e+003, 9.824048e+000
1.255510e+003, 9.904600e+000
1.255993e+003, 9.960011e+000
1.256475e+003, 1.000307e+001
1.256957e+003, 1.004944e+001
1.257439e+003, 1.010597e+001
1.257921e+003, 1.024140e+001
1.258403e+003, 1.041908e+001
1.258885e+003, 1.035629e+001
1.259367e+003, 9.832895e+000
1.259850e+003, 9.444380e+000
1.260332e+003, 9.544369e+000
1.260814e+003, 9.742559e+000
1.261296e+003, 9.936563e+000
1.261778e+003, 1.007420e+001
1.262260e+003, 1.013035e+001
1.262742e+003, 1.009978e+001
1.263224e+003, 9.931052e+000
1.263707e+003, 9.655616e+000
1.264189e+003, 9.549273e+000
1.264671e+003, 9.684047e+000
1.265153e+003, 9.729248e+000
1.265635e+003, 9.644960e+000
1.266117e+003, 9.674086e+000
1.266599e+003, 9.903932e+000
1.267081e+003, 9.990840e+000
1.267563e+003, 9.723883e+000
1.268046e+003, 9.406701e+000
1.268528e+003, 9.420051e+000
1.269010e+003, 9.606355e+000
1.269492e+003, 9.575578e+000
1.269974e+003, 9.435264e+000
1.270456e+003, 9.516126e+000
1.270938e+003, 9.713214e+000
1.271420e+003, 9.619184e+000
1.271902e+003, 9.287918e+000
1.272385e+003, 9.213658e+000
1.272867e+003, 9.586302e+000
1.273349e+003, 1.002410e+001
1.273831e+003, 1.048425e+001
1.274313e+003, 1.069665e+001
1.274795e+003, 1.031922e+001
1.275277e+003, 9.887022e+000
1.275759e+003, 9.724182e+000
1.276242e+003, 9.724415e+000
1.276724e+003, 9.794971e+000
1.277206e+003, 9.903269e+000
1.277688e+003, 9.989720e+000
1.278170e+003, 1.007283e+001
1.278652e+003, 9.917566e+000
1.279134e+003, 9.356587e+000
1.279616e+003, 9.218997e+000
1.280099e+003, 9.688916e+000
1.280581e+003, 1.005714e+001
1.281063e+003, 1.006058e+001
1.281545e+003, 9.953919e+000
1.282027e+003, 9.929022e+000
1.282509e+003, 9.970059e+000
1.282991e+003, 1.008881e+001
1.283473e+003, 1.023188e+001
1.283955e+003, 1.028672e+001
##END=



