##NAMES=Nordite-(Ce)
##RRUFFID=R130530
##IDEAL CHEMISTRY=Na_3_Sr^2+^Ce^3+^Zn^2+^Si_6_O_17_
##LOCALITY=Karnasurt Mt., Lovosero Massif, Kola Peninsula, Russia
##OWNER=RRUFF
##SOURCE=Rock Currier
##DESCRIPTION=Pale brownish tabular crystals in rosette-like aggregates, associated with ussingite
##STATUS=The identification of this mineral is confirmed by single-crystal X-ray diffraction and chemical analysis.
##URL=rruff.info/R130530
##MEASURED CHEMISTRY=Na_2.96_(Sr_1.10_Ba_0.02_)_Σ=1.12_(Ce_0.52_La_0.35_Nd_0.06_Pr_0.04_Ca_0.04_)_Σ=1.01_(Zn_0.335_Mn_0.329_Fe_0.19_Mg_0.12_)_Σ=0.97_Si_5.96_O_17_ ;   Dark phase is ussingite.
8.813672e+001, 1.641463e+003
8.861884e+001, 1.659068e+003
8.910095e+001, 1.678493e+003
8.958307e+001, 1.707782e+003
9.006519e+001, 1.743732e+003
9.054730e+001, 1.778277e+003
9.102942e+001, 1.813911e+003
9.151154e+001, 1.844820e+003
9.199365e+001, 1.861964e+003
9.247577e+001, 1.867945e+003
9.295789e+001, 1.873652e+003
9.344000e+001, 1.887749e+003
9.392212e+001, 1.906063e+003
9.440424e+001, 1.921613e+003
9.488635e+001, 1.935875e+003
9.536847e+001, 1.949147e+003
9.585059e+001, 1.959249e+003
9.633270e+001, 1.965685e+003
9.681482e+001, 1.973823e+003
9.729694e+001, 1.987846e+003
9.777905e+001, 2.007660e+003
9.826117e+001, 2.032887e+003
9.874329e+001, 2.065378e+003
9.922540e+001, 2.103459e+003
9.970752e+001, 2.135990e+003
1.001896e+002, 2.161432e+003
1.006718e+002, 2.183650e+003
1.011539e+002, 2.206722e+003
1.016360e+002, 2.230605e+003
1.021181e+002, 2.256127e+003
1.026002e+002, 2.284440e+003
1.030823e+002, 2.316775e+003
1.035645e+002, 2.344116e+003
1.040466e+002, 2.365016e+003
1.045287e+002, 2.382374e+003
1.050108e+002, 2.402113e+003
1.054929e+002, 2.425800e+003
1.059750e+002, 2.449775e+003
1.064572e+002, 2.473103e+003
1.069393e+002, 2.499278e+003
1.074214e+002, 2.518952e+003
1.079035e+002, 2.528197e+003
1.083856e+002, 2.530730e+003
1.088677e+002, 2.538944e+003
1.093499e+002, 2.557115e+003
1.098320e+002, 2.578066e+003
1.103141e+002, 2.598718e+003
1.107962e+002, 2.616995e+003
1.112783e+002, 2.637751e+003
1.117604e+002, 2.661931e+003
1.122426e+002, 2.689468e+003
1.127247e+002, 2.718181e+003
1.132068e+002, 2.748011e+003
1.136889e+002, 2.778856e+003
1.141710e+002, 2.810339e+003
1.146531e+002, 2.846286e+003
1.151353e+002, 2.879032e+003
1.156174e+002, 2.905624e+003
1.160995e+002, 2.925888e+003
1.165816e+002, 2.946049e+003
1.170637e+002, 2.972071e+003
1.175458e+002, 2.997847e+003
1.180280e+002, 3.017038e+003
1.185101e+002, 3.018738e+003
1.189922e+002, 3.018775e+003
1.194743e+002, 3.026932e+003
1.199564e+002, 3.044484e+003
1.204385e+002, 3.063952e+003
1.209207e+002, 3.078371e+003
1.214028e+002, 3.091577e+003
1.218849e+002, 3.110293e+003
1.223670e+002, 3.147445e+003
1.228491e+002, 3.187687e+003
1.233312e+002, 3.213005e+003
1.238134e+002, 3.218774e+003
1.242955e+002, 3.219954e+003
1.247776e+002, 3.228297e+003
1.252597e+002, 3.243210e+003
1.257418e+002, 3.262567e+003
1.262239e+002, 3.285714e+003
1.267061e+002, 3.312691e+003
1.271882e+002, 3.343074e+003
1.276703e+002, 3.377901e+003
1.281524e+002, 3.414880e+003
1.286345e+002, 3.451753e+003
1.291166e+002, 3.488352e+003
1.295988e+002, 3.523321e+003
1.300809e+002, 3.555620e+003
1.305630e+002, 3.585334e+003
1.310451e+002, 3.613298e+003
1.315272e+002, 3.639788e+003
1.320093e+002, 3.663885e+003
1.324915e+002, 3.683738e+003
1.329736e+002, 3.699089e+003
1.334557e+002, 3.711090e+003
1.339378e+002, 3.719807e+003
1.344199e+002, 3.725204e+003
1.349020e+002, 3.729637e+003
1.353842e+002, 3.733786e+003
1.358663e+002, 3.737177e+003
1.363484e+002, 3.737432e+003
1.368305e+002, 3.733452e+003
1.373126e+002, 3.728954e+003
1.377947e+002, 3.728561e+003
1.382769e+002, 3.733199e+003
1.387590e+002, 3.736946e+003
1.392411e+002, 3.738434e+003
1.397232e+002, 3.737651e+003
1.402053e+002, 3.734574e+003
1.406874e+002, 3.728890e+003
1.411696e+002, 3.721439e+003
1.416517e+002, 3.713020e+003
1.421338e+002, 3.702644e+003
1.426159e+002, 3.693919e+003
1.430980e+002, 3.688538e+003
1.435801e+002, 3.687771e+003
1.440623e+002, 3.684917e+003
1.445444e+002, 3.678620e+003
1.450265e+002, 3.671278e+003
1.455086e+002, 3.667386e+003
1.459907e+002, 3.671010e+003
1.464728e+002, 3.672893e+003
1.469550e+002, 3.669742e+003
1.474371e+002, 3.658990e+003
1.479192e+002, 3.649179e+003
1.484013e+002, 3.639893e+003
1.488834e+002, 3.631619e+003
1.493655e+002, 3.625293e+003
1.498477e+002, 3.620587e+003
1.503298e+002, 3.618133e+003
1.508119e+002, 3.618381e+003
1.512940e+002, 3.624441e+003
1.517761e+002, 3.628543e+003
1.522583e+002, 3.628831e+003
1.527404e+002, 3.626733e+003
1.532225e+002, 3.626327e+003
1.537046e+002, 3.629454e+003
1.541867e+002, 3.633246e+003
1.546688e+002, 3.636399e+003
1.551510e+002, 3.638795e+003
1.556331e+002, 3.640588e+003
1.561152e+002, 3.642974e+003
1.565973e+002, 3.645178e+003
1.570794e+002, 3.643993e+003
1.575615e+002, 3.636742e+003
1.580437e+002, 3.627134e+003
1.585258e+002, 3.617420e+003
1.590079e+002, 3.605372e+003
1.594900e+002, 3.596109e+003
1.599721e+002, 3.592106e+003
1.604542e+002, 3.592650e+003
1.609364e+002, 3.593575e+003
1.614185e+002, 3.594438e+003
1.619006e+002, 3.594563e+003
1.623827e+002, 3.593398e+003
1.628648e+002, 3.590091e+003
1.633469e+002, 3.586052e+003
1.638291e+002, 3.581034e+003
1.643112e+002, 3.575306e+003
1.647933e+002, 3.571125e+003
1.652754e+002, 3.570165e+003
1.657575e+002, 3.571124e+003
1.662396e+002, 3.572637e+003
1.667218e+002, 3.574029e+003
1.672039e+002, 3.575959e+003
1.676860e+002, 3.579625e+003
1.681681e+002, 3.584919e+003
1.686502e+002, 3.589086e+003
1.691323e+002, 3.588591e+003
1.696145e+002, 3.586240e+003
1.700966e+002, 3.585867e+003
1.705787e+002, 3.594251e+003
1.710608e+002, 3.602131e+003
1.715429e+002, 3.599829e+003
1.720250e+002, 3.586741e+003
1.725072e+002, 3.572486e+003
1.729893e+002, 3.564258e+003
1.734714e+002, 3.559910e+003
1.739535e+002, 3.555458e+003
1.744356e+002, 3.549032e+003
1.749177e+002, 3.541633e+003
1.753999e+002, 3.533287e+003
1.758820e+002, 3.523601e+003
1.763641e+002, 3.516389e+003
1.768462e+002, 3.516777e+003
1.773283e+002, 3.522433e+003
1.778104e+002, 3.527410e+003
1.782926e+002, 3.528370e+003
1.787747e+002, 3.526884e+003
1.792568e+002, 3.524714e+003
1.797389e+002, 3.521590e+003
1.802210e+002, 3.519872e+003
1.807031e+002, 3.523577e+003
1.811853e+002, 3.531387e+003
1.816674e+002, 3.538520e+003
1.821495e+002, 3.542236e+003
1.826316e+002, 3.543541e+003
1.831137e+002, 3.544223e+003
1.835958e+002, 3.544120e+003
1.840780e+002, 3.544723e+003
1.845601e+002, 3.548541e+003
1.850422e+002, 3.555183e+003
1.855243e+002, 3.562239e+003
1.860064e+002, 3.568783e+003
1.864885e+002, 3.574846e+003
1.869707e+002, 3.580330e+003
1.874528e+002, 3.585494e+003
1.879349e+002, 3.589625e+003
1.884170e+002, 3.590543e+003
1.888991e+002, 3.588491e+003
1.893812e+002, 3.587648e+003
1.898634e+002, 3.592522e+003
1.903455e+002, 3.601533e+003
1.908276e+002, 3.604210e+003
1.913097e+002, 3.598529e+003
1.917918e+002, 3.589156e+003
1.922739e+002, 3.584089e+003
1.927561e+002, 3.583358e+003
1.932382e+002, 3.583742e+003
1.937203e+002, 3.583129e+003
1.942024e+002, 3.581673e+003
1.946845e+002, 3.582144e+003
1.951666e+002, 3.585243e+003
1.956488e+002, 3.589525e+003
1.961309e+002, 3.591743e+003
1.966130e+002, 3.591606e+003
1.970951e+002, 3.592162e+003
1.975772e+002, 3.596221e+003
1.980593e+002, 3.603872e+003
1.985415e+002, 3.608587e+003
1.990236e+002, 3.609769e+003
1.995057e+002, 3.608025e+003
1.999878e+002, 3.603311e+003
2.004699e+002, 3.594582e+003
2.009520e+002, 3.588093e+003
2.014342e+002, 3.589538e+003
2.019163e+002, 3.600007e+003
2.023984e+002, 3.604442e+003
2.028805e+002, 3.600056e+003
2.033626e+002, 3.590681e+003
2.038447e+002, 3.585995e+003
2.043269e+002, 3.586836e+003
2.048090e+002, 3.589307e+003
2.052911e+002, 3.591121e+003
2.057732e+002, 3.592003e+003
2.062553e+002, 3.594243e+003
2.067374e+002, 3.598423e+003
2.072196e+002, 3.603768e+003
2.077017e+002, 3.608234e+003
2.081838e+002, 3.611790e+003
2.086659e+002, 3.614606e+003
2.091480e+002, 3.617099e+003
2.096301e+002, 3.619784e+003
2.101123e+002, 3.619439e+003
2.105944e+002, 3.614211e+003
2.110765e+002, 3.606717e+003
2.115586e+002, 3.605531e+003
2.120407e+002, 3.613844e+003
2.125228e+002, 3.621271e+003
2.130050e+002, 3.621126e+003
2.134871e+002, 3.610770e+003
2.139692e+002, 3.602753e+003
2.144513e+002, 3.598170e+003
2.149334e+002, 3.596164e+003
2.154155e+002, 3.594177e+003
2.158977e+002, 3.592191e+003
2.163798e+002, 3.590141e+003
2.168619e+002, 3.587801e+003
2.173440e+002, 3.584676e+003
2.178261e+002, 3.582850e+003
2.183082e+002, 3.583251e+003
2.187904e+002, 3.584723e+003
2.192725e+002, 3.583528e+003
2.197546e+002, 3.578441e+003
2.202367e+002, 3.572885e+003
2.207188e+002, 3.568625e+003
2.212009e+002, 3.565911e+003
2.216831e+002, 3.563989e+003
2.221652e+002, 3.563650e+003
2.226473e+002, 3.563946e+003
2.231294e+002, 3.561656e+003
2.236115e+002, 3.554842e+003
2.240936e+002, 3.548791e+003
2.245758e+002, 3.546398e+003
2.250579e+002, 3.549905e+003
2.255400e+002, 3.551681e+003
2.260221e+002, 3.551132e+003
2.265042e+002, 3.548943e+003
2.269863e+002, 3.546898e+003
2.274685e+002, 3.544922e+003
2.279506e+002, 3.543179e+003
2.284327e+002, 3.541862e+003
2.289148e+002, 3.541522e+003
2.293969e+002, 3.540096e+003
2.298790e+002, 3.536826e+003
2.303612e+002, 3.532617e+003
2.308433e+002, 3.529903e+003
2.313254e+002, 3.529364e+003
2.318075e+002, 3.529124e+003
2.322896e+002, 3.528199e+003
2.327717e+002, 3.525678e+003
2.332539e+002, 3.524756e+003
2.337360e+002, 3.526687e+003
2.342181e+002, 3.529728e+003
2.347002e+002, 3.529318e+003
2.351823e+002, 3.521650e+003
2.356644e+002, 3.516230e+003
2.361466e+002, 3.517727e+003
2.366287e+002, 3.530411e+003
2.371108e+002, 3.538034e+003
2.375929e+002, 3.538029e+003
2.380750e+002, 3.533923e+003
2.385571e+002, 3.533355e+003
2.390393e+002, 3.539683e+003
2.395214e+002, 3.544278e+003
2.400035e+002, 3.543355e+003
2.404856e+002, 3.534040e+003
2.409677e+002, 3.528198e+003
2.414498e+002, 3.527118e+003
2.419320e+002, 3.528957e+003
2.424141e+002, 3.530392e+003
2.428962e+002, 3.530957e+003
2.433783e+002, 3.532051e+003
2.438604e+002, 3.534331e+003
2.443425e+002, 3.538295e+003
2.448247e+002, 3.541895e+003
2.453068e+002, 3.545551e+003
2.457889e+002, 3.548622e+003
2.462710e+002, 3.549713e+003
2.467531e+002, 3.546575e+003
2.472352e+002, 3.545356e+003
2.477174e+002, 3.549110e+003
2.481995e+002, 3.559865e+003
2.486816e+002, 3.564699e+003
2.491637e+002, 3.560988e+003
2.496458e+002, 3.553243e+003
2.501279e+002, 3.547881e+003
2.506101e+002, 3.545906e+003
2.510922e+002, 3.544239e+003
2.515743e+002, 3.541926e+003
2.520564e+002, 3.538731e+003
2.525385e+002, 3.536661e+003
2.530206e+002, 3.536569e+003
2.535028e+002, 3.536802e+003
2.539849e+002, 3.535053e+003
2.544670e+002, 3.529667e+003
2.549491e+002, 3.525868e+003
2.554312e+002, 3.525537e+003
2.559133e+002, 3.528972e+003
2.563955e+002, 3.530481e+003
2.568776e+002, 3.529294e+003
2.573597e+002, 3.527033e+003
2.578418e+002, 3.525135e+003
2.583239e+002, 3.522996e+003
2.588061e+002, 3.522502e+003
2.592882e+002, 3.523844e+003
2.597703e+002, 3.527042e+003
2.602524e+002, 3.532918e+003
2.607345e+002, 3.542543e+003
2.612166e+002, 3.553406e+003
2.616988e+002, 3.563939e+003
2.621809e+002, 3.574824e+003
2.626630e+002, 3.582738e+003
2.631451e+002, 3.585943e+003
2.636272e+002, 3.585208e+003
2.641093e+002, 3.587392e+003
2.645915e+002, 3.593661e+003
2.650736e+002, 3.600903e+003
2.655557e+002, 3.606974e+003
2.660378e+002, 3.611779e+003
2.665199e+002, 3.615321e+003
2.670020e+002, 3.616810e+003
2.674842e+002, 3.617027e+003
2.679663e+002, 3.619631e+003
2.684484e+002, 3.624469e+003
2.689305e+002, 3.631945e+003
2.694126e+002, 3.643449e+003
2.698947e+002, 3.660904e+003
2.703769e+002, 3.673930e+003
2.708590e+002, 3.679819e+003
2.713411e+002, 3.681529e+003
2.718232e+002, 3.689056e+003
2.723053e+002, 3.704144e+003
2.727874e+002, 3.719637e+003
2.732696e+002, 3.730685e+003
2.737517e+002, 3.736157e+003
2.742338e+002, 3.744569e+003
2.747159e+002, 3.756900e+003
2.751980e+002, 3.772076e+003
2.756801e+002, 3.787792e+003
2.761623e+002, 3.804375e+003
2.766444e+002, 3.820169e+003
2.771265e+002, 3.833461e+003
2.776086e+002, 3.844082e+003
2.780907e+002, 3.857602e+003
2.785728e+002, 3.874775e+003
2.790550e+002, 3.894103e+003
2.795371e+002, 3.913092e+003
2.800192e+002, 3.931691e+003
2.805013e+002, 3.950372e+003
2.809834e+002, 3.969685e+003
2.814655e+002, 3.989566e+003
2.819477e+002, 4.008104e+003
2.824298e+002, 4.024962e+003
2.829119e+002, 4.040733e+003
2.833940e+002, 4.055812e+003
2.838761e+002, 4.070126e+003
2.843582e+002, 4.084708e+003
2.848404e+002, 4.101625e+003
2.853225e+002, 4.119554e+003
2.858046e+002, 4.129906e+003
2.862867e+002, 4.131754e+003
2.867688e+002, 4.129829e+003
2.872509e+002, 4.128211e+003
2.877331e+002, 4.127002e+003
2.882152e+002, 4.127725e+003
2.886973e+002, 4.132199e+003
2.891794e+002, 4.138686e+003
2.896615e+002, 4.141423e+003
2.901436e+002, 4.140370e+003
2.906258e+002, 4.137076e+003
2.911079e+002, 4.131212e+003
2.915900e+002, 4.123701e+003
2.920721e+002, 4.119469e+003
2.925542e+002, 4.120512e+003
2.930363e+002, 4.125003e+003
2.935185e+002, 4.129135e+003
2.940006e+002, 4.132999e+003
2.944827e+002, 4.138032e+003
2.949648e+002, 4.146065e+003
2.954469e+002, 4.156334e+003
2.959290e+002, 4.166661e+003
2.964112e+002, 4.177411e+003
2.968933e+002, 4.186810e+003
2.973754e+002, 4.189874e+003
2.978575e+002, 4.187740e+003
2.983396e+002, 4.187790e+003
2.988217e+002, 4.199144e+003
2.993039e+002, 4.215454e+003
2.997860e+002, 4.223136e+003
3.002681e+002, 4.219081e+003
3.007502e+002, 4.210557e+003
3.012323e+002, 4.203359e+003
3.017144e+002, 4.198104e+003
3.021966e+002, 4.197261e+003
3.026787e+002, 4.207198e+003
3.031608e+002, 4.220304e+003
3.036429e+002, 4.225530e+003
3.041250e+002, 4.221237e+003
3.046071e+002, 4.214477e+003
3.050893e+002, 4.211057e+003
3.055714e+002, 4.209875e+003
3.060535e+002, 4.208740e+003
3.065356e+002, 4.206693e+003
3.070177e+002, 4.204198e+003
3.074998e+002, 4.201579e+003
3.079820e+002, 4.198835e+003
3.084641e+002, 4.196383e+003
3.089462e+002, 4.196080e+003
3.094283e+002, 4.195914e+003
3.099104e+002, 4.193120e+003
3.103925e+002, 4.185281e+003
3.108747e+002, 4.175705e+003
3.113568e+002, 4.165848e+003
3.118389e+002, 4.155933e+003
3.123210e+002, 4.147462e+003
3.128031e+002, 4.143335e+003
3.132852e+002, 4.140055e+003
3.137674e+002, 4.134112e+003
3.142495e+002, 4.123052e+003
3.147316e+002, 4.111226e+003
3.152137e+002, 4.100696e+003
3.156958e+002, 4.091160e+003
3.161779e+002, 4.081643e+003
3.166601e+002, 4.071752e+003
3.171422e+002, 4.061643e+003
3.176243e+002, 4.051497e+003
3.181064e+002, 4.041591e+003
3.185885e+002, 4.031222e+003
3.190706e+002, 4.021684e+003
3.195528e+002, 4.011403e+003
3.200349e+002, 3.997357e+003
3.205170e+002, 3.974302e+003
3.209991e+002, 3.950880e+003
3.214812e+002, 3.931133e+003
3.219633e+002, 3.916461e+003
3.224455e+002, 3.901424e+003
3.229276e+002, 3.883875e+003
3.234097e+002, 3.865625e+003
3.238918e+002, 3.848895e+003
3.243739e+002, 3.835834e+003
3.248560e+002, 3.822615e+003
3.253382e+002, 3.807818e+003
3.258203e+002, 3.791047e+003
3.263024e+002, 3.776027e+003
3.267845e+002, 3.764925e+003
3.272666e+002, 3.754584e+003
3.277487e+002, 3.742429e+003
3.282309e+002, 3.725020e+003
3.287130e+002, 3.710019e+003
3.291951e+002, 3.699735e+003
3.296772e+002, 3.693466e+003
3.301593e+002, 3.683936e+003
3.306414e+002, 3.667504e+003
3.311236e+002, 3.651352e+003
3.316057e+002, 3.639460e+003
3.320878e+002, 3.635013e+003
3.325699e+002, 3.628858e+003
3.330520e+002, 3.619532e+003
3.335341e+002, 3.608501e+003
3.340163e+002, 3.600319e+003
3.344984e+002, 3.597249e+003
3.349805e+002, 3.593297e+003
3.354626e+002, 3.585435e+003
3.359447e+002, 3.572023e+003
3.364268e+002, 3.560938e+003
3.369090e+002, 3.552329e+003
3.373911e+002, 3.545809e+003
3.378732e+002, 3.541811e+003
3.383553e+002, 3.541921e+003
3.388374e+002, 3.539039e+003
3.393195e+002, 3.529516e+003
3.398017e+002, 3.513819e+003
3.402838e+002, 3.503087e+003
3.407659e+002, 3.498697e+003
3.412480e+002, 3.495818e+003
3.417301e+002, 3.488469e+003
3.422122e+002, 3.476219e+003
3.426944e+002, 3.466526e+003
3.431765e+002, 3.461677e+003
3.436586e+002, 3.460221e+003
3.441407e+002, 3.457204e+003
3.446228e+002, 3.452422e+003
3.451049e+002, 3.448324e+003
3.455871e+002, 3.447390e+003
3.460692e+002, 3.449111e+003
3.465513e+002, 3.450306e+003
3.470334e+002, 3.450731e+003
3.475155e+002, 3.450064e+003
3.479977e+002, 3.447578e+003
3.484798e+002, 3.443353e+003
3.489619e+002, 3.438273e+003
3.494440e+002, 3.431828e+003
3.499261e+002, 3.425006e+003
3.504082e+002, 3.420378e+003
3.508904e+002, 3.418334e+003
3.513725e+002, 3.416977e+003
3.518546e+002, 3.414851e+003
3.523367e+002, 3.411879e+003
3.528188e+002, 3.407834e+003
3.533009e+002, 3.400996e+003
3.537831e+002, 3.393870e+003
3.542652e+002, 3.389340e+003
3.547473e+002, 3.387368e+003
3.552294e+002, 3.387064e+003
3.557115e+002, 3.390393e+003
3.561936e+002, 3.394221e+003
3.566758e+002, 3.394246e+003
3.571579e+002, 3.387137e+003
3.576400e+002, 3.378532e+003
3.581221e+002, 3.371275e+003
3.586042e+002, 3.365633e+003
3.590863e+002, 3.362284e+003
3.595685e+002, 3.363155e+003
3.600506e+002, 3.365514e+003
3.605327e+002, 3.367696e+003
3.610148e+002, 3.370004e+003
3.614969e+002, 3.370565e+003
3.619790e+002, 3.367434e+003
3.624612e+002, 3.362221e+003
3.629433e+002, 3.357582e+003
3.634254e+002, 3.352713e+003
3.639075e+002, 3.349937e+003
3.643896e+002, 3.350864e+003
3.648717e+002, 3.356082e+003
3.653539e+002, 3.360893e+003
3.658360e+002, 3.366265e+003
3.663181e+002, 3.369838e+003
3.668002e+002, 3.369605e+003
3.672823e+002, 3.359397e+003
3.677644e+002, 3.351849e+003
3.682466e+002, 3.350554e+003
3.687287e+002, 3.354786e+003
3.692108e+002, 3.355951e+003
3.696929e+002, 3.352073e+003
3.701750e+002, 3.346870e+003
3.706571e+002, 3.342310e+003
3.711393e+002, 3.339499e+003
3.716214e+002, 3.335294e+003
3.721035e+002, 3.328640e+003
3.725856e+002, 3.320911e+003
3.730677e+002, 3.315547e+003
3.735498e+002, 3.313958e+003
3.740320e+002, 3.312001e+003
3.745141e+002, 3.308005e+003
3.749962e+002, 3.301699e+003
3.754783e+002, 3.295863e+003
3.759604e+002, 3.290299e+003
3.764425e+002, 3.285632e+003
3.769247e+002, 3.282771e+003
3.774068e+002, 3.281918e+003
3.778889e+002, 3.281949e+003
3.783710e+002, 3.283419e+003
3.788531e+002, 3.285397e+003
3.793352e+002, 3.283082e+003
3.798174e+002, 3.275890e+003
3.802995e+002, 3.268494e+003
3.807816e+002, 3.264681e+003
3.812637e+002, 3.264108e+003
3.817458e+002, 3.264424e+003
3.822279e+002, 3.265663e+003
3.827101e+002, 3.266930e+003
3.831922e+002, 3.266333e+003
3.836743e+002, 3.264172e+003
3.841564e+002, 3.262551e+003
3.846385e+002, 3.262678e+003
3.851206e+002, 3.264121e+003
3.856028e+002, 3.266271e+003
3.860849e+002, 3.269177e+003
3.865670e+002, 3.271936e+003
3.870491e+002, 3.272866e+003
3.875312e+002, 3.273106e+003
3.880133e+002, 3.275002e+003
3.884955e+002, 3.281303e+003
3.889776e+002, 3.288009e+003
3.894597e+002, 3.290123e+003
3.899418e+002, 3.288550e+003
3.904239e+002, 3.288806e+003
3.909060e+002, 3.297122e+003
3.913882e+002, 3.307259e+003
3.918703e+002, 3.313295e+003
3.923524e+002, 3.312731e+003
3.928345e+002, 3.310802e+003
3.933166e+002, 3.310217e+003
3.937987e+002, 3.310043e+003
3.942809e+002, 3.308437e+003
3.947630e+002, 3.302812e+003
3.952451e+002, 3.297314e+003
3.957272e+002, 3.293906e+003
3.962093e+002, 3.293109e+003
3.966914e+002, 3.292105e+003
3.971736e+002, 3.289584e+003
3.976557e+002, 3.286932e+003
3.981378e+002, 3.285409e+003
3.986199e+002, 3.285105e+003
3.991020e+002, 3.285969e+003
3.995841e+002, 3.288827e+003
4.000663e+002, 3.293200e+003
4.005484e+002, 3.295901e+003
4.010305e+002, 3.295482e+003
4.015126e+002, 3.294965e+003
4.019947e+002, 3.295799e+003
4.024768e+002, 3.298304e+003
4.029590e+002, 3.301807e+003
4.034411e+002, 3.307835e+003
4.039232e+002, 3.313837e+003
4.044053e+002, 3.314773e+003
4.048874e+002, 3.309125e+003
4.053695e+002, 3.303172e+003
4.058517e+002, 3.298911e+003
4.063338e+002, 3.296277e+003
4.068159e+002, 3.292917e+003
4.072980e+002, 3.288333e+003
4.077801e+002, 3.284827e+003
4.082622e+002, 3.285095e+003
4.087444e+002, 3.288967e+003
4.092265e+002, 3.293118e+003
4.097086e+002, 3.297192e+003
4.101907e+002, 3.300790e+003
4.106728e+002, 3.303181e+003
4.111549e+002, 3.304365e+003
4.116371e+002, 3.304552e+003
4.121192e+002, 3.303302e+003
4.126013e+002, 3.301181e+003
4.130834e+002, 3.298769e+003
4.135655e+002, 3.295794e+003
4.140476e+002, 3.294867e+003
4.145298e+002, 3.301845e+003
4.150119e+002, 3.312523e+003
4.154940e+002, 3.318561e+003
4.159761e+002, 3.311847e+003
4.164582e+002, 3.302639e+003
4.169403e+002, 3.299537e+003
4.174225e+002, 3.301940e+003
4.179046e+002, 3.306336e+003
4.183867e+002, 3.312477e+003
4.188688e+002, 3.318756e+003
4.193509e+002, 3.323656e+003
4.198330e+002, 3.326488e+003
4.203152e+002, 3.328976e+003
4.207973e+002, 3.332137e+003
4.212794e+002, 3.335422e+003
4.217615e+002, 3.337842e+003
4.222436e+002, 3.339615e+003
4.227257e+002, 3.340110e+003
4.232079e+002, 3.338984e+003
4.236900e+002, 3.336124e+003
4.241721e+002, 3.332611e+003
4.246542e+002, 3.329979e+003
4.251363e+002, 3.325807e+003
4.256184e+002, 3.318026e+003
4.261006e+002, 3.303126e+003
4.265827e+002, 3.290148e+003
4.270648e+002, 3.280102e+003
4.275469e+002, 3.272335e+003
4.280290e+002, 3.265269e+003
4.285111e+002, 3.259672e+003
4.289933e+002, 3.253124e+003
4.294754e+002, 3.243642e+003
4.299575e+002, 3.230168e+003
4.304396e+002, 3.221530e+003
4.309217e+002, 3.218743e+003
4.314038e+002, 3.218413e+003
4.318860e+002, 3.216652e+003
4.323681e+002, 3.213439e+003
4.328502e+002, 3.209506e+003
4.333323e+002, 3.204899e+003
4.338144e+002, 3.199879e+003
4.342965e+002, 3.194853e+003
4.347787e+002, 3.189878e+003
4.352608e+002, 3.185654e+003
4.357429e+002, 3.182909e+003
4.362250e+002, 3.181347e+003
4.367071e+002, 3.180750e+003
4.371892e+002, 3.181624e+003
4.376714e+002, 3.181302e+003
4.381535e+002, 3.175280e+003
4.386356e+002, 3.165890e+003
4.391177e+002, 3.158304e+003
4.395998e+002, 3.155987e+003
4.400819e+002, 3.155585e+003
4.405641e+002, 3.154250e+003
4.410462e+002, 3.152051e+003
4.415283e+002, 3.150440e+003
4.420104e+002, 3.150552e+003
4.424925e+002, 3.151341e+003
4.429746e+002, 3.151895e+003
4.434568e+002, 3.151695e+003
4.439389e+002, 3.151744e+003
4.444210e+002, 3.152698e+003
4.449031e+002, 3.154052e+003
4.453852e+002, 3.154864e+003
4.458673e+002, 3.153817e+003
4.463495e+002, 3.153303e+003
4.468316e+002, 3.153944e+003
4.473137e+002, 3.155797e+003
4.477958e+002, 3.158956e+003
4.482779e+002, 3.164540e+003
4.487600e+002, 3.170542e+003
4.492422e+002, 3.175212e+003
4.497243e+002, 3.176722e+003
4.502064e+002, 3.180971e+003
4.506885e+002, 3.189062e+003
4.511706e+002, 3.199967e+003
4.516527e+002, 3.210838e+003
4.521349e+002, 3.221747e+003
4.526170e+002, 3.232537e+003
4.530991e+002, 3.242897e+003
4.535812e+002, 3.252958e+003
4.540633e+002, 3.263199e+003
4.545454e+002, 3.273641e+003
4.550276e+002, 3.284508e+003
4.555097e+002, 3.296327e+003
4.559918e+002, 3.308912e+003
4.564739e+002, 3.320446e+003
4.569560e+002, 3.330210e+003
4.574381e+002, 3.339370e+003
4.579203e+002, 3.350453e+003
4.584024e+002, 3.362872e+003
4.588845e+002, 3.374176e+003
4.593666e+002, 3.383922e+003
4.598488e+002, 3.391159e+003
4.603309e+002, 3.393878e+003
4.608130e+002, 3.391682e+003
4.612951e+002, 3.388247e+003
4.617772e+002, 3.385234e+003
4.622593e+002, 3.382776e+003
4.627415e+002, 3.381097e+003
4.632236e+002, 3.381362e+003
4.637057e+002, 3.381333e+003
4.641878e+002, 3.379681e+003
4.646699e+002, 3.376948e+003
4.651520e+002, 3.374969e+003
4.656342e+002, 3.374816e+003
4.661163e+002, 3.375106e+003
4.665984e+002, 3.375566e+003
4.670805e+002, 3.376945e+003
4.675626e+002, 3.376168e+003
4.680447e+002, 3.370349e+003
4.685269e+002, 3.364132e+003
4.690090e+002, 3.362709e+003
4.694911e+002, 3.370652e+003
4.699732e+002, 3.374569e+003
4.704553e+002, 3.371272e+003
4.709374e+002, 3.362540e+003
4.714196e+002, 3.356258e+003
4.719017e+002, 3.353336e+003
4.723838e+002, 3.350028e+003
4.728659e+002, 3.344344e+003
4.733480e+002, 3.336215e+003
4.738301e+002, 3.326733e+003
4.743123e+002, 3.315640e+003
4.747944e+002, 3.303962e+003
4.752765e+002, 3.292115e+003
4.757586e+002, 3.280461e+003
4.762407e+002, 3.271301e+003
4.767228e+002, 3.267010e+003
4.772050e+002, 3.263684e+003
4.776871e+002, 3.254321e+003
4.781692e+002, 3.240089e+003
4.786513e+002, 3.226724e+003
4.791334e+002, 3.219176e+003
4.796155e+002, 3.213719e+003
4.800977e+002, 3.206065e+003
4.805798e+002, 3.195433e+003
4.810619e+002, 3.185192e+003
4.815440e+002, 3.178837e+003
4.820261e+002, 3.173622e+003
4.825082e+002, 3.166286e+003
4.829904e+002, 3.151727e+003
4.834725e+002, 3.139262e+003
4.839546e+002, 3.133636e+003
4.844367e+002, 3.133031e+003
4.849188e+002, 3.129581e+003
4.854009e+002, 3.117614e+003
4.858831e+002, 3.106526e+003
4.863652e+002, 3.100936e+003
4.868473e+002, 3.104136e+003
4.873294e+002, 3.100466e+003
4.878115e+002, 3.085843e+003
4.882936e+002, 3.068042e+003
4.887758e+002, 3.054646e+003
4.892579e+002, 3.046039e+003
4.897400e+002, 3.040747e+003
4.902221e+002, 3.039661e+003
4.907042e+002, 3.040996e+003
4.911863e+002, 3.038924e+003
4.916685e+002, 3.033078e+003
4.921506e+002, 3.027656e+003
4.926327e+002, 3.025002e+003
4.931148e+002, 3.024786e+003
4.935969e+002, 3.025544e+003
4.940790e+002, 3.027286e+003
4.945612e+002, 3.030120e+003
4.950433e+002, 3.035635e+003
4.955254e+002, 3.042286e+003
4.960075e+002, 3.046455e+003
4.964896e+002, 3.045605e+003
4.969717e+002, 3.044383e+003
4.974539e+002, 3.047074e+003
4.979360e+002, 3.052876e+003
4.984181e+002, 3.059614e+003
4.989002e+002, 3.069266e+003
4.993823e+002, 3.077219e+003
4.998644e+002, 3.078598e+003
5.003466e+002, 3.072359e+003
5.008287e+002, 3.070423e+003
5.013108e+002, 3.080154e+003
5.017929e+002, 3.093336e+003
5.022750e+002, 3.103675e+003
5.027571e+002, 3.110231e+003
5.032393e+002, 3.114101e+003
5.037214e+002, 3.113752e+003
5.042035e+002, 3.111100e+003
5.046856e+002, 3.110177e+003
5.051677e+002, 3.111516e+003
5.056498e+002, 3.113733e+003
5.061320e+002, 3.117075e+003
5.066141e+002, 3.121454e+003
5.070962e+002, 3.122258e+003
5.075783e+002, 3.118132e+003
5.080604e+002, 3.115123e+003
5.085425e+002, 3.120443e+003
5.090247e+002, 3.133127e+003
5.095068e+002, 3.139739e+003
5.099889e+002, 3.137826e+003
5.104710e+002, 3.132391e+003
5.109531e+002, 3.129525e+003
5.114352e+002, 3.128929e+003
5.119174e+002, 3.129528e+003
5.123995e+002, 3.132962e+003
5.128816e+002, 3.135913e+003
5.133637e+002, 3.133187e+003
5.138458e+002, 3.125747e+003
5.143279e+002, 3.119516e+003
5.148101e+002, 3.118550e+003
5.152922e+002, 3.119801e+003
5.157743e+002, 3.121146e+003
5.162564e+002, 3.122550e+003
5.167385e+002, 3.122777e+003
5.172206e+002, 3.121355e+003
5.177028e+002, 3.118510e+003
5.181849e+002, 3.114504e+003
5.186670e+002, 3.106505e+003
5.191491e+002, 3.100718e+003
5.196312e+002, 3.099127e+003
5.201133e+002, 3.100694e+003
5.205955e+002, 3.100936e+003
5.210776e+002, 3.099880e+003
5.215597e+002, 3.097617e+003
5.220418e+002, 3.093991e+003
5.225239e+002, 3.088890e+003
5.230060e+002, 3.084117e+003
5.234882e+002, 3.079793e+003
5.239703e+002, 3.075548e+003
5.244524e+002, 3.070257e+003
5.249345e+002, 3.064171e+003
5.254166e+002, 3.060823e+003
5.258987e+002, 3.061613e+003
5.263809e+002, 3.063834e+003
5.268630e+002, 3.064292e+003
5.273451e+002, 3.062725e+003
5.278272e+002, 3.058229e+003
5.283093e+002, 3.044731e+003
5.287914e+002, 3.031244e+003
5.292736e+002, 3.030074e+003
5.297557e+002, 3.040420e+003
5.302378e+002, 3.048992e+003
5.307199e+002, 3.046332e+003
5.312020e+002, 3.039765e+003
5.316841e+002, 3.035495e+003
5.321663e+002, 3.036010e+003
5.326484e+002, 3.035728e+003
5.331305e+002, 3.032106e+003
5.336126e+002, 3.027194e+003
5.340947e+002, 3.023862e+003
5.345768e+002, 3.022284e+003
5.350590e+002, 3.022611e+003
5.355411e+002, 3.026215e+003
5.360232e+002, 3.032220e+003
5.365053e+002, 3.034619e+003
5.369874e+002, 3.031930e+003
5.374695e+002, 3.029056e+003
5.379517e+002, 3.029016e+003
5.384338e+002, 3.032071e+003
5.389159e+002, 3.032264e+003
5.393980e+002, 3.028914e+003
5.398801e+002, 3.025402e+003
5.403622e+002, 3.025961e+003
5.408444e+002, 3.029811e+003
5.413265e+002, 3.033414e+003
5.418086e+002, 3.036059e+003
5.422907e+002, 3.037981e+003
5.427728e+002, 3.038964e+003
5.432549e+002, 3.039395e+003
5.437371e+002, 3.040399e+003
5.442192e+002, 3.043091e+003
5.447013e+002, 3.046152e+003
5.451834e+002, 3.048419e+003
5.456655e+002, 3.049966e+003
5.461476e+002, 3.052019e+003
5.466298e+002, 3.056422e+003
5.471119e+002, 3.060654e+003
5.475940e+002, 3.062875e+003
5.480761e+002, 3.061442e+003
5.485582e+002, 3.060973e+003
5.490403e+002, 3.061721e+003
5.495225e+002, 3.063688e+003
5.500046e+002, 3.067156e+003
5.504867e+002, 3.073718e+003
5.509688e+002, 3.078285e+003
5.514509e+002, 3.078702e+003
5.519330e+002, 3.076845e+003
5.524152e+002, 3.080520e+003
5.528973e+002, 3.090788e+003
5.533794e+002, 3.100043e+003
5.538615e+002, 3.103795e+003
5.543436e+002, 3.102966e+003
5.548257e+002, 3.102350e+003
5.553079e+002, 3.101924e+003
5.557900e+002, 3.101890e+003
5.562721e+002, 3.103983e+003
5.567542e+002, 3.106310e+003
5.572363e+002, 3.104844e+003
5.577184e+002, 3.097603e+003
5.582006e+002, 3.089835e+003
5.586827e+002, 3.084870e+003
5.591648e+002, 3.082357e+003
5.596469e+002, 3.081584e+003
5.601290e+002, 3.086454e+003
5.606111e+002, 3.088972e+003
5.610933e+002, 3.083692e+003
5.615754e+002, 3.072131e+003
5.620575e+002, 3.064581e+003
5.625396e+002, 3.066113e+003
5.630217e+002, 3.068548e+003
5.635038e+002, 3.068440e+003
5.639860e+002, 3.064692e+003
5.644681e+002, 3.063665e+003
5.649502e+002, 3.066215e+003
5.654323e+002, 3.070126e+003
5.659144e+002, 3.073745e+003
5.663965e+002, 3.077232e+003
5.668787e+002, 3.078445e+003
5.673608e+002, 3.076468e+003
5.678429e+002, 3.073320e+003
5.683250e+002, 3.073093e+003
5.688071e+002, 3.075177e+003
5.692892e+002, 3.076170e+003
5.697714e+002, 3.072980e+003
5.702535e+002, 3.068907e+003
5.707356e+002, 3.069739e+003
5.712177e+002, 3.074482e+003
5.716998e+002, 3.077292e+003
5.721819e+002, 3.074005e+003
5.726641e+002, 3.067931e+003
5.731462e+002, 3.060712e+003
5.736283e+002, 3.051747e+003
5.741104e+002, 3.045685e+003
5.745925e+002, 3.046969e+003
5.750746e+002, 3.050074e+003
5.755568e+002, 3.049904e+003
5.760389e+002, 3.040508e+003
5.765210e+002, 3.035831e+003
5.770031e+002, 3.039931e+003
5.774852e+002, 3.047568e+003
5.779673e+002, 3.047222e+003
5.784495e+002, 3.036184e+003
5.789316e+002, 3.025696e+003
5.794137e+002, 3.018539e+003
5.798958e+002, 3.014804e+003
5.803779e+002, 3.015988e+003
5.808600e+002, 3.022348e+003
5.813422e+002, 3.027745e+003
5.818243e+002, 3.026229e+003
5.823064e+002, 3.020946e+003
5.827885e+002, 3.019987e+003
5.832706e+002, 3.024241e+003
5.837527e+002, 3.027729e+003
5.842349e+002, 3.024410e+003
5.847170e+002, 3.017895e+003
5.851991e+002, 3.012588e+003
5.856812e+002, 3.009419e+003
5.861633e+002, 3.007822e+003
5.866454e+002, 3.008727e+003
5.871276e+002, 3.010811e+003
5.876097e+002, 3.011684e+003
5.880918e+002, 3.009110e+003
5.885739e+002, 3.007285e+003
5.890560e+002, 3.007653e+003
5.895381e+002, 3.009759e+003
5.900203e+002, 3.010200e+003
5.905024e+002, 3.008351e+003
5.909845e+002, 3.006139e+003
5.914666e+002, 3.004515e+003
5.919487e+002, 3.003512e+003
5.924308e+002, 3.002953e+003
5.929130e+002, 3.003195e+003
5.933951e+002, 3.002271e+003
5.938772e+002, 2.996466e+003
5.943593e+002, 2.987755e+003
5.948414e+002, 2.983042e+003
5.953235e+002, 2.984301e+003
5.958057e+002, 2.987422e+003
5.962878e+002, 2.988859e+003
5.967699e+002, 2.989089e+003
5.972520e+002, 2.988996e+003
5.977341e+002, 2.988602e+003
5.982162e+002, 2.988245e+003
5.986984e+002, 2.987333e+003
5.991805e+002, 2.986389e+003
5.996626e+002, 2.987343e+003
6.001447e+002, 2.994067e+003
6.006268e+002, 2.999375e+003
6.011089e+002, 2.999600e+003
6.015911e+002, 2.994052e+003
6.020732e+002, 2.992263e+003
6.025553e+002, 2.995971e+003
6.030374e+002, 3.000712e+003
6.035195e+002, 3.003185e+003
6.040016e+002, 3.003174e+003
6.044838e+002, 3.003637e+003
6.049659e+002, 3.004599e+003
6.054480e+002, 3.006535e+003
6.059301e+002, 3.010709e+003
6.064122e+002, 3.016550e+003
6.068943e+002, 3.021854e+003
6.073765e+002, 3.026166e+003
6.078586e+002, 3.029426e+003
6.083407e+002, 3.029618e+003
6.088228e+002, 3.028566e+003
6.093049e+002, 3.030741e+003
6.097870e+002, 3.041341e+003
6.102692e+002, 3.052927e+003
6.107513e+002, 3.060887e+003
6.112334e+002, 3.065528e+003
6.117155e+002, 3.071910e+003
6.121976e+002, 3.084271e+003
6.126797e+002, 3.095777e+003
6.131619e+002, 3.102530e+003
6.136440e+002, 3.102550e+003
6.141261e+002, 3.107351e+003
6.146082e+002, 3.117885e+003
6.150903e+002, 3.131882e+003
6.155724e+002, 3.147903e+003
6.160546e+002, 3.165935e+003
6.165367e+002, 3.184883e+003
6.170188e+002, 3.204840e+003
6.175009e+002, 3.224742e+003
6.179830e+002, 3.242511e+003
6.184651e+002, 3.258801e+003
6.189473e+002, 3.275655e+003
6.194294e+002, 3.292085e+003
6.199115e+002, 3.311273e+003
6.203936e+002, 3.336688e+003
6.208757e+002, 3.367569e+003
6.213578e+002, 3.401903e+003
6.218400e+002, 3.440210e+003
6.223221e+002, 3.480645e+003
6.228042e+002, 3.520212e+003
6.232863e+002, 3.558901e+003
6.237684e+002, 3.605640e+003
6.242505e+002, 3.662732e+003
6.247327e+002, 3.726661e+003
6.252148e+002, 3.796018e+003
6.256969e+002, 3.871969e+003
6.261790e+002, 3.948459e+003
6.266611e+002, 4.023504e+003
6.271432e+002, 4.101659e+003
6.276254e+002, 4.188477e+003
6.281075e+002, 4.283501e+003
6.285896e+002, 4.379623e+003
6.290717e+002, 4.474427e+003
6.295538e+002, 4.570597e+003
6.300359e+002, 4.668545e+003
6.305181e+002, 4.769790e+003
6.310002e+002, 4.880672e+003
6.314823e+002, 5.007251e+003
6.319644e+002, 5.140615e+003
6.324465e+002, 5.274192e+003
6.329286e+002, 5.409862e+003
6.334108e+002, 5.550689e+003
6.338929e+002, 5.698261e+003
6.343750e+002, 5.852052e+003
6.348571e+002, 6.014963e+003
6.353392e+002, 6.188290e+003
6.358214e+002, 6.359346e+003
6.363035e+002, 6.530688e+003
6.367856e+002, 6.697999e+003
6.372677e+002, 6.861461e+003
6.377498e+002, 7.021939e+003
6.382319e+002, 7.168466e+003
6.387141e+002, 7.304688e+003
6.391962e+002, 7.418177e+003
6.396783e+002, 7.503616e+003
6.401604e+002, 7.558105e+003
6.406425e+002, 7.569467e+003
6.411246e+002, 7.535458e+003
6.416068e+002, 7.458572e+003
6.420889e+002, 7.331582e+003
6.425710e+002, 7.164961e+003
6.430531e+002, 6.979639e+003
6.435352e+002, 6.764212e+003
6.440173e+002, 6.549618e+003
6.444995e+002, 6.336836e+003
6.449816e+002, 6.133341e+003
6.454637e+002, 5.953337e+003
6.459458e+002, 5.807074e+003
6.464279e+002, 5.680690e+003
6.469100e+002, 5.572701e+003
6.473922e+002, 5.482399e+003
6.478743e+002, 5.413213e+003
6.483564e+002, 5.366666e+003
6.488385e+002, 5.334834e+003
6.493206e+002, 5.316213e+003
6.498027e+002, 5.309416e+003
6.502849e+002, 5.304526e+003
6.507670e+002, 5.301456e+003
6.512491e+002, 5.299584e+003
6.517312e+002, 5.304664e+003
6.522133e+002, 5.308714e+003
6.526954e+002, 5.298514e+003
6.531776e+002, 5.270672e+003
6.536597e+002, 5.232625e+003
6.541418e+002, 5.189727e+003
6.546239e+002, 5.138267e+003
6.551060e+002, 5.073807e+003
6.555881e+002, 4.990588e+003
6.560703e+002, 4.900096e+003
6.565524e+002, 4.799975e+003
6.570345e+002, 4.694685e+003
6.575166e+002, 4.593099e+003
6.579987e+002, 4.494956e+003
6.584808e+002, 4.399906e+003
6.589630e+002, 4.306423e+003
6.594451e+002, 4.215803e+003
6.599272e+002, 4.131159e+003
6.604093e+002, 4.052501e+003
6.608914e+002, 3.978663e+003
6.613735e+002, 3.907706e+003
6.618557e+002, 3.841851e+003
6.623378e+002, 3.785192e+003
6.628199e+002, 3.737119e+003
6.633020e+002, 3.691997e+003
6.637841e+002, 3.644096e+003
6.642662e+002, 3.599155e+003
6.647484e+002, 3.562665e+003
6.652305e+002, 3.536738e+003
6.657126e+002, 3.511427e+003
6.661947e+002, 3.481959e+003
6.666768e+002, 3.453995e+003
6.671589e+002, 3.431900e+003
6.676411e+002, 3.420899e+003
6.681232e+002, 3.403571e+003
6.686053e+002, 3.376168e+003
6.690874e+002, 3.347345e+003
6.695695e+002, 3.329205e+003
6.700516e+002, 3.321526e+003
6.705338e+002, 3.312765e+003
6.710159e+002, 3.300420e+003
6.714980e+002, 3.286543e+003
6.719801e+002, 3.274083e+003
6.724622e+002, 3.262639e+003
6.729443e+002, 3.251484e+003
6.734265e+002, 3.238797e+003
6.739086e+002, 3.227646e+003
6.743907e+002, 3.220790e+003
6.748728e+002, 3.217173e+003
6.753549e+002, 3.213628e+003
6.758370e+002, 3.210679e+003
6.763192e+002, 3.206112e+003
6.768013e+002, 3.198153e+003
6.772834e+002, 3.187229e+003
6.777655e+002, 3.178908e+003
6.782476e+002, 3.173438e+003
6.787297e+002, 3.170269e+003
6.792119e+002, 3.170280e+003
6.796940e+002, 3.173166e+003
6.801761e+002, 3.172241e+003
6.806582e+002, 3.167166e+003
6.811403e+002, 3.161757e+003
6.816224e+002, 3.160263e+003
6.821046e+002, 3.160420e+003
6.825867e+002, 3.156980e+003
6.830688e+002, 3.148615e+003
6.835509e+002, 3.142245e+003
6.840330e+002, 3.144586e+003
6.845151e+002, 3.150288e+003
6.849973e+002, 3.153919e+003
6.854794e+002, 3.153667e+003
6.859615e+002, 3.152478e+003
6.864436e+002, 3.149789e+003
6.869257e+002, 3.146886e+003
6.874078e+002, 3.145518e+003
6.878900e+002, 3.146787e+003
6.883721e+002, 3.146502e+003
6.888542e+002, 3.143567e+003
6.893363e+002, 3.139455e+003
6.898184e+002, 3.137622e+003
6.903005e+002, 3.137854e+003
6.907827e+002, 3.137152e+003
6.912648e+002, 3.133265e+003
6.917469e+002, 3.128980e+003
6.922290e+002, 3.129055e+003
6.927111e+002, 3.132288e+003
6.931932e+002, 3.134847e+003
6.936754e+002, 3.133484e+003
6.941575e+002, 3.132014e+003
6.946396e+002, 3.133235e+003
6.951217e+002, 3.136864e+003
6.956038e+002, 3.138684e+003
6.960859e+002, 3.135253e+003
6.965681e+002, 3.132816e+003
6.970502e+002, 3.134150e+003
6.975323e+002, 3.139462e+003
6.980144e+002, 3.143471e+003
6.984965e+002, 3.146355e+003
6.989786e+002, 3.147367e+003
6.994608e+002, 3.144564e+003
6.999429e+002, 3.139160e+003
7.004250e+002, 3.137068e+003
7.009071e+002, 3.138769e+003
7.013892e+002, 3.141148e+003
7.018713e+002, 3.141884e+003
7.023535e+002, 3.141546e+003
7.028356e+002, 3.140742e+003
7.033177e+002, 3.139456e+003
7.037998e+002, 3.138169e+003
7.042819e+002, 3.136344e+003
7.047640e+002, 3.134931e+003
7.052462e+002, 3.135061e+003
7.057283e+002, 3.138244e+003
7.062104e+002, 3.140310e+003
7.066925e+002, 3.140568e+003
7.071746e+002, 3.140094e+003
7.076567e+002, 3.140342e+003
7.081389e+002, 3.141272e+003
7.086210e+002, 3.143777e+003
7.091031e+002, 3.148802e+003
7.095852e+002, 3.154159e+003
7.100673e+002, 3.156178e+003
7.105494e+002, 3.155477e+003
7.110316e+002, 3.153969e+003
7.115137e+002, 3.152231e+003
7.119958e+002, 3.150278e+003
7.124779e+002, 3.146845e+003
7.129600e+002, 3.143042e+003
7.134421e+002, 3.142287e+003
7.139243e+002, 3.149750e+003
7.144064e+002, 3.155787e+003
7.148885e+002, 3.156524e+003
7.153706e+002, 3.152876e+003
7.158527e+002, 3.152418e+003
7.163348e+002, 3.156266e+003
7.168170e+002, 3.159869e+003
7.172991e+002, 3.160381e+003
7.177812e+002, 3.158715e+003
7.182633e+002, 3.160311e+003
7.187454e+002, 3.165071e+003
7.192275e+002, 3.168943e+003
7.197097e+002, 3.167768e+003
7.201918e+002, 3.164854e+003
7.206739e+002, 3.164435e+003
7.211560e+002, 3.166872e+003
7.216381e+002, 3.169183e+003
7.221202e+002, 3.169769e+003
7.226024e+002, 3.169887e+003
7.230845e+002, 3.170405e+003
7.235666e+002, 3.171581e+003
7.240487e+002, 3.172637e+003
7.245308e+002, 3.173635e+003
7.250129e+002, 3.174476e+003
7.254951e+002, 3.174991e+003
7.259772e+002, 3.175153e+003
7.264593e+002, 3.175334e+003
7.269414e+002, 3.175373e+003
7.274235e+002, 3.176245e+003
7.279056e+002, 3.179469e+003
7.283878e+002, 3.184292e+003
7.288699e+002, 3.189310e+003
7.293520e+002, 3.194626e+003
7.298341e+002, 3.198899e+003
7.303162e+002, 3.201228e+003
7.307983e+002, 3.201985e+003
7.312805e+002, 3.201685e+003
7.317626e+002, 3.199618e+003
7.322447e+002, 3.197519e+003
7.327268e+002, 3.194926e+003
7.332089e+002, 3.192761e+003
7.336910e+002, 3.192572e+003
7.341732e+002, 3.194582e+003
7.346553e+002, 3.198020e+003
7.351374e+002, 3.203498e+003
7.356195e+002, 3.209110e+003
7.361016e+002, 3.209515e+003
7.365837e+002, 3.206223e+003
7.370659e+002, 3.205973e+003
7.375480e+002, 3.214767e+003
7.380301e+002, 3.224396e+003
7.385122e+002, 3.226870e+003
7.389943e+002, 3.224226e+003
7.394764e+002, 3.221671e+003
7.399586e+002, 3.219797e+003
7.404407e+002, 3.219485e+003
7.409228e+002, 3.222101e+003
7.414049e+002, 3.226747e+003
7.418870e+002, 3.229620e+003
7.423691e+002, 3.230424e+003
7.428513e+002, 3.230012e+003
7.433334e+002, 3.227798e+003
7.438155e+002, 3.224813e+003
7.442976e+002, 3.225914e+003
7.447797e+002, 3.230943e+003
7.452618e+002, 3.236461e+003
7.457440e+002, 3.240673e+003
7.462261e+002, 3.244056e+003
7.467082e+002, 3.247140e+003
7.471903e+002, 3.249927e+003
7.476724e+002, 3.252466e+003
7.481545e+002, 3.253759e+003
7.486367e+002, 3.255656e+003
7.491188e+002, 3.259956e+003
7.496009e+002, 3.267222e+003
7.500830e+002, 3.271192e+003
7.505651e+002, 3.270838e+003
7.510472e+002, 3.269117e+003
7.515294e+002, 3.266552e+003
7.520115e+002, 3.263276e+003
7.524936e+002, 3.265573e+003
7.529757e+002, 3.273698e+003
7.534578e+002, 3.283121e+003
7.539399e+002, 3.290518e+003
7.544221e+002, 3.296404e+003
7.549042e+002, 3.301010e+003
7.553863e+002, 3.304343e+003
7.558684e+002, 3.307810e+003
7.563505e+002, 3.311808e+003
7.568326e+002, 3.316551e+003
7.573148e+002, 3.322263e+003
7.577969e+002, 3.329205e+003
7.582790e+002, 3.336490e+003
7.587611e+002, 3.343687e+003
7.592432e+002, 3.351931e+003
7.597253e+002, 3.362619e+003
7.602075e+002, 3.375891e+003
7.606896e+002, 3.388659e+003
7.611717e+002, 3.400978e+003
7.616538e+002, 3.411868e+003
7.621359e+002, 3.417853e+003
7.626180e+002, 3.422473e+003
7.631002e+002, 3.432718e+003
7.635823e+002, 3.451616e+003
7.640644e+002, 3.470633e+003
7.645465e+002, 3.485216e+003
7.650286e+002, 3.497741e+003
7.655107e+002, 3.510647e+003
7.659929e+002, 3.524195e+003
7.664750e+002, 3.538584e+003
7.669571e+002, 3.554565e+003
7.674392e+002, 3.570859e+003
7.679213e+002, 3.586035e+003
7.684034e+002, 3.600099e+003
7.688856e+002, 3.613240e+003
7.693677e+002, 3.625354e+003
7.698498e+002, 3.636487e+003
7.703319e+002, 3.647304e+003
7.708140e+002, 3.657100e+003
7.712961e+002, 3.664697e+003
7.717783e+002, 3.670428e+003
7.722604e+002, 3.672474e+003
7.727425e+002, 3.668965e+003
7.732246e+002, 3.661399e+003
7.737067e+002, 3.652045e+003
7.741888e+002, 3.643670e+003
7.746710e+002, 3.629534e+003
7.751531e+002, 3.607376e+003
7.756352e+002, 3.580656e+003
7.761173e+002, 3.555161e+003
7.765994e+002, 3.531042e+003
7.770815e+002, 3.506997e+003
7.775637e+002, 3.482231e+003
7.780458e+002, 3.458052e+003
7.785279e+002, 3.436202e+003
7.790100e+002, 3.416388e+003
7.794921e+002, 3.397887e+003
7.799742e+002, 3.380688e+003
7.804564e+002, 3.364657e+003
7.809385e+002, 3.350207e+003
7.814206e+002, 3.336694e+003
7.819027e+002, 3.322657e+003
7.823848e+002, 3.307268e+003
7.828669e+002, 3.292724e+003
7.833491e+002, 3.279136e+003
7.838312e+002, 3.266767e+003
7.843133e+002, 3.256127e+003
7.847954e+002, 3.247290e+003
7.852775e+002, 3.241549e+003
7.857596e+002, 3.241106e+003
7.862418e+002, 3.241580e+003
7.867239e+002, 3.235857e+003
7.872060e+002, 3.226238e+003
7.876881e+002, 3.218145e+003
7.881702e+002, 3.214851e+003
7.886523e+002, 3.212791e+003
7.891345e+002, 3.210827e+003
7.896166e+002, 3.209049e+003
7.900987e+002, 3.207868e+003
7.905808e+002, 3.208442e+003
7.910629e+002, 3.207128e+003
7.915450e+002, 3.202497e+003
7.920272e+002, 3.195822e+003
7.925093e+002, 3.190336e+003
7.929914e+002, 3.186034e+003
7.934735e+002, 3.184078e+003
7.939556e+002, 3.187018e+003
7.944377e+002, 3.190285e+003
7.949199e+002, 3.186077e+003
7.954020e+002, 3.177652e+003
7.958841e+002, 3.173786e+003
7.963662e+002, 3.184425e+003
7.968483e+002, 3.193102e+003
7.973304e+002, 3.192016e+003
7.978126e+002, 3.184471e+003
7.982947e+002, 3.180951e+003
7.987768e+002, 3.183048e+003
7.992589e+002, 3.184718e+003
7.997410e+002, 3.184062e+003
8.002231e+002, 3.182044e+003
8.007053e+002, 3.180824e+003
8.011874e+002, 3.180422e+003
8.016695e+002, 3.180905e+003
8.021516e+002, 3.182719e+003
8.026337e+002, 3.185086e+003
8.031158e+002, 3.188295e+003
8.035980e+002, 3.191530e+003
8.040801e+002, 3.192665e+003
8.045622e+002, 3.188813e+003
8.050443e+002, 3.185242e+003
8.055264e+002, 3.183081e+003
8.060085e+002, 3.182181e+003
8.064907e+002, 3.182329e+003
8.069728e+002, 3.183760e+003
8.074549e+002, 3.184902e+003
8.079370e+002, 3.185199e+003
8.084191e+002, 3.184918e+003
8.089012e+002, 3.184743e+003
8.093834e+002, 3.184508e+003
8.098655e+002, 3.183620e+003
8.103476e+002, 3.180028e+003
8.108297e+002, 3.177381e+003
8.113118e+002, 3.179666e+003
8.117939e+002, 3.184835e+003
8.122761e+002, 3.186640e+003
8.127582e+002, 3.180049e+003
8.132403e+002, 3.175946e+003
8.137224e+002, 3.177196e+003
8.142045e+002, 3.182023e+003
8.146866e+002, 3.185099e+003
8.151688e+002, 3.186346e+003
8.156509e+002, 3.188497e+003
8.161330e+002, 3.193772e+003
8.166151e+002, 3.198902e+003
8.170972e+002, 3.196499e+003
8.175793e+002, 3.189979e+003
8.180615e+002, 3.188126e+003
8.185436e+002, 3.200531e+003
8.190257e+002, 3.212120e+003
8.195078e+002, 3.216232e+003
8.199899e+002, 3.215031e+003
8.204720e+002, 3.215074e+003
8.209542e+002, 3.217608e+003
8.214363e+002, 3.218053e+003
8.219184e+002, 3.214421e+003
8.224005e+002, 3.209233e+003
8.228826e+002, 3.208437e+003
8.233647e+002, 3.211446e+003
8.238469e+002, 3.215087e+003
8.243290e+002, 3.219588e+003
8.248111e+002, 3.222327e+003
8.252932e+002, 3.219732e+003
8.257753e+002, 3.213829e+003
8.262574e+002, 3.208721e+003
8.267396e+002, 3.204025e+003
8.272217e+002, 3.202341e+003
8.277038e+002, 3.206453e+003
8.281859e+002, 3.212471e+003
8.286681e+002, 3.212243e+003
8.291502e+002, 3.204580e+003
8.296323e+002, 3.199294e+003
8.301144e+002, 3.199155e+003
8.305966e+002, 3.201179e+003
8.310787e+002, 3.201411e+003
8.315608e+002, 3.200129e+003
8.320429e+002, 3.197871e+003
8.325250e+002, 3.193677e+003
8.330071e+002, 3.190439e+003
8.334893e+002, 3.191276e+003
8.339714e+002, 3.193465e+003
8.344535e+002, 3.192274e+003
8.349356e+002, 3.182882e+003
8.354177e+002, 3.179620e+003
8.358998e+002, 3.185979e+003
8.363820e+002, 3.195674e+003
8.368641e+002, 3.199211e+003
8.373462e+002, 3.197209e+003
8.378283e+002, 3.195137e+003
8.383104e+002, 3.193996e+003
8.387925e+002, 3.193554e+003
8.392747e+002, 3.195644e+003
8.397568e+002, 3.197510e+003
8.402389e+002, 3.195012e+003
8.407210e+002, 3.183297e+003
8.412031e+002, 3.174087e+003
8.416852e+002, 3.170052e+003
8.421674e+002, 3.169367e+003
8.426495e+002, 3.171323e+003
8.431316e+002, 3.176862e+003
8.436137e+002, 3.179669e+003
8.440958e+002, 3.179058e+003
8.445779e+002, 3.176847e+003
8.450601e+002, 3.173668e+003
8.455422e+002, 3.170769e+003
8.460243e+002, 3.171400e+003
8.465064e+002, 3.176845e+003
8.469885e+002, 3.181496e+003
8.474706e+002, 3.182496e+003
8.479528e+002, 3.181144e+003
8.484349e+002, 3.177746e+003
8.489170e+002, 3.169756e+003
8.493991e+002, 3.168099e+003
8.498812e+002, 3.175278e+003
8.503633e+002, 3.183660e+003
8.508455e+002, 3.187050e+003
8.513276e+002, 3.185929e+003
8.518097e+002, 3.182872e+003
8.522918e+002, 3.177936e+003
8.527739e+002, 3.174034e+003
8.532560e+002, 3.173322e+003
8.537382e+002, 3.174891e+003
8.542203e+002, 3.178786e+003
8.547024e+002, 3.185382e+003
8.551845e+002, 3.189869e+003
8.556666e+002, 3.190617e+003
8.561487e+002, 3.189726e+003
8.566309e+002, 3.187509e+003
8.571130e+002, 3.184053e+003
8.575951e+002, 3.182920e+003
8.580772e+002, 3.184304e+003
8.585593e+002, 3.185583e+003
8.590414e+002, 3.184458e+003
8.595236e+002, 3.182339e+003
8.600057e+002, 3.180603e+003
8.604878e+002, 3.179594e+003
8.609699e+002, 3.181219e+003
8.614520e+002, 3.190543e+003
8.619341e+002, 3.198644e+003
8.624163e+002, 3.200258e+003
8.628984e+002, 3.196479e+003
8.633805e+002, 3.194606e+003
8.638626e+002, 3.195248e+003
8.643447e+002, 3.195566e+003
8.648268e+002, 3.193566e+003
8.653090e+002, 3.191155e+003
8.657911e+002, 3.194578e+003
8.662732e+002, 3.202292e+003
8.667553e+002, 3.207832e+003
8.672374e+002, 3.204448e+003
8.677195e+002, 3.201249e+003
8.682017e+002, 3.205936e+003
8.686838e+002, 3.215157e+003
8.691659e+002, 3.218771e+003
8.696480e+002, 3.212510e+003
8.701301e+002, 3.207107e+003
8.706122e+002, 3.204160e+003
8.710944e+002, 3.203513e+003
8.715765e+002, 3.206649e+003
8.720586e+002, 3.212709e+003
8.725407e+002, 3.214207e+003
8.730228e+002, 3.206655e+003
8.735049e+002, 3.199018e+003
8.739871e+002, 3.201759e+003
8.744692e+002, 3.209535e+003
8.749513e+002, 3.214205e+003
8.754334e+002, 3.210675e+003
8.759155e+002, 3.207941e+003
8.763976e+002, 3.207179e+003
8.768798e+002, 3.207216e+003
8.773619e+002, 3.206155e+003
8.778440e+002, 3.203779e+003
8.783261e+002, 3.204914e+003
8.788082e+002, 3.210825e+003
8.792903e+002, 3.216281e+003
8.797725e+002, 3.214126e+003
8.802546e+002, 3.208507e+003
8.807367e+002, 3.205294e+003
8.812188e+002, 3.205631e+003
8.817009e+002, 3.207705e+003
8.821830e+002, 3.212897e+003
8.826652e+002, 3.217947e+003
8.831473e+002, 3.220303e+003
8.836294e+002, 3.219322e+003
8.841115e+002, 3.220496e+003
8.845936e+002, 3.224498e+003
8.850757e+002, 3.227514e+003
8.855579e+002, 3.223906e+003
8.860400e+002, 3.218170e+003
8.865221e+002, 3.220865e+003
8.870042e+002, 3.231736e+003
8.874863e+002, 3.241688e+003
8.879684e+002, 3.246680e+003
8.884506e+002, 3.248681e+003
8.889327e+002, 3.247684e+003
8.894148e+002, 3.244078e+003
8.898969e+002, 3.242220e+003
8.903790e+002, 3.242370e+003
8.908611e+002, 3.243538e+003
8.913433e+002, 3.245692e+003
8.918254e+002, 3.248263e+003
8.923075e+002, 3.248969e+003
8.927896e+002, 3.248520e+003
8.932717e+002, 3.250079e+003
8.937538e+002, 3.258432e+003
8.942360e+002, 3.266074e+003
8.947181e+002, 3.267575e+003
8.952002e+002, 3.264941e+003
8.956823e+002, 3.263367e+003
8.961644e+002, 3.263047e+003
8.966465e+002, 3.264318e+003
8.971287e+002, 3.268203e+003
8.976108e+002, 3.272346e+003
8.980929e+002, 3.272227e+003
8.985750e+002, 3.268444e+003
8.990571e+002, 3.263398e+003
8.995392e+002, 3.257102e+003
9.000214e+002, 3.251481e+003
9.005035e+002, 3.248765e+003
9.009856e+002, 3.247245e+003
9.014677e+002, 3.244772e+003
9.019498e+002, 3.239311e+003
9.024319e+002, 3.236139e+003
9.029141e+002, 3.236170e+003
9.033962e+002, 3.237172e+003
9.038783e+002, 3.236941e+003
9.043604e+002, 3.235665e+003
9.048425e+002, 3.235371e+003
9.053246e+002, 3.236203e+003
9.058068e+002, 3.237387e+003
9.062889e+002, 3.239553e+003
9.067710e+002, 3.240886e+003
9.072531e+002, 3.238335e+003
9.077352e+002, 3.231172e+003
9.082173e+002, 3.228672e+003
9.086995e+002, 3.235969e+003
9.091816e+002, 3.242679e+003
9.096637e+002, 3.244172e+003
9.101458e+002, 3.241163e+003
9.106279e+002, 3.237496e+003
9.111100e+002, 3.233282e+003
9.115922e+002, 3.230569e+003
9.120743e+002, 3.230826e+003
9.125564e+002, 3.232905e+003
9.130385e+002, 3.236087e+003
9.135206e+002, 3.240148e+003
9.140027e+002, 3.244485e+003
9.144849e+002, 3.250530e+003
9.149670e+002, 3.254649e+003
9.154491e+002, 3.255245e+003
9.159312e+002, 3.254246e+003
9.164133e+002, 3.255909e+003
9.168954e+002, 3.260179e+003
9.173776e+002, 3.264022e+003
9.178597e+002, 3.266495e+003
9.183418e+002, 3.268995e+003
9.188239e+002, 3.272661e+003
9.193060e+002, 3.277471e+003
9.197881e+002, 3.283574e+003
9.202703e+002, 3.292177e+003
9.207524e+002, 3.299466e+003
9.212345e+002, 3.302080e+003
9.217166e+002, 3.306084e+003
9.221987e+002, 3.317861e+003
9.226808e+002, 3.337844e+003
9.231630e+002, 3.352957e+003
9.236451e+002, 3.362508e+003
9.241272e+002, 3.370738e+003
9.246093e+002, 3.378697e+003
9.250914e+002, 3.388940e+003
9.255735e+002, 3.405594e+003
9.260557e+002, 3.428655e+003
9.265378e+002, 3.451260e+003
9.270199e+002, 3.470472e+003
9.275020e+002, 3.490045e+003
9.279841e+002, 3.511707e+003
9.284662e+002, 3.534970e+003
9.289484e+002, 3.556649e+003
9.294305e+002, 3.576871e+003
9.299126e+002, 3.599429e+003
9.303947e+002, 3.626781e+003
9.308768e+002, 3.656430e+003
9.313589e+002, 3.686024e+003
9.318411e+002, 3.715414e+003
9.323232e+002, 3.743615e+003
9.328053e+002, 3.766609e+003
9.332874e+002, 3.793675e+003
9.337695e+002, 3.827858e+003
9.342516e+002, 3.864949e+003
9.347338e+002, 3.898121e+003
9.352159e+002, 3.927651e+003
9.356980e+002, 3.956562e+003
9.361801e+002, 3.985765e+003
9.366622e+002, 4.012159e+003
9.371443e+002, 4.034802e+003
9.376265e+002, 4.051703e+003
9.381086e+002, 4.058453e+003
9.385907e+002, 4.051282e+003
9.390728e+002, 4.047369e+003
9.395549e+002, 4.057233e+003
9.400370e+002, 4.061470e+003
9.405192e+002, 4.047693e+003
9.410013e+002, 4.016695e+003
9.414834e+002, 3.983344e+003
9.419655e+002, 3.947436e+003
9.424476e+002, 3.912766e+003
9.429297e+002, 3.884478e+003
9.434119e+002, 3.856515e+003
9.438940e+002, 3.821062e+003
9.443761e+002, 3.780139e+003
9.448582e+002, 3.743497e+003
9.453403e+002, 3.717840e+003
9.458224e+002, 3.690332e+003
9.463046e+002, 3.657055e+003
9.467867e+002, 3.621745e+003
9.472688e+002, 3.594742e+003
9.477509e+002, 3.574943e+003
9.482330e+002, 3.553628e+003
9.487151e+002, 3.527069e+003
9.491973e+002, 3.501865e+003
9.496794e+002, 3.486731e+003
9.501615e+002, 3.475223e+003
9.506436e+002, 3.459108e+003
9.511257e+002, 3.432194e+003
9.516078e+002, 3.410337e+003
9.520900e+002, 3.394475e+003
9.525721e+002, 3.382525e+003
9.530542e+002, 3.373435e+003
9.535363e+002, 3.366895e+003
9.540184e+002, 3.360807e+003
9.545005e+002, 3.355166e+003
9.549827e+002, 3.351135e+003
9.554648e+002, 3.352892e+003
9.559469e+002, 3.353718e+003
9.564290e+002, 3.346072e+003
9.569111e+002, 3.330771e+003
9.573932e+002, 3.323826e+003
9.578754e+002, 3.329223e+003
9.583575e+002, 3.334816e+003
9.588396e+002, 3.337302e+003
9.593217e+002, 3.337027e+003
9.598038e+002, 3.333387e+003
9.602859e+002, 3.327482e+003
9.607681e+002, 3.323281e+003
9.612502e+002, 3.322592e+003
9.617323e+002, 3.323433e+003
9.622144e+002, 3.327349e+003
9.626965e+002, 3.330904e+003
9.631786e+002, 3.329096e+003
9.636608e+002, 3.318523e+003
9.641429e+002, 3.312468e+003
9.646250e+002, 3.312093e+003
9.651071e+002, 3.314228e+003
9.655892e+002, 3.316187e+003
9.660714e+002, 3.318249e+003
9.665535e+002, 3.321523e+003
9.670356e+002, 3.326030e+003
9.675177e+002, 3.329564e+003
9.679998e+002, 3.328793e+003
9.684819e+002, 3.328904e+003
9.689641e+002, 3.333886e+003
9.694462e+002, 3.342667e+003
9.699283e+002, 3.346675e+003
9.704104e+002, 3.344918e+003
9.708925e+002, 3.345806e+003
9.713746e+002, 3.353807e+003
9.718568e+002, 3.364533e+003
9.723389e+002, 3.371417e+003
9.728210e+002, 3.375912e+003
9.733031e+002, 3.381205e+003
9.737852e+002, 3.387699e+003
9.742673e+002, 3.396051e+003
9.747495e+002, 3.408043e+003
9.752316e+002, 3.420581e+003
9.757137e+002, 3.430274e+003
9.761958e+002, 3.437094e+003
9.766779e+002, 3.443976e+003
9.771600e+002, 3.451167e+003
9.776422e+002, 3.458634e+003
9.781243e+002, 3.466516e+003
9.786064e+002, 3.474808e+003
9.790885e+002, 3.483643e+003
9.795706e+002, 3.493020e+003
9.800527e+002, 3.502568e+003
9.805349e+002, 3.514453e+003
9.810170e+002, 3.522742e+003
9.814991e+002, 3.523160e+003
9.819812e+002, 3.519570e+003
9.824633e+002, 3.526480e+003
9.829454e+002, 3.542417e+003
9.834276e+002, 3.558472e+003
9.839097e+002, 3.571044e+003
9.843918e+002, 3.582576e+003
9.848739e+002, 3.593606e+003
9.853560e+002, 3.605309e+003
9.858381e+002, 3.619707e+003
9.863203e+002, 3.637772e+003
9.868024e+002, 3.656301e+003
9.872845e+002, 3.674836e+003
9.877666e+002, 3.694802e+003
9.882487e+002, 3.717194e+003
9.887308e+002, 3.742219e+003
9.892130e+002, 3.771707e+003
9.896951e+002, 3.805460e+003
9.901772e+002, 3.840304e+003
9.906593e+002, 3.873740e+003
9.911414e+002, 3.908431e+003
9.916235e+002, 3.945779e+003
9.921057e+002, 3.985373e+003
9.925878e+002, 4.028024e+003
9.930699e+002, 4.074282e+003
9.935520e+002, 4.119915e+003
9.940341e+002, 4.162620e+003
9.945162e+002, 4.205888e+003
9.949984e+002, 4.255913e+003
9.954805e+002, 4.310021e+003
9.959626e+002, 4.363299e+003
9.964447e+002, 4.413393e+003
9.969268e+002, 4.464958e+003
9.974089e+002, 4.518224e+003
9.978911e+002, 4.573219e+003
9.983732e+002, 4.630811e+003
9.988553e+002, 4.690484e+003
9.993374e+002, 4.748614e+003
9.998195e+002, 4.804840e+003
1.000302e+003, 4.860229e+003
1.000784e+003, 4.919624e+003
1.001266e+003, 4.975839e+003
1.001748e+003, 5.025858e+003
1.002230e+003, 5.068622e+003
1.002712e+003, 5.097310e+003
1.003194e+003, 5.111215e+003
1.003676e+003, 5.113709e+003
1.004159e+003, 5.106306e+003
1.004641e+003, 5.086978e+003
1.005123e+003, 5.049056e+003
1.005605e+003, 4.995466e+003
1.006087e+003, 4.934746e+003
1.006569e+003, 4.867752e+003
1.007051e+003, 4.796662e+003
1.007533e+003, 4.718974e+003
1.008016e+003, 4.638812e+003
1.008498e+003, 4.557329e+003
1.008980e+003, 4.472844e+003
1.009462e+003, 4.400468e+003
1.009944e+003, 4.340377e+003
1.010426e+003, 4.286755e+003
1.010908e+003, 4.236138e+003
1.011390e+003, 4.189451e+003
1.011872e+003, 4.146997e+003
1.012355e+003, 4.109282e+003
1.012837e+003, 4.077699e+003
1.013319e+003, 4.056950e+003
1.013801e+003, 4.036371e+003
1.014283e+003, 4.012608e+003
1.014765e+003, 3.988770e+003
1.015247e+003, 3.970610e+003
1.015729e+003, 3.957476e+003
1.016211e+003, 3.946063e+003
1.016694e+003, 3.936029e+003
1.017176e+003, 3.925913e+003
1.017658e+003, 3.912401e+003
1.018140e+003, 3.899800e+003
1.018622e+003, 3.893348e+003
1.019104e+003, 3.895215e+003
1.019586e+003, 3.889960e+003
1.020068e+003, 3.875026e+003
1.020551e+003, 3.861560e+003
1.021033e+003, 3.855328e+003
1.021515e+003, 3.854810e+003
1.021997e+003, 3.858168e+003
1.022479e+003, 3.864462e+003
1.022961e+003, 3.870891e+003
1.023443e+003, 3.872303e+003
1.023925e+003, 3.878647e+003
1.024407e+003, 3.895475e+003
1.024890e+003, 3.916727e+003
1.025372e+003, 3.934948e+003
1.025854e+003, 3.949816e+003
1.026336e+003, 3.967321e+003
1.026818e+003, 3.988219e+003
1.027300e+003, 4.010042e+003
1.027782e+003, 4.028893e+003
1.028264e+003, 4.049099e+003
1.028746e+003, 4.075683e+003
1.029229e+003, 4.108938e+003
1.029711e+003, 4.141660e+003
1.030193e+003, 4.170875e+003
1.030675e+003, 4.205038e+003
1.031157e+003, 4.247757e+003
1.031639e+003, 4.296256e+003
1.032121e+003, 4.347665e+003
1.032603e+003, 4.400813e+003
1.033086e+003, 4.449732e+003
1.033568e+003, 4.491307e+003
1.034050e+003, 4.533164e+003
1.034532e+003, 4.581700e+003
1.035014e+003, 4.629350e+003
1.035496e+003, 4.670452e+003
1.035978e+003, 4.705171e+003
1.036460e+003, 4.731861e+003
1.036943e+003, 4.750564e+003
1.037425e+003, 4.754802e+003
1.037907e+003, 4.736929e+003
1.038389e+003, 4.703977e+003
1.038871e+003, 4.662271e+003
1.039353e+003, 4.611920e+003
1.039835e+003, 4.553403e+003
1.040317e+003, 4.482374e+003
1.040799e+003, 4.410116e+003
1.041281e+003, 4.335837e+003
1.041764e+003, 4.263538e+003
1.042246e+003, 4.200160e+003
1.042728e+003, 4.143471e+003
1.043210e+003, 4.087800e+003
1.043692e+003, 4.030979e+003
1.044174e+003, 3.979204e+003
1.044656e+003, 3.935256e+003
1.045138e+003, 3.897602e+003
1.045621e+003, 3.866757e+003
1.046103e+003, 3.842173e+003
1.046585e+003, 3.815753e+003
1.047067e+003, 3.787322e+003
1.047549e+003, 3.761043e+003
1.048031e+003, 3.738523e+003
1.048513e+003, 3.719903e+003
1.048995e+003, 3.707399e+003
1.049478e+003, 3.698811e+003
1.049960e+003, 3.690399e+003
1.050442e+003, 3.682085e+003
1.050924e+003, 3.672728e+003
1.051406e+003, 3.662507e+003
1.051888e+003, 3.650743e+003
1.052370e+003, 3.634887e+003
1.052852e+003, 3.616961e+003
1.053334e+003, 3.604455e+003
1.053817e+003, 3.597240e+003
1.054299e+003, 3.590814e+003
1.054781e+003, 3.585439e+003
1.055263e+003, 3.577302e+003
1.055745e+003, 3.562212e+003
1.056227e+003, 3.543768e+003
1.056709e+003, 3.530640e+003
1.057191e+003, 3.523119e+003
1.057673e+003, 3.515096e+003
1.058156e+003, 3.505253e+003
1.058638e+003, 3.494625e+003
1.059120e+003, 3.483743e+003
1.059602e+003, 3.472808e+003
1.060084e+003, 3.461519e+003
1.060566e+003, 3.449307e+003
1.061048e+003, 3.440703e+003
1.061530e+003, 3.436859e+003
1.062013e+003, 3.434045e+003
1.062495e+003, 3.431366e+003
1.062977e+003, 3.427863e+003
1.063459e+003, 3.419894e+003
1.063941e+003, 3.409010e+003
1.064423e+003, 3.399440e+003
1.064905e+003, 3.393103e+003
1.065387e+003, 3.388000e+003
1.065870e+003, 3.384355e+003
1.066352e+003, 3.381132e+003
1.066834e+003, 3.377481e+003
1.067316e+003, 3.373436e+003
1.067798e+003, 3.368655e+003
1.068280e+003, 3.363108e+003
1.068762e+003, 3.358033e+003
1.069244e+003, 3.353892e+003
1.069726e+003, 3.350878e+003
1.070208e+003, 3.349763e+003
1.070691e+003, 3.350070e+003
1.071173e+003, 3.349827e+003
1.071655e+003, 3.349052e+003
1.072137e+003, 3.347395e+003
1.072619e+003, 3.344633e+003
1.073101e+003, 3.341339e+003
1.073583e+003, 3.337847e+003
1.074065e+003, 3.334510e+003
1.074548e+003, 3.332052e+003
1.075030e+003, 3.330746e+003
1.075512e+003, 3.329002e+003
1.075994e+003, 3.325784e+003
1.076476e+003, 3.322862e+003
1.076958e+003, 3.320870e+003
1.077440e+003, 3.319788e+003
1.077922e+003, 3.320627e+003
1.078405e+003, 3.322630e+003
1.078887e+003, 3.321979e+003
1.079369e+003, 3.316310e+003
1.079851e+003, 3.309226e+003
1.080333e+003, 3.300030e+003
1.080815e+003, 3.292273e+003
1.081297e+003, 3.290340e+003
1.081779e+003, 3.295802e+003
1.082261e+003, 3.297730e+003
1.082744e+003, 3.295917e+003
1.083226e+003, 3.293330e+003
1.083708e+003, 3.292023e+003
1.084190e+003, 3.291096e+003
1.084672e+003, 3.288964e+003
1.085154e+003, 3.286345e+003
1.085636e+003, 3.285925e+003
1.086118e+003, 3.289804e+003
1.086601e+003, 3.292203e+003
1.087083e+003, 3.292419e+003
1.087565e+003, 3.291042e+003
1.088047e+003, 3.287278e+003
1.088529e+003, 3.282929e+003
1.089011e+003, 3.282694e+003
1.089493e+003, 3.287042e+003
1.089975e+003, 3.289616e+003
1.090458e+003, 3.285615e+003
1.090940e+003, 3.281758e+003
1.091422e+003, 3.280414e+003
1.091904e+003, 3.281019e+003
1.092386e+003, 3.282958e+003
1.092868e+003, 3.285677e+003
1.093350e+003, 3.285183e+003
1.093832e+003, 3.279216e+003
1.094314e+003, 3.273403e+003
1.094797e+003, 3.272133e+003
1.095279e+003, 3.272506e+003
1.095761e+003, 3.271841e+003
1.096243e+003, 3.270013e+003
1.096725e+003, 3.268698e+003
1.097207e+003, 3.267944e+003
1.097689e+003, 3.267526e+003
1.098171e+003, 3.268265e+003
1.098653e+003, 3.268347e+003
1.099136e+003, 3.264475e+003
1.099618e+003, 3.258664e+003
1.100100e+003, 3.254823e+003
1.100582e+003, 3.254812e+003
1.101064e+003, 3.254597e+003
1.101546e+003, 3.253542e+003
1.102028e+003, 3.253536e+003
1.102510e+003, 3.258138e+003
1.102993e+003, 3.264399e+003
1.103475e+003, 3.265536e+003
1.103957e+003, 3.261961e+003
1.104439e+003, 3.257946e+003
1.104921e+003, 3.253916e+003
1.105403e+003, 3.251624e+003
1.105885e+003, 3.252268e+003
1.106367e+003, 3.254024e+003
1.106849e+003, 3.252806e+003
1.107332e+003, 3.249601e+003
1.107814e+003, 3.250197e+003
1.108296e+003, 3.255776e+003
1.108778e+003, 3.261074e+003
1.109260e+003, 3.264195e+003
1.109742e+003, 3.264522e+003
1.110224e+003, 3.260037e+003
1.110706e+003, 3.252273e+003
1.111188e+003, 3.249454e+003
1.111671e+003, 3.251659e+003
1.112153e+003, 3.252236e+003
1.112635e+003, 3.247840e+003
1.113117e+003, 3.244116e+003
1.113599e+003, 3.248920e+003
1.114081e+003, 3.256293e+003
1.114563e+003, 3.258691e+003
1.115045e+003, 3.253974e+003
1.115528e+003, 3.251774e+003
1.116010e+003, 3.252665e+003
1.116492e+003, 3.253618e+003
1.116974e+003, 3.253337e+003
1.117456e+003, 3.251771e+003
1.117938e+003, 3.247271e+003
1.118420e+003, 3.241686e+003
1.118902e+003, 3.238934e+003
1.119385e+003, 3.243763e+003
1.119867e+003, 3.246125e+003
1.120349e+003, 3.245083e+003
1.120831e+003, 3.242531e+003
1.121313e+003, 3.239273e+003
1.121795e+003, 3.236043e+003
1.122277e+003, 3.235752e+003
1.122759e+003, 3.237822e+003
1.123241e+003, 3.238517e+003
1.123724e+003, 3.233446e+003
1.124206e+003, 3.230098e+003
1.124688e+003, 3.230903e+003
1.125170e+003, 3.234028e+003
1.125652e+003, 3.237892e+003
1.126134e+003, 3.241907e+003
1.126616e+003, 3.240970e+003
1.127098e+003, 3.234343e+003
1.127580e+003, 3.227931e+003
1.128063e+003, 3.226382e+003
1.128545e+003, 3.225690e+003
1.129027e+003, 3.222527e+003
1.129509e+003, 3.218274e+003
1.129991e+003, 3.219152e+003
1.130473e+003, 3.225369e+003
1.130955e+003, 3.227806e+003
1.131437e+003, 3.223156e+003
1.131920e+003, 3.218171e+003
1.132402e+003, 3.219026e+003
1.132884e+003, 3.222820e+003
1.133366e+003, 3.227825e+003
1.133848e+003, 3.234072e+003
1.134330e+003, 3.234936e+003
1.134812e+003, 3.229318e+003
1.135294e+003, 3.224281e+003
1.135776e+003, 3.223349e+003
1.136259e+003, 3.223723e+003
1.136741e+003, 3.220173e+003
1.137223e+003, 3.215859e+003
1.137705e+003, 3.216127e+003
1.138187e+003, 3.226364e+003
1.138669e+003, 3.230895e+003
1.139151e+003, 3.227827e+003
1.139633e+003, 3.223571e+003
1.140115e+003, 3.222256e+003
1.140598e+003, 3.222851e+003
1.141080e+003, 3.223816e+003
1.141562e+003, 3.224857e+003
1.142044e+003, 3.225172e+003
1.142526e+003, 3.223819e+003
1.143008e+003, 3.222740e+003
1.143490e+003, 3.222465e+003
1.143972e+003, 3.222134e+003
1.144455e+003, 3.219999e+003
1.144937e+003, 3.217212e+003
1.145419e+003, 3.218211e+003
1.145901e+003, 3.222677e+003
1.146383e+003, 3.226957e+003
1.146865e+003, 3.230899e+003
1.147347e+003, 3.232043e+003
1.147829e+003, 3.228772e+003
1.148312e+003, 3.223554e+003
1.148794e+003, 3.219936e+003
1.149276e+003, 3.217788e+003
1.149758e+003, 3.216468e+003
1.150240e+003, 3.215888e+003
1.150722e+003, 3.216144e+003
1.151204e+003, 3.217825e+003
1.151686e+003, 3.219823e+003
1.152168e+003, 3.222016e+003
1.152651e+003, 3.223894e+003
1.153133e+003, 3.223185e+003
1.153615e+003, 3.220070e+003
1.154097e+003, 3.219573e+003
1.154579e+003, 3.223340e+003
1.155061e+003, 3.227142e+003
1.155543e+003, 3.228473e+003
1.156025e+003, 3.227649e+003
1.156507e+003, 3.223059e+003
1.156990e+003, 3.215614e+003
1.157472e+003, 3.215112e+003
1.157954e+003, 3.222092e+003
1.158436e+003, 3.227870e+003
1.158918e+003, 3.229144e+003
1.159400e+003, 3.228969e+003
1.159882e+003, 3.230579e+003
1.160364e+003, 3.232400e+003
1.160847e+003, 3.231984e+003
1.161329e+003, 3.228342e+003
1.161811e+003, 3.228938e+003
1.162293e+003, 3.234728e+003
1.162775e+003, 3.238594e+003
1.163257e+003, 3.235453e+003
1.163739e+003, 3.230181e+003
1.164221e+003, 3.227513e+003
1.164703e+003, 3.227433e+003
1.165186e+003, 3.230369e+003
1.165668e+003, 3.239806e+003
1.166150e+003, 3.243697e+003
1.166632e+003, 3.241019e+003
1.167114e+003, 3.236397e+003
1.167596e+003, 3.231691e+003
1.168078e+003, 3.228071e+003
1.168560e+003, 3.228728e+003
1.169042e+003, 3.232045e+003
1.169525e+003, 3.233708e+003
1.170007e+003, 3.230608e+003
1.170489e+003, 3.229388e+003
1.170971e+003, 3.231163e+003
1.171453e+003, 3.232923e+003
1.171935e+003, 3.231139e+003
1.172417e+003, 3.227601e+003
1.172899e+003, 3.225017e+003
1.173382e+003, 3.223774e+003
1.173864e+003, 3.225060e+003
1.174346e+003, 3.234185e+003
1.174828e+003, 3.238484e+003
1.175310e+003, 3.235056e+003
1.175792e+003, 3.228461e+003
1.176274e+003, 3.222597e+003
1.176756e+003, 3.218609e+003
1.177239e+003, 3.219999e+003
1.177721e+003, 3.226652e+003
1.178203e+003, 3.233078e+003
1.178685e+003, 3.239340e+003
1.179167e+003, 3.241509e+003
1.179649e+003, 3.236918e+003
1.180131e+003, 3.230112e+003
1.180613e+003, 3.229926e+003
1.181095e+003, 3.234187e+003
1.181578e+003, 3.236097e+003
1.182060e+003, 3.234486e+003
1.182542e+003, 3.234530e+003
1.183024e+003, 3.241410e+003
1.183506e+003, 3.246763e+003
1.183988e+003, 3.246619e+003
1.184470e+003, 3.243943e+003
1.184952e+003, 3.248229e+003
1.185434e+003, 3.256630e+003
1.185917e+003, 3.258074e+003
1.186399e+003, 3.248531e+003
1.186881e+003, 3.239844e+003
1.187363e+003, 3.236474e+003
1.187845e+003, 3.237094e+003
1.188327e+003, 3.242617e+003
1.188809e+003, 3.250731e+003
1.189291e+003, 3.251676e+003
1.189774e+003, 3.246990e+003
1.190256e+003, 3.244266e+003
1.190738e+003, 3.246912e+003
1.191220e+003, 3.248861e+003
1.191702e+003, 3.244927e+003
1.192184e+003, 3.241539e+003
1.192666e+003, 3.243608e+003
1.193148e+003, 3.249849e+003
1.193630e+003, 3.251636e+003
1.194113e+003, 3.249472e+003
1.194595e+003, 3.245968e+003
1.195077e+003, 3.240235e+003
1.195559e+003, 3.237166e+003
1.196041e+003, 3.243599e+003
1.196523e+003, 3.249949e+003
1.197005e+003, 3.247698e+003
1.197487e+003, 3.237591e+003
1.197969e+003, 3.232521e+003
1.198452e+003, 3.231990e+003
1.198934e+003, 3.231803e+003
1.199416e+003, 3.228550e+003
1.199898e+003, 3.226753e+003
1.200380e+003, 3.231758e+003
1.200862e+003, 3.236887e+003
1.201344e+003, 3.233891e+003
1.201826e+003, 3.222786e+003
1.202309e+003, 3.222085e+003
1.202791e+003, 3.230852e+003
1.203273e+003, 3.237162e+003
1.203755e+003, 3.230348e+003
1.204237e+003, 3.223560e+003
1.204719e+003, 3.225548e+003
1.205201e+003, 3.229905e+003
1.205683e+003, 3.228212e+003
1.206166e+003, 3.220637e+003
1.206648e+003, 3.217216e+003
1.207130e+003, 3.218142e+003
1.207612e+003, 3.219502e+003
1.208094e+003, 3.219319e+003
1.208576e+003, 3.218302e+003
1.209058e+003, 3.216371e+003
1.209540e+003, 3.214074e+003
1.210022e+003, 3.212243e+003
1.210505e+003, 3.210841e+003
1.210987e+003, 3.209078e+003
1.211469e+003, 3.206879e+003
1.211951e+003, 3.203840e+003
1.212433e+003, 3.197578e+003
1.212915e+003, 3.192664e+003
1.213397e+003, 3.194001e+003
1.213879e+003, 3.197195e+003
1.214361e+003, 3.193821e+003
1.214844e+003, 3.184507e+003
1.215326e+003, 3.178867e+003
1.215808e+003, 3.178025e+003
1.216290e+003, 3.178383e+003
1.216772e+003, 3.180388e+003
1.217254e+003, 3.179665e+003
1.217736e+003, 3.170770e+003
1.218218e+003, 3.159119e+003
1.218701e+003, 3.158234e+003
1.219183e+003, 3.166636e+003
1.219665e+003, 3.165390e+003
1.220147e+003, 3.151094e+003
1.220629e+003, 3.138872e+003
1.221111e+003, 3.141407e+003
1.221593e+003, 3.145665e+003
1.222075e+003, 3.144636e+003
1.222557e+003, 3.140161e+003
1.223040e+003, 3.137384e+003
1.223522e+003, 3.135825e+003
1.224004e+003, 3.131289e+003
1.224486e+003, 3.122706e+003
1.224968e+003, 3.114661e+003
1.225450e+003, 3.110324e+003
1.225932e+003, 3.107009e+003
1.226414e+003, 3.103153e+003
1.226896e+003, 3.099264e+003
1.227379e+003, 3.097194e+003
1.227861e+003, 3.096587e+003
1.228343e+003, 3.095776e+003
1.228825e+003, 3.094730e+003
1.229307e+003, 3.091164e+003
1.229789e+003, 3.080696e+003
1.230271e+003, 3.070672e+003
1.230753e+003, 3.064643e+003
1.231236e+003, 3.061760e+003
1.231718e+003, 3.060548e+003
1.232200e+003, 3.060260e+003
1.232682e+003, 3.057653e+003
1.233164e+003, 3.051440e+003
1.233646e+003, 3.045168e+003
1.234128e+003, 3.039547e+003
1.234610e+003, 3.035663e+003
1.235093e+003, 3.034739e+003
1.235575e+003, 3.035512e+003
1.236057e+003, 3.033683e+003
1.236539e+003, 3.030066e+003
1.237021e+003, 3.027269e+003
1.237503e+003, 3.026081e+003
1.237985e+003, 3.025672e+003
1.238467e+003, 3.026421e+003
1.238949e+003, 3.027045e+003
1.239432e+003, 3.026694e+003
1.239914e+003, 3.025997e+003
1.240396e+003, 3.027175e+003
1.240878e+003, 3.029583e+003
1.241360e+003, 3.031261e+003
1.241842e+003, 3.031034e+003
1.242324e+003, 3.032166e+003
1.242806e+003, 3.036562e+003
1.243288e+003, 3.040380e+003
1.243771e+003, 3.040949e+003
1.244253e+003, 3.040334e+003
1.244735e+003, 3.043673e+003
1.245217e+003, 3.050161e+003
1.245699e+003, 3.058322e+003
1.246181e+003, 3.069462e+003
1.246663e+003, 3.077053e+003
1.247145e+003, 3.079585e+003
1.247628e+003, 3.080836e+003
1.248110e+003, 3.082393e+003
1.248592e+003, 3.084448e+003
1.249074e+003, 3.087722e+003
1.249556e+003, 3.091667e+003
1.250038e+003, 3.095321e+003
1.250520e+003, 3.098241e+003
1.251002e+003, 3.101127e+003
1.251484e+003, 3.103633e+003
1.251967e+003, 3.107253e+003
1.252449e+003, 3.113468e+003
1.252931e+003, 3.120570e+003
1.253413e+003, 3.126012e+003
1.253895e+003, 3.130385e+003
1.254377e+003, 3.134669e+003
1.254859e+003, 3.139355e+003
1.255341e+003, 3.142507e+003
1.255823e+003, 3.143433e+003
1.256306e+003, 3.146101e+003
1.256788e+003, 3.153684e+003
1.257270e+003, 3.163168e+003
1.257752e+003, 3.173000e+003
1.258234e+003, 3.181407e+003
1.258716e+003, 3.184783e+003
1.259198e+003, 3.181422e+003
1.259680e+003, 3.180546e+003
1.260163e+003, 3.182436e+003
1.260645e+003, 3.184506e+003
1.261127e+003, 3.184250e+003
1.261609e+003, 3.184892e+003
1.262091e+003, 3.190851e+003
1.262573e+003, 3.198744e+003
1.263055e+003, 3.203747e+003
1.263537e+003, 3.205292e+003
1.264020e+003, 3.207352e+003
1.264502e+003, 3.209913e+003
1.264984e+003, 3.213199e+003
1.265466e+003, 3.217422e+003
1.265948e+003, 3.222169e+003
1.266430e+003, 3.227565e+003
1.266912e+003, 3.233000e+003
1.267394e+003, 3.238099e+003
1.267876e+003, 3.242792e+003
1.268359e+003, 3.245242e+003
1.268841e+003, 3.245663e+003
1.269323e+003, 3.245951e+003
1.269805e+003, 3.246413e+003
1.270287e+003, 3.247931e+003
1.270769e+003, 3.252268e+003
1.271251e+003, 3.256711e+003
1.271733e+003, 3.258734e+003
1.272215e+003, 3.258839e+003
1.272698e+003, 3.261624e+003
1.273180e+003, 3.266382e+003
1.273662e+003, 3.269636e+003
1.274144e+003, 3.268736e+003
1.274626e+003, 3.267637e+003
1.275108e+003, 3.266493e+003
1.275590e+003, 3.266468e+003
1.276072e+003, 3.269409e+003
1.276555e+003, 3.274030e+003
1.277037e+003, 3.275000e+003
1.277519e+003, 3.273765e+003
1.278001e+003, 3.274663e+003
1.278483e+003, 3.281934e+003
1.278965e+003, 3.287083e+003
1.279447e+003, 3.289037e+003
1.279929e+003, 3.290055e+003
1.280411e+003, 3.291964e+003
1.280894e+003, 3.293975e+003
1.281376e+003, 3.294128e+003
1.281858e+003, 3.293325e+003
1.282340e+003, 3.293694e+003
1.282822e+003, 3.296913e+003
1.283304e+003, 3.298691e+003
1.283786e+003, 3.298786e+003
1.284268e+003, 3.298736e+003
1.284750e+003, 3.299580e+003
1.285233e+003, 3.300887e+003
1.285715e+003, 3.301805e+003
1.286197e+003, 3.302952e+003
1.286679e+003, 3.305582e+003
1.287161e+003, 3.310127e+003
1.287643e+003, 3.314068e+003
1.288125e+003, 3.317345e+003
1.288607e+003, 3.320848e+003
1.289090e+003, 3.327505e+003
1.289572e+003, 3.331722e+003
1.290054e+003, 3.325937e+003
1.290536e+003, 3.317669e+003
1.291018e+003, 3.317103e+003
1.291500e+003, 3.324672e+003
1.291982e+003, 3.325284e+003
1.292464e+003, 3.319905e+003
1.292947e+003, 3.317426e+003
1.293429e+003, 3.327023e+003
1.293911e+003, 3.334340e+003
1.294393e+003, 3.330562e+003
1.294875e+003, 3.324470e+003
1.295357e+003, 3.322079e+003
1.295839e+003, 3.322862e+003
1.296321e+003, 3.324872e+003
1.296803e+003, 3.327787e+003
1.297286e+003, 3.330134e+003
1.297768e+003, 3.332013e+003
1.298250e+003, 3.331845e+003
1.298732e+003, 3.328238e+003
1.299214e+003, 3.325315e+003
1.299696e+003, 3.325735e+003
1.300178e+003, 3.328617e+003
1.300660e+003, 3.333581e+003
##END=



