##NAMES=Normandite
##RRUFFID=R120066
##IDEAL CHEMISTRY=NaCa(Mn^2+^,Fe^2+^)(Ti^4+^,Nb^5+^,Zr^4+^)(Si_2_O_7_)OF
##LOCALITY=Partomchorr Mt., Khibiny Massif, Kola Peninsula, Murmanskaja Oblast', Northern Region, Russia
##OWNER=RRUFF
##SOURCE=Donald Doell
##DESCRIPTION=Radiating aggregate of brown bladed crystals, twinned around (001)
##STATUS=The identification of this mineral has been confirmed by single-crystal X-ray diffraction.
##URL=rruff.info/R120066
9.001007e+001, 0.000000e+000
9.049219e+001, 1.127969e+001
9.097430e+001, 1.117573e+001
9.145642e+001, 1.126322e+001
9.193854e+001, 1.151118e+001
9.242065e+001, 1.166170e+001
9.290277e+001, 1.141198e+001
9.338489e+001, 1.090366e+001
9.386700e+001, 1.046734e+001
9.434912e+001, 1.025368e+001
9.483124e+001, 1.017698e+001
9.531335e+001, 1.005227e+001
9.579547e+001, 9.869504e+000
9.627759e+001, 9.708938e+000
9.675970e+001, 9.712875e+000
9.724182e+001, 9.865129e+000
9.772394e+001, 9.943512e+000
9.820605e+001, 9.800760e+000
9.868817e+001, 9.459542e+000
9.917029e+001, 9.199514e+000
9.965240e+001, 9.013330e+000
1.001345e+002, 8.923094e+000
1.006166e+002, 9.041734e+000
1.010988e+002, 9.440082e+000
1.015809e+002, 9.741812e+000
1.020630e+002, 9.699748e+000
1.025451e+002, 9.229474e+000
1.030272e+002, 8.824154e+000
1.035093e+002, 8.484764e+000
1.039915e+002, 8.234955e+000
1.044736e+002, 8.203115e+000
1.049557e+002, 8.547103e+000
1.054378e+002, 8.880935e+000
1.059199e+002, 8.909460e+000
1.064020e+002, 8.377325e+000
1.068842e+002, 8.019742e+000
1.073663e+002, 8.007205e+000
1.078484e+002, 8.346828e+000
1.083305e+002, 8.476848e+000
1.088126e+002, 8.203161e+000
1.092947e+002, 7.828658e+000
1.097769e+002, 7.631751e+000
1.102590e+002, 7.820556e+000
1.107411e+002, 7.976434e+000
1.112232e+002, 8.016803e+000
1.117053e+002, 7.911810e+000
1.121874e+002, 7.819540e+000
1.126696e+002, 7.802702e+000
1.131517e+002, 7.790998e+000
1.136338e+002, 7.693332e+000
1.141159e+002, 7.289076e+000
1.145980e+002, 6.967051e+000
1.150801e+002, 6.897365e+000
1.155623e+002, 7.224642e+000
1.160444e+002, 7.503439e+000
1.165265e+002, 7.688701e+000
1.170086e+002, 7.746411e+000
1.174907e+002, 7.599978e+000
1.179728e+002, 6.896983e+000
1.184550e+002, 6.181029e+000
1.189371e+002, 5.826581e+000
1.194192e+002, 6.137661e+000
1.199013e+002, 6.472957e+000
1.203834e+002, 6.441838e+000
1.208655e+002, 6.134505e+000
1.213477e+002, 5.903121e+000
1.218298e+002, 6.071245e+000
1.223119e+002, 6.372242e+000
1.227940e+002, 6.516983e+000
1.232761e+002, 6.287139e+000
1.237582e+002, 5.986287e+000
1.242404e+002, 5.878900e+000
1.247225e+002, 5.953238e+000
1.252046e+002, 6.064492e+000
1.256867e+002, 6.106753e+000
1.261688e+002, 6.107603e+000
1.266509e+002, 6.116672e+000
1.271331e+002, 6.190443e+000
1.276152e+002, 6.270728e+000
1.280973e+002, 6.243082e+000
1.285794e+002, 6.098227e+000
1.290615e+002, 5.957889e+000
1.295436e+002, 5.957178e+000
1.300258e+002, 6.075146e+000
1.305079e+002, 6.218207e+000
1.309900e+002, 6.424061e+000
1.314721e+002, 6.629185e+000
1.319542e+002, 6.612143e+000
1.324363e+002, 6.330715e+000
1.329185e+002, 5.936968e+000
1.334006e+002, 5.608452e+000
1.338827e+002, 5.344014e+000
1.343648e+002, 5.202971e+000
1.348469e+002, 5.296465e+000
1.353290e+002, 5.599947e+000
1.358112e+002, 5.736648e+000
1.362933e+002, 5.636743e+000
1.367754e+002, 5.407582e+000
1.372575e+002, 5.292175e+000
1.377396e+002, 5.305825e+000
1.382217e+002, 5.363909e+000
1.387039e+002, 5.431374e+000
1.391860e+002, 5.516787e+000
1.396681e+002, 5.541625e+000
1.401502e+002, 5.465369e+000
1.406323e+002, 5.327186e+000
1.411144e+002, 5.324379e+000
1.415966e+002, 5.538139e+000
1.420787e+002, 5.731939e+000
1.425608e+002, 5.695494e+000
1.430429e+002, 5.319826e+000
1.435250e+002, 5.023074e+000
1.440071e+002, 4.875200e+000
1.444893e+002, 4.872649e+000
1.449714e+002, 4.892650e+000
1.454535e+002, 4.905746e+000
1.459356e+002, 4.971054e+000
1.464177e+002, 5.167933e+000
1.468998e+002, 5.713251e+000
1.473820e+002, 6.051323e+000
1.478641e+002, 6.025489e+000
1.483462e+002, 5.570679e+000
1.488283e+002, 5.201888e+000
1.493104e+002, 4.891565e+000
1.497925e+002, 4.677992e+000
1.502747e+002, 4.605052e+000
1.507568e+002, 4.820025e+000
1.512389e+002, 5.024981e+000
1.517210e+002, 5.155626e+000
1.522031e+002, 5.190413e+000
1.526852e+002, 5.217848e+000
1.531674e+002, 5.195260e+000
1.536495e+002, 5.175572e+000
1.541316e+002, 5.234821e+000
1.546137e+002, 5.470475e+000
1.550958e+002, 5.707055e+000
1.555779e+002, 5.879148e+000
1.560601e+002, 5.931489e+000
1.565422e+002, 6.037058e+000
1.570243e+002, 6.242105e+000
1.575064e+002, 6.515169e+000
1.579885e+002, 6.795316e+000
1.584706e+002, 6.978464e+000
1.589528e+002, 7.232352e+000
1.594349e+002, 7.645294e+000
1.599170e+002, 8.304894e+000
1.603991e+002, 8.992325e+000
1.608812e+002, 9.591501e+000
1.613633e+002, 1.016572e+001
1.618455e+002, 1.088114e+001
1.623276e+002, 1.172781e+001
1.628097e+002, 1.276987e+001
1.632918e+002, 1.409351e+001
1.637739e+002, 1.593785e+001
1.642560e+002, 1.774951e+001
1.647382e+002, 1.910456e+001
1.652203e+002, 2.016556e+001
1.657024e+002, 2.155457e+001
1.661845e+002, 2.380880e+001
1.666666e+002, 2.642653e+001
1.671487e+002, 2.892658e+001
1.676309e+002, 3.102765e+001
1.681130e+002, 3.316956e+001
1.685951e+002, 3.566705e+001
1.690772e+002, 3.847301e+001
1.695593e+002, 4.124012e+001
1.700414e+002, 4.378971e+001
1.705236e+002, 4.618667e+001
1.710057e+002, 4.847473e+001
1.714878e+002, 5.067395e+001
1.719699e+002, 5.280111e+001
1.724520e+002, 5.483884e+001
1.729341e+002, 5.679747e+001
1.734163e+002, 5.869078e+001
1.738984e+002, 6.070924e+001
1.743805e+002, 6.266310e+001
1.748626e+002, 6.418289e+001
1.753447e+002, 6.482862e+001
1.758268e+002, 6.516680e+001
1.763090e+002, 6.581214e+001
1.767911e+002, 6.676088e+001
1.772732e+002, 6.784064e+001
1.777553e+002, 6.866264e+001
1.782374e+002, 6.918902e+001
1.787195e+002, 6.965678e+001
1.792017e+002, 7.013747e+001
1.796838e+002, 7.064673e+001
1.801659e+002, 7.123094e+001
1.806480e+002, 7.190536e+001
1.811301e+002, 7.254211e+001
1.816122e+002, 7.284201e+001
1.820944e+002, 7.296324e+001
1.825765e+002, 7.342171e+001
1.830586e+002, 7.467307e+001
1.835407e+002, 7.637218e+001
1.840228e+002, 7.784199e+001
1.845049e+002, 7.903764e+001
1.849871e+002, 8.012744e+001
1.854692e+002, 8.130064e+001
1.859513e+002, 8.254169e+001
1.864334e+002, 8.370126e+001
1.869155e+002, 8.450710e+001
1.873976e+002, 8.515757e+001
1.878798e+002, 8.648547e+001
1.883619e+002, 8.865189e+001
1.888440e+002, 9.095345e+001
1.893261e+002, 9.223441e+001
1.898082e+002, 9.258327e+001
1.902903e+002, 9.298978e+001
1.907725e+002, 9.402720e+001
1.912546e+002, 9.559825e+001
1.917367e+002, 9.707636e+001
1.922188e+002, 9.844859e+001
1.927009e+002, 9.970393e+001
1.931830e+002, 1.007080e+002
1.936652e+002, 1.014544e+002
1.941473e+002, 1.023021e+002
1.946294e+002, 1.035504e+002
1.951115e+002, 1.051519e+002
1.955936e+002, 1.065321e+002
1.960757e+002, 1.077039e+002
1.965579e+002, 1.085730e+002
1.970400e+002, 1.088126e+002
1.975221e+002, 1.083653e+002
1.980042e+002, 1.079202e+002
1.984863e+002, 1.079677e+002
1.989684e+002, 1.085173e+002
1.994506e+002, 1.087426e+002
1.999327e+002, 1.085798e+002
2.004148e+002, 1.080838e+002
2.008969e+002, 1.072350e+002
2.013790e+002, 1.059294e+002
2.018611e+002, 1.047877e+002
2.023433e+002, 1.042542e+002
2.028254e+002, 1.043885e+002
2.033075e+002, 1.043873e+002
2.037896e+002, 1.041366e+002
2.042717e+002, 1.037653e+002
2.047538e+002, 1.036132e+002
2.052360e+002, 1.037124e+002
2.057181e+002, 1.039003e+002
2.062002e+002, 1.040733e+002
2.066823e+002, 1.042144e+002
2.071644e+002, 1.044467e+002
2.076465e+002, 1.048069e+002
2.081287e+002, 1.052460e+002
2.086108e+002, 1.055960e+002
2.090929e+002, 1.057876e+002
2.095750e+002, 1.060782e+002
2.100571e+002, 1.066324e+002
2.105392e+002, 1.074876e+002
2.110214e+002, 1.084291e+002
2.115035e+002, 1.094303e+002
2.119856e+002, 1.105058e+002
2.124677e+002, 1.117987e+002
2.129498e+002, 1.134520e+002
2.134319e+002, 1.150179e+002
2.139140e+002, 1.162151e+002
2.143962e+002, 1.169524e+002
2.148783e+002, 1.176261e+002
2.153604e+002, 1.181188e+002
2.158425e+002, 1.185923e+002
2.163246e+002, 1.197551e+002
2.168067e+002, 1.219141e+002
2.172889e+002, 1.241860e+002
2.177710e+002, 1.260149e+002
2.182531e+002, 1.272148e+002
2.187352e+002, 1.285513e+002
2.192173e+002, 1.301903e+002
2.196994e+002, 1.320326e+002
2.201816e+002, 1.334903e+002
2.206637e+002, 1.343806e+002
2.211458e+002, 1.352367e+002
2.216279e+002, 1.364395e+002
2.221100e+002, 1.382574e+002
2.225921e+002, 1.397277e+002
2.230743e+002, 1.407237e+002
2.235564e+002, 1.413151e+002
2.240385e+002, 1.418652e+002
2.245206e+002, 1.423831e+002
2.250027e+002, 1.428343e+002
2.254848e+002, 1.432375e+002
2.259670e+002, 1.437323e+002
2.264491e+002, 1.438190e+002
2.269312e+002, 1.432979e+002
2.274133e+002, 1.423288e+002
2.278954e+002, 1.416720e+002
2.283775e+002, 1.415110e+002
2.288597e+002, 1.414139e+002
2.293418e+002, 1.410938e+002
2.298239e+002, 1.403651e+002
2.303060e+002, 1.398435e+002
2.307881e+002, 1.396048e+002
2.312702e+002, 1.396086e+002
2.317524e+002, 1.396715e+002
2.322345e+002, 1.397311e+002
2.327166e+002, 1.399271e+002
2.331987e+002, 1.403530e+002
2.336808e+002, 1.410932e+002
2.341629e+002, 1.418670e+002
2.346451e+002, 1.426731e+002
2.351272e+002, 1.435011e+002
2.356093e+002, 1.443237e+002
2.360914e+002, 1.451336e+002
2.365735e+002, 1.459478e+002
2.370556e+002, 1.467837e+002
2.375378e+002, 1.476802e+002
2.380199e+002, 1.485089e+002
2.385020e+002, 1.491918e+002
2.389841e+002, 1.498069e+002
2.394662e+002, 1.506585e+002
2.399483e+002, 1.519091e+002
2.404305e+002, 1.531845e+002
2.409126e+002, 1.542788e+002
2.413947e+002, 1.550427e+002
2.418768e+002, 1.559656e+002
2.423589e+002, 1.571030e+002
2.428410e+002, 1.584084e+002
2.433232e+002, 1.597585e+002
2.438053e+002, 1.611947e+002
2.442874e+002, 1.626088e+002
2.447695e+002, 1.639350e+002
2.452516e+002, 1.651787e+002
2.457337e+002, 1.663443e+002
2.462159e+002, 1.674962e+002
2.466980e+002, 1.685603e+002
2.471801e+002, 1.692201e+002
2.476622e+002, 1.691189e+002
2.481443e+002, 1.691550e+002
2.486264e+002, 1.698284e+002
2.491086e+002, 1.715981e+002
2.495907e+002, 1.729065e+002
2.500728e+002, 1.736469e+002
2.505549e+002, 1.739377e+002
2.510370e+002, 1.740681e+002
2.515191e+002, 1.739737e+002
2.520013e+002, 1.738285e+002
2.524834e+002, 1.737237e+002
2.529655e+002, 1.737367e+002
2.534476e+002, 1.735938e+002
2.539297e+002, 1.732438e+002
2.544118e+002, 1.727648e+002
2.548940e+002, 1.723076e+002
2.553761e+002, 1.718405e+002
2.558582e+002, 1.714486e+002
2.563403e+002, 1.711823e+002
2.568224e+002, 1.710837e+002
2.573046e+002, 1.709502e+002
2.577867e+002, 1.707189e+002
2.582688e+002, 1.704877e+002
2.587509e+002, 1.705041e+002
2.592330e+002, 1.709643e+002
2.597151e+002, 1.712619e+002
2.601973e+002, 1.710864e+002
2.606794e+002, 1.702704e+002
2.611615e+002, 1.697647e+002
2.616436e+002, 1.696953e+002
2.621257e+002, 1.698338e+002
2.626078e+002, 1.698141e+002
2.630900e+002, 1.696310e+002
2.635721e+002, 1.693198e+002
2.640542e+002, 1.689662e+002
2.645363e+002, 1.686388e+002
2.650184e+002, 1.677359e+002
2.655005e+002, 1.660517e+002
2.659827e+002, 1.640275e+002
2.664648e+002, 1.622624e+002
2.669469e+002, 1.608445e+002
2.674290e+002, 1.594717e+002
2.679111e+002, 1.580717e+002
2.683932e+002, 1.566570e+002
2.688754e+002, 1.550708e+002
2.693575e+002, 1.532921e+002
2.698396e+002, 1.513715e+002
2.703217e+002, 1.493542e+002
2.708038e+002, 1.471899e+002
2.712859e+002, 1.451402e+002
2.717681e+002, 1.433367e+002
2.722502e+002, 1.417733e+002
2.727323e+002, 1.400326e+002
2.732144e+002, 1.380676e+002
2.736965e+002, 1.360795e+002
2.741786e+002, 1.343137e+002
2.746608e+002, 1.327906e+002
2.751429e+002, 1.312953e+002
2.756250e+002, 1.297724e+002
2.761071e+002, 1.282376e+002
2.765892e+002, 1.267469e+002
2.770714e+002, 1.253325e+002
2.775535e+002, 1.239388e+002
2.780356e+002, 1.224712e+002
2.785177e+002, 1.209038e+002
2.789998e+002, 1.195291e+002
2.794819e+002, 1.184322e+002
2.799641e+002, 1.175627e+002
2.804462e+002, 1.167924e+002
2.809283e+002, 1.161483e+002
2.814104e+002, 1.154746e+002
2.818925e+002, 1.145837e+002
2.823746e+002, 1.134716e+002
2.828568e+002, 1.124635e+002
2.833389e+002, 1.115798e+002
2.838210e+002, 1.108625e+002
2.843031e+002, 1.104933e+002
2.847852e+002, 1.105070e+002
2.852673e+002, 1.105889e+002
2.857495e+002, 1.104679e+002
2.862316e+002, 1.101722e+002
2.867137e+002, 1.100677e+002
2.871958e+002, 1.102379e+002
2.876779e+002, 1.105680e+002
2.881600e+002, 1.108141e+002
2.886422e+002, 1.109736e+002
2.891243e+002, 1.111771e+002
2.896064e+002, 1.115385e+002
2.900885e+002, 1.120233e+002
2.905706e+002, 1.124378e+002
2.910527e+002, 1.127509e+002
2.915349e+002, 1.130133e+002
2.920170e+002, 1.132709e+002
2.924991e+002, 1.135267e+002
2.929812e+002, 1.138595e+002
2.934633e+002, 1.142549e+002
2.939454e+002, 1.147522e+002
2.944276e+002, 1.155716e+002
2.949097e+002, 1.167888e+002
2.953918e+002, 1.180079e+002
2.958739e+002, 1.186639e+002
2.963560e+002, 1.188468e+002
2.968381e+002, 1.190097e+002
2.973203e+002, 1.192714e+002
2.978024e+002, 1.196735e+002
2.982845e+002, 1.203631e+002
2.987666e+002, 1.213676e+002
2.992487e+002, 1.224451e+002
2.997308e+002, 1.234637e+002
3.002130e+002, 1.243876e+002
3.006951e+002, 1.250946e+002
3.011772e+002, 1.253191e+002
3.016593e+002, 1.254045e+002
3.021414e+002, 1.259281e+002
3.026235e+002, 1.268747e+002
3.031057e+002, 1.278166e+002
3.035878e+002, 1.284487e+002
3.040699e+002, 1.288150e+002
3.045520e+002, 1.289702e+002
3.050341e+002, 1.288114e+002
3.055162e+002, 1.285645e+002
3.059984e+002, 1.285178e+002
3.064805e+002, 1.286335e+002
3.069626e+002, 1.286495e+002
3.074447e+002, 1.284331e+002
3.079268e+002, 1.279959e+002
3.084089e+002, 1.273570e+002
3.088911e+002, 1.265290e+002
3.093732e+002, 1.254896e+002
3.098553e+002, 1.240825e+002
3.103374e+002, 1.224175e+002
3.108195e+002, 1.208339e+002
3.113016e+002, 1.196846e+002
3.117838e+002, 1.186420e+002
3.122659e+002, 1.174099e+002
3.127480e+002, 1.159335e+002
3.132301e+002, 1.142668e+002
3.137122e+002, 1.122962e+002
3.141943e+002, 1.101382e+002
3.146765e+002, 1.080810e+002
3.151586e+002, 1.063681e+002
3.156407e+002, 1.047215e+002
3.161228e+002, 1.029416e+002
3.166049e+002, 1.009894e+002
3.170870e+002, 9.900517e+001
3.175692e+002, 9.699860e+001
3.180513e+002, 9.502425e+001
3.185334e+002, 9.317107e+001
3.190155e+002, 9.150450e+001
3.194976e+002, 8.993217e+001
3.199797e+002, 8.844340e+001
3.204619e+002, 8.704013e+001
3.209440e+002, 8.566594e+001
3.214261e+002, 8.420303e+001
3.219082e+002, 8.281570e+001
3.223903e+002, 8.166633e+001
3.228724e+002, 8.120226e+001
3.233546e+002, 8.056156e+001
3.238367e+002, 7.935824e+001
3.243188e+002, 7.761912e+001
3.248009e+002, 7.618385e+001
3.252830e+002, 7.550920e+001
3.257651e+002, 7.499606e+001
3.262473e+002, 7.425972e+001
3.267294e+002, 7.281606e+001
3.272115e+002, 7.166886e+001
3.276936e+002, 7.106013e+001
3.281757e+002, 7.088306e+001
3.286578e+002, 7.056834e+001
3.291400e+002, 6.996786e+001
3.296221e+002, 6.934888e+001
3.301042e+002, 6.882862e+001
3.305863e+002, 6.856356e+001
3.310684e+002, 6.812119e+001
3.315505e+002, 6.723927e+001
3.320327e+002, 6.622903e+001
3.325148e+002, 6.582565e+001
3.329969e+002, 6.648616e+001
3.334790e+002, 6.713764e+001
3.339611e+002, 6.738953e+001
3.344432e+002, 6.709604e+001
3.349254e+002, 6.699209e+001
3.354075e+002, 6.719478e+001
3.358896e+002, 6.748559e+001
3.363717e+002, 6.753345e+001
3.368538e+002, 6.720287e+001
3.373359e+002, 6.695442e+001
3.378180e+002, 6.693052e+001
3.383001e+002, 6.712724e+001
3.387823e+002, 6.730460e+001
3.392644e+002, 6.744451e+001
3.397465e+002, 6.759988e+001
3.402286e+002, 6.784824e+001
3.407107e+002, 6.821664e+001
3.411928e+002, 6.849666e+001
3.416750e+002, 6.858057e+001
3.421571e+002, 6.856599e+001
3.426392e+002, 6.886583e+001
3.431213e+002, 6.952993e+001
3.436034e+002, 7.025933e+001
3.440855e+002, 7.086236e+001
3.445677e+002, 7.133768e+001
3.450498e+002, 7.175160e+001
3.455319e+002, 7.207840e+001
3.460140e+002, 7.239706e+001
3.464961e+002, 7.285005e+001
3.469782e+002, 7.343322e+001
3.474604e+002, 7.411451e+001
3.479425e+002, 7.485555e+001
3.484246e+002, 7.567662e+001
3.489067e+002, 7.663895e+001
3.493888e+002, 7.775627e+001
3.498709e+002, 7.896383e+001
3.503531e+002, 8.028135e+001
3.508352e+002, 8.165047e+001
3.513173e+002, 8.284956e+001
3.517994e+002, 8.364805e+001
3.522815e+002, 8.427127e+001
3.527636e+002, 8.509493e+001
3.532458e+002, 8.611848e+001
3.537279e+002, 8.724021e+001
3.542100e+002, 8.841513e+001
3.546921e+002, 8.962234e+001
3.551742e+002, 9.082465e+001
3.556563e+002, 9.204725e+001
3.561385e+002, 9.323710e+001
3.566206e+002, 9.442437e+001
3.571027e+002, 9.557512e+001
3.575848e+002, 9.649397e+001
3.580669e+002, 9.678474e+001
3.585490e+002, 9.693958e+001
3.590312e+002, 9.747474e+001
3.595133e+002, 9.868088e+001
3.599954e+002, 9.986034e+001
3.604775e+002, 1.006098e+002
3.609596e+002, 1.010452e+002
3.614417e+002, 1.014008e+002
3.619239e+002, 1.018743e+002
3.624060e+002, 1.022245e+002
3.628881e+002, 1.023132e+002
3.633702e+002, 1.021082e+002
3.638523e+002, 1.017418e+002
3.643344e+002, 1.010299e+002
3.648166e+002, 1.002585e+002
3.652987e+002, 9.974986e+001
3.657808e+002, 1.000089e+002
3.662629e+002, 1.001222e+002
3.667450e+002, 9.979373e+001
3.672271e+002, 9.902020e+001
3.677093e+002, 9.825049e+001
3.681914e+002, 9.751156e+001
3.686735e+002, 9.680619e+001
3.691556e+002, 9.613226e+001
3.696377e+002, 9.566743e+001
3.701198e+002, 9.502389e+001
3.706020e+002, 9.407690e+001
3.710841e+002, 9.292386e+001
3.715662e+002, 9.191496e+001
3.720483e+002, 9.110657e+001
3.725304e+002, 9.038616e+001
3.730125e+002, 8.972001e+001
3.734947e+002, 8.914475e+001
3.739768e+002, 8.853096e+001
3.744589e+002, 8.786967e+001
3.749410e+002, 8.716996e+001
3.754231e+002, 8.644749e+001
3.759052e+002, 8.568005e+001
3.763874e+002, 8.494035e+001
3.768695e+002, 8.424854e+001
3.773516e+002, 8.359868e+001
3.778337e+002, 8.304520e+001
3.783158e+002, 8.259583e+001
3.787979e+002, 8.220501e+001
3.792801e+002, 8.188136e+001
3.797622e+002, 8.163219e+001
3.802443e+002, 8.122013e+001
3.807264e+002, 8.052200e+001
3.812085e+002, 7.969004e+001
3.816906e+002, 7.913541e+001
3.821728e+002, 7.886221e+001
3.826549e+002, 7.868310e+001
3.831370e+002, 7.849236e+001
3.836191e+002, 7.829370e+001
3.841012e+002, 7.810973e+001
3.845833e+002, 7.793675e+001
3.850655e+002, 7.778513e+001
3.855476e+002, 7.769389e+001
3.860297e+002, 7.764195e+001
3.865118e+002, 7.756001e+001
3.869939e+002, 7.742400e+001
3.874760e+002, 7.723355e+001
3.879582e+002, 7.691814e+001
3.884403e+002, 7.647303e+001
3.889224e+002, 7.615763e+001
3.894045e+002, 7.642864e+001
3.898866e+002, 7.690169e+001
3.903687e+002, 7.700752e+001
3.908509e+002, 7.616757e+001
3.913330e+002, 7.532879e+001
3.918151e+002, 7.526563e+001
3.922972e+002, 7.581269e+001
3.927793e+002, 7.628935e+001
3.932614e+002, 7.638135e+001
3.937436e+002, 7.626170e+001
3.942257e+002, 7.599239e+001
3.947078e+002, 7.542295e+001
3.951899e+002, 7.510766e+001
3.956720e+002, 7.552077e+001
3.961541e+002, 7.626294e+001
3.966363e+002, 7.669248e+001
3.971184e+002, 7.636312e+001
3.976005e+002, 7.596635e+001
3.980826e+002, 7.575853e+001
3.985647e+002, 7.578751e+001
3.990468e+002, 7.570248e+001
3.995290e+002, 7.544801e+001
4.000111e+002, 7.507830e+001
4.004932e+002, 7.463421e+001
4.009753e+002, 7.401106e+001
4.014574e+002, 7.345668e+001
4.019395e+002, 7.304255e+001
4.024217e+002, 7.272642e+001
4.029038e+002, 7.232701e+001
4.033859e+002, 7.188501e+001
4.038680e+002, 7.130076e+001
4.043501e+002, 7.049381e+001
4.048322e+002, 6.939323e+001
4.053144e+002, 6.834396e+001
4.057965e+002, 6.737198e+001
4.062786e+002, 6.643473e+001
4.067607e+002, 6.540605e+001
4.072428e+002, 6.422015e+001
4.077249e+002, 6.332423e+001
4.082071e+002, 6.306256e+001
4.086892e+002, 6.326270e+001
4.091713e+002, 6.274207e+001
4.096534e+002, 6.140786e+001
4.101355e+002, 5.986798e+001
4.106176e+002, 5.864069e+001
4.110998e+002, 5.768462e+001
4.115819e+002, 5.681576e+001
4.120640e+002, 5.603708e+001
4.125461e+002, 5.526149e+001
4.130282e+002, 5.427147e+001
4.135103e+002, 5.311145e+001
4.139925e+002, 5.202332e+001
4.144746e+002, 5.114227e+001
4.149567e+002, 5.041259e+001
4.154388e+002, 4.981357e+001
4.159209e+002, 4.935912e+001
4.164030e+002, 4.884045e+001
4.168852e+002, 4.795805e+001
4.173673e+002, 4.690891e+001
4.178494e+002, 4.601142e+001
4.183315e+002, 4.553354e+001
4.188136e+002, 4.511996e+001
4.192957e+002, 4.453052e+001
4.197779e+002, 4.379234e+001
4.202600e+002, 4.305204e+001
4.207421e+002, 4.232655e+001
4.212242e+002, 4.165873e+001
4.217063e+002, 4.111084e+001
4.221884e+002, 4.076604e+001
4.226706e+002, 4.038407e+001
4.231527e+002, 3.980803e+001
4.236348e+002, 3.916380e+001
4.241169e+002, 3.868500e+001
4.245990e+002, 3.850835e+001
4.250811e+002, 3.839643e+001
4.255633e+002, 3.832465e+001
4.260454e+002, 3.832041e+001
4.265275e+002, 3.814552e+001
4.270096e+002, 3.769181e+001
4.274917e+002, 3.714914e+001
4.279738e+002, 3.665648e+001
4.284560e+002, 3.617108e+001
4.289381e+002, 3.583488e+001
4.294202e+002, 3.572241e+001
4.299023e+002, 3.576102e+001
4.303844e+002, 3.569134e+001
4.308665e+002, 3.548584e+001
4.313487e+002, 3.525081e+001
4.318308e+002, 3.498226e+001
4.323129e+002, 3.466698e+001
4.327950e+002, 3.466078e+001
4.332771e+002, 3.506092e+001
4.337592e+002, 3.552075e+001
4.342414e+002, 3.549582e+001
4.347235e+002, 3.503742e+001
4.352056e+002, 3.477837e+001
4.356877e+002, 3.501989e+001
4.361698e+002, 3.551494e+001
4.366519e+002, 3.573360e+001
4.371341e+002, 3.568713e+001
4.376162e+002, 3.559131e+001
4.380983e+002, 3.558362e+001
4.385804e+002, 3.563961e+001
4.390625e+002, 3.570519e+001
4.395446e+002, 3.575421e+001
4.400268e+002, 3.587104e+001
4.405089e+002, 3.620281e+001
4.409910e+002, 3.665717e+001
4.414731e+002, 3.703983e+001
4.419552e+002, 3.723100e+001
4.424373e+002, 3.735149e+001
4.429195e+002, 3.744368e+001
4.434016e+002, 3.751335e+001
4.438837e+002, 3.765495e+001
4.443658e+002, 3.798048e+001
4.448479e+002, 3.835308e+001
4.453300e+002, 3.865981e+001
4.458122e+002, 3.879213e+001
4.462943e+002, 3.897329e+001
4.467764e+002, 3.932237e+001
4.472585e+002, 3.975106e+001
4.477406e+002, 4.003318e+001
4.482227e+002, 4.001207e+001
4.487049e+002, 3.998381e+001
4.491870e+002, 4.004963e+001
4.496691e+002, 4.024047e+001
4.501512e+002, 4.032716e+001
4.506333e+002, 4.022741e+001
4.511154e+002, 4.011299e+001
4.515976e+002, 4.015483e+001
4.520797e+002, 4.039373e+001
4.525618e+002, 4.065591e+001
4.530439e+002, 4.092654e+001
4.535260e+002, 4.119739e+001
4.540081e+002, 4.146810e+001
4.544903e+002, 4.174607e+001
4.549724e+002, 4.198261e+001
4.554545e+002, 4.209527e+001
4.559366e+002, 4.211759e+001
4.564187e+002, 4.232615e+001
4.569008e+002, 4.274917e+001
4.573830e+002, 4.323904e+001
4.578651e+002, 4.360058e+001
4.583472e+002, 4.387767e+001
4.588293e+002, 4.420630e+001
4.593114e+002, 4.471532e+001
4.597935e+002, 4.521289e+001
4.602757e+002, 4.544143e+001
4.607578e+002, 4.543405e+001
4.612399e+002, 4.536899e+001
4.617220e+002, 4.532457e+001
4.622041e+002, 4.529203e+001
4.626862e+002, 4.525126e+001
4.631684e+002, 4.518512e+001
4.636505e+002, 4.517750e+001
4.641326e+002, 4.535313e+001
4.646147e+002, 4.558922e+001
4.650968e+002, 4.572916e+001
4.655789e+002, 4.586528e+001
4.660611e+002, 4.575609e+001
4.665432e+002, 4.518850e+001
4.670253e+002, 4.421674e+001
4.675074e+002, 4.342279e+001
4.679895e+002, 4.308895e+001
4.684716e+002, 4.277357e+001
4.689538e+002, 4.226350e+001
4.694359e+002, 4.145324e+001
4.699180e+002, 4.069016e+001
4.704001e+002, 3.995916e+001
4.708822e+002, 3.927729e+001
4.713643e+002, 3.868678e+001
4.718465e+002, 3.824139e+001
4.723286e+002, 3.772083e+001
4.728107e+002, 3.701988e+001
4.732928e+002, 3.619771e+001
4.737749e+002, 3.554826e+001
4.742570e+002, 3.508840e+001
4.747392e+002, 3.473169e+001
4.752213e+002, 3.445916e+001
4.757034e+002, 3.425232e+001
4.761855e+002, 3.397969e+001
4.766676e+002, 3.362063e+001
4.771497e+002, 3.321729e+001
4.776319e+002, 3.279485e+001
4.781140e+002, 3.237144e+001
4.785961e+002, 3.201205e+001
4.790782e+002, 3.174427e+001
4.795603e+002, 3.155578e+001
4.800424e+002, 3.147574e+001
4.805246e+002, 3.148769e+001
4.810067e+002, 3.146128e+001
4.814888e+002, 3.130490e+001
4.819709e+002, 3.107938e+001
4.824530e+002, 3.081657e+001
4.829352e+002, 3.046632e+001
4.834173e+002, 3.022071e+001
4.838994e+002, 3.025092e+001
4.843815e+002, 3.041213e+001
4.848636e+002, 3.048354e+001
4.853457e+002, 3.035372e+001
4.858279e+002, 3.019226e+001
4.863100e+002, 3.003707e+001
4.867921e+002, 2.988879e+001
4.872742e+002, 2.973339e+001
4.877563e+002, 2.952528e+001
4.882384e+002, 2.935553e+001
4.887206e+002, 2.929588e+001
4.892027e+002, 2.943729e+001
4.896848e+002, 2.942591e+001
4.901669e+002, 2.917427e+001
4.906490e+002, 2.885943e+001
4.911311e+002, 2.876662e+001
4.916133e+002, 2.891912e+001
4.920954e+002, 2.914558e+001
4.925775e+002, 2.943837e+001
4.930596e+002, 2.975326e+001
4.935417e+002, 2.990961e+001
4.940238e+002, 2.990486e+001
4.945060e+002, 2.986405e+001
4.949881e+002, 2.982120e+001
4.954702e+002, 2.981556e+001
4.959523e+002, 2.996746e+001
4.964344e+002, 3.031369e+001
4.969165e+002, 3.071572e+001
4.973987e+002, 3.101328e+001
4.978808e+002, 3.127061e+001
4.983629e+002, 3.160328e+001
4.988450e+002, 3.216404e+001
4.993271e+002, 3.272828e+001
4.998092e+002, 3.317041e+001
5.002914e+002, 3.349642e+001
5.007735e+002, 3.370975e+001
5.012556e+002, 3.368829e+001
5.017377e+002, 3.365418e+001
5.022198e+002, 3.376097e+001
5.027019e+002, 3.412715e+001
5.031841e+002, 3.437361e+001
5.036662e+002, 3.433387e+001
5.041483e+002, 3.420107e+001
5.046304e+002, 3.419256e+001
5.051125e+002, 3.430070e+001
5.055946e+002, 3.455941e+001
5.060768e+002, 3.509818e+001
5.065589e+002, 3.580497e+001
5.070410e+002, 3.609245e+001
5.075231e+002, 3.585147e+001
5.080052e+002, 3.549839e+001
5.084873e+002, 3.522488e+001
5.089695e+002, 3.503468e+001
5.094516e+002, 3.487701e+001
5.099337e+002, 3.475451e+001
5.104158e+002, 3.465072e+001
5.108979e+002, 3.456388e+001
5.113800e+002, 3.448396e+001
5.118622e+002, 3.436758e+001
5.123443e+002, 3.419202e+001
5.128264e+002, 3.399072e+001
5.133085e+002, 3.384815e+001
5.137906e+002, 3.372787e+001
5.142728e+002, 3.349866e+001
5.147549e+002, 3.291275e+001
5.152370e+002, 3.229961e+001
5.157191e+002, 3.201181e+001
5.162012e+002, 3.209463e+001
5.166833e+002, 3.207446e+001
5.171655e+002, 3.159254e+001
5.176476e+002, 3.098460e+001
5.181297e+002, 3.053779e+001
5.186118e+002, 3.040976e+001
5.190939e+002, 3.032394e+001
5.195760e+002, 3.026127e+001
5.200582e+002, 3.021253e+001
5.205403e+002, 3.015755e+001
5.210224e+002, 3.014332e+001
5.215045e+002, 3.005440e+001
5.219866e+002, 2.982087e+001
5.224688e+002, 2.944210e+001
5.229509e+002, 2.919523e+001
5.234330e+002, 2.909231e+001
5.239151e+002, 2.908736e+001
5.243972e+002, 2.921075e+001
5.248793e+002, 2.946767e+001
5.253615e+002, 2.950143e+001
5.258436e+002, 2.922943e+001
5.263257e+002, 2.886759e+001
5.268078e+002, 2.873883e+001
5.272899e+002, 2.880776e+001
5.277720e+002, 2.891487e+001
5.282542e+002, 2.902331e+001
5.287363e+002, 2.911461e+001
5.292184e+002, 2.913301e+001
5.297005e+002, 2.909748e+001
5.301826e+002, 2.911227e+001
5.306647e+002, 2.928651e+001
5.311469e+002, 2.951172e+001
5.316290e+002, 2.970046e+001
5.321111e+002, 2.983686e+001
5.325932e+002, 2.995115e+001
5.330753e+002, 3.007352e+001
5.335574e+002, 3.017295e+001
5.340396e+002, 3.021532e+001
5.345217e+002, 2.989572e+001
5.350038e+002, 2.987416e+001
5.354859e+002, 3.049803e+001
5.359680e+002, 3.150123e+001
5.364501e+002, 3.201788e+001
5.369323e+002, 3.175064e+001
5.374144e+002, 3.149978e+001
5.378965e+002, 3.155517e+001
5.383786e+002, 3.192146e+001
5.388607e+002, 3.237564e+001
5.393428e+002, 3.297856e+001
5.398250e+002, 3.346896e+001
5.403071e+002, 3.351266e+001
5.407892e+002, 3.316150e+001
5.412713e+002, 3.290026e+001
5.417534e+002, 3.279062e+001
5.422355e+002, 3.282576e+001
5.427177e+002, 3.314382e+001
5.431998e+002, 3.362772e+001
5.436819e+002, 3.389498e+001
5.441640e+002, 3.350783e+001
5.446461e+002, 3.300619e+001
5.451282e+002, 3.294230e+001
5.456104e+002, 3.325284e+001
5.460925e+002, 3.353251e+001
5.465746e+002, 3.346218e+001
5.470567e+002, 3.336533e+001
5.475388e+002, 3.350085e+001
5.480209e+002, 3.401508e+001
5.485031e+002, 3.438257e+001
5.489852e+002, 3.432981e+001
5.494673e+002, 3.415810e+001
5.499494e+002, 3.419418e+001
5.504315e+002, 3.467428e+001
5.509136e+002, 3.499913e+001
5.513958e+002, 3.507434e+001
5.518779e+002, 3.496259e+001
5.523600e+002, 3.480378e+001
5.528421e+002, 3.453055e+001
5.533242e+002, 3.444758e+001
5.538063e+002, 3.478780e+001
5.542885e+002, 3.547008e+001
5.547706e+002, 3.580957e+001
5.552527e+002, 3.578137e+001
5.557348e+002, 3.567557e+001
5.562169e+002, 3.577699e+001
5.566990e+002, 3.599583e+001
5.571812e+002, 3.608687e+001
5.576633e+002, 3.598865e+001
5.581454e+002, 3.584887e+001
5.586275e+002, 3.583148e+001
5.591096e+002, 3.586957e+001
5.595917e+002, 3.584438e+001
5.600739e+002, 3.564542e+001
5.605560e+002, 3.543182e+001
5.610381e+002, 3.526831e+001
5.615202e+002, 3.515435e+001
5.620023e+002, 3.507712e+001
5.624844e+002, 3.505937e+001
5.629666e+002, 3.505479e+001
5.634487e+002, 3.505726e+001
5.639308e+002, 3.508345e+001
5.644129e+002, 3.502920e+001
5.648950e+002, 3.485410e+001
5.653771e+002, 3.464203e+001
5.658593e+002, 3.446334e+001
5.663414e+002, 3.433093e+001
5.668235e+002, 3.416185e+001
5.673056e+002, 3.391952e+001
5.677877e+002, 3.367769e+001
5.682698e+002, 3.358490e+001
5.687520e+002, 3.363322e+001
5.692341e+002, 3.370753e+001
5.697162e+002, 3.383313e+001
5.701983e+002, 3.391237e+001
5.706804e+002, 3.371898e+001
5.711625e+002, 3.328528e+001
5.716447e+002, 3.283088e+001
5.721268e+002, 3.235083e+001
5.726089e+002, 3.200456e+001
5.730910e+002, 3.202798e+001
5.735731e+002, 3.249886e+001
5.740552e+002, 3.291761e+001
5.745374e+002, 3.305460e+001
5.750195e+002, 3.303599e+001
5.755016e+002, 3.298090e+001
5.759837e+002, 3.272631e+001
5.764658e+002, 3.266717e+001
5.769479e+002, 3.297524e+001
5.774301e+002, 3.346730e+001
5.779122e+002, 3.377415e+001
5.783943e+002, 3.377789e+001
5.788764e+002, 3.383442e+001
5.793585e+002, 3.404362e+001
5.798406e+002, 3.438823e+001
5.803228e+002, 3.479171e+001
5.808049e+002, 3.527868e+001
5.812870e+002, 3.566301e+001
5.817691e+002, 3.568395e+001
5.822512e+002, 3.547804e+001
5.827333e+002, 3.562117e+001
5.832155e+002, 3.616516e+001
5.836975e+002, 3.688580e+001
5.841796e+002, 3.766106e+001
5.846617e+002, 3.846128e+001
5.851439e+002, 3.923268e+001
5.856260e+002, 3.991497e+001
5.861081e+002, 4.065017e+001
5.865902e+002, 4.161372e+001
5.870723e+002, 4.268669e+001
5.875544e+002, 4.362066e+001
5.880366e+002, 4.402659e+001
5.885187e+002, 4.462694e+001
5.890008e+002, 4.574496e+001
5.894829e+002, 4.735819e+001
5.899650e+002, 4.884015e+001
5.904471e+002, 5.002409e+001
5.909293e+002, 5.129515e+001
5.914114e+002, 5.280247e+001
5.918935e+002, 5.455238e+001
5.923756e+002, 5.659234e+001
5.928577e+002, 5.903270e+001
5.933398e+002, 6.147664e+001
5.938220e+002, 6.344881e+001
5.943041e+002, 6.502324e+001
5.947862e+002, 6.675026e+001
5.952683e+002, 6.870090e+001
5.957504e+002, 7.092871e+001
5.962325e+002, 7.365882e+001
5.967147e+002, 7.676762e+001
5.971968e+002, 7.987865e+001
5.976789e+002, 8.284299e+001
5.981610e+002, 8.577177e+001
5.986431e+002, 8.875124e+001
5.991252e+002, 9.176437e+001
5.996074e+002, 9.477055e+001
6.000895e+002, 9.785133e+001
6.005716e+002, 1.008683e+002
6.010537e+002, 1.038062e+002
6.015358e+002, 1.066749e+002
6.020179e+002, 1.092415e+002
6.025001e+002, 1.115251e+002
6.029822e+002, 1.134928e+002
6.034643e+002, 1.151269e+002
6.039464e+002, 1.164462e+002
6.044285e+002, 1.174818e+002
6.049106e+002, 1.183871e+002
6.053928e+002, 1.187545e+002
6.058749e+002, 1.178301e+002
6.063570e+002, 1.156731e+002
6.068391e+002, 1.131600e+002
6.073212e+002, 1.105822e+002
6.078033e+002, 1.077659e+002
6.082855e+002, 1.043230e+002
6.087676e+002, 1.003745e+002
6.092497e+002, 9.623611e+001
6.097318e+002, 9.196152e+001
6.102139e+002, 8.769520e+001
6.106960e+002, 8.359486e+001
6.111782e+002, 7.966513e+001
6.116603e+002, 7.583566e+001
6.121424e+002, 7.187574e+001
6.126245e+002, 6.811460e+001
6.131066e+002, 6.479176e+001
6.135887e+002, 6.209707e+001
6.140709e+002, 5.935398e+001
6.145530e+002, 5.632266e+001
6.150351e+002, 5.343130e+001
6.155172e+002, 5.113051e+001
6.159993e+002, 4.951443e+001
6.164814e+002, 4.796837e+001
6.169636e+002, 4.638939e+001
6.174457e+002, 4.486482e+001
6.179278e+002, 4.353733e+001
6.184099e+002, 4.240228e+001
6.188920e+002, 4.141088e+001
6.193741e+002, 4.059556e+001
6.198563e+002, 3.985853e+001
6.203384e+002, 3.898927e+001
6.208205e+002, 3.804650e+001
6.213026e+002, 3.732581e+001
6.217847e+002, 3.722105e+001
6.222668e+002, 3.724043e+001
6.227490e+002, 3.700401e+001
6.232311e+002, 3.645227e+001
6.237132e+002, 3.593558e+001
6.241953e+002, 3.556205e+001
6.246774e+002, 3.524654e+001
6.251595e+002, 3.491925e+001
6.256417e+002, 3.446408e+001
6.261238e+002, 3.424240e+001
6.266059e+002, 3.437505e+001
6.270880e+002, 3.461246e+001
6.275701e+002, 3.456273e+001
6.280522e+002, 3.417454e+001
6.285344e+002, 3.402872e+001
6.290165e+002, 3.432840e+001
6.294986e+002, 3.481340e+001
6.299807e+002, 3.495631e+001
6.304628e+002, 3.481212e+001
6.309449e+002, 3.467664e+001
6.314271e+002, 3.476819e+001
6.319092e+002, 3.489537e+001
6.323913e+002, 3.477152e+001
6.328734e+002, 3.445078e+001
6.333555e+002, 3.428198e+001
6.338376e+002, 3.459204e+001
6.343198e+002, 3.498518e+001
6.348019e+002, 3.523873e+001
6.352840e+002, 3.532079e+001
6.357661e+002, 3.530811e+001
6.362482e+002, 3.502282e+001
6.367303e+002, 3.480052e+001
6.372125e+002, 3.490002e+001
6.376946e+002, 3.547765e+001
6.381767e+002, 3.592614e+001
6.386588e+002, 3.620465e+001
6.391409e+002, 3.638165e+001
6.396230e+002, 3.652169e+001
6.401052e+002, 3.662982e+001
6.405873e+002, 3.676947e+001
6.410694e+002, 3.694947e+001
6.415515e+002, 3.717952e+001
6.420336e+002, 3.746467e+001
6.425157e+002, 3.780705e+001
6.429979e+002, 3.822007e+001
6.434800e+002, 3.882876e+001
6.439621e+002, 3.940752e+001
6.444442e+002, 3.970046e+001
6.449263e+002, 3.977500e+001
6.454084e+002, 4.002797e+001
6.458906e+002, 4.080436e+001
6.463727e+002, 4.159552e+001
6.468548e+002, 4.213279e+001
6.473369e+002, 4.236628e+001
6.478190e+002, 4.271812e+001
6.483011e+002, 4.325581e+001
6.487833e+002, 4.380669e+001
6.492654e+002, 4.416679e+001
6.497475e+002, 4.430096e+001
6.502296e+002, 4.480386e+001
6.507117e+002, 4.576711e+001
6.511938e+002, 4.687358e+001
6.516760e+002, 4.773678e+001
6.521581e+002, 4.841488e+001
6.526402e+002, 4.906080e+001
6.531223e+002, 4.971923e+001
6.536044e+002, 5.034913e+001
6.540865e+002, 5.094802e+001
6.545687e+002, 5.149921e+001
6.550508e+002, 5.197446e+001
6.555329e+002, 5.234364e+001
6.560150e+002, 5.266174e+001
6.564971e+002, 5.297309e+001
6.569792e+002, 5.325850e+001
6.574614e+002, 5.342025e+001
6.579435e+002, 5.343051e+001
6.584256e+002, 5.335411e+001
6.589077e+002, 5.319266e+001
6.593898e+002, 5.295006e+001
6.598719e+002, 5.273408e+001
6.603541e+002, 5.255599e+001
6.608362e+002, 5.235239e+001
6.613183e+002, 5.208963e+001
6.618004e+002, 5.176566e+001
6.622825e+002, 5.134358e+001
6.627646e+002, 5.081786e+001
6.632468e+002, 5.026101e+001
6.637289e+002, 4.971404e+001
6.642110e+002, 4.918392e+001
6.646931e+002, 4.867243e+001
6.651752e+002, 4.815943e+001
6.656573e+002, 4.771869e+001
6.661395e+002, 4.744617e+001
6.666216e+002, 4.723589e+001
6.671037e+002, 4.695726e+001
6.675858e+002, 4.647689e+001
6.680679e+002, 4.607162e+001
6.685500e+002, 4.575460e+001
6.690322e+002, 4.553001e+001
6.695143e+002, 4.544025e+001
6.699964e+002, 4.551829e+001
6.704785e+002, 4.556161e+001
6.709606e+002, 4.548767e+001
6.714427e+002, 4.535115e+001
6.719249e+002, 4.535784e+001
6.724070e+002, 4.547906e+001
6.728891e+002, 4.548154e+001
6.733712e+002, 4.508965e+001
6.738533e+002, 4.458607e+001
6.743354e+002, 4.427342e+001
6.748176e+002, 4.415554e+001
6.752997e+002, 4.418158e+001
6.757818e+002, 4.452394e+001
6.762639e+002, 4.485219e+001
6.767460e+002, 4.492343e+001
6.772281e+002, 4.460816e+001
6.777103e+002, 4.445232e+001
6.781924e+002, 4.462455e+001
6.786745e+002, 4.480980e+001
6.791566e+002, 4.473576e+001
6.796387e+002, 4.430420e+001
6.801208e+002, 4.410196e+001
6.806030e+002, 4.419877e+001
6.810851e+002, 4.441786e+001
6.815672e+002, 4.456914e+001
6.820493e+002, 4.465611e+001
6.825314e+002, 4.467768e+001
6.830135e+002, 4.458191e+001
6.834957e+002, 4.454262e+001
6.839778e+002, 4.482195e+001
6.844599e+002, 4.528143e+001
6.849420e+002, 4.564986e+001
6.854241e+002, 4.586968e+001
6.859063e+002, 4.594214e+001
6.863884e+002, 4.571069e+001
6.868705e+002, 4.531108e+001
6.873526e+002, 4.521935e+001
6.878347e+002, 4.569538e+001
6.883168e+002, 4.613113e+001
6.887990e+002, 4.634635e+001
6.892811e+002, 4.638142e+001
6.897632e+002, 4.649806e+001
6.902453e+002, 4.671429e+001
6.907274e+002, 4.688797e+001
6.912095e+002, 4.683192e+001
6.916917e+002, 4.667517e+001
6.921738e+002, 4.689236e+001
6.926559e+002, 4.746693e+001
6.931380e+002, 4.797515e+001
6.936201e+002, 4.794832e+001
6.941022e+002, 4.779601e+001
6.945844e+002, 4.795588e+001
6.950665e+002, 4.853572e+001
6.955486e+002, 4.906438e+001
6.960307e+002, 4.931873e+001
6.965128e+002, 4.949589e+001
6.969949e+002, 4.975986e+001
6.974771e+002, 5.018946e+001
6.979592e+002, 5.053638e+001
6.984413e+002, 5.074394e+001
6.989234e+002, 5.093973e+001
6.994055e+002, 5.132585e+001
6.998876e+002, 5.190898e+001
7.003698e+002, 5.233014e+001
7.008519e+002, 5.248304e+001
7.013340e+002, 5.256675e+001
7.018161e+002, 5.286985e+001
7.022982e+002, 5.332513e+001
7.027803e+002, 5.376130e+001
7.032625e+002, 5.407701e+001
7.037446e+002, 5.440174e+001
7.042267e+002, 5.483358e+001
7.047088e+002, 5.533505e+001
7.051909e+002, 5.582211e+001
7.056730e+002, 5.623880e+001
7.061552e+002, 5.666846e+001
7.066373e+002, 5.712818e+001
7.071194e+002, 5.761473e+001
7.076015e+002, 5.812782e+001
7.080836e+002, 5.868251e+001
7.085657e+002, 5.920204e+001
7.090479e+002, 5.964586e+001
7.095300e+002, 6.003204e+001
7.100121e+002, 6.039079e+001
7.104942e+002, 6.073021e+001
7.109763e+002, 6.120729e+001
7.114584e+002, 6.221036e+001
7.119406e+002, 6.326629e+001
7.124227e+002, 6.362998e+001
7.129048e+002, 6.329463e+001
7.133869e+002, 6.317181e+001
7.138690e+002, 6.389589e+001
7.143511e+002, 6.484447e+001
7.148333e+002, 6.563217e+001
7.153154e+002, 6.617929e+001
7.157975e+002, 6.665506e+001
7.162796e+002, 6.697256e+001
7.167617e+002, 6.733388e+001
7.172438e+002, 6.794013e+001
7.177260e+002, 6.881747e+001
7.182081e+002, 6.961976e+001
7.186902e+002, 7.032134e+001
7.191723e+002, 7.094624e+001
7.196544e+002, 7.145856e+001
7.201365e+002, 7.191062e+001
7.206187e+002, 7.243674e+001
7.211008e+002, 7.308631e+001
7.215829e+002, 7.376777e+001
7.220650e+002, 7.437460e+001
7.225471e+002, 7.498799e+001
7.230292e+002, 7.573191e+001
7.235114e+002, 7.665668e+001
7.239935e+002, 7.767294e+001
7.244756e+002, 7.883711e+001
7.249577e+002, 8.006045e+001
7.254398e+002, 8.122993e+001
7.259219e+002, 8.234687e+001
7.264041e+002, 8.336080e+001
7.268862e+002, 8.419374e+001
7.273683e+002, 8.499152e+001
7.278504e+002, 8.611886e+001
7.283325e+002, 8.752872e+001
7.288146e+002, 8.891634e+001
7.292968e+002, 9.010133e+001
7.297789e+002, 9.121493e+001
7.302610e+002, 9.234098e+001
7.307431e+002, 9.351003e+001
7.312252e+002, 9.482359e+001
7.317073e+002, 9.646350e+001
7.321895e+002, 9.812331e+001
7.326716e+002, 9.963681e+001
7.331537e+002, 1.010198e+002
7.336358e+002, 1.025386e+002
7.341179e+002, 1.043299e+002
7.346000e+002, 1.060505e+002
7.350822e+002, 1.074513e+002
7.355643e+002, 1.086062e+002
7.360464e+002, 1.102644e+002
7.365285e+002, 1.124483e+002
7.370106e+002, 1.147049e+002
7.374927e+002, 1.166219e+002
7.379749e+002, 1.184322e+002
7.384570e+002, 1.206039e+002
7.389391e+002, 1.231310e+002
7.394212e+002, 1.256197e+002
7.399033e+002, 1.277625e+002
7.403854e+002, 1.298268e+002
7.408676e+002, 1.319855e+002
7.413497e+002, 1.342602e+002
7.418318e+002, 1.366630e+002
7.423139e+002, 1.393151e+002
7.427960e+002, 1.419704e+002
7.432781e+002, 1.444552e+002
7.437603e+002, 1.467226e+002
7.442424e+002, 1.491510e+002
7.447245e+002, 1.517658e+002
7.452066e+002, 1.545150e+002
7.456887e+002, 1.574977e+002
7.461708e+002, 1.606066e+002
7.466530e+002, 1.634737e+002
7.471351e+002, 1.659803e+002
7.476172e+002, 1.685047e+002
7.480993e+002, 1.712234e+002
7.485814e+002, 1.741656e+002
7.490635e+002, 1.773326e+002
7.495457e+002, 1.808242e+002
7.500278e+002, 1.844566e+002
7.505099e+002, 1.882538e+002
7.509920e+002, 1.920780e+002
7.514741e+002, 1.957130e+002
7.519562e+002, 1.990359e+002
7.524384e+002, 2.025683e+002
7.529205e+002, 2.063879e+002
7.534026e+002, 2.103262e+002
7.538847e+002, 2.139757e+002
7.543668e+002, 2.174593e+002
7.548489e+002, 2.213445e+002
7.553311e+002, 2.258576e+002
7.558132e+002, 2.307062e+002
7.562953e+002, 2.356282e+002
7.567774e+002, 2.406741e+002
7.572595e+002, 2.458247e+002
7.577416e+002, 2.509016e+002
7.582238e+002, 2.563556e+002
7.587059e+002, 2.625719e+002
7.591880e+002, 2.692496e+002
7.596701e+002, 2.757624e+002
7.601522e+002, 2.819995e+002
7.606343e+002, 2.886354e+002
7.611165e+002, 2.959859e+002
7.615986e+002, 3.038050e+002
7.620807e+002, 3.114727e+002
7.625628e+002, 3.190758e+002
7.630449e+002, 3.271115e+002
7.635270e+002, 3.359402e+002
7.640092e+002, 3.451537e+002
7.644913e+002, 3.544430e+002
7.649734e+002, 3.638589e+002
7.654555e+002, 3.737100e+002
7.659376e+002, 3.839909e+002
7.664197e+002, 3.947008e+002
7.669019e+002, 4.059336e+002
7.673840e+002, 4.175541e+002
7.678661e+002, 4.289917e+002
7.683482e+002, 4.401100e+002
7.688303e+002, 4.513421e+002
7.693124e+002, 4.628228e+002
7.697946e+002, 4.744271e+002
7.702767e+002, 4.862151e+002
7.707588e+002, 4.981423e+002
7.712409e+002, 5.098042e+002
7.717230e+002, 5.210684e+002
7.722051e+002, 5.318718e+002
7.726873e+002, 5.421966e+002
7.731694e+002, 5.520644e+002
7.736515e+002, 5.612820e+002
7.741336e+002, 5.700828e+002
7.746157e+002, 5.780203e+002
7.750978e+002, 5.846808e+002
7.755800e+002, 5.901314e+002
7.760621e+002, 5.960309e+002
7.765442e+002, 6.028957e+002
7.770263e+002, 6.087711e+002
7.775084e+002, 6.124795e+002
7.779905e+002, 6.142741e+002
7.784727e+002, 6.150850e+002
7.789548e+002, 6.149255e+002
7.794369e+002, 6.140996e+002
7.799190e+002, 6.131332e+002
7.804011e+002, 6.113915e+002
7.808832e+002, 6.080569e+002
7.813654e+002, 6.031152e+002
7.818475e+002, 5.976558e+002
7.823296e+002, 5.919085e+002
7.828117e+002, 5.858227e+002
7.832938e+002, 5.794343e+002
7.837759e+002, 5.727976e+002
7.842581e+002, 5.652147e+002
7.847402e+002, 5.565768e+002
7.852223e+002, 5.475175e+002
7.857044e+002, 5.383318e+002
7.861865e+002, 5.290759e+002
7.866686e+002, 5.195309e+002
7.871508e+002, 5.096638e+002
7.876329e+002, 4.999379e+002
7.881150e+002, 4.905548e+002
7.885971e+002, 4.813658e+002
7.890792e+002, 4.725332e+002
7.895613e+002, 4.639894e+002
7.900435e+002, 4.553144e+002
7.905256e+002, 4.460399e+002
7.910077e+002, 4.368314e+002
7.914898e+002, 4.279112e+002
7.919719e+002, 4.193551e+002
7.924540e+002, 4.110421e+002
7.929362e+002, 4.031835e+002
7.934183e+002, 3.952513e+002
7.939004e+002, 3.869367e+002
7.943825e+002, 3.782646e+002
7.948646e+002, 3.694691e+002
7.953467e+002, 3.604902e+002
7.958289e+002, 3.516582e+002
7.963110e+002, 3.435680e+002
7.967931e+002, 3.355721e+002
7.972752e+002, 3.271574e+002
7.977573e+002, 3.179515e+002
7.982394e+002, 3.094295e+002
7.987216e+002, 3.023676e+002
7.992037e+002, 2.953409e+002
7.996858e+002, 2.874008e+002
8.001679e+002, 2.783124e+002
8.006500e+002, 2.700952e+002
8.011321e+002, 2.627685e+002
8.016143e+002, 2.554976e+002
8.020964e+002, 2.471161e+002
8.025785e+002, 2.383654e+002
8.030606e+002, 2.306622e+002
8.035427e+002, 2.242262e+002
8.040248e+002, 2.180198e+002
8.045070e+002, 2.113849e+002
8.049891e+002, 2.046763e+002
8.054712e+002, 1.981754e+002
8.059533e+002, 1.918753e+002
8.064354e+002, 1.857282e+002
8.069175e+002, 1.797247e+002
8.073997e+002, 1.738902e+002
8.078818e+002, 1.681511e+002
8.083639e+002, 1.625606e+002
8.088460e+002, 1.575273e+002
8.093281e+002, 1.530900e+002
8.098102e+002, 1.489148e+002
8.102924e+002, 1.446313e+002
8.107745e+002, 1.404586e+002
8.112566e+002, 1.367325e+002
8.117387e+002, 1.335645e+002
8.122208e+002, 1.304975e+002
8.127029e+002, 1.273991e+002
8.131851e+002, 1.243047e+002
8.136672e+002, 1.211774e+002
8.141493e+002, 1.179013e+002
8.146314e+002, 1.151373e+002
8.151135e+002, 1.130441e+002
8.155956e+002, 1.111211e+002
8.160778e+002, 1.089417e+002
8.165599e+002, 1.065958e+002
8.170420e+002, 1.045343e+002
8.175241e+002, 1.027746e+002
8.180062e+002, 1.012544e+002
8.184883e+002, 1.000226e+002
8.189705e+002, 9.891440e+001
8.194526e+002, 9.774452e+001
8.199347e+002, 9.645947e+001
8.204168e+002, 9.538257e+001
8.208989e+002, 9.488466e+001
8.213810e+002, 9.432912e+001
8.218632e+002, 9.331088e+001
8.223453e+002, 9.174547e+001
8.228274e+002, 9.057525e+001
8.233095e+002, 8.985351e+001
8.237916e+002, 8.932582e+001
8.242737e+002, 8.878299e+001
8.247559e+002, 8.830589e+001
8.252380e+002, 8.811547e+001
8.257201e+002, 8.821797e+001
8.262022e+002, 8.833404e+001
8.266843e+002, 8.833833e+001
8.271664e+002, 8.826555e+001
8.276486e+002, 8.811060e+001
8.281307e+002, 8.785007e+001
8.286128e+002, 8.767356e+001
8.290949e+002, 8.756672e+001
8.295770e+002, 8.756550e+001
8.300591e+002, 8.768829e+001
8.305413e+002, 8.793361e+001
8.310234e+002, 8.831893e+001
8.315055e+002, 8.884215e+001
8.319876e+002, 8.939012e+001
8.324697e+002, 8.992358e+001
8.329518e+002, 9.041652e+001
8.334340e+002, 9.081945e+001
8.339161e+002, 9.113778e+001
8.343982e+002, 9.150263e+001
8.348803e+002, 9.189373e+001
8.353624e+002, 9.241772e+001
8.358445e+002, 9.321774e+001
8.363267e+002, 9.426371e+001
8.368088e+002, 9.482548e+001
8.372909e+002, 9.478561e+001
8.377730e+002, 9.479075e+001
8.382551e+002, 9.527969e+001
8.387372e+002, 9.604983e+001
8.392194e+002, 9.654827e+001
8.397015e+002, 9.682847e+001
8.401836e+002, 9.719810e+001
8.406657e+002, 9.789909e+001
8.411478e+002, 9.868689e+001
8.416299e+002, 9.948302e+001
8.421121e+002, 1.002576e+002
8.425942e+002, 1.007906e+002
8.430763e+002, 1.009007e+002
8.435584e+002, 1.010797e+002
8.440405e+002, 1.014657e+002
8.445226e+002, 1.020416e+002
8.450048e+002, 1.028505e+002
8.454869e+002, 1.038654e+002
8.459690e+002, 1.046745e+002
8.464511e+002, 1.046254e+002
8.469332e+002, 1.046326e+002
8.474153e+002, 1.061422e+002
8.478975e+002, 1.085563e+002
8.483796e+002, 1.101821e+002
8.488617e+002, 1.096752e+002
8.493438e+002, 1.091648e+002
8.498259e+002, 1.092998e+002
8.503080e+002, 1.098416e+002
8.507902e+002, 1.101018e+002
8.512723e+002, 1.099705e+002
8.517544e+002, 1.102627e+002
8.522365e+002, 1.113764e+002
8.527186e+002, 1.127741e+002
8.532007e+002, 1.134972e+002
8.536829e+002, 1.137159e+002
8.541650e+002, 1.138997e+002
8.546471e+002, 1.141790e+002
8.551292e+002, 1.145370e+002
8.556113e+002, 1.151059e+002
8.560934e+002, 1.157109e+002
8.565756e+002, 1.160431e+002
8.570577e+002, 1.160654e+002
8.575398e+002, 1.158657e+002
8.580219e+002, 1.154136e+002
8.585040e+002, 1.148012e+002
8.589861e+002, 1.141137e+002
8.594683e+002, 1.133813e+002
8.599504e+002, 1.128047e+002
8.604325e+002, 1.124729e+002
8.609146e+002, 1.121834e+002
8.613967e+002, 1.118429e+002
8.618788e+002, 1.114043e+002
8.623610e+002, 1.107745e+002
8.628431e+002, 1.095800e+002
8.633252e+002, 1.088563e+002
8.638073e+002, 1.088541e+002
8.642894e+002, 1.091585e+002
8.647715e+002, 1.093277e+002
8.652537e+002, 1.093395e+002
8.657358e+002, 1.097192e+002
8.662179e+002, 1.105300e+002
8.667000e+002, 1.115823e+002
8.671821e+002, 1.127117e+002
8.676642e+002, 1.139552e+002
8.681464e+002, 1.153567e+002
8.686285e+002, 1.169546e+002
8.691106e+002, 1.186255e+002
8.695927e+002, 1.203535e+002
8.700748e+002, 1.221362e+002
8.705569e+002, 1.239594e+002
8.710391e+002, 1.258183e+002
8.715212e+002, 1.276463e+002
8.720033e+002, 1.293851e+002
8.724854e+002, 1.312854e+002
8.729675e+002, 1.336686e+002
8.734496e+002, 1.363082e+002
8.739318e+002, 1.385439e+002
8.744139e+002, 1.403833e+002
8.748960e+002, 1.422085e+002
8.753781e+002, 1.442970e+002
8.758602e+002, 1.463955e+002
8.763423e+002, 1.483637e+002
8.768245e+002, 1.501714e+002
8.773066e+002, 1.518337e+002
8.777887e+002, 1.533360e+002
8.782708e+002, 1.547354e+002
8.787529e+002, 1.560228e+002
8.792350e+002, 1.572434e+002
8.797172e+002, 1.587043e+002
8.801993e+002, 1.603150e+002
8.806814e+002, 1.615881e+002
8.811635e+002, 1.619767e+002
8.816456e+002, 1.621816e+002
8.821277e+002, 1.627546e+002
8.826099e+002, 1.635669e+002
8.830920e+002, 1.642263e+002
8.835741e+002, 1.647245e+002
8.840562e+002, 1.649276e+002
8.845383e+002, 1.646692e+002
8.850204e+002, 1.642181e+002
8.855026e+002, 1.642505e+002
8.859847e+002, 1.647211e+002
8.864668e+002, 1.650037e+002
8.869489e+002, 1.649049e+002
8.874310e+002, 1.645749e+002
8.879131e+002, 1.640703e+002
8.883953e+002, 1.634837e+002
8.888774e+002, 1.629512e+002
8.893595e+002, 1.625578e+002
8.898416e+002, 1.621592e+002
8.903237e+002, 1.617551e+002
8.908058e+002, 1.613261e+002
8.912880e+002, 1.609042e+002
8.917701e+002, 1.605206e+002
8.922522e+002, 1.596809e+002
8.927343e+002, 1.582716e+002
8.932164e+002, 1.568346e+002
8.936985e+002, 1.562350e+002
8.941807e+002, 1.558431e+002
8.946628e+002, 1.546758e+002
8.951449e+002, 1.525100e+002
8.956270e+002, 1.501461e+002
8.961091e+002, 1.477168e+002
8.965912e+002, 1.452905e+002
8.970734e+002, 1.428731e+002
8.975555e+002, 1.404819e+002
8.980376e+002, 1.381721e+002
8.985197e+002, 1.359935e+002
8.990018e+002, 1.337177e+002
8.994839e+002, 1.311236e+002
8.999661e+002, 1.283764e+002
9.004482e+002, 1.257999e+002
9.009303e+002, 1.233584e+002
9.014124e+002, 1.209294e+002
9.018945e+002, 1.182142e+002
9.023766e+002, 1.156978e+002
9.028588e+002, 1.135691e+002
9.033409e+002, 1.118253e+002
9.038230e+002, 1.104673e+002
9.043051e+002, 1.096373e+002
9.047872e+002, 1.085663e+002
9.052693e+002, 1.069117e+002
9.057515e+002, 1.049502e+002
9.062336e+002, 1.031058e+002
9.067157e+002, 1.014109e+002
9.071978e+002, 9.996982e+001
9.076799e+002, 9.908842e+001
9.081620e+002, 9.814158e+001
9.086442e+002, 9.665654e+001
9.091263e+002, 9.498399e+001
9.096084e+002, 9.371592e+001
9.100905e+002, 9.306034e+001
9.105726e+002, 9.227330e+001
9.110547e+002, 9.126082e+001
9.115369e+002, 9.013583e+001
9.120190e+002, 8.904031e+001
9.125011e+002, 8.795007e+001
9.129832e+002, 8.680325e+001
9.134653e+002, 8.559367e+001
9.139474e+002, 8.429683e+001
9.144296e+002, 8.277547e+001
9.149117e+002, 8.124059e+001
9.153938e+002, 7.991002e+001
9.158759e+002, 7.888394e+001
9.163580e+002, 7.765883e+001
9.168401e+002, 7.620986e+001
9.173223e+002, 7.462006e+001
9.178044e+002, 7.283530e+001
9.182865e+002, 7.096302e+001
9.187686e+002, 6.937402e+001
9.192507e+002, 6.804971e+001
9.197328e+002, 6.678455e+001
9.202150e+002, 6.550856e+001
9.206971e+002, 6.420041e+001
9.211792e+002, 6.282977e+001
9.216613e+002, 6.139510e+001
9.221434e+002, 5.993489e+001
9.226255e+002, 5.839526e+001
9.231077e+002, 5.693126e+001
9.235898e+002, 5.554274e+001
9.240719e+002, 5.430462e+001
9.245540e+002, 5.343624e+001
9.250361e+002, 5.286017e+001
9.255182e+002, 5.228054e+001
9.260004e+002, 5.155756e+001
9.264825e+002, 5.083369e+001
9.269646e+002, 5.017041e+001
9.274467e+002, 4.956208e+001
9.279288e+002, 4.901383e+001
9.284109e+002, 4.853086e+001
9.288931e+002, 4.807224e+001
9.293752e+002, 4.762669e+001
9.298573e+002, 4.723235e+001
9.303394e+002, 4.692412e+001
9.308215e+002, 4.670197e+001
9.313036e+002, 4.657017e+001
9.317858e+002, 4.653368e+001
9.322679e+002, 4.652113e+001
9.327500e+002, 4.654927e+001
9.332321e+002, 4.653244e+001
9.337142e+002, 4.635595e+001
9.341964e+002, 4.597297e+001
9.346785e+002, 4.582874e+001
9.351606e+002, 4.604980e+001
9.356427e+002, 4.620014e+001
9.361248e+002, 4.599556e+001
9.366069e+002, 4.556004e+001
9.370891e+002, 4.525447e+001
9.375712e+002, 4.508943e+001
9.380533e+002, 4.514457e+001
9.385354e+002, 4.582286e+001
9.390175e+002, 4.637107e+001
9.394996e+002, 4.616673e+001
9.399818e+002, 4.549793e+001
9.404639e+002, 4.523922e+001
9.409460e+002, 4.563603e+001
9.414281e+002, 4.585971e+001
9.419102e+002, 4.574665e+001
9.423923e+002, 4.543246e+001
9.428745e+002, 4.500202e+001
9.433566e+002, 4.455146e+001
9.438387e+002, 4.440100e+001
9.443208e+002, 4.469024e+001
9.448029e+002, 4.505564e+001
9.452850e+002, 4.543425e+001
9.457672e+002, 4.570414e+001
9.462493e+002, 4.570870e+001
9.467314e+002, 4.534398e+001
9.472135e+002, 4.519056e+001
9.476956e+002, 4.531350e+001
9.481777e+002, 4.542815e+001
9.486599e+002, 4.518544e+001
9.491420e+002, 4.480195e+001
9.496241e+002, 4.488432e+001
9.501062e+002, 4.538734e+001
9.505883e+002, 4.583410e+001
9.510704e+002, 4.599494e+001
9.515526e+002, 4.600897e+001
9.520347e+002, 4.583038e+001
9.525168e+002, 4.555169e+001
9.529989e+002, 4.552953e+001
9.534810e+002, 4.581304e+001
9.539631e+002, 4.612994e+001
9.544453e+002, 4.642596e+001
9.549274e+002, 4.667310e+001
9.554095e+002, 4.679696e+001
9.558916e+002, 4.684005e+001
9.563737e+002, 4.688958e+001
9.568558e+002, 4.693540e+001
9.573380e+002, 4.706423e+001
9.578201e+002, 4.733844e+001
9.583022e+002, 4.769193e+001
9.587843e+002, 4.806373e+001
9.592664e+002, 4.845196e+001
9.597485e+002, 4.889727e+001
9.602307e+002, 4.940948e+001
9.607128e+002, 4.990302e+001
9.611949e+002, 5.019075e+001
9.616770e+002, 5.046965e+001
9.621591e+002, 5.108060e+001
9.626412e+002, 5.202654e+001
9.631234e+002, 5.288334e+001
9.636055e+002, 5.340297e+001
9.640876e+002, 5.392672e+001
9.645697e+002, 5.459493e+001
9.650518e+002, 5.536242e+001
9.655339e+002, 5.602446e+001
9.660161e+002, 5.658345e+001
9.664982e+002, 5.725190e+001
9.669803e+002, 5.813877e+001
9.674624e+002, 5.912382e+001
9.679445e+002, 6.017453e+001
9.684266e+002, 6.119404e+001
9.689088e+002, 6.200124e+001
9.693909e+002, 6.227433e+001
9.698730e+002, 6.275122e+001
9.703551e+002, 6.362842e+001
9.708372e+002, 6.453610e+001
9.713193e+002, 6.503546e+001
9.718015e+002, 6.518359e+001
9.722836e+002, 6.559594e+001
9.727657e+002, 6.632510e+001
9.732478e+002, 6.707674e+001
9.737299e+002, 6.772398e+001
9.742120e+002, 6.822714e+001
9.746942e+002, 6.854052e+001
9.751763e+002, 6.865662e+001
9.756584e+002, 6.865710e+001
9.761405e+002, 6.843052e+001
9.766226e+002, 6.835440e+001
9.771047e+002, 6.862987e+001
9.775869e+002, 6.909612e+001
9.780690e+002, 6.930007e+001
9.785511e+002, 6.929544e+001
9.790332e+002, 6.930250e+001
9.795153e+002, 6.954811e+001
9.799974e+002, 6.962303e+001
9.804796e+002, 6.906438e+001
9.809617e+002, 6.831112e+001
9.814438e+002, 6.801241e+001
9.819259e+002, 6.840672e+001
9.824080e+002, 6.853979e+001
9.828901e+002, 6.834263e+001
9.833723e+002, 6.798125e+001
9.838544e+002, 6.748453e+001
9.843365e+002, 6.699162e+001
9.848186e+002, 6.683118e+001
9.853007e+002, 6.701919e+001
9.857828e+002, 6.714767e+001
9.862650e+002, 6.687067e+001
9.867471e+002, 6.667554e+001
9.872292e+002, 6.679709e+001
9.877113e+002, 6.717645e+001
9.881934e+002, 6.749245e+001
9.886755e+002, 6.773802e+001
9.891577e+002, 6.808481e+001
9.896398e+002, 6.864622e+001
9.901219e+002, 6.924977e+001
9.906040e+002, 6.964468e+001
9.910861e+002, 6.994473e+001
9.915682e+002, 7.034309e+001
9.920504e+002, 7.094249e+001
9.925325e+002, 7.157004e+001
9.930146e+002, 7.219662e+001
9.934967e+002, 7.286308e+001
9.939788e+002, 7.363647e+001
9.944609e+002, 7.450622e+001
9.949431e+002, 7.537281e+001
9.954252e+002, 7.623520e+001
9.959073e+002, 7.712741e+001
9.963894e+002, 7.824009e+001
9.968715e+002, 7.926618e+001
9.973536e+002, 7.989462e+001
9.978358e+002, 8.015382e+001
9.983179e+002, 8.065747e+001
9.988000e+002, 8.152335e+001
9.992821e+002, 8.235994e+001
9.997642e+002, 8.305649e+001
1.000246e+003, 8.367137e+001
1.000728e+003, 8.431023e+001
1.001211e+003, 8.495212e+001
1.001693e+003, 8.552105e+001
1.002175e+003, 8.600329e+001
1.002657e+003, 8.640235e+001
1.003139e+003, 8.678934e+001
1.003621e+003, 8.703191e+001
1.004103e+003, 8.698885e+001
1.004585e+003, 8.659785e+001
1.005068e+003, 8.632773e+001
1.005550e+003, 8.620303e+001
1.006032e+003, 8.592937e+001
1.006514e+003, 8.507430e+001
1.006996e+003, 8.407185e+001
1.007478e+003, 8.354937e+001
1.007960e+003, 8.341566e+001
1.008442e+003, 8.305632e+001
1.008924e+003, 8.202536e+001
1.009407e+003, 8.110544e+001
1.009889e+003, 8.053523e+001
1.010371e+003, 8.007423e+001
1.010853e+003, 7.920499e+001
1.011335e+003, 7.796239e+001
1.011817e+003, 7.660892e+001
1.012299e+003, 7.514043e+001
1.012781e+003, 7.382693e+001
1.013263e+003, 7.297662e+001
1.013746e+003, 7.230078e+001
1.014228e+003, 7.150394e+001
1.014710e+003, 7.052204e+001
1.015192e+003, 6.969067e+001
1.015674e+003, 6.906956e+001
1.016156e+003, 6.840983e+001
1.016638e+003, 6.744349e+001
1.017120e+003, 6.637917e+001
1.017603e+003, 6.575697e+001
1.018085e+003, 6.544949e+001
1.018567e+003, 6.502926e+001
1.019049e+003, 6.406181e+001
1.019531e+003, 6.324711e+001
1.020013e+003, 6.283573e+001
1.020495e+003, 6.264891e+001
1.020977e+003, 6.249075e+001
1.021459e+003, 6.236458e+001
1.021942e+003, 6.201391e+001
1.022424e+003, 6.136963e+001
1.022906e+003, 6.077976e+001
1.023388e+003, 6.068904e+001
1.023870e+003, 6.072899e+001
1.024352e+003, 6.044607e+001
1.024834e+003, 5.975554e+001
1.025316e+003, 5.946230e+001
1.025799e+003, 5.976672e+001
1.026281e+003, 6.015601e+001
1.026763e+003, 6.049171e+001
1.027245e+003, 6.072433e+001
1.027727e+003, 6.064621e+001
1.028209e+003, 6.035463e+001
1.028691e+003, 6.017212e+001
1.029173e+003, 6.024269e+001
1.029656e+003, 6.041877e+001
1.030138e+003, 6.063015e+001
1.030620e+003, 6.091847e+001
1.031102e+003, 6.136572e+001
1.031584e+003, 6.204525e+001
1.032066e+003, 6.243784e+001
1.032548e+003, 6.251261e+001
1.033030e+003, 6.250766e+001
1.033512e+003, 6.255874e+001
1.033995e+003, 6.267951e+001
1.034477e+003, 6.296938e+001
1.034959e+003, 6.337732e+001
1.035441e+003, 6.358691e+001
1.035923e+003, 6.342846e+001
1.036405e+003, 6.321192e+001
1.036887e+003, 6.300322e+001
1.037369e+003, 6.276020e+001
1.037851e+003, 6.238197e+001
1.038334e+003, 6.189516e+001
1.038816e+003, 6.138573e+001
1.039298e+003, 6.088741e+001
1.039780e+003, 6.029756e+001
1.040262e+003, 5.960883e+001
1.040744e+003, 5.874598e+001
1.041226e+003, 5.760700e+001
1.041708e+003, 5.616512e+001
1.042191e+003, 5.482599e+001
1.042673e+003, 5.357483e+001
1.043155e+003, 5.241190e+001
1.043637e+003, 5.135720e+001
1.044119e+003, 5.035330e+001
1.044601e+003, 4.933723e+001
1.045083e+003, 4.829467e+001
1.045565e+003, 4.723238e+001
1.046047e+003, 4.613387e+001
1.046530e+003, 4.501225e+001
1.047012e+003, 4.380095e+001
1.047494e+003, 4.267990e+001
1.047976e+003, 4.189867e+001
1.048458e+003, 4.138668e+001
1.048940e+003, 4.087798e+001
1.049422e+003, 4.034741e+001
1.049904e+003, 3.977892e+001
1.050386e+003, 3.900768e+001
1.050869e+003, 3.833126e+001
1.051351e+003, 3.803590e+001
1.051833e+003, 3.800077e+001
1.052315e+003, 3.773517e+001
1.052797e+003, 3.721072e+001
1.053279e+003, 3.664238e+001
1.053761e+003, 3.604826e+001
1.054243e+003, 3.551513e+001
1.054726e+003, 3.515784e+001
1.055208e+003, 3.492616e+001
1.055690e+003, 3.476402e+001
1.056172e+003, 3.469533e+001
1.056654e+003, 3.458669e+001
1.057136e+003, 3.446492e+001
1.057618e+003, 3.423478e+001
1.058100e+003, 3.376810e+001
1.058583e+003, 3.315957e+001
1.059065e+003, 3.281059e+001
1.059547e+003, 3.267321e+001
1.060029e+003, 3.252402e+001
1.060511e+003, 3.218015e+001
1.060993e+003, 3.188483e+001
1.061475e+003, 3.173063e+001
1.061957e+003, 3.169371e+001
1.062439e+003, 3.181127e+001
1.062922e+003, 3.213871e+001
1.063404e+003, 3.204924e+001
1.063886e+003, 3.145322e+001
1.064368e+003, 3.084136e+001
1.064850e+003, 3.068395e+001
1.065332e+003, 3.070018e+001
1.065814e+003, 3.061193e+001
1.066296e+003, 3.041051e+001
1.066778e+003, 3.025887e+001
1.067261e+003, 3.019822e+001
1.067743e+003, 3.012398e+001
1.068225e+003, 3.000772e+001
1.068707e+003, 2.986643e+001
1.069189e+003, 2.972483e+001
1.069671e+003, 2.958595e+001
1.070153e+003, 2.945961e+001
1.070635e+003, 2.935252e+001
1.071118e+003, 2.924481e+001
1.071600e+003, 2.905837e+001
1.072082e+003, 2.894668e+001
1.072564e+003, 2.904729e+001
1.073046e+003, 2.932902e+001
1.073528e+003, 2.939048e+001
1.074010e+003, 2.924262e+001
1.074492e+003, 2.904045e+001
1.074974e+003, 2.884064e+001
1.075457e+003, 2.864755e+001
1.075939e+003, 2.838223e+001
1.076421e+003, 2.815557e+001
1.076903e+003, 2.819741e+001
1.077385e+003, 2.872220e+001
1.077867e+003, 2.881530e+001
1.078349e+003, 2.834482e+001
1.078831e+003, 2.783449e+001
1.079313e+003, 2.783576e+001
1.079796e+003, 2.806897e+001
1.080278e+003, 2.811402e+001
1.080760e+003, 2.797564e+001
1.081242e+003, 2.785258e+001
1.081724e+003, 2.781423e+001
1.082206e+003, 2.779210e+001
1.082688e+003, 2.779345e+001
1.083170e+003, 2.778052e+001
1.083652e+003, 2.767509e+001
1.084135e+003, 2.749407e+001
1.084617e+003, 2.728399e+001
1.085099e+003, 2.704068e+001
1.085581e+003, 2.687076e+001
1.086063e+003, 2.693784e+001
1.086545e+003, 2.700315e+001
1.087027e+003, 2.685686e+001
1.087509e+003, 2.654325e+001
1.087992e+003, 2.662432e+001
1.088474e+003, 2.710748e+001
1.088956e+003, 2.733060e+001
1.089438e+003, 2.690209e+001
1.089920e+003, 2.631859e+001
1.090402e+003, 2.600389e+001
1.090884e+003, 2.586302e+001
1.091366e+003, 2.576805e+001
1.091849e+003, 2.567584e+001
1.092331e+003, 2.573437e+001
1.092813e+003, 2.601706e+001
1.093295e+003, 2.620159e+001
1.093777e+003, 2.593746e+001
1.094259e+003, 2.546966e+001
1.094741e+003, 2.523891e+001
1.095223e+003, 2.520798e+001
1.095705e+003, 2.522694e+001
1.096188e+003, 2.540130e+001
1.096670e+003, 2.538272e+001
1.097152e+003, 2.503983e+001
1.097634e+003, 2.459290e+001
1.098116e+003, 2.431161e+001
1.098598e+003, 2.417151e+001
1.099080e+003, 2.405922e+001
1.099562e+003, 2.396383e+001
1.100044e+003, 2.393497e+001
1.100527e+003, 2.413341e+001
1.101009e+003, 2.427365e+001
1.101491e+003, 2.414285e+001
1.101973e+003, 2.384377e+001
1.102455e+003, 2.374110e+001
1.102937e+003, 2.383857e+001
1.103419e+003, 2.370977e+001
1.103901e+003, 2.316866e+001
1.104384e+003, 2.270793e+001
1.104866e+003, 2.298704e+001
1.105348e+003, 2.347322e+001
1.105830e+003, 2.360462e+001
1.106312e+003, 2.327115e+001
1.106794e+003, 2.306628e+001
1.107276e+003, 2.302710e+001
1.107758e+003, 2.296207e+001
1.108240e+003, 2.274809e+001
1.108723e+003, 2.250035e+001
1.109205e+003, 2.239841e+001
1.109687e+003, 2.239578e+001
1.110169e+003, 2.240283e+001
1.110651e+003, 2.239973e+001
1.111133e+003, 2.239850e+001
1.111615e+003, 2.241387e+001
1.112097e+003, 2.240660e+001
1.112579e+003, 2.232545e+001
1.113062e+003, 2.219896e+001
1.113544e+003, 2.213485e+001
1.114026e+003, 2.212190e+001
1.114508e+003, 2.210446e+001
1.114990e+003, 2.205132e+001
1.115472e+003, 2.199426e+001
1.115954e+003, 2.194208e+001
1.116436e+003, 2.189365e+001
1.116919e+003, 2.185777e+001
1.117401e+003, 2.183082e+001
1.117883e+003, 2.174444e+001
1.118365e+003, 2.159277e+001
1.118847e+003, 2.147511e+001
1.119329e+003, 2.150257e+001
1.119811e+003, 2.155070e+001
1.120293e+003, 2.153275e+001
1.120776e+003, 2.146656e+001
1.121258e+003, 2.141619e+001
1.121740e+003, 2.138100e+001
1.122222e+003, 2.136949e+001
1.122704e+003, 2.138760e+001
1.123186e+003, 2.140982e+001
1.123668e+003, 2.142876e+001
1.124150e+003, 2.142547e+001
1.124632e+003, 2.136183e+001
1.125115e+003, 2.122472e+001
1.125597e+003, 2.116463e+001
1.126079e+003, 2.120800e+001
1.126561e+003, 2.124293e+001
1.127043e+003, 2.121801e+001
1.127525e+003, 2.117768e+001
1.128007e+003, 2.122125e+001
1.128489e+003, 2.129396e+001
1.128971e+003, 2.130100e+001
1.129454e+003, 2.120866e+001
1.129936e+003, 2.106614e+001
1.130418e+003, 2.082138e+001
1.130900e+003, 2.064363e+001
1.131382e+003, 2.068576e+001
1.131864e+003, 2.085133e+001
1.132346e+003, 2.080953e+001
1.132828e+003, 2.062846e+001
1.133311e+003, 2.053290e+001
1.133793e+003, 2.072280e+001
1.134275e+003, 2.087130e+001
1.134757e+003, 2.087690e+001
1.135239e+003, 2.084390e+001
1.135721e+003, 2.089130e+001
1.136203e+003, 2.099805e+001
1.136685e+003, 2.098273e+001
1.137167e+003, 2.084570e+001
1.137650e+003, 2.065649e+001
1.138132e+003, 2.033645e+001
1.138614e+003, 2.010670e+001
1.139096e+003, 2.010313e+001
1.139578e+003, 2.024898e+001
1.140060e+003, 2.047002e+001
1.140542e+003, 2.077194e+001
1.141024e+003, 2.095118e+001
1.141506e+003, 2.098340e+001
1.141989e+003, 2.096217e+001
1.142471e+003, 2.091178e+001
1.142953e+003, 2.088191e+001
1.143435e+003, 2.096332e+001
1.143917e+003, 2.110696e+001
1.144399e+003, 2.104281e+001
1.144881e+003, 2.071586e+001
1.145363e+003, 2.059482e+001
1.145846e+003, 2.083332e+001
1.146328e+003, 2.108790e+001
1.146810e+003, 2.092631e+001
1.147292e+003, 2.061405e+001
1.147774e+003, 2.040510e+001
1.148256e+003, 2.033873e+001
1.148738e+003, 2.041809e+001
1.149220e+003, 2.071103e+001
1.149703e+003, 2.088569e+001
1.150185e+003, 2.077796e+001
1.150667e+003, 2.059122e+001
1.151149e+003, 2.066878e+001
1.151631e+003, 2.085773e+001
1.152113e+003, 2.089193e+001
1.152595e+003, 2.063074e+001
1.153077e+003, 2.054382e+001
1.153559e+003, 2.074817e+001
1.154042e+003, 2.091767e+001
1.154524e+003, 2.087877e+001
1.155006e+003, 2.069299e+001
1.155488e+003, 2.039815e+001
1.155970e+003, 2.007582e+001
1.156452e+003, 1.994164e+001
1.156934e+003, 2.020688e+001
1.157416e+003, 2.040714e+001
1.157898e+003, 2.049936e+001
1.158381e+003, 2.049702e+001
1.158863e+003, 2.035643e+001
1.159345e+003, 2.013137e+001
1.159827e+003, 2.002252e+001
1.160309e+003, 2.002474e+001
1.160791e+003, 2.012098e+001
1.161273e+003, 2.047614e+001
1.161755e+003, 2.069035e+001
1.162238e+003, 2.062089e+001
1.162720e+003, 2.042646e+001
1.163202e+003, 2.023344e+001
1.163684e+003, 2.005445e+001
1.164166e+003, 1.997140e+001
1.164648e+003, 1.998302e+001
1.165130e+003, 2.004818e+001
1.165612e+003, 2.021157e+001
1.166094e+003, 2.034494e+001
1.166577e+003, 2.038615e+001
1.167059e+003, 2.037025e+001
1.167541e+003, 2.034429e+001
1.168023e+003, 2.030774e+001
1.168505e+003, 2.024667e+001
1.168987e+003, 2.015941e+001
1.169469e+003, 2.008403e+001
1.169951e+003, 2.009484e+001
1.170433e+003, 2.007798e+001
1.170916e+003, 1.988659e+001
1.171398e+003, 1.963449e+001
1.171880e+003, 1.963376e+001
1.172362e+003, 1.988047e+001
1.172844e+003, 2.013184e+001
1.173326e+003, 2.035858e+001
1.173808e+003, 2.044967e+001
1.174290e+003, 2.011364e+001
1.174773e+003, 1.976842e+001
1.175255e+003, 1.982670e+001
1.175737e+003, 2.019221e+001
1.176219e+003, 2.034670e+001
1.176701e+003, 2.028422e+001
1.177183e+003, 2.012925e+001
1.177665e+003, 1.986754e+001
1.178147e+003, 1.969434e+001
1.178630e+003, 1.990623e+001
1.179112e+003, 2.022010e+001
1.179594e+003, 2.034529e+001
1.180076e+003, 2.026793e+001
1.180558e+003, 2.025967e+001
1.181040e+003, 2.033519e+001
1.181522e+003, 2.032456e+001
1.182004e+003, 2.011700e+001
1.182486e+003, 1.989643e+001
1.182969e+003, 1.985865e+001
1.183451e+003, 1.992397e+001
1.183933e+003, 2.000657e+001
1.184415e+003, 2.010149e+001
1.184897e+003, 2.018481e+001
1.185379e+003, 2.026285e+001
1.185861e+003, 2.028928e+001
1.186343e+003, 2.022088e+001
1.186825e+003, 2.011524e+001
1.187308e+003, 2.000190e+001
1.187790e+003, 1.991212e+001
1.188272e+003, 1.991339e+001
1.188754e+003, 2.008917e+001
1.189236e+003, 2.010214e+001
1.189718e+003, 1.991958e+001
1.190200e+003, 1.974362e+001
1.190682e+003, 1.971981e+001
1.191165e+003, 1.976410e+001
1.191647e+003, 1.976521e+001
1.192129e+003, 1.975257e+001
1.192611e+003, 1.979293e+001
1.193093e+003, 1.997474e+001
1.193575e+003, 2.002114e+001
1.194057e+003, 1.990189e+001
1.194539e+003, 1.975555e+001
1.195021e+003, 1.963971e+001
1.195504e+003, 1.959600e+001
1.195986e+003, 1.973216e+001
1.196468e+003, 1.998804e+001
1.196950e+003, 2.019080e+001
1.197432e+003, 2.036219e+001
1.197914e+003, 2.033159e+001
1.198396e+003, 2.002036e+001
1.198878e+003, 1.975357e+001
1.199360e+003, 1.995779e+001
1.199843e+003, 2.032586e+001
1.200325e+003, 2.039408e+001
1.200807e+003, 2.021794e+001
1.201289e+003, 2.009551e+001
1.201771e+003, 2.012988e+001
1.202253e+003, 2.010091e+001
1.202735e+003, 1.997104e+001
1.203217e+003, 1.981771e+001
1.203700e+003, 1.967466e+001
1.204182e+003, 1.959439e+001
1.204664e+003, 1.970925e+001
1.205146e+003, 1.998511e+001
1.205628e+003, 2.015123e+001
1.206110e+003, 2.011571e+001
1.206592e+003, 2.009282e+001
1.207074e+003, 2.012770e+001
1.207557e+003, 2.014843e+001
1.208039e+003, 2.002115e+001
1.208521e+003, 1.984618e+001
1.209003e+003, 1.976127e+001
1.209485e+003, 1.977706e+001
1.209967e+003, 1.986177e+001
1.210449e+003, 2.008086e+001
1.210931e+003, 2.017566e+001
1.211413e+003, 2.005346e+001
1.211896e+003, 1.989529e+001
1.212378e+003, 2.001125e+001
1.212860e+003, 2.021331e+001
1.213342e+003, 2.018774e+001
1.213824e+003, 1.990050e+001
1.214306e+003, 1.973577e+001
1.214788e+003, 1.977415e+001
1.215270e+003, 1.981199e+001
1.215752e+003, 1.978924e+001
1.216235e+003, 1.976025e+001
1.216717e+003, 1.979596e+001
1.217199e+003, 1.987987e+001
1.217681e+003, 2.002585e+001
1.218163e+003, 2.024822e+001
1.218645e+003, 2.028251e+001
1.219127e+003, 2.005703e+001
1.219609e+003, 1.981635e+001
1.220092e+003, 1.960516e+001
1.220574e+003, 1.948461e+001
1.221056e+003, 1.960134e+001
1.221538e+003, 1.983840e+001
1.222020e+003, 2.005897e+001
1.222502e+003, 2.024967e+001
1.222984e+003, 2.025168e+001
1.223466e+003, 1.998721e+001
1.223948e+003, 1.979182e+001
1.224431e+003, 1.981481e+001
1.224913e+003, 1.990997e+001
1.225395e+003, 1.987484e+001
1.225877e+003, 1.977040e+001
1.226359e+003, 1.967290e+001
1.226841e+003, 1.959082e+001
1.227323e+003, 1.955227e+001
1.227805e+003, 1.956446e+001
1.228287e+003, 1.959144e+001
1.228770e+003, 1.962088e+001
1.229252e+003, 1.965290e+001
1.229734e+003, 1.970754e+001
1.230216e+003, 1.975470e+001
1.230698e+003, 1.974825e+001
1.231180e+003, 1.967018e+001
1.231662e+003, 1.957164e+001
1.232144e+003, 1.942711e+001
1.232627e+003, 1.942270e+001
1.233109e+003, 1.974666e+001
1.233591e+003, 2.007685e+001
1.234073e+003, 1.996198e+001
1.234555e+003, 1.965035e+001
1.235037e+003, 1.947473e+001
1.235519e+003, 1.948150e+001
1.236001e+003, 1.954943e+001
1.236484e+003, 1.968879e+001
1.236966e+003, 1.980012e+001
1.237448e+003, 1.986207e+001
1.237930e+003, 1.982880e+001
1.238412e+003, 1.955135e+001
1.238894e+003, 1.920137e+001
1.239376e+003, 1.901321e+001
1.239858e+003, 1.899595e+001
1.240340e+003, 1.913172e+001
1.240823e+003, 1.942810e+001
1.241305e+003, 1.965210e+001
1.241787e+003, 1.967861e+001
1.242269e+003, 1.958028e+001
1.242751e+003, 1.926947e+001
1.243233e+003, 1.895830e+001
1.243715e+003, 1.893514e+001
1.244197e+003, 1.923593e+001
1.244679e+003, 1.945723e+001
1.245162e+003, 1.960140e+001
1.245644e+003, 1.970041e+001
1.246126e+003, 1.977490e+001
1.246608e+003, 1.980879e+001
1.247090e+003, 1.974503e+001
1.247572e+003, 1.966791e+001
1.248054e+003, 1.969546e+001
1.248536e+003, 1.983723e+001
1.249019e+003, 1.980144e+001
1.249501e+003, 1.960485e+001
1.249983e+003, 1.942051e+001
1.250465e+003, 1.928305e+001
1.250947e+003, 1.926075e+001
1.251429e+003, 1.950088e+001
1.251911e+003, 1.978747e+001
1.252393e+003, 1.990320e+001
1.252875e+003, 1.986008e+001
1.253358e+003, 1.994390e+001
1.253840e+003, 2.012296e+001
1.254322e+003, 2.019151e+001
1.254804e+003, 1.987745e+001
1.255286e+003, 1.965113e+001
1.255768e+003, 1.979856e+001
1.256250e+003, 1.996601e+001
1.256732e+003, 1.978253e+001
1.257214e+003, 1.934147e+001
1.257697e+003, 1.924984e+001
1.258179e+003, 1.944634e+001
1.258661e+003, 1.963704e+001
1.259143e+003, 1.969474e+001
1.259625e+003, 1.972493e+001
1.260107e+003, 1.974770e+001
1.260589e+003, 1.975566e+001
1.261071e+003, 1.972682e+001
1.261554e+003, 1.968127e+001
1.262036e+003, 1.968637e+001
1.262518e+003, 1.973213e+001
1.263000e+003, 1.978312e+001
1.263482e+003, 1.989786e+001
1.263964e+003, 1.988645e+001
1.264446e+003, 1.968465e+001
1.264928e+003, 1.947431e+001
1.265411e+003, 1.942947e+001
1.265893e+003, 1.947022e+001
1.266375e+003, 1.941670e+001
1.266857e+003, 1.931957e+001
1.267339e+003, 1.932338e+001
1.267821e+003, 1.963246e+001
1.268303e+003, 1.970539e+001
1.268785e+003, 1.946918e+001
1.269267e+003, 1.923269e+001
1.269750e+003, 1.927360e+001
1.270232e+003, 1.943157e+001
1.270714e+003, 1.951301e+001
1.271196e+003, 1.954502e+001
1.271678e+003, 1.960046e+001
1.272160e+003, 1.972478e+001
1.272642e+003, 1.973833e+001
1.273124e+003, 1.962424e+001
1.273606e+003, 1.950425e+001
1.274089e+003, 1.942745e+001
1.274571e+003, 1.942028e+001
1.275053e+003, 1.954561e+001
1.275535e+003, 1.974401e+001
1.276017e+003, 1.991496e+001
1.276499e+003, 2.005552e+001
1.276981e+003, 2.018214e+001
1.277463e+003, 2.029395e+001
1.277946e+003, 2.031383e+001
1.278428e+003, 2.011758e+001
1.278910e+003, 1.989572e+001
1.279392e+003, 1.978021e+001
1.279874e+003, 1.969683e+001
1.280356e+003, 1.950558e+001
1.280838e+003, 1.921756e+001
1.281320e+003, 1.931949e+001
1.281802e+003, 1.976071e+001
1.282285e+003, 2.005646e+001
1.282767e+003, 1.985919e+001
1.283249e+003, 1.957132e+001
1.283731e+003, 1.921427e+001
1.284213e+003, 1.896027e+001
1.284695e+003, 1.903404e+001
1.285177e+003, 1.934941e+001
1.285659e+003, 1.950387e+001
1.286141e+003, 1.951902e+001
1.286624e+003, 1.949550e+001
1.287106e+003, 1.937151e+001
1.287588e+003, 1.939353e+001
1.288070e+003, 1.967521e+001
1.288552e+003, 1.992112e+001
1.289034e+003, 1.980363e+001
1.289516e+003, 1.950980e+001
1.289998e+003, 1.945761e+001
1.290481e+003, 1.958376e+001
1.290963e+003, 1.972120e+001
1.291445e+003, 1.982654e+001
1.291927e+003, 1.995503e+001
1.292409e+003, 2.013897e+001
1.292891e+003, 2.021942e+001
1.293373e+003, 1.997160e+001
1.293855e+003, 1.964602e+001
1.294338e+003, 1.955003e+001
1.294820e+003, 1.961358e+001
1.295302e+003, 1.973632e+001
1.295784e+003, 1.998836e+001
1.296266e+003, 1.990034e+001
1.296748e+003, 1.944748e+001
1.297230e+003, 1.910108e+001
1.297712e+003, 1.925920e+001
1.298194e+003, 1.950578e+001
1.298677e+003, 1.952037e+001
1.299159e+003, 1.942826e+001
1.299641e+003, 1.936525e+001
1.300123e+003, 1.932820e+001
1.300605e+003, 1.950524e+001
1.301087e+003, 1.985866e+001
1.301569e+003, 2.004443e+001
1.302051e+003, 1.975974e+001
1.302533e+003, 1.947041e+001
1.303016e+003, 1.932425e+001
##END=



