##NAMES=Nuffieldite
##RRUFFID=R100113
##IDEAL CHEMISTRY=Pb^2+^_2_Cu^1+^_1.4_(Pb^2+^_0.4_Bi^3+^_0.4_Sb^3+^_0.2_)Bi^3+^_2_S^2-^_7_
##LOCALITY=British Columbia Molybdenum mine, Kitsault, British Columbia, Canada
##OWNER=RRUFF
##SOURCE=Robert Woodside
##DESCRIPTION=Steel-gray striated prismatic crystals in quartz
##STATUS=The identification of this mineral is confirmed by single-crystal X-ray diffraction and chemical analysis.
##URL=rruff.info/R100113
##MEASURED CHEMISTRY=Pb_2.00_(Cu_1.22_Sb_0.06_)_Σ=1.28_(Bi_0.71_Pb_0.23_Sb_0.06_)_Σ=1.00_Bi_2.00_S_7_ (Light phases are galena)
144.7626, 31.40991
145.2448, 36.67773
145.7269, 39.32830
146.2090, 36.82629
146.6911, 32.61651
147.1732, 30.51614
147.6553, 31.40322
148.1375, 33.26025
148.6196, 33.83070
149.1017, 33.34510
149.5838, 32.77283
150.0659, 32.48666
150.5480, 32.38058
151.0302, 32.16605
151.5123, 31.77634
151.9944, 31.27862
152.4765, 30.88186
152.9586, 30.53787
153.4408, 29.85112
153.9229, 27.76505
154.4050, 24.20192
154.8871, 22.89811
155.3692, 27.26550
155.8513, 31.92554
156.3335, 34.22597
156.8156, 33.94842
157.2977, 32.38873
157.7798, 30.87717
158.2619, 29.19004
158.7440, 28.27043
159.2262, 28.89271
159.7083, 29.69839
160.1904, 29.76466
160.6725, 28.89599
161.1546, 27.62571
161.6367, 26.89418
162.1189, 27.04263
162.6010, 27.28317
163.0831, 27.67770
163.5652, 28.11875
164.0473, 28.55203
164.5294, 28.95533
165.0115, 29.25640
165.4937, 29.23704
165.9758, 27.73982
166.4579, 27.54180
166.9400, 30.52088
167.4221, 34.70813
167.9042, 36.87714
168.3864, 35.38491
168.8685, 31.60980
169.3506, 29.46061
169.8327, 29.53017
170.3148, 29.71554
170.7969, 29.24182
171.2791, 28.23158
171.7612, 27.03816
172.2433, 25.60674
172.7254, 24.28518
173.2075, 23.50993
173.6896, 23.06354
174.1718, 23.55371
174.6539, 26.14293
175.1360, 30.82974
175.6181, 34.68919
176.1002, 36.84806
176.5823, 37.17837
177.0645, 34.86351
177.5466, 28.75227
178.0287, 22.34142
178.5108, 20.53489
178.9929, 24.64688
179.4750, 28.71760
179.9572, 31.42640
180.4393, 32.86831
180.9214, 32.73280
181.4035, 30.75714
181.8856, 27.74183
182.3677, 25.25690
182.8499, 23.01222
183.3320, 22.00324
183.8141, 23.20835
184.2962, 25.19393
184.7783, 26.47907
185.2604, 26.32998
185.7425, 25.12923
186.2247, 24.20664
186.7068, 23.28398
187.1889, 23.07644
187.6710, 24.39708
188.1531, 26.27790
188.6352, 27.47029
189.1174, 27.24595
189.5995, 25.87503
190.0816, 24.84597
190.5637, 24.64003
191.0458, 24.24416
191.5279, 23.10315
192.0101, 21.67430
192.4922, 20.76205
192.9743, 20.88044
193.4564, 21.90533
193.9385, 22.91848
194.4206, 24.71345
194.9028, 25.70008
195.3849, 24.91506
195.8670, 22.80197
196.3491, 20.48327
196.8312, 18.36326
197.3133, 16.75734
197.7955, 16.77195
198.2776, 19.75608
198.7597, 22.94466
199.2418, 24.94265
199.7239, 25.83550
200.2060, 26.19537
200.6882, 26.26286
201.1703, 26.01629
201.6524, 25.49084
202.1345, 24.20601
202.6166, 23.12390
203.0987, 23.17918
203.5809, 24.39629
204.0630, 25.87549
204.5451, 27.81317
205.0272, 29.44510
205.5093, 29.48065
205.9914, 26.96338
206.4735, 23.70613
206.9557, 21.95022
207.4378, 21.91637
207.9199, 22.36910
208.4020, 23.36017
208.8841, 24.32430
209.3662, 24.62490
209.8484, 23.96340
210.3305, 22.75170
210.8126, 21.62293
211.2947, 20.52104
211.7768, 19.68429
212.2589, 19.34331
212.7411, 19.20751
213.2232, 18.93727
213.7053, 18.35696
214.1874, 17.74848
214.6695, 17.79561
215.1516, 18.86857
215.6338, 19.97217
216.1159, 21.13334
216.5980, 22.12824
217.0801, 22.67588
217.5622, 22.63570
218.0443, 22.23365
218.5265, 22.12973
219.0086, 22.82948
219.4907, 23.07519
219.9728, 22.20676
220.4549, 21.05516
220.9370, 20.68898
221.4192, 21.59643
221.9013, 23.12581
222.3834, 23.31991
222.8655, 19.83313
223.3476, 17.81208
223.8297, 18.21733
224.3119, 19.99171
224.7940, 22.15549
225.2761, 24.28847
225.7582, 26.16301
226.2403, 27.09422
226.7224, 25.88589
227.2045, 25.13069
227.6867, 25.61711
228.1688, 26.48783
228.6509, 26.59912
229.1330, 25.45596
229.6151, 23.45569
230.0972, 21.56063
230.5794, 19.06971
231.0615, 17.72380
231.5436, 18.79135
232.0257, 20.95580
232.5078, 22.05789
232.9899, 21.12812
233.4721, 19.36999
233.9542, 19.68183
234.4363, 23.07695
234.9184, 25.57928
235.4005, 25.79059
235.8826, 24.52514
236.3648, 22.88981
236.8469, 20.93981
237.3290, 19.52392
237.8111, 20.80023
238.2932, 25.33346
238.7753, 28.62953
239.2575, 28.59735
239.7396, 26.30021
240.2217, 23.82401
240.7038, 21.48260
241.1859, 19.60546
241.6680, 18.71615
242.1502, 18.76115
242.6323, 19.07268
243.1144, 19.41084
243.5965, 19.80864
244.0786, 20.42973
244.5607, 21.48538
245.0428, 22.42443
245.5250, 22.51700
246.0071, 21.88755
246.4892, 21.46060
246.9713, 22.30738
247.4534, 23.76459
247.9355, 23.51539
248.4177, 20.24206
248.8998, 16.96980
249.3819, 16.06457
249.8640, 17.07067
250.3461, 18.59045
250.8282, 20.46537
251.3104, 22.35827
251.7925, 22.83334
252.2746, 20.92072
252.7567, 19.05313
253.2388, 19.01769
253.7209, 20.12156
254.2031, 20.76567
254.6852, 19.43822
255.1673, 16.91342
255.6494, 16.40068
256.1315, 19.18437
256.6136, 21.99439
257.0958, 23.56244
257.5779, 24.14947
258.0600, 24.09932
258.5421, 23.34672
259.0242, 22.20347
259.5063, 21.77814
259.9885, 22.28132
260.4706, 23.23761
260.9527, 25.00601
261.4348, 26.91537
261.9169, 28.01526
262.3990, 27.74035
262.8812, 26.55416
263.3633, 25.87669
263.8454, 26.35582
264.3275, 26.19718
264.8096, 23.78391
265.2917, 21.09441
265.7739, 20.63113
266.2560, 23.58550
266.7381, 28.22778
267.2202, 30.29120
267.7023, 27.90646
268.1844, 26.20393
268.6666, 26.78595
269.1487, 27.83604
269.6308, 27.48518
270.1129, 25.11936
270.5950, 21.97424
271.0771, 20.45653
271.5593, 21.44707
272.0414, 22.44254
272.5235, 23.05951
273.0056, 23.72946
273.4877, 24.83746
273.9698, 26.45288
274.4520, 28.28851
274.9341, 30.06252
275.4162, 32.44533
275.8983, 33.18907
276.3804, 31.55970
276.8625, 29.21749
277.3446, 26.73919
277.8268, 24.45054
278.3089, 22.88262
278.7910, 22.75532
279.2731, 24.48689
279.7552, 26.27560
280.2373, 28.83448
280.7195, 30.85608
281.2016, 31.53893
281.6837, 30.96106
282.1658, 29.68503
282.6479, 28.09267
283.1300, 25.95074
283.6122, 25.23747
284.0943, 27.69209
284.5764, 29.68186
285.0585, 29.51788
285.5406, 27.59144
286.0227, 25.20207
286.5049, 23.27675
286.9870, 21.82198
287.4691, 20.87704
287.9512, 20.41155
288.4333, 20.43138
288.9154, 21.29188
289.3976, 22.63034
289.8797, 23.90866
290.3618, 24.85797
290.8439, 25.37524
291.3260, 24.81708
291.8081, 21.85679
292.2903, 19.38349
292.7724, 17.83906
293.2545, 17.06943
293.7366, 16.92937
294.2187, 17.36772
294.7008, 18.19117
295.1830, 18.87940
295.6651, 19.34962
296.1472, 19.77561
296.6293, 20.37841
297.1114, 20.84698
297.5935, 20.78158
298.0757, 20.06518
298.5578, 18.98189
299.0399, 17.97272
299.5220, 16.81309
300.0041, 16.24400
300.4862, 17.02639
300.9684, 17.91600
301.4505, 17.85093
301.9326, 16.65992
302.4147, 14.87102
302.8968, 12.85820
303.3789, 10.05914
303.8611, 9.791803
304.3432, 15.21437
304.8253, 20.37454
305.3074, 20.69128
305.7895, 16.64840
306.2716, 12.52515
306.7538, 12.15417
307.2359, 15.82865
307.7180, 17.61164
308.2001, 16.72232
308.6822, 15.10699
309.1643, 12.67782
309.6465, 10.11565
310.1286, 9.134570
310.6107, 11.05183
311.0928, 15.31179
311.5749, 17.95132
312.0570, 18.24791
312.5392, 18.06159
313.0213, 17.60192
313.5034, 16.98357
313.9855, 16.32828
314.4676, 15.68666
314.9497, 15.08619
315.4319, 14.60359
315.9140, 14.48690
316.3961, 14.12483
316.8782, 13.10634
317.3603, 11.97762
317.8424, 11.37300
318.3245, 11.46761
318.8066, 11.94073
319.2888, 12.33279
319.7709, 12.63204
320.2530, 12.84696
320.7351, 12.88439
321.2172, 12.90478
321.6993, 12.91773
322.1815, 12.97879
322.6636, 13.42031
323.1457, 14.80229
323.6278, 17.51238
324.1099, 17.91544
324.5920, 13.20666
325.0742, 9.147156
325.5563, 9.090833
326.0384, 12.29276
326.5205, 16.05914
327.0026, 18.68345
327.4847, 20.14237
327.9669, 20.11558
328.4490, 17.58204
328.9311, 14.95653
329.4132, 12.14960
329.8953, 9.780915
330.3774, 9.188525
330.8596, 11.11630
331.3417, 14.28095
331.8238, 15.20203
332.3059, 10.71334
332.7880, 7.834895
333.2701, 7.508828
333.7523, 8.530348
334.2344, 10.10206
334.7165, 11.88500
335.1986, 13.34307
335.6807, 13.58589
336.1628, 11.77171
336.6450, 10.91430
337.1271, 11.32741
337.6092, 12.32385
338.0913, 13.98248
338.5734, 15.98198
339.0555, 17.28092
339.5377, 16.81478
340.0198, 14.40689
340.5019, 12.41864
340.9840, 10.91985
341.4661, 9.702434
341.9482, 8.245605
342.4304, 7.030334
342.9125, 7.279653
343.3946, 9.900752
343.8767, 14.16893
344.3588, 16.52322
344.8409, 14.77765
345.3231, 13.47940
345.8052, 13.42925
346.2873, 13.86623
346.7694, 13.81917
347.2515, 12.95386
347.7336, 11.81411
348.2158, 11.43357
348.6979, 12.07558
349.1800, 13.08471
349.6621, 15.33681
350.1442, 17.26475
350.6263, 17.50515
351.1085, 16.09901
351.5906, 14.29270
352.0727, 13.50004
352.5548, 13.97505
353.0369, 13.76834
353.5190, 11.57352
354.0012, 9.997127
354.4833, 10.26083
354.9654, 11.86436
355.4475, 13.69970
355.9296, 15.06689
356.4117, 15.99326
356.8939, 16.68368
357.3760, 17.39758
357.8581, 17.44471
358.3402, 16.13365
358.8223, 14.38443
359.3044, 13.20160
359.7865, 12.96440
360.2686, 13.31599
360.7508, 13.65669
361.2329, 14.01600
361.7150, 14.28274
362.1971, 14.34298
362.6792, 14.39105
363.1613, 14.72091
363.6435, 15.26306
364.1256, 15.50866
364.6077, 14.87869
365.0898, 13.32564
365.5719, 11.62956
366.0540, 8.782017
366.5362, 6.984874
367.0183, 7.689540
367.5004, 10.03782
367.9825, 12.29515
368.4646, 13.48258
368.9467, 13.84524
369.4289, 14.04212
369.9110, 13.96846
370.3931, 13.96119
370.8752, 14.43328
371.3573, 14.88383
371.8394, 14.79851
372.3216, 14.01257
372.8037, 12.79873
373.2858, 11.17507
373.7679, 9.049941
374.2500, 7.872079
374.7321, 8.355649
375.2143, 9.599662
375.6964, 11.20920
376.1785, 13.07745
376.6606, 14.59079
377.1427, 15.27326
377.6248, 15.27048
378.1070, 15.23716
378.5891, 15.49655
379.0712, 15.06721
379.5533, 12.51123
380.0354, 8.874775
380.5175, 6.186073
380.9997, 5.420160
381.4818, 5.558090
381.9639, 5.179289
382.4460, 4.253656
382.9281, 4.212784
383.4102, 6.006195
383.8924, 8.902484
384.3745, 11.87332
384.8566, 15.18324
385.3387, 17.50516
385.8208, 17.42493
386.3029, 15.74063
386.7851, 14.59035
387.2672, 14.54214
387.7493, 14.92341
388.2314, 15.16375
388.7135, 15.26939
389.1956, 14.81231
389.6778, 12.80356
390.1599, 10.75327
390.6420, 10.30344
391.1241, 11.48020
391.6062, 13.18254
392.0883, 14.92439
392.5705, 16.53157
393.0526, 17.26090
393.5347, 17.29663
394.0168, 16.35196
394.4989, 13.19328
394.9810, 9.093281
395.4632, 6.759628
395.9453, 7.294154
396.4274, 9.305329
396.9095, 10.42833
397.3916, 10.58324
397.8737, 9.894712
398.3559, 6.723807
398.8380, 3.802987
399.3201, 3.702536
399.8022, 6.449268
400.2843, 10.17890
400.7664, 13.40737
401.2485, 16.16522
401.7307, 17.65175
402.2128, 16.93180
402.6949, 16.17445
403.1770, 16.46266
403.6591, 17.06582
404.1412, 16.55806
404.6234, 14.23863
405.1055, 10.99768
405.5876, 9.015273
406.0697, 9.052281
406.5518, 9.167387
407.0339, 8.999315
407.5161, 9.085367
407.9982, 10.18624
408.4803, 12.14751
408.9624, 13.78879
409.4445, 13.67830
409.9266, 11.62545
410.4088, 10.94141
410.8909, 13.53690
411.3730, 15.45342
411.8551, 14.84703
412.3372, 12.93441
412.8193, 11.88276
413.3015, 12.92633
413.7836, 14.83615
414.2657, 14.61896
414.7478, 11.16551
415.2299, 8.975932
415.7120, 10.75845
416.1942, 13.07868
416.6763, 13.51257
417.1584, 11.81730
417.6405, 9.571814
418.1226, 7.695454
418.6047, 6.278110
419.0869, 6.101802
419.5690, 7.960051
420.0511, 9.727241
420.5332, 9.740741
421.0153, 8.696108
421.4974, 7.972611
421.9796, 8.121541
422.4617, 8.694897
422.9438, 9.511649
423.4259, 10.55414
423.9080, 10.45490
424.3901, 7.660436
424.8723, 4.357985
425.3544, 4.149895
425.8365, 7.636837
426.3186, 10.98455
426.8007, 12.43401
427.2828, 12.71664
427.7650, 13.22825
428.2471, 14.26634
428.7292, 14.63234
429.2113, 12.70982
429.6934, 8.568137
430.1755, 6.589339
430.6577, 8.341012
431.1398, 10.79645
431.6219, 12.92062
432.1040, 14.41594
432.5861, 14.41984
433.0682, 12.32935
433.5504, 9.288691
434.0325, 8.062515
434.5146, 10.40820
434.9967, 11.69573
435.4788, 11.23120
435.9609, 10.01625
436.4431, 8.290833
436.9252, 6.431792
437.4073, 5.638831
437.8894, 7.265708
438.3715, 11.41630
438.8536, 14.07636
439.3358, 13.59542
439.8179, 13.44378
440.3000, 15.51482
440.7821, 18.02028
441.2642, 18.06817
441.7463, 14.45868
442.2284, 9.419091
442.7105, 7.228311
443.1927, 9.013436
443.6748, 10.17117
444.1569, 9.672165
444.6390, 8.987482
445.1211, 8.870765
445.6032, 9.271460
446.0854, 9.732022
446.5675, 9.986563
447.0496, 10.03227
447.5317, 9.720521
448.0138, 8.705325
448.4959, 8.204452
448.9781, 9.256570
449.4602, 10.88766
449.9423, 12.10751
450.4244, 12.70040
450.9065, 12.93780
451.3886, 12.84535
451.8708, 12.53041
452.3529, 12.69970
452.8350, 13.85499
453.3171, 14.77187
453.7992, 13.84977
454.2813, 11.48257
454.7635, 9.321732
455.2456, 7.538024
455.7277, 6.282121
456.2098, 5.722988
456.6919, 5.833154
457.1740, 6.562395
457.6562, 8.135997
458.1383, 10.00848
458.6204, 10.56187
459.1025, 9.068012
459.5846, 8.021240
460.0667, 8.050221
460.5489, 8.625830
461.0310, 9.477281
461.5131, 10.43863
461.9952, 10.92735
462.4773, 10.24974
462.9594, 8.340411
463.4416, 7.466691
463.9237, 8.477431
464.4058, 9.470830
464.8879, 10.20759
465.3700, 10.56729
465.8521, 10.18850
466.3343, 8.969593
466.8164, 7.701177
467.2985, 7.816726
467.7806, 9.830058
468.2627, 11.64146
468.7448, 13.83063
469.2270, 15.20901
469.7091, 14.65559
470.1912, 12.76433
470.6733, 11.09535
471.1554, 10.53195
471.6375, 10.89631
472.1197, 12.03185
472.6018, 14.36386
473.0839, 15.88238
473.5660, 15.55699
474.0481, 14.23212
474.5302, 12.24238
475.0124, 9.580298
475.4945, 7.615441
475.9766, 7.587275
476.4587, 8.893300
476.9408, 10.33005
477.4229, 11.94165
477.9051, 12.65146
478.3872, 10.95312
478.8693, 7.589732
479.3514, 5.759064
479.8335, 6.477458
480.3156, 7.804299
480.7978, 8.854292
481.2799, 9.781117
481.7620, 11.08016
482.2441, 12.95711
482.7262, 14.70451
483.2083, 15.34580
483.6904, 14.64799
484.1725, 13.45240
484.6547, 10.80691
485.1368, 8.587879
485.6189, 8.029725
486.1010, 8.718691
486.5831, 9.516126
487.0652, 9.780595
487.5474, 9.750220
488.0295, 10.18511
488.5116, 11.79186
488.9937, 12.50561
489.4758, 11.76632
489.9579, 10.56181
490.4401, 9.261119
490.9222, 8.064206
491.4043, 7.343455
491.8864, 7.572694
492.3685, 8.518103
492.8506, 9.073493
493.3328, 9.221668
493.8149, 9.016565
494.2970, 8.225420
494.7791, 7.215155
495.2612, 6.117654
495.7433, 4.841109
496.2255, 4.392528
496.7076, 6.284906
497.1897, 9.641237
497.6718, 11.59815
498.1539, 11.47205
498.6360, 11.09414
499.1182, 12.35984
499.6003, 14.75886
500.0824, 15.59143
500.5645, 13.74623
501.0466, 11.28671
501.5287, 8.630410
502.0109, 6.203750
502.4930, 4.933915
502.9751, 5.162104
503.4572, 6.259181
503.9393, 7.413994
504.4214, 8.769144
504.9036, 9.644685
505.3857, 9.916886
505.8678, 9.890428
506.3499, 9.333558
506.8320, 8.631331
507.3141, 8.644408
507.7963, 9.868270
508.2784, 11.57937
508.7605, 11.99349
509.2426, 10.50970
509.7247, 9.340883
510.2068, 8.702374
510.6890, 8.430416
511.1711, 8.770026
511.6532, 9.470412
512.1353, 9.680377
512.6174, 8.266248
513.0995, 6.390584
513.5817, 7.369825
514.0638, 11.87298
514.5459, 14.95665
515.0280, 13.92766
515.5101, 11.06730
515.9922, 9.370137
516.4744, 9.003726
516.9565, 8.788702
517.4386, 7.757135
517.9207, 6.790563
518.4028, 7.636891
518.8849, 10.31015
519.3671, 12.30364
519.8492, 11.65609
520.3313, 9.083766
520.8134, 8.214263
521.2955, 11.07989
521.7776, 12.66529
522.2598, 10.69333
522.7419, 7.893972
523.2240, 7.374161
523.7061, 9.389380
524.1882, 11.65552
524.6703, 11.90420
525.1525, 10.20847
525.6346, 9.138447
526.1167, 9.156686
526.5988, 9.244236
527.0809, 9.207925
527.5630, 9.126021
528.0452, 9.170498
528.5273, 9.364025
529.0094, 9.380528
529.4915, 8.489992
529.9736, 6.885692
530.4557, 6.653051
530.9379, 8.502734
531.4200, 10.49240
531.9021, 11.74512
532.3842, 12.26591
532.8663, 11.84691
533.3484, 10.01065
533.8306, 8.119940
534.3127, 6.913712
534.7948, 6.360680
535.2769, 6.413289
535.7590, 7.073965
536.2411, 8.290019
536.7233, 10.36928
537.2054, 13.37726
537.6875, 14.26597
538.1696, 11.35208
538.6517, 8.405793
539.1339, 6.543954
539.6160, 5.610116
540.0981, 5.349171
540.5802, 5.650970
541.0623, 6.400029
541.5444, 7.613458
542.0266, 9.569944
542.5087, 10.39464
542.9908, 8.590269
543.4728, 7.252403
543.9550, 7.672568
544.4371, 9.086781
544.9192, 10.42299
545.4013, 11.34746
545.8834, 11.71375
546.3655, 10.99726
546.8477, 9.301986
547.3298, 8.285358
547.8119, 8.451786
548.2940, 8.854772
548.7761, 8.501940
549.2582, 7.724108
549.7404, 7.503442
550.2225, 8.187614
550.7046, 9.299684
551.1867, 11.04751
551.6688, 12.95372
552.1509, 13.79120
552.6331, 13.16227
553.1152, 11.89098
553.5973, 10.82231
554.0794, 9.758226
554.5615, 10.24525
555.0436, 14.72345
555.5258, 17.83297
556.0079, 16.56005
556.4900, 13.04627
556.9721, 10.53478
557.4542, 10.19658
557.9363, 10.83246
558.4185, 10.89179
558.9006, 10.37369
559.3827, 9.176908
559.8648, 6.067866
560.3469, 3.960597
560.8290, 4.904640
561.3112, 7.465867
561.7933, 9.123370
562.2754, 8.834062
562.7575, 8.279971
563.2396, 9.399136
563.7217, 11.60314
564.2039, 12.71475
564.6860, 12.23793
565.1681, 10.89857
565.6502, 9.013836
566.1323, 6.682078
566.6144, 5.335788
567.0966, 5.489763
567.5787, 6.026744
568.0608, 6.618873
568.5429, 7.298749
569.0250, 8.208281
569.5071, 9.348080
569.9893, 10.50560
570.4714, 11.51697
570.9535, 12.43119
571.4356, 12.33432
571.9177, 10.01248
572.3998, 8.191370
572.8820, 7.604630
573.3641, 7.792925
573.8462, 8.546286
574.3283, 9.768517
574.8104, 10.44841
575.2925, 9.155736
575.7747, 6.415139
576.2568, 4.540630
576.7389, 3.723317
577.2210, 3.563450
577.7031, 3.720901
578.1852, 4.463433
578.6674, 6.515513
579.1495, 11.02642
579.6316, 14.28420
580.1137, 14.30288
580.5958, 12.59083
581.0779, 10.70142
581.5601, 8.956274
582.0422, 7.393468
582.5243, 6.009550
583.0064, 4.864813
583.4885, 4.298925
583.9706, 4.597920
584.4528, 5.100792
584.9349, 6.042488
585.4170, 6.944540
585.8991, 7.369230
586.3812, 7.365928
586.8633, 7.374695
587.3455, 7.822651
587.8276, 8.425174
588.3097, 8.165114
588.7918, 6.790386
589.2739, 6.202652
589.7560, 7.694086
590.2382, 9.591856
590.7203, 9.706207
591.2024, 8.074759
591.6845, 6.897088
592.1666, 7.509851
592.6487, 8.338765
593.1309, 7.359403
593.6130, 5.257730
594.0951, 4.930935
594.5772, 7.855924
595.0593, 11.58963
595.5414, 11.54832
596.0236, 5.358801
596.5057, 2.467567
596.9878, 5.802318
597.4699, 8.879069
597.9520, 8.242970
598.4341, 5.673072
598.9163, 4.648009
599.3984, 6.645222
599.8805, 9.403710
600.3626, 9.369260
600.8447, 6.662037
601.3268, 6.049812
601.8090, 8.979013
602.2911, 12.08171
602.7732, 12.71987
603.2553, 11.92694
603.7374, 11.70924
604.2195, 12.49130
604.7017, 13.55388
605.1838, 15.37847
605.6659, 16.92739
606.1480, 16.17866
606.6301, 12.99447
607.1122, 9.300979
607.5944, 6.512452
608.0765, 4.697844
608.5586, 4.424862
609.0407, 7.762223
609.5228, 9.801040
610.0049, 9.211558
610.4871, 7.903208
610.9692, 7.571265
611.4513, 8.093363
611.9334, 7.919203
612.4155, 5.366691
612.8976, 1.942276
613.3798, 1.638564
613.8619, 4.823045
614.3440, 7.186492
614.8261, 7.145862
615.3082, 6.120658
615.7903, 5.575328
616.2725, 5.482513
616.7546, 5.832211
617.2367, 6.925412
617.7188, 8.171571
618.2009, 9.505877
618.6830, 10.64454
619.1652, 10.76310
619.6473, 9.603799
620.1294, 8.312017
620.6115, 8.540747
621.0936, 10.58236
621.5757, 11.93408
622.0579, 12.78204
622.5400, 12.63668
623.0221, 10.52233
623.5042, 7.785043
623.9863, 5.686467
624.4684, 4.568808
624.9506, 4.767307
625.4327, 7.724495
625.9147, 12.10075
626.3969, 14.05069
626.8790, 13.26388
627.3611, 11.30509
627.8432, 8.224387
628.3253, 5.077635
628.8074, 4.646311
629.2896, 7.863780
629.7717, 10.23757
630.2538, 10.84926
630.7359, 10.63654
631.2180, 10.00381
631.7001, 9.141669
632.1823, 8.172338
632.6644, 7.141317
633.1465, 6.439808
633.6286, 7.206301
634.1107, 10.11098
634.5928, 11.01724
635.0750, 7.594560
635.5571, 4.856312
636.0392, 5.660752
636.5213, 8.640371
637.0034, 11.60902
637.4855, 14.24043
637.9677, 16.05139
638.4498, 16.57771
638.9319, 16.06015
639.4140, 14.60731
639.8961, 12.29650
640.3782, 10.37759
640.8604, 9.858942
641.3425, 10.31512
641.8246, 10.00289
642.3067, 8.152815
642.7888, 6.567541
643.2709, 4.772928
643.7531, 3.670228
644.2352, 4.212628
644.7173, 5.984062
645.1994, 7.761821
645.6815, 8.851396
646.1636, 9.643229
646.6458, 11.21554
647.1279, 13.55834
647.6100, 13.85625
648.0921, 10.65901
648.5742, 7.313792
649.0563, 6.923799
649.5385, 8.719959
650.0206, 9.801402
650.5027, 9.270174
650.9848, 8.914245
651.4669, 9.949385
651.9490, 11.27542
652.4312, 11.29229
652.9133, 9.975143
653.3954, 8.760387
653.8775, 8.869812
654.3596, 9.813150
654.8417, 9.363297
655.3239, 6.606208
655.8060, 4.649361
656.2881, 4.064711
656.7702, 4.385253
657.2523, 5.752997
657.7344, 7.879616
658.2166, 9.962995
658.6987, 12.23036
659.1808, 13.59697
659.6629, 12.05773
660.1450, 8.797006
660.6271, 7.394936
661.1093, 8.715744
661.5914, 10.73789
662.0735, 11.69029
662.5556, 11.64229
663.0377, 11.57155
663.5198, 11.18476
664.0020, 11.16842
664.4841, 12.38269
664.9662, 13.39820
665.4483, 12.91451
665.9304, 11.05753
666.4125, 8.767997
666.8947, 6.202914
667.3768, 4.198113
667.8589, 5.023480
668.3410, 8.564175
668.8231, 10.18201
669.3052, 8.032149
669.7874, 5.520792
670.2695, 6.468592
670.7516, 10.46632
671.2337, 12.18636
671.7158, 8.947465
672.1979, 6.606189
672.6801, 8.067902
673.1622, 10.79356
673.6443, 11.77979
674.1264, 10.85650
674.6085, 10.09707
675.0906, 11.27870
675.5728, 13.54701
676.0549, 13.92916
676.5370, 12.01234
677.0191, 9.963660
677.5012, 7.560489
677.9833, 5.899991
678.4655, 6.368095
678.9476, 8.339304
679.4297, 9.489819
679.9118, 8.322412
680.3939, 7.435034
680.8760, 9.121778
681.3582, 11.78373
681.8403, 12.67693
682.3224, 11.47721
682.8045, 10.02196
683.2866, 9.826447
683.7687, 10.60217
684.2509, 10.98580
684.7330, 11.05495
685.2151, 10.55882
685.6972, 8.519586
686.1793, 6.745485
686.6614, 6.319874
687.1436, 7.031058
687.6257, 8.223589
688.1078, 10.13134
688.5899, 11.57225
689.0720, 11.08997
689.5541, 9.407515
690.0363, 8.143452
690.5184, 7.582917
691.0005, 7.306270
691.4826, 6.891932
691.9647, 6.565553
692.4468, 7.487529
692.9290, 11.65230
693.4111, 13.81542
693.8932, 12.29995
694.3753, 10.21697
694.8574, 9.413728
695.3395, 9.562453
695.8217, 9.404235
696.3038, 8.238104
696.7859, 7.149059
697.2680, 7.756269
697.7501, 9.461975
698.2322, 10.05987
698.7144, 9.184137
699.1965, 7.979913
699.6786, 7.063660
700.1607, 6.515119
700.6428, 6.658505
701.1249, 8.456833
701.6071, 9.360194
702.0892, 8.374444
702.5713, 7.391115
703.0534, 7.732106
703.5355, 8.914644
704.0176, 9.828418
704.4998, 10.01364
704.9819, 9.790215
705.4640, 9.343158
705.9461, 8.777186
706.4282, 8.705579
706.9103, 9.265336
707.3925, 9.668180
707.8745, 9.384780
708.3566, 8.746320
708.8387, 8.667783
709.3209, 9.822281
709.8030, 9.547638
710.2851, 5.370203
710.7672, 2.007370
711.2493, 2.684117
711.7314, 5.868125
712.2136, 9.245280
712.6957, 11.93390
713.1778, 13.21471
713.6599, 11.54137
714.1420, 7.591767
714.6241, 4.891551
715.1063, 3.499593
715.5884, 3.410635
716.0705, 5.140973
716.5526, 7.622239
717.0347, 9.357528
717.5168, 10.37334
717.9990, 10.60103
718.4811, 9.698786
718.9632, 8.366297
719.4453, 5.851443
719.9274, 3.599056
720.4095, 3.962788
720.8917, 7.189673
721.3738, 10.94119
721.8559, 13.40012
722.3380, 14.53682
722.8201, 13.79361
723.3022, 10.86903
723.7844, 8.684287
724.2665, 8.220508
724.7486, 8.543186
725.2307, 8.475978
725.7128, 8.139402
726.1949, 9.141053
726.6771, 14.54711
727.1592, 17.63853
727.6413, 13.81250
728.1234, 8.031750
728.6055, 5.586776
729.0876, 6.816046
729.5698, 9.220045
730.0519, 11.39901
730.5340, 12.90649
731.0161, 12.42084
731.4982, 9.872141
731.9803, 7.752361
732.4625, 6.309019
732.9446, 5.736639
733.4267, 6.603277
733.9088, 8.453744
734.3909, 9.497170
734.8730, 9.176908
735.3552, 9.100574
735.8373, 9.649141
736.3194, 10.51277
736.8015, 11.97973
737.2836, 13.50594
737.7657, 13.79393
738.2479, 12.23550
738.7300, 9.974440
739.2121, 8.286336
739.6942, 7.218001
740.1763, 7.534233
740.6584, 9.700688
741.1406, 11.18373
741.6227, 10.48634
742.1048, 8.599612
742.5869, 7.225392
743.0690, 6.338711
743.5511, 5.978103
744.0333, 6.189409
744.5154, 6.882544
744.9975, 9.041653
745.4796, 11.19687
745.9617, 10.73131
746.4438, 7.411450
746.9260, 4.348256
747.4081, 4.572289
747.8902, 6.968776
748.3723, 8.837733
748.8544, 10.18883
749.3365, 10.00022
749.8187, 7.293472
750.3008, 4.835262
750.7829, 6.000532
751.2650, 10.61897
751.7471, 12.70564
752.2292, 9.636427
752.7114, 7.789875
753.1935, 9.481284
753.6756, 11.89994
754.1577, 12.89728
754.6398, 12.43892
755.1219, 11.17878
755.6041, 9.116497
756.0862, 7.577812
756.5683, 8.984473
757.0504, 12.51050
757.5325, 14.82457
758.0146, 15.52711
758.4968, 14.82874
758.9789, 12.39475
759.4610, 9.268447
759.9431, 8.140243
760.4252, 10.30981
760.9073, 11.41324
761.3895, 11.15551
761.8716, 10.24154
762.3537, 7.782319
762.8358, 5.382174
763.3179, 5.648558
763.8000, 9.041479
764.2822, 12.15919
764.7643, 12.26282
765.2464, 10.79231
765.7285, 9.649426
766.2106, 8.877431
766.6927, 8.527844
767.1749, 8.627223
767.6570, 8.933027
768.1391, 9.182803
768.6212, 9.383533
769.1033, 9.684237
769.5854, 10.43151
770.0676, 10.67631
770.5497, 9.278216
771.0318, 8.223570
771.5139, 9.739352
771.9960, 12.78589
772.4781, 13.78419
772.9603, 10.49565
773.4424, 7.177251
773.9245, 7.157115
774.4066, 8.694051
774.8887, 9.213474
775.3708, 8.626018
775.8530, 8.163119
776.3351, 8.502607
776.8172, 9.418504
777.2993, 10.79734
777.7814, 12.95053
778.2635, 13.14076
778.7457, 10.19188
779.2278, 7.512689
779.7099, 6.413641
780.1920, 6.525997
780.6741, 7.720192
781.1563, 10.10478
781.6384, 11.76955
782.1205, 12.04202
782.6026, 11.69853
783.0847, 11.04032
783.5668, 10.11859
784.0490, 8.734696
784.5311, 7.017000
785.0132, 5.747766
785.4953, 5.621906
785.9774, 6.261050
786.4595, 6.541570
786.9417, 6.459504
787.4238, 7.769499
787.9059, 11.36859
788.3880, 14.45818
788.8701, 14.63037
789.3522, 12.65608
789.8344, 11.60049
790.3164, 12.29308
790.7985, 12.32930
791.2806, 11.29267
791.7628, 9.861230
792.2449, 7.361186
792.7270, 5.092890
793.2091, 5.730208
793.6912, 9.977700
794.1733, 13.77229
794.6555, 13.17185
795.1376, 10.21822
795.6197, 8.233441
796.1018, 7.227631
796.5839, 6.847828
797.0660, 6.999711
797.5482, 7.358621
798.0303, 7.571189
798.5124, 7.652613
798.9945, 7.839232
799.4766, 8.211705
799.9587, 8.534954
800.4409, 9.139468
800.9230, 9.342823
801.4051, 8.114153
801.8872, 6.175928
802.3693, 5.668320
802.8514, 7.938432
803.3336, 9.541619
803.8157, 7.660385
804.2978, 4.969439
804.7799, 4.324786
805.2620, 5.508368
805.7441, 7.438073
806.2263, 9.602858
806.7084, 11.10581
807.1905, 10.26542
807.6726, 7.443095
808.1547, 6.382008
808.6368, 7.508358
809.1190, 7.740565
809.6011, 5.122569
810.0832, 2.759761
810.5653, 4.926039
811.0474, 11.60956
811.5295, 15.26685
812.0117, 13.86959
812.4938, 12.24742
812.9759, 10.91568
813.4580, 10.06412
813.9401, 10.37136
814.4222, 11.25413
814.9044, 11.05914
815.3865, 8.875034
815.8686, 6.601636
816.3507, 6.106003
816.8328, 6.864453
817.3149, 8.308254
817.7971, 10.14450
818.2792, 10.66227
818.7613, 8.994025
819.2434, 6.780269
819.7255, 6.490968
820.2076, 8.218824
820.6898, 9.200128
821.1719, 9.082163
821.6540, 8.950040
822.1361, 9.011995
822.6182, 9.227171
823.1003, 9.784671
823.5825, 10.51893
824.0646, 10.63902
824.5467, 9.363925
825.0288, 8.410938
825.5109, 8.769044
825.9930, 9.504059
826.4752, 9.375647
826.9573, 8.821606
827.4394, 9.610080
827.9215, 12.55436
828.4036, 15.36253
828.8857, 14.54524
829.3679, 11.23739
829.8500, 9.775935
830.3321, 10.27970
830.8142, 11.85736
831.2963, 14.63884
831.7784, 16.60474
832.2606, 14.94891
832.7427, 9.756563
833.2248, 6.639130
833.7069, 6.338095
834.1890, 7.057535
834.6711, 10.45908
835.1533, 12.99710
835.6354, 11.46561
836.1175, 7.403478
836.5996, 4.917365
837.0817, 5.425054
837.5638, 6.298489
838.0460, 5.915230
838.5281, 5.391604
839.0102, 6.089019
839.4923, 7.626571
839.9744, 9.033121
840.4565, 9.914453
840.9387, 10.01620
841.4208, 8.707072
841.9029, 6.519890
842.3850, 5.693312
842.8671, 6.285138
843.3492, 6.930293
843.8314, 7.311139
844.3135, 7.589979
844.7956, 7.691968
845.2777, 7.839786
845.7598, 9.172947
846.2419, 13.82005
846.7241, 16.22575
847.2062, 15.04552
847.6883, 13.16515
848.1704, 11.36647
848.6525, 9.979784
849.1346, 9.466058
849.6168, 9.914187
850.0989, 10.53923
850.5810, 11.26101
851.0631, 11.68624
851.5452, 11.11434
852.0273, 10.09459
852.5095, 9.738602
852.9916, 10.19835
853.4737, 10.78125
853.9558, 10.95682
854.4379, 11.38953
854.9200, 11.68933
855.4022, 11.82990
855.8843, 12.13139
856.3664, 11.99234
856.8485, 11.94769
857.3306, 12.41350
857.8127, 12.97258
858.2949, 12.78968
858.7770, 11.61524
859.2591, 10.82884
859.7412, 10.95529
860.2233, 10.78171
860.7054, 9.470612
861.1876, 8.169695
861.6697, 7.890654
862.1518, 8.592407
862.6339, 9.725489
863.1160, 11.44148
863.5981, 12.89446
864.0803, 13.51491
864.5624, 13.58422
865.0445, 13.10560
865.5266, 12.39048
866.0087, 12.29859
866.4908, 13.17672
866.9730, 14.35869
867.4551, 15.08532
867.9372, 15.41544
868.4193, 15.95558
868.9014, 16.72851
869.3835, 15.25347
869.8657, 10.14832
870.3478, 5.649063
870.8299, 6.136193
871.3120, 10.52235
871.7941, 12.64069
872.2762, 11.03987
872.7583, 9.956562
873.2404, 9.816088
873.7225, 9.960051
874.2047, 10.26619
874.6868, 10.62679
875.1689, 11.06675
875.6510, 11.62757
876.1331, 11.43203
876.6152, 8.875625
877.0974, 6.894587
877.5795, 8.009914
878.0616, 10.41191
878.5437, 11.92265
879.0258, 12.14732
879.5079, 11.27573
879.9901, 9.131882
880.4722, 7.091353
880.9543, 7.713980
881.4364, 9.952548
881.9185, 10.04718
882.4006, 7.913347
882.8828, 6.467334
883.3649, 7.075831
883.8470, 8.274238
884.3291, 7.807166
884.8112, 9.437686
885.2933, 6.619981
885.7755, 11.89826
886.2576, 15.61209
886.7397, 16.89798
887.2218, 15.87885
887.7039, 10.36571
888.1860, 2.721371
888.6682, 0.4084514
889.1503, 6.610122
889.6324, 10.89505
890.1145, 10.12300
890.5966, 8.909290
891.0787, 10.66816
891.5609, 12.93832
892.0430, 11.30417
892.5251, 5.757325
893.0072, 1.867463
893.4893, 3.461263
893.9714, 7.174273
894.4536, 11.12428
894.9357, 14.36730
895.4178, 14.41330
895.8999, 11.74493
896.3820, 9.882445
896.8641, 10.70157
897.3463, 12.37741
897.8284, 12.13303
898.3105, 10.22547
898.7926, 8.569058
899.2747, 7.150208
899.7568, 6.307467
900.2390, 6.062128
900.7211, 6.833524
901.2032, 9.478941
901.6853, 13.42010
902.1674, 14.99046
902.6495, 13.22253
903.1317, 11.04827
903.6138, 7.569281
904.0959, 4.924192
904.5780, 4.016162
905.0601, 4.500610
905.5422, 6.483316
906.0244, 10.09477
906.5065, 12.25694
906.9886, 11.27964
907.4707, 9.834469
907.9528, 8.795420
908.4349, 8.151369
908.9171, 7.608696
909.3992, 7.404592
909.8813, 8.500998
910.3634, 11.57663
910.8455, 14.49123
911.3276, 15.12900
911.8098, 14.42530
912.2919, 13.72921
912.7740, 13.08715
913.2561, 12.36591
913.7382, 11.50950
914.2203, 10.32469
914.7025, 8.468789
915.1846, 6.403890
915.6667, 5.716508
916.1488, 6.420349
916.6309, 6.447746
917.1130, 5.313172
917.5952, 4.893267
918.0773, 6.555329
918.5594, 8.907029
919.0415, 9.439610
919.5236, 7.883901
920.0057, 6.557807
920.4879, 5.093136
920.9700, 4.462791
921.4521, 5.217147
921.9342, 6.574651
922.4163, 8.654534
922.8984, 10.88497
923.3806, 11.49065
923.8627, 9.545201
924.3448, 7.846995
924.8269, 6.520224
925.3090, 6.235420
925.7911, 8.943874
926.2733, 12.12111
926.7554, 11.56955
927.2375, 7.328902
927.7196, 4.299751
928.2017, 5.752080
928.6838, 8.535762
929.1660, 9.983237
929.6481, 10.78113
930.1302, 12.47971
930.6123, 14.65773
931.0944, 15.18685
931.5765, 13.20789
932.0587, 10.23932
932.5408, 7.583906
933.0229, 5.544909
933.5050, 5.597063
933.9871, 7.507309
934.4692, 8.591712
934.9514, 8.239597
935.4335, 7.623113
935.9156, 7.578304
936.3977, 7.810887
936.8798, 7.573611
937.3619, 6.748427
937.8441, 6.025787
938.3262, 5.047289
938.8083, 5.203801
939.2904, 8.059093
939.7725, 10.84793
940.2546, 10.21455
940.7368, 6.651609
941.2189, 4.808226
941.7010, 6.001520
942.1831, 6.819403
942.6652, 6.966971
943.1473, 6.858376
943.6295, 6.512126
944.1116, 6.128070
944.5937, 6.024032
945.0758, 6.220479
945.5579, 6.262969
946.0400, 4.998721
946.5222, 4.760271
947.0043, 8.219784
947.4864, 12.16226
947.9685, 13.04105
948.4506, 11.49216
948.9327, 9.913162
949.4149, 9.176562
949.8970, 9.058415
950.3791, 10.02676
950.8612, 11.01571
951.3433, 9.885588
951.8254, 7.756271
952.3076, 7.694460
952.7897, 9.962819
953.2718, 12.23934
953.7539, 13.07003
954.2360, 12.90087
954.7181, 12.54345
955.2002, 11.86725
955.6823, 9.776489
956.1644, 6.282211
956.6465, 3.619332
957.1287, 2.510612
957.6108, 2.374050
958.0929, 2.631541
958.5750, 3.408419
959.0571, 5.589644
959.5392, 9.861306
960.0214, 11.97575
960.5035, 11.05775
960.9856, 9.517674
961.4677, 8.343766
961.9498, 7.211949
962.4319, 5.296803
962.9141, 2.537263
963.3962, 2.263356
963.8783, 7.128796
964.3604, 10.37789
964.8425, 10.35706
965.3246, 9.722275
965.8068, 10.05293
966.2889, 10.63459
966.7710, 9.753757
967.2531, 6.951921
967.7352, 6.017849
968.2173, 10.68744
968.6995, 13.65947
969.1816, 10.10209
969.6637, 5.164918
970.1458, 3.604953
970.6279, 4.802104
971.1100, 6.013687
971.5922, 6.422381
972.0743, 6.513258
972.5564, 6.086130
973.0385, 5.930156
973.5206, 7.392089
974.0027, 9.278845
974.4849, 9.568372
974.9670, 8.219298
975.4491, 6.545159
975.9312, 5.170487
976.4133, 4.266679
976.8954, 4.167977
977.3776, 4.599606
977.8597, 4.976929
978.3418, 5.418135
978.8239, 6.957862
979.3060, 9.617215
979.7881, 10.72977
980.2703, 7.774271
980.7524, 3.161914
981.2345, 2.124494
981.7166, 4.084891
982.1987, 5.561059
982.6808, 6.307709
983.1630, 7.179534
983.6451, 8.544551
984.1272, 9.738481
984.6093, 10.04694
985.0914, 9.552777
985.5735, 8.570358
986.0557, 7.042216
986.5378, 5.259449
987.0199, 2.893513
987.5020, 1.701946
987.9841, 2.865909
988.4662, 5.037472
988.9484, 6.341064
989.4305, 6.777021
989.9126, 7.260667
990.3947, 7.855053
990.8768, 8.373151
991.3589, 8.976748
991.8411, 9.220679
992.3232, 8.306543
992.8053, 7.154880
993.2874, 7.706337
993.7695, 10.35518
994.2516, 11.79343
994.7338, 11.49183
995.2159, 10.65835
995.6980, 8.239884
996.1801, 6.600827
996.6622, 8.228563
997.1443, 11.50513
997.6265, 13.20963
998.1086, 12.83107
998.5907, 11.51611
999.0728, 7.882218
999.5549, 5.447142
1000.037, 6.838941
1000.519, 9.219436
1001.001, 9.861917
1001.483, 9.187009
1001.966, 9.113108
1002.448, 10.33776
1002.930, 11.00008
1003.412, 9.447266
1003.894, 7.738090
1004.376, 7.408283
1004.858, 7.810935
1005.340, 8.412343
1005.822, 8.825989
1006.305, 8.046741
1006.787, 5.396338
1007.269, 3.324809
1007.751, 4.545492
1008.233, 6.866577
1008.715, 7.923792
1009.197, 8.018221
1009.679, 7.713270
1010.161, 7.277477
1010.644, 7.232763
1011.126, 7.950160
1011.608, 8.651977
1012.090, 8.132305
1012.572, 7.083684
1013.054, 6.758937
1013.536, 7.138463
1014.018, 8.349485
1014.501, 10.19957
1014.983, 11.10393
1015.465, 9.822314
1015.947, 10.46214
1016.429, 7.511130
1016.911, 8.417088
1017.393, 7.035323
1017.875, 3.778363
1018.357, 3.154362
1018.840, 6.377077
1019.322, 10.03558
1019.804, 11.44585
1020.286, 11.09474
1020.768, 9.502076
1021.250, 6.871309
1021.732, 6.260111
1022.214, 7.852438
1022.697, 9.109197
1023.179, 9.229342
1023.661, 8.635273
1024.143, 7.507547
1024.625, 6.332212
1025.107, 6.977577
1025.589, 9.710146
1026.071, 10.87185
1026.553, 10.01616
1027.036, 9.368901
1027.518, 9.789623
1028.000, 10.33663
1028.482, 10.05402
1028.964, 9.179151
1029.446, 8.904389
1029.928, 9.832491
1030.410, 8.509510
1030.892, 3.539431
1031.375, 4.6855599E-02
1031.857, 0.3622169
1032.339, 1.897272
1032.821, 1.920778
1033.303, 0.9376413
1033.785, 1.607475
1034.267, 4.785880
1034.749, 7.579980
1035.232, 10.78740
1035.714, 12.01122
1036.196, 8.949648
1036.678, 5.198995
1037.160, 4.534141
1037.642, 6.420090
1038.124, 7.743241
1038.606, 8.248752
1039.089, 8.677691
1039.571, 9.195071
1040.053, 9.411112
1040.535, 9.321408
1041.017, 8.770255
1041.499, 7.076097
1041.981, 4.640929
1042.463, 3.754851
1042.945, 5.678812
1043.427, 6.758707
1043.910, 5.788202
1044.392, 5.271019
1044.874, 6.449286
1045.356, 8.196959
1045.838, 9.878516
1046.320, 11.21155
1046.802, 11.03059
1047.284, 7.902423
1047.767, 6.267976
1048.249, 8.009698
1048.731, 9.748532
1049.213, 10.92829
1049.695, 10.85083
1050.177, 7.364477
1050.659, 1.935252
1051.141, 0.5002070
1051.624, 6.029988
1052.106, 10.05496
1052.588, 9.626175
1053.070, 8.747284
1053.552, 9.813458
1054.034, 10.83993
1054.516, 9.040659
1054.998, 5.365342
1055.480, 3.694036
1055.963, 5.581658
1056.445, 6.774941
1056.927, 4.904939
1057.409, 3.468593
1057.891, 4.810332
1058.373, 6.905735
1058.855, 7.710978
1059.337, 7.422600
1059.819, 7.204805
1060.302, 7.330982
1060.784, 7.510132
1061.266, 7.208590
1061.748, 7.458229
1062.230, 10.03275
1062.712, 12.41477
1063.194, 11.24372
1063.676, 7.844073
1064.159, 6.424390
1064.641, 8.296129
1065.123, 9.664865
1065.605, 8.658840
1066.087, 7.223155
1066.569, 5.957662
1067.051, 5.092655
1067.533, 4.634036
1068.016, 4.783574
1068.498, 6.446593
1068.980, 9.989370
1069.462, 11.89340
1069.944, 9.227124
1070.426, 6.331912
1070.908, 5.390713
1071.390, 5.335541
1071.872, 5.208045
1072.354, 5.106398
1072.837, 5.565886
1073.319, 6.685081
1073.801, 7.635603
1074.283, 7.943101
1074.765, 8.140176
1075.247, 8.756068
1075.729, 9.143931
1076.211, 8.162240
1076.694, 6.760114
1077.176, 7.243150
1077.658, 9.757588
1078.140, 10.69240
1078.622, 6.453116
1079.104, 3.325258
1079.586, 5.976642
1080.068, 9.362546
1080.550, 9.161530
1081.033, 6.986005
1081.515, 5.807906
1081.997, 5.963673
1082.479, 5.678094
1082.961, 3.272492
1083.443, 2.285834
1083.925, 6.409892
1084.407, 10.43415
1084.890, 9.825421
1085.372, 7.178011
1085.854, 5.964530
1086.336, 6.542202
1086.818, 7.983977
1087.300, 10.88304
1087.782, 12.05665
1088.264, 7.978333
1088.746, 4.210303
1089.229, 5.282159
1089.711, 7.923267
1090.193, 7.949145
1090.675, 5.831717
1091.157, 4.802796
1091.639, 6.001679
1092.121, 7.025458
1092.603, 6.523026
1093.085, 6.159565
1093.568, 7.713956
1094.050, 9.063246
1094.532, 7.319656
1095.014, 3.804757
1095.496, 2.188151
1095.978, 3.407166
1096.460, 4.648295
1096.942, 4.969532
1097.425, 5.219728
1097.907, 6.348526
1098.389, 6.959878
1098.871, 5.181743
1099.353, 2.382364
1099.835, 1.476527
1100.317, 2.865975
1100.799, 3.067895
1101.281, -1.404963
1101.764, -3.410183
1102.246, 1.754143
1102.728, 6.979981
1103.210, 7.167490
1103.692, 5.074755
1104.174, 5.002106
1104.656, 6.995801
1105.138, 7.719394
1105.620, 5.514638
1106.103, 3.873616
1106.585, 3.058476
1107.067, 3.244965
1107.549, 5.208993
1108.031, 7.693264
1108.513, 9.799084
1108.995, 11.29683
1109.477, 11.30257
1109.960, 8.821045
1110.442, 7.157724
1110.924, 7.663074
1111.406, 7.535266
1111.888, 4.744573
1112.370, 2.150934
1112.852, 2.092437
1113.334, 3.943988
1113.817, 6.520159
1114.299, 10.66653
1114.781, 11.58334
1115.263, 5.968702
1115.745, 2.573293
1116.227, 4.358057
1116.709, 6.571976
1117.191, 6.330061
1117.673, 4.962919
1118.156, 4.615796
1118.638, 5.302228
1119.120, 5.857993
1119.602, 6.572240
1120.084, 6.319442
1120.566, 4.031617
1121.048, 2.878137
1121.530, 4.901242
1122.012, 7.593441
1122.495, 7.988940
1122.977, 6.547412
1123.459, 5.744531
1123.941, 5.626698
1124.423, 6.085404
1124.905, 7.456441
1125.387, 8.178485
1125.869, 7.764219
1126.352, 6.454825
1126.834, 4.068171
1127.316, 1.629079
1127.798, 1.895901
1128.280, 4.981146
1128.762, 7.341377
1129.244, 8.983447
1129.726, 9.663447
1130.208, 9.317276
1130.691, 7.980952
1131.173, 5.542252
1131.655, 2.812168
1132.137, 0.9142956
1132.619, -0.1756597
1133.101, -0.4040834
1133.583, 0.1619418
1134.065, 0.3667689
1134.547, 0.1510447
1135.030, 1.354169
1135.512, 4.701316
1135.994, 7.991349
1136.476, 9.113171
1136.958, 9.944530
1137.440, 8.542809
1137.922, 8.133890
1138.404, 5.720487
1138.887, 2.049731
1139.369, 1.317939
1139.851, 4.189613
1140.333, 7.382001
1140.815, 8.925229
1141.297, 9.275599
1141.779, 8.516733
1142.261, 7.306608
1142.744, 6.683282
1143.226, 6.595044
1143.708, 6.907788
1144.190, 7.578219
1144.672, 8.868853
1145.154, 10.80736
1145.636, 11.84215
1146.118, 10.07199
1146.600, 7.680941
1147.083, 6.541903
1147.565, 6.335365
1148.047, 7.346793
1148.529, 8.704071
1149.011, 8.594401
1149.493, 6.900125
1149.975, 5.319001
1150.457, 4.538560
1150.939, 4.316824
1151.422, 4.971528
1151.904, 5.626268
1152.386, 5.536238
1152.868, 5.152746
1153.350, 5.015989
1153.832, 5.114460
1154.314, 5.138640
1154.796, 4.948361
1155.279, 5.193699
1155.761, 6.204791
1156.243, 7.488912
1156.725, 9.864179
1157.207, 11.44821
1157.689, 9.887229
1158.171, 7.210375
1158.653, 7.142891
1159.135, 9.789004
1159.618, 10.77254
1160.100, 8.489415
1160.582, 6.723850
1161.064, 5.568730
1161.546, 5.008293
1162.028, 5.683192
1162.510, 6.195656
1162.992, 5.283988
1163.474, 3.187790
1163.957, 0.2058302
1164.439, -4.646279
1164.921, -4.083724
1165.403, 4.411232
1165.885, 9.085259
1166.367, 6.605447
1166.849, 3.845933
1167.331, 4.882011
1167.813, 7.362350
1168.296, 7.963532
1168.778, 6.995669
1169.260, 5.845158
1169.742, 4.538414
1170.224, 5.372960
1170.706, 8.473510
1171.188, 10.17214
1171.670, 9.247947
1172.153, 7.457671
1172.635, 6.159392
1173.117, 5.116890
1173.599, 3.494784
1174.081, 1.923377
1174.563, 2.935222
1175.045, 5.581698
1175.527, 6.357599
1176.010, 5.120383
1176.492, 4.264451
1176.974, 4.832542
1177.456, 5.976239
1177.938, 7.305833
1178.420, 8.337745
1178.902, 8.583495
1179.384, 8.128536
1179.866, 6.400799
1180.349, 4.342232
1180.831, 4.081631
1181.313, 5.621496
1181.795, 6.705546
1182.277, 6.235428
1182.759, 5.633648
1183.241, 5.593442
1183.723, 5.741450
1184.205, 5.493839
1184.688, 5.620016
1185.170, 7.757892
1185.652, 10.63094
1186.134, 11.16085
1186.616, 8.821395
1187.098, 6.295771
1187.580, 2.029096
1188.062, 0.6345467
1188.545, 6.113318
1189.027, 10.56784
1189.509, 9.661639
1189.991, 7.032751
1190.473, 6.459288
1190.955, 7.294505
1191.437, 6.811971
1191.919, 4.356745
1192.401, 3.653979
1192.884, 5.353688
1193.366, 6.324142
1193.848, 5.509689
1194.330, 5.816821
1194.812, 9.420994
1195.294, 13.18073
1195.776, 12.39803
1196.258, 8.252723
1196.740, 5.462005
1197.223, 4.003485
1197.705, 3.919829
1198.187, 4.985754
1198.669, 4.887800
1199.151, 3.115779
1199.633, 2.115626
1200.115, 3.645580
1200.597, 6.126360
1201.080, 8.092457
1201.562, 9.209597
1202.044, 8.485966
1202.526, 6.691492
1203.008, 5.052781
1203.490, 3.822310
1203.972, 2.975924
1204.454, 2.554345
1204.937, 3.090368
1205.419, 5.811370
1205.901, 7.754389
1206.383, 5.960536
1206.865, 3.788691
1207.347, 3.953573
1207.829, 5.162575
1208.311, 5.877115
1208.793, 6.031433
1209.276, 5.973832
1209.758, 5.656798
1210.240, 5.731661
1210.722, 6.162200
1211.204, 7.197602
1211.686, 10.62441
1212.168, 12.43051
1212.650, 9.375082
1213.132, 5.255524
1213.615, 4.804624
1214.097, 7.105134
1214.579, 7.533570
1215.061, 5.437002
1215.543, 4.816031
1216.025, 5.846928
1216.507, 7.683266
1216.989, 10.36152
1217.472, 11.73925
1217.954, 10.48992
1218.436, 7.840737
1218.918, 5.104522
1219.400, 2.680630
1219.882, 1.691465
1220.364, 1.987908
1220.846, 3.890534
1221.328, 6.575045
1221.811, 6.489640
1222.293, 3.332903
1222.775, 0.9772861
1223.257, 1.681729
1223.739, 2.946724
1224.221, 2.334793
1224.703, 1.384530
1225.185, 1.207857
1225.667, 1.868017
1226.150, 3.754552
1226.632, 6.355510
1227.114, 9.318775
1227.596, 12.25803
1228.078, 12.91536
1228.560, 8.854619
1229.042, 6.262509
1229.524, 8.087157
1230.007, 9.645829
1230.489, 8.579412
1230.971, 7.134325
1231.453, 7.379531
1231.935, 8.174363
1232.417, 7.126722
1232.899, 6.925836
1233.381, 6.628152
1233.864, 5.032896
1234.346, 5.495655
1234.828, 4.139851
1235.310, 3.233273
1235.792, 3.500819
1236.274, 4.688467
1236.756, 6.765127
1237.238, 8.783993
1237.720, 8.813139
1238.203, 7.557029
1238.685, 7.516673
1239.167, 8.182223
1239.649, 7.950334
1240.131, 6.780228
1240.613, 5.012628
1241.095, 2.946761
1241.577, 1.813645
1242.059, 2.672173
1242.542, 3.626396
1243.024, 2.207703
1243.506, 1.309746
1243.988, 4.490690
1244.470, 8.595626
1244.952, 10.15251
1245.434, 9.611658
1245.916, 8.535084
1246.398, 7.164511
1246.881, 5.647309
1247.363, 2.796857
1247.845, 1.816520
1248.327, 4.198099
1248.809, 6.564080
1249.291, 8.395185
1249.773, 8.968869
1250.255, 7.141240
1250.738, 4.559546
1251.220, 4.620419
1251.702, 7.043814
1252.184, 8.463713
1252.666, 8.890027
1253.148, 9.566216
1253.630, 10.46631
1254.112, 8.039800
1254.594, 1.571602
1255.077, -2.560035
1255.559, 0.3699671
1256.041, 5.460674
1256.523, 7.204763
1257.005, 6.791296
1257.487, 4.483523
1257.969, 2.137711
1258.451, 3.096409
1258.933, 6.179367
1259.416, 8.684767
1259.898, 9.854048
1260.380, 9.148574
1260.862, 5.152632
1261.344, 2.696836
1261.826, 5.107094
1262.308, 6.950511
1262.790, 4.685793
1263.273, 2.594002
1263.755, 4.378803
1264.237, 7.753191
1264.719, 9.565724
1265.201, 9.879054
1265.683, 8.924712
1266.165, 6.264929
1266.647, 5.077894
1267.130, 5.608752
1267.612, 6.168381
1268.094, 6.367598
1268.576, 6.219034
1269.058, 5.714345
1269.540, 5.106205
1270.022, 4.580658
1270.504, 4.332219
1270.986, 4.941041
1271.469, 5.950124
1271.951, 6.594438
1272.433, 6.884963
1272.915, 6.907385
1273.397, 6.745685
1273.879, 6.581667
1274.361, 6.476361
1274.843, 6.373363
1275.325, 6.578530
1275.808, 6.303181
1276.290, 3.945696
1276.772, 2.548318
1277.254, 4.603541
1277.736, 7.950219
1278.218, 11.11379
1278.700, 13.31668
1279.182, 11.95260
1279.665, 6.596450
1280.147, 3.923450
1280.629, 4.325053
1281.111, 4.671760
1281.593, 4.554709
1282.075, 5.419199
1282.557, 7.808656
1283.039, 9.309707
1283.521, 7.902688
1284.004, 5.432508
1284.486, 4.084922
1284.968, 3.861546
##END=



