##NAMES=Obradovicite-KCu
##RRUFFID=R110015
##IDEAL CHEMISTRY=[K_2_(H_2_O)_17_Cu^2+^(H_2_O)_6_][Mo^6+^_8_As^5+^_2_Fe^3+^_3_O_34_(OH)_3_]
##LOCALITY=Chuquicamata, Chile
##OWNER=RRUFF
##SOURCE=William W Pinch
##DESCRIPTION=Fine grained lime green coating on quartz
##STATUS=The identification of this mineral has been confirmed only by single crystal X-ray diffraction.
##URL=rruff.info/R110015
174.0116, 35.19767
174.4937, 34.46391
174.9758, 32.98367
175.4579, 31.61829
175.9401, 30.63497
176.4222, 30.03709
176.9043, 29.92703
177.3864, 30.46061
177.8685, 31.15802
178.3506, 31.33135
178.8328, 30.78243
179.3149, 30.42405
179.7970, 30.55939
180.2791, 31.01711
180.7612, 31.85029
181.2433, 33.18640
181.7255, 34.50669
182.2076, 34.52374
182.6897, 32.11527
183.1718, 30.46765
183.6539, 30.53361
184.1360, 31.42977
184.6181, 32.29111
185.1003, 32.70049
185.5824, 32.79700
186.0645, 33.07841
186.5466, 33.87571
187.0287, 34.45124
187.5108, 34.58903
187.9930, 34.48566
188.4751, 34.41114
188.9572, 34.52464
189.4393, 34.75707
189.9214, 34.71061
190.4035, 33.99373
190.8857, 33.43382
191.3678, 33.00051
191.8499, 32.84331
192.3320, 33.32176
192.8141, 34.76024
193.2962, 36.93834
193.7784, 38.10796
194.2605, 37.70806
194.7426, 37.17163
195.2247, 37.00520
195.7068, 37.10108
196.1889, 37.04708
196.6711, 36.47891
197.1532, 35.61688
197.6353, 35.49987
198.1174, 36.60702
198.5995, 37.93149
199.0816, 39.07824
199.5638, 40.03007
200.0459, 40.64587
200.5280, 40.68701
201.0101, 40.36361
201.4922, 40.33596
201.9743, 40.84868
202.4565, 41.43895
202.9386, 41.62366
203.4207, 41.38744
203.9028, 41.30058
204.3849, 41.58180
204.8670, 42.26084
205.3492, 43.49852
205.8313, 45.74321
206.3134, 48.01389
206.7955, 48.91869
207.2776, 48.17162
207.7597, 47.38604
208.2419, 46.91471
208.7240, 46.92462
209.2061, 47.83326
209.6882, 50.02699
210.1703, 52.65470
210.6524, 54.18771
211.1346, 54.23381
211.6167, 54.14161
212.0988, 54.58711
212.5809, 55.01833
213.0630, 54.75444
213.5451, 53.43456
214.0273, 51.65745
214.5094, 50.79559
214.9915, 51.23734
215.4736, 51.98198
215.9557, 52.97715
216.4378, 54.04620
216.9200, 55.05400
217.4021, 55.93915
217.8842, 56.68187
218.3663, 57.23356
218.8484, 57.75519
219.3305, 57.78199
219.8127, 57.00500
220.2948, 55.85987
220.7769, 54.67197
221.2590, 53.58833
221.7411, 52.75673
222.2232, 52.64425
222.7054, 54.93954
223.1875, 55.88318
223.6696, 54.15054
224.1517, 51.35283
224.6338, 49.36927
225.1159, 49.03228
225.5980, 49.81700
226.0802, 50.21423
226.5623, 49.76923
227.0444, 49.46512
227.5265, 49.59261
228.0086, 49.83686
228.4907, 49.74488
228.9729, 49.11327
229.4550, 48.17101
229.9371, 47.52182
230.4192, 47.36887
230.9013, 47.16929
231.3834, 46.63310
231.8656, 46.04824
232.3477, 45.99192
232.8298, 46.77441
233.3119, 47.81813
233.7940, 47.71424
234.2761, 46.00006
234.7583, 44.56339
235.2404, 43.98259
235.7225, 43.96860
236.2046, 44.16618
236.6867, 44.60856
237.1688, 44.83525
237.6510, 43.62555
238.1331, 40.60756
238.6152, 38.53119
239.0973, 39.13813
239.5794, 41.29128
240.0615, 42.48979
240.5437, 41.87994
241.0258, 40.52170
241.5079, 39.76441
241.9900, 39.57533
242.4721, 39.54657
242.9542, 39.72668
243.4364, 39.94664
243.9185, 39.67337
244.4006, 38.56373
244.8827, 37.38860
245.3648, 37.04978
245.8469, 37.42993
246.3290, 37.69275
246.8112, 36.92339
247.2933, 35.67323
247.7754, 35.97868
248.2575, 39.29116
248.7396, 42.11279
249.2217, 40.95802
249.7039, 36.92030
250.1860, 33.70690
250.6681, 34.06215
251.1502, 36.96449
251.6323, 38.53440
252.1144, 37.97057
252.5966, 37.05858
253.0787, 36.83947
253.5608, 37.11507
254.0429, 37.46119
254.5250, 37.82546
255.0071, 38.08451
255.4893, 37.62214
255.9714, 35.76282
256.4535, 34.28783
256.9356, 34.09285
257.4177, 34.72648
257.8998, 35.50847
258.3820, 36.20667
258.8641, 36.72120
259.3462, 36.60296
259.8283, 35.28441
260.3104, 34.27057
260.7925, 34.22388
261.2747, 34.66848
261.7568, 34.96924
262.2389, 34.78707
262.7210, 34.31222
263.2031, 34.11143
263.6852, 34.36476
264.1674, 34.59763
264.6495, 34.53584
265.1316, 34.46027
265.6137, 34.79935
266.0958, 35.77280
266.5779, 36.93170
267.0601, 37.15787
267.5422, 35.92470
268.0243, 34.64202
268.5064, 33.24712
268.9885, 32.04295
269.4706, 31.27487
269.9528, 31.03184
270.4349, 31.28543
270.9170, 32.19452
271.3991, 34.88255
271.8812, 35.89002
272.3633, 33.53159
272.8455, 30.62477
273.3276, 29.52659
273.8097, 30.70949
274.2918, 32.74029
274.7739, 33.29560
275.2560, 31.00044
275.7382, 30.20133
276.2202, 32.08142
276.7024, 34.24739
277.1845, 35.20122
277.6666, 34.74922
278.1487, 33.64053
278.6308, 32.71975
279.1129, 31.95217
279.5951, 31.53265
280.0772, 31.76237
280.5593, 32.01456
281.0414, 31.72955
281.5235, 31.06019
282.0056, 30.78408
282.4878, 31.82868
282.9699, 34.61262
283.4520, 35.62367
283.9341, 33.21129
284.4162, 30.90284
284.8983, 30.22498
285.3805, 30.89277
285.8626, 31.86479
286.3447, 32.40895
286.8268, 32.52141
287.3089, 31.96260
287.7910, 29.66329
288.2732, 27.89050
288.7553, 27.65469
289.2374, 28.40844
289.7195, 29.07093
290.2016, 28.98107
290.6837, 28.29282
291.1659, 27.85595
291.6480, 28.17177
292.1301, 28.15450
292.6122, 27.25539
293.0943, 26.00894
293.5764, 25.16181
294.0586, 25.05590
294.5407, 25.50442
295.0228, 26.00446
295.5049, 27.35751
295.9870, 27.73724
296.4691, 26.23418
296.9513, 24.08948
297.4334, 22.62972
297.9155, 22.28590
298.3976, 22.56502
298.8797, 22.65769
299.3618, 22.41849
299.8440, 22.25188
300.3261, 22.10272
300.8082, 22.05844
301.2903, 22.32817
301.7724, 22.89461
302.2545, 23.36553
302.7367, 23.26159
303.2188, 22.40851
303.7009, 21.57296
304.1830, 20.39168
304.6651, 19.50770
305.1472, 19.54299
305.6294, 20.37098
306.1115, 21.22814
306.5936, 21.44474
307.0757, 20.97555
307.5578, 20.69041
308.0399, 20.55583
308.5221, 20.59651
309.0042, 20.93857
309.4863, 21.47787
309.9684, 21.92488
310.4505, 22.05873
310.9326, 21.96908
311.4148, 22.29638
311.8969, 24.45890
312.3790, 25.36178
312.8611, 23.06292
313.3432, 19.23391
313.8253, 16.61351
314.3075, 16.49263
314.7896, 18.02550
315.2717, 19.08764
315.7538, 19.56204
316.2359, 19.72726
316.7180, 19.13252
317.2001, 18.44367
317.6823, 18.54288
318.1644, 19.66196
318.6465, 21.09701
319.1286, 21.78241
319.6107, 21.27551
320.0928, 21.01099
320.5750, 21.20282
321.0571, 21.48071
321.5392, 21.51147
322.0213, 21.28542
322.5034, 21.04889
322.9855, 20.99232
323.4677, 21.07544
323.9498, 21.84912
324.4319, 24.64438
324.9140, 26.80395
325.3961, 26.41719
325.8782, 24.12689
326.3604, 22.07852
326.8425, 21.80637
327.3246, 23.13805
327.8067, 24.12523
328.2888, 25.01516
328.7709, 25.34791
329.2531, 24.32226
329.7352, 22.77741
330.2173, 22.20863
330.6994, 23.37203
331.1815, 25.52848
331.6636, 26.68412
332.1458, 25.45773
332.6279, 24.90826
333.1100, 25.66867
333.5921, 26.87863
334.0742, 27.81028
334.5563, 28.22291
335.0385, 28.14277
335.5206, 27.55461
336.0027, 26.13093
336.4848, 25.02768
336.9669, 24.05428
337.4490, 23.49426
337.9312, 23.66387
338.4133, 24.48816
338.8954, 25.58942
339.3775, 26.68267
339.8596, 27.81754
340.3417, 28.31878
340.8239, 27.83526
341.3060, 27.18035
341.7881, 26.24224
342.2702, 25.36534
342.7523, 25.27722
343.2344, 26.49782
343.7166, 28.66950
344.1987, 30.03800
344.6808, 30.13403
345.1629, 29.86787
345.6450, 28.67130
346.1271, 27.41102
346.6093, 27.25955
347.0914, 28.59834
347.5735, 30.53124
348.0556, 31.25538
348.5377, 29.52183
349.0198, 28.85476
349.5020, 30.31326
349.9841, 31.90548
350.4662, 32.06569
350.9483, 30.76897
351.4304, 29.23696
351.9125, 28.85060
352.3947, 29.85039
352.8768, 30.39113
353.3589, 30.16777
353.8410, 29.79433
354.3231, 29.32129
354.8052, 28.86617
355.2874, 28.59754
355.7695, 28.63165
356.2516, 28.94726
356.7337, 29.44974
357.2158, 30.46341
357.6979, 31.21126
358.1800, 31.64062
358.6621, 31.71931
359.1443, 31.25040
359.6264, 30.16258
360.1085, 28.95746
360.5906, 28.57329
361.0727, 29.30173
361.5548, 30.11432
362.0370, 31.60335
362.5191, 32.62096
363.0012, 31.99326
363.4833, 29.86795
363.9654, 27.78713
364.4475, 27.67439
364.9297, 29.72993
365.4118, 30.32940
365.8939, 28.05448
366.3760, 25.80581
366.8581, 24.76926
367.3402, 24.62897
367.8224, 24.62641
368.3045, 24.28562
368.7866, 23.80692
369.2687, 23.85829
369.7508, 24.74232
370.2329, 25.48799
370.7151, 25.90517
371.1972, 25.97492
371.6793, 25.47605
372.1614, 24.26331
372.6435, 23.11177
373.1256, 23.18424
373.6078, 24.59167
374.0899, 25.60916
374.5720, 25.67550
375.0541, 25.39296
375.5362, 25.16719
376.0183, 25.01231
376.5005, 24.85791
376.9826, 24.53213
377.4647, 24.15094
377.9468, 24.16561
378.4289, 24.69079
378.9110, 25.42452
379.3932, 26.51551
379.8753, 27.64601
380.3574, 28.11216
380.8395, 27.31511
381.3216, 26.10776
381.8037, 25.52589
382.2859, 25.57753
382.7680, 25.80394
383.2501, 26.23648
383.7322, 26.56363
384.2143, 26.19989
384.6964, 24.84736
385.1786, 23.83116
385.6607, 24.21774
386.1428, 25.53205
386.6249, 26.57355
387.1070, 27.10822
387.5891, 27.18040
388.0713, 26.39545
388.5534, 24.85495
389.0355, 24.26215
389.5176, 25.70299
389.9997, 27.78667
390.4818, 29.23164
390.9640, 29.96545
391.4461, 30.27068
391.9282, 30.19886
392.4103, 29.86603
392.8924, 29.89079
393.3745, 30.78647
393.8567, 31.44805
394.3388, 31.34145
394.8209, 30.70619
395.3030, 29.88717
395.7851, 28.95663
396.2672, 28.19784
396.7494, 28.13218
397.2315, 29.01629
397.7136, 30.03655
398.1957, 31.50417
398.6778, 32.87342
399.1599, 33.77573
399.6420, 34.13933
400.1241, 33.92343
400.6063, 32.98524
401.0884, 31.28145
401.5705, 30.25246
402.0526, 30.33289
402.5347, 30.50048
403.0168, 30.39203
403.4990, 30.17542
403.9811, 30.11833
404.4632, 30.34614
404.9453, 30.86226
405.4274, 31.76694
405.9095, 33.96867
406.3917, 34.94239
406.8738, 33.69474
407.3559, 31.99874
407.8380, 31.08676
408.3201, 31.10483
408.8022, 31.45055
409.2844, 31.52191
409.7665, 31.28961
410.2486, 31.24774
410.7307, 31.48012
411.2128, 31.83091
411.6949, 32.40540
412.1771, 33.03555
412.6592, 33.52179
413.1413, 33.80395
413.6234, 33.75915
414.1055, 32.92733
414.5876, 30.83969
415.0698, 29.39048
415.5519, 29.44985
416.0340, 30.03051
416.5161, 30.60806
416.9982, 31.09015
417.4803, 31.44448
417.9625, 31.67678
418.4446, 31.77307
418.9267, 31.52797
419.4088, 30.53575
419.8909, 29.92905
420.3730, 30.92191
420.8552, 32.77433
421.3373, 33.97289
421.8194, 33.91748
422.3015, 33.09296
422.7836, 31.66097
423.2657, 29.64269
423.7479, 28.52237
424.2300, 29.38220
424.7121, 31.03587
425.1942, 31.48314
425.6763, 30.44979
426.1584, 29.65636
426.6406, 30.16090
427.1227, 31.29249
427.6048, 31.95487
428.0869, 31.96751
428.5690, 31.53240
429.0511, 30.60801
429.5333, 29.23591
430.0154, 28.68117
430.4975, 29.69404
430.9796, 30.82288
431.4617, 31.20611
431.9438, 31.04823
432.4260, 30.99131
432.9081, 31.36902
433.3902, 31.89148
433.8723, 31.85170
434.3544, 30.71774
434.8365, 29.89038
435.3187, 29.56804
435.8008, 29.46630
436.2829, 29.48289
436.7650, 29.52944
437.2471, 29.34590
437.7292, 28.60425
438.2114, 27.26979
438.6935, 26.66850
439.1756, 27.53415
439.6577, 28.32872
440.1398, 28.62575
440.6219, 28.67218
441.1040, 28.86720
441.5862, 29.37682
442.0683, 29.95108
442.5504, 30.16711
443.0325, 30.04695
443.5146, 29.49460
443.9967, 28.02102
444.4789, 26.51522
444.9610, 25.35546
445.4431, 24.57845
445.9252, 24.10966
446.4073, 23.98800
446.8894, 24.12797
447.3716, 24.24085
447.8537, 24.40123
448.3358, 24.34425
448.8179, 23.43154
449.3000, 22.46441
449.7821, 22.55926
450.2643, 24.19651
450.7464, 25.69775
451.2285, 25.13808
451.7106, 23.01878
452.1927, 22.02099
452.6748, 23.06483
453.1570, 24.53861
453.6391, 24.56926
454.1212, 23.50783
454.6033, 22.99349
455.0854, 24.07442
455.5675, 25.36568
456.0497, 25.32648
456.5318, 24.19287
457.0139, 23.65811
457.4960, 24.81901
457.9781, 26.84077
458.4602, 27.35768
458.9424, 25.72911
459.4245, 24.23637
459.9066, 22.99894
460.3887, 22.24340
460.8708, 22.42994
461.3529, 23.51340
461.8351, 24.74441
462.3172, 25.41928
462.7993, 25.51313
463.2814, 25.69691
463.7635, 26.26907
464.2456, 26.58435
464.7278, 26.29506
465.2099, 25.71336
465.6920, 25.27308
466.1741, 25.13979
466.6562, 25.15981
467.1383, 25.05729
467.6205, 24.74428
468.1026, 24.58176
468.5847, 24.98837
469.0668, 25.17830
469.5489, 24.41450
470.0310, 23.09870
470.5132, 22.35265
470.9953, 23.02456
471.4774, 24.56974
471.9595, 25.67992
472.4416, 26.37693
472.9237, 26.54402
473.4059, 25.44176
473.8880, 24.20450
474.3701, 24.03873
474.8522, 25.11557
475.3343, 26.11942
475.8164, 25.98356
476.2986, 25.16243
476.7807, 24.84262
477.2628, 25.23703
477.7449, 25.70330
478.2270, 25.86870
478.7091, 25.69817
479.1913, 25.13434
479.6734, 23.29276
480.1555, 22.03717
480.6376, 22.99762
481.1197, 25.17188
481.6018, 26.30728
482.0839, 25.62346
482.5660, 24.33061
483.0482, 24.16169
483.5303, 25.60595
484.0124, 26.41570
484.4945, 26.11426
484.9766, 25.66703
485.4587, 25.64798
485.9409, 25.90745
486.4230, 25.96007
486.9051, 25.51831
487.3872, 24.78497
487.8693, 24.35541
488.3514, 24.38088
488.8336, 24.43364
489.3157, 24.53106
489.7978, 24.60307
490.2799, 24.70762
490.7620, 24.77419
491.2441, 24.50307
491.7263, 23.26307
492.2084, 21.50871
492.6905, 21.87103
493.1726, 25.73279
493.6547, 28.37408
494.1368, 26.37952
494.6190, 22.88997
495.1011, 21.24013
495.5832, 22.22095
496.0653, 23.32962
496.5474, 22.28617
497.0295, 19.85846
497.5117, 18.45457
497.9938, 18.56307
498.4759, 19.13574
498.9580, 19.51958
499.4401, 19.67045
499.9222, 19.43807
500.4044, 17.83465
500.8865, 16.85114
501.3686, 18.18590
501.8507, 20.79480
502.3328, 22.57467
502.8149, 22.80371
503.2971, 22.02254
503.7792, 20.82577
504.2613, 18.72610
504.7434, 18.08691
505.2255, 20.58855
505.7076, 22.73092
506.1898, 22.60854
506.6719, 20.86839
507.1540, 18.92640
507.6361, 17.49893
508.1182, 16.55420
508.6003, 16.08536
509.0825, 16.27972
509.5646, 16.44731
510.0467, 16.24842
510.5288, 16.24020
511.0109, 16.98054
511.4930, 18.24605
511.9752, 19.21437
512.4573, 19.32831
512.9394, 18.83064
513.4215, 18.18225
513.9036, 17.32710
514.3857, 16.68699
514.8679, 16.69725
515.3500, 16.79230
515.8321, 16.12047
516.3142, 14.54949
516.7963, 13.28724
517.2784, 12.93721
517.7606, 13.15766
518.2427, 13.65427
518.7248, 14.35993
519.2069, 14.76513
519.6890, 14.40232
520.1711, 13.51006
520.6533, 13.30904
521.1354, 14.58000
521.6175, 15.39005
522.0996, 14.93159
522.5817, 14.14619
523.0638, 14.18128
523.5460, 15.09061
524.0281, 15.83628
524.5102, 15.31077
524.9923, 13.57140
525.4744, 12.62981
525.9565, 13.08317
526.4387, 13.60956
526.9208, 13.84560
527.4029, 14.06633
527.8850, 14.73373
528.3671, 15.92172
528.8492, 16.91348
529.3314, 16.83070
529.8135, 15.78490
530.2956, 14.83949
530.7777, 14.02513
531.2598, 13.37563
531.7419, 12.71267
532.2241, 12.27196
532.7062, 12.60205
533.1883, 14.24666
533.6704, 15.77044
534.1525, 16.08892
534.6346, 15.56857
535.1168, 15.06487
535.5989, 14.77408
536.0810, 14.46718
536.5631, 13.90312
537.0452, 13.06476
537.5273, 12.27840
538.0095, 11.39512
538.4916, 10.72056
538.9737, 10.30723
539.4558, 10.19066
539.9379, 10.43335
540.4200, 11.04729
540.9022, 11.97126
541.3843, 13.27436
541.8664, 15.20876
542.3485, 16.08926
542.8306, 15.16525
543.3127, 13.93355
543.7948, 12.39568
544.2769, 10.98723
544.7590, 10.44003
545.2411, 11.09905
545.7233, 12.10126
546.2054, 12.33084
546.6875, 11.84624
547.1696, 11.48372
547.6517, 11.33778
548.1339, 11.39480
548.6160, 11.71080
549.0981, 12.22658
549.5802, 12.81912
550.0623, 13.76512
550.5444, 14.46050
551.0266, 14.22865
551.5087, 13.47693
551.9908, 13.25139
552.4729, 13.88955
552.9550, 14.67234
553.4371, 14.68778
553.9193, 13.78487
554.4014, 12.99889
554.8835, 12.08093
555.3656, 11.53252
555.8477, 11.72701
556.3298, 12.34039
556.8120, 12.96828
557.2941, 13.45108
557.7762, 13.72819
558.2583, 13.55205
558.7404, 12.79326
559.2225, 12.73719
559.7047, 14.23157
560.1868, 15.35076
560.6689, 14.74136
561.1510, 13.30972
561.6331, 12.69242
562.1152, 13.64357
562.5974, 14.77264
563.0795, 14.64088
563.5616, 13.59450
564.0437, 12.93233
564.5258, 12.96462
565.0079, 13.14032
565.4901, 12.90920
565.9722, 12.30786
566.4543, 12.05678
566.9364, 12.04823
567.4185, 12.50458
567.9006, 14.26289
568.3828, 16.25091
568.8649, 16.77289
569.3470, 15.47970
569.8291, 13.58960
570.3112, 12.48395
570.7933, 12.19586
571.2755, 12.02339
571.7576, 11.85712
572.2397, 11.96554
572.7218, 12.80231
573.2039, 13.74327
573.6860, 13.82651
574.1682, 12.85367
574.6503, 12.17643
575.1324, 13.78510
575.6145, 16.91689
576.0966, 17.96426
576.5787, 16.32216
577.0609, 14.05358
577.5430, 11.74522
578.0251, 9.925164
578.5072, 9.874060
578.9893, 12.65817
579.4714, 14.86186
579.9536, 14.75909
580.4357, 13.58438
580.9178, 12.57211
581.3999, 11.99898
581.8820, 12.13395
582.3641, 13.31915
582.8463, 15.27386
583.3284, 16.37572
583.8105, 16.32607
584.2926, 15.78868
584.7747, 14.33562
585.2568, 12.80215
585.7390, 11.63818
586.2211, 10.98109
586.7032, 11.01394
587.1853, 12.20836
587.6674, 13.93935
588.1495, 14.31865
588.6317, 13.10040
589.1138, 12.03472
589.5959, 11.58327
590.0780, 11.63895
590.5601, 12.22752
591.0422, 13.33796
591.5244, 14.08543
592.0065, 13.91565
592.4886, 13.48985
592.9707, 13.40151
593.4528, 13.58168
593.9349, 13.74886
594.4171, 13.79405
594.8992, 13.63949
595.3813, 13.06377
595.8634, 11.61712
596.3455, 11.11682
596.8276, 12.60552
597.3098, 13.81027
597.7919, 13.38825
598.2740, 12.12919
598.7561, 11.57872
599.2382, 12.40045
599.7203, 13.43990
600.2025, 12.76015
600.6846, 10.43637
601.1667, 9.531488
601.6488, 10.93397
602.1309, 12.60850
602.6130, 13.20390
603.0952, 13.07154
603.5773, 12.85902
604.0594, 12.75333
604.5415, 12.37885
605.0236, 10.94964
605.5057, 9.355853
605.9879, 9.363523
606.4700, 11.08633
606.9521, 12.59252
607.4342, 12.16932
607.9163, 10.15323
608.3984, 9.098339
608.8806, 9.624856
609.3627, 10.32633
609.8448, 11.43244
610.3269, 12.40480
610.8090, 12.79807
611.2911, 12.62871
611.7733, 12.20313
612.2554, 11.63743
612.7375, 11.04508
613.2196, 10.62991
613.7017, 10.37253
614.1838, 10.55866
614.6660, 11.62595
615.1481, 12.74838
615.6302, 12.80839
616.1123, 11.89127
616.5944, 11.20728
617.0765, 11.29702
617.5587, 11.41788
618.0408, 10.88698
618.5229, 10.02668
619.0050, 9.618280
619.4871, 9.928193
619.9692, 10.51341
620.4514, 10.78082
620.9335, 10.68663
621.4156, 10.61134
621.8977, 10.39633
622.3798, 10.40100
622.8619, 11.03080
623.3441, 11.77028
623.8262, 11.97630
624.3083, 11.50590
624.7904, 10.85671
625.2725, 10.21956
625.7546, 9.751021
626.2367, 10.10551
626.7188, 11.40974
627.2009, 12.41675
627.6830, 12.41087
628.1652, 11.75837
628.6473, 11.25509
629.1294, 10.91124
629.6115, 10.64734
630.0936, 10.15344
630.5757, 9.987956
631.0579, 11.03736
631.5400, 12.75272
632.0221, 13.59514
632.5042, 12.75623
632.9863, 11.19960
633.4684, 10.82625
633.9506, 11.96259
634.4327, 12.64500
634.9148, 12.47310
635.3969, 12.20904
635.8790, 12.34593
636.3611, 12.62578
636.8433, 12.55867
637.3254, 11.92375
637.8075, 11.25010
638.2896, 10.95991
638.7717, 10.88996
639.2538, 10.57964
639.7360, 9.993698
640.2181, 9.853029
640.7002, 10.76605
641.1823, 12.43479
641.6644, 13.65756
642.1465, 14.43943
642.6287, 14.70884
643.1108, 14.09426
643.5929, 13.28904
644.0750, 12.53518
644.5571, 11.99646
645.0392, 12.07444
645.5214, 13.18896
646.0035, 14.36877
646.4856, 13.48446
646.9677, 10.54938
647.4498, 9.036912
647.9319, 10.04784
648.4141, 11.57039
648.8962, 11.96860
649.3783, 11.51304
649.8604, 11.20823
650.3425, 11.20745
650.8246, 11.26346
651.3068, 10.93770
651.7889, 10.79478
652.2710, 11.96061
652.7531, 14.28660
653.2352, 16.15147
653.7173, 16.25193
654.1995, 14.94182
654.6816, 13.52989
655.1637, 11.49558
655.6458, 10.62211
656.1279, 12.73145
656.6100, 14.79939
657.0922, 14.78860
657.5743, 13.19447
658.0564, 11.97574
658.5385, 12.14434
659.0206, 12.61189
659.5027, 12.03463
659.9849, 10.92568
660.4670, 10.92673
660.9491, 12.44349
661.4312, 14.19132
661.9133, 14.94285
662.3954, 14.80747
662.8776, 15.32502
663.3597, 17.79682
663.8418, 19.20336
664.3239, 18.46444
664.8060, 17.15015
665.2881, 16.24369
665.7703, 15.96837
666.2524, 16.51104
666.7345, 18.46262
667.2166, 20.58197
667.6987, 19.94617
668.1808, 16.66634
668.6630, 15.14163
669.1451, 16.94571
669.6272, 19.47707
670.1093, 20.25810
670.5914, 19.39925
671.0735, 18.73704
671.5557, 18.20856
672.0378, 17.99102
672.5199, 18.25180
673.0020, 18.79241
673.4841, 19.38339
673.9662, 20.01021
674.4484, 20.92906
674.9305, 22.52196
675.4126, 24.27267
675.8947, 24.16628
676.3768, 21.59875
676.8589, 19.86357
677.3411, 19.91906
677.8232, 20.67715
678.3053, 21.39175
678.7874, 22.06207
679.2695, 22.69323
679.7516, 23.63019
680.2338, 24.09362
680.7159, 23.18638
681.1980, 21.67666
681.6801, 20.63293
682.1622, 20.29785
682.6443, 20.69746
683.1265, 21.98959
683.6086, 23.86904
684.0907, 24.79341
684.5728, 24.20365
685.0549, 23.87848
685.5370, 23.88711
686.0192, 24.37663
686.5013, 26.21165
686.9834, 28.63239
687.4655, 29.42881
687.9476, 27.02645
688.4297, 24.10334
688.9119, 23.16032
689.3940, 23.48663
689.8761, 23.29947
690.3582, 22.30555
690.8403, 21.78872
691.3224, 22.95868
691.8046, 25.23851
692.2867, 25.84764
692.7688, 23.14596
693.2509, 21.39317
693.7330, 21.07368
694.2151, 21.39984
694.6973, 22.28887
695.1794, 23.40679
695.6615, 24.10604
696.1436, 24.06862
696.6257, 23.66699
697.1078, 23.19123
697.5900, 22.68610
698.0721, 22.30187
698.5542, 22.06354
699.0363, 21.95160
699.5184, 22.03910
700.0005, 22.18291
700.4827, 21.87005
700.9648, 20.68796
701.4469, 19.71752
701.9290, 18.74060
702.4111, 18.19607
702.8932, 18.59897
703.3754, 19.59003
703.8575, 20.49112
704.3396, 21.02697
704.8217, 21.28130
705.3038, 21.21577
705.7859, 20.92149
706.2681, 20.93638
706.7502, 21.38153
707.2323, 21.51863
707.7144, 20.71603
708.1965, 19.52710
708.6786, 19.28425
709.1607, 20.33572
709.6428, 21.25171
710.1249, 22.19883
710.6071, 22.73218
711.0892, 22.56283
711.5713, 21.81608
712.0534, 20.51376
712.5355, 18.70660
713.0176, 17.09902
713.4998, 16.59474
713.9819, 17.00352
714.4640, 17.24127
714.9461, 17.22855
715.4282, 17.50981
715.9103, 18.49729
716.3925, 19.69048
716.8746, 20.27384
717.3567, 20.17977
717.8388, 20.16169
718.3209, 20.61383
718.8030, 20.79006
719.2852, 20.05188
719.7673, 18.95405
720.2494, 18.28362
720.7315, 18.19785
721.2136, 18.25058
721.6957, 18.01104
722.1779, 17.59612
722.6600, 17.47802
723.1421, 17.70436
723.6242, 17.75271
724.1063, 17.27044
724.5884, 16.88725
725.0706, 17.55688
725.5527, 19.15229
726.0348, 19.87415
726.5169, 18.73688
726.9990, 17.81384
727.4811, 18.18671
727.9633, 18.87745
728.4454, 18.74344
728.9275, 17.78926
729.4096, 16.79300
729.8917, 16.23729
730.3738, 16.09085
730.8560, 16.31090
731.3381, 16.90056
731.8202, 17.90334
732.3023, 19.69662
732.7844, 20.97673
733.2665, 20.34378
733.7487, 18.44059
734.2308, 17.78956
734.7129, 19.31756
735.1950, 20.33818
735.6771, 19.80774
736.1592, 18.99786
736.6414, 18.77593
737.1235, 19.13897
737.6056, 20.02692
738.0877, 21.44602
738.5698, 22.51629
739.0519, 21.56206
739.5341, 18.90313
740.0162, 17.47079
740.4983, 17.53819
740.9804, 18.31337
741.4625, 19.82708
741.9446, 21.46673
742.4268, 21.98403
742.9089, 21.15655
743.3910, 20.50058
743.8731, 20.08212
744.3552, 19.92062
744.8373, 20.16677
745.3195, 20.61276
745.8016, 21.02563
746.2837, 21.32705
746.7658, 21.50109
747.2479, 21.58953
747.7300, 21.50993
748.2122, 20.78336
748.6943, 19.38965
749.1764, 18.83587
749.6585, 19.81118
750.1406, 21.05065
750.6227, 21.18716
751.1049, 20.26160
751.5870, 19.86087
752.0691, 20.48971
752.5512, 20.91746
753.0333, 21.08500
753.5154, 20.84382
753.9976, 19.76333
754.4797, 18.15219
754.9618, 16.82435
755.4439, 16.10723
755.9260, 16.15130
756.4081, 17.72528
756.8903, 20.30811
757.3724, 21.54836
757.8545, 21.10150
758.3366, 20.45334
758.8187, 20.56699
759.3008, 19.94473
759.7830, 19.30900
760.2651, 19.12868
760.7472, 18.05594
761.2293, 17.57497
761.7114, 17.49539
762.1935, 18.02759
762.6757, 18.78156
763.1578, 19.31359
763.6399, 19.51223
764.1220, 19.40862
764.6041, 18.77356
765.0862, 17.99430
765.5684, 17.52113
766.0505, 17.41079
766.5326, 18.09847
767.0147, 19.77686
767.4968, 21.35598
767.9789, 21.56306
768.4611, 20.46466
768.9432, 19.61055
769.4253, 18.96674
769.9074, 18.62973
770.3895, 18.65557
770.8716, 18.94040
771.3538, 19.79514
771.8359, 20.87385
772.3180, 21.03284
772.8001, 19.25810
773.2822, 17.82312
773.7643, 18.77271
774.2465, 20.77600
774.7286, 22.02870
775.2107, 22.35169
775.6928, 22.06390
776.1749, 21.29382
776.6570, 20.45709
777.1392, 20.56030
777.6213, 21.87225
778.1034, 22.07815
778.5855, 20.52422
779.0676, 19.09352
779.5497, 18.53772
780.0319, 18.60662
780.5140, 19.04592
780.9961, 19.86810
781.4782, 20.77767
781.9603, 22.16137
782.4424, 23.12504
782.9246, 22.86216
783.4067, 21.98183
783.8888, 21.32295
784.3709, 21.07241
784.8530, 21.02522
785.3351, 21.06549
785.8173, 21.12121
786.2994, 20.84794
786.7815, 20.24467
787.2636, 20.43222
787.7457, 21.88518
788.2278, 23.25983
788.7100, 23.49450
789.1921, 22.84659
789.6742, 22.31054
790.1563, 21.80703
790.6384, 21.55108
791.1205, 22.24065
791.6026, 22.48969
792.0847, 20.91251
792.5668, 18.57217
793.0490, 17.23132
793.5311, 17.40984
794.0132, 18.31534
794.4953, 19.82372
794.9774, 21.37857
795.4595, 21.87005
795.9417, 21.41970
796.4238, 20.81337
796.9059, 20.29977
797.3880, 19.78372
797.8701, 19.06849
798.3522, 18.21611
798.8344, 18.33095
799.3165, 20.03591
799.7986, 21.50892
800.2807, 22.70168
800.7628, 23.35309
801.2449, 22.89053
801.7271, 21.75957
802.2092, 21.11981
802.6913, 21.23746
803.1734, 21.87516
803.6555, 23.53621
804.1376, 25.21050
804.6198, 25.65705
805.1019, 25.12377
805.5840, 24.57249
806.0661, 24.42121
806.5482, 24.38690
807.0303, 24.08667
807.5125, 23.55116
807.9946, 22.94544
808.4767, 22.13428
808.9588, 22.07735
809.4409, 23.39493
809.9230, 25.12061
810.4052, 26.38152
810.8873, 27.15054
811.3694, 26.88606
811.8515, 23.97744
812.3336, 22.23781
812.8157, 23.14578
813.2979, 24.89997
813.7800, 26.57188
814.2621, 27.79224
814.7442, 27.89223
815.2263, 26.33782
815.7084, 24.93022
816.1906, 25.90676
816.6727, 28.13767
817.1548, 29.42342
817.6369, 29.63567
818.1190, 29.07170
818.6011, 27.79512
819.0833, 26.50043
819.5654, 26.30127
820.0475, 27.26100
820.5296, 27.42007
821.0117, 26.26473
821.4938, 25.35654
821.9760, 25.01465
822.4581, 25.15701
822.9402, 26.04911
823.4223, 27.44032
823.9044, 28.18583
824.3865, 28.03254
824.8687, 27.25883
825.3508, 24.81876
825.8329, 22.67991
826.3150, 23.30529
826.7971, 25.93581
827.2792, 28.20682
827.7614, 29.08682
828.2435, 28.91366
828.7256, 27.59519
829.2077, 25.56837
829.6898, 24.71395
830.1719, 25.07913
830.6541, 25.09214
831.1362, 24.11231
831.6183, 22.78178
832.1004, 21.81307
832.5825, 21.20778
833.0646, 20.80127
833.5468, 20.64260
834.0289, 20.61814
834.5110, 20.83308
834.9931, 21.05811
835.4752, 21.05770
835.9573, 20.96320
836.4395, 21.21092
836.9216, 22.15007
837.4037, 22.63129
837.8858, 21.62279
838.3679, 20.18350
838.8500, 19.42043
839.3322, 19.17876
839.8143, 18.93756
840.2964, 18.48987
840.7785, 17.69850
841.2606, 16.05531
841.7427, 14.08979
842.2249, 14.33982
842.7070, 16.92841
843.1891, 18.71700
843.6712, 18.89758
844.1533, 18.17969
844.6354, 16.83008
845.1176, 15.14342
845.5997, 14.59777
846.0818, 16.25401
846.5639, 17.38300
847.0460, 17.76805
847.5281, 17.88318
848.0103, 17.65630
848.4924, 17.43192
848.9745, 17.97221
849.4566, 19.42297
849.9387, 20.08051
850.4208, 18.15806
850.9030, 15.88067
851.3851, 15.48547
851.8672, 16.16978
852.3493, 16.34148
852.8314, 15.70720
853.3135, 14.82449
853.7957, 14.02887
854.2778, 13.54763
854.7599, 14.19054
855.2420, 15.92147
855.7241, 16.81223
856.2062, 16.56551
856.6884, 15.86529
857.1705, 14.80519
857.6526, 13.88358
858.1347, 14.16645
858.6168, 16.12003
859.0989, 17.15955
859.5811, 16.47045
860.0632, 15.94609
860.5453, 16.03757
861.0274, 16.45545
861.5095, 17.09970
861.9916, 17.84690
862.4738, 18.30481
862.9559, 18.22243
863.4380, 18.05039
863.9201, 17.97725
864.4022, 18.04262
864.8843, 18.59098
865.3665, 19.32729
865.8486, 19.18472
866.3307, 17.74652
866.8128, 16.18119
867.2949, 16.11476
867.7770, 17.14311
868.2592, 17.31108
868.7413, 16.59872
869.2234, 16.49778
869.7055, 17.50361
870.1876, 18.93066
870.6697, 20.29708
871.1519, 21.48606
871.6340, 21.76300
872.1161, 20.33450
872.5981, 19.51785
873.0803, 20.14473
873.5624, 20.60999
874.0445, 19.69933
874.5266, 18.47248
875.0087, 18.83287
875.4908, 21.15076
875.9730, 22.37023
876.4551, 20.21266
876.9372, 17.98692
877.4193, 17.77742
877.9014, 18.71616
878.3835, 20.03422
878.8657, 21.27567
879.3478, 21.40054
879.8299, 19.47610
880.3120, 17.41909
880.7941, 18.33090
881.2762, 21.25874
881.7584, 23.24041
882.2405, 24.06044
882.7226, 24.17199
883.2047, 23.71679
883.6868, 23.03974
884.1689, 22.56100
884.6511, 22.28571
885.1332, 22.52343
885.6153, 23.62948
886.0974, 24.24826
886.5795, 23.88030
887.0616, 23.25419
887.5438, 22.68527
888.0259, 22.30505
888.5080, 22.54378
888.9901, 23.71765
889.4722, 24.77170
889.9543, 26.03090
890.4365, 26.62502
890.9186, 25.21920
891.4007, 23.32760
891.8828, 23.12204
892.3649, 24.79137
892.8470, 26.66368
893.3292, 27.98207
893.8113, 28.87054
894.2934, 29.56553
894.7755, 29.86062
895.2576, 28.87395
895.7397, 26.95840
896.2219, 26.07559
896.7040, 27.27853
897.1861, 29.33830
897.6682, 30.62016
898.1503, 31.14993
898.6324, 30.91034
899.1146, 29.81126
899.5967, 29.43486
900.0788, 30.39558
900.5609, 31.76214
901.0430, 32.66985
901.5251, 33.17843
902.0073, 33.64696
902.4894, 33.99341
902.9715, 34.47171
903.4536, 35.09395
903.9357, 35.85515
904.4178, 37.05530
904.9000, 38.23668
905.3821, 38.66881
905.8642, 38.25634
906.3463, 37.90601
906.8284, 37.58240
907.3105, 37.67091
907.7927, 38.67294
908.2748, 39.94444
908.7569, 40.89788
909.2390, 41.48374
909.7211, 41.87079
910.2032, 42.12665
910.6854, 42.22788
911.1675, 41.93713
911.6496, 41.59919
912.1317, 42.02534
912.6138, 42.93128
913.0959, 43.05344
913.5781, 42.08831
914.0602, 41.35048
914.5423, 42.19477
915.0244, 43.98192
915.5065, 44.63371
915.9886, 44.13813
916.4708, 44.29567
916.9529, 45.45406
917.4350, 46.63774
917.9171, 47.43246
918.3992, 47.71379
918.8813, 47.09250
919.3635, 45.28880
919.8456, 44.78737
920.3277, 47.05005
920.8098, 48.21176
921.2919, 46.49693
921.7740, 44.27398
922.2562, 43.04279
922.7383, 42.63756
923.2204, 42.51257
923.7025, 42.71905
924.1846, 42.90685
924.6667, 42.95714
925.1489, 42.99861
925.6310, 43.28104
926.1131, 43.51007
926.5952, 43.23334
927.0773, 42.43285
927.5594, 41.47989
928.0416, 40.24260
928.5237, 39.49510
929.0058, 40.32637
929.4879, 41.90609
929.9700, 43.09660
930.4521, 43.75615
930.9343, 43.91752
931.4164, 43.60720
931.8985, 43.07335
932.3806, 42.79656
932.8627, 42.45391
933.3448, 40.39552
933.8270, 36.90344
934.3091, 35.40268
934.7912, 36.72761
935.2733, 38.47390
935.7554, 38.99207
936.2375, 38.65155
936.7197, 38.33948
937.2018, 38.11744
937.6839, 37.46665
938.1660, 35.96767
938.6481, 35.09958
939.1302, 35.44983
939.6124, 36.50544
940.0945, 37.98021
940.5766, 39.78027
941.0587, 41.03328
941.5408, 41.60017
942.0229, 41.86159
942.5051, 41.23110
942.9872, 40.96088
943.4693, 42.04406
943.9514, 43.65622
944.4335, 44.62353
944.9156, 44.82111
945.3978, 45.02670
945.8799, 45.42271
946.3620, 45.99711
946.8441, 46.58663
947.3262, 47.46703
947.8083, 49.32269
948.2905, 51.66239
948.7726, 53.17079
949.2547, 53.35765
949.7368, 53.28255
950.2189, 53.79564
950.7010, 54.58722
951.1832, 55.31423
951.6653, 55.96531
952.1474, 56.44207
952.6295, 56.79408
953.1116, 57.49689
953.5938, 58.93830
954.0759, 60.33911
954.5580, 60.11403
955.0400, 58.64026
955.5222, 57.96091
956.0043, 58.13283
956.4864, 58.56401
956.9685, 59.12397
957.4506, 59.24632
957.9327, 58.25020
958.4149, 56.51815
958.8970, 55.85221
959.3791, 56.61322
959.8612, 56.58373
960.3433, 55.46493
960.8254, 53.91846
961.3076, 52.04419
961.7897, 50.17013
962.2718, 48.89078
962.7539, 48.23600
963.2360, 46.74075
963.7181, 44.03794
964.2003, 41.05693
964.6824, 37.35774
965.1645, 33.96935
965.6466, 31.52424
966.1287, 29.70046
966.6108, 27.90130
967.0930, 26.02728
967.5751, 24.62820
968.0572, 24.22169
968.5393, 23.80243
969.0214, 23.35170
969.5035, 22.40875
969.9857, 20.05925
970.4678, 16.94147
970.9499, 14.70724
971.4320, 13.92992
971.9141, 13.63938
972.3962, 13.49677
972.8784, 13.37703
973.3605, 13.35730
973.8426, 13.19423
974.3247, 12.18634
974.8068, 10.56891
975.2889, 9.742588
975.7711, 10.63032
976.2532, 11.73823
976.7353, 11.13802
977.2174, 9.743953
977.6995, 9.397358
978.1816, 9.804205
978.6638, 9.537477
979.1459, 8.273644
979.6280, 6.981192
980.1101, 6.434891
980.5922, 6.374421
981.0743, 6.306278
981.5565, 6.250421
982.0386, 6.365268
982.5207, 6.655705
983.0028, 6.865327
983.4849, 6.872991
983.9670, 6.996393
984.4492, 7.620531
984.9313, 8.619908
985.4134, 9.487338
985.8955, 10.27564
986.3776, 10.48274
986.8597, 9.992594
987.3419, 9.091343
987.8240, 7.667439
988.3061, 6.367070
988.7882, 6.160686
989.2703, 7.043070
989.7524, 7.986793
990.2346, 9.399921
990.7167, 9.896541
991.1988, 8.350286
991.6809, 7.240160
992.1630, 8.724287
992.6451, 11.13694
993.1273, 11.25861
993.6094, 8.656894
994.0915, 6.960702
994.5736, 6.901355
995.0557, 6.790884
995.5378, 5.876971
996.0200, 5.242772
996.5021, 5.996677
996.9842, 7.444163
997.4663, 8.203755
997.9484, 8.062064
998.4305, 7.460038
998.9127, 5.634034
999.3948, 4.458276
999.8769, 5.510711
1000.359, 6.955626
1000.841, 6.763506
1001.323, 5.516885
1001.805, 5.315237
1002.287, 6.969203
1002.770, 8.034993
1003.252, 6.390341
1003.734, 4.637616
1004.216, 4.998443
1004.698, 6.204982
1005.180, 6.364058
1005.662, 5.598314
1006.144, 5.388101
1006.627, 6.457159
1007.109, 7.541231
1007.591, 7.664346
1008.073, 7.182604
1008.555, 6.256138
1009.037, 5.140042
1009.519, 4.046475
1010.001, 3.196713
1010.483, 3.367188
1010.966, 5.157012
1011.448, 7.023641
1011.930, 6.717529
1012.412, 5.398915
1012.894, 5.540619
1013.376, 6.725838
1013.858, 7.263103
1014.340, 6.805202
1014.823, 6.075108
1015.305, 5.531959
1015.787, 5.252799
1016.269, 5.563733
1016.751, 6.236902
1017.233, 6.173650
1017.715, 5.502793
1018.197, 5.794192
1018.679, 7.453526
1019.162, 8.588201
1019.644, 7.507858
1020.126, 5.403913
1020.608, 5.116178
1021.090, 6.485985
1021.572, 7.464015
1022.054, 7.977404
1022.536, 7.458079
1023.018, 5.591196
1023.501, 3.782921
1023.983, 3.273983
1024.465, 3.815356
1024.947, 4.780997
1025.429, 6.239621
1025.911, 7.266984
1026.393, 7.820643
1026.875, 7.998818
1027.358, 7.802546
1027.840, 7.294430
1028.322, 6.390106
1028.804, 5.345437
1029.286, 5.332172
1029.768, 6.681586
1030.250, 7.779139
1030.732, 8.851789
1031.214, 8.810971
1031.697, 6.610198
1032.179, 4.328189
1032.661, 4.238012
1033.143, 5.833757
1033.625, 6.501678
1034.107, 5.673727
1034.589, 5.384046
1035.071, 6.087090
1035.553, 6.530852
1036.036, 6.247683
1036.518, 5.544512
1037.000, 4.519130
1037.482, 3.310524
1037.964, 2.725759
1038.446, 2.859887
1038.928, 3.455784
1039.410, 5.162255
1039.893, 6.446650
1040.375, 6.686043
1040.857, 6.366321
1041.339, 5.935591
1041.821, 5.360696
1042.303, 4.409716
1042.785, 2.174213
1043.267, 1.322403
1043.750, 3.475543
1044.232, 5.142769
1044.714, 4.517176
1045.196, 3.298904
1045.678, 3.089316
1046.160, 3.775321
1046.642, 4.528059
1047.124, 5.193181
1047.606, 6.097282
1048.089, 8.124700
1048.571, 9.363041
1049.053, 8.542372
1049.535, 6.974184
1050.017, 5.616982
1050.499, 4.661309
1050.981, 4.470151
1051.463, 5.365264
1051.945, 6.311239
1052.428, 7.825320
1052.910, 8.457113
1053.392, 6.675681
1053.874, 4.385114
1054.356, 3.568565
1054.838, 3.951365
1055.320, 4.009375
1055.802, 3.161729
1056.285, 2.940759
1056.767, 4.549675
1057.249, 5.956428
1057.731, 6.127768
1058.213, 5.648595
1058.695, 4.716851
1059.177, 3.728131
1059.659, 3.667395
1060.141, 4.954328
1060.624, 6.247187
1061.106, 7.663774
1061.588, 8.271128
1062.070, 6.915279
1062.552, 5.068840
1063.034, 4.182261
1063.516, 4.085496
1063.998, 3.906388
1064.480, 3.393373
1064.963, 3.129571
1065.445, 3.560833
1065.927, 4.036322
1066.409, 3.972294
1066.891, 3.991906
1067.373, 5.056152
1067.855, 6.629984
1068.337, 7.425912
1068.820, 7.125300
1069.302, 6.263238
1069.784, 4.312501
1070.266, 2.795578
1070.748, 2.668522
1071.230, 3.193887
1071.712, 3.965268
1072.194, 4.738612
1072.677, 5.255644
1073.159, 5.452915
1073.641, 5.218680
1074.123, 3.808602
1074.605, 2.842801
1075.087, 3.413844
1075.569, 4.537759
1076.051, 5.655078
1076.533, 6.554615
1077.016, 7.077973
1077.498, 7.180664
1077.980, 6.734918
1078.462, 4.936677
1078.944, 3.667263
1079.426, 4.494215
1079.908, 5.567528
1080.390, 5.065823
1080.872, 3.935733
1081.354, 3.936985
1081.837, 5.180176
1082.319, 6.212901
1082.801, 6.582229
1083.283, 6.464022
1083.765, 5.598540
1084.247, 4.627311
1084.729, 3.674333
1085.211, 3.119886
1085.694, 3.741853
1086.176, 5.296667
1086.658, 6.340911
1087.140, 6.324160
1087.622, 5.969438
1088.104, 5.226822
1088.586, 4.639743
1089.068, 4.864312
1089.551, 5.215188
1090.033, 4.599188
1090.515, 3.357242
1090.997, 2.952237
1091.479, 3.913074
1091.961, 5.074567
1092.443, 6.356413
1092.925, 7.291801
1093.407, 7.642079
1093.890, 7.512342
1094.372, 6.695421
1094.854, 5.562210
1095.336, 4.965610
1095.818, 5.130033
1096.300, 5.337615
1096.782, 5.205050
1097.264, 5.280612
1097.746, 6.204161
1098.229, 7.019226
1098.711, 6.812586
1099.193, 6.003531
1099.675, 5.504583
1100.157, 5.442958
1100.639, 4.990165
1101.121, 3.168249
1101.603, 2.039457
1102.086, 2.551294
1102.568, 3.497434
1103.050, 4.341069
1103.532, 5.030400
1104.014, 5.549725
1104.496, 5.903904
1104.978, 6.141320
1105.460, 6.455184
1105.943, 6.336943
1106.425, 4.709089
1106.907, 3.835818
1107.389, 5.854228
1107.871, 8.282797
1108.353, 8.238758
1108.835, 6.176847
1109.317, 4.683888
1109.799, 4.274495
1110.281, 3.626900
1110.764, 1.611199
1111.246, 0.7299151
1111.728, 2.935991
1112.210, 5.399960
1112.692, 5.949112
1113.174, 5.040002
1113.656, 3.641762
1114.138, 1.316477
1114.621, 0.5455537
1115.103, 2.849346
1115.585, 4.200107
1116.067, 3.224594
1116.549, 2.122380
1117.031, 2.048060
1117.513, 2.715096
1117.995, 3.825975
1118.478, 5.387299
1118.960, 6.348177
1119.442, 6.598335
1119.924, 6.453207
1120.406, 5.643425
1120.888, 5.154109
1121.370, 6.013674
1121.852, 6.318863
1122.334, 3.238243
1122.817, -2.152344
1123.299, -3.701015
1123.781, -0.2974184
1124.263, 2.449538
1124.745, 4.525575
1125.227, 5.364180
1125.709, 4.446486
1126.191, 3.340003
1126.673, 3.346149
1127.156, 4.075383
1127.638, 4.634451
1128.120, 5.022479
1128.602, 5.138255
1129.084, 4.939416
1129.566, 4.956189
1130.048, 5.336370
1130.530, 5.522047
1131.013, 5.162049
1131.495, 4.576552
1131.977, 4.178594
1132.459, 4.003091
1132.941, 4.394368
1133.423, 5.281652
1133.905, 5.607739
1134.387, 5.271144
1134.870, 4.708723
1135.352, 4.092719
1135.834, 3.457928
1136.316, 2.724441
1136.798, 2.305935
1137.280, 3.573382
1137.762, 5.841897
1138.244, 6.545081
1138.726, 5.847569
1139.208, 5.107095
1139.691, 4.691400
1140.173, 4.521864
1140.655, 4.575510
1141.137, 4.579596
1141.619, 3.886474
1142.101, 3.108811
1142.583, 3.693766
1143.065, 4.940519
1143.548, 5.223494
1144.030, 4.519347
1144.512, 3.493737
1144.994, 2.458484
1145.476, 2.234225
1145.958, 4.206079
1146.440, 6.348147
1146.922, 6.337915
1147.405, 7.183531
1147.887, 5.723817
1148.369, 6.421147
1148.851, 5.914467
1149.333, 4.112104
1149.815, 2.713392
1150.297, 2.547176
1150.779, 2.846397
1151.261, 3.379573
1151.744, 3.970622
1152.226, 5.045219
1152.708, 5.699020
1153.190, 4.208523
1153.672, 1.412334
1154.154, 0.1767427
1154.636, 1.366326
1155.118, 2.454471
1155.600, 2.714213
1156.083, 2.733207
1156.565, 2.659704
1157.047, 2.472188
1157.529, 1.934606
1158.011, 1.380018
1158.493, 1.270195
1158.975, 1.632981
1159.457, 2.510628
1159.940, 4.955447
1160.422, 6.182812
1160.904, 5.197431
1161.386, 4.328707
1161.868, 4.591278
1162.350, 5.013374
1162.832, 4.681445
1163.314, 3.828758
1163.796, 3.115420
1164.279, 2.431991
1164.761, 2.646370
1165.243, 4.192481
1165.725, 5.040002
1166.207, 4.606182
1166.689, 4.098056
1167.171, 4.207906
1167.653, 4.629930
1168.135, 4.991045
1168.618, 5.237358
1169.100, 4.929306
1169.582, 4.081029
1170.064, 3.676734
1170.546, 3.796511
1171.028, 4.362172
1171.510, 5.347616
1171.992, 5.899064
1172.474, 5.267249
1172.957, 4.125759
1173.439, 3.536258
1173.921, 3.416770
1174.403, 3.477730
1174.885, 3.791315
1175.367, 4.974997
1175.849, 6.791975
1176.331, 7.606236
1176.814, 6.743513
1177.296, 5.584497
1177.778, 5.374465
1178.260, 5.464237
1178.742, 4.954929
1179.224, 4.387804
1179.706, 4.548209
1180.188, 5.227172
1180.671, 6.311634
1181.153, 7.431664
1181.635, 6.995824
1182.117, 3.652686
1182.599, 1.063592
1183.081, 1.870265
1183.563, 3.251888
1184.045, 3.444709
1184.527, 3.355602
1185.010, 4.226503
1185.492, 5.516884
1185.974, 5.635647
1186.456, 4.271325
1186.938, 3.643679
1187.420, 5.276154
1187.902, 5.893702
1188.384, 3.828196
1188.866, 2.077535
1189.349, 2.368785
1189.831, 3.164121
1190.313, 2.788971
1190.795, 1.604803
1191.277, 0.9881318
1191.759, 0.8493183
1192.241, 1.940015
1192.723, 5.048952
1193.206, 6.360971
1193.688, 4.613005
1194.170, 2.918802
1194.652, 3.182755
1195.134, 4.059142
1195.616, 3.494674
1196.098, 4.458428
1196.580, 2.730052
1197.063, 5.134646
1197.545, 5.897444
1198.027, 4.927798
1198.509, 3.872559
1198.991, 3.241416
1199.473, 2.964389
1199.955, 3.008470
1200.437, 3.270052
1200.919, 3.926248
1201.401, 4.489468
1201.884, 3.746191
1202.366, 2.444413
1202.848, 1.976491
1203.330, 2.375147
1203.812, 3.237406
1204.294, 4.384492
1204.776, 5.507912
1205.258, 6.724759
1205.741, 7.274168
1206.223, 5.807537
1206.705, 4.401401
1207.187, 5.194983
1207.669, 6.588078
1208.151, 6.448326
1208.633, 5.071007
1209.115, 4.043490
1209.598, 3.683108
1210.080, 3.348591
1210.562, 3.070253
1211.044, 2.613437
1211.526, 1.014583
1212.008, 0.4283409
1212.490, 2.882335
1212.972, 5.739105
1213.454, 5.635957
1213.937, 3.299784
1214.419, 2.285006
1214.901, 2.861060
1215.383, 3.490722
1215.865, 4.255754
1216.347, 4.376265
1216.829, 3.550042
1217.311, 3.252979
1217.793, 4.409307
1218.276, 6.069325
1218.758, 7.172468
1219.240, 7.518619
1219.722, 5.797652
1220.204, 2.926015
1220.686, 2.591877
1221.168, 4.339719
1221.650, 5.387092
1222.133, 5.073687
1222.615, 4.116895
1223.097, 2.819170
1223.579, 1.931492
1224.061, 2.539448
1224.543, 3.452245
1225.025, 3.599893
1225.507, 3.310013
1225.990, 2.732511
1226.472, 2.160655
1226.954, 2.068365
1227.436, 2.504573
1227.918, 3.081626
1228.400, 3.743237
1228.882, 4.416035
1229.364, 5.212720
1229.846, 5.848935
1230.328, 6.497665
1230.811, 6.648475
1231.293, 5.880168
1231.775, 4.375197
1232.257, 2.073701
1232.739, 2.428366
1233.221, -1.107443
1233.703, 2.705645
1234.185, 5.239933
1234.668, 5.969001
1235.150, 6.157349
1235.632, 6.186875
1236.114, 6.060791
1236.596, 5.773371
1237.078, 5.372521
1237.560, 4.968744
1238.042, 4.508538
1238.525, 3.697036
1239.007, 2.686522
1239.489, 1.766259
1239.971, 1.127335
1240.453, 1.371047
1240.935, 2.568818
1241.417, 3.894978
1241.899, 4.977492
1242.381, 5.557417
1242.864, 4.923564
1243.346, 4.268412
1243.828, 4.924249
1244.310, 5.834016
1244.792, 5.653482
1245.274, 4.766088
1245.756, 4.196026
1246.238, 4.097129
1246.720, 4.170399
1247.203, 4.312445
1247.685, 4.737528
1248.167, 6.403407
1248.649, 6.813507
1249.131, 4.403791
1249.613, 1.800508
1250.095, 0.9301075
1250.577, 1.264413
1251.059, 1.827979
1251.542, 2.613847
1252.024, 3.701167
1252.506, 5.085891
1252.988, 5.558574
1253.470, 5.049352
1253.952, 4.299386
1254.434, 3.583017
1254.916, 3.215650
1255.399, 3.434210
1255.881, 3.993919
1256.363, 4.931474
1256.845, 5.723803
1257.327, 5.558762
1257.809, 4.756516
1258.291, 3.281381
1258.773, 1.790881
1259.255, 1.601258
1259.738, 2.846474
1260.220, 4.543976
1260.702, 6.912605
1261.184, 8.119327
1261.666, 6.911895
1262.148, 5.331983
1262.630, 3.516576
1263.112, 2.325576
1263.594, 2.808959
1264.077, 3.913151
1264.559, 4.020954
1265.041, 3.304867
1265.523, 3.390881
1266.005, 4.627096
1266.487, 4.264131
1266.969, 1.921409
1267.451, 1.289044
1267.934, 3.301610
1268.416, 4.688289
1268.898, 3.564708
1269.380, 2.027424
1269.862, 2.723754
1270.344, 4.323526
1270.826, 4.326060
1271.308, 3.507022
1271.791, 3.191333
1272.273, 3.321048
1272.755, 3.734094
1273.237, 4.222174
1273.719, 4.173190
1274.201, 3.331096
1274.683, 2.795763
1275.165, 3.294307
1275.647, 3.851089
1276.130, 3.759474
1276.612, 4.021617
1277.094, 5.931521
1277.576, 7.888185
1278.058, 8.176317
1278.540, 7.171501
1279.022, 5.711487
1279.504, 3.664656
1279.986, 3.317827
1280.469, 5.080407
1280.951, 5.439233
1281.433, 3.861095
1281.915, 3.004913
1282.397, 3.832644
1282.879, 4.882955
1283.361, 4.987804
1283.843, 4.827307
1284.326, 5.206605
1284.808, 6.128382
##END=



