##NAMES=Olenite
##RRUFFID=R120012
##IDEAL CHEMISTRY=NaAl_3_Al_6_(Si_6_O_18_)(BO_3_)_3_(O_3_)OH
##LOCALITY=Curiglia, Val Veddasca, Varese, Italy
##OWNER=RRUFF
##SOURCE=Marcus Origlieri
##DESCRIPTION=Pale blue prismatic crystals frozen in quartz and muscovite matrix
##STATUS=The identification of this mineral has been confirmed only by single crystal X-ray diffraction.
##URL=rruff.info/R120012
9.112140e+001, 0.000000e+000
9.160352e+001, 1.454325e+003
9.208563e+001, 1.431351e+003
9.256775e+001, 1.428219e+003
9.304987e+001, 1.453776e+003
9.353198e+001, 1.488459e+003
9.401410e+001, 1.510431e+003
9.449622e+001, 1.518259e+003
9.497833e+001, 1.516360e+003
9.546045e+001, 1.508476e+003
9.594257e+001, 1.494520e+003
9.642468e+001, 1.481166e+003
9.690680e+001, 1.468234e+003
9.738892e+001, 1.457605e+003
9.787103e+001, 1.451257e+003
9.835315e+001, 1.446590e+003
9.883527e+001, 1.439815e+003
9.931738e+001, 1.430957e+003
9.979950e+001, 1.419425e+003
1.002816e+002, 1.409735e+003
1.007637e+002, 1.401612e+003
1.012458e+002, 1.394624e+003
1.017280e+002, 1.388179e+003
1.022101e+002, 1.381893e+003
1.026922e+002, 1.376723e+003
1.031743e+002, 1.374640e+003
1.036564e+002, 1.375305e+003
1.041385e+002, 1.376741e+003
1.046207e+002, 1.378366e+003
1.051028e+002, 1.380149e+003
1.055849e+002, 1.382294e+003
1.060670e+002, 1.385607e+003
1.065491e+002, 1.387875e+003
1.070313e+002, 1.386969e+003
1.075134e+002, 1.382518e+003
1.079955e+002, 1.376267e+003
1.084776e+002, 1.369413e+003
1.089597e+002, 1.361491e+003
1.094418e+002, 1.354795e+003
1.099240e+002, 1.349605e+003
1.104061e+002, 1.345912e+003
1.108882e+002, 1.344421e+003
1.113703e+002, 1.345539e+003
1.118524e+002, 1.347960e+003
1.123345e+002, 1.348031e+003
1.128167e+002, 1.342681e+003
1.132988e+002, 1.339013e+003
1.137809e+002, 1.338698e+003
1.142630e+002, 1.340421e+003
1.147451e+002, 1.342551e+003
1.152272e+002, 1.344078e+003
1.157094e+002, 1.345037e+003
1.161915e+002, 1.345902e+003
1.166736e+002, 1.347404e+003
1.171557e+002, 1.348118e+003
1.176378e+002, 1.347016e+003
1.181199e+002, 1.344498e+003
1.186021e+002, 1.341935e+003
1.190842e+002, 1.340434e+003
1.195663e+002, 1.340120e+003
1.200484e+002, 1.340035e+003
1.205305e+002, 1.339824e+003
1.210126e+002, 1.340007e+003
1.214948e+002, 1.341360e+003
1.219769e+002, 1.344097e+003
1.224590e+002, 1.346859e+003
1.229411e+002, 1.348537e+003
1.234232e+002, 1.349239e+003
1.239053e+002, 1.348539e+003
1.243875e+002, 1.345305e+003
1.248696e+002, 1.340474e+003
1.253517e+002, 1.336616e+003
1.258338e+002, 1.333990e+003
1.263159e+002, 1.332587e+003
1.267980e+002, 1.332127e+003
1.272802e+002, 1.332599e+003
1.277623e+002, 1.333951e+003
1.282444e+002, 1.336759e+003
1.287265e+002, 1.341288e+003
1.292086e+002, 1.344346e+003
1.296907e+002, 1.344999e+003
1.301729e+002, 1.344535e+003
1.306550e+002, 1.343068e+003
1.311371e+002, 1.340791e+003
1.316192e+002, 1.338239e+003
1.321013e+002, 1.336165e+003
1.325834e+002, 1.334819e+003
1.330656e+002, 1.333472e+003
1.335477e+002, 1.331420e+003
1.340298e+002, 1.329748e+003
1.345119e+002, 1.329468e+003
1.349940e+002, 1.330876e+003
1.354761e+002, 1.333310e+003
1.359583e+002, 1.335275e+003
1.364404e+002, 1.336671e+003
1.369225e+002, 1.337673e+003
1.374046e+002, 1.337951e+003
1.378867e+002, 1.337910e+003
1.383688e+002, 1.338293e+003
1.388510e+002, 1.339598e+003
1.393331e+002, 1.341215e+003
1.398152e+002, 1.341096e+003
1.402973e+002, 1.338571e+003
1.407794e+002, 1.335741e+003
1.412615e+002, 1.333359e+003
1.417437e+002, 1.331372e+003
1.422258e+002, 1.329486e+003
1.427079e+002, 1.327465e+003
1.431900e+002, 1.325533e+003
1.436721e+002, 1.323951e+003
1.441542e+002, 1.322319e+003
1.446364e+002, 1.321548e+003
1.451185e+002, 1.323245e+003
1.456006e+002, 1.327969e+003
1.460827e+002, 1.331750e+003
1.465648e+002, 1.331735e+003
1.470469e+002, 1.329936e+003
1.475291e+002, 1.328184e+003
1.480112e+002, 1.327093e+003
1.484933e+002, 1.326457e+003
1.489754e+002, 1.325777e+003
1.494575e+002, 1.324801e+003
1.499396e+002, 1.324278e+003
1.504218e+002, 1.324732e+003
1.509039e+002, 1.325634e+003
1.513860e+002, 1.326275e+003
1.518681e+002, 1.326207e+003
1.523502e+002, 1.325516e+003
1.528323e+002, 1.324962e+003
1.533145e+002, 1.324224e+003
1.537966e+002, 1.323977e+003
1.542787e+002, 1.324647e+003
1.547608e+002, 1.325922e+003
1.552429e+002, 1.327188e+003
1.557250e+002, 1.327953e+003
1.562072e+002, 1.328154e+003
1.566893e+002, 1.328635e+003
1.571714e+002, 1.329608e+003
1.576535e+002, 1.330590e+003
1.581356e+002, 1.331365e+003
1.586177e+002, 1.331943e+003
1.590999e+002, 1.332499e+003
1.595820e+002, 1.333227e+003
1.600641e+002, 1.334188e+003
1.605462e+002, 1.334723e+003
1.610283e+002, 1.334304e+003
1.615104e+002, 1.333839e+003
1.619926e+002, 1.334124e+003
1.624747e+002, 1.335255e+003
1.629568e+002, 1.336584e+003
1.634389e+002, 1.337543e+003
1.639210e+002, 1.338139e+003
1.644031e+002, 1.338211e+003
1.648853e+002, 1.337206e+003
1.653674e+002, 1.335813e+003
1.658495e+002, 1.335122e+003
1.663316e+002, 1.335444e+003
1.668137e+002, 1.336045e+003
1.672958e+002, 1.336260e+003
1.677780e+002, 1.336171e+003
1.682601e+002, 1.336026e+003
1.687422e+002, 1.335934e+003
1.692243e+002, 1.335881e+003
1.697064e+002, 1.335809e+003
1.701885e+002, 1.335706e+003
1.706707e+002, 1.335589e+003
1.711528e+002, 1.335520e+003
1.716349e+002, 1.335469e+003
1.721170e+002, 1.335313e+003
1.725991e+002, 1.334854e+003
1.730812e+002, 1.334068e+003
1.735634e+002, 1.333541e+003
1.740455e+002, 1.333813e+003
1.745276e+002, 1.333936e+003
1.750097e+002, 1.333286e+003
1.754918e+002, 1.331987e+003
1.759739e+002, 1.330732e+003
1.764561e+002, 1.330424e+003
1.769382e+002, 1.331549e+003
1.774203e+002, 1.331930e+003
1.779024e+002, 1.330837e+003
1.783845e+002, 1.329651e+003
1.788666e+002, 1.329382e+003
1.793488e+002, 1.330002e+003
1.798309e+002, 1.330521e+003
1.803130e+002, 1.329454e+003
1.807951e+002, 1.325419e+003
1.812772e+002, 1.322970e+003
1.817593e+002, 1.323252e+003
1.822415e+002, 1.324164e+003
1.827236e+002, 1.324100e+003
1.832057e+002, 1.322710e+003
1.836878e+002, 1.320846e+003
1.841699e+002, 1.319813e+003
1.846520e+002, 1.320255e+003
1.851342e+002, 1.320334e+003
1.856163e+002, 1.320234e+003
1.860984e+002, 1.319682e+003
1.865805e+002, 1.318221e+003
1.870626e+002, 1.315679e+003
1.875447e+002, 1.312639e+003
1.880269e+002, 1.309949e+003
1.885090e+002, 1.307476e+003
1.889911e+002, 1.305675e+003
1.894732e+002, 1.305105e+003
1.899553e+002, 1.305208e+003
1.904374e+002, 1.305002e+003
1.909196e+002, 1.304134e+003
1.914017e+002, 1.303002e+003
1.918838e+002, 1.302101e+003
1.923659e+002, 1.301398e+003
1.928480e+002, 1.300930e+003
1.933301e+002, 1.301278e+003
1.938123e+002, 1.302005e+003
1.942944e+002, 1.301332e+003
1.947765e+002, 1.297992e+003
1.952586e+002, 1.294056e+003
1.957407e+002, 1.291668e+003
1.962228e+002, 1.290850e+003
1.967050e+002, 1.290607e+003
1.971871e+002, 1.290314e+003
1.976692e+002, 1.289983e+003
1.981513e+002, 1.289867e+003
1.986334e+002, 1.290812e+003
1.991155e+002, 1.291260e+003
1.995977e+002, 1.289712e+003
2.000798e+002, 1.286214e+003
2.005619e+002, 1.282736e+003
2.010440e+002, 1.281421e+003
2.015261e+002, 1.282658e+003
2.020082e+002, 1.283465e+003
2.024904e+002, 1.283198e+003
2.029725e+002, 1.282603e+003
2.034546e+002, 1.281914e+003
2.039367e+002, 1.281209e+003
2.044188e+002, 1.280576e+003
2.049009e+002, 1.280104e+003
2.053831e+002, 1.279768e+003
2.058652e+002, 1.279690e+003
2.063473e+002, 1.279945e+003
2.068294e+002, 1.280367e+003
2.073115e+002, 1.280717e+003
2.077936e+002, 1.281028e+003
2.082758e+002, 1.281668e+003
2.087579e+002, 1.283220e+003
2.092400e+002, 1.286238e+003
2.097221e+002, 1.288979e+003
2.102042e+002, 1.291873e+003
2.106863e+002, 1.294254e+003
2.111685e+002, 1.295362e+003
2.116506e+002, 1.295190e+003
2.121327e+002, 1.294640e+003
2.126148e+002, 1.294970e+003
2.130969e+002, 1.296243e+003
2.135790e+002, 1.298537e+003
2.140612e+002, 1.302994e+003
2.145433e+002, 1.307682e+003
2.150254e+002, 1.310858e+003
2.155075e+002, 1.312166e+003
2.159896e+002, 1.312915e+003
2.164717e+002, 1.314938e+003
2.169539e+002, 1.318871e+003
2.174360e+002, 1.322765e+003
2.179181e+002, 1.327043e+003
2.184002e+002, 1.331052e+003
2.188823e+002, 1.333774e+003
2.193644e+002, 1.334943e+003
2.198466e+002, 1.336026e+003
2.203287e+002, 1.339222e+003
2.208108e+002, 1.344975e+003
2.212929e+002, 1.350334e+003
2.217750e+002, 1.355268e+003
2.222571e+002, 1.359475e+003
2.227393e+002, 1.362131e+003
2.232214e+002, 1.362832e+003
2.237035e+002, 1.363380e+003
2.241856e+002, 1.366518e+003
2.246677e+002, 1.372020e+003
2.251498e+002, 1.376796e+003
2.256320e+002, 1.380043e+003
2.261141e+002, 1.382084e+003
2.265962e+002, 1.383318e+003
2.270783e+002, 1.383668e+003
2.275604e+002, 1.383604e+003
2.280425e+002, 1.383477e+003
2.285247e+002, 1.383307e+003
2.290068e+002, 1.383174e+003
2.294889e+002, 1.383809e+003
2.299710e+002, 1.384444e+003
2.304531e+002, 1.383094e+003
2.309352e+002, 1.378894e+003
2.314174e+002, 1.374082e+003
2.318995e+002, 1.369985e+003
2.323816e+002, 1.366590e+003
2.328637e+002, 1.364035e+003
2.333458e+002, 1.362925e+003
2.338279e+002, 1.362756e+003
2.343101e+002, 1.361719e+003
2.347922e+002, 1.359059e+003
2.352743e+002, 1.356781e+003
2.357564e+002, 1.355951e+003
2.362385e+002, 1.356258e+003
2.367206e+002, 1.357158e+003
2.372028e+002, 1.358747e+003
2.376849e+002, 1.360711e+003
2.381670e+002, 1.361712e+003
2.386491e+002, 1.361461e+003
2.391312e+002, 1.360557e+003
2.396133e+002, 1.358945e+003
2.400955e+002, 1.356995e+003
2.405776e+002, 1.355260e+003
2.410597e+002, 1.354002e+003
2.415418e+002, 1.353240e+003
2.420239e+002, 1.353166e+003
2.425060e+002, 1.354521e+003
2.429882e+002, 1.355554e+003
2.434703e+002, 1.355378e+003
2.439524e+002, 1.354657e+003
2.444345e+002, 1.354412e+003
2.449166e+002, 1.355298e+003
2.453987e+002, 1.357023e+003
2.458809e+002, 1.358163e+003
2.463630e+002, 1.357986e+003
2.468451e+002, 1.358158e+003
2.473272e+002, 1.359433e+003
2.478093e+002, 1.361124e+003
2.482914e+002, 1.362339e+003
2.487736e+002, 1.362588e+003
2.492557e+002, 1.362053e+003
2.497378e+002, 1.361423e+003
2.502199e+002, 1.359611e+003
2.507020e+002, 1.359172e+003
2.511841e+002, 1.361240e+003
2.516663e+002, 1.364553e+003
2.521484e+002, 1.367814e+003
2.526305e+002, 1.370433e+003
2.531126e+002, 1.372315e+003
2.535947e+002, 1.373176e+003
2.540768e+002, 1.371768e+003
2.545590e+002, 1.370777e+003
2.550411e+002, 1.369975e+003
2.555232e+002, 1.369814e+003
2.560053e+002, 1.371016e+003
2.564874e+002, 1.373874e+003
2.569695e+002, 1.377679e+003
2.574517e+002, 1.380717e+003
2.579338e+002, 1.382670e+003
2.584159e+002, 1.384113e+003
2.588980e+002, 1.384097e+003
2.593801e+002, 1.383980e+003
2.598622e+002, 1.385488e+003
2.603444e+002, 1.389178e+003
2.608265e+002, 1.393796e+003
2.613086e+002, 1.396963e+003
2.617907e+002, 1.397380e+003
2.622728e+002, 1.398305e+003
2.627549e+002, 1.399969e+003
2.632371e+002, 1.402061e+003
2.637192e+002, 1.404467e+003
2.642013e+002, 1.407131e+003
2.646834e+002, 1.409609e+003
2.651655e+002, 1.411162e+003
2.656476e+002, 1.411111e+003
2.661298e+002, 1.411786e+003
2.666119e+002, 1.413898e+003
2.670940e+002, 1.416397e+003
2.675761e+002, 1.418315e+003
2.680582e+002, 1.419474e+003
2.685403e+002, 1.420309e+003
2.690225e+002, 1.421456e+003
2.695046e+002, 1.423181e+003
2.699867e+002, 1.423640e+003
2.704688e+002, 1.422168e+003
2.709509e+002, 1.419810e+003
2.714330e+002, 1.417265e+003
2.719152e+002, 1.414664e+003
2.723973e+002, 1.412108e+003
2.728794e+002, 1.409654e+003
2.733615e+002, 1.407321e+003
2.738436e+002, 1.405392e+003
2.743257e+002, 1.404631e+003
2.748079e+002, 1.403722e+003
2.752900e+002, 1.401369e+003
2.757721e+002, 1.397587e+003
2.762542e+002, 1.393802e+003
2.767363e+002, 1.391232e+003
2.772184e+002, 1.389666e+003
2.777006e+002, 1.387091e+003
2.781827e+002, 1.382544e+003
2.786648e+002, 1.377762e+003
2.791469e+002, 1.374070e+003
2.796290e+002, 1.371368e+003
2.801111e+002, 1.368647e+003
2.805933e+002, 1.365227e+003
2.810754e+002, 1.361370e+003
2.815575e+002, 1.358008e+003
2.820396e+002, 1.355723e+003
2.825217e+002, 1.353245e+003
2.830038e+002, 1.349529e+003
2.834860e+002, 1.344820e+003
2.839681e+002, 1.340322e+003
2.844502e+002, 1.336531e+003
2.849323e+002, 1.333362e+003
2.854144e+002, 1.330528e+003
2.858965e+002, 1.328106e+003
2.863787e+002, 1.325808e+003
2.868608e+002, 1.323615e+003
2.873429e+002, 1.321456e+003
2.878250e+002, 1.318906e+003
2.883071e+002, 1.315467e+003
2.887892e+002, 1.312095e+003
2.892714e+002, 1.310310e+003
2.897535e+002, 1.310285e+003
2.902356e+002, 1.310160e+003
2.907177e+002, 1.308880e+003
2.911998e+002, 1.306833e+003
2.916819e+002, 1.305059e+003
2.921641e+002, 1.303854e+003
2.926462e+002, 1.302834e+003
2.931283e+002, 1.301576e+003
2.936104e+002, 1.300113e+003
2.940925e+002, 1.298620e+003
2.945746e+002, 1.297065e+003
2.950568e+002, 1.295550e+003
2.955389e+002, 1.294194e+003
2.960210e+002, 1.292909e+003
2.965031e+002, 1.292103e+003
2.969852e+002, 1.292537e+003
2.974673e+002, 1.293792e+003
2.979495e+002, 1.294758e+003
2.984316e+002, 1.295153e+003
2.989137e+002, 1.295023e+003
2.993958e+002, 1.294307e+003
2.998779e+002, 1.292904e+003
3.003600e+002, 1.291406e+003
3.008422e+002, 1.290122e+003
3.013243e+002, 1.289023e+003
3.018064e+002, 1.288070e+003
3.022885e+002, 1.286975e+003
3.027706e+002, 1.286284e+003
3.032527e+002, 1.286875e+003
3.037349e+002, 1.288848e+003
3.042170e+002, 1.290760e+003
3.046991e+002, 1.292350e+003
3.051812e+002, 1.293230e+003
3.056633e+002, 1.292660e+003
3.061454e+002, 1.289990e+003
3.066276e+002, 1.287249e+003
3.071097e+002, 1.286351e+003
3.075918e+002, 1.287199e+003
3.080739e+002, 1.288141e+003
3.085560e+002, 1.288781e+003
3.090381e+002, 1.289146e+003
3.095203e+002, 1.289236e+003
3.100024e+002, 1.289021e+003
3.104845e+002, 1.288828e+003
3.109666e+002, 1.289002e+003
3.114487e+002, 1.289427e+003
3.119308e+002, 1.289429e+003
3.124130e+002, 1.288452e+003
3.128951e+002, 1.287653e+003
3.133772e+002, 1.288482e+003
3.138593e+002, 1.290646e+003
3.143414e+002, 1.292168e+003
3.148235e+002, 1.291495e+003
3.153057e+002, 1.289477e+003
3.157878e+002, 1.288371e+003
3.162699e+002, 1.288616e+003
3.167520e+002, 1.289169e+003
3.172341e+002, 1.289123e+003
3.177162e+002, 1.288787e+003
3.181984e+002, 1.288873e+003
3.186805e+002, 1.289736e+003
3.191626e+002, 1.291127e+003
3.196447e+002, 1.292910e+003
3.201268e+002, 1.295290e+003
3.206089e+002, 1.297063e+003
3.210911e+002, 1.296994e+003
3.215732e+002, 1.296037e+003
3.220553e+002, 1.295400e+003
3.225374e+002, 1.295165e+003
3.230195e+002, 1.295569e+003
3.235016e+002, 1.297213e+003
3.239838e+002, 1.300119e+003
3.244659e+002, 1.302605e+003
3.249480e+002, 1.303767e+003
3.254301e+002, 1.304338e+003
3.259122e+002, 1.305127e+003
3.263943e+002, 1.306152e+003
3.268765e+002, 1.307564e+003
3.273586e+002, 1.310157e+003
3.278407e+002, 1.313521e+003
3.283228e+002, 1.315102e+003
3.288049e+002, 1.313481e+003
3.292870e+002, 1.311028e+003
3.297692e+002, 1.310203e+003
3.302513e+002, 1.310873e+003
3.307334e+002, 1.311739e+003
3.312155e+002, 1.312301e+003
3.316976e+002, 1.312599e+003
3.321797e+002, 1.312694e+003
3.326619e+002, 1.312534e+003
3.331440e+002, 1.312320e+003
3.336261e+002, 1.312417e+003
3.341082e+002, 1.312614e+003
3.345903e+002, 1.312308e+003
3.350724e+002, 1.310641e+003
3.355546e+002, 1.308717e+003
3.360367e+002, 1.308337e+003
3.365188e+002, 1.309700e+003
3.370009e+002, 1.310523e+003
3.374830e+002, 1.308942e+003
3.379651e+002, 1.306113e+003
3.384473e+002, 1.304304e+003
3.389294e+002, 1.304346e+003
3.394115e+002, 1.304524e+003
3.398936e+002, 1.303165e+003
3.403757e+002, 1.300518e+003
3.408578e+002, 1.298556e+003
3.413400e+002, 1.298262e+003
3.418221e+002, 1.298761e+003
3.423042e+002, 1.298600e+003
3.427863e+002, 1.297628e+003
3.432684e+002, 1.296843e+003
3.437505e+002, 1.297119e+003
3.442327e+002, 1.297927e+003
3.447148e+002, 1.297721e+003
3.451969e+002, 1.295778e+003
3.456790e+002, 1.293835e+003
3.461611e+002, 1.294318e+003
3.466432e+002, 1.296822e+003
3.471254e+002, 1.299079e+003
3.476075e+002, 1.300357e+003
3.480896e+002, 1.301147e+003
3.485717e+002, 1.301924e+003
3.490538e+002, 1.302723e+003
3.495359e+002, 1.303721e+003
3.500181e+002, 1.305177e+003
3.505002e+002, 1.306965e+003
3.509823e+002, 1.308488e+003
3.514644e+002, 1.309547e+003
3.519465e+002, 1.310468e+003
3.524286e+002, 1.311338e+003
3.529108e+002, 1.312208e+003
3.533929e+002, 1.313254e+003
3.538750e+002, 1.314363e+003
3.543571e+002, 1.315922e+003
3.548392e+002, 1.319022e+003
3.553214e+002, 1.324485e+003
3.558035e+002, 1.329406e+003
3.562856e+002, 1.332420e+003
3.567677e+002, 1.334242e+003
3.572498e+002, 1.335897e+003
3.577319e+002, 1.337566e+003
3.582141e+002, 1.339770e+003
3.586962e+002, 1.343457e+003
3.591783e+002, 1.348861e+003
3.596604e+002, 1.354253e+003
3.601425e+002, 1.360108e+003
3.606246e+002, 1.365492e+003
3.611068e+002, 1.369037e+003
3.615889e+002, 1.370808e+003
3.620710e+002, 1.372661e+003
3.625531e+002, 1.376226e+003
3.630352e+002, 1.381511e+003
3.635173e+002, 1.386290e+003
3.639995e+002, 1.390382e+003
3.644816e+002, 1.394228e+003
3.649637e+002, 1.397740e+003
3.654458e+002, 1.401141e+003
3.659279e+002, 1.404997e+003
3.664100e+002, 1.409630e+003
3.668922e+002, 1.414828e+003
3.673743e+002, 1.419843e+003
3.678564e+002, 1.424477e+003
3.683385e+002, 1.429217e+003
3.688206e+002, 1.434245e+003
3.693027e+002, 1.439358e+003
3.697849e+002, 1.444593e+003
3.702670e+002, 1.449879e+003
3.707491e+002, 1.454481e+003
3.712312e+002, 1.457277e+003
3.717133e+002, 1.457512e+003
3.721954e+002, 1.458023e+003
3.726776e+002, 1.459349e+003
3.731597e+002, 1.460483e+003
3.736418e+002, 1.460856e+003
3.741239e+002, 1.460457e+003
3.746060e+002, 1.459559e+003
3.750881e+002, 1.458371e+003
3.755703e+002, 1.456893e+003
3.760524e+002, 1.454914e+003
3.765345e+002, 1.452676e+003
3.770166e+002, 1.449691e+003
3.774987e+002, 1.445592e+003
3.779808e+002, 1.440730e+003
3.784630e+002, 1.435474e+003
3.789451e+002, 1.429993e+003
3.794272e+002, 1.424462e+003
3.799093e+002, 1.419326e+003
3.803914e+002, 1.414899e+003
3.808735e+002, 1.410311e+003
3.813557e+002, 1.405678e+003
3.818378e+002, 1.400793e+003
3.823199e+002, 1.395085e+003
3.828020e+002, 1.388685e+003
3.832841e+002, 1.382701e+003
3.837662e+002, 1.378620e+003
3.842484e+002, 1.376838e+003
3.847305e+002, 1.374017e+003
3.852126e+002, 1.368852e+003
3.856947e+002, 1.363835e+003
3.861768e+002, 1.359503e+003
3.866589e+002, 1.355932e+003
3.871411e+002, 1.353238e+003
3.876232e+002, 1.351660e+003
3.881053e+002, 1.350713e+003
3.885874e+002, 1.348538e+003
3.890695e+002, 1.344116e+003
3.895516e+002, 1.340400e+003
3.900338e+002, 1.338645e+003
3.905159e+002, 1.337467e+003
3.909980e+002, 1.335508e+003
3.914801e+002, 1.332401e+003
3.919622e+002, 1.329059e+003
3.924443e+002, 1.326405e+003
3.929265e+002, 1.324415e+003
3.934086e+002, 1.323483e+003
3.938907e+002, 1.325114e+003
3.943728e+002, 1.326452e+003
3.948549e+002, 1.325707e+003
3.953370e+002, 1.323185e+003
3.958192e+002, 1.320286e+003
3.963013e+002, 1.317297e+003
3.967834e+002, 1.314627e+003
3.972655e+002, 1.314063e+003
3.977476e+002, 1.316632e+003
3.982297e+002, 1.318638e+003
3.987119e+002, 1.317531e+003
3.991940e+002, 1.314881e+003
3.996761e+002, 1.312453e+003
4.001582e+002, 1.310434e+003
4.006403e+002, 1.309304e+003
4.011224e+002, 1.310185e+003
4.016046e+002, 1.312915e+003
4.020867e+002, 1.314622e+003
4.025688e+002, 1.314111e+003
4.030509e+002, 1.312541e+003
4.035330e+002, 1.311290e+003
4.040151e+002, 1.310358e+003
4.044973e+002, 1.309502e+003
4.049794e+002, 1.308700e+003
4.054615e+002, 1.307883e+003
4.059436e+002, 1.306902e+003
4.064257e+002, 1.305732e+003
4.069078e+002, 1.304544e+003
4.073900e+002, 1.303687e+003
4.078721e+002, 1.302971e+003
4.083542e+002, 1.301461e+003
4.088363e+002, 1.297851e+003
4.093184e+002, 1.294562e+003
4.098005e+002, 1.293833e+003
4.102827e+002, 1.294904e+003
4.107648e+002, 1.295054e+003
4.112469e+002, 1.292955e+003
4.117290e+002, 1.289526e+003
4.122111e+002, 1.286786e+003
4.126932e+002, 1.284885e+003
4.131754e+002, 1.283160e+003
4.136575e+002, 1.281941e+003
4.141396e+002, 1.280609e+003
4.146217e+002, 1.277973e+003
4.151038e+002, 1.274027e+003
4.155859e+002, 1.270755e+003
4.160681e+002, 1.270527e+003
4.165502e+002, 1.273882e+003
4.170323e+002, 1.273969e+003
4.175144e+002, 1.267932e+003
4.179965e+002, 1.262163e+003
4.184786e+002, 1.259406e+003
4.189608e+002, 1.258804e+003
4.194429e+002, 1.258424e+003
4.199250e+002, 1.257284e+003
4.204071e+002, 1.255689e+003
4.208892e+002, 1.254494e+003
4.213713e+002, 1.254167e+003
4.218535e+002, 1.253557e+003
4.223356e+002, 1.252541e+003
4.228177e+002, 1.251317e+003
4.232998e+002, 1.249977e+003
4.237819e+002, 1.248569e+003
4.242640e+002, 1.247181e+003
4.247462e+002, 1.245885e+003
4.252283e+002, 1.244667e+003
4.257104e+002, 1.243643e+003
4.261925e+002, 1.242640e+003
4.266746e+002, 1.242056e+003
4.271567e+002, 1.242190e+003
4.276389e+002, 1.242769e+003
4.281210e+002, 1.243455e+003
4.286031e+002, 1.244140e+003
4.290852e+002, 1.244642e+003
4.295673e+002, 1.244433e+003
4.300494e+002, 1.243184e+003
4.305316e+002, 1.242415e+003
4.310137e+002, 1.243170e+003
4.314958e+002, 1.244064e+003
4.319779e+002, 1.244183e+003
4.324600e+002, 1.243491e+003
4.329421e+002, 1.242595e+003
4.334243e+002, 1.241497e+003
4.339064e+002, 1.240482e+003
4.343885e+002, 1.241102e+003
4.348706e+002, 1.244267e+003
4.353527e+002, 1.247118e+003
4.358348e+002, 1.247242e+003
4.363170e+002, 1.245912e+003
4.367991e+002, 1.245222e+003
4.372812e+002, 1.245974e+003
4.377633e+002, 1.247104e+003
4.382454e+002, 1.247631e+003
4.387275e+002, 1.247633e+003
4.392097e+002, 1.247635e+003
4.396918e+002, 1.247835e+003
4.401739e+002, 1.248082e+003
4.406560e+002, 1.247904e+003
4.411381e+002, 1.247152e+003
4.416202e+002, 1.247363e+003
4.421024e+002, 1.249812e+003
4.425845e+002, 1.252981e+003
4.430666e+002, 1.255377e+003
4.435487e+002, 1.256813e+003
4.440308e+002, 1.257184e+003
4.445129e+002, 1.256137e+003
4.449951e+002, 1.253894e+003
4.454772e+002, 1.252559e+003
4.459593e+002, 1.252289e+003
4.464414e+002, 1.252596e+003
4.469235e+002, 1.254338e+003
4.474056e+002, 1.256280e+003
4.478878e+002, 1.256159e+003
4.483699e+002, 1.253254e+003
4.488520e+002, 1.249574e+003
4.493341e+002, 1.248293e+003
4.498162e+002, 1.250689e+003
4.502983e+002, 1.251919e+003
4.507805e+002, 1.251572e+003
4.512626e+002, 1.250634e+003
4.517447e+002, 1.249006e+003
4.522268e+002, 1.247196e+003
4.527089e+002, 1.246384e+003
4.531910e+002, 1.247523e+003
4.536732e+002, 1.249940e+003
4.541553e+002, 1.250702e+003
4.546374e+002, 1.248590e+003
4.551195e+002, 1.246849e+003
4.556016e+002, 1.246197e+003
4.560837e+002, 1.245955e+003
4.565659e+002, 1.245731e+003
4.570480e+002, 1.245383e+003
4.575301e+002, 1.244673e+003
4.580122e+002, 1.242855e+003
4.584943e+002, 1.239973e+003
4.589764e+002, 1.238935e+003
4.594586e+002, 1.241214e+003
4.599407e+002, 1.243276e+003
4.604228e+002, 1.242800e+003
4.609049e+002, 1.240950e+003
4.613870e+002, 1.239811e+003
4.618691e+002, 1.240265e+003
4.623513e+002, 1.241464e+003
4.628334e+002, 1.242731e+003
4.633155e+002, 1.244034e+003
4.637976e+002, 1.244300e+003
4.642797e+002, 1.242380e+003
4.647618e+002, 1.240269e+003
4.652440e+002, 1.240879e+003
4.657261e+002, 1.244259e+003
4.662082e+002, 1.246920e+003
4.666903e+002, 1.247550e+003
4.671724e+002, 1.246924e+003
4.676545e+002, 1.245469e+003
4.681367e+002, 1.243341e+003
4.686188e+002, 1.241971e+003
4.691009e+002, 1.242536e+003
4.695830e+002, 1.244589e+003
4.700651e+002, 1.245853e+003
4.705472e+002, 1.245818e+003
4.710294e+002, 1.245751e+003
4.715115e+002, 1.245947e+003
4.719936e+002, 1.246294e+003
4.724757e+002, 1.246671e+003
4.729578e+002, 1.247039e+003
4.734399e+002, 1.247396e+003
4.739221e+002, 1.247712e+003
4.744042e+002, 1.247924e+003
4.748863e+002, 1.248462e+003
4.753684e+002, 1.249600e+003
4.758505e+002, 1.250734e+003
4.763326e+002, 1.251548e+003
4.768148e+002, 1.252221e+003
4.772969e+002, 1.253163e+003
4.777790e+002, 1.254581e+003
4.782611e+002, 1.256104e+003
4.787432e+002, 1.256838e+003
4.792253e+002, 1.256409e+003
4.797075e+002, 1.256256e+003
4.801896e+002, 1.256854e+003
4.806717e+002, 1.257517e+003
4.811538e+002, 1.257811e+003
4.816359e+002, 1.257805e+003
4.821180e+002, 1.257885e+003
4.826002e+002, 1.258186e+003
4.830823e+002, 1.258802e+003
4.835644e+002, 1.260144e+003
4.840465e+002, 1.262412e+003
4.845286e+002, 1.264664e+003
4.850107e+002, 1.266529e+003
4.854929e+002, 1.268122e+003
4.859750e+002, 1.269658e+003
4.864571e+002, 1.271222e+003
4.869392e+002, 1.272328e+003
4.874213e+002, 1.272024e+003
4.879034e+002, 1.271141e+003
4.883856e+002, 1.271766e+003
4.888677e+002, 1.274381e+003
4.893498e+002, 1.277258e+003
4.898319e+002, 1.278747e+003
4.903140e+002, 1.279017e+003
4.907961e+002, 1.280302e+003
4.912783e+002, 1.283614e+003
4.917604e+002, 1.286877e+003
4.922425e+002, 1.288766e+003
4.927246e+002, 1.290026e+003
4.932067e+002, 1.292382e+003
4.936888e+002, 1.296437e+003
4.941710e+002, 1.300699e+003
4.946531e+002, 1.302671e+003
4.951352e+002, 1.301197e+003
4.956173e+002, 1.301076e+003
4.960994e+002, 1.302772e+003
4.965815e+002, 1.305154e+003
4.970637e+002, 1.308232e+003
4.975458e+002, 1.311520e+003
4.980279e+002, 1.314201e+003
4.985100e+002, 1.315808e+003
4.989921e+002, 1.316565e+003
4.994742e+002, 1.316880e+003
4.999564e+002, 1.316222e+003
5.004385e+002, 1.316479e+003
5.009206e+002, 1.318809e+003
5.014027e+002, 1.321413e+003
5.018848e+002, 1.323045e+003
5.023669e+002, 1.323812e+003
5.028491e+002, 1.324774e+003
5.033312e+002, 1.326719e+003
5.038133e+002, 1.329374e+003
5.042954e+002, 1.332187e+003
5.047775e+002, 1.335326e+003
5.052596e+002, 1.337745e+003
5.057418e+002, 1.338078e+003
5.062239e+002, 1.337899e+003
5.067060e+002, 1.339672e+003
5.071881e+002, 1.344031e+003
5.076702e+002, 1.348175e+003
5.081523e+002, 1.350535e+003
5.086345e+002, 1.351828e+003
5.091166e+002, 1.353109e+003
5.095987e+002, 1.354541e+003
5.100808e+002, 1.356210e+003
5.105629e+002, 1.358300e+003
5.110450e+002, 1.360727e+003
5.115272e+002, 1.362670e+003
5.120093e+002, 1.363897e+003
5.124914e+002, 1.364989e+003
5.129735e+002, 1.365930e+003
5.134556e+002, 1.366908e+003
5.139377e+002, 1.368164e+003
5.144199e+002, 1.369754e+003
5.149020e+002, 1.371641e+003
5.153841e+002, 1.373920e+003
5.158662e+002, 1.376851e+003
5.163483e+002, 1.378393e+003
5.168304e+002, 1.376765e+003
5.173126e+002, 1.375613e+003
5.177947e+002, 1.376436e+003
5.182768e+002, 1.378231e+003
5.187589e+002, 1.379545e+003
5.192410e+002, 1.379811e+003
5.197231e+002, 1.379348e+003
5.202053e+002, 1.378462e+003
5.206874e+002, 1.377116e+003
5.211695e+002, 1.375847e+003
5.216516e+002, 1.374493e+003
5.221337e+002, 1.373547e+003
5.226158e+002, 1.373657e+003
5.230980e+002, 1.374419e+003
5.235801e+002, 1.374656e+003
5.240622e+002, 1.373573e+003
5.245443e+002, 1.372165e+003
5.250264e+002, 1.371426e+003
5.255085e+002, 1.371291e+003
5.259907e+002, 1.371537e+003
5.264728e+002, 1.372317e+003
5.269549e+002, 1.372943e+003
5.274370e+002, 1.372019e+003
5.279191e+002, 1.369062e+003
5.284012e+002, 1.367704e+003
5.288834e+002, 1.369220e+003
5.293655e+002, 1.371665e+003
5.298476e+002, 1.374407e+003
5.303297e+002, 1.376968e+003
5.308118e+002, 1.378116e+003
5.312939e+002, 1.377068e+003
5.317761e+002, 1.374956e+003
5.322582e+002, 1.374715e+003
5.327403e+002, 1.377429e+003
5.332224e+002, 1.380057e+003
5.337045e+002, 1.382828e+003
5.341866e+002, 1.385230e+003
5.346688e+002, 1.386987e+003
5.351509e+002, 1.388104e+003
5.356330e+002, 1.388643e+003
5.361151e+002, 1.388498e+003
5.365972e+002, 1.388003e+003
5.370793e+002, 1.388092e+003
5.375615e+002, 1.388904e+003
5.380436e+002, 1.389775e+003
5.385257e+002, 1.390821e+003
5.390078e+002, 1.391611e+003
5.394899e+002, 1.391633e+003
5.399720e+002, 1.390929e+003
5.404542e+002, 1.390317e+003
5.409363e+002, 1.390453e+003
5.414184e+002, 1.390802e+003
5.419005e+002, 1.390811e+003
5.423826e+002, 1.390425e+003
5.428647e+002, 1.389067e+003
5.433469e+002, 1.386123e+003
5.438290e+002, 1.382312e+003
5.443111e+002, 1.379491e+003
5.447932e+002, 1.377924e+003
5.452753e+002, 1.376543e+003
5.457574e+002, 1.375682e+003
5.462396e+002, 1.374583e+003
5.467217e+002, 1.372282e+003
5.472038e+002, 1.369000e+003
5.476859e+002, 1.366047e+003
5.481680e+002, 1.364438e+003
5.486501e+002, 1.363667e+003
5.491323e+002, 1.361365e+003
5.496144e+002, 1.356107e+003
5.500965e+002, 1.351806e+003
5.505786e+002, 1.350045e+003
5.510607e+002, 1.348373e+003
5.515428e+002, 1.344694e+003
5.520250e+002, 1.339163e+003
5.525071e+002, 1.333758e+003
5.529892e+002, 1.330074e+003
5.534713e+002, 1.327517e+003
5.539534e+002, 1.324321e+003
5.544355e+002, 1.320412e+003
5.549177e+002, 1.316167e+003
5.553998e+002, 1.311127e+003
5.558819e+002, 1.306274e+003
5.563640e+002, 1.303109e+003
5.568461e+002, 1.301914e+003
5.573282e+002, 1.300252e+003
5.578104e+002, 1.297019e+003
5.582925e+002, 1.292897e+003
5.587746e+002, 1.288468e+003
5.592567e+002, 1.283837e+003
5.597388e+002, 1.279400e+003
5.602209e+002, 1.275310e+003
5.607031e+002, 1.271659e+003
5.611852e+002, 1.268734e+003
5.616673e+002, 1.267664e+003
5.621494e+002, 1.265679e+003
5.626315e+002, 1.262519e+003
5.631136e+002, 1.258609e+003
5.635958e+002, 1.253490e+003
5.640779e+002, 1.247763e+003
5.645600e+002, 1.243329e+003
5.650421e+002, 1.241719e+003
5.655242e+002, 1.242017e+003
5.660063e+002, 1.241127e+003
5.664885e+002, 1.238685e+003
5.669706e+002, 1.236130e+003
5.674527e+002, 1.233405e+003
5.679348e+002, 1.230990e+003
5.684169e+002, 1.229730e+003
5.688990e+002, 1.229374e+003
5.693812e+002, 1.228083e+003
5.698633e+002, 1.224508e+003
5.703454e+002, 1.219665e+003
5.708275e+002, 1.214568e+003
5.713096e+002, 1.209321e+003
5.717917e+002, 1.205096e+003
5.722739e+002, 1.202516e+003
5.727560e+002, 1.200944e+003
5.732381e+002, 1.199295e+003
5.737202e+002, 1.197556e+003
5.742023e+002, 1.195799e+003
5.746844e+002, 1.194238e+003
5.751666e+002, 1.192478e+003
5.756487e+002, 1.190013e+003
5.761308e+002, 1.187120e+003
5.766129e+002, 1.184558e+003
5.770950e+002, 1.182725e+003
5.775771e+002, 1.181279e+003
5.780593e+002, 1.179460e+003
5.785414e+002, 1.177155e+003
5.790235e+002, 1.174768e+003
5.795056e+002, 1.172072e+003
5.799877e+002, 1.169514e+003
5.804698e+002, 1.167406e+003
5.809520e+002, 1.165589e+003
5.814341e+002, 1.163618e+003
5.819162e+002, 1.161157e+003
5.823983e+002, 1.158735e+003
5.828804e+002, 1.157299e+003
5.833625e+002, 1.156717e+003
5.838447e+002, 1.155496e+003
5.843268e+002, 1.152923e+003
5.848089e+002, 1.150490e+003
5.852910e+002, 1.150390e+003
5.857731e+002, 1.152271e+003
5.862552e+002, 1.152322e+003
5.867374e+002, 1.148799e+003
5.872195e+002, 1.144865e+003
5.877016e+002, 1.141909e+003
5.881837e+002, 1.139734e+003
5.886658e+002, 1.137966e+003
5.891479e+002, 1.136483e+003
5.896301e+002, 1.135301e+003
5.901122e+002, 1.134495e+003
5.905943e+002, 1.134138e+003
5.910764e+002, 1.133445e+003
5.915585e+002, 1.132252e+003
5.920406e+002, 1.130879e+003
5.925228e+002, 1.129479e+003
5.930049e+002, 1.127893e+003
5.934870e+002, 1.125757e+003
5.939691e+002, 1.122995e+003
5.944512e+002, 1.120422e+003
5.949333e+002, 1.118839e+003
5.954155e+002, 1.118091e+003
5.958976e+002, 1.117549e+003
5.963797e+002, 1.117185e+003
5.968618e+002, 1.117056e+003
5.973439e+002, 1.117671e+003
5.978260e+002, 1.118343e+003
5.983082e+002, 1.117379e+003
5.987903e+002, 1.113971e+003
5.992724e+002, 1.110999e+003
5.997545e+002, 1.109598e+003
6.002366e+002, 1.108965e+003
6.007188e+002, 1.108574e+003
6.012009e+002, 1.108191e+003
6.016830e+002, 1.107250e+003
6.021651e+002, 1.105294e+003
6.026472e+002, 1.102648e+003
6.031293e+002, 1.100445e+003
6.036115e+002, 1.098299e+003
6.040936e+002, 1.097368e+003
6.045757e+002, 1.099046e+003
6.050578e+002, 1.100665e+003
6.055399e+002, 1.100647e+003
6.060220e+002, 1.099107e+003
6.065042e+002, 1.096788e+003
6.069863e+002, 1.093652e+003
6.074684e+002, 1.090652e+003
6.079505e+002, 1.089716e+003
6.084326e+002, 1.090779e+003
6.089147e+002, 1.091226e+003
6.093969e+002, 1.090176e+003
6.098790e+002, 1.088677e+003
6.103611e+002, 1.087866e+003
6.108432e+002, 1.087679e+003
6.113253e+002, 1.087417e+003
6.118074e+002, 1.086987e+003
6.122896e+002, 1.086490e+003
6.127717e+002, 1.085880e+003
6.132538e+002, 1.085264e+003
6.137359e+002, 1.084823e+003
6.142180e+002, 1.084603e+003
6.147001e+002, 1.084534e+003
6.151823e+002, 1.084620e+003
6.156644e+002, 1.084904e+003
6.161465e+002, 1.084392e+003
6.166286e+002, 1.082152e+003
6.171107e+002, 1.080401e+003
6.175928e+002, 1.079962e+003
6.180750e+002, 1.080106e+003
6.185571e+002, 1.080209e+003
6.190392e+002, 1.080130e+003
6.195213e+002, 1.079760e+003
6.200034e+002, 1.078833e+003
6.204855e+002, 1.077607e+003
6.209677e+002, 1.076526e+003
6.214498e+002, 1.075605e+003
6.219319e+002, 1.075242e+003
6.224140e+002, 1.075682e+003
6.228961e+002, 1.076758e+003
6.233782e+002, 1.078354e+003
6.238604e+002, 1.081015e+003
6.243425e+002, 1.082439e+003
6.248246e+002, 1.081364e+003
6.253067e+002, 1.079855e+003
6.257888e+002, 1.079246e+003
6.262709e+002, 1.079362e+003
6.267531e+002, 1.079477e+003
6.272352e+002, 1.079233e+003
6.277173e+002, 1.078820e+003
6.281994e+002, 1.078514e+003
6.286815e+002, 1.078245e+003
6.291636e+002, 1.078455e+003
6.296458e+002, 1.079563e+003
6.301279e+002, 1.080628e+003
6.306100e+002, 1.081012e+003
6.310921e+002, 1.081076e+003
6.315742e+002, 1.081542e+003
6.320563e+002, 1.082787e+003
6.325385e+002, 1.083847e+003
6.330206e+002, 1.083893e+003
6.335027e+002, 1.083297e+003
6.339848e+002, 1.082865e+003
6.344669e+002, 1.082702e+003
6.349490e+002, 1.082241e+003
6.354312e+002, 1.080993e+003
6.359133e+002, 1.079161e+003
6.363954e+002, 1.077673e+003
6.368775e+002, 1.076824e+003
6.373596e+002, 1.075959e+003
6.378417e+002, 1.074669e+003
6.383239e+002, 1.073680e+003
6.388060e+002, 1.073882e+003
6.392881e+002, 1.074896e+003
6.397702e+002, 1.075472e+003
6.402523e+002, 1.074833e+003
6.407344e+002, 1.073415e+003
6.412166e+002, 1.071979e+003
6.416987e+002, 1.070513e+003
6.421808e+002, 1.069081e+003
6.426629e+002, 1.067642e+003
6.431450e+002, 1.066303e+003
6.436271e+002, 1.064960e+003
6.441093e+002, 1.063741e+003
6.445914e+002, 1.063280e+003
6.450735e+002, 1.064965e+003
6.455556e+002, 1.065940e+003
6.460377e+002, 1.064366e+003
6.465198e+002, 1.061484e+003
6.470020e+002, 1.058799e+003
6.474841e+002, 1.056728e+003
6.479662e+002, 1.055434e+003
6.484483e+002, 1.055189e+003
6.489304e+002, 1.055795e+003
6.494125e+002, 1.055847e+003
6.498947e+002, 1.055336e+003
6.503768e+002, 1.054259e+003
6.508589e+002, 1.051673e+003
6.513410e+002, 1.049302e+003
6.518231e+002, 1.048911e+003
6.523052e+002, 1.050072e+003
6.527874e+002, 1.050316e+003
6.532695e+002, 1.047655e+003
6.537516e+002, 1.044178e+003
6.542337e+002, 1.042693e+003
6.547158e+002, 1.042747e+003
6.551979e+002, 1.042189e+003
6.556801e+002, 1.040346e+003
6.561622e+002, 1.038072e+003
6.566443e+002, 1.036141e+003
6.571264e+002, 1.034529e+003
6.576085e+002, 1.033934e+003
6.580906e+002, 1.035757e+003
6.585728e+002, 1.036707e+003
6.590549e+002, 1.035888e+003
6.595370e+002, 1.033894e+003
6.600191e+002, 1.030718e+003
6.605012e+002, 1.026778e+003
6.609833e+002, 1.023736e+003
6.614655e+002, 1.023206e+003
6.619476e+002, 1.024455e+003
6.624297e+002, 1.025328e+003
6.629118e+002, 1.025814e+003
6.633939e+002, 1.026033e+003
6.638760e+002, 1.026110e+003
6.643582e+002, 1.025824e+003
6.648403e+002, 1.024711e+003
6.653224e+002, 1.022848e+003
6.658045e+002, 1.021216e+003
6.662866e+002, 1.019749e+003
6.667687e+002, 1.018781e+003
6.672509e+002, 1.019181e+003
6.677330e+002, 1.019988e+003
6.682151e+002, 1.019663e+003
6.686972e+002, 1.017807e+003
6.691793e+002, 1.014942e+003
6.696614e+002, 1.011246e+003
6.701436e+002, 1.006911e+003
6.706257e+002, 1.004827e+003
6.711078e+002, 1.006253e+003
6.715899e+002, 1.007310e+003
6.720720e+002, 1.006729e+003
6.725541e+002, 1.005495e+003
6.730363e+002, 1.003889e+003
6.735184e+002, 1.002107e+003
6.740005e+002, 1.001418e+003
6.744826e+002, 1.003904e+003
6.749647e+002, 1.006475e+003
6.754468e+002, 1.005525e+003
6.759290e+002, 1.002066e+003
6.764111e+002, 9.990559e+002
6.768932e+002, 9.974047e+002
6.773753e+002, 9.968557e+002
6.778574e+002, 9.973405e+002
6.783395e+002, 9.989449e+002
6.788217e+002, 9.993818e+002
6.793038e+002, 9.981928e+002
6.797859e+002, 9.963537e+002
6.802680e+002, 9.931998e+002
6.807501e+002, 9.900489e+002
6.812322e+002, 9.881082e+002
6.817144e+002, 9.874581e+002
6.821965e+002, 9.873267e+002
6.826786e+002, 9.872840e+002
6.831607e+002, 9.874224e+002
6.836428e+002, 9.881278e+002
6.841249e+002, 9.892869e+002
6.846071e+002, 9.898692e+002
6.850892e+002, 9.895081e+002
6.855713e+002, 9.886550e+002
6.860534e+002, 9.877467e+002
6.865355e+002, 9.867723e+002
6.870176e+002, 9.859291e+002
6.874998e+002, 9.850970e+002
6.879819e+002, 9.845213e+002
6.884640e+002, 9.841757e+002
6.889461e+002, 9.841660e+002
6.894282e+002, 9.847687e+002
6.899103e+002, 9.858923e+002
6.903925e+002, 9.870145e+002
6.908746e+002, 9.878979e+002
6.913567e+002, 9.883554e+002
6.918388e+002, 9.874979e+002
6.923209e+002, 9.852369e+002
6.928030e+002, 9.841361e+002
6.932852e+002, 9.851237e+002
6.937673e+002, 9.870388e+002
6.942494e+002, 9.890867e+002
6.947315e+002, 9.911937e+002
6.952136e+002, 9.922931e+002
6.956957e+002, 9.913741e+002
6.961779e+002, 9.906346e+002
6.966600e+002, 9.908433e+002
6.971421e+002, 9.916121e+002
6.976242e+002, 9.924700e+002
6.981063e+002, 9.933851e+002
6.985884e+002, 9.946816e+002
6.990706e+002, 9.966534e+002
6.995527e+002, 9.990930e+002
7.000348e+002, 1.001577e+003
7.005169e+002, 1.004215e+003
7.009990e+002, 1.006110e+003
7.014811e+002, 1.006824e+003
7.019633e+002, 1.007120e+003
7.024454e+002, 1.007321e+003
7.029275e+002, 1.007587e+003
7.034096e+002, 1.008560e+003
7.038917e+002, 1.010572e+003
7.043738e+002, 1.012953e+003
7.048560e+002, 1.015704e+003
7.053381e+002, 1.018525e+003
7.058202e+002, 1.021152e+003
7.063023e+002, 1.023512e+003
7.067844e+002, 1.025433e+003
7.072665e+002, 1.026676e+003
7.077487e+002, 1.027819e+003
7.082308e+002, 1.030769e+003
7.087129e+002, 1.036228e+003
7.091950e+002, 1.040085e+003
7.096771e+002, 1.040585e+003
7.101592e+002, 1.041082e+003
7.106414e+002, 1.044123e+003
7.111235e+002, 1.048641e+003
7.116056e+002, 1.052311e+003
7.120877e+002, 1.054325e+003
7.125698e+002, 1.056489e+003
7.130519e+002, 1.059810e+003
7.135341e+002, 1.063657e+003
7.140162e+002, 1.067312e+003
7.144983e+002, 1.070736e+003
7.149804e+002, 1.074306e+003
7.154625e+002, 1.078288e+003
7.159446e+002, 1.082299e+003
7.164268e+002, 1.085370e+003
7.169089e+002, 1.087116e+003
7.173910e+002, 1.089733e+003
7.178731e+002, 1.093837e+003
7.183552e+002, 1.098104e+003
7.188373e+002, 1.102352e+003
7.193195e+002, 1.106210e+003
7.198016e+002, 1.108965e+003
7.202837e+002, 1.110344e+003
7.207658e+002, 1.111721e+003
7.212479e+002, 1.114183e+003
7.217300e+002, 1.116667e+003
7.222122e+002, 1.117806e+003
7.226943e+002, 1.117888e+003
7.231764e+002, 1.118289e+003
7.236585e+002, 1.119619e+003
7.241406e+002, 1.120992e+003
7.246227e+002, 1.121076e+003
7.251049e+002, 1.119805e+003
7.255870e+002, 1.117802e+003
7.260691e+002, 1.114520e+003
7.265512e+002, 1.111404e+003
7.270333e+002, 1.109705e+003
7.275154e+002, 1.107937e+003
7.279976e+002, 1.104376e+003
7.284797e+002, 1.098925e+003
7.289618e+002, 1.093525e+003
7.294439e+002, 1.088714e+003
7.299260e+002, 1.084555e+003
7.304081e+002, 1.081886e+003
7.308903e+002, 1.079845e+003
7.313724e+002, 1.076203e+003
7.318545e+002, 1.070382e+003
7.323366e+002, 1.063973e+003
7.328187e+002, 1.058673e+003
7.333008e+002, 1.054353e+003
7.337830e+002, 1.049204e+003
7.342651e+002, 1.042503e+003
7.347472e+002, 1.036551e+003
7.352293e+002, 1.032397e+003
7.357114e+002, 1.028739e+003
7.361935e+002, 1.024939e+003
7.366757e+002, 1.020904e+003
7.371578e+002, 1.016280e+003
7.376399e+002, 1.010000e+003
7.381220e+002, 1.004355e+003
7.386041e+002, 1.001505e+003
7.390862e+002, 1.000048e+003
7.395684e+002, 9.976671e+002
7.400505e+002, 9.941402e+002
7.405326e+002, 9.908572e+002
7.410147e+002, 9.889066e+002
7.414968e+002, 9.876843e+002
7.419789e+002, 9.850533e+002
7.424611e+002, 9.801653e+002
7.429432e+002, 9.770989e+002
7.434253e+002, 9.777219e+002
7.439074e+002, 9.783680e+002
7.443895e+002, 9.764030e+002
7.448716e+002, 9.731667e+002
7.453538e+002, 9.712910e+002
7.458359e+002, 9.716913e+002
7.463180e+002, 9.717779e+002
7.468001e+002, 9.700133e+002
7.472822e+002, 9.676476e+002
7.477643e+002, 9.655994e+002
7.482465e+002, 9.641219e+002
7.487286e+002, 9.637754e+002
7.492107e+002, 9.648221e+002
7.496928e+002, 9.661027e+002
7.501749e+002, 9.658066e+002
7.506570e+002, 9.638577e+002
7.511392e+002, 9.618219e+002
7.516213e+002, 9.594254e+002
7.521034e+002, 9.575703e+002
7.525855e+002, 9.570724e+002
7.530676e+002, 9.569811e+002
7.535497e+002, 9.560486e+002
7.540319e+002, 9.542281e+002
7.545140e+002, 9.526737e+002
7.549961e+002, 9.517596e+002
7.554782e+002, 9.510741e+002
7.559603e+002, 9.507949e+002
7.564424e+002, 9.504085e+002
7.569246e+002, 9.487678e+002
7.574067e+002, 9.458770e+002
7.578888e+002, 9.434064e+002
7.583709e+002, 9.429181e+002
7.588530e+002, 9.437750e+002
7.593351e+002, 9.438316e+002
7.598173e+002, 9.430179e+002
7.602994e+002, 9.419954e+002
7.607815e+002, 9.407845e+002
7.612636e+002, 9.396314e+002
7.617457e+002, 9.388832e+002
7.622278e+002, 9.384044e+002
7.627100e+002, 9.375266e+002
7.631921e+002, 9.362072e+002
7.636742e+002, 9.345524e+002
7.641563e+002, 9.320057e+002
7.646384e+002, 9.296254e+002
7.651205e+002, 9.283058e+002
7.656027e+002, 9.279131e+002
7.660848e+002, 9.279594e+002
7.665669e+002, 9.282437e+002
7.670490e+002, 9.284708e+002
7.675311e+002, 9.283995e+002
7.680132e+002, 9.279623e+002
7.684954e+002, 9.265252e+002
7.689775e+002, 9.238815e+002
7.694596e+002, 9.216714e+002
7.699417e+002, 9.207151e+002
7.704238e+002, 9.205710e+002
7.709059e+002, 9.205579e+002
7.713881e+002, 9.207816e+002
7.718702e+002, 9.206662e+002
7.723523e+002, 9.201448e+002
7.728344e+002, 9.193698e+002
7.733165e+002, 9.180351e+002
7.737986e+002, 9.166835e+002
7.742808e+002, 9.160140e+002
7.747629e+002, 9.160434e+002
7.752450e+002, 9.160544e+002
7.757271e+002, 9.153821e+002
7.762092e+002, 9.146059e+002
7.766913e+002, 9.150765e+002
7.771735e+002, 9.162889e+002
7.776556e+002, 9.156934e+002
7.781377e+002, 9.126219e+002
7.786198e+002, 9.098857e+002
7.791019e+002, 9.100406e+002
7.795840e+002, 9.124436e+002
7.800662e+002, 9.137991e+002
7.805483e+002, 9.135057e+002
7.810304e+002, 9.132939e+002
7.815125e+002, 9.136948e+002
7.819946e+002, 9.137634e+002
7.824767e+002, 9.126067e+002
7.829589e+002, 9.108932e+002
7.834410e+002, 9.099846e+002
7.839231e+002, 9.103575e+002
7.844052e+002, 9.107773e+002
7.848873e+002, 9.105334e+002
7.853694e+002, 9.099122e+002
7.858516e+002, 9.091443e+002
7.863337e+002, 9.083160e+002
7.868158e+002, 9.075187e+002
7.872979e+002, 9.067968e+002
7.877800e+002, 9.064376e+002
7.882621e+002, 9.069940e+002
7.887443e+002, 9.084113e+002
7.892264e+002, 9.088461e+002
7.897085e+002, 9.078492e+002
7.901906e+002, 9.071348e+002
7.906727e+002, 9.073717e+002
7.911548e+002, 9.079199e+002
7.916370e+002, 9.081589e+002
7.921191e+002, 9.081265e+002
7.926012e+002, 9.080789e+002
7.930833e+002, 9.078044e+002
7.935654e+002, 9.078234e+002
7.940475e+002, 9.090641e+002
7.945297e+002, 9.101816e+002
7.950118e+002, 9.095541e+002
7.954939e+002, 9.074164e+002
7.959760e+002, 9.050469e+002
7.964581e+002, 9.030601e+002
7.969402e+002, 9.017373e+002
7.974224e+002, 9.018779e+002
7.979045e+002, 9.032023e+002
7.983866e+002, 9.038937e+002
7.988687e+002, 9.037957e+002
7.993508e+002, 9.030457e+002
7.998329e+002, 9.015452e+002
8.003151e+002, 8.996857e+002
8.007972e+002, 8.982023e+002
8.012793e+002, 8.971658e+002
8.017614e+002, 8.962222e+002
8.022435e+002, 8.953038e+002
8.027256e+002, 8.945554e+002
8.032078e+002, 8.941617e+002
8.036899e+002, 8.938752e+002
8.041720e+002, 8.932250e+002
8.046541e+002, 8.923206e+002
8.051362e+002, 8.920699e+002
8.056183e+002, 8.934367e+002
8.061005e+002, 8.951273e+002
8.065826e+002, 8.958419e+002
8.070647e+002, 8.958428e+002
8.075468e+002, 8.957859e+002
8.080289e+002, 8.957458e+002
8.085110e+002, 8.950732e+002
8.089932e+002, 8.931498e+002
8.094753e+002, 8.908023e+002
8.099574e+002, 8.904199e+002
8.104395e+002, 8.925898e+002
8.109216e+002, 8.940855e+002
8.114037e+002, 8.946838e+002
8.118859e+002, 8.947000e+002
8.123680e+002, 8.941871e+002
8.128501e+002, 8.932166e+002
8.133322e+002, 8.916905e+002
8.138143e+002, 8.894471e+002
8.142964e+002, 8.878257e+002
8.147786e+002, 8.872443e+002
8.152607e+002, 8.872367e+002
8.157428e+002, 8.878025e+002
8.162249e+002, 8.886452e+002
8.167070e+002, 8.894270e+002
8.171891e+002, 8.900574e+002
8.176713e+002, 8.905778e+002
8.181534e+002, 8.910516e+002
8.186355e+002, 8.913740e+002
8.191176e+002, 8.912423e+002
8.195997e+002, 8.907184e+002
8.200818e+002, 8.901617e+002
8.205640e+002, 8.895514e+002
8.210461e+002, 8.898166e+002
8.215282e+002, 8.920959e+002
8.220103e+002, 8.951810e+002
8.224924e+002, 8.952285e+002
8.229745e+002, 8.899715e+002
8.234567e+002, 8.867283e+002
8.239388e+002, 8.869330e+002
8.244209e+002, 8.874836e+002
8.249030e+002, 8.875846e+002
8.253851e+002, 8.872615e+002
8.258672e+002, 8.862833e+002
8.263494e+002, 8.846685e+002
8.268315e+002, 8.838914e+002
8.273136e+002, 8.855912e+002
8.277957e+002, 8.875209e+002
8.282778e+002, 8.877108e+002
8.287599e+002, 8.867884e+002
8.292421e+002, 8.857010e+002
8.297242e+002, 8.847781e+002
8.302063e+002, 8.844999e+002
8.306884e+002, 8.854042e+002
8.311705e+002, 8.867115e+002
8.316526e+002, 8.860627e+002
8.321348e+002, 8.833473e+002
8.326169e+002, 8.822730e+002
8.330990e+002, 8.837891e+002
8.335811e+002, 8.852173e+002
8.340632e+002, 8.848129e+002
8.345453e+002, 8.833981e+002
8.350275e+002, 8.828494e+002
8.355096e+002, 8.836906e+002
8.359917e+002, 8.837932e+002
8.364738e+002, 8.822766e+002
8.369559e+002, 8.810335e+002
8.374380e+002, 8.803539e+002
8.379202e+002, 8.805585e+002
8.384023e+002, 8.827648e+002
8.388844e+002, 8.865644e+002
8.393665e+002, 8.889171e+002
8.398486e+002, 8.875769e+002
8.403307e+002, 8.848708e+002
8.408129e+002, 8.826525e+002
8.412950e+002, 8.809736e+002
8.417771e+002, 8.799888e+002
8.422592e+002, 8.796913e+002
8.427413e+002, 8.800020e+002
8.432234e+002, 8.809430e+002
8.437056e+002, 8.820098e+002
8.441877e+002, 8.820647e+002
8.446698e+002, 8.810076e+002
8.451519e+002, 8.801559e+002
8.456340e+002, 8.795297e+002
8.461161e+002, 8.791822e+002
8.465983e+002, 8.793917e+002
8.470804e+002, 8.796373e+002
8.475625e+002, 8.789588e+002
8.480446e+002, 8.772449e+002
8.485267e+002, 8.764202e+002
8.490089e+002, 8.774793e+002
8.494910e+002, 8.782457e+002
8.499731e+002, 8.778087e+002
8.504552e+002, 8.770577e+002
8.509373e+002, 8.768611e+002
8.514194e+002, 8.771103e+002
8.519016e+002, 8.771990e+002
8.523837e+002, 8.769124e+002
8.528658e+002, 8.762234e+002
8.533479e+002, 8.746208e+002
8.538300e+002, 8.728207e+002
8.543121e+002, 8.722462e+002
8.547943e+002, 8.727737e+002
8.552764e+002, 8.734296e+002
8.557585e+002, 8.737980e+002
8.562406e+002, 8.737295e+002
8.567227e+002, 8.728324e+002
8.572048e+002, 8.712379e+002
8.576870e+002, 8.707952e+002
8.581691e+002, 8.718602e+002
8.586512e+002, 8.727043e+002
8.591333e+002, 8.730545e+002
8.596154e+002, 8.727861e+002
8.600975e+002, 8.713040e+002
8.605797e+002, 8.690033e+002
8.610618e+002, 8.681141e+002
8.615439e+002, 8.701359e+002
8.620260e+002, 8.710357e+002
8.625081e+002, 8.695397e+002
8.629902e+002, 8.676788e+002
8.634724e+002, 8.661132e+002
8.639545e+002, 8.652278e+002
8.644366e+002, 8.658142e+002
8.649187e+002, 8.680082e+002
8.654008e+002, 8.698402e+002
8.658829e+002, 8.700174e+002
8.663651e+002, 8.691592e+002
8.668472e+002, 8.675104e+002
8.673293e+002, 8.654869e+002
8.678114e+002, 8.640551e+002
8.682935e+002, 8.633878e+002
8.687756e+002, 8.629274e+002
8.692578e+002, 8.622330e+002
8.697399e+002, 8.615026e+002
8.702220e+002, 8.613571e+002
8.707041e+002, 8.618377e+002
8.711862e+002, 8.619066e+002
8.716683e+002, 8.614314e+002
8.721505e+002, 8.606692e+002
8.726326e+002, 8.596525e+002
8.731147e+002, 8.585254e+002
8.735968e+002, 8.574665e+002
8.740789e+002, 8.563959e+002
8.745610e+002, 8.558331e+002
8.750432e+002, 8.563210e+002
8.755253e+002, 8.565800e+002
8.760074e+002, 8.561404e+002
8.764895e+002, 8.555048e+002
8.769716e+002, 8.552119e+002
8.774537e+002, 8.551261e+002
8.779359e+002, 8.546057e+002
8.784180e+002, 8.532869e+002
8.789001e+002, 8.518687e+002
8.793822e+002, 8.507653e+002
8.798643e+002, 8.497997e+002
8.803464e+002, 8.485604e+002
8.808286e+002, 8.472938e+002
8.813107e+002, 8.467020e+002
8.817928e+002, 8.470247e+002
8.822749e+002, 8.478620e+002
8.827570e+002, 8.491230e+002
8.832391e+002, 8.504082e+002
8.837213e+002, 8.500521e+002
8.842034e+002, 8.481940e+002
8.846855e+002, 8.474899e+002
8.851676e+002, 8.487809e+002
8.856497e+002, 8.495507e+002
8.861318e+002, 8.475875e+002
8.866140e+002, 8.438680e+002
8.870961e+002, 8.417709e+002
8.875782e+002, 8.420194e+002
8.880603e+002, 8.420250e+002
8.885424e+002, 8.416316e+002
8.890245e+002, 8.411844e+002
8.895067e+002, 8.411269e+002
8.899888e+002, 8.408992e+002
8.904709e+002, 8.394493e+002
8.909530e+002, 8.367651e+002
8.914351e+002, 8.352764e+002
8.919172e+002, 8.368064e+002
8.923994e+002, 8.379594e+002
8.928815e+002, 8.370500e+002
8.933636e+002, 8.353503e+002
8.938457e+002, 8.335579e+002
8.943278e+002, 8.321758e+002
8.948099e+002, 8.322314e+002
8.952921e+002, 8.343080e+002
8.957742e+002, 8.366764e+002
8.962563e+002, 8.378904e+002
8.967384e+002, 8.382142e+002
8.972205e+002, 8.382353e+002
8.977026e+002, 8.377927e+002
8.981848e+002, 8.356581e+002
8.986669e+002, 8.315654e+002
8.991490e+002, 8.280304e+002
8.996311e+002, 8.276855e+002
9.001132e+002, 8.295848e+002
9.005953e+002, 8.300302e+002
9.010775e+002, 8.288539e+002
9.015596e+002, 8.282280e+002
9.020417e+002, 8.286650e+002
9.025238e+002, 8.289336e+002
9.030059e+002, 8.282275e+002
9.034880e+002, 8.269521e+002
9.039702e+002, 8.258878e+002
9.044523e+002, 8.249880e+002
9.049344e+002, 8.244762e+002
9.054165e+002, 8.246717e+002
9.058986e+002, 8.248291e+002
9.063807e+002, 8.249463e+002
9.068629e+002, 8.248246e+002
9.073450e+002, 8.242088e+002
9.078271e+002, 8.231879e+002
9.083092e+002, 8.221074e+002
9.087913e+002, 8.207402e+002
9.092734e+002, 8.199639e+002
9.097556e+002, 8.206672e+002
9.102377e+002, 8.216972e+002
9.107198e+002, 8.222186e+002
9.112019e+002, 8.222059e+002
9.116840e+002, 8.216013e+002
9.121661e+002, 8.204785e+002
9.126483e+002, 8.195983e+002
9.131304e+002, 8.199266e+002
9.136125e+002, 8.205909e+002
9.140946e+002, 8.199995e+002
9.145767e+002, 8.185383e+002
9.150588e+002, 8.174863e+002
9.155410e+002, 8.170264e+002
9.160231e+002, 8.164757e+002
9.165052e+002, 8.153342e+002
9.169873e+002, 8.142277e+002
9.174694e+002, 8.146676e+002
9.179515e+002, 8.167509e+002
9.184337e+002, 8.175021e+002
9.189158e+002, 8.166164e+002
9.193979e+002, 8.157144e+002
9.198800e+002, 8.152871e+002
9.203621e+002, 8.151856e+002
9.208442e+002, 8.154119e+002
9.213264e+002, 8.158801e+002
9.218085e+002, 8.156564e+002
9.222906e+002, 8.138204e+002
9.227727e+002, 8.128079e+002
9.232548e+002, 8.135114e+002
9.237369e+002, 8.141721e+002
9.242191e+002, 8.137360e+002
9.247012e+002, 8.128458e+002
9.251833e+002, 8.126760e+002
9.256654e+002, 8.134127e+002
9.261475e+002, 8.134733e+002
9.266296e+002, 8.113734e+002
9.271118e+002, 8.096813e+002
9.275939e+002, 8.101508e+002
9.280760e+002, 8.113807e+002
9.285581e+002, 8.118869e+002
9.290402e+002, 8.116486e+002
9.295223e+002, 8.113990e+002
9.300045e+002, 8.115071e+002
9.304866e+002, 8.113387e+002
9.309687e+002, 8.098545e+002
9.314508e+002, 8.079949e+002
9.319329e+002, 8.072612e+002
9.324150e+002, 8.074716e+002
9.328972e+002, 8.079603e+002
9.333793e+002, 8.084881e+002
9.338614e+002, 8.088242e+002
9.343435e+002, 8.087042e+002
9.348256e+002, 8.083964e+002
9.353077e+002, 8.086663e+002
9.357899e+002, 8.094566e+002
9.362720e+002, 8.099554e+002
9.367541e+002, 8.100795e+002
9.372362e+002, 8.097571e+002
9.377183e+002, 8.088034e+002
9.382004e+002, 8.078865e+002
9.386826e+002, 8.081805e+002
9.391647e+002, 8.097389e+002
9.396468e+002, 8.099108e+002
9.401289e+002, 8.078768e+002
9.406110e+002, 8.064932e+002
9.410931e+002, 8.068404e+002
9.415753e+002, 8.072585e+002
9.420574e+002, 8.062542e+002
9.425395e+002, 8.045040e+002
9.430216e+002, 8.039445e+002
9.435037e+002, 8.051871e+002
9.439858e+002, 8.057664e+002
9.444680e+002, 8.047214e+002
9.449501e+002, 8.039244e+002
9.454322e+002, 8.041736e+002
9.459143e+002, 8.049426e+002
9.463964e+002, 8.061072e+002
9.468785e+002, 8.073271e+002
9.473607e+002, 8.072725e+002
9.478428e+002, 8.043608e+002
9.483249e+002, 8.025828e+002
9.488070e+002, 8.053649e+002
9.492891e+002, 8.091604e+002
9.497712e+002, 8.107629e+002
9.502534e+002, 8.106882e+002
9.507355e+002, 8.102668e+002
9.512176e+002, 8.099452e+002
9.516997e+002, 8.098109e+002
9.521818e+002, 8.099326e+002
9.526639e+002, 8.102714e+002
9.531461e+002, 8.110842e+002
9.536282e+002, 8.119928e+002
9.541103e+002, 8.117489e+002
9.545924e+002, 8.105107e+002
9.550745e+002, 8.101666e+002
9.555566e+002, 8.116765e+002
9.560388e+002, 8.133973e+002
9.565209e+002, 8.127972e+002
9.570030e+002, 8.104866e+002
9.574851e+002, 8.096790e+002
9.579672e+002, 8.103658e+002
9.584493e+002, 8.110304e+002
9.589315e+002, 8.113488e+002
9.594136e+002, 8.115355e+002
9.598957e+002, 8.118162e+002
9.603778e+002, 8.119409e+002
9.608599e+002, 8.110281e+002
9.613420e+002, 8.085532e+002
9.618242e+002, 8.079473e+002
9.623063e+002, 8.102843e+002
9.627884e+002, 8.118006e+002
9.632705e+002, 8.108411e+002
9.637526e+002, 8.091455e+002
9.642347e+002, 8.083711e+002
9.647169e+002, 8.084098e+002
9.651990e+002, 8.084653e+002
9.656811e+002, 8.079196e+002
9.661632e+002, 8.083588e+002
9.666453e+002, 8.113469e+002
9.671274e+002, 8.135284e+002
9.676096e+002, 8.128984e+002
9.680917e+002, 8.110282e+002
9.685738e+002, 8.097277e+002
9.690559e+002, 8.091552e+002
9.695380e+002, 8.090800e+002
9.700201e+002, 8.097237e+002
9.705023e+002, 8.104807e+002
9.709844e+002, 8.115402e+002
9.714665e+002, 8.122662e+002
9.719486e+002, 8.119863e+002
9.724307e+002, 8.110259e+002
9.729128e+002, 8.099073e+002
9.733950e+002, 8.087923e+002
9.738771e+002, 8.082656e+002
9.743592e+002, 8.088663e+002
9.748413e+002, 8.100080e+002
9.753234e+002, 8.117227e+002
9.758055e+002, 8.133451e+002
9.762877e+002, 8.139025e+002
9.767698e+002, 8.133858e+002
9.772519e+002, 8.119566e+002
9.777340e+002, 8.096307e+002
9.782161e+002, 8.080526e+002
9.786982e+002, 8.100599e+002
9.791804e+002, 8.134755e+002
9.796625e+002, 8.136107e+002
9.801446e+002, 8.114507e+002
9.806267e+002, 8.108336e+002
9.811088e+002, 8.124046e+002
9.815909e+002, 8.137645e+002
9.820731e+002, 8.132211e+002
9.825552e+002, 8.118016e+002
9.830373e+002, 8.110280e+002
9.835194e+002, 8.109908e+002
9.840015e+002, 8.128070e+002
9.844836e+002, 8.164948e+002
9.849658e+002, 8.194289e+002
9.854479e+002, 8.208615e+002
9.859300e+002, 8.204517e+002
9.864121e+002, 8.174993e+002
9.868942e+002, 8.130516e+002
9.873763e+002, 8.110569e+002
9.878585e+002, 8.118975e+002
9.883406e+002, 8.127433e+002
9.888227e+002, 8.135043e+002
9.893048e+002, 8.141054e+002
9.897869e+002, 8.145549e+002
9.902690e+002, 8.147297e+002
9.907512e+002, 8.143928e+002
9.912333e+002, 8.136033e+002
9.917154e+002, 8.131713e+002
9.921975e+002, 8.135325e+002
9.926796e+002, 8.132750e+002
9.931617e+002, 8.114597e+002
9.936439e+002, 8.101967e+002
9.941260e+002, 8.112238e+002
9.946081e+002, 8.129426e+002
9.950902e+002, 8.128907e+002
9.955723e+002, 8.109945e+002
9.960544e+002, 8.096520e+002
9.965366e+002, 8.091037e+002
9.970187e+002, 8.088964e+002
9.975008e+002, 8.090812e+002
9.979829e+002, 8.094660e+002
9.984650e+002, 8.101292e+002
9.989471e+002, 8.108367e+002
9.994293e+002, 8.112386e+002
9.999114e+002, 8.112911e+002
1.000393e+003, 8.110095e+002
1.000876e+003, 8.100684e+002
1.001358e+003, 8.092112e+002
1.001840e+003, 8.089147e+002
1.002322e+003, 8.087005e+002
1.002804e+003, 8.081318e+002
1.003286e+003, 8.072910e+002
1.003768e+003, 8.064043e+002
1.004250e+003, 8.055267e+002
1.004733e+003, 8.048242e+002
1.005215e+003, 8.043825e+002
1.005697e+003, 8.041621e+002
1.006179e+003, 8.042832e+002
1.006661e+003, 8.045186e+002
1.007143e+003, 8.044702e+002
1.007625e+003, 8.042539e+002
1.008107e+003, 8.043538e+002
1.008589e+003, 8.049766e+002
1.009072e+003, 8.058586e+002
1.009554e+003, 8.070860e+002
1.010036e+003, 8.081865e+002
1.010518e+003, 8.087491e+002
1.011000e+003, 8.086849e+002
1.011482e+003, 8.074452e+002
1.011964e+003, 8.053238e+002
1.012446e+003, 8.038303e+002
1.012929e+003, 8.037946e+002
1.013411e+003, 8.045331e+002
1.013893e+003, 8.053010e+002
1.014375e+003, 8.062101e+002
1.014857e+003, 8.079036e+002
1.015339e+003, 8.099468e+002
1.015821e+003, 8.106859e+002
1.016303e+003, 8.098793e+002
1.016785e+003, 8.087697e+002
1.017268e+003, 8.081418e+002
1.017750e+003, 8.080607e+002
1.018232e+003, 8.088290e+002
1.018714e+003, 8.102312e+002
1.019196e+003, 8.115558e+002
1.019678e+003, 8.127087e+002
1.020160e+003, 8.130855e+002
1.020642e+003, 8.125243e+002
1.021125e+003, 8.115391e+002
1.021607e+003, 8.104199e+002
1.022089e+003, 8.095793e+002
1.022571e+003, 8.102728e+002
1.023053e+003, 8.123825e+002
1.023535e+003, 8.133399e+002
1.024017e+003, 8.129934e+002
1.024499e+003, 8.132284e+002
1.024981e+003, 8.147549e+002
1.025464e+003, 8.161072e+002
1.025946e+003, 8.158253e+002
1.026428e+003, 8.145836e+002
1.026910e+003, 8.146143e+002
1.027392e+003, 8.160966e+002
1.027874e+003, 8.171345e+002
1.028356e+003, 8.176119e+002
1.028838e+003, 8.177852e+002
1.029321e+003, 8.174943e+002
1.029803e+003, 8.177346e+002
1.030285e+003, 8.198152e+002
1.030767e+003, 8.230362e+002
1.031249e+003, 8.240506e+002
1.031731e+003, 8.219514e+002
1.032213e+003, 8.211953e+002
1.032695e+003, 8.223936e+002
1.033177e+003, 8.236737e+002
1.033660e+003, 8.243865e+002
1.034142e+003, 8.248475e+002
1.034624e+003, 8.253616e+002
1.035106e+003, 8.259167e+002
1.035588e+003, 8.263693e+002
1.036070e+003, 8.262986e+002
1.036552e+003, 8.272187e+002
1.037034e+003, 8.300410e+002
1.037516e+003, 8.323375e+002
1.037999e+003, 8.330945e+002
1.038481e+003, 8.330129e+002
1.038963e+003, 8.325897e+002
1.039445e+003, 8.319241e+002
1.039927e+003, 8.317744e+002
1.040409e+003, 8.321323e+002
1.040891e+003, 8.330303e+002
1.041373e+003, 8.345652e+002
1.041855e+003, 8.365141e+002
1.042338e+003, 8.395821e+002
1.042820e+003, 8.424460e+002
1.043302e+003, 8.432988e+002
1.043784e+003, 8.424980e+002
1.044266e+003, 8.428700e+002
1.044748e+003, 8.461407e+002
1.045230e+003, 8.478137e+002
1.045712e+003, 8.453734e+002
1.046195e+003, 8.440466e+002
1.046677e+003, 8.472136e+002
1.047159e+003, 8.515970e+002
1.047641e+003, 8.534294e+002
1.048123e+003, 8.530023e+002
1.048605e+003, 8.533600e+002
1.049087e+003, 8.552028e+002
1.049569e+003, 8.571581e+002
1.050052e+003, 8.589534e+002
1.050534e+003, 8.608969e+002
1.051016e+003, 8.632285e+002
1.051498e+003, 8.657025e+002
1.051980e+003, 8.678659e+002
1.052462e+003, 8.698492e+002
1.052944e+003, 8.725834e+002
1.053426e+003, 8.769850e+002
1.053908e+003, 8.806227e+002
1.054391e+003, 8.825627e+002
1.054873e+003, 8.840408e+002
1.055355e+003, 8.853752e+002
1.055837e+003, 8.868060e+002
1.056319e+003, 8.887584e+002
1.056801e+003, 8.910778e+002
1.057283e+003, 8.929052e+002
1.057765e+003, 8.937316e+002
1.058248e+003, 8.947810e+002
1.058730e+003, 8.965941e+002
1.059212e+003, 8.985305e+002
1.059694e+003, 9.006390e+002
1.060176e+003, 9.024010e+002
1.060658e+003, 9.030518e+002
1.061140e+003, 9.027991e+002
1.061622e+003, 9.028391e+002
1.062104e+003, 9.039666e+002
1.062587e+003, 9.040438e+002
1.063069e+003, 9.017080e+002
1.063551e+003, 8.987822e+002
1.064033e+003, 8.959518e+002
1.064515e+003, 8.933707e+002
1.064997e+003, 8.910930e+002
1.065479e+003, 8.891541e+002
1.065961e+003, 8.878469e+002
1.066443e+003, 8.878156e+002
1.066926e+003, 8.863836e+002
1.067408e+003, 8.812122e+002
1.067890e+003, 8.757489e+002
1.068372e+003, 8.718891e+002
1.068854e+003, 8.689490e+002
1.069336e+003, 8.666099e+002
1.069818e+003, 8.643367e+002
1.070300e+003, 8.607275e+002
1.070782e+003, 8.550577e+002
1.071265e+003, 8.495458e+002
1.071747e+003, 8.448242e+002
1.072229e+003, 8.409085e+002
1.072711e+003, 8.382214e+002
1.073193e+003, 8.360226e+002
1.073675e+003, 8.341095e+002
1.074157e+003, 8.319418e+002
1.074639e+003, 8.281144e+002
1.075122e+003, 8.219777e+002
1.075604e+003, 8.162017e+002
1.076086e+003, 8.119117e+002
1.076568e+003, 8.084467e+002
1.077050e+003, 8.056937e+002
1.077532e+003, 8.033521e+002
1.078014e+003, 8.012869e+002
1.078496e+003, 7.993644e+002
1.078979e+003, 7.973784e+002
1.079461e+003, 7.952719e+002
1.079943e+003, 7.931406e+002
1.080425e+003, 7.910368e+002
1.080907e+003, 7.889313e+002
1.081389e+003, 7.869298e+002
1.081871e+003, 7.848292e+002
1.082353e+003, 7.823016e+002
1.082835e+003, 7.795609e+002
1.083318e+003, 7.769904e+002
1.083800e+003, 7.746877e+002
1.084282e+003, 7.729159e+002
1.084764e+003, 7.722498e+002
1.085246e+003, 7.715543e+002
1.085728e+003, 7.703727e+002
1.086210e+003, 7.688190e+002
1.086692e+003, 7.666162e+002
1.087175e+003, 7.642764e+002
1.087657e+003, 7.627201e+002
1.088139e+003, 7.620754e+002
1.088621e+003, 7.615919e+002
1.089103e+003, 7.614622e+002
1.089585e+003, 7.607396e+002
1.090067e+003, 7.583753e+002
1.090549e+003, 7.558879e+002
1.091031e+003, 7.546132e+002
1.091514e+003, 7.539089e+002
1.091996e+003, 7.523456e+002
1.092478e+003, 7.500023e+002
1.092960e+003, 7.490695e+002
1.093442e+003, 7.514557e+002
1.093924e+003, 7.531433e+002
1.094406e+003, 7.522370e+002
1.094888e+003, 7.505916e+002
1.095370e+003, 7.492500e+002
1.095853e+003, 7.480087e+002
1.096335e+003, 7.464056e+002
1.096817e+003, 7.445231e+002
1.097299e+003, 7.430262e+002
1.097781e+003, 7.423372e+002
1.098263e+003, 7.414270e+002
1.098745e+003, 7.390291e+002
1.099227e+003, 7.374529e+002
1.099709e+003, 7.390132e+002
1.100192e+003, 7.411769e+002
1.100674e+003, 7.409954e+002
1.101156e+003, 7.389853e+002
1.101638e+003, 7.376110e+002
1.102120e+003, 7.374519e+002
1.102602e+003, 7.374734e+002
1.103084e+003, 7.378685e+002
1.103566e+003, 7.378063e+002
1.104049e+003, 7.367186e+002
1.104531e+003, 7.352343e+002
1.105013e+003, 7.333317e+002
1.105495e+003, 7.315837e+002
1.105977e+003, 7.314055e+002
1.106459e+003, 7.332495e+002
1.106941e+003, 7.346461e+002
1.107423e+003, 7.350045e+002
1.107906e+003, 7.351233e+002
1.108388e+003, 7.351976e+002
1.108870e+003, 7.351202e+002
1.109352e+003, 7.349139e+002
1.109834e+003, 7.344736e+002
1.110316e+003, 7.335869e+002
1.110798e+003, 7.322294e+002
1.111280e+003, 7.307823e+002
1.111762e+003, 7.290159e+002
1.112245e+003, 7.275648e+002
1.112727e+003, 7.266481e+002
1.113209e+003, 7.259004e+002
1.113691e+003, 7.251794e+002
1.114173e+003, 7.245136e+002
1.114655e+003, 7.237841e+002
1.115137e+003, 7.230445e+002
1.115619e+003, 7.230541e+002
1.116102e+003, 7.245319e+002
1.116584e+003, 7.254811e+002
1.117066e+003, 7.259427e+002
1.117548e+003, 7.257189e+002
1.118030e+003, 7.238591e+002
1.118512e+003, 7.222515e+002
1.118994e+003, 7.231890e+002
1.119476e+003, 7.258057e+002
1.119958e+003, 7.265269e+002
1.120441e+003, 7.245641e+002
1.120923e+003, 7.232288e+002
1.121405e+003, 7.227878e+002
1.121887e+003, 7.223787e+002
1.122369e+003, 7.216234e+002
1.122851e+003, 7.212094e+002
1.123333e+003, 7.219771e+002
1.123815e+003, 7.230852e+002
1.124297e+003, 7.224758e+002
1.124780e+003, 7.199183e+002
1.125262e+003, 7.187770e+002
1.125744e+003, 7.194779e+002
1.126226e+003, 7.200868e+002
1.126708e+003, 7.203406e+002
1.127190e+003, 7.201700e+002
1.127672e+003, 7.193334e+002
1.128154e+003, 7.186053e+002
1.128636e+003, 7.193608e+002
1.129119e+003, 7.212414e+002
1.129601e+003, 7.209327e+002
1.130083e+003, 7.181281e+002
1.130565e+003, 7.164866e+002
1.131047e+003, 7.164326e+002
1.131529e+003, 7.172144e+002
1.132011e+003, 7.187233e+002
1.132493e+003, 7.194398e+002
1.132976e+003, 7.175041e+002
1.133458e+003, 7.142726e+002
1.133940e+003, 7.141154e+002
1.134422e+003, 7.166857e+002
1.134904e+003, 7.174099e+002
1.135386e+003, 7.161785e+002
1.135868e+003, 7.149694e+002
1.136350e+003, 7.143323e+002
1.136833e+003, 7.142979e+002
1.137315e+003, 7.149664e+002
1.137797e+003, 7.157349e+002
1.138279e+003, 7.152761e+002
1.138761e+003, 7.141404e+002
1.139243e+003, 7.146185e+002
1.139725e+003, 7.161951e+002
1.140207e+003, 7.163094e+002
1.140689e+003, 7.148392e+002
1.141172e+003, 7.141639e+002
1.141654e+003, 7.153957e+002
1.142136e+003, 7.166230e+002
1.142618e+003, 7.155469e+002
1.143100e+003, 7.134627e+002
1.143582e+003, 7.123610e+002
1.144064e+003, 7.120035e+002
1.144546e+003, 7.120138e+002
1.145029e+003, 7.122757e+002
1.145511e+003, 7.126407e+002
1.145993e+003, 7.130628e+002
1.146475e+003, 7.136191e+002
1.146957e+003, 7.144951e+002
1.147439e+003, 7.151743e+002
1.147921e+003, 7.151540e+002
1.148403e+003, 7.146434e+002
1.148885e+003, 7.133577e+002
1.149368e+003, 7.120365e+002
1.149850e+003, 7.121082e+002
1.150332e+003, 7.134625e+002
1.150814e+003, 7.148766e+002
1.151296e+003, 7.160164e+002
1.151778e+003, 7.161208e+002
1.152260e+003, 7.134109e+002
1.152742e+003, 7.110490e+002
1.153224e+003, 7.117551e+002
1.153707e+003, 7.134557e+002
1.154189e+003, 7.138919e+002
1.154671e+003, 7.134263e+002
1.155153e+003, 7.134849e+002
1.155635e+003, 7.143652e+002
1.156117e+003, 7.148641e+002
1.156599e+003, 7.143068e+002
1.157081e+003, 7.137383e+002
1.157563e+003, 7.132102e+002
1.158046e+003, 7.130646e+002
1.158528e+003, 7.138563e+002
1.159010e+003, 7.149395e+002
1.159492e+003, 7.154476e+002
1.159974e+003, 7.153997e+002
1.160456e+003, 7.154210e+002
1.160938e+003, 7.157274e+002
1.161420e+003, 7.157648e+002
1.161903e+003, 7.150876e+002
1.162385e+003, 7.147289e+002
1.162867e+003, 7.148441e+002
1.163349e+003, 7.155558e+002
1.163831e+003, 7.174801e+002
1.164313e+003, 7.197606e+002
1.164795e+003, 7.200219e+002
1.165277e+003, 7.177827e+002
1.165760e+003, 7.178424e+002
1.166242e+003, 7.214142e+002
1.166724e+003, 7.232165e+002
1.167206e+003, 7.218127e+002
1.167688e+003, 7.206477e+002
1.168170e+003, 7.216129e+002
1.168652e+003, 7.232980e+002
1.169134e+003, 7.238403e+002
1.169616e+003, 7.235805e+002
1.170099e+003, 7.243095e+002
1.170581e+003, 7.260512e+002
1.171063e+003, 7.266326e+002
1.171545e+003, 7.259120e+002
1.172027e+003, 7.256308e+002
1.172509e+003, 7.263237e+002
1.172991e+003, 7.272327e+002
1.173473e+003, 7.278546e+002
1.173956e+003, 7.279266e+002
1.174438e+003, 7.263544e+002
1.174920e+003, 7.240262e+002
1.175402e+003, 7.241888e+002
1.175884e+003, 7.261896e+002
1.176366e+003, 7.278420e+002
1.176848e+003, 7.287321e+002
1.177330e+003, 7.287480e+002
1.177813e+003, 7.278893e+002
1.178295e+003, 7.270507e+002
1.178777e+003, 7.267706e+002
1.179259e+003, 7.273092e+002
1.179741e+003, 7.302120e+002
1.180223e+003, 7.332625e+002
1.180705e+003, 7.326661e+002
1.181187e+003, 7.298071e+002
1.181669e+003, 7.278546e+002
1.182151e+003, 7.274129e+002
1.182634e+003, 7.275383e+002
1.183116e+003, 7.279888e+002
1.183598e+003, 7.282486e+002
1.184080e+003, 7.276965e+002
1.184562e+003, 7.272178e+002
1.185044e+003, 7.276628e+002
1.185526e+003, 7.282646e+002
1.186008e+003, 7.281633e+002
1.186490e+003, 7.275559e+002
1.186973e+003, 7.270348e+002
1.187455e+003, 7.266929e+002
1.187937e+003, 7.265002e+002
1.188419e+003, 7.264176e+002
1.188901e+003, 7.265305e+002
1.189383e+003, 7.267021e+002
1.189865e+003, 7.272519e+002
1.190347e+003, 7.292066e+002
1.190830e+003, 7.309222e+002
1.191312e+003, 7.301406e+002
1.191794e+003, 7.275470e+002
1.192276e+003, 7.266180e+002
1.192758e+003, 7.280573e+002
1.193240e+003, 7.287473e+002
1.193722e+003, 7.284844e+002
1.194204e+003, 7.279958e+002
1.194687e+003, 7.272525e+002
1.195169e+003, 7.270316e+002
1.195651e+003, 7.280045e+002
1.196133e+003, 7.292785e+002
1.196615e+003, 7.293962e+002
1.197097e+003, 7.285427e+002
1.197579e+003, 7.278486e+002
1.198061e+003, 7.272919e+002
1.198543e+003, 7.264559e+002
1.199026e+003, 7.253219e+002
1.199508e+003, 7.240599e+002
1.199990e+003, 7.227763e+002
1.200472e+003, 7.223522e+002
1.200954e+003, 7.236437e+002
1.201436e+003, 7.254316e+002
1.201918e+003, 7.258895e+002
1.202400e+003, 7.255043e+002
1.202883e+003, 7.250367e+002
1.203365e+003, 7.246127e+002
1.203847e+003, 7.244308e+002
1.204329e+003, 7.245041e+002
1.204811e+003, 7.249091e+002
1.205293e+003, 7.256385e+002
1.205775e+003, 7.258888e+002
1.206257e+003, 7.246918e+002
1.206740e+003, 7.234079e+002
1.207222e+003, 7.230461e+002
1.207704e+003, 7.230226e+002
1.208186e+003, 7.231033e+002
1.208668e+003, 7.229898e+002
1.209150e+003, 7.219904e+002
1.209632e+003, 7.203790e+002
1.210114e+003, 7.197599e+002
1.210596e+003, 7.210432e+002
1.211078e+003, 7.214805e+002
1.211561e+003, 7.199808e+002
1.212043e+003, 7.183177e+002
1.212525e+003, 7.163631e+002
1.213007e+003, 7.151342e+002
1.213489e+003, 7.157939e+002
1.213971e+003, 7.171505e+002
1.214453e+003, 7.172798e+002
1.214935e+003, 7.162664e+002
1.215417e+003, 7.158057e+002
1.215900e+003, 7.161510e+002
1.216382e+003, 7.161056e+002
1.216864e+003, 7.156502e+002
1.217346e+003, 7.144311e+002
1.217828e+003, 7.121100e+002
1.218310e+003, 7.102732e+002
1.218792e+003, 7.102093e+002
1.219274e+003, 7.110121e+002
1.219757e+003, 7.109802e+002
1.220239e+003, 7.103404e+002
1.220721e+003, 7.103002e+002
1.221203e+003, 7.106661e+002
1.221685e+003, 7.102571e+002
1.222167e+003, 7.091462e+002
1.222649e+003, 7.087125e+002
1.223131e+003, 7.093429e+002
1.223614e+003, 7.096301e+002
1.224096e+003, 7.083306e+002
1.224578e+003, 7.067791e+002
1.225060e+003, 7.062828e+002
1.225542e+003, 7.064993e+002
1.226024e+003, 7.074949e+002
1.226506e+003, 7.086284e+002
1.226988e+003, 7.092659e+002
1.227470e+003, 7.091187e+002
1.227953e+003, 7.074600e+002
1.228435e+003, 7.040212e+002
1.228917e+003, 7.012518e+002
1.229399e+003, 7.002039e+002
1.229881e+003, 6.998257e+002
1.230363e+003, 7.004528e+002
1.230845e+003, 7.008602e+002
1.231327e+003, 6.999803e+002
1.231810e+003, 6.987512e+002
1.232292e+003, 6.984704e+002
1.232774e+003, 6.988184e+002
1.233256e+003, 6.984170e+002
1.233738e+003, 6.969132e+002
1.234220e+003, 6.962007e+002
1.234702e+003, 6.964748e+002
1.235184e+003, 6.970504e+002
1.235667e+003, 6.980772e+002
1.236149e+003, 6.981635e+002
1.236631e+003, 6.963581e+002
1.237113e+003, 6.943989e+002
1.237595e+003, 6.944719e+002
1.238077e+003, 6.958185e+002
1.238559e+003, 6.962927e+002
1.239041e+003, 6.959723e+002
1.239523e+003, 6.949935e+002
1.240005e+003, 6.935742e+002
1.240488e+003, 6.926259e+002
1.240970e+003, 6.923331e+002
1.241452e+003, 6.925624e+002
1.241934e+003, 6.932545e+002
1.242416e+003, 6.938292e+002
1.242898e+003, 6.934000e+002
1.243380e+003, 6.929982e+002
1.243862e+003, 6.943624e+002
1.244344e+003, 6.957070e+002
1.244827e+003, 6.940983e+002
1.245309e+003, 6.914623e+002
1.245791e+003, 6.916116e+002
1.246273e+003, 6.943918e+002
1.246755e+003, 6.962865e+002
1.247237e+003, 6.963304e+002
1.247719e+003, 6.957189e+002
1.248201e+003, 6.937340e+002
1.248684e+003, 6.925187e+002
1.249166e+003, 6.933580e+002
1.249648e+003, 6.944070e+002
1.250130e+003, 6.947836e+002
1.250612e+003, 6.946125e+002
1.251094e+003, 6.938015e+002
1.251576e+003, 6.926149e+002
1.252058e+003, 6.930446e+002
1.252541e+003, 6.955521e+002
1.253023e+003, 6.959662e+002
1.253505e+003, 6.939122e+002
1.253987e+003, 6.932076e+002
1.254469e+003, 6.947656e+002
1.254951e+003, 6.964200e+002
1.255433e+003, 6.969395e+002
1.255915e+003, 6.966840e+002
1.256397e+003, 6.958561e+002
1.256880e+003, 6.948755e+002
1.257362e+003, 6.945639e+002
1.257844e+003, 6.947195e+002
1.258326e+003, 6.948817e+002
1.258808e+003, 6.951887e+002
1.259290e+003, 6.962288e+002
1.259772e+003, 6.978895e+002
1.260254e+003, 6.993516e+002
1.260737e+003, 7.003385e+002
1.261219e+003, 7.006409e+002
1.261701e+003, 6.992989e+002
1.262183e+003, 6.983915e+002
1.262665e+003, 6.993237e+002
1.263147e+003, 7.006340e+002
1.263629e+003, 7.010014e+002
1.264111e+003, 7.012355e+002
1.264594e+003, 7.030443e+002
1.265076e+003, 7.059442e+002
1.265558e+003, 7.069073e+002
1.266040e+003, 7.051885e+002
1.266522e+003, 7.042205e+002
1.267004e+003, 7.041546e+002
1.267486e+003, 7.042960e+002
1.267968e+003, 7.045175e+002
1.268450e+003, 7.048842e+002
1.268932e+003, 7.054009e+002
1.269415e+003, 7.063485e+002
1.269897e+003, 7.082634e+002
1.270379e+003, 7.103604e+002
1.270861e+003, 7.103505e+002
1.271343e+003, 7.090904e+002
1.271825e+003, 7.091022e+002
1.272307e+003, 7.102192e+002
1.272789e+003, 7.119960e+002
1.273271e+003, 7.139718e+002
1.273754e+003, 7.146666e+002
1.274236e+003, 7.135922e+002
1.274718e+003, 7.131334e+002
1.275200e+003, 7.156835e+002
1.275682e+003, 7.180577e+002
1.276164e+003, 7.178154e+002
1.276646e+003, 7.173320e+002
1.277128e+003, 7.183236e+002
1.277611e+003, 7.200214e+002
1.278093e+003, 7.213362e+002
1.278575e+003, 7.225185e+002
1.279057e+003, 7.248492e+002
1.279539e+003, 7.287502e+002
1.280021e+003, 7.307333e+002
1.280503e+003, 7.296498e+002
1.280985e+003, 7.295436e+002
1.281468e+003, 7.312449e+002
1.281950e+003, 7.331638e+002
1.282432e+003, 7.346999e+002
1.282914e+003, 7.362783e+002
1.283396e+003, 7.383134e+002
1.283878e+003, 7.404708e+002
1.284360e+003, 7.418243e+002
1.284842e+003, 7.425858e+002
1.285324e+003, 7.434594e+002
##END=



