##NAMES=Olivenite
##RRUFFID=R040181
##IDEAL CHEMISTRY=Cu^2+^_2_As^5+^O_4_(OH)
##LOCALITY=Majuba Hill, Pershing County, Nevada, USA
##OWNER=RRUFF
##SOURCE=University of Arizona Mineral Museum
##DESCRIPTION=Greenish blue prismatic, untwinned. Structure for this sample reported in Li et al (2008).
##STATUS=The identification of this mineral has been confirmed by X-ray diffraction and chemical analysis
##URL=rruff.info/R040181
##MEASURED CHEMISTRY=(Cu_0.98_[box]_0.02_)_2_(As_0.90_P_0.10_O_4_)(OH)_0.92_
161.9993, 603.8096
162.4814, 603.0806
162.9636, 602.7573
163.4457, 600.9540
163.9278, 595.7227
164.4099, 588.9755
164.8920, 584.2133
165.3741, 581.7752
165.8563, 580.4449
166.3384, 580.9136
166.8205, 581.8389
167.3026, 580.7069
167.7847, 575.4805
168.2668, 567.8688
168.7490, 561.3058
169.2311, 555.5120
169.7132, 551.4826
170.1953, 550.5174
170.6774, 551.3627
171.1595, 552.1528
171.6417, 552.0054
172.1238, 551.2708
172.6059, 551.0354
173.0880, 552.0515
173.5701, 551.9671
174.0522, 549.5782
174.5344, 545.6129
175.0165, 540.8747
175.4986, 535.0417
175.9807, 529.0953
176.4628, 525.8668
176.9449, 526.4961
177.4271, 527.9156
177.9092, 529.2579
178.3913, 530.4611
178.8734, 531.3881
179.3555, 531.8814
179.8376, 532.1523
180.3197, 533.0933
180.8019, 536.0164
181.2840, 537.1330
181.7661, 534.7208
182.2482, 530.3206
182.7303, 525.6263
183.2124, 521.2401
183.6946, 517.4215
184.1767, 515.2712
184.6588, 516.7767
185.1409, 516.3923
185.6230, 511.3331
186.1051, 504.3864
186.5873, 498.7082
187.0694, 495.8200
187.5515, 494.8807
188.0336, 493.6801
188.5157, 492.2226
188.9978, 490.4635
189.4800, 488.2089
189.9621, 485.7949
190.4442, 483.8954
190.9263, 482.9529
191.4084, 481.8656
191.8905, 477.1473
192.3727, 463.4803
192.8548, 456.0192
193.3369, 462.0484
193.8190, 472.1635
194.3011, 476.6766
194.7832, 471.6692
195.2654, 461.9378
195.7475, 458.3474
196.2296, 466.0512
196.7117, 470.2027
197.1938, 466.0454
197.6759, 459.6696
198.1581, 456.5476
198.6402, 458.4810
199.1223, 462.9892
199.6044, 465.1994
200.0865, 462.6693
200.5686, 462.8468
201.0508, 468.0407
201.5329, 474.6375
202.0150, 480.3127
202.4971, 484.3108
202.9792, 486.6178
203.4613, 486.7643
203.9435, 482.7968
204.4256, 481.1475
204.9077, 483.7310
205.3898, 487.2169
205.8719, 489.6766
206.3540, 490.5969
206.8362, 490.3126
207.3183, 488.5776
207.8004, 483.1288
208.2825, 482.3170
208.7646, 492.5845
209.2467, 502.0300
209.7289, 502.1573
210.2110, 492.9397
210.6931, 481.6092
211.1752, 476.8205
211.6573, 480.7136
212.1395, 483.4759
212.6216, 482.9767
213.1037, 483.2086
213.5858, 487.2922
214.0679, 494.4561
214.5500, 501.0341
215.0322, 503.1340
215.5143, 499.9620
215.9964, 497.4891
216.4785, 496.2377
216.9606, 495.1778
217.4427, 493.0206
217.9249, 490.5582
218.4070, 490.1329
218.8891, 494.4177
219.3712, 503.6585
219.8533, 508.6162
220.3354, 503.8498
220.8176, 499.8871
221.2997, 499.8213
221.7818, 502.7614
222.2639, 506.6923
222.7460, 510.5005
223.2281, 514.0192
223.7103, 515.1061
224.1924, 510.8499
224.6745, 507.1853
225.1566, 504.0764
225.6387, 502.5570
226.1208, 504.7983
226.6030, 512.6339
227.0851, 523.8179
227.5672, 528.6318
228.0493, 520.9809
228.5314, 514.8505
229.0135, 514.1753
229.4957, 515.6420
229.9778, 514.7507
230.4599, 509.3481
230.9420, 502.2474
231.4241, 500.8658
231.9062, 510.1494
232.3884, 516.7625
232.8705, 517.3717
233.3526, 515.8731
233.8347, 516.0425
234.3168, 519.0479
234.7989, 522.6418
235.2811, 523.1687
235.7632, 520.5654
236.2453, 514.7194
236.7274, 501.4101
237.2095, 488.1378
237.6916, 479.7688
238.1738, 477.2633
238.6559, 478.3646
239.1380, 481.3678
239.6201, 487.8067
240.1022, 490.3452
240.5843, 486.4416
241.0665, 480.4641
241.5486, 472.5421
242.0307, 463.7788
242.5128, 457.3631
242.9949, 457.7487
243.4770, 465.8586
243.9592, 469.6204
244.4413, 465.5282
244.9234, 460.0595
245.4055, 454.2818
245.8876, 448.9575
246.3697, 445.4677
246.8519, 445.3719
247.3340, 448.1775
247.8161, 449.3179
248.2982, 447.0381
248.7803, 445.4220
249.2624, 446.9540
249.7446, 449.8578
250.2267, 451.0363
250.7088, 448.3140
251.1909, 443.3656
251.6730, 441.4866
252.1551, 445.0919
252.6373, 446.7839
253.1194, 443.4928
253.6015, 437.6078
254.0836, 431.0165
254.5657, 423.9655
255.0478, 418.1169
255.5300, 416.6787
256.0121, 420.8271
256.4942, 424.9605
256.9763, 427.6112
257.4584, 429.5645
257.9406, 431.5828
258.4227, 433.8495
258.9048, 435.3047
259.3869, 434.3656
259.8690, 430.8991
260.3511, 427.9858
260.8333, 425.4272
261.3154, 424.4164
261.7975, 425.5401
262.2796, 428.8465
262.7617, 434.2219
263.2438, 444.2145
263.7260, 457.2827
264.2081, 463.4411
264.6902, 457.6293
265.1723, 450.9292
265.6544, 452.7176
266.1365, 460.6162
266.6187, 466.7466
267.1008, 465.4885
267.5829, 460.2971
268.0650, 458.7891
268.5471, 462.0450
269.0292, 466.0283
269.5114, 468.3061
269.9935, 469.3829
270.4756, 469.8389
270.9577, 468.3782
271.4398, 467.5394
271.9219, 471.2349
272.4041, 479.6354
272.8862, 486.9440
273.3683, 490.1068
273.8504, 490.3079
274.3325, 490.1298
274.8146, 489.5098
275.2968, 488.8281
275.7789, 487.2572
276.2610, 485.5096
276.7431, 486.9887
277.2252, 494.0336
277.7073, 503.3483
278.1895, 509.8073
278.6716, 513.5753
279.1537, 514.9664
279.6358, 512.4670
280.1179, 508.0014
280.6000, 504.6020
281.0822, 502.8354
281.5643, 502.8106
282.0464, 506.1785
282.5285, 513.6088
283.0106, 515.6041
283.4927, 506.9411
283.9749, 495.0099
284.4570, 485.9025
284.9391, 480.2147
285.4212, 476.3114
285.9033, 472.9919
286.3854, 470.3384
286.8676, 468.8461
287.3497, 469.5750
287.8318, 470.3221
288.3139, 470.8987
288.7960, 470.7153
289.2781, 467.8788
289.7603, 460.8518
290.2424, 451.1915
290.7245, 445.6786
291.2066, 447.8534
291.6887, 449.4741
292.1708, 449.6370
292.6530, 448.4703
293.1351, 445.4262
293.6172, 440.3889
294.0993, 435.2984
294.5814, 433.8140
295.0635, 439.3142
295.5457, 442.0562
296.0278, 438.2491
296.5099, 434.5977
296.9920, 437.5959
297.4741, 446.8339
297.9562, 455.4868
298.4384, 455.9749
298.9205, 446.6546
299.4026, 440.5534
299.8847, 440.0306
300.3668, 440.2596
300.8489, 439.3437
301.3311, 437.8900
301.8131, 437.7970
302.2953, 440.7118
302.7774, 445.5641
303.2595, 446.6034
303.7416, 440.2321
304.2237, 435.2604
304.7058, 434.2083
305.1880, 435.0187
305.6701, 435.5241
306.1522, 434.9212
306.6343, 433.8167
307.1164, 432.8947
307.5985, 431.7718
308.0807, 432.2921
308.5628, 438.9785
309.0449, 444.4421
309.5270, 442.5995
310.0091, 433.5247
310.4912, 424.3203
310.9734, 421.4195
311.4555, 424.2763
311.9376, 427.0697
312.4197, 429.4439
312.9018, 431.6690
313.3839, 434.6746
313.8661, 437.7810
314.3482, 439.0726
314.8303, 436.3934
315.3124, 431.9417
315.7945, 429.7452
316.2766, 430.1424
316.7588, 430.8157
317.2409, 430.3835
317.7230, 429.5077
318.2051, 429.3646
318.6872, 430.5388
319.1693, 431.6757
319.6515, 431.1255
320.1336, 429.4576
320.6157, 429.7153
321.0978, 433.9888
321.5799, 438.9392
322.0620, 437.9350
322.5442, 429.5883
323.0263, 424.8548
323.5084, 429.8246
323.9905, 438.8465
324.4726, 444.7961
324.9547, 446.4963
325.4369, 446.1880
325.9190, 445.8907
326.4011, 445.6200
326.8832, 444.4863
327.3653, 440.2102
327.8474, 437.1685
328.3296, 439.3167
328.8117, 444.9986
329.2938, 448.9477
329.7759, 447.8643
330.2580, 443.0751
330.7401, 440.6310
331.2223, 442.5297
331.7044, 444.3073
332.1865, 445.4361
332.6686, 446.2580
333.1507, 447.1849
333.6328, 448.3310
334.1150, 449.4850
334.5971, 450.3250
335.0792, 450.7278
335.5613, 451.1311
336.0434, 451.6165
336.5255, 452.0316
337.0077, 451.8188
337.4898, 451.3714
337.9719, 451.8895
338.4540, 454.6219
338.9361, 459.2159
339.4182, 462.6842
339.9004, 466.1407
340.3825, 466.4862
340.8646, 459.2204
341.3467, 450.0000
341.8288, 446.6129
342.3109, 452.6041
342.7931, 462.2747
343.2752, 466.3527
343.7573, 463.6510
344.2394, 464.1816
344.7215, 476.0398
345.2036, 487.2568
345.6858, 486.8758
346.1679, 474.6696
346.6500, 461.9731
347.1321, 455.4320
347.6142, 453.8529
348.0963, 454.6628
348.5785, 458.5373
349.0606, 461.9178
349.5427, 460.4440
350.0248, 456.0259
350.5069, 454.5001
350.9890, 459.9463
351.4712, 466.2271
351.9533, 467.9842
352.4354, 465.9319
352.9175, 463.8977
353.3996, 463.6609
353.8817, 464.5740
354.3639, 465.2214
354.8460, 466.8515
355.3281, 465.8771
355.8102, 458.7440
356.2923, 449.8229
356.7744, 444.4439
357.2566, 443.6721
357.7387, 445.2571
358.2208, 447.0144
358.7029, 449.3271
359.1850, 449.4352
359.6671, 444.2842
360.1493, 440.2795
360.6314, 442.0880
361.1135, 447.2321
361.5956, 450.0445
362.0777, 447.0548
362.5598, 439.7466
363.0420, 433.3950
363.5241, 427.6085
364.0062, 423.6060
364.4883, 423.0099
364.9704, 423.1118
365.4525, 421.3193
365.9347, 417.2347
366.4168, 412.8825
366.8989, 411.0614
367.3810, 412.0158
367.8631, 410.8901
368.3452, 404.4384
368.8274, 399.6435
369.3095, 401.8331
369.7916, 408.2776
370.2737, 412.2968
370.7558, 409.7029
371.2379, 403.7802
371.7201, 399.9941
372.2022, 398.5423
372.6843, 397.3260
373.1664, 395.0958
373.6485, 392.9040
374.1306, 392.2767
374.6128, 393.4922
375.0949, 395.4338
375.5770, 398.1413
376.0591, 401.0575
376.5412, 403.5104
377.0233, 405.5492
377.5055, 405.4738
377.9876, 400.0396
378.4697, 388.4633
378.9518, 383.5787
379.4339, 391.3664
379.9160, 400.6579
380.3982, 404.7428
380.8803, 404.7712
381.3624, 405.3476
381.8445, 409.2549
382.3266, 414.4094
382.8087, 414.2577
383.2909, 392.2042
383.7730, 387.5149
384.2551, 422.5616
384.7372, 461.0332
385.2193, 469.7917
385.7014, 445.9829
386.1836, 413.3802
386.6657, 396.4665
387.1478, 396.1225
387.6299, 395.7835
388.1120, 395.5346
388.5941, 395.1808
389.0763, 394.5734
389.5584, 393.8445
390.0405, 393.2978
390.5226, 393.1729
391.0047, 392.9372
391.4868, 391.0818
391.9690, 387.2204
392.4511, 385.5443
392.9332, 387.8871
393.4153, 392.3430
393.8974, 398.4600
394.3795, 406.1153
394.8617, 409.9734
395.3438, 403.3640
395.8259, 392.6823
396.3080, 389.2416
396.7901, 394.3156
397.2722, 401.3979
397.7544, 407.1599
398.2365, 411.0782
398.7186, 411.7101
399.2007, 404.7840
399.6828, 399.4138
400.1649, 399.8375
400.6471, 403.9701
401.1292, 408.8462
401.6113, 413.5264
402.0934, 417.4569
402.5755, 419.8701
403.0576, 420.5563
403.5398, 420.1261
404.0219, 415.7975
404.5040, 413.0664
404.9861, 416.5015
405.4682, 423.9638
405.9503, 429.7340
406.4325, 429.9517
406.9146, 426.3680
407.3967, 425.1918
407.8788, 427.3761
408.3609, 430.0836
408.8430, 434.1431
409.3252, 437.5836
409.8073, 438.0986
410.2894, 435.5781
410.7715, 433.2988
411.2536, 434.0947
411.7357, 437.5666
412.2179, 442.1151
412.7000, 448.5058
413.1821, 453.8439
413.6642, 454.8641
414.1463, 453.4660
414.6284, 453.4329
415.1106, 457.3804
415.5927, 460.5351
416.0748, 457.8594
416.5569, 451.3506
417.0390, 447.5506
417.5211, 449.0356
418.0033, 452.7682
418.4854, 454.3765
418.9675, 453.3768
419.4496, 451.6046
419.9317, 446.9776
420.4138, 443.3585
420.8960, 443.6885
421.3781, 447.4302
421.8602, 452.7236
422.3423, 458.7629
422.8244, 464.6023
423.3065, 466.0952
423.7887, 460.8595
424.2708, 454.7145
424.7529, 447.3749
425.2350, 440.0599
425.7171, 433.6939
426.1992, 428.4181
426.6814, 423.9611
427.1635, 420.0326
427.6456, 416.6336
428.1277, 414.2208
428.6098, 413.1281
429.0919, 412.4002
429.5741, 411.7318
430.0562, 411.0466
430.5383, 410.2058
431.0204, 409.1075
431.5025, 407.9968
431.9846, 406.9893
432.4668, 406.1232
432.9489, 405.6654
433.4310, 405.8266
433.9131, 405.9152
434.3952, 404.9581
434.8773, 402.8124
435.3595, 401.2052
435.8416, 399.0682
436.3237, 398.5479
436.8058, 403.0113
437.2879, 410.2082
437.7701, 414.5692
438.2522, 413.1860
438.7343, 407.5749
439.2164, 401.1310
439.6985, 390.0958
440.1806, 385.2982
440.6628, 391.8968
441.1449, 399.8605
441.6270, 402.6062
442.1091, 400.4315
442.5912, 397.5829
443.0733, 397.2906
443.5555, 398.7928
444.0376, 398.8428
444.5197, 396.5294
445.0018, 395.3288
445.4839, 397.9016
445.9660, 401.5737
446.4482, 404.0237
446.9303, 405.0056
447.4124, 404.3951
447.8945, 401.1512
448.3766, 396.4384
448.8587, 392.2135
449.3409, 388.6115
449.8230, 387.3347
450.3051, 391.5031
450.7872, 399.7946
451.2693, 400.0190
451.7514, 382.8481
452.2336, 369.0973
452.7157, 367.3777
453.1978, 372.5519
453.6799, 378.5301
454.1620, 383.2134
454.6441, 385.8466
455.1263, 384.9536
455.6084, 379.5134
456.0905, 376.3469
456.5726, 377.1299
457.0547, 378.6208
457.5368, 380.5313
458.0190, 382.3583
458.5011, 383.1640
458.9832, 382.3271
459.4653, 381.4477
459.9474, 384.0848
460.4295, 390.3398
460.9117, 392.1989
461.3938, 386.1610
461.8759, 377.9218
462.3580, 371.0952
462.8401, 365.9564
463.3222, 364.6782
463.8044, 371.4703
464.2865, 379.5209
464.7686, 382.2604
465.2507, 380.7862
465.7328, 380.3351
466.2149, 383.5887
466.6971, 387.5125
467.1792, 385.6523
467.6613, 371.4012
468.1434, 365.6757
468.6255, 375.1099
469.1076, 387.1233
469.5898, 395.1959
470.0719, 398.9618
470.5540, 399.6906
471.0361, 397.8499
471.5182, 394.4827
472.0003, 392.4968
472.4825, 391.9585
472.9646, 392.6707
473.4467, 396.4608
473.9288, 400.1584
474.4109, 401.3211
474.8930, 400.0646
475.3752, 398.8429
475.8573, 400.7456
476.3394, 402.9158
476.8215, 398.5788
477.3036, 387.5323
477.7857, 379.7054
478.2679, 380.3378
478.7500, 387.1014
479.2321, 395.3156
479.7142, 407.3203
480.1963, 414.8370
480.6784, 412.8916
481.1606, 408.0656
481.6427, 406.0151
482.1248, 407.1813
482.6069, 409.4786
483.0890, 411.4732
483.5711, 413.1576
484.0533, 414.4193
484.5354, 414.1113
485.0175, 415.3526
485.4996, 417.5187
485.9817, 421.9091
486.4638, 432.8797
486.9460, 449.1712
487.4281, 459.9703
487.9102, 451.9753
488.3923, 432.2250
488.8744, 422.8669
489.3565, 425.5157
489.8387, 430.2310
490.3208, 432.1249
490.8029, 433.0350
491.2850, 437.0470
491.7671, 445.7354
492.2492, 452.9507
492.7314, 456.0795
493.2135, 456.9070
493.6956, 457.1920
494.1777, 457.2066
494.6598, 456.8016
495.1419, 455.9446
495.6241, 454.5134
496.1062, 451.5937
496.5883, 444.9286
497.0704, 439.9944
497.5525, 436.7482
498.0346, 435.7164
498.5168, 438.1257
498.9989, 443.6186
499.4810, 449.7124
499.9631, 455.1658
500.4452, 459.5637
500.9273, 461.0768
501.4095, 459.3880
501.8916, 455.9142
502.3737, 448.9553
502.8558, 441.9711
503.3379, 441.2196
503.8200, 448.9112
504.3022, 453.9049
504.7843, 450.0807
505.2664, 442.4804
505.7485, 436.3788
506.2306, 432.3084
506.7127, 429.3344
507.1949, 426.8972
507.6770, 424.9214
508.1591, 423.1089
508.6412, 421.5628
509.1233, 420.0258
509.6054, 417.7772
510.0876, 416.0674
510.5697, 416.7250
511.0518, 419.1154
511.5339, 420.1680
512.0161, 416.8932
512.4982, 411.2023
512.9803, 408.5704
513.4624, 409.5185
513.9445, 410.5545
514.4266, 410.9391
514.9088, 410.3944
515.3909, 408.6748
515.8730, 405.7673
516.3551, 402.0122
516.8372, 395.7254
517.3193, 389.9439
517.8015, 388.1561
518.2836, 389.6470
518.7657, 390.9585
519.2478, 390.2653
519.7299, 388.2650
520.2120, 386.6411
520.6942, 385.9325
521.1763, 384.5401
521.6584, 381.9839
522.1405, 379.2836
522.6226, 375.7906
523.1047, 372.6153
523.5869, 372.7390
524.0690, 378.8263
524.5511, 386.5119
525.0332, 388.6930
525.5153, 385.3920
525.9974, 379.5824
526.4796, 369.7749
526.9617, 361.2289
527.4438, 361.7800
527.9259, 370.1060
528.4080, 374.5530
528.8901, 370.5997
529.3723, 365.2046
529.8544, 361.2840
530.3365, 359.1177
530.8186, 359.2370
531.3007, 361.7809
531.7828, 365.7835
532.2650, 370.1137
532.7471, 374.9940
533.2292, 378.9230
533.7113, 382.0452
534.1934, 383.9635
534.6755, 384.1709
535.1577, 383.2765
535.6398, 381.8932
536.1219, 380.1115
536.6040, 378.6163
537.0861, 378.0168
537.5682, 378.2148
538.0504, 378.8425
538.5325, 379.8103
539.0146, 381.6685
539.4967, 385.4672
539.9788, 390.4272
540.4609, 392.6436
540.9431, 389.6828
541.4252, 387.6631
541.9073, 390.4165
542.3894, 392.9890
542.8715, 389.2426
543.3536, 379.6927
543.8358, 370.4315
544.3179, 366.0344
544.8000, 366.0929
545.2821, 369.5471
545.7642, 378.3307
546.2463, 385.2063
546.7285, 387.9599
547.2106, 388.2824
547.6927, 386.6787
548.1748, 383.4336
548.6569, 380.6526
549.1390, 379.1363
549.6211, 378.6409
550.1032, 378.9529
550.5853, 380.0668
551.0674, 382.1498
551.5496, 385.3983
552.0317, 389.1396
552.5138, 392.5751
552.9959, 396.6483
553.4780, 397.0675
553.9601, 389.1647
554.4423, 383.1332
554.9244, 385.0781
555.4065, 390.9690
555.8886, 394.3076
556.3707, 392.6978
556.8528, 388.7458
557.3350, 384.2790
557.8171, 379.7250
558.2992, 379.3616
558.7813, 385.0027
559.2634, 390.4172
559.7455, 392.3252
560.2277, 390.5965
560.7098, 385.3278
561.1919, 372.3844
561.6740, 363.1313
562.1561, 363.2007
562.6382, 367.4497
563.1204, 371.2195
563.6025, 373.6368
564.0846, 375.1317
564.5667, 376.0218
565.0488, 376.2594
565.5309, 375.4999
566.0131, 373.0612
566.4952, 371.3504
566.9773, 371.0288
567.4594, 371.3899
567.9415, 372.3720
568.4236, 373.7570
568.9058, 374.7410
569.3879, 375.3558
569.8700, 375.0927
570.3521, 372.7726
570.8342, 369.0621
571.3163, 366.3079
571.7985, 365.2750
572.2806, 364.8306
572.7627, 363.3877
573.2448, 360.5746
573.7269, 360.3078
574.2090, 366.9810
574.6912, 370.8253
575.1733, 366.1212
575.6554, 359.0418
576.1375, 357.1636
576.6196, 361.8483
577.1017, 367.4077
577.5839, 369.7093
578.0660, 368.7527
578.5481, 362.5574
579.0302, 350.0046
579.5123, 342.4958
579.9944, 347.5773
580.4766, 358.6923
580.9587, 362.5536
581.4408, 357.1451
581.9229, 354.4629
582.4050, 359.9594
582.8871, 365.2133
583.3693, 364.3432
583.8514, 358.8029
584.3335, 351.6655
584.8156, 344.3220
585.2977, 338.8705
585.7798, 339.6846
586.2620, 347.4806
586.7441, 353.2707
587.2262, 356.9423
587.7083, 358.0986
588.1904, 354.3600
588.6725, 348.5469
589.1547, 345.4009
589.6368, 346.2946
590.1189, 347.8575
590.6010, 348.3300
591.0831, 348.6359
591.5652, 350.2369
592.0474, 353.0175
592.5295, 355.7426
593.0116, 357.7378
593.4937, 358.6466
593.9758, 357.0211
594.4579, 351.0258
594.9401, 346.8844
595.4222, 346.6269
595.9043, 346.9999
596.3864, 345.8085
596.8685, 343.9894
597.3506, 344.4134
597.8328, 349.6414
598.3149, 354.4833
598.7970, 351.9492
599.2791, 345.5672
599.7612, 345.9052
600.2433, 355.0279
600.7255, 363.6329
601.2076, 363.3579
601.6897, 355.5707
602.1718, 351.4751
602.6539, 355.1924
603.1360, 357.0468
603.6182, 354.7209
604.1003, 351.5664
604.5824, 350.6590
605.0645, 351.4648
605.5466, 350.6028
606.0287, 344.6282
606.5109, 337.9744
606.9930, 339.1780
607.4751, 346.8990
607.9572, 349.3989
608.4393, 342.4601
608.9214, 334.8927
609.4036, 336.1670
609.8857, 346.3377
610.3678, 352.8463
610.8499, 354.5277
611.3320, 354.3970
611.8141, 351.5168
612.2963, 348.1742
612.7784, 346.9169
613.2605, 347.7773
613.7426, 348.5986
614.2247, 347.2328
614.7068, 345.1048
615.1890, 346.7836
615.6711, 352.5652
616.1532, 355.1395
616.6353, 351.3661
617.1174, 345.4872
617.5995, 342.0207
618.0817, 341.0209
618.5638, 340.4024
619.0459, 339.5483
619.5280, 339.6841
620.0101, 342.2076
620.4922, 345.5323
620.9744, 348.0370
621.4565, 349.2256
621.9386, 348.8937
622.4207, 346.3938
622.9028, 342.4227
623.3849, 339.7814
623.8671, 338.6326
624.3492, 337.9179
624.8313, 337.5714
625.3134, 337.2410
625.7955, 336.0486
626.2776, 334.0598
626.7598, 333.7083
627.2419, 336.8169
627.7240, 340.0297
628.2061, 342.0741
628.6882, 342.9723
629.1703, 342.3260
629.6525, 340.3252
630.1346, 338.6036
630.6167, 339.0145
631.0988, 341.0426
631.5809, 341.5471
632.0630, 339.9382
632.5452, 339.2618
633.0273, 341.8039
633.5094, 344.3282
633.9915, 342.0119
634.4736, 335.2242
634.9557, 331.8315
635.4379, 336.0716
635.9200, 341.2902
636.4021, 344.6148
636.8842, 346.1537
637.3663, 346.3410
637.8484, 345.2534
638.3306, 342.2083
638.8127, 335.1980
639.2948, 325.8719
639.7769, 326.4345
640.2590, 341.4343
640.7411, 349.7831
641.2233, 340.5998
641.7054, 326.9347
642.1875, 322.7611
642.6696, 327.2744
643.1517, 330.8432
643.6339, 331.1540
644.1160, 330.3892
644.5981, 329.6712
645.0802, 328.6829
645.5623, 325.2608
646.0444, 319.8587
646.5266, 318.5605
647.0087, 328.8451
647.4908, 346.8735
647.9729, 352.9783
648.4550, 343.4580
648.9371, 336.8847
649.4193, 340.2571
649.9014, 345.7010
650.3835, 345.0163
650.8656, 339.1754
651.3477, 335.0052
651.8298, 334.6653
652.3120, 335.0573
652.7941, 335.0039
653.2762, 334.6746
653.7583, 333.8343
654.2404, 332.7719
654.7225, 333.1521
655.2047, 336.9122
655.6868, 342.3369
656.1689, 343.3540
656.6510, 339.2900
657.1331, 334.6811
657.6152, 329.2220
658.0974, 325.2879
658.5795, 326.6734
659.0616, 331.9004
659.5437, 334.2459
660.0258, 330.3497
660.5079, 326.9298
660.9901, 326.1328
661.4722, 327.0203
661.9543, 328.6060
662.4364, 330.8314
662.9185, 334.6552
663.4006, 341.3148
663.8828, 348.2254
664.3649, 349.1712
664.8470, 343.9569
665.3291, 338.8591
665.8112, 334.0874
666.2933, 331.4388
666.7755, 333.9068
667.2576, 339.6642
667.7397, 340.6494
668.2218, 332.0627
668.7039, 326.5389
669.1860, 328.1867
669.6682, 332.4015
670.1503, 337.0055
670.6324, 340.9125
671.1145, 342.1808
671.5966, 339.5540
672.0787, 336.1970
672.5609, 337.9295
673.0430, 343.5784
673.5251, 343.4856
674.0072, 335.4829
674.4893, 329.4788
674.9714, 332.6079
675.4536, 340.7338
675.9357, 342.8376
676.4178, 334.7965
676.8999, 329.7539
677.3820, 329.6379
677.8641, 330.9583
678.3463, 333.4115
678.8284, 335.5490
679.3105, 334.8381
679.7926, 330.4815
680.2747, 325.7498
680.7568, 323.7195
681.2390, 323.6167
681.7211, 324.2075
682.2032, 325.3180
682.6853, 324.4214
683.1674, 319.6324
683.6495, 315.0337
684.1317, 317.7116
684.6138, 329.9937
685.0959, 337.1614
685.5780, 335.8351
686.0601, 333.4499
686.5422, 329.4807
687.0244, 326.7092
687.5065, 329.7556
687.9886, 338.3375
688.4707, 343.9542
688.9528, 338.7113
689.4349, 330.4044
689.9171, 327.7396
690.3992, 329.4203
690.8813, 331.8505
691.3634, 333.9988
691.8455, 335.7358
692.3276, 337.1231
692.8098, 337.9507
693.2919, 336.0143
693.7740, 329.6203
694.2561, 324.1611
694.7382, 318.9680
695.2203, 316.5875
695.7025, 320.5667
696.1846, 329.0840
696.6667, 335.2843
697.1488, 336.3918
697.6309, 336.4728
698.1130, 339.5700
698.5952, 341.7730
699.0773, 335.6771
699.5594, 322.9172
700.0415, 313.2042
700.5236, 312.5082
701.0057, 318.2698
701.4879, 327.8551
701.9700, 341.9367
702.4521, 344.5478
702.9342, 329.2937
703.4163, 315.3925
703.8984, 315.4165
704.3806, 324.0722
704.8627, 328.1947
705.3448, 325.2708
705.8269, 325.3520
706.3090, 333.2033
706.7911, 341.0462
707.2733, 345.6043
707.7554, 346.4744
708.2375, 342.3109
708.7196, 333.0434
709.2017, 323.9683
709.6838, 319.7831
710.1660, 319.6665
710.6481, 322.5267
711.1302, 328.1247
711.6123, 333.1449
712.0944, 336.6798
712.5765, 337.9593
713.0587, 335.4644
713.5408, 328.9018
714.0229, 324.8160
714.5050, 323.8415
714.9871, 324.6259
715.4692, 330.1685
715.9514, 334.8472
716.4335, 332.5737
716.9156, 324.7559
717.3977, 319.1939
717.8798, 320.4331
718.3619, 322.9364
718.8441, 321.8821
719.3262, 319.2530
719.8083, 318.7652
720.2904, 320.6041
720.7725, 321.9974
721.2546, 320.9185
721.7368, 318.8862
722.2189, 319.9501
722.7010, 324.7393
723.1831, 328.2662
723.6652, 329.9186
724.1473, 330.7691
724.6295, 331.2623
725.1116, 331.3832
725.5937, 331.4466
726.0758, 332.1313
726.5579, 330.3288
727.0400, 320.6807
727.5222, 313.2498
728.0043, 315.8897
728.4864, 324.1059
728.9685, 331.3487
729.4506, 335.4602
729.9327, 336.0501
730.4149, 330.5319
730.8970, 322.1224
731.3791, 318.1527
731.8612, 318.3227
732.3433, 320.0504
732.8254, 322.7609
733.3076, 325.7819
733.7897, 328.5606
734.2718, 331.0422
734.7539, 332.6845
735.2360, 334.2946
735.7181, 333.6587
736.2003, 328.0114
736.6824, 322.4649
737.1645, 320.2569
737.6466, 320.6934
738.1287, 321.5581
738.6108, 322.3566
739.0930, 323.2638
739.5751, 325.0006
740.0572, 326.4860
740.5393, 326.3466
741.0214, 324.7528
741.5035, 322.1228
741.9857, 318.6495
742.4678, 316.1385
742.9499, 318.7447
743.4320, 325.7641
743.9141, 326.1232
744.3962, 318.0356
744.8784, 312.4727
745.3605, 313.9584
745.8426, 319.5990
746.3247, 326.7561
746.8068, 336.2133
747.2889, 339.3572
747.7711, 330.2888
748.2532, 322.9529
748.7353, 321.9805
749.2174, 323.0822
749.6995, 322.9304
750.1816, 321.1225
750.6638, 317.8436
751.1459, 311.4699
751.6280, 306.9382
752.1101, 310.5020
752.5922, 318.5452
753.0743, 324.0685
753.5565, 326.5849
754.0386, 330.4022
754.5207, 338.4556
755.0028, 346.1615
755.4849, 342.0972
755.9670, 323.9412
756.4492, 317.0674
756.9313, 326.4003
757.4134, 335.7752
757.8955, 338.4326
758.3776, 337.1708
758.8597, 335.7097
759.3419, 333.9273
759.8240, 333.1654
760.3061, 336.7422
760.7882, 337.5103
761.2703, 328.1710
761.7524, 317.6950
762.2346, 317.1360
762.7167, 325.8979
763.1988, 333.8240
763.6809, 335.3062
764.1630, 333.1993
764.6451, 329.2276
765.1273, 324.5165
765.6094, 321.7840
766.0915, 321.3924
766.5736, 322.7992
767.0557, 325.8891
767.5378, 329.5713
768.0200, 330.9830
768.5021, 329.2878
768.9842, 331.0167
769.4663, 339.4420
769.9484, 344.3351
770.4305, 338.5688
770.9127, 328.6525
771.3948, 324.0497
771.8769, 325.1021
772.3590, 326.3433
772.8411, 328.1088
773.3232, 328.8407
773.8054, 327.7513
774.2875, 325.4508
774.7696, 321.4662
775.2517, 316.6945
775.7338, 314.4760
776.2159, 317.6213
776.6981, 321.9729
777.1802, 322.6066
777.6623, 320.9519
778.1444, 320.4929
778.6265, 321.4479
779.1086, 321.4977
779.5908, 319.1843
780.0729, 316.3995
780.5550, 317.3183
781.0371, 322.6291
781.5192, 324.1002
782.0013, 319.4909
782.4835, 317.2313
782.9656, 322.6795
783.4477, 329.9672
783.9298, 331.0887
784.4119, 325.9075
784.8940, 321.8240
785.3762, 317.2061
785.8583, 316.2447
786.3404, 323.1238
786.8225, 331.6993
787.3046, 337.3205
787.7867, 339.7965
788.2689, 340.3182
788.7510, 338.6656
789.2331, 337.6140
789.7152, 341.0689
790.1973, 345.8411
790.6794, 346.2348
791.1616, 342.8446
791.6437, 340.2801
792.1258, 340.5141
792.6079, 341.2276
793.0900, 338.1806
793.5721, 332.2985
794.0543, 334.8688
794.5364, 348.2802
795.0185, 354.2087
795.5006, 344.4804
795.9827, 331.8363
796.4648, 328.6369
796.9470, 334.0418
797.4291, 339.0824
797.9112, 346.7518
798.3933, 349.6170
798.8754, 342.4016
799.3575, 335.2057
799.8397, 334.6913
800.3218, 338.1215
800.8039, 339.2545
801.2860, 336.0493
801.7681, 335.0168
802.2502, 341.7755
802.7324, 350.0641
803.2145, 354.2616
803.6966, 355.6764
804.1787, 357.8561
804.6608, 361.3517
805.1429, 362.8601
805.6251, 358.5351
806.1072, 351.8377
806.5893, 351.1765
807.0714, 355.5596
807.5535, 356.4413
808.0356, 352.0202
808.5178, 350.6252
808.9999, 358.8304
809.4820, 371.5930
809.9641, 375.3617
810.4462, 366.3723
810.9283, 362.4051
811.4105, 366.5870
811.8926, 370.6638
812.3747, 370.0956
812.8568, 368.7495
813.3389, 371.9363
813.8210, 379.6459
814.3032, 384.6436
814.7853, 382.3233
815.2674, 381.6444
815.7495, 388.3636
816.2316, 395.9303
816.7137, 397.4879
817.1959, 394.4017
817.6780, 392.5814
818.1601, 394.5427
818.6422, 398.1088
819.1243, 402.6104
819.6064, 406.8875
820.0886, 408.9237
820.5707, 409.0431
821.0528, 408.6083
821.5349, 408.1394
822.0170, 407.7501
822.4991, 407.5488
822.9813, 407.5365
823.4634, 407.2799
823.9455, 406.6580
824.4276, 408.6637
824.9097, 414.4222
825.3918, 421.0042
825.8740, 426.5882
826.3561, 431.0225
826.8382, 433.5900
827.3203, 433.0685
827.8024, 433.5074
828.2845, 435.6590
828.7667, 437.8581
829.2488, 437.8382
829.7309, 438.5175
830.2130, 444.6560
830.6951, 456.4281
831.1772, 465.1643
831.6594, 469.4558
832.1415, 469.5021
832.6236, 459.9432
833.1057, 450.1866
833.5878, 450.9227
834.0699, 460.4074
834.5521, 469.2690
835.0342, 472.8758
835.5163, 477.4832
835.9984, 492.3081
836.4805, 510.1059
836.9626, 516.9063
837.4448, 515.4006
837.9269, 518.6044
838.4090, 530.6677
838.8911, 544.0514
839.3732, 550.7479
839.8553, 552.4033
840.3375, 554.2211
840.8196, 556.1358
841.3017, 562.4023
841.7838, 574.6687
842.2659, 586.9099
842.7480, 594.8630
843.2302, 600.3254
843.7123, 608.2345
844.1944, 620.4306
844.6765, 628.9174
845.1586, 632.5386
845.6407, 634.1649
846.1229, 631.5434
846.6050, 629.6030
847.0871, 633.7686
847.5692, 643.6797
848.0513, 653.8499
848.5334, 665.2450
849.0156, 674.5573
849.4977, 680.2298
849.9798, 684.0820
850.4619, 687.0064
850.9440, 689.4094
851.4261, 692.5089
851.9083, 696.9605
852.3904, 697.9539
852.8725, 690.2448
853.3546, 679.2682
853.8367, 668.1473
854.3188, 658.9890
854.8010, 658.0087
855.2831, 664.5631
855.7652, 667.6225
856.2473, 658.4633
856.7294, 643.1412
857.2115, 632.4623
857.6937, 625.0681
858.1758, 614.4658
858.6579, 600.1215
859.1400, 585.1733
859.6221, 570.9085
860.1042, 557.5726
860.5864, 545.5157
861.0685, 534.7619
861.5506, 524.4263
862.0327, 514.9601
862.5148, 503.6604
862.9969, 487.9368
863.4791, 474.0659
863.9612, 468.5106
864.4433, 468.2769
864.9254, 462.5200
865.4075, 448.0704
865.8896, 434.6391
866.3718, 420.0361
866.8539, 408.9207
867.3360, 403.8048
867.8181, 402.4322
868.3002, 403.8896
868.7823, 407.5435
869.2645, 407.8322
869.7466, 400.1898
870.2287, 393.0335
870.7108, 390.4378
871.1929, 388.9879
871.6750, 386.5528
872.1572, 382.5299
872.6393, 375.6104
873.1214, 365.1714
873.6035, 356.1897
874.0856, 352.8061
874.5677, 352.2535
875.0499, 352.1915
875.5320, 352.2686
876.0141, 352.1482
876.4962, 351.6751
876.9783, 350.4893
877.4604, 348.2553
877.9426, 345.5720
878.4247, 342.9675
878.9068, 340.7537
879.3889, 340.7179
879.8710, 342.7072
880.3531, 343.4003
880.8353, 341.3769
881.3174, 338.8831
881.7995, 338.7284
882.2816, 340.4192
882.7637, 340.8820
883.2458, 340.0623
883.7280, 338.4596
884.2101, 336.2716
884.6922, 332.5562
885.1743, 325.2347
885.6564, 317.7966
886.1385, 318.8347
886.6207, 331.8018
887.1028, 337.3023
887.5849, 329.0417
888.0670, 323.4980
888.5491, 328.0512
889.0313, 334.2947
889.5134, 333.7259
889.9955, 328.3154
890.4776, 327.3120
890.9597, 335.4583
891.4418, 340.5278
891.9240, 339.7633
892.4061, 336.7479
892.8882, 333.7273
893.3703, 329.4242
893.8524, 319.5939
894.3345, 304.6997
894.8167, 296.3676
895.2988, 304.9358
895.7809, 314.3411
896.2630, 315.8183
896.7451, 314.0103
897.2272, 312.6579
897.7094, 312.4973
898.1915, 314.6971
898.6736, 319.7182
899.1557, 322.2268
899.6378, 314.4022
900.1199, 304.5258
900.6021, 304.3810
901.0842, 309.6978
901.5663, 310.1646
902.0484, 305.0303
902.5305, 301.9522
903.0126, 305.9423
903.4948, 312.7692
903.9769, 317.2618
904.4590, 319.3864
904.9411, 317.9935
905.4232, 313.6060
905.9053, 310.0467
906.3875, 308.5661
906.8696, 308.1817
907.3517, 308.0790
907.8338, 308.1389
908.3159, 307.7837
908.7980, 307.0034
909.2802, 307.6390
909.7623, 310.2855
910.2444, 310.5277
910.7265, 305.0232
911.2086, 299.9946
911.6907, 305.8146
912.1729, 322.2296
912.6550, 328.4725
913.1371, 320.6912
913.6192, 315.0551
914.1013, 314.9852
914.5834, 316.4084
915.0656, 317.8090
915.5477, 318.0879
916.0298, 313.9439
916.5119, 302.5407
916.9940, 297.4350
917.4761, 303.3975
917.9583, 308.9117
918.4404, 312.5187
918.9225, 313.6800
919.4046, 310.3929
919.8867, 304.1785
920.3688, 300.5267
920.8510, 300.0471
921.3331, 301.6641
921.8152, 310.1467
922.2973, 315.0108
922.7794, 306.5098
923.2615, 294.9658
923.7437, 293.8900
924.2258, 302.7652
924.7079, 308.7360
925.1900, 304.9457
925.6721, 302.6367
926.1542, 309.3528
926.6364, 316.5459
927.1185, 316.5914
927.6006, 312.4694
928.0827, 309.8189
928.5648, 309.9115
929.0469, 310.9251
929.5291, 312.4862
930.0112, 313.8555
930.4933, 314.5492
930.9754, 314.6913
931.4575, 314.1269
931.9396, 313.1884
932.4218, 312.7978
932.9039, 313.2704
933.3860, 313.5945
933.8681, 312.8181
934.3502, 311.4706
934.8323, 310.6208
935.3145, 309.5926
935.7966, 305.8371
936.2787, 300.1116
936.7608, 297.5733
937.2429, 301.1446
937.7250, 305.9464
938.2072, 305.6071
938.6893, 302.2440
939.1714, 300.1730
939.6535, 299.5158
940.1356, 300.7397
940.6177, 303.7337
941.0999, 306.7301
941.5820, 308.5997
942.0641, 309.1509
942.5462, 307.0190
943.0283, 303.1088
943.5104, 303.0007
943.9926, 306.5135
944.4747, 308.0625
944.9568, 305.9043
945.4389, 302.1873
945.9210, 298.5343
946.4031, 295.4937
946.8853, 295.0346
947.3674, 297.1404
947.8495, 298.0954
948.3316, 297.5138
948.8137, 297.9151
949.2958, 300.6636
949.7780, 302.5740
950.2601, 299.4461
950.7422, 292.8279
951.2243, 291.3870
951.7064, 295.9923
952.1885, 300.4943
952.6707, 304.8867
953.1528, 306.5961
953.6349, 303.3539
954.1170, 299.0396
954.5991, 298.7960
955.0812, 302.5108
955.5634, 308.5104
956.0455, 319.9421
956.5276, 323.1195
957.0097, 312.0573
957.4918, 301.5375
957.9739, 299.4724
958.4561, 302.7581
958.9382, 307.2642
959.4203, 313.4206
959.9024, 314.5193
960.3845, 306.9791
960.8666, 301.6203
961.3488, 301.4741
961.8309, 301.8385
962.3130, 299.5309
962.7951, 295.9851
963.2772, 293.8173
963.7593, 292.9408
964.2415, 293.9361
964.7236, 298.9721
965.2057, 302.7261
965.6878, 302.3319
966.1699, 302.3292
966.6520, 307.5755
967.1342, 314.9205
967.6163, 316.5822
968.0984, 310.4384
968.5805, 306.4678
969.0626, 305.5478
969.5447, 306.3034
970.0269, 311.5515
970.5090, 315.4873
970.9911, 312.1782
971.4732, 304.2684
971.9553, 298.8450
972.4374, 296.6985
972.9196, 296.5285
973.4017, 300.5752
973.8838, 303.4683
974.3659, 302.2804
974.8480, 300.0119
975.3301, 299.3400
975.8123, 299.8754
976.2944, 299.6575
976.7765, 297.4704
977.2586, 297.5721
977.7407, 304.3306
978.2228, 309.4056
978.7050, 308.0986
979.1871, 304.1624
979.6692, 301.0134
980.1513, 298.7034
980.6334, 295.6990
981.1155, 290.3205
981.5977, 288.5525
982.0798, 295.3914
982.5619, 302.4992
983.0440, 307.0454
983.5261, 308.6298
984.0082, 305.0361
984.4904, 298.1722
984.9725, 295.2196
985.4546, 299.8641
985.9367, 303.1148
986.4188, 300.0276
986.9009, 296.5683
987.3831, 295.2711
987.8652, 296.1976
988.3473, 301.8944
988.8294, 310.0012
989.3115, 310.6117
989.7936, 296.8561
990.2758, 286.9844
990.7579, 293.3975
991.2400, 300.7479
991.7221, 298.1893
992.2042, 291.5118
992.6863, 286.5627
993.1685, 284.8873
993.6506, 288.8264
994.1327, 302.2243
994.6148, 312.2146
995.0969, 310.0921
995.5790, 305.8301
996.0612, 306.9713
996.5433, 309.5058
997.0254, 307.3007
997.5075, 300.8568
997.9896, 295.3312
998.4717, 291.5086
998.9539, 291.7527
999.4360, 302.7291
999.9181, 312.2003
1000.400, 308.8581
1000.882, 300.6613
1001.364, 298.2690
1001.847, 301.5995
1002.329, 303.7693
1002.811, 301.7400
1003.293, 300.4403
1003.775, 302.9812
1004.257, 306.1809
1004.739, 309.3460
1005.221, 310.8875
1005.703, 307.2172
1006.186, 299.9769
1006.668, 296.5171
1007.150, 300.6983
1007.632, 304.1182
1008.114, 303.3891
1008.596, 300.1569
1009.078, 293.7816
1009.560, 286.6644
1010.043, 280.0854
1010.525, 275.3495
1011.007, 275.9291
1011.489, 283.9735
1011.971, 293.3533
1012.453, 306.5916
1012.935, 314.5517
1013.417, 305.3138
1013.899, 292.3759
1014.382, 292.1283
1014.864, 302.3977
1015.346, 310.6859
1015.828, 313.9665
1016.310, 313.3742
1016.792, 305.6959
1017.274, 298.5483
1017.756, 296.7279
1018.239, 296.9999
1018.721, 295.7083
1019.203, 293.4429
1019.685, 292.7979
1020.167, 294.2759
1020.649, 297.8688
1021.131, 307.5415
1021.613, 314.4215
1022.095, 312.2624
1022.578, 307.3175
1023.060, 305.8916
1023.542, 306.4661
1024.024, 303.2491
1024.506, 294.0922
1024.988, 288.4650
1025.470, 289.5121
1025.952, 293.6163
1026.435, 305.3921
1026.917, 314.2487
1027.399, 306.7077
1027.881, 291.2254
1028.363, 288.0838
1028.845, 302.0228
1029.327, 309.4696
1029.809, 297.1595
1030.292, 290.3427
1030.774, 303.1303
1031.256, 316.1783
1031.738, 314.7691
1032.220, 305.0923
1032.702, 297.9717
1033.184, 294.1033
1033.666, 294.2471
1034.148, 304.1719
1034.630, 309.7875
1035.113, 307.2487
1035.595, 301.5517
1036.077, 291.1805
1036.559, 281.5825
1037.041, 282.3646
1037.523, 294.0102
1038.005, 301.8672
1038.487, 305.9836
1038.970, 305.9313
1039.452, 296.4131
1039.934, 289.6486
1040.416, 293.7266
1040.898, 300.9167
1041.380, 300.7824
1041.862, 294.4233
1042.344, 294.5139
1042.826, 306.0285
1043.309, 313.0482
1043.791, 314.2773
1044.273, 312.0411
1044.755, 304.1500
1045.237, 297.6059
1045.719, 301.1935
1046.201, 311.7567
1046.683, 314.0388
1047.166, 304.2551
1047.648, 299.3080
1048.130, 300.6395
1048.612, 303.0824
1049.094, 305.6402
1049.576, 307.4800
1050.058, 307.8737
1050.540, 307.0434
1051.022, 305.5650
1051.505, 303.4432
1051.987, 300.1765
1052.469, 295.1957
1052.951, 293.0183
1053.433, 295.0259
1053.915, 298.6021
1054.397, 302.5725
1054.879, 305.1505
1055.361, 302.0993
1055.844, 294.2108
1056.326, 291.6407
1056.808, 289.7113
1057.290, 297.0150
1057.772, 301.1281
1058.254, 302.2220
1058.736, 291.2544
1059.218, 295.8619
1059.701, 294.2276
1060.183, 292.3373
1060.665, 299.1369
1061.147, 289.9236
1061.629, 296.5854
1062.111, 296.9101
1062.593, 300.1352
1063.075, 297.0799
1063.557, 295.9644
1064.040, 301.1313
1064.522, 302.8195
1065.004, 299.0413
1065.486, 302.4507
1065.968, 293.0180
1066.450, 294.8545
1066.932, 301.5530
1067.414, 298.0905
1067.896, 298.4045
1068.379, 301.5341
1068.861, 303.3413
1069.343, 302.5016
1069.825, 300.2135
1070.307, 297.6807
1070.789, 295.2025
1071.271, 292.9810
1071.753, 291.1847
1072.236, 289.7548
1072.718, 288.3227
1073.200, 289.7745
1073.682, 301.6087
1074.164, 311.4060
1074.646, 305.4605
1075.128, 293.8608
1075.610, 288.7176
1076.093, 289.3160
1076.575, 289.7752
1077.057, 288.5370
1077.539, 287.2603
1078.021, 284.8208
1078.503, 284.9425
1078.985, 292.3024
1079.467, 299.9140
1079.949, 301.9505
1080.432, 300.7164
1080.914, 300.8386
1081.396, 302.6743
1081.878, 302.3145
1082.360, 297.2112
1082.842, 292.6965
1083.324, 289.1732
1083.806, 286.8843
1084.288, 287.2326
1084.771, 287.9200
1085.253, 286.0891
1085.735, 282.3534
1086.217, 279.4838
1086.699, 275.8924
1087.181, 277.9037
1087.663, 290.4065
1088.145, 298.5043
1088.628, 297.5093
1089.110, 292.3533
1089.592, 284.8247
1090.074, 277.7878
1090.556, 278.3212
1091.038, 286.8660
1091.520, 289.1291
1092.002, 283.2711
1092.484, 283.8537
1092.967, 294.3408
1093.449, 304.3536
1093.931, 309.1671
1094.413, 307.9944
1094.895, 298.2123
1095.377, 283.6391
1095.859, 278.8895
1096.341, 282.8992
1096.823, 288.9093
1097.306, 295.8000
1097.788, 299.2431
1098.270, 298.0427
1098.752, 296.3903
1099.234, 297.7990
1099.716, 299.7351
1100.198, 298.1400
1100.680, 294.3363
1101.163, 289.0168
1101.645, 284.3477
1102.127, 287.0875
1102.609, 296.3276
1103.091, 303.6857
1103.573, 305.2436
1104.055, 303.3676
1104.537, 298.4331
1105.020, 292.6177
1105.502, 284.6955
1105.984, 279.5323
1106.466, 287.0021
1106.948, 300.8255
1107.430, 305.9267
1107.912, 299.4834
1108.394, 292.8438
1108.876, 289.2234
1109.359, 288.3537
1109.841, 294.9271
1110.323, 298.8660
1110.805, 289.7712
1111.287, 277.4627
1111.769, 274.8650
1112.251, 280.6882
1112.733, 284.2818
1113.215, 283.7710
1113.698, 283.3705
1114.180, 281.6476
1114.662, 282.7031
1115.144, 290.7230
1115.626, 297.1221
1116.108, 295.7888
1116.590, 289.2997
1117.072, 281.1406
1117.555, 271.2639
1118.037, 272.4896
1118.519, 288.2278
1119.001, 294.5345
1119.483, 286.8812
1119.965, 281.6924
1120.447, 286.2769
1120.929, 293.1276
1121.411, 294.7152
1121.894, 292.3607
1122.376, 287.5939
1122.858, 281.7982
1123.340, 284.2572
1123.822, 293.1715
1124.304, 296.5074
1124.786, 292.1084
1125.268, 286.1667
1125.750, 281.9937
1126.233, 281.1583
1126.715, 288.5156
1127.197, 297.6654
1127.679, 299.0332
1128.161, 296.4688
1128.643, 297.6901
1129.125, 300.3674
1129.607, 294.2489
1130.090, 278.0891
1130.572, 267.9931
1131.054, 275.7258
1131.536, 284.8034
1132.018, 288.8452
1132.500, 288.9029
1132.982, 282.0677
1133.464, 274.3263
1133.947, 272.2090
1134.429, 275.5911
1134.911, 282.3741
1135.393, 295.1509
1135.875, 301.5032
1136.357, 295.4258
1136.839, 290.1319
1137.321, 287.3107
1137.803, 286.7190
1138.286, 289.8864
1138.768, 293.0802
1139.250, 289.8333
1139.732, 281.3410
1140.214, 279.7216
1140.696, 286.3198
1141.178, 288.8890
1141.660, 286.2172
1142.142, 284.4290
1142.625, 285.5134
1143.107, 287.1173
1143.589, 287.2382
1144.071, 287.7551
1144.553, 293.9695
1145.035, 302.5739
1145.517, 302.4529
1145.999, 296.0862
1146.482, 290.1723
1146.964, 286.2938
1147.446, 286.2117
1147.928, 290.2837
1148.410, 293.8456
1148.892, 292.7602
1149.374, 290.9546
1149.856, 293.1375
1150.339, 295.1264
1150.821, 290.9988
1151.303, 284.8997
1151.785, 284.3776
1152.267, 288.4430
1152.749, 288.6510
1153.231, 281.5274
1153.713, 276.2887
1154.195, 276.3351
1154.677, 276.6903
1155.160, 276.4926
1155.642, 275.4300
1156.124, 272.3389
1156.606, 269.0846
1157.088, 268.3087
1157.570, 269.9246
1158.052, 273.2929
1158.534, 279.3244
1159.017, 282.8786
1159.499, 283.5229
1159.981, 282.4397
1160.463, 279.7914
1160.945, 276.6158
1161.427, 273.2716
1161.909, 271.8516
1162.391, 277.6046
1162.874, 287.5039
1163.356, 291.4906
1163.838, 290.8111
1164.320, 288.6586
1164.802, 285.7979
1165.284, 282.3042
1165.766, 278.5672
1166.248, 277.7715
1166.730, 283.5945
1167.213, 289.0016
1167.695, 288.9318
1168.177, 285.1010
1168.659, 274.3153
1169.141, 264.1440
1169.623, 265.5466
1170.105, 275.4094
1170.587, 282.4088
1171.069, 284.2358
1171.552, 285.9841
1172.034, 290.0374
1172.516, 291.6791
1172.998, 288.6087
1173.480, 285.4030
1173.962, 284.7881
1174.444, 283.5454
1174.926, 277.0946
1175.409, 268.2570
1175.891, 267.5355
1176.373, 275.6198
1176.855, 282.8015
1177.337, 289.1750
1177.819, 290.6245
1178.301, 286.4930
1178.783, 281.3534
1179.266, 277.4264
1179.748, 274.4284
1180.230, 271.5207
1180.712, 270.4679
1181.194, 275.5842
1181.676, 283.6213
1182.158, 291.4739
1182.640, 296.6122
1183.122, 291.8138
1183.604, 279.6042
1184.087, 274.1660
1184.569, 281.7290
1185.051, 288.0150
1185.533, 283.7881
1186.015, 280.6153
1186.497, 286.1947
1186.979, 291.5032
1187.461, 288.9973
1187.944, 283.1440
1188.426, 279.3422
1188.908, 278.0096
1189.390, 282.3743
1189.872, 296.8009
1190.354, 300.4628
1190.836, 290.4242
1191.318, 282.5423
1191.801, 280.3105
1192.283, 280.5587
1192.765, 281.6567
1193.247, 283.2028
1193.729, 284.7523
1194.211, 286.3001
1194.693, 288.2253
1195.175, 290.0138
1195.657, 290.3185
1196.140, 289.2466
1196.622, 286.8730
1197.104, 283.6874
1197.586, 281.3277
1198.068, 280.4944
1198.550, 280.7806
1199.032, 283.3879
1199.514, 285.1506
1199.996, 282.7752
1200.479, 280.3859
1200.961, 282.3688
1201.443, 285.7350
1201.925, 285.0566
1202.407, 280.9994
1202.889, 280.6919
1203.371, 286.4667
1203.853, 288.1604
1204.336, 283.7699
1204.818, 282.3046
1205.300, 286.5536
1205.782, 288.9894
1206.264, 285.2505
1206.746, 280.1762
1207.228, 279.8846
1207.710, 281.7396
1208.193, 277.5403
1208.675, 270.5899
1209.157, 271.2210
1209.639, 277.5847
1210.121, 284.4825
1210.603, 289.8228
1211.085, 289.7034
1211.567, 282.4400
1212.049, 277.0656
1212.531, 280.0717
1213.014, 285.1584
1213.496, 292.8925
1213.978, 297.2291
1214.460, 290.3858
1214.942, 280.3287
1215.424, 277.8102
1215.906, 280.7045
1216.388, 279.3699
1216.871, 272.3257
1217.353, 270.7250
1217.835, 276.2786
1218.317, 279.5974
1218.799, 278.8542
1219.281, 279.8967
1219.763, 285.2802
1220.245, 291.8907
1220.728, 297.3860
1221.210, 300.4742
1221.692, 297.4066
1222.174, 291.1566
1222.656, 287.3586
1223.138, 285.4681
1223.620, 285.1041
1224.102, 285.0735
1224.584, 281.9834
1225.067, 275.3971
1225.549, 270.8800
1226.031, 271.8565
1226.513, 273.2245
1226.995, 274.3534
1227.477, 274.1393
1227.959, 268.1648
1228.441, 265.0022
1228.923, 273.2513
1229.406, 286.2925
1229.888, 293.1690
##END=



