##NAMES=Olshanskyite
##RRUFFID=R150028
##IDEAL CHEMISTRY=Ca_2_[B_3_O_3_(OH)_6_]OH&#183;3H_2_O
##LOCALITY=Shijangshan mine, Jipeng, Chifeng, Inner Mongolia, China
##OWNER=RRUFF
##SOURCE=Renato and Adriana Pagano
##DESCRIPTION=Aggregates of colorless prismatic crystals.
##STATUS=The identification of this mineral has been confirmed by single-crystal X-ray diffraction.
##URL=rruff.info/R150028
8.758203e+001, 7.041951e+002
8.806415e+001, 7.103085e+002
8.854626e+001, 7.114427e+002
8.902838e+001, 7.068900e+002
8.951050e+001, 6.994780e+002
8.999261e+001, 6.891925e+002
9.047473e+001, 6.765179e+002
9.095685e+001, 6.634315e+002
9.143896e+001, 6.511868e+002
9.192108e+001, 6.399703e+002
9.240320e+001, 6.314761e+002
9.288531e+001, 6.197690e+002
9.336743e+001, 5.997379e+002
9.384955e+001, 5.724831e+002
9.433167e+001, 5.461863e+002
9.481378e+001, 5.220961e+002
9.529590e+001, 5.049628e+002
9.577802e+001, 4.934715e+002
9.626013e+001, 4.849886e+002
9.674225e+001, 4.774356e+002
9.722437e+001, 4.707524e+002
9.770648e+001, 4.677123e+002
9.818860e+001, 4.706866e+002
9.867072e+001, 4.754695e+002
9.915283e+001, 4.809606e+002
9.963495e+001, 4.867251e+002
1.001171e+002, 4.913187e+002
1.005992e+002, 4.932772e+002
1.010813e+002, 4.938498e+002
1.015634e+002, 4.885400e+002
1.020455e+002, 4.754391e+002
1.025277e+002, 4.586725e+002
1.030098e+002, 4.407345e+002
1.034919e+002, 4.226398e+002
1.039740e+002, 4.047329e+002
1.044561e+002, 3.884369e+002
1.049382e+002, 3.752223e+002
1.054204e+002, 3.618318e+002
1.059025e+002, 3.472116e+002
1.063846e+002, 3.321730e+002
1.068667e+002, 3.181014e+002
1.073488e+002, 3.056747e+002
1.078309e+002, 2.950677e+002
1.083131e+002, 2.867562e+002
1.087952e+002, 2.809487e+002
1.092773e+002, 2.767340e+002
1.097594e+002, 2.742068e+002
1.102415e+002, 2.732526e+002
1.107236e+002, 2.724913e+002
1.112058e+002, 2.707193e+002
1.116879e+002, 2.682704e+002
1.121700e+002, 2.662377e+002
1.126521e+002, 2.644317e+002
1.131342e+002, 2.632604e+002
1.136163e+002, 2.636346e+002
1.140985e+002, 2.661651e+002
1.145806e+002, 2.691039e+002
1.150627e+002, 2.711898e+002
1.155448e+002, 2.727168e+002
1.160269e+002, 2.744126e+002
1.165090e+002, 2.766040e+002
1.169912e+002, 2.792874e+002
1.174733e+002, 2.826403e+002
1.179554e+002, 2.867215e+002
1.184375e+002, 2.915594e+002
1.189196e+002, 2.980741e+002
1.194017e+002, 3.057705e+002
1.198839e+002, 3.128501e+002
1.203660e+002, 3.172833e+002
1.208481e+002, 3.185025e+002
1.213302e+002, 3.180493e+002
1.218123e+002, 3.153700e+002
1.222944e+002, 3.117956e+002
1.227766e+002, 3.076261e+002
1.232587e+002, 3.031295e+002
1.237408e+002, 2.990233e+002
1.242229e+002, 2.967024e+002
1.247050e+002, 2.975796e+002
1.251871e+002, 2.986001e+002
1.256693e+002, 3.000538e+002
1.261514e+002, 3.015462e+002
1.266335e+002, 3.027484e+002
1.271156e+002, 3.036287e+002
1.275977e+002, 3.038421e+002
1.280798e+002, 3.022065e+002
1.285620e+002, 2.983942e+002
1.290441e+002, 2.938628e+002
1.295262e+002, 2.890235e+002
1.300083e+002, 2.838815e+002
1.304904e+002, 2.784302e+002
1.309725e+002, 2.721902e+002
1.314547e+002, 2.659425e+002
1.319368e+002, 2.612273e+002
1.324189e+002, 2.587792e+002
1.329010e+002, 2.570919e+002
1.333831e+002, 2.545151e+002
1.338652e+002, 2.507971e+002
1.343474e+002, 2.475795e+002
1.348295e+002, 2.456743e+002
1.353116e+002, 2.447505e+002
1.357937e+002, 2.446023e+002
1.362758e+002, 2.451820e+002
1.367579e+002, 2.464662e+002
1.372401e+002, 2.485294e+002
1.377222e+002, 2.521095e+002
1.382043e+002, 2.553357e+002
1.386864e+002, 2.576812e+002
1.391685e+002, 2.593273e+002
1.396507e+002, 2.605933e+002
1.401328e+002, 2.617533e+002
1.406149e+002, 2.627835e+002
1.410970e+002, 2.627972e+002
1.415791e+002, 2.608200e+002
1.420612e+002, 2.586765e+002
1.425434e+002, 2.562740e+002
1.430255e+002, 2.540186e+002
1.435076e+002, 2.525955e+002
1.439897e+002, 2.525965e+002
1.444718e+002, 2.540598e+002
1.449539e+002, 2.571243e+002
1.454361e+002, 2.612932e+002
1.459182e+002, 2.670284e+002
1.464003e+002, 2.748202e+002
1.468824e+002, 2.846155e+002
1.473645e+002, 2.959440e+002
1.478466e+002, 3.088893e+002
1.483288e+002, 3.249909e+002
1.488109e+002, 3.360602e+002
1.492930e+002, 3.422599e+002
1.497751e+002, 3.432831e+002
1.502572e+002, 3.375836e+002
1.507393e+002, 3.243006e+002
1.512215e+002, 3.076158e+002
1.517036e+002, 2.920487e+002
1.521857e+002, 2.772731e+002
1.526678e+002, 2.654026e+002
1.531499e+002, 2.577917e+002
1.536320e+002, 2.536426e+002
1.541142e+002, 2.510991e+002
1.545963e+002, 2.497978e+002
1.550784e+002, 2.501647e+002
1.555605e+002, 2.521479e+002
1.560426e+002, 2.556912e+002
1.565247e+002, 2.608933e+002
1.570069e+002, 2.684911e+002
1.574890e+002, 2.784323e+002
1.579711e+002, 2.879707e+002
1.584532e+002, 2.968405e+002
1.589353e+002, 3.048028e+002
1.594174e+002, 3.124058e+002
1.598996e+002, 3.196217e+002
1.603817e+002, 3.244521e+002
1.608638e+002, 3.244209e+002
1.613459e+002, 3.188459e+002
1.618280e+002, 3.104070e+002
1.623102e+002, 2.982407e+002
1.627923e+002, 2.844502e+002
1.632744e+002, 2.698202e+002
1.637565e+002, 2.546451e+002
1.642386e+002, 2.398292e+002
1.647207e+002, 2.267809e+002
1.652029e+002, 2.159444e+002
1.656850e+002, 2.066936e+002
1.661671e+002, 1.987996e+002
1.666492e+002, 1.923597e+002
1.671313e+002, 1.875080e+002
1.676134e+002, 1.843462e+002
1.680956e+002, 1.826223e+002
1.685777e+002, 1.816335e+002
1.690598e+002, 1.815365e+002
1.695419e+002, 1.820777e+002
1.700240e+002, 1.834700e+002
1.705061e+002, 1.854509e+002
1.709883e+002, 1.878191e+002
1.714704e+002, 1.905531e+002
1.719525e+002, 1.934087e+002
1.724346e+002, 1.952521e+002
1.729167e+002, 1.957536e+002
1.733988e+002, 1.958994e+002
1.738810e+002, 1.960079e+002
1.743631e+002, 1.959904e+002
1.748452e+002, 1.955532e+002
1.753273e+002, 1.944268e+002
1.758094e+002, 1.928182e+002
1.762915e+002, 1.915508e+002
1.767737e+002, 1.907238e+002
1.772558e+002, 1.900859e+002
1.777379e+002, 1.891753e+002
1.782200e+002, 1.880874e+002
1.787021e+002, 1.878715e+002
1.791842e+002, 1.893197e+002
1.796664e+002, 1.920691e+002
1.801485e+002, 1.952182e+002
1.806306e+002, 1.984502e+002
1.811127e+002, 2.022996e+002
1.815948e+002, 2.073308e+002
1.820769e+002, 2.136098e+002
1.825591e+002, 2.206967e+002
1.830412e+002, 2.284886e+002
1.835233e+002, 2.369334e+002
1.840054e+002, 2.461450e+002
1.844875e+002, 2.560020e+002
1.849696e+002, 2.667042e+002
1.854518e+002, 2.786184e+002
1.859339e+002, 2.918751e+002
1.864160e+002, 3.061684e+002
1.868981e+002, 3.223909e+002
1.873802e+002, 3.391332e+002
1.878623e+002, 3.551118e+002
1.883445e+002, 3.699982e+002
1.888266e+002, 3.832434e+002
1.893087e+002, 3.928621e+002
1.897908e+002, 3.992183e+002
1.902729e+002, 4.006950e+002
1.907550e+002, 3.957197e+002
1.912372e+002, 3.865385e+002
1.917193e+002, 3.757871e+002
1.922014e+002, 3.648617e+002
1.926835e+002, 3.538587e+002
1.931656e+002, 3.435611e+002
1.936477e+002, 3.344586e+002
1.941299e+002, 3.257139e+002
1.946120e+002, 3.169914e+002
1.950941e+002, 3.085449e+002
1.955762e+002, 3.009090e+002
1.960583e+002, 2.944701e+002
1.965404e+002, 2.891670e+002
1.970226e+002, 2.839464e+002
1.975047e+002, 2.787545e+002
1.979868e+002, 2.737106e+002
1.984689e+002, 2.687425e+002
1.989510e+002, 2.639467e+002
1.994331e+002, 2.594952e+002
1.999153e+002, 2.554281e+002
2.003974e+002, 2.517785e+002
2.008795e+002, 2.493185e+002
2.013616e+002, 2.483584e+002
2.018437e+002, 2.479821e+002
2.023258e+002, 2.477001e+002
2.028080e+002, 2.476173e+002
2.032901e+002, 2.482375e+002
2.037722e+002, 2.500586e+002
2.042543e+002, 2.530197e+002
2.047364e+002, 2.557100e+002
2.052185e+002, 2.581075e+002
2.057007e+002, 2.602838e+002
2.061828e+002, 2.627026e+002
2.066649e+002, 2.652175e+002
2.071470e+002, 2.665289e+002
2.076291e+002, 2.655795e+002
2.081112e+002, 2.624732e+002
2.085934e+002, 2.587348e+002
2.090755e+002, 2.537471e+002
2.095576e+002, 2.485936e+002
2.100397e+002, 2.440270e+002
2.105218e+002, 2.400335e+002
2.110039e+002, 2.369048e+002
2.114861e+002, 2.347395e+002
2.119682e+002, 2.336714e+002
2.124503e+002, 2.339870e+002
2.129324e+002, 2.360216e+002
2.134145e+002, 2.392812e+002
2.138967e+002, 2.432433e+002
2.143788e+002, 2.479359e+002
2.148609e+002, 2.532379e+002
2.153430e+002, 2.599950e+002
2.158251e+002, 2.671487e+002
2.163072e+002, 2.734280e+002
2.167894e+002, 2.787747e+002
2.172715e+002, 2.828121e+002
2.177536e+002, 2.849261e+002
2.182357e+002, 2.850030e+002
2.187178e+002, 2.833345e+002
2.191999e+002, 2.800279e+002
2.196821e+002, 2.752235e+002
2.201642e+002, 2.687253e+002
2.206463e+002, 2.600587e+002
2.211284e+002, 2.502022e+002
2.216105e+002, 2.411902e+002
2.220926e+002, 2.331181e+002
2.225748e+002, 2.258326e+002
2.230569e+002, 2.193008e+002
2.235390e+002, 2.133965e+002
2.240211e+002, 2.079407e+002
2.245032e+002, 2.028390e+002
2.249853e+002, 1.981831e+002
2.254675e+002, 1.941199e+002
2.259496e+002, 1.907659e+002
2.264317e+002, 1.879772e+002
2.269138e+002, 1.858982e+002
2.273959e+002, 1.842189e+002
2.278780e+002, 1.826171e+002
2.283602e+002, 1.809314e+002
2.288423e+002, 1.792350e+002
2.293244e+002, 1.777502e+002
2.298065e+002, 1.764887e+002
2.302886e+002, 1.754666e+002
2.307707e+002, 1.744305e+002
2.312529e+002, 1.736897e+002
2.317350e+002, 1.736199e+002
2.322171e+002, 1.744056e+002
2.326992e+002, 1.758766e+002
2.331813e+002, 1.774919e+002
2.336634e+002, 1.794501e+002
2.341456e+002, 1.813326e+002
2.346277e+002, 1.830923e+002
2.351098e+002, 1.847700e+002
2.355919e+002, 1.864365e+002
2.360740e+002, 1.881253e+002
2.365561e+002, 1.897797e+002
2.370383e+002, 1.912307e+002
2.375204e+002, 1.927001e+002
2.380025e+002, 1.936591e+002
2.384846e+002, 1.941937e+002
2.389667e+002, 1.941668e+002
2.394488e+002, 1.933815e+002
2.399310e+002, 1.917478e+002
2.404131e+002, 1.893994e+002
2.408952e+002, 1.866432e+002
2.413773e+002, 1.835032e+002
2.418594e+002, 1.798965e+002
2.423415e+002, 1.753912e+002
2.428237e+002, 1.705482e+002
2.433058e+002, 1.661004e+002
2.437879e+002, 1.623093e+002
2.442700e+002, 1.589456e+002
2.447521e+002, 1.554891e+002
2.452342e+002, 1.518186e+002
2.457164e+002, 1.483021e+002
2.461985e+002, 1.447751e+002
2.466806e+002, 1.414840e+002
2.471627e+002, 1.388079e+002
2.476448e+002, 1.368768e+002
2.481269e+002, 1.354710e+002
2.486091e+002, 1.342637e+002
2.490912e+002, 1.332843e+002
2.495733e+002, 1.323426e+002
2.500554e+002, 1.312516e+002
2.505375e+002, 1.302090e+002
2.510196e+002, 1.295134e+002
2.515018e+002, 1.292524e+002
2.519839e+002, 1.293105e+002
2.524660e+002, 1.295898e+002
2.529481e+002, 1.300798e+002
2.534302e+002, 1.306877e+002
2.539123e+002, 1.314520e+002
2.543945e+002, 1.323046e+002
2.548766e+002, 1.331474e+002
2.553587e+002, 1.339608e+002
2.558408e+002, 1.347703e+002
2.563229e+002, 1.355518e+002
2.568051e+002, 1.363122e+002
2.572872e+002, 1.372559e+002
2.577693e+002, 1.386189e+002
2.582514e+002, 1.401545e+002
2.587335e+002, 1.414045e+002
2.592156e+002, 1.422175e+002
2.596978e+002, 1.430467e+002
2.601799e+002, 1.444848e+002
2.606620e+002, 1.463508e+002
2.611441e+002, 1.480198e+002
2.616262e+002, 1.492068e+002
2.621083e+002, 1.501113e+002
2.625905e+002, 1.509840e+002
2.630726e+002, 1.517646e+002
2.635547e+002, 1.527663e+002
2.640368e+002, 1.543702e+002
2.645189e+002, 1.563714e+002
2.650010e+002, 1.583969e+002
2.654832e+002, 1.602269e+002
2.659653e+002, 1.620515e+002
2.664474e+002, 1.641041e+002
2.669295e+002, 1.663310e+002
2.674116e+002, 1.689782e+002
2.678937e+002, 1.722506e+002
2.683759e+002, 1.760282e+002
2.688580e+002, 1.803228e+002
2.693401e+002, 1.854142e+002
2.698222e+002, 1.907569e+002
2.703043e+002, 1.954545e+002
2.707864e+002, 1.993350e+002
2.712686e+002, 2.033098e+002
2.717507e+002, 2.087209e+002
2.722328e+002, 2.141800e+002
2.727149e+002, 2.181471e+002
2.731970e+002, 2.201785e+002
2.736791e+002, 2.206974e+002
2.741613e+002, 2.202489e+002
2.746434e+002, 2.188639e+002
2.751255e+002, 2.163250e+002
2.756076e+002, 2.115640e+002
2.760897e+002, 2.060226e+002
2.765718e+002, 2.007189e+002
2.770540e+002, 1.958834e+002
2.775361e+002, 1.912427e+002
2.780182e+002, 1.862813e+002
2.785003e+002, 1.808745e+002
2.789824e+002, 1.761008e+002
2.794645e+002, 1.722215e+002
2.799467e+002, 1.691523e+002
2.804288e+002, 1.670108e+002
2.809109e+002, 1.658047e+002
2.813930e+002, 1.652117e+002
2.818751e+002, 1.650301e+002
2.823572e+002, 1.652920e+002
2.828394e+002, 1.655591e+002
2.833215e+002, 1.653069e+002
2.838036e+002, 1.654531e+002
2.842857e+002, 1.667251e+002
2.847678e+002, 1.690337e+002
2.852499e+002, 1.715620e+002
2.857321e+002, 1.734560e+002
2.862142e+002, 1.746803e+002
2.866963e+002, 1.764714e+002
2.871784e+002, 1.795961e+002
2.876605e+002, 1.825817e+002
2.881426e+002, 1.846397e+002
2.886248e+002, 1.859329e+002
2.891069e+002, 1.870778e+002
2.895890e+002, 1.886148e+002
2.900711e+002, 1.904859e+002
2.905532e+002, 1.918606e+002
2.910353e+002, 1.924152e+002
2.915175e+002, 1.928348e+002
2.919996e+002, 1.937001e+002
2.924817e+002, 1.946266e+002
2.929638e+002, 1.949090e+002
2.934459e+002, 1.941558e+002
2.939280e+002, 1.924094e+002
2.944102e+002, 1.898439e+002
2.948923e+002, 1.861325e+002
2.953744e+002, 1.820319e+002
2.958565e+002, 1.779448e+002
2.963386e+002, 1.736332e+002
2.968207e+002, 1.687371e+002
2.973029e+002, 1.630381e+002
2.977850e+002, 1.568540e+002
2.982671e+002, 1.509242e+002
2.987492e+002, 1.450895e+002
2.992313e+002, 1.398860e+002
2.997134e+002, 1.355731e+002
3.001956e+002, 1.317684e+002
3.006777e+002, 1.281507e+002
3.011598e+002, 1.245949e+002
3.016419e+002, 1.212494e+002
3.021240e+002, 1.184230e+002
3.026061e+002, 1.162625e+002
3.030883e+002, 1.142256e+002
3.035704e+002, 1.121133e+002
3.040525e+002, 1.101488e+002
3.045346e+002, 1.084733e+002
3.050167e+002, 1.071195e+002
3.054988e+002, 1.060676e+002
3.059810e+002, 1.053299e+002
3.064631e+002, 1.049523e+002
3.069452e+002, 1.046807e+002
3.074273e+002, 1.044632e+002
3.079094e+002, 1.043861e+002
3.083915e+002, 1.045460e+002
3.088737e+002, 1.049101e+002
3.093558e+002, 1.053373e+002
3.098379e+002, 1.056520e+002
3.103200e+002, 1.058374e+002
3.108021e+002, 1.062843e+002
3.112842e+002, 1.072849e+002
3.117664e+002, 1.082688e+002
3.122485e+002, 1.090082e+002
3.127306e+002, 1.095705e+002
3.132127e+002, 1.101152e+002
3.136948e+002, 1.106946e+002
3.141769e+002, 1.113497e+002
3.146591e+002, 1.123554e+002
3.151412e+002, 1.138617e+002
3.156233e+002, 1.155563e+002
3.161054e+002, 1.175439e+002
3.165875e+002, 1.195887e+002
3.170696e+002, 1.213162e+002
3.175518e+002, 1.224872e+002
3.180339e+002, 1.234268e+002
3.185160e+002, 1.250097e+002
3.189981e+002, 1.276748e+002
3.194802e+002, 1.300914e+002
3.199623e+002, 1.316580e+002
3.204445e+002, 1.330662e+002
3.209266e+002, 1.349290e+002
3.214087e+002, 1.374391e+002
3.218908e+002, 1.402864e+002
3.223729e+002, 1.430913e+002
3.228550e+002, 1.459798e+002
3.233372e+002, 1.483941e+002
3.238193e+002, 1.498176e+002
3.243014e+002, 1.510765e+002
3.247835e+002, 1.526785e+002
3.252656e+002, 1.546507e+002
3.257477e+002, 1.566660e+002
3.262299e+002, 1.584369e+002
3.267120e+002, 1.599570e+002
3.271941e+002, 1.612314e+002
3.276762e+002, 1.622914e+002
3.281583e+002, 1.630336e+002
3.286404e+002, 1.633655e+002
3.291226e+002, 1.633382e+002
3.296047e+002, 1.630974e+002
3.300868e+002, 1.627366e+002
3.305689e+002, 1.622495e+002
3.310510e+002, 1.615336e+002
3.315331e+002, 1.601725e+002
3.320153e+002, 1.592376e+002
3.324974e+002, 1.592598e+002
3.329795e+002, 1.598570e+002
3.334616e+002, 1.605202e+002
3.339437e+002, 1.610644e+002
3.344258e+002, 1.614474e+002
3.349080e+002, 1.615317e+002
3.353901e+002, 1.612101e+002
3.358722e+002, 1.608754e+002
3.363543e+002, 1.605151e+002
3.368365e+002, 1.602629e+002
3.373186e+002, 1.603894e+002
3.378007e+002, 1.609991e+002
3.382828e+002, 1.615058e+002
3.387649e+002, 1.610973e+002
3.392470e+002, 1.596599e+002
3.397292e+002, 1.581645e+002
3.402113e+002, 1.565782e+002
3.406934e+002, 1.551664e+002
3.411755e+002, 1.541191e+002
3.416576e+002, 1.534343e+002
3.421397e+002, 1.529467e+002
3.426219e+002, 1.526285e+002
3.431040e+002, 1.524485e+002
3.435861e+002, 1.520585e+002
3.440682e+002, 1.512153e+002
3.445503e+002, 1.504627e+002
3.450324e+002, 1.499594e+002
3.455146e+002, 1.497601e+002
3.459967e+002, 1.500068e+002
3.464788e+002, 1.508325e+002
3.469609e+002, 1.521337e+002
3.474430e+002, 1.537276e+002
3.479251e+002, 1.557272e+002
3.484073e+002, 1.577126e+002
3.488894e+002, 1.595267e+002
3.493715e+002, 1.611986e+002
3.498536e+002, 1.627119e+002
3.503357e+002, 1.639671e+002
3.508178e+002, 1.652683e+002
3.513000e+002, 1.670302e+002
3.517821e+002, 1.692750e+002
3.522642e+002, 1.715988e+002
3.527463e+002, 1.743355e+002
3.532284e+002, 1.767150e+002
3.537105e+002, 1.777634e+002
3.541927e+002, 1.772986e+002
3.546748e+002, 1.768308e+002
3.551569e+002, 1.776597e+002
3.556390e+002, 1.794379e+002
3.561211e+002, 1.805371e+002
3.566032e+002, 1.803843e+002
3.570854e+002, 1.799767e+002
3.575675e+002, 1.802584e+002
3.580496e+002, 1.811092e+002
3.585317e+002, 1.819976e+002
3.590138e+002, 1.826407e+002
3.594959e+002, 1.832250e+002
3.599781e+002, 1.840862e+002
3.604602e+002, 1.852666e+002
3.609423e+002, 1.865218e+002
3.614244e+002, 1.876534e+002
3.619065e+002, 1.887271e+002
3.623886e+002, 1.899085e+002
3.628708e+002, 1.911343e+002
3.633529e+002, 1.925552e+002
3.638350e+002, 1.944502e+002
3.643171e+002, 1.967291e+002
3.647992e+002, 1.988334e+002
3.652813e+002, 2.005748e+002
3.657635e+002, 2.019080e+002
3.662456e+002, 2.028347e+002
3.667277e+002, 2.033849e+002
3.672098e+002, 2.035023e+002
3.676919e+002, 2.028760e+002
3.681740e+002, 2.018468e+002
3.686562e+002, 2.011953e+002
3.691383e+002, 2.012106e+002
3.696204e+002, 2.011208e+002
3.701025e+002, 1.997793e+002
3.705846e+002, 1.970948e+002
3.710667e+002, 1.948085e+002
3.715489e+002, 1.934698e+002
3.720310e+002, 1.923881e+002
3.725131e+002, 1.909986e+002
3.729952e+002, 1.892541e+002
3.734773e+002, 1.872877e+002
3.739594e+002, 1.850926e+002
3.744416e+002, 1.827341e+002
3.749237e+002, 1.809529e+002
3.754058e+002, 1.803861e+002
3.758879e+002, 1.796533e+002
3.763700e+002, 1.781714e+002
3.768521e+002, 1.761201e+002
3.773343e+002, 1.739687e+002
3.778164e+002, 1.719583e+002
3.782985e+002, 1.698092e+002
3.787806e+002, 1.668279e+002
3.792627e+002, 1.624380e+002
3.797448e+002, 1.581710e+002
3.802270e+002, 1.542458e+002
3.807091e+002, 1.504338e+002
3.811912e+002, 1.465084e+002
3.816733e+002, 1.424161e+002
3.821554e+002, 1.382432e+002
3.826375e+002, 1.340159e+002
3.831197e+002, 1.296963e+002
3.836018e+002, 1.255500e+002
3.840839e+002, 1.214695e+002
3.845660e+002, 1.176369e+002
3.850481e+002, 1.141936e+002
3.855302e+002, 1.110672e+002
3.860124e+002, 1.080606e+002
3.864945e+002, 1.050155e+002
3.869766e+002, 1.020329e+002
3.874587e+002, 9.962759e+001
3.879408e+002, 9.843364e+001
3.884229e+002, 9.708695e+001
3.889051e+002, 9.516556e+001
3.893872e+002, 9.316579e+001
3.898693e+002, 9.161055e+001
3.903514e+002, 9.067071e+001
3.908335e+002, 9.010192e+001
3.913156e+002, 8.954868e+001
3.917978e+002, 8.902452e+001
3.922799e+002, 8.847607e+001
3.927620e+002, 8.780637e+001
3.932441e+002, 8.719324e+001
3.937262e+002, 8.681697e+001
3.942083e+002, 8.660226e+001
3.946905e+002, 8.627274e+001
3.951726e+002, 8.554411e+001
3.956547e+002, 8.447675e+001
3.961368e+002, 8.369994e+001
3.966189e+002, 8.332803e+001
3.971010e+002, 8.311459e+001
3.975832e+002, 8.313368e+001
3.980653e+002, 8.319222e+001
3.985474e+002, 8.299474e+001
3.990295e+002, 8.238424e+001
3.995116e+002, 8.166219e+001
3.999937e+002, 8.138389e+001
4.004759e+002, 8.166843e+001
4.009580e+002, 8.178216e+001
4.014401e+002, 8.154902e+001
4.019222e+002, 8.107018e+001
4.024043e+002, 8.026548e+001
4.028864e+002, 7.917477e+001
4.033686e+002, 7.823154e+001
4.038507e+002, 7.782661e+001
4.043328e+002, 7.785213e+001
4.048149e+002, 7.784666e+001
4.052970e+002, 7.778459e+001
4.057791e+002, 7.767608e+001
4.062613e+002, 7.751248e+001
4.067434e+002, 7.730983e+001
4.072255e+002, 7.708458e+001
4.077076e+002, 7.674239e+001
4.081897e+002, 7.647349e+001
4.086718e+002, 7.661147e+001
4.091540e+002, 7.713548e+001
4.096361e+002, 7.743344e+001
4.101182e+002, 7.705547e+001
4.106003e+002, 7.646842e+001
4.110824e+002, 7.648837e+001
4.115645e+002, 7.722427e+001
4.120467e+002, 7.808472e+001
4.125288e+002, 7.890128e+001
4.130109e+002, 7.965237e+001
4.134930e+002, 8.022086e+001
4.139751e+002, 8.055274e+001
4.144572e+002, 8.098404e+001
4.149394e+002, 8.190697e+001
4.154215e+002, 8.335124e+001
4.159036e+002, 8.469004e+001
4.163857e+002, 8.586169e+001
4.168678e+002, 8.694852e+001
4.173499e+002, 8.790900e+001
4.178321e+002, 8.880402e+001
4.183142e+002, 8.982781e+001
4.187963e+002, 9.107613e+001
4.192784e+002, 9.253537e+001
4.197605e+002, 9.416374e+001
4.202426e+002, 9.592577e+001
4.207248e+002, 9.790073e+001
4.212069e+002, 1.001302e+002
4.216890e+002, 1.025585e+002
4.221711e+002, 1.051248e+002
4.226532e+002, 1.078123e+002
4.231353e+002, 1.106713e+002
4.236175e+002, 1.137891e+002
4.240996e+002, 1.172367e+002
4.245817e+002, 1.205570e+002
4.250638e+002, 1.234620e+002
4.255459e+002, 1.265389e+002
4.260280e+002, 1.303956e+002
4.265102e+002, 1.345745e+002
4.269923e+002, 1.381555e+002
4.274744e+002, 1.405740e+002
4.279565e+002, 1.421206e+002
4.284386e+002, 1.437497e+002
4.289207e+002, 1.459029e+002
4.294029e+002, 1.472997e+002
4.298850e+002, 1.475137e+002
4.303671e+002, 1.472080e+002
4.308492e+002, 1.469938e+002
4.313313e+002, 1.469285e+002
4.318134e+002, 1.464828e+002
4.322956e+002, 1.449119e+002
4.327777e+002, 1.421787e+002
4.332598e+002, 1.397284e+002
4.337419e+002, 1.375145e+002
4.342241e+002, 1.357363e+002
4.347062e+002, 1.344892e+002
4.351883e+002, 1.336787e+002
4.356704e+002, 1.331093e+002
4.361525e+002, 1.326175e+002
4.366346e+002, 1.324335e+002
4.371168e+002, 1.330227e+002
4.375989e+002, 1.344450e+002
4.380810e+002, 1.360014e+002
4.385631e+002, 1.375512e+002
4.390452e+002, 1.390426e+002
4.395273e+002, 1.405166e+002
4.400095e+002, 1.420012e+002
4.404916e+002, 1.431312e+002
4.409737e+002, 1.437261e+002
4.414558e+002, 1.438280e+002
4.419379e+002, 1.435689e+002
4.424200e+002, 1.429931e+002
4.429022e+002, 1.418737e+002
4.433843e+002, 1.399983e+002
4.438664e+002, 1.373499e+002
4.443485e+002, 1.341134e+002
4.448306e+002, 1.298972e+002
4.453127e+002, 1.254671e+002
4.457949e+002, 1.211786e+002
4.462770e+002, 1.170063e+002
4.467591e+002, 1.128026e+002
4.472412e+002, 1.084534e+002
4.477233e+002, 1.041819e+002
4.482054e+002, 1.004224e+002
4.486876e+002, 9.738002e+001
4.491697e+002, 9.436315e+001
4.496518e+002, 9.119798e+001
4.501339e+002, 8.817112e+001
4.506160e+002, 8.541692e+001
4.510981e+002, 8.300087e+001
4.515803e+002, 8.105110e+001
4.520624e+002, 7.974527e+001
4.525445e+002, 7.902319e+001
4.530266e+002, 7.812419e+001
4.535087e+002, 7.682751e+001
4.539908e+002, 7.560223e+001
4.544730e+002, 7.445745e+001
4.549551e+002, 7.344803e+001
4.554372e+002, 7.266399e+001
4.559193e+002, 7.212440e+001
4.564014e+002, 7.172037e+001
4.568835e+002, 7.133921e+001
4.573657e+002, 7.102078e+001
4.578478e+002, 7.053956e+001
4.583299e+002, 6.964083e+001
4.588120e+002, 6.881409e+001
4.592941e+002, 6.819870e+001
4.597762e+002, 6.781695e+001
4.602584e+002, 6.772648e+001
4.607405e+002, 6.811485e+001
4.612226e+002, 6.863374e+001
4.617047e+002, 6.841383e+001
4.621868e+002, 6.724622e+001
4.626689e+002, 6.635184e+001
4.631511e+002, 6.639214e+001
4.636332e+002, 6.675133e+001
4.641153e+002, 6.680682e+001
4.645974e+002, 6.649613e+001
4.650795e+002, 6.620316e+001
4.655616e+002, 6.623131e+001
4.660438e+002, 6.643247e+001
4.665259e+002, 6.641519e+001
4.670080e+002, 6.608745e+001
4.674901e+002, 6.584179e+001
4.679722e+002, 6.609135e+001
4.684543e+002, 6.670266e+001
4.689365e+002, 6.699680e+001
4.694186e+002, 6.662930e+001
4.699007e+002, 6.626181e+001
4.703828e+002, 6.625143e+001
4.708649e+002, 6.649287e+001
4.713470e+002, 6.675586e+001
4.718292e+002, 6.695741e+001
4.723113e+002, 6.717337e+001
4.727934e+002, 6.754102e+001
4.732755e+002, 6.816775e+001
4.737576e+002, 6.861309e+001
4.742397e+002, 6.878871e+001
4.747219e+002, 6.886742e+001
4.752040e+002, 6.883488e+001
4.756861e+002, 6.878603e+001
4.761682e+002, 6.893710e+001
4.766503e+002, 6.943528e+001
4.771324e+002, 7.020724e+001
4.776146e+002, 7.096712e+001
4.780967e+002, 7.177563e+001
4.785788e+002, 7.247613e+001
4.790609e+002, 7.302991e+001
4.795430e+002, 7.350280e+001
4.800251e+002, 7.390115e+001
4.805073e+002, 7.425213e+001
4.809894e+002, 7.465939e+001
4.814715e+002, 7.518059e+001
4.819536e+002, 7.582534e+001
4.824357e+002, 7.676570e+001
4.829178e+002, 7.824783e+001
4.834000e+002, 7.960648e+001
4.838821e+002, 8.048634e+001
4.843642e+002, 8.110723e+001
4.848463e+002, 8.170129e+001
4.853284e+002, 8.228201e+001
4.858105e+002, 8.303380e+001
4.862927e+002, 8.414642e+001
4.867748e+002, 8.560030e+001
4.872569e+002, 8.730486e+001
4.877390e+002, 8.935035e+001
4.882211e+002, 9.142779e+001
4.887032e+002, 9.303963e+001
4.891854e+002, 9.430120e+001
4.896675e+002, 9.590372e+001
4.901496e+002, 9.809592e+001
4.906317e+002, 1.005841e+002
4.911138e+002, 1.032374e+002
4.915959e+002, 1.059867e+002
4.920781e+002, 1.086330e+002
4.925602e+002, 1.110602e+002
4.930423e+002, 1.133562e+002
4.935244e+002, 1.157319e+002
4.940065e+002, 1.182454e+002
4.944886e+002, 1.207210e+002
4.949708e+002, 1.232930e+002
4.954529e+002, 1.257139e+002
4.959350e+002, 1.279139e+002
4.964171e+002, 1.298125e+002
4.968992e+002, 1.312474e+002
4.973813e+002, 1.320820e+002
4.978635e+002, 1.323558e+002
4.983456e+002, 1.323577e+002
4.988277e+002, 1.322749e+002
4.993098e+002, 1.315728e+002
4.997919e+002, 1.300042e+002
5.002740e+002, 1.279573e+002
5.007562e+002, 1.256309e+002
5.012383e+002, 1.231204e+002
5.017204e+002, 1.206547e+002
5.022025e+002, 1.184357e+002
5.026846e+002, 1.164661e+002
5.031667e+002, 1.147149e+002
5.036489e+002, 1.131712e+002
5.041310e+002, 1.118942e+002
5.046131e+002, 1.110465e+002
5.050952e+002, 1.104438e+002
5.055773e+002, 1.098052e+002
5.060594e+002, 1.089959e+002
5.065416e+002, 1.083226e+002
5.070237e+002, 1.080696e+002
5.075058e+002, 1.081667e+002
5.079879e+002, 1.083753e+002
5.084700e+002, 1.086416e+002
5.089521e+002, 1.090029e+002
5.094343e+002, 1.094972e+002
5.099164e+002, 1.101281e+002
5.103985e+002, 1.109054e+002
5.108806e+002, 1.120064e+002
5.113627e+002, 1.130787e+002
5.118448e+002, 1.138825e+002
5.123270e+002, 1.145075e+002
5.128091e+002, 1.151991e+002
5.132912e+002, 1.160634e+002
5.137733e+002, 1.169824e+002
5.142554e+002, 1.177410e+002
5.147375e+002, 1.182757e+002
5.152197e+002, 1.187939e+002
5.157018e+002, 1.194266e+002
5.161839e+002, 1.199244e+002
5.166660e+002, 1.199894e+002
5.171481e+002, 1.198145e+002
5.176302e+002, 1.199051e+002
5.181124e+002, 1.206157e+002
5.185945e+002, 1.216159e+002
5.190766e+002, 1.220172e+002
5.195587e+002, 1.216521e+002
5.200408e+002, 1.212324e+002
5.205229e+002, 1.208816e+002
5.210051e+002, 1.205367e+002
5.214872e+002, 1.202295e+002
5.219693e+002, 1.199233e+002
5.224514e+002, 1.194218e+002
5.229335e+002, 1.185776e+002
5.234156e+002, 1.174772e+002
5.238978e+002, 1.162450e+002
5.243799e+002, 1.148745e+002
5.248620e+002, 1.135215e+002
5.253441e+002, 1.123030e+002
5.258262e+002, 1.111258e+002
5.263083e+002, 1.098222e+002
5.267905e+002, 1.084156e+002
5.272726e+002, 1.068517e+002
5.277547e+002, 1.049716e+002
5.282368e+002, 1.030160e+002
5.287189e+002, 1.012558e+002
5.292010e+002, 9.971231e+001
5.296832e+002, 9.827201e+001
5.301653e+002, 9.684402e+001
5.306474e+002, 9.544044e+001
5.311295e+002, 9.409144e+001
5.316116e+002, 9.281332e+001
5.320938e+002, 9.157020e+001
5.325759e+002, 9.015762e+001
5.330580e+002, 8.889819e+001
5.335401e+002, 8.819897e+001
5.340222e+002, 8.803709e+001
5.345043e+002, 8.790292e+001
5.349865e+002, 8.726267e+001
5.354686e+002, 8.617796e+001
5.359507e+002, 8.539700e+001
5.364328e+002, 8.503589e+001
5.369149e+002, 8.476183e+001
5.373970e+002, 8.441098e+001
5.378792e+002, 8.409994e+001
5.383613e+002, 8.398890e+001
5.388434e+002, 8.412307e+001
5.393255e+002, 8.429504e+001
5.398076e+002, 8.437591e+001
5.402897e+002, 8.437520e+001
5.407719e+002, 8.427683e+001
5.412540e+002, 8.405512e+001
5.417361e+002, 8.390356e+001
5.422182e+002, 8.397185e+001
5.427003e+002, 8.423471e+001
5.431824e+002, 8.451493e+001
5.436646e+002, 8.466447e+001
5.441467e+002, 8.502173e+001
5.446288e+002, 8.578905e+001
5.451109e+002, 8.679467e+001
5.455930e+002, 8.780783e+001
5.460751e+002, 8.878329e+001
5.465573e+002, 8.981665e+001
5.470394e+002, 9.100624e+001
5.475215e+002, 9.234971e+001
5.480036e+002, 9.384585e+001
5.484857e+002, 9.572622e+001
5.489678e+002, 9.751808e+001
5.494500e+002, 9.918613e+001
5.499321e+002, 1.006956e+002
5.504142e+002, 1.019927e+002
5.508963e+002, 1.030737e+002
5.513784e+002, 1.040431e+002
5.518605e+002, 1.049989e+002
5.523427e+002, 1.059414e+002
5.528248e+002, 1.068874e+002
5.533069e+002, 1.078728e+002
5.537890e+002, 1.087873e+002
5.542711e+002, 1.098087e+002
5.547532e+002, 1.106427e+002
5.552354e+002, 1.107666e+002
5.557175e+002, 1.099581e+002
5.561996e+002, 1.088048e+002
5.566817e+002, 1.075108e+002
5.571638e+002, 1.061744e+002
5.576459e+002, 1.050070e+002
5.581281e+002, 1.040547e+002
5.586102e+002, 1.031554e+002
5.590923e+002, 1.021967e+002
5.595744e+002, 1.011727e+002
5.600565e+002, 9.999724e+001
5.605386e+002, 9.853477e+001
5.610208e+002, 9.712123e+001
5.615029e+002, 9.592392e+001
5.619850e+002, 9.476025e+001
5.624671e+002, 9.337459e+001
5.629492e+002, 9.173711e+001
5.634313e+002, 9.007931e+001
5.639135e+002, 8.870796e+001
5.643956e+002, 8.760456e+001
5.648777e+002, 8.598787e+001
5.653598e+002, 8.321568e+001
5.658419e+002, 8.096489e+001
5.663240e+002, 8.000758e+001
5.668062e+002, 7.961948e+001
5.672883e+002, 7.905773e+001
5.677704e+002, 7.816553e+001
5.682525e+002, 7.726952e+001
5.687346e+002, 7.674094e+001
5.692167e+002, 7.639696e+001
5.696989e+002, 7.560207e+001
5.701810e+002, 7.421201e+001
5.706631e+002, 7.307168e+001
5.711452e+002, 7.273071e+001
5.716273e+002, 7.305550e+001
5.721094e+002, 7.355640e+001
5.725916e+002, 7.450383e+001
5.730737e+002, 7.513168e+001
5.735558e+002, 7.499294e+001
5.740379e+002, 7.457373e+001
5.745200e+002, 7.430786e+001
5.750021e+002, 7.428773e+001
5.754843e+002, 7.452830e+001
5.759664e+002, 7.507282e+001
5.764485e+002, 7.585722e+001
5.769306e+002, 7.647803e+001
5.774127e+002, 7.673622e+001
5.778948e+002, 7.714974e+001
5.783770e+002, 7.790238e+001
5.788591e+002, 7.872751e+001
5.793412e+002, 7.942773e+001
5.798233e+002, 7.998743e+001
5.803054e+002, 8.052172e+001
5.807875e+002, 8.112241e+001
5.812697e+002, 8.175025e+001
5.817518e+002, 8.226224e+001
5.822339e+002, 8.263515e+001
5.827161e+002, 8.313643e+001
5.831982e+002, 8.400351e+001
5.836803e+002, 8.492806e+001
5.841624e+002, 8.543256e+001
5.846445e+002, 8.549653e+001
5.851266e+002, 8.548849e+001
5.856088e+002, 8.536559e+001
5.860909e+002, 8.531958e+001
5.865730e+002, 8.560017e+001
5.870551e+002, 8.612405e+001
5.875372e+002, 8.660344e+001
5.880193e+002, 8.689272e+001
5.885015e+002, 8.700826e+001
5.889836e+002, 8.696001e+001
5.894657e+002, 8.658881e+001
5.899478e+002, 8.640617e+001
5.904299e+002, 8.651231e+001
5.909120e+002, 8.668731e+001
5.913942e+002, 8.685330e+001
5.918763e+002, 8.700178e+001
5.923584e+002, 8.712598e+001
5.928405e+002, 8.721066e+001
5.933226e+002, 8.731599e+001
5.938047e+002, 8.761171e+001
5.942869e+002, 8.809061e+001
5.947690e+002, 8.828405e+001
5.952511e+002, 8.799296e+001
5.957332e+002, 8.760366e+001
5.962153e+002, 8.736430e+001
5.966974e+002, 8.728560e+001
5.971796e+002, 8.746425e+001
5.976617e+002, 8.812939e+001
5.981438e+002, 8.882348e+001
5.986259e+002, 8.932101e+001
5.991080e+002, 8.967396e+001
5.995901e+002, 8.992546e+001
6.000723e+002, 9.009834e+001
6.005544e+002, 9.031796e+001
6.010365e+002, 9.072074e+001
6.015186e+002, 9.131151e+001
6.020007e+002, 9.194964e+001
6.024828e+002, 9.282542e+001
6.029650e+002, 9.351491e+001
6.034471e+002, 9.372755e+001
6.039292e+002, 9.385117e+001
6.044113e+002, 9.431998e+001
6.048934e+002, 9.518479e+001
6.053755e+002, 9.609709e+001
6.058577e+002, 9.666467e+001
6.063398e+002, 9.702871e+001
6.068219e+002, 9.775864e+001
6.073040e+002, 9.891610e+001
6.077861e+002, 1.000852e+002
6.082682e+002, 1.010466e+002
6.087504e+002, 1.019430e+002
6.092325e+002, 1.029998e+002
6.097146e+002, 1.042063e+002
6.101967e+002, 1.055902e+002
6.106788e+002, 1.071320e+002
6.111609e+002, 1.088839e+002
6.116431e+002, 1.110151e+002
6.121252e+002, 1.134114e+002
6.126073e+002, 1.156026e+002
6.130894e+002, 1.173070e+002
6.135715e+002, 1.189665e+002
6.140536e+002, 1.215543e+002
6.145358e+002, 1.252543e+002
6.150179e+002, 1.294129e+002
6.155000e+002, 1.341432e+002
6.159821e+002, 1.392249e+002
6.164642e+002, 1.445522e+002
6.169464e+002, 1.501960e+002
6.174285e+002, 1.563085e+002
6.179106e+002, 1.629918e+002
6.183927e+002, 1.701015e+002
6.188748e+002, 1.775055e+002
6.193569e+002, 1.852222e+002
6.198391e+002, 1.934754e+002
6.203212e+002, 2.023582e+002
6.208033e+002, 2.114974e+002
6.212854e+002, 2.204167e+002
6.217675e+002, 2.292671e+002
6.222496e+002, 2.387674e+002
6.227318e+002, 2.487683e+002
6.232139e+002, 2.595840e+002
6.236960e+002, 2.710240e+002
6.241781e+002, 2.834166e+002
6.246602e+002, 2.968207e+002
6.251423e+002, 3.114043e+002
6.256245e+002, 3.275558e+002
6.261066e+002, 3.455931e+002
6.265887e+002, 3.654497e+002
6.270708e+002, 3.871586e+002
6.275529e+002, 4.104942e+002
6.280350e+002, 4.359939e+002
6.285172e+002, 4.636801e+002
6.289993e+002, 4.940853e+002
6.294814e+002, 5.281730e+002
6.299635e+002, 5.656382e+002
6.304456e+002, 6.048457e+002
6.309277e+002, 6.463403e+002
6.314099e+002, 6.883818e+002
6.318920e+002, 7.315390e+002
6.323741e+002, 7.741797e+002
6.328562e+002, 8.103577e+002
6.333383e+002, 8.386293e+002
6.338204e+002, 8.576281e+002
6.343026e+002, 8.661329e+002
6.347847e+002, 8.643594e+002
6.352668e+002, 8.484101e+002
6.357489e+002, 8.153954e+002
6.362310e+002, 7.738184e+002
6.367131e+002, 7.220355e+002
6.371953e+002, 6.652214e+002
6.376774e+002, 6.079685e+002
6.381595e+002, 5.520217e+002
6.386416e+002, 4.986844e+002
6.391237e+002, 4.487128e+002
6.396058e+002, 4.025660e+002
6.400880e+002, 3.615208e+002
6.405701e+002, 3.257521e+002
6.410522e+002, 2.950205e+002
6.415343e+002, 2.704050e+002
6.420164e+002, 2.500102e+002
6.424985e+002, 2.307138e+002
6.429807e+002, 2.124216e+002
6.434628e+002, 1.966275e+002
6.439449e+002, 1.843750e+002
6.444270e+002, 1.741728e+002
6.449091e+002, 1.650567e+002
6.453912e+002, 1.568864e+002
6.458734e+002, 1.495317e+002
6.463555e+002, 1.429822e+002
6.468376e+002, 1.371855e+002
6.473197e+002, 1.322285e+002
6.478018e+002, 1.282062e+002
6.482839e+002, 1.243801e+002
6.487661e+002, 1.207142e+002
6.492482e+002, 1.172901e+002
6.497303e+002, 1.139968e+002
6.502124e+002, 1.110108e+002
6.506945e+002, 1.085809e+002
6.511766e+002, 1.067734e+002
6.516588e+002, 1.052750e+002
6.521409e+002, 1.041165e+002
6.526230e+002, 1.030430e+002
6.531051e+002, 1.013608e+002
6.535872e+002, 9.906135e+001
6.540693e+002, 9.706709e+001
6.545515e+002, 9.590577e+001
6.550336e+002, 9.527142e+001
6.555157e+002, 9.451606e+001
6.559978e+002, 9.352940e+001
6.564799e+002, 9.268801e+001
6.569620e+002, 9.193086e+001
6.574442e+002, 9.138844e+001
6.579263e+002, 9.136068e+001
6.584084e+002, 9.154279e+001
6.588905e+002, 9.139070e+001
6.593726e+002, 9.068723e+001
6.598547e+002, 8.971510e+001
6.603369e+002, 8.875808e+001
6.608190e+002, 8.783095e+001
6.613011e+002, 8.712254e+001
6.617832e+002, 8.662875e+001
6.622653e+002, 8.640869e+001
6.627474e+002, 8.672218e+001
6.632296e+002, 8.723896e+001
6.637117e+002, 8.728129e+001
6.641938e+002, 8.668665e+001
6.646759e+002, 8.612621e+001
6.651580e+002, 8.574735e+001
6.656401e+002, 8.553663e+001
6.661223e+002, 8.563737e+001
6.666044e+002, 8.590848e+001
6.670865e+002, 8.589693e+001
6.675686e+002, 8.535628e+001
6.680507e+002, 8.460922e+001
6.685328e+002, 8.430135e+001
6.690150e+002, 8.456804e+001
6.694971e+002, 8.470293e+001
6.699792e+002, 8.479947e+001
6.704613e+002, 8.461250e+001
6.709434e+002, 8.384264e+001
6.714255e+002, 8.282015e+001
6.719077e+002, 8.199325e+001
6.723898e+002, 8.142998e+001
6.728719e+002, 8.120094e+001
6.733540e+002, 8.160925e+001
6.738361e+002, 8.226089e+001
6.743182e+002, 8.251102e+001
6.748004e+002, 8.234960e+001
6.752825e+002, 8.217381e+001
6.757646e+002, 8.222180e+001
6.762467e+002, 8.235136e+001
6.767288e+002, 8.221304e+001
6.772109e+002, 8.157924e+001
6.776931e+002, 8.121092e+001
6.781752e+002, 8.112619e+001
6.786573e+002, 8.126183e+001
6.791394e+002, 8.181115e+001
6.796215e+002, 8.249561e+001
6.801036e+002, 8.282647e+001
6.805858e+002, 8.261733e+001
6.810679e+002, 8.234798e+001
6.815500e+002, 8.249966e+001
6.820321e+002, 8.295020e+001
6.825142e+002, 8.339549e+001
6.829963e+002, 8.381320e+001
6.834785e+002, 8.409644e+001
6.839606e+002, 8.412360e+001
6.844427e+002, 8.405278e+001
6.849248e+002, 8.427329e+001
6.854069e+002, 8.497538e+001
6.858890e+002, 8.552343e+001
6.863712e+002, 8.561095e+001
6.868533e+002, 8.583275e+001
6.873354e+002, 8.672947e+001
6.878175e+002, 8.793604e+001
6.882996e+002, 8.874564e+001
6.887817e+002, 8.889744e+001
6.892639e+002, 8.885053e+001
6.897460e+002, 8.907028e+001
6.902281e+002, 8.955833e+001
6.907102e+002, 9.040173e+001
6.911923e+002, 9.170051e+001
6.916744e+002, 9.290623e+001
6.921566e+002, 9.375451e+001
6.926387e+002, 9.433081e+001
6.931208e+002, 9.470945e+001
6.936029e+002, 9.477379e+001
6.940850e+002, 9.517129e+001
6.945671e+002, 9.614879e+001
6.950493e+002, 9.735159e+001
6.955314e+002, 9.865959e+001
6.960135e+002, 9.999619e+001
6.964956e+002, 1.012244e+002
6.969777e+002, 1.023025e+002
6.974598e+002, 1.034124e+002
6.979420e+002, 1.048448e+002
6.984241e+002, 1.065787e+002
6.989062e+002, 1.080005e+002
6.993883e+002, 1.088882e+002
6.998704e+002, 1.100854e+002
7.003525e+002, 1.120194e+002
7.008347e+002, 1.144013e+002
7.013168e+002, 1.169326e+002
7.017989e+002, 1.196355e+002
7.022810e+002, 1.220018e+002
7.027631e+002, 1.235413e+002
7.032452e+002, 1.250080e+002
7.037274e+002, 1.267225e+002
7.042095e+002, 1.288084e+002
7.046916e+002, 1.315141e+002
7.051737e+002, 1.348826e+002
7.056558e+002, 1.386247e+002
7.061379e+002, 1.424577e+002
7.066201e+002, 1.463624e+002
7.071022e+002, 1.499175e+002
7.075843e+002, 1.528663e+002
7.080664e+002, 1.561028e+002
7.085485e+002, 1.602441e+002
7.090306e+002, 1.645377e+002
7.095128e+002, 1.680678e+002
7.099949e+002, 1.709221e+002
7.104770e+002, 1.743014e+002
7.109591e+002, 1.792820e+002
7.114412e+002, 1.842581e+002
7.119233e+002, 1.879986e+002
7.124055e+002, 1.908963e+002
7.128876e+002, 1.937534e+002
7.133697e+002, 1.967302e+002
7.138518e+002, 1.993535e+002
7.143339e+002, 2.011966e+002
7.148160e+002, 2.022486e+002
7.152982e+002, 2.023500e+002
7.157803e+002, 2.013713e+002
7.162624e+002, 1.997367e+002
7.167445e+002, 1.974081e+002
7.172266e+002, 1.945270e+002
7.177087e+002, 1.912613e+002
7.181909e+002, 1.875323e+002
7.186730e+002, 1.830224e+002
7.191551e+002, 1.771243e+002
7.196372e+002, 1.711008e+002
7.201193e+002, 1.657872e+002
7.206014e+002, 1.609079e+002
7.210836e+002, 1.559689e+002
7.215657e+002, 1.509174e+002
7.220478e+002, 1.459243e+002
7.225299e+002, 1.411072e+002
7.230120e+002, 1.364953e+002
7.234941e+002, 1.323389e+002
7.239763e+002, 1.287624e+002
7.244584e+002, 1.252608e+002
7.249405e+002, 1.218485e+002
7.254226e+002, 1.184248e+002
7.259047e+002, 1.146264e+002
7.263868e+002, 1.108377e+002
7.268690e+002, 1.079058e+002
7.273511e+002, 1.063046e+002
7.278332e+002, 1.048202e+002
7.283153e+002, 1.025809e+002
7.287974e+002, 1.001306e+002
7.292795e+002, 9.823611e+001
7.297617e+002, 9.688728e+001
7.302438e+002, 9.557895e+001
7.307259e+002, 9.401892e+001
7.312080e+002, 9.241953e+001
7.316901e+002, 9.127026e+001
7.321722e+002, 9.076788e+001
7.326544e+002, 8.989214e+001
7.331365e+002, 8.835147e+001
7.336186e+002, 8.682645e+001
7.341007e+002, 8.537143e+001
7.345828e+002, 8.419730e+001
7.350649e+002, 8.376929e+001
7.355471e+002, 8.422876e+001
7.360292e+002, 8.435536e+001
7.365113e+002, 8.318369e+001
7.369934e+002, 8.173049e+001
7.374755e+002, 8.111722e+001
7.379576e+002, 8.108187e+001
7.384398e+002, 8.072353e+001
7.389219e+002, 7.972691e+001
7.394040e+002, 7.856585e+001
7.398861e+002, 7.781850e+001
7.403682e+002, 7.747647e+001
7.408503e+002, 7.719351e+001
7.413325e+002, 7.694583e+001
7.418146e+002, 7.680910e+001
7.422967e+002, 7.703896e+001
7.427788e+002, 7.720676e+001
7.432609e+002, 7.681845e+001
7.437430e+002, 7.595412e+001
7.442252e+002, 7.534435e+001
7.447073e+002, 7.554118e+001
7.451894e+002, 7.570592e+001
7.456715e+002, 7.518415e+001
7.461536e+002, 7.432471e+001
7.466357e+002, 7.356382e+001
7.471179e+002, 7.303896e+001
7.476000e+002, 7.296468e+001
7.480821e+002, 7.359209e+001
7.485642e+002, 7.460484e+001
7.490463e+002, 7.489993e+001
7.495284e+002, 7.427824e+001
7.500106e+002, 7.385904e+001
7.504927e+002, 7.387914e+001
7.509748e+002, 7.400488e+001
7.514569e+002, 7.398495e+001
7.519390e+002, 7.390699e+001
7.524211e+002, 7.396957e+001
7.529033e+002, 7.424026e+001
7.533854e+002, 7.454112e+001
7.538675e+002, 7.499387e+001
7.543496e+002, 7.530297e+001
7.548317e+002, 7.503731e+001
7.553138e+002, 7.438330e+001
7.557960e+002, 7.388138e+001
7.562781e+002, 7.377866e+001
7.567602e+002, 7.392042e+001
7.572423e+002, 7.413123e+001
7.577244e+002, 7.440581e+001
7.582065e+002, 7.460653e+001
7.586887e+002, 7.471202e+001
7.591708e+002, 7.480636e+001
7.596529e+002, 7.493065e+001
7.601350e+002, 7.505735e+001
7.606171e+002, 7.509668e+001
7.610992e+002, 7.502493e+001
7.615814e+002, 7.517306e+001
7.620635e+002, 7.592126e+001
7.625456e+002, 7.651509e+001
7.630277e+002, 7.639224e+001
7.635098e+002, 7.602586e+001
7.639919e+002, 7.609128e+001
7.644741e+002, 7.665089e+001
7.649562e+002, 7.720767e+001
7.654383e+002, 7.734913e+001
7.659204e+002, 7.725945e+001
7.664025e+002, 7.738315e+001
7.668846e+002, 7.770809e+001
7.673668e+002, 7.783334e+001
7.678489e+002, 7.759372e+001
7.683310e+002, 7.744548e+001
7.688131e+002, 7.786230e+001
7.692952e+002, 7.869643e+001
7.697773e+002, 7.910226e+001
7.702595e+002, 7.837080e+001
7.707416e+002, 7.826907e+001
7.712237e+002, 7.953860e+001
7.717058e+002, 8.086918e+001
7.721879e+002, 8.128225e+001
7.726700e+002, 8.113805e+001
7.731522e+002, 8.135109e+001
7.736343e+002, 8.228880e+001
7.741164e+002, 8.324102e+001
7.745985e+002, 8.343589e+001
7.750806e+002, 8.317498e+001
7.755627e+002, 8.309608e+001
7.760449e+002, 8.323504e+001
7.765270e+002, 8.355830e+001
7.770091e+002, 8.408453e+001
7.774912e+002, 8.463039e+001
7.779733e+002, 8.488299e+001
7.784554e+002, 8.477473e+001
7.789376e+002, 8.496370e+001
7.794197e+002, 8.582565e+001
7.799019e+002, 8.647256e+001
7.803840e+002, 8.654817e+001
7.808661e+002, 8.646923e+001
7.813482e+002, 8.650356e+001
7.818303e+002, 8.671151e+001
7.823124e+002, 8.721953e+001
7.827946e+002, 8.843305e+001
7.832767e+002, 8.953433e+001
7.837588e+002, 8.973785e+001
7.842409e+002, 8.940950e+001
7.847230e+002, 8.916017e+001
7.852051e+002, 8.909358e+001
7.856873e+002, 8.907411e+001
7.861694e+002, 8.900780e+001
7.866515e+002, 8.892842e+001
7.871336e+002, 8.889812e+001
7.876157e+002, 8.888960e+001
7.880978e+002, 8.913632e+001
7.885800e+002, 8.997303e+001
7.890621e+002, 9.052042e+001
7.895442e+002, 9.015237e+001
7.900263e+002, 8.925903e+001
7.905084e+002, 8.835806e+001
7.909905e+002, 8.739299e+001
7.914727e+002, 8.684964e+001
7.919548e+002, 8.714249e+001
7.924369e+002, 8.760087e+001
7.929190e+002, 8.802310e+001
7.934011e+002, 8.823474e+001
7.938832e+002, 8.789384e+001
7.943654e+002, 8.698573e+001
7.948475e+002, 8.601333e+001
7.953296e+002, 8.536658e+001
7.958117e+002, 8.502379e+001
7.962938e+002, 8.506413e+001
7.967759e+002, 8.547457e+001
7.972581e+002, 8.559974e+001
7.977402e+002, 8.524097e+001
7.982223e+002, 8.472895e+001
7.987044e+002, 8.429495e+001
7.991865e+002, 8.395508e+001
7.996686e+002, 8.380942e+001
8.001508e+002, 8.428854e+001
8.006329e+002, 8.433462e+001
8.011150e+002, 8.361270e+001
8.015971e+002, 8.277070e+001
8.020792e+002, 8.198851e+001
8.025613e+002, 8.140699e+001
8.030435e+002, 8.131306e+001
8.035256e+002, 8.183423e+001
8.040077e+002, 8.227705e+001
8.044898e+002, 8.211663e+001
8.049719e+002, 8.157958e+001
8.054540e+002, 8.081171e+001
8.059362e+002, 7.994200e+001
8.064183e+002, 7.942407e+001
8.069004e+002, 7.941782e+001
8.073825e+002, 7.963790e+001
8.078646e+002, 7.978901e+001
8.083467e+002, 7.986285e+001
8.088289e+002, 7.972442e+001
8.093110e+002, 7.928111e+001
8.097931e+002, 7.887662e+001
8.102752e+002, 7.860945e+001
8.107573e+002, 7.837551e+001
8.112394e+002, 7.806799e+001
8.117216e+002, 7.772413e+001
8.122037e+002, 7.748320e+001
8.126858e+002, 7.746200e+001
8.131679e+002, 7.736059e+001
8.136500e+002, 7.688546e+001
8.141321e+002, 7.644758e+001
8.146143e+002, 7.659384e+001
8.150964e+002, 7.705567e+001
8.155785e+002, 7.710935e+001
8.160606e+002, 7.646605e+001
8.165427e+002, 7.562490e+001
8.170248e+002, 7.509928e+001
8.175070e+002, 7.484658e+001
8.179891e+002, 7.478458e+001
8.184712e+002, 7.490927e+001
8.189533e+002, 7.491403e+001
8.194354e+002, 7.466373e+001
8.199175e+002, 7.436424e+001
8.203997e+002, 7.427307e+001
8.208818e+002, 7.438445e+001
8.213639e+002, 7.434888e+001
8.218460e+002, 7.407342e+001
8.223281e+002, 7.378622e+001
8.228102e+002, 7.345190e+001
8.232924e+002, 7.316811e+001
8.237745e+002, 7.304927e+001
8.242566e+002, 7.302881e+001
8.247387e+002, 7.292903e+001
8.252208e+002, 7.267246e+001
8.257029e+002, 7.242115e+001
8.261851e+002, 7.232255e+001
8.266672e+002, 7.224899e+001
8.271493e+002, 7.200848e+001
8.276314e+002, 7.165464e+001
8.281135e+002, 7.137691e+001
8.285956e+002, 7.124931e+001
8.290778e+002, 7.123575e+001
8.295599e+002, 7.130888e+001
8.300420e+002, 7.145765e+001
8.305241e+002, 7.166879e+001
8.310062e+002, 7.199455e+001
8.314883e+002, 7.197508e+001
8.319705e+002, 7.132058e+001
8.324526e+002, 7.061372e+001
8.329347e+002, 7.045547e+001
8.334168e+002, 7.077428e+001
8.338989e+002, 7.088146e+001
8.343810e+002, 7.062712e+001
8.348632e+002, 7.039913e+001
8.353453e+002, 7.033382e+001
8.358274e+002, 7.020561e+001
8.363095e+002, 6.969973e+001
8.367916e+002, 6.907349e+001
8.372737e+002, 6.883125e+001
8.377559e+002, 6.913181e+001
8.382380e+002, 6.962418e+001
8.387201e+002, 7.032394e+001
8.392022e+002, 7.088656e+001
8.396843e+002, 7.057092e+001
8.401664e+002, 6.970084e+001
8.406486e+002, 6.940553e+001
8.411307e+002, 7.000151e+001
8.416128e+002, 7.077490e+001
8.420949e+002, 7.102299e+001
8.425770e+002, 7.084631e+001
8.430591e+002, 7.068627e+001
8.435413e+002, 7.054179e+001
8.440234e+002, 7.042001e+001
8.445055e+002, 7.033484e+001
8.449876e+002, 7.024126e+001
8.454697e+002, 7.002242e+001
8.459518e+002, 6.979264e+001
8.464340e+002, 6.989916e+001
8.469161e+002, 7.049249e+001
8.473982e+002, 7.100274e+001
8.478803e+002, 7.145213e+001
8.483624e+002, 7.171864e+001
8.488445e+002, 7.159743e+001
8.493267e+002, 7.133038e+001
8.498088e+002, 7.121626e+001
8.502909e+002, 7.131437e+001
8.507730e+002, 7.153610e+001
8.512551e+002, 7.190417e+001
8.517372e+002, 7.228541e+001
8.522194e+002, 7.254055e+001
8.527015e+002, 7.268054e+001
8.531836e+002, 7.269188e+001
8.536657e+002, 7.259099e+001
8.541478e+002, 7.251170e+001
8.546299e+002, 7.253922e+001
8.551121e+002, 7.266567e+001
8.555942e+002, 7.289584e+001
8.560763e+002, 7.324554e+001
8.565584e+002, 7.357569e+001
8.570405e+002, 7.393382e+001
8.575226e+002, 7.412563e+001
8.580048e+002, 7.398265e+001
8.584869e+002, 7.370205e+001
8.589690e+002, 7.349937e+001
8.594511e+002, 7.335751e+001
8.599332e+002, 7.355561e+001
8.604153e+002, 7.445825e+001
8.608975e+002, 7.524516e+001
8.613796e+002, 7.573088e+001
8.618617e+002, 7.598009e+001
8.623438e+002, 7.591969e+001
8.628259e+002, 7.568127e+001
8.633080e+002, 7.559615e+001
8.637902e+002, 7.580711e+001
8.642723e+002, 7.617068e+001
8.647544e+002, 7.671643e+001
8.652365e+002, 7.725810e+001
8.657186e+002, 7.740376e+001
8.662007e+002, 7.725642e+001
8.666829e+002, 7.733313e+001
8.671650e+002, 7.781790e+001
8.676471e+002, 7.830622e+001
8.681292e+002, 7.829240e+001
8.686113e+002, 7.786610e+001
8.690934e+002, 7.749476e+001
8.695756e+002, 7.713567e+001
8.700577e+002, 7.720107e+001
8.705398e+002, 7.795632e+001
8.710219e+002, 7.874628e+001
8.715040e+002, 7.911665e+001
8.719861e+002, 7.910045e+001
8.724683e+002, 7.879561e+001
8.729504e+002, 7.778488e+001
8.734325e+002, 7.727690e+001
8.739146e+002, 7.775240e+001
8.743967e+002, 7.819775e+001
8.748788e+002, 7.810547e+001
8.753610e+002, 7.777839e+001
8.758431e+002, 7.762859e+001
8.763252e+002, 7.770552e+001
8.768073e+002, 7.776631e+001
8.772894e+002, 7.777884e+001
8.777715e+002, 7.764634e+001
8.782537e+002, 7.708127e+001
8.787358e+002, 7.642850e+001
8.792179e+002, 7.624464e+001
8.797000e+002, 7.653189e+001
8.801821e+002, 7.696517e+001
8.806642e+002, 7.737685e+001
8.811464e+002, 7.767357e+001
8.816285e+002, 7.764162e+001
8.821106e+002, 7.735029e+001
8.825927e+002, 7.722408e+001
8.830748e+002, 7.728815e+001
8.835569e+002, 7.723998e+001
8.840391e+002, 7.692838e+001
8.845212e+002, 7.660586e+001
8.850033e+002, 7.658205e+001
8.854854e+002, 7.684019e+001
8.859675e+002, 7.705580e+001
8.864496e+002, 7.733626e+001
8.869318e+002, 7.735390e+001
8.874139e+002, 7.668106e+001
8.878960e+002, 7.614439e+001
8.883781e+002, 7.629346e+001
8.888602e+002, 7.687699e+001
8.893423e+002, 7.745347e+001
8.898245e+002, 7.804988e+001
8.903066e+002, 7.832333e+001
8.907887e+002, 7.788179e+001
8.912708e+002, 7.741320e+001
8.917529e+002, 7.722530e+001
8.922350e+002, 7.731485e+001
8.927172e+002, 7.786247e+001
8.931993e+002, 7.872369e+001
8.936814e+002, 7.916497e+001
8.941635e+002, 7.858057e+001
8.946456e+002, 7.771768e+001
8.951277e+002, 7.748243e+001
8.956099e+002, 7.765267e+001
8.960920e+002, 7.773650e+001
8.965741e+002, 7.769936e+001
8.970562e+002, 7.770164e+001
8.975383e+002, 7.781688e+001
8.980204e+002, 7.808298e+001
8.985026e+002, 7.867439e+001
8.989847e+002, 7.951881e+001
8.994668e+002, 7.953596e+001
8.999489e+002, 7.850651e+001
9.004310e+002, 7.792043e+001
9.009131e+002, 7.830964e+001
9.013953e+002, 7.888448e+001
9.018774e+002, 7.894447e+001
9.023595e+002, 7.863429e+001
9.028416e+002, 7.861800e+001
9.033237e+002, 7.921629e+001
9.038058e+002, 7.952708e+001
9.042880e+002, 7.924413e+001
9.047701e+002, 7.904110e+001
9.052522e+002, 7.938917e+001
9.057343e+002, 7.985155e+001
9.062164e+002, 7.971867e+001
9.066985e+002, 7.898511e+001
9.071807e+002, 7.869374e+001
9.076628e+002, 7.965461e+001
9.081449e+002, 8.063410e+001
9.086270e+002, 8.086815e+001
9.091091e+002, 8.081719e+001
9.095912e+002, 8.095918e+001
9.100734e+002, 8.131300e+001
9.105555e+002, 8.172041e+001
9.110376e+002, 8.211252e+001
9.115197e+002, 8.249441e+001
9.120018e+002, 8.295942e+001
9.124839e+002, 8.337800e+001
9.129661e+002, 8.337129e+001
9.134482e+002, 8.303917e+001
9.139303e+002, 8.292228e+001
9.144124e+002, 8.316329e+001
9.148945e+002, 8.340952e+001
9.153766e+002, 8.330549e+001
9.158588e+002, 8.306606e+001
9.163409e+002, 8.347580e+001
9.168230e+002, 8.464133e+001
9.173051e+002, 8.543044e+001
9.177872e+002, 8.570259e+001
9.182693e+002, 8.572346e+001
9.187515e+002, 8.552340e+001
9.192336e+002, 8.526553e+001
9.197157e+002, 8.520795e+001
9.201978e+002, 8.537020e+001
9.206799e+002, 8.553576e+001
9.211620e+002, 8.581466e+001
9.216442e+002, 8.594031e+001
9.221263e+002, 8.571693e+001
9.226084e+002, 8.547827e+001
9.230905e+002, 8.549593e+001
9.235726e+002, 8.566356e+001
9.240547e+002, 8.570808e+001
9.245369e+002, 8.555440e+001
9.250190e+002, 8.538576e+001
9.255011e+002, 8.519733e+001
9.259832e+002, 8.508923e+001
9.264653e+002, 8.518564e+001
9.269474e+002, 8.537408e+001
9.274296e+002, 8.560125e+001
9.279117e+002, 8.577786e+001
9.283938e+002, 8.561997e+001
9.288759e+002, 8.491417e+001
9.293580e+002, 8.392068e+001
9.298401e+002, 8.268278e+001
9.303223e+002, 8.146940e+001
9.308044e+002, 8.093192e+001
9.312865e+002, 8.095454e+001
9.317686e+002, 8.078558e+001
9.322507e+002, 8.013229e+001
9.327328e+002, 7.948405e+001
9.332150e+002, 7.949224e+001
9.336971e+002, 7.990717e+001
9.341792e+002, 7.967348e+001
9.346613e+002, 7.879269e+001
9.351434e+002, 7.812444e+001
9.356255e+002, 7.785583e+001
9.361077e+002, 7.762009e+001
9.365898e+002, 7.717837e+001
9.370719e+002, 7.660843e+001
9.375540e+002, 7.608950e+001
9.380361e+002, 7.566421e+001
9.385182e+002, 7.502917e+001
9.390004e+002, 7.387693e+001
9.394825e+002, 7.312920e+001
9.399646e+002, 7.336008e+001
9.404467e+002, 7.377685e+001
9.409288e+002, 7.371329e+001
9.414109e+002, 7.322267e+001
9.418931e+002, 7.248442e+001
9.423752e+002, 7.102763e+001
9.428573e+002, 7.020505e+001
9.433394e+002, 7.075738e+001
9.438215e+002, 7.133662e+001
9.443036e+002, 7.123767e+001
9.447858e+002, 7.076906e+001
9.452679e+002, 7.034280e+001
9.457500e+002, 7.002084e+001
9.462321e+002, 6.970788e+001
9.467142e+002, 6.939582e+001
9.471964e+002, 6.904056e+001
9.476785e+002, 6.850556e+001
9.481606e+002, 6.799203e+001
9.486427e+002, 6.776153e+001
9.491248e+002, 6.775018e+001
9.496069e+002, 6.774062e+001
9.500891e+002, 6.765257e+001
9.505712e+002, 6.754580e+001
9.510533e+002, 6.752502e+001
9.515354e+002, 6.748804e+001
9.520175e+002, 6.719208e+001
9.524996e+002, 6.674644e+001
9.529818e+002, 6.648217e+001
9.534639e+002, 6.644110e+001
9.539460e+002, 6.643095e+001
9.544281e+002, 6.632822e+001
9.549102e+002, 6.621420e+001
9.553923e+002, 6.626301e+001
9.558745e+002, 6.644807e+001
9.563566e+002, 6.652291e+001
9.568387e+002, 6.648366e+001
9.573208e+002, 6.628148e+001
9.578029e+002, 6.584467e+001
9.582850e+002, 6.556898e+001
9.587672e+002, 6.588206e+001
9.592493e+002, 6.659267e+001
9.597314e+002, 6.689739e+001
9.602135e+002, 6.663898e+001
9.606956e+002, 6.657425e+001
9.611777e+002, 6.690360e+001
9.616599e+002, 6.706337e+001
9.621420e+002, 6.674181e+001
9.626241e+002, 6.620928e+001
9.631062e+002, 6.571336e+001
9.635883e+002, 6.525617e+001
9.640704e+002, 6.515805e+001
9.645526e+002, 6.562352e+001
9.650347e+002, 6.612787e+001
9.655168e+002, 6.683367e+001
9.659989e+002, 6.734862e+001
9.664810e+002, 6.733265e+001
9.669631e+002, 6.704774e+001
9.674453e+002, 6.682198e+001
9.679274e+002, 6.668748e+001
9.684095e+002, 6.692121e+001
9.688916e+002, 6.815480e+001
9.693737e+002, 6.908139e+001
9.698558e+002, 6.884878e+001
9.703380e+002, 6.827296e+001
9.708201e+002, 6.810188e+001
9.713022e+002, 6.827694e+001
9.717843e+002, 6.841711e+001
9.722664e+002, 6.839057e+001
9.727485e+002, 6.844841e+001
9.732307e+002, 6.887666e+001
9.737128e+002, 6.936016e+001
9.741949e+002, 6.954391e+001
9.746770e+002, 6.958138e+001
9.751591e+002, 6.979530e+001
9.756412e+002, 7.017331e+001
9.761234e+002, 7.039550e+001
9.766055e+002, 7.027108e+001
9.770876e+002, 7.005213e+001
9.775698e+002, 6.999018e+001
9.780519e+002, 7.007759e+001
9.785340e+002, 7.039641e+001
9.790161e+002, 7.086107e+001
9.794982e+002, 7.110287e+001
9.799803e+002, 7.103938e+001
9.804625e+002, 7.092925e+001
9.809446e+002, 7.098637e+001
9.814267e+002, 7.110360e+001
9.819088e+002, 7.105123e+001
9.823909e+002, 7.083975e+001
9.828730e+002, 7.058222e+001
9.833552e+002, 7.028779e+001
9.838373e+002, 6.980453e+001
9.843194e+002, 6.903497e+001
9.848015e+002, 6.834739e+001
9.852836e+002, 6.815922e+001
9.857657e+002, 6.835939e+001
9.862479e+002, 6.838661e+001
9.867300e+002, 6.820859e+001
9.872121e+002, 6.803890e+001
9.876942e+002, 6.791709e+001
9.881763e+002, 6.772903e+001
9.886584e+002, 6.739213e+001
9.891406e+002, 6.700584e+001
9.896227e+002, 6.667878e+001
9.901048e+002, 6.641040e+001
9.905869e+002, 6.636504e+001
9.910690e+002, 6.676884e+001
9.915511e+002, 6.694997e+001
9.920333e+002, 6.668975e+001
9.925154e+002, 6.638428e+001
9.929975e+002, 6.633687e+001
9.934796e+002, 6.632718e+001
9.939617e+002, 6.590391e+001
9.944438e+002, 6.498721e+001
9.949260e+002, 6.451983e+001
9.954081e+002, 6.490875e+001
9.958902e+002, 6.526688e+001
9.963723e+002, 6.551413e+001
9.968544e+002, 6.557200e+001
9.973365e+002, 6.519717e+001
9.978187e+002, 6.465909e+001
9.983008e+002, 6.451783e+001
9.987829e+002, 6.490102e+001
9.992650e+002, 6.517978e+001
9.997471e+002, 6.505613e+001
1.000229e+003, 6.492133e+001
1.000711e+003, 6.507080e+001
1.001193e+003, 6.520188e+001
1.001676e+003, 6.488351e+001
1.002158e+003, 6.431271e+001
1.002640e+003, 6.408982e+001
1.003122e+003, 6.443034e+001
1.003604e+003, 6.473125e+001
1.004086e+003, 6.453828e+001
1.004568e+003, 6.429026e+001
1.005050e+003, 6.436873e+001
1.005533e+003, 6.459666e+001
1.006015e+003, 6.475221e+001
1.006497e+003, 6.479942e+001
1.006979e+003, 6.471480e+001
1.007461e+003, 6.445914e+001
1.007943e+003, 6.437497e+001
1.008425e+003, 6.503851e+001
1.008907e+003, 6.583218e+001
1.009389e+003, 6.579012e+001
1.009872e+003, 6.529448e+001
1.010354e+003, 6.521145e+001
1.010836e+003, 6.563525e+001
1.011318e+003, 6.613478e+001
1.011800e+003, 6.647270e+001
1.012282e+003, 6.667515e+001
1.012764e+003, 6.675428e+001
1.013246e+003, 6.673166e+001
1.013729e+003, 6.655622e+001
1.014211e+003, 6.631882e+001
1.014693e+003, 6.638441e+001
1.015175e+003, 6.681094e+001
1.015657e+003, 6.732919e+001
1.016139e+003, 6.776940e+001
1.016621e+003, 6.809220e+001
1.017103e+003, 6.818520e+001
1.017585e+003, 6.809969e+001
1.018068e+003, 6.808821e+001
1.018550e+003, 6.814189e+001
1.019032e+003, 6.802220e+001
1.019514e+003, 6.766392e+001
1.019996e+003, 6.743536e+001
1.020478e+003, 6.763901e+001
1.020960e+003, 6.815736e+001
1.021442e+003, 6.881467e+001
1.021924e+003, 6.959212e+001
1.022407e+003, 6.999906e+001
1.022889e+003, 6.999816e+001
1.023371e+003, 6.998026e+001
1.023853e+003, 7.006080e+001
1.024335e+003, 7.018605e+001
1.024817e+003, 7.028335e+001
1.025299e+003, 7.043209e+001
1.025781e+003, 7.095483e+001
1.026264e+003, 7.193868e+001
1.026746e+003, 7.256392e+001
1.027228e+003, 7.275517e+001
1.027710e+003, 7.283327e+001
1.028192e+003, 7.292725e+001
1.028674e+003, 7.285911e+001
1.029156e+003, 7.237786e+001
1.029638e+003, 7.165060e+001
1.030120e+003, 7.138097e+001
1.030603e+003, 7.172806e+001
1.031085e+003, 7.192692e+001
1.031567e+003, 7.185714e+001
1.032049e+003, 7.192495e+001
1.032531e+003, 7.237539e+001
1.033013e+003, 7.284921e+001
1.033495e+003, 7.299813e+001
1.033977e+003, 7.286060e+001
1.034459e+003, 7.260876e+001
1.034942e+003, 7.207299e+001
1.035424e+003, 7.183371e+001
1.035906e+003, 7.203186e+001
1.036388e+003, 7.229548e+001
1.036870e+003, 7.256798e+001
1.037352e+003, 7.277895e+001
1.037834e+003, 7.282332e+001
1.038316e+003, 7.273729e+001
1.038799e+003, 7.273804e+001
1.039281e+003, 7.286008e+001
1.039763e+003, 7.300184e+001
1.040245e+003, 7.317595e+001
1.040727e+003, 7.335519e+001
1.041209e+003, 7.353126e+001
1.041691e+003, 7.370928e+001
1.042173e+003, 7.393295e+001
1.042656e+003, 7.417355e+001
1.043138e+003, 7.427619e+001
1.043620e+003, 7.422523e+001
1.044102e+003, 7.405577e+001
1.044584e+003, 7.362080e+001
1.045066e+003, 7.325219e+001
1.045548e+003, 7.289271e+001
1.046030e+003, 7.279353e+001
1.046512e+003, 7.350269e+001
1.046995e+003, 7.473894e+001
1.047477e+003, 7.517916e+001
1.047959e+003, 7.411935e+001
1.048441e+003, 7.356316e+001
1.048923e+003, 7.426873e+001
1.049405e+003, 7.496922e+001
1.049887e+003, 7.520048e+001
1.050369e+003, 7.513860e+001
1.050851e+003, 7.486787e+001
1.051334e+003, 7.447329e+001
1.051816e+003, 7.420451e+001
1.052298e+003, 7.408806e+001
1.052780e+003, 7.413673e+001
1.053262e+003, 7.434322e+001
1.053744e+003, 7.472681e+001
1.054226e+003, 7.566363e+001
1.054708e+003, 7.649801e+001
1.055191e+003, 7.624944e+001
1.055673e+003, 7.529762e+001
1.056155e+003, 7.516984e+001
1.056637e+003, 7.651425e+001
1.057119e+003, 7.755737e+001
1.057601e+003, 7.743845e+001
1.058083e+003, 7.728760e+001
1.058565e+003, 7.776871e+001
1.059047e+003, 7.841357e+001
1.059530e+003, 7.872839e+001
1.060012e+003, 7.876548e+001
1.060494e+003, 7.885509e+001
1.060976e+003, 7.910922e+001
1.061458e+003, 7.925565e+001
1.061940e+003, 7.896017e+001
1.062422e+003, 7.882043e+001
1.062904e+003, 7.928666e+001
1.063386e+003, 7.995255e+001
1.063869e+003, 8.053065e+001
1.064351e+003, 8.093121e+001
1.064833e+003, 8.096513e+001
1.065315e+003, 8.050718e+001
1.065797e+003, 8.030080e+001
1.066279e+003, 8.080398e+001
1.066761e+003, 8.144534e+001
1.067243e+003, 8.212768e+001
1.067726e+003, 8.263193e+001
1.068208e+003, 8.260102e+001
1.068690e+003, 8.225880e+001
1.069172e+003, 8.218641e+001
1.069654e+003, 8.254697e+001
1.070136e+003, 8.280701e+001
1.070618e+003, 8.269633e+001
1.071100e+003, 8.247640e+001
1.071583e+003, 8.210969e+001
1.072065e+003, 8.184708e+001
1.072547e+003, 8.201212e+001
1.073029e+003, 8.243565e+001
1.073511e+003, 8.280756e+001
1.073993e+003, 8.304994e+001
1.074475e+003, 8.298946e+001
1.074957e+003, 8.233062e+001
1.075439e+003, 8.162969e+001
1.075922e+003, 8.109995e+001
1.076404e+003, 8.070907e+001
1.076886e+003, 8.038559e+001
1.077368e+003, 8.019155e+001
1.077850e+003, 8.045713e+001
1.078332e+003, 8.115482e+001
1.078814e+003, 8.120968e+001
1.079296e+003, 7.953197e+001
1.079779e+003, 7.799113e+001
1.080261e+003, 7.748904e+001
1.080743e+003, 7.748159e+001
1.081225e+003, 7.777309e+001
1.081707e+003, 7.813672e+001
1.082189e+003, 7.832126e+001
1.082671e+003, 7.828110e+001
1.083153e+003, 7.806328e+001
1.083635e+003, 7.766489e+001
1.084118e+003, 7.713133e+001
1.084600e+003, 7.632510e+001
1.085082e+003, 7.555581e+001
1.085564e+003, 7.508689e+001
1.086046e+003, 7.477856e+001
1.086528e+003, 7.440219e+001
1.087010e+003, 7.396561e+001
1.087492e+003, 7.368716e+001
1.087974e+003, 7.373142e+001
1.088457e+003, 7.368873e+001
1.088939e+003, 7.316090e+001
1.089421e+003, 7.274828e+001
1.089903e+003, 7.310377e+001
1.090385e+003, 7.358503e+001
1.090867e+003, 7.336632e+001
1.091349e+003, 7.255572e+001
1.091831e+003, 7.178511e+001
1.092314e+003, 7.114220e+001
1.092796e+003, 7.088605e+001
1.093278e+003, 7.161101e+001
1.093760e+003, 7.214293e+001
1.094242e+003, 7.155173e+001
1.094724e+003, 7.075111e+001
1.095206e+003, 7.071441e+001
1.095688e+003, 7.121326e+001
1.096171e+003, 7.146089e+001
1.096653e+003, 7.126752e+001
1.097135e+003, 7.109707e+001
1.097617e+003, 7.112249e+001
1.098099e+003, 7.114921e+001
1.098581e+003, 7.120010e+001
1.099063e+003, 7.112881e+001
1.099545e+003, 7.064711e+001
1.100027e+003, 7.002648e+001
1.100510e+003, 6.983566e+001
1.100992e+003, 7.016101e+001
1.101474e+003, 7.037041e+001
1.101956e+003, 7.017976e+001
1.102438e+003, 7.005880e+001
1.102920e+003, 7.024951e+001
1.103402e+003, 7.042014e+001
1.103884e+003, 7.033605e+001
1.104366e+003, 7.012151e+001
1.104849e+003, 6.994487e+001
1.105331e+003, 6.982012e+001
1.105813e+003, 6.972171e+001
1.106295e+003, 6.968818e+001
1.106777e+003, 6.961283e+001
1.107259e+003, 6.943093e+001
1.107741e+003, 6.926325e+001
1.108223e+003, 6.904383e+001
1.108706e+003, 6.895405e+001
1.109188e+003, 6.927616e+001
1.109670e+003, 6.992236e+001
1.110152e+003, 7.042287e+001
1.110634e+003, 7.083855e+001
1.111116e+003, 7.091074e+001
1.111598e+003, 7.018759e+001
1.112080e+003, 6.970158e+001
1.112563e+003, 6.993063e+001
1.113045e+003, 7.034128e+001
1.113527e+003, 7.051182e+001
1.114009e+003, 7.054298e+001
1.114491e+003, 7.073030e+001
1.114973e+003, 7.117173e+001
1.115455e+003, 7.134041e+001
1.115937e+003, 7.096412e+001
1.116419e+003, 7.079440e+001
1.116901e+003, 7.104905e+001
1.117384e+003, 7.143027e+001
1.117866e+003, 7.190453e+001
1.118348e+003, 7.227031e+001
1.118830e+003, 7.209664e+001
1.119312e+003, 7.135644e+001
1.119794e+003, 7.107486e+001
1.120276e+003, 7.137450e+001
1.120758e+003, 7.185793e+001
1.121241e+003, 7.271284e+001
1.121723e+003, 7.321949e+001
1.122205e+003, 7.291908e+001
1.122687e+003, 7.235052e+001
1.123169e+003, 7.211966e+001
1.123651e+003, 7.219714e+001
1.124133e+003, 7.246471e+001
1.124615e+003, 7.302005e+001
1.125098e+003, 7.325198e+001
1.125580e+003, 7.302641e+001
1.126062e+003, 7.299030e+001
1.126544e+003, 7.342139e+001
1.127026e+003, 7.383333e+001
1.127508e+003, 7.377101e+001
1.127990e+003, 7.349405e+001
1.128472e+003, 7.368118e+001
1.128954e+003, 7.434892e+001
1.129437e+003, 7.495176e+001
1.129919e+003, 7.551161e+001
1.130401e+003, 7.556715e+001
1.130883e+003, 7.496339e+001
1.131365e+003, 7.460849e+001
1.131847e+003, 7.506847e+001
1.132329e+003, 7.590649e+001
1.132811e+003, 7.650200e+001
1.133293e+003, 7.689075e+001
1.133776e+003, 7.723753e+001
1.134258e+003, 7.753397e+001
1.134740e+003, 7.766307e+001
1.135222e+003, 7.763120e+001
1.135704e+003, 7.771107e+001
1.136186e+003, 7.801228e+001
1.136668e+003, 7.838479e+001
1.137150e+003, 7.870573e+001
1.137633e+003, 7.894044e+001
1.138115e+003, 7.894278e+001
1.138597e+003, 7.881705e+001
1.139079e+003, 7.885896e+001
1.139561e+003, 7.908265e+001
1.140043e+003, 7.952857e+001
1.140525e+003, 8.015662e+001
1.141007e+003, 8.068502e+001
1.141490e+003, 8.094438e+001
1.141972e+003, 8.094218e+001
1.142454e+003, 8.045383e+001
1.142936e+003, 7.987547e+001
1.143418e+003, 7.979808e+001
1.143900e+003, 8.015916e+001
1.144382e+003, 8.102010e+001
1.144864e+003, 8.215854e+001
1.145346e+003, 8.282481e+001
1.145828e+003, 8.273896e+001
1.146311e+003, 8.265292e+001
1.146793e+003, 8.324435e+001
1.147275e+003, 8.397939e+001
1.147757e+003, 8.443098e+001
1.148239e+003, 8.469190e+001
1.148721e+003, 8.471584e+001
1.149203e+003, 8.469560e+001
1.149685e+003, 8.504299e+001
1.150168e+003, 8.577307e+001
1.150650e+003, 8.637189e+001
1.151132e+003, 8.652425e+001
1.151614e+003, 8.671587e+001
1.152096e+003, 8.743859e+001
1.152578e+003, 8.801911e+001
1.153060e+003, 8.761349e+001
1.153542e+003, 8.708842e+001
1.154025e+003, 8.762319e+001
1.154507e+003, 8.896929e+001
1.154989e+003, 9.000999e+001
1.155471e+003, 9.050838e+001
1.155953e+003, 9.076597e+001
1.156435e+003, 9.063706e+001
1.156917e+003, 9.058247e+001
1.157399e+003, 9.078357e+001
1.157881e+003, 9.107381e+001
1.158364e+003, 9.141812e+001
1.158846e+003, 9.173631e+001
1.159328e+003, 9.183202e+001
1.159810e+003, 9.169141e+001
1.160292e+003, 9.185083e+001
1.160774e+003, 9.260438e+001
1.161256e+003, 9.312911e+001
1.161738e+003, 9.332453e+001
1.162220e+003, 9.338736e+001
1.162703e+003, 9.328433e+001
1.163185e+003, 9.323755e+001
1.163667e+003, 9.355419e+001
1.164149e+003, 9.403797e+001
1.164631e+003, 9.396255e+001
1.165113e+003, 9.314921e+001
1.165595e+003, 9.293771e+001
1.166077e+003, 9.350022e+001
1.166560e+003, 9.388990e+001
1.167042e+003, 9.387617e+001
1.167524e+003, 9.385826e+001
1.168006e+003, 9.411668e+001
1.168488e+003, 9.429836e+001
1.168970e+003, 9.377857e+001
1.169452e+003, 9.278240e+001
1.169934e+003, 9.256624e+001
1.170417e+003, 9.306377e+001
1.170899e+003, 9.339324e+001
1.171381e+003, 9.346064e+001
1.171863e+003, 9.317054e+001
1.172345e+003, 9.250393e+001
1.172827e+003, 9.177185e+001
1.173309e+003, 9.121601e+001
1.173791e+003, 9.079000e+001
1.174273e+003, 9.042056e+001
1.174755e+003, 9.011863e+001
1.175238e+003, 9.005599e+001
1.175720e+003, 9.004861e+001
1.176202e+003, 8.945719e+001
1.176684e+003, 8.833876e+001
1.177166e+003, 8.738288e+001
1.177648e+003, 8.688341e+001
1.178130e+003, 8.669083e+001
1.178612e+003, 8.700130e+001
1.179095e+003, 8.717146e+001
1.179577e+003, 8.622050e+001
1.180059e+003, 8.502311e+001
1.180541e+003, 8.472665e+001
1.181023e+003, 8.500428e+001
1.181505e+003, 8.515086e+001
1.181987e+003, 8.499186e+001
1.182469e+003, 8.450615e+001
1.182952e+003, 8.354613e+001
1.183434e+003, 8.265191e+001
1.183916e+003, 8.185307e+001
1.184398e+003, 8.143962e+001
1.184880e+003, 8.205917e+001
1.185362e+003, 8.271909e+001
1.185844e+003, 8.235857e+001
1.186326e+003, 8.129762e+001
1.186808e+003, 8.037455e+001
1.187291e+003, 7.964824e+001
1.187773e+003, 7.927469e+001
1.188255e+003, 7.979273e+001
1.188737e+003, 7.983259e+001
1.189219e+003, 7.866637e+001
1.189701e+003, 7.783791e+001
1.190183e+003, 7.828056e+001
1.190665e+003, 7.904879e+001
1.191147e+003, 7.917068e+001
1.191630e+003, 7.874124e+001
1.192112e+003, 7.809270e+001
1.192594e+003, 7.708659e+001
1.193076e+003, 7.662057e+001
1.193558e+003, 7.682035e+001
1.194040e+003, 7.692487e+001
1.194522e+003, 7.676737e+001
1.195004e+003, 7.646535e+001
1.195487e+003, 7.607537e+001
1.195969e+003, 7.562786e+001
1.196451e+003, 7.508007e+001
1.196933e+003, 7.458401e+001
1.197415e+003, 7.492263e+001
1.197897e+003, 7.588145e+001
1.198379e+003, 7.623052e+001
1.198861e+003, 7.592688e+001
1.199344e+003, 7.531443e+001
1.199826e+003, 7.455040e+001
1.200308e+003, 7.399744e+001
1.200790e+003, 7.391176e+001
1.201272e+003, 7.406065e+001
1.201754e+003, 7.427869e+001
1.202236e+003, 7.446226e+001
1.202718e+003, 7.445506e+001
1.203200e+003, 7.431178e+001
1.203682e+003, 7.406055e+001
1.204165e+003, 7.377802e+001
1.204647e+003, 7.362812e+001
1.205129e+003, 7.365311e+001
1.205611e+003, 7.374873e+001
1.206093e+003, 7.396200e+001
1.206575e+003, 7.406353e+001
1.207057e+003, 7.373335e+001
1.207539e+003, 7.347490e+001
1.208022e+003, 7.378862e+001
1.208504e+003, 7.425395e+001
1.208986e+003, 7.439725e+001
1.209468e+003, 7.422649e+001
1.209950e+003, 7.385045e+001
1.210432e+003, 7.311267e+001
1.210914e+003, 7.287752e+001
1.211396e+003, 7.380100e+001
1.211879e+003, 7.429365e+001
1.212361e+003, 7.385935e+001
1.212843e+003, 7.339338e+001
1.213325e+003, 7.337212e+001
1.213807e+003, 7.349472e+001
1.214289e+003, 7.336754e+001
1.214771e+003, 7.308054e+001
1.215253e+003, 7.313946e+001
1.215735e+003, 7.362788e+001
1.216218e+003, 7.359054e+001
1.216700e+003, 7.294565e+001
1.217182e+003, 7.263945e+001
1.217664e+003, 7.290211e+001
1.218146e+003, 7.330492e+001
1.218628e+003, 7.362024e+001
1.219110e+003, 7.362476e+001
1.219592e+003, 7.280886e+001
1.220074e+003, 7.173158e+001
1.220557e+003, 7.190525e+001
1.221039e+003, 7.284403e+001
1.221521e+003, 7.331916e+001
1.222003e+003, 7.333837e+001
1.222485e+003, 7.328107e+001
1.222967e+003, 7.325620e+001
1.223449e+003, 7.324499e+001
1.223931e+003, 7.325828e+001
1.224414e+003, 7.315234e+001
1.224896e+003, 7.259132e+001
1.225378e+003, 7.211876e+001
1.225860e+003, 7.223075e+001
1.226342e+003, 7.261736e+001
1.226824e+003, 7.312988e+001
1.227306e+003, 7.357298e+001
1.227788e+003, 7.358462e+001
1.228271e+003, 7.315224e+001
1.228753e+003, 7.279591e+001
1.229235e+003, 7.247251e+001
1.229717e+003, 7.250289e+001
1.230199e+003, 7.337920e+001
1.230681e+003, 7.399983e+001
1.231163e+003, 7.383709e+001
1.231645e+003, 7.354166e+001
1.232127e+003, 7.354815e+001
1.232609e+003, 7.377752e+001
1.233092e+003, 7.408871e+001
1.233574e+003, 7.448159e+001
1.234056e+003, 7.494263e+001
1.234538e+003, 7.550858e+001
1.235020e+003, 7.574326e+001
1.235502e+003, 7.556473e+001
1.235984e+003, 7.577837e+001
1.236466e+003, 7.667876e+001
1.236949e+003, 7.730264e+001
1.237431e+003, 7.683370e+001
1.237913e+003, 7.607326e+001
1.238395e+003, 7.647425e+001
1.238877e+003, 7.748221e+001
1.239359e+003, 7.772590e+001
1.239841e+003, 7.750968e+001
1.240323e+003, 7.749274e+001
1.240806e+003, 7.776170e+001
1.241288e+003, 7.832683e+001
1.241770e+003, 7.913595e+001
1.242252e+003, 7.981971e+001
1.242734e+003, 8.013121e+001
1.243216e+003, 8.038843e+001
1.243698e+003, 8.096693e+001
1.244180e+003, 8.136423e+001
1.244662e+003, 8.087020e+001
1.245145e+003, 8.032638e+001
1.245627e+003, 8.087570e+001
1.246109e+003, 8.197948e+001
1.246591e+003, 8.223321e+001
1.247073e+003, 8.144533e+001
1.247555e+003, 8.095200e+001
1.248037e+003, 8.100253e+001
1.248519e+003, 8.102197e+001
1.249001e+003, 8.100758e+001
1.249484e+003, 8.090388e+001
1.249966e+003, 8.064273e+001
1.250448e+003, 8.040955e+001
1.250930e+003, 8.036718e+001
1.251412e+003, 8.041070e+001
1.251894e+003, 8.035757e+001
1.252376e+003, 8.020034e+001
1.252858e+003, 7.983836e+001
1.253341e+003, 7.930223e+001
1.253823e+003, 7.889822e+001
1.254305e+003, 7.861808e+001
1.254787e+003, 7.805972e+001
1.255269e+003, 7.716352e+001
1.255751e+003, 7.663036e+001
1.256233e+003, 7.698159e+001
1.256715e+003, 7.747861e+001
1.257198e+003, 7.739175e+001
1.257680e+003, 7.696790e+001
1.258162e+003, 7.622343e+001
1.258644e+003, 7.551965e+001
1.259126e+003, 7.535373e+001
1.259608e+003, 7.556995e+001
1.260090e+003, 7.582603e+001
1.260572e+003, 7.603370e+001
1.261054e+003, 7.608485e+001
1.261536e+003, 7.588159e+001
1.262019e+003, 7.567308e+001
1.262501e+003, 7.558822e+001
1.262983e+003, 7.538116e+001
1.263465e+003, 7.468081e+001
1.263947e+003, 7.423119e+001
1.264429e+003, 7.468793e+001
1.264911e+003, 7.544006e+001
1.265393e+003, 7.557019e+001
1.265876e+003, 7.515450e+001
1.266358e+003, 7.467339e+001
1.266840e+003, 7.411700e+001
1.267322e+003, 7.371464e+001
1.267804e+003, 7.347616e+001
1.268286e+003, 7.344610e+001
1.268768e+003, 7.361999e+001
1.269250e+003, 7.372086e+001
1.269733e+003, 7.359448e+001
1.270215e+003, 7.345316e+001
1.270697e+003, 7.357729e+001
1.271179e+003, 7.374451e+001
1.271661e+003, 7.370016e+001
1.272143e+003, 7.344433e+001
1.272625e+003, 7.268324e+001
1.273107e+003, 7.186434e+001
1.273589e+003, 7.191384e+001
1.274072e+003, 7.269535e+001
1.274554e+003, 7.323563e+001
1.275036e+003, 7.325027e+001
1.275518e+003, 7.312412e+001
1.276000e+003, 7.268383e+001
1.276482e+003, 7.254671e+001
1.276964e+003, 7.311729e+001
1.277446e+003, 7.375376e+001
1.277929e+003, 7.431771e+001
1.278411e+003, 7.457131e+001
1.278893e+003, 7.415913e+001
1.279375e+003, 7.337385e+001
1.279857e+003, 7.302979e+001
1.280339e+003, 7.313746e+001
1.280821e+003, 7.305259e+001
1.281303e+003, 7.277680e+001
1.281786e+003, 7.280244e+001
1.282268e+003, 7.319418e+001
##END=



