##NAMES=Olshanskyite
##RRUFFID=R170043
##IDEAL CHEMISTRY=Ca_2_[B_3_O_3_(OH)_6_]OH&#183;3H_2_O
##LOCALITY=Shijiangshan mine, Linxi, Chifeng, Inner Mongolia, China
##OWNER=RRUFF
##SOURCE=Mineral Zone
##DESCRIPTION=White aggregate of prismatic or elongated bladed crystals with striations. Crystals are twinned with a two-fold rotation along [0 -1 1]*.
##STATUS=The identification of this mineral has been confirmed by single-crystal X-ray diffraction.
##URL=rruff.info/R170043
8.758203e+001, 6.325372e+002
8.806415e+001, 6.330909e+002
8.854626e+001, 6.332289e+002
8.902838e+001, 6.345969e+002
8.951050e+001, 6.342296e+002
8.999261e+001, 6.299703e+002
9.047473e+001, 6.222394e+002
9.095685e+001, 6.138932e+002
9.143896e+001, 6.073743e+002
9.192108e+001, 6.027753e+002
9.240320e+001, 5.985897e+002
9.288531e+001, 5.878293e+002
9.336743e+001, 5.673145e+002
9.384955e+001, 5.404700e+002
9.433167e+001, 5.158866e+002
9.481378e+001, 4.923412e+002
9.529590e+001, 4.718735e+002
9.577802e+001, 4.541709e+002
9.626013e+001, 4.395587e+002
9.674225e+001, 4.286800e+002
9.722437e+001, 4.210326e+002
9.770648e+001, 4.136924e+002
9.818860e+001, 4.054166e+002
9.867072e+001, 3.978710e+002
9.915283e+001, 3.922105e+002
9.963495e+001, 3.883441e+002
1.001171e+002, 3.849967e+002
1.005992e+002, 3.807581e+002
1.010813e+002, 3.758531e+002
1.015634e+002, 3.692090e+002
1.020455e+002, 3.594211e+002
1.025277e+002, 3.488275e+002
1.030098e+002, 3.390357e+002
1.034919e+002, 3.306620e+002
1.039740e+002, 3.235183e+002
1.044561e+002, 3.172224e+002
1.049382e+002, 3.129038e+002
1.054204e+002, 3.080785e+002
1.059025e+002, 3.024174e+002
1.063846e+002, 2.960493e+002
1.068667e+002, 2.890907e+002
1.073488e+002, 2.813956e+002
1.078309e+002, 2.732368e+002
1.083131e+002, 2.666610e+002
1.087952e+002, 2.618881e+002
1.092773e+002, 2.581472e+002
1.097594e+002, 2.553133e+002
1.102415e+002, 2.533233e+002
1.107236e+002, 2.516230e+002
1.112058e+002, 2.498410e+002
1.116879e+002, 2.480179e+002
1.121700e+002, 2.462940e+002
1.126521e+002, 2.446055e+002
1.131342e+002, 2.430584e+002
1.136163e+002, 2.419423e+002
1.140985e+002, 2.415411e+002
1.145806e+002, 2.410090e+002
1.150627e+002, 2.396454e+002
1.155448e+002, 2.377231e+002
1.160269e+002, 2.358606e+002
1.165090e+002, 2.343995e+002
1.169912e+002, 2.333388e+002
1.174733e+002, 2.326070e+002
1.179554e+002, 2.324622e+002
1.184375e+002, 2.324648e+002
1.189196e+002, 2.322127e+002
1.194017e+002, 2.318315e+002
1.198839e+002, 2.318694e+002
1.203660e+002, 2.332055e+002
1.208481e+002, 2.368927e+002
1.213302e+002, 2.391823e+002
1.218123e+002, 2.396002e+002
1.222944e+002, 2.392733e+002
1.227766e+002, 2.385745e+002
1.232587e+002, 2.377224e+002
1.237408e+002, 2.371398e+002
1.242229e+002, 2.376357e+002
1.247050e+002, 2.400921e+002
1.251871e+002, 2.426030e+002
1.256693e+002, 2.454411e+002
1.261514e+002, 2.482473e+002
1.266335e+002, 2.504962e+002
1.271156e+002, 2.519316e+002
1.275977e+002, 2.527966e+002
1.280798e+002, 2.538408e+002
1.285620e+002, 2.553954e+002
1.290441e+002, 2.566255e+002
1.295262e+002, 2.571771e+002
1.300083e+002, 2.571231e+002
1.304904e+002, 2.567599e+002
1.309725e+002, 2.562890e+002
1.314547e+002, 2.555190e+002
1.319368e+002, 2.542280e+002
1.324189e+002, 2.524170e+002
1.329010e+002, 2.500710e+002
1.333831e+002, 2.468688e+002
1.338652e+002, 2.425816e+002
1.343474e+002, 2.387091e+002
1.348295e+002, 2.357913e+002
1.353116e+002, 2.337876e+002
1.357937e+002, 2.328461e+002
1.362758e+002, 2.331692e+002
1.367579e+002, 2.344861e+002
1.372401e+002, 2.361877e+002
1.377222e+002, 2.387056e+002
1.382043e+002, 2.409293e+002
1.386864e+002, 2.420395e+002
1.391685e+002, 2.427200e+002
1.396507e+002, 2.439310e+002
1.401328e+002, 2.462467e+002
1.406149e+002, 2.496726e+002
1.410970e+002, 2.541248e+002
1.415791e+002, 2.594118e+002
1.420612e+002, 2.659982e+002
1.425434e+002, 2.739518e+002
1.430255e+002, 2.833434e+002
1.435076e+002, 2.942022e+002
1.439897e+002, 3.064217e+002
1.444718e+002, 3.197132e+002
1.449539e+002, 3.366813e+002
1.454361e+002, 3.564195e+002
1.459182e+002, 3.796152e+002
1.464003e+002, 4.074657e+002
1.468824e+002, 4.397414e+002
1.473645e+002, 4.749036e+002
1.478466e+002, 5.127336e+002
1.483288e+002, 5.568384e+002
1.488109e+002, 5.872325e+002
1.492930e+002, 6.051484e+002
1.497751e+002, 6.086468e+002
1.502572e+002, 5.925783e+002
1.507393e+002, 5.544565e+002
1.512215e+002, 5.054164e+002
1.517036e+002, 4.568633e+002
1.521857e+002, 4.082150e+002
1.526678e+002, 3.663102e+002
1.531499e+002, 3.343164e+002
1.536320e+002, 3.108168e+002
1.541142e+002, 2.928940e+002
1.545963e+002, 2.808908e+002
1.550784e+002, 2.736573e+002
1.555605e+002, 2.691395e+002
1.560426e+002, 2.672856e+002
1.565247e+002, 2.677945e+002
1.570069e+002, 2.707859e+002
1.574890e+002, 2.762382e+002
1.579711e+002, 2.830980e+002
1.584532e+002, 2.923671e+002
1.589353e+002, 3.021844e+002
1.594174e+002, 3.118545e+002
1.598996e+002, 3.212313e+002
1.603817e+002, 3.293403e+002
1.608638e+002, 3.355123e+002
1.613459e+002, 3.403125e+002
1.618280e+002, 3.409290e+002
1.623102e+002, 3.358475e+002
1.627923e+002, 3.275952e+002
1.632744e+002, 3.169131e+002
1.637565e+002, 3.041516e+002
1.642386e+002, 2.905759e+002
1.647207e+002, 2.782110e+002
1.652029e+002, 2.669351e+002
1.656850e+002, 2.575822e+002
1.661671e+002, 2.494820e+002
1.666492e+002, 2.434062e+002
1.671313e+002, 2.399637e+002
1.676134e+002, 2.394674e+002
1.680956e+002, 2.417636e+002
1.685777e+002, 2.464769e+002
1.690598e+002, 2.556028e+002
1.695419e+002, 2.650460e+002
1.700240e+002, 2.751185e+002
1.705061e+002, 2.852490e+002
1.709883e+002, 2.951283e+002
1.714704e+002, 3.048174e+002
1.719525e+002, 3.136194e+002
1.724346e+002, 3.180878e+002
1.729167e+002, 3.184423e+002
1.733988e+002, 3.155263e+002
1.738810e+002, 3.088275e+002
1.743631e+002, 2.989350e+002
1.748452e+002, 2.871348e+002
1.753273e+002, 2.737780e+002
1.758094e+002, 2.591901e+002
1.762915e+002, 2.450905e+002
1.767737e+002, 2.307327e+002
1.772558e+002, 2.175401e+002
1.777379e+002, 2.061056e+002
1.782200e+002, 1.964791e+002
1.787021e+002, 1.887750e+002
1.791842e+002, 1.836871e+002
1.796664e+002, 1.805574e+002
1.801485e+002, 1.778668e+002
1.806306e+002, 1.753952e+002
1.811127e+002, 1.733910e+002
1.815948e+002, 1.721161e+002
1.820769e+002, 1.715667e+002
1.825591e+002, 1.717704e+002
1.830412e+002, 1.725977e+002
1.835233e+002, 1.742497e+002
1.840054e+002, 1.771840e+002
1.844875e+002, 1.816673e+002
1.849696e+002, 1.873391e+002
1.854518e+002, 1.935761e+002
1.859339e+002, 2.003994e+002
1.864160e+002, 2.078040e+002
1.868981e+002, 2.162694e+002
1.873802e+002, 2.250831e+002
1.878623e+002, 2.336437e+002
1.883445e+002, 2.418628e+002
1.888266e+002, 2.493329e+002
1.893087e+002, 2.545753e+002
1.897908e+002, 2.574476e+002
1.902729e+002, 2.578984e+002
1.907550e+002, 2.557859e+002
1.912372e+002, 2.516078e+002
1.917193e+002, 2.456738e+002
1.922014e+002, 2.379310e+002
1.926835e+002, 2.288323e+002
1.931656e+002, 2.215457e+002
1.936477e+002, 2.176767e+002
1.941299e+002, 2.142488e+002
1.946120e+002, 2.106208e+002
1.950941e+002, 2.071145e+002
1.955762e+002, 2.043853e+002
1.960583e+002, 2.029017e+002
1.965404e+002, 2.026033e+002
1.970226e+002, 2.024602e+002
1.975047e+002, 2.025504e+002
1.979868e+002, 2.026985e+002
1.984689e+002, 2.026510e+002
1.989510e+002, 2.026066e+002
1.994331e+002, 2.029445e+002
1.999153e+002, 2.038888e+002
2.003974e+002, 2.054607e+002
2.008795e+002, 2.080456e+002
2.013616e+002, 2.117121e+002
2.018437e+002, 2.160525e+002
2.023258e+002, 2.209961e+002
2.028080e+002, 2.264961e+002
2.032901e+002, 2.324538e+002
2.037722e+002, 2.388891e+002
2.042543e+002, 2.458092e+002
2.047364e+002, 2.530650e+002
2.052185e+002, 2.616373e+002
2.057007e+002, 2.697179e+002
2.061828e+002, 2.768326e+002
2.066649e+002, 2.827724e+002
2.071470e+002, 2.861081e+002
2.076291e+002, 2.854281e+002
2.081112e+002, 2.809371e+002
2.085934e+002, 2.754160e+002
2.090755e+002, 2.681959e+002
2.095576e+002, 2.604902e+002
2.100397e+002, 2.531039e+002
2.105218e+002, 2.460111e+002
2.110039e+002, 2.397059e+002
2.114861e+002, 2.341155e+002
2.119682e+002, 2.296888e+002
2.124503e+002, 2.273420e+002
2.129324e+002, 2.278905e+002
2.134145e+002, 2.301764e+002
2.138967e+002, 2.327796e+002
2.143788e+002, 2.355752e+002
2.148609e+002, 2.393127e+002
2.153430e+002, 2.453060e+002
2.158251e+002, 2.523451e+002
2.163072e+002, 2.591360e+002
2.167894e+002, 2.658015e+002
2.172715e+002, 2.716153e+002
2.177536e+002, 2.755407e+002
2.182357e+002, 2.777220e+002
2.187178e+002, 2.774291e+002
2.191999e+002, 2.735932e+002
2.196821e+002, 2.675778e+002
2.201642e+002, 2.606623e+002
2.206463e+002, 2.531997e+002
2.211284e+002, 2.453638e+002
2.216105e+002, 2.373511e+002
2.220926e+002, 2.288235e+002
2.225748e+002, 2.208736e+002
2.230569e+002, 2.136005e+002
2.235390e+002, 2.070801e+002
2.240211e+002, 2.014002e+002
2.245032e+002, 1.966311e+002
2.249853e+002, 1.926701e+002
2.254675e+002, 1.891723e+002
2.259496e+002, 1.863997e+002
2.264317e+002, 1.837645e+002
2.269138e+002, 1.810408e+002
2.273959e+002, 1.784089e+002
2.278780e+002, 1.760701e+002
2.283602e+002, 1.741189e+002
2.288423e+002, 1.725137e+002
2.293244e+002, 1.710902e+002
2.298065e+002, 1.696335e+002
2.302886e+002, 1.687276e+002
2.307707e+002, 1.686106e+002
2.312529e+002, 1.689692e+002
2.317350e+002, 1.694213e+002
2.322171e+002, 1.697798e+002
2.326992e+002, 1.701848e+002
2.331813e+002, 1.710896e+002
2.336634e+002, 1.728762e+002
2.341456e+002, 1.747774e+002
2.346277e+002, 1.768578e+002
2.351098e+002, 1.789801e+002
2.355919e+002, 1.809301e+002
2.360740e+002, 1.826067e+002
2.365561e+002, 1.841880e+002
2.370383e+002, 1.862070e+002
2.375204e+002, 1.895034e+002
2.380025e+002, 1.922519e+002
2.384846e+002, 1.943071e+002
2.389667e+002, 1.957824e+002
2.394488e+002, 1.968288e+002
2.399310e+002, 1.975194e+002
2.404131e+002, 1.977770e+002
2.408952e+002, 1.973783e+002
2.413773e+002, 1.961360e+002
2.418594e+002, 1.944887e+002
2.423415e+002, 1.920017e+002
2.428237e+002, 1.892744e+002
2.433058e+002, 1.871427e+002
2.437879e+002, 1.859327e+002
2.442700e+002, 1.852322e+002
2.447521e+002, 1.841440e+002
2.452342e+002, 1.824294e+002
2.457164e+002, 1.808304e+002
2.461985e+002, 1.792209e+002
2.466806e+002, 1.778503e+002
2.471627e+002, 1.771540e+002
2.476448e+002, 1.773168e+002
2.481269e+002, 1.779249e+002
2.486091e+002, 1.782157e+002
2.490912e+002, 1.779833e+002
2.495733e+002, 1.781724e+002
2.500554e+002, 1.790280e+002
2.505375e+002, 1.804048e+002
2.510196e+002, 1.821405e+002
2.515018e+002, 1.842196e+002
2.519839e+002, 1.865099e+002
2.524660e+002, 1.888866e+002
2.529481e+002, 1.913743e+002
2.534302e+002, 1.937641e+002
2.539123e+002, 1.961223e+002
2.543945e+002, 1.983195e+002
2.548766e+002, 2.000903e+002
2.553587e+002, 2.013109e+002
2.558408e+002, 2.023759e+002
2.563229e+002, 2.038126e+002
2.568051e+002, 2.055665e+002
2.572872e+002, 2.071919e+002
2.577693e+002, 2.084176e+002
2.582514e+002, 2.094817e+002
2.587335e+002, 2.108551e+002
2.592156e+002, 2.126890e+002
2.596978e+002, 2.144764e+002
2.601799e+002, 2.157921e+002
2.606620e+002, 2.166983e+002
2.611441e+002, 2.171421e+002
2.616262e+002, 2.172651e+002
2.621083e+002, 2.168683e+002
2.625905e+002, 2.154292e+002
2.630726e+002, 2.126854e+002
2.635547e+002, 2.097637e+002
2.640368e+002, 2.076936e+002
2.645189e+002, 2.061118e+002
2.650010e+002, 2.043212e+002
2.654832e+002, 2.014751e+002
2.659653e+002, 1.985331e+002
2.664474e+002, 1.971618e+002
2.669295e+002, 1.976658e+002
2.674116e+002, 1.986463e+002
2.678937e+002, 1.989951e+002
2.683759e+002, 1.993167e+002
2.688580e+002, 2.005602e+002
2.693401e+002, 2.031475e+002
2.698222e+002, 2.066700e+002
2.703043e+002, 2.106875e+002
2.707864e+002, 2.153152e+002
2.712686e+002, 2.199334e+002
2.717507e+002, 2.246514e+002
2.722328e+002, 2.290791e+002
2.727149e+002, 2.327976e+002
2.731970e+002, 2.358314e+002
2.736791e+002, 2.378748e+002
2.741613e+002, 2.384177e+002
2.746434e+002, 2.373359e+002
2.751255e+002, 2.354108e+002
2.756076e+002, 2.326433e+002
2.760897e+002, 2.292342e+002
2.765718e+002, 2.250586e+002
2.770540e+002, 2.199818e+002
2.775361e+002, 2.147746e+002
2.780182e+002, 2.101841e+002
2.785003e+002, 2.062137e+002
2.789824e+002, 2.029272e+002
2.794645e+002, 2.005700e+002
2.799467e+002, 1.988201e+002
2.804288e+002, 1.975151e+002
2.809109e+002, 1.966316e+002
2.813930e+002, 1.962580e+002
2.818751e+002, 1.964711e+002
2.823572e+002, 1.972680e+002
2.828394e+002, 1.986672e+002
2.833215e+002, 2.010196e+002
2.838036e+002, 2.037505e+002
2.842857e+002, 2.065890e+002
2.847678e+002, 2.094929e+002
2.852499e+002, 2.125309e+002
2.857321e+002, 2.159429e+002
2.862142e+002, 2.197373e+002
2.866963e+002, 2.229448e+002
2.871784e+002, 2.255196e+002
2.876605e+002, 2.273735e+002
2.881426e+002, 2.286032e+002
2.886248e+002, 2.291310e+002
2.891069e+002, 2.287356e+002
2.895890e+002, 2.271331e+002
2.900711e+002, 2.243752e+002
2.905532e+002, 2.212167e+002
2.910353e+002, 2.174809e+002
2.915175e+002, 2.134886e+002
2.919996e+002, 2.093167e+002
2.924817e+002, 2.050025e+002
2.929638e+002, 2.006424e+002
2.934459e+002, 1.963106e+002
2.939280e+002, 1.919564e+002
2.944102e+002, 1.874758e+002
2.948923e+002, 1.827627e+002
2.953744e+002, 1.780710e+002
2.958565e+002, 1.735029e+002
2.963386e+002, 1.689921e+002
2.968207e+002, 1.644582e+002
2.973029e+002, 1.598638e+002
2.977850e+002, 1.552809e+002
2.982671e+002, 1.508849e+002
2.987492e+002, 1.466149e+002
2.992313e+002, 1.426873e+002
2.997134e+002, 1.393001e+002
3.001956e+002, 1.361469e+002
3.006777e+002, 1.329090e+002
3.011598e+002, 1.294610e+002
3.016419e+002, 1.260969e+002
3.021240e+002, 1.234014e+002
3.026061e+002, 1.216405e+002
3.030883e+002, 1.198081e+002
3.035704e+002, 1.173237e+002
3.040525e+002, 1.149923e+002
3.045346e+002, 1.134606e+002
3.050167e+002, 1.128125e+002
3.054988e+002, 1.125332e+002
3.059810e+002, 1.119798e+002
3.064631e+002, 1.110419e+002
3.069452e+002, 1.103398e+002
3.074273e+002, 1.100767e+002
3.079094e+002, 1.099323e+002
3.083915e+002, 1.097854e+002
3.088737e+002, 1.096233e+002
3.093558e+002, 1.094666e+002
3.098379e+002, 1.092036e+002
3.103200e+002, 1.087948e+002
3.108021e+002, 1.091027e+002
3.112842e+002, 1.110048e+002
3.117664e+002, 1.127731e+002
3.122485e+002, 1.137251e+002
3.127306e+002, 1.140616e+002
3.132127e+002, 1.142701e+002
3.136948e+002, 1.145856e+002
3.141769e+002, 1.150603e+002
3.146591e+002, 1.160510e+002
3.151412e+002, 1.178337e+002
3.156233e+002, 1.198056e+002
3.161054e+002, 1.219785e+002
3.165875e+002, 1.241610e+002
3.170696e+002, 1.260782e+002
3.175518e+002, 1.275671e+002
3.180339e+002, 1.288122e+002
3.185160e+002, 1.301828e+002
3.189981e+002, 1.314385e+002
3.194802e+002, 1.333725e+002
3.199623e+002, 1.363718e+002
3.204445e+002, 1.399023e+002
3.209266e+002, 1.435981e+002
3.214087e+002, 1.473517e+002
3.218908e+002, 1.509892e+002
3.223729e+002, 1.540996e+002
3.228550e+002, 1.564160e+002
3.233372e+002, 1.591862e+002
3.238193e+002, 1.630019e+002
3.243014e+002, 1.670008e+002
3.247835e+002, 1.707579e+002
3.252656e+002, 1.741964e+002
3.257477e+002, 1.774769e+002
3.262299e+002, 1.807267e+002
3.267120e+002, 1.839315e+002
3.271941e+002, 1.871547e+002
3.276762e+002, 1.903495e+002
3.281583e+002, 1.936232e+002
3.286404e+002, 1.970742e+002
3.291226e+002, 2.006537e+002
3.296047e+002, 2.042306e+002
3.300868e+002, 2.076303e+002
3.305689e+002, 2.109276e+002
3.310510e+002, 2.146544e+002
3.315331e+002, 2.190097e+002
3.320153e+002, 2.235318e+002
3.324974e+002, 2.283001e+002
3.329795e+002, 2.330438e+002
3.334616e+002, 2.373565e+002
3.339437e+002, 2.410064e+002
3.344258e+002, 2.442075e+002
3.349080e+002, 2.474109e+002
3.353901e+002, 2.506960e+002
3.358722e+002, 2.538155e+002
3.363543e+002, 2.572052e+002
3.368365e+002, 2.601719e+002
3.373186e+002, 2.621019e+002
3.378007e+002, 2.628200e+002
3.382828e+002, 2.625219e+002
3.387649e+002, 2.613283e+002
3.392470e+002, 2.591827e+002
3.397292e+002, 2.565963e+002
3.402113e+002, 2.536162e+002
3.406934e+002, 2.502100e+002
3.411755e+002, 2.462061e+002
3.416576e+002, 2.416610e+002
3.421397e+002, 2.370002e+002
3.426219e+002, 2.325776e+002
3.431040e+002, 2.283688e+002
3.435861e+002, 2.241068e+002
3.440682e+002, 2.195560e+002
3.445503e+002, 2.152717e+002
3.450324e+002, 2.113015e+002
3.455146e+002, 2.077782e+002
3.459967e+002, 2.050527e+002
3.464788e+002, 2.036274e+002
3.469609e+002, 2.030335e+002
3.474430e+002, 2.020445e+002
3.479251e+002, 2.003642e+002
3.484073e+002, 1.991236e+002
3.488894e+002, 1.990731e+002
3.493715e+002, 1.997177e+002
3.498536e+002, 2.005829e+002
3.503357e+002, 2.016408e+002
3.508178e+002, 2.026785e+002
3.513000e+002, 2.033196e+002
3.517821e+002, 2.035312e+002
3.522642e+002, 2.040875e+002
3.527463e+002, 2.057637e+002
3.532284e+002, 2.075091e+002
3.537105e+002, 2.083864e+002
3.541927e+002, 2.083430e+002
3.546748e+002, 2.073901e+002
3.551569e+002, 2.051135e+002
3.556390e+002, 2.018107e+002
3.561211e+002, 1.988297e+002
3.566032e+002, 1.965554e+002
3.570854e+002, 1.943958e+002
3.575675e+002, 1.916561e+002
3.580496e+002, 1.884610e+002
3.585317e+002, 1.855399e+002
3.590138e+002, 1.833977e+002
3.594959e+002, 1.816107e+002
3.599781e+002, 1.793532e+002
3.604602e+002, 1.764911e+002
3.609423e+002, 1.738439e+002
3.614244e+002, 1.721168e+002
3.619065e+002, 1.710608e+002
3.623886e+002, 1.700286e+002
3.628708e+002, 1.687685e+002
3.633529e+002, 1.676887e+002
3.638350e+002, 1.673255e+002
3.643171e+002, 1.675575e+002
3.647992e+002, 1.675698e+002
3.652813e+002, 1.670437e+002
3.657635e+002, 1.660379e+002
3.662456e+002, 1.646818e+002
3.667277e+002, 1.629172e+002
3.672098e+002, 1.610571e+002
3.676919e+002, 1.594337e+002
3.681740e+002, 1.577669e+002
3.686562e+002, 1.554277e+002
3.691383e+002, 1.521875e+002
3.696204e+002, 1.486249e+002
3.701025e+002, 1.454173e+002
3.705846e+002, 1.425923e+002
3.710667e+002, 1.398036e+002
3.715489e+002, 1.368263e+002
3.720310e+002, 1.339868e+002
3.725131e+002, 1.316525e+002
3.729952e+002, 1.298087e+002
3.734773e+002, 1.281646e+002
3.739594e+002, 1.265925e+002
3.744416e+002, 1.250338e+002
3.749237e+002, 1.230977e+002
3.754058e+002, 1.203054e+002
3.758879e+002, 1.176902e+002
3.763700e+002, 1.158374e+002
3.768521e+002, 1.144501e+002
3.773343e+002, 1.129034e+002
3.778164e+002, 1.109028e+002
3.782985e+002, 1.086518e+002
3.787806e+002, 1.066256e+002
3.792627e+002, 1.049456e+002
3.797448e+002, 1.032891e+002
3.802270e+002, 1.015952e+002
3.807091e+002, 9.994534e+001
3.811912e+002, 9.847073e+001
3.816733e+002, 9.716740e+001
3.821554e+002, 9.582764e+001
3.826375e+002, 9.416422e+001
3.831197e+002, 9.204915e+001
3.836018e+002, 9.028471e+001
3.840839e+002, 8.907784e+001
3.845660e+002, 8.795600e+001
3.850481e+002, 8.662728e+001
3.855302e+002, 8.520053e+001
3.860124e+002, 8.397952e+001
3.864945e+002, 8.316395e+001
3.869766e+002, 8.270898e+001
3.874587e+002, 8.237331e+001
3.879408e+002, 8.238213e+001
3.884229e+002, 8.223658e+001
3.889051e+002, 8.174387e+001
3.893872e+002, 8.114324e+001
3.898693e+002, 8.069527e+001
3.903514e+002, 8.048167e+001
3.908335e+002, 8.036473e+001
3.913156e+002, 8.011565e+001
3.917978e+002, 7.965290e+001
3.922799e+002, 7.928094e+001
3.927620e+002, 7.892359e+001
3.932441e+002, 7.871656e+001
3.937262e+002, 7.882755e+001
3.942083e+002, 7.917959e+001
3.946905e+002, 7.950980e+001
3.951726e+002, 7.960539e+001
3.956547e+002, 7.948689e+001
3.961368e+002, 7.936785e+001
3.966189e+002, 7.928304e+001
3.971010e+002, 7.914331e+001
3.975832e+002, 7.888386e+001
3.980653e+002, 7.857244e+001
3.985474e+002, 7.829982e+001
3.990295e+002, 7.810350e+001
3.995116e+002, 7.794418e+001
3.999937e+002, 7.779043e+001
4.004759e+002, 7.767192e+001
4.009580e+002, 7.740331e+001
4.014401e+002, 7.672546e+001
4.019222e+002, 7.603898e+001
4.024043e+002, 7.566999e+001
4.028864e+002, 7.562041e+001
4.033686e+002, 7.557377e+001
4.038507e+002, 7.527427e+001
4.043328e+002, 7.477809e+001
4.048149e+002, 7.431573e+001
4.052970e+002, 7.387766e+001
4.057791e+002, 7.353596e+001
4.062613e+002, 7.345125e+001
4.067434e+002, 7.349039e+001
4.072255e+002, 7.336726e+001
4.077076e+002, 7.289385e+001
4.081897e+002, 7.231832e+001
4.086718e+002, 7.193992e+001
4.091540e+002, 7.174966e+001
4.096361e+002, 7.150671e+001
4.101182e+002, 7.100536e+001
4.106003e+002, 7.049162e+001
4.110824e+002, 7.041196e+001
4.115645e+002, 7.087652e+001
4.120467e+002, 7.131144e+001
4.125288e+002, 7.134701e+001
4.130109e+002, 7.121723e+001
4.134930e+002, 7.138272e+001
4.139751e+002, 7.195658e+001
4.144572e+002, 7.260281e+001
4.149394e+002, 7.289868e+001
4.154215e+002, 7.283053e+001
4.159036e+002, 7.319804e+001
4.163857e+002, 7.432104e+001
4.168678e+002, 7.563680e+001
4.173499e+002, 7.683838e+001
4.178321e+002, 7.791856e+001
4.183142e+002, 7.893661e+001
4.187963e+002, 7.990737e+001
4.192784e+002, 8.085665e+001
4.197605e+002, 8.186619e+001
4.202426e+002, 8.280002e+001
4.207248e+002, 8.397777e+001
4.212069e+002, 8.544223e+001
4.216890e+002, 8.716145e+001
4.221711e+002, 8.909002e+001
4.226532e+002, 9.122012e+001
4.231353e+002, 9.361784e+001
4.236175e+002, 9.639613e+001
4.240996e+002, 9.964473e+001
4.245817e+002, 1.027982e+002
4.250638e+002, 1.058952e+002
4.255459e+002, 1.088676e+002
4.260280e+002, 1.116524e+002
4.265102e+002, 1.142943e+002
4.269923e+002, 1.169278e+002
4.274744e+002, 1.196516e+002
4.279565e+002, 1.223329e+002
4.284386e+002, 1.244735e+002
4.289207e+002, 1.260216e+002
4.294029e+002, 1.270776e+002
4.298850e+002, 1.279161e+002
4.303671e+002, 1.281940e+002
4.308492e+002, 1.274722e+002
4.313313e+002, 1.257488e+002
4.318134e+002, 1.236095e+002
4.322956e+002, 1.216377e+002
4.327777e+002, 1.198366e+002
4.332598e+002, 1.179050e+002
4.337419e+002, 1.158051e+002
4.342241e+002, 1.136174e+002
4.347062e+002, 1.110690e+002
4.351883e+002, 1.084946e+002
4.356704e+002, 1.065656e+002
4.361525e+002, 1.056957e+002
4.366346e+002, 1.054395e+002
4.371168e+002, 1.051428e+002
4.375989e+002, 1.047963e+002
4.380810e+002, 1.044980e+002
4.385631e+002, 1.041204e+002
4.390452e+002, 1.039579e+002
4.395273e+002, 1.043794e+002
4.400095e+002, 1.054384e+002
4.404916e+002, 1.065680e+002
4.409737e+002, 1.078002e+002
4.414558e+002, 1.088323e+002
4.419379e+002, 1.089625e+002
4.424200e+002, 1.080415e+002
4.429022e+002, 1.066160e+002
4.433843e+002, 1.050769e+002
4.438664e+002, 1.033750e+002
4.443485e+002, 1.013056e+002
4.448306e+002, 9.863701e+001
4.453127e+002, 9.580323e+001
4.457949e+002, 9.287421e+001
4.462770e+002, 8.995944e+001
4.467591e+002, 8.735997e+001
4.472412e+002, 8.521391e+001
4.477233e+002, 8.332479e+001
4.482054e+002, 8.131551e+001
4.486876e+002, 7.905864e+001
4.491697e+002, 7.694914e+001
4.496518e+002, 7.499625e+001
4.501339e+002, 7.321103e+001
4.506160e+002, 7.159867e+001
4.510981e+002, 7.016612e+001
4.515803e+002, 6.892793e+001
4.520624e+002, 6.792468e+001
4.525445e+002, 6.713852e+001
4.530266e+002, 6.636095e+001
4.535087e+002, 6.561254e+001
4.539908e+002, 6.485105e+001
4.544730e+002, 6.409132e+001
4.549551e+002, 6.330947e+001
4.554372e+002, 6.241662e+001
4.559193e+002, 6.140683e+001
4.564014e+002, 6.048123e+001
4.568835e+002, 5.997258e+001
4.573657e+002, 5.998894e+001
4.578478e+002, 5.993460e+001
4.583299e+002, 5.967152e+001
4.588120e+002, 5.945369e+001
4.592941e+002, 5.946222e+001
4.597762e+002, 5.960008e+001
4.602584e+002, 5.962886e+001
4.607405e+002, 5.939540e+001
4.612226e+002, 5.899903e+001
4.617047e+002, 5.860096e+001
4.621868e+002, 5.816308e+001
4.626689e+002, 5.790929e+001
4.631511e+002, 5.809980e+001
4.636332e+002, 5.839388e+001
4.641153e+002, 5.843029e+001
4.645974e+002, 5.816852e+001
4.650795e+002, 5.791273e+001
4.655616e+002, 5.788507e+001
4.660438e+002, 5.798909e+001
4.665259e+002, 5.798827e+001
4.670080e+002, 5.783745e+001
4.674901e+002, 5.769212e+001
4.679722e+002, 5.766225e+001
4.684543e+002, 5.774390e+001
4.689365e+002, 5.788104e+001
4.694186e+002, 5.815556e+001
4.699007e+002, 5.839994e+001
4.703828e+002, 5.847068e+001
4.708649e+002, 5.844978e+001
4.713470e+002, 5.848959e+001
4.718292e+002, 5.863612e+001
4.723113e+002, 5.893825e+001
4.727934e+002, 5.953551e+001
4.732755e+002, 6.070528e+001
4.737576e+002, 6.128884e+001
4.742397e+002, 6.055016e+001
4.747219e+002, 5.989296e+001
4.752040e+002, 6.041639e+001
4.756861e+002, 6.178241e+001
4.761682e+002, 6.284522e+001
4.766503e+002, 6.283135e+001
4.771324e+002, 6.207450e+001
4.776146e+002, 6.189198e+001
4.780967e+002, 6.277216e+001
4.785788e+002, 6.345573e+001
4.790609e+002, 6.358472e+001
4.795430e+002, 6.365534e+001
4.800251e+002, 6.401317e+001
4.805073e+002, 6.472276e+001
4.809894e+002, 6.570982e+001
4.814715e+002, 6.708286e+001
4.819536e+002, 6.877644e+001
4.824357e+002, 6.981086e+001
4.829178e+002, 6.974072e+001
4.834000e+002, 6.978643e+001
4.838821e+002, 7.063868e+001
4.843642e+002, 7.185837e+001
4.848463e+002, 7.282593e+001
4.853284e+002, 7.329374e+001
4.858105e+002, 7.378380e+001
4.862927e+002, 7.482880e+001
4.867748e+002, 7.636773e+001
4.872569e+002, 7.800587e+001
4.877390e+002, 7.965893e+001
4.882211e+002, 8.140218e+001
4.887032e+002, 8.318196e+001
4.891854e+002, 8.504202e+001
4.896675e+002, 8.740687e+001
4.901496e+002, 9.089342e+001
4.906317e+002, 9.448096e+001
4.911138e+002, 9.705947e+001
4.915959e+002, 9.892604e+001
4.920781e+002, 1.013397e+002
4.925602e+002, 1.049421e+002
4.930423e+002, 1.092627e+002
4.935244e+002, 1.133026e+002
4.940065e+002, 1.168099e+002
4.944886e+002, 1.205035e+002
4.949708e+002, 1.247702e+002
4.954529e+002, 1.289483e+002
4.959350e+002, 1.328242e+002
4.964171e+002, 1.362010e+002
4.968992e+002, 1.386869e+002
4.973813e+002, 1.399453e+002
4.978635e+002, 1.400884e+002
4.983456e+002, 1.398826e+002
4.988277e+002, 1.397073e+002
4.993098e+002, 1.385110e+002
4.997919e+002, 1.357971e+002
5.002740e+002, 1.323231e+002
5.007562e+002, 1.286858e+002
5.012383e+002, 1.250139e+002
5.017204e+002, 1.211332e+002
5.022025e+002, 1.166428e+002
5.026846e+002, 1.116548e+002
5.031667e+002, 1.074266e+002
5.036489e+002, 1.042794e+002
5.041310e+002, 1.013565e+002
5.046131e+002, 9.808552e+001
5.050952e+002, 9.478617e+001
5.055773e+002, 9.194133e+001
5.060594e+002, 8.969462e+001
5.065416e+002, 8.783717e+001
5.070237e+002, 8.637123e+001
5.075058e+002, 8.518729e+001
5.079879e+002, 8.381298e+001
5.084700e+002, 8.203618e+001
5.089521e+002, 8.043504e+001
5.094343e+002, 7.967860e+001
5.099164e+002, 7.978413e+001
5.103985e+002, 7.995257e+001
5.108806e+002, 8.025594e+001
5.113627e+002, 8.050184e+001
5.118448e+002, 8.055019e+001
5.123270e+002, 8.045949e+001
5.128091e+002, 8.032018e+001
5.132912e+002, 8.016294e+001
5.137733e+002, 8.010765e+001
5.142554e+002, 8.038892e+001
5.147375e+002, 8.116297e+001
5.152197e+002, 8.192748e+001
5.157018e+002, 8.299534e+001
5.161839e+002, 8.376604e+001
5.166660e+002, 8.357602e+001
5.171481e+002, 8.283528e+001
5.176302e+002, 8.257715e+001
5.181124e+002, 8.348615e+001
5.185945e+002, 8.505676e+001
5.190766e+002, 8.595678e+001
5.195587e+002, 8.599429e+001
5.200408e+002, 8.599104e+001
5.205229e+002, 8.623315e+001
5.210051e+002, 8.639131e+001
5.214872e+002, 8.620368e+001
5.219693e+002, 8.569630e+001
5.224514e+002, 8.512753e+001
5.229335e+002, 8.477198e+001
5.234156e+002, 8.441427e+001
5.238978e+002, 8.356182e+001
5.243799e+002, 8.218105e+001
5.248620e+002, 8.088951e+001
5.253441e+002, 8.011195e+001
5.258262e+002, 7.951896e+001
5.263083e+002, 7.835010e+001
5.267905e+002, 7.633957e+001
5.272726e+002, 7.468584e+001
5.277547e+002, 7.402485e+001
5.282368e+002, 7.373691e+001
5.287189e+002, 7.315871e+001
5.292010e+002, 7.223643e+001
5.296832e+002, 7.127644e+001
5.301653e+002, 7.051705e+001
5.306474e+002, 6.990854e+001
5.311295e+002, 6.908315e+001
5.316116e+002, 6.765199e+001
5.320938e+002, 6.648701e+001
5.325759e+002, 6.573538e+001
5.330580e+002, 6.522517e+001
5.335401e+002, 6.486242e+001
5.340222e+002, 6.459223e+001
5.345043e+002, 6.429539e+001
5.349865e+002, 6.380969e+001
5.354686e+002, 6.317030e+001
5.359507e+002, 6.281266e+001
5.364328e+002, 6.284653e+001
5.369149e+002, 6.295993e+001
5.373970e+002, 6.312674e+001
5.378792e+002, 6.326740e+001
5.383613e+002, 6.329543e+001
5.388434e+002, 6.319357e+001
5.393255e+002, 6.299768e+001
5.398076e+002, 6.260395e+001
5.402897e+002, 6.214638e+001
5.407719e+002, 6.201513e+001
5.412540e+002, 6.228740e+001
5.417361e+002, 6.269765e+001
5.422182e+002, 6.315953e+001
5.427003e+002, 6.359638e+001
5.431824e+002, 6.370262e+001
5.436646e+002, 6.316216e+001
5.441467e+002, 6.271043e+001
5.446288e+002, 6.253457e+001
5.451109e+002, 6.261793e+001
5.455930e+002, 6.299643e+001
5.460751e+002, 6.365593e+001
5.465573e+002, 6.442928e+001
5.470394e+002, 6.515634e+001
5.475215e+002, 6.583369e+001
5.480036e+002, 6.652477e+001
5.484857e+002, 6.714113e+001
5.489678e+002, 6.788846e+001
5.494500e+002, 6.890471e+001
5.499321e+002, 7.001951e+001
5.504142e+002, 7.106514e+001
5.508963e+002, 7.199535e+001
5.513784e+002, 7.284795e+001
5.518605e+002, 7.368971e+001
5.523427e+002, 7.451112e+001
5.528248e+002, 7.515126e+001
5.533069e+002, 7.552790e+001
5.537890e+002, 7.588084e+001
5.542711e+002, 7.628748e+001
5.547532e+002, 7.676969e+001
5.552354e+002, 7.742745e+001
5.557175e+002, 7.841545e+001
5.561996e+002, 7.920412e+001
5.566817e+002, 7.930952e+001
5.571638e+002, 7.900510e+001
5.576459e+002, 7.878143e+001
5.581281e+002, 7.872562e+001
5.586102e+002, 7.894436e+001
5.590923e+002, 7.965539e+001
5.595744e+002, 8.080787e+001
5.600565e+002, 8.129562e+001
5.605386e+002, 8.073692e+001
5.610208e+002, 8.010554e+001
5.615029e+002, 7.965576e+001
5.619850e+002, 7.923538e+001
5.624671e+002, 7.874118e+001
5.629492e+002, 7.810920e+001
5.634313e+002, 7.717574e+001
5.639135e+002, 7.569595e+001
5.643956e+002, 7.367892e+001
5.648777e+002, 7.190688e+001
5.653598e+002, 7.042891e+001
5.658419e+002, 6.913340e+001
5.663240e+002, 6.800525e+001
5.668062e+002, 6.699937e+001
5.672883e+002, 6.605264e+001
5.677704e+002, 6.515340e+001
5.682525e+002, 6.441631e+001
5.687346e+002, 6.395361e+001
5.692167e+002, 6.372155e+001
5.696989e+002, 6.366158e+001
5.701810e+002, 6.379963e+001
5.706631e+002, 6.384254e+001
5.711452e+002, 6.349856e+001
5.716273e+002, 6.295245e+001
5.721094e+002, 6.285125e+001
5.725916e+002, 6.351966e+001
5.730737e+002, 6.401476e+001
5.735558e+002, 6.383398e+001
5.740379e+002, 6.349982e+001
5.745200e+002, 6.363827e+001
5.750021e+002, 6.426519e+001
5.754843e+002, 6.491017e+001
5.759664e+002, 6.518098e+001
5.764485e+002, 6.515530e+001
5.769306e+002, 6.531171e+001
5.774127e+002, 6.569112e+001
5.778948e+002, 6.620182e+001
5.783770e+002, 6.710867e+001
5.788591e+002, 6.791877e+001
5.793412e+002, 6.804825e+001
5.798233e+002, 6.759697e+001
5.803054e+002, 6.740108e+001
5.807875e+002, 6.826408e+001
5.812697e+002, 6.973867e+001
5.817518e+002, 7.069187e+001
5.822339e+002, 7.108698e+001
5.827161e+002, 7.128529e+001
5.831982e+002, 7.124572e+001
5.836803e+002, 7.125068e+001
5.841624e+002, 7.176264e+001
5.846445e+002, 7.282705e+001
5.851266e+002, 7.389169e+001
5.856088e+002, 7.481689e+001
5.860909e+002, 7.568105e+001
5.865730e+002, 7.647495e+001
5.870551e+002, 7.725713e+001
5.875372e+002, 7.824608e+001
5.880193e+002, 7.956638e+001
5.885015e+002, 8.103054e+001
5.889836e+002, 8.222199e+001
5.894657e+002, 8.307835e+001
5.899478e+002, 8.378585e+001
5.904299e+002, 8.414561e+001
5.909120e+002, 8.456853e+001
5.913942e+002, 8.529652e+001
5.918763e+002, 8.623528e+001
5.923584e+002, 8.720843e+001
5.928405e+002, 8.817712e+001
5.933226e+002, 8.897058e+001
5.938047e+002, 8.925285e+001
5.942869e+002, 8.903333e+001
5.947690e+002, 8.879497e+001
5.952511e+002, 8.845522e+001
5.957332e+002, 8.841054e+001
5.962153e+002, 8.929408e+001
5.966974e+002, 9.081260e+001
5.971796e+002, 9.196304e+001
5.976617e+002, 9.228386e+001
5.981438e+002, 9.254824e+001
5.986259e+002, 9.315335e+001
5.991080e+002, 9.399181e+001
5.995901e+002, 9.487602e+001
6.000723e+002, 9.576027e+001
6.005544e+002, 9.672749e+001
6.010365e+002, 9.788219e+001
6.015186e+002, 9.923294e+001
6.020007e+002, 1.005178e+002
6.024828e+002, 1.018281e+002
6.029650e+002, 1.029571e+002
6.034471e+002, 1.036775e+002
6.039292e+002, 1.043142e+002
6.044113e+002, 1.051868e+002
6.048934e+002, 1.063500e+002
6.053755e+002, 1.076636e+002
6.058577e+002, 1.090273e+002
6.063398e+002, 1.104430e+002
6.068219e+002, 1.119368e+002
6.073040e+002, 1.135195e+002
6.077861e+002, 1.151033e+002
6.082682e+002, 1.165912e+002
6.087504e+002, 1.181106e+002
6.092325e+002, 1.198742e+002
6.097146e+002, 1.218934e+002
6.101967e+002, 1.240472e+002
6.106788e+002, 1.261519e+002
6.111609e+002, 1.285074e+002
6.116431e+002, 1.314725e+002
6.121252e+002, 1.349396e+002
6.126073e+002, 1.384769e+002
6.130894e+002, 1.418515e+002
6.135715e+002, 1.452234e+002
6.140536e+002, 1.489284e+002
6.145358e+002, 1.529192e+002
6.150179e+002, 1.573277e+002
6.155000e+002, 1.621560e+002
6.159821e+002, 1.674109e+002
6.164642e+002, 1.732158e+002
6.169464e+002, 1.794592e+002
6.174285e+002, 1.858832e+002
6.179106e+002, 1.923461e+002
6.183927e+002, 1.992453e+002
6.188748e+002, 2.072301e+002
6.193569e+002, 2.161367e+002
6.198391e+002, 2.253083e+002
6.203212e+002, 2.347764e+002
6.208033e+002, 2.438454e+002
6.212854e+002, 2.514063e+002
6.217675e+002, 2.579503e+002
6.222496e+002, 2.662277e+002
6.227318e+002, 2.769670e+002
6.232139e+002, 2.884226e+002
6.236960e+002, 2.995049e+002
6.241781e+002, 3.113671e+002
6.246602e+002, 3.252565e+002
6.251423e+002, 3.412421e+002
6.256245e+002, 3.583389e+002
6.261066e+002, 3.756398e+002
6.265887e+002, 3.935658e+002
6.270708e+002, 4.142800e+002
6.275529e+002, 4.375433e+002
6.280350e+002, 4.639486e+002
6.285172e+002, 4.938551e+002
6.289993e+002, 5.272792e+002
6.294814e+002, 5.649191e+002
6.299635e+002, 6.064705e+002
6.304456e+002, 6.504025e+002
6.309277e+002, 6.976242e+002
6.314099e+002, 7.458096e+002
6.318920e+002, 7.945943e+002
6.323741e+002, 8.426539e+002
6.328562e+002, 8.859108e+002
6.333383e+002, 9.238754e+002
6.338204e+002, 9.520810e+002
6.343026e+002, 9.657526e+002
6.347847e+002, 9.649283e+002
6.352668e+002, 9.471907e+002
6.357489e+002, 9.090381e+002
6.362310e+002, 8.607410e+002
6.367131e+002, 8.005568e+002
6.371953e+002, 7.343606e+002
6.376774e+002, 6.671586e+002
6.381595e+002, 6.009993e+002
6.386416e+002, 5.379765e+002
6.391237e+002, 4.793521e+002
6.396058e+002, 4.257418e+002
6.400880e+002, 3.794706e+002
6.405701e+002, 3.413987e+002
6.410522e+002, 3.078343e+002
6.415343e+002, 2.775286e+002
6.420164e+002, 2.510213e+002
6.424985e+002, 2.286412e+002
6.429807e+002, 2.105076e+002
6.434628e+002, 1.946608e+002
6.439449e+002, 1.808607e+002
6.444270e+002, 1.687967e+002
6.449091e+002, 1.583559e+002
6.453912e+002, 1.493492e+002
6.458734e+002, 1.414083e+002
6.463555e+002, 1.344291e+002
6.468376e+002, 1.283009e+002
6.473197e+002, 1.230442e+002
6.478018e+002, 1.187739e+002
6.482839e+002, 1.146020e+002
6.487661e+002, 1.101259e+002
6.492482e+002, 1.062577e+002
6.497303e+002, 1.035289e+002
6.502124e+002, 1.014174e+002
6.506945e+002, 9.926594e+001
6.511766e+002, 9.693115e+001
6.516588e+002, 9.472869e+001
6.521409e+002, 9.299573e+001
6.526230e+002, 9.155613e+001
6.531051e+002, 9.001514e+001
6.535872e+002, 8.836001e+001
6.540693e+002, 8.685572e+001
6.545515e+002, 8.563570e+001
6.550336e+002, 8.466948e+001
6.555157e+002, 8.389775e+001
6.559978e+002, 8.341949e+001
6.564799e+002, 8.291715e+001
6.569620e+002, 8.233006e+001
6.574442e+002, 8.178333e+001
6.579263e+002, 8.141077e+001
6.584084e+002, 8.111189e+001
6.588905e+002, 8.062012e+001
6.593726e+002, 7.983409e+001
6.598547e+002, 7.913327e+001
6.603369e+002, 7.919035e+001
6.608190e+002, 7.992836e+001
6.613011e+002, 8.014964e+001
6.617832e+002, 7.961735e+001
6.622653e+002, 7.905545e+001
6.627474e+002, 7.883232e+001
6.632296e+002, 7.885537e+001
6.637117e+002, 7.896058e+001
6.641938e+002, 7.921478e+001
6.646759e+002, 7.931858e+001
6.651580e+002, 7.898724e+001
6.656401e+002, 7.861057e+001
6.661223e+002, 7.862590e+001
6.666044e+002, 7.893127e+001
6.670865e+002, 7.910629e+001
6.675686e+002, 7.892979e+001
6.680507e+002, 7.858697e+001
6.685328e+002, 7.842795e+001
6.690150e+002, 7.849029e+001
6.694971e+002, 7.858339e+001
6.699792e+002, 7.880822e+001
6.704613e+002, 7.892601e+001
6.709434e+002, 7.863273e+001
6.714255e+002, 7.824826e+001
6.719077e+002, 7.836237e+001
6.723898e+002, 7.923035e+001
6.728719e+002, 7.989940e+001
6.733540e+002, 7.944820e+001
6.738361e+002, 7.856306e+001
6.743182e+002, 7.844689e+001
6.748004e+002, 7.908311e+001
6.752825e+002, 7.946863e+001
6.757646e+002, 7.897704e+001
6.762467e+002, 7.806331e+001
6.767288e+002, 7.779465e+001
6.772109e+002, 7.854668e+001
6.776931e+002, 7.907067e+001
6.781752e+002, 7.933375e+001
6.786573e+002, 7.942497e+001
6.791394e+002, 7.926801e+001
6.796215e+002, 7.899741e+001
6.801036e+002, 7.876186e+001
6.805858e+002, 7.859641e+001
6.810679e+002, 7.867586e+001
6.815500e+002, 7.938070e+001
6.820321e+002, 8.044284e+001
6.825142e+002, 8.109643e+001
6.829963e+002, 8.126588e+001
6.834785e+002, 8.118392e+001
6.839606e+002, 8.084990e+001
6.844427e+002, 8.049663e+001
6.849248e+002, 8.071665e+001
6.854069e+002, 8.193201e+001
6.858890e+002, 8.272538e+001
6.863712e+002, 8.273461e+001
6.868533e+002, 8.264593e+001
6.873354e+002, 8.270192e+001
6.878175e+002, 8.296230e+001
6.882996e+002, 8.356032e+001
6.887817e+002, 8.453958e+001
6.892639e+002, 8.550417e+001
6.897460e+002, 8.582259e+001
6.902281e+002, 8.563618e+001
6.907102e+002, 8.596148e+001
6.911923e+002, 8.694329e+001
6.916744e+002, 8.797503e+001
6.921566e+002, 8.885133e+001
6.926387e+002, 8.952129e+001
6.931208e+002, 8.976266e+001
6.936029e+002, 8.938974e+001
6.940850e+002, 8.945680e+001
6.945671e+002, 9.031260e+001
6.950493e+002, 9.148539e+001
6.955314e+002, 9.273837e+001
6.960135e+002, 9.406484e+001
6.964956e+002, 9.551205e+001
6.969777e+002, 9.709242e+001
6.974598e+002, 9.877783e+001
6.979420e+002, 1.006217e+002
6.984241e+002, 1.026027e+002
6.989062e+002, 1.041022e+002
6.993883e+002, 1.049110e+002
6.998704e+002, 1.058132e+002
7.003525e+002, 1.070429e+002
7.008347e+002, 1.086037e+002
7.013168e+002, 1.104682e+002
7.017989e+002, 1.126293e+002
7.022810e+002, 1.150610e+002
7.027631e+002, 1.178526e+002
7.032452e+002, 1.208049e+002
7.037274e+002, 1.238503e+002
7.042095e+002, 1.269189e+002
7.046916e+002, 1.297882e+002
7.051737e+002, 1.324090e+002
7.056558e+002, 1.351943e+002
7.061379e+002, 1.386518e+002
7.066201e+002, 1.427443e+002
7.071022e+002, 1.467612e+002
7.075843e+002, 1.505979e+002
7.080664e+002, 1.546285e+002
7.085485e+002, 1.587912e+002
7.090306e+002, 1.633395e+002
7.095128e+002, 1.686868e+002
7.099949e+002, 1.747872e+002
7.104770e+002, 1.805778e+002
7.109591e+002, 1.857292e+002
7.114412e+002, 1.904610e+002
7.119233e+002, 1.946745e+002
7.124055e+002, 1.986388e+002
7.128876e+002, 2.030647e+002
7.133697e+002, 2.080059e+002
7.138518e+002, 2.124265e+002
7.143339e+002, 2.152993e+002
7.148160e+002, 2.167337e+002
7.152982e+002, 2.174734e+002
7.157803e+002, 2.176270e+002
7.162624e+002, 2.168279e+002
7.167445e+002, 2.148928e+002
7.172266e+002, 2.120254e+002
7.177087e+002, 2.082797e+002
7.181909e+002, 2.036953e+002
7.186730e+002, 1.984228e+002
7.191551e+002, 1.920840e+002
7.196372e+002, 1.856402e+002
7.201193e+002, 1.797610e+002
7.206014e+002, 1.741819e+002
7.210836e+002, 1.683964e+002
7.215657e+002, 1.623681e+002
7.220478e+002, 1.564010e+002
7.225299e+002, 1.507641e+002
7.230120e+002, 1.453012e+002
7.234941e+002, 1.394795e+002
7.239763e+002, 1.328219e+002
7.244584e+002, 1.270837e+002
7.249405e+002, 1.227143e+002
7.254226e+002, 1.190216e+002
7.259047e+002, 1.159003e+002
7.263868e+002, 1.131280e+002
7.268690e+002, 1.102267e+002
7.273511e+002, 1.070815e+002
7.278332e+002, 1.038468e+002
7.283153e+002, 1.002496e+002
7.287974e+002, 9.683873e+001
7.292795e+002, 9.452486e+001
7.297617e+002, 9.320419e+001
7.302438e+002, 9.199493e+001
7.307259e+002, 9.042564e+001
7.312080e+002, 8.857205e+001
7.316901e+002, 8.651716e+001
7.321722e+002, 8.415254e+001
7.326544e+002, 8.208179e+001
7.331365e+002, 8.039353e+001
7.336186e+002, 7.887080e+001
7.341007e+002, 7.734608e+001
7.345828e+002, 7.596268e+001
7.350649e+002, 7.499202e+001
7.355471e+002, 7.450717e+001
7.360292e+002, 7.393221e+001
7.365113e+002, 7.287553e+001
7.369934e+002, 7.170698e+001
7.374755e+002, 7.082959e+001
7.379576e+002, 7.014977e+001
7.384398e+002, 6.934574e+001
7.389219e+002, 6.830219e+001
7.394040e+002, 6.719994e+001
7.398861e+002, 6.623764e+001
7.403682e+002, 6.541301e+001
7.408503e+002, 6.483525e+001
7.413325e+002, 6.467150e+001
7.418146e+002, 6.440141e+001
7.422967e+002, 6.380089e+001
7.427788e+002, 6.309056e+001
7.432609e+002, 6.243353e+001
7.437430e+002, 6.183227e+001
7.442252e+002, 6.125946e+001
7.447073e+002, 6.061206e+001
7.451894e+002, 6.008623e+001
7.456715e+002, 5.989960e+001
7.461536e+002, 5.988581e+001
7.466357e+002, 5.982101e+001
7.471179e+002, 5.964872e+001
7.476000e+002, 5.935755e+001
7.480821e+002, 5.892214e+001
7.485642e+002, 5.839048e+001
7.490463e+002, 5.790599e+001
7.495284e+002, 5.746491e+001
7.500106e+002, 5.707500e+001
7.504927e+002, 5.667194e+001
7.509748e+002, 5.640997e+001
7.514569e+002, 5.658535e+001
7.519390e+002, 5.694939e+001
7.524211e+002, 5.691036e+001
7.529033e+002, 5.614438e+001
7.533854e+002, 5.559171e+001
7.538675e+002, 5.589781e+001
7.543496e+002, 5.633451e+001
7.548317e+002, 5.610623e+001
7.553138e+002, 5.540090e+001
7.557960e+002, 5.492863e+001
7.562781e+002, 5.501416e+001
7.567602e+002, 5.528823e+001
7.572423e+002, 5.518614e+001
7.577244e+002, 5.472294e+001
7.582065e+002, 5.440818e+001
7.586887e+002, 5.429137e+001
7.591708e+002, 5.417503e+001
7.596529e+002, 5.392666e+001
7.601350e+002, 5.367820e+001
7.606171e+002, 5.370452e+001
7.610992e+002, 5.404401e+001
7.615814e+002, 5.410889e+001
7.620635e+002, 5.358044e+001
7.625456e+002, 5.304293e+001
7.630277e+002, 5.269251e+001
7.635098e+002, 5.252599e+001
7.639919e+002, 5.252753e+001
7.644741e+002, 5.268965e+001
7.649562e+002, 5.302688e+001
7.654383e+002, 5.363801e+001
7.659204e+002, 5.431532e+001
7.664025e+002, 5.456738e+001
7.668846e+002, 5.440307e+001
7.673668e+002, 5.406969e+001
7.678489e+002, 5.355486e+001
7.683310e+002, 5.311257e+001
7.688131e+002, 5.299211e+001
7.692952e+002, 5.312529e+001
7.697773e+002, 5.312077e+001
7.702595e+002, 5.275188e+001
7.707416e+002, 5.258211e+001
7.712237e+002, 5.255975e+001
7.717058e+002, 5.282444e+001
7.721879e+002, 5.380769e+001
7.726700e+002, 5.507247e+001
7.731522e+002, 5.572717e+001
7.736343e+002, 5.541018e+001
7.741164e+002, 5.480685e+001
7.745985e+002, 5.443523e+001
7.750806e+002, 5.429551e+001
7.755627e+002, 5.451003e+001
7.760449e+002, 5.503902e+001
7.765270e+002, 5.534924e+001
7.770091e+002, 5.517104e+001
7.774912e+002, 5.485235e+001
7.779733e+002, 5.494933e+001
7.784554e+002, 5.555225e+001
7.789376e+002, 5.582465e+001
7.794197e+002, 5.536737e+001
7.799019e+002, 5.512685e+001
7.803840e+002, 5.543470e+001
7.808661e+002, 5.593209e+001
7.813482e+002, 5.636776e+001
7.818303e+002, 5.670221e+001
7.823124e+002, 5.689261e+001
7.827946e+002, 5.676592e+001
7.832767e+002, 5.668054e+001
7.837588e+002, 5.703038e+001
7.842409e+002, 5.758750e+001
7.847230e+002, 5.795286e+001
7.852051e+002, 5.807021e+001
7.856873e+002, 5.804853e+001
7.861694e+002, 5.793245e+001
7.866515e+002, 5.784629e+001
7.871336e+002, 5.822510e+001
7.876157e+002, 5.925074e+001
7.880978e+002, 5.970648e+001
7.885800e+002, 5.931857e+001
7.890621e+002, 5.868090e+001
7.895442e+002, 5.788344e+001
7.900263e+002, 5.713235e+001
7.905084e+002, 5.677184e+001
7.909905e+002, 5.687713e+001
7.914727e+002, 5.707187e+001
7.919548e+002, 5.739815e+001
7.924369e+002, 5.765105e+001
7.929190e+002, 5.764552e+001
7.934011e+002, 5.749884e+001
7.938832e+002, 5.743050e+001
7.943654e+002, 5.748040e+001
7.948475e+002, 5.747933e+001
7.953296e+002, 5.723988e+001
7.958117e+002, 5.686760e+001
7.962938e+002, 5.664354e+001
7.967759e+002, 5.656527e+001
7.972581e+002, 5.659184e+001
7.977402e+002, 5.677773e+001
7.982223e+002, 5.679298e+001
7.987044e+002, 5.623559e+001
7.991865e+002, 5.526162e+001
7.996686e+002, 5.480422e+001
8.001508e+002, 5.547688e+001
8.006329e+002, 5.578619e+001
8.011150e+002, 5.528918e+001
8.015971e+002, 5.483984e+001
8.020792e+002, 5.510514e+001
8.025613e+002, 5.571485e+001
8.030435e+002, 5.591362e+001
8.035256e+002, 5.545412e+001
8.040077e+002, 5.492942e+001
8.044898e+002, 5.476724e+001
8.049719e+002, 5.481149e+001
8.054540e+002, 5.493664e+001
8.059362e+002, 5.507442e+001
8.064183e+002, 5.493423e+001
8.069004e+002, 5.441516e+001
8.073825e+002, 5.391516e+001
8.078646e+002, 5.392136e+001
8.083467e+002, 5.438859e+001
8.088289e+002, 5.475680e+001
8.093110e+002, 5.505608e+001
8.097931e+002, 5.516659e+001
8.102752e+002, 5.493677e+001
8.107573e+002, 5.464487e+001
8.112394e+002, 5.447633e+001
8.117216e+002, 5.442416e+001
8.122037e+002, 5.448474e+001
8.126858e+002, 5.475430e+001
8.131679e+002, 5.495885e+001
8.136500e+002, 5.493890e+001
8.141321e+002, 5.487111e+001
8.146143e+002, 5.494367e+001
8.150964e+002, 5.509343e+001
8.155785e+002, 5.513658e+001
8.160606e+002, 5.499908e+001
8.165427e+002, 5.478708e+001
8.170248e+002, 5.467312e+001
8.175070e+002, 5.458183e+001
8.179891e+002, 5.408427e+001
8.184712e+002, 5.317723e+001
8.189533e+002, 5.285276e+001
8.194354e+002, 5.358437e+001
8.199175e+002, 5.454846e+001
8.203997e+002, 5.478239e+001
8.208818e+002, 5.429932e+001
8.213639e+002, 5.389284e+001
8.218460e+002, 5.358047e+001
8.223281e+002, 5.332253e+001
8.228102e+002, 5.303093e+001
8.232924e+002, 5.286518e+001
8.237745e+002, 5.308357e+001
8.242566e+002, 5.349839e+001
8.247387e+002, 5.360720e+001
8.252208e+002, 5.317157e+001
8.257029e+002, 5.273722e+001
8.261851e+002, 5.264752e+001
8.266672e+002, 5.272955e+001
8.271493e+002, 5.283868e+001
8.276314e+002, 5.293483e+001
8.281135e+002, 5.293384e+001
8.285956e+002, 5.280895e+001
8.290778e+002, 5.268502e+001
8.295599e+002, 5.271278e+001
8.300420e+002, 5.287724e+001
8.305241e+002, 5.312093e+001
8.310062e+002, 5.347819e+001
8.314883e+002, 5.365989e+001
8.319705e+002, 5.352965e+001
8.324526e+002, 5.331166e+001
8.329347e+002, 5.320867e+001
8.334168e+002, 5.320901e+001
8.338989e+002, 5.320302e+001
8.343810e+002, 5.302100e+001
8.348632e+002, 5.307880e+001
8.353453e+002, 5.372150e+001
8.358274e+002, 5.431749e+001
8.363095e+002, 5.439232e+001
8.367916e+002, 5.414998e+001
8.372737e+002, 5.404241e+001
8.377559e+002, 5.421177e+001
8.382380e+002, 5.435676e+001
8.387201e+002, 5.421535e+001
8.392022e+002, 5.394933e+001
8.396843e+002, 5.366832e+001
8.401664e+002, 5.345674e+001
8.406486e+002, 5.364809e+001
8.411307e+002, 5.431362e+001
8.416128e+002, 5.491207e+001
8.420949e+002, 5.486530e+001
8.425770e+002, 5.433976e+001
8.430591e+002, 5.416244e+001
8.435413e+002, 5.446407e+001
8.440234e+002, 5.436974e+001
8.445055e+002, 5.340430e+001
8.449876e+002, 5.266829e+001
8.454697e+002, 5.315650e+001
8.459518e+002, 5.438330e+001
8.464340e+002, 5.490205e+001
8.469161e+002, 5.438408e+001
8.473982e+002, 5.407296e+001
8.478803e+002, 5.442381e+001
8.483624e+002, 5.465928e+001
8.488445e+002, 5.410403e+001
8.493267e+002, 5.333936e+001
8.498088e+002, 5.328754e+001
8.502909e+002, 5.402736e+001
8.507730e+002, 5.465051e+001
8.512551e+002, 5.441832e+001
8.517372e+002, 5.392315e+001
8.522194e+002, 5.385065e+001
8.527015e+002, 5.408386e+001
8.531836e+002, 5.440232e+001
8.536657e+002, 5.473994e+001
8.541478e+002, 5.492797e+001
8.546299e+002, 5.483464e+001
8.551121e+002, 5.460761e+001
8.555942e+002, 5.458990e+001
8.560763e+002, 5.480910e+001
8.565584e+002, 5.500307e+001
8.570405e+002, 5.513591e+001
8.575226e+002, 5.531677e+001
8.580048e+002, 5.561007e+001
8.584869e+002, 5.596421e+001
8.589690e+002, 5.636277e+001
8.594511e+002, 5.682447e+001
8.599332e+002, 5.702242e+001
8.604153e+002, 5.678017e+001
8.608975e+002, 5.648574e+001
8.613796e+002, 5.606571e+001
8.618617e+002, 5.577995e+001
8.623438e+002, 5.589582e+001
8.628259e+002, 5.634615e+001
8.633080e+002, 5.692412e+001
8.637902e+002, 5.762516e+001
8.642723e+002, 5.811285e+001
8.647544e+002, 5.788704e+001
8.652365e+002, 5.739354e+001
8.657186e+002, 5.736604e+001
8.662007e+002, 5.773438e+001
8.666829e+002, 5.802438e+001
8.671650e+002, 5.805790e+001
8.676471e+002, 5.803248e+001
8.681292e+002, 5.819936e+001
8.686113e+002, 5.850550e+001
8.690934e+002, 5.861669e+001
8.695756e+002, 5.850518e+001
8.700577e+002, 5.839328e+001
8.705398e+002, 5.831397e+001
8.710219e+002, 5.827907e+001
8.715040e+002, 5.830810e+001
8.719861e+002, 5.838657e+001
8.724683e+002, 5.846428e+001
8.729504e+002, 5.857429e+001
8.734325e+002, 5.861922e+001
8.739146e+002, 5.847117e+001
8.743967e+002, 5.840170e+001
8.748788e+002, 5.857162e+001
8.753610e+002, 5.886225e+001
8.758431e+002, 5.921844e+001
8.763252e+002, 5.959533e+001
8.768073e+002, 5.965149e+001
8.772894e+002, 5.888818e+001
8.777715e+002, 5.809415e+001
8.782537e+002, 5.788780e+001
8.787358e+002, 5.804192e+001
8.792179e+002, 5.835271e+001
8.797000e+002, 5.869124e+001
8.801821e+002, 5.871494e+001
8.806642e+002, 5.819893e+001
8.811464e+002, 5.759003e+001
8.816285e+002, 5.762181e+001
8.821106e+002, 5.818303e+001
8.825927e+002, 5.867281e+001
8.830748e+002, 5.906348e+001
8.835569e+002, 5.939166e+001
8.840391e+002, 5.967864e+001
8.845212e+002, 5.987260e+001
8.850033e+002, 5.989201e+001
8.854854e+002, 5.974929e+001
8.859675e+002, 5.970555e+001
8.864496e+002, 5.987485e+001
8.869318e+002, 5.991679e+001
8.874139e+002, 5.970564e+001
8.878960e+002, 5.944381e+001
8.883781e+002, 5.912025e+001
8.888602e+002, 5.885994e+001
8.893423e+002, 5.896348e+001
8.898245e+002, 5.957994e+001
8.903066e+002, 6.003589e+001
8.907887e+002, 6.021602e+001
8.912708e+002, 6.011076e+001
8.917529e+002, 5.952001e+001
8.922350e+002, 5.874567e+001
8.927172e+002, 5.813857e+001
8.931993e+002, 5.777453e+001
8.936814e+002, 5.761658e+001
8.941635e+002, 5.773994e+001
8.946456e+002, 5.785713e+001
8.951277e+002, 5.748417e+001
8.956099e+002, 5.688049e+001
8.960920e+002, 5.670749e+001
8.965741e+002, 5.695885e+001
8.970562e+002, 5.714898e+001
8.975383e+002, 5.704709e+001
8.980204e+002, 5.673758e+001
8.985026e+002, 5.631536e+001
8.989847e+002, 5.578989e+001
8.994668e+002, 5.523649e+001
8.999489e+002, 5.458768e+001
9.004310e+002, 5.432695e+001
9.009131e+002, 5.475842e+001
9.013953e+002, 5.519413e+001
9.018774e+002, 5.501569e+001
9.023595e+002, 5.435662e+001
9.028416e+002, 5.382666e+001
9.033237e+002, 5.341923e+001
9.038058e+002, 5.315680e+001
9.042880e+002, 5.315793e+001
9.047701e+002, 5.316319e+001
9.052522e+002, 5.299743e+001
9.057343e+002, 5.282038e+001
9.062164e+002, 5.292810e+001
9.066985e+002, 5.331392e+001
9.071807e+002, 5.343416e+001
9.076628e+002, 5.270781e+001
9.081449e+002, 5.212307e+001
9.086270e+002, 5.246045e+001
9.091091e+002, 5.306366e+001
9.095912e+002, 5.315831e+001
9.100734e+002, 5.281295e+001
9.105555e+002, 5.254395e+001
9.110376e+002, 5.258271e+001
9.115197e+002, 5.266907e+001
9.120018e+002, 5.247996e+001
9.124839e+002, 5.216155e+001
9.129661e+002, 5.203413e+001
9.134482e+002, 5.206889e+001
9.139303e+002, 5.210518e+001
9.144124e+002, 5.209575e+001
9.148945e+002, 5.199628e+001
9.153766e+002, 5.173693e+001
9.158588e+002, 5.142395e+001
9.163409e+002, 5.144339e+001
9.168230e+002, 5.184859e+001
9.173051e+002, 5.207648e+001
9.177872e+002, 5.206466e+001
9.182693e+002, 5.189763e+001
9.187515e+002, 5.148996e+001
9.192336e+002, 5.111905e+001
9.197157e+002, 5.130391e+001
9.201978e+002, 5.214969e+001
9.206799e+002, 5.250836e+001
9.211620e+002, 5.188902e+001
9.216442e+002, 5.145956e+001
9.221263e+002, 5.148883e+001
9.226084e+002, 5.164791e+001
9.230905e+002, 5.187262e+001
9.235726e+002, 5.202705e+001
9.240547e+002, 5.175313e+001
9.245369e+002, 5.082317e+001
9.250190e+002, 5.015382e+001
9.255011e+002, 5.027477e+001
9.259832e+002, 5.054952e+001
9.264653e+002, 5.054024e+001
9.269474e+002, 5.042385e+001
9.274296e+002, 5.056653e+001
9.279117e+002, 5.094221e+001
9.283938e+002, 5.109935e+001
9.288759e+002, 5.070099e+001
9.293580e+002, 5.015651e+001
9.298401e+002, 4.993023e+001
9.303223e+002, 4.987567e+001
9.308044e+002, 4.972279e+001
9.312865e+002, 4.946617e+001
9.317686e+002, 4.918693e+001
9.322507e+002, 4.892112e+001
9.327328e+002, 4.871458e+001
9.332150e+002, 4.863904e+001
9.336971e+002, 4.865361e+001
9.341792e+002, 4.858325e+001
9.346613e+002, 4.842825e+001
9.351434e+002, 4.839016e+001
9.356255e+002, 4.854879e+001
9.361077e+002, 4.850564e+001
9.365898e+002, 4.793235e+001
9.370719e+002, 4.710596e+001
9.375540e+002, 4.663739e+001
9.380361e+002, 4.658009e+001
9.385182e+002, 4.662322e+001
9.390004e+002, 4.694604e+001
9.394825e+002, 4.700740e+001
9.399646e+002, 4.641024e+001
9.404467e+002, 4.573706e+001
9.409288e+002, 4.556360e+001
9.414109e+002, 4.578069e+001
9.418931e+002, 4.592146e+001
9.423752e+002, 4.594982e+001
9.428573e+002, 4.593969e+001
9.433394e+002, 4.603261e+001
9.438215e+002, 4.594303e+001
9.443036e+002, 4.528509e+001
9.447858e+002, 4.449236e+001
9.452679e+002, 4.422428e+001
9.457500e+002, 4.449987e+001
9.462321e+002, 4.460028e+001
9.467142e+002, 4.400195e+001
9.471964e+002, 4.343100e+001
9.476785e+002, 4.333389e+001
9.481606e+002, 4.348759e+001
9.486427e+002, 4.375417e+001
9.491248e+002, 4.403269e+001
9.496069e+002, 4.414401e+001
9.500891e+002, 4.402713e+001
9.505712e+002, 4.385727e+001
9.510533e+002, 4.373371e+001
9.515354e+002, 4.369802e+001
9.520175e+002, 4.398241e+001
9.524996e+002, 4.439397e+001
9.529818e+002, 4.427722e+001
9.534639e+002, 4.358657e+001
9.539460e+002, 4.290977e+001
9.544281e+002, 4.260201e+001
9.549102e+002, 4.261736e+001
9.553923e+002, 4.299213e+001
9.558745e+002, 4.366920e+001
9.563566e+002, 4.409959e+001
9.568387e+002, 4.427343e+001
9.573208e+002, 4.419414e+001
9.578029e+002, 4.381138e+001
9.582850e+002, 4.345135e+001
9.587672e+002, 4.341367e+001
9.592493e+002, 4.364525e+001
9.597314e+002, 4.397173e+001
9.602135e+002, 4.450138e+001
9.606956e+002, 4.470851e+001
9.611777e+002, 4.440926e+001
9.616599e+002, 4.411966e+001
9.621420e+002, 4.402291e+001
9.626241e+002, 4.407030e+001
9.631062e+002, 4.421260e+001
9.635883e+002, 4.444934e+001
9.640704e+002, 4.475462e+001
9.645526e+002, 4.530199e+001
9.650347e+002, 4.565668e+001
9.655168e+002, 4.562205e+001
9.659989e+002, 4.555450e+001
9.664810e+002, 4.565588e+001
9.669631e+002, 4.584437e+001
9.674453e+002, 4.601242e+001
9.679274e+002, 4.615070e+001
9.684095e+002, 4.615452e+001
9.688916e+002, 4.574752e+001
9.693737e+002, 4.551034e+001
9.698558e+002, 4.588749e+001
9.703380e+002, 4.639981e+001
9.708201e+002, 4.652171e+001
9.713022e+002, 4.639082e+001
9.717843e+002, 4.648618e+001
9.722664e+002, 4.697854e+001
9.727485e+002, 4.746269e+001
9.732307e+002, 4.756915e+001
9.737128e+002, 4.762883e+001
9.741949e+002, 4.802291e+001
9.746770e+002, 4.857722e+001
9.751591e+002, 4.904108e+001
9.756412e+002, 4.934434e+001
9.761234e+002, 4.942306e+001
9.766055e+002, 4.921951e+001
9.770876e+002, 4.896783e+001
9.775698e+002, 4.894636e+001
9.780519e+002, 4.908522e+001
9.785340e+002, 4.928890e+001
9.790161e+002, 4.951652e+001
9.794982e+002, 4.962870e+001
9.799803e+002, 4.959210e+001
9.804625e+002, 4.946998e+001
9.809446e+002, 4.929921e+001
9.814267e+002, 4.912299e+001
9.819088e+002, 4.905924e+001
9.823909e+002, 4.909076e+001
9.828730e+002, 4.904979e+001
9.833552e+002, 4.892604e+001
9.838373e+002, 4.870868e+001
9.843194e+002, 4.836028e+001
9.848015e+002, 4.816047e+001
9.852836e+002, 4.846055e+001
9.857657e+002, 4.911543e+001
9.862479e+002, 4.935291e+001
9.867300e+002, 4.905563e+001
9.872121e+002, 4.903506e+001
9.876942e+002, 4.956198e+001
9.881763e+002, 4.971774e+001
9.886584e+002, 4.887719e+001
9.891406e+002, 4.776437e+001
9.896227e+002, 4.739220e+001
9.901048e+002, 4.775037e+001
9.905869e+002, 4.790380e+001
9.910690e+002, 4.772868e+001
9.915511e+002, 4.759098e+001
9.920333e+002, 4.756402e+001
9.925154e+002, 4.753312e+001
9.929975e+002, 4.747859e+001
9.934796e+002, 4.736254e+001
9.939617e+002, 4.706211e+001
9.944438e+002, 4.653658e+001
9.949260e+002, 4.627180e+001
9.954081e+002, 4.659539e+001
9.958902e+002, 4.676801e+001
9.963723e+002, 4.648232e+001
9.968544e+002, 4.614664e+001
9.973365e+002, 4.605232e+001
9.978187e+002, 4.610633e+001
9.983008e+002, 4.612222e+001
9.987829e+002, 4.607654e+001
9.992650e+002, 4.593408e+001
9.997471e+002, 4.544273e+001
1.000229e+003, 4.514980e+001
1.000711e+003, 4.554660e+001
1.001193e+003, 4.606713e+001
1.001676e+003, 4.618283e+001
1.002158e+003, 4.594412e+001
1.002640e+003, 4.558964e+001
1.003122e+003, 4.517278e+001
1.003604e+003, 4.485819e+001
1.004086e+003, 4.489260e+001
1.004568e+003, 4.490503e+001
1.005050e+003, 4.451427e+001
1.005533e+003, 4.396357e+001
1.006015e+003, 4.344598e+001
1.006497e+003, 4.310793e+001
1.006979e+003, 4.333224e+001
1.007461e+003, 4.434929e+001
1.007943e+003, 4.531742e+001
1.008425e+003, 4.540115e+001
1.008907e+003, 4.508517e+001
1.009389e+003, 4.484554e+001
1.009872e+003, 4.474652e+001
1.010354e+003, 4.494178e+001
1.010836e+003, 4.539244e+001
1.011318e+003, 4.584419e+001
1.011800e+003, 4.616505e+001
1.012282e+003, 4.628761e+001
1.012764e+003, 4.591870e+001
1.013246e+003, 4.538139e+001
1.013729e+003, 4.554298e+001
1.014211e+003, 4.618952e+001
1.014693e+003, 4.632025e+001
1.015175e+003, 4.578382e+001
1.015657e+003, 4.548519e+001
1.016139e+003, 4.608979e+001
1.016621e+003, 4.706258e+001
1.017103e+003, 4.747017e+001
1.017585e+003, 4.744247e+001
1.018068e+003, 4.755548e+001
1.018550e+003, 4.781427e+001
1.019032e+003, 4.809358e+001
1.019514e+003, 4.835608e+001
1.019996e+003, 4.852958e+001
1.020478e+003, 4.854807e+001
1.020960e+003, 4.846138e+001
1.021442e+003, 4.829750e+001
1.021924e+003, 4.807441e+001
1.022407e+003, 4.840238e+001
1.022889e+003, 4.935212e+001
1.023371e+003, 4.982726e+001
1.023853e+003, 4.939865e+001
1.024335e+003, 4.901064e+001
1.024817e+003, 4.957330e+001
1.025299e+003, 5.070109e+001
1.025781e+003, 5.116390e+001
1.026264e+003, 5.087934e+001
1.026746e+003, 5.058332e+001
1.027228e+003, 5.023993e+001
1.027710e+003, 5.018476e+001
1.028192e+003, 5.063753e+001
1.028674e+003, 5.110593e+001
1.029156e+003, 5.107528e+001
1.029638e+003, 5.070199e+001
1.030120e+003, 5.063258e+001
1.030603e+003, 5.095749e+001
1.031085e+003, 5.124239e+001
1.031567e+003, 5.142879e+001
1.032049e+003, 5.172595e+001
1.032531e+003, 5.234680e+001
1.033013e+003, 5.287389e+001
1.033495e+003, 5.282363e+001
1.033977e+003, 5.232774e+001
1.034459e+003, 5.205047e+001
1.034942e+003, 5.205685e+001
1.035424e+003, 5.213288e+001
1.035906e+003, 5.233632e+001
1.036388e+003, 5.251390e+001
1.036870e+003, 5.264898e+001
1.037352e+003, 5.269487e+001
1.037834e+003, 5.249953e+001
1.038316e+003, 5.215089e+001
1.038799e+003, 5.218998e+001
1.039281e+003, 5.307093e+001
1.039763e+003, 5.345274e+001
1.040245e+003, 5.273847e+001
1.040727e+003, 5.229484e+001
1.041209e+003, 5.282993e+001
1.041691e+003, 5.361550e+001
1.042173e+003, 5.391378e+001
1.042656e+003, 5.383990e+001
1.043138e+003, 5.402455e+001
1.043620e+003, 5.487493e+001
1.044102e+003, 5.521046e+001
1.044584e+003, 5.436254e+001
1.045066e+003, 5.373332e+001
1.045548e+003, 5.404445e+001
1.046030e+003, 5.464521e+001
1.046512e+003, 5.497307e+001
1.046995e+003, 5.502183e+001
1.047477e+003, 5.486587e+001
1.047959e+003, 5.426690e+001
1.048441e+003, 5.403631e+001
1.048923e+003, 5.451018e+001
1.049405e+003, 5.511172e+001
1.049887e+003, 5.562233e+001
1.050369e+003, 5.613636e+001
1.050851e+003, 5.692980e+001
1.051334e+003, 5.783630e+001
1.051816e+003, 5.811570e+001
1.052298e+003, 5.725840e+001
1.052780e+003, 5.685297e+001
1.053262e+003, 5.754362e+001
1.053744e+003, 5.841760e+001
1.054226e+003, 5.923012e+001
1.054708e+003, 5.988512e+001
1.055191e+003, 6.022545e+001
1.055673e+003, 6.033540e+001
1.056155e+003, 6.049693e+001
1.056637e+003, 6.074704e+001
1.057119e+003, 6.112810e+001
1.057601e+003, 6.180235e+001
1.058083e+003, 6.243073e+001
1.058565e+003, 6.274936e+001
1.059047e+003, 6.301270e+001
1.059530e+003, 6.351260e+001
1.060012e+003, 6.419295e+001
1.060494e+003, 6.479520e+001
1.060976e+003, 6.521249e+001
1.061458e+003, 6.575866e+001
1.061940e+003, 6.690558e+001
1.062422e+003, 6.778345e+001
1.062904e+003, 6.775397e+001
1.063386e+003, 6.737903e+001
1.063869e+003, 6.709353e+001
1.064351e+003, 6.698351e+001
1.064833e+003, 6.713448e+001
1.065315e+003, 6.760847e+001
1.065797e+003, 6.802627e+001
1.066279e+003, 6.808942e+001
1.066761e+003, 6.823241e+001
1.067243e+003, 6.888729e+001
1.067726e+003, 6.956810e+001
1.068208e+003, 6.976628e+001
1.068690e+003, 6.959278e+001
1.069172e+003, 6.937048e+001
1.069654e+003, 6.916900e+001
1.070136e+003, 6.911652e+001
1.070618e+003, 6.955096e+001
1.071100e+003, 6.979902e+001
1.071583e+003, 6.926209e+001
1.072065e+003, 6.858066e+001
1.072547e+003, 6.841782e+001
1.073029e+003, 6.857957e+001
1.073511e+003, 6.861335e+001
1.073993e+003, 6.841051e+001
1.074475e+003, 6.789640e+001
1.074957e+003, 6.677312e+001
1.075439e+003, 6.566935e+001
1.075922e+003, 6.489043e+001
1.076404e+003, 6.427596e+001
1.076886e+003, 6.367451e+001
1.077368e+003, 6.312743e+001
1.077850e+003, 6.280433e+001
1.078332e+003, 6.270575e+001
1.078814e+003, 6.246640e+001
1.079296e+003, 6.191952e+001
1.079779e+003, 6.121294e+001
1.080261e+003, 6.017054e+001
1.080743e+003, 5.923846e+001
1.081225e+003, 5.893990e+001
1.081707e+003, 5.893694e+001
1.082189e+003, 5.868689e+001
1.082671e+003, 5.811699e+001
1.083153e+003, 5.745359e+001
1.083635e+003, 5.667718e+001
1.084118e+003, 5.602522e+001
1.084600e+003, 5.571746e+001
1.085082e+003, 5.545657e+001
1.085564e+003, 5.508709e+001
1.086046e+003, 5.459436e+001
1.086528e+003, 5.384921e+001
1.087010e+003, 5.295163e+001
1.087492e+003, 5.239752e+001
1.087974e+003, 5.244371e+001
1.088457e+003, 5.258847e+001
1.088939e+003, 5.286558e+001
1.089421e+003, 5.290282e+001
1.089903e+003, 5.219274e+001
1.090385e+003, 5.130922e+001
1.090867e+003, 5.099028e+001
1.091349e+003, 5.113258e+001
1.091831e+003, 5.108503e+001
1.092314e+003, 5.062496e+001
1.092796e+003, 5.018046e+001
1.093278e+003, 4.983478e+001
1.093760e+003, 4.963275e+001
1.094242e+003, 4.973381e+001
1.094724e+003, 4.987576e+001
1.095206e+003, 4.975475e+001
1.095688e+003, 4.947131e+001
1.096171e+003, 4.934133e+001
1.096653e+003, 4.944685e+001
1.097135e+003, 4.954439e+001
1.097617e+003, 4.966994e+001
1.098099e+003, 4.963171e+001
1.098581e+003, 4.920795e+001
1.099063e+003, 4.872990e+001
1.099545e+003, 4.851369e+001
1.100027e+003, 4.841874e+001
1.100510e+003, 4.809753e+001
1.100992e+003, 4.749419e+001
1.101474e+003, 4.713118e+001
1.101956e+003, 4.729248e+001
1.102438e+003, 4.747205e+001
1.102920e+003, 4.765434e+001
1.103402e+003, 4.769299e+001
1.103884e+003, 4.740836e+001
1.104366e+003, 4.697791e+001
1.104849e+003, 4.658517e+001
1.105331e+003, 4.626330e+001
1.105813e+003, 4.617556e+001
1.106295e+003, 4.657413e+001
1.106777e+003, 4.684682e+001
1.107259e+003, 4.669120e+001
1.107741e+003, 4.665603e+001
1.108223e+003, 4.730639e+001
1.108706e+003, 4.796317e+001
1.109188e+003, 4.777263e+001
1.109670e+003, 4.689552e+001
1.110152e+003, 4.624681e+001
1.110634e+003, 4.561337e+001
1.111116e+003, 4.580937e+001
1.111598e+003, 4.815874e+001
1.112080e+003, 4.964037e+001
1.112563e+003, 4.874767e+001
1.113045e+003, 4.724669e+001
1.113527e+003, 4.630680e+001
1.114009e+003, 4.587114e+001
1.114491e+003, 4.585595e+001
1.114973e+003, 4.639946e+001
1.115455e+003, 4.677146e+001
1.115937e+003, 4.690649e+001
1.116419e+003, 4.698256e+001
1.116901e+003, 4.700106e+001
1.117384e+003, 4.700609e+001
1.117866e+003, 4.700814e+001
1.118348e+003, 4.702552e+001
1.118830e+003, 4.709297e+001
1.119312e+003, 4.721131e+001
1.119794e+003, 4.732900e+001
1.120276e+003, 4.744388e+001
1.120758e+003, 4.757359e+001
1.121241e+003, 4.779341e+001
1.121723e+003, 4.783801e+001
1.122205e+003, 4.746965e+001
1.122687e+003, 4.708454e+001
1.123169e+003, 4.719015e+001
1.123651e+003, 4.768605e+001
1.124133e+003, 4.797414e+001
1.124615e+003, 4.798964e+001
1.125098e+003, 4.812617e+001
1.125580e+003, 4.843413e+001
1.126062e+003, 4.871142e+001
1.126544e+003, 4.888701e+001
1.127026e+003, 4.904620e+001
1.127508e+003, 4.927839e+001
1.127990e+003, 4.951395e+001
1.128472e+003, 4.957901e+001
1.128954e+003, 4.947154e+001
1.129437e+003, 4.919430e+001
1.129919e+003, 4.871336e+001
1.130401e+003, 4.867204e+001
1.130883e+003, 4.924890e+001
1.131365e+003, 4.966804e+001
1.131847e+003, 4.942916e+001
1.132329e+003, 4.902580e+001
1.132811e+003, 4.921698e+001
1.133293e+003, 4.987286e+001
1.133776e+003, 5.041850e+001
1.134258e+003, 5.085627e+001
1.134740e+003, 5.123433e+001
1.135222e+003, 5.154943e+001
1.135704e+003, 5.165981e+001
1.136186e+003, 5.151007e+001
1.136668e+003, 5.132856e+001
1.137150e+003, 5.131533e+001
1.137633e+003, 5.147306e+001
1.138115e+003, 5.192362e+001
1.138597e+003, 5.252575e+001
1.139079e+003, 5.280454e+001
1.139561e+003, 5.281626e+001
1.140043e+003, 5.295922e+001
1.140525e+003, 5.329160e+001
1.141007e+003, 5.341906e+001
1.141490e+003, 5.305495e+001
1.141972e+003, 5.265479e+001
1.142454e+003, 5.283192e+001
1.142936e+003, 5.328247e+001
1.143418e+003, 5.351268e+001
1.143900e+003, 5.362785e+001
1.144382e+003, 5.393269e+001
1.144864e+003, 5.437638e+001
1.145346e+003, 5.455064e+001
1.145828e+003, 5.430904e+001
1.146311e+003, 5.423022e+001
1.146793e+003, 5.496230e+001
1.147275e+003, 5.582441e+001
1.147757e+003, 5.617511e+001
1.148239e+003, 5.630713e+001
1.148721e+003, 5.650446e+001
1.149203e+003, 5.678316e+001
1.149685e+003, 5.719594e+001
1.150168e+003, 5.768806e+001
1.150650e+003, 5.786973e+001
1.151132e+003, 5.737053e+001
1.151614e+003, 5.699731e+001
1.152096e+003, 5.727909e+001
1.152578e+003, 5.770177e+001
1.153060e+003, 5.791943e+001
1.153542e+003, 5.807453e+001
1.154025e+003, 5.833807e+001
1.154507e+003, 5.871415e+001
1.154989e+003, 5.917605e+001
1.155471e+003, 5.976585e+001
1.155953e+003, 6.019779e+001
1.156435e+003, 6.026647e+001
1.156917e+003, 6.036375e+001
1.157399e+003, 6.057237e+001
1.157881e+003, 6.089527e+001
1.158364e+003, 6.153885e+001
1.158846e+003, 6.219941e+001
1.159328e+003, 6.229011e+001
1.159810e+003, 6.177713e+001
1.160292e+003, 6.151292e+001
1.160774e+003, 6.159630e+001
1.161256e+003, 6.176686e+001
1.161738e+003, 6.207666e+001
1.162220e+003, 6.237002e+001
1.162703e+003, 6.256910e+001
1.163185e+003, 6.277148e+001
1.163667e+003, 6.314972e+001
1.164149e+003, 6.355733e+001
1.164631e+003, 6.341664e+001
1.165113e+003, 6.252076e+001
1.165595e+003, 6.241586e+001
1.166077e+003, 6.329403e+001
1.166560e+003, 6.416665e+001
1.167042e+003, 6.488597e+001
1.167524e+003, 6.532230e+001
1.168006e+003, 6.540031e+001
1.168488e+003, 6.510975e+001
1.168970e+003, 6.429630e+001
1.169452e+003, 6.318908e+001
1.169934e+003, 6.319118e+001
1.170417e+003, 6.418807e+001
1.170899e+003, 6.444582e+001
1.171381e+003, 6.384730e+001
1.171863e+003, 6.330398e+001
1.172345e+003, 6.312048e+001
1.172827e+003, 6.288645e+001
1.173309e+003, 6.225574e+001
1.173791e+003, 6.144261e+001
1.174273e+003, 6.071416e+001
1.174755e+003, 6.011631e+001
1.175238e+003, 5.980902e+001
1.175720e+003, 5.970868e+001
1.176202e+003, 5.962125e+001
1.176684e+003, 5.948968e+001
1.177166e+003, 5.922390e+001
1.177648e+003, 5.878771e+001
1.178130e+003, 5.846558e+001
1.178612e+003, 5.868017e+001
1.179095e+003, 5.890666e+001
1.179577e+003, 5.865369e+001
1.180059e+003, 5.808060e+001
1.180541e+003, 5.714842e+001
1.181023e+003, 5.614819e+001
1.181505e+003, 5.557034e+001
1.181987e+003, 5.547762e+001
1.182469e+003, 5.563273e+001
1.182952e+003, 5.607434e+001
1.183434e+003, 5.637583e+001
1.183916e+003, 5.647465e+001
1.184398e+003, 5.622575e+001
1.184880e+003, 5.519870e+001
1.185362e+003, 5.408370e+001
1.185844e+003, 5.352692e+001
1.186326e+003, 5.341905e+001
1.186808e+003, 5.347270e+001
1.187291e+003, 5.371633e+001
1.187773e+003, 5.357160e+001
1.188255e+003, 5.255615e+001
1.188737e+003, 5.181605e+001
1.189219e+003, 5.154792e+001
1.189701e+003, 5.147135e+001
1.190183e+003, 5.158899e+001
1.190665e+003, 5.170222e+001
1.191147e+003, 5.157016e+001
1.191630e+003, 5.126168e+001
1.192112e+003, 5.108872e+001
1.192594e+003, 5.111469e+001
1.193076e+003, 5.091012e+001
1.193558e+003, 5.038323e+001
1.194040e+003, 5.016701e+001
1.194522e+003, 5.048724e+001
1.195004e+003, 5.057882e+001
1.195487e+003, 4.992296e+001
1.195969e+003, 4.913518e+001
1.196451e+003, 4.915709e+001
1.196933e+003, 4.968767e+001
1.197415e+003, 4.945723e+001
1.197897e+003, 4.865070e+001
1.198379e+003, 4.837566e+001
1.198861e+003, 4.863644e+001
1.199344e+003, 4.883381e+001
1.199826e+003, 4.879674e+001
1.200308e+003, 4.874450e+001
1.200790e+003, 4.883287e+001
1.201272e+003, 4.892778e+001
1.201754e+003, 4.883614e+001
1.202236e+003, 4.867734e+001
1.202718e+003, 4.870497e+001
1.203200e+003, 4.874025e+001
1.203682e+003, 4.824858e+001
1.204165e+003, 4.751302e+001
1.204647e+003, 4.753415e+001
1.205129e+003, 4.852886e+001
1.205611e+003, 4.934894e+001
1.206093e+003, 4.930653e+001
1.206575e+003, 4.908007e+001
1.207057e+003, 4.893333e+001
1.207539e+003, 4.881475e+001
1.208022e+003, 4.862850e+001
1.208504e+003, 4.849337e+001
1.208986e+003, 4.859317e+001
1.209468e+003, 4.886932e+001
1.209950e+003, 4.913404e+001
1.210432e+003, 4.947129e+001
1.210914e+003, 4.935810e+001
1.211396e+003, 4.822038e+001
1.211879e+003, 4.747271e+001
1.212361e+003, 4.752060e+001
1.212843e+003, 4.765993e+001
1.213325e+003, 4.751923e+001
1.213807e+003, 4.732701e+001
1.214289e+003, 4.736989e+001
1.214771e+003, 4.759628e+001
1.215253e+003, 4.779553e+001
1.215735e+003, 4.799396e+001
1.216218e+003, 4.782537e+001
1.216700e+003, 4.723426e+001
1.217182e+003, 4.696843e+001
1.217664e+003, 4.721395e+001
1.218146e+003, 4.745513e+001
1.218628e+003, 4.738517e+001
1.219110e+003, 4.720153e+001
1.219592e+003, 4.721068e+001
1.220074e+003, 4.723815e+001
1.220557e+003, 4.672029e+001
1.221039e+003, 4.593167e+001
1.221521e+003, 4.561216e+001
1.222003e+003, 4.570340e+001
1.222485e+003, 4.586361e+001
1.222967e+003, 4.597828e+001
1.223449e+003, 4.598009e+001
1.223931e+003, 4.580029e+001
1.224414e+003, 4.570460e+001
1.224896e+003, 4.607355e+001
1.225378e+003, 4.641557e+001
1.225860e+003, 4.634875e+001
1.226342e+003, 4.603070e+001
1.226824e+003, 4.543059e+001
1.227306e+003, 4.480631e+001
1.227788e+003, 4.472485e+001
1.228271e+003, 4.520075e+001
1.228753e+003, 4.532416e+001
1.229235e+003, 4.441243e+001
1.229717e+003, 4.403411e+001
1.230199e+003, 4.500066e+001
1.230681e+003, 4.569887e+001
1.231163e+003, 4.532736e+001
1.231645e+003, 4.490827e+001
1.232127e+003, 4.525877e+001
1.232609e+003, 4.599817e+001
1.233092e+003, 4.639909e+001
1.233574e+003, 4.646832e+001
1.234056e+003, 4.648877e+001
1.234538e+003, 4.647361e+001
1.235020e+003, 4.623138e+001
1.235502e+003, 4.571836e+001
1.235984e+003, 4.540286e+001
1.236466e+003, 4.545008e+001
1.236949e+003, 4.559406e+001
1.237431e+003, 4.560045e+001
1.237913e+003, 4.575893e+001
1.238395e+003, 4.686590e+001
1.238877e+003, 4.831012e+001
1.239359e+003, 4.841131e+001
1.239841e+003, 4.774486e+001
1.240323e+003, 4.769348e+001
1.240806e+003, 4.824326e+001
1.241288e+003, 4.880662e+001
1.241770e+003, 4.917644e+001
1.242252e+003, 4.929007e+001
1.242734e+003, 4.903648e+001
1.243216e+003, 4.872636e+001
1.243698e+003, 4.840441e+001
1.244180e+003, 4.827889e+001
1.244662e+003, 4.867620e+001
1.245145e+003, 4.918775e+001
1.245627e+003, 4.945533e+001
1.246109e+003, 4.948082e+001
1.246591e+003, 4.925714e+001
1.247073e+003, 4.875592e+001
1.247555e+003, 4.862984e+001
1.248037e+003, 4.927601e+001
1.248519e+003, 4.959124e+001
1.249001e+003, 4.930819e+001
1.249484e+003, 4.919389e+001
1.249966e+003, 4.969570e+001
1.250448e+003, 4.993001e+001
1.250930e+003, 4.909816e+001
1.251412e+003, 4.777971e+001
1.251894e+003, 4.705537e+001
1.252376e+003, 4.688598e+001
1.252858e+003, 4.714028e+001
1.253341e+003, 4.774040e+001
1.253823e+003, 4.798321e+001
1.254305e+003, 4.783179e+001
1.254787e+003, 4.751638e+001
1.255269e+003, 4.714787e+001
1.255751e+003, 4.703813e+001
1.256233e+003, 4.745374e+001
1.256715e+003, 4.780122e+001
1.257198e+003, 4.716026e+001
1.257680e+003, 4.639512e+001
1.258162e+003, 4.668103e+001
1.258644e+003, 4.728277e+001
1.259126e+003, 4.721741e+001
1.259608e+003, 4.668620e+001
1.260090e+003, 4.630368e+001
1.260572e+003, 4.615944e+001
1.261054e+003, 4.595475e+001
1.261536e+003, 4.555748e+001
1.262019e+003, 4.520855e+001
1.262501e+003, 4.492813e+001
1.262983e+003, 4.473682e+001
1.263465e+003, 4.464602e+001
1.263947e+003, 4.462971e+001
1.264429e+003, 4.462136e+001
1.264911e+003, 4.476065e+001
1.265393e+003, 4.539834e+001
1.265876e+003, 4.634956e+001
1.266358e+003, 4.616730e+001
1.266840e+003, 4.475323e+001
1.267322e+003, 4.411001e+001
1.267804e+003, 4.431903e+001
1.268286e+003, 4.484953e+001
1.268768e+003, 4.553190e+001
1.269250e+003, 4.564053e+001
1.269733e+003, 4.476462e+001
1.270215e+003, 4.386858e+001
1.270697e+003, 4.412465e+001
1.271179e+003, 4.476603e+001
1.271661e+003, 4.465766e+001
1.272143e+003, 4.425741e+001
1.272625e+003, 4.411584e+001
1.273107e+003, 4.424077e+001
1.273589e+003, 4.469642e+001
1.274072e+003, 4.533012e+001
1.274554e+003, 4.563422e+001
1.275036e+003, 4.542611e+001
1.275518e+003, 4.523576e+001
1.276000e+003, 4.524947e+001
1.276482e+003, 4.526719e+001
1.276964e+003, 4.520054e+001
1.277446e+003, 4.518597e+001
1.277929e+003, 4.539886e+001
1.278411e+003, 4.553514e+001
1.278893e+003, 4.525093e+001
1.279375e+003, 4.471363e+001
1.279857e+003, 4.434585e+001
1.280339e+003, 4.414735e+001
1.280821e+003, 4.434595e+001
1.281303e+003, 4.495977e+001
1.281786e+003, 4.520721e+001
1.282268e+003, 4.498095e+001
##END=



