##NAMES=Oneillite
##RRUFFID=R110184
##IDEAL CHEMISTRY=Na_15_Ca_3_Mn^2+^_3_Fe^2+^_3_Zr^4+^_3_Nb^5+^(Si_25_O_73_)(O,OH,H_2_O)_3_(OH,Cl)_2_
##LOCALITY=Poudrette quarry, Mont Saint-Hilaire, Quebec, Canada
##OWNER=RRUFF
##SOURCE=Donald Doell
##DESCRIPTION=Gray or pale-yellow gray massive crystals
##STATUS=The identification of this mineral has been confirmed only by single crystal X-ray diffraction.
##URL=rruff.info/R110184
178.7195, 445.3194
179.2017, 445.4557
179.6838, 444.9836
180.1659, 444.8581
180.6480, 445.1257
181.1301, 445.3397
181.6122, 444.7072
182.0944, 443.5746
182.5765, 443.0840
183.0586, 444.0765
183.5407, 445.9832
184.0228, 447.7994
184.5049, 449.5433
184.9871, 450.8834
185.4692, 451.0825
185.9513, 450.3476
186.4334, 449.8020
186.9155, 449.9658
187.3976, 450.7138
187.8798, 451.7791
188.3619, 453.2283
188.8440, 454.6473
189.3261, 455.2930
189.8082, 455.2287
190.2903, 455.2402
190.7725, 455.8409
191.2546, 456.9146
191.7367, 457.7795
192.2188, 458.4350
192.7009, 458.8260
193.1830, 458.4593
193.6652, 457.3213
194.1473, 456.8898
194.6294, 458.5858
195.1115, 462.1634
195.5936, 464.3819
196.0757, 464.8605
196.5579, 464.2710
197.0400, 463.7191
197.5221, 463.1882
198.0042, 462.8515
198.4863, 462.8691
198.9684, 463.2463
199.4506, 463.6007
199.9327, 463.9184
200.4148, 464.1888
200.8969, 464.2736
201.3790, 464.0904
201.8611, 464.1790
202.3433, 465.3516
202.8254, 467.8501
203.3075, 468.3599
203.7896, 465.9795
204.2717, 462.0533
204.7538, 460.1790
205.2360, 460.7870
205.7181, 461.7988
206.2002, 461.9024
206.6823, 460.8956
207.1644, 460.2965
207.6465, 460.3786
208.1287, 460.8482
208.6108, 460.7441
209.0929, 459.8387
209.5750, 458.9740
210.0571, 458.6400
210.5392, 458.8624
211.0214, 459.5652
211.5035, 461.1037
211.9856, 463.0107
212.4677, 463.5151
212.9498, 462.0992
213.4319, 460.4750
213.9140, 459.6631
214.3962, 459.8260
214.8783, 460.2888
215.3604, 461.1600
215.8425, 462.2726
216.3246, 462.9781
216.8067, 463.3871
217.2889, 463.1918
217.7710, 461.9063
218.2531, 458.7326
218.7352, 456.8811
219.2173, 457.0417
219.6994, 458.7149
220.1816, 459.5398
220.6637, 459.2379
221.1458, 458.5767
221.6279, 457.9911
222.1100, 457.4310
222.5921, 457.0912
223.0743, 457.1900
223.5564, 457.5359
224.0385, 457.1161
224.5206, 455.4933
225.0027, 453.8331
225.4848, 452.9490
225.9670, 453.3842
226.4491, 453.2922
226.9312, 452.2954
227.4133, 450.6518
227.8954, 449.5706
228.3775, 449.3271
228.8597, 449.2788
229.3418, 448.9900
229.8239, 448.1481
230.3060, 447.8597
230.7881, 448.7220
231.2702, 450.2543
231.7524, 449.9006
232.2345, 446.1880
232.7166, 442.6613
233.1987, 441.6143
233.6808, 444.5354
234.1629, 446.5977
234.6451, 447.2846
235.1272, 446.8694
235.6093, 446.5625
236.0914, 446.3851
236.5735, 446.2867
237.0556, 446.2658
237.5378, 446.4347
238.0199, 446.4596
238.5020, 446.3487
238.9841, 446.0955
239.4662, 445.5938
239.9483, 444.5030
240.4305, 443.6548
240.9126, 443.6002
241.3947, 445.0280
241.8768, 445.7034
242.3589, 445.0977
242.8410, 443.7031
243.3232, 443.3321
243.8053, 444.6257
244.2874, 446.0604
244.7695, 446.7867
245.2516, 446.2444
245.7337, 446.2577
246.2159, 447.1107
246.6980, 448.5138
247.1801, 449.5537
247.6622, 450.1905
248.1443, 450.5233
248.6264, 450.4881
249.1086, 449.6483
249.5907, 449.5422
250.0728, 450.6306
250.5549, 452.3483
251.0370, 453.1039
251.5191, 452.3156
252.0013, 451.5063
252.4834, 451.3320
252.9655, 451.9405
253.4476, 452.8649
253.9297, 454.3466
254.4118, 456.0422
254.8940, 457.1975
255.3761, 457.6562
255.8582, 457.8482
256.3403, 457.8626
256.8224, 457.5248
257.3046, 457.5464
257.7867, 457.9066
258.2688, 458.6208
258.7509, 459.8722
259.2330, 462.1047
259.7151, 463.9185
260.1973, 464.6064
260.6794, 463.7672
261.1615, 463.5929
261.6436, 464.3843
262.1257, 465.5853
262.6078, 466.1080
263.0900, 465.4319
263.5721, 465.3602
264.0542, 466.8246
264.5363, 470.2651
265.0184, 472.3777
265.5005, 472.7523
265.9827, 472.3534
266.4648, 472.4542
266.9469, 472.9945
267.4290, 474.2553
267.9111, 476.6949
268.3932, 480.4448
268.8754, 482.8181
269.3575, 483.4090
269.8396, 483.2293
270.3217, 483.5456
270.8038, 484.4921
271.2859, 485.3425
271.7681, 485.7396
272.2502, 485.7100
272.7323, 486.5418
273.2144, 488.6188
273.6965, 490.7407
274.1786, 491.2873
274.6608, 489.8227
275.1429, 489.2539
275.6250, 490.6813
276.1071, 493.7196
276.5892, 495.3553
277.0714, 495.2568
277.5535, 494.6304
278.0356, 494.5573
278.5177, 495.0803
278.9998, 495.7184
279.4819, 496.5045
279.9641, 497.3045
280.4462, 497.3542
280.9283, 496.4830
281.4104, 495.5855
281.8925, 495.5235
282.3746, 496.3148
282.8568, 496.7879
283.3389, 496.6586
283.8210, 496.1839
284.3031, 496.0918
284.7852, 496.4293
285.2673, 496.8622
285.7495, 497.0810
286.2316, 497.1300
286.7137, 497.5720
287.1958, 498.6354
287.6779, 499.9061
288.1600, 500.4870
288.6422, 500.3689
289.1243, 500.0633
289.6064, 499.7691
290.0885, 499.5124
290.5706, 499.4276
291.0527, 499.4584
291.5349, 499.7978
292.0170, 501.1206
292.4991, 503.2922
292.9812, 505.0173
293.4633, 505.1068
293.9454, 504.1368
294.4276, 504.0650
294.9097, 505.1346
295.3918, 506.4901
295.8739, 506.9889
296.3560, 506.7913
296.8381, 506.6683
297.3203, 506.9999
297.8024, 507.6553
298.2845, 508.5272
298.7666, 509.6647
299.2487, 510.5387
299.7308, 510.4389
300.2130, 509.6239
300.6951, 508.8264
301.1772, 507.9000
301.6593, 507.3705
302.1414, 508.4597
302.6235, 511.1147
303.1057, 513.5469
303.5878, 513.7905
304.0699, 512.7905
304.5520, 512.3337
305.0341, 513.6614
305.5162, 515.1763
305.9984, 514.8757
306.4805, 513.0175
306.9626, 511.3405
307.4447, 511.3266
307.9268, 512.1194
308.4089, 512.6476
308.8911, 512.6862
309.3732, 512.3111
309.8553, 511.3432
310.3374, 509.9526
310.8195, 508.6904
311.3016, 507.9882
311.7838, 507.5075
312.2659, 507.0103
312.7480, 506.5968
313.2301, 505.8012
313.7122, 503.8999
314.1943, 501.3976
314.6765, 499.4009
315.1586, 498.8006
315.6407, 498.5872
316.1228, 498.1657
316.6049, 497.4578
317.0870, 496.5716
317.5692, 495.4586
318.0513, 494.2271
318.5334, 493.0339
319.0155, 492.0772
319.4976, 491.0450
319.9797, 489.6173
320.4619, 487.7002
320.9440, 486.3370
321.4261, 486.1243
321.9082, 486.4897
322.3903, 486.8943
322.8724, 487.2268
323.3546, 487.5716
323.8367, 488.0581
324.3188, 488.6676
324.8009, 488.9471
325.2830, 488.5364
325.7651, 487.9554
326.2473, 487.5439
326.7294, 486.6732
327.2115, 486.7534
327.6936, 488.4994
328.1757, 491.5222
328.6578, 493.9191
329.1400, 495.2220
329.6221, 496.2916
330.1042, 497.4956
330.5863, 498.9010
331.0684, 500.3384
331.5505, 501.6860
332.0327, 503.0708
332.5148, 504.8187
332.9969, 507.4576
333.4790, 509.7137
333.9611, 511.0589
334.4432, 511.1462
334.9254, 511.6498
335.4075, 512.6971
335.8896, 514.0181
336.3717, 515.2194
336.8538, 516.1495
337.3359, 517.2829
337.8180, 518.7621
338.3001, 520.5773
338.7823, 522.5923
339.2644, 525.0266
339.7465, 527.2148
340.2286, 528.2795
340.7107, 527.9535
341.1928, 528.1796
341.6750, 529.5698
342.1571, 531.7211
342.6392, 532.8826
343.1213, 532.9317
343.6034, 532.7316
344.0855, 532.9731
344.5677, 533.6281
345.0498, 533.8804
345.5319, 533.4241
346.0140, 532.8669
346.4961, 533.7592
346.9782, 536.0243
347.4604, 537.7955
347.9425, 537.6171
348.4246, 536.0173
348.9067, 534.9273
349.3888, 534.4969
349.8709, 534.3330
350.3531, 534.1062
350.8352, 533.7803
351.3173, 533.2263
351.7994, 532.2523
352.2815, 531.0489
352.7636, 529.8416
353.2458, 528.6263
353.7279, 527.5963
354.2100, 527.2824
354.6921, 527.2049
355.1742, 526.5138
355.6563, 524.6343
356.1385, 522.3488
356.6206, 520.3146
357.1027, 518.4904
357.5848, 516.7336
358.0669, 514.8531
358.5490, 513.0330
359.0312, 511.5098
359.5133, 510.4830
359.9954, 509.3815
360.4775, 507.6892
360.9596, 505.6814
361.4417, 503.9638
361.9239, 502.9928
362.4060, 502.2064
362.8881, 501.2982
363.3702, 500.2097
363.8523, 499.1522
364.3344, 498.4342
364.8166, 497.7009
365.2987, 496.5369
365.7808, 494.0511
366.2629, 491.9525
366.7450, 490.7699
367.2271, 490.5091
367.7093, 490.4478
368.1914, 490.6978
368.6735, 490.9919
369.1556, 491.1532
369.6377, 490.8745
370.1198, 490.8212
370.6020, 490.9379
371.0841, 491.2789
371.5662, 492.0941
372.0483, 493.7876
372.5304, 495.4407
373.0125, 496.6726
373.4947, 497.3596
373.9768, 497.8834
374.4589, 497.9739
374.9410, 498.1223
375.4231, 499.2164
375.9052, 501.6240
376.3874, 503.9898
376.8695, 505.8792
377.3516, 507.3355
377.8337, 508.7956
378.3158, 510.2006
378.7979, 511.8529
379.2801, 514.3706
379.7622, 517.8627
380.2443, 520.2842
380.7264, 520.8853
381.2085, 520.4907
381.6906, 521.4592
382.1728, 523.8052
382.6549, 526.2213
383.1370, 527.5223
383.6191, 528.0743
384.1012, 529.4108
384.5833, 531.8510
385.0655, 534.5428
385.5476, 536.4283
386.0297, 537.6201
386.5118, 538.4382
386.9939, 538.9893
387.4760, 539.2917
387.9582, 539.3371
388.4403, 539.1298
388.9224, 538.8140
389.4045, 538.7540
389.8866, 538.6140
390.3687, 537.8897
390.8509, 536.1340
391.3330, 534.0767
391.8151, 532.0591
392.2972, 530.1248
392.7793, 528.4003
393.2614, 527.4069
393.7436, 526.3648
394.2257, 524.5574
394.7078, 521.4081
395.1899, 518.6251
395.6720, 517.2335
396.1541, 516.5093
396.6363, 515.2923
397.1184, 512.5136
397.6005, 509.9237
398.0826, 508.2193
398.5647, 507.5505
399.0468, 506.7514
399.5290, 505.5073
400.0111, 504.2050
400.4932, 503.1688
400.9753, 503.0059
401.4574, 502.2772
401.9395, 500.5573
402.4217, 498.1175
402.9038, 496.2868
403.3859, 495.3727
403.8680, 494.6215
404.3501, 493.5933
404.8322, 492.0467
405.3144, 491.1597
405.7965, 491.1509
406.2786, 491.5511
406.7607, 491.6239
407.2428, 491.3208
407.7249, 490.9424
408.2071, 490.5788
408.6892, 490.2220
409.1713, 489.8123
409.6534, 489.3308
410.1355, 488.8836
410.6176, 488.7651
411.0998, 488.8484
411.5819, 488.3094
412.0640, 486.7747
412.5461, 484.9005
413.0282, 483.6579
413.5103, 483.0049
413.9925, 482.6559
414.4746, 482.7939
414.9567, 483.0088
415.4388, 482.5595
415.9209, 481.3232
416.4030, 479.9935
416.8852, 479.3855
417.3673, 479.0267
417.8494, 478.1485
418.3315, 475.6689
418.8136, 473.2258
419.2957, 471.9754
419.7779, 471.7836
420.2600, 471.6315
420.7421, 471.6033
421.2242, 471.1176
421.7063, 469.5974
422.1884, 465.9315
422.6706, 463.1212
423.1527, 462.5351
423.6348, 463.2065
424.1169, 463.3058
424.5990, 461.8545
425.0811, 460.4677
425.5633, 459.7637
426.0454, 459.9106
426.5275, 459.5034
427.0096, 457.9837
427.4917, 456.3305
427.9738, 455.3896
428.4560, 455.6081
428.9381, 455.5742
429.4202, 455.0343
429.9023, 454.1537
430.3844, 453.5596
430.8665, 453.4533
431.3487, 453.0674
431.8308, 451.7749
432.3129, 449.5032
432.7950, 448.0364
433.2771, 447.5213
433.7592, 447.4993
434.2414, 447.4601
434.7235, 447.4054
435.2056, 447.3344
435.6877, 447.3119
436.1698, 447.2368
436.6519, 446.6801
437.1341, 445.6887
437.6162, 445.0282
438.0983, 445.5870
438.5804, 446.7789
439.0625, 447.5734
439.5446, 447.7407
440.0268, 447.7030
440.5089, 447.6779
440.9910, 447.7292
441.4731, 447.9860
441.9552, 448.8377
442.4373, 449.6482
442.9195, 449.7713
443.4016, 449.2216
443.8837, 449.1811
444.3658, 450.5565
444.8479, 452.3971
445.3300, 453.9474
445.8122, 455.0022
446.2943, 455.8392
446.7764, 456.5783
447.2585, 457.1386
447.7406, 457.3125
448.2227, 456.3193
448.7049, 455.7079
449.1870, 456.0350
449.6691, 457.4957
450.1512, 458.7186
450.6333, 459.5650
451.1154, 460.3214
451.5976, 461.3056
452.0797, 462.6532
452.5618, 463.7715
453.0439, 464.5559
453.5260, 465.0674
454.0081, 465.4436
454.4903, 465.6418
454.9724, 466.0145
455.4545, 466.7083
455.9366, 467.7252
456.4187, 469.3789
456.9008, 471.8163
457.3830, 474.0387
457.8651, 474.5422
458.3472, 473.7755
458.8293, 473.1728
459.3114, 473.2846
459.7935, 473.6828
460.2757, 473.8220
460.7578, 473.7506
461.2399, 473.7382
461.7220, 474.3068
462.2041, 474.8185
462.6862, 474.5002
463.1684, 473.0235
463.6505, 471.7401
464.1326, 471.6794
464.6147, 472.1400
465.0968, 472.2108
465.5789, 470.8711
466.0611, 469.8835
466.5432, 470.1999
467.0253, 471.6509
467.5074, 472.2111
467.9895, 470.9605
468.4716, 469.3262
468.9538, 467.9897
469.4359, 467.2071
469.9180, 466.1563
470.4001, 464.5410
470.8822, 462.8415
471.3643, 461.7596
471.8465, 461.3573
472.3286, 461.4280
472.8107, 462.2039
473.2928, 463.4259
473.7749, 463.4301
474.2570, 461.9984
474.7392, 460.4703
475.2213, 459.9532
475.7034, 460.2883
476.1855, 460.3887
476.6676, 460.1236
477.1497, 459.6812
477.6319, 459.1706
478.1140, 458.6701
478.5961, 458.4391
479.0782, 458.8517
479.5603, 459.4351
480.0424, 459.6636
480.5246, 459.5576
481.0067, 459.2839
481.4888, 458.5689
481.9709, 457.9383
482.4530, 457.9572
482.9352, 459.0587
483.4173, 459.9861
483.8994, 460.0137
484.3815, 459.6003
484.8636, 459.4464
485.3457, 459.7734
485.8279, 460.3047
486.3100, 461.0623
486.7921, 462.0485
487.2742, 462.8880
487.7563, 463.4388
488.2384, 464.0111
488.7206, 464.8476
489.2027, 466.2737
489.6848, 467.0546
490.1669, 466.9554
490.6490, 466.4559
491.1311, 466.2939
491.6133, 466.5013
492.0954, 466.8358
492.5775, 467.2255
493.0596, 467.6818
493.5417, 468.3566
494.0238, 469.2483
494.5060, 469.9744
494.9881, 469.9153
495.4702, 469.4764
495.9523, 469.8116
496.4344, 471.2025
496.9165, 472.7182
497.3987, 473.6858
497.8808, 474.0937
498.3629, 473.9009
498.8450, 472.1982
499.3271, 470.6496
499.8092, 470.5380
500.2914, 471.6473
500.7735, 472.7459
501.2556, 473.4915
501.7377, 474.0081
502.2198, 474.4242
502.7019, 474.9430
503.1841, 474.9020
503.6662, 473.4264
504.1483, 471.6891
504.6304, 471.1202
505.1125, 472.7821
505.5946, 473.8854
506.0768, 473.8364
506.5589, 472.8777
507.0410, 472.2437
507.5231, 472.0131
508.0052, 471.8701
508.4873, 471.6517
508.9695, 471.3563
509.4516, 471.0862
509.9337, 470.8519
510.4158, 470.5815
510.8979, 470.0521
511.3800, 469.3664
511.8622, 469.0358
512.3443, 469.2780
512.8264, 469.8142
513.3085, 470.2038
513.7906, 470.5499
514.2728, 471.2193
514.7549, 473.1490
515.2370, 475.0231
515.7191, 475.3759
516.2012, 474.0127
516.6833, 473.1088
517.1655, 473.2751
517.6476, 474.5543
518.1297, 477.0151
518.6118, 482.7175
519.0939, 487.0564
519.5760, 488.1627
520.0582, 487.4690
520.5403, 488.5026
521.0224, 492.7216
521.5045, 496.5888
521.9866, 498.8866
522.4688, 499.6258
522.9509, 501.5440
523.4330, 505.0037
523.9151, 508.8047
524.3972, 512.1097
524.8793, 514.8943
525.3615, 517.4436
525.8436, 519.8509
526.3257, 521.8809
526.8078, 522.7766
527.2899, 522.8224
527.7720, 523.4012
528.2542, 525.5533
528.7363, 528.1280
529.2184, 529.4554
529.7005, 529.7290
530.1826, 530.0710
530.6647, 531.9903
531.1469, 533.7802
531.6290, 533.7379
532.1111, 531.2488
532.5932, 528.8345
533.0753, 527.4853
533.5574, 526.7184
534.0396, 526.0540
534.5217, 525.6428
535.0038, 525.0566
535.4859, 524.1389
535.9680, 523.0007
536.4501, 522.0024
536.9323, 521.3622
537.4144, 520.4804
537.8965, 518.9589
538.3786, 516.7673
538.8607, 515.5504
539.3428, 515.6257
539.8250, 515.7067
540.3071, 514.1734
540.7892, 511.2948
541.2713, 509.6422
541.7534, 509.8392
542.2355, 510.7427
542.7177, 510.8016
543.1998, 510.2384
543.6819, 509.7606
544.1640, 509.6118
544.6461, 509.7596
545.1282, 510.4690
545.6104, 511.5945
546.0925, 512.2551
546.5746, 510.9762
547.0567, 509.7943
547.5388, 510.1510
548.0209, 512.5977
548.5031, 515.4225
548.9852, 518.8224
549.4673, 522.1835
549.9494, 524.8568
550.4315, 526.4954
550.9136, 527.9305
551.3958, 528.9733
551.8779, 529.9333
552.3600, 531.7387
552.8421, 534.5129
553.3242, 537.7218
553.8063, 541.3090
554.2885, 545.1934
554.7706, 548.6299
555.2527, 551.5720
555.7348, 554.5707
556.2169, 558.2794
556.6990, 562.4014
557.1812, 566.2038
557.6633, 569.4918
558.1454, 572.7692
558.6275, 576.5432
559.1096, 580.6357
559.5917, 584.8151
560.0739, 588.7055
560.5560, 592.8679
561.0381, 598.0757
561.5202, 603.9180
562.0023, 608.8062
562.4844, 611.5228
562.9666, 613.8998
563.4487, 616.5628
563.9308, 619.4015
564.4129, 623.0974
564.8950, 628.1212
565.3771, 633.4782
565.8593, 638.5204
566.3414, 643.3615
566.8235, 647.4417
567.3056, 650.7493
567.7877, 653.2775
568.2698, 654.8679
568.7520, 655.5762
569.2341, 656.0992
569.7162, 657.0377
570.1983, 657.7557
570.6804, 657.3182
571.1625, 655.6960
571.6447, 652.6660
572.1268, 647.3839
572.6089, 641.0364
573.0910, 635.0745
573.5731, 629.7933
574.0552, 623.4300
574.5374, 614.5952
575.0195, 604.5077
575.5016, 594.2770
575.9837, 583.3375
576.4658, 573.2446
576.9479, 564.1747
577.4301, 555.9285
577.9122, 548.1018
578.3943, 540.6140
578.8764, 533.5090
579.3585, 526.7717
579.8406, 520.4070
580.3228, 514.5356
580.8049, 509.1966
581.2870, 504.1220
581.7691, 499.1552
582.2512, 494.2915
582.7333, 489.2934
583.2155, 484.0883
583.6975, 479.2802
584.1796, 475.0432
584.6617, 471.5872
585.1439, 469.3543
585.6260, 469.1198
586.1081, 468.9557
586.5902, 467.1958
587.0723, 464.7193
587.5544, 463.2471
588.0366, 464.0359
588.5187, 465.0818
589.0008, 465.7641
589.4829, 466.0807
589.9650, 466.4998
590.4471, 466.9938
590.9293, 467.6021
591.4114, 468.3434
591.8935, 469.2273
592.3756, 470.1110
592.8577, 470.9332
593.3398, 471.9196
593.8220, 473.4789
594.3041, 475.5162
594.7862, 477.1631
595.2683, 478.0783
595.7504, 479.0743
596.2325, 481.5538
596.7147, 485.0159
597.1968, 488.1009
597.6789, 489.7478
598.1610, 491.2308
598.6431, 493.5471
599.1252, 496.5349
599.6074, 499.4337
600.0895, 502.1244
600.5716, 504.5580
601.0537, 506.7159
601.5358, 508.5609
602.0179, 510.1327
602.5001, 511.1061
602.9822, 512.1366
603.4643, 513.8366
603.9464, 516.5650
604.4285, 518.4857
604.9106, 519.2111
605.3928, 519.6389
605.8749, 521.4235
606.3570, 524.4378
606.8391, 526.9326
607.3212, 528.3801
607.8033, 529.0228
608.2855, 528.9343
608.7676, 528.2870
609.2497, 527.7219
609.7318, 527.7755
610.2139, 527.9123
610.6960, 527.7929
611.1782, 527.3905
611.6603, 526.6409
612.1424, 525.3428
612.6245, 523.8135
613.1066, 522.2577
613.5887, 520.7413
614.0709, 519.0820
614.5530, 517.4290
615.0351, 515.4935
615.5172, 512.7405
615.9993, 508.7877
616.4814, 505.7935
616.9636, 504.4006
617.4457, 503.6129
617.9278, 501.3311
618.4099, 497.6878
618.8920, 494.1237
619.3741, 491.1458
619.8563, 488.6014
620.3384, 486.4629
620.8205, 484.6569
621.3026, 482.8345
621.7847, 480.7690
622.2668, 478.6145
622.7490, 476.5232
623.2311, 474.5034
623.7132, 472.5075
624.1953, 470.4677
624.6774, 468.5018
625.1595, 466.6917
625.6417, 465.0683
626.1238, 463.5549
626.6059, 462.1440
627.0880, 460.8879
627.5701, 459.9103
628.0522, 459.2448
628.5344, 458.6002
629.0165, 457.9963
629.4986, 457.2589
629.9807, 455.9984
630.4628, 454.2619
630.9449, 452.3667
631.4271, 450.0847
631.9092, 447.9415
632.3913, 446.7591
632.8734, 446.3570
633.3555, 445.6680
633.8376, 443.5797
634.3198, 441.4730
634.8019, 440.3257
635.2840, 440.5054
635.7661, 440.1569
636.2482, 438.7300
636.7303, 437.0168
637.2125, 435.5074
637.6946, 434.1621
638.1767, 433.1695
638.6588, 432.6114
639.1409, 432.2896
639.6230, 432.0226
640.1052, 431.7979
640.5873, 431.3431
641.0694, 430.4866
641.5515, 429.5617
642.0336, 429.2517
642.5157, 429.3246
642.9979, 429.0934
643.4800, 427.7808
643.9621, 426.4070
644.4442, 425.7739
644.9263, 425.7692
645.4084, 425.6908
645.8906, 425.1735
646.3727, 424.6591
646.8548, 424.3437
647.3369, 424.2357
647.8190, 424.2580
648.3011, 424.3910
648.7833, 424.6853
649.2654, 425.3015
649.7475, 426.3090
650.2296, 426.7355
650.7117, 426.4078
651.1938, 425.9684
651.6760, 426.2138
652.1581, 427.0034
652.6402, 427.9004
653.1223, 428.7878
653.6044, 429.7483
654.0865, 431.1468
654.5687, 432.6531
655.0508, 433.6444
655.5329, 433.3256
656.0150, 433.0411
656.4971, 433.2572
656.9792, 433.9294
657.4614, 434.7788
657.9435, 436.0005
658.4256, 437.0868
658.9077, 437.7756
659.3898, 438.0968
659.8719, 438.9200
660.3541, 440.3752
660.8362, 441.7163
661.3183, 442.1650
661.8004, 442.0336
662.2825, 442.6219
662.7646, 444.0213
663.2468, 445.7823
663.7289, 447.8769
664.2110, 449.9542
664.6931, 451.4815
665.1752, 452.1103
665.6573, 452.8263
666.1395, 453.9287
666.6216, 455.4240
667.1037, 457.3192
667.5858, 460.3149
668.0679, 462.8091
668.5500, 464.4565
669.0322, 465.6210
669.5143, 467.0594
669.9964, 468.8379
670.4785, 470.5553
670.9606, 471.9423
671.4427, 473.2909
671.9249, 475.5835
672.4070, 478.7051
672.8891, 481.6832
673.3712, 483.8039
673.8533, 485.5312
674.3354, 487.1564
674.8176, 488.7524
675.2997, 490.8169
675.7818, 494.2028
676.2639, 497.6549
676.7460, 500.2904
677.2281, 501.6275
677.7103, 503.5263
678.1924, 506.5174
678.6745, 509.6117
679.1566, 511.9982
679.6387, 513.4110
680.1208, 515.4843
680.6030, 518.4573
681.0851, 521.7428
681.5672, 524.8317
682.0493, 527.6774
682.5314, 530.1564
683.0135, 532.0648
683.4957, 533.9379
683.9778, 536.3895
684.4599, 539.1966
684.9420, 541.8453
685.4241, 543.6877
685.9063, 545.8817
686.3884, 549.1856
686.8705, 553.2480
687.3526, 556.8593
687.8347, 559.6694
688.3168, 562.5251
688.7990, 565.6491
689.2811, 569.0247
689.7632, 572.1275
690.2453, 574.8492
690.7274, 577.9869
691.2095, 582.4121
691.6917, 587.5383
692.1738, 591.6618
692.6559, 594.7372
693.1380, 597.4440
693.6201, 600.1132
694.1022, 602.7178
694.5844, 605.2506
695.0665, 607.6815
695.5486, 610.0826
696.0307, 612.7576
696.5128, 615.2114
696.9949, 617.1179
697.4771, 618.6851
697.9592, 619.2352
698.4413, 618.4803
698.9234, 617.0864
699.4055, 616.0166
699.8876, 615.3031
700.3698, 613.5997
700.8519, 610.5706
701.3340, 606.8537
701.8161, 603.2772
702.2982, 599.7374
702.7803, 595.9708
703.2625, 591.9872
703.7446, 587.6017
704.2267, 582.7914
704.7088, 577.5095
705.1909, 571.6643
705.6730, 564.0131
706.1552, 557.2624
706.6373, 552.5369
707.1194, 549.2730
707.6015, 544.7614
708.0836, 538.6122
708.5657, 532.4133
709.0479, 526.5177
709.5300, 521.0803
710.0121, 517.1959
710.4942, 514.7748
710.9763, 512.1122
711.4584, 507.4622
711.9406, 502.1848
712.4227, 498.0543
712.9048, 495.1240
713.3869, 492.2991
713.8690, 488.8818
714.3511, 485.5262
714.8333, 482.6007
715.3154, 480.2032
715.7975, 478.2356
716.2796, 476.8350
716.7617, 475.6944
717.2438, 474.5473
717.7260, 473.3894
718.2081, 472.4228
718.6902, 471.6526
719.1723, 471.1547
719.6544, 471.1100
720.1365, 471.4103
720.6187, 471.8073
721.1008, 472.2877
721.5829, 472.7199
722.0650, 472.4909
722.5471, 472.3226
723.0292, 473.1874
723.5114, 476.7708
723.9935, 479.6345
724.4756, 480.6906
724.9577, 480.9235
725.4398, 482.0257
725.9219, 484.2338
726.4041, 486.5846
726.8862, 488.9249
727.3683, 491.2272
727.8504, 493.1654
728.3325, 494.8304
728.8146, 496.8858
729.2968, 499.8607
729.7789, 503.1549
730.2610, 505.9815
730.7431, 508.5304
731.2252, 511.4335
731.7073, 515.8680
732.1895, 519.8386
732.6716, 522.0369
733.1537, 522.6217
733.6358, 524.3279
734.1179, 527.8121
734.6000, 531.3680
735.0822, 534.3480
735.5643, 536.7874
736.0464, 538.8708
736.5285, 540.6059
737.0106, 541.9057
737.4927, 542.0322
737.9749, 541.9376
738.4570, 543.7279
738.9391, 547.4140
739.4212, 550.4802
739.9033, 551.5148
740.3854, 551.3120
740.8676, 550.2712
741.3497, 548.2079
741.8318, 546.1688
742.3139, 543.6830
742.7960, 541.8048
743.2781, 541.6414
743.7603, 543.6768
744.2424, 543.7637
744.7245, 541.4938
745.2066, 538.5402
745.6887, 536.5256
746.1708, 535.1900
746.6530, 534.0819
747.1351, 533.3090
747.6172, 531.8305
748.0993, 527.8007
748.5814, 523.1223
749.0635, 520.0256
749.5457, 520.3769
750.0278, 520.0719
750.5099, 517.9405
750.9920, 515.3366
751.4741, 513.9413
751.9562, 514.1536
752.4384, 513.8638
752.9205, 512.7154
753.4026, 511.1049
753.8847, 509.4015
754.3668, 507.7302
754.8489, 506.6649
755.3311, 506.7530
755.8132, 506.7965
756.2953, 505.5897
756.7774, 503.6329
757.2595, 501.8320
757.7416, 500.8005
758.2238, 499.5523
758.7059, 497.4376
759.1880, 495.0511
759.6701, 493.6846
760.1522, 493.6196
760.6343, 493.7232
761.1165, 493.9032
761.5986, 493.8893
762.0807, 492.6834
762.5628, 490.5240
763.0449, 488.7935
763.5270, 488.3809
764.0092, 488.4633
764.4913, 488.4806
764.9734, 488.3736
765.4555, 487.9654
765.9376, 486.9084
766.4197, 485.8348
766.9019, 485.0266
767.3840, 484.3983
767.8661, 483.4809
768.3482, 482.0753
768.8303, 480.9868
769.3124, 480.7566
769.7946, 481.0204
770.2767, 480.3622
770.7588, 478.8732
771.2409, 477.4077
771.7230, 476.5296
772.2051, 475.8961
772.6873, 475.2427
773.1694, 474.5464
773.6515, 473.7468
774.1336, 472.5625
774.6157, 471.5249
775.0978, 470.9842
775.5800, 470.9129
776.0621, 470.3404
776.5442, 468.9508
777.0263, 467.9702
777.5084, 468.4029
777.9905, 469.8412
778.4727, 470.3451
778.9548, 469.9434
779.4369, 469.1987
779.9190, 468.0875
780.4011, 467.0992
780.8832, 466.8345
781.3654, 467.3191
781.8475, 467.6913
782.3296, 467.7589
782.8117, 467.5529
783.2938, 466.9471
783.7759, 465.8457
784.2581, 465.6069
784.7402, 466.5037
785.2223, 467.4373
785.7044, 467.5366
786.1865, 467.0439
786.6686, 466.8305
787.1508, 466.9302
787.6329, 467.3882
788.1150, 468.5974
788.5971, 469.9644
789.0792, 470.8603
789.5613, 471.1800
790.0435, 471.4923
790.5256, 472.0652
791.0077, 472.5300
791.4898, 472.6106
791.9719, 472.1836
792.4540, 472.1385
792.9362, 472.4508
793.4183, 473.2110
793.9004, 474.9352
794.3825, 477.1297
794.8646, 478.1530
795.3467, 477.8844
795.8289, 477.6787
796.3110, 479.0586
796.7931, 480.5848
797.2752, 480.8374
797.7573, 479.2041
798.2394, 478.3472
798.7216, 478.8773
799.2037, 479.9110
799.6858, 480.9400
800.1679, 481.9565
800.6500, 483.1758
801.1321, 484.6710
801.6143, 486.0299
802.0964, 486.9541
802.5785, 487.4565
803.0606, 487.4107
803.5427, 486.7575
804.0248, 486.2616
804.5070, 486.1402
804.9891, 486.5048
805.4712, 487.6089
805.9533, 489.9836
806.4354, 491.3898
806.9175, 491.3676
807.3997, 491.0238
807.8818, 491.1535
808.3639, 491.7438
808.8460, 492.3989
809.3281, 493.1281
809.8102, 493.6386
810.2924, 493.6094
810.7745, 493.2289
811.2566, 492.5956
811.7387, 491.6646
812.2208, 491.1950
812.7029, 492.4441
813.1851, 493.5572
813.6672, 492.9499
814.1493, 489.8254
814.6314, 488.6386
815.1135, 489.9849
815.5956, 491.8065
816.0778, 492.4417
816.5599, 492.1203
817.0420, 491.9164
817.5241, 491.8862
818.0062, 491.6699
818.4883, 490.7992
818.9705, 489.7039
819.4526, 488.6808
819.9347, 487.7020
820.4168, 487.3178
820.8989, 488.1387
821.3810, 489.1428
821.8632, 489.9662
822.3453, 490.6794
822.8274, 490.3530
823.3095, 488.8443
823.7916, 487.2580
824.2737, 486.6174
824.7559, 486.5103
825.2380, 485.9789
825.7201, 484.9991
826.2022, 484.3835
826.6843, 485.2802
827.1664, 486.2074
827.6486, 485.9278
828.1307, 484.0439
828.6128, 483.1902
829.0949, 483.6719
829.5770, 484.6577
830.0591, 485.9176
830.5413, 487.3697
831.0234, 488.1578
831.5055, 488.2826
831.9876, 488.0622
832.4697, 487.4862
832.9518, 486.8346
833.4340, 486.2021
833.9161, 485.6548
834.3982, 485.8443
834.8803, 488.0636
835.3624, 490.0175
835.8445, 490.6517
836.3267, 490.0235
836.8088, 489.3571
837.2909, 488.5763
837.7730, 488.1427
838.2551, 488.4052
838.7372, 489.1764
839.2194, 490.1379
839.7015, 491.2312
840.1836, 492.1088
840.6657, 492.4398
841.1478, 492.6082
841.6299, 492.8191
842.1121, 493.0732
842.5942, 493.2852
843.0763, 493.3568
843.5584, 493.5367
844.0405, 493.8925
844.5226, 494.4134
845.0048, 495.0215
845.4869, 495.7255
845.9690, 496.7196
846.4511, 498.5870
846.9332, 500.3705
847.4153, 500.8592
847.8975, 500.3973
848.3796, 499.9526
848.8617, 499.4035
849.3438, 499.4830
849.8259, 500.6311
850.3080, 502.4742
850.7902, 504.0671
851.2723, 505.3502
851.7544, 506.7025
852.2365, 508.2870
852.7186, 509.9106
853.2007, 511.3615
853.6829, 512.5686
854.1650, 513.3274
854.6471, 512.9274
855.1292, 512.8731
855.6113, 514.2982
856.0934, 516.4435
856.5756, 517.9099
857.0577, 518.2219
857.5398, 518.7164
858.0219, 519.5779
858.5040, 520.6302
858.9861, 521.5974
859.4683, 522.4950
859.9504, 523.4648
860.4325, 524.6410
860.9146, 525.5204
861.3967, 525.6699
861.8788, 525.2292
862.3610, 524.2785
862.8431, 521.7972
863.3252, 520.7648
863.8073, 522.1258
864.2894, 524.2300
864.7715, 525.4841
865.2537, 525.8541
865.7358, 526.2687
866.2179, 526.8494
866.7000, 527.2109
867.1821, 526.6702
867.6642, 525.7986
868.1464, 525.4003
868.6285, 525.6131
869.1106, 526.2108
869.5927, 527.2368
870.0748, 528.5283
870.5569, 530.0280
871.0391, 531.8035
871.5212, 533.1813
872.0033, 534.0921
872.4854, 534.7714
872.9675, 535.1765
873.4496, 535.5058
873.9318, 536.2410
874.4139, 537.3752
874.8960, 538.7308
875.3781, 540.7787
875.8602, 542.5134
876.3423, 542.9180
876.8245, 541.9991
877.3066, 542.3553
877.7887, 544.6061
878.2708, 546.7857
878.7529, 548.0993
879.2350, 548.7780
879.7172, 549.4121
880.1993, 550.0570
880.6814, 551.0346
881.1635, 552.8755
881.6456, 554.8013
882.1277, 556.1213
882.6099, 557.0428
883.0920, 558.2007
883.5741, 559.8632
884.0562, 561.5381
884.5383, 563.1654
885.0204, 564.7397
885.5026, 566.1272
885.9847, 567.3561
886.4668, 569.0533
886.9489, 571.5154
887.4310, 574.2283
887.9131, 576.6906
888.3953, 578.9816
888.8774, 581.2629
889.3595, 583.9895
889.8416, 586.0695
890.3237, 586.9529
890.8058, 587.5081
891.2880, 588.7174
891.7701, 590.6532
892.2522, 592.2813
892.7343, 593.5010
893.2164, 594.5529
893.6985, 595.2522
894.1807, 596.1219
894.6628, 598.2108
895.1449, 601.8945
895.6270, 605.0577
896.1091, 606.4642
896.5912, 607.5443
897.0734, 609.1942
897.5555, 611.4619
898.0376, 613.7307
898.5197, 616.0760
899.0018, 617.9200
899.4839, 618.2648
899.9661, 618.0612
900.4482, 619.3082
900.9303, 621.8204
901.4124, 624.0856
901.8945, 625.3096
902.3766, 626.1853
902.8588, 627.0297
903.3409, 627.8017
903.8230, 628.1860
904.3051, 627.9440
904.7872, 628.3056
905.2693, 630.0290
905.7515, 632.1492
906.2336, 632.5457
906.7157, 631.6862
907.1978, 630.9196
907.6799, 630.3964
908.1620, 630.6004
908.6442, 632.3350
909.1263, 634.7614
909.6084, 636.5403
910.0905, 637.7022
910.5726, 637.9958
911.0547, 637.1886
911.5369, 636.0567
912.0190, 635.3939
912.5011, 635.2493
912.9832, 635.9102
913.4653, 637.5457
913.9474, 639.1697
914.4296, 639.9851
914.9117, 640.6279
915.3938, 641.6661
915.8759, 643.2455
916.3580, 644.7333
916.8401, 646.1815
917.3223, 647.3818
917.8044, 647.9065
918.2865, 648.0615
918.7686, 649.1039
919.2507, 650.9752
919.7328, 653.0088
920.2150, 654.6830
920.6971, 656.4979
921.1792, 659.0639
921.6613, 662.2197
922.1434, 664.6012
922.6255, 666.0153
923.1077, 667.0424
923.5898, 667.6002
924.0719, 668.1408
924.5540, 670.0052
925.0361, 672.8701
925.5182, 675.3491
926.0004, 676.5808
926.4825, 677.8625
926.9646, 680.0922
927.4467, 682.8680
927.9288, 685.5836
928.4109, 688.3192
928.8931, 690.7250
929.3752, 692.6995
929.8573, 694.4756
930.3394, 696.0546
930.8215, 697.6547
931.3036, 700.5219
931.7858, 704.9456
932.2679, 708.5755
932.7500, 708.9561
933.2321, 708.5644
933.7142, 709.4291
934.1964, 711.9474
934.6785, 713.9047
935.1606, 715.1644
935.6427, 716.1690
936.1248, 716.8989
936.6069, 717.6183
937.0891, 719.3780
937.5712, 721.9969
938.0533, 724.4718
938.5354, 726.4454
939.0175, 727.9134
939.4996, 728.5095
939.9818, 728.5698
940.4639, 729.0553
940.9460, 730.0855
941.4281, 731.2902
941.9102, 732.7552
942.3923, 734.0359
942.8745, 734.1139
943.3566, 733.4192
943.8387, 733.1922
944.3208, 733.7686
944.8029, 734.7215
945.2850, 736.7872
945.7672, 738.5113
946.2493, 738.1973
946.7314, 734.9384
947.2135, 733.6990
947.6956, 735.0998
948.1777, 736.4349
948.6599, 735.0057
949.1420, 732.0945
949.6241, 730.8143
950.1062, 731.1085
950.5883, 731.8055
951.0704, 732.5955
951.5526, 733.3085
952.0347, 734.3281
952.5168, 735.2351
952.9989, 734.0586
953.4810, 730.2436
953.9631, 726.9410
954.4453, 725.0410
954.9274, 724.1276
955.4095, 724.3601
955.8916, 724.9367
956.3737, 723.9892
956.8558, 719.7646
957.3380, 716.1655
957.8201, 715.2562
958.3022, 715.0792
958.7843, 713.5879
959.2664, 710.2451
959.7485, 709.0472
960.2307, 710.4178
960.7128, 711.6786
961.1949, 709.8898
961.6770, 706.7946
962.1591, 704.8266
962.6412, 704.1000
963.1234, 703.6815
963.6055, 703.4547
964.0876, 703.2209
964.5697, 702.8451
965.0518, 702.3973
965.5339, 702.4717
966.0161, 703.0582
966.4982, 702.6075
966.9803, 699.8822
967.4624, 696.9092
967.9445, 696.1786
968.4266, 696.7478
968.9088, 697.0752
969.3909, 696.4662
969.8730, 696.0310
970.3551, 696.0997
970.8372, 696.0553
971.3193, 695.0017
971.8015, 693.1179
972.2836, 691.9716
972.7657, 691.7051
973.2478, 691.8959
973.7299, 692.4369
974.2120, 693.1351
974.6942, 693.9288
975.1763, 694.8046
975.6584, 695.2565
976.1405, 694.7683
976.6226, 694.9783
977.1047, 696.7534
977.5869, 699.4001
978.0690, 701.1172
978.5511, 701.9963
979.0332, 702.4391
979.5153, 702.4279
979.9974, 702.2725
980.4796, 702.0861
980.9617, 701.8712
981.4438, 701.5400
981.9259, 700.7069
982.4080, 701.1478
982.8901, 703.2462
983.3723, 705.5014
983.8544, 706.3322
984.3365, 706.2849
984.8186, 706.2123
985.3007, 706.2139
985.7828, 706.6094
986.2650, 708.1336
986.7471, 709.4617
987.2292, 709.9657
987.7113, 709.7881
988.1934, 709.5507
988.6755, 709.2256
989.1577, 709.4089
989.6398, 710.6396
990.1219, 711.9388
990.6040, 711.8734
991.0861, 711.1060
991.5682, 710.7715
992.0504, 711.8017
992.5325, 712.2698
993.0146, 711.5716
993.4967, 710.8925
993.9788, 711.6584
994.4609, 713.6251
994.9431, 714.5871
995.4252, 714.4364
995.9073, 713.8090
996.3894, 712.7258
996.8715, 711.7272
997.3536, 711.2452
997.8358, 711.2842
998.3179, 711.4084
998.8000, 711.7733
999.2821, 711.6835
999.7642, 710.5674
1000.246, 709.4232
1000.728, 711.0898
1001.211, 714.3362
1001.693, 715.8244
1002.175, 713.7433
1002.657, 711.5471
1003.139, 710.4787
1003.621, 710.1718
1004.103, 710.5386
1004.585, 711.9788
1005.068, 711.3812
1005.550, 708.5126
1006.032, 705.7715
1006.514, 705.2623
1006.996, 705.7045
1007.478, 705.5046
1007.960, 704.7297
1008.442, 704.1688
1008.924, 704.5075
1009.407, 704.4079
1009.889, 703.3996
1010.371, 701.9857
1010.853, 701.4093
1011.335, 701.4757
1011.817, 700.8187
1012.299, 698.9434
1012.781, 697.1326
1013.263, 696.8624
1013.746, 696.8104
1014.228, 695.4395
1014.710, 692.2045
1015.192, 690.4231
1015.674, 690.5110
1016.156, 690.7509
1016.638, 689.9477
1017.120, 688.6296
1017.603, 688.0456
1018.085, 687.9688
1018.567, 687.6381
1019.049, 686.0814
1019.531, 684.9532
1020.013, 684.7976
1020.495, 685.2438
1020.977, 686.0647
1021.459, 687.2797
1021.942, 687.3806
1022.424, 686.1036
1022.906, 684.2274
1023.388, 682.0775
1023.870, 679.9570
1024.352, 678.2423
1024.834, 677.0199
1025.316, 675.6556
1025.799, 674.0154
1026.281, 672.4789
1026.763, 671.2435
1027.245, 670.1996
1027.727, 669.0625
1028.209, 667.8131
1028.691, 666.3622
1029.173, 664.5746
1029.656, 662.7292
1030.138, 661.0995
1030.620, 659.3827
1031.102, 657.1631
1031.584, 654.2372
1032.066, 651.8223
1032.548, 649.9225
1033.030, 648.5118
1033.512, 648.0970
1033.995, 647.8156
1034.477, 646.5225
1034.959, 644.3359
1035.441, 642.2965
1035.923, 640.9882
1036.405, 639.2458
1036.887, 636.5829
1037.369, 633.6542
1037.851, 631.8835
1038.334, 630.9698
1038.816, 629.6218
1039.298, 627.5115
1039.780, 625.1302
1040.262, 622.0316
1040.744, 619.3590
1041.226, 618.2540
1041.708, 618.8215
1042.191, 618.5180
1042.673, 617.2423
1043.155, 615.9477
1043.637, 614.7275
1044.119, 614.1397
1044.601, 615.6240
1045.083, 618.2851
1045.565, 620.0179
1046.047, 619.8809
1046.530, 619.0773
1047.012, 617.1268
1047.494, 615.4383
1047.976, 615.7272
1048.458, 617.6926
1048.940, 620.1016
1049.422, 622.8375
1049.904, 625.1797
1050.386, 626.3754
1050.869, 627.3443
1051.351, 628.4260
1051.833, 629.7379
1052.315, 631.8624
1052.797, 634.9274
1053.279, 637.8134
1053.761, 640.1545
1054.243, 642.4979
1054.726, 645.7178
1055.208, 649.3176
1055.690, 652.5770
1056.172, 655.2132
1056.654, 657.9845
1057.136, 661.0790
1057.618, 664.1168
1058.100, 666.6848
1058.583, 669.0477
1059.065, 672.4730
1059.547, 676.7238
1060.029, 680.7286
1060.511, 683.4964
1060.993, 686.2968
1061.475, 689.7558
1061.957, 693.4995
1062.439, 696.9627
1062.922, 700.0800
1063.404, 703.7632
1063.886, 708.1806
1064.368, 712.0575
1064.850, 713.5794
1065.332, 714.5234
1065.814, 717.0045
1066.296, 720.9467
1066.778, 723.6924
1067.261, 724.5428
1067.743, 725.2516
1068.225, 726.0760
1068.707, 727.2969
1069.189, 730.1651
1069.671, 733.7136
1070.153, 735.5760
1070.635, 734.8958
1071.118, 733.4954
1071.600, 732.2150
1072.082, 730.2903
1072.564, 727.1661
1073.046, 722.9673
1073.528, 718.7849
1074.010, 714.6519
1074.492, 710.4102
1074.974, 706.0879
1075.457, 701.5756
1075.939, 696.8412
1076.421, 691.8637
1076.903, 686.3948
1077.385, 679.8837
1077.867, 674.8617
1078.349, 671.7487
1078.831, 668.8730
1079.313, 664.4792
1079.796, 659.4384
1080.278, 655.0508
1080.760, 651.2758
1081.242, 647.6073
1081.724, 643.9977
1082.206, 640.2908
1082.688, 636.3885
1083.170, 632.5632
1083.652, 629.5712
1084.135, 627.1282
1084.617, 624.0430
1085.099, 619.9357
1085.581, 616.4300
1086.063, 615.2907
1086.545, 614.3196
1087.027, 611.7809
1087.509, 607.9557
1087.992, 606.0236
1088.474, 606.0127
1088.956, 605.5203
1089.438, 603.2662
1089.920, 600.6619
1090.402, 599.1779
1090.884, 598.1479
1091.366, 596.6357
1091.849, 594.2918
1092.331, 592.1320
1092.813, 590.2683
1093.295, 588.2075
1093.777, 585.3787
1094.259, 582.2087
1094.741, 579.2255
1095.223, 576.5331
1095.705, 574.4553
1096.188, 574.0624
1096.670, 572.9885
1097.152, 570.6864
1097.634, 567.7897
1098.116, 564.9606
1098.598, 562.1994
1099.080, 559.7064
1099.562, 557.4785
1100.044, 554.9596
1100.527, 551.3097
1101.009, 547.7866
1101.491, 545.3314
1101.973, 543.4920
1102.455, 540.7473
1102.937, 537.0793
1103.419, 533.9737
1103.901, 531.8936
1104.384, 530.2044
1104.866, 528.4250
1105.348, 526.6849
1105.830, 525.1913
1106.312, 523.2803
1106.794, 522.2944
1107.276, 519.7059
1107.758, 517.3728
1108.240, 515.7186
1108.723, 514.6542
1109.205, 514.0428
1109.687, 513.8549
1110.169, 514.0733
1110.651, 515.4066
1111.133, 515.7581
1111.615, 514.7809
1112.097, 513.2279
1112.579, 511.2655
1113.062, 509.2335
1113.544, 508.6591
1114.026, 509.2416
1114.508, 509.5161
1114.990, 508.7882
1115.472, 507.5845
1115.954, 505.7202
1116.436, 503.8032
1116.919, 502.6939
1117.401, 502.3325
1117.883, 502.0438
1118.365, 501.7738
1118.847, 501.1968
1119.329, 499.4838
1119.811, 497.9484
1120.293, 497.8336
1120.776, 498.6196
1121.258, 498.3940
1121.740, 497.0155
1122.222, 496.0304
1122.704, 495.8471
1123.186, 495.7137
1123.668, 494.4692
1124.150, 493.0884
1124.632, 492.9305
1125.115, 491.7894
1125.597, 493.9390
1126.079, 490.9366
1126.561, 488.9003
1127.043, 489.5483
1127.525, 491.3102
1128.007, 492.0237
1128.489, 491.8687
1128.971, 491.0186
1129.454, 489.0431
1129.936, 487.7866
1130.418, 487.8742
1130.900, 487.8075
1131.382, 486.3089
1131.864, 484.1136
1132.346, 483.6286
1132.828, 484.4019
1133.311, 484.9441
1133.793, 484.0418
1134.275, 483.6044
1134.757, 484.4894
1135.239, 485.4971
1135.721, 485.3177
1136.203, 484.1349
1136.685, 483.7220
1137.167, 484.0362
1137.650, 484.1576
1138.132, 483.5870
1138.614, 482.6266
1139.096, 481.0348
1139.578, 479.3200
1140.060, 478.3037
1140.542, 477.9937
1141.024, 478.1021
1141.506, 478.6366
1141.989, 479.0158
1142.471, 478.6915
1142.953, 478.1239
1143.435, 477.4792
1143.917, 476.8904
1144.399, 476.8803
1144.881, 477.5545
1145.363, 478.1476
1145.846, 478.5306
1146.328, 478.5666
1146.810, 478.0199
1147.292, 477.0846
1147.774, 475.7744
1148.256, 474.0494
1148.738, 473.0891
1149.220, 473.1736
1149.703, 473.0113
1150.185, 472.0331
1150.667, 470.8224
1151.149, 469.7925
1151.631, 469.2892
1152.113, 470.1871
1152.595, 473.6184
1153.077, 474.7760
1153.559, 472.5784
1154.042, 470.0689
1154.524, 468.7108
1155.006, 468.2284
1155.488, 468.2271
1155.970, 468.5784
1156.452, 468.9994
1156.934, 469.8186
1157.416, 469.8343
1157.898, 468.3704
1158.381, 467.0455
1158.863, 467.5952
1159.345, 469.2740
1159.827, 468.7478
1160.309, 466.5259
1160.791, 464.6787
1161.273, 464.1157
1161.755, 464.1371
1162.238, 464.8455
1162.720, 465.6987
1163.202, 466.1207
1163.684, 466.1633
1164.166, 466.2574
1164.648, 466.3868
1165.130, 466.2299
1165.612, 465.1921
1166.094, 464.3022
1166.577, 464.0945
1167.059, 464.2379
1167.541, 464.3435
1168.023, 464.3937
1168.505, 463.9545
1168.987, 462.9800
1169.469, 462.2444
1169.951, 462.0647
1170.433, 462.5195
1170.916, 464.3738
1171.398, 466.7206
1171.880, 467.0359
1172.362, 465.3545
1172.844, 464.3466
1173.326, 464.5739
1173.808, 465.0290
1174.290, 465.0860
1174.773, 464.8545
1175.255, 464.0516
1175.737, 462.9518
1176.219, 463.3873
1176.701, 465.4813
1177.183, 466.3997
1177.665, 465.0526
1178.147, 463.5008
1178.630, 463.8377
1179.112, 464.8581
1179.594, 465.4548
1180.076, 465.5620
1180.558, 465.4531
1181.040, 465.0929
1181.522, 464.9039
1182.004, 465.1301
1182.486, 465.4150
1182.969, 465.2424
1183.451, 464.9747
1183.933, 465.1637
1184.415, 466.0194
1184.897, 466.0880
1185.379, 465.2147
1185.861, 464.5092
1186.343, 464.6377
1186.825, 465.0846
1187.308, 465.4022
1187.790, 465.5637
1188.272, 465.5056
1188.754, 465.1743
1189.236, 464.6641
1189.718, 463.8582
1190.200, 463.5199
1190.682, 464.7258
1191.165, 466.2055
1191.647, 466.0968
1192.129, 465.0688
1192.611, 464.4986
1193.093, 465.1669
1193.575, 464.9032
1194.057, 463.3480
1194.539, 462.2238
1195.021, 463.6240
1195.504, 465.7310
1195.986, 465.7854
1196.468, 464.4471
1196.950, 463.7727
1197.432, 464.4451
1197.914, 465.0165
1198.396, 465.3965
1198.878, 465.6672
1199.360, 465.8664
1199.843, 466.0288
1200.325, 466.2724
1200.807, 466.5398
1201.289, 466.5601
1201.771, 466.1920
1202.253, 465.7755
1202.735, 465.2628
1203.217, 465.0213
1203.700, 465.6894
1204.182, 466.7517
1204.664, 467.4765
1205.146, 467.8571
1205.628, 468.2852
1206.110, 469.1553
1206.592, 469.1750
1207.074, 467.8409
1207.557, 466.4331
1208.039, 466.8466
1208.521, 468.0407
1209.003, 468.3669
1209.485, 467.7630
1209.967, 467.8430
1210.449, 469.3725
1210.931, 470.1472
1211.413, 469.5378
1211.896, 468.4957
1212.378, 468.1637
1212.860, 468.3028
1213.342, 468.7881
1213.824, 469.6024
1214.306, 469.5839
1214.788, 468.0997
1215.270, 467.4141
1215.752, 468.4518
1216.235, 469.7163
1216.717, 468.9176
1217.199, 467.0317
1217.681, 464.9750
1218.163, 462.7560
1218.645, 463.4137
1219.127, 468.5717
1219.609, 471.9058
1220.092, 470.9914
1220.574, 468.3386
1221.056, 467.0287
1221.538, 466.7314
1222.020, 467.2080
1222.502, 468.5768
1222.984, 469.1276
1223.466, 468.4184
1223.948, 468.1830
1224.431, 469.2333
1224.913, 470.6779
1225.395, 471.3578
1225.877, 471.5307
1226.359, 471.5785
1226.841, 471.5897
1227.323, 471.1226
1227.805, 470.0038
1228.287, 469.1463
1228.770, 469.0645
1229.252, 469.1847
1229.734, 468.4258
1230.216, 467.5253
1230.698, 467.6629
1231.180, 469.3637
1231.662, 470.0853
1232.144, 469.6711
1232.627, 469.2039
1233.109, 469.1060
1233.591, 469.3242
1234.073, 470.2616
1234.555, 471.2464
1235.037, 471.2470
1235.519, 469.9875
1236.001, 469.0201
1236.484, 468.3484
1236.966, 468.0869
1237.448, 468.5385
1237.930, 469.0586
1238.412, 468.8441
1238.894, 468.3709
1239.376, 468.3078
1239.858, 468.7201
1240.340, 469.0493
1240.823, 469.2634
1241.305, 469.8029
1241.787, 471.1800
1242.269, 472.5468
1242.751, 473.1364
1243.233, 473.2880
1243.715, 473.4964
1244.197, 473.8459
1244.679, 473.3299
1245.162, 471.9698
1245.644, 470.9328
1246.126, 471.2331
1246.608, 471.5569
1247.090, 470.7179
1247.572, 469.6489
1248.054, 469.4700
1248.536, 470.2294
1249.019, 470.6756
1249.501, 470.8464
1249.983, 471.0947
1250.465, 471.7768
1250.947, 472.3815
1251.429, 472.7104
1251.911, 472.7634
1252.393, 472.5028
1252.875, 471.9339
1253.358, 470.8522
1253.840, 469.4838
1254.322, 469.3391
1254.804, 472.9533
1255.286, 475.6268
1255.768, 475.3293
1256.250, 473.8880
1256.732, 472.2871
1257.214, 470.7565
1257.697, 471.2388
1258.179, 473.2513
1258.661, 474.5307
1259.143, 472.7145
1259.625, 472.1321
1260.107, 474.3136
1260.589, 476.7141
1261.071, 476.9082
1261.554, 475.6566
1262.036, 475.3798
1262.518, 475.8201
1263.000, 476.0273
1263.482, 475.0947
1263.964, 474.8440
1264.446, 475.7488
1264.928, 476.5620
1265.411, 476.0439
1265.893, 474.8182
1266.375, 473.8993
1266.857, 473.2994
1267.339, 473.0228
1267.821, 473.3294
1268.303, 473.4997
1268.785, 473.4752
1269.267, 473.5243
1269.750, 473.9550
1270.232, 474.5144
1270.714, 475.1655
1271.196, 475.6368
1271.678, 475.0685
1272.160, 472.3689
1272.642, 472.4974
1273.124, 475.9690
1273.606, 478.7635
1274.089, 476.8969
1274.571, 474.0930
1275.053, 473.2835
1275.535, 474.0695
1276.017, 475.9179
1276.499, 479.3046
1276.981, 479.7273
1277.463, 477.1468
1277.946, 474.5981
1278.428, 474.1700
1278.910, 474.3089
1279.392, 474.2934
1279.874, 474.1958
1280.356, 474.0441
1280.838, 473.8526
1281.320, 474.2039
1281.802, 474.9975
1282.285, 475.3278
1282.767, 473.9850
1283.249, 473.0240
1283.731, 473.4221
1284.213, 474.2273
1284.695, 474.6230
1285.177, 474.7147
1285.659, 475.2584
1286.141, 476.0275
1286.624, 476.0832
1287.106, 473.6935
1287.588, 472.6890
1288.070, 474.0918
1288.552, 475.7370
1289.034, 475.6073
1289.516, 474.5294
1289.998, 474.3842
1290.481, 474.8564
1290.963, 475.1087
1291.445, 474.6149
1291.927, 474.4235
1292.409, 474.5724
1292.891, 474.8934
1293.373, 475.3942
1293.855, 475.8976
1294.338, 476.1713
1294.820, 476.2827
1295.302, 476.3132
1295.784, 476.1487
1296.266, 476.4946
1296.748, 477.3857
1297.230, 478.1553
1297.712, 478.3979
1298.194, 478.3508
1298.677, 477.9820
1299.159, 477.5463
1299.641, 477.3087
1300.123, 477.2609
1300.605, 477.4681
1301.087, 477.8790
1301.569, 478.0539
1302.051, 477.6022
1302.533, 477.0162
1303.016, 476.4300
##END=



