##NAMES=Opal
##RRUFFID=R060653
##IDEAL CHEMISTRY=SiO_2_&#183;<i>n</i>H_2_O
##LOCALITY=Brazil
##OWNER=RRUFF
##SOURCE=Gemological Institute of America
##DESCRIPTION=Colorless to blue tinted glassy amorphous fragment, variety opal-A
##STATUS=The identification of this mineral has been confirmed by X-ray diffraction and chemical analysis
##URL=rruff.info/R060653
##MEASURED CHEMISTRY=(Si_0.99_Al_0.01_)_Σ=2_(O_1.99_(OH)_0.01_)_Σ=2_· 0.17H_2_O
9.059570e+001, 5.467948e+002
9.107782e+001, 5.416065e+002
9.155994e+001, 5.397883e+002
9.204205e+001, 5.436659e+002
9.252417e+001, 5.493441e+002
9.300629e+001, 5.558002e+002
9.348840e+001, 5.596359e+002
9.397052e+001, 5.569261e+002
9.445264e+001, 5.458240e+002
9.493475e+001, 5.322668e+002
9.541687e+001, 5.207083e+002
9.589898e+001, 5.120776e+002
9.638110e+001, 5.051128e+002
9.686321e+001, 4.989021e+002
9.734533e+001, 4.927267e+002
9.782745e+001, 4.855117e+002
9.830956e+001, 4.781292e+002
9.879168e+001, 4.697293e+002
9.927380e+001, 4.622926e+002
9.975591e+001, 4.566324e+002
1.002380e+002, 4.522140e+002
1.007201e+002, 4.477642e+002
1.012023e+002, 4.424039e+002
1.016844e+002, 4.364130e+002
1.021665e+002, 4.310712e+002
1.026486e+002, 4.265490e+002
1.031307e+002, 4.224370e+002
1.036128e+002, 4.182071e+002
1.040950e+002, 4.136516e+002
1.045771e+002, 4.097787e+002
1.050592e+002, 4.077716e+002
1.055413e+002, 4.066988e+002
1.060234e+002, 4.052339e+002
1.065055e+002, 4.024589e+002
1.069877e+002, 3.987560e+002
1.074698e+002, 3.957986e+002
1.079519e+002, 3.943463e+002
1.084340e+002, 3.926710e+002
1.089161e+002, 3.901982e+002
1.093982e+002, 3.869451e+002
1.098804e+002, 3.830513e+002
1.103625e+002, 3.783759e+002
1.108446e+002, 3.725871e+002
1.113267e+002, 3.678587e+002
1.118088e+002, 3.646711e+002
1.122909e+002, 3.620186e+002
1.127731e+002, 3.595374e+002
1.132552e+002, 3.571393e+002
1.137373e+002, 3.548569e+002
1.142194e+002, 3.527629e+002
1.147015e+002, 3.508687e+002
1.151836e+002, 3.491587e+002
1.156658e+002, 3.478661e+002
1.161479e+002, 3.466376e+002
1.166300e+002, 3.451426e+002
1.171121e+002, 3.432589e+002
1.175942e+002, 3.410598e+002
1.180763e+002, 3.386579e+002
1.185584e+002, 3.359024e+002
1.190406e+002, 3.332839e+002
1.195227e+002, 3.307812e+002
1.200048e+002, 3.284973e+002
1.204869e+002, 3.268061e+002
1.209690e+002, 3.262279e+002
1.214511e+002, 3.260772e+002
1.219333e+002, 3.248942e+002
1.224154e+002, 3.221022e+002
1.228975e+002, 3.192596e+002
1.233796e+002, 3.180150e+002
1.238617e+002, 3.185858e+002
1.243438e+002, 3.188549e+002
1.248260e+002, 3.176587e+002
1.253081e+002, 3.156830e+002
1.257902e+002, 3.133393e+002
1.262723e+002, 3.106350e+002
1.267544e+002, 3.078280e+002
1.272365e+002, 3.055143e+002
1.277187e+002, 3.037354e+002
1.282008e+002, 3.024619e+002
1.286829e+002, 3.019121e+002
1.291650e+002, 3.017140e+002
1.296471e+002, 3.014062e+002
1.301292e+002, 3.007149e+002
1.306114e+002, 2.996507e+002
1.310935e+002, 2.983440e+002
1.315756e+002, 2.961910e+002
1.320577e+002, 2.943634e+002
1.325398e+002, 2.935146e+002
1.330219e+002, 2.932999e+002
1.335041e+002, 2.928602e+002
1.339862e+002, 2.913873e+002
1.344683e+002, 2.886344e+002
1.349504e+002, 2.864153e+002
1.354325e+002, 2.849531e+002
1.359146e+002, 2.837240e+002
1.363968e+002, 2.824514e+002
1.368789e+002, 2.811024e+002
1.373610e+002, 2.797887e+002
1.378431e+002, 2.786378e+002
1.383252e+002, 2.776554e+002
1.388073e+002, 2.768858e+002
1.392895e+002, 2.765572e+002
1.397716e+002, 2.763525e+002
1.402537e+002, 2.759545e+002
1.407358e+002, 2.753241e+002
1.412179e+002, 2.743829e+002
1.417000e+002, 2.728502e+002
1.421821e+002, 2.707845e+002
1.426643e+002, 2.688307e+002
1.431464e+002, 2.672513e+002
1.436285e+002, 2.659971e+002
1.441106e+002, 2.648991e+002
1.445927e+002, 2.640219e+002
1.450748e+002, 2.631867e+002
1.455570e+002, 2.622345e+002
1.460391e+002, 2.611649e+002
1.465212e+002, 2.600409e+002
1.470033e+002, 2.588539e+002
1.474854e+002, 2.575763e+002
1.479675e+002, 2.564894e+002
1.484497e+002, 2.558248e+002
1.489318e+002, 2.552536e+002
1.494139e+002, 2.546084e+002
1.498960e+002, 2.538559e+002
1.503781e+002, 2.530560e+002
1.508602e+002, 2.523431e+002
1.513424e+002, 2.518787e+002
1.518245e+002, 2.511087e+002
1.523066e+002, 2.495492e+002
1.527887e+002, 2.479606e+002
1.532708e+002, 2.470621e+002
1.537529e+002, 2.471059e+002
1.542351e+002, 2.476340e+002
1.547172e+002, 2.474976e+002
1.551993e+002, 2.458975e+002
1.556814e+002, 2.445342e+002
1.561635e+002, 2.435622e+002
1.566456e+002, 2.428446e+002
1.571278e+002, 2.422788e+002
1.576099e+002, 2.418289e+002
1.580920e+002, 2.414151e+002
1.585741e+002, 2.406754e+002
1.590562e+002, 2.392915e+002
1.595383e+002, 2.379864e+002
1.600205e+002, 2.368493e+002
1.605026e+002, 2.359144e+002
1.609847e+002, 2.352898e+002
1.614668e+002, 2.351096e+002
1.619489e+002, 2.352585e+002
1.624310e+002, 2.351935e+002
1.629131e+002, 2.350247e+002
1.633953e+002, 2.345745e+002
1.638774e+002, 2.335003e+002
1.643595e+002, 2.318798e+002
1.648416e+002, 2.305086e+002
1.653237e+002, 2.299630e+002
1.658058e+002, 2.300240e+002
1.662880e+002, 2.301306e+002
1.667701e+002, 2.303848e+002
1.672522e+002, 2.305367e+002
1.677343e+002, 2.302109e+002
1.682164e+002, 2.293028e+002
1.686985e+002, 2.284175e+002
1.691807e+002, 2.281603e+002
1.696628e+002, 2.280865e+002
1.701449e+002, 2.275683e+002
1.706270e+002, 2.260713e+002
1.711091e+002, 2.241640e+002
1.715912e+002, 2.232752e+002
1.720734e+002, 2.240547e+002
1.725555e+002, 2.246837e+002
1.730376e+002, 2.243683e+002
1.735197e+002, 2.234971e+002
1.740018e+002, 2.226134e+002
1.744839e+002, 2.220523e+002
1.749661e+002, 2.217406e+002
1.754482e+002, 2.212227e+002
1.759303e+002, 2.201739e+002
1.764124e+002, 2.192843e+002
1.768945e+002, 2.187702e+002
1.773766e+002, 2.185407e+002
1.778588e+002, 2.184652e+002
1.783409e+002, 2.184988e+002
1.788230e+002, 2.186449e+002
1.793051e+002, 2.183279e+002
1.797872e+002, 2.167858e+002
1.802693e+002, 2.155271e+002
1.807515e+002, 2.151984e+002
1.812336e+002, 2.155758e+002
1.817157e+002, 2.160213e+002
1.821978e+002, 2.159899e+002
1.826799e+002, 2.154243e+002
1.831620e+002, 2.148999e+002
1.836441e+002, 2.144561e+002
1.841263e+002, 2.140071e+002
1.846084e+002, 2.134682e+002
1.850905e+002, 2.128636e+002
1.855726e+002, 2.123187e+002
1.860547e+002, 2.119581e+002
1.865368e+002, 2.118127e+002
1.870190e+002, 2.116749e+002
1.875011e+002, 2.116053e+002
1.879832e+002, 2.115038e+002
1.884653e+002, 2.113320e+002
1.889474e+002, 2.110811e+002
1.894296e+002, 2.106751e+002
1.899117e+002, 2.099341e+002
1.903938e+002, 2.088796e+002
1.908759e+002, 2.080949e+002
1.913580e+002, 2.077195e+002
1.918401e+002, 2.076128e+002
1.923223e+002, 2.077150e+002
1.928044e+002, 2.080751e+002
1.932865e+002, 2.083511e+002
1.937686e+002, 2.080937e+002
1.942507e+002, 2.074530e+002
1.947328e+002, 2.068406e+002
1.952150e+002, 2.062827e+002
1.956971e+002, 2.058499e+002
1.961792e+002, 2.057070e+002
1.966613e+002, 2.059380e+002
1.971434e+002, 2.063147e+002
1.976255e+002, 2.068542e+002
1.981077e+002, 2.074325e+002
1.985898e+002, 2.076760e+002
1.990719e+002, 2.071884e+002
1.995540e+002, 2.061552e+002
2.000361e+002, 2.054050e+002
2.005182e+002, 2.051556e+002
2.010004e+002, 2.049177e+002
2.014825e+002, 2.043367e+002
2.019646e+002, 2.035478e+002
2.024467e+002, 2.028994e+002
2.029288e+002, 2.027292e+002
2.034109e+002, 2.029972e+002
2.038930e+002, 2.030067e+002
2.043752e+002, 2.025291e+002
2.048573e+002, 2.020101e+002
2.053394e+002, 2.015087e+002
2.058215e+002, 2.010939e+002
2.063036e+002, 2.008936e+002
2.067857e+002, 2.010780e+002
2.072679e+002, 2.016773e+002
2.077500e+002, 2.020747e+002
2.082321e+002, 2.022326e+002
2.087142e+002, 2.022059e+002
2.091963e+002, 2.019182e+002
2.096784e+002, 2.014372e+002
2.101606e+002, 2.008969e+002
2.106427e+002, 2.003806e+002
2.111248e+002, 1.998565e+002
2.116069e+002, 1.996775e+002
2.120890e+002, 2.002322e+002
2.125711e+002, 2.007360e+002
2.130533e+002, 2.008621e+002
2.135354e+002, 2.006438e+002
2.140175e+002, 2.003007e+002
2.144996e+002, 2.000271e+002
2.149817e+002, 1.998357e+002
2.154638e+002, 1.996230e+002
2.159460e+002, 1.994008e+002
2.164281e+002, 1.991531e+002
2.169102e+002, 1.988182e+002
2.173923e+002, 1.984294e+002
2.178744e+002, 1.981000e+002
2.183565e+002, 1.979252e+002
2.188387e+002, 1.979175e+002
2.193208e+002, 1.980916e+002
2.198029e+002, 1.988040e+002
2.202850e+002, 1.993919e+002
2.207671e+002, 1.993464e+002
2.212492e+002, 1.987041e+002
2.217314e+002, 1.979479e+002
2.222135e+002, 1.974327e+002
2.226956e+002, 1.971982e+002
2.231777e+002, 1.972708e+002
2.236598e+002, 1.980938e+002
2.241419e+002, 1.988985e+002
2.246240e+002, 1.989795e+002
2.251062e+002, 1.983344e+002
2.255883e+002, 1.976800e+002
2.260704e+002, 1.976842e+002
2.265525e+002, 1.982418e+002
2.270346e+002, 1.984363e+002
2.275167e+002, 1.978493e+002
2.279989e+002, 1.971033e+002
2.284810e+002, 1.967973e+002
2.289631e+002, 1.969693e+002
2.294452e+002, 1.972460e+002
2.299273e+002, 1.974025e+002
2.304094e+002, 1.974551e+002
2.308916e+002, 1.974514e+002
2.313737e+002, 1.973735e+002
2.318558e+002, 1.972553e+002
2.323379e+002, 1.970903e+002
2.328200e+002, 1.968560e+002
2.333021e+002, 1.967314e+002
2.337843e+002, 1.969022e+002
2.342664e+002, 1.972485e+002
2.347485e+002, 1.976116e+002
2.352306e+002, 1.980098e+002
2.357127e+002, 1.983588e+002
2.361948e+002, 1.985857e+002
2.366770e+002, 1.987221e+002
2.371591e+002, 1.986020e+002
2.376412e+002, 1.976674e+002
2.381233e+002, 1.965722e+002
2.386054e+002, 1.961286e+002
2.390875e+002, 1.967965e+002
2.395697e+002, 1.979173e+002
2.400518e+002, 1.983934e+002
2.405339e+002, 1.980181e+002
2.410160e+002, 1.976631e+002
2.414981e+002, 1.978219e+002
2.419802e+002, 1.981010e+002
2.424624e+002, 1.980597e+002
2.429445e+002, 1.974746e+002
2.434266e+002, 1.967409e+002
2.439087e+002, 1.966254e+002
2.443908e+002, 1.974390e+002
2.448729e+002, 1.980179e+002
2.453550e+002, 1.979113e+002
2.458372e+002, 1.975208e+002
2.463193e+002, 1.971225e+002
2.468014e+002, 1.967997e+002
2.472835e+002, 1.966004e+002
2.477656e+002, 1.966351e+002
2.482477e+002, 1.970151e+002
2.487299e+002, 1.973679e+002
2.492120e+002, 1.976836e+002
2.496941e+002, 1.979186e+002
2.501762e+002, 1.979843e+002
2.506583e+002, 1.978624e+002
2.511404e+002, 1.977031e+002
2.516226e+002, 1.978250e+002
2.521047e+002, 1.985423e+002
2.525868e+002, 1.988032e+002
2.530689e+002, 1.981979e+002
2.535510e+002, 1.973902e+002
2.540331e+002, 1.968059e+002
2.545153e+002, 1.965675e+002
2.549974e+002, 1.965662e+002
2.554795e+002, 1.966781e+002
2.559616e+002, 1.970578e+002
2.564437e+002, 1.972024e+002
2.569258e+002, 1.968685e+002
2.574080e+002, 1.965112e+002
2.578901e+002, 1.964654e+002
2.583722e+002, 1.967716e+002
2.588543e+002, 1.971983e+002
2.593364e+002, 1.974243e+002
2.598185e+002, 1.973276e+002
2.603007e+002, 1.973357e+002
2.607828e+002, 1.975087e+002
2.612649e+002, 1.977161e+002
2.617470e+002, 1.978687e+002
2.622291e+002, 1.979632e+002
2.627112e+002, 1.980662e+002
2.631934e+002, 1.982729e+002
2.636755e+002, 1.986635e+002
2.641576e+002, 1.988473e+002
2.646397e+002, 1.987783e+002
2.651218e+002, 1.985861e+002
2.656039e+002, 1.982043e+002
2.660861e+002, 1.977173e+002
2.665682e+002, 1.973958e+002
2.670503e+002, 1.975327e+002
2.675324e+002, 1.982209e+002
2.680145e+002, 1.987912e+002
2.684966e+002, 1.993692e+002
2.689788e+002, 1.997484e+002
2.694609e+002, 1.997544e+002
2.699430e+002, 1.994454e+002
2.704251e+002, 1.990123e+002
2.709072e+002, 1.985754e+002
2.713893e+002, 1.981285e+002
2.718715e+002, 1.979968e+002
2.723536e+002, 1.983627e+002
2.728357e+002, 1.987905e+002
2.733178e+002, 1.991733e+002
2.737999e+002, 1.994747e+002
2.742820e+002, 1.995864e+002
2.747642e+002, 1.993681e+002
2.752463e+002, 1.988897e+002
2.757284e+002, 1.990636e+002
2.762105e+002, 2.006694e+002
2.766926e+002, 2.019283e+002
2.771747e+002, 2.020066e+002
2.776568e+002, 2.012822e+002
2.781389e+002, 2.006265e+002
2.786211e+002, 2.005211e+002
2.791032e+002, 2.008296e+002
2.795853e+002, 2.009714e+002
2.800674e+002, 2.008348e+002
2.805495e+002, 2.007014e+002
2.810316e+002, 2.005016e+002
2.815138e+002, 2.003682e+002
2.819959e+002, 2.006349e+002
2.824780e+002, 2.015113e+002
2.829601e+002, 2.026570e+002
2.834422e+002, 2.031347e+002
2.839243e+002, 2.026340e+002
2.844065e+002, 2.021826e+002
2.848886e+002, 2.018361e+002
2.853707e+002, 2.017013e+002
2.858528e+002, 2.020435e+002
2.863349e+002, 2.029979e+002
2.868170e+002, 2.041605e+002
2.872992e+002, 2.048374e+002
2.877813e+002, 2.049189e+002
2.882634e+002, 2.049419e+002
2.887455e+002, 2.048627e+002
2.892276e+002, 2.048154e+002
2.897097e+002, 2.050814e+002
2.901919e+002, 2.057425e+002
2.906740e+002, 2.063289e+002
2.911561e+002, 2.061082e+002
2.916382e+002, 2.049079e+002
2.921203e+002, 2.043077e+002
2.926024e+002, 2.049026e+002
2.930846e+002, 2.059179e+002
2.935667e+002, 2.066257e+002
2.940488e+002, 2.069334e+002
2.945309e+002, 2.071086e+002
2.950130e+002, 2.074223e+002
2.954951e+002, 2.078644e+002
2.959773e+002, 2.080563e+002
2.964594e+002, 2.077424e+002
2.969415e+002, 2.073476e+002
2.974236e+002, 2.071186e+002
2.979057e+002, 2.070841e+002
2.983878e+002, 2.073414e+002
2.988700e+002, 2.080723e+002
2.993521e+002, 2.091759e+002
2.998342e+002, 2.099673e+002
3.003163e+002, 2.102646e+002
3.007984e+002, 2.104176e+002
3.012805e+002, 2.106582e+002
3.017627e+002, 2.109439e+002
3.022448e+002, 2.110621e+002
3.027269e+002, 2.108525e+002
3.032090e+002, 2.104314e+002
3.036911e+002, 2.101356e+002
3.041732e+002, 2.098430e+002
3.046554e+002, 2.098388e+002
3.051375e+002, 2.105802e+002
3.056196e+002, 2.117323e+002
3.061017e+002, 2.123554e+002
3.065838e+002, 2.119824e+002
3.070659e+002, 2.111311e+002
3.075481e+002, 2.107842e+002
3.080302e+002, 2.109602e+002
3.085123e+002, 2.113523e+002
3.089944e+002, 2.120257e+002
3.094765e+002, 2.128190e+002
3.099586e+002, 2.134871e+002
3.104408e+002, 2.139875e+002
3.109229e+002, 2.142547e+002
3.114050e+002, 2.140226e+002
3.118871e+002, 2.132547e+002
3.123692e+002, 2.128520e+002
3.128513e+002, 2.132447e+002
3.133335e+002, 2.139765e+002
3.138156e+002, 2.145380e+002
3.142977e+002, 2.148541e+002
3.147798e+002, 2.150319e+002
3.152619e+002, 2.150661e+002
3.157440e+002, 2.149923e+002
3.162262e+002, 2.152417e+002
3.167083e+002, 2.162795e+002
3.171904e+002, 2.173488e+002
3.176725e+002, 2.177571e+002
3.181546e+002, 2.175204e+002
3.186367e+002, 2.171544e+002
3.191188e+002, 2.169016e+002
3.196010e+002, 2.168237e+002
3.200831e+002, 2.170639e+002
3.205652e+002, 2.180012e+002
3.210473e+002, 2.188725e+002
3.215294e+002, 2.191817e+002
3.220115e+002, 2.190562e+002
3.224937e+002, 2.189561e+002
3.229758e+002, 2.191119e+002
3.234579e+002, 2.194025e+002
3.239400e+002, 2.194790e+002
3.244221e+002, 2.191482e+002
3.249042e+002, 2.190470e+002
3.253864e+002, 2.196683e+002
3.258685e+002, 2.206360e+002
3.263506e+002, 2.212149e+002
3.268327e+002, 2.211411e+002
3.273148e+002, 2.207403e+002
3.277969e+002, 2.204336e+002
3.282791e+002, 2.201663e+002
3.287612e+002, 2.202192e+002
3.292433e+002, 2.209996e+002
3.297254e+002, 2.219652e+002
3.302075e+002, 2.224202e+002
3.306896e+002, 2.222445e+002
3.311718e+002, 2.219197e+002
3.316539e+002, 2.218999e+002
3.321360e+002, 2.222169e+002
3.326181e+002, 2.226047e+002
3.331002e+002, 2.230205e+002
3.335823e+002, 2.235284e+002
3.340645e+002, 2.243029e+002
3.345466e+002, 2.252826e+002
3.350287e+002, 2.260796e+002
3.355108e+002, 2.263793e+002
3.359929e+002, 2.262512e+002
3.364750e+002, 2.262720e+002
3.369572e+002, 2.264310e+002
3.374393e+002, 2.267252e+002
3.379214e+002, 2.272871e+002
3.384035e+002, 2.279881e+002
3.388856e+002, 2.284835e+002
3.393677e+002, 2.285746e+002
3.398499e+002, 2.284517e+002
3.403320e+002, 2.286517e+002
3.408141e+002, 2.293774e+002
3.412962e+002, 2.300030e+002
3.417783e+002, 2.304567e+002
3.422604e+002, 2.307297e+002
3.427426e+002, 2.307055e+002
3.432247e+002, 2.303501e+002
3.437068e+002, 2.299868e+002
3.441889e+002, 2.301015e+002
3.446710e+002, 2.309702e+002
3.451531e+002, 2.315227e+002
3.456353e+002, 2.313095e+002
3.461174e+002, 2.310839e+002
3.465995e+002, 2.315994e+002
3.470816e+002, 2.328136e+002
3.475637e+002, 2.339650e+002
3.480458e+002, 2.343355e+002
3.485280e+002, 2.338761e+002
3.490101e+002, 2.336101e+002
3.494922e+002, 2.336809e+002
3.499743e+002, 2.337667e+002
3.504564e+002, 2.336465e+002
3.509385e+002, 2.334319e+002
3.514207e+002, 2.334013e+002
3.519028e+002, 2.337292e+002
3.523849e+002, 2.343385e+002
3.528670e+002, 2.349082e+002
3.533491e+002, 2.355860e+002
3.538312e+002, 2.360419e+002
3.543134e+002, 2.359786e+002
3.547955e+002, 2.357732e+002
3.552776e+002, 2.359123e+002
3.557597e+002, 2.365572e+002
3.562418e+002, 2.374230e+002
3.567239e+002, 2.380202e+002
3.572061e+002, 2.381073e+002
3.576882e+002, 2.384175e+002
3.581703e+002, 2.393661e+002
3.586524e+002, 2.402085e+002
3.591345e+002, 2.402554e+002
3.596166e+002, 2.395711e+002
3.600987e+002, 2.388608e+002
3.605808e+002, 2.388393e+002
3.610630e+002, 2.395985e+002
3.615451e+002, 2.401535e+002
3.620272e+002, 2.403112e+002
3.625093e+002, 2.404772e+002
3.629914e+002, 2.408285e+002
3.634735e+002, 2.412858e+002
3.639557e+002, 2.416835e+002
3.644378e+002, 2.419238e+002
3.649199e+002, 2.420242e+002
3.654020e+002, 2.420404e+002
3.658841e+002, 2.416998e+002
3.663662e+002, 2.416732e+002
3.668484e+002, 2.422643e+002
3.673305e+002, 2.430743e+002
3.678126e+002, 2.437511e+002
3.682947e+002, 2.441709e+002
3.687768e+002, 2.443919e+002
3.692589e+002, 2.444787e+002
3.697411e+002, 2.443731e+002
3.702232e+002, 2.442890e+002
3.707053e+002, 2.440396e+002
3.711874e+002, 2.439701e+002
3.716695e+002, 2.444895e+002
3.721516e+002, 2.454437e+002
3.726338e+002, 2.461976e+002
3.731159e+002, 2.460930e+002
3.735980e+002, 2.451641e+002
3.740801e+002, 2.445628e+002
3.745622e+002, 2.444522e+002
3.750443e+002, 2.444997e+002
3.755265e+002, 2.446005e+002
3.760086e+002, 2.447715e+002
3.764907e+002, 2.450766e+002
3.769728e+002, 2.455863e+002
3.774549e+002, 2.461572e+002
3.779370e+002, 2.464404e+002
3.784192e+002, 2.463227e+002
3.789013e+002, 2.462384e+002
3.793834e+002, 2.464289e+002
3.798655e+002, 2.466263e+002
3.803476e+002, 2.465315e+002
3.808297e+002, 2.460926e+002
3.813119e+002, 2.457249e+002
3.817940e+002, 2.459709e+002
3.822761e+002, 2.468142e+002
3.827582e+002, 2.473786e+002
3.832403e+002, 2.474005e+002
3.837224e+002, 2.472879e+002
3.842046e+002, 2.473476e+002
3.846867e+002, 2.475277e+002
3.851688e+002, 2.476322e+002
3.856509e+002, 2.474840e+002
3.861330e+002, 2.471988e+002
3.866151e+002, 2.470712e+002
3.870973e+002, 2.471610e+002
3.875794e+002, 2.471853e+002
3.880615e+002, 2.466664e+002
3.885436e+002, 2.460684e+002
3.890257e+002, 2.461952e+002
3.895078e+002, 2.476411e+002
3.899900e+002, 2.490273e+002
3.904721e+002, 2.488441e+002
3.909542e+002, 2.473151e+002
3.914363e+002, 2.462397e+002
3.919184e+002, 2.463464e+002
3.924005e+002, 2.469924e+002
3.928827e+002, 2.472763e+002
3.933648e+002, 2.471788e+002
3.938469e+002, 2.470868e+002
3.943290e+002, 2.473653e+002
3.948111e+002, 2.476759e+002
3.952932e+002, 2.472877e+002
3.957754e+002, 2.460188e+002
3.962575e+002, 2.448807e+002
3.967396e+002, 2.448836e+002
3.972217e+002, 2.459375e+002
3.977038e+002, 2.466528e+002
3.981859e+002, 2.468659e+002
3.986681e+002, 2.468248e+002
3.991501e+002, 2.466250e+002
3.996323e+002, 2.462958e+002
4.001144e+002, 2.458969e+002
4.005965e+002, 2.454328e+002
4.010786e+002, 2.449580e+002
4.015607e+002, 2.446506e+002
4.020428e+002, 2.445818e+002
4.025250e+002, 2.445213e+002
4.030071e+002, 2.443797e+002
4.034892e+002, 2.442468e+002
4.039713e+002, 2.442394e+002
4.044534e+002, 2.443798e+002
4.049355e+002, 2.445986e+002
4.054177e+002, 2.448515e+002
4.058998e+002, 2.452053e+002
4.063819e+002, 2.451956e+002
4.068640e+002, 2.443589e+002
4.073461e+002, 2.436472e+002
4.078282e+002, 2.437055e+002
4.083104e+002, 2.442867e+002
4.087925e+002, 2.446925e+002
4.092746e+002, 2.444705e+002
4.097567e+002, 2.437758e+002
4.102388e+002, 2.433255e+002
4.107209e+002, 2.434281e+002
4.112031e+002, 2.433838e+002
4.116852e+002, 2.428870e+002
4.121673e+002, 2.423547e+002
4.126494e+002, 2.423332e+002
4.131315e+002, 2.428996e+002
4.136136e+002, 2.434802e+002
4.140958e+002, 2.431852e+002
4.145779e+002, 2.416432e+002
4.150600e+002, 2.407173e+002
4.155421e+002, 2.409412e+002
4.160242e+002, 2.413079e+002
4.165063e+002, 2.415198e+002
4.169885e+002, 2.415646e+002
4.174706e+002, 2.414968e+002
4.179527e+002, 2.413276e+002
4.184348e+002, 2.410948e+002
4.189169e+002, 2.409350e+002
4.193990e+002, 2.408996e+002
4.198812e+002, 2.408250e+002
4.203633e+002, 2.405636e+002
4.208454e+002, 2.402945e+002
4.213275e+002, 2.402190e+002
4.218096e+002, 2.403899e+002
4.222917e+002, 2.405972e+002
4.227739e+002, 2.406370e+002
4.232560e+002, 2.405130e+002
4.237381e+002, 2.402982e+002
4.242202e+002, 2.398607e+002
4.247023e+002, 2.395359e+002
4.251844e+002, 2.397616e+002
4.256666e+002, 2.403481e+002
4.261487e+002, 2.405937e+002
4.266308e+002, 2.399801e+002
4.271129e+002, 2.389574e+002
4.275950e+002, 2.381068e+002
4.280771e+002, 2.374196e+002
4.285593e+002, 2.370650e+002
4.290414e+002, 2.373678e+002
4.295235e+002, 2.379515e+002
4.300056e+002, 2.379542e+002
4.304877e+002, 2.371003e+002
4.309698e+002, 2.362912e+002
4.314520e+002, 2.361162e+002
4.319341e+002, 2.362817e+002
4.324162e+002, 2.361443e+002
4.328983e+002, 2.355145e+002
4.333804e+002, 2.347955e+002
4.338625e+002, 2.344637e+002
4.343447e+002, 2.345802e+002
4.348268e+002, 2.346610e+002
4.353089e+002, 2.347550e+002
4.357910e+002, 2.347531e+002
4.362731e+002, 2.345160e+002
4.367552e+002, 2.341056e+002
4.372374e+002, 2.337651e+002
4.377195e+002, 2.336676e+002
4.382016e+002, 2.336825e+002
4.386837e+002, 2.333092e+002
4.391658e+002, 2.318720e+002
4.396479e+002, 2.309132e+002
4.401301e+002, 2.309305e+002
4.406122e+002, 2.312497e+002
4.410943e+002, 2.312729e+002
4.415764e+002, 2.308675e+002
4.420585e+002, 2.302153e+002
4.425406e+002, 2.294691e+002
4.430227e+002, 2.285629e+002
4.435049e+002, 2.280427e+002
4.439870e+002, 2.283956e+002
4.444691e+002, 2.286365e+002
4.449512e+002, 2.283762e+002
4.454333e+002, 2.278175e+002
4.459154e+002, 2.273269e+002
4.463976e+002, 2.271028e+002
4.468797e+002, 2.270038e+002
4.473618e+002, 2.266848e+002
4.478439e+002, 2.260285e+002
4.483260e+002, 2.255019e+002
4.488081e+002, 2.254436e+002
4.492903e+002, 2.253521e+002
4.497724e+002, 2.248046e+002
4.502545e+002, 2.238312e+002
4.507366e+002, 2.229177e+002
4.512187e+002, 2.225237e+002
4.517008e+002, 2.225143e+002
4.521830e+002, 2.223334e+002
4.526651e+002, 2.219539e+002
4.531472e+002, 2.214461e+002
4.536293e+002, 2.207112e+002
4.541114e+002, 2.199061e+002
4.545935e+002, 2.192785e+002
4.550757e+002, 2.189613e+002
4.555578e+002, 2.186779e+002
4.560399e+002, 2.181571e+002
4.565220e+002, 2.174612e+002
4.570041e+002, 2.168753e+002
4.574862e+002, 2.165204e+002
4.579684e+002, 2.162153e+002
4.584505e+002, 2.157339e+002
4.589326e+002, 2.150890e+002
4.594147e+002, 2.143294e+002
4.598968e+002, 2.132724e+002
4.603789e+002, 2.122462e+002
4.608611e+002, 2.116712e+002
4.613432e+002, 2.114616e+002
4.618253e+002, 2.110481e+002
4.623074e+002, 2.100257e+002
4.627895e+002, 2.085857e+002
4.632716e+002, 2.075005e+002
4.637538e+002, 2.072515e+002
4.642359e+002, 2.067043e+002
4.647180e+002, 2.053815e+002
4.652001e+002, 2.038820e+002
4.656822e+002, 2.029374e+002
4.661643e+002, 2.026229e+002
4.666465e+002, 2.023262e+002
4.671286e+002, 2.013233e+002
4.676107e+002, 1.994872e+002
4.680928e+002, 1.980864e+002
4.685749e+002, 1.974508e+002
4.690570e+002, 1.969052e+002
4.695392e+002, 1.963557e+002
4.700213e+002, 1.957625e+002
4.705034e+002, 1.951371e+002
4.709855e+002, 1.944919e+002
4.714676e+002, 1.936986e+002
4.719497e+002, 1.924670e+002
4.724319e+002, 1.906820e+002
4.729140e+002, 1.889745e+002
4.733961e+002, 1.873890e+002
4.738782e+002, 1.859616e+002
4.743603e+002, 1.847968e+002
4.748424e+002, 1.838405e+002
4.753246e+002, 1.828501e+002
4.758067e+002, 1.816554e+002
4.762888e+002, 1.803483e+002
4.767709e+002, 1.790812e+002
4.772530e+002, 1.778432e+002
4.777351e+002, 1.767591e+002
4.782173e+002, 1.760170e+002
4.786994e+002, 1.753954e+002
4.791815e+002, 1.745395e+002
4.796636e+002, 1.733822e+002
4.801457e+002, 1.721916e+002
4.806278e+002, 1.711081e+002
4.811100e+002, 1.700794e+002
4.815920e+002, 1.689667e+002
4.820742e+002, 1.677379e+002
4.825563e+002, 1.666000e+002
4.830384e+002, 1.657833e+002
4.835205e+002, 1.652800e+002
4.840026e+002, 1.645501e+002
4.844847e+002, 1.635076e+002
4.849669e+002, 1.623499e+002
4.854490e+002, 1.610771e+002
4.859311e+002, 1.597540e+002
4.864132e+002, 1.584753e+002
4.868953e+002, 1.572727e+002
4.873774e+002, 1.561598e+002
4.878596e+002, 1.552091e+002
4.883417e+002, 1.546404e+002
4.888238e+002, 1.535885e+002
4.893059e+002, 1.518092e+002
4.897880e+002, 1.498708e+002
4.902701e+002, 1.479358e+002
4.907523e+002, 1.460755e+002
4.912344e+002, 1.444161e+002
4.917165e+002, 1.430823e+002
4.921986e+002, 1.418800e+002
4.926807e+002, 1.402232e+002
4.931628e+002, 1.379099e+002
4.936450e+002, 1.357137e+002
4.941271e+002, 1.338290e+002
4.946092e+002, 1.321084e+002
4.950913e+002, 1.305787e+002
4.955734e+002, 1.291900e+002
4.960555e+002, 1.276276e+002
4.965377e+002, 1.255318e+002
4.970198e+002, 1.231206e+002
4.975019e+002, 1.210078e+002
4.979840e+002, 1.192369e+002
4.984661e+002, 1.176061e+002
4.989482e+002, 1.159981e+002
4.994304e+002, 1.144533e+002
4.999125e+002, 1.130632e+002
5.003946e+002, 1.118940e+002
5.008767e+002, 1.107173e+002
5.013588e+002, 1.093440e+002
5.018409e+002, 1.078987e+002
5.023231e+002, 1.065907e+002
5.028052e+002, 1.054671e+002
5.032873e+002, 1.044277e+002
5.037694e+002, 1.033765e+002
5.042515e+002, 1.023051e+002
5.047336e+002, 1.013494e+002
5.052158e+002, 1.007719e+002
5.056979e+002, 1.000061e+002
5.061800e+002, 9.863832e+001
5.066621e+002, 9.701452e+001
5.071442e+002, 9.568174e+001
5.076263e+002, 9.483177e+001
5.081085e+002, 9.423416e+001
5.085906e+002, 9.355372e+001
5.090727e+002, 9.277523e+001
5.095548e+002, 9.196473e+001
5.100369e+002, 9.100550e+001
5.105190e+002, 9.013285e+001
5.110012e+002, 8.945358e+001
5.114833e+002, 8.892252e+001
5.119654e+002, 8.846902e+001
5.124475e+002, 8.808138e+001
5.129296e+002, 8.767370e+001
5.134117e+002, 8.706519e+001
5.138939e+002, 8.622521e+001
5.143760e+002, 8.539864e+001
5.148581e+002, 8.459810e+001
5.153402e+002, 8.386785e+001
5.158223e+002, 8.323328e+001
5.163044e+002, 8.269392e+001
5.167866e+002, 8.224369e+001
5.172687e+002, 8.201629e+001
5.177508e+002, 8.179662e+001
5.182329e+002, 8.121618e+001
5.187150e+002, 8.030662e+001
5.191971e+002, 7.955081e+001
5.196793e+002, 7.922082e+001
5.201614e+002, 7.912695e+001
5.206435e+002, 7.883524e+001
5.211256e+002, 7.826372e+001
5.216077e+002, 7.777376e+001
5.220898e+002, 7.754414e+001
5.225720e+002, 7.733907e+001
5.230541e+002, 7.685733e+001
5.235362e+002, 7.615997e+001
5.240183e+002, 7.564057e+001
5.245004e+002, 7.561966e+001
5.249825e+002, 7.596572e+001
5.254647e+002, 7.598731e+001
5.259468e+002, 7.539089e+001
5.264289e+002, 7.487632e+001
5.269110e+002, 7.455115e+001
5.273931e+002, 7.429366e+001
5.278752e+002, 7.403105e+001
5.283574e+002, 7.373970e+001
5.288395e+002, 7.339915e+001
5.293216e+002, 7.296481e+001
5.298037e+002, 7.246210e+001
5.302858e+002, 7.203743e+001
5.307679e+002, 7.169263e+001
5.312501e+002, 7.142563e+001
5.317322e+002, 7.132073e+001
5.322143e+002, 7.125365e+001
5.326964e+002, 7.106625e+001
5.331785e+002, 7.071143e+001
5.336606e+002, 7.040636e+001
5.341428e+002, 7.036050e+001
5.346249e+002, 7.045177e+001
5.351070e+002, 7.041966e+001
5.355891e+002, 7.022818e+001
5.360712e+002, 6.994777e+001
5.365533e+002, 6.960616e+001
5.370355e+002, 6.921780e+001
5.375176e+002, 6.888076e+001
5.379997e+002, 6.834145e+001
5.384818e+002, 6.815293e+001
5.389639e+002, 6.895657e+001
5.394460e+002, 6.997414e+001
5.399282e+002, 7.011758e+001
5.404103e+002, 6.922555e+001
5.408924e+002, 6.807235e+001
5.413745e+002, 6.747427e+001
5.418566e+002, 6.745016e+001
5.423387e+002, 6.732407e+001
5.428209e+002, 6.698460e+001
5.433029e+002, 6.667327e+001
5.437850e+002, 6.650485e+001
5.442672e+002, 6.635786e+001
5.447493e+002, 6.606722e+001
5.452314e+002, 6.559637e+001
5.457135e+002, 6.510617e+001
5.461956e+002, 6.477270e+001
5.466777e+002, 6.458589e+001
5.471599e+002, 6.445824e+001
5.476420e+002, 6.442965e+001
5.481241e+002, 6.436612e+001
5.486062e+002, 6.408647e+001
5.490883e+002, 6.373764e+001
5.495704e+002, 6.358281e+001
5.500526e+002, 6.376127e+001
5.505347e+002, 6.393447e+001
5.510168e+002, 6.388617e+001
5.514989e+002, 6.368062e+001
5.519810e+002, 6.340606e+001
5.524631e+002, 6.307670e+001
5.529453e+002, 6.284080e+001
5.534274e+002, 6.288400e+001
5.539095e+002, 6.320757e+001
5.543916e+002, 6.325816e+001
5.548737e+002, 6.287148e+001
5.553558e+002, 6.245259e+001
5.558380e+002, 6.205878e+001
5.563201e+002, 6.171645e+001
5.568022e+002, 6.148791e+001
5.572843e+002, 6.137248e+001
5.577664e+002, 6.126045e+001
5.582485e+002, 6.101271e+001
5.587307e+002, 6.062440e+001
5.592128e+002, 6.027460e+001
5.596949e+002, 5.993344e+001
5.601770e+002, 5.968538e+001
5.606591e+002, 5.963774e+001
5.611412e+002, 5.965098e+001
5.616234e+002, 5.953799e+001
5.621055e+002, 5.924248e+001
5.625876e+002, 5.892869e+001
5.630697e+002, 5.876110e+001
5.635518e+002, 5.869219e+001
5.640339e+002, 5.856022e+001
5.645161e+002, 5.833968e+001
5.649982e+002, 5.808512e+001
5.654803e+002, 5.781183e+001
5.659624e+002, 5.753748e+001
5.664445e+002, 5.732874e+001
5.669266e+002, 5.723019e+001
5.674088e+002, 5.713312e+001
5.678909e+002, 5.698593e+001
5.683730e+002, 5.682682e+001
5.688551e+002, 5.673793e+001
5.693372e+002, 5.671593e+001
5.698193e+002, 5.662266e+001
5.703015e+002, 5.630904e+001
5.707836e+002, 5.579236e+001
5.712657e+002, 5.543438e+001
5.717478e+002, 5.538661e+001
5.722299e+002, 5.529747e+001
5.727120e+002, 5.507515e+001
5.731942e+002, 5.481195e+001
5.736763e+002, 5.457885e+001
5.741584e+002, 5.439317e+001
5.746405e+002, 5.425903e+001
5.751226e+002, 5.422839e+001
5.756047e+002, 5.425811e+001
5.760869e+002, 5.412990e+001
5.765690e+002, 5.378579e+001
5.770511e+002, 5.354015e+001
5.775332e+002, 5.370050e+001
5.780153e+002, 5.395235e+001
5.784974e+002, 5.374498e+001
5.789796e+002, 5.294456e+001
5.794617e+002, 5.225304e+001
5.799438e+002, 5.195850e+001
5.804259e+002, 5.189719e+001
5.809080e+002, 5.195986e+001
5.813901e+002, 5.209710e+001
5.818723e+002, 5.213668e+001
5.823544e+002, 5.194921e+001
5.828365e+002, 5.162399e+001
5.833186e+002, 5.147118e+001
5.838007e+002, 5.176820e+001
5.842828e+002, 5.180918e+001
5.847650e+002, 5.134370e+001
5.852471e+002, 5.083580e+001
5.857292e+002, 5.063549e+001
5.862113e+002, 5.067753e+001
5.866934e+002, 5.065199e+001
5.871755e+002, 5.033575e+001
5.876577e+002, 4.988688e+001
5.881398e+002, 4.970152e+001
5.886219e+002, 4.982750e+001
5.891040e+002, 4.988727e+001
5.895861e+002, 4.977629e+001
5.900682e+002, 4.958170e+001
5.905504e+002, 4.935912e+001
5.910325e+002, 4.911861e+001
5.915146e+002, 4.893188e+001
5.919967e+002, 4.886200e+001
5.924788e+002, 4.882008e+001
5.929609e+002, 4.874430e+001
5.934431e+002, 4.863575e+001
5.939252e+002, 4.849727e+001
5.944073e+002, 4.832910e+001
5.948894e+002, 4.814172e+001
5.953715e+002, 4.794226e+001
5.958536e+002, 4.771407e+001
5.963358e+002, 4.755153e+001
5.968179e+002, 4.747284e+001
5.973000e+002, 4.742918e+001
5.977821e+002, 4.745128e+001
5.982642e+002, 4.748005e+001
5.987463e+002, 4.742514e+001
5.992285e+002, 4.725776e+001
5.997106e+002, 4.705289e+001
6.001927e+002, 4.688285e+001
6.006748e+002, 4.674809e+001
6.011569e+002, 4.669878e+001
6.016390e+002, 4.679384e+001
6.021212e+002, 4.685340e+001
6.026033e+002, 4.673529e+001
6.030854e+002, 4.652708e+001
6.035675e+002, 4.636908e+001
6.040496e+002, 4.630814e+001
6.045317e+002, 4.620496e+001
6.050139e+002, 4.593083e+001
6.054960e+002, 4.559610e+001
6.059781e+002, 4.534881e+001
6.064602e+002, 4.521011e+001
6.069423e+002, 4.517219e+001
6.074244e+002, 4.525054e+001
6.079066e+002, 4.540417e+001
6.083887e+002, 4.544643e+001
6.088708e+002, 4.530534e+001
6.093529e+002, 4.514901e+001
6.098350e+002, 4.495799e+001
6.103171e+002, 4.477578e+001
6.107993e+002, 4.462531e+001
6.112814e+002, 4.451127e+001
6.117635e+002, 4.444731e+001
6.122456e+002, 4.447322e+001
6.127277e+002, 4.450247e+001
6.132098e+002, 4.430789e+001
6.136920e+002, 4.386101e+001
6.141741e+002, 4.351520e+001
6.146562e+002, 4.337859e+001
6.151383e+002, 4.334018e+001
6.156204e+002, 4.328002e+001
6.161025e+002, 4.320990e+001
6.165847e+002, 4.322127e+001
6.170668e+002, 4.344447e+001
6.175489e+002, 4.364373e+001
6.180310e+002, 4.364412e+001
6.185131e+002, 4.351515e+001
6.189952e+002, 4.342483e+001
6.194774e+002, 4.341888e+001
6.199595e+002, 4.335187e+001
6.204416e+002, 4.301498e+001
6.209237e+002, 4.237069e+001
6.214058e+002, 4.201378e+001
6.218879e+002, 4.216903e+001
6.223701e+002, 4.234956e+001
6.228522e+002, 4.245730e+001
6.233343e+002, 4.254015e+001
6.238164e+002, 4.267945e+001
6.242985e+002, 4.287907e+001
6.247806e+002, 4.301064e+001
6.252628e+002, 4.295646e+001
6.257448e+002, 4.275647e+001
6.262269e+002, 4.247683e+001
6.267090e+002, 4.210514e+001
6.271912e+002, 4.182013e+001
6.276733e+002, 4.170949e+001
6.281554e+002, 4.172500e+001
6.286375e+002, 4.182319e+001
6.291196e+002, 4.206113e+001
6.296017e+002, 4.211451e+001
6.300839e+002, 4.170528e+001
6.305660e+002, 4.130197e+001
6.310481e+002, 4.131288e+001
6.315302e+002, 4.158900e+001
6.320123e+002, 4.172069e+001
6.324944e+002, 4.151946e+001
6.329766e+002, 4.116821e+001
6.334587e+002, 4.098021e+001
6.339408e+002, 4.099141e+001
6.344229e+002, 4.097283e+001
6.349050e+002, 4.084855e+001
6.353871e+002, 4.079356e+001
6.358693e+002, 4.097102e+001
6.363514e+002, 4.123034e+001
6.368335e+002, 4.133395e+001
6.373156e+002, 4.120687e+001
6.377977e+002, 4.100756e+001
6.382798e+002, 4.078474e+001
6.387620e+002, 4.058762e+001
6.392441e+002, 4.052694e+001
6.397262e+002, 4.061183e+001
6.402083e+002, 4.073739e+001
6.406904e+002, 4.084732e+001
6.411725e+002, 4.093436e+001
6.416547e+002, 4.097498e+001
6.421368e+002, 4.097805e+001
6.426189e+002, 4.091431e+001
6.431010e+002, 4.072176e+001
6.435831e+002, 4.051790e+001
6.440652e+002, 4.033204e+001
6.445474e+002, 4.019955e+001
6.450295e+002, 4.019894e+001
6.455116e+002, 4.038990e+001
6.459937e+002, 4.064278e+001
6.464758e+002, 4.073906e+001
6.469579e+002, 4.068005e+001
6.474401e+002, 4.063308e+001
6.479222e+002, 4.064345e+001
6.484043e+002, 4.062539e+001
6.488864e+002, 4.049255e+001
6.493685e+002, 4.027785e+001
6.498506e+002, 4.008211e+001
6.503328e+002, 3.985806e+001
6.508149e+002, 3.973918e+001
6.512970e+002, 3.986768e+001
6.517791e+002, 4.008145e+001
6.522612e+002, 4.020033e+001
6.527433e+002, 4.019894e+001
6.532255e+002, 4.011702e+001
6.537076e+002, 3.997216e+001
6.541897e+002, 3.979510e+001
6.546718e+002, 3.970662e+001
6.551539e+002, 3.974870e+001
6.556360e+002, 3.977755e+001
6.561182e+002, 3.974722e+001
6.566003e+002, 3.972140e+001
6.570824e+002, 3.973434e+001
6.575645e+002, 3.978098e+001
6.580466e+002, 3.984146e+001
6.585287e+002, 3.991257e+001
6.590109e+002, 3.998758e+001
6.594930e+002, 4.009708e+001
6.599751e+002, 4.020415e+001
6.604572e+002, 4.018664e+001
6.609393e+002, 4.001539e+001
6.614214e+002, 3.980338e+001
6.619036e+002, 3.963353e+001
6.623857e+002, 3.951030e+001
6.628678e+002, 3.948242e+001
6.633499e+002, 3.971400e+001
6.638320e+002, 3.982360e+001
6.643141e+002, 3.967216e+001
6.647963e+002, 3.946924e+001
6.652784e+002, 3.939481e+001
6.657605e+002, 3.943318e+001
6.662426e+002, 3.943781e+001
6.667247e+002, 3.928902e+001
6.672068e+002, 3.910461e+001
6.676890e+002, 3.914072e+001
6.681711e+002, 3.938853e+001
6.686532e+002, 3.951533e+001
6.691353e+002, 3.939696e+001
6.696174e+002, 3.926568e+001
6.700995e+002, 3.940890e+001
6.705817e+002, 3.977399e+001
6.710638e+002, 3.984964e+001
6.715459e+002, 3.925044e+001
6.720280e+002, 3.882568e+001
6.725101e+002, 3.901744e+001
6.729922e+002, 3.941766e+001
6.734744e+002, 3.960004e+001
6.739565e+002, 3.950994e+001
6.744386e+002, 3.930162e+001
6.749207e+002, 3.906657e+001
6.754028e+002, 3.884300e+001
6.758849e+002, 3.876463e+001
6.763671e+002, 3.885693e+001
6.768492e+002, 3.899092e+001
6.773313e+002, 3.923186e+001
6.778134e+002, 3.940387e+001
6.782955e+002, 3.933421e+001
6.787776e+002, 3.908085e+001
6.792598e+002, 3.884519e+001
6.797419e+002, 3.861729e+001
6.802240e+002, 3.848930e+001
6.807061e+002, 3.861021e+001
6.811882e+002, 3.883001e+001
6.816703e+002, 3.890089e+001
6.821525e+002, 3.878910e+001
6.826346e+002, 3.862880e+001
6.831167e+002, 3.852271e+001
6.835988e+002, 3.846766e+001
6.840809e+002, 3.845049e+001
6.845630e+002, 3.849126e+001
6.850452e+002, 3.852618e+001
6.855273e+002, 3.856663e+001
6.860094e+002, 3.858097e+001
6.864915e+002, 3.852098e+001
6.869736e+002, 3.841747e+001
6.874557e+002, 3.836261e+001
6.879379e+002, 3.840995e+001
6.884200e+002, 3.848277e+001
6.889021e+002, 3.851394e+001
6.893842e+002, 3.851819e+001
6.898663e+002, 3.854177e+001
6.903484e+002, 3.859143e+001
6.908306e+002, 3.860301e+001
6.913127e+002, 3.851822e+001
6.917948e+002, 3.835984e+001
6.922769e+002, 3.823983e+001
6.927590e+002, 3.815579e+001
6.932411e+002, 3.811796e+001
6.937233e+002, 3.816986e+001
6.942054e+002, 3.822615e+001
6.946875e+002, 3.825793e+001
6.951696e+002, 3.825035e+001
6.956517e+002, 3.816151e+001
6.961339e+002, 3.793776e+001
6.966160e+002, 3.773838e+001
6.970981e+002, 3.780561e+001
6.975802e+002, 3.804975e+001
6.980623e+002, 3.811996e+001
6.985444e+002, 3.795044e+001
6.990266e+002, 3.780489e+001
6.995087e+002, 3.788356e+001
6.999908e+002, 3.811890e+001
7.004729e+002, 3.825183e+001
7.009550e+002, 3.813608e+001
7.014371e+002, 3.814135e+001
7.019193e+002, 3.848265e+001
7.024014e+002, 3.875093e+001
7.028835e+002, 3.859389e+001
7.033656e+002, 3.818201e+001
7.038477e+002, 3.793147e+001
7.043298e+002, 3.803760e+001
7.048120e+002, 3.820918e+001
7.052941e+002, 3.800963e+001
7.057762e+002, 3.754467e+001
7.062583e+002, 3.735347e+001
7.067404e+002, 3.751273e+001
7.072225e+002, 3.777758e+001
7.077046e+002, 3.806881e+001
7.081867e+002, 3.832502e+001
7.086688e+002, 3.836520e+001
7.091509e+002, 3.805930e+001
7.096331e+002, 3.788151e+001
7.101152e+002, 3.794249e+001
7.105973e+002, 3.806109e+001
7.110794e+002, 3.819329e+001
7.115615e+002, 3.828859e+001
7.120436e+002, 3.825098e+001
7.125258e+002, 3.804919e+001
7.130079e+002, 3.782533e+001
7.134900e+002, 3.774068e+001
7.139721e+002, 3.777785e+001
7.144542e+002, 3.783725e+001
7.149363e+002, 3.791187e+001
7.154185e+002, 3.805499e+001
7.159006e+002, 3.838609e+001
7.163827e+002, 3.869957e+001
7.168648e+002, 3.853567e+001
7.173469e+002, 3.774846e+001
7.178290e+002, 3.740489e+001
7.183112e+002, 3.800264e+001
7.187933e+002, 3.862784e+001
7.192754e+002, 3.888936e+001
7.197575e+002, 3.886506e+001
7.202396e+002, 3.862805e+001
7.207217e+002, 3.823576e+001
7.212039e+002, 3.788565e+001
7.216860e+002, 3.778676e+001
7.221681e+002, 3.788256e+001
7.226502e+002, 3.795267e+001
7.231323e+002, 3.799198e+001
7.236144e+002, 3.805746e+001
7.240966e+002, 3.818830e+001
7.245787e+002, 3.832060e+001
7.250608e+002, 3.837025e+001
7.255429e+002, 3.833958e+001
7.260250e+002, 3.832347e+001
7.265071e+002, 3.834610e+001
7.269893e+002, 3.836162e+001
7.274714e+002, 3.835540e+001
7.279535e+002, 3.833259e+001
7.284356e+002, 3.826122e+001
7.289177e+002, 3.816673e+001
7.293998e+002, 3.817693e+001
7.298820e+002, 3.842691e+001
7.303641e+002, 3.876606e+001
7.308462e+002, 3.883161e+001
7.313283e+002, 3.861457e+001
7.318104e+002, 3.835337e+001
7.322925e+002, 3.806499e+001
7.327747e+002, 3.780289e+001
7.332568e+002, 3.757518e+001
7.337389e+002, 3.741023e+001
7.342210e+002, 3.742720e+001
7.347031e+002, 3.779136e+001
7.351852e+002, 3.807925e+001
7.356674e+002, 3.810093e+001
7.361495e+002, 3.809820e+001
7.366316e+002, 3.835785e+001
7.371137e+002, 3.877060e+001
7.375958e+002, 3.897203e+001
7.380779e+002, 3.876875e+001
7.385601e+002, 3.841881e+001
7.390422e+002, 3.831898e+001
7.395243e+002, 3.843900e+001
7.400064e+002, 3.846970e+001
7.404885e+002, 3.836245e+001
7.409706e+002, 3.828259e+001
7.414528e+002, 3.834289e+001
7.419349e+002, 3.847434e+001
7.424170e+002, 3.851329e+001
7.428991e+002, 3.841683e+001
7.433812e+002, 3.838508e+001
7.438633e+002, 3.846631e+001
7.443455e+002, 3.858277e+001
7.448276e+002, 3.874184e+001
7.453097e+002, 3.889083e+001
7.457918e+002, 3.893298e+001
7.462739e+002, 3.885158e+001
7.467560e+002, 3.876869e+001
7.472382e+002, 3.881096e+001
7.477203e+002, 3.894214e+001
7.482024e+002, 3.906590e+001
7.486845e+002, 3.918340e+001
7.491666e+002, 3.924992e+001
7.496487e+002, 3.924684e+001
7.501309e+002, 3.919420e+001
7.506130e+002, 3.909600e+001
7.510951e+002, 3.894647e+001
7.515772e+002, 3.887909e+001
7.520593e+002, 3.895385e+001
7.525414e+002, 3.902478e+001
7.530236e+002, 3.897167e+001
7.535057e+002, 3.896437e+001
7.539878e+002, 3.924574e+001
7.544699e+002, 3.974141e+001
7.549520e+002, 4.010026e+001
7.554341e+002, 4.008818e+001
7.559163e+002, 3.992273e+001
7.563984e+002, 3.989085e+001
7.568805e+002, 3.996920e+001
7.573626e+002, 4.007420e+001
7.578447e+002, 4.019681e+001
7.583268e+002, 4.027618e+001
7.588090e+002, 4.026115e+001
7.592911e+002, 4.017871e+001
7.597732e+002, 4.011399e+001
7.602553e+002, 4.000402e+001
7.607374e+002, 4.003316e+001
7.612195e+002, 4.035849e+001
7.617017e+002, 4.064857e+001
7.621838e+002, 4.073407e+001
7.626659e+002, 4.068617e+001
7.631480e+002, 4.059753e+001
7.636301e+002, 4.048832e+001
7.641122e+002, 4.046804e+001
7.645944e+002, 4.066809e+001
7.650765e+002, 4.098201e+001
7.655586e+002, 4.123995e+001
7.660407e+002, 4.144977e+001
7.665228e+002, 4.169896e+001
7.670049e+002, 4.202523e+001
7.674871e+002, 4.236047e+001
7.679692e+002, 4.260731e+001
7.684513e+002, 4.276213e+001
7.689334e+002, 4.295130e+001
7.694155e+002, 4.313683e+001
7.698976e+002, 4.342198e+001
7.703798e+002, 4.394272e+001
7.708619e+002, 4.447778e+001
7.713440e+002, 4.483763e+001
7.718261e+002, 4.504197e+001
7.723082e+002, 4.524218e+001
7.727903e+002, 4.546159e+001
7.732725e+002, 4.573149e+001
7.737546e+002, 4.608352e+001
7.742367e+002, 4.649496e+001
7.747188e+002, 4.693684e+001
7.752009e+002, 4.740211e+001
7.756830e+002, 4.789583e+001
7.761652e+002, 4.843047e+001
7.766473e+002, 4.896520e+001
7.771294e+002, 4.937189e+001
7.776115e+002, 4.961254e+001
7.780936e+002, 4.999636e+001
7.785757e+002, 5.060759e+001
7.790579e+002, 5.124771e+001
7.795400e+002, 5.188070e+001
7.800221e+002, 5.244207e+001
7.805042e+002, 5.278834e+001
7.809863e+002, 5.286415e+001
7.814684e+002, 5.299779e+001
7.819506e+002, 5.338682e+001
7.824327e+002, 5.373925e+001
7.829148e+002, 5.380169e+001
7.833969e+002, 5.372216e+001
7.838790e+002, 5.374810e+001
7.843611e+002, 5.394586e+001
7.848433e+002, 5.423712e+001
7.853254e+002, 5.460099e+001
7.858075e+002, 5.497186e+001
7.862896e+002, 5.510420e+001
7.867717e+002, 5.499309e+001
7.872538e+002, 5.494475e+001
7.877360e+002, 5.502965e+001
7.882181e+002, 5.521651e+001
7.887002e+002, 5.550679e+001
7.891823e+002, 5.588196e+001
7.896644e+002, 5.617389e+001
7.901465e+002, 5.647776e+001
7.906286e+002, 5.656763e+001
7.911107e+002, 5.624200e+001
7.915928e+002, 5.586830e+001
7.920750e+002, 5.566571e+001
7.925571e+002, 5.560549e+001
7.930392e+002, 5.558233e+001
7.935213e+002, 5.555961e+001
7.940034e+002, 5.556378e+001
7.944855e+002, 5.569690e+001
7.949677e+002, 5.584040e+001
7.954498e+002, 5.568357e+001
7.959319e+002, 5.527402e+001
7.964140e+002, 5.505286e+001
7.968961e+002, 5.521275e+001
7.973782e+002, 5.551886e+001
7.978604e+002, 5.565720e+001
7.983425e+002, 5.562326e+001
7.988246e+002, 5.552321e+001
7.993067e+002, 5.531034e+001
7.997888e+002, 5.511440e+001
8.002709e+002, 5.495943e+001
8.007531e+002, 5.483965e+001
8.012352e+002, 5.476885e+001
8.017173e+002, 5.473578e+001
8.021994e+002, 5.469448e+001
8.026815e+002, 5.468501e+001
8.031636e+002, 5.458952e+001
8.036458e+002, 5.422713e+001
8.041279e+002, 5.382149e+001
8.046100e+002, 5.369063e+001
8.050921e+002, 5.378626e+001
8.055742e+002, 5.379705e+001
8.060563e+002, 5.354776e+001
8.065385e+002, 5.324181e+001
8.070206e+002, 5.325175e+001
8.075027e+002, 5.354634e+001
8.079848e+002, 5.368349e+001
8.084669e+002, 5.362847e+001
8.089490e+002, 5.349143e+001
8.094312e+002, 5.327052e+001
8.099133e+002, 5.306386e+001
8.103954e+002, 5.306213e+001
8.108775e+002, 5.333153e+001
8.113596e+002, 5.335142e+001
8.118417e+002, 5.284482e+001
8.123239e+002, 5.244548e+001
8.128060e+002, 5.242131e+001
8.132881e+002, 5.251275e+001
8.137702e+002, 5.248502e+001
8.142523e+002, 5.232928e+001
8.147344e+002, 5.216021e+001
8.152166e+002, 5.205019e+001
8.156987e+002, 5.191686e+001
8.161808e+002, 5.159040e+001
8.166629e+002, 5.119885e+001
8.171450e+002, 5.104659e+001
8.176271e+002, 5.115271e+001
8.181093e+002, 5.137886e+001
8.185914e+002, 5.167418e+001
8.190735e+002, 5.187262e+001
8.195556e+002, 5.155782e+001
8.200377e+002, 5.056576e+001
8.205198e+002, 5.013803e+001
8.210020e+002, 5.062307e+001
8.214841e+002, 5.100573e+001
8.219662e+002, 5.078732e+001
8.224483e+002, 5.036426e+001
8.229304e+002, 5.017202e+001
8.234125e+002, 5.020813e+001
8.238947e+002, 5.023598e+001
8.243768e+002, 5.031378e+001
8.248589e+002, 5.025012e+001
8.253410e+002, 4.984286e+001
8.258231e+002, 4.932839e+001
8.263052e+002, 4.895699e+001
8.267874e+002, 4.874437e+001
8.272695e+002, 4.859481e+001
8.277516e+002, 4.846218e+001
8.282337e+002, 4.833002e+001
8.287158e+002, 4.814358e+001
8.291979e+002, 4.793388e+001
8.296801e+002, 4.789192e+001
8.301622e+002, 4.803621e+001
8.306443e+002, 4.800668e+001
8.311264e+002, 4.759115e+001
8.316085e+002, 4.700512e+001
8.320906e+002, 4.659792e+001
8.325728e+002, 4.639583e+001
8.330549e+002, 4.619204e+001
8.335370e+002, 4.597019e+001
8.340191e+002, 4.577214e+001
8.345012e+002, 4.566866e+001
8.349833e+002, 4.554399e+001
8.354655e+002, 4.527133e+001
8.359476e+002, 4.488031e+001
8.364297e+002, 4.452969e+001
8.369118e+002, 4.423804e+001
8.373939e+002, 4.404325e+001
8.378760e+002, 4.408332e+001
8.383582e+002, 4.415276e+001
8.388403e+002, 4.402722e+001
8.393224e+002, 4.370227e+001
8.398045e+002, 4.321133e+001
8.402866e+002, 4.256896e+001
8.407687e+002, 4.196706e+001
8.412509e+002, 4.174779e+001
8.417330e+002, 4.182585e+001
8.422151e+002, 4.166980e+001
8.426972e+002, 4.125285e+001
8.431793e+002, 4.094185e+001
8.436614e+002, 4.090882e+001
8.441436e+002, 4.091884e+001
8.446257e+002, 4.068689e+001
8.451078e+002, 4.021973e+001
8.455899e+002, 3.983978e+001
8.460720e+002, 3.957617e+001
8.465541e+002, 3.936210e+001
8.470363e+002, 3.924841e+001
8.475184e+002, 3.912619e+001
8.480005e+002, 3.887289e+001
8.484826e+002, 3.856729e+001
8.489647e+002, 3.839611e+001
8.494468e+002, 3.842702e+001
8.499290e+002, 3.850238e+001
8.504111e+002, 3.862779e+001
8.508932e+002, 3.868380e+001
8.513753e+002, 3.845394e+001
8.518574e+002, 3.807212e+001
8.523395e+002, 3.787560e+001
8.528217e+002, 3.795449e+001
8.533038e+002, 3.809603e+001
8.537859e+002, 3.810701e+001
8.542680e+002, 3.800794e+001
8.547501e+002, 3.782047e+001
8.552322e+002, 3.754446e+001
8.557144e+002, 3.741444e+001
8.561965e+002, 3.751478e+001
8.566786e+002, 3.759782e+001
8.571607e+002, 3.745776e+001
8.576428e+002, 3.717585e+001
8.581249e+002, 3.701587e+001
8.586071e+002, 3.705291e+001
8.590892e+002, 3.704982e+001
8.595713e+002, 3.698727e+001
8.600534e+002, 3.690797e+001
8.605355e+002, 3.684060e+001
8.610176e+002, 3.675612e+001
8.614998e+002, 3.660598e+001
8.619819e+002, 3.638893e+001
8.624640e+002, 3.618436e+001
8.629461e+002, 3.596544e+001
8.634282e+002, 3.582996e+001
8.639103e+002, 3.594192e+001
8.643925e+002, 3.612765e+001
8.648746e+002, 3.611756e+001
8.653567e+002, 3.591762e+001
8.658388e+002, 3.572732e+001
8.663209e+002, 3.566239e+001
8.668030e+002, 3.566475e+001
8.672852e+002, 3.560274e+001
8.677673e+002, 3.551971e+001
8.682494e+002, 3.576155e+001
8.687315e+002, 3.636555e+001
8.692136e+002, 3.661541e+001
8.696957e+002, 3.614434e+001
8.701779e+002, 3.543726e+001
8.706600e+002, 3.515412e+001
8.711421e+002, 3.529890e+001
8.716242e+002, 3.530003e+001
8.721063e+002, 3.505529e+001
8.725884e+002, 3.484670e+001
8.730705e+002, 3.469242e+001
8.735526e+002, 3.461503e+001
8.740347e+002, 3.470348e+001
8.745168e+002, 3.487104e+001
8.749990e+002, 3.489165e+001
8.754811e+002, 3.466114e+001
8.759632e+002, 3.449261e+001
8.764453e+002, 3.452162e+001
8.769274e+002, 3.462654e+001
8.774095e+002, 3.481553e+001
8.778917e+002, 3.497913e+001
8.783738e+002, 3.489944e+001
8.788559e+002, 3.456145e+001
8.793380e+002, 3.424071e+001
8.798201e+002, 3.416022e+001
8.803022e+002, 3.421044e+001
8.807844e+002, 3.425615e+001
8.812665e+002, 3.427828e+001
8.817486e+002, 3.417615e+001
8.822307e+002, 3.394291e+001
8.827128e+002, 3.373074e+001
8.831949e+002, 3.363385e+001
8.836771e+002, 3.362854e+001
8.841592e+002, 3.368443e+001
8.846413e+002, 3.382022e+001
8.851234e+002, 3.387315e+001
8.856055e+002, 3.382232e+001
8.860876e+002, 3.373448e+001
8.865698e+002, 3.359090e+001
8.870519e+002, 3.346348e+001
8.875340e+002, 3.348234e+001
8.880161e+002, 3.362824e+001
8.884982e+002, 3.360361e+001
8.889803e+002, 3.320505e+001
8.894625e+002, 3.291141e+001
8.899446e+002, 3.281231e+001
8.904267e+002, 3.283537e+001
8.909088e+002, 3.302132e+001
8.913909e+002, 3.326625e+001
8.918730e+002, 3.336953e+001
8.923552e+002, 3.327171e+001
8.928373e+002, 3.316570e+001
8.933194e+002, 3.319016e+001
8.938015e+002, 3.325499e+001
8.942836e+002, 3.325901e+001
8.947657e+002, 3.323000e+001
8.952479e+002, 3.323252e+001
8.957300e+002, 3.327827e+001
8.962121e+002, 3.335315e+001
8.966942e+002, 3.346625e+001
8.971763e+002, 3.353308e+001
8.976584e+002, 3.332592e+001
8.981406e+002, 3.288097e+001
8.986227e+002, 3.255881e+001
8.991048e+002, 3.239727e+001
8.995869e+002, 3.229174e+001
9.000690e+002, 3.218471e+001
9.005511e+002, 3.213363e+001
9.010333e+002, 3.224038e+001
9.015154e+002, 3.251521e+001
9.019975e+002, 3.272060e+001
9.024796e+002, 3.288879e+001
9.029617e+002, 3.292742e+001
9.034438e+002, 3.273751e+001
9.039260e+002, 3.249124e+001
9.044081e+002, 3.225876e+001
9.048902e+002, 3.206585e+001
9.053723e+002, 3.199454e+001
9.058544e+002, 3.211098e+001
9.063365e+002, 3.218527e+001
9.068187e+002, 3.210629e+001
9.073008e+002, 3.202818e+001
9.077829e+002, 3.206059e+001
9.082650e+002, 3.214193e+001
9.087471e+002, 3.216843e+001
9.092292e+002, 3.213490e+001
9.097114e+002, 3.214068e+001
9.101935e+002, 3.227692e+001
9.106756e+002, 3.242418e+001
9.111577e+002, 3.247311e+001
9.116398e+002, 3.244122e+001
9.121219e+002, 3.233370e+001
9.126041e+002, 3.217253e+001
9.130862e+002, 3.201326e+001
9.135683e+002, 3.188219e+001
9.140504e+002, 3.183509e+001
9.145325e+002, 3.197716e+001
9.150146e+002, 3.227177e+001
9.154968e+002, 3.254390e+001
9.159789e+002, 3.279868e+001
9.164610e+002, 3.287495e+001
9.169431e+002, 3.271151e+001
9.174252e+002, 3.244971e+001
9.179073e+002, 3.217688e+001
9.183895e+002, 3.192172e+001
9.188716e+002, 3.178996e+001
9.193537e+002, 3.181145e+001
9.198358e+002, 3.188226e+001
9.203179e+002, 3.206260e+001
9.208000e+002, 3.220398e+001
9.212822e+002, 3.220870e+001
9.217643e+002, 3.216991e+001
9.222464e+002, 3.221151e+001
9.227285e+002, 3.232738e+001
9.232106e+002, 3.234599e+001
9.236927e+002, 3.212202e+001
9.241749e+002, 3.196247e+001
9.246570e+002, 3.202371e+001
9.251391e+002, 3.211856e+001
9.256212e+002, 3.205180e+001
9.261033e+002, 3.191439e+001
9.265854e+002, 3.194926e+001
9.270676e+002, 3.223360e+001
9.275497e+002, 3.246743e+001
9.280318e+002, 3.237994e+001
9.285139e+002, 3.221180e+001
9.289960e+002, 3.222821e+001
9.294781e+002, 3.234037e+001
9.299603e+002, 3.233043e+001
9.304424e+002, 3.219620e+001
9.309245e+002, 3.217231e+001
9.314066e+002, 3.243203e+001
9.318887e+002, 3.273806e+001
9.323708e+002, 3.262552e+001
9.328530e+002, 3.223055e+001
9.333351e+002, 3.216268e+001
9.338172e+002, 3.243407e+001
9.342993e+002, 3.266882e+001
9.347814e+002, 3.272567e+001
9.352635e+002, 3.270910e+001
9.357457e+002, 3.272351e+001
9.362278e+002, 3.276929e+001
9.367099e+002, 3.285604e+001
9.371920e+002, 3.299664e+001
9.376741e+002, 3.311681e+001
9.381563e+002, 3.318737e+001
9.386384e+002, 3.328706e+001
9.391205e+002, 3.349075e+001
9.396026e+002, 3.372678e+001
9.400847e+002, 3.387750e+001
9.405668e+002, 3.394554e+001
9.410490e+002, 3.391185e+001
9.415311e+002, 3.355241e+001
9.420132e+002, 3.340124e+001
9.424953e+002, 3.378550e+001
9.429774e+002, 3.420718e+001
9.434595e+002, 3.423690e+001
9.439417e+002, 3.401808e+001
9.444238e+002, 3.396762e+001
9.449059e+002, 3.420700e+001
9.453880e+002, 3.445818e+001
9.458701e+002, 3.471867e+001
9.463522e+002, 3.485911e+001
9.468344e+002, 3.462207e+001
9.473165e+002, 3.430610e+001
9.477986e+002, 3.440560e+001
9.482807e+002, 3.488704e+001
9.487628e+002, 3.520114e+001
9.492449e+002, 3.499510e+001
9.497271e+002, 3.467643e+001
9.502092e+002, 3.456540e+001
9.506913e+002, 3.463265e+001
9.511734e+002, 3.492209e+001
9.516555e+002, 3.534609e+001
9.521376e+002, 3.564876e+001
9.526198e+002, 3.574672e+001
9.531019e+002, 3.576472e+001
9.535840e+002, 3.583401e+001
9.540661e+002, 3.589421e+001
9.545482e+002, 3.574713e+001
9.550303e+002, 3.543648e+001
9.555124e+002, 3.524220e+001
9.559945e+002, 3.520345e+001
9.564766e+002, 3.531270e+001
9.569587e+002, 3.558829e+001
9.574409e+002, 3.588372e+001
9.579230e+002, 3.594622e+001
9.584051e+002, 3.578155e+001
9.588872e+002, 3.571487e+001
9.593693e+002, 3.577963e+001
9.598514e+002, 3.579362e+001
9.603336e+002, 3.570078e+001
9.608157e+002, 3.558768e+001
9.612978e+002, 3.551786e+001
9.617799e+002, 3.547633e+001
9.622620e+002, 3.541119e+001
9.627441e+002, 3.526891e+001
9.632263e+002, 3.527272e+001
9.637084e+002, 3.566553e+001
9.641905e+002, 3.587313e+001
9.646726e+002, 3.554634e+001
9.651547e+002, 3.513868e+001
9.656368e+002, 3.509845e+001
9.661190e+002, 3.533402e+001
9.666011e+002, 3.538165e+001
9.670832e+002, 3.508795e+001
9.675653e+002, 3.480138e+001
9.680474e+002, 3.464848e+001
9.685295e+002, 3.446476e+001
9.690117e+002, 3.407519e+001
9.694938e+002, 3.364420e+001
9.699759e+002, 3.340151e+001
9.704580e+002, 3.336198e+001
9.709401e+002, 3.337308e+001
9.714222e+002, 3.341354e+001
9.719044e+002, 3.341445e+001
9.723865e+002, 3.339006e+001
9.728686e+002, 3.325920e+001
9.733507e+002, 3.280227e+001
9.738328e+002, 3.219678e+001
9.743149e+002, 3.186894e+001
9.747971e+002, 3.192656e+001
9.752792e+002, 3.204461e+001
9.757613e+002, 3.200634e+001
9.762434e+002, 3.184465e+001
9.767255e+002, 3.153829e+001
9.772076e+002, 3.116363e+001
9.776898e+002, 3.090221e+001
9.781719e+002, 3.074859e+001
9.786540e+002, 3.055835e+001
9.791361e+002, 3.026175e+001
9.796182e+002, 2.993456e+001
9.801003e+002, 2.963791e+001
9.805825e+002, 2.939683e+001
9.810646e+002, 2.937180e+001
9.815467e+002, 2.952123e+001
9.820288e+002, 2.949233e+001
9.825109e+002, 2.921599e+001
9.829930e+002, 2.883012e+001
9.834752e+002, 2.840237e+001
9.839573e+002, 2.802851e+001
9.844394e+002, 2.793780e+001
9.849215e+002, 2.813356e+001
9.854036e+002, 2.812284e+001
9.858857e+002, 2.786847e+001
9.863679e+002, 2.761826e+001
9.868500e+002, 2.742486e+001
9.873321e+002, 2.729203e+001
9.878142e+002, 2.724445e+001
9.882963e+002, 2.723937e+001
9.887784e+002, 2.712527e+001
9.892606e+002, 2.682381e+001
9.897427e+002, 2.671143e+001
9.902248e+002, 2.695922e+001
9.907069e+002, 2.705841e+001
9.911890e+002, 2.674430e+001
9.916711e+002, 2.633459e+001
9.921533e+002, 2.611514e+001
9.926354e+002, 2.606509e+001
9.931175e+002, 2.606675e+001
9.935996e+002, 2.617559e+001
9.940817e+002, 2.623621e+001
9.945638e+002, 2.619628e+001
9.950460e+002, 2.616833e+001
9.955281e+002, 2.627070e+001
9.960102e+002, 2.635467e+001
9.964923e+002, 2.620009e+001
9.969744e+002, 2.584599e+001
9.974565e+002, 2.563457e+001
9.979387e+002, 2.572655e+001
9.984208e+002, 2.580468e+001
9.989029e+002, 2.580064e+001
9.993850e+002, 2.574738e+001
9.998671e+002, 2.561152e+001
1.000349e+003, 2.546783e+001
1.000831e+003, 2.544021e+001
1.001313e+003, 2.552912e+001
1.001796e+003, 2.558120e+001
1.002278e+003, 2.548985e+001
1.002760e+003, 2.541353e+001
1.003242e+003, 2.546746e+001
1.003724e+003, 2.555044e+001
1.004206e+003, 2.556018e+001
1.004688e+003, 2.552710e+001
1.005170e+003, 2.553601e+001
1.005653e+003, 2.560166e+001
1.006135e+003, 2.564834e+001
1.006617e+003, 2.565837e+001
1.007099e+003, 2.558891e+001
1.007581e+003, 2.527237e+001
1.008063e+003, 2.493107e+001
1.008545e+003, 2.498026e+001
1.009027e+003, 2.529094e+001
1.009509e+003, 2.536355e+001
1.009992e+003, 2.504482e+001
1.010474e+003, 2.474420e+001
1.010956e+003, 2.487501e+001
1.011438e+003, 2.517352e+001
1.011920e+003, 2.522221e+001
1.012402e+003, 2.513322e+001
1.012884e+003, 2.520244e+001
1.013366e+003, 2.541801e+001
1.013849e+003, 2.553348e+001
1.014331e+003, 2.544332e+001
1.014813e+003, 2.529688e+001
1.015295e+003, 2.527148e+001
1.015777e+003, 2.530625e+001
1.016259e+003, 2.522098e+001
1.016741e+003, 2.505239e+001
1.017223e+003, 2.497573e+001
1.017705e+003, 2.501389e+001
1.018188e+003, 2.511983e+001
1.018670e+003, 2.527449e+001
1.019152e+003, 2.539534e+001
1.019634e+003, 2.535015e+001
1.020116e+003, 2.517812e+001
1.020598e+003, 2.505338e+001
1.021080e+003, 2.497747e+001
1.021562e+003, 2.499639e+001
1.022044e+003, 2.512258e+001
1.022527e+003, 2.525610e+001
1.023009e+003, 2.533426e+001
1.023491e+003, 2.541802e+001
1.023973e+003, 2.563731e+001
1.024455e+003, 2.597243e+001
1.024937e+003, 2.605658e+001
1.025419e+003, 2.585364e+001
1.025901e+003, 2.570667e+001
1.026384e+003, 2.568621e+001
1.026866e+003, 2.569163e+001
1.027348e+003, 2.565971e+001
1.027830e+003, 2.561663e+001
1.028312e+003, 2.561057e+001
1.028794e+003, 2.564254e+001
1.029276e+003, 2.569262e+001
1.029758e+003, 2.577284e+001
1.030240e+003, 2.583477e+001
1.030723e+003, 2.588623e+001
1.031205e+003, 2.586652e+001
1.031687e+003, 2.567557e+001
1.032169e+003, 2.545580e+001
1.032651e+003, 2.552527e+001
1.033133e+003, 2.593977e+001
1.033615e+003, 2.616396e+001
1.034097e+003, 2.610198e+001
1.034579e+003, 2.605684e+001
1.035062e+003, 2.608245e+001
1.035544e+003, 2.614112e+001
1.036026e+003, 2.621271e+001
1.036508e+003, 2.629778e+001
1.036990e+003, 2.640809e+001
1.037472e+003, 2.656255e+001
1.037954e+003, 2.662939e+001
1.038436e+003, 2.644283e+001
1.038919e+003, 2.643969e+001
1.039401e+003, 2.694886e+001
1.039883e+003, 2.738377e+001
1.040365e+003, 2.723653e+001
1.040847e+003, 2.679129e+001
1.041329e+003, 2.665332e+001
1.041811e+003, 2.687834e+001
1.042293e+003, 2.711053e+001
1.042776e+003, 2.746618e+001
1.043258e+003, 2.765715e+001
1.043740e+003, 2.742459e+001
1.044222e+003, 2.721735e+001
1.044704e+003, 2.745620e+001
1.045186e+003, 2.788182e+001
1.045668e+003, 2.792824e+001
1.046150e+003, 2.747886e+001
1.046632e+003, 2.723661e+001
1.047115e+003, 2.745004e+001
1.047597e+003, 2.763782e+001
1.048079e+003, 2.764795e+001
1.048561e+003, 2.762855e+001
1.049043e+003, 2.766794e+001
1.049525e+003, 2.775754e+001
1.050007e+003, 2.790090e+001
1.050489e+003, 2.811173e+001
1.050971e+003, 2.820035e+001
1.051454e+003, 2.791028e+001
1.051936e+003, 2.779271e+001
1.052418e+003, 2.821191e+001
1.052900e+003, 2.866598e+001
1.053382e+003, 2.875051e+001
1.053864e+003, 2.862245e+001
1.054346e+003, 2.862485e+001
1.054828e+003, 2.881144e+001
1.055311e+003, 2.888547e+001
1.055793e+003, 2.859243e+001
1.056275e+003, 2.841370e+001
1.056757e+003, 2.864684e+001
1.057239e+003, 2.892495e+001
1.057721e+003, 2.895308e+001
1.058203e+003, 2.883694e+001
1.058685e+003, 2.876439e+001
1.059167e+003, 2.876851e+001
1.059650e+003, 2.887579e+001
1.060132e+003, 2.925810e+001
1.060614e+003, 2.952486e+001
1.061096e+003, 2.949208e+001
1.061578e+003, 2.932455e+001
1.062060e+003, 2.902844e+001
1.062542e+003, 2.874129e+001
1.063024e+003, 2.868659e+001
1.063506e+003, 2.888541e+001
1.063989e+003, 2.911482e+001
1.064471e+003, 2.941480e+001
1.064953e+003, 2.955999e+001
1.065435e+003, 2.930672e+001
1.065917e+003, 2.901304e+001
1.066399e+003, 2.898293e+001
1.066881e+003, 2.908278e+001
1.067363e+003, 2.906344e+001
1.067846e+003, 2.890570e+001
1.068328e+003, 2.880760e+001
1.068810e+003, 2.884939e+001
1.069292e+003, 2.895253e+001
1.069774e+003, 2.919559e+001
1.070256e+003, 2.937186e+001
1.070738e+003, 2.925173e+001
1.071220e+003, 2.900840e+001
1.071703e+003, 2.893453e+001
1.072185e+003, 2.902407e+001
1.072667e+003, 2.895971e+001
1.073149e+003, 2.848241e+001
1.073631e+003, 2.816573e+001
1.074113e+003, 2.847451e+001
1.074595e+003, 2.883298e+001
1.075077e+003, 2.879740e+001
1.075559e+003, 2.857273e+001
1.076042e+003, 2.843258e+001
1.076524e+003, 2.840605e+001
1.077006e+003, 2.841951e+001
1.077488e+003, 2.848345e+001
1.077970e+003, 2.846920e+001
1.078452e+003, 2.824655e+001
1.078934e+003, 2.800241e+001
1.079416e+003, 2.783106e+001
1.079898e+003, 2.773195e+001
1.080380e+003, 2.773230e+001
1.080863e+003, 2.779458e+001
1.081345e+003, 2.780328e+001
1.081827e+003, 2.771394e+001
1.082309e+003, 2.761533e+001
1.082791e+003, 2.761232e+001
1.083273e+003, 2.753591e+001
1.083755e+003, 2.713997e+001
1.084237e+003, 2.672729e+001
1.084720e+003, 2.671926e+001
1.085202e+003, 2.696570e+001
1.085684e+003, 2.696923e+001
1.086166e+003, 2.657444e+001
1.086648e+003, 2.620162e+001
1.087130e+003, 2.596353e+001
1.087612e+003, 2.587234e+001
1.088094e+003, 2.610068e+001
1.088577e+003, 2.633283e+001
1.089059e+003, 2.623275e+001
1.089541e+003, 2.591615e+001
1.090023e+003, 2.564979e+001
1.090505e+003, 2.548720e+001
1.090987e+003, 2.541988e+001
1.091469e+003, 2.558663e+001
1.091951e+003, 2.565831e+001
1.092433e+003, 2.539754e+001
1.092916e+003, 2.508161e+001
1.093398e+003, 2.491861e+001
1.093880e+003, 2.486255e+001
1.094362e+003, 2.483085e+001
1.094844e+003, 2.480424e+001
1.095326e+003, 2.473290e+001
1.095808e+003, 2.455697e+001
1.096290e+003, 2.439994e+001
1.096772e+003, 2.427385e+001
1.097255e+003, 2.420966e+001
1.097737e+003, 2.429262e+001
1.098219e+003, 2.440812e+001
1.098701e+003, 2.439020e+001
1.099183e+003, 2.424491e+001
1.099665e+003, 2.413268e+001
1.100147e+003, 2.415542e+001
1.100629e+003, 2.407559e+001
1.101112e+003, 2.365665e+001
1.101594e+003, 2.333002e+001
1.102076e+003, 2.343046e+001
1.102558e+003, 2.363569e+001
1.103040e+003, 2.357075e+001
1.103522e+003, 2.329678e+001
1.104004e+003, 2.313602e+001
1.104486e+003, 2.316629e+001
1.104969e+003, 2.320888e+001
1.105451e+003, 2.328901e+001
1.105933e+003, 2.330306e+001
1.106415e+003, 2.313963e+001
1.106897e+003, 2.296538e+001
1.107379e+003, 2.295302e+001
1.107861e+003, 2.302575e+001
1.108343e+003, 2.296279e+001
1.108825e+003, 2.270208e+001
1.109307e+003, 2.257294e+001
1.109790e+003, 2.265712e+001
1.110272e+003, 2.279947e+001
1.110754e+003, 2.308044e+001
1.111236e+003, 2.329359e+001
1.111718e+003, 2.330344e+001
1.112200e+003, 2.317301e+001
1.112682e+003, 2.296066e+001
1.113164e+003, 2.265672e+001
1.113647e+003, 2.252024e+001
1.114129e+003, 2.278726e+001
1.114611e+003, 2.282384e+001
1.115093e+003, 2.231612e+001
1.115575e+003, 2.194626e+001
1.116057e+003, 2.209434e+001
1.116539e+003, 2.243976e+001
1.117021e+003, 2.262931e+001
1.117504e+003, 2.268254e+001
1.117986e+003, 2.274933e+001
1.118468e+003, 2.288813e+001
1.118950e+003, 2.289429e+001
1.119432e+003, 2.270119e+001
1.119914e+003, 2.249887e+001
1.120396e+003, 2.230829e+001
1.120878e+003, 2.219055e+001
1.121360e+003, 2.220835e+001
1.121843e+003, 2.233168e+001
1.122325e+003, 2.248059e+001
1.122807e+003, 2.266823e+001
1.123289e+003, 2.279705e+001
1.123771e+003, 2.284948e+001
1.124253e+003, 2.290511e+001
1.124735e+003, 2.298277e+001
1.125217e+003, 2.306077e+001
1.125699e+003, 2.312492e+001
1.126182e+003, 2.318499e+001
1.126664e+003, 2.327172e+001
1.127146e+003, 2.337679e+001
1.127628e+003, 2.332012e+001
1.128110e+003, 2.307502e+001
1.128592e+003, 2.290574e+001
1.129074e+003, 2.284609e+001
1.129556e+003, 2.288793e+001
1.130039e+003, 2.304438e+001
1.130521e+003, 2.320725e+001
1.131003e+003, 2.326050e+001
1.131485e+003, 2.320880e+001
1.131967e+003, 2.300673e+001
1.132449e+003, 2.267481e+001
1.132931e+003, 2.262210e+001
1.133413e+003, 2.286358e+001
1.133896e+003, 2.306178e+001
1.134378e+003, 2.311359e+001
1.134860e+003, 2.315672e+001
1.135342e+003, 2.330272e+001
1.135824e+003, 2.347861e+001
1.136306e+003, 2.355878e+001
1.136788e+003, 2.355478e+001
1.137270e+003, 2.345429e+001
1.137752e+003, 2.330368e+001
1.138234e+003, 2.337545e+001
1.138717e+003, 2.367670e+001
1.139199e+003, 2.386639e+001
1.139681e+003, 2.376995e+001
1.140163e+003, 2.360074e+001
1.140645e+003, 2.363128e+001
1.141127e+003, 2.371599e+001
1.141609e+003, 2.352646e+001
1.142091e+003, 2.320744e+001
1.142574e+003, 2.307470e+001
1.143056e+003, 2.312592e+001
1.143538e+003, 2.324362e+001
1.144020e+003, 2.337753e+001
1.144502e+003, 2.347363e+001
1.144984e+003, 2.348716e+001
1.145466e+003, 2.346396e+001
1.145948e+003, 2.345623e+001
1.146431e+003, 2.343622e+001
1.146913e+003, 2.332781e+001
1.147395e+003, 2.319895e+001
1.147877e+003, 2.320553e+001
1.148359e+003, 2.333100e+001
1.148841e+003, 2.338354e+001
1.149323e+003, 2.326481e+001
1.149805e+003, 2.317509e+001
1.150287e+003, 2.325065e+001
1.150770e+003, 2.338912e+001
1.151252e+003, 2.359161e+001
1.151734e+003, 2.375694e+001
1.152216e+003, 2.373145e+001
1.152698e+003, 2.359411e+001
1.153180e+003, 2.354165e+001
1.153662e+003, 2.361519e+001
1.154144e+003, 2.370238e+001
1.154626e+003, 2.378809e+001
1.155109e+003, 2.385013e+001
1.155591e+003, 2.390414e+001
1.156073e+003, 2.390746e+001
1.156555e+003, 2.378988e+001
1.157037e+003, 2.363447e+001
1.157519e+003, 2.353572e+001
1.158001e+003, 2.349921e+001
1.158483e+003, 2.351359e+001
1.158966e+003, 2.361098e+001
1.159448e+003, 2.368745e+001
1.159930e+003, 2.368925e+001
1.160412e+003, 2.373613e+001
1.160894e+003, 2.392247e+001
1.161376e+003, 2.409528e+001
1.161858e+003, 2.415251e+001
1.162340e+003, 2.410917e+001
1.162822e+003, 2.397805e+001
1.163305e+003, 2.374080e+001
1.163787e+003, 2.360947e+001
1.164269e+003, 2.359512e+001
1.164751e+003, 2.366922e+001
1.165233e+003, 2.386948e+001
1.165715e+003, 2.403393e+001
1.166197e+003, 2.407904e+001
1.166679e+003, 2.407303e+001
1.167161e+003, 2.409285e+001
1.167644e+003, 2.413314e+001
1.168126e+003, 2.418449e+001
1.168608e+003, 2.424951e+001
1.169090e+003, 2.421636e+001
1.169572e+003, 2.407566e+001
1.170054e+003, 2.402790e+001
1.170536e+003, 2.412938e+001
1.171018e+003, 2.427346e+001
1.171500e+003, 2.439970e+001
1.171983e+003, 2.443222e+001
1.172465e+003, 2.415188e+001
1.172947e+003, 2.371520e+001
1.173429e+003, 2.370251e+001
1.173911e+003, 2.399873e+001
1.174393e+003, 2.415987e+001
1.174875e+003, 2.415992e+001
1.175357e+003, 2.421687e+001
1.175840e+003, 2.440774e+001
1.176322e+003, 2.459940e+001
1.176804e+003, 2.470465e+001
1.177286e+003, 2.470718e+001
1.177768e+003, 2.447883e+001
1.178250e+003, 2.421423e+001
1.178732e+003, 2.421696e+001
1.179214e+003, 2.440001e+001
1.179697e+003, 2.461713e+001
1.180179e+003, 2.479960e+001
1.180661e+003, 2.481508e+001
1.181143e+003, 2.458662e+001
1.181625e+003, 2.437406e+001
1.182107e+003, 2.433709e+001
1.182589e+003, 2.436651e+001
1.183071e+003, 2.442544e+001
1.183553e+003, 2.448650e+001
1.184036e+003, 2.451370e+001
1.184518e+003, 2.452994e+001
1.185000e+003, 2.459375e+001
1.185482e+003, 2.470828e+001
1.185964e+003, 2.477747e+001
1.186446e+003, 2.471280e+001
1.186928e+003, 2.471025e+001
1.187410e+003, 2.490200e+001
1.187892e+003, 2.503817e+001
1.188375e+003, 2.496671e+001
1.188857e+003, 2.483405e+001
1.189339e+003, 2.478297e+001
1.189821e+003, 2.477707e+001
1.190303e+003, 2.470759e+001
1.190785e+003, 2.455814e+001
1.191267e+003, 2.443056e+001
1.191749e+003, 2.426832e+001
1.192232e+003, 2.431110e+001
1.192714e+003, 2.467531e+001
1.193196e+003, 2.501804e+001
1.193678e+003, 2.516903e+001
1.194160e+003, 2.521826e+001
1.194642e+003, 2.528528e+001
1.195124e+003, 2.532814e+001
1.195606e+003, 2.512898e+001
1.196089e+003, 2.470291e+001
1.196571e+003, 2.446386e+001
1.197053e+003, 2.442807e+001
1.197535e+003, 2.454031e+001
1.198017e+003, 2.477307e+001
1.198499e+003, 2.488740e+001
1.198981e+003, 2.472556e+001
1.199463e+003, 2.451255e+001
1.199945e+003, 2.458478e+001
1.200427e+003, 2.478680e+001
1.200910e+003, 2.480976e+001
1.201392e+003, 2.471713e+001
1.201874e+003, 2.458690e+001
1.202356e+003, 2.448371e+001
1.202838e+003, 2.460308e+001
1.203320e+003, 2.495086e+001
1.203802e+003, 2.517495e+001
1.204284e+003, 2.501749e+001
1.204767e+003, 2.483927e+001
1.205249e+003, 2.497563e+001
1.205731e+003, 2.513767e+001
1.206213e+003, 2.503204e+001
1.206695e+003, 2.485155e+001
1.207177e+003, 2.485882e+001
1.207659e+003, 2.500054e+001
1.208141e+003, 2.507802e+001
1.208624e+003, 2.505139e+001
1.209106e+003, 2.497958e+001
1.209588e+003, 2.483195e+001
1.210070e+003, 2.470791e+001
1.210552e+003, 2.455295e+001
1.211034e+003, 2.451478e+001
1.211516e+003, 2.481442e+001
1.211998e+003, 2.513830e+001
1.212480e+003, 2.514907e+001
1.212963e+003, 2.492696e+001
1.213445e+003, 2.477223e+001
1.213927e+003, 2.468956e+001
1.214409e+003, 2.466630e+001
1.214891e+003, 2.474488e+001
1.215373e+003, 2.468575e+001
1.215855e+003, 2.439919e+001
1.216337e+003, 2.420481e+001
1.216819e+003, 2.428971e+001
1.217302e+003, 2.445020e+001
1.217784e+003, 2.443108e+001
1.218266e+003, 2.430096e+001
1.218748e+003, 2.427493e+001
1.219230e+003, 2.433146e+001
1.219712e+003, 2.437742e+001
1.220194e+003, 2.440024e+001
1.220676e+003, 2.433237e+001
1.221159e+003, 2.418712e+001
1.221641e+003, 2.417508e+001
1.222123e+003, 2.441821e+001
1.222605e+003, 2.461004e+001
1.223087e+003, 2.427854e+001
1.223569e+003, 2.389789e+001
1.224051e+003, 2.415511e+001
1.224533e+003, 2.458333e+001
1.225016e+003, 2.448902e+001
1.225498e+003, 2.410440e+001
1.225980e+003, 2.403970e+001
1.226462e+003, 2.432565e+001
1.226944e+003, 2.440520e+001
1.227426e+003, 2.396621e+001
1.227908e+003, 2.366284e+001
1.228390e+003, 2.387756e+001
1.228872e+003, 2.406496e+001
1.229354e+003, 2.394387e+001
1.229837e+003, 2.375840e+001
1.230319e+003, 2.369257e+001
1.230801e+003, 2.370263e+001
1.231283e+003, 2.372071e+001
1.231765e+003, 2.374399e+001
1.232247e+003, 2.365953e+001
1.232729e+003, 2.340868e+001
1.233211e+003, 2.323403e+001
1.233694e+003, 2.316163e+001
1.234176e+003, 2.310785e+001
1.234658e+003, 2.304741e+001
1.235140e+003, 2.300520e+001
1.235622e+003, 2.300458e+001
1.236104e+003, 2.300922e+001
1.236586e+003, 2.294981e+001
1.237068e+003, 2.284590e+001
1.237551e+003, 2.278917e+001
1.238033e+003, 2.276273e+001
1.238515e+003, 2.268616e+001
1.238997e+003, 2.255968e+001
1.239479e+003, 2.241498e+001
1.239961e+003, 2.226905e+001
1.240443e+003, 2.215051e+001
1.240925e+003, 2.206891e+001
1.241407e+003, 2.206745e+001
1.241890e+003, 2.227988e+001
1.242372e+003, 2.249579e+001
1.242854e+003, 2.250681e+001
1.243336e+003, 2.240152e+001
1.243818e+003, 2.223901e+001
1.244300e+003, 2.207750e+001
1.244782e+003, 2.204525e+001
1.245264e+003, 2.214288e+001
1.245746e+003, 2.210703e+001
1.246229e+003, 2.171608e+001
1.246711e+003, 2.147243e+001
1.247193e+003, 2.157084e+001
1.247675e+003, 2.167944e+001
1.248157e+003, 2.167056e+001
1.248639e+003, 2.165516e+001
1.249121e+003, 2.172821e+001
1.249603e+003, 2.183196e+001
1.250085e+003, 2.188470e+001
1.250568e+003, 2.187699e+001
1.251050e+003, 2.157387e+001
1.251532e+003, 2.091161e+001
1.252014e+003, 2.072210e+001
1.252496e+003, 2.108751e+001
1.252978e+003, 2.132539e+001
1.253460e+003, 2.123159e+001
1.253942e+003, 2.112724e+001
1.254425e+003, 2.123694e+001
1.254907e+003, 2.140648e+001
1.255389e+003, 2.141873e+001
1.255871e+003, 2.134493e+001
1.256353e+003, 2.129928e+001
1.256835e+003, 2.127803e+001
1.257317e+003, 2.130701e+001
1.257799e+003, 2.134530e+001
1.258281e+003, 2.127848e+001
1.258764e+003, 2.110610e+001
1.259246e+003, 2.096387e+001
1.259728e+003, 2.090375e+001
1.260210e+003, 2.090335e+001
1.260692e+003, 2.101100e+001
1.261174e+003, 2.109868e+001
1.261656e+003, 2.111716e+001
1.262138e+003, 2.108104e+001
1.262620e+003, 2.098624e+001
1.263103e+003, 2.085310e+001
1.263585e+003, 2.067554e+001
1.264067e+003, 2.047550e+001
1.264549e+003, 2.046044e+001
1.265031e+003, 2.072579e+001
1.265513e+003, 2.083468e+001
1.265995e+003, 2.073566e+001
1.266477e+003, 2.071679e+001
1.266960e+003, 2.086203e+001
1.267442e+003, 2.093853e+001
1.267924e+003, 2.080669e+001
1.268406e+003, 2.064140e+001
1.268888e+003, 2.066649e+001
1.269370e+003, 2.077787e+001
1.269852e+003, 2.071133e+001
1.270334e+003, 2.054832e+001
1.270817e+003, 2.046936e+001
1.271299e+003, 2.048303e+001
1.271781e+003, 2.062392e+001
1.272263e+003, 2.084406e+001
1.272745e+003, 2.094813e+001
1.273227e+003, 2.086109e+001
1.273709e+003, 2.081500e+001
1.274191e+003, 2.103573e+001
1.274673e+003, 2.121079e+001
1.275156e+003, 2.112367e+001
1.275638e+003, 2.100773e+001
1.276120e+003, 2.106823e+001
1.276602e+003, 2.114537e+001
1.277084e+003, 2.100931e+001
1.277566e+003, 2.073465e+001
1.278048e+003, 2.057871e+001
1.278530e+003, 2.054384e+001
1.279012e+003, 2.062515e+001
1.279495e+003, 2.087068e+001
1.279977e+003, 2.106335e+001
1.280459e+003, 2.119129e+001
1.280941e+003, 2.119126e+001
1.281423e+003, 2.102525e+001
1.281905e+003, 2.086674e+001
1.282387e+003, 2.085988e+001
1.282869e+003, 2.089769e+001
1.283352e+003, 2.077796e+001
1.283834e+003, 2.057540e+001
1.284316e+003, 2.044864e+001
1.284798e+003, 2.039865e+001
##END=



