##NAMES=Opal
##RRUFFID=R060652
##IDEAL CHEMISTRY=SiO_2_&#183;<i>n</i>H_2_O
##LOCALITY=Ethiopia
##OWNER=RRUFF
##SOURCE=Gemological Institute of America
##DESCRIPTION=Colorless cloudy glassy fragment, variety opal-C
##STATUS=The identification of this mineral has been confirmed by X-ray diffraction and chemical analysis
##URL=rruff.info/R060652
##MEASURED CHEMISTRY=(Si_0.98_Al_0.02_)_Σ=1_(O_1.98_(OH)_0.02_)_Σ=2_·0.57H_2_O; OH estimated by charge balance; H_2_O by difference
9.059570e+001, 5.488064e+002
9.107782e+001, 5.432365e+002
9.155994e+001, 5.412828e+002
9.204205e+001, 5.458157e+002
9.252417e+001, 5.520067e+002
9.300629e+001, 5.580598e+002
9.348840e+001, 5.605817e+002
9.397052e+001, 5.564982e+002
9.445264e+001, 5.454792e+002
9.493475e+001, 5.351020e+002
9.541687e+001, 5.252756e+002
9.589898e+001, 5.161797e+002
9.638110e+001, 5.079511e+002
9.686321e+001, 5.008650e+002
9.734533e+001, 4.946878e+002
9.782745e+001, 4.881273e+002
9.830956e+001, 4.814910e+002
9.879168e+001, 4.744102e+002
9.927380e+001, 4.678522e+002
9.975591e+001, 4.623378e+002
1.002380e+002, 4.574485e+002
1.007201e+002, 4.520956e+002
1.012023e+002, 4.452080e+002
1.016844e+002, 4.374397e+002
1.021665e+002, 4.313331e+002
1.026486e+002, 4.276441e+002
1.031307e+002, 4.249515e+002
1.036128e+002, 4.220309e+002
1.040950e+002, 4.187886e+002
1.045771e+002, 4.156034e+002
1.050592e+002, 4.124738e+002
1.055413e+002, 4.094540e+002
1.060234e+002, 4.067270e+002
1.065055e+002, 4.043255e+002
1.069877e+002, 4.022383e+002
1.074698e+002, 4.005748e+002
1.079519e+002, 4.002643e+002
1.084340e+002, 3.991084e+002
1.089161e+002, 3.960993e+002
1.093982e+002, 3.915482e+002
1.098804e+002, 3.862767e+002
1.103625e+002, 3.807178e+002
1.108446e+002, 3.745932e+002
1.113267e+002, 3.697830e+002
1.118088e+002, 3.671173e+002
1.122909e+002, 3.649390e+002
1.127731e+002, 3.624828e+002
1.132552e+002, 3.596555e+002
1.137373e+002, 3.568308e+002
1.142194e+002, 3.545754e+002
1.147015e+002, 3.531510e+002
1.151836e+002, 3.518932e+002
1.156658e+002, 3.513360e+002
1.161479e+002, 3.507008e+002
1.166300e+002, 3.491018e+002
1.171121e+002, 3.461848e+002
1.175942e+002, 3.425045e+002
1.180763e+002, 3.393799e+002
1.185584e+002, 3.370231e+002
1.190406e+002, 3.346190e+002
1.195227e+002, 3.316290e+002
1.200048e+002, 3.283624e+002
1.204869e+002, 3.256906e+002
1.209690e+002, 3.241614e+002
1.214511e+002, 3.234123e+002
1.219333e+002, 3.225088e+002
1.224154e+002, 3.213504e+002
1.228975e+002, 3.202027e+002
1.233796e+002, 3.194286e+002
1.238617e+002, 3.190979e+002
1.243438e+002, 3.185138e+002
1.248260e+002, 3.170511e+002
1.253081e+002, 3.152610e+002
1.257902e+002, 3.136359e+002
1.262723e+002, 3.124389e+002
1.267544e+002, 3.114014e+002
1.272365e+002, 3.098415e+002
1.277187e+002, 3.071657e+002
1.282008e+002, 3.049819e+002
1.286829e+002, 3.040433e+002
1.291650e+002, 3.037414e+002
1.296471e+002, 3.032605e+002
1.301292e+002, 3.020495e+002
1.306114e+002, 3.001748e+002
1.310935e+002, 2.985981e+002
1.315756e+002, 2.977395e+002
1.320577e+002, 2.967856e+002
1.325398e+002, 2.954283e+002
1.330219e+002, 2.937900e+002
1.335041e+002, 2.922502e+002
1.339862e+002, 2.911957e+002
1.344683e+002, 2.907989e+002
1.349504e+002, 2.896125e+002
1.354325e+002, 2.869160e+002
1.359146e+002, 2.841610e+002
1.363968e+002, 2.820767e+002
1.368789e+002, 2.807682e+002
1.373610e+002, 2.800730e+002
1.378431e+002, 2.799762e+002
1.383252e+002, 2.806749e+002
1.388073e+002, 2.808876e+002
1.392895e+002, 2.802293e+002
1.397716e+002, 2.791725e+002
1.402537e+002, 2.783575e+002
1.407358e+002, 2.780143e+002
1.412179e+002, 2.775700e+002
1.417000e+002, 2.760576e+002
1.421821e+002, 2.735811e+002
1.426643e+002, 2.712828e+002
1.431464e+002, 2.697676e+002
1.436285e+002, 2.688403e+002
1.441106e+002, 2.677475e+002
1.445927e+002, 2.661310e+002
1.450748e+002, 2.645453e+002
1.455570e+002, 2.634809e+002
1.460391e+002, 2.629435e+002
1.465212e+002, 2.625722e+002
1.470033e+002, 2.621151e+002
1.474854e+002, 2.615744e+002
1.479675e+002, 2.609147e+002
1.484497e+002, 2.601044e+002
1.489318e+002, 2.591709e+002
1.494139e+002, 2.580219e+002
1.498960e+002, 2.566638e+002
1.503781e+002, 2.553186e+002
1.508602e+002, 2.543511e+002
1.513424e+002, 2.539304e+002
1.518245e+002, 2.535258e+002
1.523066e+002, 2.530476e+002
1.527887e+002, 2.525784e+002
1.532708e+002, 2.522196e+002
1.537529e+002, 2.520048e+002
1.542351e+002, 2.518329e+002
1.547172e+002, 2.514466e+002
1.551993e+002, 2.505315e+002
1.556814e+002, 2.497705e+002
1.561635e+002, 2.495132e+002
1.566456e+002, 2.493345e+002
1.571278e+002, 2.485996e+002
1.576099e+002, 2.469487e+002
1.580920e+002, 2.447219e+002
1.585741e+002, 2.434080e+002
1.590562e+002, 2.437278e+002
1.595383e+002, 2.440006e+002
1.600205e+002, 2.436841e+002
1.605026e+002, 2.430085e+002
1.609847e+002, 2.425706e+002
1.614668e+002, 2.428076e+002
1.619489e+002, 2.434861e+002
1.624310e+002, 2.435724e+002
1.629131e+002, 2.427295e+002
1.633953e+002, 2.416799e+002
1.638774e+002, 2.407565e+002
1.643595e+002, 2.399575e+002
1.648416e+002, 2.392840e+002
1.653237e+002, 2.387347e+002
1.658058e+002, 2.383315e+002
1.662880e+002, 2.381114e+002
1.667701e+002, 2.383155e+002
1.672522e+002, 2.385164e+002
1.677343e+002, 2.381102e+002
1.682164e+002, 2.369485e+002
1.686985e+002, 2.358882e+002
1.691807e+002, 2.355384e+002
1.696628e+002, 2.355658e+002
1.701449e+002, 2.356051e+002
1.706270e+002, 2.355370e+002
1.711091e+002, 2.353889e+002
1.715912e+002, 2.352503e+002
1.720734e+002, 2.352280e+002
1.725555e+002, 2.349968e+002
1.730376e+002, 2.342703e+002
1.735197e+002, 2.333218e+002
1.740018e+002, 2.325649e+002
1.744839e+002, 2.323232e+002
1.749661e+002, 2.324654e+002
1.754482e+002, 2.321616e+002
1.759303e+002, 2.307461e+002
1.764124e+002, 2.296278e+002
1.768945e+002, 2.293207e+002
1.773766e+002, 2.295646e+002
1.778588e+002, 2.298972e+002
1.783409e+002, 2.299964e+002
1.788230e+002, 2.298609e+002
1.793051e+002, 2.296410e+002
1.797872e+002, 2.290413e+002
1.802693e+002, 2.286431e+002
1.807515e+002, 2.288144e+002
1.812336e+002, 2.293707e+002
1.817157e+002, 2.298270e+002
1.821978e+002, 2.297429e+002
1.826799e+002, 2.290362e+002
1.831620e+002, 2.285802e+002
1.836441e+002, 2.285212e+002
1.841263e+002, 2.285184e+002
1.846084e+002, 2.284235e+002
1.850905e+002, 2.282275e+002
1.855726e+002, 2.279842e+002
1.860547e+002, 2.277349e+002
1.865368e+002, 2.274769e+002
1.870190e+002, 2.272633e+002
1.875011e+002, 2.270716e+002
1.879832e+002, 2.269390e+002
1.884653e+002, 2.269688e+002
1.889474e+002, 2.271589e+002
1.894296e+002, 2.272742e+002
1.899117e+002, 2.270431e+002
1.903938e+002, 2.264725e+002
1.908759e+002, 2.259480e+002
1.913580e+002, 2.254036e+002
1.918401e+002, 2.249760e+002
1.923223e+002, 2.249255e+002
1.928044e+002, 2.253566e+002
1.932865e+002, 2.257676e+002
1.937686e+002, 2.255164e+002
1.942507e+002, 2.248062e+002
1.947328e+002, 2.242425e+002
1.952150e+002, 2.240730e+002
1.956971e+002, 2.241612e+002
1.961792e+002, 2.242526e+002
1.966613e+002, 2.243389e+002
1.971434e+002, 2.244001e+002
1.976255e+002, 2.244227e+002
1.981077e+002, 2.244115e+002
1.985898e+002, 2.243737e+002
1.990719e+002, 2.242375e+002
1.995540e+002, 2.240577e+002
2.000361e+002, 2.240996e+002
2.005182e+002, 2.245474e+002
2.010004e+002, 2.249727e+002
2.014825e+002, 2.251628e+002
2.019646e+002, 2.251563e+002
2.024467e+002, 2.250469e+002
2.029288e+002, 2.248290e+002
2.034109e+002, 2.245191e+002
2.038930e+002, 2.244186e+002
2.043752e+002, 2.247765e+002
2.048573e+002, 2.250987e+002
2.053394e+002, 2.251557e+002
2.058215e+002, 2.250197e+002
2.063036e+002, 2.248845e+002
2.067857e+002, 2.249074e+002
2.072679e+002, 2.250957e+002
2.077500e+002, 2.253053e+002
2.082321e+002, 2.256109e+002
2.087142e+002, 2.258692e+002
2.091963e+002, 2.260146e+002
2.096784e+002, 2.260665e+002
2.101606e+002, 2.260932e+002
2.106427e+002, 2.261673e+002
2.111248e+002, 2.263102e+002
2.116069e+002, 2.262941e+002
2.120890e+002, 2.258635e+002
2.125711e+002, 2.255238e+002
2.130533e+002, 2.255251e+002
2.135354e+002, 2.258170e+002
2.140175e+002, 2.261855e+002
2.144996e+002, 2.264450e+002
2.149817e+002, 2.265893e+002
2.154638e+002, 2.266488e+002
2.159460e+002, 2.263904e+002
2.164281e+002, 2.262682e+002
2.169102e+002, 2.265914e+002
2.173923e+002, 2.273035e+002
2.178744e+002, 2.280802e+002
2.183565e+002, 2.286107e+002
2.188387e+002, 2.288490e+002
2.193208e+002, 2.292827e+002
2.198029e+002, 2.303017e+002
2.202850e+002, 2.311823e+002
2.207671e+002, 2.313130e+002
2.212492e+002, 2.307567e+002
2.217314e+002, 2.302301e+002
2.222135e+002, 2.304252e+002
2.226956e+002, 2.313906e+002
2.231777e+002, 2.318294e+002
2.236598e+002, 2.311931e+002
2.241419e+002, 2.304380e+002
2.246240e+002, 2.302751e+002
2.251062e+002, 2.307358e+002
2.255883e+002, 2.314682e+002
2.260704e+002, 2.323603e+002
2.265525e+002, 2.333215e+002
2.270346e+002, 2.338201e+002
2.275167e+002, 2.334520e+002
2.279989e+002, 2.328373e+002
2.284810e+002, 2.325022e+002
2.289631e+002, 2.324737e+002
2.294452e+002, 2.326269e+002
2.299273e+002, 2.329447e+002
2.304094e+002, 2.333823e+002
2.308916e+002, 2.338148e+002
2.313737e+002, 2.342382e+002
2.318558e+002, 2.346374e+002
2.323379e+002, 2.350220e+002
2.328200e+002, 2.354054e+002
2.333021e+002, 2.356749e+002
2.337843e+002, 2.356015e+002
2.342664e+002, 2.353933e+002
2.347485e+002, 2.353799e+002
2.352306e+002, 2.357172e+002
2.357127e+002, 2.362225e+002
2.361948e+002, 2.366178e+002
2.366770e+002, 2.368488e+002
2.371591e+002, 2.372077e+002
2.376412e+002, 2.380639e+002
2.381233e+002, 2.390683e+002
2.386054e+002, 2.397955e+002
2.390875e+002, 2.399892e+002
2.395697e+002, 2.400340e+002
2.400518e+002, 2.406538e+002
2.405339e+002, 2.421179e+002
2.410160e+002, 2.432939e+002
2.414981e+002, 2.435677e+002
2.419802e+002, 2.434290e+002
2.424624e+002, 2.432908e+002
2.429445e+002, 2.432859e+002
2.434266e+002, 2.433559e+002
2.439087e+002, 2.433644e+002
2.443908e+002, 2.432121e+002
2.448729e+002, 2.432793e+002
2.453550e+002, 2.437722e+002
2.458372e+002, 2.444532e+002
2.463193e+002, 2.451455e+002
2.468014e+002, 2.457922e+002
2.472835e+002, 2.464073e+002
2.477656e+002, 2.470762e+002
2.482477e+002, 2.479599e+002
2.487299e+002, 2.484773e+002
2.492120e+002, 2.482088e+002
2.496941e+002, 2.477707e+002
2.501762e+002, 2.475669e+002
2.506583e+002, 2.477315e+002
2.511404e+002, 2.482483e+002
2.516226e+002, 2.492195e+002
2.521047e+002, 2.511177e+002
2.525868e+002, 2.523554e+002
2.530689e+002, 2.525386e+002
2.535510e+002, 2.522995e+002
2.540331e+002, 2.519719e+002
2.545153e+002, 2.516804e+002
2.549974e+002, 2.514948e+002
2.554795e+002, 2.514863e+002
2.559616e+002, 2.515203e+002
2.564437e+002, 2.520835e+002
2.569258e+002, 2.536589e+002
2.574080e+002, 2.553186e+002
2.578901e+002, 2.564575e+002
2.583722e+002, 2.569688e+002
2.588543e+002, 2.571583e+002
2.593364e+002, 2.574177e+002
2.598185e+002, 2.577553e+002
2.603007e+002, 2.581525e+002
2.607828e+002, 2.585966e+002
2.612649e+002, 2.590979e+002
2.617470e+002, 2.596360e+002
2.622291e+002, 2.602250e+002
2.627112e+002, 2.609335e+002
2.631934e+002, 2.619010e+002
2.636755e+002, 2.633525e+002
2.641576e+002, 2.641901e+002
2.646397e+002, 2.638274e+002
2.651218e+002, 2.634615e+002
2.656039e+002, 2.637340e+002
2.660861e+002, 2.646623e+002
2.665682e+002, 2.659373e+002
2.670503e+002, 2.673195e+002
2.675324e+002, 2.688875e+002
2.680145e+002, 2.699696e+002
2.684966e+002, 2.702706e+002
2.689788e+002, 2.704622e+002
2.694609e+002, 2.708658e+002
2.699430e+002, 2.714629e+002
2.704251e+002, 2.720690e+002
2.709072e+002, 2.725432e+002
2.713893e+002, 2.728806e+002
2.718715e+002, 2.731122e+002
2.723536e+002, 2.728214e+002
2.728357e+002, 2.728470e+002
2.733178e+002, 2.737611e+002
2.737999e+002, 2.753199e+002
2.742820e+002, 2.768189e+002
2.747642e+002, 2.777597e+002
2.752463e+002, 2.782067e+002
2.757284e+002, 2.789460e+002
2.762105e+002, 2.802972e+002
2.766926e+002, 2.815248e+002
2.771747e+002, 2.823015e+002
2.776568e+002, 2.827697e+002
2.781389e+002, 2.832432e+002
2.786211e+002, 2.838843e+002
2.791032e+002, 2.846705e+002
2.795853e+002, 2.855262e+002
2.800674e+002, 2.864748e+002
2.805495e+002, 2.874522e+002
2.810316e+002, 2.884686e+002
2.815138e+002, 2.895016e+002
2.819959e+002, 2.905342e+002
2.824780e+002, 2.915726e+002
2.829601e+002, 2.925655e+002
2.834422e+002, 2.933357e+002
2.839243e+002, 2.937946e+002
2.844065e+002, 2.942505e+002
2.848886e+002, 2.946003e+002
2.853707e+002, 2.950273e+002
2.858528e+002, 2.958818e+002
2.863349e+002, 2.973179e+002
2.868170e+002, 2.989828e+002
2.872992e+002, 3.002994e+002
2.877813e+002, 3.012136e+002
2.882634e+002, 3.019963e+002
2.887455e+002, 3.023910e+002
2.892276e+002, 3.027880e+002
2.897097e+002, 3.037979e+002
2.901919e+002, 3.055820e+002
2.906740e+002, 3.074847e+002
2.911561e+002, 3.086568e+002
2.916382e+002, 3.089736e+002
2.921203e+002, 3.094897e+002
2.926024e+002, 3.105844e+002
2.930846e+002, 3.117667e+002
2.935667e+002, 3.124909e+002
2.940488e+002, 3.126971e+002
2.945309e+002, 3.128095e+002
2.950130e+002, 3.131727e+002
2.954951e+002, 3.138117e+002
2.959773e+002, 3.146485e+002
2.964594e+002, 3.159294e+002
2.969415e+002, 3.172262e+002
2.974236e+002, 3.182425e+002
2.979057e+002, 3.189596e+002
2.983878e+002, 3.194208e+002
2.988700e+002, 3.195295e+002
2.993521e+002, 3.193922e+002
2.998342e+002, 3.196488e+002
3.003163e+002, 3.206606e+002
3.007984e+002, 3.217243e+002
3.012805e+002, 3.223896e+002
3.017627e+002, 3.227334e+002
3.022448e+002, 3.231410e+002
3.027269e+002, 3.238354e+002
3.032090e+002, 3.247211e+002
3.036911e+002, 3.255330e+002
3.041732e+002, 3.264683e+002
3.046554e+002, 3.270525e+002
3.051375e+002, 3.266638e+002
3.056196e+002, 3.257357e+002
3.061017e+002, 3.254898e+002
3.065838e+002, 3.265486e+002
3.070659e+002, 3.282034e+002
3.075481e+002, 3.290020e+002
3.080302e+002, 3.287450e+002
3.085123e+002, 3.286522e+002
3.089944e+002, 3.293216e+002
3.094765e+002, 3.303675e+002
3.099586e+002, 3.311294e+002
3.104408e+002, 3.314288e+002
3.109229e+002, 3.314535e+002
3.114050e+002, 3.313443e+002
3.118871e+002, 3.310819e+002
3.123692e+002, 3.310114e+002
3.128513e+002, 3.313921e+002
3.133335e+002, 3.319095e+002
3.138156e+002, 3.321359e+002
3.142977e+002, 3.319975e+002
3.147798e+002, 3.318568e+002
3.152619e+002, 3.320822e+002
3.157440e+002, 3.326508e+002
3.162262e+002, 3.331245e+002
3.167083e+002, 3.334873e+002
3.171904e+002, 3.337274e+002
3.176725e+002, 3.338091e+002
3.181546e+002, 3.337395e+002
3.186367e+002, 3.335945e+002
3.191188e+002, 3.333837e+002
3.196010e+002, 3.331442e+002
3.200831e+002, 3.330257e+002
3.205652e+002, 3.330247e+002
3.210473e+002, 3.331419e+002
3.215294e+002, 3.334406e+002
3.220115e+002, 3.338744e+002
3.224937e+002, 3.343093e+002
3.229758e+002, 3.347300e+002
3.234579e+002, 3.350522e+002
3.239400e+002, 3.350256e+002
3.244221e+002, 3.344842e+002
3.249042e+002, 3.340231e+002
3.253864e+002, 3.339607e+002
3.258685e+002, 3.341071e+002
3.263506e+002, 3.341069e+002
3.268327e+002, 3.338474e+002
3.273148e+002, 3.334144e+002
3.277969e+002, 3.328081e+002
3.282791e+002, 3.318931e+002
3.287612e+002, 3.315322e+002
3.292433e+002, 3.323580e+002
3.297254e+002, 3.336051e+002
3.302075e+002, 3.344793e+002
3.306896e+002, 3.348442e+002
3.311718e+002, 3.347224e+002
3.316539e+002, 3.339159e+002
3.321360e+002, 3.323621e+002
3.326181e+002, 3.315716e+002
3.331002e+002, 3.324311e+002
3.335823e+002, 3.334354e+002
3.340645e+002, 3.333241e+002
3.345466e+002, 3.321814e+002
3.350287e+002, 3.310495e+002
3.355108e+002, 3.306079e+002
3.359929e+002, 3.308211e+002
3.364750e+002, 3.312408e+002
3.369572e+002, 3.323663e+002
3.374393e+002, 3.331595e+002
3.379214e+002, 3.329713e+002
3.384035e+002, 3.321094e+002
3.388856e+002, 3.313106e+002
3.393677e+002, 3.309214e+002
3.398499e+002, 3.307879e+002
3.403320e+002, 3.304873e+002
3.408141e+002, 3.298286e+002
3.412962e+002, 3.293672e+002
3.417783e+002, 3.293925e+002
3.422604e+002, 3.296063e+002
3.427426e+002, 3.296303e+002
3.432247e+002, 3.293573e+002
3.437068e+002, 3.289005e+002
3.441889e+002, 3.283842e+002
3.446710e+002, 3.277233e+002
3.451531e+002, 3.273007e+002
3.456353e+002, 3.273116e+002
3.461174e+002, 3.274335e+002
3.465995e+002, 3.275311e+002
3.470816e+002, 3.275406e+002
3.475637e+002, 3.272613e+002
3.480458e+002, 3.264328e+002
3.485280e+002, 3.250074e+002
3.490101e+002, 3.241416e+002
3.494922e+002, 3.242562e+002
3.499743e+002, 3.244065e+002
3.504564e+002, 3.243221e+002
3.509385e+002, 3.239622e+002
3.514207e+002, 3.232415e+002
3.519028e+002, 3.220683e+002
3.523849e+002, 3.205965e+002
3.528670e+002, 3.194807e+002
3.533491e+002, 3.188541e+002
3.538312e+002, 3.184183e+002
3.543134e+002, 3.183795e+002
3.547955e+002, 3.184207e+002
3.552776e+002, 3.181701e+002
3.557597e+002, 3.174992e+002
3.562418e+002, 3.165471e+002
3.567239e+002, 3.155102e+002
3.572061e+002, 3.141497e+002
3.576882e+002, 3.132326e+002
3.581703e+002, 3.133038e+002
3.586524e+002, 3.133673e+002
3.591345e+002, 3.125285e+002
3.596166e+002, 3.108581e+002
3.600987e+002, 3.092651e+002
3.605808e+002, 3.087012e+002
3.610630e+002, 3.093285e+002
3.615451e+002, 3.093980e+002
3.620272e+002, 3.084616e+002
3.625093e+002, 3.074724e+002
3.629914e+002, 3.067983e+002
3.634735e+002, 3.062981e+002
3.639557e+002, 3.056726e+002
3.644378e+002, 3.047357e+002
3.649199e+002, 3.035443e+002
3.654020e+002, 3.023195e+002
3.658841e+002, 3.007776e+002
3.663662e+002, 2.996284e+002
3.668484e+002, 2.992091e+002
3.673305e+002, 2.990735e+002
3.678126e+002, 2.988760e+002
3.682947e+002, 2.984838e+002
3.687768e+002, 2.978291e+002
3.692589e+002, 2.966837e+002
3.697411e+002, 2.946662e+002
3.702232e+002, 2.932216e+002
3.707053e+002, 2.928953e+002
3.711874e+002, 2.926927e+002
3.716695e+002, 2.920720e+002
3.721516e+002, 2.910511e+002
3.726338e+002, 2.899857e+002
3.731159e+002, 2.892656e+002
3.735980e+002, 2.888692e+002
3.740801e+002, 2.879759e+002
3.745622e+002, 2.858983e+002
3.750443e+002, 2.841715e+002
3.755265e+002, 2.834891e+002
3.760086e+002, 2.834186e+002
3.764907e+002, 2.833251e+002
3.769728e+002, 2.829250e+002
3.774549e+002, 2.822638e+002
3.779370e+002, 2.814284e+002
3.784192e+002, 2.803997e+002
3.789013e+002, 2.792461e+002
3.793834e+002, 2.776573e+002
3.798655e+002, 2.761504e+002
3.803476e+002, 2.752695e+002
3.808297e+002, 2.751123e+002
3.813119e+002, 2.750156e+002
3.817940e+002, 2.741585e+002
3.822761e+002, 2.725634e+002
3.827582e+002, 2.714676e+002
3.832403e+002, 2.714414e+002
3.837224e+002, 2.714649e+002
3.842046e+002, 2.707773e+002
3.846867e+002, 2.695403e+002
3.851688e+002, 2.683389e+002
3.856509e+002, 2.675583e+002
3.861330e+002, 2.670269e+002
3.866151e+002, 2.663036e+002
3.870973e+002, 2.653035e+002
3.875794e+002, 2.644225e+002
3.880615e+002, 2.639956e+002
3.885436e+002, 2.637994e+002
3.890257e+002, 2.635399e+002
3.895078e+002, 2.631767e+002
3.899900e+002, 2.627092e+002
3.904721e+002, 2.620917e+002
3.909542e+002, 2.613414e+002
3.914363e+002, 2.606390e+002
3.919184e+002, 2.601163e+002
3.924005e+002, 2.595698e+002
3.928827e+002, 2.586729e+002
3.933648e+002, 2.574013e+002
3.938469e+002, 2.561902e+002
3.943290e+002, 2.551350e+002
3.948111e+002, 2.542731e+002
3.952932e+002, 2.537709e+002
3.957754e+002, 2.536828e+002
3.962575e+002, 2.535843e+002
3.967396e+002, 2.530314e+002
3.972217e+002, 2.520783e+002
3.977038e+002, 2.513919e+002
3.981859e+002, 2.511750e+002
3.986681e+002, 2.510740e+002
3.991501e+002, 2.509443e+002
3.996323e+002, 2.507511e+002
4.001144e+002, 2.503694e+002
4.005965e+002, 2.496968e+002
4.010786e+002, 2.488589e+002
4.015607e+002, 2.482385e+002
4.020428e+002, 2.479372e+002
4.025250e+002, 2.476313e+002
4.030071e+002, 2.473518e+002
4.034892e+002, 2.469974e+002
4.039713e+002, 2.463904e+002
4.044534e+002, 2.455098e+002
4.049355e+002, 2.445854e+002
4.054177e+002, 2.438974e+002
4.058998e+002, 2.435171e+002
4.063819e+002, 2.430439e+002
4.068640e+002, 2.424547e+002
4.073461e+002, 2.418111e+002
4.078282e+002, 2.409776e+002
4.083104e+002, 2.401064e+002
4.087925e+002, 2.396214e+002
4.092746e+002, 2.398429e+002
4.097567e+002, 2.405112e+002
4.102388e+002, 2.404175e+002
4.107209e+002, 2.386515e+002
4.112031e+002, 2.372764e+002
4.116852e+002, 2.366815e+002
4.121673e+002, 2.364234e+002
4.126494e+002, 2.360956e+002
4.131315e+002, 2.355842e+002
4.136136e+002, 2.350101e+002
4.140958e+002, 2.345439e+002
4.145779e+002, 2.342261e+002
4.150600e+002, 2.338455e+002
4.155421e+002, 2.335042e+002
4.160242e+002, 2.330027e+002
4.165063e+002, 2.322054e+002
4.169885e+002, 2.311758e+002
4.174706e+002, 2.300558e+002
4.179527e+002, 2.288654e+002
4.184348e+002, 2.277073e+002
4.189169e+002, 2.269908e+002
4.193990e+002, 2.270187e+002
4.198812e+002, 2.268215e+002
4.203633e+002, 2.260115e+002
4.208454e+002, 2.249086e+002
4.213275e+002, 2.237432e+002
4.218096e+002, 2.225659e+002
4.222917e+002, 2.214587e+002
4.227739e+002, 2.205498e+002
4.232560e+002, 2.198283e+002
4.237381e+002, 2.190418e+002
4.242202e+002, 2.181256e+002
4.247023e+002, 2.171714e+002
4.251844e+002, 2.162730e+002
4.256666e+002, 2.154028e+002
4.261487e+002, 2.144500e+002
4.266308e+002, 2.133336e+002
4.271129e+002, 2.121211e+002
4.275950e+002, 2.109019e+002
4.280771e+002, 2.096670e+002
4.285593e+002, 2.084700e+002
4.290414e+002, 2.073687e+002
4.295235e+002, 2.063157e+002
4.300056e+002, 2.052250e+002
4.304877e+002, 2.041318e+002
4.309698e+002, 2.029220e+002
4.314520e+002, 2.013461e+002
4.319341e+002, 1.996499e+002
4.324162e+002, 1.983727e+002
4.328983e+002, 1.976863e+002
4.333804e+002, 1.972062e+002
4.338625e+002, 1.965183e+002
4.343447e+002, 1.955973e+002
4.348268e+002, 1.945993e+002
4.353089e+002, 1.935430e+002
4.357910e+002, 1.923985e+002
4.362731e+002, 1.909966e+002
4.367552e+002, 1.894632e+002
4.372374e+002, 1.882340e+002
4.377195e+002, 1.876060e+002
4.382016e+002, 1.873838e+002
4.386837e+002, 1.868334e+002
4.391658e+002, 1.858198e+002
4.396479e+002, 1.846374e+002
4.401301e+002, 1.831632e+002
4.406122e+002, 1.816129e+002
4.410943e+002, 1.801805e+002
4.415764e+002, 1.789169e+002
4.420585e+002, 1.777612e+002
4.425406e+002, 1.766484e+002
4.430227e+002, 1.755630e+002
4.435049e+002, 1.746210e+002
4.439870e+002, 1.741062e+002
4.444691e+002, 1.734442e+002
4.449512e+002, 1.723441e+002
4.454333e+002, 1.710045e+002
4.459154e+002, 1.697408e+002
4.463976e+002, 1.687242e+002
4.468797e+002, 1.678714e+002
4.473618e+002, 1.670130e+002
4.478439e+002, 1.661579e+002
4.483260e+002, 1.652693e+002
4.488081e+002, 1.643201e+002
4.492903e+002, 1.633428e+002
4.497724e+002, 1.623578e+002
4.502545e+002, 1.613643e+002
4.507366e+002, 1.603416e+002
4.512187e+002, 1.592608e+002
4.517008e+002, 1.581345e+002
4.521830e+002, 1.570423e+002
4.526651e+002, 1.559902e+002
4.531472e+002, 1.549719e+002
4.536293e+002, 1.539660e+002
4.541114e+002, 1.529959e+002
4.545935e+002, 1.521196e+002
4.550757e+002, 1.514126e+002
4.555578e+002, 1.506844e+002
4.560399e+002, 1.497253e+002
4.565220e+002, 1.485948e+002
4.570041e+002, 1.475311e+002
4.574862e+002, 1.465952e+002
4.579684e+002, 1.457612e+002
4.584505e+002, 1.450642e+002
4.589326e+002, 1.445114e+002
4.594147e+002, 1.437886e+002
4.598968e+002, 1.427007e+002
4.603789e+002, 1.415245e+002
4.608611e+002, 1.405108e+002
4.613432e+002, 1.396478e+002
4.618253e+002, 1.387757e+002
4.623074e+002, 1.377825e+002
4.627895e+002, 1.367129e+002
4.632716e+002, 1.357283e+002
4.637538e+002, 1.348988e+002
4.642359e+002, 1.340563e+002
4.647180e+002, 1.332023e+002
4.652001e+002, 1.323066e+002
4.656822e+002, 1.312557e+002
4.661643e+002, 1.300659e+002
4.666465e+002, 1.290039e+002
4.671286e+002, 1.284062e+002
4.676107e+002, 1.283437e+002
4.680928e+002, 1.280059e+002
4.685749e+002, 1.271559e+002
4.690570e+002, 1.262756e+002
4.695392e+002, 1.254203e+002
4.700213e+002, 1.246355e+002
4.705034e+002, 1.240105e+002
4.709855e+002, 1.235909e+002
4.714676e+002, 1.232361e+002
4.719497e+002, 1.227298e+002
4.724319e+002, 1.220929e+002
4.729140e+002, 1.212119e+002
4.733961e+002, 1.196583e+002
4.738782e+002, 1.182158e+002
4.743603e+002, 1.173775e+002
4.748424e+002, 1.170755e+002
4.753246e+002, 1.169083e+002
4.758067e+002, 1.167364e+002
4.762888e+002, 1.165099e+002
4.767709e+002, 1.161059e+002
4.772530e+002, 1.155124e+002
4.777351e+002, 1.148238e+002
4.782173e+002, 1.140153e+002
4.786994e+002, 1.131718e+002
4.791815e+002, 1.124112e+002
4.796636e+002, 1.117249e+002
4.801457e+002, 1.111738e+002
4.806278e+002, 1.109231e+002
4.811100e+002, 1.107948e+002
4.815920e+002, 1.104414e+002
4.820742e+002, 1.097954e+002
4.825563e+002, 1.090653e+002
4.830384e+002, 1.084223e+002
4.835205e+002, 1.078680e+002
4.840026e+002, 1.073014e+002
4.844847e+002, 1.066490e+002
4.849669e+002, 1.060648e+002
4.854490e+002, 1.058102e+002
4.859311e+002, 1.056210e+002
4.864132e+002, 1.049399e+002
4.868953e+002, 1.035630e+002
4.873774e+002, 1.019751e+002
4.878596e+002, 1.010247e+002
4.883417e+002, 1.011034e+002
4.888238e+002, 1.007245e+002
4.893059e+002, 9.962666e+001
4.897880e+002, 9.840469e+001
4.902701e+002, 9.730759e+001
4.907523e+002, 9.632589e+001
4.912344e+002, 9.535632e+001
4.917165e+002, 9.432887e+001
4.921986e+002, 9.330774e+001
4.926807e+002, 9.250610e+001
4.931628e+002, 9.205027e+001
4.936450e+002, 9.147060e+001
4.941271e+002, 9.050452e+001
4.946092e+002, 8.950547e+001
4.950913e+002, 8.876797e+001
4.955734e+002, 8.827740e+001
4.960555e+002, 8.770627e+001
4.965377e+002, 8.671092e+001
4.970198e+002, 8.547768e+001
4.975019e+002, 8.455540e+001
4.979840e+002, 8.401160e+001
4.984661e+002, 8.350719e+001
4.989482e+002, 8.286359e+001
4.994304e+002, 8.213039e+001
4.999125e+002, 8.140813e+001
5.003946e+002, 8.069686e+001
5.008767e+002, 8.000338e+001
5.013588e+002, 7.929542e+001
5.018409e+002, 7.861238e+001
5.023231e+002, 7.801923e+001
5.028052e+002, 7.753138e+001
5.032873e+002, 7.711744e+001
5.037694e+002, 7.677953e+001
5.042515e+002, 7.651904e+001
5.047336e+002, 7.608725e+001
5.052158e+002, 7.530880e+001
5.056979e+002, 7.457572e+001
5.061800e+002, 7.400115e+001
5.066621e+002, 7.356843e+001
5.071442e+002, 7.329588e+001
5.076263e+002, 7.317928e+001
5.081085e+002, 7.307925e+001
5.085906e+002, 7.276208e+001
5.090727e+002, 7.213374e+001
5.095548e+002, 7.162638e+001
5.100369e+002, 7.128755e+001
5.105190e+002, 7.102386e+001
5.110012e+002, 7.091125e+001
5.114833e+002, 7.083211e+001
5.119654e+002, 7.055092e+001
5.124475e+002, 6.991260e+001
5.129296e+002, 6.914000e+001
5.134117e+002, 6.863590e+001
5.138939e+002, 6.842491e+001
5.143760e+002, 6.829263e+001
5.148581e+002, 6.831319e+001
5.153402e+002, 6.827258e+001
5.158223e+002, 6.794348e+001
5.163044e+002, 6.737179e+001
5.167866e+002, 6.686766e+001
5.172687e+002, 6.663147e+001
5.177508e+002, 6.649113e+001
5.182329e+002, 6.622152e+001
5.187150e+002, 6.582752e+001
5.191971e+002, 6.542144e+001
5.196793e+002, 6.504859e+001
5.201614e+002, 6.470344e+001
5.206435e+002, 6.437284e+001
5.211256e+002, 6.402236e+001
5.216077e+002, 6.377152e+001
5.220898e+002, 6.375928e+001
5.225720e+002, 6.377277e+001
5.230541e+002, 6.355354e+001
5.235362e+002, 6.314643e+001
5.240183e+002, 6.287516e+001
5.245004e+002, 6.301025e+001
5.249825e+002, 6.342546e+001
5.254647e+002, 6.344117e+001
5.259468e+002, 6.242006e+001
5.264289e+002, 6.192428e+001
5.269110e+002, 6.270944e+001
5.273931e+002, 6.361481e+001
5.278752e+002, 6.359783e+001
5.283574e+002, 6.261638e+001
5.288395e+002, 6.144263e+001
5.293216e+002, 6.071938e+001
5.298037e+002, 6.038874e+001
5.302858e+002, 6.009059e+001
5.307679e+002, 5.980255e+001
5.312501e+002, 5.960218e+001
5.317322e+002, 5.974417e+001
5.322143e+002, 5.988473e+001
5.326964e+002, 5.955540e+001
5.331785e+002, 5.860303e+001
5.336606e+002, 5.777544e+001
5.341428e+002, 5.769884e+001
5.346249e+002, 5.806694e+001
5.351070e+002, 5.823270e+001
5.355891e+002, 5.810868e+001
5.360712e+002, 5.784634e+001
5.365533e+002, 5.750401e+001
5.370355e+002, 5.711643e+001
5.375176e+002, 5.689043e+001
5.379997e+002, 5.706739e+001
5.384818e+002, 5.709590e+001
5.389639e+002, 5.665525e+001
5.394460e+002, 5.605587e+001
5.399282e+002, 5.570496e+001
5.404103e+002, 5.567470e+001
5.408924e+002, 5.573244e+001
5.413745e+002, 5.563097e+001
5.418566e+002, 5.536344e+001
5.423387e+002, 5.517126e+001
5.428209e+002, 5.490884e+001
5.433029e+002, 5.491620e+001
5.437850e+002, 5.541957e+001
5.442672e+002, 5.615046e+001
5.447493e+002, 5.700555e+001
5.452314e+002, 5.791193e+001
5.457135e+002, 5.832278e+001
5.461956e+002, 5.723096e+001
5.466777e+002, 5.482003e+001
5.471599e+002, 5.339990e+001
5.476420e+002, 5.342072e+001
5.481241e+002, 5.373657e+001
5.486062e+002, 5.370881e+001
5.490883e+002, 5.349213e+001
5.495704e+002, 5.332607e+001
5.500526e+002, 5.327470e+001
5.505347e+002, 5.322620e+001
5.510168e+002, 5.307180e+001
5.514989e+002, 5.287627e+001
5.519810e+002, 5.280379e+001
5.524631e+002, 5.289193e+001
5.529453e+002, 5.297840e+001
5.534274e+002, 5.291662e+001
5.539095e+002, 5.270476e+001
5.543916e+002, 5.243145e+001
5.548737e+002, 5.206226e+001
5.553558e+002, 5.168268e+001
5.558380e+002, 5.125437e+001
5.563201e+002, 5.085405e+001
5.568022e+002, 5.059149e+001
5.572843e+002, 5.048637e+001
5.577664e+002, 5.045915e+001
5.582485e+002, 5.043209e+001
5.587307e+002, 5.040730e+001
5.592128e+002, 5.033107e+001
5.596949e+002, 5.020756e+001
5.601770e+002, 5.002163e+001
5.606591e+002, 4.966595e+001
5.611412e+002, 4.929841e+001
5.616234e+002, 4.915757e+001
5.621055e+002, 4.932645e+001
5.625876e+002, 4.947277e+001
5.630697e+002, 4.924546e+001
5.635518e+002, 4.875795e+001
5.640339e+002, 4.840152e+001
5.645161e+002, 4.823882e+001
5.649982e+002, 4.810891e+001
5.654803e+002, 4.789095e+001
5.659624e+002, 4.761161e+001
5.664445e+002, 4.739141e+001
5.669266e+002, 4.725664e+001
5.674088e+002, 4.714275e+001
5.678909e+002, 4.701310e+001
5.683730e+002, 4.689929e+001
5.688551e+002, 4.686717e+001
5.693372e+002, 4.691434e+001
5.698193e+002, 4.693877e+001
5.703015e+002, 4.683717e+001
5.707836e+002, 4.661820e+001
5.712657e+002, 4.645819e+001
5.717478e+002, 4.639930e+001
5.722299e+002, 4.634505e+001
5.727120e+002, 4.634394e+001
5.731942e+002, 4.630114e+001
5.736763e+002, 4.607296e+001
5.741584e+002, 4.566576e+001
5.746405e+002, 4.530348e+001
5.751226e+002, 4.522961e+001
5.756047e+002, 4.536855e+001
5.760869e+002, 4.540826e+001
5.765690e+002, 4.533809e+001
5.770511e+002, 4.520501e+001
5.775332e+002, 4.494227e+001
5.780153e+002, 4.468424e+001
5.784974e+002, 4.467993e+001
5.789796e+002, 4.501284e+001
5.794617e+002, 4.523812e+001
5.799438e+002, 4.515223e+001
5.804259e+002, 4.489280e+001
5.809080e+002, 4.458384e+001
5.813901e+002, 4.424939e+001
5.818723e+002, 4.389368e+001
5.823544e+002, 4.349883e+001
5.828365e+002, 4.312538e+001
5.833186e+002, 4.298284e+001
5.838007e+002, 4.331112e+001
5.842828e+002, 4.350972e+001
5.847650e+002, 4.357967e+001
5.852471e+002, 4.351770e+001
5.857292e+002, 4.323351e+001
5.862113e+002, 4.280766e+001
5.866934e+002, 4.246014e+001
5.871755e+002, 4.234083e+001
5.876577e+002, 4.236249e+001
5.881398e+002, 4.234072e+001
5.886219e+002, 4.227491e+001
5.891040e+002, 4.216818e+001
5.895861e+002, 4.201905e+001
5.900682e+002, 4.182801e+001
5.905504e+002, 4.152729e+001
5.910325e+002, 4.115452e+001
5.915146e+002, 4.097179e+001
5.919967e+002, 4.128501e+001
5.924788e+002, 4.162913e+001
5.929609e+002, 4.151305e+001
5.934431e+002, 4.109234e+001
5.939252e+002, 4.088410e+001
5.944073e+002, 4.109168e+001
5.948894e+002, 4.140281e+001
5.953715e+002, 4.136229e+001
5.958536e+002, 4.085513e+001
5.963358e+002, 4.051494e+001
5.968179e+002, 4.041345e+001
5.973000e+002, 4.037282e+001
5.977821e+002, 4.039044e+001
5.982642e+002, 4.040765e+001
5.987463e+002, 4.035186e+001
5.992285e+002, 4.019816e+001
5.997106e+002, 3.997718e+001
6.001927e+002, 3.966371e+001
6.006748e+002, 3.926681e+001
6.011569e+002, 3.911033e+001
6.016390e+002, 3.933117e+001
6.021212e+002, 3.953102e+001
6.026033e+002, 3.945540e+001
6.030854e+002, 3.922068e+001
6.035675e+002, 3.897447e+001
6.040496e+002, 3.869725e+001
6.045317e+002, 3.851588e+001
6.050139e+002, 3.855763e+001
6.054960e+002, 3.870572e+001
6.059781e+002, 3.881098e+001
6.064602e+002, 3.884935e+001
6.069423e+002, 3.881114e+001
6.074244e+002, 3.867272e+001
6.079066e+002, 3.846997e+001
6.083887e+002, 3.836767e+001
6.088708e+002, 3.855341e+001
6.093529e+002, 3.856792e+001
6.098350e+002, 3.822128e+001
6.103171e+002, 3.784470e+001
6.107993e+002, 3.765988e+001
6.112814e+002, 3.766313e+001
6.117635e+002, 3.775970e+001
6.122456e+002, 3.793353e+001
6.127277e+002, 3.809159e+001
6.132098e+002, 3.798637e+001
6.136920e+002, 3.758581e+001
6.141741e+002, 3.729755e+001
6.146562e+002, 3.725700e+001
6.151383e+002, 3.731187e+001
6.156204e+002, 3.729604e+001
6.161025e+002, 3.722895e+001
6.165847e+002, 3.724348e+001
6.170668e+002, 3.751308e+001
6.175489e+002, 3.772715e+001
6.180310e+002, 3.761662e+001
6.185131e+002, 3.731868e+001
6.189952e+002, 3.713255e+001
6.194774e+002, 3.714363e+001
6.199595e+002, 3.718119e+001
6.204416e+002, 3.703006e+001
6.209237e+002, 3.666977e+001
6.214058e+002, 3.642774e+001
6.218879e+002, 3.645204e+001
6.223701e+002, 3.641448e+001
6.228522e+002, 3.614536e+001
6.233343e+002, 3.584102e+001
6.238164e+002, 3.569835e+001
6.242985e+002, 3.575648e+001
6.247806e+002, 3.593531e+001
6.252628e+002, 3.628571e+001
6.257448e+002, 3.669136e+001
6.262269e+002, 3.678580e+001
6.267090e+002, 3.653481e+001
6.271912e+002, 3.630015e+001
6.276733e+002, 3.625403e+001
6.281554e+002, 3.631165e+001
6.286375e+002, 3.631974e+001
6.291196e+002, 3.627780e+001
6.296017e+002, 3.620674e+001
6.300839e+002, 3.605275e+001
6.305660e+002, 3.592074e+001
6.310481e+002, 3.592705e+001
6.315302e+002, 3.601109e+001
6.320123e+002, 3.600300e+001
6.324944e+002, 3.582462e+001
6.329766e+002, 3.560194e+001
6.334587e+002, 3.557298e+001
6.339408e+002, 3.579472e+001
6.344229e+002, 3.591561e+001
6.349050e+002, 3.588660e+001
6.353871e+002, 3.580959e+001
6.358693e+002, 3.570271e+001
6.363514e+002, 3.559041e+001
6.368335e+002, 3.551044e+001
6.373156e+002, 3.547469e+001
6.377977e+002, 3.545969e+001
6.382798e+002, 3.544708e+001
6.387620e+002, 3.544456e+001
6.392441e+002, 3.550306e+001
6.397262e+002, 3.562118e+001
6.402083e+002, 3.563129e+001
6.406904e+002, 3.538707e+001
6.411725e+002, 3.499685e+001
6.416547e+002, 3.482350e+001
6.421368e+002, 3.506588e+001
6.426189e+002, 3.524150e+001
6.431010e+002, 3.531004e+001
6.435831e+002, 3.534769e+001
6.440652e+002, 3.541911e+001
6.445474e+002, 3.550016e+001
6.450295e+002, 3.550893e+001
6.455116e+002, 3.539071e+001
6.459937e+002, 3.523707e+001
6.464758e+002, 3.521968e+001
6.469579e+002, 3.533691e+001
6.474401e+002, 3.537487e+001
6.479222e+002, 3.526323e+001
6.484043e+002, 3.515054e+001
6.488864e+002, 3.516122e+001
6.493685e+002, 3.526242e+001
6.498506e+002, 3.535278e+001
6.503328e+002, 3.543383e+001
6.508149e+002, 3.548967e+001
6.512970e+002, 3.553512e+001
6.517791e+002, 3.554044e+001
6.522612e+002, 3.542825e+001
6.527433e+002, 3.521895e+001
6.532255e+002, 3.506796e+001
6.537076e+002, 3.510812e+001
6.541897e+002, 3.525701e+001
6.546718e+002, 3.517223e+001
6.551539e+002, 3.467619e+001
6.556360e+002, 3.437795e+001
6.561182e+002, 3.451510e+001
6.566003e+002, 3.474321e+001
6.570824e+002, 3.491432e+001
6.575645e+002, 3.502356e+001
6.580466e+002, 3.508845e+001
6.585287e+002, 3.510506e+001
6.590109e+002, 3.509704e+001
6.594930e+002, 3.507970e+001
6.599751e+002, 3.505564e+001
6.604572e+002, 3.504840e+001
6.609393e+002, 3.506501e+001
6.614214e+002, 3.502264e+001
6.619036e+002, 3.481796e+001
6.623857e+002, 3.448055e+001
6.628678e+002, 3.433239e+001
6.633499e+002, 3.458327e+001
6.638320e+002, 3.474855e+001
6.643141e+002, 3.467045e+001
6.647963e+002, 3.458203e+001
6.652784e+002, 3.476849e+001
6.657605e+002, 3.514238e+001
6.662426e+002, 3.530178e+001
6.667247e+002, 3.492291e+001
6.672068e+002, 3.431739e+001
6.676890e+002, 3.406182e+001
6.681711e+002, 3.414642e+001
6.686532e+002, 3.423447e+001
6.691353e+002, 3.425502e+001
6.696174e+002, 3.425488e+001
6.700995e+002, 3.429839e+001
6.705817e+002, 3.436966e+001
6.710638e+002, 3.433308e+001
6.715459e+002, 3.399222e+001
6.720280e+002, 3.378226e+001
6.725101e+002, 3.394463e+001
6.729922e+002, 3.424677e+001
6.734744e+002, 3.447542e+001
6.739565e+002, 3.458108e+001
6.744386e+002, 3.456596e+001
6.749207e+002, 3.441148e+001
6.754028e+002, 3.417136e+001
6.758849e+002, 3.399312e+001
6.763671e+002, 3.384678e+001
6.768492e+002, 3.388962e+001
6.773313e+002, 3.411181e+001
6.778134e+002, 3.459278e+001
6.782955e+002, 3.579216e+001
6.787776e+002, 3.735316e+001
6.792598e+002, 3.793006e+001
6.797419e+002, 3.651912e+001
6.802240e+002, 3.494893e+001
6.807061e+002, 3.422729e+001
6.811882e+002, 3.406755e+001
6.816703e+002, 3.409967e+001
6.821525e+002, 3.422063e+001
6.826346e+002, 3.434039e+001
6.831167e+002, 3.438689e+001
6.835988e+002, 3.436881e+001
6.840809e+002, 3.432552e+001
6.845630e+002, 3.424096e+001
6.850452e+002, 3.416668e+001
6.855273e+002, 3.412766e+001
6.860094e+002, 3.408506e+001
6.864915e+002, 3.399323e+001
6.869736e+002, 3.387782e+001
6.874557e+002, 3.382403e+001
6.879379e+002, 3.391423e+001
6.884200e+002, 3.398595e+001
6.889021e+002, 3.381776e+001
6.893842e+002, 3.353301e+001
6.898663e+002, 3.344171e+001
6.903484e+002, 3.359639e+001
6.908306e+002, 3.381032e+001
6.913127e+002, 3.394128e+001
6.917948e+002, 3.400724e+001
6.922769e+002, 3.411026e+001
6.927590e+002, 3.444457e+001
6.932411e+002, 3.449419e+001
6.937233e+002, 3.389417e+001
6.942054e+002, 3.333487e+001
6.946875e+002, 3.332495e+001
6.951696e+002, 3.369804e+001
6.956517e+002, 3.395589e+001
6.961339e+002, 3.385323e+001
6.966160e+002, 3.364779e+001
6.970981e+002, 3.364842e+001
6.975802e+002, 3.378767e+001
6.980623e+002, 3.380158e+001
6.985444e+002, 3.364117e+001
6.990266e+002, 3.350063e+001
6.995087e+002, 3.352752e+001
6.999908e+002, 3.367207e+001
7.004729e+002, 3.374537e+001
7.009550e+002, 3.372017e+001
7.014371e+002, 3.366065e+001
7.019193e+002, 3.349932e+001
7.024014e+002, 3.336670e+001
7.028835e+002, 3.333204e+001
7.033656e+002, 3.339103e+001
7.038477e+002, 3.353674e+001
7.043298e+002, 3.377413e+001
7.048120e+002, 3.401744e+001
7.052941e+002, 3.417448e+001
7.057762e+002, 3.424655e+001
7.062583e+002, 3.421803e+001
7.067404e+002, 3.407214e+001
7.072225e+002, 3.393337e+001
7.077046e+002, 3.387474e+001
7.081867e+002, 3.387062e+001
7.086688e+002, 3.385345e+001
7.091509e+002, 3.380043e+001
7.096331e+002, 3.379257e+001
7.101152e+002, 3.385976e+001
7.105973e+002, 3.394931e+001
7.110794e+002, 3.405671e+001
7.115615e+002, 3.415641e+001
7.120436e+002, 3.421075e+001
7.125258e+002, 3.420623e+001
7.130079e+002, 3.415790e+001
7.134900e+002, 3.409101e+001
7.139721e+002, 3.399805e+001
7.144542e+002, 3.379034e+001
7.149363e+002, 3.342675e+001
7.154185e+002, 3.320909e+001
7.159006e+002, 3.332473e+001
7.163827e+002, 3.361302e+001
7.168648e+002, 3.381354e+001
7.173469e+002, 3.391573e+001
7.178290e+002, 3.400512e+001
7.183112e+002, 3.408426e+001
7.187933e+002, 3.415636e+001
7.192754e+002, 3.427795e+001
7.197575e+002, 3.437066e+001
7.202396e+002, 3.426562e+001
7.207217e+002, 3.395044e+001
7.212039e+002, 3.367988e+001
7.216860e+002, 3.374734e+001
7.221681e+002, 3.405120e+001
7.226502e+002, 3.416283e+001
7.231323e+002, 3.405138e+001
7.236144e+002, 3.402625e+001
7.240966e+002, 3.425103e+001
7.245787e+002, 3.450187e+001
7.250608e+002, 3.448447e+001
7.255429e+002, 3.420530e+001
7.260250e+002, 3.400956e+001
7.265071e+002, 3.389170e+001
7.269893e+002, 3.388796e+001
7.274714e+002, 3.413590e+001
7.279535e+002, 3.443147e+001
7.284356e+002, 3.451442e+001
7.289177e+002, 3.438258e+001
7.293998e+002, 3.424150e+001
7.298820e+002, 3.423658e+001
7.303641e+002, 3.432890e+001
7.308462e+002, 3.446855e+001
7.313283e+002, 3.466094e+001
7.318104e+002, 3.470557e+001
7.322925e+002, 3.450764e+001
7.327747e+002, 3.428304e+001
7.332568e+002, 3.419471e+001
7.337389e+002, 3.423082e+001
7.342210e+002, 3.430528e+001
7.347031e+002, 3.444384e+001
7.351852e+002, 3.457907e+001
7.356674e+002, 3.472799e+001
7.361495e+002, 3.484395e+001
7.366316e+002, 3.488680e+001
7.371137e+002, 3.486295e+001
7.375958e+002, 3.478677e+001
7.380779e+002, 3.465892e+001
7.385601e+002, 3.453954e+001
7.390422e+002, 3.452320e+001
7.395243e+002, 3.460146e+001
7.400064e+002, 3.471999e+001
7.404885e+002, 3.490514e+001
7.409706e+002, 3.497091e+001
7.414528e+002, 3.471360e+001
7.419349e+002, 3.434220e+001
7.424170e+002, 3.436743e+001
7.428991e+002, 3.494749e+001
7.433812e+002, 3.534081e+001
7.438633e+002, 3.537775e+001
7.443455e+002, 3.532972e+001
7.448276e+002, 3.532110e+001
7.453097e+002, 3.532928e+001
7.457918e+002, 3.528428e+001
7.462739e+002, 3.517479e+001
7.467560e+002, 3.509356e+001
7.472382e+002, 3.518776e+001
7.477203e+002, 3.537069e+001
7.482024e+002, 3.529364e+001
7.486845e+002, 3.494518e+001
7.491666e+002, 3.487718e+001
7.496487e+002, 3.537986e+001
7.501309e+002, 3.596564e+001
7.506130e+002, 3.601254e+001
7.510951e+002, 3.547543e+001
7.515772e+002, 3.524585e+001
7.520593e+002, 3.550364e+001
7.525414e+002, 3.580733e+001
7.530236e+002, 3.609442e+001
7.535057e+002, 3.636216e+001
7.539878e+002, 3.666056e+001
7.544699e+002, 3.694897e+001
7.549520e+002, 3.705779e+001
7.554341e+002, 3.679764e+001
7.559163e+002, 3.651176e+001
7.563984e+002, 3.677388e+001
7.568805e+002, 3.744799e+001
7.573626e+002, 3.794381e+001
7.578447e+002, 3.816527e+001
7.583268e+002, 3.822330e+001
7.588090e+002, 3.815528e+001
7.592911e+002, 3.802235e+001
7.597732e+002, 3.803067e+001
7.602553e+002, 3.826714e+001
7.607374e+002, 3.849180e+001
7.612195e+002, 3.866307e+001
7.617017e+002, 3.886745e+001
7.621838e+002, 3.918172e+001
7.626659e+002, 3.954346e+001
7.631480e+002, 3.983579e+001
7.636301e+002, 4.002172e+001
7.641122e+002, 4.024712e+001
7.645944e+002, 4.060640e+001
7.650765e+002, 4.108040e+001
7.655586e+002, 4.172199e+001
7.660407e+002, 4.247939e+001
7.665228e+002, 4.302973e+001
7.670049e+002, 4.323678e+001
7.674871e+002, 4.337281e+001
7.679692e+002, 4.379264e+001
7.684513e+002, 4.450920e+001
7.689334e+002, 4.526116e+001
7.694155e+002, 4.606478e+001
7.698976e+002, 4.688228e+001
7.703798e+002, 4.776625e+001
7.708619e+002, 4.861378e+001
7.713440e+002, 4.922565e+001
7.718261e+002, 4.968520e+001
7.723082e+002, 5.042248e+001
7.727903e+002, 5.182975e+001
7.732725e+002, 5.323130e+001
7.737546e+002, 5.410652e+001
7.742367e+002, 5.468844e+001
7.747188e+002, 5.527328e+001
7.752009e+002, 5.593564e+001
7.756830e+002, 5.675572e+001
7.761652e+002, 5.781112e+001
7.766473e+002, 5.896173e+001
7.771294e+002, 5.988527e+001
7.776115e+002, 6.057566e+001
7.780936e+002, 6.107719e+001
7.785757e+002, 6.129680e+001
7.790579e+002, 6.150701e+001
7.795400e+002, 6.193562e+001
7.800221e+002, 6.240978e+001
7.805042e+002, 6.262167e+001
7.809863e+002, 6.251670e+001
7.814684e+002, 6.238953e+001
7.819506e+002, 6.233180e+001
7.824327e+002, 6.225316e+001
7.829148e+002, 6.211771e+001
7.833969e+002, 6.191224e+001
7.838790e+002, 6.163771e+001
7.843611e+002, 6.128679e+001
7.848433e+002, 6.080302e+001
7.853254e+002, 6.004639e+001
7.858075e+002, 5.917123e+001
7.862896e+002, 5.873438e+001
7.867717e+002, 5.874617e+001
7.872538e+002, 5.854269e+001
7.877360e+002, 5.788671e+001
7.882181e+002, 5.720576e+001
7.887002e+002, 5.695631e+001
7.891823e+002, 5.705724e+001
7.896644e+002, 5.682550e+001
7.901465e+002, 5.601313e+001
7.906286e+002, 5.523971e+001
7.911107e+002, 5.439244e+001
7.915928e+002, 5.374391e+001
7.920750e+002, 5.364846e+001
7.925571e+002, 5.385170e+001
7.930392e+002, 5.378762e+001
7.935213e+002, 5.322926e+001
7.940034e+002, 5.259501e+001
7.944855e+002, 5.227590e+001
7.949677e+002, 5.212023e+001
7.954498e+002, 5.187278e+001
7.959319e+002, 5.151700e+001
7.964140e+002, 5.104165e+001
7.968961e+002, 5.042562e+001
7.973782e+002, 4.984577e+001
7.978604e+002, 4.956958e+001
7.983425e+002, 4.961281e+001
7.988246e+002, 4.953446e+001
7.993067e+002, 4.924854e+001
7.997888e+002, 4.899535e+001
8.002709e+002, 4.892544e+001
8.007531e+002, 4.883659e+001
8.012352e+002, 4.852033e+001
8.017173e+002, 4.803257e+001
8.021994e+002, 4.766920e+001
8.026815e+002, 4.759149e+001
8.031636e+002, 4.753097e+001
8.036458e+002, 4.729677e+001
8.041279e+002, 4.703867e+001
8.046100e+002, 4.699331e+001
8.050921e+002, 4.710761e+001
8.055742e+002, 4.710774e+001
8.060563e+002, 4.684081e+001
8.065385e+002, 4.646209e+001
8.070206e+002, 4.622276e+001
8.075027e+002, 4.611105e+001
8.079848e+002, 4.595819e+001
8.084669e+002, 4.574111e+001
8.089490e+002, 4.557844e+001
8.094312e+002, 4.557938e+001
8.099133e+002, 4.558265e+001
8.103954e+002, 4.529256e+001
8.108775e+002, 4.462003e+001
8.113596e+002, 4.426158e+001
8.118417e+002, 4.455820e+001
8.123239e+002, 4.473159e+001
8.128060e+002, 4.442787e+001
8.132881e+002, 4.400981e+001
8.137702e+002, 4.385628e+001
8.142523e+002, 4.394059e+001
8.147344e+002, 4.395177e+001
8.152166e+002, 4.368623e+001
8.156987e+002, 4.339324e+001
8.161808e+002, 4.343304e+001
8.166629e+002, 4.361755e+001
8.171450e+002, 4.342884e+001
8.176271e+002, 4.286637e+001
8.181093e+002, 4.251067e+001
8.185914e+002, 4.271969e+001
8.190735e+002, 4.316444e+001
8.195556e+002, 4.318429e+001
8.200377e+002, 4.269358e+001
8.205198e+002, 4.230992e+001
8.210020e+002, 4.204313e+001
8.214841e+002, 4.186147e+001
8.219662e+002, 4.185920e+001
8.224483e+002, 4.186204e+001
8.229304e+002, 4.160436e+001
8.234125e+002, 4.110067e+001
8.238947e+002, 4.082411e+001
8.243768e+002, 4.094703e+001
8.248589e+002, 4.122163e+001
8.253410e+002, 4.183774e+001
8.258231e+002, 4.235667e+001
8.263052e+002, 4.217538e+001
8.267874e+002, 4.139204e+001
8.272695e+002, 4.057330e+001
8.277516e+002, 3.999823e+001
8.282337e+002, 3.969249e+001
8.287158e+002, 3.986020e+001
8.291979e+002, 4.034415e+001
8.296801e+002, 4.043372e+001
8.301622e+002, 4.006488e+001
8.306443e+002, 3.968531e+001
8.311264e+002, 3.951722e+001
8.316085e+002, 3.945429e+001
8.320906e+002, 3.932337e+001
8.325728e+002, 3.911654e+001
8.330549e+002, 3.890167e+001
8.335370e+002, 3.865563e+001
8.340191e+002, 3.843714e+001
8.345012e+002, 3.823545e+001
8.349833e+002, 3.808453e+001
8.354655e+002, 3.808670e+001
8.359476e+002, 3.818402e+001
8.364297e+002, 3.809072e+001
8.369118e+002, 3.752456e+001
8.373939e+002, 3.706511e+001
8.378760e+002, 3.717222e+001
8.383582e+002, 3.745887e+001
8.388403e+002, 3.746402e+001
8.393224e+002, 3.721570e+001
8.398045e+002, 3.696891e+001
8.402866e+002, 3.684379e+001
8.407687e+002, 3.679673e+001
8.412509e+002, 3.682226e+001
8.417330e+002, 3.688704e+001
8.422151e+002, 3.675136e+001
8.426972e+002, 3.639519e+001
8.431793e+002, 3.613118e+001
8.436614e+002, 3.609385e+001
8.441436e+002, 3.612959e+001
8.446257e+002, 3.605382e+001
8.451078e+002, 3.587062e+001
8.455899e+002, 3.577666e+001
8.460720e+002, 3.587758e+001
8.465541e+002, 3.591263e+001
8.470363e+002, 3.571985e+001
8.475184e+002, 3.558752e+001
8.480005e+002, 3.579268e+001
8.484826e+002, 3.618046e+001
8.489647e+002, 3.639090e+001
8.494468e+002, 3.631544e+001
8.499290e+002, 3.613782e+001
8.504111e+002, 3.587730e+001
8.508932e+002, 3.562664e+001
8.513753e+002, 3.545240e+001
8.518574e+002, 3.536989e+001
8.523395e+002, 3.545854e+001
8.528217e+002, 3.571333e+001
8.533038e+002, 3.589049e+001
8.537859e+002, 3.570199e+001
8.542680e+002, 3.529313e+001
8.547501e+002, 3.513886e+001
8.552322e+002, 3.523855e+001
8.557144e+002, 3.532970e+001
8.561965e+002, 3.536741e+001
8.566786e+002, 3.535848e+001
8.571607e+002, 3.530547e+001
8.576428e+002, 3.521098e+001
8.581249e+002, 3.507867e+001
8.586071e+002, 3.486966e+001
8.590892e+002, 3.470789e+001
8.595713e+002, 3.454836e+001
8.600534e+002, 3.448634e+001
8.605355e+002, 3.465307e+001
8.610176e+002, 3.487999e+001
8.614998e+002, 3.496429e+001
8.619819e+002, 3.488581e+001
8.624640e+002, 3.476523e+001
8.629461e+002, 3.456636e+001
8.634282e+002, 3.443121e+001
8.639103e+002, 3.453037e+001
8.643925e+002, 3.471479e+001
8.648746e+002, 3.476283e+001
8.653567e+002, 3.467169e+001
8.658388e+002, 3.458483e+001
8.663209e+002, 3.458778e+001
8.668030e+002, 3.461950e+001
8.672852e+002, 3.459764e+001
8.677673e+002, 3.452367e+001
8.682494e+002, 3.436043e+001
8.687315e+002, 3.409989e+001
8.692136e+002, 3.400657e+001
8.696957e+002, 3.423824e+001
8.701779e+002, 3.451219e+001
8.706600e+002, 3.442819e+001
8.711421e+002, 3.398203e+001
8.716242e+002, 3.367416e+001
8.721063e+002, 3.350303e+001
8.725884e+002, 3.347313e+001
8.730705e+002, 3.379253e+001
8.735526e+002, 3.406157e+001
8.740347e+002, 3.391446e+001
8.745168e+002, 3.354747e+001
8.749990e+002, 3.348595e+001
8.754811e+002, 3.396132e+001
8.759632e+002, 3.428871e+001
8.764453e+002, 3.412880e+001
8.769274e+002, 3.383198e+001
8.774095e+002, 3.361213e+001
8.778917e+002, 3.345634e+001
8.783738e+002, 3.329372e+001
8.788559e+002, 3.311747e+001
8.793380e+002, 3.300840e+001
8.798201e+002, 3.304873e+001
8.803022e+002, 3.317028e+001
8.807844e+002, 3.331332e+001
8.812665e+002, 3.344302e+001
8.817486e+002, 3.339887e+001
8.822307e+002, 3.316546e+001
8.827128e+002, 3.290821e+001
8.831949e+002, 3.271862e+001
8.836771e+002, 3.262859e+001
8.841592e+002, 3.274516e+001
8.846413e+002, 3.311978e+001
8.851234e+002, 3.331440e+001
8.856055e+002, 3.330395e+001
8.860876e+002, 3.316623e+001
8.865698e+002, 3.285776e+001
8.870519e+002, 3.250509e+001
8.875340e+002, 3.220716e+001
8.880161e+002, 3.197214e+001
8.884982e+002, 3.190598e+001
8.889803e+002, 3.215144e+001
8.894625e+002, 3.236842e+001
8.899446e+002, 3.258387e+001
8.904267e+002, 3.267365e+001
8.909088e+002, 3.245834e+001
8.913909e+002, 3.207900e+001
8.918730e+002, 3.179468e+001
8.923552e+002, 3.167341e+001
8.928373e+002, 3.167442e+001
8.933194e+002, 3.187689e+001
8.938015e+002, 3.210056e+001
8.942836e+002, 3.213758e+001
8.947657e+002, 3.204993e+001
8.952479e+002, 3.197810e+001
8.957300e+002, 3.194850e+001
8.962121e+002, 3.188998e+001
8.966942e+002, 3.174067e+001
8.971763e+002, 3.156304e+001
8.976584e+002, 3.150898e+001
8.981406e+002, 3.155991e+001
8.986227e+002, 3.150201e+001
8.991048e+002, 3.130309e+001
8.995869e+002, 3.115275e+001
9.000690e+002, 3.113318e+001
9.005511e+002, 3.123477e+001
9.010333e+002, 3.148431e+001
9.015154e+002, 3.190066e+001
9.019975e+002, 3.201922e+001
9.024796e+002, 3.162791e+001
9.029617e+002, 3.133315e+001
9.034438e+002, 3.129971e+001
9.039260e+002, 3.134607e+001
9.044081e+002, 3.138780e+001
9.048902e+002, 3.140950e+001
9.053723e+002, 3.135771e+001
9.058544e+002, 3.116913e+001
9.063365e+002, 3.107345e+001
9.068187e+002, 3.127235e+001
9.073008e+002, 3.142546e+001
9.077829e+002, 3.126399e+001
9.082650e+002, 3.096348e+001
9.087471e+002, 3.075117e+001
9.092292e+002, 3.067443e+001
9.097114e+002, 3.068833e+001
9.101935e+002, 3.079609e+001
9.106756e+002, 3.093666e+001
9.111577e+002, 3.109931e+001
9.116398e+002, 3.122953e+001
9.121219e+002, 3.122156e+001
9.126041e+002, 3.107537e+001
9.130862e+002, 3.079813e+001
9.135683e+002, 3.039277e+001
9.140504e+002, 3.008187e+001
9.145325e+002, 3.027608e+001
9.150146e+002, 3.083688e+001
9.154968e+002, 3.089429e+001
9.159789e+002, 3.042747e+001
9.164610e+002, 3.008048e+001
9.169431e+002, 3.002518e+001
9.174252e+002, 3.007190e+001
9.179073e+002, 3.007951e+001
9.183895e+002, 3.005050e+001
9.188716e+002, 2.998709e+001
9.193537e+002, 2.984610e+001
9.198358e+002, 2.978260e+001
9.203179e+002, 2.986207e+001
9.208000e+002, 2.992447e+001
9.212822e+002, 2.982258e+001
9.217643e+002, 2.972673e+001
9.222464e+002, 2.989819e+001
9.227285e+002, 3.031866e+001
9.232106e+002, 3.051842e+001
9.236927e+002, 3.024894e+001
9.241749e+002, 3.000021e+001
9.246570e+002, 2.992547e+001
9.251391e+002, 2.990748e+001
9.256212e+002, 2.987698e+001
9.261033e+002, 2.982349e+001
9.265854e+002, 2.972942e+001
9.270676e+002, 2.958739e+001
9.275497e+002, 2.949422e+001
9.280318e+002, 2.953382e+001
9.285139e+002, 2.963568e+001
9.289960e+002, 2.975407e+001
9.294781e+002, 2.987250e+001
9.299603e+002, 2.998308e+001
9.304424e+002, 3.007176e+001
9.309245e+002, 3.007053e+001
9.314066e+002, 2.992077e+001
9.318887e+002, 2.974931e+001
9.323708e+002, 2.978820e+001
9.328530e+002, 2.998020e+001
9.333351e+002, 3.008061e+001
9.338172e+002, 3.008132e+001
9.342993e+002, 3.009509e+001
9.347814e+002, 3.016636e+001
9.352635e+002, 3.023019e+001
9.357457e+002, 3.021378e+001
9.362278e+002, 3.012886e+001
9.367099e+002, 3.002977e+001
9.371920e+002, 2.988916e+001
9.376741e+002, 2.986399e+001
9.381563e+002, 3.001885e+001
9.386384e+002, 3.018838e+001
9.391205e+002, 3.029813e+001
9.396026e+002, 3.035507e+001
9.400847e+002, 3.036527e+001
9.405668e+002, 3.031879e+001
9.410490e+002, 3.028465e+001
9.415311e+002, 3.021434e+001
9.420132e+002, 3.022211e+001
9.424953e+002, 3.042087e+001
9.429774e+002, 3.062282e+001
9.434595e+002, 3.066870e+001
9.439417e+002, 3.061003e+001
9.444238e+002, 3.059855e+001
9.449059e+002, 3.068126e+001
9.453880e+002, 3.074351e+001
9.458701e+002, 3.075676e+001
9.463522e+002, 3.072419e+001
9.468344e+002, 3.059146e+001
9.473165e+002, 3.044575e+001
9.477986e+002, 3.044523e+001
9.482807e+002, 3.056860e+001
9.487628e+002, 3.059274e+001
9.492449e+002, 3.034764e+001
9.497271e+002, 3.009504e+001
9.502092e+002, 3.010505e+001
9.506913e+002, 3.025668e+001
9.511734e+002, 3.037142e+001
9.516555e+002, 3.045144e+001
9.521376e+002, 3.058462e+001
9.526198e+002, 3.079129e+001
9.531019e+002, 3.094717e+001
9.535840e+002, 3.091604e+001
9.540661e+002, 3.077166e+001
9.545482e+002, 3.070446e+001
9.550303e+002, 3.069542e+001
9.555124e+002, 3.058486e+001
9.559945e+002, 3.035071e+001
9.564766e+002, 3.022582e+001
9.569587e+002, 3.035334e+001
9.574409e+002, 3.055033e+001
9.579230e+002, 3.049967e+001
9.584051e+002, 3.020824e+001
9.588872e+002, 3.013196e+001
9.593693e+002, 3.036159e+001
9.598514e+002, 3.039136e+001
9.603336e+002, 3.002300e+001
9.608157e+002, 2.963868e+001
9.612978e+002, 2.953461e+001
9.617799e+002, 2.962200e+001
9.622620e+002, 2.965527e+001
9.627441e+002, 2.962543e+001
9.632263e+002, 2.956951e+001
9.637084e+002, 2.948582e+001
9.641905e+002, 2.937823e+001
9.646726e+002, 2.928140e+001
9.651547e+002, 2.913554e+001
9.656368e+002, 2.882026e+001
9.661190e+002, 2.839654e+001
9.666011e+002, 2.814694e+001
9.670832e+002, 2.820229e+001
9.675653e+002, 2.823490e+001
9.680474e+002, 2.817410e+001
9.685295e+002, 2.807338e+001
9.690117e+002, 2.791619e+001
9.694938e+002, 2.776443e+001
9.699759e+002, 2.778654e+001
9.704580e+002, 2.794084e+001
9.709401e+002, 2.781154e+001
9.714222e+002, 2.692812e+001
9.719044e+002, 2.618460e+001
9.723865e+002, 2.635156e+001
9.728686e+002, 2.678087e+001
9.733507e+002, 2.682258e+001
9.738328e+002, 2.653112e+001
9.743149e+002, 2.612875e+001
9.747971e+002, 2.570645e+001
9.752792e+002, 2.538158e+001
9.757613e+002, 2.528605e+001
9.762434e+002, 2.529840e+001
9.767255e+002, 2.531693e+001
9.772076e+002, 2.529919e+001
9.776898e+002, 2.510066e+001
9.781719e+002, 2.475334e+001
9.786540e+002, 2.450123e+001
9.791361e+002, 2.445840e+001
9.796182e+002, 2.446623e+001
9.801003e+002, 2.431778e+001
9.805825e+002, 2.406400e+001
9.810646e+002, 2.387826e+001
9.815467e+002, 2.375381e+001
9.820288e+002, 2.363234e+001
9.825109e+002, 2.350295e+001
9.829930e+002, 2.338404e+001
9.834752e+002, 2.328674e+001
9.839573e+002, 2.321479e+001
9.844394e+002, 2.319328e+001
9.849215e+002, 2.322336e+001
9.854036e+002, 2.313619e+001
9.858857e+002, 2.290071e+001
9.863679e+002, 2.274236e+001
9.868500e+002, 2.274187e+001
9.873321e+002, 2.275949e+001
9.878142e+002, 2.267637e+001
9.882963e+002, 2.252936e+001
9.887784e+002, 2.243254e+001
9.892606e+002, 2.239024e+001
9.897427e+002, 2.239165e+001
9.902248e+002, 2.249645e+001
9.907069e+002, 2.252655e+001
9.911890e+002, 2.238480e+001
9.916711e+002, 2.219031e+001
9.921533e+002, 2.201838e+001
9.926354e+002, 2.188489e+001
9.931175e+002, 2.189434e+001
9.935996e+002, 2.222601e+001
9.940817e+002, 2.237745e+001
9.945638e+002, 2.215458e+001
9.950460e+002, 2.197518e+001
9.955281e+002, 2.207048e+001
9.960102e+002, 2.224031e+001
9.964923e+002, 2.222706e+001
9.969744e+002, 2.205906e+001
9.974565e+002, 2.203351e+001
9.979387e+002, 2.238209e+001
9.984208e+002, 2.258256e+001
9.989029e+002, 2.237856e+001
9.993850e+002, 2.211790e+001
9.998671e+002, 2.198655e+001
1.000349e+003, 2.195422e+001
1.000831e+003, 2.199857e+001
1.001313e+003, 2.209432e+001
1.001796e+003, 2.210207e+001
1.002278e+003, 2.185776e+001
1.002760e+003, 2.167490e+001
1.003242e+003, 2.178401e+001
1.003724e+003, 2.197993e+001
1.004206e+003, 2.214183e+001
1.004688e+003, 2.221559e+001
1.005170e+003, 2.206689e+001
1.005653e+003, 2.170294e+001
1.006135e+003, 2.148302e+001
1.006617e+003, 2.173790e+001
1.007099e+003, 2.208980e+001
1.007581e+003, 2.222233e+001
1.008063e+003, 2.220513e+001
1.008545e+003, 2.206021e+001
1.009027e+003, 2.186379e+001
1.009509e+003, 2.181374e+001
1.009992e+003, 2.196649e+001
1.010474e+003, 2.211298e+001
1.010956e+003, 2.203160e+001
1.011438e+003, 2.187938e+001
1.011920e+003, 2.191468e+001
1.012402e+003, 2.205845e+001
1.012884e+003, 2.214787e+001
1.013366e+003, 2.215686e+001
1.013849e+003, 2.205452e+001
1.014331e+003, 2.183206e+001
1.014813e+003, 2.165549e+001
1.015295e+003, 2.173945e+001
1.015777e+003, 2.198421e+001
1.016259e+003, 2.217752e+001
1.016741e+003, 2.230970e+001
1.017223e+003, 2.227875e+001
1.017705e+003, 2.209337e+001
1.018188e+003, 2.202048e+001
1.018670e+003, 2.220247e+001
1.019152e+003, 2.246918e+001
1.019634e+003, 2.259416e+001
1.020116e+003, 2.259865e+001
1.020598e+003, 2.258352e+001
1.021080e+003, 2.254869e+001
1.021562e+003, 2.247284e+001
1.022044e+003, 2.234731e+001
1.022527e+003, 2.228101e+001
1.023009e+003, 2.234218e+001
1.023491e+003, 2.247078e+001
1.023973e+003, 2.257999e+001
1.024455e+003, 2.266834e+001
1.024937e+003, 2.268139e+001
1.025419e+003, 2.259550e+001
1.025901e+003, 2.267323e+001
1.026384e+003, 2.302261e+001
1.026866e+003, 2.325486e+001
1.027348e+003, 2.308496e+001
1.027830e+003, 2.274587e+001
1.028312e+003, 2.268311e+001
1.028794e+003, 2.291201e+001
1.029276e+003, 2.302860e+001
1.029758e+003, 2.301875e+001
1.030240e+003, 2.293305e+001
1.030723e+003, 2.272815e+001
1.031205e+003, 2.256973e+001
1.031687e+003, 2.255348e+001
1.032169e+003, 2.267341e+001
1.032651e+003, 2.296293e+001
1.033133e+003, 2.348248e+001
1.033615e+003, 2.364057e+001
1.034097e+003, 2.324235e+001
1.034579e+003, 2.289881e+001
1.035062e+003, 2.267433e+001
1.035544e+003, 2.261014e+001
1.036026e+003, 2.281639e+001
1.036508e+003, 2.315355e+001
1.036990e+003, 2.331952e+001
1.037472e+003, 2.327448e+001
1.037954e+003, 2.328128e+001
1.038436e+003, 2.339805e+001
1.038919e+003, 2.347327e+001
1.039401e+003, 2.348030e+001
1.039883e+003, 2.343880e+001
1.040365e+003, 2.326390e+001
1.040847e+003, 2.307947e+001
1.041329e+003, 2.318442e+001
1.041811e+003, 2.366042e+001
1.042293e+003, 2.399329e+001
1.042776e+003, 2.410667e+001
1.043258e+003, 2.417239e+001
1.043740e+003, 2.421413e+001
1.044222e+003, 2.422598e+001
1.044704e+003, 2.416562e+001
1.045186e+003, 2.408493e+001
1.045668e+003, 2.409088e+001
1.046150e+003, 2.420288e+001
1.046632e+003, 2.430929e+001
1.047115e+003, 2.445968e+001
1.047597e+003, 2.451822e+001
1.048079e+003, 2.430332e+001
1.048561e+003, 2.413046e+001
1.049043e+003, 2.430119e+001
1.049525e+003, 2.463732e+001
1.050007e+003, 2.477172e+001
1.050489e+003, 2.464066e+001
1.050971e+003, 2.458647e+001
1.051454e+003, 2.476073e+001
1.051936e+003, 2.490289e+001
1.052418e+003, 2.492611e+001
1.052900e+003, 2.489987e+001
1.053382e+003, 2.479003e+001
1.053864e+003, 2.470148e+001
1.054346e+003, 2.488038e+001
1.054828e+003, 2.537182e+001
1.055311e+003, 2.565616e+001
1.055793e+003, 2.535607e+001
1.056275e+003, 2.515373e+001
1.056757e+003, 2.543437e+001
1.057239e+003, 2.574984e+001
1.057721e+003, 2.569498e+001
1.058203e+003, 2.546230e+001
1.058685e+003, 2.542904e+001
1.059167e+003, 2.565077e+001
1.059650e+003, 2.587219e+001
1.060132e+003, 2.602260e+001
1.060614e+003, 2.614212e+001
1.061096e+003, 2.622787e+001
1.061578e+003, 2.630684e+001
1.062060e+003, 2.642393e+001
1.062542e+003, 2.653786e+001
1.063024e+003, 2.652586e+001
1.063506e+003, 2.639264e+001
1.063989e+003, 2.643038e+001
1.064471e+003, 2.693237e+001
1.064953e+003, 2.735843e+001
1.065435e+003, 2.738367e+001
1.065917e+003, 2.735084e+001
1.066399e+003, 2.754539e+001
1.066881e+003, 2.784796e+001
1.067363e+003, 2.807621e+001
1.067846e+003, 2.819141e+001
1.068328e+003, 2.818358e+001
1.068810e+003, 2.795090e+001
1.069292e+003, 2.776669e+001
1.069774e+003, 2.772442e+001
1.070256e+003, 2.780587e+001
1.070738e+003, 2.810630e+001
1.071220e+003, 2.845921e+001
1.071703e+003, 2.864348e+001
1.072185e+003, 2.863965e+001
1.072667e+003, 2.854655e+001
1.073149e+003, 2.827714e+001
1.073631e+003, 2.820753e+001
1.074113e+003, 2.880893e+001
1.074595e+003, 2.936345e+001
1.075077e+003, 2.928160e+001
1.075559e+003, 2.887859e+001
1.076042e+003, 2.850701e+001
1.076524e+003, 2.825809e+001
1.077006e+003, 2.823510e+001
1.077488e+003, 2.857586e+001
1.077970e+003, 2.881043e+001
1.078452e+003, 2.859329e+001
1.078934e+003, 2.833607e+001
1.079416e+003, 2.835375e+001
1.079898e+003, 2.846487e+001
1.080380e+003, 2.841154e+001
1.080863e+003, 2.822900e+001
1.081345e+003, 2.816836e+001
1.081827e+003, 2.836171e+001
1.082309e+003, 2.839960e+001
1.082791e+003, 2.792673e+001
1.083273e+003, 2.744129e+001
1.083755e+003, 2.729699e+001
1.084237e+003, 2.726126e+001
1.084720e+003, 2.707441e+001
1.085202e+003, 2.676610e+001
1.085684e+003, 2.647980e+001
1.086166e+003, 2.624954e+001
1.086648e+003, 2.608197e+001
1.087130e+003, 2.605123e+001
1.087612e+003, 2.599529e+001
1.088094e+003, 2.580741e+001
1.088577e+003, 2.557383e+001
1.089059e+003, 2.537665e+001
1.089541e+003, 2.520004e+001
1.090023e+003, 2.498656e+001
1.090505e+003, 2.472269e+001
1.090987e+003, 2.449612e+001
1.091469e+003, 2.434110e+001
1.091951e+003, 2.422659e+001
1.092433e+003, 2.416373e+001
1.092916e+003, 2.411272e+001
1.093398e+003, 2.402020e+001
1.093880e+003, 2.392896e+001
1.094362e+003, 2.395441e+001
1.094844e+003, 2.409389e+001
1.095326e+003, 2.410389e+001
1.095808e+003, 2.381927e+001
1.096290e+003, 2.352521e+001
1.096772e+003, 2.325573e+001
1.097255e+003, 2.306941e+001
1.097737e+003, 2.306965e+001
1.098219e+003, 2.313279e+001
1.098701e+003, 2.309200e+001
1.099183e+003, 2.294497e+001
1.099665e+003, 2.280274e+001
1.100147e+003, 2.269403e+001
1.100629e+003, 2.258403e+001
1.101112e+003, 2.247584e+001
1.101594e+003, 2.235050e+001
1.102076e+003, 2.219551e+001
1.102558e+003, 2.202017e+001
1.103040e+003, 2.180115e+001
1.103522e+003, 2.157008e+001
1.104004e+003, 2.143597e+001
1.104486e+003, 2.142600e+001
1.104969e+003, 2.147490e+001
1.105451e+003, 2.169353e+001
1.105933e+003, 2.181000e+001
1.106415e+003, 2.164094e+001
1.106897e+003, 2.141508e+001
1.107379e+003, 2.131786e+001
1.107861e+003, 2.130825e+001
1.108343e+003, 2.126742e+001
1.108825e+003, 2.117879e+001
1.109307e+003, 2.110380e+001
1.109790e+003, 2.099162e+001
1.110272e+003, 2.097361e+001
1.110754e+003, 2.125977e+001
1.111236e+003, 2.145359e+001
1.111718e+003, 2.117768e+001
1.112200e+003, 2.072265e+001
1.112682e+003, 2.058049e+001
1.113164e+003, 2.077217e+001
1.113647e+003, 2.095104e+001
1.114129e+003, 2.118254e+001
1.114611e+003, 2.128963e+001
1.115093e+003, 2.117399e+001
1.115575e+003, 2.104950e+001
1.116057e+003, 2.100401e+001
1.116539e+003, 2.099732e+001
1.117021e+003, 2.099703e+001
1.117504e+003, 2.099693e+001
1.117986e+003, 2.094505e+001
1.118468e+003, 2.077982e+001
1.118950e+003, 2.071669e+001
1.119432e+003, 2.082755e+001
1.119914e+003, 2.089382e+001
1.120396e+003, 2.080389e+001
1.120878e+003, 2.072372e+001
1.121360e+003, 2.083319e+001
1.121843e+003, 2.103309e+001
1.122325e+003, 2.100167e+001
1.122807e+003, 2.066037e+001
1.123289e+003, 2.058867e+001
1.123771e+003, 2.087947e+001
1.124253e+003, 2.113263e+001
1.124735e+003, 2.128269e+001
1.125217e+003, 2.131675e+001
1.125699e+003, 2.120991e+001
1.126182e+003, 2.101385e+001
1.126664e+003, 2.079469e+001
1.127146e+003, 2.056228e+001
1.127628e+003, 2.050759e+001
1.128110e+003, 2.064356e+001
1.128592e+003, 2.087410e+001
1.129074e+003, 2.121351e+001
1.129556e+003, 2.142130e+001
1.130039e+003, 2.137203e+001
1.130521e+003, 2.123919e+001
1.131003e+003, 2.122282e+001
1.131485e+003, 2.127820e+001
1.131967e+003, 2.122256e+001
1.132449e+003, 2.106798e+001
1.132931e+003, 2.107886e+001
1.133413e+003, 2.126173e+001
1.133896e+003, 2.126542e+001
1.134378e+003, 2.098309e+001
1.134860e+003, 2.067330e+001
1.135342e+003, 2.052814e+001
1.135824e+003, 2.051945e+001
1.136306e+003, 2.064584e+001
1.136788e+003, 2.085937e+001
1.137270e+003, 2.095773e+001
1.137752e+003, 2.096615e+001
1.138234e+003, 2.105037e+001
1.138717e+003, 2.121770e+001
1.139199e+003, 2.126520e+001
1.139681e+003, 2.108843e+001
1.140163e+003, 2.088212e+001
1.140645e+003, 2.087308e+001
1.141127e+003, 2.097008e+001
1.141609e+003, 2.102414e+001
1.142091e+003, 2.104556e+001
1.142574e+003, 2.104809e+001
1.143056e+003, 2.104014e+001
1.143538e+003, 2.104888e+001
1.144020e+003, 2.107697e+001
1.144502e+003, 2.107228e+001
1.144984e+003, 2.098774e+001
1.145466e+003, 2.087959e+001
1.145948e+003, 2.076858e+001
1.146431e+003, 2.069861e+001
1.146913e+003, 2.077088e+001
1.147395e+003, 2.090577e+001
1.147877e+003, 2.097009e+001
1.148359e+003, 2.094015e+001
1.148841e+003, 2.082756e+001
1.149323e+003, 2.061589e+001
1.149805e+003, 2.045536e+001
1.150287e+003, 2.043221e+001
1.150770e+003, 2.050381e+001
1.151252e+003, 2.071189e+001
1.151734e+003, 2.093909e+001
1.152216e+003, 2.107612e+001
1.152698e+003, 2.112365e+001
1.153180e+003, 2.110614e+001
1.153662e+003, 2.102925e+001
1.154144e+003, 2.093883e+001
1.154626e+003, 2.084832e+001
1.155109e+003, 2.074913e+001
1.155591e+003, 2.056811e+001
1.156073e+003, 2.045484e+001
1.156555e+003, 2.056393e+001
1.157037e+003, 2.075514e+001
1.157519e+003, 2.087188e+001
1.158001e+003, 2.089995e+001
1.158483e+003, 2.082503e+001
1.158966e+003, 2.053042e+001
1.159448e+003, 2.038014e+001
1.159930e+003, 2.051624e+001
1.160412e+003, 2.063547e+001
1.160894e+003, 2.068174e+001
1.161376e+003, 2.065409e+001
1.161858e+003, 2.048002e+001
1.162340e+003, 2.027217e+001
1.162822e+003, 2.029527e+001
1.163305e+003, 2.057807e+001
1.163787e+003, 2.078752e+001
1.164269e+003, 2.093020e+001
1.164751e+003, 2.096985e+001
1.165233e+003, 2.087383e+001
1.165715e+003, 2.074435e+001
1.166197e+003, 2.060081e+001
1.166679e+003, 2.052402e+001
1.167161e+003, 2.062891e+001
1.167644e+003, 2.086001e+001
1.168126e+003, 2.099583e+001
1.168608e+003, 2.103502e+001
1.169090e+003, 2.100401e+001
1.169572e+003, 2.090156e+001
1.170054e+003, 2.080837e+001
1.170536e+003, 2.074529e+001
1.171018e+003, 2.076840e+001
1.171500e+003, 2.092917e+001
1.171983e+003, 2.110695e+001
1.172465e+003, 2.109596e+001
1.172947e+003, 2.094886e+001
1.173429e+003, 2.080033e+001
1.173911e+003, 2.067423e+001
1.174393e+003, 2.067214e+001
1.174875e+003, 2.079086e+001
1.175357e+003, 2.098065e+001
1.175840e+003, 2.120992e+001
1.176322e+003, 2.133705e+001
1.176804e+003, 2.121682e+001
1.177286e+003, 2.100487e+001
1.177768e+003, 2.085061e+001
1.178250e+003, 2.076040e+001
1.178732e+003, 2.079235e+001
1.179214e+003, 2.087496e+001
1.179697e+003, 2.084693e+001
1.180179e+003, 2.071859e+001
1.180661e+003, 2.065501e+001
1.181143e+003, 2.073047e+001
1.181625e+003, 2.082434e+001
1.182107e+003, 2.085042e+001
1.182589e+003, 2.088604e+001
1.183071e+003, 2.097262e+001
1.183553e+003, 2.110053e+001
1.184036e+003, 2.132360e+001
1.184518e+003, 2.155215e+001
1.185000e+003, 2.161554e+001
1.185482e+003, 2.149668e+001
1.185964e+003, 2.136376e+001
1.186446e+003, 2.121817e+001
1.186928e+003, 2.112027e+001
1.187410e+003, 2.107652e+001
1.187892e+003, 2.108703e+001
1.188375e+003, 2.123645e+001
1.188857e+003, 2.136546e+001
1.189339e+003, 2.128904e+001
1.189821e+003, 2.108908e+001
1.190303e+003, 2.101458e+001
1.190785e+003, 2.110446e+001
1.191267e+003, 2.106904e+001
1.191749e+003, 2.078394e+001
1.192232e+003, 2.075512e+001
1.192714e+003, 2.117351e+001
1.193196e+003, 2.152781e+001
1.193678e+003, 2.155952e+001
1.194160e+003, 2.141031e+001
1.194642e+003, 2.123522e+001
1.195124e+003, 2.104393e+001
1.195606e+003, 2.085611e+001
1.196089e+003, 2.067570e+001
1.196571e+003, 2.064280e+001
1.197053e+003, 2.075696e+001
1.197535e+003, 2.088272e+001
1.198017e+003, 2.098346e+001
1.198499e+003, 2.105204e+001
1.198981e+003, 2.108328e+001
1.199463e+003, 2.108908e+001
1.199945e+003, 2.106205e+001
1.200427e+003, 2.103843e+001
1.200910e+003, 2.118690e+001
1.201392e+003, 2.135534e+001
1.201874e+003, 2.108706e+001
1.202356e+003, 2.053503e+001
1.202838e+003, 2.028156e+001
1.203320e+003, 2.045585e+001
1.203802e+003, 2.070554e+001
1.204284e+003, 2.084672e+001
1.204767e+003, 2.093817e+001
1.205249e+003, 2.102615e+001
1.205731e+003, 2.108013e+001
1.206213e+003, 2.104410e+001
1.206695e+003, 2.098146e+001
1.207177e+003, 2.094412e+001
1.207659e+003, 2.095242e+001
1.208141e+003, 2.106320e+001
1.208624e+003, 2.129902e+001
1.209106e+003, 2.142506e+001
1.209588e+003, 2.135359e+001
1.210070e+003, 2.121399e+001
1.210552e+003, 2.094476e+001
1.211034e+003, 2.071731e+001
1.211516e+003, 2.059939e+001
1.211998e+003, 2.058191e+001
1.212480e+003, 2.071567e+001
1.212963e+003, 2.093201e+001
1.213445e+003, 2.095476e+001
1.213927e+003, 2.072766e+001
1.214409e+003, 2.059065e+001
1.214891e+003, 2.056098e+001
1.215373e+003, 2.057210e+001
1.215855e+003, 2.064116e+001
1.216337e+003, 2.057656e+001
1.216819e+003, 2.024306e+001
1.217302e+003, 1.991876e+001
1.217784e+003, 1.997199e+001
1.218266e+003, 2.025824e+001
1.218748e+003, 2.030779e+001
1.219230e+003, 2.018112e+001
1.219712e+003, 2.021062e+001
1.220194e+003, 2.037139e+001
1.220676e+003, 2.042451e+001
1.221159e+003, 2.033057e+001
1.221641e+003, 2.023010e+001
1.222123e+003, 2.019876e+001
1.222605e+003, 2.017988e+001
1.223087e+003, 2.007484e+001
1.223569e+003, 1.999359e+001
1.224051e+003, 2.014713e+001
1.224533e+003, 2.033559e+001
1.225016e+003, 2.024302e+001
1.225498e+003, 1.999609e+001
1.225980e+003, 1.989791e+001
1.226462e+003, 1.997319e+001
1.226944e+003, 1.999385e+001
1.227426e+003, 1.985201e+001
1.227908e+003, 1.973672e+001
1.228390e+003, 1.972174e+001
1.228872e+003, 1.973444e+001
1.229354e+003, 1.975273e+001
1.229837e+003, 1.977889e+001
1.230319e+003, 1.984609e+001
1.230801e+003, 1.990695e+001
1.231283e+003, 1.986070e+001
1.231765e+003, 1.971254e+001
1.232247e+003, 1.964892e+001
1.232729e+003, 1.971006e+001
1.233211e+003, 1.972934e+001
1.233694e+003, 1.968378e+001
1.234176e+003, 1.965834e+001
1.234658e+003, 1.968612e+001
1.235140e+003, 1.970398e+001
1.235622e+003, 1.966370e+001
1.236104e+003, 1.959671e+001
1.236586e+003, 1.955046e+001
1.237068e+003, 1.952692e+001
1.237551e+003, 1.954478e+001
1.238033e+003, 1.959249e+001
1.238515e+003, 1.966019e+001
1.238997e+003, 1.971156e+001
1.239479e+003, 1.952664e+001
1.239961e+003, 1.909634e+001
1.240443e+003, 1.883252e+001
1.240925e+003, 1.901858e+001
1.241407e+003, 1.933894e+001
1.241890e+003, 1.962625e+001
1.242372e+003, 1.975882e+001
1.242854e+003, 1.949982e+001
1.243336e+003, 1.911014e+001
1.243818e+003, 1.889519e+001
1.244300e+003, 1.881879e+001
1.244782e+003, 1.872243e+001
1.245264e+003, 1.858591e+001
1.245746e+003, 1.854203e+001
1.246229e+003, 1.876362e+001
1.246711e+003, 1.882369e+001
1.247193e+003, 1.843481e+001
1.247675e+003, 1.816714e+001
1.248157e+003, 1.827931e+001
1.248639e+003, 1.849858e+001
1.249121e+003, 1.868646e+001
1.249603e+003, 1.880787e+001
1.250085e+003, 1.879340e+001
1.250568e+003, 1.864811e+001
1.251050e+003, 1.842452e+001
1.251532e+003, 1.809410e+001
1.252014e+003, 1.804364e+001
1.252496e+003, 1.831430e+001
1.252978e+003, 1.852657e+001
1.253460e+003, 1.856613e+001
1.253942e+003, 1.842608e+001
1.254425e+003, 1.807925e+001
1.254907e+003, 1.779678e+001
1.255389e+003, 1.809910e+001
1.255871e+003, 1.862011e+001
1.256353e+003, 1.863409e+001
1.256835e+003, 1.837343e+001
1.257317e+003, 1.824401e+001
1.257799e+003, 1.823397e+001
1.258281e+003, 1.818802e+001
1.258764e+003, 1.808483e+001
1.259246e+003, 1.803356e+001
1.259728e+003, 1.810689e+001
1.260210e+003, 1.813588e+001
1.260692e+003, 1.800917e+001
1.261174e+003, 1.786321e+001
1.261656e+003, 1.773136e+001
1.262138e+003, 1.763629e+001
1.262620e+003, 1.763698e+001
1.263103e+003, 1.765866e+001
1.263585e+003, 1.754387e+001
1.264067e+003, 1.732486e+001
1.264549e+003, 1.729885e+001
1.265031e+003, 1.756365e+001
1.265513e+003, 1.768395e+001
1.265995e+003, 1.763374e+001
1.266477e+003, 1.752340e+001
1.266960e+003, 1.735835e+001
1.267442e+003, 1.728651e+001
1.267924e+003, 1.740277e+001
1.268406e+003, 1.753287e+001
1.268888e+003, 1.745486e+001
1.269370e+003, 1.726854e+001
1.269852e+003, 1.717208e+001
1.270334e+003, 1.716551e+001
1.270817e+003, 1.725985e+001
1.271299e+003, 1.744168e+001
1.271781e+003, 1.777488e+001
1.272263e+003, 1.816475e+001
1.272745e+003, 1.820354e+001
1.273227e+003, 1.773411e+001
1.273709e+003, 1.735799e+001
1.274191e+003, 1.751574e+001
1.274673e+003, 1.774130e+001
1.275156e+003, 1.791210e+001
1.275638e+003, 1.794710e+001
1.276120e+003, 1.766765e+001
1.276602e+003, 1.732255e+001
1.277084e+003, 1.720573e+001
1.277566e+003, 1.725959e+001
1.278048e+003, 1.724472e+001
1.278530e+003, 1.713764e+001
1.279012e+003, 1.719633e+001
1.279495e+003, 1.751159e+001
1.279977e+003, 1.764745e+001
1.280459e+003, 1.753165e+001
1.280941e+003, 1.735478e+001
1.281423e+003, 1.716778e+001
1.281905e+003, 1.711922e+001
1.282387e+003, 1.734998e+001
1.282869e+003, 1.765365e+001
1.283352e+003, 1.765635e+001
1.283834e+003, 1.747896e+001
1.284316e+003, 1.737849e+001
1.284798e+003, 1.735574e+001
##END=



