##NAMES=Orlandiite
##RRUFFID=R100122
##IDEAL CHEMISTRY=Pb^2+^_3_Cl_4_(Se^4+^O_3_)&#183;H_2_O
##LOCALITY=Baccu Locci mine, Villaputen, Sardinia
##OWNER=RRUFF
##SOURCE=William W. Pinch
##DESCRIPTION=Colorless radiating bladed crystals associated with blue chalcomenite, R100123, and colorless anglesite.
##STATUS=The identification of this mineral has been confirmed by single-crystal X-ray diffraction.
##URL=rruff.info/R100122
91.03516, 19.05031
91.51727, 18.87184
91.99939, 19.16063
92.48151, 19.70678
92.96362, 19.91341
93.44574, 19.12133
93.92786, 17.81225
94.40997, 17.05661
94.89210, 17.00987
95.37421, 17.27094
95.85633, 17.27996
96.33845, 17.04631
96.82056, 16.75212
97.30268, 16.41512
97.78480, 16.06304
98.26691, 16.02873
98.74903, 16.47482
99.23115, 17.17043
99.71326, 17.33444
100.1954, 16.81185
100.6775, 16.34573
101.1596, 16.79633
101.6417, 18.52034
102.1239, 19.32631
102.6060, 18.51176
103.0881, 16.20611
103.5702, 14.77020
104.0523, 14.40131
104.5344, 14.64407
105.0166, 15.09453
105.4987, 16.00408
105.9808, 16.66246
106.4629, 16.84880
106.9450, 16.43722
107.4271, 16.13485
107.9093, 16.03187
108.3914, 16.00510
108.8735, 15.86298
109.3556, 15.31388
109.8377, 14.92315
110.3198, 14.88299
110.8020, 15.48473
111.2841, 15.87457
111.7662, 15.84008
112.2483, 15.57295
112.7304, 15.49759
113.2125, 15.94920
113.6947, 16.40410
114.1768, 16.61726
114.6589, 16.50972
115.1410, 16.22532
115.6231, 15.64570
116.1052, 14.87005
116.5874, 14.26215
117.0695, 14.02157
117.5516, 13.96638
118.0337, 13.95932
118.5158, 13.87366
118.9980, 13.90367
119.4801, 14.28119
119.9622, 14.96116
120.4443, 15.44200
120.9264, 15.21407
121.4085, 14.68492
121.8907, 14.35533
122.3728, 14.55372
122.8549, 14.95067
123.3370, 15.28647
123.8191, 15.55151
124.3012, 15.83348
124.7834, 16.23869
125.2655, 16.71519
125.7476, 17.15339
126.2297, 17.40661
126.7118, 17.61575
127.1939, 17.93574
127.6761, 18.35244
128.1582, 18.99791
128.6403, 20.10481
129.1224, 21.61246
129.6045, 23.22800
130.0867, 24.79823
130.5688, 26.36122
131.0509, 27.83969
131.5330, 29.07162
132.0151, 30.59170
132.4972, 33.49591
132.9794, 37.78627
133.4615, 42.43557
133.9436, 46.52095
134.4257, 50.16664
134.9078, 54.48980
135.3899, 59.58339
135.8721, 65.52074
136.3542, 72.73640
136.8363, 81.31235
137.3184, 90.84640
137.8005, 100.8032
138.2826, 111.1744
138.7648, 122.7250
139.2469, 135.5293
139.7290, 149.6843
140.2111, 165.0626
140.6932, 181.9617
141.1753, 199.7851
141.6575, 218.0724
142.1396, 237.6517
142.6217, 255.9193
143.1038, 272.1222
143.5859, 286.3181
144.0681, 300.1266
144.5502, 313.9077
145.0323, 327.0907
145.5144, 339.2080
145.9965, 349.7027
146.4786, 359.8320
146.9608, 369.2387
147.4429, 377.3439
147.9250, 387.8216
148.4071, 400.9758
148.8892, 416.4212
149.3713, 433.2977
149.8535, 452.4090
150.3356, 472.3853
150.8177, 493.0034
151.2998, 514.5988
151.7819, 536.0580
152.2640, 557.3677
152.7462, 578.6260
153.2283, 599.5853
153.7104, 621.2435
154.1925, 641.8028
154.6746, 660.6174
155.1567, 677.6588
155.6389, 692.4719
156.1210, 704.1061
156.6031, 713.4578
157.0852, 722.8793
157.5673, 734.0021
158.0495, 744.4531
158.5316, 753.0641
159.0137, 758.2900
159.4958, 763.4769
159.9779, 770.0229
160.4600, 777.3699
160.9422, 783.6946
161.4243, 787.6248
161.9064, 790.7636
162.3885, 794.1464
162.8706, 797.9381
163.3527, 802.1685
163.8349, 806.7912
164.3170, 811.8544
164.7991, 817.5876
165.2812, 824.3281
165.7633, 831.6888
166.2454, 839.3094
166.7276, 846.6966
167.2097, 854.6625
167.6918, 864.5192
168.1739, 875.8857
168.6560, 886.3433
169.1381, 893.8461
169.6203, 899.4746
170.1024, 898.9170
170.5845, 896.9628
171.0666, 895.0532
171.5487, 891.4554
172.0309, 886.3389
172.5130, 881.5129
172.9951, 879.3138
173.4772, 878.0775
173.9593, 875.1773
174.4414, 868.0439
174.9236, 859.6136
175.4057, 853.2275
175.8878, 848.8299
176.3699, 845.0194
176.8520, 841.0519
177.3341, 836.7482
177.8163, 831.7000
178.2984, 825.0953
178.7805, 817.8903
179.2626, 811.5056
179.7447, 806.0878
180.2268, 801.1125
180.7090, 796.2537
181.1911, 791.5020
181.6732, 786.8884
182.1553, 782.2482
182.6374, 777.7867
183.1195, 774.3342
183.6017, 772.0318
184.0838, 769.7679
184.5659, 766.0579
185.0480, 761.1338
185.5301, 755.9655
186.0123, 750.6873
186.4944, 745.4887
186.9765, 741.4428
187.4586, 738.7849
187.9407, 736.3273
188.4228, 732.1100
188.9050, 726.3174
189.3871, 720.7083
189.8692, 716.2992
190.3513, 712.9136
190.8334, 709.7087
191.3155, 706.7918
191.7977, 703.7334
192.2798, 699.6836
192.7619, 694.6524
193.2440, 689.6282
193.7261, 684.9443
194.2082, 680.6376
194.6904, 676.8918
195.1725, 673.7996
195.6546, 671.1150
196.1367, 668.4962
196.6188, 665.9203
197.1009, 663.5320
197.5831, 661.6990
198.0652, 660.3983
198.5473, 658.0771
199.0294, 654.3397
199.5115, 649.9681
199.9937, 646.5013
200.4758, 644.0243
200.9579, 642.0742
201.4400, 640.7760
201.9221, 640.2415
202.4042, 638.6090
202.8864, 635.4756
203.3685, 631.4820
203.8506, 628.0314
204.3327, 625.1594
204.8148, 622.7850
205.2969, 621.1856
205.7791, 620.6013
206.2612, 618.9176
206.7433, 615.6309
207.2254, 611.4697
207.7075, 608.3773
208.1896, 606.6422
208.6718, 605.1148
209.1539, 603.1129
209.6360, 600.5323
210.1181, 598.1061
210.6002, 595.8260
211.0823, 593.7596
211.5645, 592.2059
212.0466, 591.4324
212.5287, 590.5569
213.0108, 589.0010
213.4929, 586.4885
213.9750, 584.4005
214.4572, 582.9047
214.9393, 581.8497
215.4214, 580.7882
215.9035, 579.7930
216.3856, 578.6217
216.8678, 577.1895
217.3499, 575.5026
217.8320, 573.3425
218.3141, 570.2690
218.7962, 566.8297
219.2783, 564.9326
219.7605, 565.1943
220.2426, 565.8673
220.7247, 566.0716
221.2068, 565.7158
221.6889, 565.1224
222.1710, 564.2471
222.6532, 563.1605
223.1353, 562.0721
223.6174, 560.8566
224.0995, 559.8478
224.5816, 559.2327
225.0637, 559.1179
225.5459, 559.1782
226.0280, 559.6347
226.5101, 560.2166
226.9922, 559.9217
227.4743, 557.9267
227.9564, 556.3442
228.4386, 556.3250
228.9207, 558.7118
229.4028, 560.6155
229.8849, 561.9869
230.3670, 562.8455
230.8492, 563.2863
231.3313, 563.3054
231.8134, 562.9069
232.2955, 562.0087
232.7776, 560.2952
233.2597, 558.8766
233.7419, 557.8566
234.2240, 557.1198
234.7061, 556.4022
235.1882, 555.7733
235.6703, 555.0853
236.1524, 554.3139
236.6346, 553.6420
237.1167, 552.4638
237.5988, 550.6327
238.0809, 548.3544
238.5630, 546.0582
239.0451, 543.7736
239.5273, 541.4344
240.0094, 538.9547
240.4915, 536.1042
240.9736, 533.6669
241.4557, 531.6953
241.9378, 530.0779
242.4200, 528.7010
242.9021, 528.0593
243.3842, 526.8357
243.8663, 524.2740
244.3484, 519.4565
244.8306, 516.1160
245.3127, 514.9672
245.7948, 514.9427
246.2769, 514.0355
246.7590, 511.6689
247.2411, 509.4293
247.7233, 507.9568
248.2054, 507.5779
248.6875, 506.7663
249.1696, 505.4772
249.6517, 503.8073
250.1338, 501.8271
250.6160, 499.1637
251.0981, 496.8712
251.5802, 495.4490
252.0623, 495.1689
252.5444, 494.2978
253.0265, 492.6440
253.5087, 490.5674
253.9908, 488.6549
254.4729, 487.1545
254.9550, 485.2840
255.4371, 482.6342
255.9192, 479.0505
256.4014, 476.1675
256.8835, 474.1876
257.3656, 472.7077
257.8477, 471.2809
258.3298, 470.1416
258.8120, 468.4886
259.2941, 465.9078
259.7762, 462.2947
260.2583, 459.3273
260.7404, 457.0767
261.2225, 455.3346
261.7047, 453.9385
262.1868, 453.1515
262.6689, 451.9599
263.1510, 449.9584
263.6331, 447.1945
264.1152, 444.9492
264.5974, 443.4169
265.0795, 442.1240
265.5616, 440.6574
266.0437, 438.9239
266.5258, 437.3008
267.0079, 436.0097
267.4901, 434.9469
267.9722, 433.1704
268.4543, 430.4205
268.9364, 427.4633
269.4185, 424.8209
269.9006, 422.4439
270.3828, 420.6397
270.8649, 419.5202
271.3470, 418.9913
271.8291, 418.7025
272.3112, 418.8131
272.7933, 418.7072
273.2755, 417.8098
273.7576, 415.9684
274.2397, 414.3207
274.7218, 412.9859
275.2039, 411.9362
275.6860, 411.2104
276.1682, 410.9240
276.6503, 410.5016
277.1324, 409.3837
277.6145, 407.4906
278.0966, 406.2946
278.5787, 406.1610
279.0609, 406.5163
279.5430, 405.9471
280.0251, 404.3031
280.5072, 402.7543
280.9893, 402.0572
281.4715, 402.2162
281.9536, 402.1406
282.4357, 401.7845
282.9178, 401.1778
283.3999, 400.1888
283.8820, 398.7717
284.3642, 397.6589
284.8463, 397.2668
285.3284, 397.5339
285.8105, 397.9922
286.2926, 398.7693
286.7747, 399.2819
287.2569, 398.2780
287.7390, 395.8326
288.2211, 394.0786
288.7032, 394.4137
289.1853, 396.2302
289.6674, 396.7193
290.1496, 395.7655
290.6317, 394.3063
291.1138, 393.1928
291.5959, 392.4306
292.0780, 392.1009
292.5602, 392.5839
293.0423, 393.3904
293.5244, 393.0070
294.0065, 391.3857
294.4886, 389.8046
294.9707, 389.8687
295.4529, 391.0387
295.9350, 391.2644
296.4171, 389.4984
296.8992, 386.9889
297.3813, 386.1325
297.8634, 386.8056
298.3456, 387.5943
298.8277, 387.1847
299.3098, 386.1065
299.7919, 385.6524
300.2740, 386.4319
300.7561, 387.3283
301.2383, 386.4731
301.7204, 384.2535
302.2025, 382.4884
302.6846, 382.6600
303.1667, 383.9037
303.6488, 384.9808
304.1310, 385.7200
304.6131, 386.1964
305.0952, 386.3546
305.5773, 386.2813
306.0594, 386.2110
306.5415, 386.0821
307.0237, 386.1082
307.5058, 386.6757
307.9879, 387.9164
308.4700, 388.9964
308.9521, 389.2685
309.4343, 388.9454
309.9164, 388.4187
310.3985, 387.7365
310.8806, 386.9884
311.3627, 386.0302
311.8448, 384.8403
312.3270, 384.2233
312.8091, 385.2928
313.2912, 387.0034
313.7733, 388.1203
314.2554, 387.4868
314.7375, 386.7727
315.2197, 387.0380
315.7018, 388.1526
316.1839, 388.9511
316.6660, 388.3971
317.1481, 387.5709
317.6302, 387.3888
318.1124, 388.7959
318.5945, 389.9682
319.0766, 390.0446
319.5587, 389.3371
320.0408, 388.9337
320.5229, 389.4670
321.0051, 390.1919
321.4872, 390.6670
321.9693, 390.5707
322.4514, 390.6912
322.9335, 391.6261
323.4156, 392.8520
323.8978, 393.3593
324.3799, 391.8105
324.8620, 390.5289
325.3441, 390.5456
325.8262, 392.5688
326.3083, 393.8775
326.7905, 393.5883
327.2726, 392.6954
327.7547, 392.4250
328.2368, 393.5884
328.7189, 394.5726
329.2010, 395.0160
329.6832, 394.8585
330.1653, 394.7957
330.6474, 394.8902
331.1295, 395.0351
331.6116, 395.1450
332.0938, 395.1964
332.5759, 395.2395
333.0580, 395.1928
333.5401, 395.1059
334.0222, 395.3911
334.5043, 396.2910
334.9865, 397.2282
335.4686, 397.7947
335.9507, 397.6870
336.4328, 398.1249
336.9149, 399.5817
337.3970, 401.4337
337.8792, 401.7155
338.3613, 399.7251
338.8434, 398.1646
339.3255, 398.5585
339.8076, 401.2990
340.2898, 402.9277
340.7719, 403.1893
341.2540, 402.8187
341.7361, 402.8360
342.2182, 403.2593
342.7003, 403.9127
343.1825, 404.7218
343.6646, 405.7076
344.1467, 407.1258
344.6288, 409.1127
345.1109, 410.8976
345.5930, 411.4540
346.0752, 410.9139
346.5573, 410.7270
347.0394, 411.2991
347.5215, 412.3776
348.0036, 413.4454
348.4857, 414.4982
348.9679, 415.6410
349.4500, 417.1269
349.9321, 418.7867
350.4142, 420.0975
350.8963, 420.9259
351.3784, 421.5419
351.8606, 422.1642
352.3427, 422.8250
352.8248, 423.6596
353.3069, 424.8990
353.7890, 426.2903
354.2711, 427.4398
354.7533, 428.2767
355.2354, 429.2198
355.7175, 430.9380
356.1996, 432.9658
356.6817, 434.4900
357.1638, 434.6541
357.6460, 434.5562
358.1281, 434.9980
358.6102, 435.9634
359.0923, 437.1448
359.5744, 438.5915
360.0565, 440.0619
360.5387, 441.3178
361.0208, 442.2032
361.5029, 442.9808
361.9850, 443.7059
362.4671, 444.4020
362.9492, 445.1308
363.4314, 446.1375
363.9135, 447.0226
364.3956, 447.4404
364.8777, 446.8916
365.3598, 446.9818
365.8419, 448.5949
366.3241, 450.9293
366.8062, 452.7739
367.2883, 454.3055
367.7704, 454.9984
368.2526, 454.3522
368.7347, 451.9894
369.2168, 450.4625
369.6989, 450.6124
370.1810, 451.1046
370.6631, 450.8221
371.1453, 449.0864
371.6274, 447.5764
372.1095, 446.4904
372.5916, 445.7843
373.0737, 445.1686
373.5558, 444.4868
374.0380, 444.1154
374.5201, 444.3549
375.0022, 445.4753
375.4843, 446.3244
375.9664, 446.9217
376.4485, 447.1800
376.9307, 446.8734
377.4128, 445.9189
377.8949, 444.7633
378.3770, 443.6527
378.8591, 442.5685
379.3412, 440.8470
379.8234, 438.3305
380.3055, 435.7809
380.7876, 434.1727
381.2697, 433.4467
381.7518, 432.8332
382.2339, 432.3401
382.7161, 431.6783
383.1982, 429.8836
383.6803, 427.0111
384.1624, 424.1718
384.6445, 422.1112
385.1266, 420.7383
385.6088, 420.0277
386.0909, 420.2243
386.5730, 420.3055
387.0551, 418.6857
387.5372, 415.9171
388.0193, 413.5497
388.5015, 412.4798
388.9836, 412.1976
389.4657, 412.3148
389.9478, 412.8209
390.4299, 413.3136
390.9120, 413.8198
391.3942, 414.0592
391.8763, 413.6697
392.3584, 411.8585
392.8405, 410.0292
393.3226, 408.7809
393.8047, 408.0888
394.2869, 407.8376
394.7690, 408.2957
395.2511, 408.9688
395.7332, 409.5690
396.2154, 410.0616
396.6975, 410.4612
397.1796, 410.9007
397.6617, 411.2336
398.1438, 411.2105
398.6259, 410.3224
399.1081, 409.5384
399.5902, 409.0858
400.0723, 408.9660
400.5544, 409.1779
401.0365, 410.2282
401.5186, 411.2240
402.0008, 411.3103
402.4829, 409.4861
402.9650, 408.6849
403.4471, 409.6326
403.9292, 411.8422
404.4113, 413.2873
404.8935, 413.9136
405.3756, 413.9329
405.8577, 413.1050
406.3398, 411.1594
406.8219, 410.6443
407.3040, 411.9872
407.7862, 414.0118
408.2683, 414.9408
408.7504, 414.7427
409.2325, 414.7059
409.7146, 415.4117
410.1967, 416.5846
410.6789, 417.2480
411.1610, 417.3866
411.6431, 417.5502
412.1252, 418.1866
412.6073, 419.2217
413.0894, 420.5425
413.5716, 422.2782
414.0537, 423.8906
414.5358, 424.3367
415.0179, 423.9944
415.5000, 424.1223
415.9821, 425.8560
416.4643, 428.1469
416.9464, 430.0681
417.4285, 431.5458
417.9106, 432.3828
418.3927, 431.6454
418.8748, 430.4554
419.3570, 430.1579
419.8391, 431.8840
420.3212, 433.9255
420.8033, 435.9818
421.2854, 437.8944
421.7675, 438.9824
422.2497, 438.3666
422.7318, 437.3867
423.2139, 436.7607
423.6960, 436.7629
424.1781, 436.7182
424.6602, 436.4011
425.1424, 436.0488
425.6245, 436.0287
426.1066, 436.9154
426.5887, 437.4054
427.0709, 437.1369
427.5530, 436.1079
428.0351, 435.0884
428.5172, 434.0365
428.9993, 433.0254
429.4814, 432.1232
429.9636, 431.3707
430.4457, 430.5063
430.9278, 429.3742
431.4099, 428.2474
431.8920, 427.9369
432.3741, 428.5901
432.8563, 428.8711
433.3384, 427.7495
433.8205, 425.5609
434.3026, 424.8946
434.7847, 425.9160
435.2668, 427.1002
435.7490, 426.8729
436.2311, 425.5022
436.7132, 423.8138
437.1953, 421.5779
437.6774, 419.7542
438.1595, 420.2668
438.6417, 422.5454
439.1238, 424.2272
439.6059, 423.2569
440.0880, 421.2912
440.5701, 420.1145
441.0522, 420.0068
441.5344, 420.0680
442.0165, 419.7744
442.4986, 419.3090
442.9807, 418.8960
443.4628, 418.6350
443.9449, 418.4142
444.4271, 418.3490
444.9092, 418.3534
445.3913, 417.9553
445.8734, 416.3728
446.3555, 414.8729
446.8376, 414.0711
447.3198, 414.1024
447.8019, 414.6951
448.2840, 416.7809
448.7661, 419.0171
449.2482, 419.3698
449.7303, 416.2478
450.2125, 413.9928
450.6946, 413.9529
451.1767, 415.8950
451.6588, 416.1636
452.1409, 414.1371
452.6230, 411.8920
453.1052, 411.0041
453.5873, 411.5772
454.0694, 412.0993
454.5515, 412.5418
455.0337, 412.7050
455.5158, 412.0028
455.9979, 410.5011
456.4800, 409.2750
456.9621, 408.5931
457.4442, 408.5497
457.9264, 409.8795
458.4085, 412.5110
458.8906, 414.6133
459.3727, 414.2822
459.8548, 412.5293
460.3369, 410.9303
460.8191, 409.7901
461.3012, 408.9279
461.7833, 408.3446
462.2654, 407.9277
462.7475, 407.4422
463.2296, 406.2049
463.7118, 405.3416
464.1939, 405.8127
464.6760, 407.6945
465.1581, 409.0486
465.6402, 408.9679
466.1223, 408.3038
466.6045, 407.6489
467.0866, 407.0139
467.5687, 406.4629
468.0508, 405.9181
468.5329, 405.4571
469.0150, 405.2860
469.4972, 405.7089
469.9793, 405.9672
470.4614, 405.8339
470.9435, 405.3022
471.4256, 404.4736
471.9077, 403.1308
472.3899, 401.9380
472.8720, 401.6517
473.3541, 402.3761
473.8362, 402.6786
474.3183, 402.1710
474.8004, 401.4518
475.2826, 401.8986
475.7647, 403.4224
476.2468, 404.7781
476.7289, 405.4017
477.2110, 405.3907
477.6931, 404.7273
478.1753, 403.4141
478.6574, 402.2341
479.1395, 402.1536
479.6216, 402.5279
480.1037, 402.3326
480.5858, 400.9514
481.0680, 399.6108
481.5501, 399.2962
482.0322, 399.6369
482.5143, 399.8628
482.9964, 399.5291
483.4786, 399.1450
483.9607, 399.0023
484.4428, 399.1482
484.9249, 399.1442
485.4070, 399.0261
485.8892, 398.6605
486.3713, 397.9104
486.8534, 395.8188
487.3355, 394.8107
487.8176, 395.5591
488.2997, 397.2159
488.7819, 397.8834
489.2640, 396.9685
489.7461, 396.4219
490.2282, 397.0585
490.7103, 398.7781
491.1924, 399.8105
491.6746, 400.1050
492.1567, 399.9354
492.6388, 399.3400
493.1209, 398.3812
493.6030, 397.6577
494.0851, 397.1994
494.5673, 397.0976
495.0494, 397.7234
495.5315, 398.8838
496.0136, 399.8614
496.4957, 400.4326
496.9778, 400.5896
497.4600, 400.2601
497.9421, 399.4727
498.4242, 398.4937
498.9063, 396.7563
499.3884, 395.3059
499.8705, 395.2657
500.3527, 397.6563
500.8348, 399.4632
501.3169, 398.9172
501.7990, 397.3177
502.2811, 396.4915
502.7632, 397.7888
503.2454, 398.7980
503.7275, 398.9249
504.2096, 398.2441
504.6917, 397.5280
505.1738, 396.7432
505.6559, 395.9889
506.1381, 395.2353
506.6202, 394.3130
507.1023, 394.2289
507.5844, 395.2940
508.0665, 396.6458
508.5486, 397.0689
509.0308, 396.5436
509.5129, 395.8472
509.9950, 394.9882
510.4771, 394.2587
510.9592, 394.5151
511.4413, 395.6487
511.9235, 396.6776
512.4056, 396.8675
512.8877, 396.5936
513.3698, 396.3678
513.8519, 396.2203
514.3340, 396.1952
514.8162, 396.2617
515.2983, 396.4927
515.7804, 397.0101
516.2625, 398.4098
516.7446, 399.3987
517.2267, 399.2735
517.7089, 398.3543
518.1910, 397.4143
518.6731, 396.2683
519.1552, 395.4668
519.6373, 395.2267
520.1194, 395.5529
520.6016, 396.3187
521.0837, 398.1549
521.5658, 399.7132
522.0479, 399.8119
522.5300, 397.8400
523.0121, 396.6970
523.4943, 396.8334
523.9764, 397.5289
524.4585, 397.4598
524.9406, 396.6111
525.4227, 395.7193
525.9048, 394.8386
526.3870, 394.2038
526.8691, 394.7348
527.3513, 396.3431
527.8334, 397.6458
528.3155, 397.4417
528.7976, 396.3980
529.2797, 395.3427
529.7618, 394.3021
530.2440, 393.7022
530.7261, 394.1439
531.2082, 395.1133
531.6903, 395.9447
532.1724, 396.6006
532.6545, 396.9019
533.1367, 396.5243
533.6188, 395.6983
534.1009, 395.2337
534.5830, 395.9596
535.0651, 396.3702
535.5472, 395.6794
536.0294, 393.5416
536.5115, 392.9337
536.9936, 394.7653
537.4757, 396.8606
537.9578, 397.1851
538.4399, 395.3475
538.9221, 394.3294
539.4042, 394.6398
539.8863, 395.5159
540.3684, 395.4988
540.8505, 394.6739
541.3326, 394.0799
541.8148, 394.3235
542.2969, 394.9467
542.7790, 395.0971
543.2611, 394.8295
543.7432, 394.5860
544.2253, 394.7637
544.7075, 395.0665
545.1896, 395.1686
545.6717, 394.9923
546.1538, 394.8090
546.6359, 394.6462
547.1180, 394.5905
547.6002, 394.7362
548.0823, 395.3689
548.5644, 395.9011
549.0465, 396.2293
549.5286, 396.3814
550.0107, 396.4201
550.4929, 396.1445
550.9750, 396.0531
551.4571, 396.3377
551.9392, 397.0002
552.4213, 397.7399
552.9034, 398.6888
553.3856, 399.3149
553.8677, 398.9232
554.3498, 397.6313
554.8319, 396.9492
555.3140, 397.1284
555.7961, 397.5615
556.2783, 397.4455
556.7604, 396.9413
557.2425, 396.4920
557.7246, 396.1983
558.2067, 396.1024
558.6888, 396.4793
559.1710, 397.1479
559.6531, 397.4771
560.1352, 396.7164
560.6173, 395.8775
561.0994, 395.7222
561.5815, 396.4431
562.0637, 396.6595
562.5458, 395.2883
563.0279, 393.8487
563.5100, 393.4457
563.9921, 394.7303
564.4742, 395.9300
564.9564, 397.0468
565.4385, 398.0170
565.9206, 398.6349
566.4027, 398.7753
566.8848, 399.1893
567.3669, 400.2997
567.8491, 401.7188
568.3312, 402.1564
568.8133, 401.6334
569.2954, 400.6601
569.7775, 398.9327
570.2596, 397.1619
570.7418, 397.0691
571.2239, 398.8112
571.7060, 400.3255
572.1881, 399.3207
572.6702, 397.5586
573.1523, 397.1410
573.6345, 399.7259
574.1166, 401.6546
574.5987, 400.8965
575.0808, 398.7292
575.5629, 397.2570
576.0450, 397.5150
576.5272, 397.7389
577.0093, 397.3641
577.4914, 396.5889
577.9735, 396.8593
578.4556, 398.7018
578.9377, 400.5093
579.4199, 401.5847
579.9020, 401.9135
580.3841, 401.5246
580.8662, 400.2863
581.3483, 399.0713
581.8304, 398.8978
582.3126, 399.5049
582.7947, 399.9099
583.2768, 399.8056
583.7589, 399.8389
584.2410, 401.0444
584.7231, 402.8614
585.2053, 404.1815
585.6874, 404.4319
586.1696, 404.1440
586.6517, 403.1928
587.1338, 401.8076
587.6159, 401.0008
588.0980, 401.1682
588.5801, 401.8359
589.0623, 403.0367
589.5444, 404.9537
590.0265, 406.0244
590.5086, 405.7378
590.9907, 405.2629
591.4728, 405.6663
591.9550, 407.1985
592.4371, 407.9528
592.9192, 407.6464
593.4013, 406.8875
593.8834, 406.3783
594.3655, 406.1484
594.8477, 406.4273
595.3298, 407.6329
595.8119, 408.9509
596.2940, 409.0990
596.7761, 408.3741
597.2582, 407.7762
597.7404, 407.8280
598.2225, 408.1899
598.7046, 408.7402
599.1867, 409.4538
599.6688, 409.9810
600.1509, 410.1401
600.6331, 410.1288
601.1152, 410.0646
601.5973, 409.9864
602.0794, 409.7484
602.5615, 409.1773
603.0436, 408.6141
603.5258, 408.5244
604.0079, 409.0351
604.4900, 409.3749
604.9721, 409.4534
605.4542, 409.2653
605.9363, 408.4403
606.4185, 407.1263
606.9006, 406.5660
607.3827, 408.0419
607.8648, 410.1668
608.3469, 410.5534
608.8290, 409.5435
609.3112, 409.0349
609.7933, 411.2812
610.2754, 413.6637
610.7575, 413.8624
611.2396, 411.2767
611.7217, 409.2707
612.2039, 409.2848
612.6860, 409.9150
613.1681, 410.0679
613.6502, 409.0627
614.1323, 408.7178
614.6144, 409.3320
615.0966, 410.3596
615.5787, 411.0773
616.0608, 411.4723
616.5429, 411.6175
617.0250, 411.5261
617.5071, 411.2104
617.9893, 410.4051
618.4714, 409.2359
618.9535, 408.6683
619.4356, 409.7573
619.9177, 411.4270
620.3998, 412.3255
620.8820, 412.4917
621.3641, 412.4395
621.8462, 412.4662
622.3283, 412.3746
622.8104, 411.8568
623.2925, 410.5895
623.7747, 410.0378
624.2568, 411.0184
624.7389, 412.4691
625.2210, 413.5448
625.7031, 414.0962
626.1852, 414.5893
626.6674, 415.0593
627.1495, 415.4584
627.6316, 415.7608
628.1137, 415.9759
628.5958, 415.7947
629.0779, 414.8589
629.5601, 413.7911
630.0422, 414.1431
630.5243, 415.6013
631.0064, 416.6818
631.4885, 416.2619
631.9706, 415.2916
632.4528, 414.5455
632.9349, 414.0615
633.4170, 413.7883
633.8991, 413.7234
634.3812, 413.8540
634.8633, 414.2035
635.3455, 414.8504
635.8276, 415.4685
636.3097, 416.0206
636.7918, 416.5628
637.2739, 417.0447
637.7560, 417.2749
638.2382, 418.3656
638.7203, 420.7879
639.2024, 423.3227
639.6845, 423.8194
640.1666, 422.5294
640.6487, 421.5812
641.1309, 421.7886
641.6130, 422.3784
642.0951, 422.0211
642.5772, 421.1250
643.0594, 420.8674
643.5415, 422.5130
644.0236, 424.3622
644.5057, 425.4352
644.9879, 425.7665
645.4700, 425.9599
645.9521, 426.0135
646.4342, 426.1166
646.9163, 426.4661
647.3984, 427.2030
647.8806, 427.2039
648.3627, 426.0566
648.8448, 424.9743
649.3269, 425.0944
649.8090, 426.4233
650.2911, 427.4053
650.7733, 427.9005
651.2554, 428.2198
651.7375, 428.5791
652.2196, 429.0619
652.7017, 429.9345
653.1838, 431.5024
653.6660, 433.0078
654.1481, 433.8560
654.6302, 434.2244
655.1123, 434.4399
655.5944, 434.2442
656.0765, 434.2751
656.5587, 434.7113
657.0408, 435.5280
657.5229, 436.6431
658.0050, 438.2672
658.4871, 439.7927
658.9692, 441.0816
659.4514, 442.1092
659.9335, 442.4451
660.4156, 441.9902
660.8977, 441.6510
661.3798, 442.2036
661.8619, 443.3633
662.3441, 444.3076
662.8262, 444.9810
663.3083, 445.8768
663.7904, 448.0036
664.2725, 450.2753
664.7546, 451.2992
665.2368, 450.1463
665.7189, 449.5570
666.2010, 451.0809
666.6831, 453.3711
667.1652, 454.8515
667.6473, 454.6165
668.1295, 455.0160
668.6116, 456.4569
669.0937, 458.4533
669.5758, 460.0193
670.0579, 461.1152
670.5400, 462.2482
671.0222, 463.6180
671.5043, 465.0508
671.9864, 466.2217
672.4685, 467.1490
672.9506, 467.9500
673.4327, 468.4326
673.9149, 468.9794
674.3970, 470.0169
674.8791, 471.4902
675.3612, 472.9367
675.8433, 474.3172
676.3254, 475.5210
676.8076, 476.3438
677.2897, 476.6390
677.7718, 477.5617
678.2539, 479.5340
678.7360, 481.5516
679.2181, 483.0677
679.7003, 484.1042
680.1824, 484.1763
680.6645, 483.0751
681.1466, 481.8430
681.6287, 481.6040
682.1108, 482.1427
682.5930, 482.9498
683.0751, 484.0303
683.5572, 484.9828
684.0393, 485.3362
684.5214, 485.3831
685.0035, 485.5488
685.4857, 486.6927
685.9678, 487.1198
686.4499, 485.8690
686.9320, 483.6647
687.4141, 482.1282
687.8962, 481.6509
688.3784, 481.1548
688.8605, 480.5133
689.3426, 479.6495
689.8247, 478.0750
690.3068, 475.7410
690.7889, 473.7791
691.2711, 472.9731
691.7532, 472.7990
692.2353, 472.3488
692.7174, 471.6251
693.1995, 470.6139
693.6816, 468.6357
694.1638, 466.8644
694.6459, 466.5904
695.1280, 467.9880
695.6101, 468.5356
696.0922, 466.4919
696.5743, 464.3819
697.0565, 463.6516
697.5386, 464.7469
698.0207, 465.2851
698.5028, 465.0194
698.9849, 464.7340
699.4670, 465.5244
699.9492, 467.1975
700.4313, 467.3882
700.9135, 465.5544
701.3956, 463.7285
701.8777, 464.5878
702.3598, 466.8508
702.8419, 468.2861
703.3240, 467.9112
703.8062, 467.3332
704.2883, 467.4378
704.7704, 467.8286
705.2525, 467.9301
705.7346, 467.0251
706.2167, 466.6503
706.6989, 467.1874
707.1810, 468.2448
707.6631, 468.8763
708.1452, 468.9555
708.6273, 469.4221
709.1094, 470.8667
709.5916, 472.5844
710.0737, 472.6482
710.5558, 471.3684
711.0379, 470.3380
711.5200, 470.6003
712.0021, 471.3471
712.4843, 471.8603
712.9664, 472.1949
713.4485, 472.7237
713.9306, 474.0775
714.4127, 475.1923
714.8948, 475.3008
715.3770, 474.3804
715.8591, 474.2710
716.3412, 475.2670
716.8233, 476.4958
717.3054, 477.7580
717.7875, 479.0166
718.2697, 478.7025
718.7518, 476.7122
719.2339, 474.5672
719.7160, 473.4350
720.1981, 473.0615
720.6802, 473.2276
721.1624, 473.9736
721.6445, 474.4624
722.1266, 473.5930
722.6087, 472.6021
723.0908, 472.6772
723.5729, 475.0591
724.0551, 476.2956
724.5372, 475.7271
725.0193, 474.4464
725.5014, 473.5137
725.9835, 472.9791
726.4656, 472.4977
726.9478, 472.0311
727.4299, 471.6016
727.9120, 471.1370
728.3941, 470.7223
728.8762, 470.7641
729.3583, 471.7177
729.8405, 472.4059
730.3226, 471.3951
730.8047, 469.5440
731.2868, 468.3026
731.7689, 468.5420
732.2510, 468.9149
732.7332, 469.1338
733.2153, 469.2875
733.6974, 469.6476
734.1795, 470.4923
734.6616, 470.7002
735.1437, 469.7236
735.6259, 468.1780
736.1080, 467.7365
736.5901, 468.2977
737.0722, 468.9789
737.5543, 469.5363
738.0364, 469.8503
738.5186, 469.4822
739.0007, 468.6844
739.4828, 468.3506
739.9649, 469.7286
740.4470, 470.8312
740.9291, 470.2519
741.4113, 468.1823
741.8934, 467.8092
742.3755, 470.3232
742.8576, 472.3760
743.3397, 472.3322
743.8218, 470.5438
744.3040, 469.9876
744.7861, 470.6957
745.2682, 471.6129
745.7503, 471.9977
746.2324, 472.1434
746.7145, 472.4487
747.1967, 472.9356
747.6788, 473.6407
748.1609, 475.0565
748.6430, 476.3294
749.1251, 476.7729
749.6072, 476.0823
750.0894, 475.8276
750.5715, 475.9177
751.0536, 476.6384
751.5357, 478.5365
752.0178, 481.8418
752.4999, 483.4451
752.9821, 483.1460
753.4642, 482.5207
753.9463, 482.9143
754.4284, 484.0884
754.9105, 485.6239
755.3926, 487.4980
755.8748, 489.5116
756.3569, 491.5711
756.8390, 493.7000
757.3211, 495.9925
757.8032, 498.6819
758.2853, 500.9464
758.7675, 502.3742
759.2496, 503.7262
759.7318, 505.7143
760.2139, 508.3782
760.6960, 511.3160
761.1781, 514.5399
761.6602, 517.8397
762.1423, 520.9130
762.6245, 523.8718
763.1066, 526.8751
763.5887, 529.7814
764.0708, 533.3337
764.5529, 538.1447
765.0350, 543.8254
765.5172, 549.9131
765.9993, 555.9097
766.4814, 562.9193
766.9635, 571.5753
767.4456, 580.7654
767.9277, 589.0654
768.4099, 596.4853
768.8920, 603.0358
769.3741, 608.2175
769.8562, 613.8165
770.3383, 622.7851
770.8204, 634.3927
771.3026, 646.7946
771.7847, 659.8965
772.2668, 672.7454
772.7489, 683.8148
773.2310, 694.4996
773.7131, 706.8182
774.1953, 722.7446
774.6774, 738.5526
775.1595, 753.8618
775.6416, 768.8282
776.1237, 783.5539
776.6058, 797.9219
777.0880, 813.0886
777.5701, 829.3257
778.0522, 846.1649
778.5343, 862.8635
779.0164, 879.4250
779.4985, 895.9882
779.9807, 913.2418
780.4628, 929.4382
780.9449, 943.3359
781.4270, 955.3210
781.9091, 966.5517
782.3912, 978.3014
782.8734, 987.6612
783.3555, 993.9468
783.8376, 997.7245
784.3197, 1000.371
784.8018, 1001.973
785.2839, 1001.852
785.7661, 1000.227
786.2482, 996.2007
786.7303, 987.7356
787.2124, 975.5897
787.6945, 961.6992
788.1766, 946.0573
788.6588, 929.8137
789.1409, 912.9377
789.6230, 895.7531
790.1051, 878.6635
790.5872, 861.9421
791.0693, 845.0815
791.5515, 827.7539
792.0336, 810.4490
792.5157, 795.1122
792.9978, 781.7509
793.4799, 769.4151
793.9620, 757.7766
794.4442, 746.7944
794.9263, 736.4012
795.4084, 726.4680
795.8905, 716.5185
796.3726, 704.5506
796.8547, 694.4141
797.3369, 688.5802
797.8190, 685.9597
798.3011, 682.5272
798.7832, 678.2546
799.2653, 672.8375
799.7474, 665.6037
800.2296, 657.5963
800.7117, 651.9982
801.1938, 648.6183
801.6759, 645.3928
802.1580, 641.5049
802.6401, 637.2972
803.1223, 633.0945
803.6044, 628.9193
804.0865, 624.8958
804.5686, 621.3827
805.0507, 617.6737
805.5328, 613.3918
806.0150, 608.7475
806.4971, 604.1297
806.9792, 599.3429
807.4613, 595.2990
807.9434, 592.5158
808.4255, 590.3284
808.9077, 586.9522
809.3898, 582.6673
809.8719, 578.7610
810.3540, 576.0699
810.8361, 573.6750
811.3182, 570.8269
811.8004, 567.7264
812.2825, 564.7928
812.7646, 562.0589
813.2467, 559.6219
813.7288, 557.6840
814.2109, 555.9720
814.6931, 553.7313
815.1752, 550.8636
815.6573, 548.3464
816.1394, 546.7039
816.6215, 545.1374
817.1037, 541.9732
817.5858, 537.7947
818.0679, 534.0521
818.5500, 531.2557
819.0322, 529.1453
819.5143, 527.9316
819.9964, 527.2909
820.4785, 526.6101
820.9606, 525.9985
821.4427, 525.1020
821.9249, 524.0103
822.4070, 522.4415
822.8891, 519.3957
823.3712, 515.0639
823.8533, 511.5976
824.3354, 509.7443
824.8176, 508.6564
825.2997, 507.7986
825.7818, 506.9635
826.2639, 505.8095
826.7460, 503.8057
827.2281, 501.9768
827.7103, 500.7382
828.1924, 499.6989
828.6745, 498.2918
829.1566, 496.4123
829.6387, 494.5598
830.1208, 492.7278
830.6030, 491.1456
831.0851, 490.5432
831.5672, 490.5128
832.0493, 489.8532
832.5314, 488.0108
833.0135, 486.1083
833.4957, 484.9836
833.9778, 484.2268
834.4599, 483.3414
834.9420, 482.1901
835.4241, 481.0161
835.9063, 479.9023
836.3884, 478.6856
836.8705, 477.0345
837.3526, 474.9773
837.8347, 473.4437
838.3168, 472.5618
838.7990, 472.0508
839.2811, 471.5888
839.7632, 471.2979
840.2453, 471.4524
840.7274, 472.3292
841.2095, 472.8493
841.6917, 472.5615
842.1738, 471.8058
842.6559, 470.7913
843.1380, 469.3246
843.6201, 468.3262
844.1022, 467.8904
844.5844, 467.5987
845.0665, 467.2057
845.5486, 466.6348
846.0307, 465.5336
846.5128, 463.8570
846.9949, 462.3666
847.4771, 461.4211
847.9592, 460.9796
848.4413, 461.3364
848.9234, 462.9070
849.4055, 462.8507
849.8876, 460.0019
850.3698, 457.3047
850.8519, 456.6964
851.3340, 457.9709
851.8161, 458.6302
852.2982, 458.6725
852.7803, 458.4129
853.2625, 457.7029
853.7446, 457.0552
854.2267, 457.2443
854.7088, 458.1899
855.1909, 458.6728
855.6730, 457.9324
856.1552, 457.0205
856.6373, 456.2738
857.1194, 455.7020
857.6015, 455.4576
858.0836, 455.6364
858.5657, 455.4132
859.0479, 454.0021
859.5300, 452.2132
860.0121, 451.6961
860.4942, 452.1968
860.9763, 452.8376
861.4584, 453.3758
861.9406, 453.7453
862.4227, 453.8344
862.9048, 453.7123
863.3869, 453.6607
863.8690, 453.7980
864.3511, 453.6535
864.8333, 452.9579
865.3154, 452.1115
865.7975, 452.1806
866.2796, 452.8980
866.7617, 453.0310
867.2438, 451.6133
867.7260, 450.3791
868.2081, 450.9896
868.6902, 452.5368
869.1723, 453.6062
869.6544, 453.4781
870.1365, 453.4712
870.6187, 453.7091
871.1008, 454.0332
871.5829, 454.2376
872.0650, 454.3277
872.5471, 454.4211
873.0292, 454.5894
873.5114, 454.4978
873.9935, 453.3581
874.4756, 451.9579
874.9577, 451.4160
875.4399, 452.3166
875.9220, 452.8755
876.4041, 452.0921
876.8862, 451.2935
877.3683, 451.4908
877.8505, 452.9614
878.3326, 453.3199
878.8147, 452.4085
879.2968, 451.5031
879.7789, 452.0430
880.2610, 453.1812
880.7432, 453.5044
881.2253, 452.9396
881.7074, 452.2295
882.1895, 451.0977
882.6716, 450.4949
883.1537, 451.3522
883.6359, 453.5335
884.1180, 454.5111
884.6001, 454.1119
885.0822, 453.2695
885.5643, 452.2422
886.0464, 451.1949
886.5286, 450.4361
887.0107, 449.9895
887.4928, 449.9497
887.9749, 450.9699
888.4570, 451.7969
888.9391, 451.5626
889.4213, 450.6068
889.9034, 450.0814
890.3855, 450.1777
890.8676, 450.3201
891.3497, 450.3966
891.8318, 450.4561
892.3140, 450.5078
892.7961, 450.6093
893.2782, 451.0832
893.7603, 452.3044
894.2424, 453.2489
894.7245, 452.9543
895.2067, 452.0224
895.6888, 451.1691
896.1709, 450.0987
896.6530, 449.8810
897.1351, 450.8417
897.6172, 452.1490
898.0994, 453.1747
898.5815, 453.8524
899.0636, 453.2629
899.5457, 451.2339
900.0278, 449.6495
900.5099, 450.8846
900.9921, 452.7276
901.4742, 452.9545
901.9563, 451.0465
902.4384, 449.6428
902.9205, 448.6667
903.4026, 448.8346
903.8848, 451.2593
904.3669, 455.3703
904.8490, 455.9144
905.3311, 453.0136
905.8132, 450.1945
906.2953, 449.8680
906.7775, 450.4256
907.2596, 450.2166
907.7417, 449.4895
908.2238, 449.1996
908.7059, 449.9183
909.1880, 450.7781
909.6702, 451.8357
910.1523, 452.7833
910.6344, 452.7349
911.1165, 451.7147
911.5986, 450.7708
912.0807, 450.2084
912.5629, 449.7928
913.0450, 448.9660
913.5271, 448.2086
914.0092, 448.2882
914.4913, 450.0748
914.9734, 451.5302
915.4556, 452.5189
915.9377, 452.9099
916.4198, 452.2744
916.9019, 450.4991
917.3840, 449.8082
917.8661, 450.3886
918.3483, 451.3553
918.8304, 452.1837
919.3125, 452.7845
919.7946, 453.0368
920.2767, 452.9259
920.7589, 452.5720
921.2410, 451.5154
921.7231, 450.7499
922.2052, 450.6772
922.6873, 451.2442
923.1694, 452.1395
923.6516, 453.3702
924.1337, 454.3373
924.6158, 454.6515
925.0979, 454.6057
925.5800, 454.5282
926.0621, 454.3995
926.5443, 454.1740
927.0264, 453.8592
927.5085, 453.4100
927.9906, 452.8427
928.4727, 452.1309
928.9548, 451.0340
929.4370, 449.5160
929.9191, 448.8351
930.4012, 449.2787
930.8833, 450.3430
931.3654, 452.0807
931.8475, 453.8212
932.3297, 454.5529
932.8118, 453.7580
933.2939, 453.1046
933.7761, 453.0470
934.2582, 453.1630
934.7403, 453.2431
935.2224, 453.2842
935.7045, 453.2116
936.1866, 453.0161
936.6688, 452.8916
937.1509, 452.8206
937.6330, 453.0045
938.1151, 454.2189
938.5972, 456.0943
939.0793, 456.7062
939.5615, 453.4541
940.0436, 451.4207
940.5257, 452.3467
941.0078, 455.0484
941.4899, 456.4546
941.9720, 456.5947
942.4542, 456.0983
942.9363, 454.9245
943.4184, 453.7052
943.9005, 452.6591
944.3826, 452.1732
944.8647, 452.8640
945.3469, 455.9325
945.8290, 458.1308
946.3111, 458.9346
946.7932, 459.1651
947.2753, 459.3371
947.7574, 459.4805
948.2396, 460.3453
948.7217, 461.9674
949.2038, 463.3540
949.6859, 463.1198
950.1680, 462.7692
950.6501, 463.9437
951.1323, 466.6123
951.6144, 468.5377
952.0965, 469.1880
952.5786, 469.4803
953.0607, 469.4086
953.5428, 469.3529
954.0250, 470.7572
954.5071, 473.3584
954.9892, 475.5879
955.4713, 476.5047
955.9534, 477.3786
956.4355, 479.1196
956.9177, 481.4186
957.3998, 483.9001
957.8819, 487.0923
958.3640, 489.2466
958.8461, 489.9320
959.3282, 490.3940
959.8104, 492.0276
960.2925, 494.5214
960.7746, 496.7461
961.2567, 498.6216
961.7388, 500.5862
962.2209, 503.3396
962.7031, 505.9630
963.1852, 507.4814
963.6673, 507.9757
964.1494, 509.7086
964.6315, 513.1073
965.1136, 516.2043
965.5958, 518.2602
966.0779, 519.5449
966.5600, 520.3661
967.0421, 520.9025
967.5242, 521.6447
968.0063, 523.4214
968.4885, 524.5726
968.9706, 524.2516
969.4527, 523.0817
969.9348, 521.7056
970.4169, 519.9748
970.8990, 518.8052
971.3812, 518.2482
971.8633, 518.2664
972.3454, 519.7910
972.8275, 521.4050
973.3096, 520.6621
973.7917, 517.3741
974.2739, 514.2316
974.7560, 512.5524
975.2381, 510.7869
975.7202, 508.1647
976.2023, 504.9650
976.6844, 502.9040
977.1666, 501.9420
977.6487, 499.8540
978.1308, 494.9944
978.6129, 489.8702
979.0950, 487.0933
979.5771, 485.8578
980.0593, 484.8100
980.5414, 483.9992
981.0235, 482.7761
981.5056, 480.9737
981.9877, 478.9439
982.4698, 476.9268
982.9520, 474.9467
983.4341, 473.0421
983.9162, 471.2200
984.3983, 469.9973
984.8804, 470.5684
985.3625, 471.1864
985.8447, 470.4886
986.3268, 468.4467
986.8089, 466.4128
987.2910, 464.0823
987.7731, 462.7383
988.2552, 463.1217
988.7374, 464.2984
989.2195, 464.3125
989.7016, 463.5547
990.1837, 463.0669
990.6658, 463.5101
991.1479, 463.6570
991.6301, 462.4662
992.1122, 461.0882
992.5944, 460.6867
993.0765, 461.4874
993.5586, 462.0623
994.0407, 462.3857
994.5228, 462.5553
995.0049, 462.3477
995.4871, 462.2130
995.9692, 463.3121
996.4513, 465.3250
996.9334, 465.9111
997.4155, 462.4608
997.8976, 459.8255
998.3798, 459.3243
998.8619, 460.2362
999.3440, 460.9756
999.8261, 461.5504
1000.308, 462.0299
1000.790, 462.4597
1001.272, 462.7031
1001.755, 462.4009
1002.237, 461.9893
1002.719, 462.0976
1003.201, 463.3800
1003.683, 462.9775
1004.165, 460.0541
1004.647, 457.5522
1005.129, 457.9619
1005.612, 460.1383
1006.094, 460.6342
1006.576, 459.7660
1007.058, 459.0418
1007.540, 459.5036
1008.022, 459.9754
1008.504, 459.9153
1008.986, 459.5781
1009.468, 459.3169
1009.951, 459.0927
1010.433, 459.3889
1010.915, 460.4030
1011.397, 461.3545
1011.879, 461.3147
1012.361, 460.7121
1012.843, 459.9051
1013.325, 458.8588
1013.807, 458.4256
1014.290, 458.9064
1014.772, 459.7742
1015.254, 461.0059
1015.736, 462.3887
1016.218, 463.0569
1016.700, 463.0785
1017.182, 462.8255
1017.664, 462.2048
1018.147, 461.7101
1018.629, 461.8271
1019.111, 462.2071
1019.593, 462.2964
1020.075, 461.9473
1020.557, 461.6996
1021.039, 461.5682
1021.521, 461.5709
1022.003, 461.9846
1022.486, 462.4355
1022.968, 461.9277
1023.450, 460.5582
1023.932, 459.9384
1024.414, 461.5576
1024.896, 463.0454
1025.378, 463.5954
1025.860, 463.4971
1026.343, 463.5285
1026.825, 463.6802
1027.307, 463.8987
1027.789, 464.2764
1028.271, 464.3662
1028.753, 463.3359
1029.235, 462.0336
1029.717, 461.4409
1030.199, 461.8792
1030.682, 462.4395
1031.164, 463.3100
1031.646, 463.7801
1032.128, 462.9420
1032.610, 461.5524
1033.092, 461.5960
1033.574, 462.8398
1034.056, 464.4286
1034.539, 467.2245
1035.021, 468.7431
1035.503, 466.9921
1035.985, 464.3371
1036.467, 464.2193
1036.949, 466.7277
1037.431, 468.0560
1037.913, 467.7006
1038.396, 466.9641
1038.878, 467.0865
1039.360, 467.3253
1039.842, 466.7887
1040.324, 465.4233
1040.806, 464.7465
1041.288, 465.0017
1041.770, 465.5826
1042.252, 466.5258
1042.734, 467.3795
1043.217, 466.9118
1043.699, 465.6178
1044.181, 464.8014
1044.663, 464.9493
1045.145, 465.3839
1045.627, 466.1309
1046.109, 466.8194
1046.591, 467.1296
1047.074, 467.0423
1047.556, 467.1079
1048.038, 467.3284
1048.520, 467.5119
1049.002, 467.3925
1049.484, 467.3025
1049.966, 467.6934
1050.448, 468.3444
1050.931, 468.6031
1051.413, 468.2159
1051.895, 467.8648
1052.377, 467.5957
1052.859, 467.4509
1053.341, 467.4979
1053.823, 467.7010
1054.305, 468.0095
1054.787, 468.4173
1055.270, 468.8066
1055.752, 469.2706
1056.234, 469.5128
1056.716, 469.2256
1057.198, 468.6730
1057.680, 469.1496
1058.162, 470.5560
1058.644, 471.3038
1059.126, 470.6840
1059.609, 469.7429
1060.091, 469.3781
1060.573, 469.2309
1061.055, 468.8333
1061.537, 467.9179
1062.019, 467.7005
1062.501, 468.3033
1062.983, 469.1797
1063.466, 470.2224
1063.948, 471.1662
1064.430, 471.3793
1064.912, 471.0685
1065.394, 470.8428
1065.876, 470.8152
1066.358, 471.1099
1066.840, 472.0102
1067.323, 472.9083
1067.805, 472.8310
1068.287, 471.9770
1068.769, 471.9609
1069.251, 472.8995
1069.733, 473.6198
1070.215, 472.5983
1070.697, 471.7026
1071.179, 472.5254
1071.661, 474.5924
1072.144, 475.8954
1072.626, 476.3958
1073.108, 476.2087
1073.590, 475.1777
1074.072, 474.0459
1074.554, 473.9398
1075.036, 474.2306
1075.518, 473.9532
1076.001, 472.6574
1076.483, 472.2946
1076.965, 473.4561
1077.447, 474.5968
1077.929, 474.7062
1078.411, 474.3491
1078.893, 475.6100
1079.375, 477.8646
1079.858, 479.0604
1080.340, 477.4245
1080.822, 475.9167
1081.304, 475.7645
1081.786, 476.0159
1082.268, 475.7730
1082.750, 475.0151
1083.232, 474.8964
1083.714, 475.4329
1084.197, 475.8311
1084.679, 475.2458
1085.161, 474.5682
1085.643, 474.5676
1086.125, 475.0479
1086.607, 475.2920
1087.089, 475.3039
1087.571, 474.9351
1088.054, 474.0175
1088.536, 473.2909
1089.018, 473.9642
1089.500, 475.2144
1089.982, 475.8889
1090.464, 475.8530
1090.946, 475.4589
1091.428, 474.3812
1091.911, 473.5499
1092.393, 473.0844
1092.875, 473.2190
1093.357, 475.1707
1093.839, 478.2120
1094.321, 480.0788
1094.803, 479.9576
1095.285, 479.2057
1095.767, 477.8412
1096.250, 476.6265
1096.732, 476.0658
1097.214, 476.1439
1097.696, 476.4838
1098.178, 477.0794
1098.660, 477.7420
1099.142, 478.7253
1099.624, 479.3336
1100.106, 478.4093
1100.589, 477.0125
1101.071, 476.9402
1101.553, 478.9195
1102.035, 479.9063
1102.517, 479.7294
1102.999, 479.2055
1103.481, 478.9868
1103.963, 478.8444
1104.446, 478.3257
1104.928, 477.5804
1105.410, 477.2694
1105.892, 477.7701
1106.374, 478.3584
1106.856, 479.0598
1107.338, 479.5743
1107.820, 479.2592
1108.302, 478.4968
1108.785, 478.1949
1109.267, 478.4613
1109.749, 478.9799
1110.231, 480.2832
1110.713, 480.9834
1111.195, 480.2729
1111.677, 478.8427
1112.159, 478.7340
1112.641, 479.7375
1113.124, 480.5235
1113.606, 480.7308
1114.088, 480.8390
1114.570, 481.1473
1115.052, 481.5168
1115.534, 481.8724
1116.016, 482.2054
1116.498, 482.3808
1116.981, 482.4018
1117.463, 482.1319
1117.945, 481.1628
1118.427, 480.4296
1118.909, 481.3563
1119.391, 482.8991
1119.873, 483.5304
1120.355, 482.8282
1120.838, 481.8668
1121.320, 480.4595
1121.802, 479.5732
1122.284, 480.0397
1122.766, 481.3371
1123.248, 483.3142
1123.730, 485.4608
1124.212, 486.4416
1124.694, 484.9220
1125.177, 483.5028
1125.659, 482.2121
1126.141, 481.3788
1126.623, 481.7357
1127.105, 482.7388
1127.587, 482.6674
1128.069, 481.6418
1128.551, 481.2339
1129.033, 483.1248
1129.516, 484.4482
1129.998, 484.2832
1130.480, 483.2916
1130.962, 482.3250
1131.444, 481.4823
1131.926, 481.4140
1132.408, 482.2464
1132.890, 482.9901
1133.373, 482.8384
1133.855, 482.6174
1134.337, 482.8857
1134.819, 483.4565
1135.301, 483.6479
1135.783, 483.4735
1136.265, 483.1400
1136.747, 482.6223
1137.229, 482.2924
1137.712, 482.7145
1138.194, 483.2856
1138.676, 483.4196
1139.158, 483.1064
1139.640, 482.8554
1140.122, 482.6571
1140.604, 482.5677
1141.086, 482.5971
1141.569, 482.7621
1142.051, 483.5111
1142.533, 484.2068
1143.015, 483.8305
1143.497, 481.6533
1143.979, 480.5072
1144.461, 480.5455
1144.943, 481.0345
1145.426, 481.4468
1145.908, 482.0976
1146.390, 484.0827
1146.872, 486.5815
1147.354, 487.9014
1147.836, 486.3881
1148.318, 485.4097
1148.800, 485.1504
1149.282, 485.1963
1149.765, 485.4373
1150.247, 485.6441
1150.729, 485.0070
1151.211, 483.7975
1151.693, 483.1525
1152.175, 484.0225
1152.657, 484.8628
1153.139, 485.6379
1153.621, 485.9716
1154.104, 485.0496
1154.586, 483.3400
1155.068, 482.3727
1155.550, 482.2184
1156.032, 482.5231
1156.514, 483.6949
1156.996, 484.5434
1157.478, 484.5550
1157.961, 484.1953
1158.443, 484.3261
1158.925, 484.8501
1159.407, 485.0722
1159.889, 484.8696
1160.371, 485.2231
1160.853, 487.8746
1161.335, 489.9835
1161.818, 489.6977
1162.300, 487.9605
1162.782, 487.7639
1163.264, 488.9078
1163.746, 488.7899
1164.228, 486.6258
1164.710, 484.4734
1165.192, 483.7318
1165.674, 483.6746
1166.156, 483.9379
1166.639, 484.4233
1167.121, 484.6668
1167.603, 484.6715
1168.085, 484.5014
1168.567, 484.1340
1169.049, 483.7397
1169.531, 483.1569
1170.013, 482.8334
1170.496, 483.4238
1170.978, 484.9306
1171.460, 485.8331
1171.942, 486.1149
1172.424, 486.0562
1172.906, 485.4665
1173.388, 485.1280
1173.870, 486.4773
1174.353, 488.2260
1174.835, 488.3955
1175.317, 486.4092
1175.799, 486.0099
1176.281, 487.4382
1176.763, 488.5288
1177.245, 487.8154
1177.727, 486.4172
1178.209, 485.1492
1178.692, 484.2460
1179.174, 484.2133
1179.656, 485.6657
1180.138, 486.2399
1180.620, 485.7400
1181.102, 485.3710
1181.584, 486.5615
1182.066, 487.9475
1182.548, 487.4010
1183.031, 485.7336
1183.513, 484.8692
1183.995, 485.1952
1184.477, 486.3629
1184.959, 488.7516
1185.441, 490.4925
1185.923, 488.9261
1186.405, 486.3960
1186.888, 486.6821
1187.370, 488.9360
1187.852, 489.7915
1188.334, 487.6921
1188.816, 486.1419
1189.298, 485.4384
1189.780, 485.3765
1190.262, 486.2098
1190.745, 487.2850
1191.227, 487.5067
1191.709, 486.9807
1192.191, 486.5980
1192.673, 486.5905
1193.155, 486.6151
1193.637, 486.5929
1194.119, 486.6838
1194.601, 487.2451
1195.084, 487.9671
1195.566, 488.2821
1196.048, 488.2000
1196.530, 488.2957
1197.012, 488.9271
1197.494, 489.2259
1197.976, 488.9510
1198.458, 488.4641
1198.941, 488.0938
1199.423, 487.9429
1199.905, 488.4181
1200.387, 489.5248
1200.869, 489.9810
1201.351, 489.2938
1201.833, 488.4180
1202.315, 487.4400
1202.797, 486.6771
1203.280, 486.6678
1203.762, 487.2331
1204.244, 488.1489
1204.726, 489.3937
1205.208, 490.6900
1205.690, 492.5053
1206.172, 493.2931
1206.654, 492.3194
1207.136, 490.5878
1207.619, 489.5922
1208.101, 489.1975
1208.583, 489.2914
1209.065, 489.9481
1209.547, 490.2556
1210.029, 489.8624
1210.511, 489.5791
1210.993, 489.6446
1211.476, 490.0467
1211.958, 491.0339
1212.440, 492.2491
1212.922, 493.1156
1213.404, 493.6005
1213.886, 493.1220
1214.368, 490.9063
1214.850, 489.6205
1215.333, 490.7295
1215.815, 492.8680
1216.297, 493.9615
1216.779, 494.1289
1217.261, 493.3592
1217.743, 491.1263
1218.225, 490.2206
1218.707, 491.2651
1219.189, 492.4933
1219.672, 493.2152
1220.154, 493.4672
1220.636, 492.9753
1221.118, 492.1812
1221.600, 491.9220
1222.082, 492.6537
1222.564, 493.0769
1223.046, 493.0372
1223.528, 492.9763
1224.011, 493.1872
1224.493, 493.4343
1224.975, 493.1460
1225.457, 492.6606
1225.939, 492.5873
1226.421, 493.2745
1226.903, 493.8192
1227.385, 494.1740
1227.868, 494.5442
1228.350, 495.2285
1228.832, 495.7829
1229.314, 495.1563
1229.796, 494.0384
1230.278, 493.7411
1230.760, 495.3248
1231.242, 494.9940
1231.724, 492.2078
1232.207, 490.0882
1232.689, 491.0285
1233.171, 493.0707
1233.653, 493.9442
1234.135, 494.0510
1234.617, 494.0680
1235.099, 494.1461
1235.581, 493.8813
1236.063, 493.1935
1236.546, 492.7938
1237.028, 493.5856
1237.510, 494.4151
1237.992, 493.3417
1238.474, 494.7097
1238.956, 492.2610
1239.438, 495.8207
1239.920, 497.5768
1240.403, 497.4068
1240.885, 496.7295
1241.367, 496.2869
1241.849, 495.8668
1242.331, 495.0734
1242.813, 494.2877
1243.295, 494.1481
1243.777, 494.8389
1244.260, 494.9918
1244.742, 494.6060
1245.224, 494.4145
1245.706, 495.1886
1246.188, 495.9783
1246.670, 496.0617
1247.152, 495.8262
1247.634, 495.8334
1248.116, 496.1163
1248.599, 496.2303
1249.081, 496.1892
1249.563, 496.1825
1250.045, 496.3188
1250.527, 496.5274
1251.009, 496.5977
1251.491, 496.8615
1251.973, 497.9013
1252.455, 499.6384
1252.938, 500.0578
1253.420, 499.2987
1253.902, 498.6530
1254.384, 499.0281
1254.866, 499.3802
1255.348, 499.0834
1255.830, 498.8610
1256.313, 499.6518
1256.795, 501.1645
1257.277, 501.3782
1257.759, 500.5041
1258.241, 499.6971
1258.723, 499.4311
1259.205, 499.3788
1259.687, 499.3917
1260.169, 499.6729
1260.651, 500.7915
1261.134, 502.2386
1261.616, 502.1430
1262.098, 500.8832
1262.580, 499.8451
1263.062, 499.8615
1263.544, 499.5585
1264.026, 498.5366
1264.508, 497.8195
1264.991, 498.5983
1265.473, 500.0946
1265.955, 500.8759
1266.437, 501.1182
1266.919, 501.3129
1267.401, 501.5564
1267.883, 501.8857
1268.365, 502.3977
1268.848, 502.6548
1269.330, 501.9937
1269.812, 501.1447
1270.294, 501.1579
1270.776, 501.6803
1271.258, 501.8877
1271.740, 501.4644
1272.222, 501.5008
1272.704, 502.0326
1273.187, 502.7621
1273.669, 503.9121
1274.151, 504.7352
1274.633, 504.1678
1275.115, 503.0098
1275.597, 502.5495
1276.079, 502.9097
1276.561, 503.4529
1277.043, 504.1603
1277.526, 504.4815
1278.008, 503.4567
1278.490, 502.6776
1278.972, 503.6109
1279.454, 504.8937
1279.936, 505.0616
1280.418, 504.1592
1280.900, 503.4626
1281.383, 502.9733
1281.865, 502.6984
1282.347, 502.7569
1282.829, 502.8426
1283.311, 502.7142
1283.793, 502.7260
1284.275, 503.3378
1284.757, 504.2900
1285.240, 504.4120
1285.722, 503.9238
1286.204, 503.5370
1286.686, 503.5722
1287.168, 503.6556
1287.650, 503.7297
1288.132, 503.8758
1288.614, 504.0441
1289.096, 504.4076
1289.578, 505.7195
1290.061, 507.4030
1290.543, 508.2378
1291.025, 507.4503
1291.507, 506.8509
1291.989, 506.4552
1292.471, 506.1112
1292.953, 505.4692
1293.435, 505.1617
1293.918, 506.3655
1294.400, 508.1893
1294.882, 509.4232
1295.364, 510.0644
1295.846, 509.6097
1296.328, 508.0484
1296.810, 506.6617
1297.292, 505.7627
1297.775, 505.6747
1298.257, 508.0543
1298.739, 510.2670
1299.221, 509.4396
1299.703, 506.0584
1300.185, 505.5470
1300.667, 507.4196
1301.149, 508.7202
1301.631, 508.1323
1302.114, 507.1569
1302.596, 506.7867
##END=



