##NAMES=Orthoserpierite
##RRUFFID=R060977
##IDEAL CHEMISTRY=CaCu^2+^_4_(S^6+^O_4_)_2_(OH)_6_&#183;3H_2_O
##LOCALITY=Copper Creek, Galuiro Mountains, Pinal County, Arizona, USA
##OWNER=RRUFF
##SOURCE=Michael Scott
##DESCRIPTION=Blue-green platy crystals in masses with chrysocolla
##STATUS=The identification of this mineral has been confirmed only by X-ray diffraction
##URL=rruff.info/R060977
112.8500, 84.72826
113.3321, 94.07015
113.8142, 108.6267
114.2963, 119.9606
114.7784, 121.6203
115.2605, 114.1191
115.7427, 113.1541
116.2248, 127.8412
116.7069, 140.0095
117.1890, 143.7195
117.6711, 140.5701
118.1532, 135.0179
118.6354, 130.3845
119.1175, 126.4758
119.5996, 125.7705
120.0817, 133.7635
120.5638, 139.4303
121.0459, 135.6245
121.5281, 123.5509
122.0102, 110.1982
122.4923, 101.6872
122.9744, 98.32409
123.4565, 101.5674
123.9386, 115.5694
124.4208, 132.4780
124.9029, 146.4932
125.3850, 157.0725
125.8671, 168.0980
126.3492, 184.1838
126.8313, 206.8141
127.3135, 229.3503
127.7956, 249.7386
128.2777, 270.9653
128.7598, 296.2341
129.2419, 326.5040
129.7240, 359.5947
130.2061, 395.1457
130.6883, 434.8812
131.1704, 465.3381
131.6525, 484.2356
132.1346, 492.3981
132.6167, 490.2691
133.0988, 477.1497
133.5810, 456.0574
134.0631, 428.2050
134.5452, 393.4036
135.0273, 360.4951
135.5094, 333.2202
135.9915, 310.1656
136.4737, 287.6404
136.9558, 264.2259
137.4379, 242.3795
137.9200, 224.7253
138.4021, 211.1607
138.8842, 200.7659
139.3664, 193.0470
139.8485, 188.0945
140.3306, 186.6933
140.8127, 190.2565
141.2948, 196.5447
141.7769, 203.2688
142.2591, 210.5198
142.7412, 217.0949
143.2233, 221.5392
143.7054, 224.0011
144.1875, 227.4026
144.6696, 233.8318
145.1517, 240.3457
145.6339, 242.9693
146.1160, 240.9475
146.5981, 241.1291
147.0802, 252.9331
147.5623, 277.8181
148.0444, 296.7606
148.5266, 300.8355
149.0087, 299.4223
149.4908, 298.3288
149.9729, 298.6443
150.4550, 298.1735
150.9371, 294.6743
151.4193, 288.2324
151.9014, 278.3651
152.3835, 257.4453
152.8656, 237.6005
153.3477, 228.3362
153.8298, 232.1235
154.3120, 241.3563
154.7941, 245.1539
155.2762, 241.6225
155.7583, 238.1736
156.2404, 235.4632
156.7225, 233.6561
157.2047, 233.1505
157.6868, 234.0578
158.1689, 235.6782
158.6510, 236.9550
159.1331, 238.0794
159.6152, 238.3391
160.0974, 237.4199
160.5795, 235.8682
161.0616, 233.5209
161.5437, 230.3651
162.0258, 227.7121
162.5079, 228.7673
162.9901, 237.6394
163.4722, 242.4269
163.9543, 241.3777
164.4364, 236.6979
164.9185, 229.3939
165.4007, 219.9003
165.8828, 209.7355
166.3649, 202.1734
166.8470, 198.9547
167.3291, 195.8341
167.8112, 192.9812
168.2933, 189.7998
168.7755, 184.8559
169.2576, 177.6805
169.7397, 170.5326
170.2218, 169.1055
170.7039, 181.5604
171.1860, 187.9806
171.6682, 182.5107
172.1503, 172.9660
172.6324, 166.9713
173.1145, 167.6481
173.5966, 172.4261
174.0787, 175.2361
174.5609, 176.7814
175.0430, 174.9002
175.5251, 166.0325
176.0072, 155.3187
176.4893, 148.1988
176.9714, 146.8756
177.4536, 149.1318
177.9357, 149.6291
178.4178, 147.1086
178.8999, 144.1263
179.3820, 139.6851
179.8641, 135.2630
180.3463, 133.1693
180.8284, 134.3034
181.3105, 136.4409
181.7926, 134.3248
182.2747, 118.3945
182.7568, 109.7585
183.2390, 113.9279
183.7211, 123.4223
184.2032, 130.4885
184.6853, 132.1600
185.1674, 130.2433
185.6495, 128.7234
186.1317, 126.6356
186.6138, 126.2902
187.0959, 127.5807
187.5780, 130.6788
188.0601, 137.4223
188.5422, 148.3428
189.0244, 159.5004
189.5065, 162.4654
189.9886, 148.3158
190.4707, 137.7486
190.9528, 132.1787
191.4349, 129.9004
191.9170, 129.9227
192.3992, 131.8615
192.8813, 134.3395
193.3634, 134.6933
193.8455, 130.2787
194.3276, 127.8078
194.8097, 129.2327
195.2919, 131.8622
195.7740, 132.7423
196.2561, 131.0077
196.7382, 128.2134
197.2203, 127.0002
197.7024, 129.0918
198.1846, 129.7384
198.6667, 127.2582
199.1488, 124.1062
199.6309, 122.0151
200.1130, 121.5290
200.5951, 123.5118
201.0773, 129.8482
201.5594, 146.0649
202.0415, 154.5564
202.5236, 149.7777
203.0057, 140.2904
203.4878, 133.0730
203.9700, 129.8221
204.4521, 129.1190
204.9342, 129.3849
205.4163, 131.5778
205.8984, 132.1080
206.3805, 129.5899
206.8627, 126.2904
207.3448, 123.7257
207.8269, 122.2487
208.3090, 122.0210
208.7911, 123.7656
209.2732, 129.1185
209.7554, 129.7783
210.2375, 120.7240
210.7196, 110.6964
211.2017, 106.8889
211.6838, 109.6551
212.1659, 113.6140
212.6480, 112.6841
213.1302, 104.8204
213.6123, 103.8150
214.0944, 115.9182
214.5765, 129.2850
215.0586, 136.7112
215.5407, 137.8975
216.0229, 136.4207
216.5050, 135.3088
216.9871, 134.6658
217.4692, 132.9766
217.9513, 129.4580
218.4334, 125.7447
218.9156, 123.4161
219.3977, 121.9470
219.8798, 118.5790
220.3619, 110.1585
220.8440, 96.58146
221.3261, 92.58910
221.8083, 108.2175
222.2904, 121.7051
222.7725, 121.3966
223.2546, 110.9064
223.7367, 101.3102
224.2188, 99.93668
224.7010, 106.1778
225.1831, 111.6363
225.6652, 120.2100
226.1473, 124.1099
226.6294, 116.5543
227.1115, 102.7106
227.5937, 93.14141
228.0758, 94.17081
228.5579, 103.5115
229.0400, 109.4280
229.5221, 108.6010
230.0042, 108.4731
230.4864, 112.1313
230.9685, 116.9630
231.4506, 118.8016
231.9327, 115.6147
232.4148, 108.9751
232.8969, 103.6031
233.3791, 97.68237
233.8612, 95.43266
234.3433, 100.9433
234.8254, 108.8018
235.3075, 112.1086
235.7896, 108.3450
236.2717, 101.5114
236.7539, 99.83207
237.2360, 110.8618
237.7181, 116.3510
238.2002, 112.1706
238.6823, 104.9588
239.1644, 100.2131
239.6466, 99.39999
240.1287, 100.8437
240.6108, 102.1359
241.0929, 103.1962
241.5750, 104.2576
242.0571, 108.5483
242.5393, 110.5708
243.0214, 103.2466
243.5035, 87.60075
243.9856, 73.62312
244.4677, 73.86982
244.9498, 93.78710
245.4320, 106.5823
245.9141, 110.1632
246.3962, 109.7798
246.8783, 106.1685
247.3604, 100.4881
247.8425, 94.74171
248.3247, 90.15923
248.8068, 86.51758
249.2889, 87.91204
249.7710, 103.4793
250.2531, 115.0611
250.7352, 114.9942
251.2174, 106.4918
251.6995, 96.76358
252.1816, 90.50120
252.6637, 87.53125
253.1458, 86.58742
253.6279, 90.34843
254.1101, 93.11207
254.5922, 94.10623
255.0743, 93.30537
255.5564, 90.04881
256.0385, 83.57340
256.5206, 75.91470
257.0027, 73.93226
257.4849, 82.24625
257.9670, 88.58284
258.4491, 90.64304
258.9312, 90.01225
259.4133, 87.74154
259.8954, 84.16700
260.3776, 80.27703
260.8597, 77.57047
261.3418, 75.90363
261.8239, 75.95482
262.3060, 79.97527
262.7881, 84.26121
263.2703, 86.08086
263.7524, 84.96432
264.2345, 82.73573
264.7166, 81.34954
265.1987, 80.90780
265.6808, 80.54132
266.1630, 80.74068
266.6451, 80.46748
267.1272, 78.23636
267.6093, 74.49868
268.0914, 72.03970
268.5735, 75.18323
269.0557, 82.91432
269.5378, 84.43472
270.0199, 74.83129
270.5020, 64.81716
270.9841, 60.76853
271.4662, 61.29937
271.9484, 62.48560
272.4305, 61.44258
272.9126, 59.68966
273.3947, 61.93025
273.8768, 69.91916
274.3589, 77.24678
274.8411, 79.30624
275.3232, 78.41718
275.8053, 77.96178
276.2874, 79.74299
276.7695, 81.63121
277.2516, 80.08146
277.7338, 74.70329
278.2159, 71.12440
278.6980, 74.54190
279.1801, 80.09796
279.6622, 79.30656
280.1443, 67.89848
280.6265, 57.50506
281.1086, 58.32590
281.5907, 68.28912
282.0728, 76.89276
282.5549, 81.22938
283.0370, 81.80920
283.5192, 78.79890
284.0013, 71.30135
284.4834, 65.12105
284.9655, 62.89450
285.4476, 63.42156
285.9297, 64.87454
286.4119, 67.00063
286.8940, 69.25800
287.3761, 71.12036
287.8582, 72.61658
288.3403, 73.44228
288.8224, 75.07038
289.3046, 75.08757
289.7867, 69.29330
290.2688, 57.90834
290.7509, 47.87511
291.2330, 45.22860
291.7151, 50.32579
292.1972, 54.83115
292.6794, 59.85063
293.1615, 63.31005
293.6436, 63.34260
294.1257, 60.84301
294.6078, 58.28630
295.0899, 57.09356
295.5721, 57.06347
296.0542, 57.18702
296.5363, 56.38946
297.0184, 57.01220
297.5005, 61.85610
297.9826, 67.55235
298.4648, 69.05055
298.9469, 64.44220
299.4290, 57.10748
299.9111, 53.76830
300.3932, 57.05133
300.8753, 60.48785
301.3575, 65.75513
301.8396, 70.03578
302.3217, 69.93134
302.8038, 65.66971
303.2859, 61.59495
303.7680, 63.70940
304.2502, 74.50359
304.7323, 78.20732
305.2144, 66.83890
305.6965, 55.83783
306.1786, 51.40164
306.6607, 52.23110
307.1429, 53.76480
307.6250, 52.50602
308.1071, 49.23102
308.5892, 49.07242
309.0713, 55.00877
309.5534, 59.48099
310.0356, 57.94843
310.5177, 54.59140
310.9998, 55.75591
311.4819, 65.20390
311.9640, 76.16764
312.4461, 74.98393
312.9283, 57.40343
313.4104, 46.82856
313.8925, 58.76676
314.3746, 75.05605
314.8567, 81.42338
315.3388, 75.57342
315.8210, 66.43850
316.3031, 59.99109
316.7852, 56.16036
317.2673, 54.81349
317.7494, 56.97784
318.2315, 60.08578
318.7137, 62.13978
319.1958, 63.20409
319.6779, 63.27770
320.1600, 62.95678
320.6421, 61.40743
321.1242, 55.26236
321.6064, 43.53444
322.0885, 36.00679
322.5706, 42.29748
323.0527, 59.26005
323.5348, 70.35275
324.0169, 72.72879
324.4991, 71.00343
324.9812, 65.53428
325.4633, 57.81790
325.9454, 52.72153
326.4275, 52.74369
326.9096, 56.48428
327.3918, 60.61101
327.8739, 67.37862
328.3560, 70.69547
328.8381, 65.99593
329.3202, 58.79492
329.8023, 56.12873
330.2845, 59.59912
330.7666, 64.89069
331.2487, 66.38553
331.7308, 62.43800
332.2129, 60.05867
332.6950, 60.10414
333.1772, 60.73109
333.6593, 61.26150
334.1414, 61.51248
334.6235, 61.07134
335.1056, 59.20581
335.5877, 56.36712
336.0698, 57.88614
336.5519, 71.19615
337.0341, 80.06531
337.5162, 79.31071
337.9983, 73.29895
338.4804, 67.13873
338.9625, 62.86662
339.4446, 59.84715
339.9268, 57.01741
340.4089, 54.46887
340.8910, 51.80750
341.3731, 47.06940
341.8552, 43.59071
342.3373, 44.95153
342.8195, 50.89532
343.3016, 55.88593
343.7837, 53.09217
344.2658, 44.25113
344.7479, 42.42509
345.2300, 52.55572
345.7122, 62.49008
346.1943, 62.96827
346.6764, 57.18157
347.1585, 52.31190
347.6406, 51.40221
348.1227, 52.26878
348.6049, 51.84503
349.0870, 50.14134
349.5691, 50.11207
350.0512, 53.90900
350.5333, 59.97192
351.0154, 64.72319
351.4976, 68.29475
351.9797, 70.38025
352.4618, 71.47240
352.9439, 70.86020
353.4260, 66.14539
353.9081, 56.30116
354.3903, 45.65896
354.8724, 39.72142
355.3545, 39.64627
355.8366, 41.60904
356.3187, 47.84133
356.8008, 54.32139
357.2830, 58.24804
357.7651, 59.78001
358.2472, 60.85127
358.7293, 63.05785
359.2114, 66.05093
359.6935, 66.23972
360.1757, 60.95300
360.6578, 55.80708
361.1399, 49.15664
361.6220, 44.08564
362.1041, 45.77654
362.5862, 55.88807
363.0684, 68.29921
363.5505, 71.79261
364.0326, 62.65727
364.5147, 56.16855
364.9968, 55.21580
365.4789, 55.76746
365.9611, 56.45368
366.4432, 56.90589
366.9253, 56.67426
367.4074, 54.07936
367.8895, 50.28611
368.3716, 51.49496
368.8538, 60.25155
369.3359, 68.41897
369.8180, 71.55251
370.3001, 71.47807
370.7822, 70.41632
371.2643, 68.77239
371.7465, 66.53896
372.2286, 63.18497
372.7107, 58.97556
373.1928, 55.63865
373.6749, 53.55932
374.1570, 52.86126
374.6392, 54.69710
375.1213, 59.80245
375.6034, 62.15899
376.0855, 55.97153
376.5676, 48.48159
377.0497, 50.19921
377.5319, 61.43724
378.0140, 70.90335
378.4961, 68.31711
378.9782, 53.67795
379.4603, 44.57047
379.9424, 43.61762
380.4246, 44.22323
380.9066, 44.75207
381.3888, 45.33093
381.8709, 46.75951
382.3530, 49.39215
382.8351, 52.02736
383.3172, 51.70120
383.7993, 44.73229
384.2815, 42.53724
384.7636, 51.00406
385.2457, 59.24878
385.7278, 59.33340
386.2099, 52.10849
386.6920, 44.80282
387.1742, 43.73034
387.6563, 47.99610
388.1384, 51.03358
388.6205, 52.58940
389.1026, 53.30536
389.5847, 52.54488
390.0669, 51.45843
390.5490, 51.88934
391.0311, 54.99433
391.5132, 58.13206
391.9953, 57.01206
392.4774, 52.52597
392.9596, 53.17068
393.4417, 64.22276
393.9238, 76.75065
394.4059, 78.04691
394.8880, 68.20862
395.3701, 59.26921
395.8523, 53.62329
396.3344, 50.72260
396.8165, 51.30032
397.2986, 54.83543
397.7807, 57.09143
398.2628, 53.99674
398.7450, 47.09293
399.2271, 49.23339
399.7092, 73.42316
400.1913, 89.74709
400.6734, 85.67108
401.1555, 72.92913
401.6377, 66.20188
402.1198, 69.79383
402.6019, 76.79937
403.0840, 76.10660
403.5661, 63.08949
404.0482, 58.94915
404.5304, 73.78814
405.0125, 88.01344
405.4946, 94.04340
405.9767, 93.10717
406.4588, 89.25916
406.9409, 84.13008
407.4231, 78.49410
407.9052, 73.21610
408.3873, 67.16692
408.8694, 66.31528
409.3515, 78.28040
409.8336, 93.16979
410.3158, 100.9744
410.7979, 100.3563
411.2800, 96.40205
411.7621, 90.10354
412.2442, 82.97775
412.7263, 78.35621
413.2085, 76.89565
413.6906, 76.97129
414.1727, 77.64999
414.6548, 78.85413
415.1369, 79.15890
415.6190, 77.62427
416.1012, 76.13534
416.5833, 76.29845
417.0654, 77.09987
417.5475, 75.98492
418.0296, 71.78723
418.5117, 66.68074
418.9939, 64.81221
419.4760, 66.90264
419.9581, 71.11378
420.4402, 80.77574
420.9223, 89.45724
421.4044, 93.06480
421.8866, 92.08144
422.3687, 88.94035
422.8508, 83.90561
423.3329, 78.91713
423.8150, 84.92485
424.2971, 110.4835
424.7793, 127.5573
425.2614, 121.0806
425.7435, 104.8669
426.2256, 89.55831
426.7077, 76.71581
427.1898, 69.35476
427.6719, 74.31582
428.1541, 87.08073
428.6362, 91.91697
429.1183, 84.96960
429.6004, 75.27299
430.0825, 69.60345
430.5646, 67.94720
431.0468, 68.88750
431.5289, 76.25556
432.0110, 82.44209
432.4931, 81.72622
432.9752, 76.61664
433.4573, 72.87638
433.9395, 72.90080
434.4216, 75.25691
434.9037, 77.32500
435.3858, 79.17213
435.8679, 80.53514
436.3500, 80.52707
436.8322, 80.85714
437.3143, 82.96768
437.7964, 86.37138
438.2785, 89.54353
438.7606, 91.58108
439.2427, 92.40805
439.7249, 91.28482
440.2070, 86.91504
440.6891, 83.84454
441.1712, 85.92313
441.6533, 88.42134
442.1354, 85.86565
442.6176, 77.29380
443.0997, 71.04073
443.5818, 74.74208
444.0639, 84.78821
444.5460, 92.56024
445.0281, 97.14208
445.5103, 99.25879
445.9924, 98.50493
446.4745, 95.44743
446.9566, 94.22408
447.4387, 97.31828
447.9208, 99.46898
448.4030, 97.77819
448.8851, 94.04380
449.3672, 91.33137
449.8493, 90.55550
450.3314, 90.14031
450.8135, 87.68613
451.2957, 82.14082
451.7778, 78.84251
452.2599, 78.24694
452.7420, 79.30282
453.2241, 84.46130
453.7062, 90.56371
454.1884, 91.34539
454.6705, 82.76757
455.1526, 70.70027
455.6347, 66.92779
456.1168, 72.93554
456.5989, 75.73505
457.0811, 69.56520
457.5632, 62.10038
458.0453, 61.38068
458.5274, 66.64114
459.0095, 69.25553
459.4916, 61.28257
459.9738, 51.55483
460.4559, 51.69913
460.9380, 61.17945
461.4201, 72.20433
461.9022, 81.92555
462.3843, 88.93285
462.8665, 88.61420
463.3486, 74.69058
463.8307, 64.13538
464.3128, 57.59129
464.7949, 55.50189
465.2770, 61.48941
465.7592, 73.61265
466.2413, 83.10283
466.7234, 81.70199
467.2055, 71.22023
467.6876, 66.79230
468.1697, 73.45949
468.6519, 77.70293
469.1340, 73.82541
469.6161, 67.50297
470.0982, 63.60188
470.5803, 63.16600
471.0624, 65.38757
471.5445, 72.03468
472.0266, 80.93545
472.5088, 84.55168
472.9909, 81.39742
473.4730, 76.39354
473.9551, 72.39955
474.4372, 69.43685
474.9193, 67.08637
475.4015, 65.25667
475.8836, 64.14336
476.3657, 63.73849
476.8478, 64.12295
477.3299, 66.45592
477.8120, 70.74882
478.2942, 73.47169
478.7763, 69.57478
479.2584, 57.46723
479.7405, 51.44478
480.2226, 59.46138
480.7047, 65.11926
481.1869, 60.90251
481.6690, 52.71200
482.1511, 49.48907
482.6332, 54.77184
483.1153, 62.64745
483.5974, 65.11039
484.0796, 62.50311
484.5617, 62.54211
485.0438, 68.70869
485.5259, 73.46934
486.0080, 68.04863
486.4901, 55.47014
486.9723, 45.73299
487.4544, 39.87231
487.9365, 38.17796
488.4186, 43.24360
488.9007, 52.52654
489.3828, 60.03973
489.8650, 63.65961
490.3471, 65.63934
490.8292, 69.64981
491.3113, 77.63503
491.7934, 80.54285
492.2755, 74.42650
492.7577, 68.02676
493.2398, 64.56995
493.7219, 63.43942
494.2040, 63.35281
494.6861, 63.90208
495.1682, 64.06329
495.6504, 61.16754
496.1325, 54.78600
496.6146, 51.92027
497.0967, 55.33529
497.5788, 60.54003
498.0609, 65.29854
498.5431, 69.12270
499.0252, 69.22729
499.5073, 59.96215
499.9894, 50.90457
500.4715, 52.51316
500.9536, 60.86903
501.4358, 63.21477
501.9179, 54.16645
502.4000, 41.21763
502.8821, 36.30293
503.3642, 42.08673
503.8463, 48.04858
504.3285, 56.44083
504.8106, 62.74125
505.2927, 63.82104
505.7748, 61.43413
506.2569, 58.89203
506.7390, 57.73646
507.2212, 57.35846
507.7033, 57.07891
508.1854, 57.00240
508.6675, 55.23800
509.1496, 49.12325
509.6317, 44.42843
510.1139, 47.60004
510.5960, 56.59888
511.0781, 63.11604
511.5602, 63.33003
512.0423, 61.75525
512.5244, 61.57925
513.0065, 62.35287
513.4886, 63.14247
513.9708, 63.70414
514.4529, 63.03207
514.9350, 59.23153
515.4171, 50.55159
515.8992, 45.42567
516.3813, 44.70258
516.8635, 46.19373
517.3456, 50.97201
517.8277, 56.91376
518.3098, 60.87345
518.7919, 61.51603
519.2740, 59.97828
519.7562, 57.86560
520.2383, 55.15629
520.7204, 50.24996
521.2025, 41.27428
521.6846, 33.10567
522.1667, 29.50371
522.6489, 29.92879
523.1310, 33.59869
523.6131, 46.09050
524.0952, 55.86746
524.5773, 54.44155
525.0594, 46.41572
525.5416, 39.49884
526.0237, 35.89785
526.5058, 34.75925
526.9879, 35.29777
527.4700, 37.67247
527.9521, 40.06093
528.4343, 43.47285
528.9164, 45.66939
529.3985, 45.24865
529.8806, 43.70996
530.3627, 42.83109
530.8448, 43.11250
531.3270, 43.90469
531.8091, 45.12398
532.2912, 46.41185
532.7733, 45.65069
533.2554, 41.96798
533.7375, 39.61859
534.2197, 41.82891
534.7018, 47.63201
535.1839, 52.89822
535.6660, 59.77773
536.1481, 63.00038
536.6302, 57.50518
537.1124, 49.74362
537.5945, 47.45362
538.0766, 50.93128
538.5587, 54.17572
539.0408, 51.74129
539.5229, 44.89952
540.0051, 42.30139
540.4872, 45.90308
540.9693, 49.76917
541.4514, 55.75225
541.9335, 59.18999
542.4156, 53.50321
542.8978, 39.05685
543.3799, 28.17856
543.8620, 29.10945
544.3441, 36.77956
544.8262, 46.39776
545.3083, 57.06676
545.7905, 62.69370
546.2726, 59.39460
546.7547, 51.73740
547.2368, 49.23757
547.7189, 56.48544
548.2010, 59.16801
548.6832, 53.84163
549.1653, 47.31011
549.6474, 42.33189
550.1295, 39.27666
550.6116, 38.04282
551.0938, 38.68255
551.5759, 40.64215
552.0580, 44.18623
552.5401, 49.54783
553.0222, 49.85582
553.5043, 40.86869
553.9865, 31.65429
554.4686, 31.78501
554.9507, 38.41162
555.4328, 41.90720
555.9149, 36.98609
556.3970, 32.75739
556.8792, 36.12698
557.3613, 42.61582
557.8434, 43.41102
558.3255, 36.89637
558.8076, 31.09748
559.2897, 35.54329
559.7719, 50.23521
560.2540, 58.41655
560.7361, 56.93371
561.2182, 53.20306
561.7003, 46.27799
562.1824, 39.90960
562.6646, 38.74043
563.1467, 43.49012
563.6288, 48.07594
564.1109, 47.02007
564.5930, 43.62519
565.0751, 44.77716
565.5573, 50.51716
566.0394, 53.92974
566.5215, 50.46637
567.0036, 43.93631
567.4857, 43.43812
567.9678, 54.41515
568.4500, 61.46960
568.9321, 64.10025
569.4142, 63.30819
569.8963, 58.07778
570.3784, 50.03080
570.8605, 41.82064
571.3427, 34.38690
571.8248, 29.52624
572.3069, 31.57036
572.7890, 40.47891
573.2711, 47.85476
573.7532, 52.94320
574.2354, 54.99794
574.7175, 51.14004
575.1996, 43.11108
575.6817, 39.22980
576.1638, 44.74419
576.6459, 49.19809
577.1281, 44.91553
577.6102, 38.71890
578.0923, 41.93547
578.5744, 55.29005
579.0565, 67.40332
579.5386, 66.88554
580.0208, 55.70445
580.5029, 49.52524
580.9850, 50.32339
581.4671, 51.88590
581.9492, 52.28197
582.4313, 52.91312
582.9134, 56.06437
583.3955, 61.60960
583.8776, 64.19718
584.3597, 57.99661
584.8419, 50.30116
585.3240, 48.80364
585.8061, 52.64001
586.2882, 58.14092
586.7703, 63.99912
587.2524, 69.06879
587.7346, 71.48100
588.2167, 70.82877
588.6988, 69.17794
589.1809, 63.61470
589.6630, 60.25357
590.1451, 64.46235
590.6273, 70.73100
591.1094, 70.21435
591.5915, 59.89274
592.0736, 49.21149
592.5557, 47.46957
593.0378, 51.37439
593.5200, 52.46904
594.0021, 49.92012
594.4842, 47.68275
594.9663, 48.43448
595.4484, 50.98278
595.9305, 51.57798
596.4127, 46.75510
596.8948, 45.47518
597.3769, 50.56598
597.8590, 56.85951
598.3411, 62.76423
598.8232, 66.98425
599.3054, 67.03759
599.7875, 60.94407
600.2696, 52.61036
600.7517, 47.64494
601.2338, 45.90570
601.7159, 45.85891
602.1981, 47.58052
602.6802, 49.97396
603.1623, 51.96874
603.6444, 53.81944
604.1265, 57.17670
604.6086, 64.61759
605.0908, 70.26403
605.5729, 73.19804
606.0550, 73.28413
606.5371, 67.94059
607.0192, 58.77592
607.5013, 53.01167
607.9835, 57.08443
608.4656, 67.34924
608.9477, 73.18027
609.4298, 74.12075
609.9119, 73.28627
610.3940, 70.81266
610.8762, 67.56527
611.3583, 63.09752
611.8404, 57.88386
612.3225, 56.85413
612.8046, 66.42567
613.2867, 74.26051
613.7689, 71.56631
614.2510, 63.96704
614.7331, 60.06280
615.2152, 61.80878
615.6973, 65.83814
616.1794, 69.33904
616.6616, 72.11413
617.1437, 72.17078
617.6258, 67.98090
618.1079, 65.41507
618.5900, 68.70947
619.0721, 72.61024
619.5543, 71.32396
620.0364, 64.77505
620.5185, 58.20367
621.0006, 50.45075
621.4827, 45.67850
621.9648, 49.33836
622.4470, 58.02139
622.9291, 65.24943
623.4112, 68.65862
623.8933, 67.90738
624.3754, 60.95547
624.8575, 47.50615
625.3397, 42.19349
625.8218, 48.34962
626.3039, 56.51009
626.7860, 67.92386
627.2681, 76.92249
627.7502, 74.99557
628.2324, 60.72514
628.7145, 50.65955
629.1966, 56.88833
629.6787, 66.23676
630.1608, 64.46280
630.6429, 54.86248
631.1251, 49.01081
631.6072, 51.57252
632.0893, 57.80223
632.5714, 60.57206
633.0535, 59.35896
633.5356, 59.16250
634.0178, 61.54103
634.4999, 62.52391
634.9820, 59.48236
635.4641, 54.88300
635.9462, 51.39571
636.4283, 49.38612
636.9105, 48.38180
637.3926, 48.58001
637.8747, 49.36520
638.3568, 50.06229
638.8389, 50.73833
639.3210, 51.84972
639.8032, 53.60474
640.2853, 55.70324
640.7674, 57.92633
641.2495, 60.70599
641.7316, 60.90672
642.2137, 54.73026
642.6959, 51.54237
643.1780, 59.04815
643.6601, 69.66251
644.1422, 72.88775
644.6243, 66.27576
645.1064, 59.60388
645.5886, 57.44529
646.0707, 57.60227
646.5528, 57.61720
647.0349, 57.73238
647.5170, 60.03359
647.9991, 65.60730
648.4813, 71.61546
648.9634, 73.05380
649.4455, 68.99425
649.9276, 65.75574
650.4097, 64.44169
650.8918, 62.24381
651.3740, 55.36191
651.8561, 48.08927
652.3382, 47.00671
652.8203, 54.12568
653.3024, 59.56915
653.7845, 57.70488
654.2667, 53.28755
654.7488, 49.85886
655.2309, 48.11842
655.7130, 50.25727
656.1951, 57.28664
656.6772, 63.78533
657.1594, 58.65263
657.6415, 39.40674
658.1236, 33.82049
658.6057, 51.66266
659.0878, 65.30925
659.5699, 56.89199
660.0521, 39.82505
660.5342, 30.26587
661.0163, 29.51205
661.4984, 34.27612
661.9805, 51.71180
662.4626, 67.24745
662.9448, 64.75053
663.4269, 50.94057
663.9090, 42.64366
664.3911, 46.43642
664.8732, 55.09745
665.3553, 59.94562
665.8375, 61.00231
666.3196, 57.56242
666.8017, 47.29456
667.2838, 38.99339
667.7659, 36.65796
668.2480, 38.17705
668.7302, 40.45136
669.2123, 43.51955
669.6944, 46.98149
670.1765, 52.54326
670.6586, 56.70423
671.1407, 56.53580
671.6229, 53.71107
672.1050, 51.75441
672.5870, 51.49212
673.0692, 49.62226
673.5513, 39.39912
674.0334, 24.10149
674.5155, 23.67137
674.9976, 40.84828
675.4797, 54.13271
675.9619, 55.37587
676.4440, 49.59101
676.9261, 41.84188
677.4082, 31.15096
677.8903, 26.70959
678.3724, 33.28944
678.8546, 40.90684
679.3367, 48.42352
679.8188, 53.47047
680.3009, 51.94378
680.7830, 44.10289
681.2651, 36.28065
681.7473, 33.45524
682.2294, 34.16182
682.7115, 35.56444
683.1936, 37.65774
683.6757, 40.66617
684.1578, 44.89088
684.6400, 49.06808
685.1221, 51.72095
685.6042, 52.82666
686.0863, 54.28231
686.5684, 58.92064
687.0505, 60.18152
687.5327, 53.67205
688.0148, 46.03505
688.4969, 43.23997
688.9790, 44.84970
689.4611, 46.01311
689.9432, 43.49623
690.4254, 40.47131
690.9075, 39.86840
691.3896, 41.50910
691.8717, 45.71408
692.3538, 52.37608
692.8359, 58.78298
693.3181, 62.85952
693.8002, 64.66587
694.2823, 64.41025
694.7644, 61.34724
695.2465, 57.90491
695.7286, 52.86196
696.2108, 49.03767
696.6929, 50.00558
697.1750, 53.30484
697.6571, 51.62225
698.1392, 38.25614
698.6213, 30.19104
699.1035, 43.69746
699.5856, 62.90955
700.0677, 67.82130
700.5498, 59.25809
701.0319, 49.30069
701.5140, 44.51613
701.9962, 43.20074
702.4783, 42.91198
702.9604, 43.78891
703.4425, 42.08430
703.9246, 35.89941
704.4067, 31.44679
704.8889, 33.09688
705.3710, 38.25749
705.8531, 41.08769
706.3352, 40.64817
706.8173, 41.07760
707.2994, 42.96722
707.7816, 45.85963
708.2637, 49.83207
708.7458, 54.51453
709.2279, 60.48151
709.7100, 67.64575
710.1921, 71.59839
710.6743, 65.33508
711.1564, 53.30978
711.6385, 47.60658
712.1206, 48.11529
712.6027, 47.15736
713.0848, 41.31369
713.5670, 35.21045
714.0491, 35.07812
714.5312, 41.43469
715.0133, 47.94952
715.4954, 61.53932
715.9775, 65.69810
716.4597, 48.05233
716.9418, 26.69502
717.4239, 17.81031
717.9060, 21.34703
718.3881, 26.76220
718.8702, 29.14651
719.3524, 32.10089
719.8345, 41.65882
720.3166, 52.80536
720.7987, 54.59097
721.2808, 46.34745
721.7629, 38.55011
722.2451, 39.50590
722.7272, 46.56560
723.2093, 53.11060
723.6914, 60.12023
724.1735, 59.21162
724.6556, 43.87234
725.1378, 30.25979
725.6199, 31.82466
726.1020, 43.73966
726.5841, 49.69871
727.0662, 45.39482
727.5483, 43.50111
728.0305, 48.64977
728.5126, 54.82368
728.9947, 58.58459
729.4768, 59.94747
729.9589, 60.11192
730.4410, 59.56391
730.9232, 56.64790
731.4053, 46.20941
731.8874, 32.89430
732.3695, 29.16988
732.8516, 35.05593
733.3337, 44.19160
733.8159, 54.76766
734.2980, 63.57343
734.7801, 65.65458
735.2622, 60.38350
735.7443, 54.45763
736.2264, 46.00939
736.7086, 39.73621
737.1907, 37.88108
737.6728, 37.78663
738.1549, 36.11714
738.6370, 33.32581
739.1191, 34.75662
739.6013, 46.94002
740.0834, 58.58411
740.5655, 62.58597
741.0476, 62.14543
741.5297, 61.72540
742.0118, 61.75589
742.4940, 59.44149
742.9761, 52.14713
743.4582, 43.46245
743.9403, 42.14888
744.4224, 47.74307
744.9045, 47.72174
745.3867, 38.58850
745.8688, 32.73831
746.3509, 39.94084
746.8330, 54.97947
747.3151, 62.76208
747.7972, 59.10086
748.2794, 56.54246
748.7615, 54.95437
749.2436, 54.55624
749.7257, 58.04317
750.2078, 61.65077
750.6899, 58.78318
751.1721, 47.90054
751.6542, 38.60825
752.1363, 35.50122
752.6184, 37.50532
753.1005, 47.00726
753.5826, 60.26072
754.0648, 68.31185
754.5469, 68.63405
755.0290, 64.34863
755.5111, 57.31593
755.9932, 49.07030
756.4753, 47.60466
756.9575, 54.25154
757.4396, 58.41086
757.9217, 56.69056
758.4038, 54.20375
758.8859, 55.79028
759.3680, 60.61169
759.8502, 62.82148
760.3323, 60.21893
760.8144, 58.39345
761.2965, 57.73591
761.7786, 58.07861
762.2607, 60.65808
762.7428, 63.85797
763.2249, 64.48367
763.7070, 61.32166
764.1891, 56.56103
764.6713, 52.52055
765.1534, 47.48135
765.6355, 35.70249
766.1176, 20.18764
766.5997, 12.91890
767.0818, 18.49548
767.5640, 30.19954
768.0461, 41.46500
768.5282, 51.62449
769.0103, 51.19830
769.4924, 36.98398
769.9745, 26.38730
770.4567, 24.30995
770.9388, 27.69524
771.4209, 35.86534
771.9030, 48.24286
772.3851, 53.56976
772.8672, 45.97408
773.3494, 39.78641
773.8315, 36.19522
774.3136, 35.74728
774.7957, 41.86111
775.2778, 51.11243
775.7599, 54.69966
776.2421, 47.91332
776.7242, 40.87572
777.2063, 43.17924
777.6884, 49.01432
778.1705, 49.41312
778.6526, 45.16371
779.1348, 41.94189
779.6169, 42.15654
780.0990, 44.33157
780.5811, 46.75958
781.0632, 49.42262
781.5453, 52.32631
782.0275, 55.94305
782.5096, 56.72966
782.9917, 52.30414
783.4738, 47.03588
783.9559, 45.99630
784.4380, 49.03633
784.9202, 50.01428
785.4023, 46.15452
785.8844, 44.18344
786.3665, 46.68587
786.8486, 49.67768
787.3307, 50.34061
787.8129, 49.24314
788.2950, 48.27087
788.7771, 47.96586
789.2592, 47.99275
789.7413, 48.12596
790.2234, 48.49302
790.7056, 49.99826
791.1877, 51.83463
791.6698, 50.63828
792.1519, 45.41063
792.6340, 41.84797
793.1161, 49.44361
793.5983, 64.16358
794.0804, 66.26791
794.5625, 55.51167
795.0446, 48.97535
795.5267, 52.59568
796.0089, 57.14826
796.4910, 52.32038
796.9731, 23.99870
797.4552, 43.83587
797.9373, 54.97207
798.4194, 57.87486
798.9016, 27.88419
799.3837, 40.36858
799.8658, 35.83090
800.3479, 30.59522
800.8300, 49.05779
801.3121, 23.85142
801.7943, 41.93816
802.2764, 42.74308
802.7585, 51.45747
803.2406, 43.04466
803.7227, 39.92190
804.2048, 53.93182
804.6870, 58.45523
805.1691, 39.16408
805.6512, 33.51800
806.1333, 27.66365
806.6154, 35.32076
807.0975, 51.48981
807.5797, 52.71227
808.0618, 34.67256
808.5439, 19.83003
809.0260, 26.55643
809.5081, 47.55992
809.9902, 60.85094
810.4724, 65.88351
810.9545, 66.31748
811.4366, 61.15819
811.9187, 54.01115
812.4008, 45.02303
812.8829, 36.26731
813.3651, 32.28752
813.8472, 34.68598
814.3293, 34.98603
814.8114, 28.45960
815.2935, 25.29873
815.7756, 31.04381
816.2578, 40.31612
816.7399, 49.11350
817.2220, 56.25005
817.7041, 59.47106
818.1862, 55.01928
818.6683, 50.47041
819.1505, 52.92314
819.6326, 57.48709
820.1147, 55.82141
820.5968, 49.53864
821.0789, 48.57902
821.5610, 58.20691
822.0432, 68.79363
822.5253, 66.00746
823.0074, 53.22280
823.4895, 43.24439
823.9716, 36.51547
824.4537, 32.45408
824.9359, 30.70314
825.4180, 33.03574
825.9001, 43.06687
826.3822, 59.54572
826.8643, 64.93011
827.3464, 54.44794
827.8286, 45.19720
828.3107, 36.42984
828.7928, 34.28176
829.2749, 50.28793
829.7570, 75.81195
830.2391, 84.12434
830.7213, 65.01353
831.2034, 51.53280
831.6855, 52.58298
832.1676, 55.18037
832.6497, 51.51814
833.1318, 45.85381
833.6140, 44.82294
834.0961, 49.38473
834.5782, 54.81618
835.0603, 60.69496
835.5424, 64.24619
836.0245, 62.67042
836.5067, 57.41434
836.9888, 49.15552
837.4709, 39.20259
837.9530, 31.16292
838.4351, 27.06691
838.9172, 26.99668
839.3994, 33.78995
839.8815, 44.96856
840.3636, 48.49328
840.8457, 43.92275
841.3278, 41.59150
841.8099, 46.19646
842.2921, 52.72291
842.7742, 54.22462
843.2563, 50.92497
843.7384, 49.86321
844.2205, 52.06299
844.7026, 53.29443
845.1848, 52.47133
845.6669, 50.69558
846.1490, 48.24086
846.6311, 45.52911
847.1132, 44.43966
847.5953, 46.07534
848.0775, 47.22255
848.5596, 47.79741
849.0417, 47.79893
849.5238, 45.21887
850.0059, 43.08200
850.4880, 48.03365
850.9702, 60.56686
851.4523, 65.71580
851.9343, 48.40775
852.4164, 31.85282
852.8986, 33.41778
853.3807, 42.49072
853.8628, 44.58595
854.3449, 40.11047
854.8270, 40.14007
855.3091, 51.81740
855.7913, 63.15387
856.2734, 58.62758
856.7555, 44.82518
857.2376, 34.15652
857.7197, 27.55561
858.2018, 25.24783
858.6840, 27.22799
859.1661, 29.87018
859.6482, 28.36085
860.1303, 24.44053
860.6124, 28.00727
861.0945, 39.65559
861.5767, 43.55758
862.0588, 34.62189
862.5409, 27.05374
863.0230, 31.78666
863.5051, 43.98447
863.9872, 50.30209
864.4694, 48.65711
864.9515, 47.72948
865.4336, 49.12806
865.9157, 48.60675
866.3978, 41.66875
866.8799, 34.18449
867.3621, 33.45812
867.8442, 39.25599
868.3263, 44.61723
868.8084, 51.23078
869.2905, 54.32521
869.7726, 49.91466
870.2548, 44.30631
870.7369, 43.23499
871.2190, 44.34396
871.7011, 40.04373
872.1832, 26.54862
872.6653, 20.02506
873.1475, 37.61818
873.6296, 57.00197
874.1117, 57.01966
874.5938, 46.89251
875.0759, 42.36345
875.5580, 46.01764
876.0402, 50.86597
876.5223, 51.96155
877.0044, 52.85232
877.4865, 60.77147
877.9686, 71.06372
878.4507, 72.92381
878.9329, 66.28536
879.4150, 55.37510
879.8971, 42.05577
880.3792, 32.55594
880.8613, 37.95568
881.3434, 54.02459
881.8256, 57.28572
882.3077, 47.82471
882.7898, 41.27397
883.2719, 41.28746
883.7540, 45.49367
884.2361, 53.09625
884.7183, 61.83136
885.2004, 64.18223
885.6825, 58.36523
886.1646, 53.61425
886.6467, 50.34591
887.1288, 47.58550
887.6110, 43.97421
888.0931, 41.79731
888.5752, 45.64819
889.0573, 56.00352
889.5394, 59.16415
890.0215, 45.06702
890.5037, 37.98845
890.9858, 46.66404
891.4679, 56.84301
891.9500, 58.46952
892.4321, 55.48862
892.9142, 57.82384
893.3964, 69.13622
893.8785, 74.97354
894.3606, 68.31736
894.8427, 59.23482
895.3248, 50.72240
895.8069, 43.88503
896.2891, 38.62744
896.7712, 35.70244
897.2533, 38.83955
897.7354, 54.56837
898.2175, 66.07953
898.6996, 56.70922
899.1818, 41.18858
899.6639, 33.10351
900.1460, 33.26328
900.6281, 43.58204
901.1102, 63.13723
901.5923, 76.60124
902.0745, 65.88033
902.5566, 46.01786
903.0387, 38.31002
903.5208, 39.92340
904.0029, 46.82516
904.4850, 56.60448
904.9672, 60.67374
905.4493, 53.64986
905.9314, 43.76834
906.4135, 45.72792
906.8956, 55.88767
907.3777, 54.83563
907.8599, 43.20913
908.3420, 38.52105
908.8241, 46.22149
909.3062, 56.94709
909.7883, 62.63312
910.2704, 63.96571
910.7526, 63.03191
911.2347, 59.76746
911.7168, 54.01065
912.1989, 44.35164
912.6810, 38.55920
913.1631, 41.39855
913.6453, 47.56889
914.1274, 50.01034
914.6095, 48.70791
915.0916, 44.24799
915.5737, 33.02545
916.0558, 27.23896
916.5380, 31.33964
917.0201, 37.64632
917.5022, 42.10500
917.9843, 44.77836
918.4664, 45.12179
918.9485, 40.50121
919.4307, 41.83892
919.9128, 59.37133
920.3949, 69.65240
920.8770, 60.50712
921.3591, 46.32030
921.8412, 37.61148
922.3234, 34.89469
922.8055, 38.14408
923.2876, 54.56426
923.7697, 62.71801
924.2518, 50.03182
924.7339, 36.25229
925.2161, 32.09306
925.6982, 34.22941
926.1803, 38.90477
926.6624, 44.86509
927.1445, 47.63237
927.6266, 41.76936
928.1088, 36.83400
928.5909, 38.88806
929.0730, 43.21208
929.5551, 45.80659
930.0372, 46.72325
930.5193, 47.77560
931.0015, 49.48548
931.4836, 48.31568
931.9657, 36.46513
932.4478, 25.84032
932.9299, 29.35563
933.4120, 40.93787
933.8942, 53.94412
934.3763, 65.36498
934.8584, 69.61024
935.3405, 63.25098
935.8226, 55.13478
936.3047, 56.13119
936.7869, 60.30129
937.2690, 55.38169
937.7511, 45.31532
938.2332, 44.22704
938.7153, 53.86427
939.1974, 60.93282
939.6796, 55.09315
940.1617, 43.52213
940.6438, 36.77029
941.1259, 34.14649
941.6080, 34.30787
942.0901, 36.71648
942.5722, 38.29660
943.0543, 38.01841
943.5364, 40.37840
944.0186, 51.97191
944.5007, 66.85931
944.9828, 64.36090
945.4649, 46.83033
945.9470, 37.41906
946.4291, 38.98152
946.9113, 45.94903
947.3934, 56.44481
947.8755, 64.36488
948.3576, 59.48038
948.8397, 43.87573
949.3218, 34.88904
949.8040, 32.59487
950.2861, 37.77522
950.7682, 52.58658
951.2503, 63.37883
951.7324, 60.71902
952.2145, 50.24780
952.6967, 42.96478
953.1788, 38.94143
953.6609, 37.29737
954.1430, 38.77792
954.6251, 39.34388
955.1072, 37.00434
955.5894, 36.16570
956.0715, 41.28104
956.5536, 49.98669
957.0357, 54.45497
957.5178, 53.42918
957.9999, 52.83517
958.4821, 53.91830
958.9642, 52.42616
959.4463, 45.40044
959.9284, 37.39969
960.4105, 32.19497
960.8926, 29.96946
961.3748, 32.33185
961.8569, 45.10189
962.3390, 49.77301
962.8211, 39.18471
963.3032, 30.49895
963.7853, 31.35659
964.2675, 36.96758
964.7496, 41.86778
965.2317, 46.09147
965.7138, 51.38570
966.1959, 63.13134
966.6780, 67.56633
967.1602, 55.25923
967.6423, 45.15503
968.1244, 50.21449
968.6065, 60.81064
969.0886, 61.75152
969.5707, 51.88452
970.0529, 46.73285
970.5350, 50.52815
971.0171, 54.48117
971.4992, 57.43488
971.9813, 59.77884
972.4634, 61.48296
972.9456, 62.85928
973.4277, 65.25659
973.9098, 69.47391
974.3919, 68.97139
974.8740, 55.81532
975.3561, 47.13585
975.8383, 50.24144
976.3204, 57.32669
976.8025, 63.58026
977.2846, 68.85648
977.7667, 73.98189
978.2488, 79.23167
978.7310, 83.40993
979.2131, 82.12685
979.6952, 84.92912
980.1773, 102.8676
980.6594, 120.5571
981.1415, 119.9420
981.6237, 107.4067
982.1058, 104.7473
982.5879, 119.6317
983.0700, 131.8954
983.5521, 129.5193
984.0342, 130.0987
984.5164, 144.8848
984.9985, 165.3023
985.4806, 181.7720
985.9627, 195.0688
986.4448, 213.1269
986.9269, 243.5345
987.4091, 261.7732
987.8912, 248.1745
988.3733, 231.7668
988.8554, 231.9512
989.3375, 237.5327
989.8196, 232.7730
990.3018, 218.8330
990.7839, 209.6796
991.2660, 212.2307
991.7481, 213.3390
992.2302, 207.9348
992.7123, 198.7971
993.1945, 185.3084
993.6766, 170.7299
994.1587, 158.1475
994.6408, 148.3675
995.1229, 142.6223
995.6050, 143.1449
996.0872, 143.7358
996.5693, 143.5935
997.0514, 140.4353
997.5335, 129.8507
998.0156, 116.6738
998.4977, 108.8154
998.9799, 106.2005
999.4620, 100.0686
999.9441, 82.98413
1000.426, 69.62821
1000.908, 69.97601
1001.390, 73.73892
1001.873, 75.79588
1002.355, 74.33533
1002.837, 64.00605
1003.319, 46.47498
1003.801, 38.18648
1004.283, 53.86065
1004.765, 66.22331
1005.247, 57.05096
1005.729, 44.52588
1006.212, 42.57711
1006.694, 47.57815
1007.176, 53.55663
1007.658, 58.96192
1008.140, 61.84192
1008.622, 59.53848
1009.104, 57.54463
1009.586, 60.98130
1010.069, 63.28006
1010.551, 58.05013
1011.033, 48.61227
1011.515, 39.09302
1011.997, 30.88784
1012.479, 28.03665
1012.961, 36.11932
1013.443, 43.97548
1013.925, 47.04548
1014.408, 47.75058
1014.890, 46.04557
1015.372, 44.17772
1015.854, 46.65277
1016.336, 53.44987
1016.818, 56.78368
1017.300, 52.39688
1017.782, 46.21481
1018.265, 36.07864
1018.747, 29.47987
1019.229, 35.86093
1019.711, 47.50448
1020.193, 51.74334
1020.675, 47.37769
1021.157, 44.00370
1021.639, 45.85374
1022.121, 47.43621
1022.604, 47.54299
1023.086, 46.17214
1023.568, 41.30318
1024.050, 36.04661
1024.532, 34.87988
1025.014, 38.18963
1025.496, 42.86774
1025.978, 53.27030
1026.460, 57.46241
1026.943, 45.98399
1027.425, 34.26233
1027.907, 31.16702
1028.389, 33.77059
1028.871, 37.89774
1029.353, 43.09046
1029.835, 49.33696
1030.317, 63.19491
1030.800, 68.34441
1031.282, 53.81885
1031.764, 38.88174
1032.246, 32.29259
1032.728, 31.92392
1033.210, 36.39021
1033.692, 44.96220
1034.174, 50.78870
1034.656, 53.05000
1035.139, 52.70540
1035.621, 47.54371
1036.103, 42.49763
1036.585, 38.39136
1037.067, 36.47355
1037.549, 38.49297
1038.031, 44.23575
1038.513, 51.09021
1038.995, 67.39003
1039.478, 70.98962
1039.960, 46.25482
1040.442, 29.44113
1040.924, 40.18998
1041.406, 58.63030
1041.888, 64.85320
1042.370, 60.56566
1042.852, 56.29800
1043.335, 52.24389
1043.817, 47.49776
1044.299, 39.46027
1044.781, 35.94310
1045.263, 43.31686
1045.745, 50.57968
1046.227, 44.41203
1046.709, 30.31704
1047.192, 32.44956
1047.674, 59.36203
1048.156, 73.02230
1048.638, 69.17741
1049.120, 63.57746
1049.602, 60.30686
1050.084, 57.66758
1050.566, 53.52529
1051.048, 49.75032
1051.531, 53.47184
1052.013, 67.28281
1052.495, 66.69466
1052.977, 47.63100
1053.459, 37.28855
1053.941, 44.25427
1054.423, 53.61512
1054.905, 55.06958
1055.387, 50.04827
1055.870, 39.16008
1056.352, 22.82419
1056.834, 19.07993
1057.316, 28.15572
1057.798, 38.48597
1058.280, 47.85355
1058.762, 52.90177
1059.244, 51.40732
1059.727, 45.52848
1060.209, 36.23589
1060.691, 25.92428
1061.173, 28.32156
1061.655, 41.24398
1062.137, 50.49597
1062.619, 53.84447
1063.101, 53.37190
1063.583, 49.99627
1064.066, 49.22405
1064.548, 61.63968
1065.030, 77.84007
1065.512, 71.74342
1065.994, 52.51242
1066.476, 48.35607
1066.958, 58.75816
1067.440, 64.91138
1067.922, 59.79044
1068.405, 51.90749
1068.887, 47.98378
1069.369, 46.54123
1069.851, 45.60955
1070.333, 45.75473
1070.815, 49.36123
1071.297, 54.61067
1071.779, 56.51132
1072.262, 53.98086
1072.744, 50.22667
1073.226, 46.62373
1073.708, 43.87320
1074.190, 43.27444
1074.672, 43.23170
1075.154, 41.15608
1075.636, 38.85773
1076.118, 39.80836
1076.601, 44.07145
1077.083, 48.72784
1077.565, 53.36810
1078.047, 56.19368
1078.529, 55.52176
1079.011, 53.68003
1079.493, 50.79873
1079.975, 48.60651
1080.458, 49.78982
1080.940, 53.39882
1081.422, 55.39284
1081.904, 54.44210
1082.386, 53.70967
1082.868, 52.82191
1083.350, 53.65737
1083.832, 59.68933
1084.314, 65.10360
1084.797, 64.45921
1085.279, 59.86357
1085.761, 56.43218
1086.243, 54.25903
1086.725, 53.62901
1087.207, 54.77109
1087.689, 57.22463
1088.171, 62.96080
1088.653, 66.77186
1089.136, 64.94652
1089.618, 60.43886
1090.100, 57.53587
1090.582, 56.22817
1091.064, 56.52361
1091.546, 59.63617
1092.028, 58.39330
1092.510, 50.55294
1092.993, 44.77899
1093.475, 44.73928
1093.957, 48.45931
1094.439, 54.55413
1094.921, 61.55668
1095.403, 64.45571
1095.885, 63.29185
1096.367, 56.93461
1096.849, 45.81247
1097.332, 39.93709
1097.814, 42.25077
1098.296, 48.51819
1098.778, 56.11657
1099.260, 62.91476
1099.742, 65.48354
1100.224, 64.46543
1100.706, 60.09492
1101.188, 53.90498
1101.671, 49.25726
1102.153, 47.53275
1102.635, 52.84988
1103.117, 67.57919
1103.599, 79.65669
1104.081, 75.68650
1104.563, 65.03288
1105.045, 54.93679
1105.528, 47.70829
1106.010, 48.73064
1106.492, 54.86790
1106.974, 57.50136
1107.456, 54.45323
1107.938, 51.21488
1108.420, 50.96817
1108.902, 50.85189
1109.385, 49.26188
1109.867, 47.38035
1110.349, 44.24312
1110.831, 42.50350
1111.313, 48.52869
1111.795, 60.85509
1112.277, 64.83537
1112.759, 49.54166
1113.241, 42.44990
1113.724, 56.57257
1114.206, 67.35112
1114.688, 63.17050
1115.170, 54.66710
1115.652, 47.48034
1116.134, 43.66395
1116.616, 50.80042
1117.098, 73.49574
1117.580, 80.83049
1118.063, 67.05005
1118.545, 55.21305
1119.027, 48.54205
1119.509, 48.31751
1119.991, 56.58721
1120.473, 67.97302
1120.955, 74.86241
1121.437, 77.48211
1121.920, 77.19450
1122.402, 73.99794
1122.884, 66.06278
1123.366, 53.76953
1123.848, 45.98383
1124.330, 45.92390
1124.812, 54.75003
1125.294, 76.65044
1125.776, 98.00136
1126.259, 90.70238
1126.741, 68.84054
1127.223, 59.66510
1127.705, 62.30741
1128.187, 73.76968
1128.669, 90.40382
1129.151, 102.2741
1129.633, 104.8355
1130.115, 100.7369
1130.598, 85.41922
1131.080, 71.65268
1131.562, 72.39694
1132.044, 78.25327
1132.526, 79.58370
1133.008, 76.84328
1133.490, 72.32942
1133.972, 66.60555
1134.455, 64.88994
1134.937, 71.74411
1135.419, 78.17982
1135.901, 84.64184
1136.383, 87.18996
1136.865, 78.99899
1137.347, 69.43776
1137.829, 71.18005
1138.312, 81.10674
1138.794, 83.46024
1139.276, 75.40733
1139.758, 68.49837
1140.240, 61.95600
1140.722, 59.81410
1141.204, 64.97816
1141.686, 67.32027
1142.168, 58.78315
1142.651, 47.25019
1143.133, 46.72515
1143.615, 55.19174
1144.097, 60.65102
1144.579, 63.39235
1145.061, 66.12383
1145.543, 69.15406
1146.025, 72.90419
1146.507, 77.25048
1146.990, 76.92345
1147.472, 65.69431
1147.954, 52.00593
1148.436, 48.13130
1148.918, 48.90220
1149.400, 46.45037
1149.882, 42.41041
1150.364, 41.19883
1150.847, 42.83297
1151.329, 44.24080
1151.811, 44.47099
1152.293, 42.88336
1152.775, 34.76674
1153.257, 30.32190
1153.739, 38.45231
1154.221, 49.07334
1154.703, 54.60949
1155.186, 56.11577
1155.668, 56.32109
1156.150, 55.43246
1156.632, 53.09891
1157.114, 47.82888
1157.596, 43.86816
1158.078, 39.95367
1158.560, 40.63903
1159.042, 49.17312
1159.525, 59.72585
1160.007, 68.43724
1160.489, 73.45712
1160.971, 69.09115
1161.453, 55.52112
1161.935, 40.04420
1162.417, 23.10682
1162.899, 19.66560
1163.382, 31.28094
1163.864, 43.49278
1164.346, 49.49677
1164.828, 50.66723
1165.310, 45.80149
1165.792, 41.16252
1166.274, 49.90998
1166.756, 63.22290
1167.238, 66.36737
1167.721, 61.80965
1168.203, 55.93283
1168.685, 50.86625
1169.167, 48.38562
1169.649, 49.46610
1170.131, 52.29251
1170.613, 61.83120
1171.095, 65.45670
1171.578, 47.61564
1172.060, 29.66841
1172.542, 33.76352
1173.024, 49.74275
1173.506, 55.28236
1173.988, 49.32047
1174.470, 44.47228
1174.952, 40.36374
1175.434, 38.12685
1175.917, 37.23404
1176.399, 40.67477
1176.881, 51.09308
1177.363, 60.83546
1177.845, 63.59008
1178.327, 60.38113
1178.809, 51.64825
1179.291, 38.69670
1179.773, 28.96776
1180.256, 23.08845
1180.738, 26.59987
1181.220, 38.00249
1181.702, 44.26176
1182.184, 40.47453
1182.666, 36.81880
1183.148, 42.71629
1183.630, 50.43245
1184.113, 50.98049
1184.595, 50.59587
1185.077, 59.86780
1185.559, 70.38840
1186.041, 65.09755
1186.523, 47.85217
1187.005, 42.42545
1187.487, 59.08839
1187.969, 66.21322
1188.452, 48.38350
1188.934, 33.74444
1189.416, 28.24730
1189.898, 28.39315
1190.380, 34.98583
1190.862, 43.17522
1191.344, 46.50693
1191.826, 45.85168
1192.308, 46.15421
1192.791, 47.53771
1193.273, 47.72927
1193.755, 46.64329
1194.237, 44.13744
1194.719, 40.35565
1195.201, 40.29598
1195.683, 47.21413
1196.165, 54.57655
1196.648, 53.93277
1197.130, 49.33598
1197.612, 46.83352
1198.094, 44.88241
1198.576, 39.58844
1199.058, 33.36458
1199.540, 31.55332
1200.022, 35.10423
1200.505, 43.14187
1200.987, 60.93359
1201.469, 67.86121
1201.951, 46.56786
1202.433, 27.13027
1202.915, 23.02623
1203.397, 23.95043
1203.879, 22.28437
1204.361, 20.40596
1204.844, 22.99195
1205.326, 29.59542
1205.808, 31.91653
1206.290, 28.99778
1206.772, 29.18098
1207.254, 33.21627
1207.736, 38.16908
1208.218, 43.20269
1208.700, 42.18930
1209.183, 29.63142
1209.665, 18.67923
1210.147, 34.11896
1210.629, 58.54686
1211.111, 60.08741
1211.593, 49.54633
1212.075, 44.01612
1212.557, 43.88783
1213.040, 45.10374
1213.522, 46.42692
1214.004, 47.05563
1214.486, 46.93343
1214.968, 45.50729
1215.450, 39.67101
1215.932, 36.30566
1216.414, 40.40977
1216.896, 46.03819
1217.379, 50.90402
1217.861, 52.48146
1218.343, 43.99385
1218.825, 26.83565
1219.307, 27.15526
1219.789, 47.37309
1220.271, 51.84639
1220.753, 37.85152
1221.235, 28.37558
1221.718, 30.13763
1222.200, 38.34110
1222.682, 50.72486
1223.164, 59.14385
1223.646, 47.08360
1224.128, 30.96499
1224.610, 38.41669
1225.092, 52.68023
1225.575, 46.60756
1226.057, 28.89207
1226.539, 21.84887
1227.021, 28.55899
1227.503, 37.16577
1227.985, 47.84164
1228.467, 52.50321
1228.949, 43.95411
1229.432, 37.62379
1229.914, 38.63399
1230.396, 40.76516
1230.878, 39.63827
1231.360, 38.72235
1231.842, 44.19840
1232.324, 53.72135
1232.806, 54.91525
1233.288, 48.58268
1233.771, 42.45648
1234.253, 37.05796
1234.735, 31.45029
1235.217, 25.95858
1235.699, 23.67251
1236.181, 26.17120
1236.663, 32.58945
1237.145, 50.64287
1237.627, 62.02542
1238.110, 43.01988
1238.592, 19.30264
1239.074, 14.60291
1239.556, 20.53535
1240.038, 21.47634
1240.520, 18.71975
1241.002, 29.50016
1241.484, 63.57727
1241.967, 73.41368
1242.449, 46.80234
1242.931, 34.78479
1243.413, 49.07043
1243.895, 60.31934
1244.377, 54.64981
1244.859, 45.25096
1245.341, 45.48903
1245.823, 50.68756
1246.306, 53.64245
1246.788, 53.72942
1247.270, 46.24290
1247.752, 36.28975
1248.234, 35.55943
1248.716, 42.62724
1249.198, 49.40928
1249.680, 53.47440
1250.162, 53.87461
1250.645, 46.96925
1251.127, 41.67095
1251.609, 38.26734
1252.091, 39.88183
1252.573, 53.12250
1253.055, 64.73312
1253.537, 64.34726
1254.019, 56.97950
1254.502, 51.29885
1254.984, 47.30170
1255.466, 44.65266
1255.948, 43.52449
1256.430, 48.10078
1256.912, 56.97031
1257.394, 59.08084
1257.876, 52.51691
1258.358, 44.24689
1258.841, 37.66175
1259.323, 35.38110
1259.805, 43.43961
1260.287, 51.67955
1260.769, 52.61600
1261.251, 50.82692
1261.733, 49.58979
1262.215, 48.60295
##END=



