##NAMES=Osumilite-(Mg)
##RRUFFID=R141102
##IDEAL CHEMISTRY=KMg_2_(Al_5_Si_10_)O_30_
##LOCALITY=Caspar quarry, Bellerberg volcano, Mayen, Eifel, Germany
##OWNER=RRUFF
##SOURCE=Ch. and H. Sch√§fer
##DESCRIPTION=Pale blue short prismatic or tabular hexagonal crystals, associated with acicular mullite, colorless sanidine, reddish rutile.
##STATUS=The identification of this mineral has been confirmed only by single crystal X-ray diffraction.
##URL=rruff.info/R141102
8.806445e+001, 3.907457e+003
8.854657e+001, 3.827821e+003
8.902869e+001, 3.800336e+003
8.951080e+001, 3.845017e+003
8.999292e+001, 3.932575e+003
9.047504e+001, 4.039817e+003
9.095715e+001, 4.164628e+003
9.143927e+001, 4.293600e+003
9.192139e+001, 4.409850e+003
9.240350e+001, 4.514256e+003
9.288562e+001, 4.611030e+003
9.336774e+001, 4.667245e+003
9.384985e+001, 4.654907e+003
9.433197e+001, 4.587181e+003
9.481409e+001, 4.531549e+003
9.529620e+001, 4.470940e+003
9.577832e+001, 4.420312e+003
9.626044e+001, 4.382558e+003
9.674255e+001, 4.350771e+003
9.722467e+001, 4.313771e+003
9.770679e+001, 4.264980e+003
9.818890e+001, 4.227808e+003
9.867102e+001, 4.213350e+003
9.915314e+001, 4.205213e+003
9.963525e+001, 4.189240e+003
1.001174e+002, 4.158755e+003
1.005995e+002, 4.118451e+003
1.010816e+002, 4.085483e+003
1.015637e+002, 4.064034e+003
1.020458e+002, 4.045165e+003
1.025280e+002, 4.024883e+003
1.030101e+002, 4.005495e+003
1.034922e+002, 3.991423e+003
1.039743e+002, 3.986171e+003
1.044564e+002, 3.989596e+003
1.049385e+002, 3.992477e+003
1.054207e+002, 3.997042e+003
1.059028e+002, 3.998948e+003
1.063849e+002, 3.995118e+003
1.068670e+002, 3.985633e+003
1.073491e+002, 3.973504e+003
1.078312e+002, 3.960686e+003
1.083134e+002, 3.947204e+003
1.087955e+002, 3.934923e+003
1.092776e+002, 3.923065e+003
1.097597e+002, 3.912773e+003
1.102418e+002, 3.905789e+003
1.107239e+002, 3.902564e+003
1.112061e+002, 3.902301e+003
1.116882e+002, 3.903782e+003
1.121703e+002, 3.906997e+003
1.126524e+002, 3.912855e+003
1.131345e+002, 3.922418e+003
1.136166e+002, 3.935564e+003
1.140988e+002, 3.949927e+003
1.145809e+002, 3.966568e+003
1.150630e+002, 3.983287e+003
1.155451e+002, 3.998984e+003
1.160272e+002, 4.013547e+003
1.165093e+002, 4.026982e+003
1.169915e+002, 4.039344e+003
1.174736e+002, 4.050598e+003
1.179557e+002, 4.060440e+003
1.184378e+002, 4.068418e+003
1.189199e+002, 4.075380e+003
1.194020e+002, 4.082426e+003
1.198842e+002, 4.089758e+003
1.203663e+002, 4.096076e+003
1.208484e+002, 4.098475e+003
1.213305e+002, 4.093239e+003
1.218126e+002, 4.087580e+003
1.222947e+002, 4.083969e+003
1.227769e+002, 4.079500e+003
1.232590e+002, 4.070079e+003
1.237411e+002, 4.053222e+003
1.242232e+002, 4.030476e+003
1.247053e+002, 4.008337e+003
1.251874e+002, 3.988370e+003
1.256696e+002, 3.967378e+003
1.261517e+002, 3.943293e+003
1.266338e+002, 3.916859e+003
1.271159e+002, 3.890414e+003
1.275980e+002, 3.865376e+003
1.280801e+002, 3.841714e+003
1.285623e+002, 3.818570e+003
1.290444e+002, 3.796737e+003
1.295265e+002, 3.774882e+003
1.300086e+002, 3.751157e+003
1.304907e+002, 3.725222e+003
1.309728e+002, 3.699467e+003
1.314550e+002, 3.675004e+003
1.319371e+002, 3.651674e+003
1.324192e+002, 3.629674e+003
1.329013e+002, 3.608597e+003
1.333834e+002, 3.588958e+003
1.338655e+002, 3.572806e+003
1.343477e+002, 3.563197e+003
1.348298e+002, 3.552657e+003
1.353119e+002, 3.536489e+003
1.357940e+002, 3.517328e+003
1.362761e+002, 3.500179e+003
1.367582e+002, 3.489170e+003
1.372404e+002, 3.484553e+003
1.377225e+002, 3.478906e+003
1.382046e+002, 3.471768e+003
1.386867e+002, 3.464024e+003
1.391688e+002, 3.455571e+003
1.396509e+002, 3.446665e+003
1.401331e+002, 3.437865e+003
1.406152e+002, 3.429694e+003
1.410973e+002, 3.422508e+003
1.415794e+002, 3.414896e+003
1.420615e+002, 3.406179e+003
1.425436e+002, 3.397617e+003
1.430258e+002, 3.389542e+003
1.435079e+002, 3.382176e+003
1.439900e+002, 3.376027e+003
1.444721e+002, 3.371900e+003
1.449542e+002, 3.370596e+003
1.454363e+002, 3.369551e+003
1.459185e+002, 3.368411e+003
1.464006e+002, 3.367552e+003
1.468827e+002, 3.367729e+003
1.473648e+002, 3.369330e+003
1.478469e+002, 3.371121e+003
1.483290e+002, 3.370643e+003
1.488112e+002, 3.367723e+003
1.492933e+002, 3.365062e+003
1.497754e+002, 3.363209e+003
1.502575e+002, 3.362285e+003
1.507396e+002, 3.362688e+003
1.512217e+002, 3.364704e+003
1.517039e+002, 3.368086e+003
1.521860e+002, 3.372171e+003
1.526681e+002, 3.376985e+003
1.531502e+002, 3.382432e+003
1.536323e+002, 3.388241e+003
1.541144e+002, 3.394366e+003
1.545966e+002, 3.401891e+003
1.550787e+002, 3.411115e+003
1.555608e+002, 3.422058e+003
1.560429e+002, 3.435455e+003
1.565250e+002, 3.451606e+003
1.570071e+002, 3.468316e+003
1.574893e+002, 3.482908e+003
1.579714e+002, 3.495622e+003
1.584535e+002, 3.505226e+003
1.589356e+002, 3.513344e+003
1.594177e+002, 3.517877e+003
1.598998e+002, 3.516702e+003
1.603820e+002, 3.509046e+003
1.608641e+002, 3.496116e+003
1.613462e+002, 3.480567e+003
1.618283e+002, 3.460313e+003
1.623104e+002, 3.440078e+003
1.627925e+002, 3.419371e+003
1.632747e+002, 3.399278e+003
1.637568e+002, 3.380548e+003
1.642389e+002, 3.363647e+003
1.647210e+002, 3.348696e+003
1.652031e+002, 3.336509e+003
1.656852e+002, 3.329463e+003
1.661674e+002, 3.322495e+003
1.666495e+002, 3.314156e+003
1.671316e+002, 3.305406e+003
1.676137e+002, 3.298116e+003
1.680958e+002, 3.293434e+003
1.685779e+002, 3.291005e+003
1.690601e+002, 3.288377e+003
1.695422e+002, 3.285252e+003
1.700243e+002, 3.282277e+003
1.705064e+002, 3.279460e+003
1.709885e+002, 3.276914e+003
1.714706e+002, 3.275079e+003
1.719528e+002, 3.274356e+003
1.724349e+002, 3.274605e+003
1.729170e+002, 3.274837e+003
1.733991e+002, 3.275234e+003
1.738812e+002, 3.275450e+003
1.743633e+002, 3.275231e+003
1.748455e+002, 3.274567e+003
1.753276e+002, 3.273533e+003
1.758097e+002, 3.271651e+003
1.762918e+002, 3.269533e+003
1.767739e+002, 3.268343e+003
1.772560e+002, 3.268971e+003
1.777382e+002, 3.270196e+003
1.782203e+002, 3.270103e+003
1.787024e+002, 3.268218e+003
1.791845e+002, 3.266634e+003
1.796666e+002, 3.266810e+003
1.801487e+002, 3.267866e+003
1.806309e+002, 3.268703e+003
1.811130e+002, 3.268702e+003
1.815951e+002, 3.268276e+003
1.820772e+002, 3.268680e+003
1.825593e+002, 3.270797e+003
1.830414e+002, 3.272241e+003
1.835236e+002, 3.271337e+003
1.840057e+002, 3.269491e+003
1.844878e+002, 3.268769e+003
1.849699e+002, 3.270603e+003
1.854520e+002, 3.274506e+003
1.859341e+002, 3.277424e+003
1.864163e+002, 3.278953e+003
1.868984e+002, 3.279758e+003
1.873805e+002, 3.280011e+003
1.878626e+002, 3.279680e+003
1.883447e+002, 3.278541e+003
1.888268e+002, 3.276267e+003
1.893090e+002, 3.272942e+003
1.897911e+002, 3.271073e+003
1.902732e+002, 3.271725e+003
1.907553e+002, 3.272772e+003
1.912374e+002, 3.273731e+003
1.917195e+002, 3.274655e+003
1.922017e+002, 3.275942e+003
1.926838e+002, 3.278052e+003
1.931659e+002, 3.281114e+003
1.936480e+002, 3.282075e+003
1.941301e+002, 3.278595e+003
1.946122e+002, 3.275749e+003
1.950944e+002, 3.276514e+003
1.955765e+002, 3.280136e+003
1.960586e+002, 3.283398e+003
1.965407e+002, 3.283466e+003
1.970228e+002, 3.280166e+003
1.975049e+002, 3.278694e+003
1.979871e+002, 3.279674e+003
1.984692e+002, 3.281688e+003
1.989513e+002, 3.284278e+003
1.994334e+002, 3.287277e+003
1.999155e+002, 3.290077e+003
2.003976e+002, 3.292219e+003
2.008798e+002, 3.293642e+003
2.013619e+002, 3.294681e+003
2.018440e+002, 3.294348e+003
2.023261e+002, 3.294263e+003
2.028082e+002, 3.296268e+003
2.032903e+002, 3.300534e+003
2.037725e+002, 3.304981e+003
2.042546e+002, 3.308260e+003
2.047367e+002, 3.310435e+003
2.052188e+002, 3.311564e+003
2.057009e+002, 3.310783e+003
2.061830e+002, 3.309350e+003
2.066652e+002, 3.308971e+003
2.071473e+002, 3.309845e+003
2.076294e+002, 3.311123e+003
2.081115e+002, 3.311856e+003
2.085936e+002, 3.312628e+003
2.090757e+002, 3.314576e+003
2.095579e+002, 3.319047e+003
2.100400e+002, 3.324567e+003
2.105221e+002, 3.328100e+003
2.110042e+002, 3.329043e+003
2.114863e+002, 3.329241e+003
2.119685e+002, 3.329723e+003
2.124506e+002, 3.330119e+003
2.129327e+002, 3.329771e+003
2.134148e+002, 3.327999e+003
2.138969e+002, 3.325433e+003
2.143790e+002, 3.324177e+003
2.148612e+002, 3.325197e+003
2.153433e+002, 3.325956e+003
2.158254e+002, 3.325016e+003
2.163075e+002, 3.323422e+003
2.167896e+002, 3.322641e+003
2.172717e+002, 3.323584e+003
2.177539e+002, 3.325900e+003
2.182360e+002, 3.328083e+003
2.187181e+002, 3.330798e+003
2.192002e+002, 3.332378e+003
2.196823e+002, 3.331806e+003
2.201644e+002, 3.330082e+003
2.206466e+002, 3.328562e+003
2.211287e+002, 3.328074e+003
2.216108e+002, 3.328423e+003
2.220929e+002, 3.328478e+003
2.225750e+002, 3.327087e+003
2.230571e+002, 3.326729e+003
2.235393e+002, 3.328524e+003
2.240214e+002, 3.331470e+003
2.245035e+002, 3.334272e+003
2.249856e+002, 3.336190e+003
2.254677e+002, 3.337220e+003
2.259498e+002, 3.337234e+003
2.264320e+002, 3.333126e+003
2.269141e+002, 3.331429e+003
2.273962e+002, 3.334922e+003
2.278783e+002, 3.341283e+003
2.283604e+002, 3.347113e+003
2.288425e+002, 3.350509e+003
2.293247e+002, 3.351673e+003
2.298068e+002, 3.351690e+003
2.302889e+002, 3.348964e+003
2.307710e+002, 3.346976e+003
2.312531e+002, 3.346384e+003
2.317352e+002, 3.347012e+003
2.322174e+002, 3.348680e+003
2.326995e+002, 3.351415e+003
2.331816e+002, 3.354855e+003
2.336637e+002, 3.357380e+003
2.341458e+002, 3.358207e+003
2.346279e+002, 3.359178e+003
2.351101e+002, 3.360855e+003
2.355922e+002, 3.362988e+003
2.360743e+002, 3.365165e+003
2.365564e+002, 3.367244e+003
2.370385e+002, 3.369127e+003
2.375206e+002, 3.370357e+003
2.380028e+002, 3.370405e+003
2.384849e+002, 3.370789e+003
2.389670e+002, 3.372116e+003
2.394491e+002, 3.374157e+003
2.399312e+002, 3.376559e+003
2.404133e+002, 3.379371e+003
2.408955e+002, 3.382131e+003
2.413776e+002, 3.383621e+003
2.418597e+002, 3.383103e+003
2.423418e+002, 3.383323e+003
2.428239e+002, 3.386137e+003
2.433060e+002, 3.390650e+003
2.437882e+002, 3.394348e+003
2.442703e+002, 3.396135e+003
2.447524e+002, 3.396972e+003
2.452345e+002, 3.398442e+003
2.457166e+002, 3.400620e+003
2.461987e+002, 3.402853e+003
2.466809e+002, 3.405086e+003
2.471630e+002, 3.407157e+003
2.476451e+002, 3.408383e+003
2.481272e+002, 3.408052e+003
2.486093e+002, 3.407517e+003
2.490914e+002, 3.408610e+003
2.495736e+002, 3.411356e+003
2.500557e+002, 3.413866e+003
2.505378e+002, 3.414577e+003
2.510199e+002, 3.414036e+003
2.515020e+002, 3.414653e+003
2.519841e+002, 3.417572e+003
2.524663e+002, 3.420806e+003
2.529484e+002, 3.422228e+003
2.534305e+002, 3.422073e+003
2.539126e+002, 3.422451e+003
2.543947e+002, 3.425254e+003
2.548768e+002, 3.429858e+003
2.553590e+002, 3.433146e+003
2.558411e+002, 3.434094e+003
2.563232e+002, 3.434615e+003
2.568053e+002, 3.435853e+003
2.572874e+002, 3.437778e+003
2.577695e+002, 3.440277e+003
2.582516e+002, 3.443478e+003
2.587338e+002, 3.447285e+003
2.592159e+002, 3.450993e+003
2.596980e+002, 3.454258e+003
2.601801e+002, 3.457969e+003
2.606622e+002, 3.462608e+003
2.611443e+002, 3.467968e+003
2.616265e+002, 3.473622e+003
2.621086e+002, 3.479459e+003
2.625907e+002, 3.485390e+003
2.630728e+002, 3.490732e+003
2.635549e+002, 3.494521e+003
2.640370e+002, 3.499282e+003
2.645192e+002, 3.506541e+003
2.650013e+002, 3.515207e+003
2.654834e+002, 3.523514e+003
2.659655e+002, 3.530465e+003
2.664476e+002, 3.536422e+003
2.669297e+002, 3.542693e+003
2.674119e+002, 3.548927e+003
2.678940e+002, 3.556152e+003
2.683761e+002, 3.565108e+003
2.688582e+002, 3.574910e+003
2.693403e+002, 3.584527e+003
2.698224e+002, 3.593413e+003
2.703046e+002, 3.601855e+003
2.707867e+002, 3.610621e+003
2.712688e+002, 3.619862e+003
2.717509e+002, 3.629202e+003
2.722330e+002, 3.638500e+003
2.727151e+002, 3.647886e+003
2.731973e+002, 3.657625e+003
2.736794e+002, 3.667838e+003
2.741615e+002, 3.678254e+003
2.746436e+002, 3.688418e+003
2.751257e+002, 3.698270e+003
2.756078e+002, 3.707925e+003
2.760900e+002, 3.718445e+003
2.765721e+002, 3.728187e+003
2.770542e+002, 3.735623e+003
2.775363e+002, 3.740362e+003
2.780184e+002, 3.743236e+003
2.785005e+002, 3.745856e+003
2.789827e+002, 3.749528e+003
2.794648e+002, 3.749724e+003
2.799469e+002, 3.744834e+003
2.804290e+002, 3.738045e+003
2.809111e+002, 3.731572e+003
2.813932e+002, 3.725749e+003
2.818754e+002, 3.719308e+003
2.823575e+002, 3.710385e+003
2.828396e+002, 3.697962e+003
2.833217e+002, 3.686019e+003
2.838038e+002, 3.674653e+003
2.842859e+002, 3.663630e+003
2.847681e+002, 3.653177e+003
2.852502e+002, 3.643095e+003
2.857323e+002, 3.632777e+003
2.862144e+002, 3.621456e+003
2.866965e+002, 3.608760e+003
2.871786e+002, 3.597139e+003
2.876608e+002, 3.587537e+003
2.881429e+002, 3.577970e+003
2.886250e+002, 3.567154e+003
2.891071e+002, 3.555593e+003
2.895892e+002, 3.544745e+003
2.900714e+002, 3.535736e+003
2.905535e+002, 3.528622e+003
2.910356e+002, 3.522385e+003
2.915177e+002, 3.518073e+003
2.919998e+002, 3.513588e+003
2.924819e+002, 3.507962e+003
2.929641e+002, 3.501760e+003
2.934462e+002, 3.496078e+003
2.939283e+002, 3.491595e+003
2.944104e+002, 3.488196e+003
2.948925e+002, 3.484899e+003
2.953746e+002, 3.481982e+003
2.958568e+002, 3.478840e+003
2.963389e+002, 3.474894e+003
2.968210e+002, 3.470769e+003
2.973031e+002, 3.467260e+003
2.977852e+002, 3.464727e+003
2.982673e+002, 3.463066e+003
2.987495e+002, 3.462027e+003
2.992316e+002, 3.463183e+003
2.997137e+002, 3.462871e+003
3.001958e+002, 3.459488e+003
3.006779e+002, 3.455255e+003
3.011600e+002, 3.452292e+003
3.016422e+002, 3.451304e+003
3.021243e+002, 3.451745e+003
3.026064e+002, 3.452764e+003
3.030885e+002, 3.455528e+003
3.035706e+002, 3.456675e+003
3.040527e+002, 3.455576e+003
3.045349e+002, 3.453442e+003
3.050170e+002, 3.450488e+003
3.054991e+002, 3.447091e+003
3.059812e+002, 3.444557e+003
3.064633e+002, 3.444757e+003
3.069454e+002, 3.449097e+003
3.074276e+002, 3.451250e+003
3.079097e+002, 3.450460e+003
3.083918e+002, 3.448573e+003
3.088739e+002, 3.445367e+003
3.093560e+002, 3.441671e+003
3.098381e+002, 3.439890e+003
3.103203e+002, 3.442550e+003
3.108024e+002, 3.450124e+003
3.112845e+002, 3.454521e+003
3.117666e+002, 3.454400e+003
3.122487e+002, 3.453026e+003
3.127308e+002, 3.450727e+003
3.132130e+002, 3.448048e+003
3.136951e+002, 3.445798e+003
3.141772e+002, 3.444480e+003
3.146593e+002, 3.444028e+003
3.151414e+002, 3.444090e+003
3.156235e+002, 3.444875e+003
3.161057e+002, 3.445897e+003
3.165878e+002, 3.447800e+003
3.170699e+002, 3.449667e+003
3.175520e+002, 3.450117e+003
3.180341e+002, 3.448515e+003
3.185162e+002, 3.445632e+003
3.189984e+002, 3.443467e+003
3.194805e+002, 3.442176e+003
3.199626e+002, 3.441530e+003
3.204447e+002, 3.441725e+003
3.209268e+002, 3.442448e+003
3.214089e+002, 3.443811e+003
3.218911e+002, 3.445714e+003
3.223732e+002, 3.447261e+003
3.228553e+002, 3.446938e+003
3.233374e+002, 3.443138e+003
3.238195e+002, 3.441574e+003
3.243016e+002, 3.444024e+003
3.247838e+002, 3.447009e+003
3.252659e+002, 3.448406e+003
3.257480e+002, 3.448083e+003
3.262301e+002, 3.447031e+003
3.267122e+002, 3.446063e+003
3.271943e+002, 3.445038e+003
3.276765e+002, 3.445258e+003
3.281586e+002, 3.447320e+003
3.286407e+002, 3.449785e+003
3.291228e+002, 3.452928e+003
3.296049e+002, 3.456043e+003
3.300870e+002, 3.457654e+003
3.305692e+002, 3.456597e+003
3.310513e+002, 3.453323e+003
3.315334e+002, 3.451382e+003
3.320155e+002, 3.450581e+003
3.324976e+002, 3.451482e+003
3.329797e+002, 3.456215e+003
3.334619e+002, 3.462101e+003
3.339440e+002, 3.465616e+003
3.344261e+002, 3.465194e+003
3.349082e+002, 3.462281e+003
3.353904e+002, 3.460310e+003
3.358725e+002, 3.460522e+003
3.363546e+002, 3.459821e+003
3.368367e+002, 3.456385e+003
3.373188e+002, 3.453161e+003
3.378009e+002, 3.453064e+003
3.382831e+002, 3.456458e+003
3.387652e+002, 3.460981e+003
3.392473e+002, 3.463321e+003
3.397294e+002, 3.462339e+003
3.402115e+002, 3.462768e+003
3.406936e+002, 3.465942e+003
3.411758e+002, 3.469124e+003
3.416579e+002, 3.470702e+003
3.421400e+002, 3.470949e+003
3.426221e+002, 3.471221e+003
3.431042e+002, 3.472702e+003
3.435863e+002, 3.475377e+003
3.440685e+002, 3.477855e+003
3.445506e+002, 3.480541e+003
3.450327e+002, 3.482507e+003
3.455148e+002, 3.482801e+003
3.459969e+002, 3.482345e+003
3.464790e+002, 3.482701e+003
3.469612e+002, 3.484807e+003
3.474433e+002, 3.487914e+003
3.479254e+002, 3.489559e+003
3.484075e+002, 3.488275e+003
3.488896e+002, 3.487889e+003
3.493717e+002, 3.489553e+003
3.498539e+002, 3.491892e+003
3.503360e+002, 3.493637e+003
3.508181e+002, 3.494423e+003
3.513002e+002, 3.494953e+003
3.517823e+002, 3.496149e+003
3.522644e+002, 3.497926e+003
3.527466e+002, 3.500713e+003
3.532287e+002, 3.506461e+003
3.537108e+002, 3.511664e+003
3.541929e+002, 3.513808e+003
3.546750e+002, 3.513357e+003
3.551571e+002, 3.513076e+003
3.556393e+002, 3.515973e+003
3.561214e+002, 3.522027e+003
3.566035e+002, 3.525336e+003
3.570856e+002, 3.523013e+003
3.575677e+002, 3.521311e+003
3.580498e+002, 3.522738e+003
3.585320e+002, 3.526246e+003
3.590141e+002, 3.529940e+003
3.594962e+002, 3.532766e+003
3.599783e+002, 3.535146e+003
3.604604e+002, 3.538181e+003
3.609425e+002, 3.542110e+003
3.614247e+002, 3.546155e+003
3.619068e+002, 3.550425e+003
3.623889e+002, 3.554494e+003
3.628710e+002, 3.557706e+003
3.633531e+002, 3.559845e+003
3.638352e+002, 3.561927e+003
3.643174e+002, 3.565130e+003
3.647995e+002, 3.569506e+003
3.652816e+002, 3.574514e+003
3.657637e+002, 3.580724e+003
3.662458e+002, 3.586966e+003
3.667279e+002, 3.592570e+003
3.672101e+002, 3.597521e+003
3.676922e+002, 3.602033e+003
3.681743e+002, 3.606211e+003
3.686564e+002, 3.610074e+003
3.691385e+002, 3.613495e+003
3.696206e+002, 3.616030e+003
3.701028e+002, 3.619071e+003
3.705849e+002, 3.623796e+003
3.710670e+002, 3.629524e+003
3.715491e+002, 3.634986e+003
3.720312e+002, 3.639474e+003
3.725133e+002, 3.643809e+003
3.729955e+002, 3.649650e+003
3.734776e+002, 3.657241e+003
3.739597e+002, 3.663767e+003
3.744418e+002, 3.667375e+003
3.749239e+002, 3.669640e+003
3.754060e+002, 3.672435e+003
3.758882e+002, 3.675896e+003
3.763703e+002, 3.679911e+003
3.768524e+002, 3.685271e+003
3.773345e+002, 3.691344e+003
3.778166e+002, 3.695344e+003
3.782987e+002, 3.695997e+003
3.787809e+002, 3.695580e+003
3.792630e+002, 3.697066e+003
3.797451e+002, 3.700157e+003
3.802272e+002, 3.701819e+003
3.807093e+002, 3.699681e+003
3.811914e+002, 3.696207e+003
3.816736e+002, 3.695046e+003
3.821557e+002, 3.696578e+003
3.826378e+002, 3.697888e+003
3.831199e+002, 3.696747e+003
3.836020e+002, 3.693589e+003
3.840841e+002, 3.690866e+003
3.845663e+002, 3.688406e+003
3.850484e+002, 3.686603e+003
3.855305e+002, 3.686985e+003
3.860126e+002, 3.688427e+003
3.864947e+002, 3.686867e+003
3.869768e+002, 3.679934e+003
3.874590e+002, 3.670531e+003
3.879411e+002, 3.665068e+003
3.884232e+002, 3.664561e+003
3.889053e+002, 3.663961e+003
3.893874e+002, 3.662250e+003
3.898695e+002, 3.659933e+003
3.903517e+002, 3.657433e+003
3.908338e+002, 3.654845e+003
3.913159e+002, 3.652432e+003
3.917980e+002, 3.650464e+003
3.922801e+002, 3.649004e+003
3.927622e+002, 3.647603e+003
3.932444e+002, 3.646436e+003
3.937265e+002, 3.645164e+003
3.942086e+002, 3.644020e+003
3.946907e+002, 3.642664e+003
3.951728e+002, 3.639988e+003
3.956549e+002, 3.635176e+003
3.961371e+002, 3.629057e+003
3.966192e+002, 3.625117e+003
3.971013e+002, 3.624091e+003
3.975834e+002, 3.624465e+003
3.980655e+002, 3.627952e+003
3.985476e+002, 3.631881e+003
3.990298e+002, 3.633224e+003
3.995119e+002, 3.631333e+003
3.999940e+002, 3.628289e+003
4.004761e+002, 3.626913e+003
4.009582e+002, 3.627779e+003
4.014403e+002, 3.628333e+003
4.019225e+002, 3.628511e+003
4.024046e+002, 3.628485e+003
4.028867e+002, 3.628200e+003
4.033688e+002, 3.627764e+003
4.038509e+002, 3.627289e+003
4.043330e+002, 3.626739e+003
4.048152e+002, 3.626312e+003
4.052973e+002, 3.627234e+003
4.057794e+002, 3.630738e+003
4.062615e+002, 3.633762e+003
4.067436e+002, 3.636175e+003
4.072257e+002, 3.637667e+003
4.077079e+002, 3.637578e+003
4.081900e+002, 3.635763e+003
4.086721e+002, 3.633472e+003
4.091542e+002, 3.632448e+003
4.096363e+002, 3.632896e+003
4.101184e+002, 3.633406e+003
4.106006e+002, 3.633433e+003
4.110827e+002, 3.633917e+003
4.115648e+002, 3.635586e+003
4.120469e+002, 3.638204e+003
4.125290e+002, 3.640912e+003
4.130111e+002, 3.643578e+003
4.134933e+002, 3.645865e+003
4.139754e+002, 3.646265e+003
4.144575e+002, 3.643846e+003
4.149396e+002, 3.642073e+003
4.154217e+002, 3.642809e+003
4.159038e+002, 3.645062e+003
4.163860e+002, 3.648059e+003
4.168681e+002, 3.651918e+003
4.173502e+002, 3.655558e+003
4.178323e+002, 3.657371e+003
4.183144e+002, 3.657668e+003
4.187965e+002, 3.659369e+003
4.192787e+002, 3.664121e+003
4.197608e+002, 3.669138e+003
4.202429e+002, 3.670944e+003
4.207250e+002, 3.669823e+003
4.212071e+002, 3.669163e+003
4.216892e+002, 3.670370e+003
4.221714e+002, 3.672569e+003
4.226535e+002, 3.674823e+003
4.231356e+002, 3.677059e+003
4.236177e+002, 3.678833e+003
4.240998e+002, 3.679641e+003
4.245819e+002, 3.679763e+003
4.250641e+002, 3.680454e+003
4.255462e+002, 3.681866e+003
4.260283e+002, 3.683656e+003
4.265104e+002, 3.686018e+003
4.269925e+002, 3.688631e+003
4.274746e+002, 3.690948e+003
4.279568e+002, 3.692830e+003
4.284389e+002, 3.694162e+003
4.289210e+002, 3.694731e+003
4.294031e+002, 3.694250e+003
4.298852e+002, 3.693760e+003
4.303673e+002, 3.691993e+003
4.308495e+002, 3.691237e+003
4.313316e+002, 3.693857e+003
4.318137e+002, 3.699223e+003
4.322958e+002, 3.704464e+003
4.327779e+002, 3.707476e+003
4.332600e+002, 3.708571e+003
4.337422e+002, 3.710288e+003
4.342243e+002, 3.713950e+003
4.347064e+002, 3.716618e+003
4.351885e+002, 3.716508e+003
4.356706e+002, 3.715856e+003
4.361527e+002, 3.717105e+003
4.366349e+002, 3.720953e+003
4.371170e+002, 3.726307e+003
4.375991e+002, 3.731931e+003
4.380812e+002, 3.738266e+003
4.385633e+002, 3.743165e+003
4.390454e+002, 3.745500e+003
4.395276e+002, 3.747386e+003
4.400097e+002, 3.749682e+003
4.404918e+002, 3.752180e+003
4.409739e+002, 3.754128e+003
4.414560e+002, 3.754744e+003
4.419381e+002, 3.754903e+003
4.424203e+002, 3.757459e+003
4.429024e+002, 3.763463e+003
4.433845e+002, 3.769092e+003
4.438666e+002, 3.772846e+003
4.443487e+002, 3.775985e+003
4.448308e+002, 3.779393e+003
4.453130e+002, 3.783225e+003
4.457951e+002, 3.787504e+003
4.462772e+002, 3.792709e+003
4.467593e+002, 3.798537e+003
4.472414e+002, 3.803218e+003
4.477235e+002, 3.806185e+003
4.482057e+002, 3.808734e+003
4.486878e+002, 3.811323e+003
4.491699e+002, 3.814227e+003
4.496520e+002, 3.818260e+003
4.501341e+002, 3.824047e+003
4.506162e+002, 3.830651e+003
4.510984e+002, 3.837152e+003
4.515805e+002, 3.843645e+003
4.520626e+002, 3.850892e+003
4.525447e+002, 3.859483e+003
4.530268e+002, 3.868577e+003
4.535089e+002, 3.876291e+003
4.539911e+002, 3.882224e+003
4.544732e+002, 3.888940e+003
4.549553e+002, 3.897312e+003
4.554374e+002, 3.906556e+003
4.559195e+002, 3.915887e+003
4.564016e+002, 3.925249e+003
4.568838e+002, 3.934883e+003
4.573659e+002, 3.945089e+003
4.578480e+002, 3.955810e+003
4.583301e+002, 3.966423e+003
4.588122e+002, 3.976412e+003
4.592943e+002, 3.986967e+003
4.597765e+002, 3.999293e+003
4.602586e+002, 4.012070e+003
4.607407e+002, 4.023205e+003
4.612228e+002, 4.032080e+003
4.617049e+002, 4.040551e+003
4.621870e+002, 4.051623e+003
4.626692e+002, 4.066485e+003
4.631513e+002, 4.080158e+003
4.636334e+002, 4.090301e+003
4.641155e+002, 4.101570e+003
4.645976e+002, 4.116838e+003
4.650797e+002, 4.134833e+003
4.655619e+002, 4.152665e+003
4.660440e+002, 4.168432e+003
4.665261e+002, 4.183057e+003
4.670082e+002, 4.198662e+003
4.674903e+002, 4.215064e+003
4.679724e+002, 4.233112e+003
4.684546e+002, 4.255346e+003
4.689367e+002, 4.277679e+003
4.694188e+002, 4.296166e+003
4.699009e+002, 4.310847e+003
4.703830e+002, 4.326290e+003
4.708651e+002, 4.347681e+003
4.713473e+002, 4.372838e+003
4.718294e+002, 4.393690e+003
4.723115e+002, 4.409075e+003
4.727936e+002, 4.422238e+003
4.732757e+002, 4.434775e+003
4.737578e+002, 4.446418e+003
4.742400e+002, 4.456800e+003
4.747221e+002, 4.467355e+003
4.752042e+002, 4.474185e+003
4.756863e+002, 4.473182e+003
4.761684e+002, 4.466234e+003
4.766505e+002, 4.459274e+003
4.771327e+002, 4.454397e+003
4.776148e+002, 4.448188e+003
4.780969e+002, 4.435993e+003
4.785790e+002, 4.417162e+003
4.790611e+002, 4.396459e+003
4.795432e+002, 4.373610e+003
4.800254e+002, 4.349540e+003
4.805075e+002, 4.324598e+003
4.809896e+002, 4.298838e+003
4.814717e+002, 4.272021e+003
4.819538e+002, 4.243797e+003
4.824359e+002, 4.215276e+003
4.829181e+002, 4.189715e+003
4.834002e+002, 4.169591e+003
4.838823e+002, 4.148786e+003
4.843644e+002, 4.125946e+003
4.848465e+002, 4.103391e+003
4.853286e+002, 4.082649e+003
4.858108e+002, 4.063873e+003
4.862929e+002, 4.046454e+003
4.867750e+002, 4.029794e+003
4.872571e+002, 4.014039e+003
4.877392e+002, 4.000031e+003
4.882213e+002, 3.988029e+003
4.887035e+002, 3.977458e+003
4.891856e+002, 3.968987e+003
4.896677e+002, 3.961155e+003
4.901498e+002, 3.951913e+003
4.906319e+002, 3.940739e+003
4.911140e+002, 3.930435e+003
4.915962e+002, 3.924950e+003
4.920783e+002, 3.923489e+003
4.925604e+002, 3.919416e+003
4.930425e+002, 3.910959e+003
4.935246e+002, 3.902013e+003
4.940067e+002, 3.895135e+003
4.944889e+002, 3.889898e+003
4.949710e+002, 3.885573e+003
4.954531e+002, 3.882536e+003
4.959352e+002, 3.879765e+003
4.964173e+002, 3.876006e+003
4.968994e+002, 3.871739e+003
4.973816e+002, 3.868983e+003
4.978637e+002, 3.868775e+003
4.983458e+002, 3.869183e+003
4.988279e+002, 3.867098e+003
4.993100e+002, 3.861654e+003
4.997921e+002, 3.858186e+003
5.002743e+002, 3.858253e+003
5.007564e+002, 3.859328e+003
5.012385e+002, 3.860144e+003
5.017206e+002, 3.860548e+003
5.022027e+002, 3.860583e+003
5.026848e+002, 3.860276e+003
5.031670e+002, 3.859586e+003
5.036491e+002, 3.858315e+003
5.041312e+002, 3.855357e+003
5.046133e+002, 3.853657e+003
5.050954e+002, 3.853695e+003
5.055775e+002, 3.854573e+003
5.060597e+002, 3.855952e+003
5.065418e+002, 3.857639e+003
5.070239e+002, 3.859351e+003
5.075060e+002, 3.860935e+003
5.079881e+002, 3.862342e+003
5.084702e+002, 3.863333e+003
5.089524e+002, 3.863925e+003
5.094345e+002, 3.864065e+003
5.099166e+002, 3.862333e+003
5.103987e+002, 3.860965e+003
5.108808e+002, 3.862587e+003
5.113629e+002, 3.867625e+003
5.118451e+002, 3.872699e+003
5.123271e+002, 3.875180e+003
5.128093e+002, 3.875762e+003
5.132914e+002, 3.876411e+003
5.137735e+002, 3.877398e+003
5.142556e+002, 3.877879e+003
5.147377e+002, 3.876310e+003
5.152198e+002, 3.873888e+003
5.157020e+002, 3.874571e+003
5.161841e+002, 3.880410e+003
5.166662e+002, 3.886514e+003
5.171483e+002, 3.891032e+003
5.176304e+002, 3.894309e+003
5.181125e+002, 3.896788e+003
5.185947e+002, 3.898591e+003
5.190768e+002, 3.899913e+003
5.195589e+002, 3.900783e+003
5.200410e+002, 3.900991e+003
5.205231e+002, 3.902841e+003
5.210052e+002, 3.907987e+003
5.214874e+002, 3.912649e+003
5.219695e+002, 3.915435e+003
5.224516e+002, 3.917099e+003
5.229337e+002, 3.918733e+003
5.234158e+002, 3.920762e+003
5.238979e+002, 3.922862e+003
5.243801e+002, 3.924479e+003
5.248622e+002, 3.925459e+003
5.253443e+002, 3.926843e+003
5.258264e+002, 3.929390e+003
5.263085e+002, 3.931555e+003
5.267906e+002, 3.932164e+003
5.272728e+002, 3.932005e+003
5.277549e+002, 3.932495e+003
5.282370e+002, 3.934062e+003
5.287191e+002, 3.936809e+003
5.292012e+002, 3.941726e+003
5.296833e+002, 3.948559e+003
5.301655e+002, 3.953392e+003
5.306476e+002, 3.954424e+003
5.311297e+002, 3.954488e+003
5.316118e+002, 3.957167e+003
5.320939e+002, 3.962019e+003
5.325760e+002, 3.965708e+003
5.330582e+002, 3.966597e+003
5.335403e+002, 3.966942e+003
5.340224e+002, 3.968190e+003
5.345045e+002, 3.970331e+003
5.349866e+002, 3.973170e+003
5.354688e+002, 3.976640e+003
5.359509e+002, 3.980654e+003
5.364330e+002, 3.985054e+003
5.369151e+002, 3.989944e+003
5.373972e+002, 3.995055e+003
5.378793e+002, 4.000996e+003
5.383615e+002, 4.006623e+003
5.388436e+002, 4.010830e+003
5.393257e+002, 4.014211e+003
5.398078e+002, 4.018146e+003
5.402899e+002, 4.023403e+003
5.407720e+002, 4.029608e+003
5.412542e+002, 4.036146e+003
5.417363e+002, 4.043292e+003
5.422184e+002, 4.049676e+003
5.427005e+002, 4.054348e+003
5.431826e+002, 4.058748e+003
5.436647e+002, 4.063980e+003
5.441469e+002, 4.069727e+003
5.446290e+002, 4.074716e+003
5.451111e+002, 4.077458e+003
5.455932e+002, 4.079689e+003
5.460753e+002, 4.085124e+003
5.465574e+002, 4.093550e+003
5.470396e+002, 4.098981e+003
5.475217e+002, 4.098176e+003
5.480038e+002, 4.094652e+003
5.484859e+002, 4.094577e+003
5.489680e+002, 4.098591e+003
5.494501e+002, 4.099534e+003
5.499323e+002, 4.093847e+003
5.504144e+002, 4.086488e+003
5.508965e+002, 4.081737e+003
5.513786e+002, 4.078908e+003
5.518607e+002, 4.074510e+003
5.523428e+002, 4.066533e+003
5.528250e+002, 4.056594e+003
5.533071e+002, 4.048762e+003
5.537892e+002, 4.044586e+003
5.542713e+002, 4.039714e+003
5.547534e+002, 4.033094e+003
5.552355e+002, 4.026817e+003
5.557177e+002, 4.022489e+003
5.561998e+002, 4.019554e+003
5.566819e+002, 4.016307e+003
5.571640e+002, 4.011717e+003
5.576461e+002, 4.006303e+003
5.581282e+002, 4.000792e+003
5.586104e+002, 3.994843e+003
5.590925e+002, 3.991032e+003
5.595746e+002, 3.991585e+003
5.600567e+002, 3.992918e+003
5.605388e+002, 3.991523e+003
5.610209e+002, 3.987789e+003
5.615031e+002, 3.984594e+003
5.619852e+002, 3.982932e+003
5.624673e+002, 3.982360e+003
5.629494e+002, 3.982797e+003
5.634315e+002, 3.984024e+003
5.639136e+002, 3.985146e+003
5.643958e+002, 3.985822e+003
5.648779e+002, 3.986090e+003
5.653600e+002, 3.985997e+003
5.658421e+002, 3.985436e+003
5.663242e+002, 3.984728e+003
5.668063e+002, 3.982474e+003
5.672885e+002, 3.981374e+003
5.677706e+002, 3.984510e+003
5.682527e+002, 3.989798e+003
5.687348e+002, 3.992608e+003
5.692169e+002, 3.990637e+003
5.696990e+002, 3.986133e+003
5.701812e+002, 3.983268e+003
5.706633e+002, 3.982206e+003
5.711454e+002, 3.982253e+003
5.716275e+002, 3.984933e+003
5.721096e+002, 3.987103e+003
5.725917e+002, 3.986478e+003
5.730739e+002, 3.984200e+003
5.735560e+002, 3.983063e+003
5.740381e+002, 3.984626e+003
5.745202e+002, 3.986862e+003
5.750023e+002, 3.987332e+003
5.754844e+002, 3.986372e+003
5.759666e+002, 3.985846e+003
5.764487e+002, 3.986277e+003
5.769308e+002, 3.986982e+003
5.774129e+002, 3.986794e+003
5.778950e+002, 3.985743e+003
5.783771e+002, 3.987171e+003
5.788593e+002, 3.995137e+003
5.793414e+002, 4.001281e+003
5.798235e+002, 3.999983e+003
5.803056e+002, 3.994927e+003
5.807877e+002, 3.992156e+003
5.812698e+002, 3.993482e+003
5.817520e+002, 3.996496e+003
5.822341e+002, 3.998305e+003
5.827162e+002, 3.998871e+003
5.831984e+002, 3.998627e+003
5.836805e+002, 3.996133e+003
5.841626e+002, 3.994650e+003
5.846447e+002, 3.996138e+003
5.851268e+002, 3.998615e+003
5.856089e+002, 3.999081e+003
5.860911e+002, 3.996698e+003
5.865732e+002, 3.995106e+003
5.870553e+002, 3.999254e+003
5.875374e+002, 4.007183e+003
5.880195e+002, 4.010888e+003
5.885016e+002, 4.009156e+003
5.889838e+002, 4.006124e+003
5.894659e+002, 4.003708e+003
5.899480e+002, 4.002128e+003
5.904301e+002, 4.001760e+003
5.909122e+002, 4.002713e+003
5.913943e+002, 4.004642e+003
5.918765e+002, 4.009192e+003
5.923586e+002, 4.013643e+003
5.928407e+002, 4.014159e+003
5.933228e+002, 4.011032e+003
5.938049e+002, 4.008363e+003
5.942870e+002, 4.009289e+003
5.947692e+002, 4.012957e+003
5.952513e+002, 4.015392e+003
5.957334e+002, 4.016191e+003
5.962155e+002, 4.016387e+003
5.966976e+002, 4.015340e+003
5.971797e+002, 4.014403e+003
5.976619e+002, 4.014668e+003
5.981440e+002, 4.015951e+003
5.986261e+002, 4.017059e+003
5.991082e+002, 4.016498e+003
5.995903e+002, 4.016014e+003
6.000724e+002, 4.019643e+003
6.005546e+002, 4.027389e+003
6.010367e+002, 4.033813e+003
6.015188e+002, 4.036903e+003
6.020009e+002, 4.038390e+003
6.024830e+002, 4.040270e+003
6.029651e+002, 4.042510e+003
6.034473e+002, 4.044720e+003
6.039294e+002, 4.047447e+003
6.044115e+002, 4.049521e+003
6.048936e+002, 4.049863e+003
6.053757e+002, 4.049078e+003
6.058578e+002, 4.048448e+003
6.063400e+002, 4.048451e+003
6.068221e+002, 4.048475e+003
6.073042e+002, 4.047406e+003
6.077863e+002, 4.044797e+003
6.082684e+002, 4.044272e+003
6.087505e+002, 4.048331e+003
6.092327e+002, 4.051667e+003
6.097148e+002, 4.051554e+003
6.101969e+002, 4.050436e+003
6.106790e+002, 4.051859e+003
6.111611e+002, 4.056863e+003
6.116432e+002, 4.061949e+003
6.121254e+002, 4.063316e+003
6.126075e+002, 4.062311e+003
6.130896e+002, 4.063415e+003
6.135717e+002, 4.067214e+003
6.140538e+002, 4.071068e+003
6.145359e+002, 4.073259e+003
6.150181e+002, 4.074391e+003
6.155002e+002, 4.076297e+003
6.159823e+002, 4.079433e+003
6.164644e+002, 4.082136e+003
6.169465e+002, 4.084149e+003
6.174286e+002, 4.085493e+003
6.179108e+002, 4.085230e+003
6.183929e+002, 4.084164e+003
6.188750e+002, 4.085077e+003
6.193571e+002, 4.089915e+003
6.198392e+002, 4.096858e+003
6.203214e+002, 4.100688e+003
6.208035e+002, 4.099688e+003
6.212856e+002, 4.100940e+003
6.217677e+002, 4.107990e+003
6.222498e+002, 4.114830e+003
6.227319e+002, 4.117918e+003
6.232141e+002, 4.118333e+003
6.236962e+002, 4.118984e+003
6.241783e+002, 4.120772e+003
6.246604e+002, 4.123526e+003
6.251425e+002, 4.127425e+003
6.256246e+002, 4.132202e+003
6.261068e+002, 4.136922e+003
6.265889e+002, 4.141392e+003
6.270710e+002, 4.145812e+003
6.275531e+002, 4.150381e+003
6.280352e+002, 4.155066e+003
6.285173e+002, 4.159472e+003
6.289995e+002, 4.163156e+003
6.294816e+002, 4.167107e+003
6.299637e+002, 4.171529e+003
6.304458e+002, 4.176274e+003
6.309279e+002, 4.181560e+003
6.314100e+002, 4.187144e+003
6.318922e+002, 4.192082e+003
6.323743e+002, 4.195546e+003
6.328564e+002, 4.197777e+003
6.333385e+002, 4.199603e+003
6.338206e+002, 4.200891e+003
6.343027e+002, 4.202321e+003
6.347849e+002, 4.205548e+003
6.352670e+002, 4.207485e+003
6.357491e+002, 4.204155e+003
6.362312e+002, 4.196174e+003
6.367133e+002, 4.190207e+003
6.371954e+002, 4.190664e+003
6.376776e+002, 4.191784e+003
6.381597e+002, 4.188745e+003
6.386418e+002, 4.182736e+003
6.391239e+002, 4.176516e+003
6.396060e+002, 4.171036e+003
6.400881e+002, 4.166670e+003
6.405703e+002, 4.164248e+003
6.410524e+002, 4.164143e+003
6.415345e+002, 4.161985e+003
6.420166e+002, 4.155592e+003
6.424987e+002, 4.149753e+003
6.429808e+002, 4.145337e+003
6.434630e+002, 4.142011e+003
6.439451e+002, 4.139483e+003
6.444272e+002, 4.137676e+003
6.449093e+002, 4.136355e+003
6.453914e+002, 4.135753e+003
6.458735e+002, 4.135406e+003
6.463557e+002, 4.133901e+003
6.468378e+002, 4.131149e+003
6.473199e+002, 4.128895e+003
6.478020e+002, 4.127658e+003
6.482841e+002, 4.127538e+003
6.487662e+002, 4.129177e+003
6.492484e+002, 4.133163e+003
6.497305e+002, 4.135454e+003
6.502126e+002, 4.133937e+003
6.506947e+002, 4.132413e+003
6.511768e+002, 4.133809e+003
6.516589e+002, 4.136446e+003
6.521411e+002, 4.136810e+003
6.526232e+002, 4.133799e+003
6.531053e+002, 4.130152e+003
6.535874e+002, 4.129690e+003
6.540695e+002, 4.132454e+003
6.545516e+002, 4.133902e+003
6.550338e+002, 4.133049e+003
6.555159e+002, 4.132827e+003
6.559980e+002, 4.136463e+003
6.564801e+002, 4.140400e+003
6.569622e+002, 4.140092e+003
6.574443e+002, 4.134706e+003
6.579265e+002, 4.129654e+003
6.584086e+002, 4.127314e+003
6.588907e+002, 4.126543e+003
6.593728e+002, 4.126342e+003
6.598549e+002, 4.126593e+003
6.603370e+002, 4.127382e+003
6.608192e+002, 4.128802e+003
6.613013e+002, 4.130208e+003
6.617834e+002, 4.130284e+003
6.622655e+002, 4.128260e+003
6.627476e+002, 4.127809e+003
6.632297e+002, 4.129644e+003
6.637119e+002, 4.132335e+003
6.641940e+002, 4.136609e+003
6.646761e+002, 4.141029e+003
6.651582e+002, 4.143509e+003
6.656403e+002, 4.143512e+003
6.661224e+002, 4.142979e+003
6.666046e+002, 4.143984e+003
6.670867e+002, 4.145572e+003
6.675688e+002, 4.144979e+003
6.680509e+002, 4.142051e+003
6.685330e+002, 4.139903e+003
6.690151e+002, 4.140452e+003
6.694973e+002, 4.142125e+003
6.699794e+002, 4.141528e+003
6.704615e+002, 4.136875e+003
6.709436e+002, 4.134935e+003
6.714257e+002, 4.137541e+003
6.719078e+002, 4.141099e+003
6.723900e+002, 4.144471e+003
6.728721e+002, 4.147272e+003
6.733542e+002, 4.148934e+003
6.738363e+002, 4.149289e+003
6.743184e+002, 4.149383e+003
6.748005e+002, 4.150695e+003
6.752827e+002, 4.153024e+003
6.757648e+002, 4.154347e+003
6.762469e+002, 4.154348e+003
6.767290e+002, 4.154261e+003
6.772111e+002, 4.154897e+003
6.776932e+002, 4.155643e+003
6.781754e+002, 4.155393e+003
6.786575e+002, 4.153987e+003
6.791396e+002, 4.152604e+003
6.796217e+002, 4.151375e+003
6.801038e+002, 4.150420e+003
6.805859e+002, 4.149452e+003
6.810681e+002, 4.148904e+003
6.815502e+002, 4.150032e+003
6.820323e+002, 4.153268e+003
6.825144e+002, 4.157077e+003
6.829965e+002, 4.159030e+003
6.834786e+002, 4.158959e+003
6.839608e+002, 4.160139e+003
6.844429e+002, 4.164001e+003
6.849250e+002, 4.166487e+003
6.854071e+002, 4.163447e+003
6.858892e+002, 4.159516e+003
6.863713e+002, 4.160217e+003
6.868535e+002, 4.166265e+003
6.873356e+002, 4.172173e+003
6.878177e+002, 4.175333e+003
6.882998e+002, 4.177346e+003
6.887819e+002, 4.180028e+003
6.892640e+002, 4.183021e+003
6.897462e+002, 4.184718e+003
6.902283e+002, 4.184486e+003
6.907104e+002, 4.183568e+003
6.911925e+002, 4.183660e+003
6.916746e+002, 4.184795e+003
6.921567e+002, 4.186813e+003
6.926389e+002, 4.191482e+003
6.931210e+002, 4.194635e+003
6.936031e+002, 4.194813e+003
6.940852e+002, 4.193351e+003
6.945673e+002, 4.191030e+003
6.950494e+002, 4.188138e+003
6.955316e+002, 4.186226e+003
6.960137e+002, 4.186345e+003
6.964958e+002, 4.187875e+003
6.969779e+002, 4.190740e+003
6.974600e+002, 4.194463e+003
6.979421e+002, 4.196923e+003
6.984243e+002, 4.197324e+003
6.989064e+002, 4.196641e+003
6.993885e+002, 4.195964e+003
6.998706e+002, 4.195264e+003
7.003527e+002, 4.195042e+003
7.008348e+002, 4.195495e+003
7.013170e+002, 4.196224e+003
7.017991e+002, 4.196809e+003
7.022812e+002, 4.197882e+003
7.027633e+002, 4.200612e+003
7.032454e+002, 4.204722e+003
7.037275e+002, 4.207987e+003
7.042097e+002, 4.208588e+003
7.046918e+002, 4.207909e+003
7.051739e+002, 4.208236e+003
7.056560e+002, 4.209320e+003
7.061381e+002, 4.209218e+003
7.066202e+002, 4.207090e+003
7.071024e+002, 4.205325e+003
7.075845e+002, 4.206581e+003
7.080666e+002, 4.210784e+003
7.085487e+002, 4.213933e+003
7.090308e+002, 4.214937e+003
7.095129e+002, 4.216338e+003
7.099951e+002, 4.218554e+003
7.104772e+002, 4.221249e+003
7.109593e+002, 4.224100e+003
7.114414e+002, 4.227128e+003
7.119235e+002, 4.230894e+003
7.124056e+002, 4.236692e+003
7.128878e+002, 4.241567e+003
7.133699e+002, 4.238991e+003
7.138520e+002, 4.230399e+003
7.143341e+002, 4.226545e+003
7.148162e+002, 4.230025e+003
7.152983e+002, 4.235679e+003
7.157805e+002, 4.240198e+003
7.162626e+002, 4.243369e+003
7.167447e+002, 4.243834e+003
7.172268e+002, 4.238202e+003
7.177089e+002, 4.234966e+003
7.181910e+002, 4.237399e+003
7.186732e+002, 4.240233e+003
7.191553e+002, 4.238422e+003
7.196374e+002, 4.233917e+003
7.201195e+002, 4.232677e+003
7.206016e+002, 4.237947e+003
7.210837e+002, 4.244886e+003
7.215659e+002, 4.246545e+003
7.220480e+002, 4.243965e+003
7.225301e+002, 4.243037e+003
7.230122e+002, 4.244552e+003
7.234943e+002, 4.246307e+003
7.239764e+002, 4.246835e+003
7.244586e+002, 4.246810e+003
7.249407e+002, 4.248015e+003
7.254228e+002, 4.250881e+003
7.259049e+002, 4.253834e+003
7.263870e+002, 4.257083e+003
7.268691e+002, 4.260086e+003
7.273513e+002, 4.262605e+003
7.278334e+002, 4.264649e+003
7.283155e+002, 4.266436e+003
7.287976e+002, 4.268003e+003
7.292797e+002, 4.268663e+003
7.297618e+002, 4.266671e+003
7.302440e+002, 4.263167e+003
7.307261e+002, 4.262695e+003
7.312082e+002, 4.265578e+003
7.316903e+002, 4.268150e+003
7.321724e+002, 4.268367e+003
7.326545e+002, 4.268564e+003
7.331367e+002, 4.272870e+003
7.336188e+002, 4.282730e+003
7.341009e+002, 4.288158e+003
7.345830e+002, 4.285307e+003
7.350651e+002, 4.282691e+003
7.355472e+002, 4.283864e+003
7.360294e+002, 4.286439e+003
7.365115e+002, 4.287225e+003
7.369936e+002, 4.286015e+003
7.374757e+002, 4.285365e+003
7.379578e+002, 4.287515e+003
7.384399e+002, 4.291119e+003
7.389221e+002, 4.293237e+003
7.394042e+002, 4.294006e+003
7.398863e+002, 4.295914e+003
7.403684e+002, 4.299908e+003
7.408505e+002, 4.303834e+003
7.413326e+002, 4.305638e+003
7.418148e+002, 4.305479e+003
7.422969e+002, 4.305211e+003
7.427790e+002, 4.305275e+003
7.432611e+002, 4.304633e+003
7.437432e+002, 4.301182e+003
7.442253e+002, 4.298663e+003
7.447075e+002, 4.301091e+003
7.451896e+002, 4.306855e+003
7.456717e+002, 4.311080e+003
7.461538e+002, 4.311310e+003
7.466359e+002, 4.309912e+003
7.471180e+002, 4.309354e+003
7.476002e+002, 4.309545e+003
7.480823e+002, 4.310234e+003
7.485644e+002, 4.311418e+003
7.490465e+002, 4.312634e+003
7.495286e+002, 4.313515e+003
7.500107e+002, 4.314424e+003
7.504929e+002, 4.316312e+003
7.509750e+002, 4.320111e+003
7.514571e+002, 4.322575e+003
7.519392e+002, 4.322204e+003
7.524213e+002, 4.322266e+003
7.529034e+002, 4.324987e+003
7.533856e+002, 4.328496e+003
7.538677e+002, 4.329554e+003
7.543498e+002, 4.327607e+003
7.548319e+002, 4.326693e+003
7.553140e+002, 4.331403e+003
7.557961e+002, 4.338218e+003
7.562783e+002, 4.340714e+003
7.567604e+002, 4.339604e+003
7.572425e+002, 4.339592e+003
7.577246e+002, 4.342251e+003
7.582067e+002, 4.346288e+003
7.586888e+002, 4.350442e+003
7.591710e+002, 4.354703e+003
7.596531e+002, 4.357206e+003
7.601352e+002, 4.356006e+003
7.606173e+002, 4.355965e+003
7.610994e+002, 4.359468e+003
7.615815e+002, 4.362869e+003
7.620637e+002, 4.362583e+003
7.625458e+002, 4.359679e+003
7.630279e+002, 4.358720e+003
7.635100e+002, 4.362950e+003
7.639921e+002, 4.366917e+003
7.644742e+002, 4.364832e+003
7.649564e+002, 4.359829e+003
7.654385e+002, 4.357587e+003
7.659206e+002, 4.358715e+003
7.664027e+002, 4.361281e+003
7.668848e+002, 4.364154e+003
7.673669e+002, 4.367264e+003
7.678491e+002, 4.370712e+003
7.683312e+002, 4.375244e+003
7.688133e+002, 4.377317e+003
7.692954e+002, 4.375770e+003
7.697775e+002, 4.373273e+003
7.702596e+002, 4.368792e+003
7.707418e+002, 4.365103e+003
7.712239e+002, 4.366992e+003
7.717060e+002, 4.375614e+003
7.721881e+002, 4.382429e+003
7.726702e+002, 4.382794e+003
7.731523e+002, 4.381368e+003
7.736345e+002, 4.381716e+003
7.741166e+002, 4.383216e+003
7.745987e+002, 4.383807e+003
7.750808e+002, 4.383121e+003
7.755629e+002, 4.383510e+003
7.760450e+002, 4.387917e+003
7.765272e+002, 4.395071e+003
7.770093e+002, 4.398412e+003
7.774914e+002, 4.397069e+003
7.779735e+002, 4.396840e+003
7.784556e+002, 4.399818e+003
7.789377e+002, 4.403125e+003
7.794199e+002, 4.404099e+003
7.799020e+002, 4.403180e+003
7.803841e+002, 4.402632e+003
7.808662e+002, 4.403042e+003
7.813483e+002, 4.403050e+003
7.818304e+002, 4.400727e+003
7.823126e+002, 4.399157e+003
7.827947e+002, 4.401905e+003
7.832768e+002, 4.407502e+003
7.837589e+002, 4.411805e+003
7.842410e+002, 4.412926e+003
7.847231e+002, 4.412822e+003
7.852053e+002, 4.413819e+003
7.856874e+002, 4.415601e+003
7.861695e+002, 4.416844e+003
7.866516e+002, 4.417452e+003
7.871337e+002, 4.418428e+003
7.876158e+002, 4.420465e+003
7.880980e+002, 4.422500e+003
7.885801e+002, 4.422727e+003
7.890622e+002, 4.420702e+003
7.895443e+002, 4.419895e+003
7.900264e+002, 4.420289e+003
7.905085e+002, 4.421929e+003
7.909907e+002, 4.426674e+003
7.914728e+002, 4.431373e+003
7.919549e+002, 4.432286e+003
7.924370e+002, 4.430049e+003
7.929191e+002, 4.429170e+003
7.934012e+002, 4.432784e+003
7.938834e+002, 4.437122e+003
7.943655e+002, 4.438104e+003
7.948476e+002, 4.437122e+003
7.953297e+002, 4.437294e+003
7.958118e+002, 4.438930e+003
7.962939e+002, 4.440078e+003
7.967761e+002, 4.439291e+003
7.972582e+002, 4.437898e+003
7.977403e+002, 4.439537e+003
7.982224e+002, 4.445437e+003
7.987045e+002, 4.449035e+003
7.991866e+002, 4.448833e+003
7.996688e+002, 4.448513e+003
8.001509e+002, 4.449626e+003
8.006330e+002, 4.451669e+003
8.011151e+002, 4.454021e+003
8.015972e+002, 4.456630e+003
8.020793e+002, 4.460224e+003
8.025615e+002, 4.467006e+003
8.030436e+002, 4.472820e+003
8.035257e+002, 4.474068e+003
8.040078e+002, 4.473165e+003
8.044899e+002, 4.474210e+003
8.049720e+002, 4.477549e+003
8.054542e+002, 4.479794e+003
8.059363e+002, 4.477946e+003
8.064184e+002, 4.473868e+003
8.069005e+002, 4.471501e+003
8.073826e+002, 4.470788e+003
8.078647e+002, 4.471108e+003
8.083469e+002, 4.472546e+003
8.088290e+002, 4.473985e+003
8.093111e+002, 4.474534e+003
8.097932e+002, 4.474564e+003
8.102753e+002, 4.475238e+003
8.107574e+002, 4.476833e+003
8.112396e+002, 4.478528e+003
8.117217e+002, 4.479074e+003
8.122038e+002, 4.481130e+003
8.126859e+002, 4.487877e+003
8.131680e+002, 4.495879e+003
8.136501e+002, 4.500534e+003
8.141323e+002, 4.501027e+003
8.146144e+002, 4.499782e+003
8.150965e+002, 4.497292e+003
8.155786e+002, 4.494648e+003
8.160607e+002, 4.492618e+003
8.165428e+002, 4.491517e+003
8.170250e+002, 4.492830e+003
8.175071e+002, 4.496620e+003
8.179892e+002, 4.499615e+003
8.184713e+002, 4.498646e+003
8.189534e+002, 4.495493e+003
8.194355e+002, 4.497340e+003
8.199177e+002, 4.505874e+003
8.203998e+002, 4.511259e+003
8.208819e+002, 4.510682e+003
8.213640e+002, 4.509808e+003
8.218461e+002, 4.513367e+003
8.223282e+002, 4.518484e+003
8.228104e+002, 4.518893e+003
8.232925e+002, 4.512609e+003
8.237746e+002, 4.508958e+003
8.242567e+002, 4.511765e+003
8.247388e+002, 4.515623e+003
8.252209e+002, 4.518550e+003
8.257031e+002, 4.520088e+003
8.261852e+002, 4.518805e+003
8.266673e+002, 4.515111e+003
8.271494e+002, 4.513077e+003
8.276315e+002, 4.517024e+003
8.281136e+002, 4.523126e+003
8.285958e+002, 4.524479e+003
8.290779e+002, 4.522017e+003
8.295600e+002, 4.520211e+003
8.300421e+002, 4.519909e+003
8.305242e+002, 4.520377e+003
8.310063e+002, 4.521048e+003
8.314885e+002, 4.522105e+003
8.319706e+002, 4.524388e+003
8.324527e+002, 4.529162e+003
8.329348e+002, 4.531568e+003
8.334169e+002, 4.527294e+003
8.338990e+002, 4.526125e+003
8.343812e+002, 4.535726e+003
8.348633e+002, 4.548298e+003
8.353454e+002, 4.553244e+003
8.358275e+002, 4.549373e+003
8.363096e+002, 4.547084e+003
8.367917e+002, 4.552244e+003
8.372739e+002, 4.557354e+003
8.377560e+002, 4.556688e+003
8.382381e+002, 4.553593e+003
8.387202e+002, 4.553282e+003
8.392023e+002, 4.556042e+003
8.396844e+002, 4.558120e+003
8.401666e+002, 4.556700e+003
8.406487e+002, 4.554264e+003
8.411308e+002, 4.555211e+003
8.416129e+002, 4.559167e+003
8.420950e+002, 4.564170e+003
8.425771e+002, 4.570264e+003
8.430593e+002, 4.574001e+003
8.435414e+002, 4.573009e+003
8.440235e+002, 4.569669e+003
8.445056e+002, 4.568542e+003
8.449877e+002, 4.570502e+003
8.454698e+002, 4.570284e+003
8.459520e+002, 4.564092e+003
8.464341e+002, 4.560832e+003
8.469162e+002, 4.565194e+003
8.473983e+002, 4.571234e+003
8.478804e+002, 4.573164e+003
8.483625e+002, 4.571619e+003
8.488447e+002, 4.572063e+003
8.493268e+002, 4.578830e+003
8.498089e+002, 4.583858e+003
8.502910e+002, 4.580166e+003
8.507731e+002, 4.573932e+003
8.512552e+002, 4.572335e+003
8.517374e+002, 4.575096e+003
8.522195e+002, 4.578688e+003
8.527016e+002, 4.581476e+003
8.531837e+002, 4.583942e+003
8.536658e+002, 4.586869e+003
8.541479e+002, 4.590021e+003
8.546301e+002, 4.592603e+003
8.551122e+002, 4.594610e+003
8.555943e+002, 4.594781e+003
8.560764e+002, 4.592221e+003
8.565585e+002, 4.589406e+003
8.570406e+002, 4.589100e+003
8.575228e+002, 4.591065e+003
8.580049e+002, 4.592342e+003
8.584870e+002, 4.592111e+003
8.589691e+002, 4.592648e+003
8.594512e+002, 4.594900e+003
8.599333e+002, 4.597242e+003
8.604155e+002, 4.599231e+003
8.608976e+002, 4.600636e+003
8.613797e+002, 4.600905e+003
8.618618e+002, 4.599719e+003
8.623439e+002, 4.598838e+003
8.628260e+002, 4.598670e+003
8.633082e+002, 4.599409e+003
8.637903e+002, 4.602079e+003
8.642724e+002, 4.605420e+003
8.647545e+002, 4.607035e+003
8.652366e+002, 4.606646e+003
8.657188e+002, 4.606284e+003
8.662009e+002, 4.607497e+003
8.666830e+002, 4.609722e+003
8.671651e+002, 4.612241e+003
8.676472e+002, 4.614875e+003
8.681293e+002, 4.616521e+003
8.686115e+002, 4.616963e+003
8.690936e+002, 4.616808e+003
8.695757e+002, 4.616137e+003
8.700578e+002, 4.615812e+003
8.705399e+002, 4.618134e+003
8.710220e+002, 4.624482e+003
8.715042e+002, 4.626180e+003
8.719863e+002, 4.619007e+003
8.724684e+002, 4.614001e+003
8.729505e+002, 4.617242e+003
8.734326e+002, 4.622118e+003
8.739147e+002, 4.622123e+003
8.743969e+002, 4.618159e+003
8.748790e+002, 4.616834e+003
8.753611e+002, 4.621916e+003
8.758432e+002, 4.626336e+003
8.763253e+002, 4.627081e+003
8.768074e+002, 4.626667e+003
8.772896e+002, 4.626800e+003
8.777717e+002, 4.627737e+003
8.782538e+002, 4.629425e+003
8.787359e+002, 4.631833e+003
8.792180e+002, 4.634939e+003
8.797001e+002, 4.639380e+003
8.801823e+002, 4.644155e+003
8.806644e+002, 4.647698e+003
8.811465e+002, 4.649915e+003
8.816286e+002, 4.649807e+003
8.821107e+002, 4.647218e+003
8.825928e+002, 4.646054e+003
8.830750e+002, 4.650178e+003
8.835571e+002, 4.657456e+003
8.840392e+002, 4.660360e+003
8.845213e+002, 4.658022e+003
8.850034e+002, 4.656144e+003
8.854855e+002, 4.655334e+003
8.859677e+002, 4.654644e+003
8.864498e+002, 4.652997e+003
8.869319e+002, 4.651672e+003
8.874140e+002, 4.653646e+003
8.878961e+002, 4.659969e+003
8.883782e+002, 4.662734e+003
8.888604e+002, 4.657937e+003
8.893425e+002, 4.654560e+003
8.898246e+002, 4.655630e+003
8.903067e+002, 4.658741e+003
8.907888e+002, 4.663487e+003
8.912709e+002, 4.668352e+003
8.917531e+002, 4.669409e+003
8.922352e+002, 4.664497e+003
8.927173e+002, 4.658180e+003
8.931994e+002, 4.651060e+003
8.936815e+002, 4.646061e+003
8.941636e+002, 4.648297e+003
8.946458e+002, 4.655458e+003
8.951279e+002, 4.660938e+003
8.956100e+002, 4.662752e+003
8.960921e+002, 4.664267e+003
8.965742e+002, 4.669156e+003
8.970563e+002, 4.675692e+003
8.975385e+002, 4.678749e+003
8.980206e+002, 4.678671e+003
8.985027e+002, 4.680611e+003
8.989848e+002, 4.685705e+003
8.994669e+002, 4.689857e+003
8.999490e+002, 4.690138e+003
9.004312e+002, 4.688310e+003
9.009133e+002, 4.688526e+003
9.013954e+002, 4.691378e+003
9.018775e+002, 4.693507e+003
9.023596e+002, 4.694306e+003
9.028417e+002, 4.695458e+003
9.033239e+002, 4.698314e+003
9.038060e+002, 4.701094e+003
9.042881e+002, 4.701783e+003
9.047702e+002, 4.700753e+003
9.052523e+002, 4.700405e+003
9.057344e+002, 4.700580e+003
9.062166e+002, 4.702158e+003
9.066987e+002, 4.706908e+003
9.071808e+002, 4.711679e+003
9.076629e+002, 4.713934e+003
9.081450e+002, 4.714629e+003
9.086271e+002, 4.716248e+003
9.091093e+002, 4.719330e+003
9.095914e+002, 4.720852e+003
9.100735e+002, 4.717314e+003
9.105556e+002, 4.712339e+003
9.110377e+002, 4.709042e+003
9.115198e+002, 4.707631e+003
9.120020e+002, 4.709458e+003
9.124841e+002, 4.714012e+003
9.129662e+002, 4.717615e+003
9.134483e+002, 4.717853e+003
9.139304e+002, 4.716589e+003
9.144125e+002, 4.716599e+003
9.148947e+002, 4.717909e+003
9.153768e+002, 4.721748e+003
9.158589e+002, 4.728424e+003
9.163410e+002, 4.731052e+003
9.168231e+002, 4.726129e+003
9.173052e+002, 4.720478e+003
9.177874e+002, 4.722305e+003
9.182695e+002, 4.730521e+003
9.187516e+002, 4.733976e+003
9.192337e+002, 4.729370e+003
9.197158e+002, 4.728146e+003
9.201979e+002, 4.734499e+003
9.206801e+002, 4.740403e+003
9.211622e+002, 4.740179e+003
9.216443e+002, 4.737211e+003
9.221264e+002, 4.737080e+003
9.226085e+002, 4.740452e+003
9.230906e+002, 4.742810e+003
9.235728e+002, 4.740638e+003
9.240549e+002, 4.740903e+003
9.245370e+002, 4.749026e+003
9.250191e+002, 4.758521e+003
9.255012e+002, 4.762962e+003
9.259833e+002, 4.763045e+003
9.264655e+002, 4.763051e+003
9.269476e+002, 4.764356e+003
9.274297e+002, 4.766577e+003
9.279118e+002, 4.770078e+003
9.283939e+002, 4.773828e+003
9.288760e+002, 4.777100e+003
9.293582e+002, 4.779573e+003
9.298403e+002, 4.780627e+003
9.303224e+002, 4.780189e+003
9.308045e+002, 4.778817e+003
9.312866e+002, 4.776734e+003
9.317687e+002, 4.774510e+003
9.322509e+002, 4.773023e+003
9.327330e+002, 4.772353e+003
9.332151e+002, 4.773111e+003
9.336972e+002, 4.775309e+003
9.341793e+002, 4.777324e+003
9.346614e+002, 4.778420e+003
9.351436e+002, 4.778603e+003
9.356257e+002, 4.777595e+003
9.361078e+002, 4.775535e+003
9.365899e+002, 4.775130e+003
9.370720e+002, 4.776714e+003
9.375541e+002, 4.778591e+003
9.380363e+002, 4.780391e+003
9.385184e+002, 4.782378e+003
9.390005e+002, 4.784893e+003
9.394826e+002, 4.787603e+003
9.399647e+002, 4.789542e+003
9.404468e+002, 4.789935e+003
9.409290e+002, 4.791546e+003
9.414111e+002, 4.796833e+003
9.418932e+002, 4.800137e+003
9.423753e+002, 4.796380e+003
9.428574e+002, 4.792572e+003
9.433395e+002, 4.797405e+003
9.438217e+002, 4.808772e+003
9.443038e+002, 4.814684e+003
9.447859e+002, 4.808792e+003
9.452680e+002, 4.804401e+003
9.457501e+002, 4.808267e+003
9.462322e+002, 4.813512e+003
9.467144e+002, 4.814386e+003
9.471965e+002, 4.813193e+003
9.476786e+002, 4.814985e+003
9.481607e+002, 4.820412e+003
9.486428e+002, 4.824577e+003
9.491249e+002, 4.823119e+003
9.496071e+002, 4.820638e+003
9.500892e+002, 4.822117e+003
9.505713e+002, 4.825631e+003
9.510534e+002, 4.827987e+003
9.515355e+002, 4.829085e+003
9.520176e+002, 4.830724e+003
9.524998e+002, 4.833668e+003
9.529819e+002, 4.835660e+003
9.534640e+002, 4.832759e+003
9.539461e+002, 4.827249e+003
9.544282e+002, 4.826479e+003
9.549103e+002, 4.829911e+003
9.553925e+002, 4.833342e+003
9.558746e+002, 4.835897e+003
9.563567e+002, 4.838999e+003
9.568388e+002, 4.843893e+003
9.573209e+002, 4.849052e+003
9.578030e+002, 4.850968e+003
9.582852e+002, 4.849333e+003
9.587673e+002, 4.847611e+003
9.592494e+002, 4.845298e+003
9.597315e+002, 4.845275e+003
9.602136e+002, 4.849690e+003
9.606957e+002, 4.853976e+003
9.611779e+002, 4.852821e+003
9.616600e+002, 4.847876e+003
9.621421e+002, 4.848183e+003
9.626242e+002, 4.858571e+003
9.631063e+002, 4.864628e+003
9.635884e+002, 4.862042e+003
9.640706e+002, 4.860430e+003
9.645527e+002, 4.864643e+003
9.650348e+002, 4.870748e+003
9.655169e+002, 4.874397e+003
9.659990e+002, 4.875615e+003
9.664811e+002, 4.876870e+003
9.669633e+002, 4.878199e+003
9.674454e+002, 4.879962e+003
9.679275e+002, 4.882583e+003
9.684096e+002, 4.885302e+003
9.688917e+002, 4.887820e+003
9.693738e+002, 4.889982e+003
9.698560e+002, 4.891732e+003
9.703381e+002, 4.893038e+003
9.708202e+002, 4.893498e+003
9.713023e+002, 4.891895e+003
9.717844e+002, 4.890573e+003
9.722665e+002, 4.890796e+003
9.727487e+002, 4.892388e+003
9.732308e+002, 4.896153e+003
9.737129e+002, 4.900992e+003
9.741950e+002, 4.904058e+003
9.746771e+002, 4.904253e+003
9.751592e+002, 4.903414e+003
9.756414e+002, 4.902408e+003
9.761235e+002, 4.901877e+003
9.766056e+002, 4.902492e+003
9.770877e+002, 4.904370e+003
9.775698e+002, 4.908868e+003
9.780519e+002, 4.915376e+003
9.785341e+002, 4.919268e+003
9.790162e+002, 4.917556e+003
9.794983e+002, 4.914633e+003
9.799804e+002, 4.918087e+003
9.804625e+002, 4.925709e+003
9.809446e+002, 4.928023e+003
9.814268e+002, 4.925547e+003
9.819089e+002, 4.925822e+003
9.823910e+002, 4.930874e+003
9.828731e+002, 4.935393e+003
9.833552e+002, 4.934709e+003
9.838373e+002, 4.931787e+003
9.843195e+002, 4.935199e+003
9.848016e+002, 4.945457e+003
9.852837e+002, 4.949413e+003
9.857658e+002, 4.945024e+003
9.862479e+002, 4.944335e+003
9.867300e+002, 4.953139e+003
9.872122e+002, 4.962149e+003
9.876943e+002, 4.961297e+003
9.881764e+002, 4.952822e+003
9.886585e+002, 4.949079e+003
9.891406e+002, 4.951425e+003
9.896227e+002, 4.954563e+003
9.901049e+002, 4.958466e+003
9.905870e+002, 4.962939e+003
9.910691e+002, 4.969283e+003
9.915512e+002, 4.974812e+003
9.920333e+002, 4.975157e+003
9.925154e+002, 4.970594e+003
9.929976e+002, 4.969945e+003
9.934797e+002, 4.977425e+003
9.939618e+002, 4.982396e+003
9.944439e+002, 4.982976e+003
9.949260e+002, 4.982491e+003
9.954081e+002, 4.981799e+003
9.958903e+002, 4.981389e+003
9.963724e+002, 4.982182e+003
9.968545e+002, 4.984177e+003
9.973366e+002, 4.985201e+003
9.978187e+002, 4.983365e+003
9.983008e+002, 4.982511e+003
9.987830e+002, 4.983989e+003
9.992651e+002, 4.986532e+003
9.997472e+002, 4.990820e+003
1.000229e+003, 4.994867e+003
1.000711e+003, 4.994618e+003
1.001194e+003, 4.989451e+003
1.001676e+003, 4.985928e+003
1.002158e+003, 4.987888e+003
1.002640e+003, 4.991116e+003
1.003122e+003, 4.993888e+003
1.003604e+003, 4.996172e+003
1.004086e+003, 4.997833e+003
1.004568e+003, 4.999060e+003
1.005050e+003, 5.000058e+003
1.005533e+003, 5.000926e+003
1.006015e+003, 5.002452e+003
1.006497e+003, 5.006060e+003
1.006979e+003, 5.009742e+003
1.007461e+003, 5.011408e+003
1.007943e+003, 5.011917e+003
1.008425e+003, 5.011968e+003
1.008907e+003, 5.012174e+003
1.009390e+003, 5.014188e+003
1.009872e+003, 5.018689e+003
1.010354e+003, 5.023110e+003
1.010836e+003, 5.024158e+003
1.011318e+003, 5.024057e+003
1.011800e+003, 5.026923e+003
1.012282e+003, 5.031444e+003
1.012764e+003, 5.034024e+003
1.013246e+003, 5.034505e+003
1.013729e+003, 5.035823e+003
1.014211e+003, 5.039577e+003
1.014693e+003, 5.043352e+003
1.015175e+003, 5.043783e+003
1.015657e+003, 5.041811e+003
1.016139e+003, 5.039370e+003
1.016621e+003, 5.036915e+003
1.017103e+003, 5.037225e+003
1.017586e+003, 5.040643e+003
1.018068e+003, 5.044081e+003
1.018550e+003, 5.045642e+003
1.019032e+003, 5.046135e+003
1.019514e+003, 5.046616e+003
1.019996e+003, 5.047173e+003
1.020478e+003, 5.048373e+003
1.020960e+003, 5.050217e+003
1.021442e+003, 5.052525e+003
1.021925e+003, 5.055287e+003
1.022407e+003, 5.057875e+003
1.022889e+003, 5.059788e+003
1.023371e+003, 5.061455e+003
1.023853e+003, 5.063877e+003
1.024335e+003, 5.067041e+003
1.024817e+003, 5.069625e+003
1.025299e+003, 5.071665e+003
1.025781e+003, 5.072029e+003
1.026264e+003, 5.069631e+003
1.026746e+003, 5.069010e+003
1.027228e+003, 5.074128e+003
1.027710e+003, 5.082212e+003
1.028192e+003, 5.086352e+003
1.028674e+003, 5.085669e+003
1.029156e+003, 5.087942e+003
1.029638e+003, 5.094153e+003
1.030120e+003, 5.100166e+003
1.030603e+003, 5.105675e+003
1.031085e+003, 5.108955e+003
1.031567e+003, 5.107835e+003
1.032049e+003, 5.104200e+003
1.032531e+003, 5.103090e+003
1.033013e+003, 5.105121e+003
1.033495e+003, 5.107133e+003
1.033977e+003, 5.109782e+003
1.034460e+003, 5.111038e+003
1.034942e+003, 5.109701e+003
1.035424e+003, 5.107888e+003
1.035906e+003, 5.107306e+003
1.036388e+003, 5.107501e+003
1.036870e+003, 5.106827e+003
1.037352e+003, 5.103905e+003
1.037834e+003, 5.105092e+003
1.038317e+003, 5.115416e+003
1.038799e+003, 5.122074e+003
1.039281e+003, 5.118475e+003
1.039763e+003, 5.113933e+003
1.040245e+003, 5.116569e+003
1.040727e+003, 5.123608e+003
1.041209e+003, 5.127088e+003
1.041691e+003, 5.125740e+003
1.042173e+003, 5.124794e+003
1.042656e+003, 5.123824e+003
1.043138e+003, 5.123911e+003
1.043620e+003, 5.124973e+003
1.044102e+003, 5.127462e+003
1.044584e+003, 5.133614e+003
1.045066e+003, 5.141136e+003
1.045548e+003, 5.143218e+003
1.046030e+003, 5.136637e+003
1.046512e+003, 5.135764e+003
1.046995e+003, 5.149500e+003
1.047477e+003, 5.159374e+003
1.047959e+003, 5.155672e+003
1.048441e+003, 5.149971e+003
1.048923e+003, 5.152547e+003
1.049405e+003, 5.160106e+003
1.049887e+003, 5.163067e+003
1.050369e+003, 5.158667e+003
1.050852e+003, 5.158476e+003
1.051334e+003, 5.170162e+003
1.051816e+003, 5.179253e+003
1.052298e+003, 5.177879e+003
1.052780e+003, 5.174618e+003
1.053262e+003, 5.176933e+003
1.053744e+003, 5.182812e+003
1.054226e+003, 5.186454e+003
1.054708e+003, 5.186526e+003
1.055191e+003, 5.187882e+003
1.055673e+003, 5.194125e+003
1.056155e+003, 5.198861e+003
1.056637e+003, 5.197065e+003
1.057119e+003, 5.195046e+003
1.057601e+003, 5.199439e+003
1.058083e+003, 5.207260e+003
1.058565e+003, 5.211097e+003
1.059047e+003, 5.209253e+003
1.059530e+003, 5.209228e+003
1.060012e+003, 5.216764e+003
1.060494e+003, 5.222331e+003
1.060976e+003, 5.219181e+003
1.061458e+003, 5.214892e+003
1.061940e+003, 5.216599e+003
1.062422e+003, 5.221689e+003
1.062904e+003, 5.223886e+003
1.063387e+003, 5.222024e+003
1.063869e+003, 5.221079e+003
1.064351e+003, 5.224763e+003
1.064833e+003, 5.227366e+003
1.065315e+003, 5.224542e+003
1.065797e+003, 5.221294e+003
1.066279e+003, 5.222834e+003
1.066761e+003, 5.226633e+003
1.067244e+003, 5.227084e+003
1.067726e+003, 5.223500e+003
1.068208e+003, 5.221752e+003
1.068690e+003, 5.227223e+003
1.069172e+003, 5.230974e+003
1.069654e+003, 5.225416e+003
1.070136e+003, 5.219884e+003
1.070618e+003, 5.223594e+003
1.071100e+003, 5.231831e+003
1.071583e+003, 5.235718e+003
1.072065e+003, 5.234359e+003
1.072547e+003, 5.234532e+003
1.073029e+003, 5.240824e+003
1.073511e+003, 5.245836e+003
1.073993e+003, 5.244896e+003
1.074475e+003, 5.242472e+003
1.074957e+003, 5.241917e+003
1.075439e+003, 5.242214e+003
1.075922e+003, 5.240542e+003
1.076404e+003, 5.237395e+003
1.076886e+003, 5.237884e+003
1.077368e+003, 5.246260e+003
1.077850e+003, 5.253177e+003
1.078332e+003, 5.253303e+003
1.078814e+003, 5.251450e+003
1.079297e+003, 5.251252e+003
1.079779e+003, 5.251114e+003
1.080261e+003, 5.247161e+003
1.080743e+003, 5.240650e+003
1.081225e+003, 5.238827e+003
1.081707e+003, 5.246036e+003
1.082189e+003, 5.251539e+003
1.082671e+003, 5.248013e+003
1.083153e+003, 5.243909e+003
1.083635e+003, 5.244788e+003
1.084118e+003, 5.248072e+003
1.084600e+003, 5.251337e+003
1.085082e+003, 5.253922e+003
1.085564e+003, 5.254936e+003
1.086046e+003, 5.253776e+003
1.086528e+003, 5.253109e+003
1.087010e+003, 5.254432e+003
1.087492e+003, 5.256143e+003
1.087975e+003, 5.258627e+003
1.088457e+003, 5.260057e+003
1.088939e+003, 5.256988e+003
1.089421e+003, 5.251741e+003
1.089903e+003, 5.250745e+003
1.090385e+003, 5.255899e+003
1.090867e+003, 5.259364e+003
1.091349e+003, 5.255224e+003
1.091832e+003, 5.252501e+003
1.092314e+003, 5.257329e+003
1.092796e+003, 5.263487e+003
1.093278e+003, 5.264400e+003
1.093760e+003, 5.263054e+003
1.094242e+003, 5.266849e+003
1.094724e+003, 5.276862e+003
1.095206e+003, 5.283648e+003
1.095688e+003, 5.280500e+003
1.096171e+003, 5.278696e+003
1.096653e+003, 5.285003e+003
1.097135e+003, 5.291018e+003
1.097617e+003, 5.288586e+003
1.098099e+003, 5.283352e+003
1.098581e+003, 5.285385e+003
1.099063e+003, 5.294733e+003
1.099545e+003, 5.299946e+003
1.100027e+003, 5.295201e+003
1.100510e+003, 5.291320e+003
1.100992e+003, 5.292268e+003
1.101474e+003, 5.293360e+003
1.101956e+003, 5.290526e+003
1.102438e+003, 5.287529e+003
1.102920e+003, 5.289497e+003
1.103402e+003, 5.295654e+003
1.103884e+003, 5.300562e+003
1.104367e+003, 5.302866e+003
1.104849e+003, 5.305143e+003
1.105331e+003, 5.308547e+003
1.105813e+003, 5.311083e+003
1.106295e+003, 5.310560e+003
1.106777e+003, 5.310060e+003
1.107259e+003, 5.313364e+003
1.107741e+003, 5.318849e+003
1.108224e+003, 5.321298e+003
1.108706e+003, 5.319197e+003
1.109188e+003, 5.318522e+003
1.109670e+003, 5.322041e+003
1.110152e+003, 5.323907e+003
1.110634e+003, 5.319799e+003
1.111116e+003, 5.316655e+003
1.111598e+003, 5.321286e+003
1.112080e+003, 5.329201e+003
1.112563e+003, 5.330885e+003
1.113045e+003, 5.325104e+003
1.113527e+003, 5.323738e+003
1.114009e+003, 5.331150e+003
1.114491e+003, 5.335906e+003
1.114973e+003, 5.335767e+003
1.115455e+003, 5.334325e+003
1.115937e+003, 5.331678e+003
1.116419e+003, 5.330071e+003
1.116902e+003, 5.333148e+003
1.117384e+003, 5.340399e+003
1.117866e+003, 5.345500e+003
1.118348e+003, 5.347125e+003
1.118830e+003, 5.349789e+003
1.119312e+003, 5.354487e+003
1.119794e+003, 5.358517e+003
1.120276e+003, 5.360926e+003
1.120759e+003, 5.362156e+003
1.121241e+003, 5.362064e+003
1.121723e+003, 5.361400e+003
1.122205e+003, 5.363135e+003
1.122687e+003, 5.368155e+003
1.123169e+003, 5.371037e+003
1.123651e+003, 5.370742e+003
1.124133e+003, 5.371811e+003
1.124615e+003, 5.375813e+003
1.125098e+003, 5.379993e+003
1.125580e+003, 5.382495e+003
1.126062e+003, 5.383883e+003
1.126544e+003, 5.385225e+003
1.127026e+003, 5.386522e+003
1.127508e+003, 5.387095e+003
1.127990e+003, 5.386663e+003
1.128472e+003, 5.388257e+003
1.128954e+003, 5.392535e+003
1.129437e+003, 5.397701e+003
1.129919e+003, 5.403077e+003
1.130401e+003, 5.408022e+003
1.130883e+003, 5.411967e+003
1.131365e+003, 5.414632e+003
1.131847e+003, 5.413625e+003
1.132329e+003, 5.409370e+003
1.132811e+003, 5.412079e+003
1.133294e+003, 5.422209e+003
1.133776e+003, 5.427154e+003
1.134258e+003, 5.422687e+003
1.134740e+003, 5.419132e+003
1.135222e+003, 5.425693e+003
1.135704e+003, 5.436200e+003
1.136186e+003, 5.437203e+003
1.136668e+003, 5.431809e+003
1.137151e+003, 5.433708e+003
1.137633e+003, 5.441250e+003
1.138115e+003, 5.443602e+003
1.138597e+003, 5.439352e+003
1.139079e+003, 5.436612e+003
1.139561e+003, 5.439938e+003
1.140043e+003, 5.444491e+003
1.140525e+003, 5.443247e+003
1.141007e+003, 5.440130e+003
1.141490e+003, 5.443337e+003
1.141972e+003, 5.450269e+003
1.142454e+003, 5.455369e+003
1.142936e+003, 5.458346e+003
1.143418e+003, 5.461211e+003
1.143900e+003, 5.464550e+003
1.144382e+003, 5.466817e+003
1.144864e+003, 5.465681e+003
1.145346e+003, 5.465199e+003
1.145829e+003, 5.472188e+003
1.146311e+003, 5.480412e+003
1.146793e+003, 5.480445e+003
1.147275e+003, 5.476049e+003
1.147757e+003, 5.476145e+003
1.148239e+003, 5.481118e+003
1.148721e+003, 5.483671e+003
1.149203e+003, 5.479659e+003
1.149686e+003, 5.477171e+003
1.150168e+003, 5.483751e+003
1.150650e+003, 5.491204e+003
1.151132e+003, 5.493245e+003
1.151614e+003, 5.493093e+003
1.152096e+003, 5.494430e+003
1.152578e+003, 5.496967e+003
1.153060e+003, 5.498713e+003
1.153542e+003, 5.499165e+003
1.154025e+003, 5.500438e+003
1.154507e+003, 5.503729e+003
1.154989e+003, 5.507225e+003
1.155471e+003, 5.509446e+003
1.155953e+003, 5.512474e+003
1.156435e+003, 5.519435e+003
1.156917e+003, 5.526929e+003
1.157399e+003, 5.528889e+003
1.157881e+003, 5.525961e+003
1.158364e+003, 5.527479e+003
1.158846e+003, 5.538174e+003
1.159328e+003, 5.545974e+003
1.159810e+003, 5.549135e+003
1.160292e+003, 5.550596e+003
1.160774e+003, 5.549829e+003
1.161256e+003, 5.549216e+003
1.161738e+003, 5.550862e+003
1.162221e+003, 5.553971e+003
1.162703e+003, 5.556862e+003
1.163185e+003, 5.559813e+003
1.163667e+003, 5.560119e+003
1.164149e+003, 5.555991e+003
1.164631e+003, 5.554696e+003
1.165113e+003, 5.558044e+003
1.165595e+003, 5.562209e+003
1.166078e+003, 5.565322e+003
1.166560e+003, 5.568436e+003
1.167042e+003, 5.573389e+003
1.167524e+003, 5.579068e+003
1.168006e+003, 5.579235e+003
1.168488e+003, 5.573554e+003
1.168970e+003, 5.571993e+003
1.169452e+003, 5.575141e+003
1.169934e+003, 5.579531e+003
1.170417e+003, 5.584199e+003
1.170899e+003, 5.589217e+003
1.171381e+003, 5.594866e+003
1.171863e+003, 5.599349e+003
1.172345e+003, 5.598328e+003
1.172827e+003, 5.593908e+003
1.173309e+003, 5.594062e+003
1.173791e+003, 5.597539e+003
1.174273e+003, 5.599026e+003
1.174756e+003, 5.598455e+003
1.175238e+003, 5.600262e+003
1.175720e+003, 5.605981e+003
1.176202e+003, 5.611151e+003
1.176684e+003, 5.611400e+003
1.177166e+003, 5.610211e+003
1.177648e+003, 5.612315e+003
1.178130e+003, 5.615550e+003
1.178613e+003, 5.616206e+003
1.179095e+003, 5.615662e+003
1.179577e+003, 5.617828e+003
1.180059e+003, 5.622422e+003
1.180541e+003, 5.624894e+003
1.181023e+003, 5.622914e+003
1.181505e+003, 5.621009e+003
1.181987e+003, 5.623261e+003
1.182469e+003, 5.624941e+003
1.182952e+003, 5.620647e+003
1.183434e+003, 5.616242e+003
1.183916e+003, 5.618937e+003
1.184398e+003, 5.625473e+003
1.184880e+003, 5.627604e+003
1.185362e+003, 5.624420e+003
1.185844e+003, 5.625765e+003
1.186326e+003, 5.640361e+003
1.186808e+003, 5.649591e+003
1.187291e+003, 5.645720e+003
1.187773e+003, 5.641405e+003
1.188255e+003, 5.642236e+003
1.188737e+003, 5.645081e+003
1.189219e+003, 5.647417e+003
1.189701e+003, 5.649166e+003
1.190183e+003, 5.650000e+003
1.190665e+003, 5.649616e+003
1.191148e+003, 5.649933e+003
1.191630e+003, 5.651057e+003
1.192112e+003, 5.652737e+003
1.192594e+003, 5.655288e+003
1.193076e+003, 5.657284e+003
1.193558e+003, 5.657752e+003
1.194040e+003, 5.658076e+003
1.194522e+003, 5.660233e+003
1.195005e+003, 5.663495e+003
1.195487e+003, 5.664116e+003
1.195969e+003, 5.662297e+003
1.196451e+003, 5.664267e+003
1.196933e+003, 5.670124e+003
1.197415e+003, 5.674820e+003
1.197897e+003, 5.677091e+003
1.198379e+003, 5.678880e+003
1.198861e+003, 5.681428e+003
1.199344e+003, 5.684281e+003
1.199826e+003, 5.687239e+003
1.200308e+003, 5.689814e+003
1.200790e+003, 5.690688e+003
1.201272e+003, 5.690550e+003
1.201754e+003, 5.690212e+003
1.202236e+003, 5.690425e+003
1.202718e+003, 5.694007e+003
1.203200e+003, 5.700913e+003
1.203683e+003, 5.704462e+003
1.204165e+003, 5.698846e+003
1.204647e+003, 5.693857e+003
1.205129e+003, 5.698298e+003
1.205611e+003, 5.704986e+003
1.206093e+003, 5.709255e+003
1.206575e+003, 5.711070e+003
1.207057e+003, 5.709157e+003
1.207540e+003, 5.705444e+003
1.208022e+003, 5.704767e+003
1.208504e+003, 5.708283e+003
1.208986e+003, 5.712282e+003
1.209468e+003, 5.718302e+003
1.209950e+003, 5.721099e+003
1.210432e+003, 5.716542e+003
1.210914e+003, 5.711992e+003
1.211396e+003, 5.710118e+003
1.211879e+003, 5.711017e+003
1.212361e+003, 5.716190e+003
1.212843e+003, 5.724025e+003
1.213325e+003, 5.727838e+003
1.213807e+003, 5.726736e+003
1.214289e+003, 5.725868e+003
1.214771e+003, 5.725333e+003
1.215253e+003, 5.724213e+003
1.215735e+003, 5.721572e+003
1.216218e+003, 5.722834e+003
1.216700e+003, 5.731767e+003
1.217182e+003, 5.741721e+003
1.217664e+003, 5.744262e+003
1.218146e+003, 5.741611e+003
1.218628e+003, 5.740213e+003
1.219110e+003, 5.740036e+003
1.219592e+003, 5.740865e+003
1.220075e+003, 5.742705e+003
1.220557e+003, 5.746586e+003
1.221039e+003, 5.752077e+003
1.221521e+003, 5.754657e+003
1.222003e+003, 5.751651e+003
1.222485e+003, 5.748789e+003
1.222967e+003, 5.752831e+003
1.223449e+003, 5.759115e+003
1.223932e+003, 5.762604e+003
1.224414e+003, 5.764806e+003
1.224896e+003, 5.768349e+003
1.225378e+003, 5.771980e+003
1.225860e+003, 5.772400e+003
1.226342e+003, 5.769585e+003
1.226824e+003, 5.766976e+003
1.227306e+003, 5.765177e+003
1.227788e+003, 5.765344e+003
1.228271e+003, 5.767674e+003
1.228753e+003, 5.772287e+003
1.229235e+003, 5.783559e+003
1.229717e+003, 5.792862e+003
1.230199e+003, 5.790063e+003
1.230681e+003, 5.782167e+003
1.231163e+003, 5.782727e+003
1.231645e+003, 5.791491e+003
1.232127e+003, 5.797071e+003
1.232610e+003, 5.799309e+003
1.233092e+003, 5.798375e+003
1.233574e+003, 5.793059e+003
1.234056e+003, 5.788742e+003
1.234538e+003, 5.786885e+003
1.235020e+003, 5.787478e+003
1.235502e+003, 5.790963e+003
1.235984e+003, 5.795052e+003
1.236467e+003, 5.795187e+003
1.236949e+003, 5.792766e+003
1.237431e+003, 5.793906e+003
1.237913e+003, 5.797852e+003
1.238395e+003, 5.801055e+003
1.238877e+003, 5.803475e+003
1.239359e+003, 5.807591e+003
1.239841e+003, 5.813652e+003
1.240323e+003, 5.817499e+003
1.240806e+003, 5.815686e+003
1.241288e+003, 5.814643e+003
1.241770e+003, 5.822533e+003
1.242252e+003, 5.832003e+003
1.242734e+003, 5.835882e+003
1.243216e+003, 5.836977e+003
1.243698e+003, 5.839263e+003
1.244180e+003, 5.841773e+003
1.244662e+003, 5.840438e+003
1.245145e+003, 5.835164e+003
1.245627e+003, 5.834009e+003
1.246109e+003, 5.843537e+003
1.246591e+003, 5.849149e+003
1.247073e+003, 5.843005e+003
1.247555e+003, 5.840068e+003
1.248037e+003, 5.850054e+003
1.248519e+003, 5.859058e+003
1.249002e+003, 5.855479e+003
1.249484e+003, 5.846378e+003
1.249966e+003, 5.844697e+003
1.250448e+003, 5.850013e+003
1.250930e+003, 5.854944e+003
1.251412e+003, 5.859475e+003
1.251894e+003, 5.864026e+003
1.252376e+003, 5.868710e+003
1.252859e+003, 5.870289e+003
1.253341e+003, 5.867803e+003
1.253823e+003, 5.866297e+003
1.254305e+003, 5.869356e+003
1.254787e+003, 5.873636e+003
1.255269e+003, 5.873231e+003
1.255751e+003, 5.871870e+003
1.256233e+003, 5.878294e+003
1.256715e+003, 5.887951e+003
1.257198e+003, 5.891780e+003
1.257680e+003, 5.891505e+003
1.258162e+003, 5.894271e+003
1.258644e+003, 5.900644e+003
1.259126e+003, 5.903635e+003
1.259608e+003, 5.898725e+003
1.260090e+003, 5.896378e+003
1.260572e+003, 5.904241e+003
1.261054e+003, 5.912196e+003
1.261537e+003, 5.915511e+003
1.262019e+003, 5.917035e+003
1.262501e+003, 5.918292e+003
1.262983e+003, 5.919735e+003
1.263465e+003, 5.921698e+003
1.263947e+003, 5.924263e+003
1.264429e+003, 5.928315e+003
1.264911e+003, 5.934861e+003
1.265394e+003, 5.939097e+003
1.265876e+003, 5.940292e+003
1.266358e+003, 5.942107e+003
1.266840e+003, 5.945235e+003
1.267322e+003, 5.949837e+003
1.267804e+003, 5.956128e+003
1.268286e+003, 5.962752e+003
1.268768e+003, 5.968266e+003
1.269250e+003, 5.972484e+003
1.269733e+003, 5.974653e+003
1.270215e+003, 5.975357e+003
1.270697e+003, 5.975820e+003
1.271179e+003, 5.976215e+003
1.271661e+003, 5.976828e+003
1.272143e+003, 5.977549e+003
1.272625e+003, 5.977091e+003
1.273107e+003, 5.975002e+003
1.273589e+003, 5.976104e+003
1.274072e+003, 5.987549e+003
1.274554e+003, 5.996951e+003
1.275036e+003, 5.996377e+003
1.275518e+003, 5.993693e+003
1.276000e+003, 5.993688e+003
1.276482e+003, 5.994554e+003
1.276964e+003, 5.993608e+003
1.277446e+003, 5.992471e+003
1.277929e+003, 5.994620e+003
1.278411e+003, 6.000735e+003
1.278893e+003, 6.003038e+003
1.279375e+003, 5.999878e+003
1.279857e+003, 5.999786e+003
1.280339e+003, 6.004235e+003
1.280821e+003, 6.008748e+003
1.281303e+003, 6.012061e+003
1.281786e+003, 6.017209e+003
1.282268e+003, 6.025776e+003
##END=



