##NAMES=Otavite
##RRUFFID=R050677
##IDEAL CHEMISTRY=Cd^2+^CO_3_
##LOCALITY=Tsumeb mine, Tsumeb, Otavi District, Oshikoto, Namibia
##OWNER=RRUFF
##SOURCE=University of Arizona Mineral Museum
##DESCRIPTION=White rhombohedra
##STATUS=The identification of this mineral has been confirmed by X-ray diffraction and chemical analysis
##URL=rruff.info/R050677
##MEASURED CHEMISTRY=(Cd_0.91_Zn_0.05_Pb_0.04_)_Σ=1_CO_3_ ; = lighter phase. The crystal is zoned. The darker phase is (Cd_0.93_Zn_0.05_Pb_0.02_)_Σ=1_CO_3_ ; the inclusion is cerussite: Pb_1.00_CO_3_
7.687793e+001, 7.038263e+002
7.880640e+001, 6.463303e+002
8.073486e+001, 6.248382e+002
8.266333e+001, 6.546586e+002
8.459180e+001, 7.113318e+002
8.652026e+001, 7.629996e+002
8.844873e+001, 8.099911e+002
9.037720e+001, 8.438980e+002
9.230566e+001, 8.554279e+002
9.423413e+001, 8.178095e+002
9.616260e+001, 7.551378e+002
9.809106e+001, 7.061658e+002
1.000195e+002, 6.713054e+002
1.019480e+002, 6.474389e+002
1.038765e+002, 6.249533e+002
1.058049e+002, 5.995012e+002
1.077334e+002, 5.769768e+002
1.096619e+002, 5.572797e+002
1.115903e+002, 5.407605e+002
1.135188e+002, 5.273517e+002
1.154473e+002, 5.164166e+002
1.173757e+002, 5.093151e+002
1.193042e+002, 5.047138e+002
1.212327e+002, 5.050400e+002
1.231611e+002, 5.118072e+002
1.250896e+002, 5.232216e+002
1.270181e+002, 5.373929e+002
1.289465e+002, 5.541830e+002
1.308750e+002, 5.713817e+002
1.328035e+002, 5.899252e+002
1.347319e+002, 6.071318e+002
1.366604e+002, 6.199598e+002
1.385889e+002, 6.328506e+002
1.405173e+002, 6.493947e+002
1.424458e+002, 6.695140e+002
1.443743e+002, 6.937074e+002
1.463027e+002, 7.204997e+002
1.482312e+002, 7.536005e+002
1.501597e+002, 7.948377e+002
1.520881e+002, 8.419439e+002
1.540166e+002, 8.967274e+002
1.559451e+002, 9.573887e+002
1.578735e+002, 1.007512e+003
1.598020e+002, 1.057162e+003
1.617305e+002, 1.079924e+003
1.636589e+002, 1.069486e+003
1.655874e+002, 1.034830e+003
1.675159e+002, 9.744169e+002
1.694443e+002, 8.951832e+002
1.713728e+002, 8.210544e+002
1.733013e+002, 7.507136e+002
1.752297e+002, 6.887125e+002
1.771582e+002, 6.355928e+002
1.790867e+002, 5.905198e+002
1.810151e+002, 5.544328e+002
1.829436e+002, 5.253539e+002
1.848721e+002, 5.008472e+002
1.868005e+002, 4.814018e+002
1.887290e+002, 4.660156e+002
1.906575e+002, 4.556590e+002
1.925859e+002, 4.474293e+002
1.945144e+002, 4.399948e+002
1.964429e+002, 4.343664e+002
1.983713e+002, 4.322347e+002
2.002998e+002, 4.336993e+002
2.022283e+002, 4.346646e+002
2.041567e+002, 4.347969e+002
2.060852e+002, 4.353661e+002
2.080137e+002, 4.363383e+002
2.099421e+002, 4.383495e+002
2.118706e+002, 4.416306e+002
2.137991e+002, 4.462448e+002
2.157275e+002, 4.525107e+002
2.176560e+002, 4.604064e+002
2.195845e+002, 4.697304e+002
2.215129e+002, 4.804348e+002
2.234414e+002, 4.927414e+002
2.253699e+002, 5.048911e+002
2.272983e+002, 5.194913e+002
2.292268e+002, 5.395665e+002
2.311553e+002, 5.655267e+002
2.330837e+002, 5.983259e+002
2.350122e+002, 6.382150e+002
2.369407e+002, 6.841573e+002
2.388691e+002, 7.379559e+002
2.407976e+002, 7.956702e+002
2.427261e+002, 8.565842e+002
2.446545e+002, 9.194614e+002
2.465830e+002, 9.799238e+002
2.485115e+002, 1.037878e+003
2.504399e+002, 1.097008e+003
2.523684e+002, 1.154562e+003
2.542969e+002, 1.219609e+003
2.562253e+002, 1.293008e+003
2.581538e+002, 1.376438e+003
2.600823e+002, 1.474267e+003
2.620107e+002, 1.584669e+003
2.639392e+002, 1.700883e+003
2.658677e+002, 1.826804e+003
2.677961e+002, 1.942772e+003
2.697246e+002, 2.065769e+003
2.716531e+002, 2.153709e+003
2.735815e+002, 2.194059e+003
2.755100e+002, 2.180296e+003
2.774385e+002, 2.095420e+003
2.793669e+002, 1.945021e+003
2.812954e+002, 1.775237e+003
2.832239e+002, 1.574698e+003
2.851523e+002, 1.387341e+003
2.870808e+002, 1.218233e+003
2.890093e+002, 1.068279e+003
2.909377e+002, 9.392060e+002
2.928662e+002, 8.302246e+002
2.947947e+002, 7.387645e+002
2.967231e+002, 6.652780e+002
2.986516e+002, 6.048478e+002
3.005801e+002, 5.611207e+002
3.025085e+002, 5.250399e+002
3.044370e+002, 4.968883e+002
3.063655e+002, 4.740730e+002
3.082939e+002, 4.554246e+002
3.102224e+002, 4.402962e+002
3.121509e+002, 4.280372e+002
3.140793e+002, 4.190808e+002
3.160078e+002, 4.112347e+002
3.179363e+002, 4.045253e+002
3.198647e+002, 3.985005e+002
3.217932e+002, 3.935369e+002
3.237217e+002, 3.888212e+002
3.256501e+002, 3.834726e+002
3.275786e+002, 3.778564e+002
3.295071e+002, 3.730887e+002
3.314355e+002, 3.691973e+002
3.333640e+002, 3.662755e+002
3.352925e+002, 3.653549e+002
3.372209e+002, 3.638682e+002
3.391494e+002, 3.605132e+002
3.410779e+002, 3.568702e+002
3.430063e+002, 3.540217e+002
3.449348e+002, 3.518337e+002
3.468633e+002, 3.499529e+002
3.487917e+002, 3.485270e+002
3.507202e+002, 3.469165e+002
3.526487e+002, 3.449874e+002
3.545771e+002, 3.431541e+002
3.565056e+002, 3.413380e+002
3.584341e+002, 3.399413e+002
3.603625e+002, 3.393821e+002
3.622910e+002, 3.393742e+002
3.642195e+002, 3.393440e+002
3.661479e+002, 3.394011e+002
3.680764e+002, 3.385230e+002
3.700049e+002, 3.361861e+002
3.719333e+002, 3.343568e+002
3.738618e+002, 3.340181e+002
3.757903e+002, 3.336947e+002
3.777188e+002, 3.325453e+002
3.796472e+002, 3.308867e+002
3.815757e+002, 3.292444e+002
3.835042e+002, 3.276069e+002
3.854326e+002, 3.255377e+002
3.873611e+002, 3.229542e+002
3.892896e+002, 3.204127e+002
3.912180e+002, 3.180604e+002
3.931465e+002, 3.157487e+002
3.950750e+002, 3.133744e+002
3.970034e+002, 3.110559e+002
3.989319e+002, 3.088677e+002
4.008604e+002, 3.068339e+002
4.027888e+002, 3.052025e+002
4.047173e+002, 3.039929e+002
4.066458e+002, 3.021873e+002
4.085742e+002, 2.993710e+002
4.105027e+002, 2.966196e+002
4.124312e+002, 2.941201e+002
4.143596e+002, 2.919778e+002
4.162881e+002, 2.907343e+002
4.182166e+002, 2.896783e+002
4.201450e+002, 2.871729e+002
4.220735e+002, 2.835862e+002
4.240020e+002, 2.811962e+002
4.259304e+002, 2.803398e+002
4.278589e+002, 2.794227e+002
4.297874e+002, 2.784201e+002
4.317158e+002, 2.767866e+002
4.336443e+002, 2.739751e+002
4.355728e+002, 2.708305e+002
4.375012e+002, 2.677552e+002
4.394297e+002, 2.650038e+002
4.413582e+002, 2.633564e+002
4.432866e+002, 2.626765e+002
4.452151e+002, 2.611643e+002
4.471436e+002, 2.581187e+002
4.490720e+002, 2.557027e+002
4.510005e+002, 2.549926e+002
4.529290e+002, 2.540291e+002
4.548574e+002, 2.520280e+002
4.567859e+002, 2.494645e+002
4.587144e+002, 2.462177e+002
4.606428e+002, 2.429555e+002
4.625713e+002, 2.414332e+002
4.644998e+002, 2.417337e+002
4.664282e+002, 2.410849e+002
4.683567e+002, 2.385714e+002
4.702852e+002, 2.363619e+002
4.722136e+002, 2.349241e+002
4.741421e+002, 2.335070e+002
4.760706e+002, 2.316184e+002
4.779990e+002, 2.297673e+002
4.799275e+002, 2.283443e+002
4.818560e+002, 2.273216e+002
4.837844e+002, 2.269400e+002
4.857129e+002, 2.273269e+002
4.876414e+002, 2.265916e+002
4.895698e+002, 2.234662e+002
4.914983e+002, 2.211485e+002
4.934268e+002, 2.200376e+002
4.953552e+002, 2.193237e+002
4.972837e+002, 2.191021e+002
4.992122e+002, 2.188237e+002
5.011406e+002, 2.180659e+002
5.030691e+002, 2.170032e+002
5.049976e+002, 2.157706e+002
5.069260e+002, 2.143730e+002
5.088545e+002, 2.136650e+002
5.107830e+002, 2.142163e+002
5.127114e+002, 2.139439e+002
5.146399e+002, 2.121912e+002
5.165684e+002, 2.108972e+002
5.184968e+002, 2.110122e+002
5.204253e+002, 2.111954e+002
5.223538e+002, 2.107387e+002
5.242822e+002, 2.098652e+002
5.262107e+002, 2.084908e+002
5.281392e+002, 2.069039e+002
5.300676e+002, 2.063808e+002
5.319961e+002, 2.071522e+002
5.339246e+002, 2.072894e+002
5.358530e+002, 2.066330e+002
5.377815e+002, 2.060068e+002
5.397100e+002, 2.056013e+002
5.416384e+002, 2.051643e+002
5.435669e+002, 2.043815e+002
5.454954e+002, 2.037468e+002
5.474238e+002, 2.037877e+002
5.493523e+002, 2.040169e+002
5.512808e+002, 2.034312e+002
5.532092e+002, 2.023096e+002
5.551377e+002, 2.025432e+002
5.570662e+002, 2.041310e+002
5.589946e+002, 2.049426e+002
5.609231e+002, 2.047116e+002
5.628516e+002, 2.041563e+002
5.647800e+002, 2.032197e+002
5.667085e+002, 2.024126e+002
5.686370e+002, 2.020291e+002
5.705654e+002, 2.016946e+002
5.724939e+002, 2.010808e+002
5.744224e+002, 2.004135e+002
5.763508e+002, 2.000383e+002
5.782793e+002, 1.998884e+002
5.802078e+002, 1.996427e+002
5.821362e+002, 1.993285e+002
5.840647e+002, 1.994775e+002
5.859932e+002, 2.003271e+002
5.879216e+002, 2.006553e+002
5.898501e+002, 1.998124e+002
5.917786e+002, 1.991129e+002
5.937070e+002, 1.991081e+002
5.956355e+002, 1.990658e+002
5.975640e+002, 1.981901e+002
5.994924e+002, 1.974392e+002
6.014209e+002, 1.983427e+002
6.033494e+002, 1.999004e+002
6.052778e+002, 2.001450e+002
6.072063e+002, 1.992446e+002
6.091348e+002, 1.978725e+002
6.110632e+002, 1.959301e+002
6.129917e+002, 1.947553e+002
6.149202e+002, 1.948049e+002
6.168486e+002, 1.950122e+002
6.187771e+002, 1.950662e+002
6.207056e+002, 1.954987e+002
6.226340e+002, 1.973251e+002
6.245625e+002, 1.986016e+002
6.264910e+002, 1.974135e+002
6.284194e+002, 1.955291e+002
6.303479e+002, 1.949001e+002
6.322764e+002, 1.950205e+002
6.342048e+002, 1.949476e+002
6.361333e+002, 1.946776e+002
6.380618e+002, 1.943372e+002
6.399902e+002, 1.939596e+002
6.419187e+002, 1.934200e+002
6.438472e+002, 1.923514e+002
6.457756e+002, 1.917729e+002
6.477041e+002, 1.922039e+002
6.496326e+002, 1.924147e+002
6.515610e+002, 1.917546e+002
6.534895e+002, 1.911579e+002
6.554180e+002, 1.912146e+002
6.573464e+002, 1.915284e+002
6.592749e+002, 1.918926e+002
6.612034e+002, 1.921990e+002
6.631318e+002, 1.922569e+002
6.650603e+002, 1.920938e+002
6.669888e+002, 1.917705e+002
6.689172e+002, 1.912389e+002
6.708457e+002, 1.910299e+002
6.727742e+002, 1.911143e+002
6.747026e+002, 1.916327e+002
6.766311e+002, 1.928533e+002
6.785596e+002, 1.935973e+002
6.804880e+002, 1.928291e+002
6.824165e+002, 1.931935e+002
6.843450e+002, 1.968337e+002
6.862734e+002, 2.005072e+002
6.882019e+002, 2.021623e+002
6.901304e+002, 2.032854e+002
6.920588e+002, 2.052739e+002
6.939873e+002, 2.076180e+002
6.959158e+002, 2.092911e+002
6.978442e+002, 2.105594e+002
6.997727e+002, 2.124444e+002
7.017012e+002, 2.149538e+002
7.036296e+002, 2.175629e+002
7.055581e+002, 2.201558e+002
7.074866e+002, 2.251696e+002
7.094150e+002, 2.332603e+002
7.113435e+002, 2.417319e+002
7.132720e+002, 2.511114e+002
7.152004e+002, 2.580444e+002
7.171289e+002, 2.630002e+002
7.190574e+002, 2.628613e+002
7.209858e+002, 2.540679e+002
7.229143e+002, 2.428236e+002
7.248428e+002, 2.313576e+002
7.267712e+002, 2.210488e+002
7.286997e+002, 2.134333e+002
7.306282e+002, 2.078818e+002
7.325566e+002, 2.037500e+002
7.344851e+002, 2.007224e+002
7.364136e+002, 1.975318e+002
7.383420e+002, 1.944697e+002
7.402705e+002, 1.935244e+002
7.421990e+002, 1.947512e+002
7.441274e+002, 1.950661e+002
7.460559e+002, 1.938684e+002
7.479844e+002, 1.933675e+002
7.499128e+002, 1.943071e+002
7.518413e+002, 1.950330e+002
7.537698e+002, 1.948715e+002
7.556982e+002, 1.951441e+002
7.576267e+002, 1.963254e+002
7.595552e+002, 1.978259e+002
7.614836e+002, 1.996627e+002
7.634121e+002, 2.013992e+002
7.653406e+002, 2.026139e+002
7.672690e+002, 2.036854e+002
7.691975e+002, 2.049678e+002
7.711260e+002, 2.063527e+002
7.730544e+002, 2.076158e+002
7.749829e+002, 2.088861e+002
7.769114e+002, 2.104450e+002
7.788398e+002, 2.122718e+002
7.807683e+002, 2.142793e+002
7.826968e+002, 2.164617e+002
7.846252e+002, 2.188094e+002
7.865537e+002, 2.213181e+002
7.884822e+002, 2.240124e+002
7.904106e+002, 2.268449e+002
7.923391e+002, 2.300227e+002
7.942676e+002, 2.337488e+002
7.961960e+002, 2.374519e+002
7.981245e+002, 2.409180e+002
8.000530e+002, 2.446533e+002
8.019814e+002, 2.483076e+002
8.039099e+002, 2.531568e+002
8.058384e+002, 2.603106e+002
8.077668e+002, 2.679564e+002
8.096953e+002, 2.762991e+002
8.116238e+002, 2.831255e+002
8.135522e+002, 2.873287e+002
8.154807e+002, 2.888607e+002
8.174092e+002, 2.876545e+002
8.193376e+002, 2.837353e+002
8.212661e+002, 2.763983e+002
8.231946e+002, 2.667419e+002
8.251230e+002, 2.565948e+002
8.270515e+002, 2.463279e+002
8.289800e+002, 2.371778e+002
8.309084e+002, 2.291954e+002
8.328369e+002, 2.230724e+002
8.347654e+002, 2.188676e+002
8.366938e+002, 2.154528e+002
8.386223e+002, 2.128824e+002
8.405508e+002, 2.099194e+002
8.424792e+002, 2.063338e+002
8.444077e+002, 2.039924e+002
8.463362e+002, 2.033688e+002
8.482646e+002, 2.024431e+002
8.501931e+002, 2.005995e+002
8.521216e+002, 1.993336e+002
8.540500e+002, 1.993159e+002
8.559785e+002, 1.991948e+002
8.579070e+002, 1.984596e+002
8.598354e+002, 1.977529e+002
8.617639e+002, 1.976292e+002
8.636924e+002, 1.970965e+002
8.656208e+002, 1.956730e+002
8.675493e+002, 1.938194e+002
8.694778e+002, 1.914993e+002
8.714063e+002, 1.891835e+002
8.733347e+002, 1.872703e+002
8.752632e+002, 1.854637e+002
8.771917e+002, 1.834343e+002
8.791201e+002, 1.814010e+002
8.810486e+002, 1.795791e+002
8.829771e+002, 1.779671e+002
8.849055e+002, 1.766258e+002
8.868340e+002, 1.754607e+002
8.887625e+002, 1.742890e+002
8.906909e+002, 1.731561e+002
8.926194e+002, 1.723620e+002
8.945479e+002, 1.716370e+002
8.964763e+002, 1.700052e+002
8.984048e+002, 1.677191e+002
9.003333e+002, 1.658923e+002
9.022617e+002, 1.645644e+002
9.041902e+002, 1.638447e+002
9.061187e+002, 1.637313e+002
9.080471e+002, 1.631946e+002
9.099756e+002, 1.621435e+002
9.119041e+002, 1.610933e+002
9.138325e+002, 1.599189e+002
9.157610e+002, 1.593636e+002
9.176895e+002, 1.597060e+002
9.196179e+002, 1.599380e+002
9.215464e+002, 1.603910e+002
9.234749e+002, 1.600123e+002
9.254033e+002, 1.584761e+002
9.273318e+002, 1.567502e+002
9.292603e+002, 1.543009e+002
9.311887e+002, 1.529723e+002
9.331172e+002, 1.534412e+002
9.350457e+002, 1.540940e+002
9.369741e+002, 1.550244e+002
9.389026e+002, 1.551292e+002
9.408311e+002, 1.535199e+002
9.427595e+002, 1.524797e+002
9.446880e+002, 1.531588e+002
9.466165e+002, 1.535167e+002
9.485449e+002, 1.524734e+002
9.504734e+002, 1.517101e+002
9.524019e+002, 1.523291e+002
9.543303e+002, 1.525905e+002
9.562588e+002, 1.512681e+002
9.581873e+002, 1.501158e+002
9.601157e+002, 1.501697e+002
9.620442e+002, 1.504041e+002
9.639727e+002, 1.502670e+002
9.659011e+002, 1.501457e+002
9.678296e+002, 1.502217e+002
9.697581e+002, 1.504159e+002
9.716865e+002, 1.507624e+002
9.736150e+002, 1.510989e+002
9.755435e+002, 1.511631e+002
9.774719e+002, 1.513552e+002
9.794004e+002, 1.520477e+002
9.813289e+002, 1.529284e+002
9.832573e+002, 1.540730e+002
9.851858e+002, 1.549071e+002
9.871143e+002, 1.543932e+002
9.890427e+002, 1.538882e+002
9.909712e+002, 1.551106e+002
9.928997e+002, 1.566171e+002
9.948281e+002, 1.566507e+002
9.967566e+002, 1.563706e+002
9.986851e+002, 1.570618e+002
1.000614e+003, 1.581699e+002
1.002542e+003, 1.594401e+002
1.004470e+003, 1.603629e+002
1.006399e+003, 1.600737e+002
1.008327e+003, 1.592961e+002
1.010256e+003, 1.586141e+002
1.012184e+003, 1.583095e+002
1.014113e+003, 1.591067e+002
1.016041e+003, 1.601830e+002
1.017970e+003, 1.603963e+002
1.019898e+003, 1.602699e+002
1.021827e+003, 1.604362e+002
1.023755e+003, 1.607717e+002
1.025684e+003, 1.608671e+002
1.027612e+003, 1.612351e+002
1.029541e+003, 1.626483e+002
1.031469e+003, 1.646814e+002
1.033397e+003, 1.671695e+002
1.035326e+003, 1.695535e+002
1.037254e+003, 1.706932e+002
1.039183e+003, 1.716245e+002
1.041111e+003, 1.733398e+002
1.043040e+003, 1.759984e+002
1.044968e+003, 1.794033e+002
1.046897e+003, 1.842587e+002
1.048825e+003, 1.921674e+002
1.050754e+003, 2.013802e+002
1.052682e+003, 2.081690e+002
1.054611e+003, 2.164966e+002
1.056539e+003, 2.267419e+002
1.058468e+003, 2.455922e+002
1.060396e+003, 2.842254e+002
1.062324e+003, 3.325658e+002
1.064253e+003, 3.871250e+002
1.066181e+003, 4.371258e+002
1.068110e+003, 4.655787e+002
1.070038e+003, 4.888359e+002
1.071967e+003, 5.107262e+002
1.073895e+003, 5.504030e+002
1.075824e+003, 6.237527e+002
1.077752e+003, 7.272162e+002
1.079681e+003, 8.713387e+002
1.081609e+003, 1.027881e+003
1.083538e+003, 1.188731e+003
1.085466e+003, 1.331173e+003
1.087395e+003, 1.473527e+003
1.089323e+003, 1.543881e+003
1.091251e+003, 1.475004e+003
1.093180e+003, 1.332680e+003
1.095108e+003, 1.115879e+003
1.097037e+003, 9.025294e+002
1.098965e+003, 7.316054e+002
1.100894e+003, 5.914617e+002
1.102822e+003, 4.815697e+002
1.104751e+003, 3.928831e+002
1.106679e+003, 3.241513e+002
1.108608e+003, 2.709369e+002
1.110536e+003, 2.343000e+002
1.112465e+003, 2.081192e+002
1.114393e+003, 1.930833e+002
1.116322e+003, 1.833272e+002
1.118250e+003, 1.788352e+002
1.120178e+003, 1.761608e+002
1.122107e+003, 1.750315e+002
1.124035e+003, 1.742784e+002
1.125964e+003, 1.734936e+002
1.127892e+003, 1.733920e+002
1.129821e+003, 1.745995e+002
1.131749e+003, 1.752916e+002
1.133678e+003, 1.747366e+002
1.135606e+003, 1.748429e+002
1.137535e+003, 1.760818e+002
1.139463e+003, 1.773003e+002
1.141392e+003, 1.782397e+002
1.143320e+003, 1.797534e+002
1.145249e+003, 1.821581e+002
1.147177e+003, 1.837557e+002
1.149105e+003, 1.842797e+002
1.151034e+003, 1.851473e+002
1.152962e+003, 1.864160e+002
1.154891e+003, 1.888109e+002
1.156819e+003, 1.923476e+002
1.158748e+003, 1.946023e+002
1.160676e+003, 1.956640e+002
1.162605e+003, 1.982817e+002
1.164533e+003, 2.021760e+002
1.166462e+003, 2.049183e+002
1.168390e+003, 2.067973e+002
1.170319e+003, 2.090809e+002
1.172247e+003, 2.117800e+002
1.174176e+003, 2.151434e+002
1.176104e+003, 2.187535e+002
1.178032e+003, 2.213287e+002
1.179961e+003, 2.238271e+002
1.181889e+003, 2.277006e+002
1.183818e+003, 2.325319e+002
1.185746e+003, 2.385168e+002
1.187675e+003, 2.443878e+002
1.189603e+003, 2.485775e+002
1.191532e+003, 2.525606e+002
1.193460e+003, 2.568945e+002
1.195389e+003, 2.621836e+002
1.197317e+003, 2.692442e+002
1.199246e+003, 2.765255e+002
1.201174e+003, 2.833076e+002
1.203103e+003, 2.900130e+002
1.205031e+003, 2.964111e+002
1.206959e+003, 3.038554e+002
1.208888e+003, 3.127034e+002
1.210816e+003, 3.231093e+002
1.212745e+003, 3.356698e+002
1.214673e+003, 3.470496e+002
1.216602e+003, 3.564500e+002
1.218530e+003, 3.660909e+002
1.220459e+003, 3.761800e+002
1.222387e+003, 3.877315e+002
1.224316e+003, 4.007873e+002
1.226244e+003, 4.134602e+002
1.228173e+003, 4.258387e+002
1.230101e+003, 4.407708e+002
1.232030e+003, 4.574514e+002
1.233958e+003, 4.708339e+002
1.235886e+003, 4.823311e+002
1.237815e+003, 4.959736e+002
1.239743e+003, 5.109644e+002
1.241672e+003, 5.261654e+002
1.243600e+003, 5.413232e+002
1.245529e+003, 5.561199e+002
1.247457e+003, 5.707225e+002
1.249386e+003, 5.854925e+002
1.251314e+003, 5.999062e+002
1.253243e+003, 6.128935e+002
1.255171e+003, 6.264492e+002
1.257100e+003, 6.424221e+002
1.259028e+003, 6.578056e+002
1.260957e+003, 6.716407e+002
1.262885e+003, 6.844377e+002
1.264813e+003, 6.961013e+002
1.266742e+003, 7.070339e+002
1.268670e+003, 7.169862e+002
1.270599e+003, 7.271903e+002
1.272527e+003, 7.377978e+002
1.274456e+003, 7.486151e+002
1.276384e+003, 7.596547e+002
1.278313e+003, 7.682774e+002
1.280241e+003, 7.749911e+002
1.282170e+003, 7.833988e+002
1.284098e+003, 7.929170e+002
1.286027e+003, 8.016492e+002
1.287955e+003, 8.100363e+002
1.289884e+003, 8.189594e+002
1.291812e+003, 8.278990e+002
1.293740e+003, 8.369338e+002
1.295669e+003, 8.448373e+002
1.297597e+003, 8.492471e+002
1.299526e+003, 8.548203e+002
1.301454e+003, 8.645128e+002
1.303383e+003, 8.749941e+002
1.305311e+003, 8.857233e+002
1.307240e+003, 8.950750e+002
1.309168e+003, 9.020634e+002
1.311097e+003, 9.098982e+002
1.313025e+003, 9.189340e+002
1.314954e+003, 9.295574e+002
1.316882e+003, 9.419006e+002
1.318811e+003, 9.548920e+002
1.320739e+003, 9.683541e+002
1.322667e+003, 9.800490e+002
1.324596e+003, 9.909923e+002
1.326524e+003, 1.004063e+003
1.328453e+003, 1.018330e+003
1.330381e+003, 1.031814e+003
1.332310e+003, 1.046099e+003
1.334238e+003, 1.064624e+003
1.336167e+003, 1.081858e+003
1.338095e+003, 1.092656e+003
1.340024e+003, 1.104474e+003
1.341952e+003, 1.121117e+003
1.343881e+003, 1.134883e+003
1.345809e+003, 1.143614e+003
1.347738e+003, 1.151558e+003
1.349666e+003, 1.159258e+003
1.351594e+003, 1.168995e+003
1.353523e+003, 1.180800e+003
1.355451e+003, 1.193484e+003
1.357380e+003, 1.206198e+003
1.359308e+003, 1.215210e+003
1.361237e+003, 1.222568e+003
1.363165e+003, 1.231480e+003
1.365094e+003, 1.241873e+003
1.367022e+003, 1.254072e+003
1.368951e+003, 1.267041e+003
1.370879e+003, 1.280539e+003
1.372808e+003, 1.293529e+003
1.374736e+003, 1.303105e+003
1.376665e+003, 1.316892e+003
1.378593e+003, 1.337485e+003
1.380521e+003, 1.358615e+003
1.382450e+003, 1.379321e+003
1.384378e+003, 1.408433e+003
1.386307e+003, 1.444679e+003
1.388235e+003, 1.469588e+003
1.390164e+003, 1.483658e+003
1.392092e+003, 1.492463e+003
1.394021e+003, 1.489501e+003
1.395949e+003, 1.462778e+003
1.397878e+003, 1.423610e+003
1.399806e+003, 1.375436e+003
1.401735e+003, 1.328245e+003
1.403663e+003, 1.286738e+003
1.405592e+003, 1.248573e+003
1.407520e+003, 1.213613e+003
1.409448e+003, 1.180707e+003
1.411377e+003, 1.149144e+003
1.413305e+003, 1.122723e+003
1.415234e+003, 1.101374e+003
1.417162e+003, 1.083355e+003
1.419091e+003, 1.067754e+003
1.421019e+003, 1.051037e+003
1.422948e+003, 1.034990e+003
1.424876e+003, 1.023683e+003
1.426805e+003, 1.012365e+003
1.428733e+003, 9.966306e+002
1.430662e+003, 9.818600e+002
1.432590e+003, 9.707999e+002
1.434519e+003, 9.589433e+002
1.436447e+003, 9.448069e+002
1.438375e+003, 9.328323e+002
1.440304e+003, 9.235682e+002
1.442232e+003, 9.116242e+002
1.444161e+003, 8.977706e+002
1.446089e+003, 8.870239e+002
1.448018e+003, 8.774938e+002
1.449946e+003, 8.646301e+002
1.451875e+003, 8.519215e+002
1.453803e+003, 8.432581e+002
1.455732e+003, 8.353069e+002
1.457660e+003, 8.265411e+002
1.459589e+003, 8.178869e+002
1.461517e+003, 8.096074e+002
1.463446e+003, 8.008605e+002
1.465374e+003, 7.916133e+002
1.467302e+003, 7.836209e+002
1.469231e+003, 7.767751e+002
1.471159e+003, 7.705329e+002
1.473088e+003, 7.642592e+002
1.475016e+003, 7.561200e+002
1.476945e+003, 7.484219e+002
1.478873e+003, 7.438828e+002
1.480802e+003, 7.394685e+002
1.482730e+003, 7.334675e+002
1.484659e+003, 7.280572e+002
1.486587e+003, 7.240167e+002
1.488516e+003, 7.181809e+002
1.490444e+003, 7.105863e+002
1.492373e+003, 7.065523e+002
1.494301e+003, 7.050280e+002
1.496229e+003, 7.030554e+002
1.498158e+003, 7.004865e+002
1.500086e+003, 6.964758e+002
1.502015e+003, 6.929598e+002
1.503943e+003, 6.920154e+002
1.505872e+003, 6.903943e+002
1.507800e+003, 6.861044e+002
1.509729e+003, 6.836498e+002
1.511657e+003, 6.834869e+002
1.513586e+003, 6.838942e+002
1.515514e+003, 6.846865e+002
1.517443e+003, 6.850557e+002
1.519371e+003, 6.849186e+002
1.521300e+003, 6.840197e+002
1.523228e+003, 6.826743e+002
1.525156e+003, 6.803838e+002
1.527085e+003, 6.795753e+002
1.529013e+003, 6.816223e+002
1.530942e+003, 6.830433e+002
1.532870e+003, 6.832404e+002
1.534799e+003, 6.834904e+002
1.536727e+003, 6.840536e+002
1.538656e+003, 6.861743e+002
1.540584e+003, 6.892816e+002
1.542513e+003, 6.931410e+002
1.544441e+003, 6.964293e+002
1.546370e+003, 6.974723e+002
1.548298e+003, 6.995970e+002
1.550227e+003, 7.039738e+002
1.552155e+003, 7.074001e+002
1.554083e+003, 7.094801e+002
1.556012e+003, 7.140143e+002
1.557940e+003, 7.202864e+002
1.559869e+003, 7.262273e+002
1.561797e+003, 7.311265e+002
1.563726e+003, 7.335906e+002
1.565654e+003, 7.354678e+002
1.567583e+003, 7.373108e+002
1.569511e+003, 7.402557e+002
1.571440e+003, 7.447790e+002
1.573368e+003, 7.481776e+002
1.575297e+003, 7.504557e+002
1.577225e+003, 7.533786e+002
1.579154e+003, 7.567105e+002
1.581082e+003, 7.603555e+002
1.583010e+003, 7.633946e+002
1.584939e+003, 7.643914e+002
1.586867e+003, 7.656367e+002
1.588796e+003, 7.690714e+002
1.590724e+003, 7.700910e+002
1.592653e+003, 7.683056e+002
1.594581e+003, 7.668035e+002
1.596510e+003, 7.660508e+002
1.598438e+003, 7.686347e+002
1.600367e+003, 7.709156e+002
1.602295e+003, 7.685060e+002
1.604224e+003, 7.650851e+002
1.606152e+003, 7.623962e+002
1.608081e+003, 7.593591e+002
1.610009e+003, 7.556607e+002
1.611938e+003, 7.522598e+002
1.613866e+003, 7.491531e+002
1.615794e+003, 7.466158e+002
1.617723e+003, 7.441697e+002
1.619651e+003, 7.414944e+002
1.621580e+003, 7.379906e+002
1.623508e+003, 7.330013e+002
1.625437e+003, 7.281094e+002
1.627365e+003, 7.236689e+002
1.629294e+003, 7.191707e+002
1.631222e+003, 7.147860e+002
1.633151e+003, 7.126340e+002
1.635079e+003, 7.104689e+002
1.637008e+003, 7.045248e+002
1.638936e+003, 6.976699e+002
1.640865e+003, 6.911674e+002
1.642793e+003, 6.843926e+002
1.644721e+003, 6.771048e+002
1.646650e+003, 6.722643e+002
1.648578e+003, 6.693223e+002
1.650507e+003, 6.648213e+002
1.652435e+003, 6.599068e+002
1.654364e+003, 6.558761e+002
1.656292e+003, 6.524777e+002
1.658221e+003, 6.495439e+002
1.660149e+003, 6.471367e+002
1.662078e+003, 6.452246e+002
1.664006e+003, 6.436306e+002
1.665935e+003, 6.418478e+002
1.667863e+003, 6.376401e+002
1.669792e+003, 6.335705e+002
1.671720e+003, 6.329526e+002
1.673648e+003, 6.324986e+002
1.675577e+003, 6.308952e+002
1.677505e+003, 6.301779e+002
1.679434e+003, 6.304223e+002
1.681362e+003, 6.300005e+002
1.683291e+003, 6.293990e+002
1.685219e+003, 6.297524e+002
1.687148e+003, 6.303590e+002
1.689076e+003, 6.304235e+002
1.691005e+003, 6.312587e+002
1.692933e+003, 6.337725e+002
1.694862e+003, 6.329345e+002
1.696790e+003, 6.299053e+002
1.698719e+003, 6.328376e+002
1.700647e+003, 6.373391e+002
1.702575e+003, 6.378777e+002
1.704504e+003, 6.383788e+002
1.706432e+003, 6.412080e+002
1.708361e+003, 6.426502e+002
1.710289e+003, 6.421318e+002
1.712218e+003, 6.490159e+002
1.714146e+003, 6.595792e+002
1.716075e+003, 6.656154e+002
1.718003e+003, 6.700524e+002
1.719932e+003, 6.752645e+002
1.721860e+003, 6.775087e+002
1.723789e+003, 6.756414e+002
1.725717e+003, 6.708630e+002
1.727646e+003, 6.638054e+002
1.729574e+003, 6.555930e+002
1.731502e+003, 6.482664e+002
1.733431e+003, 6.448555e+002
1.735359e+003, 6.404680e+002
1.737288e+003, 6.334523e+002
1.739216e+003, 6.261688e+002
1.741145e+003, 6.190046e+002
1.743073e+003, 6.131720e+002
1.745002e+003, 6.078952e+002
1.746930e+003, 6.016815e+002
1.748859e+003, 5.964935e+002
1.750787e+003, 5.934354e+002
1.752716e+003, 5.896308e+002
1.754644e+003, 5.846703e+002
1.756573e+003, 5.776165e+002
1.758501e+003, 5.702094e+002
1.760429e+003, 5.658994e+002
1.762358e+003, 5.615399e+002
1.764286e+003, 5.554136e+002
1.766215e+003, 5.483739e+002
1.768143e+003, 5.407505e+002
1.770072e+003, 5.374494e+002
1.772000e+003, 5.357169e+002
1.773929e+003, 5.300388e+002
1.775857e+003, 5.236051e+002
1.777786e+003, 5.185903e+002
1.779714e+003, 5.129816e+002
1.781643e+003, 5.066160e+002
1.783571e+003, 5.007099e+002
1.785500e+003, 4.949739e+002
1.787428e+003, 4.881812e+002
1.789356e+003, 4.822110e+002
1.791285e+003, 4.787986e+002
1.793213e+003, 4.752454e+002
1.795142e+003, 4.712268e+002
1.797070e+003, 4.669232e+002
1.798999e+003, 4.617199e+002
1.800927e+003, 4.531336e+002
1.802856e+003, 4.456643e+002
1.804784e+003, 4.428322e+002
1.806713e+003, 4.388574e+002
1.808641e+003, 4.330492e+002
1.810570e+003, 4.278250e+002
1.812498e+003, 4.231495e+002
1.814427e+003, 4.190451e+002
1.816355e+003, 4.153542e+002
1.818283e+003, 4.121852e+002
1.820212e+003, 4.086057e+002
1.822140e+003, 4.045888e+002
1.824069e+003, 4.018172e+002
1.825997e+003, 3.990963e+002
1.827926e+003, 3.942665e+002
1.829854e+003, 3.893215e+002
1.831783e+003, 3.846330e+002
1.833711e+003, 3.818396e+002
1.835640e+003, 3.808094e+002
1.837568e+003, 3.807967e+002
1.839497e+003, 3.802382e+002
1.841425e+003, 3.769834e+002
1.843354e+003, 3.733647e+002
1.845282e+003, 3.698077e+002
1.847210e+003, 3.684122e+002
1.849139e+003, 3.681972e+002
1.851067e+003, 3.658416e+002
1.852996e+003, 3.632069e+002
1.854924e+003, 3.614450e+002
1.856853e+003, 3.608267e+002
1.858781e+003, 3.612038e+002
1.860710e+003, 3.586446e+002
1.862638e+003, 3.550428e+002
1.864567e+003, 3.538290e+002
1.866495e+003, 3.528810e+002
1.868424e+003, 3.511570e+002
1.870352e+003, 3.497912e+002
1.872281e+003, 3.487314e+002
1.874209e+003, 3.469434e+002
1.876137e+003, 3.454893e+002
1.878066e+003, 3.463931e+002
1.879994e+003, 3.456558e+002
1.881923e+003, 3.418820e+002
1.883851e+003, 3.410973e+002
1.885780e+003, 3.416069e+002
1.887708e+003, 3.389753e+002
1.889637e+003, 3.359179e+002
1.891565e+003, 3.341815e+002
1.893494e+003, 3.317681e+002
1.895422e+003, 3.286537e+002
1.897351e+003, 3.266953e+002
1.899279e+003, 3.246497e+002
1.901208e+003, 3.206793e+002
1.903136e+003, 3.178719e+002
1.905064e+003, 3.175708e+002
1.906993e+003, 3.154280e+002
1.908921e+003, 3.123749e+002
1.910850e+003, 3.111678e+002
1.912778e+003, 3.100096e+002
1.914707e+003, 3.082053e+002
1.916635e+003, 3.052964e+002
1.918564e+003, 3.014965e+002
1.920492e+003, 2.985177e+002
1.922421e+003, 2.956067e+002
1.924349e+003, 2.920646e+002
1.926278e+003, 2.878814e+002
1.928206e+003, 2.831038e+002
1.930135e+003, 2.816937e+002
1.932063e+003, 2.817637e+002
1.933991e+003, 2.805101e+002
1.935920e+003, 2.776017e+002
1.937848e+003, 2.727735e+002
1.939777e+003, 2.687221e+002
1.941705e+003, 2.654942e+002
1.943634e+003, 2.625865e+002
1.945562e+003, 2.595279e+002
1.947491e+003, 2.559719e+002
1.949419e+003, 2.521635e+002
1.951348e+003, 2.482086e+002
1.953276e+003, 2.449163e+002
1.955205e+003, 2.414176e+002
1.957133e+003, 2.360928e+002
1.959062e+003, 2.319689e+002
1.960990e+003, 2.295349e+002
1.962918e+003, 2.260736e+002
1.964847e+003, 2.224095e+002
1.966775e+003, 2.204357e+002
1.968704e+003, 2.177521e+002
1.970632e+003, 2.132773e+002
1.972561e+003, 2.090608e+002
1.974489e+003, 2.051339e+002
1.976418e+003, 2.014077e+002
1.978346e+003, 1.979256e+002
1.980275e+003, 1.946955e+002
1.982203e+003, 1.917815e+002
1.984132e+003, 1.890314e+002
1.986060e+003, 1.860955e+002
1.987989e+003, 1.824807e+002
1.989917e+003, 1.772022e+002
1.991845e+003, 1.742316e+002
1.993774e+003, 1.734563e+002
1.995702e+003, 1.706844e+002
1.997631e+003, 1.672334e+002
1.999559e+003, 1.641666e+002
2.001488e+003, 1.605588e+002
2.003416e+003, 1.564100e+002
2.005345e+003, 1.546674e+002
2.007273e+003, 1.538937e+002
2.009202e+003, 1.528919e+002
2.011130e+003, 1.510946e+002
2.013059e+003, 1.483916e+002
2.014987e+003, 1.453052e+002
2.016916e+003, 1.425761e+002
2.018844e+003, 1.417431e+002
2.020772e+003, 1.403352e+002
2.022701e+003, 1.378996e+002
2.024629e+003, 1.355484e+002
2.026558e+003, 1.336594e+002
2.028486e+003, 1.331838e+002
2.030415e+003, 1.322353e+002
2.032343e+003, 1.303876e+002
2.034272e+003, 1.289530e+002
2.036200e+003, 1.278374e+002
2.038129e+003, 1.271498e+002
2.040057e+003, 1.258176e+002
2.041986e+003, 1.235878e+002
2.043914e+003, 1.208397e+002
2.045843e+003, 1.184179e+002
2.047771e+003, 1.178352e+002
2.049699e+003, 1.174695e+002
2.051628e+003, 1.168615e+002
2.053556e+003, 1.163456e+002
2.055485e+003, 1.154320e+002
2.057413e+003, 1.128240e+002
2.059342e+003, 1.109441e+002
2.061270e+003, 1.106937e+002
2.063199e+003, 1.102975e+002
2.065127e+003, 1.096709e+002
2.067056e+003, 1.086757e+002
2.068984e+003, 1.075412e+002
2.070913e+003, 1.062662e+002
2.072841e+003, 1.060279e+002
2.074770e+003, 1.059030e+002
2.076698e+003, 1.043799e+002
2.078626e+003, 1.034314e+002
2.080555e+003, 1.036371e+002
2.082483e+003, 1.028088e+002
2.084412e+003, 1.018943e+002
2.086340e+003, 1.023367e+002
2.088269e+003, 1.017879e+002
2.090197e+003, 9.979447e+001
2.092126e+003, 9.853553e+001
2.094054e+003, 9.794732e+001
2.095983e+003, 9.832767e+001
2.097911e+003, 9.757896e+001
2.099840e+003, 9.572544e+001
2.101768e+003, 9.607645e+001
2.103697e+003, 9.668416e+001
2.105625e+003, 9.600315e+001
2.107553e+003, 9.512473e+001
2.109482e+003, 9.429902e+001
2.111410e+003, 9.395827e+001
2.113339e+003, 9.380000e+001
2.115267e+003, 9.361575e+001
2.117196e+003, 9.407072e+001
2.119124e+003, 9.452602e+001
2.121053e+003, 9.283690e+001
2.122981e+003, 9.128268e+001
2.124910e+003, 9.087382e+001
2.126838e+003, 9.014320e+001
2.128767e+003, 8.933253e+001
2.130695e+003, 8.909779e+001
2.132624e+003, 8.882658e+001
2.134552e+003, 8.838492e+001
2.136480e+003, 8.650654e+001
2.138409e+003, 8.492477e+001
2.140337e+003, 8.631438e+001
2.142266e+003, 8.694914e+001
2.144194e+003, 8.633940e+001
2.146123e+003, 8.547112e+001
2.148051e+003, 8.488240e+001
2.149980e+003, 8.540044e+001
2.151908e+003, 8.444704e+001
2.153837e+003, 8.242482e+001
2.155765e+003, 8.158538e+001
2.157694e+003, 8.137035e+001
2.159622e+003, 8.171523e+001
2.161551e+003, 8.119462e+001
2.163479e+003, 8.046770e+001
2.165407e+003, 8.112420e+001
2.167336e+003, 8.143278e+001
2.169264e+003, 8.092828e+001
2.171193e+003, 8.096677e+001
2.173121e+003, 8.109084e+001
2.175050e+003, 8.100349e+001
2.176978e+003, 7.973238e+001
2.178907e+003, 7.771163e+001
2.180835e+003, 7.824064e+001
2.182764e+003, 7.850729e+001
2.184692e+003, 7.703703e+001
2.186621e+003, 7.655504e+001
2.188549e+003, 7.656715e+001
2.190478e+003, 7.549928e+001
2.192406e+003, 7.465422e+001
2.194334e+003, 7.430814e+001
2.196263e+003, 7.354704e+001
2.198191e+003, 7.310983e+001
2.200120e+003, 7.428581e+001
2.202048e+003, 7.471811e+001
2.203977e+003, 7.433468e+001
2.205905e+003, 7.358217e+001
2.207834e+003, 7.289108e+001
2.209762e+003, 7.240766e+001
2.211691e+003, 7.269607e+001
2.213619e+003, 7.319032e+001
2.215548e+003, 7.311806e+001
2.217476e+003, 7.265285e+001
2.219405e+003, 7.186131e+001
2.221333e+003, 7.028376e+001
2.223261e+003, 6.926192e+001
2.225190e+003, 7.004434e+001
2.227118e+003, 7.082964e+001
2.229047e+003, 7.144767e+001
2.230975e+003, 7.195786e+001
2.232904e+003, 7.150724e+001
2.234832e+003, 6.975785e+001
2.236761e+003, 6.970776e+001
2.238689e+003, 6.993635e+001
2.240618e+003, 6.913972e+001
2.242546e+003, 6.920203e+001
2.244475e+003, 6.978120e+001
2.246403e+003, 6.880516e+001
2.248332e+003, 6.865551e+001
2.250260e+003, 7.008286e+001
2.252188e+003, 6.882277e+001
2.254117e+003, 6.722275e+001
2.256045e+003, 6.780168e+001
2.257974e+003, 6.835464e+001
2.259902e+003, 6.857810e+001
2.261831e+003, 6.877005e+001
2.263759e+003, 6.797226e+001
2.265688e+003, 6.598117e+001
2.267616e+003, 6.611971e+001
2.269545e+003, 6.693060e+001
2.271473e+003, 6.686774e+001
2.273402e+003, 6.643380e+001
2.275330e+003, 6.585835e+001
2.277259e+003, 6.559342e+001
2.279187e+003, 6.563862e+001
2.281115e+003, 6.595495e+001
2.283044e+003, 6.533933e+001
2.284972e+003, 6.471185e+001
2.286901e+003, 6.528548e+001
2.288829e+003, 6.519860e+001
2.290758e+003, 6.452327e+001
2.292686e+003, 6.376615e+001
2.294615e+003, 6.278703e+001
2.296543e+003, 6.156317e+001
2.298472e+003, 6.234520e+001
2.300400e+003, 6.343972e+001
2.302329e+003, 6.372926e+001
2.304257e+003, 6.285173e+001
2.306186e+003, 6.170872e+001
2.308114e+003, 6.208725e+001
2.310042e+003, 6.235561e+001
2.311971e+003, 6.221846e+001
2.313899e+003, 6.242616e+001
2.315828e+003, 6.245093e+001
2.317756e+003, 6.198951e+001
2.319685e+003, 6.156549e+001
2.321613e+003, 6.136865e+001
2.323542e+003, 6.166041e+001
2.325470e+003, 6.184486e+001
2.327399e+003, 6.185232e+001
2.329327e+003, 6.162066e+001
2.331256e+003, 6.168171e+001
2.333184e+003, 6.211367e+001
2.335113e+003, 6.165790e+001
2.337041e+003, 6.090171e+001
2.338969e+003, 6.025364e+001
2.340898e+003, 5.967850e+001
2.342826e+003, 5.934960e+001
2.344755e+003, 5.987563e+001
2.346683e+003, 5.966798e+001
2.348612e+003, 5.899078e+001
2.350540e+003, 6.063762e+001
2.352469e+003, 6.055900e+001
2.354397e+003, 5.754256e+001
2.356326e+003, 5.872779e+001
2.358254e+003, 6.055522e+001
2.360183e+003, 5.944330e+001
2.362111e+003, 5.962718e+001
2.364040e+003, 6.031535e+001
2.365968e+003, 5.990731e+001
2.367896e+003, 5.895096e+001
2.369825e+003, 5.788470e+001
2.371753e+003, 5.845778e+001
2.373682e+003, 5.877374e+001
2.375610e+003, 5.811901e+001
2.377539e+003, 5.676711e+001
2.379467e+003, 5.603143e+001
2.381396e+003, 5.723107e+001
2.383324e+003, 5.731670e+001
2.385253e+003, 5.666066e+001
2.387181e+003, 5.576253e+001
2.389110e+003, 5.564457e+001
2.391038e+003, 5.609498e+001
2.392967e+003, 5.606277e+001
2.394895e+003, 5.615221e+001
2.396823e+003, 5.648616e+001
2.398752e+003, 5.680384e+001
2.400680e+003, 5.650537e+001
2.402609e+003, 5.533207e+001
2.404537e+003, 5.566288e+001
2.406466e+003, 5.617616e+001
2.408394e+003, 5.561935e+001
2.410323e+003, 5.499274e+001
2.412251e+003, 5.473516e+001
2.414180e+003, 5.593575e+001
2.416108e+003, 5.607824e+001
2.418037e+003, 5.529005e+001
2.419965e+003, 5.510695e+001
2.421894e+003, 5.497954e+001
2.423822e+003, 5.468200e+001
2.425750e+003, 5.358583e+001
2.427679e+003, 5.266487e+001
2.429607e+003, 5.233981e+001
2.431536e+003, 5.416636e+001
2.433464e+003, 5.526910e+001
2.435393e+003, 5.226091e+001
2.437321e+003, 5.201763e+001
2.439250e+003, 5.309366e+001
2.441178e+003, 5.344553e+001
2.443107e+003, 5.352418e+001
2.445035e+003, 5.335276e+001
2.446964e+003, 5.285619e+001
2.448892e+003, 5.207925e+001
2.450821e+003, 5.131919e+001
2.452749e+003, 5.232343e+001
2.454677e+003, 5.225409e+001
2.456606e+003, 5.048474e+001
2.458534e+003, 5.147458e+001
2.460463e+003, 5.234898e+001
2.462391e+003, 5.169793e+001
2.464320e+003, 5.120606e+001
2.466248e+003, 5.126659e+001
2.468177e+003, 5.214803e+001
2.470105e+003, 5.251866e+001
2.472034e+003, 5.210529e+001
2.473962e+003, 5.051899e+001
2.475891e+003, 5.052203e+001
2.477819e+003, 5.118470e+001
2.479748e+003, 5.069659e+001
2.481676e+003, 5.057603e+001
2.483604e+003, 5.064020e+001
2.485533e+003, 4.987718e+001
2.487461e+003, 4.922951e+001
2.489390e+003, 4.885369e+001
2.491318e+003, 4.855190e+001
2.493247e+003, 4.882923e+001
2.495175e+003, 4.950171e+001
2.497104e+003, 4.919193e+001
2.499032e+003, 4.850951e+001
2.500961e+003, 4.774586e+001
2.502889e+003, 4.718109e+001
2.504818e+003, 4.725800e+001
2.506746e+003, 4.818011e+001
2.508675e+003, 4.945026e+001
2.510603e+003, 4.999281e+001
2.512531e+003, 4.877521e+001
2.514460e+003, 4.879056e+001
2.516388e+003, 4.898532e+001
2.518317e+003, 4.809174e+001
2.520245e+003, 4.901623e+001
2.522174e+003, 5.024212e+001
2.524102e+003, 5.029142e+001
2.526031e+003, 4.864006e+001
2.527959e+003, 4.776085e+001
2.529888e+003, 5.110692e+001
2.531816e+003, 5.152494e+001
2.533745e+003, 5.021001e+001
2.535673e+003, 4.987336e+001
2.537602e+003, 5.007100e+001
2.539530e+003, 5.040130e+001
2.541458e+003, 5.033107e+001
2.543387e+003, 4.981867e+001
2.545315e+003, 4.912259e+001
2.547244e+003, 4.895086e+001
2.549172e+003, 4.850862e+001
2.551101e+003, 4.796009e+001
2.553029e+003, 4.845834e+001
2.554958e+003, 4.784552e+001
2.556886e+003, 4.651738e+001
2.558815e+003, 4.733106e+001
2.560743e+003, 4.769756e+001
2.562672e+003, 4.739544e+001
2.564600e+003, 4.799039e+001
2.566529e+003, 4.787949e+001
2.568457e+003, 4.690853e+001
2.570385e+003, 4.567186e+001
2.572314e+003, 4.496326e+001
2.574242e+003, 4.490160e+001
2.576171e+003, 4.553668e+001
2.578099e+003, 4.563717e+001
2.580028e+003, 4.504728e+001
2.581956e+003, 4.449543e+001
2.583885e+003, 4.458103e+001
2.585813e+003, 4.523121e+001
2.587742e+003, 4.451051e+001
2.589670e+003, 4.384569e+001
2.591599e+003, 4.360964e+001
2.593527e+003, 4.328936e+001
2.595456e+003, 4.304570e+001
2.597384e+003, 4.291363e+001
2.599313e+003, 4.293388e+001
2.601241e+003, 4.230310e+001
2.603169e+003, 4.113395e+001
2.605098e+003, 4.237324e+001
2.607026e+003, 4.288660e+001
2.608955e+003, 4.196143e+001
2.610883e+003, 4.111802e+001
2.612812e+003, 4.018321e+001
2.614740e+003, 3.946828e+001
2.616669e+003, 4.124319e+001
2.618597e+003, 4.191983e+001
2.620526e+003, 4.100743e+001
2.622454e+003, 4.073134e+001
2.624383e+003, 4.057013e+001
2.626311e+003, 4.056061e+001
2.628240e+003, 4.189818e+001
2.630168e+003, 4.122567e+001
2.632096e+003, 3.887813e+001
2.634025e+003, 3.768242e+001
2.635953e+003, 3.812283e+001
2.637882e+003, 3.970362e+001
2.639810e+003, 4.172391e+001
2.641739e+003, 4.127561e+001
2.643667e+003, 3.941238e+001
2.645596e+003, 3.930732e+001
2.647524e+003, 3.963635e+001
2.649453e+003, 3.993915e+001
2.651381e+003, 3.992306e+001
2.653310e+003, 3.923266e+001
2.655238e+003, 3.809803e+001
2.657167e+003, 3.674921e+001
2.659095e+003, 3.616156e+001
2.661023e+003, 3.612247e+001
2.662952e+003, 3.621344e+001
2.664880e+003, 3.731975e+001
2.666809e+003, 3.785561e+001
2.668737e+003, 3.617125e+001
2.670666e+003, 3.664086e+001
2.672594e+003, 3.765566e+001
2.674523e+003, 3.778679e+001
2.676451e+003, 3.565891e+001
2.678380e+003, 3.428082e+001
2.680308e+003, 3.522921e+001
2.682237e+003, 3.607786e+001
2.684165e+003, 3.566761e+001
2.686094e+003, 3.401611e+001
2.688022e+003, 3.517757e+001
2.689950e+003, 3.569317e+001
2.691879e+003, 3.462117e+001
2.693807e+003, 3.352768e+001
2.695736e+003, 3.369021e+001
2.697664e+003, 3.481058e+001
2.699593e+003, 3.495631e+001
2.701521e+003, 3.462412e+001
2.703450e+003, 3.418258e+001
2.705378e+003, 3.435166e+001
2.707307e+003, 3.386144e+001
2.709235e+003, 3.286433e+001
2.711164e+003, 3.133381e+001
2.713092e+003, 3.266344e+001
2.715021e+003, 3.439317e+001
2.716949e+003, 3.311236e+001
2.718877e+003, 3.248371e+001
2.720806e+003, 3.217216e+001
2.722734e+003, 3.174145e+001
2.724663e+003, 3.213772e+001
2.726591e+003, 3.254620e+001
2.728520e+003, 3.252880e+001
2.730448e+003, 3.282055e+001
2.732377e+003, 3.186028e+001
2.734305e+003, 2.991904e+001
2.736234e+003, 3.284102e+001
2.738162e+003, 3.377270e+001
2.740091e+003, 3.221328e+001
2.742019e+003, 3.091601e+001
2.743948e+003, 3.007031e+001
2.745876e+003, 2.984032e+001
2.747804e+003, 3.065730e+001
2.749733e+003, 3.030794e+001
2.751661e+003, 2.956339e+001
2.753590e+003, 2.926361e+001
2.755518e+003, 2.953434e+001
2.757447e+003, 3.016888e+001
2.759375e+003, 3.092755e+001
2.761304e+003, 3.021412e+001
2.763232e+003, 2.967537e+001
2.765161e+003, 2.968216e+001
2.767089e+003, 2.933422e+001
2.769018e+003, 2.882263e+001
2.770946e+003, 2.844288e+001
2.772875e+003, 2.881488e+001
2.774803e+003, 2.910832e+001
2.776731e+003, 2.896024e+001
2.778660e+003, 2.763239e+001
2.780588e+003, 2.850704e+001
2.782517e+003, 2.921047e+001
2.784445e+003, 2.771877e+001
2.786374e+003, 2.780614e+001
2.788302e+003, 2.750839e+001
2.790231e+003, 2.632003e+001
2.792159e+003, 2.676614e+001
2.794088e+003, 2.665173e+001
2.796016e+003, 2.586478e+001
2.797945e+003, 2.505247e+001
2.799873e+003, 2.587714e+001
2.801802e+003, 2.674943e+001
2.803730e+003, 2.580944e+001
2.805658e+003, 2.574033e+001
2.807587e+003, 2.599611e+001
2.809515e+003, 2.605540e+001
2.811444e+003, 2.507316e+001
2.813372e+003, 2.454068e+001
2.815301e+003, 2.464759e+001
2.817229e+003, 2.414374e+001
2.819158e+003, 2.414523e+001
2.821086e+003, 2.443934e+001
2.823015e+003, 2.433333e+001
2.824943e+003, 2.457292e+001
2.826872e+003, 2.451941e+001
2.828800e+003, 2.366698e+001
2.830729e+003, 2.414191e+001
2.832657e+003, 2.417236e+001
2.834585e+003, 2.354230e+001
2.836514e+003, 2.476394e+001
2.838442e+003, 2.437494e+001
2.840371e+003, 2.282010e+001
2.842299e+003, 2.158016e+001
2.844228e+003, 2.195301e+001
2.846156e+003, 2.267936e+001
2.848085e+003, 2.270133e+001
2.850013e+003, 2.169748e+001
2.851942e+003, 2.148873e+001
2.853870e+003, 2.218105e+001
2.855799e+003, 2.078652e+001
2.857727e+003, 2.096923e+001
2.859656e+003, 2.188513e+001
2.861584e+003, 2.150291e+001
2.863512e+003, 2.143447e+001
2.865441e+003, 2.080182e+001
2.867369e+003, 1.935200e+001
2.869298e+003, 2.044777e+001
2.871226e+003, 2.103998e+001
2.873155e+003, 2.069543e+001
2.875083e+003, 2.102155e+001
2.877012e+003, 2.102323e+001
2.878940e+003, 2.072982e+001
2.880869e+003, 2.028767e+001
2.882797e+003, 1.947282e+001
2.884726e+003, 1.960352e+001
2.886654e+003, 2.057736e+001
2.888583e+003, 1.920990e+001
2.890511e+003, 1.876403e+001
2.892439e+003, 1.914737e+001
2.894368e+003, 1.933591e+001
2.896296e+003, 1.850237e+001
2.898225e+003, 1.813074e+001
2.900153e+003, 1.910679e+001
2.902082e+003, 1.859560e+001
2.904010e+003, 1.808218e+001
2.905939e+003, 1.793168e+001
2.907867e+003, 1.814418e+001
2.909796e+003, 1.782213e+001
2.911724e+003, 1.801575e+001
2.913653e+003, 1.951461e+001
2.915581e+003, 1.877332e+001
2.917510e+003, 1.779769e+001
2.919438e+003, 1.724756e+001
2.921366e+003, 1.703568e+001
2.923295e+003, 1.695625e+001
2.925223e+003, 1.662339e+001
2.927152e+003, 1.582225e+001
2.929080e+003, 1.569338e+001
2.931009e+003, 1.608421e+001
2.932937e+003, 1.664303e+001
2.934866e+003, 1.660756e+001
2.936794e+003, 1.631358e+001
2.938723e+003, 1.606514e+001
2.940651e+003, 1.608190e+001
2.942580e+003, 1.555260e+001
2.944508e+003, 1.579160e+001
2.946437e+003, 1.652282e+001
2.948365e+003, 1.584141e+001
2.950293e+003, 1.469211e+001
2.952222e+003, 1.425152e+001
2.954150e+003, 1.557953e+001
2.956079e+003, 1.484518e+001
2.958007e+003, 1.481508e+001
2.959936e+003, 1.563838e+001
2.961864e+003, 1.548284e+001
2.963793e+003, 1.541953e+001
2.965721e+003, 1.581083e+001
2.967650e+003, 1.678962e+001
2.969578e+003, 1.514037e+001
2.971507e+003, 1.465779e+001
2.973435e+003, 1.532047e+001
2.975364e+003, 1.526825e+001
2.977292e+003, 1.374275e+001
2.979220e+003, 1.281524e+001
2.981149e+003, 1.344492e+001
2.983077e+003, 1.366318e+001
2.985006e+003, 1.417040e+001
2.986934e+003, 1.410174e+001
2.988863e+003, 1.216184e+001
2.990791e+003, 1.266757e+001
2.992720e+003, 1.342445e+001
2.994648e+003, 1.354631e+001
2.996577e+003, 1.351895e+001
2.998505e+003, 1.417609e+001
3.000434e+003, 1.450671e+001
3.002362e+003, 1.365764e+001
3.004291e+003, 1.391348e+001
3.006219e+003, 1.412923e+001
3.008147e+003, 1.382741e+001
3.010076e+003, 1.252160e+001
3.012004e+003, 1.225045e+001
3.013933e+003, 1.274378e+001
3.015861e+003, 1.349536e+001
3.017790e+003, 1.257267e+001
3.019718e+003, 1.283088e+001
3.021647e+003, 1.324737e+001
3.023575e+003, 1.229124e+001
3.025504e+003, 1.294157e+001
3.027432e+003, 1.257695e+001
3.029361e+003, 1.142830e+001
3.031289e+003, 1.166444e+001
3.033218e+003, 1.231181e+001
3.035146e+003, 1.259813e+001
3.037074e+003, 1.218549e+001
3.039003e+003, 1.072238e+001
3.040931e+003, 1.130047e+001
3.042860e+003, 1.236381e+001
3.044788e+003, 1.218966e+001
3.046717e+003, 1.179910e+001
3.048645e+003, 1.110614e+001
3.050574e+003, 1.057148e+001
3.052502e+003, 1.114782e+001
3.054431e+003, 9.883546e+000
3.056359e+003, 1.045913e+001
3.058288e+003, 1.266147e+001
3.060216e+003, 1.096458e+001
3.062145e+003, 1.096307e+001
3.064073e+003, 1.111972e+001
3.066001e+003, 1.024679e+001
3.067930e+003, 1.148999e+001
3.069858e+003, 1.157490e+001
3.071787e+003, 1.093846e+001
3.073715e+003, 1.070613e+001
3.075644e+003, 1.068574e+001
3.077572e+003, 1.117338e+001
3.079501e+003, 1.142009e+001
3.081429e+003, 1.008260e+001
3.083358e+003, 9.991714e+000
3.085286e+003, 1.022710e+001
3.087215e+003, 1.049586e+001
3.089143e+003, 1.142246e+001
3.091072e+003, 1.069374e+001
3.093000e+003, 1.027781e+001
3.094928e+003, 1.092714e+001
3.096857e+003, 1.009482e+001
3.098785e+003, 1.100566e+001
3.100714e+003, 1.135879e+001
3.102642e+003, 9.800878e+000
3.104571e+003, 1.004136e+001
3.106499e+003, 1.111574e+001
3.108428e+003, 1.161474e+001
3.110356e+003, 1.053867e+001
3.112285e+003, 9.666719e+000
3.114213e+003, 1.079057e+001
3.116142e+003, 1.215614e+001
3.118070e+003, 1.073086e+001
3.119999e+003, 1.069264e+001
3.121927e+003, 1.051260e+001
3.123855e+003, 1.029917e+001
3.125784e+003, 1.119840e+001
3.127712e+003, 1.124273e+001
3.129641e+003, 1.101641e+001
3.131569e+003, 1.095216e+001
3.133498e+003, 1.146092e+001
3.135426e+003, 1.091401e+001
3.137355e+003, 1.030501e+001
3.139283e+003, 1.053468e+001
3.141212e+003, 1.274929e+001
3.143140e+003, 1.104730e+001
3.145069e+003, 9.696000e+000
3.146997e+003, 1.019058e+001
3.148926e+003, 9.442292e+000
3.150854e+003, 1.038747e+001
3.152782e+003, 1.146628e+001
3.154711e+003, 1.161137e+001
3.156639e+003, 1.010106e+001
3.158568e+003, 1.064786e+001
3.160496e+003, 1.141170e+001
3.162425e+003, 1.138036e+001
3.164353e+003, 1.123275e+001
3.166282e+003, 1.108063e+001
3.168210e+003, 1.142269e+001
3.170139e+003, 1.209083e+001
3.172067e+003, 1.132354e+001
3.173996e+003, 1.068395e+001
3.175924e+003, 1.105940e+001
3.177853e+003, 1.235578e+001
3.179781e+003, 1.249487e+001
3.181709e+003, 1.182230e+001
3.183638e+003, 1.145953e+001
3.185566e+003, 1.203805e+001
3.187495e+003, 1.378530e+001
3.189423e+003, 1.261768e+001
3.191352e+003, 1.189403e+001
3.193280e+003, 1.307051e+001
3.195209e+003, 1.392547e+001
3.197137e+003, 1.358351e+001
3.199066e+003, 1.369079e+001
3.200994e+003, 1.427044e+001
3.202923e+003, 1.273604e+001
3.204851e+003, 1.412810e+001
3.206780e+003, 1.536777e+001
3.208708e+003, 1.539180e+001
3.210636e+003, 1.540253e+001
3.212565e+003, 1.569304e+001
3.214493e+003, 1.526330e+001
3.216422e+003, 1.475036e+001
3.218350e+003, 1.630315e+001
3.220279e+003, 1.537770e+001
3.222207e+003, 1.557281e+001
3.224136e+003, 1.681519e+001
3.226064e+003, 1.726190e+001
3.227993e+003, 1.724396e+001
3.229921e+003, 1.737751e+001
3.231850e+003, 1.736916e+001
3.233778e+003, 1.667573e+001
3.235707e+003, 1.746730e+001
3.237635e+003, 1.761952e+001
3.239563e+003, 1.828498e+001
3.241492e+003, 2.043803e+001
3.243420e+003, 2.019034e+001
3.245349e+003, 1.961856e+001
3.247277e+003, 1.952649e+001
3.249206e+003, 2.022304e+001
3.251134e+003, 2.183493e+001
3.253063e+003, 2.395052e+001
3.254991e+003, 2.449356e+001
3.256920e+003, 2.371025e+001
3.258848e+003, 2.460076e+001
3.260777e+003, 2.567964e+001
3.262705e+003, 2.518149e+001
3.264634e+003, 2.448959e+001
3.266562e+003, 2.651794e+001
3.268490e+003, 2.808537e+001
3.270419e+003, 2.978963e+001
3.272347e+003, 3.014112e+001
3.274276e+003, 2.797781e+001
3.276204e+003, 2.964138e+001
3.278133e+003, 3.170807e+001
3.280061e+003, 3.262232e+001
3.281990e+003, 3.249218e+001
3.283918e+003, 3.444709e+001
3.285847e+003, 3.660457e+001
3.287775e+003, 3.720591e+001
3.289704e+003, 3.709765e+001
3.291632e+003, 3.929917e+001
3.293561e+003, 4.007903e+001
3.295489e+003, 4.109161e+001
3.297417e+003, 4.194693e+001
3.299346e+003, 4.180375e+001
3.301274e+003, 4.266254e+001
3.303203e+003, 4.413987e+001
3.305131e+003, 4.622609e+001
3.307060e+003, 4.830256e+001
3.308988e+003, 4.778922e+001
3.310917e+003, 4.814080e+001
3.312845e+003, 4.888092e+001
3.314774e+003, 4.973549e+001
3.316702e+003, 5.080300e+001
3.318631e+003, 5.075562e+001
3.320559e+003, 5.322268e+001
3.322488e+003, 5.511800e+001
3.324416e+003, 5.371122e+001
3.326344e+003, 5.375410e+001
3.328273e+003, 5.537008e+001
3.330201e+003, 5.574404e+001
3.332130e+003, 5.473465e+001
3.334058e+003, 5.517422e+001
3.335987e+003, 5.512783e+001
3.337915e+003, 5.462550e+001
3.339844e+003, 5.459291e+001
3.341772e+003, 5.567015e+001
3.343701e+003, 5.623011e+001
3.345629e+003, 5.503068e+001
3.347558e+003, 5.363196e+001
3.349486e+003, 5.354994e+001
3.351415e+003, 5.578826e+001
3.353343e+003, 5.394519e+001
3.355271e+003, 5.243579e+001
3.357200e+003, 5.252158e+001
3.359128e+003, 5.340495e+001
3.361057e+003, 5.208570e+001
3.362985e+003, 5.182006e+001
3.364914e+003, 5.128609e+001
3.366842e+003, 5.013404e+001
3.368771e+003, 4.916469e+001
3.370699e+003, 4.898854e+001
3.372628e+003, 4.796177e+001
3.374556e+003, 4.702953e+001
3.376485e+003, 4.701808e+001
3.378413e+003, 4.687432e+001
3.380342e+003, 4.636733e+001
3.382270e+003, 4.603873e+001
3.384198e+003, 4.577139e+001
3.386127e+003, 4.515352e+001
3.388055e+003, 4.493914e+001
3.389984e+003, 4.337371e+001
3.391912e+003, 4.160625e+001
3.393841e+003, 4.088552e+001
3.395769e+003, 4.193267e+001
3.397698e+003, 4.101846e+001
3.399626e+003, 3.981820e+001
3.401555e+003, 3.891130e+001
3.403483e+003, 3.838054e+001
3.405412e+003, 3.878735e+001
3.407340e+003, 3.588318e+001
3.409269e+003, 3.485490e+001
3.411197e+003, 3.596367e+001
3.413125e+003, 3.698655e+001
3.415054e+003, 3.768814e+001
3.416982e+003, 3.595484e+001
3.418911e+003, 3.468579e+001
3.420839e+003, 3.463543e+001
3.422768e+003, 3.457941e+001
3.424696e+003, 3.210415e+001
3.426625e+003, 3.239959e+001
3.428553e+003, 3.195889e+001
3.430482e+003, 2.972931e+001
3.432410e+003, 2.992949e+001
3.434339e+003, 3.130944e+001
3.436267e+003, 2.989246e+001
3.438196e+003, 2.887257e+001
3.440124e+003, 2.995724e+001
3.442052e+003, 2.929028e+001
3.443981e+003, 2.564916e+001
3.445909e+003, 2.559798e+001
3.447838e+003, 2.622511e+001
3.449766e+003, 2.455545e+001
3.451695e+003, 2.534012e+001
3.453623e+003, 2.530804e+001
3.455552e+003, 2.459010e+001
##END=



