##NAMES=Oxy-dravite
##RRUFFID=R141094
##IDEAL CHEMISTRY=Na(Al_2_Mg)(Al_5_Mg)(Si_6_O_18_)(BO_3_)_3_(OH)_3_O
##LOCALITY=Strada Vilante, San Martino al Cimino, Vico volcano, Viterbo, Latium, Italy
##OWNER=RRUFF
##SOURCE=Ch. and H. Sch√§fer
##DESCRIPTION=Blue-grey prismatic crystals
##STATUS=The identification of this mineral has been confirmed only by single crystal X-ray diffraction.
##URL=rruff.info/R141094
8.813672e+001, 8.472261e+003
8.861884e+001, 8.579195e+003
8.910095e+001, 8.685686e+003
8.958307e+001, 8.825973e+003
9.006519e+001, 8.992185e+003
9.054730e+001, 9.151561e+003
9.102942e+001, 9.315266e+003
9.151154e+001, 9.462654e+003
9.199365e+001, 9.566598e+003
9.247577e+001, 9.635030e+003
9.295789e+001, 9.694510e+003
9.344000e+001, 9.760779e+003
9.392212e+001, 9.824232e+003
9.440424e+001, 9.883057e+003
9.488635e+001, 9.951893e+003
9.536847e+001, 1.002877e+004
9.585059e+001, 1.010201e+004
9.633270e+001, 1.017052e+004
9.681482e+001, 1.024107e+004
9.729694e+001, 1.031593e+004
9.777905e+001, 1.039525e+004
9.826117e+001, 1.048773e+004
9.874329e+001, 1.059771e+004
9.922540e+001, 1.072199e+004
9.970752e+001, 1.084497e+004
1.001896e+002, 1.096536e+004
1.006718e+002, 1.108182e+004
1.011539e+002, 1.118826e+004
1.016360e+002, 1.127992e+004
1.021181e+002, 1.138198e+004
1.026002e+002, 1.150447e+004
1.030823e+002, 1.165148e+004
1.035645e+002, 1.179168e+004
1.040466e+002, 1.192092e+004
1.045287e+002, 1.204779e+004
1.050108e+002, 1.219228e+004
1.054929e+002, 1.236146e+004
1.059750e+002, 1.253799e+004
1.064572e+002, 1.271717e+004
1.069393e+002, 1.291692e+004
1.074214e+002, 1.308944e+004
1.079035e+002, 1.322324e+004
1.083856e+002, 1.333063e+004
1.088677e+002, 1.344775e+004
1.093499e+002, 1.358597e+004
1.098320e+002, 1.372814e+004
1.103141e+002, 1.386682e+004
1.107962e+002, 1.399660e+004
1.112783e+002, 1.413223e+004
1.117604e+002, 1.427686e+004
1.122426e+002, 1.443102e+004
1.127247e+002, 1.458764e+004
1.132068e+002, 1.474995e+004
1.136889e+002, 1.491266e+004
1.141710e+002, 1.507035e+004
1.146531e+002, 1.522334e+004
1.151353e+002, 1.536911e+004
1.156174e+002, 1.550564e+004
1.160995e+002, 1.563230e+004
1.165816e+002, 1.576259e+004
1.170637e+002, 1.590992e+004
1.175458e+002, 1.605974e+004
1.180280e+002, 1.619817e+004
1.185101e+002, 1.630642e+004
1.189922e+002, 1.640945e+004
1.194743e+002, 1.651978e+004
1.199564e+002, 1.663888e+004
1.204385e+002, 1.676178e+004
1.209207e+002, 1.688219e+004
1.214028e+002, 1.700410e+004
1.218849e+002, 1.713415e+004
1.223670e+002, 1.729282e+004
1.228491e+002, 1.745519e+004
1.233312e+002, 1.759184e+004
1.238134e+002, 1.769631e+004
1.242955e+002, 1.778971e+004
1.247776e+002, 1.788749e+004
1.252597e+002, 1.798954e+004
1.257418e+002, 1.809548e+004
1.262239e+002, 1.820516e+004
1.267061e+002, 1.831963e+004
1.271882e+002, 1.843657e+004
1.276703e+002, 1.855614e+004
1.281524e+002, 1.868064e+004
1.286345e+002, 1.881675e+004
1.291166e+002, 1.896332e+004
1.295988e+002, 1.910899e+004
1.300809e+002, 1.924421e+004
1.305630e+002, 1.937075e+004
1.310451e+002, 1.949706e+004
1.315272e+002, 1.962272e+004
1.320093e+002, 1.974827e+004
1.324915e+002, 1.987744e+004
1.329736e+002, 2.001003e+004
1.334557e+002, 2.014368e+004
1.339378e+002, 2.027420e+004
1.344199e+002, 2.040161e+004
1.349020e+002, 2.052795e+004
1.353842e+002, 2.065447e+004
1.358663e+002, 2.077807e+004
1.363484e+002, 2.089742e+004
1.368305e+002, 2.101167e+004
1.373126e+002, 2.112153e+004
1.377947e+002, 2.122794e+004
1.382769e+002, 2.133246e+004
1.387590e+002, 2.142586e+004
1.392411e+002, 2.150515e+004
1.397232e+002, 2.157110e+004
1.402053e+002, 2.162160e+004
1.406874e+002, 2.165580e+004
1.411696e+002, 2.167778e+004
1.416517e+002, 2.169129e+004
1.421338e+002, 2.169396e+004
1.426159e+002, 2.169653e+004
1.430980e+002, 2.170460e+004
1.435801e+002, 2.172219e+004
1.440623e+002, 2.172915e+004
1.445444e+002, 2.171934e+004
1.450265e+002, 2.170404e+004
1.455086e+002, 2.170309e+004
1.459907e+002, 2.173011e+004
1.464728e+002, 2.175494e+004
1.469550e+002, 2.176757e+004
1.474371e+002, 2.176138e+004
1.479192e+002, 2.175872e+004
1.484013e+002, 2.176162e+004
1.488834e+002, 2.176783e+004
1.493655e+002, 2.177242e+004
1.498477e+002, 2.177069e+004
1.503298e+002, 2.177111e+004
1.508119e+002, 2.177712e+004
1.512940e+002, 2.179671e+004
1.517761e+002, 2.180966e+004
1.522583e+002, 2.181037e+004
1.527404e+002, 2.180306e+004
1.532225e+002, 2.179980e+004
1.537046e+002, 2.180283e+004
1.541867e+002, 2.180913e+004
1.546688e+002, 2.181764e+004
1.551510e+002, 2.183699e+004
1.556331e+002, 2.184801e+004
1.561152e+002, 2.184222e+004
1.565973e+002, 2.182416e+004
1.570794e+002, 2.181152e+004
1.575615e+002, 2.180830e+004
1.580437e+002, 2.181164e+004
1.585258e+002, 2.181991e+004
1.590079e+002, 2.184127e+004
1.594900e+002, 2.185872e+004
1.599721e+002, 2.186391e+004
1.604542e+002, 2.185930e+004
1.609364e+002, 2.185916e+004
1.614185e+002, 2.187022e+004
1.619006e+002, 2.188706e+004
1.623827e+002, 2.190531e+004
1.628648e+002, 2.193003e+004
1.633469e+002, 2.195019e+004
1.638291e+002, 2.195878e+004
1.643112e+002, 2.195663e+004
1.647933e+002, 2.195375e+004
1.652754e+002, 2.195235e+004
1.657575e+002, 2.195359e+004
1.662396e+002, 2.195864e+004
1.667218e+002, 2.196985e+004
1.672039e+002, 2.198355e+004
1.676860e+002, 2.199808e+004
1.681681e+002, 2.201331e+004
1.686502e+002, 2.202873e+004
1.691323e+002, 2.204316e+004
1.696145e+002, 2.205771e+004
1.700966e+002, 2.207382e+004
1.705787e+002, 2.209677e+004
1.710608e+002, 2.211879e+004
1.715429e+002, 2.213030e+004
1.720250e+002, 2.213078e+004
1.725072e+002, 2.213358e+004
1.729893e+002, 2.215100e+004
1.734714e+002, 2.217806e+004
1.739535e+002, 2.220545e+004
1.744356e+002, 2.223172e+004
1.749177e+002, 2.225493e+004
1.753999e+002, 2.227169e+004
1.758820e+002, 2.228136e+004
1.763641e+002, 2.228997e+004
1.768462e+002, 2.230372e+004
1.773283e+002, 2.232078e+004
1.778104e+002, 2.233683e+004
1.782926e+002, 2.234491e+004
1.787747e+002, 2.235136e+004
1.792568e+002, 2.236947e+004
1.797389e+002, 2.240112e+004
1.802210e+002, 2.243327e+004
1.807031e+002, 2.244724e+004
1.811853e+002, 2.244752e+004
1.816674e+002, 2.245047e+004
1.821495e+002, 2.246951e+004
1.826316e+002, 2.249702e+004
1.831137e+002, 2.251348e+004
1.835958e+002, 2.251682e+004
1.840780e+002, 2.251524e+004
1.845601e+002, 2.251866e+004
1.850422e+002, 2.252692e+004
1.855243e+002, 2.253741e+004
1.860064e+002, 2.255027e+004
1.864885e+002, 2.256503e+004
1.869707e+002, 2.257856e+004
1.874528e+002, 2.259088e+004
1.879349e+002, 2.260270e+004
1.884170e+002, 2.261296e+004
1.888991e+002, 2.262204e+004
1.893812e+002, 2.263628e+004
1.898634e+002, 2.266487e+004
1.903455e+002, 2.270396e+004
1.908276e+002, 2.272860e+004
1.913097e+002, 2.273364e+004
1.917918e+002, 2.273116e+004
1.922739e+002, 2.274276e+004
1.927561e+002, 2.276882e+004
1.932382e+002, 2.279739e+004
1.937203e+002, 2.282175e+004
1.942024e+002, 2.284206e+004
1.946845e+002, 2.286486e+004
1.951666e+002, 2.289162e+004
1.956488e+002, 2.291900e+004
1.961309e+002, 2.293869e+004
1.966130e+002, 2.294984e+004
1.970951e+002, 2.296293e+004
1.975772e+002, 2.298632e+004
1.980593e+002, 2.302029e+004
1.985415e+002, 2.304886e+004
1.990236e+002, 2.306958e+004
1.995057e+002, 2.308621e+004
1.999878e+002, 2.310564e+004
2.004699e+002, 2.312763e+004
2.009520e+002, 2.315400e+004
2.014342e+002, 2.318778e+004
2.019163e+002, 2.323009e+004
2.023984e+002, 2.326697e+004
2.028805e+002, 2.329564e+004
2.033626e+002, 2.331996e+004
2.038447e+002, 2.334940e+004
2.043269e+002, 2.338439e+004
2.048090e+002, 2.342274e+004
2.052911e+002, 2.346260e+004
2.057732e+002, 2.350388e+004
2.062553e+002, 2.354839e+004
2.067374e+002, 2.359609e+004
2.072196e+002, 2.364725e+004
2.077017e+002, 2.370327e+004
2.081838e+002, 2.376534e+004
2.086659e+002, 2.382951e+004
2.091480e+002, 2.389335e+004
2.096301e+002, 2.395768e+004
2.101123e+002, 2.402070e+004
2.105944e+002, 2.408212e+004
2.110765e+002, 2.414285e+004
2.115586e+002, 2.420578e+004
2.120407e+002, 2.427185e+004
2.125228e+002, 2.433829e+004
2.130050e+002, 2.440437e+004
2.134871e+002, 2.447184e+004
2.139692e+002, 2.453130e+004
2.144513e+002, 2.458218e+004
2.149334e+002, 2.462431e+004
2.154155e+002, 2.465824e+004
2.158977e+002, 2.468172e+004
2.163798e+002, 2.470063e+004
2.168619e+002, 2.471845e+004
2.173440e+002, 2.473697e+004
2.178261e+002, 2.474666e+004
2.183082e+002, 2.474304e+004
2.187904e+002, 2.473107e+004
2.192725e+002, 2.472759e+004
2.197546e+002, 2.473849e+004
2.202367e+002, 2.474728e+004
2.207188e+002, 2.474504e+004
2.212009e+002, 2.472814e+004
2.216831e+002, 2.471053e+004
2.221652e+002, 2.469281e+004
2.226473e+002, 2.467510e+004
2.231294e+002, 2.465750e+004
2.236115e+002, 2.463864e+004
2.240936e+002, 2.462307e+004
2.245758e+002, 2.461365e+004
2.250579e+002, 2.461375e+004
2.255400e+002, 2.461284e+004
2.260221e+002, 2.461015e+004
2.265042e+002, 2.460685e+004
2.269863e+002, 2.460575e+004
2.274685e+002, 2.460703e+004
2.279506e+002, 2.461029e+004
2.284327e+002, 2.461455e+004
2.289148e+002, 2.461684e+004
2.293969e+002, 2.462660e+004
2.298790e+002, 2.464388e+004
2.303612e+002, 2.466822e+004
2.308433e+002, 2.469971e+004
2.313254e+002, 2.474384e+004
2.318075e+002, 2.478662e+004
2.322896e+002, 2.482110e+004
2.327717e+002, 2.484168e+004
2.332539e+002, 2.486702e+004
2.337360e+002, 2.489918e+004
2.342181e+002, 2.493445e+004
2.347002e+002, 2.496386e+004
2.351823e+002, 2.498082e+004
2.356644e+002, 2.500094e+004
2.361466e+002, 2.503181e+004
2.366287e+002, 2.508021e+004
2.371108e+002, 2.512015e+004
2.375929e+002, 2.514974e+004
2.380750e+002, 2.517106e+004
2.385571e+002, 2.518716e+004
2.390393e+002, 2.519387e+004
2.395214e+002, 2.520247e+004
2.400035e+002, 2.521948e+004
2.404856e+002, 2.525322e+004
2.409677e+002, 2.527064e+004
2.414498e+002, 2.526305e+004
2.419320e+002, 2.524446e+004
2.424141e+002, 2.524076e+004
2.428962e+002, 2.526390e+004
2.433783e+002, 2.528372e+004
2.438604e+002, 2.528983e+004
2.443425e+002, 2.527909e+004
2.448247e+002, 2.526788e+004
2.453068e+002, 2.525742e+004
2.457889e+002, 2.524605e+004
2.462710e+002, 2.523053e+004
2.467531e+002, 2.520903e+004
2.472352e+002, 2.518601e+004
2.477174e+002, 2.516108e+004
2.481995e+002, 2.513220e+004
2.486816e+002, 2.511149e+004
2.491637e+002, 2.510121e+004
2.496458e+002, 2.509675e+004
2.501279e+002, 2.509260e+004
2.506101e+002, 2.509110e+004
2.510922e+002, 2.508471e+004
2.515743e+002, 2.506980e+004
2.520564e+002, 2.504455e+004
2.525385e+002, 2.502363e+004
2.530206e+002, 2.500790e+004
2.535028e+002, 2.499562e+004
2.539849e+002, 2.498559e+004
2.544670e+002, 2.497955e+004
2.549491e+002, 2.497190e+004
2.554312e+002, 2.495990e+004
2.559133e+002, 2.494312e+004
2.563955e+002, 2.493347e+004
2.568776e+002, 2.493463e+004
2.573597e+002, 2.493874e+004
2.578418e+002, 2.493649e+004
2.583239e+002, 2.492316e+004
2.588061e+002, 2.491437e+004
2.592882e+002, 2.491438e+004
2.597703e+002, 2.492297e+004
2.602524e+002, 2.492854e+004
2.607345e+002, 2.492887e+004
2.612166e+002, 2.492934e+004
2.616988e+002, 2.493575e+004
2.621809e+002, 2.495097e+004
2.626630e+002, 2.496391e+004
2.631451e+002, 2.497286e+004
2.636272e+002, 2.497807e+004
2.641093e+002, 2.498006e+004
2.645915e+002, 2.497742e+004
2.650736e+002, 2.497458e+004
2.655557e+002, 2.497685e+004
2.660378e+002, 2.498817e+004
2.665199e+002, 2.499015e+004
2.670020e+002, 2.497543e+004
2.674842e+002, 2.494944e+004
2.679663e+002, 2.494226e+004
2.684484e+002, 2.496012e+004
2.689305e+002, 2.498211e+004
2.694126e+002, 2.499337e+004
2.698947e+002, 2.499135e+004
2.703769e+002, 2.498907e+004
2.708590e+002, 2.498691e+004
2.713411e+002, 2.498548e+004
2.718232e+002, 2.498856e+004
2.723053e+002, 2.499857e+004
2.727874e+002, 2.500539e+004
2.732696e+002, 2.500043e+004
2.737517e+002, 2.498063e+004
2.742338e+002, 2.496964e+004
2.747159e+002, 2.497187e+004
2.751980e+002, 2.498074e+004
2.756801e+002, 2.497864e+004
2.761623e+002, 2.496238e+004
2.766444e+002, 2.495029e+004
2.771265e+002, 2.495496e+004
2.776086e+002, 2.497838e+004
2.780907e+002, 2.499492e+004
2.785728e+002, 2.500426e+004
2.790550e+002, 2.500651e+004
2.795371e+002, 2.499739e+004
2.800192e+002, 2.497459e+004
2.805013e+002, 2.495908e+004
2.809834e+002, 2.496318e+004
2.814655e+002, 2.498621e+004
2.819477e+002, 2.500471e+004
2.824298e+002, 2.501731e+004
2.829119e+002, 2.502750e+004
2.833940e+002, 2.504026e+004
2.838761e+002, 2.505538e+004
2.843582e+002, 2.506886e+004
2.848404e+002, 2.507805e+004
2.853225e+002, 2.508355e+004
2.858046e+002, 2.509007e+004
2.862867e+002, 2.509743e+004
2.867688e+002, 2.510557e+004
2.872509e+002, 2.511759e+004
2.877331e+002, 2.513274e+004
2.882152e+002, 2.513913e+004
2.886973e+002, 2.512957e+004
2.891794e+002, 2.510990e+004
2.896615e+002, 2.509962e+004
2.901436e+002, 2.509954e+004
2.906258e+002, 2.510226e+004
2.911079e+002, 2.510245e+004
2.915900e+002, 2.510037e+004
2.920721e+002, 2.509500e+004
2.925542e+002, 2.508312e+004
2.930363e+002, 2.507121e+004
2.935185e+002, 2.507469e+004
2.940006e+002, 2.509357e+004
2.944827e+002, 2.511524e+004
2.949648e+002, 2.513039e+004
2.954469e+002, 2.514077e+004
2.959290e+002, 2.515128e+004
2.964112e+002, 2.516204e+004
2.968933e+002, 2.517417e+004
2.973754e+002, 2.518955e+004
2.978575e+002, 2.520762e+004
2.983396e+002, 2.522668e+004
2.988217e+002, 2.524532e+004
2.993039e+002, 2.526378e+004
2.997860e+002, 2.528159e+004
3.002681e+002, 2.529780e+004
3.007502e+002, 2.531588e+004
3.012323e+002, 2.534474e+004
3.017144e+002, 2.538032e+004
3.021966e+002, 2.540736e+004
3.026787e+002, 2.541335e+004
3.031608e+002, 2.540813e+004
3.036429e+002, 2.540340e+004
3.041250e+002, 2.539961e+004
3.046071e+002, 2.540005e+004
3.050893e+002, 2.541048e+004
3.055714e+002, 2.542752e+004
3.060535e+002, 2.544366e+004
3.065356e+002, 2.545357e+004
3.070177e+002, 2.546242e+004
3.074998e+002, 2.547484e+004
3.079820e+002, 2.549114e+004
3.084641e+002, 2.550994e+004
3.089462e+002, 2.553356e+004
3.094283e+002, 2.555865e+004
3.099104e+002, 2.558030e+004
3.103925e+002, 2.559345e+004
3.108747e+002, 2.560548e+004
3.113568e+002, 2.562253e+004
3.118389e+002, 2.564393e+004
3.123210e+002, 2.566338e+004
3.128031e+002, 2.567780e+004
3.132852e+002, 2.568880e+004
3.137674e+002, 2.569798e+004
3.142495e+002, 2.570560e+004
3.147316e+002, 2.571150e+004
3.152137e+002, 2.571695e+004
3.156958e+002, 2.572074e+004
3.161779e+002, 2.571896e+004
3.166601e+002, 2.570593e+004
3.171422e+002, 2.568896e+004
3.176243e+002, 2.567101e+004
3.181064e+002, 2.564713e+004
3.185885e+002, 2.563363e+004
3.190706e+002, 2.564301e+004
3.195528e+002, 2.566586e+004
3.200349e+002, 2.568411e+004
3.205170e+002, 2.568826e+004
3.209991e+002, 2.569009e+004
3.214812e+002, 2.569394e+004
3.219633e+002, 2.569992e+004
3.224455e+002, 2.570927e+004
3.229276e+002, 2.572545e+004
3.234097e+002, 2.574425e+004
3.238918e+002, 2.576060e+004
3.243739e+002, 2.577720e+004
3.248560e+002, 2.578826e+004
3.253382e+002, 2.578940e+004
3.258203e+002, 2.577902e+004
3.263024e+002, 2.577588e+004
3.267845e+002, 2.578949e+004
3.272666e+002, 2.580673e+004
3.277487e+002, 2.581710e+004
3.282309e+002, 2.580940e+004
3.287130e+002, 2.580805e+004
3.291951e+002, 2.581864e+004
3.296772e+002, 2.583962e+004
3.301593e+002, 2.585537e+004
3.306414e+002, 2.585964e+004
3.311236e+002, 2.586416e+004
3.316057e+002, 2.587524e+004
3.320878e+002, 2.589514e+004
3.325699e+002, 2.591730e+004
3.330520e+002, 2.594447e+004
3.335341e+002, 2.597263e+004
3.340163e+002, 2.598938e+004
3.344984e+002, 2.598663e+004
3.349805e+002, 2.598537e+004
3.354626e+002, 2.599509e+004
3.359447e+002, 2.601941e+004
3.364268e+002, 2.604180e+004
3.369090e+002, 2.606349e+004
3.373911e+002, 2.608271e+004
3.378732e+002, 2.609498e+004
3.383553e+002, 2.609781e+004
3.388374e+002, 2.610350e+004
3.393195e+002, 2.611708e+004
3.398017e+002, 2.613834e+004
3.402838e+002, 2.615879e+004
3.407659e+002, 2.617968e+004
3.412480e+002, 2.619758e+004
3.417301e+002, 2.620747e+004
3.422122e+002, 2.620866e+004
3.426944e+002, 2.621150e+004
3.431765e+002, 2.621735e+004
3.436586e+002, 2.622672e+004
3.441407e+002, 2.624286e+004
3.446228e+002, 2.626609e+004
3.451049e+002, 2.628983e+004
3.455871e+002, 2.630623e+004
3.460692e+002, 2.631722e+004
3.465513e+002, 2.633624e+004
3.470334e+002, 2.636714e+004
3.475155e+002, 2.640226e+004
3.479977e+002, 2.642757e+004
3.484798e+002, 2.644426e+004
3.489619e+002, 2.646052e+004
3.494440e+002, 2.648274e+004
3.499261e+002, 2.650781e+004
3.504082e+002, 2.652799e+004
3.508904e+002, 2.654228e+004
3.513725e+002, 2.655550e+004
3.518546e+002, 2.657137e+004
3.523367e+002, 2.659020e+004
3.528188e+002, 2.661281e+004
3.533009e+002, 2.664657e+004
3.537831e+002, 2.668058e+004
3.542652e+002, 2.669760e+004
3.547473e+002, 2.669854e+004
3.552294e+002, 2.670315e+004
3.557115e+002, 2.673120e+004
3.561936e+002, 2.676997e+004
3.566758e+002, 2.680225e+004
3.571579e+002, 2.681806e+004
3.576400e+002, 2.683292e+004
3.581221e+002, 2.685759e+004
3.586042e+002, 2.689061e+004
3.590863e+002, 2.692721e+004
3.595685e+002, 2.696660e+004
3.600506e+002, 2.700793e+004
3.605327e+002, 2.705047e+004
3.610148e+002, 2.709396e+004
3.614969e+002, 2.713950e+004
3.619790e+002, 2.718549e+004
3.624612e+002, 2.723397e+004
3.629433e+002, 2.728910e+004
3.634254e+002, 2.735106e+004
3.639075e+002, 2.742054e+004
3.643896e+002, 2.749892e+004
3.648717e+002, 2.758686e+004
3.653539e+002, 2.767714e+004
3.658360e+002, 2.777378e+004
3.663181e+002, 2.786871e+004
3.668002e+002, 2.795678e+004
3.672823e+002, 2.802874e+004
3.677644e+002, 2.810283e+004
3.682466e+002, 2.818059e+004
3.687287e+002, 2.826242e+004
3.692108e+002, 2.834930e+004
3.696929e+002, 2.845246e+004
3.701750e+002, 2.855192e+004
3.706571e+002, 2.863718e+004
3.711393e+002, 2.870928e+004
3.716214e+002, 2.876711e+004
3.721035e+002, 2.881023e+004
3.725856e+002, 2.884008e+004
3.730677e+002, 2.885982e+004
3.735498e+002, 2.887199e+004
3.740320e+002, 2.887011e+004
3.745141e+002, 2.885201e+004
3.749962e+002, 2.881787e+004
3.754783e+002, 2.876787e+004
3.759604e+002, 2.870084e+004
3.764425e+002, 2.862101e+004
3.769247e+002, 2.852983e+004
3.774068e+002, 2.842550e+004
3.778889e+002, 2.832571e+004
3.783710e+002, 2.823683e+004
3.788531e+002, 2.815637e+004
3.793352e+002, 2.807096e+004
3.798174e+002, 2.798044e+004
3.802995e+002, 2.789077e+004
3.807816e+002, 2.780479e+004
3.812637e+002, 2.772282e+004
3.817458e+002, 2.765578e+004
3.822279e+002, 2.760706e+004
3.827101e+002, 2.756802e+004
3.831922e+002, 2.752315e+004
3.836743e+002, 2.747326e+004
3.841564e+002, 2.742660e+004
3.846385e+002, 2.738651e+004
3.851206e+002, 2.735263e+004
3.856028e+002, 2.732454e+004
3.860849e+002, 2.730244e+004
3.865670e+002, 2.728381e+004
3.870491e+002, 2.726535e+004
3.875312e+002, 2.724845e+004
3.880133e+002, 2.723578e+004
3.884955e+002, 2.722953e+004
3.889776e+002, 2.722662e+004
3.894597e+002, 2.722737e+004
3.899418e+002, 2.723044e+004
3.904239e+002, 2.722811e+004
3.909060e+002, 2.720982e+004
3.913882e+002, 2.718712e+004
3.918703e+002, 2.717015e+004
3.923524e+002, 2.716066e+004
3.928345e+002, 2.715760e+004
3.933166e+002, 2.716306e+004
3.937987e+002, 2.717443e+004
3.942809e+002, 2.718637e+004
3.947630e+002, 2.720183e+004
3.952451e+002, 2.721338e+004
3.957272e+002, 2.721519e+004
3.962093e+002, 2.720423e+004
3.966914e+002, 2.719947e+004
3.971736e+002, 2.721006e+004
3.976557e+002, 2.722559e+004
3.981378e+002, 2.723645e+004
3.986199e+002, 2.723715e+004
3.991020e+002, 2.723753e+004
3.995841e+002, 2.723790e+004
4.000663e+002, 2.723839e+004
4.005484e+002, 2.724069e+004
4.010305e+002, 2.724672e+004
4.015126e+002, 2.725254e+004
4.019947e+002, 2.725679e+004
4.024768e+002, 2.726107e+004
4.029590e+002, 2.726107e+004
4.034411e+002, 2.725741e+004
4.039232e+002, 2.724981e+004
4.044053e+002, 2.723541e+004
4.048874e+002, 2.721007e+004
4.053695e+002, 2.719229e+004
4.058517e+002, 2.718998e+004
4.063338e+002, 2.720229e+004
4.068159e+002, 2.721208e+004
4.072980e+002, 2.721841e+004
4.077801e+002, 2.722610e+004
4.082622e+002, 2.724149e+004
4.087444e+002, 2.726406e+004
4.092265e+002, 2.728163e+004
4.097086e+002, 2.728997e+004
4.101907e+002, 2.729397e+004
4.106728e+002, 2.730520e+004
4.111549e+002, 2.732263e+004
4.116371e+002, 2.733727e+004
4.121192e+002, 2.733982e+004
4.126013e+002, 2.733567e+004
4.130834e+002, 2.733695e+004
4.135655e+002, 2.734473e+004
4.140476e+002, 2.735498e+004
4.145298e+002, 2.736834e+004
4.150119e+002, 2.738098e+004
4.154940e+002, 2.738549e+004
4.159761e+002, 2.737119e+004
4.164582e+002, 2.735336e+004
4.169403e+002, 2.734538e+004
4.174225e+002, 2.734623e+004
4.179046e+002, 2.734946e+004
4.183867e+002, 2.735544e+004
4.188688e+002, 2.736032e+004
4.193509e+002, 2.736038e+004
4.198330e+002, 2.735304e+004
4.203152e+002, 2.734568e+004
4.207973e+002, 2.734071e+004
4.212794e+002, 2.733797e+004
4.217615e+002, 2.733695e+004
4.222436e+002, 2.733783e+004
4.227257e+002, 2.734060e+004
4.232079e+002, 2.734504e+004
4.236900e+002, 2.735103e+004
4.241721e+002, 2.736067e+004
4.246542e+002, 2.737528e+004
4.251363e+002, 2.739293e+004
4.256184e+002, 2.741245e+004
4.261006e+002, 2.743412e+004
4.265827e+002, 2.745626e+004
4.270648e+002, 2.748020e+004
4.275469e+002, 2.750398e+004
4.280290e+002, 2.752022e+004
4.285111e+002, 2.752560e+004
4.289933e+002, 2.752857e+004
4.294754e+002, 2.753127e+004
4.299575e+002, 2.753257e+004
4.304396e+002, 2.753984e+004
4.309217e+002, 2.755420e+004
4.314038e+002, 2.757131e+004
4.318860e+002, 2.758571e+004
4.323681e+002, 2.759732e+004
4.328502e+002, 2.760979e+004
4.333323e+002, 2.762703e+004
4.338144e+002, 2.764444e+004
4.342965e+002, 2.764561e+004
4.347787e+002, 2.763122e+004
4.352608e+002, 2.761846e+004
4.357429e+002, 2.762363e+004
4.362250e+002, 2.764007e+004
4.367071e+002, 2.764988e+004
4.371892e+002, 2.765020e+004
4.376714e+002, 2.764882e+004
4.381535e+002, 2.765276e+004
4.386356e+002, 2.766141e+004
4.391177e+002, 2.767323e+004
4.395998e+002, 2.769326e+004
4.400819e+002, 2.771179e+004
4.405641e+002, 2.771610e+004
4.410462e+002, 2.770759e+004
4.415283e+002, 2.770465e+004
4.420104e+002, 2.772327e+004
4.424925e+002, 2.774786e+004
4.429746e+002, 2.776414e+004
4.434568e+002, 2.776158e+004
4.439389e+002, 2.776366e+004
4.444210e+002, 2.778325e+004
4.449031e+002, 2.781163e+004
4.453852e+002, 2.783243e+004
4.458673e+002, 2.783526e+004
4.463495e+002, 2.783687e+004
4.468316e+002, 2.784415e+004
4.473137e+002, 2.785928e+004
4.477958e+002, 2.786663e+004
4.482779e+002, 2.785766e+004
4.487600e+002, 2.784872e+004
4.492422e+002, 2.785324e+004
4.497243e+002, 2.788249e+004
4.502064e+002, 2.790182e+004
4.506885e+002, 2.790561e+004
4.511706e+002, 2.789951e+004
4.516527e+002, 2.789903e+004
4.521349e+002, 2.790525e+004
4.526170e+002, 2.791252e+004
4.530991e+002, 2.791809e+004
4.535812e+002, 2.792188e+004
4.540633e+002, 2.792542e+004
4.545454e+002, 2.792797e+004
4.550276e+002, 2.793260e+004
4.555097e+002, 2.794608e+004
4.559918e+002, 2.796602e+004
4.564739e+002, 2.797738e+004
4.569560e+002, 2.797396e+004
4.574381e+002, 2.796431e+004
4.579203e+002, 2.796089e+004
4.584024e+002, 2.796308e+004
4.588845e+002, 2.796804e+004
4.593666e+002, 2.797885e+004
4.598488e+002, 2.798940e+004
4.603309e+002, 2.799101e+004
4.608130e+002, 2.798250e+004
4.612951e+002, 2.797225e+004
4.617772e+002, 2.796481e+004
4.622593e+002, 2.795964e+004
4.627415e+002, 2.795631e+004
4.632236e+002, 2.795596e+004
4.637057e+002, 2.795635e+004
4.641878e+002, 2.795787e+004
4.646699e+002, 2.795988e+004
4.651520e+002, 2.795991e+004
4.656342e+002, 2.795294e+004
4.661163e+002, 2.794782e+004
4.665984e+002, 2.794957e+004
4.670805e+002, 2.796259e+004
4.675626e+002, 2.797084e+004
4.680447e+002, 2.796743e+004
4.685269e+002, 2.796325e+004
4.690090e+002, 2.797015e+004
4.694911e+002, 2.799643e+004
4.699732e+002, 2.801763e+004
4.704553e+002, 2.802784e+004
4.709374e+002, 2.803018e+004
4.714196e+002, 2.803981e+004
4.719017e+002, 2.805885e+004
4.723838e+002, 2.807737e+004
4.728659e+002, 2.808852e+004
4.733480e+002, 2.809207e+004
4.738301e+002, 2.809931e+004
4.743123e+002, 2.811081e+004
4.747944e+002, 2.812341e+004
4.752765e+002, 2.813355e+004
4.757586e+002, 2.814142e+004
4.762407e+002, 2.814860e+004
4.767228e+002, 2.815601e+004
4.772050e+002, 2.816274e+004
4.776871e+002, 2.816679e+004
4.781692e+002, 2.816883e+004
4.786513e+002, 2.817125e+004
4.791334e+002, 2.817800e+004
4.796155e+002, 2.818522e+004
4.800977e+002, 2.818865e+004
4.805798e+002, 2.818784e+004
4.810619e+002, 2.818568e+004
4.815440e+002, 2.818021e+004
4.820261e+002, 2.817606e+004
4.825082e+002, 2.817849e+004
4.829904e+002, 2.819298e+004
4.834725e+002, 2.821029e+004
4.839546e+002, 2.822846e+004
4.844367e+002, 2.824733e+004
4.849188e+002, 2.826627e+004
4.854009e+002, 2.827836e+004
4.858831e+002, 2.829620e+004
4.863652e+002, 2.832787e+004
4.868473e+002, 2.838143e+004
4.873294e+002, 2.841549e+004
4.878115e+002, 2.841850e+004
4.882936e+002, 2.841179e+004
4.887758e+002, 2.841798e+004
4.892579e+002, 2.844103e+004
4.897400e+002, 2.846348e+004
4.902221e+002, 2.848346e+004
4.907042e+002, 2.850013e+004
4.911863e+002, 2.850904e+004
4.916685e+002, 2.850959e+004
4.921506e+002, 2.851032e+004
4.926327e+002, 2.851961e+004
4.931148e+002, 2.853438e+004
4.935969e+002, 2.853622e+004
4.940790e+002, 2.852412e+004
4.945612e+002, 2.851218e+004
4.950433e+002, 2.851577e+004
4.955254e+002, 2.853030e+004
4.960075e+002, 2.854582e+004
4.964896e+002, 2.856132e+004
4.969717e+002, 2.857462e+004
4.974539e+002, 2.858040e+004
4.979360e+002, 2.858189e+004
4.984181e+002, 2.858698e+004
4.989002e+002, 2.860198e+004
4.993823e+002, 2.861947e+004
4.998644e+002, 2.863399e+004
5.003466e+002, 2.864463e+004
5.008287e+002, 2.865680e+004
5.013108e+002, 2.867419e+004
5.017929e+002, 2.869166e+004
5.022750e+002, 2.870509e+004
5.027571e+002, 2.871068e+004
5.032393e+002, 2.871546e+004
5.037214e+002, 2.871768e+004
5.042035e+002, 2.871928e+004
5.046856e+002, 2.872511e+004
5.051677e+002, 2.873802e+004
5.056498e+002, 2.874984e+004
5.061320e+002, 2.875775e+004
5.066141e+002, 2.876224e+004
5.070962e+002, 2.877025e+004
5.075783e+002, 2.878343e+004
5.080604e+002, 2.879623e+004
5.085425e+002, 2.880634e+004
5.090247e+002, 2.881368e+004
5.095068e+002, 2.881085e+004
5.099889e+002, 2.879490e+004
5.104710e+002, 2.877616e+004
5.109531e+002, 2.876785e+004
5.114352e+002, 2.876890e+004
5.119174e+002, 2.877528e+004
5.123995e+002, 2.878984e+004
5.128816e+002, 2.880561e+004
5.133637e+002, 2.881285e+004
5.138458e+002, 2.881282e+004
5.143279e+002, 2.881414e+004
5.148101e+002, 2.882523e+004
5.152922e+002, 2.883691e+004
5.157743e+002, 2.883981e+004
5.162564e+002, 2.882836e+004
5.167385e+002, 2.882138e+004
5.172206e+002, 2.883206e+004
5.177028e+002, 2.884773e+004
5.181849e+002, 2.885409e+004
5.186670e+002, 2.883360e+004
5.191491e+002, 2.882171e+004
5.196312e+002, 2.883044e+004
5.201133e+002, 2.885348e+004
5.205955e+002, 2.886312e+004
5.210776e+002, 2.885543e+004
5.215597e+002, 2.884221e+004
5.220418e+002, 2.882677e+004
5.225239e+002, 2.880868e+004
5.230060e+002, 2.879848e+004
5.234882e+002, 2.879698e+004
5.239703e+002, 2.880242e+004
5.244524e+002, 2.881608e+004
5.249345e+002, 2.883716e+004
5.254166e+002, 2.885315e+004
5.258987e+002, 2.886026e+004
5.263809e+002, 2.886393e+004
5.268630e+002, 2.887078e+004
5.273451e+002, 2.888088e+004
5.278272e+002, 2.889523e+004
5.283093e+002, 2.891633e+004
5.287914e+002, 2.893997e+004
5.292736e+002, 2.896331e+004
5.297557e+002, 2.898568e+004
5.302378e+002, 2.900214e+004
5.307199e+002, 2.900166e+004
5.312020e+002, 2.899862e+004
5.316841e+002, 2.900638e+004
5.321663e+002, 2.903498e+004
5.326484e+002, 2.905732e+004
5.331305e+002, 2.906283e+004
5.336126e+002, 2.905960e+004
5.340947e+002, 2.905941e+004
5.345768e+002, 2.907116e+004
5.350590e+002, 2.907681e+004
5.355411e+002, 2.907013e+004
5.360232e+002, 2.905457e+004
5.365053e+002, 2.905120e+004
5.369874e+002, 2.906646e+004
5.374695e+002, 2.908103e+004
5.379517e+002, 2.908294e+004
5.384338e+002, 2.907134e+004
5.389159e+002, 2.907042e+004
5.393980e+002, 2.908234e+004
5.398801e+002, 2.909623e+004
5.403622e+002, 2.909606e+004
5.408444e+002, 2.908572e+004
5.413265e+002, 2.908578e+004
5.418086e+002, 2.910453e+004
5.422907e+002, 2.912711e+004
5.427728e+002, 2.913118e+004
5.432549e+002, 2.912259e+004
5.437371e+002, 2.911833e+004
5.442192e+002, 2.913198e+004
5.447013e+002, 2.914937e+004
5.451834e+002, 2.916066e+004
5.456655e+002, 2.916584e+004
5.461476e+002, 2.916786e+004
5.466298e+002, 2.916540e+004
5.471119e+002, 2.916249e+004
5.475940e+002, 2.916221e+004
5.480761e+002, 2.916726e+004
5.485582e+002, 2.917095e+004
5.490403e+002, 2.916973e+004
5.495225e+002, 2.916869e+004
5.500046e+002, 2.917428e+004
5.504867e+002, 2.919024e+004
5.509688e+002, 2.920525e+004
5.514509e+002, 2.921782e+004
5.519330e+002, 2.922770e+004
5.524152e+002, 2.923213e+004
5.528973e+002, 2.922927e+004
5.533794e+002, 2.923003e+004
5.538615e+002, 2.924261e+004
5.543436e+002, 2.926399e+004
5.548257e+002, 2.927854e+004
5.553079e+002, 2.928566e+004
5.557900e+002, 2.929093e+004
5.562721e+002, 2.930173e+004
5.567542e+002, 2.931378e+004
5.572363e+002, 2.931792e+004
5.577184e+002, 2.930974e+004
5.582006e+002, 2.930128e+004
5.586827e+002, 2.930255e+004
5.591648e+002, 2.931017e+004
5.596469e+002, 2.931833e+004
5.601290e+002, 2.932949e+004
5.606111e+002, 2.933656e+004
5.610933e+002, 2.933396e+004
5.615754e+002, 2.932352e+004
5.620575e+002, 2.931703e+004
5.625396e+002, 2.932222e+004
5.630217e+002, 2.932591e+004
5.635038e+002, 2.932126e+004
5.639860e+002, 2.930419e+004
5.644681e+002, 2.929765e+004
5.649502e+002, 2.930369e+004
5.654323e+002, 2.931677e+004
5.659144e+002, 2.933466e+004
5.663965e+002, 2.935873e+004
5.668787e+002, 2.937121e+004
5.673608e+002, 2.936646e+004
5.678429e+002, 2.935548e+004
5.683250e+002, 2.935900e+004
5.688071e+002, 2.937450e+004
5.692892e+002, 2.938783e+004
5.697714e+002, 2.939040e+004
5.702535e+002, 2.938885e+004
5.707356e+002, 2.939207e+004
5.712177e+002, 2.939937e+004
5.716998e+002, 2.940671e+004
5.721819e+002, 2.941195e+004
5.726641e+002, 2.941595e+004
5.731462e+002, 2.941886e+004
5.736283e+002, 2.942012e+004
5.741104e+002, 2.942206e+004
5.745925e+002, 2.942661e+004
5.750746e+002, 2.943104e+004
5.755568e+002, 2.943274e+004
5.760389e+002, 2.942114e+004
5.765210e+002, 2.942173e+004
5.770031e+002, 2.944388e+004
5.774852e+002, 2.947541e+004
5.779673e+002, 2.949173e+004
5.784495e+002, 2.949123e+004
5.789316e+002, 2.948120e+004
5.794137e+002, 2.945960e+004
5.798958e+002, 2.943155e+004
5.803779e+002, 2.941806e+004
5.808600e+002, 2.941984e+004
5.813422e+002, 2.942781e+004
5.818243e+002, 2.943876e+004
5.823064e+002, 2.945108e+004
5.827885e+002, 2.945827e+004
5.832706e+002, 2.945923e+004
5.837527e+002, 2.946495e+004
5.842349e+002, 2.949729e+004
5.847170e+002, 2.953445e+004
5.851991e+002, 2.954679e+004
5.856812e+002, 2.950866e+004
5.861633e+002, 2.947503e+004
5.866454e+002, 2.947327e+004
5.871276e+002, 2.949069e+004
5.876097e+002, 2.950458e+004
5.880918e+002, 2.951141e+004
5.885739e+002, 2.951311e+004
5.890560e+002, 2.950829e+004
5.895381e+002, 2.949806e+004
5.900203e+002, 2.949065e+004
5.905024e+002, 2.948860e+004
5.909845e+002, 2.948487e+004
5.914666e+002, 2.947374e+004
5.919487e+002, 2.945524e+004
5.924308e+002, 2.945198e+004
5.929130e+002, 2.946734e+004
5.933951e+002, 2.948299e+004
5.938772e+002, 2.947507e+004
5.943593e+002, 2.945226e+004
5.948414e+002, 2.944359e+004
5.953235e+002, 2.945656e+004
5.958057e+002, 2.947742e+004
5.962878e+002, 2.949686e+004
5.967699e+002, 2.951356e+004
5.972520e+002, 2.952478e+004
5.977341e+002, 2.952201e+004
5.982162e+002, 2.952034e+004
5.986984e+002, 2.952843e+004
5.991805e+002, 2.954360e+004
5.996626e+002, 2.955680e+004
6.001447e+002, 2.956519e+004
6.006268e+002, 2.957130e+004
6.011089e+002, 2.957529e+004
6.015911e+002, 2.957682e+004
6.020732e+002, 2.957917e+004
6.025553e+002, 2.958158e+004
6.030374e+002, 2.958610e+004
6.035195e+002, 2.959525e+004
6.040016e+002, 2.960965e+004
6.044838e+002, 2.962217e+004
6.049659e+002, 2.963279e+004
6.054480e+002, 2.964060e+004
6.059301e+002, 2.964158e+004
6.064122e+002, 2.963801e+004
6.068943e+002, 2.963968e+004
6.073765e+002, 2.965239e+004
6.078586e+002, 2.966590e+004
6.083407e+002, 2.966502e+004
6.088228e+002, 2.965561e+004
6.093049e+002, 2.965220e+004
6.097870e+002, 2.966670e+004
6.102692e+002, 2.968395e+004
6.107513e+002, 2.969754e+004
6.112334e+002, 2.970703e+004
6.117155e+002, 2.971129e+004
6.121976e+002, 2.970285e+004
6.126797e+002, 2.969585e+004
6.131619e+002, 2.969739e+004
6.136440e+002, 2.971004e+004
6.141261e+002, 2.972013e+004
6.146082e+002, 2.972734e+004
6.150903e+002, 2.973308e+004
6.155724e+002, 2.973785e+004
6.160546e+002, 2.974156e+004
6.165367e+002, 2.974891e+004
6.170188e+002, 2.976121e+004
6.175009e+002, 2.977517e+004
6.179830e+002, 2.978636e+004
6.184651e+002, 2.979514e+004
6.189473e+002, 2.980262e+004
6.194294e+002, 2.980728e+004
6.199115e+002, 2.981265e+004
6.203936e+002, 2.982192e+004
6.208757e+002, 2.983466e+004
6.213578e+002, 2.984987e+004
6.218400e+002, 2.987408e+004
6.223221e+002, 2.989456e+004
6.228042e+002, 2.990202e+004
6.232863e+002, 2.989610e+004
6.237684e+002, 2.989513e+004
6.242505e+002, 2.990638e+004
6.247327e+002, 2.991795e+004
6.252148e+002, 2.992336e+004
6.256969e+002, 2.992034e+004
6.261790e+002, 2.992145e+004
6.266611e+002, 2.992776e+004
6.271432e+002, 2.993634e+004
6.276254e+002, 2.994430e+004
6.281075e+002, 2.995171e+004
6.285896e+002, 2.995867e+004
6.290717e+002, 2.996419e+004
6.295538e+002, 2.997138e+004
6.300359e+002, 2.998585e+004
6.305181e+002, 3.000506e+004
6.310002e+002, 3.002323e+004
6.314823e+002, 3.003850e+004
6.319644e+002, 3.005103e+004
6.324465e+002, 3.005825e+004
6.329286e+002, 3.006225e+004
6.334108e+002, 3.006973e+004
6.338929e+002, 3.008747e+004
6.343750e+002, 3.010479e+004
6.348571e+002, 3.011809e+004
6.353392e+002, 3.012728e+004
6.358214e+002, 3.013294e+004
6.363035e+002, 3.013386e+004
6.367856e+002, 3.013376e+004
6.372677e+002, 3.013576e+004
6.377498e+002, 3.014104e+004
6.382319e+002, 3.014102e+004
6.387141e+002, 3.013491e+004
6.391962e+002, 3.012793e+004
6.396783e+002, 3.012621e+004
6.401604e+002, 3.012847e+004
6.406425e+002, 3.012967e+004
6.411246e+002, 3.012923e+004
6.416068e+002, 3.012661e+004
6.420889e+002, 3.011721e+004
6.425710e+002, 3.010586e+004
6.430531e+002, 3.010098e+004
6.435352e+002, 3.011285e+004
6.440173e+002, 3.012396e+004
6.444995e+002, 3.012179e+004
6.449816e+002, 3.011252e+004
6.454637e+002, 3.011448e+004
6.459458e+002, 3.014452e+004
6.464279e+002, 3.016988e+004
6.469100e+002, 3.018039e+004
6.473922e+002, 3.017750e+004
6.478743e+002, 3.017990e+004
6.483564e+002, 3.018733e+004
6.488385e+002, 3.020058e+004
6.493206e+002, 3.022529e+004
6.498027e+002, 3.025896e+004
6.502849e+002, 3.027254e+004
6.507670e+002, 3.026465e+004
6.512491e+002, 3.025869e+004
6.517312e+002, 3.028279e+004
6.522133e+002, 3.032067e+004
6.526954e+002, 3.034624e+004
6.531776e+002, 3.035348e+004
6.536597e+002, 3.035369e+004
6.541418e+002, 3.034977e+004
6.546239e+002, 3.034454e+004
6.551060e+002, 3.034132e+004
6.555881e+002, 3.034179e+004
6.560703e+002, 3.034334e+004
6.565524e+002, 3.034666e+004
6.570345e+002, 3.035065e+004
6.575166e+002, 3.035315e+004
6.579987e+002, 3.035314e+004
6.584808e+002, 3.035425e+004
6.589630e+002, 3.035777e+004
6.594451e+002, 3.036272e+004
6.599272e+002, 3.036473e+004
6.604093e+002, 3.036383e+004
6.608914e+002, 3.036586e+004
6.613735e+002, 3.037896e+004
6.618557e+002, 3.039553e+004
6.623378e+002, 3.039960e+004
6.628199e+002, 3.039264e+004
6.633020e+002, 3.038673e+004
6.637841e+002, 3.039157e+004
6.642662e+002, 3.039962e+004
6.647484e+002, 3.040337e+004
6.652305e+002, 3.040041e+004
6.657126e+002, 3.040437e+004
6.661947e+002, 3.042112e+004
6.666768e+002, 3.044438e+004
6.671589e+002, 3.047073e+004
6.676411e+002, 3.050952e+004
6.681232e+002, 3.052804e+004
6.686053e+002, 3.051638e+004
6.690874e+002, 3.049709e+004
6.695695e+002, 3.050104e+004
6.700516e+002, 3.052771e+004
6.705338e+002, 3.055067e+004
6.710159e+002, 3.056386e+004
6.714980e+002, 3.057287e+004
6.719801e+002, 3.058657e+004
6.724622e+002, 3.060300e+004
6.729443e+002, 3.061637e+004
6.734265e+002, 3.062123e+004
6.739086e+002, 3.062566e+004
6.743907e+002, 3.063647e+004
6.748728e+002, 3.065192e+004
6.753549e+002, 3.066582e+004
6.758370e+002, 3.067503e+004
6.763192e+002, 3.068456e+004
6.768013e+002, 3.069634e+004
6.772834e+002, 3.071041e+004
6.777655e+002, 3.072490e+004
6.782476e+002, 3.073968e+004
6.787297e+002, 3.075539e+004
6.792119e+002, 3.077606e+004
6.796940e+002, 3.080064e+004
6.801761e+002, 3.080160e+004
6.806582e+002, 3.077653e+004
6.811403e+002, 3.075163e+004
6.816224e+002, 3.075189e+004
6.821046e+002, 3.076696e+004
6.825867e+002, 3.077654e+004
6.830688e+002, 3.077716e+004
6.835509e+002, 3.078017e+004
6.840330e+002, 3.079853e+004
6.845151e+002, 3.082059e+004
6.849973e+002, 3.083459e+004
6.854794e+002, 3.083522e+004
6.859615e+002, 3.083268e+004
6.864436e+002, 3.082332e+004
6.869257e+002, 3.081426e+004
6.874078e+002, 3.081506e+004
6.878900e+002, 3.083131e+004
6.883721e+002, 3.084279e+004
6.888542e+002, 3.084514e+004
6.893363e+002, 3.084347e+004
6.898184e+002, 3.084934e+004
6.903005e+002, 3.086204e+004
6.907827e+002, 3.087137e+004
6.912648e+002, 3.087098e+004
6.917469e+002, 3.086753e+004
6.922290e+002, 3.086848e+004
6.927111e+002, 3.087396e+004
6.931932e+002, 3.088469e+004
6.936754e+002, 3.090428e+004
6.941575e+002, 3.092587e+004
6.946396e+002, 3.094473e+004
6.951217e+002, 3.096084e+004
6.956038e+002, 3.098023e+004
6.960859e+002, 3.100793e+004
6.965681e+002, 3.103368e+004
6.970502e+002, 3.105222e+004
6.975323e+002, 3.106307e+004
6.980144e+002, 3.108205e+004
6.984965e+002, 3.111257e+004
6.989786e+002, 3.113977e+004
6.994608e+002, 3.114826e+004
6.999429e+002, 3.114344e+004
7.004250e+002, 3.115054e+004
7.009071e+002, 3.117179e+004
7.013892e+002, 3.119458e+004
7.018713e+002, 3.120841e+004
7.023535e+002, 3.121729e+004
7.028356e+002, 3.122547e+004
7.033177e+002, 3.123281e+004
7.037998e+002, 3.124298e+004
7.042819e+002, 3.125996e+004
7.047640e+002, 3.127925e+004
7.052462e+002, 3.129604e+004
7.057283e+002, 3.131045e+004
7.062104e+002, 3.132112e+004
7.066925e+002, 3.132782e+004
7.071746e+002, 3.133054e+004
7.076567e+002, 3.132792e+004
7.081389e+002, 3.131944e+004
7.086210e+002, 3.131276e+004
7.091031e+002, 3.130955e+004
7.095852e+002, 3.130906e+004
7.100673e+002, 3.131344e+004
7.105494e+002, 3.132002e+004
7.110316e+002, 3.132064e+004
7.115137e+002, 3.130853e+004
7.119958e+002, 3.129220e+004
7.124779e+002, 3.127385e+004
7.129600e+002, 3.125540e+004
7.134421e+002, 3.124285e+004
7.139243e+002, 3.124554e+004
7.144064e+002, 3.124591e+004
7.148885e+002, 3.123714e+004
7.153706e+002, 3.122068e+004
7.158527e+002, 3.120943e+004
7.163348e+002, 3.120501e+004
7.168170e+002, 3.120063e+004
7.172991e+002, 3.119326e+004
7.177812e+002, 3.118309e+004
7.182633e+002, 3.117055e+004
7.187454e+002, 3.115552e+004
7.192275e+002, 3.114283e+004
7.197097e+002, 3.113652e+004
7.201918e+002, 3.113384e+004
7.206739e+002, 3.113139e+004
7.211560e+002, 3.112902e+004
7.216381e+002, 3.112846e+004
7.221202e+002, 3.113517e+004
7.226024e+002, 3.114082e+004
7.230845e+002, 3.113839e+004
7.235666e+002, 3.112229e+004
7.240487e+002, 3.111525e+004
7.245308e+002, 3.112173e+004
7.250129e+002, 3.113161e+004
7.254951e+002, 3.113600e+004
7.259772e+002, 3.113447e+004
7.264593e+002, 3.113636e+004
7.269414e+002, 3.114288e+004
7.274235e+002, 3.114985e+004
7.279056e+002, 3.115158e+004
7.283878e+002, 3.115005e+004
7.288699e+002, 3.114987e+004
7.293520e+002, 3.115255e+004
7.298341e+002, 3.115473e+004
7.303162e+002, 3.115193e+004
7.307983e+002, 3.114812e+004
7.312805e+002, 3.114831e+004
7.317626e+002, 3.115581e+004
7.322447e+002, 3.116501e+004
7.327268e+002, 3.117862e+004
7.332089e+002, 3.119210e+004
7.336910e+002, 3.119622e+004
7.341732e+002, 3.118796e+004
7.346553e+002, 3.118574e+004
7.351374e+002, 3.119469e+004
7.356195e+002, 3.121007e+004
7.361016e+002, 3.122353e+004
7.365837e+002, 3.123536e+004
7.370659e+002, 3.124724e+004
7.375480e+002, 3.126379e+004
7.380301e+002, 3.127614e+004
7.385122e+002, 3.126979e+004
7.389943e+002, 3.125228e+004
7.394764e+002, 3.124336e+004
7.399586e+002, 3.125715e+004
7.404407e+002, 3.127241e+004
7.409228e+002, 3.128368e+004
7.414049e+002, 3.129081e+004
7.418870e+002, 3.129210e+004
7.423691e+002, 3.128470e+004
7.428513e+002, 3.127925e+004
7.433334e+002, 3.127999e+004
7.438155e+002, 3.128620e+004
7.442976e+002, 3.129549e+004
7.447797e+002, 3.130794e+004
7.452618e+002, 3.131992e+004
7.457440e+002, 3.133088e+004
7.462261e+002, 3.133944e+004
7.467082e+002, 3.134288e+004
7.471903e+002, 3.134166e+004
7.476724e+002, 3.134061e+004
7.481545e+002, 3.133429e+004
7.486367e+002, 3.133500e+004
7.491188e+002, 3.135626e+004
7.496009e+002, 3.140263e+004
7.500830e+002, 3.142020e+004
7.505651e+002, 3.139464e+004
7.510472e+002, 3.136624e+004
7.515294e+002, 3.136049e+004
7.520115e+002, 3.137637e+004
7.524936e+002, 3.138606e+004
7.529757e+002, 3.138936e+004
7.534578e+002, 3.139050e+004
7.539399e+002, 3.139373e+004
7.544221e+002, 3.139713e+004
7.549042e+002, 3.139659e+004
7.553863e+002, 3.139145e+004
7.558684e+002, 3.138913e+004
7.563505e+002, 3.139945e+004
7.568326e+002, 3.141051e+004
7.573148e+002, 3.141170e+004
7.577969e+002, 3.139456e+004
7.582790e+002, 3.138854e+004
7.587611e+002, 3.139807e+004
7.592432e+002, 3.141285e+004
7.597253e+002, 3.142306e+004
7.602075e+002, 3.142844e+004
7.606896e+002, 3.144044e+004
7.611717e+002, 3.146131e+004
7.616538e+002, 3.148042e+004
7.621359e+002, 3.148286e+004
7.626180e+002, 3.147634e+004
7.631002e+002, 3.147519e+004
7.635823e+002, 3.148370e+004
7.640644e+002, 3.149325e+004
7.645465e+002, 3.150142e+004
7.650286e+002, 3.150758e+004
7.655107e+002, 3.151105e+004
7.659929e+002, 3.150892e+004
7.664750e+002, 3.150946e+004
7.669571e+002, 3.151447e+004
7.674392e+002, 3.152103e+004
7.679213e+002, 3.152418e+004
7.684034e+002, 3.152368e+004
7.688856e+002, 3.152827e+004
7.693677e+002, 3.153940e+004
7.698498e+002, 3.155520e+004
7.703319e+002, 3.157694e+004
7.708140e+002, 3.160087e+004
7.712961e+002, 3.161862e+004
7.717783e+002, 3.162230e+004
7.722604e+002, 3.162819e+004
7.727425e+002, 3.165419e+004
7.732246e+002, 3.168468e+004
7.737067e+002, 3.169568e+004
7.741888e+002, 3.166078e+004
7.746710e+002, 3.164275e+004
7.751531e+002, 3.165261e+004
7.756352e+002, 3.167747e+004
7.761173e+002, 3.169424e+004
7.765994e+002, 3.170274e+004
7.770815e+002, 3.171328e+004
7.775637e+002, 3.172951e+004
7.780458e+002, 3.174672e+004
7.785279e+002, 3.175714e+004
7.790100e+002, 3.176330e+004
7.794921e+002, 3.177104e+004
7.799742e+002, 3.178622e+004
7.804564e+002, 3.179901e+004
7.809385e+002, 3.180280e+004
7.814206e+002, 3.180117e+004
7.819027e+002, 3.180178e+004
7.823848e+002, 3.180378e+004
7.828669e+002, 3.181110e+004
7.833491e+002, 3.182930e+004
7.838312e+002, 3.184988e+004
7.843133e+002, 3.184859e+004
7.847954e+002, 3.182625e+004
7.852775e+002, 3.180664e+004
7.857596e+002, 3.179735e+004
7.862418e+002, 3.179632e+004
7.867239e+002, 3.180529e+004
7.872060e+002, 3.182040e+004
7.876881e+002, 3.183224e+004
7.881702e+002, 3.182816e+004
7.886523e+002, 3.182880e+004
7.891345e+002, 3.184750e+004
7.896166e+002, 3.187715e+004
7.900987e+002, 3.189657e+004
7.905808e+002, 3.189911e+004
7.910629e+002, 3.190333e+004
7.915450e+002, 3.191399e+004
7.920272e+002, 3.192834e+004
7.925093e+002, 3.193872e+004
7.929914e+002, 3.194534e+004
7.934735e+002, 3.194995e+004
7.939556e+002, 3.195215e+004
7.944377e+002, 3.195396e+004
7.949199e+002, 3.195903e+004
7.954020e+002, 3.196583e+004
7.958841e+002, 3.197013e+004
7.963662e+002, 3.196413e+004
7.968483e+002, 3.196199e+004
7.973304e+002, 3.197151e+004
7.978126e+002, 3.198890e+004
7.982947e+002, 3.200218e+004
7.987768e+002, 3.201005e+004
7.992589e+002, 3.201798e+004
7.997410e+002, 3.202862e+004
8.002231e+002, 3.203971e+004
8.007053e+002, 3.204383e+004
8.011874e+002, 3.204238e+004
8.016695e+002, 3.204270e+004
8.021516e+002, 3.204788e+004
8.026337e+002, 3.205697e+004
8.031158e+002, 3.207205e+004
8.035980e+002, 3.209042e+004
8.040801e+002, 3.210523e+004
8.045622e+002, 3.211167e+004
8.050443e+002, 3.211678e+004
8.055264e+002, 3.212109e+004
8.060085e+002, 3.212540e+004
8.064907e+002, 3.213329e+004
8.069728e+002, 3.214549e+004
8.074549e+002, 3.215651e+004
8.079370e+002, 3.216421e+004
8.084191e+002, 3.216984e+004
8.089012e+002, 3.217524e+004
8.093834e+002, 3.218074e+004
8.098655e+002, 3.218754e+004
8.103476e+002, 3.219861e+004
8.108297e+002, 3.220913e+004
8.113118e+002, 3.221549e+004
8.117939e+002, 3.221907e+004
8.122761e+002, 3.222355e+004
8.127582e+002, 3.223012e+004
8.132403e+002, 3.223758e+004
8.137224e+002, 3.224724e+004
8.142045e+002, 3.225712e+004
8.146866e+002, 3.225857e+004
8.151688e+002, 3.225139e+004
8.156509e+002, 3.225104e+004
8.161330e+002, 3.226573e+004
8.166151e+002, 3.228680e+004
8.170972e+002, 3.229833e+004
8.175793e+002, 3.230563e+004
8.180615e+002, 3.232307e+004
8.185436e+002, 3.237635e+004
8.190257e+002, 3.241942e+004
8.195078e+002, 3.242699e+004
8.199899e+002, 3.241031e+004
8.204720e+002, 3.240172e+004
8.209542e+002, 3.240310e+004
8.214363e+002, 3.240828e+004
8.219184e+002, 3.241782e+004
8.224005e+002, 3.242825e+004
8.228826e+002, 3.243055e+004
8.233647e+002, 3.242615e+004
8.238469e+002, 3.242272e+004
8.243290e+002, 3.242365e+004
8.248111e+002, 3.242634e+004
8.252932e+002, 3.243011e+004
8.257753e+002, 3.243394e+004
8.262574e+002, 3.243560e+004
8.267396e+002, 3.242799e+004
8.272217e+002, 3.242723e+004
8.277038e+002, 3.244054e+004
8.281859e+002, 3.245988e+004
8.286681e+002, 3.246957e+004
8.291502e+002, 3.246809e+004
8.296323e+002, 3.246697e+004
8.301144e+002, 3.246872e+004
8.305966e+002, 3.247174e+004
8.310787e+002, 3.247176e+004
8.315608e+002, 3.247110e+004
8.320429e+002, 3.247615e+004
8.325250e+002, 3.249418e+004
8.330071e+002, 3.250989e+004
8.334893e+002, 3.251305e+004
8.339714e+002, 3.250981e+004
8.344535e+002, 3.250982e+004
8.349356e+002, 3.251289e+004
8.354177e+002, 3.252070e+004
8.358998e+002, 3.253454e+004
8.363820e+002, 3.255134e+004
8.368641e+002, 3.256933e+004
8.373462e+002, 3.258740e+004
8.378283e+002, 3.259523e+004
8.383104e+002, 3.258800e+004
8.387925e+002, 3.257938e+004
8.392747e+002, 3.258344e+004
8.397568e+002, 3.259413e+004
8.402389e+002, 3.260350e+004
8.407210e+002, 3.261043e+004
8.412031e+002, 3.261396e+004
8.416852e+002, 3.261406e+004
8.421674e+002, 3.261087e+004
8.426495e+002, 3.260365e+004
8.431316e+002, 3.259169e+004
8.436137e+002, 3.258160e+004
8.440958e+002, 3.257334e+004
8.445779e+002, 3.257018e+004
8.450601e+002, 3.258153e+004
8.455422e+002, 3.259965e+004
8.460243e+002, 3.260621e+004
8.465064e+002, 3.259566e+004
8.469885e+002, 3.258740e+004
8.474706e+002, 3.259113e+004
8.479528e+002, 3.260218e+004
8.484349e+002, 3.261726e+004
8.489170e+002, 3.263766e+004
8.493991e+002, 3.265540e+004
8.498812e+002, 3.267008e+004
8.503633e+002, 3.268149e+004
8.508455e+002, 3.268924e+004
8.513276e+002, 3.269325e+004
8.518097e+002, 3.269295e+004
8.522918e+002, 3.268829e+004
8.527739e+002, 3.268422e+004
8.532560e+002, 3.268573e+004
8.537382e+002, 3.268969e+004
8.542203e+002, 3.269495e+004
8.547024e+002, 3.270234e+004
8.551845e+002, 3.270378e+004
8.556666e+002, 3.269037e+004
8.561487e+002, 3.267926e+004
8.566309e+002, 3.267918e+004
8.571130e+002, 3.269004e+004
8.575951e+002, 3.270209e+004
8.580772e+002, 3.271574e+004
8.585593e+002, 3.272539e+004
8.590414e+002, 3.271764e+004
8.595236e+002, 3.270804e+004
8.600057e+002, 3.272649e+004
8.604878e+002, 3.276914e+004
8.609699e+002, 3.280649e+004
8.614520e+002, 3.282568e+004
8.619341e+002, 3.283600e+004
8.624163e+002, 3.283560e+004
8.628984e+002, 3.282785e+004
8.633805e+002, 3.283785e+004
8.638626e+002, 3.287335e+004
8.643447e+002, 3.290047e+004
8.648268e+002, 3.290173e+004
8.653090e+002, 3.288917e+004
8.657911e+002, 3.289161e+004
8.662732e+002, 3.290657e+004
8.667553e+002, 3.292423e+004
8.672374e+002, 3.294398e+004
8.677195e+002, 3.296014e+004
8.682017e+002, 3.296545e+004
8.686838e+002, 3.296387e+004
8.691659e+002, 3.296743e+004
8.696480e+002, 3.298229e+004
8.701301e+002, 3.299222e+004
8.706122e+002, 3.299429e+004
8.710944e+002, 3.298986e+004
8.715765e+002, 3.298121e+004
8.720586e+002, 3.296884e+004
8.725407e+002, 3.295381e+004
8.730228e+002, 3.293563e+004
8.735049e+002, 3.291876e+004
8.739871e+002, 3.290871e+004
8.744692e+002, 3.290307e+004
8.749513e+002, 3.289778e+004
8.754334e+002, 3.288839e+004
8.759155e+002, 3.288548e+004
8.763976e+002, 3.289240e+004
8.768798e+002, 3.290360e+004
8.773619e+002, 3.291138e+004
8.778440e+002, 3.291501e+004
8.783261e+002, 3.292596e+004
8.788082e+002, 3.294610e+004
8.792903e+002, 3.296842e+004
8.797725e+002, 3.298445e+004
8.802546e+002, 3.299771e+004
8.807367e+002, 3.301405e+004
8.812188e+002, 3.303506e+004
8.817009e+002, 3.305369e+004
8.821830e+002, 3.307094e+004
8.826652e+002, 3.308104e+004
8.831473e+002, 3.307765e+004
8.836294e+002, 3.305661e+004
8.841115e+002, 3.305148e+004
8.845936e+002, 3.306530e+004
8.850757e+002, 3.308190e+004
8.855579e+002, 3.308763e+004
8.860400e+002, 3.308832e+004
8.865221e+002, 3.309766e+004
8.870042e+002, 3.311555e+004
8.874863e+002, 3.312960e+004
8.879684e+002, 3.313001e+004
8.884506e+002, 3.312820e+004
8.889327e+002, 3.312958e+004
8.894148e+002, 3.313453e+004
8.898969e+002, 3.314409e+004
8.903790e+002, 3.315962e+004
8.908611e+002, 3.317481e+004
8.913433e+002, 3.318535e+004
8.918254e+002, 3.319424e+004
8.923075e+002, 3.321084e+004
8.927896e+002, 3.323349e+004
8.932717e+002, 3.325585e+004
8.937538e+002, 3.327325e+004
8.942360e+002, 3.329035e+004
8.947181e+002, 3.330949e+004
8.952002e+002, 3.332973e+004
8.956823e+002, 3.334876e+004
8.961644e+002, 3.336661e+004
8.966465e+002, 3.338230e+004
8.971287e+002, 3.339516e+004
8.976108e+002, 3.340657e+004
8.980929e+002, 3.342415e+004
8.985750e+002, 3.344401e+004
8.990571e+002, 3.344296e+004
8.995392e+002, 3.340630e+004
9.000214e+002, 3.337426e+004
9.005035e+002, 3.338673e+004
9.009856e+002, 3.341855e+004
9.014677e+002, 3.344045e+004
9.019498e+002, 3.343840e+004
9.024319e+002, 3.344099e+004
9.029141e+002, 3.345056e+004
9.033962e+002, 3.346192e+004
9.038783e+002, 3.347048e+004
9.043604e+002, 3.347640e+004
9.048425e+002, 3.348068e+004
9.053246e+002, 3.348307e+004
9.058068e+002, 3.349048e+004
9.062889e+002, 3.351500e+004
9.067710e+002, 3.354264e+004
9.072531e+002, 3.356048e+004
9.077352e+002, 3.356655e+004
9.082173e+002, 3.356983e+004
9.086995e+002, 3.356891e+004
9.091816e+002, 3.356934e+004
9.096637e+002, 3.357427e+004
9.101458e+002, 3.358281e+004
9.106279e+002, 3.358948e+004
9.111100e+002, 3.359429e+004
9.115922e+002, 3.359486e+004
9.120743e+002, 3.358068e+004
9.125564e+002, 3.356904e+004
9.130385e+002, 3.358308e+004
9.135206e+002, 3.361493e+004
9.140027e+002, 3.364043e+004
9.144849e+002, 3.364656e+004
9.149670e+002, 3.365389e+004
9.154491e+002, 3.366629e+004
9.159312e+002, 3.368209e+004
9.164133e+002, 3.369897e+004
9.168954e+002, 3.371682e+004
9.173776e+002, 3.373084e+004
9.178597e+002, 3.373939e+004
9.183418e+002, 3.374498e+004
9.188239e+002, 3.374673e+004
9.193060e+002, 3.374846e+004
9.197881e+002, 3.375593e+004
9.202703e+002, 3.377321e+004
9.207524e+002, 3.379059e+004
9.212345e+002, 3.380732e+004
9.217166e+002, 3.382248e+004
9.221987e+002, 3.383388e+004
9.226808e+002, 3.384111e+004
9.231630e+002, 3.385589e+004
9.236451e+002, 3.387949e+004
9.241272e+002, 3.389977e+004
9.246093e+002, 3.390078e+004
9.250914e+002, 3.389613e+004
9.255735e+002, 3.390177e+004
9.260557e+002, 3.391870e+004
9.265378e+002, 3.393614e+004
9.270199e+002, 3.395725e+004
9.275020e+002, 3.397099e+004
9.279841e+002, 3.397102e+004
9.284662e+002, 3.396023e+004
9.289484e+002, 3.395538e+004
9.294305e+002, 3.395645e+004
9.299126e+002, 3.396157e+004
9.303947e+002, 3.397204e+004
9.308768e+002, 3.398404e+004
9.313589e+002, 3.399785e+004
9.318411e+002, 3.400947e+004
9.323232e+002, 3.400946e+004
9.328053e+002, 3.397994e+004
9.332874e+002, 3.395911e+004
9.337695e+002, 3.395343e+004
9.342516e+002, 3.395894e+004
9.347338e+002, 3.397286e+004
9.352159e+002, 3.399534e+004
9.356980e+002, 3.400961e+004
9.361801e+002, 3.401157e+004
9.366622e+002, 3.401272e+004
9.371443e+002, 3.402740e+004
9.376265e+002, 3.404641e+004
9.381086e+002, 3.405658e+004
9.385907e+002, 3.405148e+004
9.390728e+002, 3.405454e+004
9.395549e+002, 3.407491e+004
9.400370e+002, 3.409653e+004
9.405192e+002, 3.410972e+004
9.410013e+002, 3.411473e+004
9.414834e+002, 3.411868e+004
9.419655e+002, 3.412160e+004
9.424476e+002, 3.413004e+004
9.429297e+002, 3.415807e+004
9.434119e+002, 3.418631e+004
9.438940e+002, 3.419314e+004
9.443761e+002, 3.418258e+004
9.448582e+002, 3.417471e+004
9.453403e+002, 3.417689e+004
9.458224e+002, 3.417880e+004
9.463046e+002, 3.417869e+004
9.467867e+002, 3.417735e+004
9.472688e+002, 3.417693e+004
9.477509e+002, 3.417728e+004
9.482330e+002, 3.417532e+004
9.487151e+002, 3.416932e+004
9.491973e+002, 3.416396e+004
9.496794e+002, 3.415978e+004
9.501615e+002, 3.416086e+004
9.506436e+002, 3.417346e+004
9.511257e+002, 3.421285e+004
9.516078e+002, 3.423509e+004
9.520900e+002, 3.423333e+004
9.525721e+002, 3.422547e+004
9.530542e+002, 3.422470e+004
9.535363e+002, 3.423068e+004
9.540184e+002, 3.424166e+004
9.545005e+002, 3.425728e+004
9.549827e+002, 3.427603e+004
9.554648e+002, 3.429906e+004
9.559469e+002, 3.432229e+004
9.564290e+002, 3.433977e+004
9.569111e+002, 3.435215e+004
9.573932e+002, 3.437485e+004
9.578754e+002, 3.441624e+004
9.583575e+002, 3.444711e+004
9.588396e+002, 3.445351e+004
9.593217e+002, 3.444775e+004
9.598038e+002, 3.446062e+004
9.602859e+002, 3.448719e+004
9.607681e+002, 3.451070e+004
9.612502e+002, 3.452473e+004
9.617323e+002, 3.453450e+004
9.622144e+002, 3.454332e+004
9.626965e+002, 3.454984e+004
9.631786e+002, 3.455260e+004
9.636608e+002, 3.455302e+004
9.641429e+002, 3.454524e+004
9.646250e+002, 3.452554e+004
9.651071e+002, 3.451164e+004
9.655892e+002, 3.453204e+004
9.660714e+002, 3.456917e+004
9.665535e+002, 3.458327e+004
9.670356e+002, 3.457174e+004
9.675177e+002, 3.455766e+004
9.679998e+002, 3.454825e+004
9.684819e+002, 3.454412e+004
9.689641e+002, 3.454611e+004
9.694462e+002, 3.455356e+004
9.699283e+002, 3.456211e+004
9.704104e+002, 3.457061e+004
9.708925e+002, 3.458751e+004
9.713746e+002, 3.462105e+004
9.718568e+002, 3.465717e+004
9.723389e+002, 3.467284e+004
9.728210e+002, 3.467478e+004
9.733031e+002, 3.467796e+004
9.737852e+002, 3.468642e+004
9.742673e+002, 3.469739e+004
9.747495e+002, 3.471065e+004
9.752316e+002, 3.472561e+004
9.757137e+002, 3.474248e+004
9.761958e+002, 3.476164e+004
9.766779e+002, 3.478166e+004
9.771600e+002, 3.480363e+004
9.776422e+002, 3.481663e+004
9.781243e+002, 3.480252e+004
9.786064e+002, 3.478088e+004
9.790885e+002, 3.477386e+004
9.795706e+002, 3.478380e+004
9.800527e+002, 3.479115e+004
9.805349e+002, 3.479121e+004
9.810170e+002, 3.479066e+004
9.814991e+002, 3.479189e+004
9.819812e+002, 3.479398e+004
9.824633e+002, 3.479169e+004
9.829454e+002, 3.478635e+004
9.834276e+002, 3.478722e+004
9.839097e+002, 3.480197e+004
9.843918e+002, 3.481825e+004
9.848739e+002, 3.482693e+004
9.853560e+002, 3.483154e+004
9.858381e+002, 3.483743e+004
9.863203e+002, 3.484370e+004
9.868024e+002, 3.485611e+004
9.872845e+002, 3.487816e+004
9.877666e+002, 3.489920e+004
9.882487e+002, 3.490486e+004
9.887308e+002, 3.490167e+004
9.892130e+002, 3.490825e+004
9.896951e+002, 3.492572e+004
9.901772e+002, 3.493939e+004
9.906593e+002, 3.493156e+004
9.911414e+002, 3.492677e+004
9.916235e+002, 3.494332e+004
9.921057e+002, 3.497541e+004
9.925878e+002, 3.498991e+004
9.930699e+002, 3.498373e+004
9.935520e+002, 3.498002e+004
9.940341e+002, 3.498906e+004
9.945162e+002, 3.500035e+004
9.949984e+002, 3.499563e+004
9.954805e+002, 3.498277e+004
9.959626e+002, 3.497700e+004
9.964447e+002, 3.498911e+004
9.969268e+002, 3.499923e+004
9.974089e+002, 3.500289e+004
9.978911e+002, 3.500651e+004
9.983732e+002, 3.501769e+004
9.988553e+002, 3.503639e+004
9.993374e+002, 3.504787e+004
9.998195e+002, 3.505170e+004
1.000302e+003, 3.505594e+004
1.000784e+003, 3.506222e+004
1.001266e+003, 3.507502e+004
1.001748e+003, 3.510121e+004
1.002230e+003, 3.513913e+004
1.002712e+003, 3.517166e+004
1.003194e+003, 3.519394e+004
1.003676e+003, 3.521675e+004
1.004159e+003, 3.524271e+004
1.004641e+003, 3.527008e+004
1.005123e+003, 3.529947e+004
1.005605e+003, 3.532807e+004
1.006087e+003, 3.534679e+004
1.006569e+003, 3.534838e+004
1.007051e+003, 3.535323e+004
1.007533e+003, 3.537791e+004
1.008016e+003, 3.540700e+004
1.008498e+003, 3.542642e+004
1.008980e+003, 3.543418e+004
1.009462e+003, 3.544740e+004
1.009944e+003, 3.546775e+004
1.010426e+003, 3.548454e+004
1.010908e+003, 3.548064e+004
1.011390e+003, 3.547403e+004
1.011872e+003, 3.549555e+004
1.012355e+003, 3.553771e+004
1.012837e+003, 3.556645e+004
1.013319e+003, 3.555576e+004
1.013801e+003, 3.554846e+004
1.014283e+003, 3.555366e+004
1.014765e+003, 3.556543e+004
1.015247e+003, 3.557568e+004
1.015729e+003, 3.558362e+004
1.016211e+003, 3.558259e+004
1.016694e+003, 3.557023e+004
1.017176e+003, 3.555511e+004
1.017658e+003, 3.553898e+004
1.018140e+003, 3.552757e+004
1.018622e+003, 3.552855e+004
1.019104e+003, 3.554574e+004
1.019586e+003, 3.555620e+004
1.020068e+003, 3.555948e+004
1.020551e+003, 3.555934e+004
1.021033e+003, 3.555567e+004
1.021515e+003, 3.555167e+004
1.021997e+003, 3.555476e+004
1.022479e+003, 3.556343e+004
1.022961e+003, 3.557327e+004
1.023443e+003, 3.557800e+004
1.023925e+003, 3.558873e+004
1.024407e+003, 3.561246e+004
1.024890e+003, 3.564058e+004
1.025372e+003, 3.566352e+004
1.025854e+003, 3.568085e+004
1.026336e+003, 3.569237e+004
1.026818e+003, 3.569727e+004
1.027300e+003, 3.570320e+004
1.027782e+003, 3.572033e+004
1.028264e+003, 3.573935e+004
1.028746e+003, 3.575100e+004
1.029229e+003, 3.575433e+004
1.029711e+003, 3.575717e+004
1.030193e+003, 3.576055e+004
1.030675e+003, 3.576161e+004
1.031157e+003, 3.575582e+004
1.031639e+003, 3.575125e+004
1.032121e+003, 3.577483e+004
1.032603e+003, 3.581595e+004
1.033086e+003, 3.583940e+004
1.033568e+003, 3.582682e+004
1.034050e+003, 3.581237e+004
1.034532e+003, 3.581123e+004
1.035014e+003, 3.581603e+004
1.035496e+003, 3.582107e+004
1.035978e+003, 3.582721e+004
1.036460e+003, 3.582785e+004
1.036943e+003, 3.582261e+004
1.037425e+003, 3.581946e+004
1.037907e+003, 3.582469e+004
1.038389e+003, 3.583457e+004
1.038871e+003, 3.584528e+004
1.039353e+003, 3.585686e+004
1.039835e+003, 3.586973e+004
1.040317e+003, 3.587950e+004
1.040799e+003, 3.589802e+004
1.041281e+003, 3.593042e+004
1.041764e+003, 3.596633e+004
1.042246e+003, 3.598696e+004
1.042728e+003, 3.599740e+004
1.043210e+003, 3.601678e+004
1.043692e+003, 3.605070e+004
1.044174e+003, 3.607552e+004
1.044656e+003, 3.607161e+004
1.045138e+003, 3.605983e+004
1.045621e+003, 3.605060e+004
1.046103e+003, 3.604468e+004
1.046585e+003, 3.605464e+004
1.047067e+003, 3.608172e+004
1.047549e+003, 3.610720e+004
1.048031e+003, 3.612212e+004
1.048513e+003, 3.613176e+004
1.048995e+003, 3.613896e+004
1.049478e+003, 3.614588e+004
1.049960e+003, 3.615621e+004
1.050442e+003, 3.617823e+004
1.050924e+003, 3.619221e+004
1.051406e+003, 3.619639e+004
1.051888e+003, 3.619594e+004
1.052370e+003, 3.619055e+004
1.052852e+003, 3.618498e+004
1.053334e+003, 3.620076e+004
1.053817e+003, 3.623607e+004
1.054299e+003, 3.626434e+004
1.054781e+003, 3.626589e+004
1.055263e+003, 3.626230e+004
1.055745e+003, 3.626004e+004
1.056227e+003, 3.626077e+004
1.056709e+003, 3.626970e+004
1.057191e+003, 3.628719e+004
1.057673e+003, 3.630269e+004
1.058156e+003, 3.631312e+004
1.058638e+003, 3.632419e+004
1.059120e+003, 3.634371e+004
1.059602e+003, 3.636590e+004
1.060084e+003, 3.638473e+004
1.060566e+003, 3.639898e+004
1.061048e+003, 3.641045e+004
1.061530e+003, 3.641914e+004
1.062013e+003, 3.642557e+004
1.062495e+003, 3.642996e+004
1.062977e+003, 3.643241e+004
1.063459e+003, 3.643322e+004
1.063941e+003, 3.643229e+004
1.064423e+003, 3.642906e+004
1.064905e+003, 3.641814e+004
1.065387e+003, 3.641235e+004
1.065870e+003, 3.641751e+004
1.066352e+003, 3.642839e+004
1.066834e+003, 3.644393e+004
1.067316e+003, 3.646413e+004
1.067798e+003, 3.646880e+004
1.068280e+003, 3.645725e+004
1.068762e+003, 3.644664e+004
1.069244e+003, 3.644992e+004
1.069726e+003, 3.645889e+004
1.070208e+003, 3.646804e+004
1.070691e+003, 3.647734e+004
1.071173e+003, 3.648761e+004
1.071655e+003, 3.649983e+004
1.072137e+003, 3.650938e+004
1.072619e+003, 3.651448e+004
1.073101e+003, 3.651919e+004
1.073583e+003, 3.653242e+004
1.074065e+003, 3.654738e+004
1.074548e+003, 3.654957e+004
1.075030e+003, 3.653364e+004
1.075512e+003, 3.653127e+004
1.075994e+003, 3.656889e+004
1.076476e+003, 3.659755e+004
1.076958e+003, 3.659322e+004
1.077440e+003, 3.656670e+004
1.077922e+003, 3.655804e+004
1.078405e+003, 3.656428e+004
1.078887e+003, 3.657051e+004
1.079369e+003, 3.657057e+004
1.079851e+003, 3.657049e+004
1.080333e+003, 3.657419e+004
1.080815e+003, 3.657958e+004
1.081297e+003, 3.658411e+004
1.081779e+003, 3.658744e+004
1.082261e+003, 3.659143e+004
1.082744e+003, 3.659583e+004
1.083226e+003, 3.660360e+004
1.083708e+003, 3.661950e+004
1.084190e+003, 3.663745e+004
1.084672e+003, 3.664982e+004
1.085154e+003, 3.665858e+004
1.085636e+003, 3.667171e+004
1.086118e+003, 3.669458e+004
1.086601e+003, 3.671308e+004
1.087083e+003, 3.672601e+004
1.087565e+003, 3.673301e+004
1.088047e+003, 3.672831e+004
1.088529e+003, 3.671878e+004
1.089011e+003, 3.671966e+004
1.089493e+003, 3.673254e+004
1.089975e+003, 3.674688e+004
1.090458e+003, 3.675741e+004
1.090940e+003, 3.676981e+004
1.091422e+003, 3.678768e+004
1.091904e+003, 3.680764e+004
1.092386e+003, 3.681828e+004
1.092868e+003, 3.682066e+004
1.093350e+003, 3.682118e+004
1.093832e+003, 3.681992e+004
1.094314e+003, 3.682275e+004
1.094797e+003, 3.684187e+004
1.095279e+003, 3.686149e+004
1.095761e+003, 3.686385e+004
1.096243e+003, 3.684718e+004
1.096725e+003, 3.684870e+004
1.097207e+003, 3.687019e+004
1.097689e+003, 3.689288e+004
1.098171e+003, 3.690552e+004
1.098653e+003, 3.691525e+004
1.099136e+003, 3.693067e+004
1.099618e+003, 3.694929e+004
1.100100e+003, 3.696643e+004
1.100582e+003, 3.698010e+004
1.101064e+003, 3.699317e+004
1.101546e+003, 3.700554e+004
1.102028e+003, 3.701641e+004
1.102510e+003, 3.702213e+004
1.102993e+003, 3.702659e+004
1.103475e+003, 3.704009e+004
1.103957e+003, 3.706148e+004
1.104439e+003, 3.708159e+004
1.104921e+003, 3.709907e+004
1.105403e+003, 3.711150e+004
1.105885e+003, 3.711721e+004
1.106367e+003, 3.711970e+004
1.106849e+003, 3.712368e+004
1.107332e+003, 3.712966e+004
1.107814e+003, 3.713767e+004
1.108296e+003, 3.714750e+004
1.108778e+003, 3.716638e+004
1.109260e+003, 3.721746e+004
1.109742e+003, 3.726193e+004
1.110224e+003, 3.726822e+004
1.110706e+003, 3.724542e+004
1.111188e+003, 3.724245e+004
1.111671e+003, 3.725937e+004
1.112153e+003, 3.727801e+004
1.112635e+003, 3.729348e+004
1.113117e+003, 3.730540e+004
1.113599e+003, 3.731356e+004
1.114081e+003, 3.731770e+004
1.114563e+003, 3.731563e+004
1.115045e+003, 3.730416e+004
1.115528e+003, 3.730469e+004
1.116010e+003, 3.732167e+004
1.116492e+003, 3.733150e+004
1.116974e+003, 3.731470e+004
1.117456e+003, 3.728871e+004
1.117938e+003, 3.728361e+004
1.118420e+003, 3.729121e+004
1.118902e+003, 3.729350e+004
1.119385e+003, 3.727918e+004
1.119867e+003, 3.727038e+004
1.120349e+003, 3.727255e+004
1.120831e+003, 3.727269e+004
1.121313e+003, 3.725166e+004
1.121795e+003, 3.722050e+004
1.122277e+003, 3.721275e+004
1.122759e+003, 3.722639e+004
1.123241e+003, 3.724382e+004
1.123724e+003, 3.725763e+004
1.124206e+003, 3.727258e+004
1.124688e+003, 3.729073e+004
1.125170e+003, 3.730930e+004
1.125652e+003, 3.732414e+004
1.126134e+003, 3.733525e+004
1.126616e+003, 3.734318e+004
1.127098e+003, 3.734790e+004
1.127580e+003, 3.735195e+004
1.128063e+003, 3.735853e+004
1.128545e+003, 3.736399e+004
1.129027e+003, 3.736609e+004
1.129509e+003, 3.736571e+004
1.129991e+003, 3.736358e+004
1.130473e+003, 3.735993e+004
1.130955e+003, 3.736061e+004
1.131437e+003, 3.736727e+004
1.131920e+003, 3.737931e+004
1.132402e+003, 3.740211e+004
1.132884e+003, 3.742617e+004
1.133366e+003, 3.744132e+004
1.133848e+003, 3.744611e+004
1.134330e+003, 3.745286e+004
1.134812e+003, 3.746163e+004
1.135294e+003, 3.747029e+004
1.135776e+003, 3.747443e+004
1.136259e+003, 3.748244e+004
1.136741e+003, 3.751066e+004
1.137223e+003, 3.754820e+004
1.137705e+003, 3.757828e+004
1.138187e+003, 3.759076e+004
1.138669e+003, 3.760879e+004
1.139151e+003, 3.763391e+004
1.139633e+003, 3.766048e+004
1.140115e+003, 3.768906e+004
1.140598e+003, 3.771418e+004
1.141080e+003, 3.772282e+004
1.141562e+003, 3.771855e+004
1.142044e+003, 3.771150e+004
1.142526e+003, 3.769624e+004
1.143008e+003, 3.769407e+004
1.143490e+003, 3.771440e+004
1.143972e+003, 3.773721e+004
1.144455e+003, 3.774053e+004
1.144937e+003, 3.773041e+004
1.145419e+003, 3.772342e+004
1.145901e+003, 3.772132e+004
1.146383e+003, 3.772840e+004
1.146865e+003, 3.775956e+004
1.147347e+003, 3.778405e+004
1.147829e+003, 3.778892e+004
1.148312e+003, 3.778669e+004
1.148794e+003, 3.779764e+004
1.149276e+003, 3.781986e+004
1.149758e+003, 3.783906e+004
1.150240e+003, 3.785342e+004
1.150722e+003, 3.787032e+004
1.151204e+003, 3.789825e+004
1.151686e+003, 3.792576e+004
1.152168e+003, 3.794435e+004
1.152651e+003, 3.795798e+004
1.153133e+003, 3.798042e+004
1.153615e+003, 3.801085e+004
1.154097e+003, 3.803418e+004
1.154579e+003, 3.804610e+004
1.155061e+003, 3.805259e+004
1.155543e+003, 3.805681e+004
1.156025e+003, 3.805871e+004
1.156507e+003, 3.805353e+004
1.156990e+003, 3.804345e+004
1.157472e+003, 3.805497e+004
1.157954e+003, 3.808977e+004
1.158436e+003, 3.812473e+004
1.158918e+003, 3.815364e+004
1.159400e+003, 3.817681e+004
1.159882e+003, 3.819380e+004
1.160364e+003, 3.820584e+004
1.160847e+003, 3.821263e+004
1.161329e+003, 3.821245e+004
1.161811e+003, 3.822089e+004
1.162293e+003, 3.823924e+004
1.162775e+003, 3.825691e+004
1.163257e+003, 3.826727e+004
1.163739e+003, 3.827508e+004
1.164221e+003, 3.828871e+004
1.164703e+003, 3.830302e+004
1.165186e+003, 3.830882e+004
1.165668e+003, 3.829639e+004
1.166150e+003, 3.829339e+004
1.166632e+003, 3.830104e+004
1.167114e+003, 3.831281e+004
1.167596e+003, 3.832505e+004
1.168078e+003, 3.833799e+004
1.168560e+003, 3.835163e+004
1.169042e+003, 3.836651e+004
1.169525e+003, 3.838365e+004
1.170007e+003, 3.841395e+004
1.170489e+003, 3.842750e+004
1.170971e+003, 3.841743e+004
1.171453e+003, 3.840523e+004
1.171935e+003, 3.841831e+004
1.172417e+003, 3.844121e+004
1.172899e+003, 3.843447e+004
1.173382e+003, 3.840593e+004
1.173864e+003, 3.840040e+004
1.174346e+003, 3.846512e+004
1.174828e+003, 3.850640e+004
1.175310e+003, 3.850562e+004
1.175792e+003, 3.848838e+004
1.176274e+003, 3.848241e+004
1.176756e+003, 3.848681e+004
1.177239e+003, 3.850006e+004
1.177721e+003, 3.852154e+004
1.178203e+003, 3.854873e+004
1.178685e+003, 3.859048e+004
1.179167e+003, 3.862364e+004
1.179649e+003, 3.864147e+004
1.180131e+003, 3.864960e+004
1.180613e+003, 3.865572e+004
1.181095e+003, 3.866098e+004
1.181578e+003, 3.866870e+004
1.182060e+003, 3.867945e+004
1.182542e+003, 3.869351e+004
1.183024e+003, 3.871478e+004
1.183506e+003, 3.873561e+004
1.183988e+003, 3.875298e+004
1.184470e+003, 3.876892e+004
1.184952e+003, 3.879080e+004
1.185434e+003, 3.881577e+004
1.185917e+003, 3.883247e+004
1.186399e+003, 3.883684e+004
1.186881e+003, 3.884088e+004
1.187363e+003, 3.884119e+004
1.187845e+003, 3.885381e+004
1.188327e+003, 3.889195e+004
1.188809e+003, 3.894519e+004
1.189291e+003, 3.897323e+004
1.189774e+003, 3.898040e+004
1.190256e+003, 3.898902e+004
1.190738e+003, 3.900791e+004
1.191220e+003, 3.902311e+004
1.191702e+003, 3.902166e+004
1.192184e+003, 3.901977e+004
1.192666e+003, 3.902739e+004
1.193148e+003, 3.904351e+004
1.193630e+003, 3.906673e+004
1.194113e+003, 3.909438e+004
1.194595e+003, 3.910942e+004
1.195077e+003, 3.909521e+004
1.195559e+003, 3.908515e+004
1.196041e+003, 3.910702e+004
1.196523e+003, 3.913045e+004
1.197005e+003, 3.912868e+004
1.197487e+003, 3.910407e+004
1.197969e+003, 3.909764e+004
1.198452e+003, 3.910706e+004
1.198934e+003, 3.911324e+004
1.199416e+003, 3.909630e+004
1.199898e+003, 3.908662e+004
1.200380e+003, 3.910670e+004
1.200862e+003, 3.913574e+004
1.201344e+003, 3.915238e+004
1.201826e+003, 3.915679e+004
1.202309e+003, 3.916922e+004
1.202791e+003, 3.918940e+004
1.203273e+003, 3.921123e+004
1.203755e+003, 3.923407e+004
1.204237e+003, 3.925444e+004
1.204719e+003, 3.927057e+004
1.205201e+003, 3.928252e+004
1.205683e+003, 3.928825e+004
1.206166e+003, 3.928774e+004
1.206648e+003, 3.929232e+004
1.207130e+003, 3.930216e+004
1.207612e+003, 3.931509e+004
1.208094e+003, 3.932998e+004
1.208576e+003, 3.934696e+004
1.209058e+003, 3.937277e+004
1.209540e+003, 3.939670e+004
1.210022e+003, 3.939847e+004
1.210505e+003, 3.937945e+004
1.210987e+003, 3.938125e+004
1.211469e+003, 3.940654e+004
1.211951e+003, 3.943144e+004
1.212433e+003, 3.944067e+004
1.212915e+003, 3.944515e+004
1.213397e+003, 3.945068e+004
1.213879e+003, 3.945618e+004
1.214361e+003, 3.945748e+004
1.214844e+003, 3.945539e+004
1.215326e+003, 3.946079e+004
1.215808e+003, 3.947494e+004
1.216290e+003, 3.948976e+004
1.216772e+003, 3.949771e+004
1.217254e+003, 3.950660e+004
1.217736e+003, 3.951850e+004
1.218218e+003, 3.953486e+004
1.218701e+003, 3.956216e+004
1.219183e+003, 3.959882e+004
1.219665e+003, 3.963211e+004
1.220147e+003, 3.965992e+004
1.220629e+003, 3.967652e+004
1.221111e+003, 3.966023e+004
1.221593e+003, 3.965084e+004
1.222075e+003, 3.967557e+004
1.222557e+003, 3.971899e+004
1.223040e+003, 3.974474e+004
1.223522e+003, 3.975377e+004
1.224004e+003, 3.974856e+004
1.224486e+003, 3.972798e+004
1.224968e+003, 3.971469e+004
1.225450e+003, 3.973091e+004
1.225932e+003, 3.975032e+004
1.226414e+003, 3.976062e+004
1.226896e+003, 3.976364e+004
1.227379e+003, 3.976137e+004
1.227861e+003, 3.975579e+004
1.228343e+003, 3.975699e+004
1.228825e+003, 3.976796e+004
1.229307e+003, 3.978038e+004
1.229789e+003, 3.979118e+004
1.230271e+003, 3.979963e+004
1.230753e+003, 3.980286e+004
1.231236e+003, 3.980443e+004
1.231718e+003, 3.981996e+004
1.232200e+003, 3.984498e+004
1.232682e+003, 3.986066e+004
1.233164e+003, 3.986032e+004
1.233646e+003, 3.985988e+004
1.234128e+003, 3.986821e+004
1.234610e+003, 3.987730e+004
1.235093e+003, 3.988454e+004
1.235575e+003, 3.988954e+004
1.236057e+003, 3.988773e+004
1.236539e+003, 3.988231e+004
1.237021e+003, 3.988288e+004
1.237503e+003, 3.989182e+004
1.237985e+003, 3.990898e+004
1.238467e+003, 3.994531e+004
1.238949e+003, 3.997622e+004
1.239432e+003, 3.999023e+004
1.239914e+003, 3.999118e+004
1.240396e+003, 3.998411e+004
1.240878e+003, 3.997405e+004
1.241360e+003, 3.997703e+004
1.241842e+003, 4.000291e+004
1.242324e+003, 4.002406e+004
1.242806e+003, 4.002923e+004
1.243288e+003, 4.003755e+004
1.243771e+003, 4.006255e+004
1.244253e+003, 4.009420e+004
1.244735e+003, 4.010341e+004
1.245217e+003, 4.009977e+004
1.245699e+003, 4.010757e+004
1.246181e+003, 4.014189e+004
1.246663e+003, 4.016296e+004
1.247145e+003, 4.015914e+004
1.247628e+003, 4.015892e+004
1.248110e+003, 4.017911e+004
1.248592e+003, 4.021139e+004
1.249074e+003, 4.024579e+004
1.249556e+003, 4.027639e+004
1.250038e+003, 4.029141e+004
1.250520e+003, 4.027818e+004
1.251002e+003, 4.027209e+004
1.251484e+003, 4.027392e+004
1.251967e+003, 4.028519e+004
1.252449e+003, 4.031255e+004
1.252931e+003, 4.034325e+004
1.253413e+003, 4.035448e+004
1.253895e+003, 4.035511e+004
1.254377e+003, 4.036017e+004
1.254859e+003, 4.037268e+004
1.255341e+003, 4.039021e+004
1.255823e+003, 4.041370e+004
1.256306e+003, 4.043702e+004
1.256788e+003, 4.045918e+004
1.257270e+003, 4.047589e+004
1.257752e+003, 4.047817e+004
1.258234e+003, 4.047323e+004
1.258716e+003, 4.047191e+004
1.259198e+003, 4.047390e+004
1.259680e+003, 4.049329e+004
1.260163e+003, 4.053435e+004
1.260645e+003, 4.055632e+004
1.261127e+003, 4.051970e+004
1.261609e+003, 4.047565e+004
1.262091e+003, 4.047535e+004
1.262573e+003, 4.049413e+004
1.263055e+003, 4.049564e+004
1.263537e+003, 4.047432e+004
1.264020e+003, 4.046921e+004
1.264502e+003, 4.047985e+004
1.264984e+003, 4.049980e+004
1.265466e+003, 4.052909e+004
1.265948e+003, 4.056039e+004
1.266430e+003, 4.059532e+004
1.266912e+003, 4.062389e+004
1.267394e+003, 4.063373e+004
1.267876e+003, 4.062414e+004
1.268359e+003, 4.062284e+004
1.268841e+003, 4.062865e+004
1.269323e+003, 4.063062e+004
1.269805e+003, 4.061708e+004
1.270287e+003, 4.060673e+004
1.270769e+003, 4.061089e+004
1.271251e+003, 4.062011e+004
1.271733e+003, 4.062682e+004
1.272215e+003, 4.063225e+004
1.272698e+003, 4.064708e+004
1.273180e+003, 4.066862e+004
1.273662e+003, 4.068254e+004
1.274144e+003, 4.067858e+004
1.274626e+003, 4.067138e+004
1.275108e+003, 4.065748e+004
1.275590e+003, 4.065145e+004
1.276072e+003, 4.067119e+004
1.276555e+003, 4.070670e+004
1.277037e+003, 4.072005e+004
1.277519e+003, 4.071911e+004
1.278001e+003, 4.072785e+004
1.278483e+003, 4.076687e+004
1.278965e+003, 4.079518e+004
1.279447e+003, 4.080485e+004
1.279929e+003, 4.081530e+004
1.280411e+003, 4.084846e+004
1.280894e+003, 4.088765e+004
1.281376e+003, 4.089953e+004
1.281858e+003, 4.089350e+004
1.282340e+003, 4.089139e+004
1.282822e+003, 4.089561e+004
1.283304e+003, 4.091232e+004
1.283786e+003, 4.094520e+004
1.284268e+003, 4.097414e+004
1.284750e+003, 4.097761e+004
1.285233e+003, 4.097727e+004
1.285715e+003, 4.099990e+004
1.286197e+003, 4.103588e+004
1.286679e+003, 4.106977e+004
1.287161e+003, 4.110149e+004
1.287643e+003, 4.112476e+004
1.288125e+003, 4.113914e+004
1.288607e+003, 4.114743e+004
1.289090e+003, 4.114354e+004
1.289572e+003, 4.114191e+004
1.290054e+003, 4.115285e+004
1.290536e+003, 4.117160e+004
1.291018e+003, 4.119457e+004
1.291500e+003, 4.122228e+004
1.291982e+003, 4.122894e+004
1.292464e+003, 4.121684e+004
1.292947e+003, 4.120747e+004
1.293429e+003, 4.122063e+004
1.293911e+003, 4.122807e+004
1.294393e+003, 4.121005e+004
1.294875e+003, 4.119059e+004
1.295357e+003, 4.118864e+004
1.295839e+003, 4.120015e+004
1.296321e+003, 4.120672e+004
1.296803e+003, 4.121126e+004
1.297286e+003, 4.122062e+004
1.297768e+003, 4.124238e+004
1.298250e+003, 4.126157e+004
1.298732e+003, 4.127489e+004
1.299214e+003, 4.129005e+004
1.299696e+003, 4.130961e+004
1.300178e+003, 4.133209e+004
1.300660e+003, 4.137084e+004
##END=



