##NAMES=Oxy-dravite
##RRUFFID=R141094
##IDEAL CHEMISTRY=Na(Al_2_Mg)(Al_5_Mg)(Si_6_O_18_)(BO_3_)_3_(OH)_3_O
##LOCALITY=Strada Vilante, San Martino al Cimino, Vico volcano, Viterbo, Latium, Italy
##OWNER=RRUFF
##SOURCE=Ch. and H. Sch√§fer
##DESCRIPTION=Blue-grey prismatic crystals
##STATUS=The identification of this mineral has been confirmed only by single crystal X-ray diffraction.
##URL=rruff.info/R141094
8.806445e+001, 6.106780e+003
8.854657e+001, 5.839864e+003
8.902869e+001, 5.747396e+003
8.951080e+001, 5.908054e+003
8.999292e+001, 6.207225e+003
9.047504e+001, 6.542092e+003
9.095715e+001, 6.893375e+003
9.143927e+001, 7.251709e+003
9.192139e+001, 7.608350e+003
9.240350e+001, 7.962110e+003
9.288562e+001, 8.314155e+003
9.336774e+001, 8.606429e+003
9.384985e+001, 8.780500e+003
9.433197e+001, 8.835271e+003
9.481409e+001, 8.892021e+003
9.529620e+001, 8.918061e+003
9.577832e+001, 8.942013e+003
9.626044e+001, 8.969723e+003
9.674255e+001, 9.002849e+003
9.722467e+001, 9.041755e+003
9.770679e+001, 9.085876e+003
9.818890e+001, 9.131240e+003
9.867102e+001, 9.176330e+003
9.915314e+001, 9.222193e+003
9.963525e+001, 9.270382e+003
1.001174e+002, 9.321543e+003
1.005995e+002, 9.373669e+003
1.010816e+002, 9.421043e+003
1.015637e+002, 9.455307e+003
1.020458e+002, 9.492488e+003
1.025280e+002, 9.533808e+003
1.030101e+002, 9.576576e+003
1.034922e+002, 9.617208e+003
1.039743e+002, 9.652746e+003
1.044564e+002, 9.682894e+003
1.049385e+002, 9.713224e+003
1.054207e+002, 9.746018e+003
1.059028e+002, 9.776108e+003
1.063849e+002, 9.800834e+003
1.068670e+002, 9.819823e+003
1.073491e+002, 9.833831e+003
1.078312e+002, 9.841064e+003
1.083134e+002, 9.841892e+003
1.087955e+002, 9.846533e+003
1.092776e+002, 9.860001e+003
1.097597e+002, 9.876803e+003
1.102418e+002, 9.888378e+003
1.107239e+002, 9.891862e+003
1.112061e+002, 9.893816e+003
1.116882e+002, 9.899297e+003
1.121703e+002, 9.907938e+003
1.126524e+002, 9.919125e+003
1.131345e+002, 9.935189e+003
1.136166e+002, 9.955565e+003
1.140988e+002, 9.970028e+003
1.145809e+002, 9.971933e+003
1.150630e+002, 9.971531e+003
1.155451e+002, 9.974552e+003
1.160272e+002, 9.981139e+003
1.165093e+002, 9.987636e+003
1.169915e+002, 9.988911e+003
1.174736e+002, 9.981864e+003
1.179557e+002, 9.977240e+003
1.184378e+002, 9.975122e+003
1.189199e+002, 9.975216e+003
1.194020e+002, 9.977918e+003
1.198842e+002, 9.983150e+003
1.203663e+002, 9.989719e+003
1.208484e+002, 9.995066e+003
1.213305e+002, 9.998841e+003
1.218126e+002, 1.000119e+004
1.222947e+002, 1.000172e+004
1.227769e+002, 1.000083e+004
1.232590e+002, 9.998803e+003
1.237411e+002, 9.995636e+003
1.242232e+002, 9.991693e+003
1.247053e+002, 9.988651e+003
1.251874e+002, 9.987438e+003
1.256696e+002, 9.985999e+003
1.261517e+002, 9.983287e+003
1.266338e+002, 9.979636e+003
1.271159e+002, 9.976161e+003
1.275980e+002, 9.973224e+003
1.280801e+002, 9.971299e+003
1.285623e+002, 9.971119e+003
1.290444e+002, 9.974246e+003
1.295265e+002, 9.978114e+003
1.300086e+002, 9.980114e+003
1.304907e+002, 9.979963e+003
1.309728e+002, 9.979446e+003
1.314550e+002, 9.979425e+003
1.319371e+002, 9.979815e+003
1.324192e+002, 9.980621e+003
1.329013e+002, 9.982025e+003
1.333834e+002, 9.983809e+003
1.338655e+002, 9.985453e+003
1.343477e+002, 9.987465e+003
1.348298e+002, 9.988435e+003
1.353119e+002, 9.987022e+003
1.357940e+002, 9.984314e+003
1.362761e+002, 9.982217e+003
1.367582e+002, 9.981968e+003
1.372404e+002, 9.983582e+003
1.377225e+002, 9.987014e+003
1.382046e+002, 9.996207e+003
1.386867e+002, 1.000385e+004
1.391688e+002, 1.000710e+004
1.396509e+002, 1.000643e+004
1.401331e+002, 1.000418e+004
1.406152e+002, 1.000262e+004
1.410973e+002, 1.000185e+004
1.415794e+002, 1.000176e+004
1.420615e+002, 1.000143e+004
1.425436e+002, 1.000232e+004
1.430258e+002, 1.000633e+004
1.435079e+002, 1.001339e+004
1.439900e+002, 1.002083e+004
1.444721e+002, 1.002501e+004
1.449542e+002, 1.002464e+004
1.454363e+002, 1.002351e+004
1.459185e+002, 1.002021e+004
1.464006e+002, 1.001664e+004
1.468827e+002, 1.001505e+004
1.473648e+002, 1.001613e+004
1.478469e+002, 1.001882e+004
1.483290e+002, 1.002142e+004
1.488112e+002, 1.002356e+004
1.492933e+002, 1.002684e+004
1.497754e+002, 1.003236e+004
1.502575e+002, 1.003949e+004
1.507396e+002, 1.004701e+004
1.512217e+002, 1.005634e+004
1.517039e+002, 1.006342e+004
1.521860e+002, 1.006329e+004
1.526681e+002, 1.005519e+004
1.531502e+002, 1.004606e+004
1.536323e+002, 1.004070e+004
1.541144e+002, 1.003925e+004
1.545966e+002, 1.003991e+004
1.550787e+002, 1.004531e+004
1.555608e+002, 1.005090e+004
1.560429e+002, 1.005362e+004
1.565250e+002, 1.005283e+004
1.570071e+002, 1.004968e+004
1.574893e+002, 1.004517e+004
1.579714e+002, 1.003822e+004
1.584535e+002, 1.003285e+004
1.589356e+002, 1.002990e+004
1.594177e+002, 1.002838e+004
1.598998e+002, 1.002782e+004
1.603820e+002, 1.002800e+004
1.608641e+002, 1.002867e+004
1.613462e+002, 1.002930e+004
1.618283e+002, 1.003090e+004
1.623104e+002, 1.003083e+004
1.627925e+002, 1.002659e+004
1.632747e+002, 1.002147e+004
1.637568e+002, 1.001935e+004
1.642389e+002, 1.002223e+004
1.647210e+002, 1.002879e+004
1.652031e+002, 1.003343e+004
1.656852e+002, 1.003781e+004
1.661674e+002, 1.003861e+004
1.666495e+002, 1.003274e+004
1.671316e+002, 1.002312e+004
1.676137e+002, 1.001469e+004
1.680958e+002, 1.001026e+004
1.685779e+002, 1.000936e+004
1.690601e+002, 1.000873e+004
1.695422e+002, 1.000884e+004
1.700243e+002, 1.000870e+004
1.705064e+002, 1.000652e+004
1.709885e+002, 1.000324e+004
1.714706e+002, 1.000258e+004
1.719528e+002, 1.000727e+004
1.724349e+002, 1.001668e+004
1.729170e+002, 1.002610e+004
1.733991e+002, 1.003852e+004
1.738812e+002, 1.004862e+004
1.743633e+002, 1.005113e+004
1.748455e+002, 1.004588e+004
1.753276e+002, 1.003970e+004
1.758097e+002, 1.003650e+004
1.762918e+002, 1.003530e+004
1.767739e+002, 1.003444e+004
1.772560e+002, 1.003340e+004
1.777382e+002, 1.003275e+004
1.782203e+002, 1.003388e+004
1.787024e+002, 1.003769e+004
1.791845e+002, 1.004030e+004
1.796666e+002, 1.003743e+004
1.801487e+002, 1.003269e+004
1.806309e+002, 1.003093e+004
1.811130e+002, 1.003496e+004
1.815951e+002, 1.004280e+004
1.820772e+002, 1.004946e+004
1.825593e+002, 1.005565e+004
1.830414e+002, 1.005898e+004
1.835236e+002, 1.005733e+004
1.840057e+002, 1.005305e+004
1.844878e+002, 1.004932e+004
1.849699e+002, 1.004796e+004
1.854520e+002, 1.004870e+004
1.859341e+002, 1.004997e+004
1.864163e+002, 1.005292e+004
1.868984e+002, 1.005502e+004
1.873805e+002, 1.005564e+004
1.878626e+002, 1.005504e+004
1.883447e+002, 1.005361e+004
1.888268e+002, 1.005152e+004
1.893090e+002, 1.004881e+004
1.897911e+002, 1.004709e+004
1.902732e+002, 1.004725e+004
1.907553e+002, 1.004760e+004
1.912374e+002, 1.004836e+004
1.917195e+002, 1.004905e+004
1.922017e+002, 1.004858e+004
1.926838e+002, 1.004591e+004
1.931659e+002, 1.004085e+004
1.936480e+002, 1.003820e+004
1.941301e+002, 1.003820e+004
1.946122e+002, 1.003972e+004
1.950944e+002, 1.004348e+004
1.955765e+002, 1.004868e+004
1.960586e+002, 1.005290e+004
1.965407e+002, 1.005405e+004
1.970228e+002, 1.005188e+004
1.975049e+002, 1.004979e+004
1.979871e+002, 1.004649e+004
1.984692e+002, 1.004414e+004
1.989513e+002, 1.004482e+004
1.994334e+002, 1.004826e+004
1.999155e+002, 1.005157e+004
2.003976e+002, 1.005209e+004
2.008798e+002, 1.005003e+004
2.013619e+002, 1.004949e+004
2.018440e+002, 1.005098e+004
2.023261e+002, 1.005386e+004
2.028082e+002, 1.005864e+004
2.032903e+002, 1.006546e+004
2.037725e+002, 1.007091e+004
2.042546e+002, 1.007095e+004
2.047367e+002, 1.006739e+004
2.052188e+002, 1.006529e+004
2.057009e+002, 1.006842e+004
2.061830e+002, 1.007237e+004
2.066652e+002, 1.006994e+004
2.071473e+002, 1.005923e+004
2.076294e+002, 1.004945e+004
2.081115e+002, 1.004693e+004
2.085936e+002, 1.004946e+004
2.090757e+002, 1.005460e+004
2.095579e+002, 1.006323e+004
2.100400e+002, 1.007322e+004
2.105221e+002, 1.008023e+004
2.110042e+002, 1.008353e+004
2.114863e+002, 1.008528e+004
2.119685e+002, 1.008552e+004
2.124506e+002, 1.008521e+004
2.129327e+002, 1.008574e+004
2.134148e+002, 1.008771e+004
2.138969e+002, 1.009098e+004
2.143790e+002, 1.009551e+004
2.148612e+002, 1.010345e+004
2.153433e+002, 1.010891e+004
2.158254e+002, 1.010878e+004
2.163075e+002, 1.010557e+004
2.167896e+002, 1.010279e+004
2.172717e+002, 1.010255e+004
2.177539e+002, 1.010411e+004
2.182360e+002, 1.010414e+004
2.187181e+002, 1.010087e+004
2.192002e+002, 1.009841e+004
2.196823e+002, 1.009833e+004
2.201644e+002, 1.009950e+004
2.206466e+002, 1.010033e+004
2.211287e+002, 1.009986e+004
2.216108e+002, 1.009830e+004
2.220929e+002, 1.009695e+004
2.225750e+002, 1.009655e+004
2.230571e+002, 1.009547e+004
2.235393e+002, 1.009208e+004
2.240214e+002, 1.008812e+004
2.245035e+002, 1.008668e+004
2.249856e+002, 1.008995e+004
2.254677e+002, 1.009656e+004
2.259498e+002, 1.009776e+004
2.264320e+002, 1.008803e+004
2.269141e+002, 1.007875e+004
2.273962e+002, 1.007050e+004
2.278783e+002, 1.006411e+004
2.283604e+002, 1.006077e+004
2.288425e+002, 1.006140e+004
2.293247e+002, 1.006524e+004
2.298068e+002, 1.006807e+004
2.302889e+002, 1.006918e+004
2.307710e+002, 1.007011e+004
2.312531e+002, 1.007127e+004
2.317352e+002, 1.007241e+004
2.322174e+002, 1.007282e+004
2.326995e+002, 1.007189e+004
2.331816e+002, 1.007030e+004
2.336637e+002, 1.007128e+004
2.341458e+002, 1.007755e+004
2.346279e+002, 1.008266e+004
2.351101e+002, 1.008570e+004
2.355922e+002, 1.008639e+004
2.360743e+002, 1.008378e+004
2.365564e+002, 1.007694e+004
2.370385e+002, 1.006725e+004
2.375206e+002, 1.005924e+004
2.380028e+002, 1.005226e+004
2.384849e+002, 1.004733e+004
2.389670e+002, 1.004692e+004
2.394491e+002, 1.004895e+004
2.399312e+002, 1.004793e+004
2.404133e+002, 1.004041e+004
2.408955e+002, 1.003041e+004
2.413776e+002, 1.002731e+004
2.418597e+002, 1.003349e+004
2.423418e+002, 1.003929e+004
2.428239e+002, 1.003925e+004
2.433060e+002, 1.003555e+004
2.437882e+002, 1.003492e+004
2.442703e+002, 1.004147e+004
2.447524e+002, 1.004955e+004
2.452345e+002, 1.004951e+004
2.457166e+002, 1.004013e+004
2.461987e+002, 1.003031e+004
2.466809e+002, 1.002471e+004
2.471630e+002, 1.002221e+004
2.476451e+002, 1.001854e+004
2.481272e+002, 1.001110e+004
2.486093e+002, 1.000431e+004
2.490914e+002, 1.000516e+004
2.495736e+002, 1.001393e+004
2.500557e+002, 1.001936e+004
2.505378e+002, 1.001212e+004
2.510199e+002, 9.995506e+003
2.515020e+002, 9.983237e+003
2.519841e+002, 9.979280e+003
2.524663e+002, 9.978578e+003
2.529484e+002, 9.976915e+003
2.534305e+002, 9.974291e+003
2.539126e+002, 9.970480e+003
2.543947e+002, 9.964845e+003
2.548768e+002, 9.957743e+003
2.553590e+002, 9.950795e+003
2.558411e+002, 9.943456e+003
2.563232e+002, 9.937449e+003
2.568053e+002, 9.934171e+003
2.572874e+002, 9.933100e+003
2.577695e+002, 9.932323e+003
2.582516e+002, 9.930381e+003
2.587338e+002, 9.927639e+003
2.592159e+002, 9.926528e+003
2.596980e+002, 9.929579e+003
2.601801e+002, 9.930505e+003
2.606622e+002, 9.923126e+003
2.611443e+002, 9.911281e+003
2.616265e+002, 9.903679e+003
2.621086e+002, 9.907812e+003
2.625907e+002, 9.920625e+003
2.630728e+002, 9.927936e+003
2.635549e+002, 9.927476e+003
2.640370e+002, 9.924452e+003
2.645192e+002, 9.920163e+003
2.650013e+002, 9.915285e+003
2.654834e+002, 9.911104e+003
2.659655e+002, 9.908876e+003
2.664476e+002, 9.907469e+003
2.669297e+002, 9.902402e+003
2.674119e+002, 9.890732e+003
2.678940e+002, 9.880191e+003
2.683761e+002, 9.872295e+003
2.688582e+002, 9.866989e+003
2.693403e+002, 9.864621e+003
2.698224e+002, 9.865795e+003
2.703046e+002, 9.869066e+003
2.707867e+002, 9.870512e+003
2.712688e+002, 9.869896e+003
2.717509e+002, 9.867725e+003
2.722330e+002, 9.863826e+003
2.727151e+002, 9.858903e+003
2.731973e+002, 9.853091e+003
2.736794e+002, 9.846358e+003
2.741615e+002, 9.839985e+003
2.746436e+002, 9.836775e+003
2.751257e+002, 9.838076e+003
2.756078e+002, 9.840000e+003
2.760900e+002, 9.844705e+003
2.765721e+002, 9.848112e+003
2.770542e+002, 9.845335e+003
2.775363e+002, 9.835348e+003
2.780184e+002, 9.823252e+003
2.785005e+002, 9.818188e+003
2.789827e+002, 9.824543e+003
2.794648e+002, 9.828233e+003
2.799469e+002, 9.827990e+003
2.804290e+002, 9.825761e+003
2.809111e+002, 9.822522e+003
2.813932e+002, 9.818605e+003
2.818754e+002, 9.814078e+003
2.823575e+002, 9.808813e+003
2.828396e+002, 9.802144e+003
2.833217e+002, 9.796842e+003
2.838038e+002, 9.795505e+003
2.842859e+002, 9.793300e+003
2.847681e+002, 9.785962e+003
2.852502e+002, 9.774431e+003
2.857323e+002, 9.764000e+003
2.862144e+002, 9.760757e+003
2.866965e+002, 9.766634e+003
2.871786e+002, 9.768479e+003
2.876608e+002, 9.762033e+003
2.881429e+002, 9.755917e+003
2.886250e+002, 9.754056e+003
2.891071e+002, 9.755696e+003
2.895892e+002, 9.757788e+003
2.900714e+002, 9.757913e+003
2.905535e+002, 9.756058e+003
2.910356e+002, 9.753963e+003
2.915177e+002, 9.752921e+003
2.919998e+002, 9.750392e+003
2.924819e+002, 9.744231e+003
2.929641e+002, 9.736159e+003
2.934462e+002, 9.729035e+003
2.939283e+002, 9.724519e+003
2.944104e+002, 9.722674e+003
2.948925e+002, 9.723736e+003
2.953746e+002, 9.734504e+003
2.958568e+002, 9.740564e+003
2.963389e+002, 9.736922e+003
2.968210e+002, 9.728095e+003
2.973031e+002, 9.720128e+003
2.977852e+002, 9.715891e+003
2.982673e+002, 9.714280e+003
2.987495e+002, 9.712081e+003
2.992316e+002, 9.707463e+003
2.997137e+002, 9.704479e+003
3.001958e+002, 9.704321e+003
3.006779e+002, 9.705281e+003
3.011600e+002, 9.706185e+003
3.016422e+002, 9.706503e+003
3.021243e+002, 9.705514e+003
3.026064e+002, 9.701760e+003
3.030885e+002, 9.692809e+003
3.035706e+002, 9.685253e+003
3.040527e+002, 9.678573e+003
3.045349e+002, 9.673486e+003
3.050170e+002, 9.671324e+003
3.054991e+002, 9.671944e+003
3.059812e+002, 9.673328e+003
3.064633e+002, 9.673060e+003
3.069454e+002, 9.670864e+003
3.074276e+002, 9.667874e+003
3.079097e+002, 9.663030e+003
3.083918e+002, 9.658546e+003
3.088739e+002, 9.656963e+003
3.093560e+002, 9.657389e+003
3.098381e+002, 9.655896e+003
3.103203e+002, 9.648368e+003
3.108024e+002, 9.634155e+003
3.112845e+002, 9.625722e+003
3.117666e+002, 9.626715e+003
3.122487e+002, 9.628866e+003
3.127308e+002, 9.630188e+003
3.132130e+002, 9.630406e+003
3.136951e+002, 9.629669e+003
3.141772e+002, 9.628097e+003
3.146593e+002, 9.625569e+003
3.151414e+002, 9.621390e+003
3.156235e+002, 9.610949e+003
3.161057e+002, 9.604022e+003
3.165878e+002, 9.604626e+003
3.170699e+002, 9.608938e+003
3.175520e+002, 9.612188e+003
3.180341e+002, 9.612228e+003
3.185162e+002, 9.609489e+003
3.189984e+002, 9.605120e+003
3.194805e+002, 9.598946e+003
3.199626e+002, 9.591074e+003
3.204447e+002, 9.578496e+003
3.209268e+002, 9.565938e+003
3.214089e+002, 9.558332e+003
3.218911e+002, 9.556772e+003
3.223732e+002, 9.557958e+003
3.228553e+002, 9.556947e+003
3.233374e+002, 9.552149e+003
3.238195e+002, 9.549239e+003
3.243016e+002, 9.548817e+003
3.247838e+002, 9.549560e+003
3.252659e+002, 9.552708e+003
3.257480e+002, 9.557021e+003
3.262301e+002, 9.557759e+003
3.267122e+002, 9.549307e+003
3.271943e+002, 9.529734e+003
3.276765e+002, 9.517169e+003
3.281586e+002, 9.515210e+003
3.286407e+002, 9.515509e+003
3.291228e+002, 9.515988e+003
3.296049e+002, 9.516187e+003
3.300870e+002, 9.516347e+003
3.305692e+002, 9.516897e+003
3.310513e+002, 9.517271e+003
3.315334e+002, 9.513206e+003
3.320155e+002, 9.496518e+003
3.324976e+002, 9.484504e+003
3.329797e+002, 9.482451e+003
3.334619e+002, 9.485678e+003
3.339440e+002, 9.488931e+003
3.344261e+002, 9.489884e+003
3.349082e+002, 9.488252e+003
3.353904e+002, 9.483025e+003
3.358725e+002, 9.471092e+003
3.363546e+002, 9.460520e+003
3.368367e+002, 9.451239e+003
3.373188e+002, 9.443594e+003
3.378009e+002, 9.438139e+003
3.382831e+002, 9.434884e+003
3.387652e+002, 9.433131e+003
3.392473e+002, 9.432311e+003
3.397294e+002, 9.433411e+003
3.402115e+002, 9.432196e+003
3.406936e+002, 9.426842e+003
3.411758e+002, 9.421045e+003
3.416579e+002, 9.415863e+003
3.421400e+002, 9.411708e+003
3.426221e+002, 9.409016e+003
3.431042e+002, 9.408152e+003
3.435863e+002, 9.409081e+003
3.440685e+002, 9.411322e+003
3.445506e+002, 9.417125e+003
3.450327e+002, 9.421871e+003
3.455148e+002, 9.424803e+003
3.459969e+002, 9.425903e+003
3.464790e+002, 9.425421e+003
3.469612e+002, 9.423542e+003
3.474433e+002, 9.419970e+003
3.479254e+002, 9.413097e+003
3.484075e+002, 9.398243e+003
3.488896e+002, 9.388027e+003
3.493717e+002, 9.386891e+003
3.498539e+002, 9.389103e+003
3.503360e+002, 9.389632e+003
3.508181e+002, 9.386988e+003
3.513002e+002, 9.383149e+003
3.517823e+002, 9.380948e+003
3.522644e+002, 9.380688e+003
3.527466e+002, 9.381191e+003
3.532287e+002, 9.385176e+003
3.537108e+002, 9.387663e+003
3.541929e+002, 9.384629e+003
3.546750e+002, 9.377011e+003
3.551571e+002, 9.369751e+003
3.556393e+002, 9.368099e+003
3.561214e+002, 9.372005e+003
3.566035e+002, 9.372000e+003
3.570856e+002, 9.365016e+003
3.575677e+002, 9.357605e+003
3.580498e+002, 9.352255e+003
3.585320e+002, 9.348135e+003
3.590141e+002, 9.343301e+003
3.594962e+002, 9.336126e+003
3.599783e+002, 9.328474e+003
3.604604e+002, 9.326079e+003
3.609425e+002, 9.331754e+003
3.614247e+002, 9.336051e+003
3.619068e+002, 9.334600e+003
3.623889e+002, 9.331413e+003
3.628710e+002, 9.329979e+003
3.633531e+002, 9.331233e+003
3.638352e+002, 9.333838e+003
3.643174e+002, 9.336322e+003
3.647995e+002, 9.338636e+003
3.652816e+002, 9.341228e+003
3.657637e+002, 9.345194e+003
3.662458e+002, 9.348455e+003
3.667279e+002, 9.349284e+003
3.672101e+002, 9.347947e+003
3.676922e+002, 9.346397e+003
3.681743e+002, 9.346207e+003
3.686564e+002, 9.347011e+003
3.691385e+002, 9.347061e+003
3.696206e+002, 9.346090e+003
3.701028e+002, 9.344782e+003
3.705849e+002, 9.344349e+003
3.710670e+002, 9.343838e+003
3.715491e+002, 9.341130e+003
3.720312e+002, 9.333686e+003
3.725133e+002, 9.325484e+003
3.729955e+002, 9.323004e+003
3.734776e+002, 9.326922e+003
3.739597e+002, 9.330142e+003
3.744418e+002, 9.330790e+003
3.749239e+002, 9.328281e+003
3.754060e+002, 9.321230e+003
3.758882e+002, 9.308392e+003
3.763703e+002, 9.295760e+003
3.768524e+002, 9.288402e+003
3.773345e+002, 9.284952e+003
3.778166e+002, 9.279581e+003
3.782987e+002, 9.270518e+003
3.787809e+002, 9.260024e+003
3.792630e+002, 9.250636e+003
3.797451e+002, 9.242163e+003
3.802272e+002, 9.233194e+003
3.807093e+002, 9.222608e+003
3.811914e+002, 9.211627e+003
3.816736e+002, 9.202103e+003
3.821557e+002, 9.194286e+003
3.826378e+002, 9.186528e+003
3.831199e+002, 9.177568e+003
3.836020e+002, 9.167737e+003
3.840841e+002, 9.158565e+003
3.845663e+002, 9.149627e+003
3.850484e+002, 9.141765e+003
3.855305e+002, 9.136681e+003
3.860126e+002, 9.133266e+003
3.864947e+002, 9.127715e+003
3.869768e+002, 9.118041e+003
3.874590e+002, 9.106240e+003
3.879411e+002, 9.096378e+003
3.884232e+002, 9.088215e+003
3.889053e+002, 9.081953e+003
3.893874e+002, 9.079800e+003
3.898695e+002, 9.078529e+003
3.903517e+002, 9.073344e+003
3.908338e+002, 9.063556e+003
3.913159e+002, 9.054469e+003
3.917980e+002, 9.052101e+003
3.922801e+002, 9.057704e+003
3.927622e+002, 9.058826e+003
3.932444e+002, 9.053419e+003
3.937265e+002, 9.045938e+003
3.942086e+002, 9.037283e+003
3.946907e+002, 9.028373e+003
3.951728e+002, 9.020850e+003
3.956549e+002, 9.015770e+003
3.961371e+002, 9.012699e+003
3.966192e+002, 9.010088e+003
3.971013e+002, 9.008162e+003
3.975834e+002, 9.006443e+003
3.980655e+002, 9.005310e+003
3.985476e+002, 9.004158e+003
3.990298e+002, 9.003022e+003
3.995119e+002, 9.001659e+003
3.999940e+002, 8.998522e+003
4.004761e+002, 8.990948e+003
4.009582e+002, 8.976521e+003
4.014403e+002, 8.966259e+003
4.019225e+002, 8.962479e+003
4.024046e+002, 8.960084e+003
4.028867e+002, 8.957407e+003
4.033688e+002, 8.954182e+003
4.038509e+002, 8.950513e+003
4.043330e+002, 8.946447e+003
4.048152e+002, 8.941962e+003
4.052973e+002, 8.936807e+003
4.057794e+002, 8.929004e+003
4.062615e+002, 8.923579e+003
4.067436e+002, 8.923411e+003
4.072257e+002, 8.924798e+003
4.077079e+002, 8.924432e+003
4.081900e+002, 8.921230e+003
4.086721e+002, 8.915527e+003
4.091542e+002, 8.906441e+003
4.096363e+002, 8.892493e+003
4.101184e+002, 8.883214e+003
4.106006e+002, 8.884522e+003
4.110827e+002, 8.886412e+003
4.115648e+002, 8.884538e+003
4.120469e+002, 8.878955e+003
4.125290e+002, 8.870963e+003
4.130111e+002, 8.859882e+003
4.134933e+002, 8.847319e+003
4.139754e+002, 8.838511e+003
4.144575e+002, 8.834142e+003
4.149396e+002, 8.831866e+003
4.154217e+002, 8.832785e+003
4.159038e+002, 8.834390e+003
4.163860e+002, 8.833196e+003
4.168681e+002, 8.827515e+003
4.173502e+002, 8.821861e+003
4.178323e+002, 8.821964e+003
4.183144e+002, 8.826879e+003
4.187965e+002, 8.828452e+003
4.192787e+002, 8.823605e+003
4.197608e+002, 8.816131e+003
4.202429e+002, 8.809451e+003
4.207250e+002, 8.803538e+003
4.212071e+002, 8.799399e+003
4.216892e+002, 8.799107e+003
4.221714e+002, 8.799900e+003
4.226535e+002, 8.798341e+003
4.231356e+002, 8.794167e+003
4.236177e+002, 8.787786e+003
4.240998e+002, 8.778396e+003
4.245819e+002, 8.767132e+003
4.250641e+002, 8.758835e+003
4.255462e+002, 8.753215e+003
4.260283e+002, 8.750825e+003
4.265104e+002, 8.756160e+003
4.269925e+002, 8.764378e+003
4.274746e+002, 8.764908e+003
4.279568e+002, 8.753715e+003
4.284389e+002, 8.737896e+003
4.289210e+002, 8.727832e+003
4.294031e+002, 8.725551e+003
4.298852e+002, 8.724439e+003
4.303673e+002, 8.726923e+003
4.308495e+002, 8.728658e+003
4.313316e+002, 8.726050e+003
4.318137e+002, 8.719646e+003
4.322958e+002, 8.712501e+003
4.327779e+002, 8.706653e+003
4.332600e+002, 8.702036e+003
4.337422e+002, 8.698310e+003
4.342243e+002, 8.694662e+003
4.347064e+002, 8.692886e+003
4.351885e+002, 8.695300e+003
4.356706e+002, 8.698673e+003
4.361527e+002, 8.699321e+003
4.366349e+002, 8.696223e+003
4.371170e+002, 8.691366e+003
4.375991e+002, 8.687329e+003
4.380812e+002, 8.683964e+003
4.385633e+002, 8.681890e+003
4.390454e+002, 8.684639e+003
4.395276e+002, 8.685326e+003
4.400097e+002, 8.679475e+003
4.404918e+002, 8.669367e+003
4.409739e+002, 8.660517e+003
4.414560e+002, 8.656881e+003
4.419381e+002, 8.656176e+003
4.424203e+002, 8.651346e+003
4.429024e+002, 8.640890e+003
4.433845e+002, 8.630474e+003
4.438666e+002, 8.619949e+003
4.443487e+002, 8.611372e+003
4.448308e+002, 8.607185e+003
4.453130e+002, 8.607818e+003
4.457951e+002, 8.609804e+003
4.462772e+002, 8.610712e+003
4.467593e+002, 8.610624e+003
4.472414e+002, 8.610083e+003
4.477235e+002, 8.609612e+003
4.482057e+002, 8.607700e+003
4.486878e+002, 8.602427e+003
4.491699e+002, 8.594815e+003
4.496520e+002, 8.587161e+003
4.501341e+002, 8.580026e+003
4.506162e+002, 8.573007e+003
4.510984e+002, 8.564597e+003
4.515805e+002, 8.555394e+003
4.520626e+002, 8.549527e+003
4.525447e+002, 8.549272e+003
4.530268e+002, 8.552315e+003
4.535089e+002, 8.555021e+003
4.539911e+002, 8.558074e+003
4.544732e+002, 8.558307e+003
4.549553e+002, 8.552825e+003
4.554374e+002, 8.545392e+003
4.559195e+002, 8.539970e+003
4.564016e+002, 8.536872e+003
4.568838e+002, 8.534279e+003
4.573659e+002, 8.530893e+003
4.578480e+002, 8.526686e+003
4.583301e+002, 8.521126e+003
4.588122e+002, 8.514247e+003
4.592943e+002, 8.506196e+003
4.597765e+002, 8.494921e+003
4.602586e+002, 8.483241e+003
4.607407e+002, 8.475263e+003
4.612228e+002, 8.472250e+003
4.617049e+002, 8.471440e+003
4.621870e+002, 8.468776e+003
4.626692e+002, 8.463795e+003
4.631513e+002, 8.458556e+003
4.636334e+002, 8.452752e+003
4.641155e+002, 8.447151e+003
4.645976e+002, 8.442110e+003
4.650797e+002, 8.437589e+003
4.655619e+002, 8.433230e+003
4.660440e+002, 8.428761e+003
4.665261e+002, 8.424557e+003
4.670082e+002, 8.422161e+003
4.674903e+002, 8.422945e+003
4.679724e+002, 8.421762e+003
4.684546e+002, 8.415179e+003
4.689367e+002, 8.407580e+003
4.694188e+002, 8.402310e+003
4.699009e+002, 8.399550e+003
4.703830e+002, 8.396854e+003
4.708651e+002, 8.392010e+003
4.713473e+002, 8.385608e+003
4.718294e+002, 8.379769e+003
4.723115e+002, 8.374421e+003
4.727936e+002, 8.369994e+003
4.732757e+002, 8.367575e+003
4.737578e+002, 8.366115e+003
4.742400e+002, 8.363756e+003
4.747221e+002, 8.360324e+003
4.752042e+002, 8.355748e+003
4.756863e+002, 8.348561e+003
4.761684e+002, 8.340093e+003
4.766505e+002, 8.334957e+003
4.771327e+002, 8.335104e+003
4.776148e+002, 8.336271e+003
4.780969e+002, 8.332995e+003
4.785790e+002, 8.324707e+003
4.790611e+002, 8.315977e+003
4.795432e+002, 8.306173e+003
4.800254e+002, 8.296872e+003
4.805075e+002, 8.289433e+003
4.809896e+002, 8.283413e+003
4.814717e+002, 8.276965e+003
4.819538e+002, 8.268846e+003
4.824359e+002, 8.260640e+003
4.829181e+002, 8.257001e+003
4.834002e+002, 8.263769e+003
4.838823e+002, 8.266602e+003
4.843644e+002, 8.263444e+003
4.848465e+002, 8.257931e+003
4.853286e+002, 8.252479e+003
4.858108e+002, 8.247307e+003
4.862929e+002, 8.241166e+003
4.867750e+002, 8.232344e+003
4.872571e+002, 8.221539e+003
4.877392e+002, 8.215143e+003
4.882213e+002, 8.216099e+003
4.887035e+002, 8.216648e+003
4.891856e+002, 8.212877e+003
4.896677e+002, 8.208568e+003
4.901498e+002, 8.208871e+003
4.906319e+002, 8.215012e+003
4.911140e+002, 8.220224e+003
4.915962e+002, 8.216203e+003
4.920783e+002, 8.204257e+003
4.925604e+002, 8.195836e+003
4.930425e+002, 8.194124e+003
4.935246e+002, 8.192108e+003
4.940067e+002, 8.183553e+003
4.944889e+002, 8.170861e+003
4.949710e+002, 8.159000e+003
4.954531e+002, 8.148267e+003
4.959352e+002, 8.139710e+003
4.964173e+002, 8.135527e+003
4.968994e+002, 8.134508e+003
4.973816e+002, 8.132306e+003
4.978637e+002, 8.127638e+003
4.983458e+002, 8.120773e+003
4.988279e+002, 8.111125e+003
4.993100e+002, 8.097297e+003
4.997921e+002, 8.088096e+003
5.002743e+002, 8.087718e+003
5.007564e+002, 8.088994e+003
5.012385e+002, 8.088610e+003
5.017206e+002, 8.085871e+003
5.022027e+002, 8.079716e+003
5.026848e+002, 8.069327e+003
5.031670e+002, 8.056247e+003
5.036491e+002, 8.045211e+003
5.041312e+002, 8.037624e+003
5.046133e+002, 8.029820e+003
5.050954e+002, 8.019772e+003
5.055775e+002, 8.010991e+003
5.060597e+002, 8.007191e+003
5.065418e+002, 8.007366e+003
5.070239e+002, 8.006727e+003
5.075060e+002, 8.001094e+003
5.079881e+002, 7.991738e+003
5.084702e+002, 7.985081e+003
5.089524e+002, 7.982891e+003
5.094345e+002, 7.979409e+003
5.099166e+002, 7.969539e+003
5.103987e+002, 7.959439e+003
5.108808e+002, 7.956382e+003
5.113629e+002, 7.961550e+003
5.118451e+002, 7.965230e+003
5.123271e+002, 7.958133e+003
5.128093e+002, 7.944067e+003
5.132914e+002, 7.934405e+003
5.137735e+002, 7.930945e+003
5.142556e+002, 7.927787e+003
5.147377e+002, 7.919562e+003
5.152198e+002, 7.908604e+003
5.157020e+002, 7.902909e+003
5.161841e+002, 7.906031e+003
5.166662e+002, 7.909544e+003
5.171483e+002, 7.911197e+003
5.176304e+002, 7.910377e+003
5.181125e+002, 7.905456e+003
5.185947e+002, 7.896087e+003
5.190768e+002, 7.884706e+003
5.195589e+002, 7.873563e+003
5.200410e+002, 7.862396e+003
5.205231e+002, 7.853648e+003
5.210052e+002, 7.848007e+003
5.214874e+002, 7.843591e+003
5.219695e+002, 7.839658e+003
5.224516e+002, 7.836615e+003
5.229337e+002, 7.836416e+003
5.234158e+002, 7.839521e+003
5.238979e+002, 7.841749e+003
5.243801e+002, 7.835517e+003
5.248622e+002, 7.818446e+003
5.253443e+002, 7.805768e+003
5.258264e+002, 7.800782e+003
5.263085e+002, 7.797303e+003
5.267906e+002, 7.793304e+003
5.272728e+002, 7.788745e+003
5.277549e+002, 7.783646e+003
5.282370e+002, 7.777807e+003
5.287191e+002, 7.771836e+003
5.292012e+002, 7.766589e+003
5.296833e+002, 7.761989e+003
5.301655e+002, 7.757254e+003
5.306476e+002, 7.752315e+003
5.311297e+002, 7.746908e+003
5.316118e+002, 7.739808e+003
5.320939e+002, 7.731385e+003
5.325760e+002, 7.725323e+003
5.330582e+002, 7.725896e+003
5.335403e+002, 7.726069e+003
5.340224e+002, 7.717877e+003
5.345045e+002, 7.704510e+003
5.349866e+002, 7.696910e+003
5.354688e+002, 7.700429e+003
5.359509e+002, 7.708778e+003
5.364330e+002, 7.710136e+003
5.369151e+002, 7.700694e+003
5.373972e+002, 7.693126e+003
5.378793e+002, 7.690034e+003
5.383615e+002, 7.686245e+003
5.388436e+002, 7.677119e+003
5.393257e+002, 7.665052e+003
5.398078e+002, 7.656141e+003
5.402899e+002, 7.654038e+003
5.407720e+002, 7.655642e+003
5.412542e+002, 7.653385e+003
5.417363e+002, 7.645490e+003
5.422184e+002, 7.639577e+003
5.427005e+002, 7.639220e+003
5.431826e+002, 7.639022e+003
5.436647e+002, 7.635990e+003
5.441469e+002, 7.630320e+003
5.446290e+002, 7.623479e+003
5.451111e+002, 7.615420e+003
5.455932e+002, 7.607172e+003
5.460753e+002, 7.600310e+003
5.465574e+002, 7.594830e+003
5.470396e+002, 7.590008e+003
5.475217e+002, 7.585848e+003
5.480038e+002, 7.581938e+003
5.484859e+002, 7.578218e+003
5.489680e+002, 7.575201e+003
5.494501e+002, 7.569058e+003
5.499323e+002, 7.556161e+003
5.504144e+002, 7.542325e+003
5.508965e+002, 7.531818e+003
5.513786e+002, 7.524505e+003
5.518607e+002, 7.518726e+003
5.523428e+002, 7.513666e+003
5.528250e+002, 7.509213e+003
5.533071e+002, 7.505175e+003
5.537892e+002, 7.502504e+003
5.542713e+002, 7.498462e+003
5.547534e+002, 7.492257e+003
5.552355e+002, 7.485636e+003
5.557177e+002, 7.479496e+003
5.561998e+002, 7.473818e+003
5.566819e+002, 7.468418e+003
5.571640e+002, 7.463516e+003
5.576461e+002, 7.458205e+003
5.581282e+002, 7.450050e+003
5.586104e+002, 7.438463e+003
5.590925e+002, 7.427628e+003
5.595746e+002, 7.417374e+003
5.600567e+002, 7.409538e+003
5.605388e+002, 7.406378e+003
5.610209e+002, 7.407273e+003
5.615031e+002, 7.407686e+003
5.619852e+002, 7.404475e+003
5.624673e+002, 7.401054e+003
5.629494e+002, 7.402235e+003
5.634315e+002, 7.406837e+003
5.639136e+002, 7.408980e+003
5.643958e+002, 7.406132e+003
5.648779e+002, 7.399963e+003
5.653600e+002, 7.393114e+003
5.658421e+002, 7.385214e+003
5.663242e+002, 7.377720e+003
5.668063e+002, 7.370659e+003
5.672885e+002, 7.363892e+003
5.677706e+002, 7.356665e+003
5.682527e+002, 7.349739e+003
5.687348e+002, 7.344890e+003
5.692169e+002, 7.343005e+003
5.696990e+002, 7.342877e+003
5.701812e+002, 7.342679e+003
5.706633e+002, 7.343079e+003
5.711454e+002, 7.340671e+003
5.716275e+002, 7.333528e+003
5.721096e+002, 7.325106e+003
5.725917e+002, 7.315948e+003
5.730739e+002, 7.306979e+003
5.735560e+002, 7.300203e+003
5.740381e+002, 7.296868e+003
5.745202e+002, 7.295126e+003
5.750023e+002, 7.292949e+003
5.754844e+002, 7.290531e+003
5.759666e+002, 7.289403e+003
5.764487e+002, 7.290538e+003
5.769308e+002, 7.291038e+003
5.774129e+002, 7.287201e+003
5.778950e+002, 7.278891e+003
5.783771e+002, 7.272587e+003
5.788593e+002, 7.271212e+003
5.793414e+002, 7.268796e+003
5.798235e+002, 7.260527e+003
5.803056e+002, 7.250045e+003
5.807877e+002, 7.243741e+003
5.812698e+002, 7.243366e+003
5.817520e+002, 7.245211e+003
5.822341e+002, 7.244997e+003
5.827162e+002, 7.242799e+003
5.831984e+002, 7.237501e+003
5.836805e+002, 7.226367e+003
5.841626e+002, 7.215438e+003
5.846447e+002, 7.206264e+003
5.851268e+002, 7.198235e+003
5.856089e+002, 7.190785e+003
5.860911e+002, 7.183771e+003
5.865732e+002, 7.176789e+003
5.870553e+002, 7.168472e+003
5.875374e+002, 7.159751e+003
5.880195e+002, 7.155397e+003
5.885016e+002, 7.156884e+003
5.889838e+002, 7.156981e+003
5.894659e+002, 7.149556e+003
5.899480e+002, 7.137842e+003
5.904301e+002, 7.131866e+003
5.909122e+002, 7.135319e+003
5.913943e+002, 7.137084e+003
5.918765e+002, 7.133189e+003
5.923586e+002, 7.126314e+003
5.928407e+002, 7.118049e+003
5.933228e+002, 7.109368e+003
5.938049e+002, 7.102953e+003
5.942870e+002, 7.101178e+003
5.947692e+002, 7.102638e+003
5.952513e+002, 7.100443e+003
5.957334e+002, 7.091521e+003
5.962155e+002, 7.084387e+003
5.966976e+002, 7.081915e+003
5.971797e+002, 7.079652e+003
5.976619e+002, 7.073553e+003
5.981440e+002, 7.064509e+003
5.986261e+002, 7.057258e+003
5.991082e+002, 7.055630e+003
5.995903e+002, 7.056588e+003
6.000724e+002, 7.054469e+003
6.005546e+002, 7.049221e+003
6.010367e+002, 7.043997e+003
6.015188e+002, 7.040174e+003
6.020009e+002, 7.036065e+003
6.024830e+002, 7.028311e+003
6.029651e+002, 7.016946e+003
6.034473e+002, 7.008897e+003
6.039294e+002, 7.007493e+003
6.044115e+002, 7.007384e+003
6.048936e+002, 7.005787e+003
6.053757e+002, 7.002975e+003
6.058578e+002, 7.000305e+003
6.063400e+002, 6.998235e+003
6.068221e+002, 6.994772e+003
6.073042e+002, 6.986277e+003
6.077863e+002, 6.971278e+003
6.082684e+002, 6.961399e+003
6.087505e+002, 6.962016e+003
6.092327e+002, 6.961780e+003
6.097148e+002, 6.957537e+003
6.101969e+002, 6.950661e+003
6.106790e+002, 6.942344e+003
6.111611e+002, 6.932862e+003
6.116432e+002, 6.924167e+003
6.121254e+002, 6.918708e+003
6.126075e+002, 6.915342e+003
6.130896e+002, 6.909898e+003
6.135717e+002, 6.901539e+003
6.140538e+002, 6.894853e+003
6.145359e+002, 6.893071e+003
6.150181e+002, 6.894675e+003
6.155002e+002, 6.895332e+003
6.159823e+002, 6.894903e+003
6.164644e+002, 6.893853e+003
6.169465e+002, 6.894182e+003
6.174286e+002, 6.892440e+003
6.179108e+002, 6.883308e+003
6.183929e+002, 6.868900e+003
6.188750e+002, 6.857286e+003
6.193571e+002, 6.853794e+003
6.198392e+002, 6.855166e+003
6.203214e+002, 6.852480e+003
6.208035e+002, 6.843873e+003
6.212856e+002, 6.837065e+003
6.217677e+002, 6.835094e+003
6.222498e+002, 6.833059e+003
6.227319e+002, 6.827363e+003
6.232141e+002, 6.819625e+003
6.236962e+002, 6.814459e+003
6.241783e+002, 6.815407e+003
6.246604e+002, 6.816327e+003
6.251425e+002, 6.809866e+003
6.256246e+002, 6.798256e+003
6.261068e+002, 6.788918e+003
6.265889e+002, 6.783470e+003
6.270710e+002, 6.780302e+003
6.275531e+002, 6.778394e+003
6.280352e+002, 6.777659e+003
6.285173e+002, 6.775761e+003
6.289995e+002, 6.769948e+003
6.294816e+002, 6.766627e+003
6.299637e+002, 6.769387e+003
6.304458e+002, 6.773769e+003
6.309279e+002, 6.775892e+003
6.314100e+002, 6.774985e+003
6.318922e+002, 6.771929e+003
6.323743e+002, 6.767404e+003
6.328564e+002, 6.761283e+003
6.333385e+002, 6.752165e+003
6.338206e+002, 6.738385e+003
6.343027e+002, 6.728448e+003
6.347849e+002, 6.727549e+003
6.352670e+002, 6.728845e+003
6.357491e+002, 6.725374e+003
6.362312e+002, 6.717566e+003
6.367133e+002, 6.710348e+003
6.371954e+002, 6.705058e+003
6.376776e+002, 6.701065e+003
6.381597e+002, 6.699609e+003
6.386418e+002, 6.698965e+003
6.391239e+002, 6.694011e+003
6.396060e+002, 6.683130e+003
6.400881e+002, 6.671350e+003
6.405703e+002, 6.665420e+003
6.410524e+002, 6.666162e+003
6.415345e+002, 6.663773e+003
6.420166e+002, 6.656614e+003
6.424987e+002, 6.648199e+003
6.429808e+002, 6.638125e+003
6.434630e+002, 6.627823e+003
6.439451e+002, 6.617957e+003
6.444272e+002, 6.608991e+003
6.449093e+002, 6.602499e+003
6.453914e+002, 6.602241e+003
6.458735e+002, 6.604811e+003
6.463557e+002, 6.600874e+003
6.468378e+002, 6.590042e+003
6.473199e+002, 6.580095e+003
6.478020e+002, 6.574140e+003
6.482841e+002, 6.570742e+003
6.487662e+002, 6.567903e+003
6.492484e+002, 6.565754e+003
6.497305e+002, 6.563193e+003
6.502126e+002, 6.559744e+003
6.506947e+002, 6.556218e+003
6.511768e+002, 6.552713e+003
6.516589e+002, 6.549517e+003
6.521411e+002, 6.547612e+003
6.526232e+002, 6.547201e+003
6.531053e+002, 6.546378e+003
6.535874e+002, 6.542106e+003
6.540695e+002, 6.534337e+003
6.545516e+002, 6.528974e+003
6.550338e+002, 6.527829e+003
6.555159e+002, 6.525530e+003
6.559980e+002, 6.518571e+003
6.564801e+002, 6.509765e+003
6.569622e+002, 6.501622e+003
6.574443e+002, 6.494240e+003
6.579265e+002, 6.488799e+003
6.584086e+002, 6.488359e+003
6.588907e+002, 6.488408e+003
6.593728e+002, 6.482552e+003
6.598549e+002, 6.472198e+003
6.603370e+002, 6.464820e+003
6.608192e+002, 6.464088e+003
6.613013e+002, 6.465650e+003
6.617834e+002, 6.461374e+003
6.622655e+002, 6.448261e+003
6.627476e+002, 6.440513e+003
6.632297e+002, 6.445036e+003
6.637119e+002, 6.447347e+003
6.641940e+002, 6.441003e+003
6.646761e+002, 6.430747e+003
6.651582e+002, 6.423206e+003
6.656403e+002, 6.420133e+003
6.661224e+002, 6.417781e+003
6.666046e+002, 6.413429e+003
6.670867e+002, 6.407428e+003
6.675688e+002, 6.400041e+003
6.680509e+002, 6.391334e+003
6.685330e+002, 6.383239e+003
6.690151e+002, 6.376768e+003
6.694973e+002, 6.371429e+003
6.699794e+002, 6.366243e+003
6.704615e+002, 6.361165e+003
6.709436e+002, 6.356474e+003
6.714257e+002, 6.353170e+003
6.719078e+002, 6.349241e+003
6.723900e+002, 6.341499e+003
6.728721e+002, 6.332990e+003
6.733542e+002, 6.329419e+003
6.738363e+002, 6.332662e+003
6.743184e+002, 6.338018e+003
6.748005e+002, 6.340591e+003
6.752827e+002, 6.340406e+003
6.757648e+002, 6.337375e+003
6.762469e+002, 6.330611e+003
6.767290e+002, 6.324297e+003
6.772111e+002, 6.321953e+003
6.776932e+002, 6.320202e+003
6.781754e+002, 6.312073e+003
6.786575e+002, 6.295600e+003
6.791396e+002, 6.283703e+003
6.796217e+002, 6.283239e+003
6.801038e+002, 6.284960e+003
6.805859e+002, 6.281976e+003
6.810681e+002, 6.275554e+003
6.815502e+002, 6.269586e+003
6.820323e+002, 6.265653e+003
6.825144e+002, 6.262602e+003
6.829965e+002, 6.258758e+003
6.834786e+002, 6.254036e+003
6.839608e+002, 6.250422e+003
6.844429e+002, 6.249329e+003
6.849250e+002, 6.246764e+003
6.854071e+002, 6.238904e+003
6.858892e+002, 6.229908e+003
6.863713e+002, 6.224937e+003
6.868535e+002, 6.224700e+003
6.873356e+002, 6.223079e+003
6.878177e+002, 6.216224e+003
6.882998e+002, 6.207593e+003
6.887819e+002, 6.200424e+003
6.892640e+002, 6.194556e+003
6.897462e+002, 6.188983e+003
6.902283e+002, 6.183267e+003
6.907104e+002, 6.177614e+003
6.911925e+002, 6.172053e+003
6.916746e+002, 6.166257e+003
6.921567e+002, 6.163680e+003
6.926389e+002, 6.169025e+003
6.931210e+002, 6.171142e+003
6.936031e+002, 6.165299e+003
6.940852e+002, 6.156250e+003
6.945673e+002, 6.148585e+003
6.950494e+002, 6.142909e+003
6.955316e+002, 6.137590e+003
6.960137e+002, 6.130074e+003
6.964958e+002, 6.123419e+003
6.969779e+002, 6.123445e+003
6.974600e+002, 6.128505e+003
6.979421e+002, 6.130789e+003
6.984243e+002, 6.127490e+003
6.989064e+002, 6.121139e+003
6.993885e+002, 6.114368e+003
6.998706e+002, 6.106935e+003
7.003527e+002, 6.102409e+003
7.008348e+002, 6.104252e+003
7.013170e+002, 6.104810e+003
7.017991e+002, 6.102341e+003
7.022812e+002, 6.098292e+003
7.027633e+002, 6.093836e+003
7.032454e+002, 6.089177e+003
7.037275e+002, 6.084147e+003
7.042097e+002, 6.078214e+003
7.046918e+002, 6.072179e+003
7.051739e+002, 6.067727e+003
7.056560e+002, 6.064465e+003
7.061381e+002, 6.059482e+003
7.066202e+002, 6.051439e+003
7.071024e+002, 6.044437e+003
7.075845e+002, 6.043062e+003
7.080666e+002, 6.047167e+003
7.085487e+002, 6.049808e+003
7.090308e+002, 6.052593e+003
7.095129e+002, 6.051776e+003
7.099951e+002, 6.043714e+003
7.104772e+002, 6.034124e+003
7.109593e+002, 6.027239e+003
7.114414e+002, 6.023413e+003
7.119235e+002, 6.021833e+003
7.124056e+002, 6.023432e+003
7.128878e+002, 6.024207e+003
7.133699e+002, 6.015631e+003
7.138520e+002, 5.999459e+003
7.143341e+002, 5.989079e+003
7.148162e+002, 5.987794e+003
7.152983e+002, 5.988505e+003
7.157805e+002, 5.985690e+003
7.162626e+002, 5.980027e+003
7.167447e+002, 5.975276e+003
7.172268e+002, 5.972387e+003
7.177089e+002, 5.969073e+003
7.181910e+002, 5.965224e+003
7.186732e+002, 5.960878e+003
7.191553e+002, 5.956360e+003
7.196374e+002, 5.951368e+003
7.201195e+002, 5.944617e+003
7.206016e+002, 5.935141e+003
7.210837e+002, 5.926103e+003
7.215659e+002, 5.922053e+003
7.220480e+002, 5.922297e+003
7.225301e+002, 5.924229e+003
7.230122e+002, 5.928403e+003
7.234943e+002, 5.928411e+003
7.239764e+002, 5.918395e+003
7.244586e+002, 5.903172e+003
7.249407e+002, 5.895454e+003
7.254228e+002, 5.899544e+003
7.259049e+002, 5.900225e+003
7.263870e+002, 5.891468e+003
7.268691e+002, 5.884365e+003
7.273513e+002, 5.886944e+003
7.278334e+002, 5.894817e+003
7.283155e+002, 5.900925e+003
7.287976e+002, 5.902801e+003
7.292797e+002, 5.900822e+003
7.297618e+002, 5.893189e+003
7.302440e+002, 5.882010e+003
7.307261e+002, 5.875886e+003
7.312082e+002, 5.875502e+003
7.316903e+002, 5.872623e+003
7.321724e+002, 5.862365e+003
7.326545e+002, 5.850846e+003
7.331367e+002, 5.848289e+003
7.336188e+002, 5.857696e+003
7.341009e+002, 5.858521e+003
7.345830e+002, 5.842902e+003
7.350651e+002, 5.828208e+003
7.355472e+002, 5.820812e+003
7.360294e+002, 5.817211e+003
7.365115e+002, 5.813248e+003
7.369936e+002, 5.808291e+003
7.374757e+002, 5.804322e+003
7.379578e+002, 5.803498e+003
7.384399e+002, 5.803952e+003
7.389221e+002, 5.801506e+003
7.394042e+002, 5.796372e+003
7.398863e+002, 5.792030e+003
7.403684e+002, 5.789491e+003
7.408505e+002, 5.787361e+003
7.413326e+002, 5.784701e+003
7.418148e+002, 5.781402e+003
7.422969e+002, 5.776190e+003
7.427790e+002, 5.766022e+003
7.432611e+002, 5.758321e+003
7.437432e+002, 5.755568e+003
7.442253e+002, 5.754252e+003
7.447075e+002, 5.752241e+003
7.451896e+002, 5.749341e+003
7.456717e+002, 5.745831e+003
7.461538e+002, 5.741733e+003
7.466359e+002, 5.737580e+003
7.471180e+002, 5.734137e+003
7.476002e+002, 5.731177e+003
7.480823e+002, 5.727809e+003
7.485644e+002, 5.723930e+003
7.490465e+002, 5.719813e+003
7.495286e+002, 5.715686e+003
7.500107e+002, 5.711258e+003
7.504929e+002, 5.705560e+003
7.509750e+002, 5.696531e+003
7.514571e+002, 5.691420e+003
7.519392e+002, 5.693485e+003
7.524213e+002, 5.695498e+003
7.529034e+002, 5.694514e+003
7.533856e+002, 5.691767e+003
7.538677e+002, 5.689417e+003
7.543498e+002, 5.687877e+003
7.548319e+002, 5.685147e+003
7.553140e+002, 5.679682e+003
7.557961e+002, 5.672119e+003
7.562783e+002, 5.661837e+003
7.567604e+002, 5.649865e+003
7.572425e+002, 5.641683e+003
7.577246e+002, 5.639217e+003
7.582067e+002, 5.640546e+003
7.586888e+002, 5.644088e+003
7.591710e+002, 5.649803e+003
7.596531e+002, 5.652843e+003
7.601352e+002, 5.652352e+003
7.606173e+002, 5.650312e+003
7.610994e+002, 5.645622e+003
7.615815e+002, 5.640712e+003
7.620637e+002, 5.638505e+003
7.625458e+002, 5.637800e+003
7.630279e+002, 5.633788e+003
7.635100e+002, 5.622671e+003
7.639921e+002, 5.611302e+003
7.644742e+002, 5.606004e+003
7.649564e+002, 5.604141e+003
7.654385e+002, 5.601062e+003
7.659206e+002, 5.596214e+003
7.664027e+002, 5.590818e+003
7.668848e+002, 5.585473e+003
7.673669e+002, 5.580990e+003
7.678491e+002, 5.579924e+003
7.683312e+002, 5.584099e+003
7.688133e+002, 5.584929e+003
7.692954e+002, 5.581477e+003
7.697775e+002, 5.575720e+003
7.702596e+002, 5.566278e+003
7.707418e+002, 5.556159e+003
7.712239e+002, 5.549653e+003
7.717060e+002, 5.547458e+003
7.721881e+002, 5.545638e+003
7.726702e+002, 5.542600e+003
7.731523e+002, 5.539415e+003
7.736345e+002, 5.536991e+003
7.741166e+002, 5.535084e+003
7.745987e+002, 5.533527e+003
7.750808e+002, 5.532094e+003
7.755629e+002, 5.529503e+003
7.760450e+002, 5.524004e+003
7.765272e+002, 5.516538e+003
7.770093e+002, 5.512025e+003
7.774914e+002, 5.511276e+003
7.779735e+002, 5.509072e+003
7.784556e+002, 5.503478e+003
7.789377e+002, 5.497224e+003
7.794199e+002, 5.492831e+003
7.799020e+002, 5.489874e+003
7.803841e+002, 5.486105e+003
7.808662e+002, 5.479913e+003
7.813483e+002, 5.475148e+003
7.818304e+002, 5.472684e+003
7.823126e+002, 5.471958e+003
7.827947e+002, 5.473758e+003
7.832768e+002, 5.476740e+003
7.837589e+002, 5.477889e+003
7.842410e+002, 5.475816e+003
7.847231e+002, 5.472313e+003
7.852053e+002, 5.469619e+003
7.856874e+002, 5.467349e+003
7.861695e+002, 5.463812e+003
7.866516e+002, 5.458893e+003
7.871337e+002, 5.453658e+003
7.876158e+002, 5.448477e+003
7.880980e+002, 5.443554e+003
7.885801e+002, 5.439119e+003
7.890622e+002, 5.435183e+003
7.895443e+002, 5.432061e+003
7.900264e+002, 5.429643e+003
7.905085e+002, 5.428220e+003
7.909907e+002, 5.429503e+003
7.914728e+002, 5.430648e+003
7.919549e+002, 5.428626e+003
7.924370e+002, 5.423770e+003
7.929191e+002, 5.418939e+003
7.934012e+002, 5.415483e+003
7.938834e+002, 5.412669e+003
7.943655e+002, 5.410284e+003
7.948476e+002, 5.407835e+003
7.953297e+002, 5.404120e+003
7.958118e+002, 5.399038e+003
7.962939e+002, 5.393696e+003
7.967761e+002, 5.388807e+003
7.972582e+002, 5.384060e+003
7.977403e+002, 5.378435e+003
7.982224e+002, 5.371080e+003
7.987045e+002, 5.366489e+003
7.991866e+002, 5.366740e+003
7.996688e+002, 5.366697e+003
8.001509e+002, 5.364361e+003
8.006330e+002, 5.360322e+003
8.011151e+002, 5.353710e+003
8.015972e+002, 5.344002e+003
8.020793e+002, 5.339746e+003
8.025615e+002, 5.349616e+003
8.030436e+002, 5.359152e+003
8.035257e+002, 5.357372e+003
8.040078e+002, 5.350417e+003
8.044899e+002, 5.348950e+003
8.049720e+002, 5.353878e+003
8.054542e+002, 5.356390e+003
8.059363e+002, 5.348626e+003
8.064184e+002, 5.335685e+003
8.069005e+002, 5.329736e+003
8.073826e+002, 5.330359e+003
8.078647e+002, 5.327812e+003
8.083469e+002, 5.319616e+003
8.088290e+002, 5.312147e+003
8.093111e+002, 5.310500e+003
8.097932e+002, 5.312369e+003
8.102753e+002, 5.310534e+003
8.107574e+002, 5.300917e+003
8.112396e+002, 5.295935e+003
8.117217e+002, 5.299467e+003
8.122038e+002, 5.303188e+003
8.126859e+002, 5.305266e+003
8.131680e+002, 5.304624e+003
8.136501e+002, 5.298899e+003
8.141323e+002, 5.288036e+003
8.146144e+002, 5.278087e+003
8.150965e+002, 5.272622e+003
8.155786e+002, 5.270144e+003
8.160607e+002, 5.270436e+003
8.165428e+002, 5.272162e+003
8.170250e+002, 5.272500e+003
8.175071e+002, 5.270602e+003
8.179892e+002, 5.265116e+003
8.184713e+002, 5.254042e+003
8.189534e+002, 5.239971e+003
8.194355e+002, 5.232914e+003
8.199177e+002, 5.234539e+003
8.203998e+002, 5.235361e+003
8.208819e+002, 5.234823e+003
8.213640e+002, 5.232594e+003
8.218461e+002, 5.227552e+003
8.223282e+002, 5.220978e+003
8.228104e+002, 5.215106e+003
8.232925e+002, 5.209697e+003
8.237746e+002, 5.206242e+003
8.242567e+002, 5.206854e+003
8.247388e+002, 5.207649e+003
8.252209e+002, 5.206615e+003
8.257031e+002, 5.204302e+003
8.261852e+002, 5.201788e+003
8.266673e+002, 5.199231e+003
8.271494e+002, 5.195747e+003
8.276315e+002, 5.190237e+003
8.281136e+002, 5.183894e+003
8.285958e+002, 5.177864e+003
8.290779e+002, 5.172567e+003
8.295600e+002, 5.170823e+003
8.300421e+002, 5.173259e+003
8.305242e+002, 5.175483e+003
8.310063e+002, 5.174333e+003
8.314885e+002, 5.170456e+003
8.319706e+002, 5.165507e+003
8.324527e+002, 5.157581e+003
8.329348e+002, 5.153603e+003
8.334169e+002, 5.157172e+003
8.338990e+002, 5.160156e+003
8.343812e+002, 5.158153e+003
8.348633e+002, 5.154471e+003
8.353454e+002, 5.153845e+003
8.358275e+002, 5.156826e+003
8.363096e+002, 5.157825e+003
8.367917e+002, 5.153826e+003
8.372739e+002, 5.148607e+003
8.377560e+002, 5.144333e+003
8.382381e+002, 5.140397e+003
8.387202e+002, 5.135109e+003
8.392023e+002, 5.128843e+003
8.396844e+002, 5.124760e+003
8.401666e+002, 5.125614e+003
8.406487e+002, 5.127685e+003
8.411308e+002, 5.123420e+003
8.416129e+002, 5.113981e+003
8.420950e+002, 5.107555e+003
8.425771e+002, 5.105077e+003
8.430593e+002, 5.105001e+003
8.435414e+002, 5.107550e+003
8.440235e+002, 5.109813e+003
8.445056e+002, 5.105969e+003
8.449877e+002, 5.094414e+003
8.454698e+002, 5.085018e+003
8.459520e+002, 5.078438e+003
8.464341e+002, 5.073269e+003
8.469162e+002, 5.069869e+003
8.473983e+002, 5.067235e+003
8.478804e+002, 5.064680e+003
8.483625e+002, 5.062117e+003
8.488447e+002, 5.059389e+003
8.493268e+002, 5.055917e+003
8.498089e+002, 5.053094e+003
8.502910e+002, 5.052581e+003
8.507731e+002, 5.052515e+003
8.512552e+002, 5.050764e+003
8.517374e+002, 5.047356e+003
8.522195e+002, 5.042869e+003
8.527016e+002, 5.037561e+003
8.531837e+002, 5.032704e+003
8.536658e+002, 5.030536e+003
8.541479e+002, 5.030323e+003
8.546301e+002, 5.028582e+003
8.551122e+002, 5.025259e+003
8.555943e+002, 5.021125e+003
8.560764e+002, 5.016295e+003
8.565585e+002, 5.011327e+003
8.570406e+002, 5.006714e+003
8.575228e+002, 5.002518e+003
8.580049e+002, 4.999158e+003
8.584870e+002, 4.996852e+003
8.589691e+002, 4.995153e+003
8.594512e+002, 4.996458e+003
8.599333e+002, 4.995961e+003
8.604155e+002, 4.989202e+003
8.608976e+002, 4.979450e+003
8.613797e+002, 4.973157e+003
8.618618e+002, 4.972077e+003
8.623439e+002, 4.970748e+003
8.628260e+002, 4.966547e+003
8.633082e+002, 4.961564e+003
8.637903e+002, 4.956549e+003
8.642724e+002, 4.952271e+003
8.647545e+002, 4.950936e+003
8.652366e+002, 4.952228e+003
8.657188e+002, 4.951394e+003
8.662009e+002, 4.943778e+003
8.666830e+002, 4.933452e+003
8.671651e+002, 4.928499e+003
8.676472e+002, 4.928122e+003
8.681293e+002, 4.927772e+003
8.686115e+002, 4.926778e+003
8.690936e+002, 4.925485e+003
8.695757e+002, 4.924065e+003
8.700578e+002, 4.922515e+003
8.705399e+002, 4.920808e+003
8.710220e+002, 4.918896e+003
8.715042e+002, 4.917177e+003
8.719863e+002, 4.916827e+003
8.724684e+002, 4.914833e+003
8.729505e+002, 4.908774e+003
8.734326e+002, 4.901835e+003
8.739147e+002, 4.896681e+003
8.743969e+002, 4.893227e+003
8.748790e+002, 4.890327e+003
8.753611e+002, 4.889056e+003
8.758432e+002, 4.886586e+003
8.763253e+002, 4.880426e+003
8.768074e+002, 4.873961e+003
8.772896e+002, 4.870330e+003
8.777717e+002, 4.868834e+003
8.782538e+002, 4.867138e+003
8.787359e+002, 4.864386e+003
8.792180e+002, 4.861974e+003
8.797001e+002, 4.862227e+003
8.801823e+002, 4.863116e+003
8.806644e+002, 4.859710e+003
8.811465e+002, 4.853266e+003
8.816286e+002, 4.850224e+003
8.821107e+002, 4.852135e+003
8.825928e+002, 4.853755e+003
8.830750e+002, 4.850336e+003
8.835571e+002, 4.843404e+003
8.840392e+002, 4.838422e+003
8.845213e+002, 4.835956e+003
8.850034e+002, 4.831907e+003
8.854855e+002, 4.824707e+003
8.859677e+002, 4.818904e+003
8.864498e+002, 4.817833e+003
8.869319e+002, 4.818845e+003
8.874140e+002, 4.817023e+003
8.878961e+002, 4.811600e+003
8.883782e+002, 4.808737e+003
8.888604e+002, 4.812363e+003
8.893425e+002, 4.813802e+003
8.898246e+002, 4.808597e+003
8.903067e+002, 4.801962e+003
8.907888e+002, 4.799448e+003
8.912709e+002, 4.799714e+003
8.917531e+002, 4.796970e+003
8.922352e+002, 4.788426e+003
8.927173e+002, 4.778977e+003
8.931994e+002, 4.770636e+003
8.936815e+002, 4.764186e+003
8.941636e+002, 4.761344e+003
8.946458e+002, 4.761093e+003
8.951279e+002, 4.761029e+003
8.956100e+002, 4.760289e+003
8.960921e+002, 4.759108e+003
8.965742e+002, 4.757811e+003
8.970563e+002, 4.756107e+003
8.975385e+002, 4.752759e+003
8.980206e+002, 4.747940e+003
8.985027e+002, 4.744345e+003
8.989848e+002, 4.742481e+003
8.994669e+002, 4.741387e+003
8.999490e+002, 4.740766e+003
9.004312e+002, 4.739740e+003
9.009133e+002, 4.735721e+003
9.013954e+002, 4.726920e+003
9.018775e+002, 4.723790e+003
9.023596e+002, 4.731292e+003
9.028417e+002, 4.736008e+003
9.033239e+002, 4.732003e+003
9.038060e+002, 4.724915e+003
9.042881e+002, 4.719260e+003
9.047702e+002, 4.715106e+003
9.052523e+002, 4.712584e+003
9.057344e+002, 4.712872e+003
9.062166e+002, 4.713104e+003
9.066987e+002, 4.713888e+003
9.071808e+002, 4.713185e+003
9.076629e+002, 4.708247e+003
9.081450e+002, 4.701170e+003
9.086271e+002, 4.696125e+003
9.091093e+002, 4.694121e+003
9.095914e+002, 4.691655e+003
9.100735e+002, 4.684956e+003
9.105556e+002, 4.677773e+003
9.110377e+002, 4.674981e+003
9.115198e+002, 4.674643e+003
9.120020e+002, 4.672799e+003
9.124841e+002, 4.668885e+003
9.129662e+002, 4.664419e+003
9.134483e+002, 4.660316e+003
9.139304e+002, 4.656458e+003
9.144125e+002, 4.652212e+003
9.148947e+002, 4.647837e+003
9.153768e+002, 4.645998e+003
9.158589e+002, 4.647017e+003
9.163410e+002, 4.645818e+003
9.168231e+002, 4.640000e+003
9.173052e+002, 4.633697e+003
9.177874e+002, 4.631874e+003
9.182695e+002, 4.633891e+003
9.187516e+002, 4.633396e+003
9.192337e+002, 4.629275e+003
9.197158e+002, 4.625353e+003
9.201979e+002, 4.622290e+003
9.206801e+002, 4.619079e+003
9.211622e+002, 4.613987e+003
9.216443e+002, 4.608864e+003
9.221264e+002, 4.607385e+003
9.226085e+002, 4.610416e+003
9.230906e+002, 4.611342e+003
9.235728e+002, 4.606176e+003
9.240549e+002, 4.602536e+003
9.245370e+002, 4.605561e+003
9.250191e+002, 4.609584e+003
9.255012e+002, 4.608838e+003
9.259833e+002, 4.604087e+003
9.264655e+002, 4.599409e+003
9.269476e+002, 4.596120e+003
9.274297e+002, 4.593897e+003
9.279118e+002, 4.593536e+003
9.283939e+002, 4.593286e+003
9.288760e+002, 4.591605e+003
9.293582e+002, 4.588316e+003
9.298403e+002, 4.582078e+003
9.303224e+002, 4.573341e+003
9.308045e+002, 4.567336e+003
9.312866e+002, 4.569414e+003
9.317687e+002, 4.574420e+003
9.322509e+002, 4.571756e+003
9.327330e+002, 4.563335e+003
9.332151e+002, 4.557484e+003
9.336972e+002, 4.555164e+003
9.341793e+002, 4.555189e+003
9.346614e+002, 4.557292e+003
9.351436e+002, 4.559495e+003
9.356257e+002, 4.558991e+003
9.361078e+002, 4.555856e+003
9.365899e+002, 4.550877e+003
9.370720e+002, 4.543618e+003
9.375541e+002, 4.536261e+003
9.380363e+002, 4.528946e+003
9.385184e+002, 4.522132e+003
9.390005e+002, 4.515525e+003
9.394826e+002, 4.509917e+003
9.399647e+002, 4.507694e+003
9.404468e+002, 4.510061e+003
9.409290e+002, 4.512449e+003
9.414111e+002, 4.515476e+003
9.418932e+002, 4.517705e+003
9.423753e+002, 4.519078e+003
9.428574e+002, 4.519205e+003
9.433395e+002, 4.517893e+003
9.438217e+002, 4.515055e+003
9.443038e+002, 4.510149e+003
9.447859e+002, 4.500978e+003
9.452680e+002, 4.493845e+003
9.457501e+002, 4.491614e+003
9.462322e+002, 4.491706e+003
9.467144e+002, 4.493846e+003
9.471965e+002, 4.496244e+003
9.476786e+002, 4.495787e+003
9.481607e+002, 4.492186e+003
9.486428e+002, 4.489078e+003
9.491249e+002, 4.488916e+003
9.496071e+002, 4.490092e+003
9.500892e+002, 4.491768e+003
9.505713e+002, 4.493284e+003
9.510534e+002, 4.493842e+003
9.515355e+002, 4.493147e+003
9.520176e+002, 4.490466e+003
9.524998e+002, 4.485501e+003
9.529819e+002, 4.479625e+003
9.534640e+002, 4.474385e+003
9.539461e+002, 4.469498e+003
9.544282e+002, 4.463672e+003
9.549103e+002, 4.457157e+003
9.553925e+002, 4.451498e+003
9.558746e+002, 4.446963e+003
9.563567e+002, 4.446281e+003
9.568388e+002, 4.452143e+003
9.573209e+002, 4.460159e+003
9.578030e+002, 4.460128e+003
9.582852e+002, 4.451165e+003
9.587673e+002, 4.444050e+003
9.592494e+002, 4.438621e+003
9.597315e+002, 4.436192e+003
9.602136e+002, 4.438579e+003
9.606957e+002, 4.441099e+003
9.611779e+002, 4.438587e+003
9.616600e+002, 4.432431e+003
9.621421e+002, 4.430280e+003
9.626242e+002, 4.436231e+003
9.631063e+002, 4.438079e+003
9.635884e+002, 4.433353e+003
9.640706e+002, 4.427500e+003
9.645527e+002, 4.421320e+003
9.650348e+002, 4.415877e+003
9.655169e+002, 4.412362e+003
9.659990e+002, 4.410750e+003
9.664811e+002, 4.410273e+003
9.669633e+002, 4.411932e+003
9.674454e+002, 4.413122e+003
9.679275e+002, 4.414125e+003
9.684096e+002, 4.413590e+003
9.688917e+002, 4.409757e+003
9.693738e+002, 4.404108e+003
9.698560e+002, 4.398698e+003
9.703381e+002, 4.393994e+003
9.708202e+002, 4.390683e+003
9.713023e+002, 4.390587e+003
9.717844e+002, 4.390286e+003
9.722665e+002, 4.387141e+003
9.727487e+002, 4.382806e+003
9.732308e+002, 4.377718e+003
9.737129e+002, 4.373453e+003
9.741950e+002, 4.374644e+003
9.746771e+002, 4.383037e+003
9.751592e+002, 4.390261e+003
9.756414e+002, 4.387164e+003
9.761235e+002, 4.379653e+003
9.766056e+002, 4.375665e+003
9.770877e+002, 4.374159e+003
9.775698e+002, 4.372319e+003
9.780519e+002, 4.369815e+003
9.785341e+002, 4.368251e+003
9.790162e+002, 4.368650e+003
9.794983e+002, 4.369594e+003
9.799804e+002, 4.369553e+003
9.804625e+002, 4.368282e+003
9.809446e+002, 4.364021e+003
9.814268e+002, 4.357154e+003
9.819089e+002, 4.351334e+003
9.823910e+002, 4.347526e+003
9.828731e+002, 4.346140e+003
9.833552e+002, 4.347916e+003
9.838373e+002, 4.351150e+003
9.843195e+002, 4.351581e+003
9.848016e+002, 4.349129e+003
9.852837e+002, 4.345473e+003
9.857658e+002, 4.340407e+003
9.862479e+002, 4.335495e+003
9.867300e+002, 4.331103e+003
9.872122e+002, 4.327562e+003
9.876943e+002, 4.325371e+003
9.881764e+002, 4.324207e+003
9.886585e+002, 4.322231e+003
9.891406e+002, 4.318757e+003
9.896227e+002, 4.316368e+003
9.901049e+002, 4.314933e+003
9.905870e+002, 4.315130e+003
9.910691e+002, 4.319054e+003
9.915512e+002, 4.323017e+003
9.920333e+002, 4.322465e+003
9.925154e+002, 4.317501e+003
9.929976e+002, 4.311602e+003
9.934797e+002, 4.301546e+003
9.939618e+002, 4.295481e+003
9.944439e+002, 4.296301e+003
9.949260e+002, 4.298396e+003
9.954081e+002, 4.299700e+003
9.958903e+002, 4.300364e+003
9.963724e+002, 4.300901e+003
9.968545e+002, 4.301308e+003
9.973366e+002, 4.300358e+003
9.978187e+002, 4.296757e+003
9.983008e+002, 4.293199e+003
9.987830e+002, 4.290450e+003
9.992651e+002, 4.287958e+003
9.997472e+002, 4.285142e+003
1.000229e+003, 4.282362e+003
1.000711e+003, 4.280462e+003
1.001194e+003, 4.279581e+003
1.001676e+003, 4.278295e+003
1.002158e+003, 4.275725e+003
1.002640e+003, 4.272913e+003
1.003122e+003, 4.269955e+003
1.003604e+003, 4.267488e+003
1.004086e+003, 4.265550e+003
1.004568e+003, 4.264805e+003
1.005050e+003, 4.268025e+003
1.005533e+003, 4.275898e+003
1.006015e+003, 4.280052e+003
1.006497e+003, 4.270455e+003
1.006979e+003, 4.258590e+003
1.007461e+003, 4.255729e+003
1.007943e+003, 4.258007e+003
1.008425e+003, 4.260528e+003
1.008907e+003, 4.262085e+003
1.009390e+003, 4.261954e+003
1.009872e+003, 4.259823e+003
1.010354e+003, 4.256375e+003
1.010836e+003, 4.250917e+003
1.011318e+003, 4.245439e+003
1.011800e+003, 4.243907e+003
1.012282e+003, 4.244839e+003
1.012764e+003, 4.244702e+003
1.013246e+003, 4.242984e+003
1.013729e+003, 4.240772e+003
1.014211e+003, 4.238630e+003
1.014693e+003, 4.236083e+003
1.015175e+003, 4.231702e+003
1.015657e+003, 4.226640e+003
1.016139e+003, 4.225218e+003
1.016621e+003, 4.226464e+003
1.017103e+003, 4.224758e+003
1.017586e+003, 4.219281e+003
1.018068e+003, 4.214709e+003
1.018550e+003, 4.214092e+003
1.019032e+003, 4.214689e+003
1.019514e+003, 4.211638e+003
1.019996e+003, 4.205572e+003
1.020478e+003, 4.200580e+003
1.020960e+003, 4.196691e+003
1.021442e+003, 4.196035e+003
1.021925e+003, 4.199320e+003
1.022407e+003, 4.202074e+003
1.022889e+003, 4.201077e+003
1.023371e+003, 4.198055e+003
1.023853e+003, 4.196512e+003
1.024335e+003, 4.196452e+003
1.024817e+003, 4.195817e+003
1.025299e+003, 4.194665e+003
1.025781e+003, 4.191978e+003
1.026264e+003, 4.187024e+003
1.026746e+003, 4.182315e+003
1.027228e+003, 4.179696e+003
1.027710e+003, 4.178632e+003
1.028192e+003, 4.177799e+003
1.028674e+003, 4.177012e+003
1.029156e+003, 4.178404e+003
1.029638e+003, 4.183525e+003
1.030120e+003, 4.185272e+003
1.030603e+003, 4.180652e+003
1.031085e+003, 4.174798e+003
1.031567e+003, 4.171267e+003
1.032049e+003, 4.169835e+003
1.032531e+003, 4.170130e+003
1.033013e+003, 4.172833e+003
1.033495e+003, 4.174269e+003
1.033977e+003, 4.174145e+003
1.034460e+003, 4.173498e+003
1.034942e+003, 4.173072e+003
1.035424e+003, 4.171541e+003
1.035906e+003, 4.167662e+003
1.036388e+003, 4.161963e+003
1.036870e+003, 4.155661e+003
1.037352e+003, 4.147930e+003
1.037834e+003, 4.142686e+003
1.038317e+003, 4.142460e+003
1.038799e+003, 4.140813e+003
1.039281e+003, 4.133624e+003
1.039763e+003, 4.127175e+003
1.040245e+003, 4.127509e+003
1.040727e+003, 4.132110e+003
1.041209e+003, 4.133862e+003
1.041691e+003, 4.132219e+003
1.042173e+003, 4.129427e+003
1.042656e+003, 4.124183e+003
1.043138e+003, 4.119538e+003
1.043620e+003, 4.114864e+003
1.044102e+003, 4.112267e+003
1.044584e+003, 4.115369e+003
1.045066e+003, 4.121421e+003
1.045548e+003, 4.122983e+003
1.046030e+003, 4.117987e+003
1.046512e+003, 4.114828e+003
1.046995e+003, 4.116211e+003
1.047477e+003, 4.117145e+003
1.047959e+003, 4.117010e+003
1.048441e+003, 4.115111e+003
1.048923e+003, 4.109335e+003
1.049405e+003, 4.101751e+003
1.049887e+003, 4.097452e+003
1.050369e+003, 4.097752e+003
1.050852e+003, 4.097570e+003
1.051334e+003, 4.095369e+003
1.051816e+003, 4.093307e+003
1.052298e+003, 4.092602e+003
1.052780e+003, 4.091903e+003
1.053262e+003, 4.089786e+003
1.053744e+003, 4.086873e+003
1.054226e+003, 4.084747e+003
1.054708e+003, 4.083754e+003
1.055191e+003, 4.082599e+003
1.055673e+003, 4.080343e+003
1.056155e+003, 4.078613e+003
1.056637e+003, 4.077990e+003
1.057119e+003, 4.078181e+003
1.057601e+003, 4.079726e+003
1.058083e+003, 4.081630e+003
1.058565e+003, 4.081807e+003
1.059047e+003, 4.079772e+003
1.059530e+003, 4.077779e+003
1.060012e+003, 4.077387e+003
1.060494e+003, 4.076125e+003
1.060976e+003, 4.071344e+003
1.061458e+003, 4.066763e+003
1.061940e+003, 4.066657e+003
1.062422e+003, 4.068651e+003
1.062904e+003, 4.067074e+003
1.063387e+003, 4.060911e+003
1.063869e+003, 4.056925e+003
1.064351e+003, 4.061433e+003
1.064833e+003, 4.063716e+003
1.065315e+003, 4.056907e+003
1.065797e+003, 4.047861e+003
1.066279e+003, 4.041213e+003
1.066761e+003, 4.037067e+003
1.067244e+003, 4.035053e+003
1.067726e+003, 4.034990e+003
1.068208e+003, 4.035655e+003
1.068690e+003, 4.038089e+003
1.069172e+003, 4.039074e+003
1.069654e+003, 4.036245e+003
1.070136e+003, 4.032223e+003
1.070618e+003, 4.028915e+003
1.071100e+003, 4.025997e+003
1.071583e+003, 4.021606e+003
1.072065e+003, 4.016126e+003
1.072547e+003, 4.014939e+003
1.073029e+003, 4.024583e+003
1.073511e+003, 4.031364e+003
1.073993e+003, 4.025923e+003
1.074475e+003, 4.017982e+003
1.074957e+003, 4.014926e+003
1.075439e+003, 4.014396e+003
1.075922e+003, 4.011894e+003
1.076404e+003, 4.007277e+003
1.076886e+003, 4.004011e+003
1.077368e+003, 4.003425e+003
1.077850e+003, 4.004291e+003
1.078332e+003, 4.008947e+003
1.078814e+003, 4.011780e+003
1.079297e+003, 4.006445e+003
1.079779e+003, 3.998207e+003
1.080261e+003, 3.994294e+003
1.080743e+003, 3.994662e+003
1.081225e+003, 3.994892e+003
1.081707e+003, 3.993715e+003
1.082189e+003, 3.991549e+003
1.082671e+003, 3.987283e+003
1.083153e+003, 3.983546e+003
1.083635e+003, 3.982350e+003
1.084118e+003, 3.982427e+003
1.084600e+003, 3.982691e+003
1.085082e+003, 3.982769e+003
1.085564e+003, 3.982163e+003
1.086046e+003, 3.980681e+003
1.086528e+003, 3.978867e+003
1.087010e+003, 3.976945e+003
1.087492e+003, 3.974790e+003
1.087975e+003, 3.971713e+003
1.088457e+003, 3.968879e+003
1.088939e+003, 3.967896e+003
1.089421e+003, 3.968040e+003
1.089903e+003, 3.967456e+003
1.090385e+003, 3.965735e+003
1.090867e+003, 3.963087e+003
1.091349e+003, 3.957927e+003
1.091832e+003, 3.954003e+003
1.092314e+003, 3.954035e+003
1.092796e+003, 3.955121e+003
1.093278e+003, 3.955107e+003
1.093760e+003, 3.954135e+003
1.094242e+003, 3.952856e+003
1.094724e+003, 3.951382e+003
1.095206e+003, 3.949594e+003
1.095688e+003, 3.945820e+003
1.096171e+003, 3.943986e+003
1.096653e+003, 3.948904e+003
1.097135e+003, 3.952654e+003
1.097617e+003, 3.947565e+003
1.098099e+003, 3.938943e+003
1.098581e+003, 3.935260e+003
1.099063e+003, 3.936959e+003
1.099545e+003, 3.937675e+003
1.100027e+003, 3.933859e+003
1.100510e+003, 3.932321e+003
1.100992e+003, 3.937886e+003
1.101474e+003, 3.942606e+003
1.101956e+003, 3.941554e+003
1.102438e+003, 3.937755e+003
1.102920e+003, 3.934067e+003
1.103402e+003, 3.930980e+003
1.103884e+003, 3.929364e+003
1.104367e+003, 3.930250e+003
1.104849e+003, 3.930344e+003
1.105331e+003, 3.928426e+003
1.105813e+003, 3.926437e+003
1.106295e+003, 3.924841e+003
1.106777e+003, 3.923733e+003
1.107259e+003, 3.923774e+003
1.107741e+003, 3.924300e+003
1.108224e+003, 3.923154e+003
1.108706e+003, 3.919320e+003
1.109188e+003, 3.917278e+003
1.109670e+003, 3.919724e+003
1.110152e+003, 3.920808e+003
1.110634e+003, 3.918895e+003
1.111116e+003, 3.915520e+003
1.111598e+003, 3.910733e+003
1.112080e+003, 3.905547e+003
1.112563e+003, 3.901931e+003
1.113045e+003, 3.900075e+003
1.113527e+003, 3.898340e+003
1.114009e+003, 3.897403e+003
1.114491e+003, 3.895471e+003
1.114973e+003, 3.891210e+003
1.115455e+003, 3.887538e+003
1.115937e+003, 3.886214e+003
1.116419e+003, 3.885922e+003
1.116902e+003, 3.885001e+003
1.117384e+003, 3.883539e+003
1.117866e+003, 3.882485e+003
1.118348e+003, 3.882299e+003
1.118830e+003, 3.881381e+003
1.119312e+003, 3.878985e+003
1.119794e+003, 3.877166e+003
1.120276e+003, 3.876349e+003
1.120759e+003, 3.877024e+003
1.121241e+003, 3.880910e+003
1.121723e+003, 3.885948e+003
1.122205e+003, 3.884144e+003
1.122687e+003, 3.872717e+003
1.123169e+003, 3.867581e+003
1.123651e+003, 3.870777e+003
1.124133e+003, 3.873143e+003
1.124615e+003, 3.871786e+003
1.125098e+003, 3.871509e+003
1.125580e+003, 3.876785e+003
1.126062e+003, 3.882881e+003
1.126544e+003, 3.879646e+003
1.127026e+003, 3.867402e+003
1.127508e+003, 3.861160e+003
1.127990e+003, 3.861751e+003
1.128472e+003, 3.861435e+003
1.128954e+003, 3.858993e+003
1.129437e+003, 3.855888e+003
1.129919e+003, 3.852628e+003
1.130401e+003, 3.850085e+003
1.130883e+003, 3.849361e+003
1.131365e+003, 3.850173e+003
1.131847e+003, 3.851550e+003
1.132329e+003, 3.853454e+003
1.132811e+003, 3.856172e+003
1.133294e+003, 3.859581e+003
1.133776e+003, 3.857866e+003
1.134258e+003, 3.849066e+003
1.134740e+003, 3.841524e+003
1.135222e+003, 3.842466e+003
1.135704e+003, 3.848030e+003
1.136186e+003, 3.851378e+003
1.136668e+003, 3.852777e+003
1.137151e+003, 3.853427e+003
1.137633e+003, 3.853146e+003
1.138115e+003, 3.849825e+003
1.138597e+003, 3.843682e+003
1.139079e+003, 3.839647e+003
1.139561e+003, 3.840548e+003
1.140043e+003, 3.841975e+003
1.140525e+003, 3.837448e+003
1.141007e+003, 3.830680e+003
1.141490e+003, 3.828762e+003
1.141972e+003, 3.830187e+003
1.142454e+003, 3.832308e+003
1.142936e+003, 3.834374e+003
1.143418e+003, 3.835602e+003
1.143900e+003, 3.835692e+003
1.144382e+003, 3.834521e+003
1.144864e+003, 3.830822e+003
1.145346e+003, 3.828129e+003
1.145829e+003, 3.832398e+003
1.146311e+003, 3.838185e+003
1.146793e+003, 3.838332e+003
1.147275e+003, 3.834598e+003
1.147757e+003, 3.830874e+003
1.148239e+003, 3.828033e+003
1.148721e+003, 3.825620e+003
1.149203e+003, 3.823506e+003
1.149686e+003, 3.821587e+003
1.150168e+003, 3.819179e+003
1.150650e+003, 3.817719e+003
1.151132e+003, 3.818664e+003
1.151614e+003, 3.820855e+003
1.152096e+003, 3.823780e+003
1.152578e+003, 3.826579e+003
1.153060e+003, 3.827503e+003
1.153542e+003, 3.826106e+003
1.154025e+003, 3.824526e+003
1.154507e+003, 3.822810e+003
1.154989e+003, 3.821939e+003
1.155471e+003, 3.824069e+003
1.155953e+003, 3.825142e+003
1.156435e+003, 3.819794e+003
1.156917e+003, 3.813379e+003
1.157399e+003, 3.814925e+003
1.157881e+003, 3.823645e+003
1.158364e+003, 3.827625e+003
1.158846e+003, 3.821677e+003
1.159328e+003, 3.818644e+003
1.159810e+003, 3.822615e+003
1.160292e+003, 3.825152e+003
1.160774e+003, 3.822987e+003
1.161256e+003, 3.819516e+003
1.161738e+003, 3.816859e+003
1.162221e+003, 3.815138e+003
1.162703e+003, 3.814947e+003
1.163185e+003, 3.816770e+003
1.163667e+003, 3.816039e+003
1.164149e+003, 3.811374e+003
1.164631e+003, 3.808177e+003
1.165113e+003, 3.807176e+003
1.165595e+003, 3.808301e+003
1.166078e+003, 3.812562e+003
1.166560e+003, 3.816199e+003
1.167042e+003, 3.814086e+003
1.167524e+003, 3.807731e+003
1.168006e+003, 3.804268e+003
1.168488e+003, 3.803753e+003
1.168970e+003, 3.803870e+003
1.169452e+003, 3.804520e+003
1.169934e+003, 3.804948e+003
1.170417e+003, 3.804931e+003
1.170899e+003, 3.804985e+003
1.171381e+003, 3.805533e+003
1.171863e+003, 3.806103e+003
1.172345e+003, 3.805516e+003
1.172827e+003, 3.804371e+003
1.173309e+003, 3.805115e+003
1.173791e+003, 3.807219e+003
1.174273e+003, 3.808488e+003
1.174756e+003, 3.808848e+003
1.175238e+003, 3.810315e+003
1.175720e+003, 3.813465e+003
1.176202e+003, 3.814583e+003
1.176684e+003, 3.809268e+003
1.177166e+003, 3.802698e+003
1.177648e+003, 3.801568e+003
1.178130e+003, 3.803184e+003
1.178613e+003, 3.803880e+003
1.179095e+003, 3.803973e+003
1.179577e+003, 3.804977e+003
1.180059e+003, 3.806819e+003
1.180541e+003, 3.808002e+003
1.181023e+003, 3.807906e+003
1.181505e+003, 3.806960e+003
1.181987e+003, 3.804656e+003
1.182469e+003, 3.802508e+003
1.182952e+003, 3.801999e+003
1.183434e+003, 3.801722e+003
1.183916e+003, 3.799724e+003
1.184398e+003, 3.797090e+003
1.184880e+003, 3.796288e+003
1.185362e+003, 3.797625e+003
1.185844e+003, 3.798863e+003
1.186326e+003, 3.800436e+003
1.186808e+003, 3.800386e+003
1.187291e+003, 3.796296e+003
1.187773e+003, 3.793056e+003
1.188255e+003, 3.793399e+003
1.188737e+003, 3.795042e+003
1.189219e+003, 3.795849e+003
1.189701e+003, 3.796168e+003
1.190183e+003, 3.797293e+003
1.190665e+003, 3.799821e+003
1.191148e+003, 3.799930e+003
1.191630e+003, 3.796758e+003
1.192112e+003, 3.793182e+003
1.192594e+003, 3.788461e+003
1.193076e+003, 3.787588e+003
1.193558e+003, 3.794473e+003
1.194040e+003, 3.802507e+003
1.194522e+003, 3.802761e+003
1.195005e+003, 3.797569e+003
1.195487e+003, 3.797642e+003
1.195969e+003, 3.802613e+003
1.196451e+003, 3.800996e+003
1.196933e+003, 3.792631e+003
1.197415e+003, 3.787229e+003
1.197897e+003, 3.787292e+003
1.198379e+003, 3.791067e+003
1.198861e+003, 3.797751e+003
1.199344e+003, 3.803846e+003
1.199826e+003, 3.803680e+003
1.200308e+003, 3.800250e+003
1.200790e+003, 3.799888e+003
1.201272e+003, 3.801077e+003
1.201754e+003, 3.799762e+003
1.202236e+003, 3.796844e+003
1.202718e+003, 3.796841e+003
1.203200e+003, 3.800560e+003
1.203683e+003, 3.803582e+003
1.204165e+003, 3.803225e+003
1.204647e+003, 3.801560e+003
1.205129e+003, 3.799406e+003
1.205611e+003, 3.797388e+003
1.206093e+003, 3.796563e+003
1.206575e+003, 3.795829e+003
1.207057e+003, 3.792710e+003
1.207540e+003, 3.788701e+003
1.208022e+003, 3.788354e+003
1.208504e+003, 3.792872e+003
1.208986e+003, 3.797104e+003
1.209468e+003, 3.798745e+003
1.209950e+003, 3.801586e+003
1.210432e+003, 3.809864e+003
1.210914e+003, 3.815493e+003
1.211396e+003, 3.812231e+003
1.211879e+003, 3.806088e+003
1.212361e+003, 3.802763e+003
1.212843e+003, 3.801844e+003
1.213325e+003, 3.801857e+003
1.213807e+003, 3.803079e+003
1.214289e+003, 3.804127e+003
1.214771e+003, 3.805411e+003
1.215253e+003, 3.804438e+003
1.215735e+003, 3.799969e+003
1.216218e+003, 3.797012e+003
1.216700e+003, 3.798392e+003
1.217182e+003, 3.802237e+003
1.217664e+003, 3.807083e+003
1.218146e+003, 3.811211e+003
1.218628e+003, 3.807297e+003
1.219110e+003, 3.797611e+003
1.219592e+003, 3.794176e+003
1.220075e+003, 3.796617e+003
1.220557e+003, 3.799649e+003
1.221039e+003, 3.801714e+003
1.221521e+003, 3.802094e+003
1.222003e+003, 3.800298e+003
1.222485e+003, 3.798678e+003
1.222967e+003, 3.800326e+003
1.223449e+003, 3.802697e+003
1.223932e+003, 3.803610e+003
1.224414e+003, 3.802885e+003
1.224896e+003, 3.798657e+003
1.225378e+003, 3.793313e+003
1.225860e+003, 3.791831e+003
1.226342e+003, 3.794472e+003
1.226824e+003, 3.796978e+003
1.227306e+003, 3.798191e+003
1.227788e+003, 3.798275e+003
1.228271e+003, 3.796181e+003
1.228753e+003, 3.794409e+003
1.229235e+003, 3.794906e+003
1.229717e+003, 3.795265e+003
1.230199e+003, 3.792935e+003
1.230681e+003, 3.789428e+003
1.231163e+003, 3.787409e+003
1.231645e+003, 3.786863e+003
1.232127e+003, 3.787393e+003
1.232610e+003, 3.789926e+003
1.233092e+003, 3.790646e+003
1.233574e+003, 3.789188e+003
1.234056e+003, 3.786325e+003
1.234538e+003, 3.781898e+003
1.235020e+003, 3.778025e+003
1.235502e+003, 3.776417e+003
1.235984e+003, 3.775780e+003
1.236467e+003, 3.773919e+003
1.236949e+003, 3.771128e+003
1.237431e+003, 3.767880e+003
1.237913e+003, 3.764811e+003
1.238395e+003, 3.765489e+003
1.238877e+003, 3.769407e+003
1.239359e+003, 3.773073e+003
1.239841e+003, 3.775158e+003
1.240323e+003, 3.774749e+003
1.240806e+003, 3.770795e+003
1.241288e+003, 3.766465e+003
1.241770e+003, 3.763934e+003
1.242252e+003, 3.763346e+003
1.242734e+003, 3.767062e+003
1.243216e+003, 3.771046e+003
1.243698e+003, 3.769559e+003
1.244180e+003, 3.764594e+003
1.244662e+003, 3.760892e+003
1.245145e+003, 3.759328e+003
1.245627e+003, 3.759200e+003
1.246109e+003, 3.763360e+003
1.246591e+003, 3.763449e+003
1.247073e+003, 3.753741e+003
1.247555e+003, 3.745685e+003
1.248037e+003, 3.744493e+003
1.248519e+003, 3.744586e+003
1.249002e+003, 3.741563e+003
1.249484e+003, 3.737795e+003
1.249966e+003, 3.737822e+003
1.250448e+003, 3.741384e+003
1.250930e+003, 3.744148e+003
1.251412e+003, 3.746165e+003
1.251894e+003, 3.746210e+003
1.252376e+003, 3.744062e+003
1.252859e+003, 3.743802e+003
1.253341e+003, 3.746631e+003
1.253823e+003, 3.748424e+003
1.254305e+003, 3.746238e+003
1.254787e+003, 3.742771e+003
1.255269e+003, 3.741340e+003
1.255751e+003, 3.741483e+003
1.256233e+003, 3.743176e+003
1.256715e+003, 3.745319e+003
1.257198e+003, 3.745327e+003
1.257680e+003, 3.744142e+003
1.258162e+003, 3.745222e+003
1.258644e+003, 3.748567e+003
1.259126e+003, 3.749663e+003
1.259608e+003, 3.745948e+003
1.260090e+003, 3.742409e+003
1.260572e+003, 3.741878e+003
1.261054e+003, 3.741414e+003
1.261537e+003, 3.738874e+003
1.262019e+003, 3.736673e+003
1.262501e+003, 3.737578e+003
1.262983e+003, 3.739527e+003
1.263465e+003, 3.738901e+003
1.263947e+003, 3.736099e+003
1.264429e+003, 3.734463e+003
1.264911e+003, 3.734814e+003
1.265394e+003, 3.733039e+003
1.265876e+003, 3.727978e+003
1.266358e+003, 3.726412e+003
1.266840e+003, 3.730427e+003
1.267322e+003, 3.733521e+003
1.267804e+003, 3.731921e+003
1.268286e+003, 3.729469e+003
1.268768e+003, 3.730963e+003
1.269250e+003, 3.734604e+003
1.269733e+003, 3.736318e+003
1.270215e+003, 3.736945e+003
1.270697e+003, 3.740117e+003
1.271179e+003, 3.743646e+003
1.271661e+003, 3.739763e+003
1.272143e+003, 3.729719e+003
1.272625e+003, 3.723331e+003
1.273107e+003, 3.724283e+003
1.273589e+003, 3.726823e+003
1.274072e+003, 3.728483e+003
1.274554e+003, 3.729542e+003
1.275036e+003, 3.730967e+003
1.275518e+003, 3.730875e+003
1.276000e+003, 3.726500e+003
1.276482e+003, 3.721048e+003
1.276964e+003, 3.717838e+003
1.277446e+003, 3.717189e+003
1.277929e+003, 3.718239e+003
1.278411e+003, 3.721264e+003
1.278893e+003, 3.723465e+003
1.279375e+003, 3.725317e+003
1.279857e+003, 3.724461e+003
1.280339e+003, 3.719989e+003
1.280821e+003, 3.716727e+003
1.281303e+003, 3.716623e+003
1.281786e+003, 3.719179e+003
1.282268e+003, 3.723612e+003
##END=



