##NAMES=Oxyphlogopite
##RRUFFID=R141078
##IDEAL CHEMISTRY=K(Mg,Ti^4+^,Fe^3+^,Fe^2+^)_3_[(Si,Al)_4_O_10_](O,F)_2_
##LOCALITY=Graulay, Hillesheim, Eifel, Rhineland-Palatinate, Germany
##OWNER=RRUFF
##SOURCE=Ch. and H. Sch√§fer
##DESCRIPTION=Dark brown to almost black platy crystals, associated with schorlomite, pyroxene, leucite and nepheline
##STATUS=The identification of this mineral has been confirmed only by single crystal X-ray diffraction.
##URL=rruff.info/R141078
9.059570e+001, 7.351161e+002
9.107782e+001, 7.338261e+002
9.155994e+001, 7.334034e+002
9.204205e+001, 7.337238e+002
9.252417e+001, 7.350349e+002
9.300629e+001, 7.378990e+002
9.348840e+001, 7.384152e+002
9.397052e+001, 7.313301e+002
9.445264e+001, 7.143010e+002
9.493475e+001, 6.969133e+002
9.541687e+001, 6.802308e+002
9.589898e+001, 6.644570e+002
9.638110e+001, 6.498441e+002
9.686321e+001, 6.366721e+002
9.734533e+001, 6.245879e+002
9.782745e+001, 6.121953e+002
9.830956e+001, 6.007913e+002
9.879168e+001, 5.902635e+002
9.927380e+001, 5.806337e+002
9.975591e+001, 5.718752e+002
1.002380e+002, 5.638040e+002
1.007201e+002, 5.562903e+002
1.012023e+002, 5.494368e+002
1.016844e+002, 5.429568e+002
1.021665e+002, 5.359013e+002
1.026486e+002, 5.272820e+002
1.031307e+002, 5.186086e+002
1.036128e+002, 5.114395e+002
1.040950e+002, 5.059059e+002
1.045771e+002, 5.007474e+002
1.050592e+002, 4.950072e+002
1.055413e+002, 4.889283e+002
1.060234e+002, 4.828888e+002
1.065055e+002, 4.766327e+002
1.069877e+002, 4.704257e+002
1.074698e+002, 4.655400e+002
1.079519e+002, 4.633205e+002
1.084340e+002, 4.607413e+002
1.089161e+002, 4.565523e+002
1.093982e+002, 4.509859e+002
1.098804e+002, 4.447559e+002
1.103625e+002, 4.382079e+002
1.108446e+002, 4.310699e+002
1.113267e+002, 4.251955e+002
1.118088e+002, 4.208986e+002
1.122909e+002, 4.174375e+002
1.127731e+002, 4.148317e+002
1.132552e+002, 4.129173e+002
1.137373e+002, 4.111639e+002
1.142194e+002, 4.088182e+002
1.147015e+002, 4.052842e+002
1.151836e+002, 4.021578e+002
1.156658e+002, 3.996895e+002
1.161479e+002, 3.974786e+002
1.166300e+002, 3.951801e+002
1.171121e+002, 3.926698e+002
1.175942e+002, 3.899567e+002
1.180763e+002, 3.870202e+002
1.185584e+002, 3.837277e+002
1.190406e+002, 3.805254e+002
1.195227e+002, 3.776180e+002
1.200048e+002, 3.749160e+002
1.204869e+002, 3.721015e+002
1.209690e+002, 3.688898e+002
1.214511e+002, 3.656353e+002
1.219333e+002, 3.629512e+002
1.224154e+002, 3.609458e+002
1.228975e+002, 3.593115e+002
1.233796e+002, 3.579402e+002
1.238617e+002, 3.568736e+002
1.243438e+002, 3.556704e+002
1.248260e+002, 3.540762e+002
1.253081e+002, 3.522512e+002
1.257902e+002, 3.502769e+002
1.262723e+002, 3.481669e+002
1.267544e+002, 3.459625e+002
1.272365e+002, 3.437029e+002
1.277187e+002, 3.410160e+002
1.282008e+002, 3.389609e+002
1.286829e+002, 3.380791e+002
1.291650e+002, 3.378504e+002
1.296471e+002, 3.376654e+002
1.301292e+002, 3.372159e+002
1.306114e+002, 3.364757e+002
1.310935e+002, 3.350235e+002
1.315756e+002, 3.320104e+002
1.320577e+002, 3.290499e+002
1.325398e+002, 3.264921e+002
1.330219e+002, 3.243163e+002
1.335041e+002, 3.223588e+002
1.339862e+002, 3.204576e+002
1.344683e+002, 3.185721e+002
1.349504e+002, 3.170591e+002
1.354325e+002, 3.162338e+002
1.359146e+002, 3.154513e+002
1.363968e+002, 3.143553e+002
1.368789e+002, 3.129108e+002
1.373610e+002, 3.112778e+002
1.378431e+002, 3.096004e+002
1.383252e+002, 3.078256e+002
1.388073e+002, 3.063221e+002
1.392895e+002, 3.051521e+002
1.397716e+002, 3.042412e+002
1.402537e+002, 3.036625e+002
1.407358e+002, 3.035522e+002
1.412179e+002, 3.033127e+002
1.417000e+002, 3.020182e+002
1.421821e+002, 2.997834e+002
1.426643e+002, 2.974615e+002
1.431464e+002, 2.952665e+002
1.436285e+002, 2.932331e+002
1.441106e+002, 2.914888e+002
1.445927e+002, 2.901695e+002
1.450748e+002, 2.890598e+002
1.455570e+002, 2.879818e+002
1.460391e+002, 2.869321e+002
1.465212e+002, 2.858246e+002
1.470033e+002, 2.844566e+002
1.474854e+002, 2.827596e+002
1.479675e+002, 2.814566e+002
1.484497e+002, 2.813212e+002
1.489318e+002, 2.812159e+002
1.494139e+002, 2.804565e+002
1.498960e+002, 2.789179e+002
1.503781e+002, 2.770266e+002
1.508602e+002, 2.754338e+002
1.513424e+002, 2.743009e+002
1.518245e+002, 2.730951e+002
1.523066e+002, 2.715220e+002
1.527887e+002, 2.699953e+002
1.532708e+002, 2.688952e+002
1.537529e+002, 2.683593e+002
1.542351e+002, 2.681501e+002
1.547172e+002, 2.676789e+002
1.551993e+002, 2.667024e+002
1.556814e+002, 2.657258e+002
1.561635e+002, 2.647162e+002
1.566456e+002, 2.637353e+002
1.571278e+002, 2.629054e+002
1.576099e+002, 2.622997e+002
1.580920e+002, 2.618203e+002
1.585741e+002, 2.610340e+002
1.590562e+002, 2.596844e+002
1.595383e+002, 2.583617e+002
1.600205e+002, 2.570820e+002
1.605026e+002, 2.559246e+002
1.609847e+002, 2.551296e+002
1.614668e+002, 2.549552e+002
1.619489e+002, 2.551834e+002
1.624310e+002, 2.548570e+002
1.629131e+002, 2.535405e+002
1.633953e+002, 2.521397e+002
1.638774e+002, 2.511986e+002
1.643595e+002, 2.506773e+002
1.648416e+002, 2.502055e+002
1.653237e+002, 2.495625e+002
1.658058e+002, 2.488094e+002
1.662880e+002, 2.480993e+002
1.667701e+002, 2.475122e+002
1.672522e+002, 2.469203e+002
1.677343e+002, 2.461855e+002
1.682164e+002, 2.452990e+002
1.686985e+002, 2.443164e+002
1.691807e+002, 2.429970e+002
1.696628e+002, 2.416632e+002
1.701449e+002, 2.407867e+002
1.706270e+002, 2.407734e+002
1.711091e+002, 2.411956e+002
1.715912e+002, 2.410361e+002
1.720734e+002, 2.400188e+002
1.725555e+002, 2.388922e+002
1.730376e+002, 2.378323e+002
1.735197e+002, 2.368850e+002
1.740018e+002, 2.361169e+002
1.744839e+002, 2.355816e+002
1.749661e+002, 2.352589e+002
1.754482e+002, 2.350453e+002
1.759303e+002, 2.351469e+002
1.764124e+002, 2.351237e+002
1.768945e+002, 2.347589e+002
1.773766e+002, 2.341947e+002
1.778588e+002, 2.336941e+002
1.783409e+002, 2.334624e+002
1.788230e+002, 2.335022e+002
1.793051e+002, 2.334127e+002
1.797872e+002, 2.329365e+002
1.802693e+002, 2.325815e+002
1.807515e+002, 2.325488e+002
1.812336e+002, 2.327771e+002
1.817157e+002, 2.331118e+002
1.821978e+002, 2.334592e+002
1.826799e+002, 2.338589e+002
1.831620e+002, 2.337931e+002
1.836441e+002, 2.326811e+002
1.841263e+002, 2.317181e+002
1.846084e+002, 2.315399e+002
1.850905e+002, 2.321166e+002
1.855726e+002, 2.330025e+002
1.860547e+002, 2.338071e+002
1.865368e+002, 2.345139e+002
1.870190e+002, 2.353022e+002
1.875011e+002, 2.361273e+002
1.879832e+002, 2.370529e+002
1.884653e+002, 2.381729e+002
1.889474e+002, 2.394849e+002
1.894296e+002, 2.408295e+002
1.899117e+002, 2.420052e+002
1.903938e+002, 2.430233e+002
1.908759e+002, 2.442692e+002
1.913580e+002, 2.459090e+002
1.918401e+002, 2.477339e+002
1.923223e+002, 2.494778e+002
1.928044e+002, 2.510798e+002
1.932865e+002, 2.527843e+002
1.937686e+002, 2.550210e+002
1.942507e+002, 2.576118e+002
1.947328e+002, 2.599747e+002
1.952150e+002, 2.618901e+002
1.956971e+002, 2.634716e+002
1.961792e+002, 2.649673e+002
1.966613e+002, 2.664435e+002
1.971434e+002, 2.677065e+002
1.976255e+002, 2.686913e+002
1.981077e+002, 2.694000e+002
1.985898e+002, 2.697521e+002
1.990719e+002, 2.698269e+002
1.995540e+002, 2.695436e+002
2.000361e+002, 2.684897e+002
2.005182e+002, 2.662065e+002
2.010004e+002, 2.637223e+002
2.014825e+002, 2.617737e+002
2.019646e+002, 2.601216e+002
2.024467e+002, 2.581797e+002
2.029288e+002, 2.553991e+002
2.034109e+002, 2.518387e+002
2.038930e+002, 2.485743e+002
2.043752e+002, 2.457220e+002
2.048573e+002, 2.431091e+002
2.053394e+002, 2.407971e+002
2.058215e+002, 2.386926e+002
2.063036e+002, 2.365725e+002
2.067857e+002, 2.342177e+002
2.072679e+002, 2.316007e+002
2.077500e+002, 2.292900e+002
2.082321e+002, 2.276513e+002
2.087142e+002, 2.259991e+002
2.091963e+002, 2.240242e+002
2.096784e+002, 2.218347e+002
2.101606e+002, 2.197518e+002
2.106427e+002, 2.180585e+002
2.111248e+002, 2.167918e+002
2.116069e+002, 2.156803e+002
2.120890e+002, 2.147970e+002
2.125711e+002, 2.139844e+002
2.130533e+002, 2.132402e+002
2.135354e+002, 2.125245e+002
2.140175e+002, 2.117375e+002
2.144996e+002, 2.107706e+002
2.149817e+002, 2.095744e+002
2.154638e+002, 2.085466e+002
2.159460e+002, 2.077870e+002
2.164281e+002, 2.070641e+002
2.169102e+002, 2.061751e+002
2.173923e+002, 2.051763e+002
2.178744e+002, 2.043533e+002
2.183565e+002, 2.040409e+002
2.188387e+002, 2.043434e+002
2.193208e+002, 2.040718e+002
2.198029e+002, 2.027125e+002
2.202850e+002, 2.012674e+002
2.207671e+002, 2.003586e+002
2.212492e+002, 1.999913e+002
2.217314e+002, 1.997808e+002
2.222135e+002, 1.994106e+002
2.226956e+002, 1.988668e+002
2.231777e+002, 1.983860e+002
2.236598e+002, 1.979995e+002
2.241419e+002, 1.976507e+002
2.246240e+002, 1.973904e+002
2.251062e+002, 1.972013e+002
2.255883e+002, 1.968032e+002
2.260704e+002, 1.957732e+002
2.265525e+002, 1.942596e+002
2.270346e+002, 1.933568e+002
2.275167e+002, 1.936471e+002
2.279989e+002, 1.942574e+002
2.284810e+002, 1.944101e+002
2.289631e+002, 1.940622e+002
2.294452e+002, 1.935248e+002
2.299273e+002, 1.928570e+002
2.304094e+002, 1.921768e+002
2.308916e+002, 1.918095e+002
2.313737e+002, 1.921786e+002
2.318558e+002, 1.926821e+002
2.323379e+002, 1.926011e+002
2.328200e+002, 1.918737e+002
2.333021e+002, 1.909912e+002
2.337843e+002, 1.900750e+002
2.342664e+002, 1.892364e+002
2.347485e+002, 1.886778e+002
2.352306e+002, 1.885005e+002
2.357127e+002, 1.885834e+002
2.361948e+002, 1.888179e+002
2.366770e+002, 1.892524e+002
2.371591e+002, 1.896431e+002
2.376412e+002, 1.900782e+002
2.381233e+002, 1.903348e+002
2.386054e+002, 1.900418e+002
2.390875e+002, 1.888792e+002
2.395697e+002, 1.874165e+002
2.400518e+002, 1.865872e+002
2.405339e+002, 1.865383e+002
2.410160e+002, 1.866544e+002
2.414981e+002, 1.869140e+002
2.419802e+002, 1.871246e+002
2.424624e+002, 1.870369e+002
2.429445e+002, 1.865110e+002
2.434266e+002, 1.858267e+002
2.439087e+002, 1.855301e+002
2.443908e+002, 1.858484e+002
2.448729e+002, 1.859260e+002
2.453550e+002, 1.851404e+002
2.458372e+002, 1.842271e+002
2.463193e+002, 1.839170e+002
2.468014e+002, 1.844850e+002
2.472835e+002, 1.853821e+002
2.477656e+002, 1.856397e+002
2.482477e+002, 1.849923e+002
2.487299e+002, 1.843103e+002
2.492120e+002, 1.837180e+002
2.496941e+002, 1.831756e+002
2.501762e+002, 1.826206e+002
2.506583e+002, 1.820390e+002
2.511404e+002, 1.815337e+002
2.516226e+002, 1.813161e+002
2.521047e+002, 1.815939e+002
2.525868e+002, 1.816895e+002
2.530689e+002, 1.814712e+002
2.535510e+002, 1.811292e+002
2.540331e+002, 1.807784e+002
2.545153e+002, 1.804546e+002
2.549974e+002, 1.801418e+002
2.554795e+002, 1.797884e+002
2.559616e+002, 1.792760e+002
2.564437e+002, 1.790031e+002
2.569258e+002, 1.790435e+002
2.574080e+002, 1.792254e+002
2.578901e+002, 1.795152e+002
2.583722e+002, 1.798683e+002
2.588543e+002, 1.801620e+002
2.593364e+002, 1.802070e+002
2.598185e+002, 1.798455e+002
2.603007e+002, 1.796324e+002
2.607828e+002, 1.796228e+002
2.612649e+002, 1.796826e+002
2.617470e+002, 1.797585e+002
2.622291e+002, 1.798289e+002
2.627112e+002, 1.798682e+002
2.631934e+002, 1.798345e+002
2.636755e+002, 1.796747e+002
2.641576e+002, 1.796441e+002
2.646397e+002, 1.799041e+002
2.651218e+002, 1.801328e+002
2.656039e+002, 1.801452e+002
2.660861e+002, 1.799434e+002
2.665682e+002, 1.796323e+002
2.670503e+002, 1.792924e+002
2.675324e+002, 1.788936e+002
2.680145e+002, 1.786904e+002
2.684966e+002, 1.788597e+002
2.689788e+002, 1.790220e+002
2.694609e+002, 1.789261e+002
2.699430e+002, 1.786318e+002
2.704251e+002, 1.784119e+002
2.709072e+002, 1.785159e+002
2.713893e+002, 1.789623e+002
2.718715e+002, 1.791598e+002
2.723536e+002, 1.789617e+002
2.728357e+002, 1.787168e+002
2.733178e+002, 1.785829e+002
2.737999e+002, 1.785273e+002
2.742820e+002, 1.784213e+002
2.747642e+002, 1.781623e+002
2.752463e+002, 1.777724e+002
2.757284e+002, 1.775431e+002
2.762105e+002, 1.775729e+002
2.766926e+002, 1.776127e+002
2.771747e+002, 1.776242e+002
2.776568e+002, 1.775830e+002
2.781389e+002, 1.774396e+002
2.786211e+002, 1.771591e+002
2.791032e+002, 1.767683e+002
2.795853e+002, 1.763730e+002
2.800674e+002, 1.760060e+002
2.805495e+002, 1.755980e+002
2.810316e+002, 1.750512e+002
2.815138e+002, 1.744611e+002
2.819959e+002, 1.740078e+002
2.824780e+002, 1.737787e+002
2.829601e+002, 1.736997e+002
2.834422e+002, 1.736029e+002
2.839243e+002, 1.735565e+002
2.844065e+002, 1.733781e+002
2.848886e+002, 1.729408e+002
2.853707e+002, 1.723726e+002
2.858528e+002, 1.718466e+002
2.863349e+002, 1.714147e+002
2.868170e+002, 1.710660e+002
2.872992e+002, 1.707962e+002
2.877813e+002, 1.706335e+002
2.882634e+002, 1.704500e+002
2.887455e+002, 1.702240e+002
2.892276e+002, 1.699688e+002
2.897097e+002, 1.696961e+002
2.901919e+002, 1.694075e+002
2.906740e+002, 1.691174e+002
2.911561e+002, 1.688392e+002
2.916382e+002, 1.685747e+002
2.921203e+002, 1.683166e+002
2.926024e+002, 1.680281e+002
2.930846e+002, 1.677657e+002
2.935667e+002, 1.676015e+002
2.940488e+002, 1.675422e+002
2.945309e+002, 1.675078e+002
2.950130e+002, 1.674199e+002
2.954951e+002, 1.672783e+002
2.959773e+002, 1.671778e+002
2.964594e+002, 1.670871e+002
2.969415e+002, 1.670626e+002
2.974236e+002, 1.671834e+002
2.979057e+002, 1.674381e+002
2.983878e+002, 1.677051e+002
2.988700e+002, 1.679244e+002
2.993521e+002, 1.680763e+002
2.998342e+002, 1.681187e+002
3.003163e+002, 1.678555e+002
3.007984e+002, 1.676610e+002
3.012805e+002, 1.678308e+002
3.017627e+002, 1.682899e+002
3.022448e+002, 1.687055e+002
3.027269e+002, 1.689326e+002
3.032090e+002, 1.689693e+002
3.036911e+002, 1.688172e+002
3.041732e+002, 1.682228e+002
3.046554e+002, 1.678578e+002
3.051375e+002, 1.681838e+002
3.056196e+002, 1.689799e+002
3.061017e+002, 1.697140e+002
3.065838e+002, 1.702344e+002
3.070659e+002, 1.705113e+002
3.075481e+002, 1.704067e+002
3.080302e+002, 1.698366e+002
3.085123e+002, 1.693257e+002
3.089944e+002, 1.690224e+002
3.094765e+002, 1.688920e+002
3.099586e+002, 1.689464e+002
3.104408e+002, 1.692343e+002
3.109229e+002, 1.695048e+002
3.114050e+002, 1.692847e+002
3.118871e+002, 1.685363e+002
3.123692e+002, 1.681707e+002
3.128513e+002, 1.687742e+002
3.133335e+002, 1.696644e+002
3.138156e+002, 1.699854e+002
3.142977e+002, 1.695996e+002
3.147798e+002, 1.690164e+002
3.152619e+002, 1.686490e+002
3.157440e+002, 1.684974e+002
3.162262e+002, 1.684442e+002
3.167083e+002, 1.687885e+002
3.171904e+002, 1.690092e+002
3.176725e+002, 1.685036e+002
3.181546e+002, 1.673146e+002
3.186367e+002, 1.662148e+002
3.191188e+002, 1.657139e+002
3.196010e+002, 1.657460e+002
3.200831e+002, 1.657948e+002
3.205652e+002, 1.659981e+002
3.210473e+002, 1.660837e+002
3.215294e+002, 1.658534e+002
3.220115e+002, 1.653693e+002
3.224937e+002, 1.648322e+002
3.229758e+002, 1.643159e+002
3.234579e+002, 1.638306e+002
3.239400e+002, 1.634230e+002
3.244221e+002, 1.631383e+002
3.249042e+002, 1.628190e+002
3.253864e+002, 1.623021e+002
3.258685e+002, 1.617273e+002
3.263506e+002, 1.614250e+002
3.268327e+002, 1.615575e+002
3.273148e+002, 1.617699e+002
3.277969e+002, 1.614352e+002
3.282791e+002, 1.604581e+002
3.287612e+002, 1.596216e+002
3.292433e+002, 1.591127e+002
3.297254e+002, 1.588003e+002
3.302075e+002, 1.585798e+002
3.306896e+002, 1.584335e+002
3.311718e+002, 1.582609e+002
3.316539e+002, 1.579378e+002
3.321360e+002, 1.574500e+002
3.326181e+002, 1.570496e+002
3.331002e+002, 1.567518e+002
3.335823e+002, 1.565403e+002
3.340645e+002, 1.564918e+002
3.345466e+002, 1.565662e+002
3.350287e+002, 1.565011e+002
3.355108e+002, 1.560715e+002
3.359929e+002, 1.553400e+002
3.364750e+002, 1.548111e+002
3.369572e+002, 1.544413e+002
3.374393e+002, 1.542805e+002
3.379214e+002, 1.545689e+002
3.384035e+002, 1.550896e+002
3.388856e+002, 1.552779e+002
3.393677e+002, 1.548202e+002
3.398499e+002, 1.539952e+002
3.403320e+002, 1.535815e+002
3.408141e+002, 1.538451e+002
3.412962e+002, 1.539710e+002
3.417783e+002, 1.536654e+002
3.422604e+002, 1.531874e+002
3.427426e+002, 1.528809e+002
3.432247e+002, 1.528452e+002
3.437068e+002, 1.529393e+002
3.441889e+002, 1.529906e+002
3.446710e+002, 1.530284e+002
3.451531e+002, 1.528914e+002
3.456353e+002, 1.522583e+002
3.461174e+002, 1.516739e+002
3.465995e+002, 1.517029e+002
3.470816e+002, 1.523081e+002
3.475637e+002, 1.528896e+002
3.480458e+002, 1.528958e+002
3.485280e+002, 1.522910e+002
3.490101e+002, 1.517659e+002
3.494922e+002, 1.512200e+002
3.499743e+002, 1.508367e+002
3.504564e+002, 1.507544e+002
3.509385e+002, 1.509019e+002
3.514207e+002, 1.511317e+002
3.519028e+002, 1.513690e+002
3.523849e+002, 1.515976e+002
3.528670e+002, 1.517454e+002
3.533491e+002, 1.518511e+002
3.538312e+002, 1.518299e+002
3.543134e+002, 1.515117e+002
3.547955e+002, 1.511240e+002
3.552776e+002, 1.509681e+002
3.557597e+002, 1.511431e+002
3.562418e+002, 1.514542e+002
3.567239e+002, 1.515780e+002
3.572061e+002, 1.514604e+002
3.576882e+002, 1.512352e+002
3.581703e+002, 1.507377e+002
3.586524e+002, 1.502637e+002
3.591345e+002, 1.500061e+002
3.596166e+002, 1.499825e+002
3.600987e+002, 1.501200e+002
3.605808e+002, 1.503688e+002
3.610630e+002, 1.507511e+002
3.615451e+002, 1.510228e+002
3.620272e+002, 1.510773e+002
3.625093e+002, 1.511382e+002
3.629914e+002, 1.513161e+002
3.634735e+002, 1.515530e+002
3.639557e+002, 1.517292e+002
3.644378e+002, 1.517711e+002
3.649199e+002, 1.517023e+002
3.654020e+002, 1.516239e+002
3.658841e+002, 1.515765e+002
3.663662e+002, 1.514583e+002
3.668484e+002, 1.511452e+002
3.673305e+002, 1.508172e+002
3.678126e+002, 1.506897e+002
3.682947e+002, 1.508198e+002
3.687768e+002, 1.510299e+002
3.692589e+002, 1.510193e+002
3.697411e+002, 1.506580e+002
3.702232e+002, 1.504319e+002
3.707053e+002, 1.503867e+002
3.711874e+002, 1.504440e+002
3.716695e+002, 1.506602e+002
3.721516e+002, 1.509704e+002
3.726338e+002, 1.511808e+002
3.731159e+002, 1.511222e+002
3.735980e+002, 1.507991e+002
3.740801e+002, 1.503335e+002
3.745622e+002, 1.495502e+002
3.750443e+002, 1.488366e+002
3.755265e+002, 1.481811e+002
3.760086e+002, 1.476999e+002
3.764907e+002, 1.476399e+002
3.769728e+002, 1.482112e+002
3.774549e+002, 1.490509e+002
3.779370e+002, 1.492998e+002
3.784192e+002, 1.487321e+002
3.789013e+002, 1.482110e+002
3.793834e+002, 1.479044e+002
3.798655e+002, 1.477769e+002
3.803476e+002, 1.478974e+002
3.808297e+002, 1.482733e+002
3.813119e+002, 1.486214e+002
3.817940e+002, 1.485640e+002
3.822761e+002, 1.481137e+002
3.827582e+002, 1.479298e+002
3.832403e+002, 1.483902e+002
3.837224e+002, 1.487786e+002
3.842046e+002, 1.485242e+002
3.846867e+002, 1.477792e+002
3.851688e+002, 1.470997e+002
3.856509e+002, 1.468112e+002
3.861330e+002, 1.467939e+002
3.866151e+002, 1.467930e+002
3.870973e+002, 1.468140e+002
3.875794e+002, 1.468274e+002
3.880615e+002, 1.467061e+002
3.885436e+002, 1.465978e+002
3.890257e+002, 1.467665e+002
3.895078e+002, 1.474107e+002
3.899900e+002, 1.480668e+002
3.904721e+002, 1.483081e+002
3.909542e+002, 1.481747e+002
3.914363e+002, 1.479568e+002
3.919184e+002, 1.476856e+002
3.924005e+002, 1.474492e+002
3.928827e+002, 1.473875e+002
3.933648e+002, 1.475113e+002
3.938469e+002, 1.476253e+002
3.943290e+002, 1.477172e+002
3.948111e+002, 1.477331e+002
3.952932e+002, 1.475278e+002
3.957754e+002, 1.470576e+002
3.962575e+002, 1.466069e+002
3.967396e+002, 1.464706e+002
3.972217e+002, 1.466149e+002
3.977038e+002, 1.465921e+002
3.981859e+002, 1.463358e+002
3.986681e+002, 1.459489e+002
3.991501e+002, 1.453202e+002
3.996323e+002, 1.445763e+002
4.001144e+002, 1.441940e+002
4.005965e+002, 1.444763e+002
4.010786e+002, 1.451685e+002
4.015607e+002, 1.455255e+002
4.020428e+002, 1.453764e+002
4.025250e+002, 1.452506e+002
4.030071e+002, 1.453262e+002
4.034892e+002, 1.454313e+002
4.039713e+002, 1.453475e+002
4.044534e+002, 1.450317e+002
4.049355e+002, 1.446197e+002
4.054177e+002, 1.442544e+002
4.058998e+002, 1.439266e+002
4.063819e+002, 1.437263e+002
4.068640e+002, 1.439023e+002
4.073461e+002, 1.439559e+002
4.078282e+002, 1.435177e+002
4.083104e+002, 1.427470e+002
4.087925e+002, 1.420558e+002
4.092746e+002, 1.416933e+002
4.097567e+002, 1.416161e+002
4.102388e+002, 1.416197e+002
4.107209e+002, 1.418851e+002
4.112031e+002, 1.419910e+002
4.116852e+002, 1.418470e+002
4.121673e+002, 1.415630e+002
4.126494e+002, 1.411592e+002
4.131315e+002, 1.406763e+002
4.136136e+002, 1.403003e+002
4.140958e+002, 1.403782e+002
4.145779e+002, 1.411472e+002
4.150600e+002, 1.414137e+002
4.155421e+002, 1.406569e+002
4.160242e+002, 1.398684e+002
4.165063e+002, 1.394140e+002
4.169885e+002, 1.392388e+002
4.174706e+002, 1.391377e+002
4.179527e+002, 1.389779e+002
4.184348e+002, 1.387952e+002
4.189169e+002, 1.387096e+002
4.193990e+002, 1.387377e+002
4.198812e+002, 1.388322e+002
4.203633e+002, 1.391112e+002
4.208454e+002, 1.393751e+002
4.213275e+002, 1.394391e+002
4.218096e+002, 1.392587e+002
4.222917e+002, 1.389054e+002
4.227739e+002, 1.383216e+002
4.232560e+002, 1.375324e+002
4.237381e+002, 1.370586e+002
4.242202e+002, 1.370735e+002
4.247023e+002, 1.373025e+002
4.251844e+002, 1.376479e+002
4.256666e+002, 1.380413e+002
4.261487e+002, 1.382254e+002
4.266308e+002, 1.379674e+002
4.271129e+002, 1.374946e+002
4.275950e+002, 1.371445e+002
4.280771e+002, 1.369239e+002
4.285593e+002, 1.366996e+002
4.290414e+002, 1.363630e+002
4.295235e+002, 1.360033e+002
4.300056e+002, 1.358098e+002
4.304877e+002, 1.358410e+002
4.309698e+002, 1.359084e+002
4.314520e+002, 1.359992e+002
4.319341e+002, 1.360496e+002
4.324162e+002, 1.358892e+002
4.328983e+002, 1.354563e+002
4.333804e+002, 1.349530e+002
4.338625e+002, 1.345917e+002
4.343447e+002, 1.343856e+002
4.348268e+002, 1.343036e+002
4.353089e+002, 1.345830e+002
4.357910e+002, 1.347831e+002
4.362731e+002, 1.344570e+002
4.367552e+002, 1.337633e+002
4.372374e+002, 1.332892e+002
4.377195e+002, 1.334057e+002
4.382016e+002, 1.339373e+002
4.386837e+002, 1.342146e+002
4.391658e+002, 1.339859e+002
4.396479e+002, 1.338218e+002
4.401301e+002, 1.338106e+002
4.406122e+002, 1.338523e+002
4.410943e+002, 1.338640e+002
4.415764e+002, 1.338243e+002
4.420585e+002, 1.337442e+002
4.425406e+002, 1.336241e+002
4.430227e+002, 1.334472e+002
4.435049e+002, 1.333568e+002
4.439870e+002, 1.334487e+002
4.444691e+002, 1.335304e+002
4.449512e+002, 1.335844e+002
4.454333e+002, 1.335801e+002
4.459154e+002, 1.334680e+002
4.463976e+002, 1.332169e+002
4.468797e+002, 1.328746e+002
4.473618e+002, 1.325220e+002
4.478439e+002, 1.321115e+002
4.483260e+002, 1.318343e+002
4.488081e+002, 1.318390e+002
4.492903e+002, 1.319044e+002
4.497724e+002, 1.318917e+002
4.502545e+002, 1.317953e+002
4.507366e+002, 1.317009e+002
4.512187e+002, 1.316045e+002
4.517008e+002, 1.315499e+002
4.521830e+002, 1.317937e+002
4.526651e+002, 1.324900e+002
4.531472e+002, 1.331051e+002
4.536293e+002, 1.332523e+002
4.541114e+002, 1.331343e+002
4.545935e+002, 1.330192e+002
4.550757e+002, 1.329865e+002
4.555578e+002, 1.329208e+002
4.560399e+002, 1.326815e+002
4.565220e+002, 1.323141e+002
4.570041e+002, 1.320168e+002
4.574862e+002, 1.318549e+002
4.579684e+002, 1.317611e+002
4.584505e+002, 1.316373e+002
4.589326e+002, 1.314795e+002
4.594147e+002, 1.314090e+002
4.598968e+002, 1.315415e+002
4.603789e+002, 1.317038e+002
4.608611e+002, 1.317726e+002
4.613432e+002, 1.317368e+002
4.618253e+002, 1.315752e+002
4.623074e+002, 1.312367e+002
4.627895e+002, 1.308008e+002
4.632716e+002, 1.305964e+002
4.637538e+002, 1.309130e+002
4.642359e+002, 1.310667e+002
4.647180e+002, 1.308882e+002
4.652001e+002, 1.305607e+002
4.656822e+002, 1.302792e+002
4.661643e+002, 1.300757e+002
4.666465e+002, 1.298362e+002
4.671286e+002, 1.294090e+002
4.676107e+002, 1.287477e+002
4.680928e+002, 1.283134e+002
4.685749e+002, 1.282338e+002
4.690570e+002, 1.282498e+002
4.695392e+002, 1.283839e+002
4.700213e+002, 1.285470e+002
4.705034e+002, 1.286026e+002
4.709855e+002, 1.284864e+002
4.714676e+002, 1.283057e+002
4.719497e+002, 1.282824e+002
4.724319e+002, 1.284851e+002
4.729140e+002, 1.285421e+002
4.733961e+002, 1.282090e+002
4.738782e+002, 1.278801e+002
4.743603e+002, 1.278408e+002
4.748424e+002, 1.280286e+002
4.753246e+002, 1.281390e+002
4.758067e+002, 1.278917e+002
4.762888e+002, 1.274815e+002
4.767709e+002, 1.273428e+002
4.772530e+002, 1.275052e+002
4.777351e+002, 1.277667e+002
4.782173e+002, 1.281393e+002
4.786994e+002, 1.284964e+002
4.791815e+002, 1.286391e+002
4.796636e+002, 1.285223e+002
4.801457e+002, 1.283282e+002
4.806278e+002, 1.280756e+002
4.811100e+002, 1.278245e+002
4.815920e+002, 1.276675e+002
4.820742e+002, 1.276188e+002
4.825563e+002, 1.277076e+002
4.830384e+002, 1.279997e+002
4.835205e+002, 1.284905e+002
4.840026e+002, 1.288750e+002
4.844847e+002, 1.291772e+002
4.849669e+002, 1.293542e+002
4.854490e+002, 1.292534e+002
4.859311e+002, 1.290442e+002
4.864132e+002, 1.290613e+002
4.868953e+002, 1.294269e+002
4.873774e+002, 1.299018e+002
4.878596e+002, 1.300747e+002
4.883417e+002, 1.297753e+002
4.888238e+002, 1.296425e+002
4.893059e+002, 1.297341e+002
4.897880e+002, 1.299076e+002
4.902701e+002, 1.301555e+002
4.907523e+002, 1.304274e+002
4.912344e+002, 1.306250e+002
4.917165e+002, 1.306768e+002
4.921986e+002, 1.306498e+002
4.926807e+002, 1.307503e+002
4.931628e+002, 1.310640e+002
4.936450e+002, 1.312684e+002
4.941271e+002, 1.312477e+002
4.946092e+002, 1.311278e+002
4.950913e+002, 1.309137e+002
4.955734e+002, 1.306400e+002
4.960555e+002, 1.304855e+002
4.965377e+002, 1.307135e+002
4.970198e+002, 1.311444e+002
4.975019e+002, 1.312040e+002
4.979840e+002, 1.307746e+002
4.984661e+002, 1.304853e+002
4.989482e+002, 1.307897e+002
4.994304e+002, 1.314200e+002
4.999125e+002, 1.318687e+002
5.003946e+002, 1.321153e+002
5.008767e+002, 1.321726e+002
5.013588e+002, 1.318948e+002
5.018409e+002, 1.314732e+002
5.023231e+002, 1.313035e+002
5.028052e+002, 1.314706e+002
5.032873e+002, 1.316185e+002
5.037694e+002, 1.313625e+002
5.042515e+002, 1.306818e+002
5.047336e+002, 1.303235e+002
5.052158e+002, 1.304464e+002
5.056979e+002, 1.306738e+002
5.061800e+002, 1.310196e+002
5.066621e+002, 1.313398e+002
5.071442e+002, 1.313481e+002
5.076263e+002, 1.309595e+002
5.081085e+002, 1.305000e+002
5.085906e+002, 1.305159e+002
5.090727e+002, 1.312132e+002
5.095548e+002, 1.316393e+002
5.100369e+002, 1.316725e+002
5.105190e+002, 1.315520e+002
5.110012e+002, 1.312510e+002
5.114833e+002, 1.308764e+002
5.119654e+002, 1.306171e+002
5.124475e+002, 1.305846e+002
5.129296e+002, 1.306530e+002
5.134117e+002, 1.305505e+002
5.138939e+002, 1.302310e+002
5.143760e+002, 1.301080e+002
5.148581e+002, 1.304225e+002
5.153402e+002, 1.308138e+002
5.158223e+002, 1.309968e+002
5.163044e+002, 1.309863e+002
5.167866e+002, 1.309045e+002
5.172687e+002, 1.306868e+002
5.177508e+002, 1.304925e+002
5.182329e+002, 1.306477e+002
5.187150e+002, 1.311134e+002
5.191971e+002, 1.312973e+002
5.196793e+002, 1.308053e+002
5.201614e+002, 1.300004e+002
5.206435e+002, 1.297590e+002
5.211256e+002, 1.302680e+002
5.216077e+002, 1.306571e+002
5.220898e+002, 1.307605e+002
5.225720e+002, 1.306997e+002
5.230541e+002, 1.305486e+002
5.235362e+002, 1.303295e+002
5.240183e+002, 1.300176e+002
5.245004e+002, 1.295481e+002
5.249825e+002, 1.290368e+002
5.254647e+002, 1.291174e+002
5.259468e+002, 1.305737e+002
5.264289e+002, 1.314980e+002
5.269110e+002, 1.314892e+002
5.273931e+002, 1.310832e+002
5.278752e+002, 1.305402e+002
5.283574e+002, 1.299978e+002
5.288395e+002, 1.297254e+002
5.293216e+002, 1.301450e+002
5.298037e+002, 1.310707e+002
5.302858e+002, 1.312744e+002
5.307679e+002, 1.304047e+002
5.312501e+002, 1.296266e+002
5.317322e+002, 1.295586e+002
5.322143e+002, 1.297838e+002
5.326964e+002, 1.298718e+002
5.331785e+002, 1.297334e+002
5.336606e+002, 1.296445e+002
5.341428e+002, 1.298304e+002
5.346249e+002, 1.301852e+002
5.351070e+002, 1.305087e+002
5.355891e+002, 1.307800e+002
5.360712e+002, 1.309673e+002
5.365533e+002, 1.310766e+002
5.370355e+002, 1.310758e+002
5.375176e+002, 1.308201e+002
5.379997e+002, 1.298714e+002
5.384818e+002, 1.292243e+002
5.389639e+002, 1.294055e+002
5.394460e+002, 1.299280e+002
5.399282e+002, 1.301976e+002
5.404103e+002, 1.300895e+002
5.408924e+002, 1.298264e+002
5.413745e+002, 1.296289e+002
5.418566e+002, 1.294981e+002
5.423387e+002, 1.293948e+002
5.428209e+002, 1.293494e+002
5.433029e+002, 1.292966e+002
5.437850e+002, 1.291830e+002
5.442672e+002, 1.290749e+002
5.447493e+002, 1.290569e+002
5.452314e+002, 1.291486e+002
5.457135e+002, 1.292812e+002
5.461956e+002, 1.294146e+002
5.466777e+002, 1.295405e+002
5.471599e+002, 1.295516e+002
5.476420e+002, 1.294368e+002
5.481241e+002, 1.292199e+002
5.486062e+002, 1.287586e+002
5.490883e+002, 1.282383e+002
5.495704e+002, 1.279842e+002
5.500526e+002, 1.281331e+002
5.505347e+002, 1.283783e+002
5.510168e+002, 1.286137e+002
5.514989e+002, 1.287921e+002
5.519810e+002, 1.287844e+002
5.524631e+002, 1.285604e+002
5.529453e+002, 1.282782e+002
5.534274e+002, 1.280870e+002
5.539095e+002, 1.279864e+002
5.543916e+002, 1.278336e+002
5.548737e+002, 1.274565e+002
5.553558e+002, 1.272386e+002
5.558380e+002, 1.275726e+002
5.563201e+002, 1.279925e+002
5.568022e+002, 1.277765e+002
5.572843e+002, 1.268113e+002
5.577664e+002, 1.258029e+002
5.582485e+002, 1.256177e+002
5.587307e+002, 1.262921e+002
5.592128e+002, 1.267637e+002
5.596949e+002, 1.269768e+002
5.601770e+002, 1.270459e+002
5.606591e+002, 1.269478e+002
5.611412e+002, 1.267762e+002
5.616234e+002, 1.266628e+002
5.621055e+002, 1.266501e+002
5.625876e+002, 1.265923e+002
5.630697e+002, 1.262680e+002
5.635518e+002, 1.257897e+002
5.640339e+002, 1.255839e+002
5.645161e+002, 1.257507e+002
5.649982e+002, 1.259140e+002
5.654803e+002, 1.257394e+002
5.659624e+002, 1.253415e+002
5.664445e+002, 1.252318e+002
5.669266e+002, 1.256393e+002
5.674088e+002, 1.260057e+002
5.678909e+002, 1.261194e+002
5.683730e+002, 1.260970e+002
5.688551e+002, 1.260867e+002
5.693372e+002, 1.261127e+002
5.698193e+002, 1.261082e+002
5.703015e+002, 1.260137e+002
5.707836e+002, 1.258300e+002
5.712657e+002, 1.255721e+002
5.717478e+002, 1.249605e+002
5.722299e+002, 1.246642e+002
5.727120e+002, 1.250542e+002
5.731942e+002, 1.256216e+002
5.736763e+002, 1.258430e+002
5.741584e+002, 1.256675e+002
5.746405e+002, 1.255034e+002
5.751226e+002, 1.258189e+002
5.756047e+002, 1.264556e+002
5.760869e+002, 1.267182e+002
5.765690e+002, 1.265302e+002
5.770511e+002, 1.262803e+002
5.775332e+002, 1.260832e+002
5.780153e+002, 1.259743e+002
5.784974e+002, 1.260282e+002
5.789796e+002, 1.262958e+002
5.794617e+002, 1.265000e+002
5.799438e+002, 1.265248e+002
5.804259e+002, 1.264391e+002
5.809080e+002, 1.262790e+002
5.813901e+002, 1.260708e+002
5.818723e+002, 1.259022e+002
5.823544e+002, 1.258252e+002
5.828365e+002, 1.258357e+002
5.833186e+002, 1.259193e+002
5.838007e+002, 1.261427e+002
5.842828e+002, 1.263426e+002
5.847650e+002, 1.265437e+002
5.852471e+002, 1.267014e+002
5.857292e+002, 1.267373e+002
5.862113e+002, 1.266987e+002
5.866934e+002, 1.267234e+002
5.871755e+002, 1.268997e+002
5.876577e+002, 1.271884e+002
5.881398e+002, 1.275774e+002
5.886219e+002, 1.281281e+002
5.891040e+002, 1.283325e+002
5.895861e+002, 1.278538e+002
5.900682e+002, 1.272183e+002
5.905504e+002, 1.268729e+002
5.910325e+002, 1.267972e+002
5.915146e+002, 1.268857e+002
5.919967e+002, 1.272754e+002
5.924788e+002, 1.276744e+002
5.929609e+002, 1.278070e+002
5.934431e+002, 1.277387e+002
5.939252e+002, 1.276791e+002
5.944073e+002, 1.277057e+002
5.948894e+002, 1.277379e+002
5.953715e+002, 1.276405e+002
5.958536e+002, 1.273373e+002
5.963358e+002, 1.272606e+002
5.968179e+002, 1.278618e+002
5.973000e+002, 1.281571e+002
5.977821e+002, 1.275648e+002
5.982642e+002, 1.265351e+002
5.987463e+002, 1.256710e+002
5.992285e+002, 1.251844e+002
5.997106e+002, 1.249860e+002
6.001927e+002, 1.250890e+002
6.006748e+002, 1.254734e+002
6.011569e+002, 1.255570e+002
6.016390e+002, 1.252247e+002
6.021212e+002, 1.247827e+002
6.026033e+002, 1.243055e+002
6.030854e+002, 1.238593e+002
6.035675e+002, 1.235711e+002
6.040496e+002, 1.234864e+002
6.045317e+002, 1.234634e+002
6.050139e+002, 1.235803e+002
6.054960e+002, 1.236485e+002
6.059781e+002, 1.232662e+002
6.064602e+002, 1.224474e+002
6.069423e+002, 1.217325e+002
6.074244e+002, 1.215182e+002
6.079066e+002, 1.217154e+002
6.083887e+002, 1.219317e+002
6.088708e+002, 1.224830e+002
6.093529e+002, 1.225764e+002
6.098350e+002, 1.217172e+002
6.103171e+002, 1.207861e+002
6.107993e+002, 1.204605e+002
6.112814e+002, 1.206542e+002
6.117635e+002, 1.208253e+002
6.122456e+002, 1.205851e+002
6.127277e+002, 1.201908e+002
6.132098e+002, 1.203160e+002
6.136920e+002, 1.210411e+002
6.141741e+002, 1.212701e+002
6.146562e+002, 1.203993e+002
6.151383e+002, 1.193904e+002
6.156204e+002, 1.193693e+002
6.161025e+002, 1.201479e+002
6.165847e+002, 1.205944e+002
6.170668e+002, 1.201756e+002
6.175489e+002, 1.196581e+002
6.180310e+002, 1.195267e+002
6.185131e+002, 1.196534e+002
6.189952e+002, 1.197798e+002
6.194774e+002, 1.198264e+002
6.199595e+002, 1.198265e+002
6.204416e+002, 1.198025e+002
6.209237e+002, 1.197435e+002
6.214058e+002, 1.198296e+002
6.218879e+002, 1.202583e+002
6.223701e+002, 1.205918e+002
6.228522e+002, 1.207667e+002
6.233343e+002, 1.207896e+002
6.238164e+002, 1.206295e+002
6.242985e+002, 1.202960e+002
6.247806e+002, 1.199210e+002
6.252628e+002, 1.195735e+002
6.257448e+002, 1.192724e+002
6.262269e+002, 1.190808e+002
6.267090e+002, 1.190047e+002
6.271912e+002, 1.189630e+002
6.276733e+002, 1.188588e+002
6.281554e+002, 1.188244e+002
6.286375e+002, 1.192154e+002
6.291196e+002, 1.201728e+002
6.296017e+002, 1.208103e+002
6.300839e+002, 1.207415e+002
6.305660e+002, 1.205427e+002
6.310481e+002, 1.206062e+002
6.315302e+002, 1.208688e+002
6.320123e+002, 1.210913e+002
6.324944e+002, 1.211627e+002
6.329766e+002, 1.212111e+002
6.334587e+002, 1.214801e+002
6.339408e+002, 1.220325e+002
6.344229e+002, 1.224901e+002
6.349050e+002, 1.228234e+002
6.353871e+002, 1.230849e+002
6.358693e+002, 1.232983e+002
6.363514e+002, 1.234623e+002
6.368335e+002, 1.235872e+002
6.373156e+002, 1.236893e+002
6.377977e+002, 1.236873e+002
6.382798e+002, 1.232938e+002
6.387620e+002, 1.228266e+002
6.392441e+002, 1.230321e+002
6.397262e+002, 1.239647e+002
6.402083e+002, 1.248273e+002
6.406904e+002, 1.251131e+002
6.411725e+002, 1.249351e+002
6.416547e+002, 1.246641e+002
6.421368e+002, 1.240295e+002
6.426189e+002, 1.237151e+002
6.431010e+002, 1.240376e+002
6.435831e+002, 1.243966e+002
6.440652e+002, 1.243755e+002
6.445474e+002, 1.240686e+002
6.450295e+002, 1.237844e+002
6.455116e+002, 1.236750e+002
6.459937e+002, 1.237095e+002
6.464758e+002, 1.238903e+002
6.469579e+002, 1.242155e+002
6.474401e+002, 1.244563e+002
6.479222e+002, 1.245911e+002
6.484043e+002, 1.246058e+002
6.488864e+002, 1.243459e+002
6.493685e+002, 1.239551e+002
6.498506e+002, 1.239116e+002
6.503328e+002, 1.245840e+002
6.508149e+002, 1.250934e+002
6.512970e+002, 1.249619e+002
6.517791e+002, 1.245547e+002
6.522612e+002, 1.242436e+002
6.527433e+002, 1.241045e+002
6.532255e+002, 1.241314e+002
6.537076e+002, 1.243331e+002
6.541897e+002, 1.246665e+002
6.546718e+002, 1.249760e+002
6.551539e+002, 1.252496e+002
6.556360e+002, 1.255238e+002
6.561182e+002, 1.258503e+002
6.566003e+002, 1.261348e+002
6.570824e+002, 1.263044e+002
6.575645e+002, 1.263847e+002
6.580466e+002, 1.264494e+002
6.585287e+002, 1.264825e+002
6.590109e+002, 1.265796e+002
6.594930e+002, 1.268411e+002
6.599751e+002, 1.272381e+002
6.604572e+002, 1.277426e+002
6.609393e+002, 1.283531e+002
6.614214e+002, 1.288787e+002
6.619036e+002, 1.291250e+002
6.623857e+002, 1.291284e+002
6.628678e+002, 1.292755e+002
6.633499e+002, 1.296651e+002
6.638320e+002, 1.300736e+002
6.643141e+002, 1.304793e+002
6.647963e+002, 1.309032e+002
6.652784e+002, 1.313115e+002
6.657605e+002, 1.317468e+002
6.662426e+002, 1.323507e+002
6.667247e+002, 1.332639e+002
6.672068e+002, 1.343136e+002
6.676890e+002, 1.351937e+002
6.681711e+002, 1.359088e+002
6.686532e+002, 1.366181e+002
6.691353e+002, 1.373575e+002
6.696174e+002, 1.380818e+002
6.700995e+002, 1.386638e+002
6.705817e+002, 1.391523e+002
6.710638e+002, 1.399501e+002
6.715459e+002, 1.412796e+002
6.720280e+002, 1.426495e+002
6.725101e+002, 1.439539e+002
6.729922e+002, 1.451792e+002
6.734744e+002, 1.462890e+002
6.739565e+002, 1.472993e+002
6.744386e+002, 1.482966e+002
6.749207e+002, 1.493442e+002
6.754028e+002, 1.504433e+002
6.758849e+002, 1.516201e+002
6.763671e+002, 1.529021e+002
6.768492e+002, 1.541527e+002
6.773313e+002, 1.554856e+002
6.778134e+002, 1.566207e+002
6.782955e+002, 1.572936e+002
6.787776e+002, 1.575945e+002
6.792598e+002, 1.578330e+002
6.797419e+002, 1.581169e+002
6.802240e+002, 1.583070e+002
6.807061e+002, 1.583791e+002
6.811882e+002, 1.582828e+002
6.816703e+002, 1.579421e+002
6.821525e+002, 1.573445e+002
6.826346e+002, 1.564807e+002
6.831167e+002, 1.553013e+002
6.835988e+002, 1.538982e+002
6.840809e+002, 1.527448e+002
6.845630e+002, 1.520728e+002
6.850452e+002, 1.511491e+002
6.855273e+002, 1.495818e+002
6.860094e+002, 1.480026e+002
6.864915e+002, 1.468905e+002
6.869736e+002, 1.460785e+002
6.874557e+002, 1.450011e+002
6.879379e+002, 1.433289e+002
6.884200e+002, 1.415398e+002
6.889021e+002, 1.400009e+002
6.893842e+002, 1.386822e+002
6.898663e+002, 1.375743e+002
6.903484e+002, 1.366626e+002
6.908306e+002, 1.357716e+002
6.913127e+002, 1.347483e+002
6.917948e+002, 1.336335e+002
6.922769e+002, 1.326174e+002
6.927590e+002, 1.318123e+002
6.932411e+002, 1.309264e+002
6.937233e+002, 1.298947e+002
6.942054e+002, 1.288391e+002
6.946875e+002, 1.277258e+002
6.951696e+002, 1.266521e+002
6.956517e+002, 1.258582e+002
6.961339e+002, 1.255028e+002
6.966160e+002, 1.252919e+002
6.970981e+002, 1.249094e+002
6.975802e+002, 1.243978e+002
6.980623e+002, 1.239184e+002
6.985444e+002, 1.235050e+002
6.990266e+002, 1.229966e+002
6.995087e+002, 1.222139e+002
6.999908e+002, 1.212887e+002
7.004729e+002, 1.207419e+002
7.009550e+002, 1.210043e+002
7.014371e+002, 1.209887e+002
7.019193e+002, 1.205013e+002
7.024014e+002, 1.198985e+002
7.028835e+002, 1.193095e+002
7.033656e+002, 1.187922e+002
7.038477e+002, 1.184208e+002
7.043298e+002, 1.182384e+002
7.048120e+002, 1.181332e+002
7.052941e+002, 1.179471e+002
7.057762e+002, 1.177160e+002
7.062583e+002, 1.176548e+002
7.067404e+002, 1.178170e+002
7.072225e+002, 1.179091e+002
7.077046e+002, 1.177240e+002
7.081867e+002, 1.173817e+002
7.086688e+002, 1.172090e+002
7.091509e+002, 1.173565e+002
7.096331e+002, 1.172784e+002
7.101152e+002, 1.166800e+002
7.105973e+002, 1.160961e+002
7.110794e+002, 1.158610e+002
7.115615e+002, 1.158627e+002
7.120436e+002, 1.158497e+002
7.125258e+002, 1.157328e+002
7.130079e+002, 1.156664e+002
7.134900e+002, 1.158827e+002
7.139721e+002, 1.163205e+002
7.144542e+002, 1.166876e+002
7.149363e+002, 1.170012e+002
7.154185e+002, 1.170416e+002
7.159006e+002, 1.165502e+002
7.163827e+002, 1.158910e+002
7.168648e+002, 1.157111e+002
7.173469e+002, 1.160832e+002
7.178290e+002, 1.164315e+002
7.183112e+002, 1.168462e+002
7.187933e+002, 1.170800e+002
7.192754e+002, 1.168796e+002
7.197575e+002, 1.164753e+002
7.202396e+002, 1.162051e+002
7.207217e+002, 1.161496e+002
7.212039e+002, 1.161207e+002
7.216860e+002, 1.158517e+002
7.221681e+002, 1.154786e+002
7.226502e+002, 1.156551e+002
7.231323e+002, 1.164793e+002
7.236144e+002, 1.170181e+002
7.240966e+002, 1.168540e+002
7.245787e+002, 1.164736e+002
7.250608e+002, 1.165445e+002
7.255429e+002, 1.170498e+002
7.260250e+002, 1.170574e+002
7.265071e+002, 1.157416e+002
7.269893e+002, 1.148531e+002
7.274714e+002, 1.154214e+002
7.279535e+002, 1.165129e+002
7.284356e+002, 1.171181e+002
7.289177e+002, 1.170986e+002
7.293998e+002, 1.168095e+002
7.298820e+002, 1.164304e+002
7.303641e+002, 1.160960e+002
7.308462e+002, 1.162398e+002
7.313283e+002, 1.168888e+002
7.318104e+002, 1.171518e+002
7.322925e+002, 1.166988e+002
7.327747e+002, 1.161953e+002
7.332568e+002, 1.162013e+002
7.337389e+002, 1.166285e+002
7.342210e+002, 1.169633e+002
7.347031e+002, 1.172052e+002
7.351852e+002, 1.173522e+002
7.356674e+002, 1.173247e+002
7.361495e+002, 1.172648e+002
7.366316e+002, 1.172493e+002
7.371137e+002, 1.173081e+002
7.375958e+002, 1.174884e+002
7.380779e+002, 1.178221e+002
7.385601e+002, 1.182215e+002
7.390422e+002, 1.185947e+002
7.395243e+002, 1.189323e+002
7.400064e+002, 1.191260e+002
7.404885e+002, 1.191424e+002
7.409706e+002, 1.191212e+002
7.414528e+002, 1.191090e+002
7.419349e+002, 1.191304e+002
7.424170e+002, 1.192528e+002
7.428991e+002, 1.195093e+002
7.433812e+002, 1.197451e+002
7.438633e+002, 1.198750e+002
7.443455e+002, 1.200585e+002
7.448276e+002, 1.204914e+002
7.453097e+002, 1.209915e+002
7.457918e+002, 1.212355e+002
7.462739e+002, 1.211528e+002
7.467560e+002, 1.210402e+002
7.472382e+002, 1.211731e+002
7.477203e+002, 1.215008e+002
7.482024e+002, 1.219113e+002
7.486845e+002, 1.224099e+002
7.491666e+002, 1.228168e+002
7.496487e+002, 1.230751e+002
7.501309e+002, 1.232104e+002
7.506130e+002, 1.232328e+002
7.510951e+002, 1.231339e+002
7.515772e+002, 1.230575e+002
7.520593e+002, 1.229985e+002
7.525414e+002, 1.229640e+002
7.530236e+002, 1.228405e+002
7.535057e+002, 1.228228e+002
7.539878e+002, 1.232400e+002
7.544699e+002, 1.239628e+002
7.549520e+002, 1.244300e+002
7.554341e+002, 1.242505e+002
7.559163e+002, 1.238227e+002
7.563984e+002, 1.237270e+002
7.568805e+002, 1.238758e+002
7.573626e+002, 1.238778e+002
7.578447e+002, 1.236640e+002
7.583268e+002, 1.233892e+002
7.588090e+002, 1.231397e+002
7.592911e+002, 1.229352e+002
7.597732e+002, 1.228504e+002
7.602553e+002, 1.231064e+002
7.607374e+002, 1.230773e+002
7.612195e+002, 1.224039e+002
7.617017e+002, 1.218492e+002
7.621838e+002, 1.219805e+002
7.626659e+002, 1.223966e+002
7.631480e+002, 1.223836e+002
7.636301e+002, 1.217290e+002
7.641122e+002, 1.210727e+002
7.645944e+002, 1.208989e+002
7.650765e+002, 1.210163e+002
7.655586e+002, 1.212384e+002
7.660407e+002, 1.214987e+002
7.665228e+002, 1.215139e+002
7.670049e+002, 1.211688e+002
7.674871e+002, 1.206058e+002
7.679692e+002, 1.199791e+002
7.684513e+002, 1.192723e+002
7.689334e+002, 1.187822e+002
7.694155e+002, 1.185628e+002
7.698976e+002, 1.184715e+002
7.703798e+002, 1.184980e+002
7.708619e+002, 1.186162e+002
7.713440e+002, 1.189711e+002
7.718261e+002, 1.194477e+002
7.723082e+002, 1.195043e+002
7.727903e+002, 1.186323e+002
7.732725e+002, 1.177168e+002
7.737546e+002, 1.173619e+002
7.742367e+002, 1.173695e+002
7.747188e+002, 1.175118e+002
7.752009e+002, 1.177122e+002
7.756830e+002, 1.178413e+002
7.761652e+002, 1.178082e+002
7.766473e+002, 1.176830e+002
7.771294e+002, 1.176481e+002
7.776115e+002, 1.177316e+002
7.780936e+002, 1.176975e+002
7.785757e+002, 1.174113e+002
7.790579e+002, 1.172339e+002
7.795400e+002, 1.175520e+002
7.800221e+002, 1.180194e+002
7.805042e+002, 1.179683e+002
7.809863e+002, 1.172088e+002
7.814684e+002, 1.167887e+002
7.819506e+002, 1.173363e+002
7.824327e+002, 1.179237e+002
7.829148e+002, 1.178618e+002
7.833969e+002, 1.174603e+002
7.838790e+002, 1.172250e+002
7.843611e+002, 1.173106e+002
7.848433e+002, 1.176811e+002
7.853254e+002, 1.184956e+002
7.858075e+002, 1.194509e+002
7.862896e+002, 1.194384e+002
7.867717e+002, 1.184391e+002
7.872538e+002, 1.178203e+002
7.877360e+002, 1.179769e+002
7.882181e+002, 1.184355e+002
7.887002e+002, 1.188110e+002
7.891823e+002, 1.191107e+002
7.896644e+002, 1.193835e+002
7.901465e+002, 1.196753e+002
7.906286e+002, 1.198776e+002
7.911107e+002, 1.198947e+002
7.915928e+002, 1.199011e+002
7.920750e+002, 1.200475e+002
7.925571e+002, 1.202651e+002
7.930392e+002, 1.204289e+002
7.935213e+002, 1.205088e+002
7.940034e+002, 1.203923e+002
7.944855e+002, 1.197672e+002
7.949677e+002, 1.189661e+002
7.954498e+002, 1.186905e+002
7.959319e+002, 1.188996e+002
7.964140e+002, 1.190892e+002
7.968961e+002, 1.190589e+002
7.973782e+002, 1.188353e+002
7.978604e+002, 1.184477e+002
7.983425e+002, 1.178900e+002
7.988246e+002, 1.171931e+002
7.993067e+002, 1.160544e+002
7.997888e+002, 1.153180e+002
8.002709e+002, 1.157809e+002
8.007531e+002, 1.162581e+002
8.012352e+002, 1.157034e+002
8.017173e+002, 1.143166e+002
8.021994e+002, 1.132041e+002
8.026815e+002, 1.127619e+002
8.031636e+002, 1.124954e+002
8.036458e+002, 1.121884e+002
8.041279e+002, 1.118996e+002
8.046100e+002, 1.117916e+002
8.050921e+002, 1.117834e+002
8.055742e+002, 1.115362e+002
8.060563e+002, 1.108562e+002
8.065385e+002, 1.100254e+002
8.070206e+002, 1.094820e+002
8.075027e+002, 1.092113e+002
8.079848e+002, 1.090877e+002
8.084669e+002, 1.091803e+002
8.089490e+002, 1.090019e+002
8.094312e+002, 1.082053e+002
8.099133e+002, 1.072086e+002
8.103954e+002, 1.066520e+002
8.108775e+002, 1.066169e+002
8.113596e+002, 1.065141e+002
8.118417e+002, 1.064270e+002
8.123239e+002, 1.061699e+002
8.128060e+002, 1.056147e+002
8.132881e+002, 1.049233e+002
8.137702e+002, 1.041389e+002
8.142523e+002, 1.033535e+002
8.147344e+002, 1.028357e+002
8.152166e+002, 1.028051e+002
8.156987e+002, 1.029103e+002
8.161808e+002, 1.027919e+002
8.166629e+002, 1.025336e+002
8.171450e+002, 1.023099e+002
8.176271e+002, 1.021426e+002
8.181093e+002, 1.020144e+002
8.185914e+002, 1.019240e+002
8.190735e+002, 1.018091e+002
8.195556e+002, 1.014946e+002
8.200377e+002, 1.008916e+002
8.205198e+002, 1.006979e+002
8.210020e+002, 1.012673e+002
8.214841e+002, 1.015669e+002
8.219662e+002, 1.009484e+002
8.224483e+002, 1.000529e+002
8.229304e+002, 9.957204e+001
8.234125e+002, 9.950368e+001
8.238947e+002, 9.952444e+001
8.243768e+002, 9.963796e+001
8.248589e+002, 9.975044e+001
8.253410e+002, 9.984649e+001
8.258231e+002, 9.990567e+001
8.263052e+002, 9.991373e+001
8.267874e+002, 9.986470e+001
8.272695e+002, 9.974464e+001
8.277516e+002, 9.953943e+001
8.282337e+002, 9.928853e+001
8.287158e+002, 9.900784e+001
8.291979e+002, 9.872515e+001
8.296801e+002, 9.856425e+001
8.301622e+002, 9.853664e+001
8.306443e+002, 9.858811e+001
8.311264e+002, 9.871737e+001
8.316085e+002, 9.883608e+001
8.320906e+002, 9.879398e+001
8.325728e+002, 9.857090e+001
8.330549e+002, 9.832802e+001
8.335370e+002, 9.798530e+001
8.340191e+002, 9.774189e+001
8.345012e+002, 9.766396e+001
8.349833e+002, 9.767911e+001
8.354655e+002, 9.774024e+001
8.359476e+002, 9.784231e+001
8.364297e+002, 9.798537e+001
8.369118e+002, 9.821297e+001
8.373939e+002, 9.841322e+001
8.378760e+002, 9.854617e+001
8.383582e+002, 9.860688e+001
8.388403e+002, 9.847842e+001
8.393224e+002, 9.826848e+001
8.398045e+002, 9.839666e+001
8.402866e+002, 9.906518e+001
8.407687e+002, 9.970287e+001
8.412509e+002, 9.937503e+001
8.417330e+002, 9.828104e+001
8.422151e+002, 9.756808e+001
8.426972e+002, 9.726997e+001
8.431793e+002, 9.717639e+001
8.436614e+002, 9.728126e+001
8.441436e+002, 9.735922e+001
8.446257e+002, 9.706145e+001
8.451078e+002, 9.640765e+001
8.455899e+002, 9.633211e+001
8.460720e+002, 9.741928e+001
8.465541e+002, 9.823071e+001
8.470363e+002, 9.860350e+001
8.475184e+002, 9.870894e+001
8.480005e+002, 9.855904e+001
8.484826e+002, 9.824397e+001
8.489647e+002, 9.791675e+001
8.494468e+002, 9.759129e+001
8.499290e+002, 9.736839e+001
8.504111e+002, 9.740876e+001
8.508932e+002, 9.749268e+001
8.513753e+002, 9.736435e+001
8.518574e+002, 9.709995e+001
8.523395e+002, 9.688098e+001
8.528217e+002, 9.677328e+001
8.533038e+002, 9.678205e+001
8.537859e+002, 9.693224e+001
8.542680e+002, 9.718829e+001
8.547501e+002, 9.748472e+001
8.552322e+002, 9.782243e+001
8.557144e+002, 9.795211e+001
8.561965e+002, 9.779394e+001
8.566786e+002, 9.753963e+001
8.571607e+002, 9.728892e+001
8.576428e+002, 9.708210e+001
8.581249e+002, 9.705820e+001
8.586071e+002, 9.733170e+001
8.590892e+002, 9.753918e+001
8.595713e+002, 9.772078e+001
8.600534e+002, 9.779051e+001
8.605355e+002, 9.757474e+001
8.610176e+002, 9.731100e+001
8.614998e+002, 9.730325e+001
8.619819e+002, 9.757587e+001
8.624640e+002, 9.787413e+001
8.629461e+002, 9.825164e+001
8.634282e+002, 9.845660e+001
8.639103e+002, 9.813634e+001
8.643925e+002, 9.763245e+001
8.648746e+002, 9.745901e+001
8.653567e+002, 9.761749e+001
8.658388e+002, 9.776208e+001
8.663209e+002, 9.768724e+001
8.668030e+002, 9.753696e+001
8.672852e+002, 9.759351e+001
8.677673e+002, 9.778539e+001
8.682494e+002, 9.762693e+001
8.687315e+002, 9.707358e+001
8.692136e+002, 9.682301e+001
8.696957e+002, 9.723579e+001
8.701779e+002, 9.781849e+001
8.706600e+002, 9.787564e+001
8.711421e+002, 9.740050e+001
8.716242e+002, 9.725307e+001
8.721063e+002, 9.779076e+001
8.725884e+002, 9.802592e+001
8.730705e+002, 9.748573e+001
8.735526e+002, 9.688518e+001
8.740347e+002, 9.661694e+001
8.745168e+002, 9.662244e+001
8.749990e+002, 9.674968e+001
8.754811e+002, 9.703033e+001
8.759632e+002, 9.725997e+001
8.764453e+002, 9.740791e+001
8.769274e+002, 9.743950e+001
8.774095e+002, 9.722797e+001
8.778917e+002, 9.691999e+001
8.783738e+002, 9.674776e+001
8.788559e+002, 9.676611e+001
8.793380e+002, 9.688641e+001
8.798201e+002, 9.705415e+001
8.803022e+002, 9.726851e+001
8.807844e+002, 9.757224e+001
8.812665e+002, 9.792432e+001
8.817486e+002, 9.814658e+001
8.822307e+002, 9.821886e+001
8.827128e+002, 9.830800e+001
8.831949e+002, 9.852553e+001
8.836771e+002, 9.879527e+001
8.841592e+002, 9.898648e+001
8.846413e+002, 9.912276e+001
8.851234e+002, 9.896568e+001
8.856055e+002, 9.835302e+001
8.860876e+002, 9.784117e+001
8.865698e+002, 9.760454e+001
8.870519e+002, 9.756795e+001
8.875340e+002, 9.769356e+001
8.880161e+002, 9.797047e+001
8.884982e+002, 9.823070e+001
8.889803e+002, 9.851595e+001
8.894625e+002, 9.871851e+001
8.899446e+002, 9.877343e+001
8.904267e+002, 9.878528e+001
8.909088e+002, 9.883546e+001
8.913909e+002, 9.889497e+001
8.918730e+002, 9.888379e+001
8.923552e+002, 9.877707e+001
8.928373e+002, 9.868095e+001
8.933194e+002, 9.870726e+001
8.938015e+002, 9.874186e+001
8.942836e+002, 9.860471e+001
8.947657e+002, 9.839734e+001
8.952479e+002, 9.834936e+001
8.957300e+002, 9.849628e+001
8.962121e+002, 9.871127e+001
8.966942e+002, 9.891296e+001
8.971763e+002, 9.907693e+001
8.976584e+002, 9.910984e+001
8.981406e+002, 9.903442e+001
8.986227e+002, 9.912969e+001
8.991048e+002, 9.944170e+001
8.995869e+002, 9.964287e+001
9.000690e+002, 9.955979e+001
9.005511e+002, 9.933481e+001
9.010333e+002, 9.915212e+001
9.015154e+002, 9.900471e+001
9.019975e+002, 9.908146e+001
9.024796e+002, 9.964555e+001
9.029617e+002, 9.993970e+001
9.034438e+002, 9.944605e+001
9.039260e+002, 9.901310e+001
9.044081e+002, 9.937193e+001
9.048902e+002, 1.002156e+002
9.053723e+002, 1.007495e+002
9.058544e+002, 1.008325e+002
9.063365e+002, 1.007683e+002
9.068187e+002, 1.004418e+002
9.073008e+002, 1.001874e+002
9.077829e+002, 1.002549e+002
9.082650e+002, 1.004940e+002
9.087471e+002, 1.007757e+002
9.092292e+002, 1.010217e+002
9.097114e+002, 1.009978e+002
9.101935e+002, 1.002989e+002
9.106756e+002, 9.969726e+001
9.111577e+002, 1.002297e+002
9.116398e+002, 1.013183e+002
9.121219e+002, 1.019073e+002
9.126041e+002, 1.019467e+002
9.130862e+002, 1.018810e+002
9.135683e+002, 1.019204e+002
9.140504e+002, 1.019283e+002
9.145325e+002, 1.016576e+002
9.150146e+002, 1.011892e+002
9.154968e+002, 1.009718e+002
9.159789e+002, 1.010091e+002
9.164610e+002, 1.012995e+002
9.169431e+002, 1.019370e+002
9.174252e+002, 1.023780e+002
9.179073e+002, 1.020906e+002
9.183895e+002, 1.013267e+002
9.188716e+002, 1.010135e+002
9.193537e+002, 1.013078e+002
9.198358e+002, 1.016609e+002
9.203179e+002, 1.022375e+002
9.208000e+002, 1.026298e+002
9.212822e+002, 1.025067e+002
9.217643e+002, 1.022262e+002
9.222464e+002, 1.022310e+002
9.227285e+002, 1.025055e+002
9.232106e+002, 1.025576e+002
9.236927e+002, 1.020200e+002
9.241749e+002, 1.016561e+002
9.246570e+002, 1.018166e+002
9.251391e+002, 1.021085e+002
9.256212e+002, 1.022304e+002
9.261033e+002, 1.022361e+002
9.265854e+002, 1.023198e+002
9.270676e+002, 1.025433e+002
9.275497e+002, 1.026892e+002
9.280318e+002, 1.024784e+002
9.285139e+002, 1.022429e+002
9.289960e+002, 1.024310e+002
9.294781e+002, 1.028089e+002
9.299603e+002, 1.028638e+002
9.304424e+002, 1.025682e+002
9.309245e+002, 1.023250e+002
9.314066e+002, 1.023972e+002
9.318887e+002, 1.026122e+002
9.323708e+002, 1.025935e+002
9.328530e+002, 1.024770e+002
9.333351e+002, 1.030173e+002
9.338172e+002, 1.041912e+002
9.342993e+002, 1.049011e+002
9.347814e+002, 1.047093e+002
9.352635e+002, 1.041913e+002
9.357457e+002, 1.039483e+002
9.362278e+002, 1.039423e+002
9.367099e+002, 1.039650e+002
9.371920e+002, 1.040288e+002
9.376741e+002, 1.040617e+002
9.381563e+002, 1.040437e+002
9.386384e+002, 1.040173e+002
9.391205e+002, 1.039813e+002
9.396026e+002, 1.039718e+002
9.400847e+002, 1.040781e+002
9.405668e+002, 1.043449e+002
9.410490e+002, 1.044626e+002
9.415311e+002, 1.043479e+002
9.420132e+002, 1.042063e+002
9.424953e+002, 1.039913e+002
9.429774e+002, 1.038399e+002
9.434595e+002, 1.039989e+002
9.439417e+002, 1.042831e+002
9.444238e+002, 1.041689e+002
9.449059e+002, 1.034163e+002
9.453880e+002, 1.028013e+002
9.458701e+002, 1.025707e+002
9.463522e+002, 1.025930e+002
9.468344e+002, 1.029688e+002
9.473165e+002, 1.034414e+002
9.477986e+002, 1.036541e+002
9.482807e+002, 1.035972e+002
9.487628e+002, 1.035315e+002
9.492449e+002, 1.035698e+002
9.497271e+002, 1.037155e+002
9.502092e+002, 1.040651e+002
9.506913e+002, 1.044707e+002
9.511734e+002, 1.046949e+002
9.516555e+002, 1.047620e+002
9.521376e+002, 1.048001e+002
9.526198e+002, 1.048585e+002
9.531019e+002, 1.049507e+002
9.535840e+002, 1.050940e+002
9.540661e+002, 1.052751e+002
9.545482e+002, 1.055152e+002
9.550303e+002, 1.057811e+002
9.555124e+002, 1.058258e+002
9.559945e+002, 1.056149e+002
9.564766e+002, 1.053407e+002
9.569587e+002, 1.050898e+002
9.574409e+002, 1.049193e+002
9.579230e+002, 1.049298e+002
9.584051e+002, 1.051188e+002
9.588872e+002, 1.053468e+002
9.593693e+002, 1.056146e+002
9.598514e+002, 1.059488e+002
9.603336e+002, 1.064449e+002
9.608157e+002, 1.067941e+002
9.612978e+002, 1.067008e+002
9.617799e+002, 1.063254e+002
9.622620e+002, 1.061342e+002
9.627441e+002, 1.062540e+002
9.632263e+002, 1.061634e+002
9.637084e+002, 1.055996e+002
9.641905e+002, 1.051840e+002
9.646726e+002, 1.051634e+002
9.651547e+002, 1.052870e+002
9.656368e+002, 1.053987e+002
9.661190e+002, 1.054744e+002
9.666011e+002, 1.054205e+002
9.670832e+002, 1.050369e+002
9.675653e+002, 1.049075e+002
9.680474e+002, 1.054593e+002
9.685295e+002, 1.059704e+002
9.690117e+002, 1.060109e+002
9.694938e+002, 1.057688e+002
9.699759e+002, 1.054759e+002
9.704580e+002, 1.051822e+002
9.709401e+002, 1.049027e+002
9.714222e+002, 1.045825e+002
9.719044e+002, 1.043802e+002
9.723865e+002, 1.044541e+002
9.728686e+002, 1.046506e+002
9.733507e+002, 1.048856e+002
9.738328e+002, 1.050854e+002
9.743149e+002, 1.051084e+002
9.747971e+002, 1.049264e+002
9.752792e+002, 1.047021e+002
9.757613e+002, 1.044902e+002
9.762434e+002, 1.043894e+002
9.767255e+002, 1.047392e+002
9.772076e+002, 1.052328e+002
9.776898e+002, 1.051208e+002
9.781719e+002, 1.044282e+002
9.786540e+002, 1.037118e+002
9.791361e+002, 1.032345e+002
9.796182e+002, 1.030463e+002
9.801003e+002, 1.033362e+002
9.805825e+002, 1.039190e+002
9.810646e+002, 1.041406e+002
9.815467e+002, 1.040436e+002
9.820288e+002, 1.039803e+002
9.825109e+002, 1.040205e+002
9.829930e+002, 1.040237e+002
9.834752e+002, 1.038921e+002
9.839573e+002, 1.036997e+002
9.844394e+002, 1.035801e+002
9.849215e+002, 1.035337e+002
9.854036e+002, 1.035901e+002
9.858857e+002, 1.038112e+002
9.863679e+002, 1.037184e+002
9.868500e+002, 1.030917e+002
9.873321e+002, 1.024093e+002
9.878142e+002, 1.020181e+002
9.882963e+002, 1.019072e+002
9.887784e+002, 1.020864e+002
9.892606e+002, 1.027180e+002
9.897427e+002, 1.030532e+002
9.902248e+002, 1.029793e+002
9.907069e+002, 1.028199e+002
9.911890e+002, 1.026272e+002
9.916711e+002, 1.024397e+002
9.921533e+002, 1.022858e+002
9.926354e+002, 1.021675e+002
9.931175e+002, 1.020979e+002
9.935996e+002, 1.020820e+002
9.940817e+002, 1.021068e+002
9.945638e+002, 1.022457e+002
9.950460e+002, 1.023380e+002
9.955281e+002, 1.023012e+002
9.960102e+002, 1.022017e+002
9.964923e+002, 1.021097e+002
9.969744e+002, 1.020245e+002
9.974565e+002, 1.019119e+002
9.979387e+002, 1.017607e+002
9.984208e+002, 1.015897e+002
9.989029e+002, 1.012475e+002
9.993850e+002, 1.010507e+002
9.998671e+002, 1.013837e+002
1.000349e+003, 1.018925e+002
1.000831e+003, 1.019734e+002
1.001313e+003, 1.016149e+002
1.001796e+003, 1.015106e+002
1.002278e+003, 1.022101e+002
1.002760e+003, 1.028262e+002
1.003242e+003, 1.028123e+002
1.003724e+003, 1.025511e+002
1.004206e+003, 1.022826e+002
1.004688e+003, 1.020891e+002
1.005170e+003, 1.021200e+002
1.005653e+003, 1.023723e+002
1.006135e+003, 1.024843e+002
1.006617e+003, 1.021213e+002
1.007099e+003, 1.016663e+002
1.007581e+003, 1.013976e+002
1.008063e+003, 1.013134e+002
1.008545e+003, 1.015535e+002
1.009027e+003, 1.019644e+002
1.009509e+003, 1.020880e+002
1.009992e+003, 1.017871e+002
1.010474e+003, 1.014717e+002
1.010956e+003, 1.015194e+002
1.011438e+003, 1.017430e+002
1.011920e+003, 1.019397e+002
1.012402e+003, 1.020684e+002
1.012884e+003, 1.019390e+002
1.013366e+003, 1.016184e+002
1.013849e+003, 1.015046e+002
1.014331e+003, 1.017678e+002
1.014813e+003, 1.021587e+002
1.015295e+003, 1.024720e+002
1.015777e+003, 1.026475e+002
1.016259e+003, 1.023891e+002
1.016741e+003, 1.018328e+002
1.017223e+003, 1.017162e+002
1.017705e+003, 1.020985e+002
1.018188e+003, 1.023050e+002
1.018670e+003, 1.019778e+002
1.019152e+003, 1.015135e+002
1.019634e+003, 1.014472e+002
1.020116e+003, 1.017207e+002
1.020598e+003, 1.021762e+002
1.021080e+003, 1.027900e+002
1.021562e+003, 1.028407e+002
1.022044e+003, 1.021665e+002
1.022527e+003, 1.016587e+002
1.023009e+003, 1.018607e+002
1.023491e+003, 1.023605e+002
1.023973e+003, 1.024806e+002
1.024455e+003, 1.022524e+002
1.024937e+003, 1.022442e+002
1.025419e+003, 1.025102e+002
1.025901e+003, 1.024718e+002
1.026384e+003, 1.019174e+002
1.026866e+003, 1.015558e+002
1.027348e+003, 1.019086e+002
1.027830e+003, 1.025440e+002
1.028312e+003, 1.026234e+002
1.028794e+003, 1.021132e+002
1.029276e+003, 1.019242e+002
1.029758e+003, 1.021402e+002
1.030240e+003, 1.024102e+002
1.030723e+003, 1.027624e+002
1.031205e+003, 1.029151e+002
1.031687e+003, 1.025659e+002
1.032169e+003, 1.020290e+002
1.032651e+003, 1.019858e+002
1.033133e+003, 1.025312e+002
1.033615e+003, 1.027476e+002
1.034097e+003, 1.024248e+002
1.034579e+003, 1.022341e+002
1.035062e+003, 1.023662e+002
1.035544e+003, 1.025610e+002
1.036026e+003, 1.026933e+002
1.036508e+003, 1.027415e+002
1.036990e+003, 1.026194e+002
1.037472e+003, 1.022509e+002
1.037954e+003, 1.021468e+002
1.038436e+003, 1.026464e+002
1.038919e+003, 1.028609e+002
1.039401e+003, 1.023924e+002
1.039883e+003, 1.018661e+002
1.040365e+003, 1.016981e+002
1.040847e+003, 1.017493e+002
1.041329e+003, 1.016880e+002
1.041811e+003, 1.014334e+002
1.042293e+003, 1.014980e+002
1.042776e+003, 1.022010e+002
1.043258e+003, 1.027906e+002
1.043740e+003, 1.032377e+002
1.044222e+003, 1.034236e+002
1.044704e+003, 1.030663e+002
1.045186e+003, 1.024614e+002
1.045668e+003, 1.022118e+002
1.046150e+003, 1.024202e+002
1.046632e+003, 1.025199e+002
1.047115e+003, 1.022873e+002
1.047597e+003, 1.021647e+002
1.048079e+003, 1.023600e+002
1.048561e+003, 1.026014e+002
1.049043e+003, 1.026574e+002
1.049525e+003, 1.026401e+002
1.050007e+003, 1.028400e+002
1.050489e+003, 1.033280e+002
1.050971e+003, 1.035309e+002
1.051454e+003, 1.030109e+002
1.051936e+003, 1.026365e+002
1.052418e+003, 1.027723e+002
1.052900e+003, 1.030384e+002
1.053382e+003, 1.032501e+002
1.053864e+003, 1.033541e+002
1.054346e+003, 1.032646e+002
1.054828e+003, 1.029653e+002
1.055311e+003, 1.026701e+002
1.055793e+003, 1.023629e+002
1.056275e+003, 1.021673e+002
1.056757e+003, 1.021124e+002
1.057239e+003, 1.021975e+002
1.057721e+003, 1.025460e+002
1.058203e+003, 1.029815e+002
1.058685e+003, 1.032239e+002
1.059167e+003, 1.032295e+002
1.059650e+003, 1.031110e+002
1.060132e+003, 1.026870e+002
1.060614e+003, 1.024397e+002
1.061096e+003, 1.027432e+002
1.061578e+003, 1.031035e+002
1.062060e+003, 1.031300e+002
1.062542e+003, 1.029551e+002
1.063024e+003, 1.027865e+002
1.063506e+003, 1.026748e+002
1.063989e+003, 1.027319e+002
1.064471e+003, 1.031595e+002
1.064953e+003, 1.035334e+002
1.065435e+003, 1.037523e+002
1.065917e+003, 1.037791e+002
1.066399e+003, 1.033325e+002
1.066881e+003, 1.028025e+002
1.067363e+003, 1.029618e+002
1.067846e+003, 1.037889e+002
1.068328e+003, 1.041353e+002
1.068810e+003, 1.031299e+002
1.069292e+003, 1.023486e+002
1.069774e+003, 1.028278e+002
1.070256e+003, 1.034591e+002
1.070738e+003, 1.033499e+002
1.071220e+003, 1.028918e+002
1.071703e+003, 1.026640e+002
1.072185e+003, 1.027483e+002
1.072667e+003, 1.029881e+002
1.073149e+003, 1.034119e+002
1.073631e+003, 1.037832e+002
1.074113e+003, 1.039757e+002
1.074595e+003, 1.040928e+002
1.075077e+003, 1.042523e+002
1.075559e+003, 1.043554e+002
1.076042e+003, 1.041897e+002
1.076524e+003, 1.038171e+002
1.077006e+003, 1.036150e+002
1.077488e+003, 1.037971e+002
1.077970e+003, 1.038849e+002
1.078452e+003, 1.034826e+002
1.078934e+003, 1.031009e+002
1.079416e+003, 1.031112e+002
1.079898e+003, 1.033206e+002
1.080380e+003, 1.035816e+002
1.080863e+003, 1.038016e+002
1.081345e+003, 1.037611e+002
1.081827e+003, 1.033154e+002
1.082309e+003, 1.029987e+002
1.082791e+003, 1.031389e+002
1.083273e+003, 1.033763e+002
1.083755e+003, 1.035887e+002
1.084237e+003, 1.037076e+002
1.084720e+003, 1.035436e+002
1.085202e+003, 1.032522e+002
1.085684e+003, 1.033356e+002
1.086166e+003, 1.039957e+002
1.086648e+003, 1.042946e+002
1.087130e+003, 1.033662e+002
1.087612e+003, 1.025608e+002
1.088094e+003, 1.027530e+002
1.088577e+003, 1.032354e+002
1.089059e+003, 1.034041e+002
1.089541e+003, 1.033002e+002
1.090023e+003, 1.030781e+002
1.090505e+003, 1.027689e+002
1.090987e+003, 1.026754e+002
1.091469e+003, 1.030764e+002
1.091951e+003, 1.034966e+002
1.092433e+003, 1.038032e+002
1.092916e+003, 1.039843e+002
1.093398e+003, 1.040061e+002
1.093880e+003, 1.039065e+002
1.094362e+003, 1.036843e+002
1.094844e+003, 1.033648e+002
1.095326e+003, 1.032142e+002
1.095808e+003, 1.035485e+002
1.096290e+003, 1.037212e+002
1.096772e+003, 1.034168e+002
1.097255e+003, 1.029978e+002
1.097737e+003, 1.025373e+002
1.098219e+003, 1.021972e+002
1.098701e+003, 1.022597e+002
1.099183e+003, 1.026683e+002
1.099665e+003, 1.029328e+002
1.100147e+003, 1.029464e+002
1.100629e+003, 1.027945e+002
1.101112e+003, 1.022725e+002
1.101594e+003, 1.018574e+002
1.102076e+003, 1.018571e+002
1.102558e+003, 1.020243e+002
1.103040e+003, 1.020930e+002
1.103522e+003, 1.020858e+002
1.104004e+003, 1.021632e+002
1.104486e+003, 1.023592e+002
1.104969e+003, 1.026063e+002
1.105451e+003, 1.030945e+002
1.105933e+003, 1.033679e+002
1.106415e+003, 1.031706e+002
1.106897e+003, 1.027886e+002
1.107379e+003, 1.023469e+002
1.107861e+003, 1.019252e+002
1.108343e+003, 1.016801e+002
1.108825e+003, 1.016285e+002
1.109307e+003, 1.017154e+002
1.109790e+003, 1.020898e+002
1.110272e+003, 1.023828e+002
1.110754e+003, 1.025103e+002
1.111236e+003, 1.025467e+002
1.111718e+003, 1.025005e+002
1.112200e+003, 1.024107e+002
1.112682e+003, 1.023526e+002
1.113164e+003, 1.023328e+002
1.113647e+003, 1.022310e+002
1.114129e+003, 1.019792e+002
1.114611e+003, 1.017591e+002
1.115093e+003, 1.015414e+002
1.115575e+003, 1.014183e+002
1.116057e+003, 1.015029e+002
1.116539e+003, 1.016339e+002
1.117021e+003, 1.016136e+002
1.117504e+003, 1.014663e+002
1.117986e+003, 1.013762e+002
1.118468e+003, 1.014082e+002
1.118950e+003, 1.013426e+002
1.119432e+003, 1.011651e+002
1.119914e+003, 1.008970e+002
1.120396e+003, 1.004326e+002
1.120878e+003, 1.000694e+002
1.121360e+003, 1.001246e+002
1.121843e+003, 1.004286e+002
1.122325e+003, 1.004547e+002
1.122807e+003, 1.001180e+002
1.123289e+003, 1.000499e+002
1.123771e+003, 1.003623e+002
1.124253e+003, 1.005616e+002
1.124735e+003, 1.005310e+002
1.125217e+003, 1.004019e+002
1.125699e+003, 1.002393e+002
1.126182e+003, 1.000653e+002
1.126664e+003, 9.990994e+001
1.127146e+003, 9.977681e+001
1.127628e+003, 9.972176e+001
1.128110e+003, 9.974068e+001
1.128592e+003, 9.994034e+001
1.129074e+003, 1.003918e+002
1.129556e+003, 1.005347e+002
1.130039e+003, 1.000712e+002
1.130521e+003, 9.943576e+001
1.131003e+003, 9.909091e+001
1.131485e+003, 9.902370e+001
1.131967e+003, 9.928918e+001
1.132449e+003, 9.985491e+001
1.132931e+003, 1.001277e+002
1.133413e+003, 1.000794e+002
1.133896e+003, 9.987883e+001
1.134378e+003, 9.957884e+001
1.134860e+003, 9.953004e+001
1.135342e+003, 1.000541e+002
1.135824e+003, 1.007303e+002
1.136306e+003, 1.007177e+002
1.136788e+003, 1.002133e+002
1.137270e+003, 9.994847e+001
1.137752e+003, 9.990600e+001
1.138234e+003, 1.000319e+002
1.138717e+003, 1.002587e+002
1.139199e+003, 1.001385e+002
1.139681e+003, 9.943850e+001
1.140163e+003, 9.888084e+001
1.140645e+003, 9.946427e+001
1.141127e+003, 1.005460e+002
1.141609e+003, 1.009914e+002
1.142091e+003, 1.009991e+002
1.142574e+003, 1.009263e+002
1.143056e+003, 1.008433e+002
1.143538e+003, 1.007932e+002
1.144020e+003, 1.007875e+002
1.144502e+003, 1.007971e+002
1.144984e+003, 1.007934e+002
1.145466e+003, 1.008149e+002
1.145948e+003, 1.010087e+002
1.146431e+003, 1.011642e+002
1.146913e+003, 1.008979e+002
1.147395e+003, 1.004427e+002
1.147877e+003, 1.002955e+002
1.148359e+003, 1.004492e+002
1.148841e+003, 1.004469e+002
1.149323e+003, 1.000499e+002
1.149805e+003, 9.976488e+001
1.150287e+003, 9.995927e+001
1.150770e+003, 1.003259e+002
1.151252e+003, 1.008891e+002
1.151734e+003, 1.013075e+002
1.152216e+003, 1.010055e+002
1.152698e+003, 1.003218e+002
1.153180e+003, 1.001351e+002
1.153662e+003, 1.006263e+002
1.154144e+003, 1.009691e+002
1.154626e+003, 1.008371e+002
1.155109e+003, 1.005856e+002
1.155591e+003, 1.000839e+002
1.156073e+003, 9.977116e+001
1.156555e+003, 1.001026e+002
1.157037e+003, 1.006639e+002
1.157519e+003, 1.008879e+002
1.158001e+003, 1.008001e+002
1.158483e+003, 1.008372e+002
1.158966e+003, 1.011593e+002
1.159448e+003, 1.013528e+002
1.159930e+003, 1.013530e+002
1.160412e+003, 1.012745e+002
1.160894e+003, 1.010991e+002
1.161376e+003, 1.009062e+002
1.161858e+003, 1.006946e+002
1.162340e+003, 1.005412e+002
1.162822e+003, 1.006340e+002
1.163305e+003, 1.009996e+002
1.163787e+003, 1.013538e+002
1.164269e+003, 1.018145e+002
1.164751e+003, 1.018533e+002
1.165233e+003, 1.011936e+002
1.165715e+003, 1.007334e+002
1.166197e+003, 1.009501e+002
1.166679e+003, 1.014182e+002
1.167161e+003, 1.016598e+002
1.167644e+003, 1.017052e+002
1.168126e+003, 1.016783e+002
1.168608e+003, 1.015795e+002
1.169090e+003, 1.013073e+002
1.169572e+003, 1.008437e+002
1.170054e+003, 1.008567e+002
1.170536e+003, 1.015410e+002
1.171018e+003, 1.021135e+002
1.171500e+003, 1.020144e+002
1.171983e+003, 1.016512e+002
1.172465e+003, 1.017204e+002
1.172947e+003, 1.020450e+002
1.173429e+003, 1.020149e+002
1.173911e+003, 1.017119e+002
1.174393e+003, 1.013606e+002
1.174875e+003, 1.010482e+002
1.175357e+003, 1.010501e+002
1.175840e+003, 1.014418e+002
1.176322e+003, 1.018040e+002
1.176804e+003, 1.017623e+002
1.177286e+003, 1.015897e+002
1.177768e+003, 1.016228e+002
1.178250e+003, 1.017434e+002
1.178732e+003, 1.018124e+002
1.179214e+003, 1.018173e+002
1.179697e+003, 1.017232e+002
1.180179e+003, 1.015623e+002
1.180661e+003, 1.014753e+002
1.181143e+003, 1.015299e+002
1.181625e+003, 1.015826e+002
1.182107e+003, 1.014472e+002
1.182589e+003, 1.014007e+002
1.183071e+003, 1.017070e+002
1.183553e+003, 1.021139e+002
1.184036e+003, 1.024289e+002
1.184518e+003, 1.026363e+002
1.185000e+003, 1.027544e+002
1.185482e+003, 1.027851e+002
1.185964e+003, 1.027198e+002
1.186446e+003, 1.024157e+002
1.186928e+003, 1.022449e+002
1.187410e+003, 1.023160e+002
1.187892e+003, 1.024751e+002
1.188375e+003, 1.027672e+002
1.188857e+003, 1.030219e+002
1.189339e+003, 1.029894e+002
1.189821e+003, 1.028261e+002
1.190303e+003, 1.030441e+002
1.190785e+003, 1.037963e+002
1.191267e+003, 1.039964e+002
1.191749e+003, 1.034201e+002
1.192232e+003, 1.028962e+002
1.192714e+003, 1.024971e+002
1.193196e+003, 1.023645e+002
1.193678e+003, 1.026413e+002
1.194160e+003, 1.029995e+002
1.194642e+003, 1.030129e+002
1.195124e+003, 1.028019e+002
1.195606e+003, 1.028793e+002
1.196089e+003, 1.032286e+002
1.196571e+003, 1.034279e+002
1.197053e+003, 1.034591e+002
1.197535e+003, 1.033982e+002
1.198017e+003, 1.032653e+002
1.198499e+003, 1.030153e+002
1.198981e+003, 1.026068e+002
1.199463e+003, 1.022721e+002
1.199945e+003, 1.023960e+002
1.200427e+003, 1.027533e+002
1.200910e+003, 1.029592e+002
1.201392e+003, 1.030167e+002
1.201874e+003, 1.028047e+002
1.202356e+003, 1.024690e+002
1.202838e+003, 1.025143e+002
1.203320e+003, 1.030037e+002
1.203802e+003, 1.033315e+002
1.204284e+003, 1.030991e+002
1.204767e+003, 1.027441e+002
1.205249e+003, 1.025532e+002
1.205731e+003, 1.024256e+002
1.206213e+003, 1.021538e+002
1.206695e+003, 1.019920e+002
1.207177e+003, 1.023788e+002
1.207659e+003, 1.031134e+002
1.208141e+003, 1.036504e+002
1.208624e+003, 1.038846e+002
1.209106e+003, 1.038759e+002
1.209588e+003, 1.034692e+002
1.210070e+003, 1.030746e+002
1.210552e+003, 1.025602e+002
1.211034e+003, 1.023321e+002
1.211516e+003, 1.028334e+002
1.211998e+003, 1.035123e+002
1.212480e+003, 1.038480e+002
1.212963e+003, 1.038976e+002
1.213445e+003, 1.038676e+002
1.213927e+003, 1.037478e+002
1.214409e+003, 1.035362e+002
1.214891e+003, 1.030851e+002
1.215373e+003, 1.032176e+002
1.215855e+003, 1.042363e+002
1.216337e+003, 1.051476e+002
1.216819e+003, 1.054394e+002
1.217302e+003, 1.052811e+002
1.217784e+003, 1.048005e+002
1.218266e+003, 1.041638e+002
1.218748e+003, 1.039445e+002
1.219230e+003, 1.040440e+002
1.219712e+003, 1.039153e+002
1.220194e+003, 1.035985e+002
1.220676e+003, 1.035119e+002
1.221159e+003, 1.037021e+002
1.221641e+003, 1.037030e+002
1.222123e+003, 1.032424e+002
1.222605e+003, 1.030476e+002
1.223087e+003, 1.042975e+002
1.223569e+003, 1.057454e+002
1.224051e+003, 1.059438e+002
1.224533e+003, 1.054831e+002
1.225016e+003, 1.048301e+002
1.225498e+003, 1.042742e+002
1.225980e+003, 1.043138e+002
1.226462e+003, 1.049100e+002
1.226944e+003, 1.053651e+002
1.227426e+003, 1.054872e+002
1.227908e+003, 1.052918e+002
1.228390e+003, 1.042839e+002
1.228872e+003, 1.036142e+002
1.229354e+003, 1.040433e+002
1.229837e+003, 1.047263e+002
1.230319e+003, 1.051187e+002
1.230801e+003, 1.052434e+002
1.231283e+003, 1.051093e+002
1.231765e+003, 1.047318e+002
1.232247e+003, 1.046550e+002
1.232729e+003, 1.050410e+002
1.233211e+003, 1.052085e+002
1.233694e+003, 1.050369e+002
1.234176e+003, 1.049810e+002
1.234658e+003, 1.051849e+002
1.235140e+003, 1.055457e+002
1.235622e+003, 1.060446e+002
1.236104e+003, 1.064243e+002
1.236586e+003, 1.061336e+002
1.237068e+003, 1.054022e+002
1.237551e+003, 1.052819e+002
1.238033e+003, 1.056022e+002
1.238515e+003, 1.055305e+002
1.238997e+003, 1.050980e+002
1.239479e+003, 1.049170e+002
1.239961e+003, 1.051360e+002
1.240443e+003, 1.053771e+002
1.240925e+003, 1.053846e+002
1.241407e+003, 1.054236e+002
1.241890e+003, 1.058517e+002
1.242372e+003, 1.063272e+002
1.242854e+003, 1.066117e+002
1.243336e+003, 1.066717e+002
1.243818e+003, 1.063641e+002
1.244300e+003, 1.058563e+002
1.244782e+003, 1.054298e+002
1.245264e+003, 1.051475e+002
1.245746e+003, 1.051226e+002
1.246229e+003, 1.056600e+002
1.246711e+003, 1.059460e+002
1.247193e+003, 1.055429e+002
1.247675e+003, 1.052784e+002
1.248157e+003, 1.055867e+002
1.248639e+003, 1.059361e+002
1.249121e+003, 1.059544e+002
1.249603e+003, 1.057699e+002
1.250085e+003, 1.055887e+002
1.250568e+003, 1.054176e+002
1.251050e+003, 1.054064e+002
1.251532e+003, 1.055819e+002
1.252014e+003, 1.055692e+002
1.252496e+003, 1.053270e+002
1.252978e+003, 1.053070e+002
1.253460e+003, 1.056434e+002
1.253942e+003, 1.059728e+002
1.254425e+003, 1.060415e+002
1.254907e+003, 1.060074e+002
1.255389e+003, 1.061344e+002
1.255871e+003, 1.062731e+002
1.256353e+003, 1.059689e+002
1.256835e+003, 1.055640e+002
1.257317e+003, 1.058818e+002
1.257799e+003, 1.066183e+002
1.258281e+003, 1.068019e+002
1.258764e+003, 1.063496e+002
1.259246e+003, 1.061422e+002
1.259728e+003, 1.066362e+002
1.260210e+003, 1.070945e+002
1.260692e+003, 1.070382e+002
1.261174e+003, 1.070451e+002
1.261656e+003, 1.075734e+002
1.262138e+003, 1.080827e+002
1.262620e+003, 1.081178e+002
1.263103e+003, 1.078778e+002
1.263585e+003, 1.076713e+002
1.264067e+003, 1.075024e+002
1.264549e+003, 1.074027e+002
1.265031e+003, 1.074246e+002
1.265513e+003, 1.073247e+002
1.265995e+003, 1.070756e+002
1.266477e+003, 1.067812e+002
1.266960e+003, 1.064277e+002
1.267442e+003, 1.063375e+002
1.267924e+003, 1.067242e+002
1.268406e+003, 1.071398e+002
1.268888e+003, 1.070092e+002
1.269370e+003, 1.066058e+002
1.269852e+003, 1.065562e+002
1.270334e+003, 1.067423e+002
1.270817e+003, 1.069390e+002
1.271299e+003, 1.070860e+002
1.271781e+003, 1.070324e+002
1.272263e+003, 1.068159e+002
1.272745e+003, 1.066809e+002
1.273227e+003, 1.067213e+002
1.273709e+003, 1.067073e+002
1.274191e+003, 1.064141e+002
1.274673e+003, 1.061550e+002
1.275156e+003, 1.060182e+002
1.275638e+003, 1.060430e+002
1.276120e+003, 1.063699e+002
1.276602e+003, 1.067803e+002
1.277084e+003, 1.070269e+002
1.277566e+003, 1.071488e+002
1.278048e+003, 1.073119e+002
1.278530e+003, 1.075300e+002
1.279012e+003, 1.076448e+002
1.279495e+003, 1.075565e+002
1.279977e+003, 1.077854e+002
1.280459e+003, 1.085202e+002
1.280941e+003, 1.088111e+002
1.281423e+003, 1.082608e+002
1.281905e+003, 1.076497e+002
1.282387e+003, 1.075859e+002
1.282869e+003, 1.078691e+002
1.283352e+003, 1.082887e+002
1.283834e+003, 1.087160e+002
1.284316e+003, 1.088652e+002
1.284798e+003, 1.087417e+002
##END=



