##NAMES=Oxyphlogopite
##RRUFFID=R141079
##IDEAL CHEMISTRY=K(Mg,Ti^4+^,Fe^3+^,Fe^2+^)_3_[(Si,Al)_4_O_10_](O,F)_2_
##LOCALITY=Nickenicher Sattel, Nickenich, Eifel, Germany
##OWNER=RRUFF
##SOURCE=Ch. and H. Sch√§fer
##DESCRIPTION=Dark brown to almost black platy crystals, associated with sodalite.
##STATUS=The identification of this mineral has been confirmed only by single crystal X-ray diffraction.
##URL=rruff.info/R141079
8.813672e+001, 1.079533e+002
8.861884e+001, 1.094353e+002
8.910095e+001, 1.108385e+002
8.958307e+001, 1.121395e+002
9.006519e+001, 1.138471e+002
9.054730e+001, 1.167115e+002
9.102942e+001, 1.216986e+002
9.151154e+001, 1.260940e+002
9.199365e+001, 1.261062e+002
9.247577e+001, 1.224487e+002
9.295789e+001, 1.187520e+002
9.344000e+001, 1.179840e+002
9.392212e+001, 1.191144e+002
9.440424e+001, 1.193454e+002
9.488635e+001, 1.180763e+002
9.536847e+001, 1.159782e+002
9.585059e+001, 1.143472e+002
9.633270e+001, 1.131605e+002
9.681482e+001, 1.123329e+002
9.729694e+001, 1.116426e+002
9.777905e+001, 1.110884e+002
9.826117e+001, 1.113992e+002
9.874329e+001, 1.132255e+002
9.922540e+001, 1.162137e+002
9.970752e+001, 1.177031e+002
1.001896e+002, 1.174047e+002
1.006718e+002, 1.162375e+002
1.011539e+002, 1.152128e+002
1.016360e+002, 1.142476e+002
1.021181e+002, 1.136853e+002
1.026002e+002, 1.136557e+002
1.030823e+002, 1.141919e+002
1.035645e+002, 1.149520e+002
1.040466e+002, 1.156939e+002
1.045287e+002, 1.168023e+002
1.050108e+002, 1.191010e+002
1.054929e+002, 1.230969e+002
1.059750e+002, 1.275093e+002
1.064572e+002, 1.321074e+002
1.069393e+002, 1.388229e+002
1.074214e+002, 1.422242e+002
1.079035e+002, 1.408012e+002
1.083856e+002, 1.359038e+002
1.088677e+002, 1.323077e+002
1.093499e+002, 1.306600e+002
1.098320e+002, 1.297812e+002
1.103141e+002, 1.291675e+002
1.107962e+002, 1.286259e+002
1.112783e+002, 1.285392e+002
1.117604e+002, 1.290125e+002
1.122426e+002, 1.300046e+002
1.127247e+002, 1.312197e+002
1.132068e+002, 1.322061e+002
1.136889e+002, 1.336176e+002
1.141710e+002, 1.358993e+002
1.146531e+002, 1.410548e+002
1.151353e+002, 1.452803e+002
1.156174e+002, 1.469687e+002
1.160995e+002, 1.461009e+002
1.165816e+002, 1.456064e+002
1.170637e+002, 1.473744e+002
1.175458e+002, 1.498269e+002
1.180280e+002, 1.512700e+002
1.185101e+002, 1.498848e+002
1.189922e+002, 1.481096e+002
1.194743e+002, 1.473751e+002
1.199564e+002, 1.478306e+002
1.204385e+002, 1.487550e+002
1.209207e+002, 1.491982e+002
1.214028e+002, 1.498310e+002
1.218849e+002, 1.518248e+002
1.223670e+002, 1.582536e+002
1.228491e+002, 1.652458e+002
1.233312e+002, 1.683409e+002
1.238134e+002, 1.664217e+002
1.242955e+002, 1.629843e+002
1.247776e+002, 1.607677e+002
1.252597e+002, 1.596319e+002
1.257418e+002, 1.590853e+002
1.262239e+002, 1.588042e+002
1.267061e+002, 1.589295e+002
1.271882e+002, 1.598130e+002
1.276703e+002, 1.617064e+002
1.281524e+002, 1.640117e+002
1.286345e+002, 1.658437e+002
1.291166e+002, 1.672489e+002
1.295988e+002, 1.687279e+002
1.300809e+002, 1.710635e+002
1.305630e+002, 1.739119e+002
1.310451e+002, 1.757916e+002
1.315272e+002, 1.761958e+002
1.320094e+002, 1.755760e+002
1.324915e+002, 1.747211e+002
1.329736e+002, 1.735740e+002
1.334557e+002, 1.727590e+002
1.339378e+002, 1.730328e+002
1.344199e+002, 1.743773e+002
1.349021e+002, 1.756603e+002
1.353842e+002, 1.765512e+002
1.358663e+002, 1.771441e+002
1.363484e+002, 1.778761e+002
1.368305e+002, 1.785831e+002
1.373126e+002, 1.799109e+002
1.377948e+002, 1.831131e+002
1.382769e+002, 1.888236e+002
1.387590e+002, 1.931782e+002
1.392411e+002, 1.948789e+002
1.397232e+002, 1.938889e+002
1.402053e+002, 1.926238e+002
1.406875e+002, 1.910137e+002
1.411696e+002, 1.892022e+002
1.416517e+002, 1.873098e+002
1.421338e+002, 1.850867e+002
1.426159e+002, 1.833507e+002
1.430980e+002, 1.824285e+002
1.435802e+002, 1.825231e+002
1.440623e+002, 1.824889e+002
1.445444e+002, 1.821196e+002
1.450265e+002, 1.817502e+002
1.455086e+002, 1.820237e+002
1.459907e+002, 1.836869e+002
1.464729e+002, 1.850130e+002
1.469550e+002, 1.853936e+002
1.474371e+002, 1.843390e+002
1.479192e+002, 1.834500e+002
1.484013e+002, 1.827500e+002
1.488834e+002, 1.822149e+002
1.493656e+002, 1.817814e+002
1.498477e+002, 1.812841e+002
1.503298e+002, 1.810327e+002
1.508119e+002, 1.811806e+002
1.512940e+002, 1.823526e+002
1.517761e+002, 1.829998e+002
1.522583e+002, 1.823516e+002
1.527404e+002, 1.810416e+002
1.532225e+002, 1.808749e+002
1.537046e+002, 1.837430e+002
1.541867e+002, 1.865354e+002
1.546688e+002, 1.878108e+002
1.551510e+002, 1.863128e+002
1.556331e+002, 1.846637e+002
1.561152e+002, 1.830057e+002
1.565973e+002, 1.814315e+002
1.570794e+002, 1.803492e+002
1.575615e+002, 1.804040e+002
1.580437e+002, 1.806304e+002
1.585258e+002, 1.804275e+002
1.590079e+002, 1.790741e+002
1.594900e+002, 1.778955e+002
1.599721e+002, 1.772263e+002
1.604542e+002, 1.770359e+002
1.609364e+002, 1.771472e+002
1.614185e+002, 1.776566e+002
1.619006e+002, 1.783645e+002
1.623827e+002, 1.791102e+002
1.628648e+002, 1.802824e+002
1.633469e+002, 1.810987e+002
1.638291e+002, 1.810325e+002
1.643112e+002, 1.801602e+002
1.647933e+002, 1.792772e+002
1.652754e+002, 1.787484e+002
1.657575e+002, 1.784168e+002
1.662396e+002, 1.781173e+002
1.667218e+002, 1.775367e+002
1.672039e+002, 1.771596e+002
1.676860e+002, 1.774161e+002
1.681681e+002, 1.782908e+002
1.686502e+002, 1.792155e+002
1.691323e+002, 1.798033e+002
1.696145e+002, 1.802204e+002
1.700966e+002, 1.806893e+002
1.705787e+002, 1.816443e+002
1.710608e+002, 1.824825e+002
1.715429e+002, 1.825605e+002
1.720250e+002, 1.818380e+002
1.725072e+002, 1.809873e+002
1.729893e+002, 1.803239e+002
1.734714e+002, 1.798957e+002
1.739535e+002, 1.797908e+002
1.744356e+002, 1.804239e+002
1.749177e+002, 1.812348e+002
1.753999e+002, 1.814501e+002
1.758820e+002, 1.809854e+002
1.763641e+002, 1.805084e+002
1.768462e+002, 1.806347e+002
1.773283e+002, 1.812260e+002
1.778104e+002, 1.819303e+002
1.782926e+002, 1.828869e+002
1.787747e+002, 1.837616e+002
1.792568e+002, 1.837725e+002
1.797389e+002, 1.827522e+002
1.802210e+002, 1.817100e+002
1.807031e+002, 1.820299e+002
1.811853e+002, 1.833806e+002
1.816674e+002, 1.845618e+002
1.821495e+002, 1.847431e+002
1.826316e+002, 1.843255e+002
1.831137e+002, 1.842869e+002
1.835958e+002, 1.847380e+002
1.840780e+002, 1.853411e+002
1.845601e+002, 1.856178e+002
1.850422e+002, 1.856209e+002
1.855243e+002, 1.857202e+002
1.860064e+002, 1.864137e+002
1.864885e+002, 1.874199e+002
1.869707e+002, 1.875453e+002
1.874528e+002, 1.865296e+002
1.879349e+002, 1.851812e+002
1.884170e+002, 1.847838e+002
1.888991e+002, 1.852912e+002
1.893812e+002, 1.859017e+002
1.898634e+002, 1.861633e+002
1.903455e+002, 1.861381e+002
1.908276e+002, 1.862554e+002
1.913097e+002, 1.865843e+002
1.917918e+002, 1.869686e+002
1.922739e+002, 1.870635e+002
1.927561e+002, 1.868524e+002
1.932382e+002, 1.867505e+002
1.937203e+002, 1.871857e+002
1.942024e+002, 1.880842e+002
1.946845e+002, 1.884163e+002
1.951666e+002, 1.880061e+002
1.956488e+002, 1.871580e+002
1.961309e+002, 1.864064e+002
1.966130e+002, 1.857403e+002
1.970951e+002, 1.851973e+002
1.975772e+002, 1.849371e+002
1.980593e+002, 1.849685e+002
1.985415e+002, 1.844945e+002
1.990236e+002, 1.832894e+002
1.995057e+002, 1.817623e+002
1.999878e+002, 1.809732e+002
2.004699e+002, 1.810768e+002
2.009520e+002, 1.811482e+002
2.014342e+002, 1.806073e+002
2.019163e+002, 1.793995e+002
2.023984e+002, 1.782069e+002
2.028805e+002, 1.770210e+002
2.033626e+002, 1.759199e+002
2.038447e+002, 1.751576e+002
2.043269e+002, 1.748196e+002
2.048090e+002, 1.745091e+002
2.052911e+002, 1.740224e+002
2.057732e+002, 1.733486e+002
2.062553e+002, 1.725316e+002
2.067374e+002, 1.714950e+002
2.072196e+002, 1.703682e+002
2.077017e+002, 1.695207e+002
2.081838e+002, 1.690117e+002
2.086659e+002, 1.686183e+002
2.091480e+002, 1.682080e+002
2.096301e+002, 1.677422e+002
2.101123e+002, 1.674492e+002
2.105944e+002, 1.674269e+002
2.110765e+002, 1.675403e+002
2.115586e+002, 1.673799e+002
2.120407e+002, 1.668591e+002
2.125229e+002, 1.662589e+002
2.130050e+002, 1.657084e+002
2.134871e+002, 1.651806e+002
2.139692e+002, 1.648213e+002
2.144513e+002, 1.646995e+002
2.149334e+002, 1.647276e+002
2.154156e+002, 1.646215e+002
2.158977e+002, 1.642982e+002
2.163798e+002, 1.639982e+002
2.168619e+002, 1.638937e+002
2.173440e+002, 1.641142e+002
2.178261e+002, 1.640967e+002
2.183083e+002, 1.637020e+002
2.187904e+002, 1.630853e+002
2.192725e+002, 1.627674e+002
2.197546e+002, 1.629476e+002
2.202367e+002, 1.630740e+002
2.207188e+002, 1.628457e+002
2.212010e+002, 1.621276e+002
2.216831e+002, 1.613900e+002
2.221652e+002, 1.605372e+002
2.226473e+002, 1.597052e+002
2.231294e+002, 1.593514e+002
2.236115e+002, 1.596869e+002
2.240937e+002, 1.601525e+002
2.245758e+002, 1.605193e+002
2.250579e+002, 1.608421e+002
2.255400e+002, 1.609194e+002
2.260221e+002, 1.606786e+002
2.265042e+002, 1.602121e+002
2.269864e+002, 1.597819e+002
2.274685e+002, 1.594270e+002
2.279506e+002, 1.590406e+002
2.284327e+002, 1.585419e+002
2.289148e+002, 1.577621e+002
2.293969e+002, 1.572506e+002
2.298791e+002, 1.570637e+002
2.303612e+002, 1.571284e+002
2.308433e+002, 1.572974e+002
2.313254e+002, 1.577306e+002
2.318075e+002, 1.580224e+002
2.322896e+002, 1.579333e+002
2.327718e+002, 1.571438e+002
2.332539e+002, 1.567745e+002
2.337360e+002, 1.570215e+002
2.342181e+002, 1.576214e+002
2.347002e+002, 1.579640e+002
2.351823e+002, 1.578790e+002
2.356645e+002, 1.577857e+002
2.361466e+002, 1.578749e+002
2.366287e+002, 1.582842e+002
2.371108e+002, 1.584857e+002
2.375929e+002, 1.583717e+002
2.380750e+002, 1.580921e+002
2.385572e+002, 1.579777e+002
2.390393e+002, 1.581980e+002
2.395214e+002, 1.583152e+002
2.400035e+002, 1.580957e+002
2.404856e+002, 1.572682e+002
2.409677e+002, 1.569854e+002
2.414499e+002, 1.576611e+002
2.419320e+002, 1.586716e+002
2.424141e+002, 1.588708e+002
2.428962e+002, 1.578275e+002
2.433783e+002, 1.566790e+002
2.438604e+002, 1.557502e+002
2.443426e+002, 1.550034e+002
2.448247e+002, 1.546566e+002
2.453068e+002, 1.549457e+002
2.457889e+002, 1.554888e+002
2.462710e+002, 1.556532e+002
2.467531e+002, 1.551783e+002
2.472353e+002, 1.547697e+002
2.477174e+002, 1.546477e+002
2.481995e+002, 1.548605e+002
2.486816e+002, 1.551313e+002
2.491637e+002, 1.555596e+002
2.496458e+002, 1.559682e+002
2.501280e+002, 1.560751e+002
2.506101e+002, 1.557017e+002
2.510922e+002, 1.553587e+002
2.515743e+002, 1.551832e+002
2.520564e+002, 1.551873e+002
2.525385e+002, 1.552435e+002
2.530207e+002, 1.553212e+002
2.535028e+002, 1.554810e+002
2.539849e+002, 1.558624e+002
2.544670e+002, 1.567532e+002
2.549491e+002, 1.572507e+002
2.554312e+002, 1.569755e+002
2.559134e+002, 1.558606e+002
2.563955e+002, 1.552773e+002
2.568776e+002, 1.554257e+002
2.573597e+002, 1.558829e+002
2.578418e+002, 1.562310e+002
2.583239e+002, 1.564874e+002
2.588061e+002, 1.565880e+002
2.592882e+002, 1.564605e+002
2.597703e+002, 1.561097e+002
2.602524e+002, 1.559431e+002
2.607345e+002, 1.560683e+002
2.612166e+002, 1.562248e+002
2.616988e+002, 1.561281e+002
2.621809e+002, 1.556161e+002
2.626630e+002, 1.553302e+002
2.631451e+002, 1.554392e+002
2.636272e+002, 1.558974e+002
2.641093e+002, 1.562874e+002
2.645915e+002, 1.566345e+002
2.650736e+002, 1.568788e+002
2.655557e+002, 1.569953e+002
2.660378e+002, 1.570108e+002
2.665199e+002, 1.567611e+002
2.670020e+002, 1.560523e+002
2.674842e+002, 1.550572e+002
2.679663e+002, 1.547977e+002
2.684484e+002, 1.555709e+002
2.689305e+002, 1.563938e+002
2.694126e+002, 1.564770e+002
2.698947e+002, 1.555661e+002
2.703769e+002, 1.550708e+002
2.708590e+002, 1.552709e+002
2.713411e+002, 1.559022e+002
2.718232e+002, 1.560600e+002
2.723053e+002, 1.555965e+002
2.727874e+002, 1.551073e+002
2.732696e+002, 1.549941e+002
2.737517e+002, 1.553417e+002
2.742338e+002, 1.554734e+002
2.747159e+002, 1.552505e+002
2.751980e+002, 1.548869e+002
2.756801e+002, 1.549667e+002
2.761623e+002, 1.556077e+002
2.766444e+002, 1.561697e+002
2.771265e+002, 1.562815e+002
2.776086e+002, 1.559081e+002
2.780907e+002, 1.555737e+002
2.785728e+002, 1.552792e+002
2.790550e+002, 1.550483e+002
2.795371e+002, 1.549376e+002
2.800192e+002, 1.549574e+002
2.805013e+002, 1.550119e+002
2.809834e+002, 1.550816e+002
2.814655e+002, 1.551638e+002
2.819477e+002, 1.551795e+002
2.824298e+002, 1.551223e+002
2.829119e+002, 1.550093e+002
2.833940e+002, 1.548103e+002
2.838761e+002, 1.545184e+002
2.843582e+002, 1.543495e+002
2.848404e+002, 1.544645e+002
2.853225e+002, 1.547926e+002
2.858046e+002, 1.548769e+002
2.862867e+002, 1.546780e+002
2.867688e+002, 1.544138e+002
2.872509e+002, 1.543617e+002
2.877331e+002, 1.545035e+002
2.882152e+002, 1.545760e+002
2.886973e+002, 1.544712e+002
2.891794e+002, 1.542463e+002
2.896615e+002, 1.541112e+002
2.901436e+002, 1.540774e+002
2.906258e+002, 1.540103e+002
2.911079e+002, 1.537165e+002
2.915900e+002, 1.532522e+002
2.920721e+002, 1.529069e+002
2.925542e+002, 1.527503e+002
2.930363e+002, 1.527647e+002
2.935185e+002, 1.530503e+002
2.940006e+002, 1.536021e+002
2.944827e+002, 1.539770e+002
2.949648e+002, 1.536459e+002
2.954469e+002, 1.528447e+002
2.959290e+002, 1.523292e+002
2.964112e+002, 1.522885e+002
2.968933e+002, 1.524931e+002
2.973754e+002, 1.526911e+002
2.978575e+002, 1.528612e+002
2.983396e+002, 1.528809e+002
2.988217e+002, 1.524122e+002
2.993039e+002, 1.517675e+002
2.997860e+002, 1.516506e+002
3.002681e+002, 1.522602e+002
3.007502e+002, 1.530568e+002
3.012323e+002, 1.534484e+002
3.017144e+002, 1.535023e+002
3.021966e+002, 1.534356e+002
3.026787e+002, 1.533562e+002
3.031608e+002, 1.532310e+002
3.036429e+002, 1.529917e+002
3.041250e+002, 1.526233e+002
3.046071e+002, 1.522292e+002
3.050893e+002, 1.517126e+002
3.055714e+002, 1.512388e+002
3.060535e+002, 1.511694e+002
3.065356e+002, 1.522443e+002
3.070177e+002, 1.534526e+002
3.074998e+002, 1.536694e+002
3.079820e+002, 1.528653e+002
3.084641e+002, 1.519778e+002
3.089462e+002, 1.515931e+002
3.094283e+002, 1.515534e+002
3.099104e+002, 1.516521e+002
3.103925e+002, 1.519309e+002
3.108747e+002, 1.522296e+002
3.113568e+002, 1.524618e+002
3.118389e+002, 1.526265e+002
3.123210e+002, 1.527099e+002
3.128031e+002, 1.525999e+002
3.132852e+002, 1.524536e+002
3.137674e+002, 1.524322e+002
3.142495e+002, 1.527164e+002
3.147316e+002, 1.529556e+002
3.152137e+002, 1.530031e+002
3.156958e+002, 1.528693e+002
3.161779e+002, 1.525908e+002
3.166601e+002, 1.519795e+002
3.171422e+002, 1.513563e+002
3.176243e+002, 1.509492e+002
3.181064e+002, 1.508930e+002
3.185885e+002, 1.508596e+002
3.190706e+002, 1.506247e+002
3.195528e+002, 1.503428e+002
3.200349e+002, 1.503143e+002
3.205170e+002, 1.509826e+002
3.209991e+002, 1.516267e+002
3.214812e+002, 1.518876e+002
3.219633e+002, 1.516077e+002
3.224455e+002, 1.514144e+002
3.229276e+002, 1.515332e+002
3.234097e+002, 1.517729e+002
3.238918e+002, 1.518986e+002
3.243739e+002, 1.517432e+002
3.248560e+002, 1.516016e+002
3.253382e+002, 1.515882e+002
3.258203e+002, 1.517332e+002
3.263024e+002, 1.517498e+002
3.267845e+002, 1.513540e+002
3.272666e+002, 1.509674e+002
3.277487e+002, 1.509291e+002
3.282309e+002, 1.518207e+002
3.287130e+002, 1.523784e+002
3.291951e+002, 1.523228e+002
3.296772e+002, 1.517304e+002
3.301593e+002, 1.513688e+002
3.306414e+002, 1.514117e+002
3.311236e+002, 1.515225e+002
3.316057e+002, 1.514969e+002
3.320878e+002, 1.510799e+002
3.325699e+002, 1.509809e+002
3.330520e+002, 1.512647e+002
3.335341e+002, 1.518686e+002
3.340163e+002, 1.527168e+002
3.344984e+002, 1.542043e+002
3.349805e+002, 1.552553e+002
3.354626e+002, 1.552966e+002
3.359448e+002, 1.539533e+002
3.364269e+002, 1.530591e+002
3.369090e+002, 1.527216e+002
3.373911e+002, 1.527138e+002
3.378732e+002, 1.527035e+002
3.383553e+002, 1.526975e+002
3.388375e+002, 1.526794e+002
3.393196e+002, 1.527042e+002
3.398017e+002, 1.527617e+002
3.402838e+002, 1.524309e+002
3.407659e+002, 1.515870e+002
3.412480e+002, 1.506746e+002
3.417302e+002, 1.501174e+002
3.422123e+002, 1.499269e+002
3.426944e+002, 1.500086e+002
3.431765e+002, 1.504684e+002
3.436586e+002, 1.511248e+002
3.441407e+002, 1.512818e+002
3.446229e+002, 1.509010e+002
3.451050e+002, 1.504632e+002
3.455871e+002, 1.503288e+002
3.460692e+002, 1.504648e+002
3.465513e+002, 1.506876e+002
3.470334e+002, 1.510203e+002
3.475156e+002, 1.513294e+002
3.479977e+002, 1.513331e+002
3.484798e+002, 1.510644e+002
3.489619e+002, 1.507979e+002
3.494440e+002, 1.507368e+002
3.499261e+002, 1.507872e+002
3.504083e+002, 1.507214e+002
3.508904e+002, 1.505132e+002
3.513725e+002, 1.502751e+002
3.518546e+002, 1.500280e+002
3.523367e+002, 1.498330e+002
3.528188e+002, 1.498458e+002
3.533010e+002, 1.504792e+002
3.537831e+002, 1.511753e+002
3.542652e+002, 1.511974e+002
3.547473e+002, 1.505685e+002
3.552294e+002, 1.498079e+002
3.557115e+002, 1.492264e+002
3.561937e+002, 1.487600e+002
3.566758e+002, 1.483144e+002
3.571579e+002, 1.477523e+002
3.576400e+002, 1.473362e+002
3.581221e+002, 1.473629e+002
3.586042e+002, 1.477246e+002
3.590864e+002, 1.480304e+002
3.595685e+002, 1.481183e+002
3.600506e+002, 1.480574e+002
3.605327e+002, 1.478704e+002
3.610148e+002, 1.475008e+002
3.614969e+002, 1.471727e+002
3.619791e+002, 1.469770e+002
3.624612e+002, 1.468847e+002
3.629433e+002, 1.468426e+002
3.634254e+002, 1.469293e+002
3.639075e+002, 1.469791e+002
3.643896e+002, 1.469179e+002
3.648718e+002, 1.467299e+002
3.653539e+002, 1.465060e+002
3.658360e+002, 1.462198e+002
3.663181e+002, 1.459254e+002
3.668002e+002, 1.456654e+002
3.672823e+002, 1.454057e+002
3.677645e+002, 1.452210e+002
3.682466e+002, 1.451806e+002
3.687287e+002, 1.452632e+002
3.692108e+002, 1.452296e+002
3.696929e+002, 1.449545e+002
3.701750e+002, 1.446725e+002
3.706572e+002, 1.445067e+002
3.711393e+002, 1.445269e+002
3.716214e+002, 1.445496e+002
3.721035e+002, 1.446310e+002
3.725856e+002, 1.446970e+002
3.730677e+002, 1.445318e+002
3.735499e+002, 1.439149e+002
3.740320e+002, 1.434947e+002
3.745141e+002, 1.436257e+002
3.749962e+002, 1.444230e+002
3.754783e+002, 1.446845e+002
3.759604e+002, 1.442055e+002
3.764426e+002, 1.435229e+002
3.769247e+002, 1.433326e+002
3.774068e+002, 1.437315e+002
3.778889e+002, 1.440259e+002
3.783710e+002, 1.440164e+002
3.788531e+002, 1.437744e+002
3.793353e+002, 1.436221e+002
3.798174e+002, 1.435825e+002
3.802995e+002, 1.434827e+002
3.807816e+002, 1.431177e+002
3.812637e+002, 1.425278e+002
3.817458e+002, 1.420778e+002
3.822280e+002, 1.418197e+002
3.827101e+002, 1.417071e+002
3.831922e+002, 1.417128e+002
3.836743e+002, 1.418179e+002
3.841564e+002, 1.418892e+002
3.846385e+002, 1.417644e+002
3.851207e+002, 1.415742e+002
3.856028e+002, 1.416228e+002
3.860849e+002, 1.419412e+002
3.865670e+002, 1.422878e+002
3.870491e+002, 1.425518e+002
3.875313e+002, 1.426744e+002
3.880134e+002, 1.425310e+002
3.884955e+002, 1.418091e+002
3.889776e+002, 1.410258e+002
3.894597e+002, 1.407022e+002
3.899418e+002, 1.407798e+002
3.904240e+002, 1.409077e+002
3.909061e+002, 1.407466e+002
3.913882e+002, 1.406068e+002
3.918703e+002, 1.408296e+002
3.923524e+002, 1.417154e+002
3.928345e+002, 1.424822e+002
3.933167e+002, 1.426957e+002
3.937988e+002, 1.425271e+002
3.942809e+002, 1.423187e+002
3.947630e+002, 1.422178e+002
3.952451e+002, 1.420723e+002
3.957272e+002, 1.417345e+002
3.962094e+002, 1.411262e+002
3.966915e+002, 1.407824e+002
3.971736e+002, 1.409906e+002
3.976557e+002, 1.414218e+002
3.981378e+002, 1.417743e+002
3.986199e+002, 1.419632e+002
3.991021e+002, 1.421257e+002
3.995842e+002, 1.423225e+002
4.000663e+002, 1.425267e+002
4.005484e+002, 1.425533e+002
4.010305e+002, 1.422709e+002
4.015126e+002, 1.419532e+002
4.019948e+002, 1.417366e+002
4.024769e+002, 1.416830e+002
4.029590e+002, 1.415813e+002
4.034411e+002, 1.413680e+002
4.039232e+002, 1.411570e+002
4.044053e+002, 1.412003e+002
4.048875e+002, 1.416287e+002
4.053696e+002, 1.419149e+002
4.058517e+002, 1.418216e+002
4.063338e+002, 1.413885e+002
4.068159e+002, 1.412301e+002
4.072980e+002, 1.414178e+002
4.077802e+002, 1.416348e+002
4.082623e+002, 1.414732e+002
4.087444e+002, 1.409592e+002
4.092265e+002, 1.407733e+002
4.097086e+002, 1.411725e+002
4.101907e+002, 1.417944e+002
4.106729e+002, 1.418191e+002
4.111550e+002, 1.412975e+002
4.116371e+002, 1.408078e+002
4.121192e+002, 1.407252e+002
4.126013e+002, 1.409263e+002
4.130834e+002, 1.412037e+002
4.135656e+002, 1.415612e+002
4.140477e+002, 1.418309e+002
4.145298e+002, 1.418260e+002
4.150119e+002, 1.416165e+002
4.154940e+002, 1.413411e+002
4.159761e+002, 1.409657e+002
4.164583e+002, 1.406179e+002
4.169404e+002, 1.403911e+002
4.174225e+002, 1.402854e+002
4.179046e+002, 1.403119e+002
4.183867e+002, 1.406859e+002
4.188688e+002, 1.410807e+002
4.193510e+002, 1.411830e+002
4.198331e+002, 1.407656e+002
4.203152e+002, 1.404198e+002
4.207973e+002, 1.404902e+002
4.212794e+002, 1.407705e+002
4.217615e+002, 1.408853e+002
4.222437e+002, 1.404871e+002
4.227258e+002, 1.401465e+002
4.232079e+002, 1.400957e+002
4.236900e+002, 1.403901e+002
4.241721e+002, 1.406183e+002
4.246542e+002, 1.407527e+002
4.251364e+002, 1.408077e+002
4.256185e+002, 1.407866e+002
4.261006e+002, 1.405769e+002
4.265827e+002, 1.404712e+002
4.270648e+002, 1.405873e+002
4.275469e+002, 1.408159e+002
4.280291e+002, 1.407390e+002
4.285112e+002, 1.401698e+002
4.289933e+002, 1.396552e+002
4.294754e+002, 1.394775e+002
4.299575e+002, 1.396975e+002
4.304396e+002, 1.397737e+002
4.309218e+002, 1.396639e+002
4.314039e+002, 1.394968e+002
4.318860e+002, 1.394818e+002
4.323681e+002, 1.396299e+002
4.328502e+002, 1.396259e+002
4.333323e+002, 1.393497e+002
4.338145e+002, 1.388951e+002
4.342966e+002, 1.384723e+002
4.347787e+002, 1.380840e+002
4.352608e+002, 1.377955e+002
4.357429e+002, 1.376880e+002
4.362250e+002, 1.377163e+002
4.367072e+002, 1.377941e+002
4.371893e+002, 1.379362e+002
4.376714e+002, 1.380253e+002
4.381535e+002, 1.378703e+002
4.386356e+002, 1.375660e+002
4.391177e+002, 1.373213e+002
4.395999e+002, 1.373477e+002
4.400820e+002, 1.373879e+002
4.405641e+002, 1.372033e+002
4.410462e+002, 1.368073e+002
4.415283e+002, 1.363800e+002
4.420104e+002, 1.358852e+002
4.424926e+002, 1.354749e+002
4.429747e+002, 1.352911e+002
4.434568e+002, 1.354281e+002
4.439389e+002, 1.356644e+002
4.444210e+002, 1.360983e+002
4.449031e+002, 1.365685e+002
4.453853e+002, 1.367679e+002
4.458674e+002, 1.364882e+002
4.463495e+002, 1.360693e+002
4.468316e+002, 1.355065e+002
4.473137e+002, 1.347342e+002
4.477958e+002, 1.343473e+002
4.482780e+002, 1.346096e+002
4.487601e+002, 1.350431e+002
4.492422e+002, 1.353114e+002
4.497243e+002, 1.354085e+002
4.502064e+002, 1.353300e+002
4.506885e+002, 1.349590e+002
4.511707e+002, 1.344636e+002
4.516528e+002, 1.343470e+002
4.521349e+002, 1.347024e+002
4.526170e+002, 1.351007e+002
4.530991e+002, 1.353871e+002
4.535812e+002, 1.355617e+002
4.540634e+002, 1.355506e+002
4.545455e+002, 1.353278e+002
4.550276e+002, 1.350416e+002
4.555097e+002, 1.348505e+002
4.559918e+002, 1.347378e+002
4.564739e+002, 1.346299e+002
4.569561e+002, 1.345322e+002
4.574382e+002, 1.343937e+002
4.579203e+002, 1.340234e+002
4.584024e+002, 1.334960e+002
4.588845e+002, 1.331540e+002
4.593666e+002, 1.334119e+002
4.598488e+002, 1.338791e+002
4.603309e+002, 1.340767e+002
4.608130e+002, 1.339536e+002
4.612951e+002, 1.337089e+002
4.617772e+002, 1.333123e+002
4.622593e+002, 1.329323e+002
4.627415e+002, 1.327774e+002
4.632236e+002, 1.332589e+002
4.637057e+002, 1.336279e+002
4.641878e+002, 1.335449e+002
4.646699e+002, 1.331015e+002
4.651520e+002, 1.326126e+002
4.656342e+002, 1.319821e+002
4.661163e+002, 1.314834e+002
4.665984e+002, 1.312575e+002
4.670805e+002, 1.314187e+002
4.675626e+002, 1.315660e+002
4.680447e+002, 1.317140e+002
4.685269e+002, 1.318296e+002
4.690090e+002, 1.318645e+002
4.694911e+002, 1.317125e+002
4.699732e+002, 1.316812e+002
4.704553e+002, 1.318228e+002
4.709374e+002, 1.321158e+002
4.714196e+002, 1.325021e+002
4.719017e+002, 1.330137e+002
4.723838e+002, 1.335079e+002
4.728659e+002, 1.339302e+002
4.733480e+002, 1.342803e+002
4.738301e+002, 1.344805e+002
4.743123e+002, 1.345183e+002
4.747944e+002, 1.344512e+002
4.752765e+002, 1.342387e+002
4.757586e+002, 1.339400e+002
4.762407e+002, 1.338968e+002
4.767228e+002, 1.343569e+002
4.772050e+002, 1.349651e+002
4.776871e+002, 1.351291e+002
4.781692e+002, 1.349250e+002
4.786513e+002, 1.347099e+002
4.791334e+002, 1.346611e+002
4.796155e+002, 1.347442e+002
4.800977e+002, 1.349605e+002
4.805798e+002, 1.353313e+002
4.810619e+002, 1.356826e+002
4.815440e+002, 1.358818e+002
4.820261e+002, 1.360123e+002
4.825082e+002, 1.361721e+002
4.829904e+002, 1.363168e+002
4.834725e+002, 1.365728e+002
4.839546e+002, 1.371401e+002
4.844367e+002, 1.379027e+002
4.849188e+002, 1.383444e+002
4.854009e+002, 1.380960e+002
4.858831e+002, 1.377727e+002
4.863652e+002, 1.376035e+002
4.868473e+002, 1.376178e+002
4.873294e+002, 1.376707e+002
4.878115e+002, 1.377249e+002
4.882936e+002, 1.378481e+002
4.887758e+002, 1.381697e+002
4.892579e+002, 1.388356e+002
4.897400e+002, 1.391941e+002
4.902221e+002, 1.390202e+002
4.907042e+002, 1.385421e+002
4.911863e+002, 1.384917e+002
4.916685e+002, 1.389058e+002
4.921506e+002, 1.393673e+002
4.926327e+002, 1.397012e+002
4.931148e+002, 1.399035e+002
4.935969e+002, 1.398699e+002
4.940790e+002, 1.395791e+002
4.945612e+002, 1.392966e+002
4.950433e+002, 1.393157e+002
4.955254e+002, 1.395374e+002
4.960075e+002, 1.397458e+002
4.964896e+002, 1.398772e+002
4.969717e+002, 1.399812e+002
4.974539e+002, 1.401317e+002
4.979360e+002, 1.402940e+002
4.984181e+002, 1.403697e+002
4.989002e+002, 1.400809e+002
4.993823e+002, 1.398692e+002
4.998645e+002, 1.400759e+002
5.003466e+002, 1.407557e+002
5.008287e+002, 1.413713e+002
5.013108e+002, 1.417684e+002
5.017929e+002, 1.420277e+002
5.022751e+002, 1.422093e+002
5.027572e+002, 1.421590e+002
5.032393e+002, 1.422375e+002
5.037214e+002, 1.425923e+002
5.042035e+002, 1.430514e+002
5.046856e+002, 1.432415e+002
5.051678e+002, 1.430244e+002
5.056499e+002, 1.427862e+002
5.061320e+002, 1.426312e+002
5.066141e+002, 1.425576e+002
5.070962e+002, 1.425085e+002
5.075783e+002, 1.424596e+002
5.080605e+002, 1.425245e+002
5.085426e+002, 1.428905e+002
5.090247e+002, 1.435235e+002
5.095068e+002, 1.439892e+002
5.099889e+002, 1.442603e+002
5.104710e+002, 1.442905e+002
5.109532e+002, 1.438137e+002
5.114353e+002, 1.429891e+002
5.119174e+002, 1.423998e+002
5.123995e+002, 1.424519e+002
5.128816e+002, 1.427643e+002
5.133637e+002, 1.429138e+002
5.138458e+002, 1.429241e+002
5.143279e+002, 1.429441e+002
5.148101e+002, 1.430859e+002
5.152922e+002, 1.432547e+002
5.157743e+002, 1.433719e+002
5.162564e+002, 1.434133e+002
5.167385e+002, 1.434378e+002
5.172206e+002, 1.434670e+002
5.177028e+002, 1.434872e+002
5.181849e+002, 1.434837e+002
5.186670e+002, 1.434409e+002
5.191491e+002, 1.433888e+002
5.196312e+002, 1.432957e+002
5.201133e+002, 1.431917e+002
5.205955e+002, 1.432250e+002
5.210776e+002, 1.435466e+002
5.215597e+002, 1.437530e+002
5.220418e+002, 1.435670e+002
5.225239e+002, 1.429068e+002
5.230060e+002, 1.428914e+002
5.234882e+002, 1.437351e+002
5.239703e+002, 1.446332e+002
5.244524e+002, 1.445403e+002
5.249345e+002, 1.435499e+002
5.254166e+002, 1.430889e+002
5.258987e+002, 1.436093e+002
5.263809e+002, 1.443967e+002
5.268630e+002, 1.441643e+002
5.273451e+002, 1.431553e+002
5.278272e+002, 1.423816e+002
5.283093e+002, 1.425799e+002
5.287914e+002, 1.431361e+002
5.292736e+002, 1.433799e+002
5.297557e+002, 1.433162e+002
5.302378e+002, 1.432336e+002
5.307199e+002, 1.434139e+002
5.312020e+002, 1.435753e+002
5.316841e+002, 1.434480e+002
5.321663e+002, 1.427996e+002
5.326484e+002, 1.422699e+002
5.331305e+002, 1.420102e+002
5.336126e+002, 1.419632e+002
5.340947e+002, 1.420479e+002
5.345768e+002, 1.426185e+002
5.350590e+002, 1.428655e+002
5.355411e+002, 1.424762e+002
5.360232e+002, 1.416059e+002
5.365053e+002, 1.412520e+002
5.369874e+002, 1.416454e+002
5.374695e+002, 1.420544e+002
5.379517e+002, 1.420711e+002
5.384338e+002, 1.416712e+002
5.389159e+002, 1.414001e+002
5.393980e+002, 1.412649e+002
5.398801e+002, 1.412297e+002
5.403622e+002, 1.413655e+002
5.408444e+002, 1.416003e+002
5.413265e+002, 1.415246e+002
5.418086e+002, 1.408597e+002
5.422907e+002, 1.402263e+002
5.427728e+002, 1.407418e+002
5.432549e+002, 1.419941e+002
5.437371e+002, 1.427915e+002
5.442192e+002, 1.419486e+002
5.447013e+002, 1.408514e+002
5.451834e+002, 1.406288e+002
5.456655e+002, 1.412550e+002
5.461476e+002, 1.418327e+002
5.466298e+002, 1.420464e+002
5.471119e+002, 1.420458e+002
5.475940e+002, 1.419081e+002
5.480761e+002, 1.415396e+002
5.485582e+002, 1.412510e+002
5.490403e+002, 1.410407e+002
5.495225e+002, 1.409327e+002
5.500046e+002, 1.409865e+002
5.504867e+002, 1.413623e+002
5.509688e+002, 1.415668e+002
5.514509e+002, 1.414712e+002
5.519330e+002, 1.411549e+002
5.524152e+002, 1.409039e+002
5.528973e+002, 1.407212e+002
5.533794e+002, 1.405653e+002
5.538615e+002, 1.403954e+002
5.543436e+002, 1.402265e+002
5.548257e+002, 1.401374e+002
5.553079e+002, 1.401274e+002
5.557900e+002, 1.402081e+002
5.562721e+002, 1.405343e+002
5.567542e+002, 1.409305e+002
5.572363e+002, 1.410259e+002
5.577184e+002, 1.406437e+002
5.582006e+002, 1.402415e+002
5.586827e+002, 1.402640e+002
5.591648e+002, 1.404984e+002
5.596469e+002, 1.405838e+002
5.601290e+002, 1.402427e+002
5.606111e+002, 1.398708e+002
5.610933e+002, 1.396425e+002
5.615754e+002, 1.395341e+002
5.620575e+002, 1.393702e+002
5.625396e+002, 1.389427e+002
5.630217e+002, 1.386293e+002
5.635038e+002, 1.386262e+002
5.639860e+002, 1.390511e+002
5.644681e+002, 1.392237e+002
5.649502e+002, 1.390840e+002
5.654323e+002, 1.387855e+002
5.659144e+002, 1.384699e+002
5.663965e+002, 1.381385e+002
5.668787e+002, 1.377217e+002
5.673608e+002, 1.371494e+002
5.678429e+002, 1.366140e+002
5.683250e+002, 1.365866e+002
5.688071e+002, 1.369662e+002
5.692892e+002, 1.372059e+002
5.697714e+002, 1.370045e+002
5.702535e+002, 1.365668e+002
5.707356e+002, 1.361335e+002
5.712177e+002, 1.356996e+002
5.716998e+002, 1.352740e+002
5.721819e+002, 1.346227e+002
5.726641e+002, 1.341292e+002
5.731462e+002, 1.342351e+002
5.736283e+002, 1.351606e+002
5.741104e+002, 1.357401e+002
5.745925e+002, 1.353021e+002
5.750746e+002, 1.345323e+002
5.755568e+002, 1.340486e+002
5.760389e+002, 1.342189e+002
5.765210e+002, 1.342430e+002
5.770031e+002, 1.340025e+002
5.774852e+002, 1.336348e+002
5.779673e+002, 1.334313e+002
5.784495e+002, 1.334390e+002
5.789316e+002, 1.334686e+002
5.794137e+002, 1.335012e+002
5.798958e+002, 1.335063e+002
5.803779e+002, 1.332735e+002
5.808600e+002, 1.327919e+002
5.813422e+002, 1.323934e+002
5.818243e+002, 1.324269e+002
5.823065e+002, 1.326922e+002
5.827886e+002, 1.327071e+002
5.832707e+002, 1.324248e+002
5.837528e+002, 1.320779e+002
5.842349e+002, 1.318551e+002
5.847170e+002, 1.316752e+002
5.851992e+002, 1.314231e+002
5.856813e+002, 1.309622e+002
5.861634e+002, 1.306002e+002
5.866455e+002, 1.304548e+002
5.871276e+002, 1.304956e+002
5.876097e+002, 1.306682e+002
5.880919e+002, 1.313013e+002
5.885740e+002, 1.316777e+002
5.890561e+002, 1.314875e+002
5.895382e+002, 1.308473e+002
5.900203e+002, 1.306454e+002
5.905024e+002, 1.311022e+002
5.909846e+002, 1.315635e+002
5.914667e+002, 1.317162e+002
5.919488e+002, 1.315610e+002
5.924309e+002, 1.312856e+002
5.929130e+002, 1.308613e+002
5.933951e+002, 1.304734e+002
5.938773e+002, 1.304162e+002
5.943594e+002, 1.305597e+002
5.948415e+002, 1.303659e+002
5.953236e+002, 1.295893e+002
5.958057e+002, 1.289834e+002
5.962878e+002, 1.296309e+002
5.967700e+002, 1.309655e+002
5.972521e+002, 1.319180e+002
5.977342e+002, 1.317067e+002
5.982163e+002, 1.313628e+002
5.986984e+002, 1.314123e+002
5.991805e+002, 1.317531e+002
5.996627e+002, 1.319938e+002
6.001448e+002, 1.319252e+002
6.006269e+002, 1.318564e+002
6.011090e+002, 1.319225e+002
6.015911e+002, 1.321426e+002
6.020732e+002, 1.322523e+002
6.025554e+002, 1.322001e+002
6.030375e+002, 1.321185e+002
6.035196e+002, 1.320947e+002
6.040017e+002, 1.321301e+002
6.044838e+002, 1.322103e+002
6.049659e+002, 1.323399e+002
6.054481e+002, 1.324961e+002
6.059302e+002, 1.326286e+002
6.064123e+002, 1.327573e+002
6.068944e+002, 1.330092e+002
6.073765e+002, 1.335716e+002
6.078586e+002, 1.340030e+002
6.083408e+002, 1.335248e+002
6.088229e+002, 1.325106e+002
6.093050e+002, 1.318896e+002
6.097871e+002, 1.323427e+002
6.102692e+002, 1.330683e+002
6.107513e+002, 1.337892e+002
6.112335e+002, 1.344618e+002
6.117156e+002, 1.348011e+002
6.121977e+002, 1.344967e+002
6.126798e+002, 1.340698e+002
6.131619e+002, 1.337199e+002
6.136440e+002, 1.334142e+002
6.141262e+002, 1.333659e+002
6.146083e+002, 1.337247e+002
6.150904e+002, 1.341064e+002
6.155725e+002, 1.341140e+002
6.160546e+002, 1.337311e+002
6.165367e+002, 1.334740e+002
6.170189e+002, 1.334341e+002
6.175010e+002, 1.334608e+002
6.179831e+002, 1.331906e+002
6.184652e+002, 1.327731e+002
6.189473e+002, 1.327481e+002
6.194294e+002, 1.335433e+002
6.199116e+002, 1.345362e+002
6.203937e+002, 1.352401e+002
6.208758e+002, 1.356637e+002
6.213579e+002, 1.358475e+002
6.218400e+002, 1.355666e+002
6.223221e+002, 1.352654e+002
6.228043e+002, 1.351564e+002
6.232864e+002, 1.352515e+002
6.237685e+002, 1.354405e+002
6.242506e+002, 1.359050e+002
6.247327e+002, 1.362728e+002
6.252148e+002, 1.362954e+002
6.256970e+002, 1.357983e+002
6.261791e+002, 1.357095e+002
6.266612e+002, 1.361498e+002
6.271433e+002, 1.367470e+002
6.276254e+002, 1.371496e+002
6.281075e+002, 1.373609e+002
6.285897e+002, 1.373703e+002
6.290718e+002, 1.370919e+002
6.295539e+002, 1.368494e+002
6.300360e+002, 1.371942e+002
6.305181e+002, 1.379231e+002
6.310002e+002, 1.385329e+002
6.314824e+002, 1.387166e+002
6.319645e+002, 1.388101e+002
6.324466e+002, 1.390791e+002
6.329287e+002, 1.394576e+002
6.334108e+002, 1.397337e+002
6.338929e+002, 1.397157e+002
6.343751e+002, 1.396979e+002
6.348572e+002, 1.398211e+002
6.353393e+002, 1.400986e+002
6.358214e+002, 1.403074e+002
6.363035e+002, 1.404388e+002
6.367856e+002, 1.405202e+002
6.372678e+002, 1.405018e+002
6.377499e+002, 1.403279e+002
6.382320e+002, 1.405928e+002
6.387141e+002, 1.414126e+002
6.391962e+002, 1.422425e+002
6.396783e+002, 1.424581e+002
6.401605e+002, 1.421974e+002
6.406426e+002, 1.419410e+002
6.411247e+002, 1.417224e+002
6.416068e+002, 1.417077e+002
6.420889e+002, 1.422854e+002
6.425710e+002, 1.431472e+002
6.430532e+002, 1.437511e+002
6.435353e+002, 1.436161e+002
6.440174e+002, 1.434745e+002
6.444995e+002, 1.436632e+002
6.449816e+002, 1.440796e+002
6.454637e+002, 1.444338e+002
6.459459e+002, 1.446054e+002
6.464280e+002, 1.447849e+002
6.469101e+002, 1.450197e+002
6.473922e+002, 1.453056e+002
6.478743e+002, 1.455477e+002
6.483564e+002, 1.457096e+002
6.488386e+002, 1.459412e+002
6.493207e+002, 1.463479e+002
6.498028e+002, 1.469173e+002
6.502849e+002, 1.475285e+002
6.507670e+002, 1.481878e+002
6.512491e+002, 1.487573e+002
6.517313e+002, 1.490390e+002
6.522134e+002, 1.491624e+002
6.526955e+002, 1.493371e+002
6.531776e+002, 1.496065e+002
6.536597e+002, 1.499018e+002
6.541418e+002, 1.501177e+002
6.546240e+002, 1.503668e+002
6.551061e+002, 1.507803e+002
6.555882e+002, 1.517428e+002
6.560703e+002, 1.524403e+002
6.565524e+002, 1.525635e+002
6.570345e+002, 1.524015e+002
6.575167e+002, 1.524787e+002
6.579988e+002, 1.529526e+002
6.584809e+002, 1.532366e+002
6.589630e+002, 1.530556e+002
6.594451e+002, 1.526550e+002
6.599272e+002, 1.530593e+002
6.604094e+002, 1.542713e+002
6.608915e+002, 1.552407e+002
6.613736e+002, 1.550572e+002
6.618557e+002, 1.543810e+002
6.623378e+002, 1.545585e+002
6.628199e+002, 1.554968e+002
6.633021e+002, 1.563149e+002
6.637842e+002, 1.562420e+002
6.642663e+002, 1.559624e+002
6.647484e+002, 1.560413e+002
6.652305e+002, 1.565986e+002
6.657126e+002, 1.571483e+002
6.661948e+002, 1.575982e+002
6.666769e+002, 1.579780e+002
6.671590e+002, 1.582977e+002
6.676411e+002, 1.584520e+002
6.681232e+002, 1.587873e+002
6.686053e+002, 1.593770e+002
6.690875e+002, 1.600451e+002
6.695696e+002, 1.605829e+002
6.700517e+002, 1.609920e+002
6.705338e+002, 1.613174e+002
6.710159e+002, 1.615627e+002
6.714980e+002, 1.617375e+002
6.719802e+002, 1.617757e+002
6.724623e+002, 1.617480e+002
6.729444e+002, 1.618507e+002
6.734265e+002, 1.623981e+002
6.739086e+002, 1.628829e+002
6.743907e+002, 1.628430e+002
6.748729e+002, 1.624492e+002
6.753550e+002, 1.622248e+002
6.758371e+002, 1.624225e+002
6.763192e+002, 1.627214e+002
6.768013e+002, 1.630589e+002
6.772834e+002, 1.634256e+002
6.777656e+002, 1.636588e+002
6.782477e+002, 1.636873e+002
6.787298e+002, 1.637251e+002
6.792119e+002, 1.638550e+002
6.796940e+002, 1.640787e+002
6.801761e+002, 1.645053e+002
6.806583e+002, 1.651568e+002
6.811404e+002, 1.657421e+002
6.816225e+002, 1.659303e+002
6.821046e+002, 1.658995e+002
6.825867e+002, 1.659827e+002
6.830688e+002, 1.662299e+002
6.835510e+002, 1.665169e+002
6.840331e+002, 1.668394e+002
6.845152e+002, 1.671197e+002
6.849973e+002, 1.672758e+002
6.854794e+002, 1.671909e+002
6.859615e+002, 1.671503e+002
6.864437e+002, 1.671602e+002
6.869258e+002, 1.672575e+002
6.874079e+002, 1.675062e+002
6.878900e+002, 1.679814e+002
6.883721e+002, 1.684180e+002
6.888542e+002, 1.687652e+002
6.893364e+002, 1.690672e+002
6.898185e+002, 1.694073e+002
6.903006e+002, 1.697805e+002
6.907827e+002, 1.701385e+002
6.912648e+002, 1.704504e+002
6.917469e+002, 1.707463e+002
6.922291e+002, 1.710399e+002
6.927112e+002, 1.713475e+002
6.931933e+002, 1.717112e+002
6.936754e+002, 1.722341e+002
6.941575e+002, 1.727449e+002
6.946396e+002, 1.731147e+002
6.951218e+002, 1.733530e+002
6.956039e+002, 1.736595e+002
6.960860e+002, 1.741494e+002
6.965681e+002, 1.746100e+002
6.970502e+002, 1.749221e+002
6.975323e+002, 1.750720e+002
6.980145e+002, 1.754520e+002
6.984966e+002, 1.761149e+002
6.989787e+002, 1.768227e+002
6.994608e+002, 1.774930e+002
6.999429e+002, 1.780785e+002
7.004250e+002, 1.782216e+002
7.009072e+002, 1.778747e+002
7.013893e+002, 1.776452e+002
7.018714e+002, 1.782666e+002
7.023535e+002, 1.792297e+002
7.028356e+002, 1.798231e+002
7.033177e+002, 1.796997e+002
7.037999e+002, 1.798756e+002
7.042820e+002, 1.810916e+002
7.047641e+002, 1.826388e+002
7.052462e+002, 1.837467e+002
7.057283e+002, 1.840515e+002
7.062104e+002, 1.844452e+002
7.066926e+002, 1.849668e+002
7.071747e+002, 1.855874e+002
7.076568e+002, 1.863221e+002
7.081389e+002, 1.871846e+002
7.086210e+002, 1.878451e+002
7.091031e+002, 1.881637e+002
7.095853e+002, 1.883707e+002
7.100674e+002, 1.887978e+002
7.105495e+002, 1.894258e+002
7.110316e+002, 1.902097e+002
7.115137e+002, 1.913846e+002
7.119958e+002, 1.924663e+002
7.124780e+002, 1.930351e+002
7.129601e+002, 1.932466e+002
7.134422e+002, 1.935650e+002
7.139243e+002, 1.944720e+002
7.144064e+002, 1.951106e+002
7.148885e+002, 1.949562e+002
7.153707e+002, 1.941956e+002
7.158528e+002, 1.944404e+002
7.163349e+002, 1.960416e+002
7.168170e+002, 1.975858e+002
7.172991e+002, 1.983324e+002
7.177813e+002, 1.984398e+002
7.182634e+002, 1.986319e+002
7.187455e+002, 1.989117e+002
7.192276e+002, 1.993023e+002
7.197097e+002, 1.999043e+002
7.201918e+002, 2.005869e+002
7.206740e+002, 2.012172e+002
7.211561e+002, 2.017791e+002
7.216382e+002, 2.022912e+002
7.221203e+002, 2.026114e+002
7.226024e+002, 2.029886e+002
7.230845e+002, 2.036403e+002
7.235667e+002, 2.047554e+002
7.240488e+002, 2.055899e+002
7.245309e+002, 2.060513e+002
7.250130e+002, 2.063676e+002
7.254951e+002, 2.067372e+002
7.259772e+002, 2.071720e+002
7.264594e+002, 2.074726e+002
7.269415e+002, 2.076039e+002
7.274236e+002, 2.076944e+002
7.279057e+002, 2.078634e+002
7.283878e+002, 2.081047e+002
7.288699e+002, 2.084393e+002
7.293521e+002, 2.089461e+002
7.298342e+002, 2.093315e+002
7.303163e+002, 2.092653e+002
7.307984e+002, 2.090108e+002
7.312805e+002, 2.088996e+002
7.317626e+002, 2.091891e+002
7.322448e+002, 2.093847e+002
7.327269e+002, 2.093280e+002
7.332090e+002, 2.092153e+002
7.336911e+002, 2.094456e+002
7.341732e+002, 2.101682e+002
7.346553e+002, 2.105374e+002
7.351375e+002, 2.102823e+002
7.356196e+002, 2.097267e+002
7.361017e+002, 2.093924e+002
7.365838e+002, 2.092850e+002
7.370659e+002, 2.094556e+002
7.375480e+002, 2.103507e+002
7.380302e+002, 2.110837e+002
7.385123e+002, 2.105120e+002
7.389944e+002, 2.091274e+002
7.394765e+002, 2.081990e+002
7.399586e+002, 2.087381e+002
7.404407e+002, 2.091906e+002
7.409229e+002, 2.089203e+002
7.414050e+002, 2.081068e+002
7.418871e+002, 2.075046e+002
7.423692e+002, 2.071096e+002
7.428513e+002, 2.069910e+002
7.433334e+002, 2.073518e+002
7.438156e+002, 2.079820e+002
7.442977e+002, 2.078218e+002
7.447798e+002, 2.069225e+002
7.452619e+002, 2.061958e+002
7.457440e+002, 2.064892e+002
7.462261e+002, 2.070894e+002
7.467083e+002, 2.071658e+002
7.471904e+002, 2.067298e+002
7.476725e+002, 2.061685e+002
7.481546e+002, 2.053262e+002
7.486367e+002, 2.046830e+002
7.491188e+002, 2.046719e+002
7.496010e+002, 2.054185e+002
7.500831e+002, 2.054768e+002
7.505652e+002, 2.045009e+002
7.510473e+002, 2.034665e+002
7.515294e+002, 2.029915e+002
7.520115e+002, 2.030518e+002
7.524937e+002, 2.029664e+002
7.529758e+002, 2.027200e+002
7.534579e+002, 2.025668e+002
7.539400e+002, 2.029913e+002
7.544221e+002, 2.035434e+002
7.549042e+002, 2.034129e+002
7.553864e+002, 2.024543e+002
7.558685e+002, 2.016627e+002
7.563506e+002, 2.018238e+002
7.568327e+002, 2.021716e+002
7.573148e+002, 2.020452e+002
7.577969e+002, 2.009921e+002
7.582791e+002, 2.005493e+002
7.587612e+002, 2.010242e+002
7.592433e+002, 2.016920e+002
7.597254e+002, 2.018974e+002
7.602075e+002, 2.016290e+002
7.606896e+002, 2.014063e+002
7.611718e+002, 2.012460e+002
7.616539e+002, 2.012313e+002
7.621360e+002, 2.016985e+002
7.626181e+002, 2.023100e+002
7.631002e+002, 2.023462e+002
7.635823e+002, 2.014418e+002
7.640645e+002, 2.007153e+002
7.645466e+002, 2.010343e+002
7.650287e+002, 2.017199e+002
7.655108e+002, 2.020381e+002
7.659929e+002, 2.014747e+002
7.664750e+002, 2.011825e+002
7.669572e+002, 2.012845e+002
7.674393e+002, 2.015404e+002
7.679214e+002, 2.016844e+002
7.684035e+002, 2.017191e+002
7.688856e+002, 2.015363e+002
7.693677e+002, 2.010567e+002
7.698499e+002, 2.005605e+002
7.703320e+002, 2.004738e+002
7.708141e+002, 2.006294e+002
7.712962e+002, 2.006739e+002
7.717783e+002, 2.004616e+002
7.722604e+002, 2.001802e+002
7.727426e+002, 1.997585e+002
7.732247e+002, 1.993797e+002
7.737068e+002, 1.993308e+002
7.741889e+002, 2.000635e+002
7.746710e+002, 2.004984e+002
7.751531e+002, 2.005219e+002
7.756353e+002, 2.002255e+002
7.761174e+002, 1.996259e+002
7.765995e+002, 1.987100e+002
7.770816e+002, 1.982168e+002
7.775637e+002, 1.984632e+002
7.780458e+002, 1.989127e+002
7.785280e+002, 1.988276e+002
7.790101e+002, 1.983461e+002
7.794922e+002, 1.977765e+002
7.799743e+002, 1.971953e+002
7.804564e+002, 1.966141e+002
7.809385e+002, 1.960404e+002
7.814207e+002, 1.954647e+002
7.819028e+002, 1.948595e+002
7.823849e+002, 1.941533e+002
7.828670e+002, 1.935619e+002
7.833491e+002, 1.932061e+002
7.838312e+002, 1.929226e+002
7.843134e+002, 1.922995e+002
7.847955e+002, 1.913475e+002
7.852776e+002, 1.903051e+002
7.857597e+002, 1.891924e+002
7.862418e+002, 1.881415e+002
7.867239e+002, 1.873467e+002
7.872061e+002, 1.867685e+002
7.876882e+002, 1.862856e+002
7.881703e+002, 1.859963e+002
7.886524e+002, 1.856482e+002
7.891345e+002, 1.851384e+002
7.896166e+002, 1.844915e+002
7.900988e+002, 1.837639e+002
7.905809e+002, 1.828598e+002
7.910630e+002, 1.820963e+002
7.915451e+002, 1.816162e+002
7.920272e+002, 1.812750e+002
7.925093e+002, 1.806805e+002
7.929915e+002, 1.798427e+002
7.934736e+002, 1.789658e+002
7.939557e+002, 1.781071e+002
7.944378e+002, 1.772664e+002
7.949199e+002, 1.764141e+002
7.954020e+002, 1.755688e+002
7.958842e+002, 1.748159e+002
7.963663e+002, 1.742903e+002
7.968484e+002, 1.737420e+002
7.973305e+002, 1.729716e+002
7.978126e+002, 1.721102e+002
7.982947e+002, 1.716705e+002
7.987769e+002, 1.719369e+002
7.992590e+002, 1.717905e+002
7.997411e+002, 1.707514e+002
8.002232e+002, 1.692373e+002
8.007053e+002, 1.683088e+002
8.011874e+002, 1.679034e+002
8.016696e+002, 1.676490e+002
8.021517e+002, 1.673844e+002
8.026338e+002, 1.671831e+002
8.031159e+002, 1.672369e+002
8.035980e+002, 1.674134e+002
8.040801e+002, 1.673491e+002
8.045623e+002, 1.663226e+002
8.050444e+002, 1.657756e+002
8.055265e+002, 1.664949e+002
8.060086e+002, 1.678894e+002
8.064907e+002, 1.679075e+002
8.069728e+002, 1.662696e+002
8.074550e+002, 1.646779e+002
8.079371e+002, 1.636775e+002
8.084192e+002, 1.630694e+002
8.089013e+002, 1.623970e+002
8.093834e+002, 1.617472e+002
8.098655e+002, 1.614317e+002
8.103477e+002, 1.620151e+002
8.108298e+002, 1.625910e+002
8.113119e+002, 1.624444e+002
8.117940e+002, 1.618353e+002
8.122761e+002, 1.615567e+002
8.127582e+002, 1.622556e+002
8.132404e+002, 1.625151e+002
8.137225e+002, 1.618150e+002
8.142046e+002, 1.606036e+002
8.146867e+002, 1.603754e+002
8.151688e+002, 1.611498e+002
8.156509e+002, 1.615452e+002
8.161331e+002, 1.608087e+002
8.166152e+002, 1.597383e+002
8.170973e+002, 1.595944e+002
8.175794e+002, 1.600673e+002
8.180615e+002, 1.603543e+002
8.185436e+002, 1.598281e+002
8.190258e+002, 1.593450e+002
8.195079e+002, 1.592853e+002
8.199900e+002, 1.595196e+002
8.204721e+002, 1.596850e+002
8.209542e+002, 1.598086e+002
8.214363e+002, 1.597558e+002
8.219185e+002, 1.593733e+002
8.224006e+002, 1.589350e+002
8.228827e+002, 1.592388e+002
8.233648e+002, 1.601311e+002
8.238469e+002, 1.606967e+002
8.243290e+002, 1.604631e+002
8.248112e+002, 1.599731e+002
8.252933e+002, 1.596147e+002
8.257754e+002, 1.593763e+002
8.262575e+002, 1.592422e+002
8.267396e+002, 1.591740e+002
8.272217e+002, 1.592628e+002
8.277039e+002, 1.596725e+002
8.281860e+002, 1.601652e+002
8.286681e+002, 1.602296e+002
8.291502e+002, 1.597785e+002
8.296323e+002, 1.595476e+002
8.301144e+002, 1.597876e+002
8.305966e+002, 1.601383e+002
8.310787e+002, 1.599554e+002
8.315608e+002, 1.594544e+002
8.320429e+002, 1.591471e+002
8.325250e+002, 1.592534e+002
8.330071e+002, 1.595262e+002
8.334893e+002, 1.601675e+002
8.339714e+002, 1.607961e+002
8.344535e+002, 1.607509e+002
8.349356e+002, 1.593398e+002
8.354177e+002, 1.586188e+002
8.358998e+002, 1.589605e+002
8.363820e+002, 1.597748e+002
8.368641e+002, 1.602616e+002
8.373462e+002, 1.604359e+002
8.378283e+002, 1.604308e+002
8.383104e+002, 1.602425e+002
8.387925e+002, 1.599954e+002
8.392747e+002, 1.596645e+002
8.397568e+002, 1.594038e+002
8.402389e+002, 1.594558e+002
8.407210e+002, 1.601985e+002
8.412031e+002, 1.606743e+002
8.416852e+002, 1.604948e+002
8.421674e+002, 1.601102e+002
8.426495e+002, 1.599471e+002
8.431316e+002, 1.600639e+002
8.436137e+002, 1.600493e+002
8.440958e+002, 1.598394e+002
8.445779e+002, 1.596380e+002
8.450601e+002, 1.597575e+002
8.455422e+002, 1.600448e+002
8.460243e+002, 1.601405e+002
8.465064e+002, 1.599381e+002
8.469885e+002, 1.598078e+002
8.474706e+002, 1.601386e+002
8.479528e+002, 1.605136e+002
8.484349e+002, 1.605026e+002
8.489170e+002, 1.597758e+002
8.493991e+002, 1.596475e+002
8.498812e+002, 1.604396e+002
8.503633e+002, 1.611855e+002
8.508455e+002, 1.608185e+002
8.513276e+002, 1.595770e+002
8.518097e+002, 1.592148e+002
8.522918e+002, 1.598330e+002
8.527739e+002, 1.605685e+002
8.532560e+002, 1.608113e+002
8.537382e+002, 1.607938e+002
8.542203e+002, 1.607384e+002
8.547024e+002, 1.606794e+002
8.551845e+002, 1.604844e+002
8.556666e+002, 1.598908e+002
8.561487e+002, 1.594176e+002
8.566309e+002, 1.593593e+002
8.571130e+002, 1.597097e+002
8.575951e+002, 1.598977e+002
8.580772e+002, 1.599143e+002
8.585593e+002, 1.598788e+002
8.590414e+002, 1.598270e+002
8.595236e+002, 1.597946e+002
8.600057e+002, 1.599211e+002
8.604878e+002, 1.601607e+002
8.609699e+002, 1.602053e+002
8.614520e+002, 1.596372e+002
8.619341e+002, 1.591080e+002
8.624163e+002, 1.590071e+002
8.628984e+002, 1.592534e+002
8.633805e+002, 1.592993e+002
8.638626e+002, 1.591275e+002
8.643447e+002, 1.587926e+002
8.648268e+002, 1.582049e+002
8.653090e+002, 1.575504e+002
8.657911e+002, 1.573143e+002
8.662732e+002, 1.574401e+002
8.667553e+002, 1.577055e+002
8.672374e+002, 1.582164e+002
8.677195e+002, 1.586189e+002
8.682017e+002, 1.586062e+002
8.686838e+002, 1.583123e+002
8.691659e+002, 1.581326e+002
8.696480e+002, 1.582522e+002
8.701301e+002, 1.581881e+002
8.706122e+002, 1.577644e+002
8.710944e+002, 1.572022e+002
8.715765e+002, 1.570523e+002
8.720586e+002, 1.572497e+002
8.725407e+002, 1.572818e+002
8.730228e+002, 1.569714e+002
8.735049e+002, 1.565112e+002
8.739871e+002, 1.559210e+002
8.744692e+002, 1.553529e+002
8.749513e+002, 1.550318e+002
8.754334e+002, 1.553059e+002
8.759155e+002, 1.554412e+002
8.763976e+002, 1.553277e+002
8.768798e+002, 1.551018e+002
8.773619e+002, 1.549445e+002
8.778440e+002, 1.548683e+002
8.783261e+002, 1.545909e+002
8.788082e+002, 1.540486e+002
8.792903e+002, 1.534517e+002
8.797725e+002, 1.528591e+002
8.802546e+002, 1.524150e+002
8.807367e+002, 1.524151e+002
8.812188e+002, 1.530261e+002
8.817009e+002, 1.534975e+002
8.821830e+002, 1.535899e+002
8.826652e+002, 1.534142e+002
8.831473e+002, 1.530079e+002
8.836294e+002, 1.523027e+002
8.841115e+002, 1.518289e+002
8.845936e+002, 1.516253e+002
8.850757e+002, 1.514631e+002
8.855579e+002, 1.510239e+002
8.860400e+002, 1.505447e+002
8.865221e+002, 1.506421e+002
8.870042e+002, 1.512854e+002
8.874863e+002, 1.517653e+002
8.879684e+002, 1.516600e+002
8.884506e+002, 1.513230e+002
8.889327e+002, 1.508453e+002
8.894148e+002, 1.502600e+002
8.898969e+002, 1.499444e+002
8.903790e+002, 1.500028e+002
8.908611e+002, 1.500128e+002
8.913433e+002, 1.497400e+002
8.918254e+002, 1.493329e+002
8.923075e+002, 1.492274e+002
8.927896e+002, 1.493513e+002
8.932717e+002, 1.493989e+002
8.937538e+002, 1.492854e+002
8.942360e+002, 1.489741e+002
8.947181e+002, 1.481697e+002
8.952002e+002, 1.471642e+002
8.956823e+002, 1.467907e+002
8.961644e+002, 1.475621e+002
8.966465e+002, 1.479324e+002
8.971287e+002, 1.475182e+002
8.976108e+002, 1.467798e+002
8.980929e+002, 1.466199e+002
8.985750e+002, 1.469090e+002
8.990571e+002, 1.470203e+002
8.995392e+002, 1.467434e+002
9.000214e+002, 1.464020e+002
9.005035e+002, 1.463177e+002
9.009856e+002, 1.462866e+002
9.014677e+002, 1.460566e+002
9.019498e+002, 1.453629e+002
9.024319e+002, 1.448646e+002
9.029141e+002, 1.445835e+002
9.033962e+002, 1.444698e+002
9.038783e+002, 1.446129e+002
9.043604e+002, 1.449507e+002
9.048425e+002, 1.447251e+002
9.053246e+002, 1.438542e+002
9.058068e+002, 1.431304e+002
9.062889e+002, 1.433981e+002
9.067710e+002, 1.439766e+002
9.072531e+002, 1.442615e+002
9.077352e+002, 1.441748e+002
9.082173e+002, 1.439863e+002
9.086995e+002, 1.436818e+002
9.091816e+002, 1.433580e+002
9.096637e+002, 1.430352e+002
9.101458e+002, 1.427284e+002
9.106279e+002, 1.426198e+002
9.111101e+002, 1.426945e+002
9.115922e+002, 1.426397e+002
9.120743e+002, 1.421582e+002
9.125565e+002, 1.415547e+002
9.130386e+002, 1.410513e+002
9.135207e+002, 1.406803e+002
9.140028e+002, 1.405154e+002
9.144849e+002, 1.408782e+002
9.149670e+002, 1.410575e+002
9.154492e+002, 1.408200e+002
9.159313e+002, 1.404019e+002
9.164134e+002, 1.403557e+002
9.168955e+002, 1.406713e+002
9.173776e+002, 1.408183e+002
9.178597e+002, 1.406224e+002
9.183419e+002, 1.403620e+002
9.188240e+002, 1.404019e+002
9.193061e+002, 1.405501e+002
9.197882e+002, 1.405156e+002
9.202703e+002, 1.400482e+002
9.207524e+002, 1.397716e+002
9.212346e+002, 1.398573e+002
9.217167e+002, 1.400701e+002
9.221988e+002, 1.403124e+002
9.226809e+002, 1.406005e+002
9.231630e+002, 1.403459e+002
9.236451e+002, 1.394836e+002
9.241273e+002, 1.386238e+002
9.246094e+002, 1.382952e+002
9.250915e+002, 1.382512e+002
9.255736e+002, 1.382425e+002
9.260557e+002, 1.382465e+002
9.265378e+002, 1.382876e+002
9.270200e+002, 1.383138e+002
9.275021e+002, 1.384625e+002
9.279842e+002, 1.389165e+002
9.284663e+002, 1.395465e+002
9.289484e+002, 1.394424e+002
9.294305e+002, 1.386143e+002
9.299127e+002, 1.379445e+002
9.303948e+002, 1.379401e+002
9.308769e+002, 1.382110e+002
9.313590e+002, 1.383985e+002
9.318411e+002, 1.385029e+002
9.323232e+002, 1.385195e+002
9.328054e+002, 1.385119e+002
9.332875e+002, 1.383060e+002
9.337696e+002, 1.376966e+002
9.342517e+002, 1.370464e+002
9.347338e+002, 1.370433e+002
9.352159e+002, 1.376830e+002
9.356981e+002, 1.378537e+002
9.361802e+002, 1.372985e+002
9.366623e+002, 1.366911e+002
9.371444e+002, 1.368195e+002
9.376265e+002, 1.372404e+002
9.381086e+002, 1.373923e+002
9.385908e+002, 1.370881e+002
9.390729e+002, 1.369007e+002
9.395550e+002, 1.370619e+002
9.400371e+002, 1.371883e+002
9.405192e+002, 1.370277e+002
9.410013e+002, 1.365984e+002
9.414835e+002, 1.362958e+002
9.419656e+002, 1.361144e+002
9.424477e+002, 1.359112e+002
9.429298e+002, 1.354594e+002
9.434119e+002, 1.350411e+002
9.438940e+002, 1.349302e+002
9.443762e+002, 1.350994e+002
9.448583e+002, 1.353941e+002
9.453404e+002, 1.360570e+002
9.458225e+002, 1.364476e+002
9.463046e+002, 1.363320e+002
9.467867e+002, 1.359496e+002
9.472689e+002, 1.359360e+002
9.477510e+002, 1.362271e+002
9.482331e+002, 1.362346e+002
9.487152e+002, 1.356549e+002
9.491973e+002, 1.351274e+002
9.496794e+002, 1.354800e+002
9.501616e+002, 1.361100e+002
9.506437e+002, 1.362552e+002
9.511258e+002, 1.353272e+002
9.516079e+002, 1.347976e+002
9.520900e+002, 1.347838e+002
9.525721e+002, 1.350090e+002
9.530543e+002, 1.352586e+002
9.535364e+002, 1.355444e+002
9.540185e+002, 1.360920e+002
9.545006e+002, 1.368808e+002
9.549827e+002, 1.372838e+002
9.554648e+002, 1.362235e+002
9.559470e+002, 1.351389e+002
9.564291e+002, 1.353313e+002
9.569112e+002, 1.367256e+002
9.573933e+002, 1.373221e+002
9.578754e+002, 1.366185e+002
9.583575e+002, 1.360997e+002
9.588397e+002, 1.362160e+002
9.593218e+002, 1.368141e+002
9.598039e+002, 1.377379e+002
9.602860e+002, 1.388540e+002
9.607681e+002, 1.396644e+002
9.612502e+002, 1.398208e+002
9.617324e+002, 1.399028e+002
9.622145e+002, 1.403612e+002
9.626966e+002, 1.408774e+002
9.631787e+002, 1.410575e+002
9.636608e+002, 1.409310e+002
9.641429e+002, 1.403066e+002
9.646251e+002, 1.390600e+002
9.651072e+002, 1.377326e+002
9.655893e+002, 1.368496e+002
9.660714e+002, 1.363035e+002
9.665535e+002, 1.358534e+002
9.670356e+002, 1.354819e+002
9.675178e+002, 1.351367e+002
9.679999e+002, 1.347029e+002
9.684820e+002, 1.343787e+002
9.689641e+002, 1.343385e+002
9.694462e+002, 1.345232e+002
9.699283e+002, 1.345309e+002
9.704105e+002, 1.343578e+002
9.708926e+002, 1.340034e+002
9.713747e+002, 1.333426e+002
9.718568e+002, 1.326622e+002
9.723389e+002, 1.323817e+002
9.728210e+002, 1.324122e+002
9.733032e+002, 1.325642e+002
9.737853e+002, 1.330260e+002
9.742674e+002, 1.332444e+002
9.747495e+002, 1.329057e+002
9.752316e+002, 1.324586e+002
9.757137e+002, 1.323920e+002
9.761959e+002, 1.327209e+002
9.766780e+002, 1.330858e+002
9.771601e+002, 1.334804e+002
9.776422e+002, 1.337121e+002
9.781243e+002, 1.334965e+002
9.786064e+002, 1.331127e+002
9.790886e+002, 1.328722e+002
9.795707e+002, 1.328069e+002
9.800528e+002, 1.326529e+002
9.805349e+002, 1.323361e+002
9.810170e+002, 1.319693e+002
9.814991e+002, 1.315470e+002
9.819813e+002, 1.311210e+002
9.824634e+002, 1.308320e+002
9.829455e+002, 1.306915e+002
9.834276e+002, 1.307900e+002
9.839097e+002, 1.313315e+002
9.843918e+002, 1.318829e+002
9.848740e+002, 1.320791e+002
9.853561e+002, 1.321089e+002
9.858382e+002, 1.322904e+002
9.863203e+002, 1.328974e+002
9.868024e+002, 1.330477e+002
9.872845e+002, 1.325683e+002
9.877667e+002, 1.319903e+002
9.882488e+002, 1.318787e+002
9.887309e+002, 1.320987e+002
9.892130e+002, 1.323535e+002
9.896951e+002, 1.326104e+002
9.901772e+002, 1.327470e+002
9.906594e+002, 1.326536e+002
9.911415e+002, 1.324580e+002
9.916236e+002, 1.321449e+002
9.921057e+002, 1.317697e+002
9.925878e+002, 1.316604e+002
9.930699e+002, 1.318445e+002
9.935521e+002, 1.320938e+002
9.940342e+002, 1.323898e+002
9.945163e+002, 1.326049e+002
9.949984e+002, 1.325142e+002
9.954805e+002, 1.322158e+002
9.959626e+002, 1.318862e+002
9.964448e+002, 1.313988e+002
9.969269e+002, 1.311987e+002
9.974090e+002, 1.315099e+002
9.978911e+002, 1.319515e+002
9.983732e+002, 1.322267e+002
9.988553e+002, 1.323350e+002
9.993375e+002, 1.322008e+002
9.998196e+002, 1.318201e+002
1.000302e+003, 1.314756e+002
1.000784e+003, 1.311225e+002
1.001266e+003, 1.311011e+002
1.001748e+003, 1.320254e+002
1.002230e+003, 1.337455e+002
1.002712e+003, 1.346052e+002
1.003194e+003, 1.341796e+002
1.003677e+003, 1.336311e+002
1.004159e+003, 1.332074e+002
1.004641e+003, 1.329019e+002
1.005123e+003, 1.327656e+002
1.005605e+003, 1.327316e+002
1.006087e+003, 1.325545e+002
1.006569e+003, 1.320183e+002
1.007051e+003, 1.317143e+002
1.007533e+003, 1.321698e+002
1.008016e+003, 1.328255e+002
1.008498e+003, 1.331672e+002
1.008980e+003, 1.331232e+002
1.009462e+003, 1.331837e+002
1.009944e+003, 1.333747e+002
1.010426e+003, 1.334901e+002
1.010908e+003, 1.332221e+002
1.011390e+003, 1.328850e+002
1.011872e+003, 1.330364e+002
1.012355e+003, 1.335374e+002
1.012837e+003, 1.337435e+002
1.013319e+003, 1.329999e+002
1.013801e+003, 1.325247e+002
1.014283e+003, 1.326459e+002
1.014765e+003, 1.330808e+002
1.015247e+003, 1.333472e+002
1.015729e+003, 1.334559e+002
1.016212e+003, 1.334549e+002
1.016694e+003, 1.333331e+002
1.017176e+003, 1.332197e+002
1.017658e+003, 1.331551e+002
1.018140e+003, 1.331935e+002
1.018622e+003, 1.334262e+002
1.019104e+003, 1.339062e+002
1.019586e+003, 1.342854e+002
1.020068e+003, 1.346008e+002
1.020551e+003, 1.346957e+002
1.021033e+003, 1.343929e+002
1.021515e+003, 1.338723e+002
1.021997e+003, 1.334364e+002
1.022479e+003, 1.331191e+002
1.022961e+003, 1.330286e+002
1.023443e+003, 1.334005e+002
1.023925e+003, 1.337723e+002
1.024407e+003, 1.340163e+002
1.024890e+003, 1.341889e+002
1.025372e+003, 1.343952e+002
1.025854e+003, 1.346406e+002
1.026336e+003, 1.345939e+002
1.026818e+003, 1.341984e+002
1.027300e+003, 1.337789e+002
1.027782e+003, 1.335273e+002
1.028264e+003, 1.334548e+002
1.028747e+003, 1.335880e+002
1.029229e+003, 1.339313e+002
1.029711e+003, 1.344305e+002
1.030193e+003, 1.352502e+002
1.030675e+003, 1.358357e+002
1.031157e+003, 1.359445e+002
1.031639e+003, 1.357733e+002
1.032121e+003, 1.358303e+002
1.032604e+003, 1.359942e+002
1.033086e+003, 1.358233e+002
1.033568e+003, 1.348338e+002
1.034050e+003, 1.342397e+002
1.034532e+003, 1.351198e+002
1.035014e+003, 1.362614e+002
1.035496e+003, 1.365223e+002
1.035978e+003, 1.357148e+002
1.036460e+003, 1.353796e+002
1.036943e+003, 1.355445e+002
1.037425e+003, 1.358314e+002
1.037907e+003, 1.360746e+002
1.038389e+003, 1.362169e+002
1.038871e+003, 1.361094e+002
1.039353e+003, 1.358259e+002
1.039835e+003, 1.356696e+002
1.040317e+003, 1.357466e+002
1.040799e+003, 1.358767e+002
1.041282e+003, 1.360528e+002
1.041764e+003, 1.362393e+002
1.042246e+003, 1.364159e+002
1.042728e+003, 1.365569e+002
1.043210e+003, 1.365486e+002
1.043692e+003, 1.363525e+002
1.044174e+003, 1.361680e+002
1.044656e+003, 1.359811e+002
1.045139e+003, 1.359657e+002
1.045621e+003, 1.363533e+002
1.046103e+003, 1.370844e+002
1.046585e+003, 1.373057e+002
1.047067e+003, 1.369862e+002
1.047549e+003, 1.365405e+002
1.048031e+003, 1.360033e+002
1.048513e+003, 1.356466e+002
1.048995e+003, 1.360294e+002
1.049478e+003, 1.367660e+002
1.049960e+003, 1.371994e+002
1.050442e+003, 1.368323e+002
1.050924e+003, 1.366794e+002
1.051406e+003, 1.368711e+002
1.051888e+003, 1.370644e+002
1.052370e+003, 1.369057e+002
1.052852e+003, 1.364932e+002
1.053334e+003, 1.361145e+002
1.053817e+003, 1.357920e+002
1.054299e+003, 1.355917e+002
1.054781e+003, 1.356932e+002
1.055263e+003, 1.357728e+002
1.055745e+003, 1.356247e+002
1.056227e+003, 1.353632e+002
1.056709e+003, 1.352670e+002
1.057191e+003, 1.353449e+002
1.057674e+003, 1.354107e+002
1.058156e+003, 1.354241e+002
1.058638e+003, 1.354205e+002
1.059120e+003, 1.354853e+002
1.059602e+003, 1.355230e+002
1.060084e+003, 1.353760e+002
1.060566e+003, 1.349564e+002
1.061048e+003, 1.348292e+002
1.061531e+003, 1.351848e+002
1.062013e+003, 1.353972e+002
1.062495e+003, 1.350186e+002
1.062977e+003, 1.344101e+002
1.063459e+003, 1.346120e+002
1.063941e+003, 1.353416e+002
1.064423e+003, 1.357883e+002
1.064905e+003, 1.354766e+002
1.065387e+003, 1.350520e+002
1.065870e+003, 1.346355e+002
1.066352e+003, 1.342543e+002
1.066834e+003, 1.338589e+002
1.067316e+003, 1.334488e+002
1.067798e+003, 1.335639e+002
1.068280e+003, 1.342244e+002
1.068762e+003, 1.349179e+002
1.069244e+003, 1.353662e+002
1.069726e+003, 1.356208e+002
1.070209e+003, 1.357153e+002
1.070691e+003, 1.356393e+002
1.071173e+003, 1.353284e+002
1.071655e+003, 1.346336e+002
1.072137e+003, 1.341916e+002
1.072619e+003, 1.341392e+002
1.073101e+003, 1.343043e+002
1.073583e+003, 1.345653e+002
1.074066e+003, 1.348383e+002
1.074548e+003, 1.350003e+002
1.075030e+003, 1.350302e+002
1.075512e+003, 1.349295e+002
1.075994e+003, 1.345689e+002
1.076476e+003, 1.342451e+002
1.076958e+003, 1.340897e+002
1.077440e+003, 1.340597e+002
1.077922e+003, 1.338206e+002
1.078405e+003, 1.335087e+002
1.078887e+003, 1.338821e+002
1.079369e+003, 1.359967e+002
1.079851e+003, 1.375185e+002
1.080333e+003, 1.365405e+002
1.080815e+003, 1.346482e+002
1.081297e+003, 1.336087e+002
1.081779e+003, 1.335670e+002
1.082262e+003, 1.335903e+002
1.082744e+003, 1.336823e+002
1.083226e+003, 1.337953e+002
1.083708e+003, 1.339965e+002
1.084190e+003, 1.341203e+002
1.084672e+003, 1.338271e+002
1.085154e+003, 1.332950e+002
1.085636e+003, 1.331716e+002
1.086119e+003, 1.339901e+002
1.086601e+003, 1.342196e+002
1.087083e+003, 1.335073e+002
1.087565e+003, 1.325740e+002
1.088047e+003, 1.323144e+002
1.088529e+003, 1.325243e+002
1.089011e+003, 1.328120e+002
1.089493e+003, 1.331305e+002
1.089975e+003, 1.334481e+002
1.090458e+003, 1.340107e+002
1.090940e+003, 1.342331e+002
1.091422e+003, 1.337846e+002
1.091904e+003, 1.329206e+002
1.092386e+003, 1.323928e+002
1.092868e+003, 1.321753e+002
1.093350e+003, 1.321469e+002
1.093832e+003, 1.323092e+002
1.094314e+003, 1.325321e+002
1.094797e+003, 1.328257e+002
1.095279e+003, 1.330671e+002
1.095761e+003, 1.330997e+002
1.096243e+003, 1.329020e+002
1.096725e+003, 1.329500e+002
1.097207e+003, 1.332793e+002
1.097689e+003, 1.334567e+002
1.098171e+003, 1.331217e+002
1.098654e+003, 1.326348e+002
1.099136e+003, 1.323587e+002
1.099618e+003, 1.322482e+002
1.100100e+003, 1.322138e+002
1.100582e+003, 1.323112e+002
1.101064e+003, 1.323563e+002
1.101546e+003, 1.323618e+002
1.102028e+003, 1.322640e+002
1.102510e+003, 1.318268e+002
1.102993e+003, 1.313035e+002
1.103475e+003, 1.313692e+002
1.103957e+003, 1.319366e+002
1.104439e+003, 1.323185e+002
1.104921e+003, 1.319913e+002
1.105403e+003, 1.317558e+002
1.105885e+003, 1.318843e+002
1.106367e+003, 1.321353e+002
1.106849e+003, 1.319787e+002
1.107332e+003, 1.315352e+002
1.107814e+003, 1.315037e+002
1.108296e+003, 1.320187e+002
1.108778e+003, 1.325366e+002
1.109260e+003, 1.328402e+002
1.109742e+003, 1.329076e+002
1.110224e+003, 1.325918e+002
1.110706e+003, 1.320172e+002
1.111189e+003, 1.318681e+002
1.111671e+003, 1.321544e+002
1.112153e+003, 1.322471e+002
1.112635e+003, 1.318484e+002
1.113117e+003, 1.314324e+002
1.113599e+003, 1.316058e+002
1.114081e+003, 1.319512e+002
1.114563e+003, 1.319274e+002
1.115046e+003, 1.313544e+002
1.115528e+003, 1.311039e+002
1.116010e+003, 1.312439e+002
1.116492e+003, 1.314088e+002
1.116974e+003, 1.313532e+002
1.117456e+003, 1.312339e+002
1.117938e+003, 1.313714e+002
1.118420e+003, 1.316328e+002
1.118902e+003, 1.317318e+002
1.119385e+003, 1.314608e+002
1.119867e+003, 1.312016e+002
1.120349e+003, 1.309726e+002
1.120831e+003, 1.307652e+002
1.121313e+003, 1.305805e+002
1.121795e+003, 1.304124e+002
1.122277e+003, 1.301766e+002
1.122759e+003, 1.299097e+002
1.123241e+003, 1.298317e+002
1.123724e+003, 1.303075e+002
1.124206e+003, 1.306487e+002
1.124688e+003, 1.306042e+002
1.125170e+003, 1.303824e+002
1.125652e+003, 1.303108e+002
1.126134e+003, 1.303623e+002
1.126616e+003, 1.303609e+002
1.127098e+003, 1.302857e+002
1.127581e+003, 1.301527e+002
1.128063e+003, 1.297989e+002
1.128545e+003, 1.295593e+002
1.129027e+003, 1.297308e+002
1.129509e+003, 1.301828e+002
1.129991e+003, 1.305140e+002
1.130473e+003, 1.307260e+002
1.130955e+003, 1.308283e+002
1.131438e+003, 1.308498e+002
1.131920e+003, 1.306598e+002
1.132402e+003, 1.296656e+002
1.132884e+003, 1.287143e+002
1.133366e+003, 1.288873e+002
1.133848e+003, 1.303558e+002
1.134330e+003, 1.308462e+002
1.134812e+003, 1.301964e+002
1.135294e+003, 1.294137e+002
1.135776e+003, 1.287929e+002
1.136259e+003, 1.284818e+002
1.136741e+003, 1.289506e+002
1.137223e+003, 1.297603e+002
1.137705e+003, 1.302151e+002
1.138187e+003, 1.299054e+002
1.138669e+003, 1.298231e+002
1.139151e+003, 1.300647e+002
1.139633e+003, 1.303021e+002
1.140116e+003, 1.302903e+002
1.140598e+003, 1.301337e+002
1.141080e+003, 1.300256e+002
1.141562e+003, 1.299594e+002
1.142044e+003, 1.299141e+002
1.142526e+003, 1.298730e+002
1.143008e+003, 1.298862e+002
1.143490e+003, 1.300341e+002
1.143973e+003, 1.301179e+002
1.144455e+003, 1.298234e+002
1.144937e+003, 1.293146e+002
1.145419e+003, 1.291584e+002
1.145901e+003, 1.293441e+002
1.146383e+003, 1.295956e+002
1.146865e+003, 1.299373e+002
1.147347e+003, 1.301104e+002
1.147829e+003, 1.299897e+002
1.148312e+003, 1.297290e+002
1.148794e+003, 1.295298e+002
1.149276e+003, 1.293970e+002
1.149758e+003, 1.294119e+002
1.150240e+003, 1.295857e+002
1.150722e+003, 1.297193e+002
1.151204e+003, 1.294489e+002
1.151686e+003, 1.293560e+002
1.152168e+003, 1.300148e+002
1.152651e+003, 1.310225e+002
1.153133e+003, 1.311092e+002
1.153615e+003, 1.303170e+002
1.154097e+003, 1.296176e+002
1.154579e+003, 1.292215e+002
1.155061e+003, 1.290420e+002
1.155543e+003, 1.290557e+002
1.156025e+003, 1.292222e+002
1.156508e+003, 1.296033e+002
1.156990e+003, 1.301520e+002
1.157472e+003, 1.304338e+002
1.157954e+003, 1.304367e+002
1.158436e+003, 1.303638e+002
1.158918e+003, 1.302707e+002
1.159400e+003, 1.301679e+002
1.159882e+003, 1.300164e+002
1.160365e+003, 1.298899e+002
1.160847e+003, 1.298916e+002
1.161329e+003, 1.300503e+002
1.161811e+003, 1.301860e+002
1.162293e+003, 1.302973e+002
1.162775e+003, 1.303751e+002
1.163257e+003, 1.303242e+002
1.163739e+003, 1.303471e+002
1.164221e+003, 1.309444e+002
1.164703e+003, 1.317138e+002
1.165186e+003, 1.319279e+002
1.165668e+003, 1.309199e+002
1.166150e+003, 1.307086e+002
1.166632e+003, 1.315274e+002
1.167114e+003, 1.322832e+002
1.167596e+003, 1.321066e+002
1.168078e+003, 1.314101e+002
1.168560e+003, 1.306764e+002
1.169043e+003, 1.299918e+002
1.169525e+003, 1.295874e+002
1.170007e+003, 1.295708e+002
1.170489e+003, 1.298295e+002
1.170971e+003, 1.304742e+002
1.171453e+003, 1.311115e+002
1.171935e+003, 1.313475e+002
1.172417e+003, 1.313235e+002
1.172900e+003, 1.313127e+002
1.173382e+003, 1.313082e+002
1.173864e+003, 1.312120e+002
1.174346e+003, 1.309860e+002
1.174828e+003, 1.306188e+002
1.175310e+003, 1.299550e+002
1.175792e+003, 1.294285e+002
1.176274e+003, 1.297816e+002
1.176756e+003, 1.306463e+002
1.177239e+003, 1.312139e+002
1.177721e+003, 1.314095e+002
1.178203e+003, 1.313803e+002
1.178685e+003, 1.309703e+002
1.179167e+003, 1.305863e+002
1.179649e+003, 1.302393e+002
1.180131e+003, 1.300753e+002
1.180613e+003, 1.305718e+002
1.181095e+003, 1.314438e+002
1.181578e+003, 1.318207e+002
1.182060e+003, 1.315585e+002
1.182542e+003, 1.312014e+002
1.183024e+003, 1.306973e+002
1.183506e+003, 1.305251e+002
1.183988e+003, 1.309594e+002
1.184470e+003, 1.317354e+002
1.184952e+003, 1.323217e+002
1.185435e+003, 1.326709e+002
1.185917e+003, 1.324935e+002
1.186399e+003, 1.315757e+002
1.186881e+003, 1.309348e+002
1.187363e+003, 1.314606e+002
1.187845e+003, 1.319386e+002
1.188327e+003, 1.316789e+002
1.188809e+003, 1.309555e+002
1.189292e+003, 1.308367e+002
1.189774e+003, 1.312103e+002
1.190256e+003, 1.315485e+002
1.190738e+003, 1.316720e+002
1.191220e+003, 1.317677e+002
1.191702e+003, 1.319593e+002
1.192184e+003, 1.321172e+002
1.192666e+003, 1.321344e+002
1.193148e+003, 1.320446e+002
1.193630e+003, 1.321249e+002
1.194113e+003, 1.323306e+002
1.194595e+003, 1.323770e+002
1.195077e+003, 1.319650e+002
1.195559e+003, 1.317114e+002
1.196041e+003, 1.321969e+002
1.196523e+003, 1.327343e+002
1.197005e+003, 1.327614e+002
1.197487e+003, 1.323120e+002
1.197970e+003, 1.319083e+002
1.198452e+003, 1.315611e+002
1.198934e+003, 1.313239e+002
1.199416e+003, 1.312036e+002
1.199898e+003, 1.312322e+002
1.200380e+003, 1.315502e+002
1.200862e+003, 1.319389e+002
1.201344e+003, 1.322410e+002
1.201827e+003, 1.324578e+002
1.202309e+003, 1.321745e+002
1.202791e+003, 1.314464e+002
1.203273e+003, 1.309336e+002
1.203755e+003, 1.310759e+002
1.204237e+003, 1.314632e+002
1.204719e+003, 1.321181e+002
1.205201e+003, 1.327562e+002
1.205683e+003, 1.329613e+002
1.206166e+003, 1.327412e+002
1.206648e+003, 1.328943e+002
1.207130e+003, 1.334174e+002
1.207612e+003, 1.337498e+002
1.208094e+003, 1.332134e+002
1.208576e+003, 1.327309e+002
1.209058e+003, 1.330429e+002
1.209540e+003, 1.335789e+002
1.210022e+003, 1.334479e+002
1.210505e+003, 1.326817e+002
1.210987e+003, 1.322747e+002
1.211469e+003, 1.322925e+002
1.211951e+003, 1.324908e+002
1.212433e+003, 1.329435e+002
1.212915e+003, 1.332785e+002
1.213397e+003, 1.331328e+002
1.213879e+003, 1.328149e+002
1.214362e+003, 1.328659e+002
1.214844e+003, 1.332587e+002
1.215326e+003, 1.335827e+002
1.215808e+003, 1.337909e+002
1.216290e+003, 1.339262e+002
1.216772e+003, 1.340849e+002
1.217254e+003, 1.340991e+002
1.217736e+003, 1.337672e+002
1.218219e+003, 1.332875e+002
1.218701e+003, 1.330828e+002
1.219183e+003, 1.331274e+002
1.219665e+003, 1.330981e+002
1.220147e+003, 1.329395e+002
1.220629e+003, 1.328457e+002
1.221111e+003, 1.329772e+002
1.221593e+003, 1.331730e+002
1.222075e+003, 1.333364e+002
1.222557e+003, 1.335008e+002
1.223040e+003, 1.338992e+002
1.223522e+003, 1.344456e+002
1.224004e+003, 1.343125e+002
1.224486e+003, 1.332718e+002
1.224968e+003, 1.324652e+002
1.225450e+003, 1.329767e+002
1.225932e+003, 1.334896e+002
1.226414e+003, 1.331872e+002
1.226897e+003, 1.324573e+002
1.227379e+003, 1.325750e+002
1.227861e+003, 1.333739e+002
1.228343e+003, 1.339578e+002
1.228825e+003, 1.341118e+002
1.229307e+003, 1.341612e+002
1.229789e+003, 1.343091e+002
1.230271e+003, 1.343518e+002
1.230754e+003, 1.341043e+002
1.231236e+003, 1.337270e+002
1.231718e+003, 1.338380e+002
1.232200e+003, 1.343088e+002
1.232682e+003, 1.346510e+002
1.233164e+003, 1.347649e+002
1.233646e+003, 1.346236e+002
1.234128e+003, 1.338755e+002
1.234610e+003, 1.332435e+002
1.235093e+003, 1.330550e+002
1.235575e+003, 1.332375e+002
1.236057e+003, 1.337364e+002
1.236539e+003, 1.344141e+002
1.237021e+003, 1.347754e+002
1.237503e+003, 1.345983e+002
1.237985e+003, 1.344140e+002
1.238467e+003, 1.344509e+002
1.238949e+003, 1.344820e+002
1.239432e+003, 1.343993e+002
1.239914e+003, 1.342438e+002
1.240396e+003, 1.341852e+002
1.240878e+003, 1.341561e+002
1.241360e+003, 1.339338e+002
1.241842e+003, 1.333213e+002
1.242324e+003, 1.329382e+002
1.242806e+003, 1.329374e+002
1.243289e+003, 1.331686e+002
1.243771e+003, 1.337502e+002
1.244253e+003, 1.343557e+002
1.244735e+003, 1.338498e+002
1.245217e+003, 1.327504e+002
1.245699e+003, 1.323315e+002
1.246181e+003, 1.332572e+002
1.246663e+003, 1.340151e+002
1.247146e+003, 1.344836e+002
1.247628e+003, 1.346476e+002
1.248110e+003, 1.343336e+002
1.248592e+003, 1.338745e+002
1.249074e+003, 1.341087e+002
1.249556e+003, 1.347002e+002
1.250038e+003, 1.349632e+002
1.250520e+003, 1.344408e+002
1.251002e+003, 1.343839e+002
1.251484e+003, 1.350304e+002
1.251967e+003, 1.355424e+002
1.252449e+003, 1.353380e+002
1.252931e+003, 1.348141e+002
1.253413e+003, 1.345089e+002
1.253895e+003, 1.343760e+002
1.254377e+003, 1.343460e+002
1.254859e+003, 1.344208e+002
1.255341e+003, 1.345621e+002
1.255824e+003, 1.347719e+002
1.256306e+003, 1.350482e+002
1.256788e+003, 1.355558e+002
1.257270e+003, 1.359315e+002
1.257752e+003, 1.354925e+002
1.258234e+003, 1.347144e+002
1.258716e+003, 1.343820e+002
1.259198e+003, 1.346409e+002
1.259681e+003, 1.350081e+002
1.260163e+003, 1.355122e+002
1.260645e+003, 1.358811e+002
1.261127e+003, 1.358826e+002
1.261609e+003, 1.357922e+002
1.262091e+003, 1.358496e+002
1.262573e+003, 1.359756e+002
1.263055e+003, 1.360739e+002
1.263537e+003, 1.361529e+002
1.264020e+003, 1.360891e+002
1.264502e+003, 1.358831e+002
1.264984e+003, 1.356728e+002
1.265466e+003, 1.354422e+002
1.265948e+003, 1.353515e+002
1.266430e+003, 1.356488e+002
1.266912e+003, 1.360469e+002
1.267394e+003, 1.361946e+002
1.267876e+003, 1.360838e+002
1.268359e+003, 1.362103e+002
1.268841e+003, 1.365309e+002
1.269323e+003, 1.366523e+002
1.269805e+003, 1.362197e+002
1.270287e+003, 1.357347e+002
1.270769e+003, 1.353095e+002
1.271251e+003, 1.350308e+002
1.271733e+003, 1.350255e+002
1.272216e+003, 1.352505e+002
1.272698e+003, 1.353232e+002
1.273180e+003, 1.352784e+002
1.273662e+003, 1.352684e+002
1.274144e+003, 1.353258e+002
1.274626e+003, 1.355018e+002
1.275108e+003, 1.359317e+002
1.275590e+003, 1.362901e+002
1.276073e+003, 1.362781e+002
1.276555e+003, 1.359943e+002
1.277037e+003, 1.355939e+002
1.277519e+003, 1.352093e+002
1.278001e+003, 1.352328e+002
1.278483e+003, 1.364567e+002
1.278965e+003, 1.370246e+002
1.279447e+003, 1.366514e+002
1.279929e+003, 1.360614e+002
1.280411e+003, 1.357733e+002
1.280894e+003, 1.356623e+002
1.281376e+003, 1.354397e+002
1.281858e+003, 1.352186e+002
1.282340e+003, 1.352649e+002
1.282822e+003, 1.359083e+002
1.283304e+003, 1.362316e+002
1.283786e+003, 1.361894e+002
1.284268e+003, 1.360564e+002
1.284751e+003, 1.359687e+002
1.285233e+003, 1.359370e+002
1.285715e+003, 1.359862e+002
1.286197e+003, 1.360954e+002
1.286679e+003, 1.362506e+002
1.287161e+003, 1.365056e+002
1.287643e+003, 1.364197e+002
1.288125e+003, 1.359629e+002
1.288608e+003, 1.359277e+002
1.289090e+003, 1.374497e+002
1.289572e+003, 1.388299e+002
1.290054e+003, 1.386467e+002
1.290536e+003, 1.377491e+002
1.291018e+003, 1.372077e+002
1.291500e+003, 1.370313e+002
1.291982e+003, 1.369622e+002
1.292464e+003, 1.369966e+002
1.292947e+003, 1.370968e+002
1.293429e+003, 1.372651e+002
1.293911e+003, 1.374681e+002
1.294393e+003, 1.379597e+002
1.294875e+003, 1.382238e+002
1.295357e+003, 1.376003e+002
1.295839e+003, 1.363738e+002
1.296321e+003, 1.363073e+002
1.296803e+003, 1.371320e+002
1.297286e+003, 1.378814e+002
1.297768e+003, 1.383331e+002
1.298250e+003, 1.383395e+002
1.298732e+003, 1.376937e+002
1.299214e+003, 1.370551e+002
1.299696e+003, 1.369163e+002
1.300178e+003, 1.370689e+002
##END=



