##NAMES=Oxyphlogopite
##RRUFFID=R141078
##IDEAL CHEMISTRY=K(Mg,Ti^4+^,Fe^3+^,Fe^2+^)_3_[(Si,Al)_4_O_10_](O,F)_2_
##LOCALITY=Graulay, Hillesheim, Eifel, Rhineland-Palatinate, Germany
##OWNER=RRUFF
##SOURCE=Ch. and H. Sch√§fer
##DESCRIPTION=Dark brown to almost black platy crystals, associated with schorlomite, pyroxene, leucite and nepheline
##STATUS=The identification of this mineral has been confirmed only by single crystal X-ray diffraction.
##URL=rruff.info/R141078
8.930109e+001, 0.000000e+000
8.978320e+001, 1.324064e+002
9.026532e+001, 1.327794e+002
9.074744e+001, 1.329138e+002
9.122955e+001, 1.326107e+002
9.171167e+001, 1.325481e+002
9.219379e+001, 1.336433e+002
9.267590e+001, 1.357985e+002
9.315802e+001, 1.378415e+002
9.364014e+001, 1.393019e+002
9.412225e+001, 1.400603e+002
9.460437e+001, 1.394924e+002
9.508649e+001, 1.368240e+002
9.556860e+001, 1.331039e+002
9.605072e+001, 1.310342e+002
9.653284e+001, 1.308386e+002
9.701495e+001, 1.310454e+002
9.749707e+001, 1.301397e+002
9.797919e+001, 1.281524e+002
9.846130e+001, 1.260932e+002
9.894342e+001, 1.240629e+002
9.942554e+001, 1.220925e+002
9.990765e+001, 1.209892e+002
1.003898e+002, 1.209041e+002
1.008719e+002, 1.212808e+002
1.013540e+002, 1.214057e+002
1.018361e+002, 1.213274e+002
1.023182e+002, 1.208973e+002
1.028004e+002, 1.200423e+002
1.032825e+002, 1.187330e+002
1.037646e+002, 1.172334e+002
1.042467e+002, 1.154155e+002
1.047288e+002, 1.134933e+002
1.052109e+002, 1.119483e+002
1.056931e+002, 1.106853e+002
1.061752e+002, 1.098715e+002
1.066573e+002, 1.095359e+002
1.071394e+002, 1.094185e+002
1.076215e+002, 1.101791e+002
1.081036e+002, 1.124296e+002
1.085858e+002, 1.157731e+002
1.090679e+002, 1.180384e+002
1.095500e+002, 1.192816e+002
1.100321e+002, 1.195101e+002
1.105142e+002, 1.187357e+002
1.109963e+002, 1.156619e+002
1.114785e+002, 1.130731e+002
1.119606e+002, 1.112749e+002
1.124427e+002, 1.102458e+002
1.129248e+002, 1.096727e+002
1.134069e+002, 1.097273e+002
1.138890e+002, 1.100941e+002
1.143712e+002, 1.105213e+002
1.148533e+002, 1.108214e+002
1.153354e+002, 1.112925e+002
1.158175e+002, 1.120175e+002
1.162996e+002, 1.130107e+002
1.167817e+002, 1.142235e+002
1.172639e+002, 1.161082e+002
1.177460e+002, 1.180988e+002
1.182281e+002, 1.194752e+002
1.187102e+002, 1.197318e+002
1.191923e+002, 1.194769e+002
1.196744e+002, 1.190185e+002
1.201566e+002, 1.183707e+002
1.206387e+002, 1.176032e+002
1.211208e+002, 1.165267e+002
1.216029e+002, 1.153529e+002
1.220850e+002, 1.145252e+002
1.225671e+002, 1.142968e+002
1.230493e+002, 1.145070e+002
1.235314e+002, 1.149908e+002
1.240135e+002, 1.157059e+002
1.244956e+002, 1.167238e+002
1.249777e+002, 1.187085e+002
1.254598e+002, 1.212716e+002
1.259420e+002, 1.229034e+002
1.264241e+002, 1.218796e+002
1.269062e+002, 1.193350e+002
1.273883e+002, 1.173475e+002
1.278704e+002, 1.164308e+002
1.283525e+002, 1.161428e+002
1.288347e+002, 1.158284e+002
1.293168e+002, 1.155013e+002
1.297989e+002, 1.154157e+002
1.302810e+002, 1.160278e+002
1.307631e+002, 1.171292e+002
1.312452e+002, 1.178641e+002
1.317274e+002, 1.178875e+002
1.322095e+002, 1.174679e+002
1.326916e+002, 1.174184e+002
1.331737e+002, 1.178070e+002
1.336558e+002, 1.180901e+002
1.341379e+002, 1.175751e+002
1.346201e+002, 1.162773e+002
1.351022e+002, 1.151584e+002
1.355843e+002, 1.145260e+002
1.360664e+002, 1.143287e+002
1.365485e+002, 1.142163e+002
1.370306e+002, 1.141869e+002
1.375128e+002, 1.142478e+002
1.379949e+002, 1.144416e+002
1.384770e+002, 1.148031e+002
1.389591e+002, 1.151170e+002
1.394412e+002, 1.152085e+002
1.399233e+002, 1.150229e+002
1.404055e+002, 1.154533e+002
1.408876e+002, 1.168724e+002
1.413697e+002, 1.185226e+002
1.418518e+002, 1.191178e+002
1.423339e+002, 1.183397e+002
1.428160e+002, 1.172197e+002
1.432982e+002, 1.160330e+002
1.437803e+002, 1.146543e+002
1.442624e+002, 1.136630e+002
1.447445e+002, 1.132060e+002
1.452266e+002, 1.130935e+002
1.457087e+002, 1.129078e+002
1.461909e+002, 1.125840e+002
1.466730e+002, 1.122682e+002
1.471551e+002, 1.119938e+002
1.476372e+002, 1.115897e+002
1.481193e+002, 1.115379e+002
1.486014e+002, 1.121500e+002
1.490836e+002, 1.131590e+002
1.495657e+002, 1.136540e+002
1.500478e+002, 1.132299e+002
1.505299e+002, 1.126100e+002
1.510120e+002, 1.121030e+002
1.514941e+002, 1.117518e+002
1.519763e+002, 1.114656e+002
1.524584e+002, 1.112812e+002
1.529405e+002, 1.111742e+002
1.534226e+002, 1.110194e+002
1.539047e+002, 1.107375e+002
1.543868e+002, 1.104497e+002
1.548690e+002, 1.102218e+002
1.553511e+002, 1.097640e+002
1.558332e+002, 1.096820e+002
1.563153e+002, 1.104556e+002
1.567974e+002, 1.119203e+002
1.572795e+002, 1.127469e+002
1.577617e+002, 1.122000e+002
1.582438e+002, 1.111517e+002
1.587259e+002, 1.102321e+002
1.592080e+002, 1.095067e+002
1.596901e+002, 1.090037e+002
1.601722e+002, 1.088391e+002
1.606544e+002, 1.089930e+002
1.611365e+002, 1.090805e+002
1.616186e+002, 1.088225e+002
1.621007e+002, 1.084951e+002
1.625828e+002, 1.083464e+002
1.630649e+002, 1.085287e+002
1.635471e+002, 1.088477e+002
1.640292e+002, 1.093075e+002
1.645113e+002, 1.099064e+002
1.649934e+002, 1.103439e+002
1.654755e+002, 1.103896e+002
1.659576e+002, 1.102066e+002
1.664398e+002, 1.099977e+002
1.669219e+002, 1.098177e+002
1.674040e+002, 1.096499e+002
1.678861e+002, 1.094432e+002
1.683682e+002, 1.091850e+002
1.688503e+002, 1.090505e+002
1.693325e+002, 1.092251e+002
1.698146e+002, 1.095916e+002
1.702967e+002, 1.099568e+002
1.707788e+002, 1.102482e+002
1.712609e+002, 1.104999e+002
1.717430e+002, 1.107630e+002
1.722252e+002, 1.110534e+002
1.727073e+002, 1.112621e+002
1.731894e+002, 1.112021e+002
1.736715e+002, 1.109875e+002
1.741536e+002, 1.108751e+002
1.746357e+002, 1.110348e+002
1.751179e+002, 1.113426e+002
1.756000e+002, 1.117161e+002
1.760821e+002, 1.121816e+002
1.765642e+002, 1.125082e+002
1.770463e+002, 1.122521e+002
1.775284e+002, 1.116163e+002
1.780106e+002, 1.112275e+002
1.784927e+002, 1.115387e+002
1.789748e+002, 1.122865e+002
1.794569e+002, 1.130695e+002
1.799390e+002, 1.138870e+002
1.804211e+002, 1.146261e+002
1.809033e+002, 1.150855e+002
1.813854e+002, 1.153257e+002
1.818675e+002, 1.156181e+002
1.823496e+002, 1.160925e+002
1.828317e+002, 1.167337e+002
1.833138e+002, 1.175526e+002
1.837960e+002, 1.185661e+002
1.842781e+002, 1.196914e+002
1.847602e+002, 1.207399e+002
1.852423e+002, 1.217455e+002
1.857244e+002, 1.229083e+002
1.862065e+002, 1.244481e+002
1.866887e+002, 1.262714e+002
1.871708e+002, 1.280280e+002
1.876529e+002, 1.296324e+002
1.881350e+002, 1.312465e+002
1.886171e+002, 1.331377e+002
1.890992e+002, 1.353159e+002
1.895814e+002, 1.375575e+002
1.900635e+002, 1.397018e+002
1.905456e+002, 1.417981e+002
1.910277e+002, 1.439541e+002
1.915098e+002, 1.461712e+002
1.919919e+002, 1.484945e+002
1.924741e+002, 1.509831e+002
1.929562e+002, 1.536297e+002
1.934383e+002, 1.563736e+002
1.939204e+002, 1.591190e+002
1.944025e+002, 1.618748e+002
1.948846e+002, 1.648484e+002
1.953668e+002, 1.681724e+002
1.958489e+002, 1.716057e+002
1.963310e+002, 1.745903e+002
1.968131e+002, 1.771091e+002
1.972952e+002, 1.792930e+002
1.977773e+002, 1.813064e+002
1.982595e+002, 1.831466e+002
1.987416e+002, 1.845291e+002
1.992237e+002, 1.854697e+002
1.997058e+002, 1.858813e+002
2.001879e+002, 1.854522e+002
2.006700e+002, 1.841163e+002
2.011522e+002, 1.822192e+002
2.016343e+002, 1.799122e+002
2.021164e+002, 1.771705e+002
2.025985e+002, 1.742589e+002
2.030806e+002, 1.712095e+002
2.035627e+002, 1.680376e+002
2.040449e+002, 1.648388e+002
2.045270e+002, 1.616247e+002
2.050091e+002, 1.583408e+002
2.054912e+002, 1.548330e+002
2.059733e+002, 1.509902e+002
2.064554e+002, 1.476049e+002
2.069376e+002, 1.448250e+002
2.074197e+002, 1.425602e+002
2.079018e+002, 1.403944e+002
2.083839e+002, 1.383455e+002
2.088660e+002, 1.363437e+002
2.093481e+002, 1.343231e+002
2.098303e+002, 1.322134e+002
2.103124e+002, 1.303615e+002
2.107945e+002, 1.288273e+002
2.112766e+002, 1.275834e+002
2.117587e+002, 1.264967e+002
2.122408e+002, 1.256450e+002
2.127230e+002, 1.247827e+002
2.132051e+002, 1.236702e+002
2.136872e+002, 1.221458e+002
2.141693e+002, 1.209427e+002
2.146514e+002, 1.202522e+002
2.151335e+002, 1.199404e+002
2.156157e+002, 1.194074e+002
2.160978e+002, 1.185490e+002
2.165799e+002, 1.176463e+002
2.170620e+002, 1.168859e+002
2.175441e+002, 1.163282e+002
2.180262e+002, 1.157268e+002
2.185084e+002, 1.150518e+002
2.189905e+002, 1.143051e+002
2.194726e+002, 1.134955e+002
2.199547e+002, 1.124652e+002
2.204368e+002, 1.116185e+002
2.209189e+002, 1.113181e+002
2.214011e+002, 1.119219e+002
2.218832e+002, 1.121096e+002
2.223653e+002, 1.116509e+002
2.228474e+002, 1.106964e+002
2.233295e+002, 1.098863e+002
2.238116e+002, 1.092716e+002
2.242938e+002, 1.087494e+002
2.247759e+002, 1.082583e+002
2.252580e+002, 1.077805e+002
2.257401e+002, 1.073831e+002
2.262222e+002, 1.070607e+002
2.267043e+002, 1.068199e+002
2.271865e+002, 1.067064e+002
2.276686e+002, 1.068370e+002
2.281507e+002, 1.069221e+002
2.286328e+002, 1.067725e+002
2.291149e+002, 1.062514e+002
2.295970e+002, 1.058192e+002
2.300792e+002, 1.055262e+002
2.305613e+002, 1.053433e+002
2.310434e+002, 1.051646e+002
2.315255e+002, 1.049806e+002
2.320076e+002, 1.048217e+002
2.324897e+002, 1.047214e+002
2.329719e+002, 1.047512e+002
2.334540e+002, 1.046870e+002
2.339361e+002, 1.045286e+002
2.344182e+002, 1.042705e+002
2.349003e+002, 1.038573e+002
2.353824e+002, 1.031129e+002
2.358646e+002, 1.024653e+002
2.363467e+002, 1.021360e+002
2.368288e+002, 1.022431e+002
2.373109e+002, 1.024196e+002
2.377930e+002, 1.027405e+002
2.382751e+002, 1.031099e+002
2.387573e+002, 1.032096e+002
2.392394e+002, 1.028775e+002
2.397215e+002, 1.025038e+002
2.402036e+002, 1.022698e+002
2.406857e+002, 1.022740e+002
2.411678e+002, 1.021850e+002
2.416500e+002, 1.019470e+002
2.421321e+002, 1.016303e+002
2.426142e+002, 1.014075e+002
2.430963e+002, 1.012863e+002
2.435784e+002, 1.012511e+002
2.440605e+002, 1.013112e+002
2.445427e+002, 1.015256e+002
2.450248e+002, 1.016784e+002
2.455069e+002, 1.017139e+002
2.459890e+002, 1.017119e+002
2.464711e+002, 1.018790e+002
2.469532e+002, 1.024107e+002
2.474354e+002, 1.027928e+002
2.479175e+002, 1.027804e+002
2.483996e+002, 1.021980e+002
2.488817e+002, 1.017996e+002
2.493638e+002, 1.016295e+002
2.498459e+002, 1.016204e+002
2.503281e+002, 1.016461e+002
2.508102e+002, 1.016799e+002
2.512923e+002, 1.018014e+002
2.517744e+002, 1.020866e+002
2.522565e+002, 1.026249e+002
2.527386e+002, 1.029135e+002
2.532208e+002, 1.027846e+002
2.537029e+002, 1.025298e+002
2.541850e+002, 1.026445e+002
2.546671e+002, 1.033574e+002
2.551492e+002, 1.039890e+002
2.556313e+002, 1.042804e+002
2.561135e+002, 1.041517e+002
2.565956e+002, 1.042252e+002
2.570777e+002, 1.046119e+002
2.575598e+002, 1.050883e+002
2.580419e+002, 1.053324e+002
2.585240e+002, 1.052247e+002
2.590062e+002, 1.051458e+002
2.594883e+002, 1.052036e+002
2.599704e+002, 1.054046e+002
2.604525e+002, 1.056051e+002
2.609346e+002, 1.057635e+002
2.614167e+002, 1.059700e+002
2.618989e+002, 1.063468e+002
2.623810e+002, 1.069511e+002
2.628631e+002, 1.075783e+002
2.633452e+002, 1.082285e+002
2.638273e+002, 1.089089e+002
2.643094e+002, 1.093093e+002
2.647916e+002, 1.093549e+002
2.652737e+002, 1.092583e+002
2.657558e+002, 1.092043e+002
2.662379e+002, 1.091828e+002
2.667200e+002, 1.092475e+002
2.672021e+002, 1.094294e+002
2.676843e+002, 1.097160e+002
2.681664e+002, 1.099889e+002
2.686485e+002, 1.102430e+002
2.691306e+002, 1.104912e+002
2.696127e+002, 1.107347e+002
2.700948e+002, 1.109636e+002
2.705770e+002, 1.112294e+002
2.710591e+002, 1.115736e+002
2.715412e+002, 1.119540e+002
2.720233e+002, 1.121455e+002
2.725054e+002, 1.120759e+002
2.729875e+002, 1.120000e+002
2.734697e+002, 1.121227e+002
2.739518e+002, 1.124814e+002
2.744339e+002, 1.127982e+002
2.749160e+002, 1.130412e+002
2.753981e+002, 1.132207e+002
2.758802e+002, 1.133841e+002
2.763624e+002, 1.135448e+002
2.768445e+002, 1.136292e+002
2.773266e+002, 1.135439e+002
2.778087e+002, 1.132713e+002
2.782908e+002, 1.131186e+002
2.787729e+002, 1.131489e+002
2.792551e+002, 1.132695e+002
2.797372e+002, 1.132805e+002
2.802193e+002, 1.131780e+002
2.807014e+002, 1.129924e+002
2.811835e+002, 1.127462e+002
2.816656e+002, 1.124391e+002
2.821478e+002, 1.119715e+002
2.826299e+002, 1.112612e+002
2.831120e+002, 1.105474e+002
2.835941e+002, 1.103042e+002
2.840762e+002, 1.105548e+002
2.845583e+002, 1.108038e+002
2.850405e+002, 1.108113e+002
2.855226e+002, 1.106026e+002
2.860047e+002, 1.104070e+002
2.864868e+002, 1.102255e+002
2.869689e+002, 1.100572e+002
2.874510e+002, 1.099191e+002
2.879332e+002, 1.098076e+002
2.884153e+002, 1.096550e+002
2.888974e+002, 1.094106e+002
2.893795e+002, 1.091036e+002
2.898616e+002, 1.088387e+002
2.903438e+002, 1.086119e+002
2.908259e+002, 1.084536e+002
2.913080e+002, 1.084417e+002
2.917901e+002, 1.085497e+002
2.922722e+002, 1.086140e+002
2.927543e+002, 1.085389e+002
2.932365e+002, 1.084048e+002
2.937186e+002, 1.084478e+002
2.942007e+002, 1.086711e+002
2.946828e+002, 1.088604e+002
2.951649e+002, 1.087540e+002
2.956470e+002, 1.084446e+002
2.961292e+002, 1.082495e+002
2.966113e+002, 1.083208e+002
2.970934e+002, 1.084725e+002
2.975755e+002, 1.083440e+002
2.980576e+002, 1.079649e+002
2.985397e+002, 1.076522e+002
2.990219e+002, 1.077098e+002
2.995040e+002, 1.079975e+002
2.999861e+002, 1.081959e+002
3.004682e+002, 1.082001e+002
3.009503e+002, 1.081876e+002
3.014324e+002, 1.084278e+002
3.019146e+002, 1.088609e+002
3.023967e+002, 1.092427e+002
3.028788e+002, 1.093077e+002
3.033609e+002, 1.092615e+002
3.038430e+002, 1.094400e+002
3.043251e+002, 1.099461e+002
3.048073e+002, 1.104593e+002
3.052894e+002, 1.107203e+002
3.057715e+002, 1.107608e+002
3.062536e+002, 1.106657e+002
3.067357e+002, 1.102949e+002
3.072178e+002, 1.099014e+002
3.077000e+002, 1.097819e+002
3.081821e+002, 1.099792e+002
3.086642e+002, 1.102326e+002
3.091463e+002, 1.103390e+002
3.096284e+002, 1.103749e+002
3.101105e+002, 1.104626e+002
3.105927e+002, 1.107674e+002
3.110748e+002, 1.110575e+002
3.115569e+002, 1.111712e+002
3.120390e+002, 1.111033e+002
3.125211e+002, 1.109457e+002
3.130032e+002, 1.106918e+002
3.134854e+002, 1.103984e+002
3.139675e+002, 1.101295e+002
3.144496e+002, 1.098805e+002
3.149317e+002, 1.096876e+002
3.154138e+002, 1.096375e+002
3.158959e+002, 1.096947e+002
3.163781e+002, 1.096370e+002
3.168602e+002, 1.093372e+002
3.173423e+002, 1.089064e+002
3.178244e+002, 1.084065e+002
3.183065e+002, 1.076800e+002
3.187886e+002, 1.071322e+002
3.192708e+002, 1.070227e+002
3.197529e+002, 1.072144e+002
3.202350e+002, 1.073210e+002
3.207171e+002, 1.071697e+002
3.211992e+002, 1.069468e+002
3.216813e+002, 1.067567e+002
3.221635e+002, 1.066786e+002
3.226456e+002, 1.064775e+002
3.231277e+002, 1.060509e+002
3.236098e+002, 1.054807e+002
3.240919e+002, 1.049026e+002
3.245740e+002, 1.040868e+002
3.250562e+002, 1.035015e+002
3.255383e+002, 1.034155e+002
3.260204e+002, 1.040530e+002
3.265025e+002, 1.043121e+002
3.269846e+002, 1.038157e+002
3.274667e+002, 1.030346e+002
3.279489e+002, 1.024634e+002
3.284310e+002, 1.022223e+002
3.289131e+002, 1.020674e+002
3.293952e+002, 1.020509e+002
3.298773e+002, 1.021833e+002
3.303594e+002, 1.020240e+002
3.308416e+002, 1.012439e+002
3.313237e+002, 1.004535e+002
3.318058e+002, 1.001305e+002
3.322879e+002, 1.008101e+002
3.327700e+002, 1.010122e+002
3.332521e+002, 1.003237e+002
3.337343e+002, 9.901611e+001
3.342164e+002, 9.848096e+001
3.346985e+002, 9.919395e+001
3.351806e+002, 9.994399e+001
3.356627e+002, 1.000198e+002
3.361448e+002, 9.909361e+001
3.366270e+002, 9.851279e+001
3.371091e+002, 9.841578e+001
3.375912e+002, 9.860761e+001
3.380733e+002, 9.871468e+001
3.385554e+002, 9.874145e+001
3.390375e+002, 9.866451e+001
3.395197e+002, 9.840612e+001
3.400018e+002, 9.794640e+001
3.404839e+002, 9.776107e+001
3.409660e+002, 9.792859e+001
3.414481e+002, 9.820628e+001
3.419302e+002, 9.824311e+001
3.424124e+002, 9.801485e+001
3.428945e+002, 9.788532e+001
3.433766e+002, 9.802213e+001
3.438587e+002, 9.834117e+001
3.443408e+002, 9.843172e+001
3.448229e+002, 9.826595e+001
3.453051e+002, 9.805513e+001
3.457872e+002, 9.802834e+001
3.462693e+002, 9.814897e+001
3.467514e+002, 9.815759e+001
3.472335e+002, 9.796386e+001
3.477156e+002, 9.768075e+001
3.481978e+002, 9.751215e+001
3.486799e+002, 9.745604e+001
3.491620e+002, 9.747842e+001
3.496441e+002, 9.761469e+001
3.501262e+002, 9.781051e+001
3.506083e+002, 9.793934e+001
3.510905e+002, 9.798782e+001
3.515726e+002, 9.796748e+001
3.520547e+002, 9.784214e+001
3.525368e+002, 9.764917e+001
3.530189e+002, 9.750207e+001
3.535010e+002, 9.745547e+001
3.539832e+002, 9.748656e+001
3.544653e+002, 9.762495e+001
3.549474e+002, 9.787968e+001
3.554295e+002, 9.803762e+001
3.559116e+002, 9.772755e+001
3.563937e+002, 9.725349e+001
3.568759e+002, 9.707726e+001
3.573580e+002, 9.776189e+001
3.578401e+002, 9.846909e+001
3.583222e+002, 9.851329e+001
3.588043e+002, 9.800288e+001
3.592864e+002, 9.758171e+001
3.597686e+002, 9.775405e+001
3.602507e+002, 9.807809e+001
3.607328e+002, 9.814866e+001
3.612149e+002, 9.766409e+001
3.616970e+002, 9.727403e+001
3.621791e+002, 9.731344e+001
3.626613e+002, 9.763869e+001
3.631434e+002, 9.792020e+001
3.636255e+002, 9.799532e+001
3.641076e+002, 9.804777e+001
3.645897e+002, 9.820186e+001
3.650718e+002, 9.855013e+001
3.655540e+002, 9.870902e+001
3.660361e+002, 9.838044e+001
3.665182e+002, 9.790423e+001
3.670003e+002, 9.768826e+001
3.674824e+002, 9.810436e+001
3.679645e+002, 9.845103e+001
3.684467e+002, 9.852702e+001
3.689288e+002, 9.831353e+001
3.694109e+002, 9.823833e+001
3.698930e+002, 9.833950e+001
3.703751e+002, 9.855264e+001
3.708572e+002, 9.886385e+001
3.713394e+002, 9.952921e+001
3.718215e+002, 9.984282e+001
3.723036e+002, 9.958620e+001
3.727857e+002, 9.894511e+001
3.732678e+002, 9.858416e+001
3.737499e+002, 9.858620e+001
3.742321e+002, 9.871350e+001
3.747142e+002, 9.887221e+001
3.751963e+002, 9.907442e+001
3.756784e+002, 9.927117e+001
3.761605e+002, 9.949714e+001
3.766426e+002, 9.966837e+001
3.771248e+002, 9.962231e+001
3.776069e+002, 9.932461e+001
3.780890e+002, 9.900688e+001
3.785711e+002, 9.869748e+001
3.790532e+002, 9.841957e+001
3.795353e+002, 9.842439e+001
3.800175e+002, 9.876550e+001
3.804996e+002, 9.912191e+001
3.809817e+002, 9.913786e+001
3.814638e+002, 9.885833e+001
3.819459e+002, 9.865891e+001
3.824280e+002, 9.862975e+001
3.829102e+002, 9.870305e+001
3.833923e+002, 9.878310e+001
3.838744e+002, 9.886478e+001
3.843565e+002, 9.889587e+001
3.848386e+002, 9.873499e+001
3.853207e+002, 9.851521e+001
3.858029e+002, 9.857600e+001
3.862850e+002, 9.900178e+001
3.867671e+002, 9.943354e+001
3.872492e+002, 9.942850e+001
3.877313e+002, 9.914560e+001
3.882134e+002, 9.894666e+001
3.886956e+002, 9.912211e+001
3.891777e+002, 9.937575e+001
3.896598e+002, 9.940594e+001
3.901419e+002, 9.922314e+001
3.906240e+002, 9.907068e+001
3.911061e+002, 9.909875e+001
3.915883e+002, 9.923460e+001
3.920704e+002, 9.941828e+001
3.925525e+002, 9.978291e+001
3.930346e+002, 9.998772e+001
3.935167e+002, 9.970092e+001
3.939988e+002, 9.911329e+001
3.944810e+002, 9.875723e+001
3.949631e+002, 9.902873e+001
3.954452e+002, 9.941356e+001
3.959273e+002, 9.964793e+001
3.964094e+002, 9.964735e+001
3.968915e+002, 9.966917e+001
3.973737e+002, 9.984529e+001
3.978558e+002, 1.000394e+002
3.983379e+002, 1.000836e+002
3.988200e+002, 9.967664e+001
3.993021e+002, 9.941834e+001
3.997842e+002, 9.946884e+001
4.002664e+002, 9.982568e+001
4.007485e+002, 1.001462e+002
4.012306e+002, 1.005167e+002
4.017127e+002, 1.007606e+002
4.021948e+002, 1.007446e+002
4.026769e+002, 1.003311e+002
4.031591e+002, 9.994276e+001
4.036412e+002, 9.955928e+001
4.041233e+002, 9.923483e+001
4.046054e+002, 9.915242e+001
4.050875e+002, 9.943439e+001
4.055696e+002, 9.959661e+001
4.060518e+002, 9.934095e+001
4.065339e+002, 9.864659e+001
4.070160e+002, 9.837216e+001
4.074981e+002, 9.861559e+001
4.079802e+002, 9.901392e+001
4.084623e+002, 9.912341e+001
4.089445e+002, 9.895191e+001
4.094266e+002, 9.885721e+001
4.099087e+002, 9.899865e+001
4.103908e+002, 9.922446e+001
4.108729e+002, 9.909537e+001
4.113550e+002, 9.862427e+001
4.118372e+002, 9.820891e+001
4.123193e+002, 9.816508e+001
4.128014e+002, 9.838353e+001
4.132835e+002, 9.865187e+001
4.137656e+002, 9.898293e+001
4.142477e+002, 9.920195e+001
4.147299e+002, 9.899345e+001
4.152120e+002, 9.851382e+001
4.156941e+002, 9.814635e+001
4.161762e+002, 9.811796e+001
4.166583e+002, 9.824378e+001
4.171404e+002, 9.837366e+001
4.176226e+002, 9.850313e+001
4.181047e+002, 9.864738e+001
4.185868e+002, 9.889794e+001
4.190689e+002, 9.912757e+001
4.195510e+002, 9.920720e+001
4.200331e+002, 9.894576e+001
4.205153e+002, 9.873798e+001
4.209974e+002, 9.884517e+001
4.214795e+002, 9.912978e+001
4.219616e+002, 9.923764e+001
4.224437e+002, 9.894214e+001
4.229258e+002, 9.857186e+001
4.234080e+002, 9.822211e+001
4.238901e+002, 9.784328e+001
4.243722e+002, 9.769018e+001
4.248543e+002, 9.799731e+001
4.253364e+002, 9.843926e+001
4.258185e+002, 9.869608e+001
4.263007e+002, 9.864593e+001
4.267828e+002, 9.859635e+001
4.272649e+002, 9.862623e+001
4.277470e+002, 9.870505e+001
4.282291e+002, 9.860088e+001
4.287112e+002, 9.819018e+001
4.291934e+002, 9.781114e+001
4.296755e+002, 9.763016e+001
4.301576e+002, 9.765490e+001
4.306397e+002, 9.790468e+001
4.311218e+002, 9.850810e+001
4.316039e+002, 9.912667e+001
4.320861e+002, 9.912631e+001
4.325682e+002, 9.845856e+001
4.330503e+002, 9.788801e+001
4.335324e+002, 9.769576e+001
4.340145e+002, 9.779731e+001
4.344966e+002, 9.795106e+001
4.349788e+002, 9.816188e+001
4.354609e+002, 9.830531e+001
4.359430e+002, 9.819362e+001
4.364251e+002, 9.793006e+001
4.369072e+002, 9.782682e+001
4.373893e+002, 9.799141e+001
4.378715e+002, 9.819790e+001
4.383536e+002, 9.814311e+001
4.388357e+002, 9.791316e+001
4.393178e+002, 9.774815e+001
4.397999e+002, 9.777492e+001
4.402820e+002, 9.791920e+001
4.407642e+002, 9.817349e+001
4.412463e+002, 9.853798e+001
4.417284e+002, 9.879511e+001
4.422105e+002, 9.876071e+001
4.426926e+002, 9.859195e+001
4.431747e+002, 9.843806e+001
4.436569e+002, 9.831676e+001
4.441390e+002, 9.823985e+001
4.446211e+002, 9.818405e+001
4.451032e+002, 9.817199e+001
4.455853e+002, 9.827176e+001
4.460674e+002, 9.866656e+001
4.465496e+002, 9.902699e+001
4.470317e+002, 9.921928e+001
4.475138e+002, 9.918627e+001
4.479959e+002, 9.916750e+001
4.484780e+002, 9.920296e+001
4.489601e+002, 9.922945e+001
4.494423e+002, 9.919664e+001
4.499244e+002, 9.915149e+001
4.504065e+002, 9.893013e+001
4.508886e+002, 9.836811e+001
4.513707e+002, 9.762298e+001
4.518528e+002, 9.739268e+001
4.523350e+002, 9.779929e+001
4.528171e+002, 9.835126e+001
4.532992e+002, 9.883580e+001
4.537813e+002, 9.925349e+001
4.542634e+002, 9.953376e+001
4.547455e+002, 9.966231e+001
4.552277e+002, 9.969450e+001
4.557098e+002, 9.971632e+001
4.561919e+002, 9.971476e+001
4.566740e+002, 9.959124e+001
4.571561e+002, 9.921868e+001
4.576382e+002, 9.878914e+001
4.581204e+002, 9.869044e+001
4.586025e+002, 9.888408e+001
4.590846e+002, 9.909402e+001
4.595667e+002, 9.912951e+001
4.600488e+002, 9.907500e+001
4.605309e+002, 9.901801e+001
4.610131e+002, 9.895400e+001
4.614952e+002, 9.897351e+001
4.619773e+002, 9.925454e+001
4.624594e+002, 9.963387e+001
4.629415e+002, 9.987584e+001
4.634236e+002, 9.984983e+001
4.639058e+002, 9.970328e+001
4.643879e+002, 9.945605e+001
4.648700e+002, 9.912351e+001
4.653521e+002, 9.880495e+001
4.658342e+002, 9.848952e+001
4.663163e+002, 9.821622e+001
4.667985e+002, 9.799975e+001
4.672806e+002, 9.780201e+001
4.677627e+002, 9.774064e+001
4.682448e+002, 9.796202e+001
4.687269e+002, 9.825778e+001
4.692090e+002, 9.832616e+001
4.696912e+002, 9.804311e+001
4.701733e+002, 9.775980e+001
4.706554e+002, 9.757142e+001
4.711375e+002, 9.746011e+001
4.716196e+002, 9.721274e+001
4.721017e+002, 9.674820e+001
4.725839e+002, 9.637344e+001
4.730660e+002, 9.636447e+001
4.735481e+002, 9.672633e+001
4.740302e+002, 9.691757e+001
4.745123e+002, 9.686540e+001
4.749944e+002, 9.672169e+001
4.754766e+002, 9.670512e+001
4.759587e+002, 9.680135e+001
4.764408e+002, 9.691390e+001
4.769229e+002, 9.700888e+001
4.774050e+002, 9.709555e+001
4.778871e+002, 9.724512e+001
4.783693e+002, 9.743823e+001
4.788514e+002, 9.749070e+001
4.793335e+002, 9.703745e+001
4.798156e+002, 9.646968e+001
4.802977e+002, 9.628645e+001
4.807798e+002, 9.665124e+001
4.812620e+002, 9.713709e+001
4.817441e+002, 9.751365e+001
4.822262e+002, 9.784840e+001
4.827083e+002, 9.824129e+001
4.831904e+002, 9.896566e+001
4.836725e+002, 9.951932e+001
4.841547e+002, 9.955798e+001
4.846368e+002, 9.913194e+001
4.851189e+002, 9.898316e+001
4.856010e+002, 9.948756e+001
4.860831e+002, 1.000806e+002
4.865652e+002, 1.004523e+002
4.870474e+002, 1.003743e+002
4.875295e+002, 1.005962e+002
4.880116e+002, 1.013501e+002
4.884937e+002, 1.022291e+002
4.889758e+002, 1.026166e+002
4.894579e+002, 1.023224e+002
4.899401e+002, 1.021135e+002
4.904222e+002, 1.021673e+002
4.909043e+002, 1.024489e+002
4.913864e+002, 1.028710e+002
4.918685e+002, 1.034724e+002
4.923506e+002, 1.039528e+002
4.928328e+002, 1.039948e+002
4.933149e+002, 1.037131e+002
4.937970e+002, 1.036393e+002
4.942791e+002, 1.038271e+002
4.947612e+002, 1.041594e+002
4.952433e+002, 1.046136e+002
4.957255e+002, 1.051153e+002
4.962076e+002, 1.054754e+002
4.966897e+002, 1.055543e+002
4.971718e+002, 1.055341e+002
4.976539e+002, 1.055139e+002
4.981360e+002, 1.055215e+002
4.986182e+002, 1.056647e+002
4.991003e+002, 1.061403e+002
4.995824e+002, 1.066769e+002
5.000645e+002, 1.070896e+002
5.005466e+002, 1.073607e+002
5.010287e+002, 1.075165e+002
5.015109e+002, 1.073167e+002
5.019930e+002, 1.071152e+002
5.024751e+002, 1.072688e+002
5.029572e+002, 1.083253e+002
5.034393e+002, 1.091338e+002
5.039214e+002, 1.094487e+002
5.044036e+002, 1.094132e+002
5.048857e+002, 1.095411e+002
5.053678e+002, 1.099170e+002
5.058499e+002, 1.103163e+002
5.063320e+002, 1.106766e+002
5.068141e+002, 1.110056e+002
5.072963e+002, 1.111277e+002
5.077784e+002, 1.109442e+002
5.082605e+002, 1.108242e+002
5.087426e+002, 1.112633e+002
5.092247e+002, 1.122140e+002
5.097068e+002, 1.129441e+002
5.101890e+002, 1.132940e+002
5.106711e+002, 1.134077e+002
5.111532e+002, 1.134166e+002
5.116353e+002, 1.133588e+002
5.121174e+002, 1.134167e+002
5.125995e+002, 1.137973e+002
5.130817e+002, 1.142844e+002
5.135638e+002, 1.145788e+002
5.140459e+002, 1.146856e+002
5.145280e+002, 1.148550e+002
5.150101e+002, 1.153282e+002
5.154922e+002, 1.158984e+002
5.159744e+002, 1.163610e+002
5.164565e+002, 1.166204e+002
5.169386e+002, 1.168850e+002
5.174207e+002, 1.172742e+002
5.179028e+002, 1.177031e+002
5.183849e+002, 1.180320e+002
5.188671e+002, 1.180825e+002
5.193492e+002, 1.181988e+002
5.198313e+002, 1.184446e+002
5.203134e+002, 1.188157e+002
5.207955e+002, 1.193030e+002
5.212776e+002, 1.199604e+002
5.217598e+002, 1.206546e+002
5.222419e+002, 1.213268e+002
5.227240e+002, 1.220001e+002
5.232061e+002, 1.224999e+002
5.236882e+002, 1.227453e+002
5.241703e+002, 1.229868e+002
5.246525e+002, 1.236551e+002
5.251346e+002, 1.247164e+002
5.256167e+002, 1.255697e+002
5.260988e+002, 1.259840e+002
5.265809e+002, 1.261702e+002
5.270630e+002, 1.264557e+002
5.275452e+002, 1.268390e+002
5.280273e+002, 1.273098e+002
5.285094e+002, 1.278786e+002
5.289915e+002, 1.285258e+002
5.294736e+002, 1.293080e+002
5.299557e+002, 1.302406e+002
5.304379e+002, 1.310164e+002
5.309200e+002, 1.313280e+002
5.314021e+002, 1.314588e+002
5.318842e+002, 1.316840e+002
5.323663e+002, 1.320434e+002
5.328484e+002, 1.325372e+002
5.333306e+002, 1.332784e+002
5.338127e+002, 1.341448e+002
5.342948e+002, 1.348602e+002
5.347769e+002, 1.353727e+002
5.352590e+002, 1.357737e+002
5.357411e+002, 1.360242e+002
5.362233e+002, 1.361326e+002
5.367054e+002, 1.364225e+002
5.371875e+002, 1.369370e+002
5.376696e+002, 1.375507e+002
5.381517e+002, 1.382656e+002
5.386339e+002, 1.391059e+002
5.391160e+002, 1.396005e+002
5.395981e+002, 1.396294e+002
5.400802e+002, 1.395742e+002
5.405623e+002, 1.400068e+002
5.410444e+002, 1.408415e+002
5.415266e+002, 1.416052e+002
5.420087e+002, 1.421566e+002
5.424908e+002, 1.425539e+002
5.429729e+002, 1.427438e+002
5.434550e+002, 1.428018e+002
5.439371e+002, 1.430373e+002
5.444193e+002, 1.438263e+002
5.449014e+002, 1.447347e+002
5.453835e+002, 1.454237e+002
5.458656e+002, 1.458599e+002
5.463477e+002, 1.461465e+002
5.468298e+002, 1.460972e+002
5.473120e+002, 1.460478e+002
5.477941e+002, 1.462819e+002
5.482762e+002, 1.472726e+002
5.487583e+002, 1.479570e+002
5.492404e+002, 1.480140e+002
5.497225e+002, 1.477910e+002
5.502047e+002, 1.478935e+002
5.506868e+002, 1.485122e+002
5.511689e+002, 1.490885e+002
5.516510e+002, 1.494654e+002
5.521331e+002, 1.496795e+002
5.526152e+002, 1.499789e+002
5.530974e+002, 1.503947e+002
5.535795e+002, 1.507526e+002
5.540616e+002, 1.508739e+002
5.545437e+002, 1.508173e+002
5.550258e+002, 1.509655e+002
5.555079e+002, 1.513745e+002
5.559901e+002, 1.517539e+002
5.564722e+002, 1.516999e+002
5.569543e+002, 1.514050e+002
5.574364e+002, 1.512775e+002
5.579185e+002, 1.515027e+002
5.584006e+002, 1.518202e+002
5.588828e+002, 1.520307e+002
5.593649e+002, 1.521721e+002
5.598470e+002, 1.523396e+002
5.603291e+002, 1.525936e+002
5.608112e+002, 1.528543e+002
5.612933e+002, 1.531420e+002
5.617755e+002, 1.534536e+002
5.622576e+002, 1.535593e+002
5.627397e+002, 1.532008e+002
5.632218e+002, 1.528056e+002
5.637039e+002, 1.525612e+002
5.641860e+002, 1.524445e+002
5.646682e+002, 1.525786e+002
5.651503e+002, 1.531061e+002
5.656324e+002, 1.537126e+002
5.661145e+002, 1.539990e+002
5.665966e+002, 1.539536e+002
5.670787e+002, 1.536974e+002
5.675609e+002, 1.531383e+002
5.680430e+002, 1.525384e+002
5.685251e+002, 1.525618e+002
5.690072e+002, 1.531421e+002
5.694893e+002, 1.537353e+002
5.699714e+002, 1.540544e+002
5.704536e+002, 1.542093e+002
5.709357e+002, 1.543505e+002
5.714178e+002, 1.544789e+002
5.718999e+002, 1.545652e+002
5.723820e+002, 1.544954e+002
5.728641e+002, 1.544255e+002
5.733463e+002, 1.545023e+002
5.738284e+002, 1.547923e+002
5.743105e+002, 1.551153e+002
5.747926e+002, 1.554854e+002
5.752747e+002, 1.558323e+002
5.757568e+002, 1.560650e+002
5.762390e+002, 1.561617e+002
5.767211e+002, 1.561477e+002
5.772032e+002, 1.558496e+002
5.776853e+002, 1.554568e+002
5.781674e+002, 1.557540e+002
5.786495e+002, 1.570694e+002
5.791317e+002, 1.580992e+002
5.796138e+002, 1.581125e+002
5.800959e+002, 1.572867e+002
5.805780e+002, 1.572140e+002
5.810601e+002, 1.579600e+002
5.815422e+002, 1.587369e+002
5.820244e+002, 1.588397e+002
5.825065e+002, 1.584691e+002
5.829886e+002, 1.580588e+002
5.834707e+002, 1.576217e+002
5.839528e+002, 1.573718e+002
5.844349e+002, 1.576237e+002
5.849171e+002, 1.581540e+002
5.853992e+002, 1.586333e+002
5.858813e+002, 1.590707e+002
5.863634e+002, 1.592980e+002
5.868455e+002, 1.590505e+002
5.873276e+002, 1.585205e+002
5.878098e+002, 1.582454e+002
5.882919e+002, 1.586934e+002
5.887740e+002, 1.590336e+002
5.892561e+002, 1.589993e+002
5.897382e+002, 1.585833e+002
5.902203e+002, 1.581463e+002
5.907025e+002, 1.576288e+002
5.911846e+002, 1.572038e+002
5.916667e+002, 1.570275e+002
5.921488e+002, 1.571230e+002
5.926309e+002, 1.571618e+002
5.931130e+002, 1.571552e+002
5.935952e+002, 1.570157e+002
5.940773e+002, 1.565849e+002
5.945594e+002, 1.559180e+002
5.950415e+002, 1.552433e+002
5.955236e+002, 1.546376e+002
5.960057e+002, 1.540024e+002
5.964879e+002, 1.530757e+002
5.969700e+002, 1.520354e+002
5.974521e+002, 1.513086e+002
5.979342e+002, 1.515688e+002
5.984163e+002, 1.517746e+002
5.988984e+002, 1.512833e+002
5.993806e+002, 1.501476e+002
5.998627e+002, 1.490100e+002
6.003448e+002, 1.479980e+002
6.008269e+002, 1.470305e+002
6.013090e+002, 1.460288e+002
6.017911e+002, 1.449189e+002
6.022733e+002, 1.440951e+002
6.027554e+002, 1.437710e+002
6.032375e+002, 1.434335e+002
6.037196e+002, 1.424853e+002
6.042017e+002, 1.408204e+002
6.046838e+002, 1.396131e+002
6.051660e+002, 1.390882e+002
6.056481e+002, 1.388475e+002
6.061302e+002, 1.382402e+002
6.066123e+002, 1.373459e+002
6.070944e+002, 1.365374e+002
6.075765e+002, 1.359978e+002
6.080587e+002, 1.355590e+002
6.085408e+002, 1.350465e+002
6.090229e+002, 1.344683e+002
6.095050e+002, 1.338360e+002
6.099871e+002, 1.330656e+002
6.104692e+002, 1.323204e+002
6.109514e+002, 1.317437e+002
6.114335e+002, 1.313513e+002
6.119156e+002, 1.308549e+002
6.123977e+002, 1.300304e+002
6.128798e+002, 1.292105e+002
6.133619e+002, 1.286091e+002
6.138441e+002, 1.283418e+002
6.143262e+002, 1.279905e+002
6.148083e+002, 1.274989e+002
6.152904e+002, 1.269990e+002
6.157725e+002, 1.266847e+002
6.162546e+002, 1.265687e+002
6.167368e+002, 1.264401e+002
6.172189e+002, 1.262653e+002
6.177010e+002, 1.260444e+002
6.181831e+002, 1.257672e+002
6.186652e+002, 1.254430e+002
6.191473e+002, 1.251054e+002
6.196295e+002, 1.247221e+002
6.201116e+002, 1.243705e+002
6.205937e+002, 1.241693e+002
6.210758e+002, 1.240873e+002
6.215579e+002, 1.239622e+002
6.220400e+002, 1.236410e+002
6.225222e+002, 1.233144e+002
6.230043e+002, 1.231312e+002
6.234864e+002, 1.231563e+002
6.239685e+002, 1.230176e+002
6.244506e+002, 1.225123e+002
6.249327e+002, 1.219711e+002
6.254149e+002, 1.216232e+002
6.258970e+002, 1.215670e+002
6.263791e+002, 1.213921e+002
6.268612e+002, 1.210162e+002
6.273433e+002, 1.206349e+002
6.278254e+002, 1.206015e+002
6.283076e+002, 1.208937e+002
6.287897e+002, 1.210003e+002
6.292718e+002, 1.207055e+002
6.297539e+002, 1.203098e+002
6.302360e+002, 1.203839e+002
6.307181e+002, 1.207803e+002
6.312003e+002, 1.210305e+002
6.316824e+002, 1.208090e+002
6.321645e+002, 1.204209e+002
6.326466e+002, 1.200183e+002
6.331287e+002, 1.196266e+002
6.336108e+002, 1.193896e+002
6.340930e+002, 1.195459e+002
6.345751e+002, 1.197063e+002
6.350572e+002, 1.196330e+002
6.355393e+002, 1.192363e+002
6.360214e+002, 1.190289e+002
6.365035e+002, 1.190720e+002
6.369857e+002, 1.192292e+002
6.374678e+002, 1.194129e+002
6.379499e+002, 1.196282e+002
6.384320e+002, 1.198534e+002
6.389141e+002, 1.201217e+002
6.393962e+002, 1.202943e+002
6.398784e+002, 1.200394e+002
6.403605e+002, 1.194865e+002
6.408426e+002, 1.192314e+002
6.413247e+002, 1.195977e+002
6.418068e+002, 1.200396e+002
6.422889e+002, 1.199192e+002
6.427711e+002, 1.194213e+002
6.432532e+002, 1.189618e+002
6.437353e+002, 1.187435e+002
6.442174e+002, 1.185938e+002
6.446995e+002, 1.184804e+002
6.451816e+002, 1.183846e+002
6.456638e+002, 1.181981e+002
6.461459e+002, 1.175785e+002
6.466280e+002, 1.172116e+002
6.471101e+002, 1.174705e+002
6.475922e+002, 1.184178e+002
6.480743e+002, 1.187520e+002
6.485565e+002, 1.182831e+002
6.490386e+002, 1.176796e+002
6.495207e+002, 1.174526e+002
6.500028e+002, 1.175647e+002
6.504849e+002, 1.177400e+002
6.509670e+002, 1.179690e+002
6.514492e+002, 1.181803e+002
6.519313e+002, 1.182225e+002
6.524134e+002, 1.182044e+002
6.528955e+002, 1.183594e+002
6.533776e+002, 1.188571e+002
6.538597e+002, 1.192943e+002
6.543419e+002, 1.194101e+002
6.548240e+002, 1.193064e+002
6.553061e+002, 1.191359e+002
6.557882e+002, 1.186801e+002
6.562703e+002, 1.184622e+002
6.567524e+002, 1.187449e+002
6.572346e+002, 1.193513e+002
6.577167e+002, 1.197491e+002
6.581988e+002, 1.198304e+002
6.586809e+002, 1.199489e+002
6.591630e+002, 1.202103e+002
6.596451e+002, 1.206070e+002
6.601273e+002, 1.211434e+002
6.606094e+002, 1.218351e+002
6.610915e+002, 1.224639e+002
6.615736e+002, 1.227747e+002
6.620557e+002, 1.229556e+002
6.625378e+002, 1.234305e+002
6.630200e+002, 1.242176e+002
6.635021e+002, 1.249782e+002
6.639842e+002, 1.253263e+002
6.644663e+002, 1.256194e+002
6.649484e+002, 1.262146e+002
6.654305e+002, 1.272855e+002
6.659127e+002, 1.283360e+002
6.663948e+002, 1.292753e+002
6.668769e+002, 1.301223e+002
6.673590e+002, 1.308875e+002
6.678411e+002, 1.314295e+002
6.683232e+002, 1.321726e+002
6.688054e+002, 1.331477e+002
6.692875e+002, 1.343273e+002
6.697696e+002, 1.357135e+002
6.702517e+002, 1.373105e+002
6.707338e+002, 1.388718e+002
6.712159e+002, 1.402839e+002
6.716981e+002, 1.416472e+002
6.721802e+002, 1.432145e+002
6.726623e+002, 1.448889e+002
6.731444e+002, 1.463809e+002
6.736265e+002, 1.472274e+002
6.741086e+002, 1.480662e+002
6.745908e+002, 1.494446e+002
6.750729e+002, 1.512800e+002
6.755550e+002, 1.530412e+002
6.760371e+002, 1.546907e+002
6.765192e+002, 1.561111e+002
6.770013e+002, 1.572851e+002
6.774835e+002, 1.582234e+002
6.779656e+002, 1.588589e+002
6.784477e+002, 1.590270e+002
6.789298e+002, 1.592008e+002
6.794119e+002, 1.598190e+002
6.798940e+002, 1.608937e+002
6.803762e+002, 1.615076e+002
6.808583e+002, 1.616193e+002
6.813404e+002, 1.613936e+002
6.818225e+002, 1.610368e+002
6.823046e+002, 1.604645e+002
6.827867e+002, 1.594546e+002
6.832689e+002, 1.579057e+002
6.837510e+002, 1.561279e+002
6.842331e+002, 1.541203e+002
6.847152e+002, 1.521218e+002
6.851973e+002, 1.504851e+002
6.856794e+002, 1.497592e+002
6.861616e+002, 1.488326e+002
6.866437e+002, 1.474748e+002
6.871258e+002, 1.457986e+002
6.876079e+002, 1.439748e+002
6.880900e+002, 1.419526e+002
6.885721e+002, 1.399768e+002
6.890543e+002, 1.381364e+002
6.895364e+002, 1.363871e+002
6.900185e+002, 1.345094e+002
6.905006e+002, 1.325193e+002
6.909827e+002, 1.306873e+002
6.914648e+002, 1.291173e+002
6.919470e+002, 1.277906e+002
6.924291e+002, 1.266826e+002
6.929112e+002, 1.257741e+002
6.933933e+002, 1.249638e+002
6.938754e+002, 1.245770e+002
6.943575e+002, 1.239577e+002
6.948397e+002, 1.224520e+002
6.953218e+002, 1.199098e+002
6.958039e+002, 1.179369e+002
6.962860e+002, 1.170338e+002
6.967681e+002, 1.164702e+002
6.972502e+002, 1.158957e+002
6.977324e+002, 1.152839e+002
6.982145e+002, 1.148844e+002
6.986966e+002, 1.148177e+002
6.991787e+002, 1.146241e+002
6.996608e+002, 1.136017e+002
7.001429e+002, 1.119908e+002
7.006251e+002, 1.110270e+002
7.011072e+002, 1.109553e+002
7.015893e+002, 1.110544e+002
7.020714e+002, 1.105831e+002
7.025535e+002, 1.098286e+002
7.030356e+002, 1.092161e+002
7.035178e+002, 1.089572e+002
7.039999e+002, 1.087070e+002
7.044820e+002, 1.082109e+002
7.049641e+002, 1.076784e+002
7.054462e+002, 1.074521e+002
7.059283e+002, 1.079033e+002
7.064105e+002, 1.080746e+002
7.068926e+002, 1.077427e+002
7.073747e+002, 1.071242e+002
7.078568e+002, 1.067367e+002
7.083389e+002, 1.065942e+002
7.088210e+002, 1.064692e+002
7.093032e+002, 1.062598e+002
7.097853e+002, 1.060455e+002
7.102674e+002, 1.060261e+002
7.107495e+002, 1.061595e+002
7.112316e+002, 1.062685e+002
7.117137e+002, 1.062069e+002
7.121959e+002, 1.061251e+002
7.126780e+002, 1.061546e+002
7.131601e+002, 1.062780e+002
7.136422e+002, 1.063497e+002
7.141243e+002, 1.063081e+002
7.146064e+002, 1.062238e+002
7.150886e+002, 1.060946e+002
7.155707e+002, 1.059148e+002
7.160528e+002, 1.058948e+002
7.165349e+002, 1.060978e+002
7.170170e+002, 1.063006e+002
7.174991e+002, 1.063540e+002
7.179813e+002, 1.062749e+002
7.184634e+002, 1.061518e+002
7.189455e+002, 1.059796e+002
7.194276e+002, 1.059339e+002
7.199097e+002, 1.064037e+002
7.203918e+002, 1.069895e+002
7.208740e+002, 1.070597e+002
7.213561e+002, 1.064260e+002
7.218382e+002, 1.058977e+002
7.223203e+002, 1.059554e+002
7.228024e+002, 1.062280e+002
7.232845e+002, 1.063824e+002
7.237667e+002, 1.062291e+002
7.242488e+002, 1.062433e+002
7.247309e+002, 1.065143e+002
7.252130e+002, 1.068571e+002
7.256951e+002, 1.070258e+002
7.261772e+002, 1.070005e+002
7.266594e+002, 1.071267e+002
7.271415e+002, 1.075044e+002
7.276236e+002, 1.079047e+002
7.281057e+002, 1.079020e+002
7.285878e+002, 1.076696e+002
7.290699e+002, 1.076719e+002
7.295521e+002, 1.081867e+002
7.300342e+002, 1.087795e+002
7.305163e+002, 1.092841e+002
7.309984e+002, 1.096422e+002
7.314805e+002, 1.097494e+002
7.319626e+002, 1.091306e+002
7.324448e+002, 1.088076e+002
7.329269e+002, 1.090516e+002
7.334090e+002, 1.096839e+002
7.338911e+002, 1.102122e+002
7.343732e+002, 1.105955e+002
7.348553e+002, 1.110357e+002
7.353375e+002, 1.116419e+002
7.358196e+002, 1.123094e+002
7.363017e+002, 1.127651e+002
7.367838e+002, 1.130270e+002
7.372659e+002, 1.132049e+002
7.377480e+002, 1.131813e+002
7.382302e+002, 1.132329e+002
7.387123e+002, 1.137151e+002
7.391944e+002, 1.145408e+002
7.396765e+002, 1.152706e+002
7.401586e+002, 1.156163e+002
7.406407e+002, 1.159541e+002
7.411229e+002, 1.164824e+002
7.416050e+002, 1.171934e+002
7.420871e+002, 1.177457e+002
7.425692e+002, 1.180523e+002
7.430513e+002, 1.184145e+002
7.435334e+002, 1.190215e+002
7.440156e+002, 1.198427e+002
7.444977e+002, 1.206381e+002
7.449798e+002, 1.214117e+002
7.454619e+002, 1.220402e+002
7.459440e+002, 1.223199e+002
7.464261e+002, 1.224471e+002
7.469083e+002, 1.226466e+002
7.473904e+002, 1.229382e+002
7.478725e+002, 1.233149e+002
7.483546e+002, 1.237506e+002
7.488367e+002, 1.242807e+002
7.493188e+002, 1.249712e+002
7.498010e+002, 1.259002e+002
7.502831e+002, 1.266501e+002
7.507652e+002, 1.271724e+002
7.512473e+002, 1.275874e+002
7.517294e+002, 1.280683e+002
7.522115e+002, 1.286060e+002
7.526937e+002, 1.286686e+002
7.531758e+002, 1.281673e+002
7.536579e+002, 1.275875e+002
7.541400e+002, 1.273796e+002
7.546221e+002, 1.274466e+002
7.551042e+002, 1.276561e+002
7.555864e+002, 1.280117e+002
7.560685e+002, 1.283887e+002
7.565506e+002, 1.289284e+002
7.570327e+002, 1.293524e+002
7.575148e+002, 1.293599e+002
7.579969e+002, 1.284338e+002
7.584791e+002, 1.278573e+002
7.589612e+002, 1.278024e+002
7.594433e+002, 1.279052e+002
7.599254e+002, 1.276871e+002
7.604075e+002, 1.271259e+002
7.608896e+002, 1.266966e+002
7.613718e+002, 1.264830e+002
7.618539e+002, 1.263792e+002
7.623360e+002, 1.263047e+002
7.628181e+002, 1.262275e+002
7.633002e+002, 1.260913e+002
7.637823e+002, 1.259218e+002
7.642645e+002, 1.256079e+002
7.647466e+002, 1.249235e+002
7.652287e+002, 1.241094e+002
7.657108e+002, 1.235106e+002
7.661929e+002, 1.232751e+002
7.666750e+002, 1.231482e+002
7.671572e+002, 1.231672e+002
7.676393e+002, 1.232430e+002
7.681214e+002, 1.232253e+002
7.686035e+002, 1.231144e+002
7.690856e+002, 1.228627e+002
7.695677e+002, 1.223835e+002
7.700499e+002, 1.218941e+002
7.705320e+002, 1.218368e+002
7.710141e+002, 1.220440e+002
7.714962e+002, 1.220859e+002
7.719783e+002, 1.215891e+002
7.724604e+002, 1.210771e+002
7.729426e+002, 1.208507e+002
7.734247e+002, 1.208091e+002
7.739068e+002, 1.207153e+002
7.743889e+002, 1.202652e+002
7.748710e+002, 1.201864e+002
7.753531e+002, 1.208109e+002
7.758353e+002, 1.217943e+002
7.763174e+002, 1.220955e+002
7.767995e+002, 1.216853e+002
7.772816e+002, 1.211858e+002
7.777637e+002, 1.207553e+002
7.782458e+002, 1.204439e+002
7.787280e+002, 1.203927e+002
7.792101e+002, 1.205421e+002
7.796922e+002, 1.206984e+002
7.801743e+002, 1.207423e+002
7.806564e+002, 1.207964e+002
7.811385e+002, 1.209362e+002
7.816207e+002, 1.211440e+002
7.821028e+002, 1.213264e+002
7.825849e+002, 1.213618e+002
7.830670e+002, 1.215594e+002
7.835491e+002, 1.220659e+002
7.840313e+002, 1.227782e+002
7.845134e+002, 1.233176e+002
7.849955e+002, 1.236866e+002
7.854776e+002, 1.239028e+002
7.859597e+002, 1.239136e+002
7.864418e+002, 1.238226e+002
7.869240e+002, 1.237289e+002
7.874061e+002, 1.236615e+002
7.878882e+002, 1.237336e+002
7.883703e+002, 1.240557e+002
7.888524e+002, 1.244790e+002
7.893345e+002, 1.250721e+002
7.898167e+002, 1.257639e+002
7.902988e+002, 1.260175e+002
7.907809e+002, 1.255510e+002
7.912630e+002, 1.251706e+002
7.917451e+002, 1.252062e+002
7.922272e+002, 1.255339e+002
7.927094e+002, 1.256086e+002
7.931915e+002, 1.254360e+002
7.936736e+002, 1.251532e+002
7.941557e+002, 1.248418e+002
7.946378e+002, 1.244631e+002
7.951199e+002, 1.238865e+002
7.956021e+002, 1.231794e+002
7.960842e+002, 1.226111e+002
7.965663e+002, 1.226033e+002
7.970484e+002, 1.224739e+002
7.975305e+002, 1.218323e+002
7.980126e+002, 1.207457e+002
7.984948e+002, 1.197768e+002
7.989769e+002, 1.189544e+002
7.994590e+002, 1.182014e+002
7.999411e+002, 1.175729e+002
8.004232e+002, 1.169732e+002
8.009053e+002, 1.160137e+002
8.013875e+002, 1.147226e+002
8.018696e+002, 1.133802e+002
8.023517e+002, 1.119693e+002
8.028338e+002, 1.107029e+002
8.033159e+002, 1.099101e+002
8.037980e+002, 1.095053e+002
8.042802e+002, 1.089980e+002
8.047623e+002, 1.082141e+002
8.052444e+002, 1.073106e+002
8.057265e+002, 1.063080e+002
8.062086e+002, 1.052256e+002
8.066907e+002, 1.042258e+002
8.071729e+002, 1.032986e+002
8.076550e+002, 1.024896e+002
8.081371e+002, 1.019297e+002
8.086192e+002, 1.014492e+002
8.091013e+002, 1.005263e+002
8.095834e+002, 9.922916e+001
8.100656e+002, 9.794491e+001
8.105477e+002, 9.682117e+001
8.110298e+002, 9.586269e+001
8.115119e+002, 9.509729e+001
8.119940e+002, 9.450840e+001
8.124761e+002, 9.397386e+001
8.129583e+002, 9.355910e+001
8.134404e+002, 9.308939e+001
8.139225e+002, 9.249844e+001
8.144046e+002, 9.181025e+001
8.148867e+002, 9.111016e+001
8.153688e+002, 9.040000e+001
8.158510e+002, 8.975771e+001
8.163331e+002, 8.925925e+001
8.168152e+002, 8.883141e+001
8.172973e+002, 8.839942e+001
8.177794e+002, 8.794410e+001
8.182615e+002, 8.739525e+001
8.187437e+002, 8.649764e+001
8.192258e+002, 8.571871e+001
8.197079e+002, 8.537373e+001
8.201900e+002, 8.538939e+001
8.206721e+002, 8.517149e+001
8.211542e+002, 8.456902e+001
8.216364e+002, 8.406728e+001
8.221185e+002, 8.386606e+001
8.226006e+002, 8.386300e+001
8.230827e+002, 8.368997e+001
8.235648e+002, 8.337001e+001
8.240469e+002, 8.307455e+001
8.245291e+002, 8.296498e+001
8.250112e+002, 8.286726e+001
8.254933e+002, 8.253650e+001
8.259754e+002, 8.206821e+001
8.264575e+002, 8.175919e+001
8.269396e+002, 8.192057e+001
8.274218e+002, 8.200513e+001
8.279039e+002, 8.185645e+001
8.283860e+002, 8.152837e+001
8.288681e+002, 8.117006e+001
8.293502e+002, 8.075063e+001
8.298323e+002, 8.047147e+001
8.303145e+002, 8.043546e+001
8.307966e+002, 8.053429e+001
8.312787e+002, 8.062294e+001
8.317608e+002, 8.067801e+001
8.322429e+002, 8.062544e+001
8.327250e+002, 8.032981e+001
8.332072e+002, 8.001861e+001
8.336893e+002, 7.972812e+001
8.341714e+002, 7.951497e+001
8.346535e+002, 7.956147e+001
8.351356e+002, 8.017612e+001
8.356177e+002, 8.047852e+001
8.360999e+002, 8.021919e+001
8.365820e+002, 7.965273e+001
8.370641e+002, 7.932793e+001
8.375462e+002, 7.923169e+001
8.380283e+002, 7.922212e+001
8.385104e+002, 7.927877e+001
8.389926e+002, 7.935719e+001
8.394747e+002, 7.939787e+001
8.399568e+002, 7.942687e+001
8.404389e+002, 7.949081e+001
8.409210e+002, 7.971898e+001
8.414031e+002, 7.984079e+001
8.418853e+002, 7.966674e+001
8.423674e+002, 7.941719e+001
8.428495e+002, 7.943811e+001
8.433316e+002, 7.980781e+001
8.438137e+002, 8.005727e+001
8.442958e+002, 8.011408e+001
8.447780e+002, 8.001920e+001
8.452601e+002, 7.967744e+001
8.457422e+002, 7.924423e+001
8.462243e+002, 7.913631e+001
8.467064e+002, 7.962753e+001
8.471885e+002, 8.005034e+001
8.476707e+002, 7.999056e+001
8.481528e+002, 7.966679e+001
8.486349e+002, 7.932102e+001
8.491170e+002, 7.887177e+001
8.495991e+002, 7.862133e+001
8.500812e+002, 7.863306e+001
8.505634e+002, 7.875491e+001
8.510455e+002, 7.876223e+001
8.515276e+002, 7.869706e+001
8.520097e+002, 7.898394e+001
8.524918e+002, 7.974683e+001
8.529739e+002, 8.036414e+001
8.534561e+002, 8.004865e+001
8.539382e+002, 7.938726e+001
8.544203e+002, 7.904124e+001
8.549024e+002, 7.920986e+001
8.553845e+002, 7.942236e+001
8.558666e+002, 7.965809e+001
8.563488e+002, 7.984313e+001
8.568309e+002, 7.990147e+001
8.573130e+002, 7.980518e+001
8.577951e+002, 7.980019e+001
8.582772e+002, 7.989462e+001
8.587593e+002, 8.001948e+001
8.592415e+002, 8.008888e+001
8.597236e+002, 8.015697e+001
8.602057e+002, 8.038091e+001
8.606878e+002, 8.076922e+001
8.611699e+002, 8.100029e+001
8.616520e+002, 8.074692e+001
8.621342e+002, 8.043324e+001
8.626163e+002, 8.035104e+001
8.630984e+002, 8.051684e+001
8.635805e+002, 8.054500e+001
8.640626e+002, 8.039421e+001
8.645447e+002, 8.023048e+001
8.650269e+002, 8.012369e+001
8.655090e+002, 8.008180e+001
8.659911e+002, 8.018816e+001
8.664732e+002, 8.041561e+001
8.669553e+002, 8.057244e+001
8.674374e+002, 8.040736e+001
8.679196e+002, 8.024295e+001
8.684017e+002, 8.030330e+001
8.688838e+002, 8.057436e+001
8.693659e+002, 8.092342e+001
8.698480e+002, 8.151862e+001
8.703301e+002, 8.186836e+001
8.708123e+002, 8.175718e+001
8.712944e+002, 8.133231e+001
8.717765e+002, 8.103742e+001
8.722586e+002, 8.088050e+001
8.727407e+002, 8.094724e+001
8.732228e+002, 8.146409e+001
8.737050e+002, 8.200747e+001
8.741871e+002, 8.207642e+001
8.746692e+002, 8.184427e+001
8.751513e+002, 8.168863e+001
8.756334e+002, 8.180589e+001
8.761155e+002, 8.191885e+001
8.765977e+002, 8.199632e+001
8.770798e+002, 8.203177e+001
8.775619e+002, 8.199639e+001
8.780440e+002, 8.188383e+001
8.785261e+002, 8.180291e+001
8.790082e+002, 8.178059e+001
8.794904e+002, 8.178222e+001
8.799725e+002, 8.177943e+001
8.804546e+002, 8.176305e+001
8.809367e+002, 8.168520e+001
8.814188e+002, 8.138851e+001
8.819009e+002, 8.134885e+001
8.823831e+002, 8.211672e+001
8.828652e+002, 8.298615e+001
8.833473e+002, 8.318055e+001
8.838294e+002, 8.242641e+001
8.843115e+002, 8.211642e+001
8.847936e+002, 8.237818e+001
8.852758e+002, 8.278449e+001
8.857579e+002, 8.291290e+001
8.862400e+002, 8.285303e+001
8.867221e+002, 8.277670e+001
8.872042e+002, 8.270067e+001
8.876863e+002, 8.270092e+001
8.881685e+002, 8.285880e+001
8.886506e+002, 8.307901e+001
8.891327e+002, 8.332683e+001
8.896148e+002, 8.362058e+001
8.900969e+002, 8.373380e+001
8.905790e+002, 8.359030e+001
8.910612e+002, 8.346046e+001
8.915433e+002, 8.353789e+001
8.920254e+002, 8.375504e+001
8.925075e+002, 8.387186e+001
8.929896e+002, 8.389315e+001
8.934717e+002, 8.386382e+001
8.939539e+002, 8.376491e+001
8.944360e+002, 8.366586e+001
8.949181e+002, 8.359665e+001
8.954002e+002, 8.356463e+001
8.958823e+002, 8.359977e+001
8.963644e+002, 8.368566e+001
8.968466e+002, 8.388023e+001
8.973287e+002, 8.425505e+001
8.978108e+002, 8.470664e+001
8.982929e+002, 8.496364e+001
8.987750e+002, 8.504484e+001
8.992571e+002, 8.507262e+001
8.997393e+002, 8.509310e+001
9.002214e+002, 8.507993e+001
9.007035e+002, 8.492710e+001
9.011856e+002, 8.474486e+001
9.016677e+002, 8.472148e+001
9.021498e+002, 8.507699e+001
9.026320e+002, 8.533961e+001
9.031141e+002, 8.543534e+001
9.035962e+002, 8.548020e+001
9.040783e+002, 8.563060e+001
9.045604e+002, 8.588017e+001
9.050425e+002, 8.618964e+001
9.055247e+002, 8.659223e+001
9.060068e+002, 8.680663e+001
9.064889e+002, 8.630556e+001
9.069710e+002, 8.560957e+001
9.074531e+002, 8.535277e+001
9.079352e+002, 8.580132e+001
9.084174e+002, 8.604647e+001
9.088995e+002, 8.573920e+001
9.093816e+002, 8.546245e+001
9.098637e+002, 8.563403e+001
9.103458e+002, 8.625399e+001
9.108279e+002, 8.658112e+001
9.113101e+002, 8.661110e+001
9.117922e+002, 8.655733e+001
9.122743e+002, 8.659650e+001
9.127564e+002, 8.661814e+001
9.132385e+002, 8.636156e+001
9.137206e+002, 8.590089e+001
9.142028e+002, 8.579995e+001
9.146849e+002, 8.671292e+001
9.151670e+002, 8.744920e+001
9.156491e+002, 8.761117e+001
9.161312e+002, 8.734230e+001
9.166133e+002, 8.714040e+001
9.170955e+002, 8.700471e+001
9.175776e+002, 8.704662e+001
9.180597e+002, 8.736071e+001
9.185418e+002, 8.779099e+001
9.190239e+002, 8.820174e+001
9.195060e+002, 8.857710e+001
9.199882e+002, 8.888035e+001
9.204703e+002, 8.919275e+001
9.209524e+002, 8.929679e+001
9.214345e+002, 8.897054e+001
9.219166e+002, 8.857415e+001
9.223987e+002, 8.862935e+001
9.228809e+002, 8.917950e+001
9.233630e+002, 8.941509e+001
9.238451e+002, 8.920278e+001
9.243272e+002, 8.892036e+001
9.248093e+002, 8.898460e+001
9.252914e+002, 8.921831e+001
9.257736e+002, 8.940769e+001
9.262557e+002, 8.952747e+001
9.267378e+002, 8.956184e+001
9.272199e+002, 8.940359e+001
9.277020e+002, 8.925687e+001
9.281841e+002, 8.923125e+001
9.286663e+002, 8.932755e+001
9.291484e+002, 8.941679e+001
9.296305e+002, 8.950032e+001
9.301126e+002, 8.957166e+001
9.305947e+002, 8.961637e+001
9.310768e+002, 8.965428e+001
9.315590e+002, 8.972316e+001
9.320411e+002, 8.981089e+001
9.325232e+002, 8.986337e+001
9.330053e+002, 8.980552e+001
9.334874e+002, 8.977766e+001
9.339695e+002, 8.979330e+001
9.344517e+002, 8.987048e+001
9.349338e+002, 9.011156e+001
9.354159e+002, 9.052125e+001
9.358980e+002, 9.078433e+001
9.363801e+002, 9.080730e+001
9.368622e+002, 9.066512e+001
9.373444e+002, 9.025708e+001
9.378265e+002, 8.980733e+001
9.383086e+002, 8.967368e+001
9.387907e+002, 9.022826e+001
9.392728e+002, 9.054427e+001
9.397549e+002, 9.026626e+001
9.402371e+002, 8.990511e+001
9.407192e+002, 8.991411e+001
9.412013e+002, 9.030870e+001
9.416834e+002, 9.047169e+001
9.421655e+002, 9.036632e+001
9.426476e+002, 9.033894e+001
9.431298e+002, 9.083210e+001
9.436119e+002, 9.145675e+001
9.440940e+002, 9.184471e+001
9.445761e+002, 9.196922e+001
9.450582e+002, 9.185336e+001
9.455403e+002, 9.123624e+001
9.460225e+002, 9.070053e+001
9.465046e+002, 9.041164e+001
9.469867e+002, 9.034929e+001
9.474688e+002, 9.049595e+001
9.479509e+002, 9.083401e+001
9.484330e+002, 9.111367e+001
9.489152e+002, 9.120058e+001
9.493973e+002, 9.122363e+001
9.498794e+002, 9.128220e+001
9.503615e+002, 9.137080e+001
9.508436e+002, 9.148010e+001
9.513257e+002, 9.176154e+001
9.518079e+002, 9.182063e+001
9.522900e+002, 9.154858e+001
9.527721e+002, 9.116890e+001
9.532542e+002, 9.086292e+001
9.537363e+002, 9.066096e+001
9.542184e+002, 9.090576e+001
9.547006e+002, 9.167982e+001
9.551827e+002, 9.235634e+001
9.556648e+002, 9.234267e+001
9.561469e+002, 9.207093e+001
9.566290e+002, 9.189316e+001
9.571111e+002, 9.185436e+001
9.575933e+002, 9.187122e+001
9.580754e+002, 9.196024e+001
9.585575e+002, 9.206601e+001
9.590396e+002, 9.219353e+001
9.595217e+002, 9.230568e+001
9.600038e+002, 9.220951e+001
9.604860e+002, 9.195380e+001
9.609681e+002, 9.179209e+001
9.614502e+002, 9.195864e+001
9.619323e+002, 9.215871e+001
9.624144e+002, 9.224454e+001
9.628965e+002, 9.223261e+001
9.633787e+002, 9.214544e+001
9.638608e+002, 9.188806e+001
9.643429e+002, 9.182359e+001
9.648250e+002, 9.203841e+001
9.653071e+002, 9.235081e+001
9.657892e+002, 9.253015e+001
9.662714e+002, 9.260635e+001
9.667535e+002, 9.262803e+001
9.672356e+002, 9.258636e+001
9.677177e+002, 9.262381e+001
9.681998e+002, 9.302268e+001
9.686819e+002, 9.336275e+001
9.691641e+002, 9.328137e+001
9.696462e+002, 9.273624e+001
9.701283e+002, 9.246166e+001
9.706104e+002, 9.251842e+001
9.710925e+002, 9.248405e+001
9.715746e+002, 9.194749e+001
9.720568e+002, 9.125011e+001
9.725389e+002, 9.106143e+001
9.730210e+002, 9.125537e+001
9.735031e+002, 9.142246e+001
9.739852e+002, 9.146589e+001
9.744673e+002, 9.136074e+001
9.749495e+002, 9.101179e+001
9.754316e+002, 9.056470e+001
9.759137e+002, 9.030806e+001
9.763958e+002, 9.026266e+001
9.768779e+002, 8.999866e+001
9.773600e+002, 8.937163e+001
9.778422e+002, 8.884277e+001
9.783243e+002, 8.902946e+001
9.788064e+002, 8.954285e+001
9.792885e+002, 8.994257e+001
9.797706e+002, 9.018636e+001
9.802527e+002, 9.012730e+001
9.807349e+002, 8.954847e+001
9.812170e+002, 8.894173e+001
9.816991e+002, 8.862693e+001
9.821812e+002, 8.853381e+001
9.826633e+002, 8.801461e+001
9.831454e+002, 8.712183e+001
9.836276e+002, 8.645722e+001
9.841097e+002, 8.662950e+001
9.845918e+002, 8.693024e+001
9.850739e+002, 8.676439e+001
9.855560e+002, 8.630553e+001
9.860381e+002, 8.604409e+001
9.865203e+002, 8.614146e+001
9.870024e+002, 8.615896e+001
9.874845e+002, 8.600346e+001
9.879666e+002, 8.582522e+001
9.884487e+002, 8.597443e+001
9.889308e+002, 8.627514e+001
9.894130e+002, 8.612878e+001
9.898951e+002, 8.536903e+001
9.903772e+002, 8.469380e+001
9.908593e+002, 8.449864e+001
9.913414e+002, 8.455467e+001
9.918235e+002, 8.480690e+001
9.923057e+002, 8.527456e+001
9.927878e+002, 8.522126e+001
9.932699e+002, 8.455238e+001
9.937520e+002, 8.394849e+001
9.942341e+002, 8.384830e+001
9.947162e+002, 8.398621e+001
9.951984e+002, 8.391187e+001
9.956805e+002, 8.369650e+001
9.961626e+002, 8.353716e+001
9.966447e+002, 8.352219e+001
9.971268e+002, 8.355550e+001
9.976089e+002, 8.363225e+001
9.980911e+002, 8.372940e+001
9.985732e+002, 8.385001e+001
9.990553e+002, 8.399313e+001
9.995374e+002, 8.393259e+001
1.000020e+003, 8.361938e+001
1.000502e+003, 8.330317e+001
1.000984e+003, 8.328416e+001
1.001466e+003, 8.333167e+001
1.001948e+003, 8.316785e+001
1.002430e+003, 8.273209e+001
1.002912e+003, 8.253603e+001
1.003394e+003, 8.272303e+001
1.003876e+003, 8.293015e+001
1.004359e+003, 8.301815e+001
1.004841e+003, 8.301263e+001
1.005323e+003, 8.298857e+001
1.005805e+003, 8.293923e+001
1.006287e+003, 8.283523e+001
1.006769e+003, 8.262610e+001
1.007251e+003, 8.240744e+001
1.007733e+003, 8.218133e+001
1.008216e+003, 8.200175e+001
1.008698e+003, 8.193244e+001
1.009180e+003, 8.196870e+001
1.009662e+003, 8.218954e+001
1.010144e+003, 8.265553e+001
1.010626e+003, 8.302209e+001
1.011108e+003, 8.284367e+001
1.011590e+003, 8.238986e+001
1.012072e+003, 8.203112e+001
1.012555e+003, 8.179351e+001
1.013037e+003, 8.163527e+001
1.013519e+003, 8.154414e+001
1.014001e+003, 8.153909e+001
1.014483e+003, 8.167811e+001
1.014965e+003, 8.188550e+001
1.015447e+003, 8.185868e+001
1.015929e+003, 8.162544e+001
1.016411e+003, 8.149410e+001
1.016894e+003, 8.161567e+001
1.017376e+003, 8.175306e+001
1.017858e+003, 8.168689e+001
1.018340e+003, 8.151978e+001
1.018822e+003, 8.137125e+001
1.019304e+003, 8.122144e+001
1.019786e+003, 8.120554e+001
1.020268e+003, 8.138115e+001
1.020751e+003, 8.154031e+001
1.021233e+003, 8.143469e+001
1.021715e+003, 8.121010e+001
1.022197e+003, 8.131557e+001
1.022679e+003, 8.169946e+001
1.023161e+003, 8.201286e+001
1.023643e+003, 8.206169e+001
1.024125e+003, 8.202593e+001
1.024607e+003, 8.193968e+001
1.025090e+003, 8.183166e+001
1.025572e+003, 8.174738e+001
1.026054e+003, 8.168336e+001
1.026536e+003, 8.170608e+001
1.027018e+003, 8.185220e+001
1.027500e+003, 8.197079e+001
1.027982e+003, 8.181612e+001
1.028464e+003, 8.158953e+001
1.028947e+003, 8.154552e+001
1.029429e+003, 8.177070e+001
1.029911e+003, 8.193962e+001
1.030393e+003, 8.205435e+001
1.030875e+003, 8.206665e+001
1.031357e+003, 8.192613e+001
1.031839e+003, 8.167708e+001
1.032321e+003, 8.138468e+001
1.032803e+003, 8.110104e+001
1.033286e+003, 8.103344e+001
1.033768e+003, 8.153380e+001
1.034250e+003, 8.199024e+001
1.034732e+003, 8.206685e+001
1.035214e+003, 8.197099e+001
1.035696e+003, 8.201285e+001
1.036178e+003, 8.223042e+001
1.036660e+003, 8.237704e+001
1.037143e+003, 8.243642e+001
1.037625e+003, 8.242197e+001
1.038107e+003, 8.227699e+001
1.038589e+003, 8.210725e+001
1.039071e+003, 8.203988e+001
1.039553e+003, 8.208125e+001
1.040035e+003, 8.218713e+001
1.040517e+003, 8.243026e+001
1.041000e+003, 8.260395e+001
1.041482e+003, 8.262211e+001
1.041964e+003, 8.256246e+001
1.042446e+003, 8.262730e+001
1.042928e+003, 8.278226e+001
1.043410e+003, 8.287887e+001
1.043892e+003, 8.286031e+001
1.044374e+003, 8.281947e+001
1.044856e+003, 8.275997e+001
1.045339e+003, 8.274423e+001
1.045821e+003, 8.285962e+001
1.046303e+003, 8.314868e+001
1.046785e+003, 8.320701e+001
1.047267e+003, 8.300732e+001
1.047749e+003, 8.281960e+001
1.048231e+003, 8.281381e+001
1.048713e+003, 8.293001e+001
1.049195e+003, 8.318955e+001
1.049677e+003, 8.351073e+001
1.050160e+003, 8.365713e+001
1.050642e+003, 8.341796e+001
1.051124e+003, 8.316834e+001
1.051606e+003, 8.286063e+001
1.052088e+003, 8.268702e+001
1.052570e+003, 8.308488e+001
1.053052e+003, 8.385591e+001
1.053534e+003, 8.413641e+001
1.054017e+003, 8.381126e+001
1.054499e+003, 8.348045e+001
1.054981e+003, 8.351464e+001
1.055463e+003, 8.366687e+001
1.055945e+003, 8.386230e+001
1.056427e+003, 8.405754e+001
1.056909e+003, 8.392846e+001
1.057391e+003, 8.343437e+001
1.057874e+003, 8.310331e+001
1.058356e+003, 8.315392e+001
1.058838e+003, 8.336596e+001
1.059320e+003, 8.359937e+001
1.059802e+003, 8.376855e+001
1.060284e+003, 8.373359e+001
1.060766e+003, 8.329250e+001
1.061248e+003, 8.307008e+001
1.061730e+003, 8.315991e+001
1.062213e+003, 8.332518e+001
1.062695e+003, 8.337409e+001
1.063177e+003, 8.336345e+001
1.063659e+003, 8.358697e+001
1.064141e+003, 8.397084e+001
1.064623e+003, 8.416197e+001
1.065105e+003, 8.374265e+001
1.065587e+003, 8.336752e+001
1.066070e+003, 8.334310e+001
1.066552e+003, 8.348567e+001
1.067034e+003, 8.348973e+001
1.067516e+003, 8.334209e+001
1.067998e+003, 8.350275e+001
1.068480e+003, 8.405379e+001
1.068962e+003, 8.460520e+001
1.069444e+003, 8.484492e+001
1.069927e+003, 8.489024e+001
1.070409e+003, 8.479551e+001
1.070891e+003, 8.457360e+001
1.071373e+003, 8.443580e+001
1.071855e+003, 8.435705e+001
1.072337e+003, 8.448859e+001
1.072819e+003, 8.501219e+001
1.073301e+003, 8.555327e+001
1.073783e+003, 8.521581e+001
1.074266e+003, 8.442863e+001
1.074748e+003, 8.413776e+001
1.075230e+003, 8.481606e+001
1.075712e+003, 8.538035e+001
1.076194e+003, 8.551566e+001
1.076676e+003, 8.549733e+001
1.077158e+003, 8.547008e+001
1.077640e+003, 8.543013e+001
1.078122e+003, 8.530924e+001
1.078604e+003, 8.512210e+001
1.079087e+003, 8.499509e+001
1.079569e+003, 8.505390e+001
1.080051e+003, 8.513613e+001
1.080533e+003, 8.510069e+001
1.081015e+003, 8.504255e+001
1.081497e+003, 8.514526e+001
1.081979e+003, 8.545987e+001
1.082461e+003, 8.572294e+001
1.082944e+003, 8.593351e+001
1.083426e+003, 8.596603e+001
1.083908e+003, 8.545335e+001
1.084390e+003, 8.485135e+001
1.084872e+003, 8.475583e+001
1.085354e+003, 8.516112e+001
1.085836e+003, 8.554491e+001
1.086318e+003, 8.591622e+001
1.086801e+003, 8.610217e+001
1.087283e+003, 8.604475e+001
1.087765e+003, 8.580913e+001
1.088247e+003, 8.536720e+001
1.088729e+003, 8.485877e+001
1.089211e+003, 8.470513e+001
1.089693e+003, 8.506899e+001
1.090175e+003, 8.538185e+001
1.090657e+003, 8.538314e+001
1.091140e+003, 8.528035e+001
1.091622e+003, 8.520073e+001
1.092104e+003, 8.512350e+001
1.092586e+003, 8.477843e+001
1.093068e+003, 8.420435e+001
1.093550e+003, 8.388760e+001
1.094032e+003, 8.415063e+001
1.094514e+003, 8.458071e+001
1.094997e+003, 8.510164e+001
1.095479e+003, 8.549756e+001
1.095961e+003, 8.544643e+001
1.096443e+003, 8.475034e+001
1.096925e+003, 8.430840e+001
1.097407e+003, 8.414779e+001
1.097889e+003, 8.407654e+001
1.098371e+003, 8.388681e+001
1.098854e+003, 8.374136e+001
1.099336e+003, 8.396236e+001
1.099818e+003, 8.443127e+001
1.100300e+003, 8.467078e+001
1.100782e+003, 8.441242e+001
1.101264e+003, 8.420008e+001
1.101746e+003, 8.411377e+001
1.102228e+003, 8.406831e+001
1.102710e+003, 8.397726e+001
1.103193e+003, 8.383377e+001
1.103675e+003, 8.355392e+001
1.104157e+003, 8.313109e+001
1.104639e+003, 8.288538e+001
1.105121e+003, 8.312137e+001
1.105603e+003, 8.337734e+001
1.106085e+003, 8.346616e+001
1.106567e+003, 8.345129e+001
1.107049e+003, 8.357144e+001
1.107531e+003, 8.379337e+001
1.108014e+003, 8.382304e+001
1.108496e+003, 8.352322e+001
1.108978e+003, 8.322121e+001
1.109460e+003, 8.309602e+001
1.109942e+003, 8.311074e+001
1.110424e+003, 8.327048e+001
1.110906e+003, 8.357922e+001
1.111388e+003, 8.379012e+001
1.111871e+003, 8.390516e+001
1.112353e+003, 8.388595e+001
1.112835e+003, 8.366270e+001
1.113317e+003, 8.336141e+001
1.113799e+003, 8.309042e+001
1.114281e+003, 8.284982e+001
1.114763e+003, 8.263711e+001
1.115245e+003, 8.246751e+001
1.115728e+003, 8.232155e+001
1.116210e+003, 8.223217e+001
1.116692e+003, 8.206333e+001
1.117174e+003, 8.156248e+001
1.117656e+003, 8.097613e+001
1.118138e+003, 8.085792e+001
1.118620e+003, 8.108801e+001
1.119102e+003, 8.113429e+001
1.119584e+003, 8.049574e+001
1.120067e+003, 8.012917e+001
1.120549e+003, 8.031213e+001
1.121031e+003, 8.061133e+001
1.121513e+003, 8.037856e+001
1.121995e+003, 7.977203e+001
1.122477e+003, 7.935386e+001
1.122959e+003, 7.917026e+001
1.123441e+003, 7.898836e+001
1.123924e+003, 7.861492e+001
1.124406e+003, 7.829518e+001
1.124888e+003, 7.811649e+001
1.125370e+003, 7.806906e+001
1.125852e+003, 7.820715e+001
1.126334e+003, 7.850057e+001
1.126816e+003, 7.857142e+001
1.127298e+003, 7.830408e+001
1.127781e+003, 7.795425e+001
1.128263e+003, 7.765223e+001
1.128745e+003, 7.739446e+001
1.129227e+003, 7.712700e+001
1.129709e+003, 7.685706e+001
1.130191e+003, 7.699105e+001
1.130673e+003, 7.756372e+001
1.131155e+003, 7.800161e+001
1.131637e+003, 7.802692e+001
1.132120e+003, 7.790573e+001
1.132602e+003, 7.790908e+001
1.133084e+003, 7.794669e+001
1.133566e+003, 7.786668e+001
1.134048e+003, 7.754736e+001
1.134530e+003, 7.751019e+001
1.135012e+003, 7.783830e+001
1.135494e+003, 7.810897e+001
1.135976e+003, 7.795000e+001
1.136458e+003, 7.762880e+001
1.136941e+003, 7.759116e+001
1.137423e+003, 7.774059e+001
1.137905e+003, 7.784145e+001
1.138387e+003, 7.779277e+001
1.138869e+003, 7.774531e+001
1.139351e+003, 7.771230e+001
1.139833e+003, 7.766915e+001
1.140315e+003, 7.755733e+001
1.140798e+003, 7.742757e+001
1.141280e+003, 7.746175e+001
1.141762e+003, 7.762245e+001
1.142244e+003, 7.764246e+001
1.142726e+003, 7.721461e+001
1.143208e+003, 7.688937e+001
1.143690e+003, 7.676275e+001
1.144172e+003, 7.681939e+001
1.144655e+003, 7.720760e+001
1.145137e+003, 7.777001e+001
1.145619e+003, 7.779700e+001
1.146101e+003, 7.719507e+001
1.146583e+003, 7.665475e+001
1.147065e+003, 7.642828e+001
1.147547e+003, 7.652164e+001
1.148029e+003, 7.709648e+001
1.148511e+003, 7.788515e+001
1.148994e+003, 7.802567e+001
1.149476e+003, 7.760063e+001
1.149958e+003, 7.736985e+001
1.150440e+003, 7.753653e+001
1.150922e+003, 7.776515e+001
1.151404e+003, 7.795145e+001
1.151886e+003, 7.797939e+001
1.152368e+003, 7.765145e+001
1.152851e+003, 7.703994e+001
1.153333e+003, 7.683349e+001
1.153815e+003, 7.703264e+001
1.154297e+003, 7.738577e+001
1.154779e+003, 7.789980e+001
1.155261e+003, 7.830484e+001
1.155743e+003, 7.826688e+001
1.156225e+003, 7.802182e+001
1.156708e+003, 7.784458e+001
1.157190e+003, 7.777628e+001
1.157672e+003, 7.753825e+001
1.158154e+003, 7.709075e+001
1.158636e+003, 7.683200e+001
1.159118e+003, 7.717130e+001
1.159600e+003, 7.760838e+001
1.160082e+003, 7.749950e+001
1.160564e+003, 7.712184e+001
1.161047e+003, 7.697388e+001
1.161529e+003, 7.731284e+001
1.162011e+003, 7.741867e+001
1.162493e+003, 7.725537e+001
1.162975e+003, 7.700422e+001
1.163457e+003, 7.677152e+001
1.163939e+003, 7.655810e+001
1.164421e+003, 7.629815e+001
1.164903e+003, 7.605782e+001
1.165385e+003, 7.604570e+001
1.165868e+003, 7.650869e+001
1.166350e+003, 7.683139e+001
1.166832e+003, 7.696909e+001
1.167314e+003, 7.694729e+001
1.167796e+003, 7.668311e+001
1.168278e+003, 7.632816e+001
1.168760e+003, 7.610629e+001
1.169242e+003, 7.604133e+001
1.169725e+003, 7.618259e+001
1.170207e+003, 7.686967e+001
1.170689e+003, 7.727567e+001
1.171171e+003, 7.722557e+001
1.171653e+003, 7.694528e+001
1.172135e+003, 7.664201e+001
1.172617e+003, 7.638382e+001
1.173099e+003, 7.640636e+001
1.173582e+003, 7.672464e+001
1.174064e+003, 7.684017e+001
1.174546e+003, 7.629263e+001
1.175028e+003, 7.588103e+001
1.175510e+003, 7.585020e+001
1.175992e+003, 7.601733e+001
1.176474e+003, 7.601785e+001
1.176956e+003, 7.591335e+001
1.177438e+003, 7.589090e+001
1.177921e+003, 7.599490e+001
1.178403e+003, 7.609274e+001
1.178885e+003, 7.611012e+001
1.179367e+003, 7.613309e+001
1.179849e+003, 7.618516e+001
1.180331e+003, 7.627482e+001
1.180813e+003, 7.649622e+001
1.181295e+003, 7.678417e+001
1.181778e+003, 7.688406e+001
1.182260e+003, 7.670075e+001
1.182742e+003, 7.641773e+001
1.183224e+003, 7.592582e+001
1.183706e+003, 7.555716e+001
1.184188e+003, 7.551815e+001
1.184670e+003, 7.575190e+001
1.185152e+003, 7.597700e+001
1.185635e+003, 7.619263e+001
1.186117e+003, 7.640873e+001
1.186599e+003, 7.664274e+001
1.187081e+003, 7.684593e+001
1.187563e+003, 7.702078e+001
1.188045e+003, 7.712300e+001
1.188527e+003, 7.708870e+001
1.189009e+003, 7.693640e+001
1.189491e+003, 7.697554e+001
1.189974e+003, 7.716133e+001
1.190456e+003, 7.715816e+001
1.190938e+003, 7.654704e+001
1.191420e+003, 7.605022e+001
1.191902e+003, 7.622662e+001
1.192384e+003, 7.654160e+001
1.192866e+003, 7.642552e+001
1.193348e+003, 7.586507e+001
1.193830e+003, 7.550746e+001
1.194313e+003, 7.534570e+001
1.194795e+003, 7.528224e+001
1.195277e+003, 7.529519e+001
1.195759e+003, 7.534962e+001
1.196241e+003, 7.551298e+001
1.196723e+003, 7.565292e+001
1.197205e+003, 7.553625e+001
1.197687e+003, 7.514893e+001
1.198169e+003, 7.514322e+001
1.198652e+003, 7.553268e+001
1.199134e+003, 7.587664e+001
1.199616e+003, 7.594238e+001
1.200098e+003, 7.580218e+001
1.200580e+003, 7.523672e+001
1.201062e+003, 7.461391e+001
1.201544e+003, 7.462387e+001
1.202026e+003, 7.529233e+001
1.202509e+003, 7.553902e+001
1.202991e+003, 7.526568e+001
1.203473e+003, 7.504272e+001
1.203955e+003, 7.536092e+001
1.204437e+003, 7.578899e+001
1.204919e+003, 7.616271e+001
1.205401e+003, 7.640362e+001
1.205883e+003, 7.630123e+001
1.206365e+003, 7.584570e+001
1.206848e+003, 7.541667e+001
1.207330e+003, 7.505704e+001
1.207812e+003, 7.483558e+001
1.208294e+003, 7.493025e+001
1.208776e+003, 7.506162e+001
1.209258e+003, 7.499046e+001
1.209740e+003, 7.480662e+001
1.210222e+003, 7.480620e+001
1.210705e+003, 7.499285e+001
1.211187e+003, 7.498118e+001
1.211669e+003, 7.467371e+001
1.212151e+003, 7.444193e+001
1.212633e+003, 7.469952e+001
1.213115e+003, 7.504509e+001
1.213597e+003, 7.518887e+001
1.214079e+003, 7.517011e+001
1.214562e+003, 7.513904e+001
1.215044e+003, 7.509413e+001
1.215526e+003, 7.491561e+001
1.216008e+003, 7.453167e+001
1.216490e+003, 7.424857e+001
1.216972e+003, 7.433860e+001
1.217454e+003, 7.460172e+001
1.217936e+003, 7.499695e+001
1.218418e+003, 7.543485e+001
1.218901e+003, 7.537711e+001
1.219383e+003, 7.485049e+001
1.219865e+003, 7.449312e+001
1.220347e+003, 7.451348e+001
1.220829e+003, 7.462834e+001
1.221311e+003, 7.458514e+001
1.221793e+003, 7.459728e+001
1.222275e+003, 7.489809e+001
1.222757e+003, 7.541420e+001
1.223240e+003, 7.559812e+001
1.223722e+003, 7.546713e+001
1.224204e+003, 7.520972e+001
1.224686e+003, 7.483215e+001
1.225168e+003, 7.451521e+001
1.225650e+003, 7.445484e+001
1.226132e+003, 7.443453e+001
1.226614e+003, 7.425394e+001
1.227096e+003, 7.394881e+001
1.227579e+003, 7.383760e+001
1.228061e+003, 7.391117e+001
1.228543e+003, 7.413284e+001
1.229025e+003, 7.465916e+001
1.229507e+003, 7.491873e+001
1.229989e+003, 7.423051e+001
1.230471e+003, 7.343847e+001
1.230953e+003, 7.321317e+001
1.231436e+003, 7.348991e+001
1.231918e+003, 7.374873e+001
1.232400e+003, 7.397578e+001
1.232882e+003, 7.406777e+001
1.233364e+003, 7.391712e+001
1.233846e+003, 7.374925e+001
1.234328e+003, 7.359602e+001
1.234810e+003, 7.354855e+001
1.235292e+003, 7.377982e+001
1.235775e+003, 7.420393e+001
1.236257e+003, 7.392871e+001
1.236739e+003, 7.312781e+001
1.237221e+003, 7.273296e+001
1.237703e+003, 7.351295e+001
1.238185e+003, 7.417821e+001
1.238667e+003, 7.407210e+001
1.239149e+003, 7.383892e+001
1.239632e+003, 7.398067e+001
1.240114e+003, 7.439562e+001
1.240596e+003, 7.444434e+001
1.241078e+003, 7.420447e+001
1.241560e+003, 7.400787e+001
1.242042e+003, 7.411263e+001
1.242524e+003, 7.410959e+001
1.243006e+003, 7.377469e+001
1.243489e+003, 7.347264e+001
1.243971e+003, 7.357848e+001
1.244453e+003, 7.395419e+001
1.244935e+003, 7.399451e+001
1.245417e+003, 7.377766e+001
1.245899e+003, 7.359660e+001
1.246381e+003, 7.362459e+001
1.246863e+003, 7.361903e+001
1.247345e+003, 7.352390e+001
1.247828e+003, 7.342758e+001
1.248310e+003, 7.342159e+001
1.248792e+003, 7.346892e+001
1.249274e+003, 7.343548e+001
1.249756e+003, 7.336308e+001
1.250238e+003, 7.339590e+001
1.250720e+003, 7.373380e+001
1.251202e+003, 7.394855e+001
1.251684e+003, 7.398543e+001
1.252167e+003, 7.395182e+001
1.252649e+003, 7.391581e+001
1.253131e+003, 7.388657e+001
1.253613e+003, 7.395216e+001
1.254095e+003, 7.404202e+001
1.254577e+003, 7.392540e+001
1.255059e+003, 7.329946e+001
1.255541e+003, 7.293891e+001
1.256023e+003, 7.292718e+001
1.256506e+003, 7.303580e+001
1.256988e+003, 7.317017e+001
1.257470e+003, 7.323113e+001
1.257952e+003, 7.296967e+001
1.258434e+003, 7.251980e+001
1.258916e+003, 7.229673e+001
1.259398e+003, 7.238472e+001
1.259880e+003, 7.260977e+001
1.260363e+003, 7.300127e+001
1.260845e+003, 7.329721e+001
1.261327e+003, 7.321017e+001
1.261809e+003, 7.297157e+001
1.262291e+003, 7.278475e+001
1.262773e+003, 7.264516e+001
1.263255e+003, 7.252401e+001
1.263737e+003, 7.243064e+001
1.264219e+003, 7.225301e+001
1.264702e+003, 7.196848e+001
1.265184e+003, 7.183043e+001
1.265666e+003, 7.218735e+001
1.266148e+003, 7.261821e+001
1.266630e+003, 7.285988e+001
1.267112e+003, 7.290784e+001
1.267594e+003, 7.276086e+001
1.268076e+003, 7.239819e+001
1.268559e+003, 7.218752e+001
1.269041e+003, 7.215231e+001
1.269523e+003, 7.210946e+001
1.270005e+003, 7.189169e+001
1.270487e+003, 7.167278e+001
1.270969e+003, 7.154498e+001
1.271451e+003, 7.148537e+001
1.271933e+003, 7.148878e+001
1.272416e+003, 7.154724e+001
1.272898e+003, 7.154603e+001
1.273380e+003, 7.148490e+001
1.273862e+003, 7.145504e+001
1.274344e+003, 7.158810e+001
1.274826e+003, 7.165147e+001
1.275308e+003, 7.146706e+001
1.275790e+003, 7.128905e+001
1.276272e+003, 7.156887e+001
1.276755e+003, 7.212432e+001
1.277237e+003, 7.218288e+001
1.277719e+003, 7.177769e+001
1.278201e+003, 7.146561e+001
1.278683e+003, 7.159526e+001
1.279165e+003, 7.170250e+001
1.279647e+003, 7.169097e+001
1.280129e+003, 7.164970e+001
1.280611e+003, 7.166137e+001
1.281094e+003, 7.172459e+001
1.281576e+003, 7.190941e+001
1.282058e+003, 7.216336e+001
1.282540e+003, 7.220986e+001
1.283022e+003, 7.173159e+001
1.283504e+003, 7.154674e+001
1.283986e+003, 7.180807e+001
1.284468e+003, 7.211978e+001
1.284950e+003, 7.205244e+001
1.285433e+003, 7.182291e+001
1.285915e+003, 7.167465e+001
1.286397e+003, 7.161742e+001
1.286879e+003, 7.164916e+001
1.287361e+003, 7.180150e+001
1.287843e+003, 7.188532e+001
1.288325e+003, 7.187580e+001
1.288807e+003, 7.186712e+001
1.289290e+003, 7.198090e+001
1.289772e+003, 7.209383e+001
1.290254e+003, 7.212869e+001
1.290736e+003, 7.206441e+001
1.291218e+003, 7.184776e+001
1.291700e+003, 7.145467e+001
1.292182e+003, 7.124503e+001
1.292664e+003, 7.124184e+001
1.293146e+003, 7.130307e+001
1.293629e+003, 7.128480e+001
1.294111e+003, 7.135202e+001
1.294593e+003, 7.178987e+001
1.295075e+003, 7.223535e+001
1.295557e+003, 7.214732e+001
1.296039e+003, 7.160909e+001
1.296521e+003, 7.129902e+001
1.297003e+003, 7.123629e+001
1.297486e+003, 7.125722e+001
1.297968e+003, 7.124084e+001
1.298450e+003, 7.140163e+001
1.298932e+003, 7.200197e+001
1.299414e+003, 7.245811e+001
1.299896e+003, 7.178169e+001
1.300378e+003, 7.053780e+001
1.300860e+003, 7.045901e+001
1.301343e+003, 7.134958e+001
1.301825e+003, 7.202042e+001
##END=



