##NAMES=Oxy-schorl
##RRUFFID=R140339
##IDEAL CHEMISTRY=Na(Fe^2+^_2_Al)Al_6_Si_6_O_18_(BO_3_)_3_(OH)_3_O
##LOCALITY=PÅ™ibyslavice, Bohemia, Czech Republic
##OWNER=RRUFF
##SOURCE=Bob Jenkins
##DESCRIPTION=Black grains embedded in quartz and orthoclase
##STATUS=The identification of this mineral has been confirmed only by single crystal X-ray diffraction.
##URL=rruff.info/R140339
9.059570e+001, 1.049334e+003
9.107782e+001, 9.991640e+002
9.155994e+001, 9.813750e+002
9.204205e+001, 1.017414e+003
9.252417e+001, 1.071411e+003
9.300629e+001, 1.131833e+003
9.348840e+001, 1.188424e+003
9.397052e+001, 1.232683e+003
9.445264e+001, 1.260235e+003
9.493475e+001, 1.287057e+003
9.541687e+001, 1.312258e+003
9.589898e+001, 1.337568e+003
9.638110e+001, 1.362232e+003
9.686321e+001, 1.385650e+003
9.734533e+001, 1.406706e+003
9.782745e+001, 1.422850e+003
9.830956e+001, 1.438293e+003
9.879168e+001, 1.453936e+003
9.927380e+001, 1.469166e+003
9.975591e+001, 1.483809e+003
1.002380e+002, 1.497711e+003
1.007201e+002, 1.510676e+003
1.012023e+002, 1.522943e+003
1.016844e+002, 1.533866e+003
1.021665e+002, 1.542183e+003
1.026486e+002, 1.546663e+003
1.031307e+002, 1.549300e+003
1.036128e+002, 1.551320e+003
1.040950e+002, 1.552397e+003
1.045771e+002, 1.554158e+003
1.050592e+002, 1.558369e+003
1.055413e+002, 1.563462e+003
1.060234e+002, 1.567049e+003
1.065055e+002, 1.567319e+003
1.069877e+002, 1.565078e+003
1.074698e+002, 1.563849e+003
1.079519e+002, 1.564386e+003
1.084340e+002, 1.564879e+003
1.089161e+002, 1.564478e+003
1.093982e+002, 1.563351e+003
1.098804e+002, 1.562006e+003
1.103625e+002, 1.560762e+003
1.108446e+002, 1.559494e+003
1.113267e+002, 1.558924e+003
1.118088e+002, 1.559133e+003
1.122909e+002, 1.559859e+003
1.127731e+002, 1.561299e+003
1.132552e+002, 1.563312e+003
1.137373e+002, 1.565335e+003
1.142194e+002, 1.566500e+003
1.147015e+002, 1.565833e+003
1.151836e+002, 1.566073e+003
1.156658e+002, 1.568517e+003
1.161479e+002, 1.571244e+003
1.166300e+002, 1.572190e+003
1.171121e+002, 1.570563e+003
1.175942e+002, 1.567431e+003
1.180763e+002, 1.565229e+003
1.185584e+002, 1.563987e+003
1.190406e+002, 1.563249e+003
1.195227e+002, 1.563293e+003
1.200048e+002, 1.563806e+003
1.204869e+002, 1.563844e+003
1.209690e+002, 1.562667e+003
1.214511e+002, 1.561003e+003
1.219333e+002, 1.560314e+003
1.224154e+002, 1.560912e+003
1.228975e+002, 1.561912e+003
1.233796e+002, 1.562547e+003
1.238617e+002, 1.562763e+003
1.243438e+002, 1.563026e+003
1.248260e+002, 1.564071e+003
1.253081e+002, 1.565077e+003
1.257902e+002, 1.565057e+003
1.262723e+002, 1.563282e+003
1.267544e+002, 1.560773e+003
1.272365e+002, 1.559893e+003
1.277187e+002, 1.561367e+003
1.282008e+002, 1.563433e+003
1.286829e+002, 1.565589e+003
1.291650e+002, 1.567895e+003
1.296471e+002, 1.570498e+003
1.301292e+002, 1.573583e+003
1.306114e+002, 1.577084e+003
1.310935e+002, 1.579940e+003
1.315756e+002, 1.581152e+003
1.320577e+002, 1.582687e+003
1.325398e+002, 1.585320e+003
1.330219e+002, 1.588744e+003
1.335041e+002, 1.592075e+003
1.339862e+002, 1.594490e+003
1.344683e+002, 1.595751e+003
1.349504e+002, 1.597799e+003
1.354325e+002, 1.601686e+003
1.359146e+002, 1.605379e+003
1.363968e+002, 1.607408e+003
1.368789e+002, 1.607754e+003
1.373610e+002, 1.607751e+003
1.378431e+002, 1.608970e+003
1.383252e+002, 1.611765e+003
1.388073e+002, 1.614009e+003
1.392895e+002, 1.615686e+003
1.397716e+002, 1.616716e+003
1.402537e+002, 1.616829e+003
1.407358e+002, 1.615828e+003
1.412179e+002, 1.614426e+003
1.417000e+002, 1.613661e+003
1.421821e+002, 1.613483e+003
1.426643e+002, 1.612986e+003
1.431464e+002, 1.611710e+003
1.436285e+002, 1.609797e+003
1.441106e+002, 1.607758e+003
1.445927e+002, 1.605760e+003
1.450748e+002, 1.603568e+003
1.455570e+002, 1.600804e+003
1.460391e+002, 1.597485e+003
1.465212e+002, 1.594381e+003
1.470033e+002, 1.592546e+003
1.474854e+002, 1.592210e+003
1.479675e+002, 1.590850e+003
1.484497e+002, 1.586717e+003
1.489318e+002, 1.582159e+003
1.494139e+002, 1.578391e+003
1.498960e+002, 1.575685e+003
1.503781e+002, 1.573524e+003
1.508602e+002, 1.571217e+003
1.513424e+002, 1.568726e+003
1.518245e+002, 1.566109e+003
1.523066e+002, 1.563105e+003
1.527887e+002, 1.560144e+003
1.532708e+002, 1.557543e+003
1.537529e+002, 1.555436e+003
1.542351e+002, 1.553708e+003
1.547172e+002, 1.552091e+003
1.551993e+002, 1.550662e+003
1.556814e+002, 1.549279e+003
1.561635e+002, 1.547826e+003
1.566456e+002, 1.546443e+003
1.571278e+002, 1.545318e+003
1.576099e+002, 1.544550e+003
1.580920e+002, 1.544075e+003
1.585741e+002, 1.543649e+003
1.590562e+002, 1.543851e+003
1.595383e+002, 1.543457e+003
1.600205e+002, 1.541373e+003
1.605026e+002, 1.538391e+003
1.609847e+002, 1.536485e+003
1.614668e+002, 1.537079e+003
1.619489e+002, 1.539472e+003
1.624310e+002, 1.540391e+003
1.629131e+002, 1.538907e+003
1.633953e+002, 1.536984e+003
1.638774e+002, 1.535696e+003
1.643595e+002, 1.534987e+003
1.648416e+002, 1.534340e+003
1.653237e+002, 1.533311e+003
1.658058e+002, 1.532176e+003
1.662880e+002, 1.531585e+003
1.667701e+002, 1.532308e+003
1.672522e+002, 1.533046e+003
1.677343e+002, 1.531950e+003
1.682164e+002, 1.528558e+003
1.686985e+002, 1.525538e+003
1.691807e+002, 1.524874e+003
1.696628e+002, 1.525418e+003
1.701449e+002, 1.525913e+003
1.706270e+002, 1.526009e+003
1.711091e+002, 1.525698e+003
1.715912e+002, 1.525029e+003
1.720734e+002, 1.524217e+003
1.725555e+002, 1.522541e+003
1.730376e+002, 1.519169e+003
1.735197e+002, 1.515016e+003
1.740018e+002, 1.511429e+003
1.744839e+002, 1.509406e+003
1.749661e+002, 1.508589e+003
1.754482e+002, 1.506772e+003
1.759303e+002, 1.502843e+003
1.764124e+002, 1.499108e+003
1.768945e+002, 1.496282e+003
1.773766e+002, 1.494090e+003
1.778588e+002, 1.492042e+003
1.783409e+002, 1.489791e+003
1.788230e+002, 1.487332e+003
1.793051e+002, 1.484750e+003
1.797872e+002, 1.482130e+003
1.802693e+002, 1.479296e+003
1.807515e+002, 1.476144e+003
1.812336e+002, 1.472712e+003
1.817157e+002, 1.469125e+003
1.821978e+002, 1.465466e+003
1.826799e+002, 1.461712e+003
1.831620e+002, 1.458053e+003
1.836441e+002, 1.454652e+003
1.841263e+002, 1.451167e+003
1.846084e+002, 1.447370e+003
1.850905e+002, 1.443300e+003
1.855726e+002, 1.439240e+003
1.860547e+002, 1.435543e+003
1.865368e+002, 1.432292e+003
1.870190e+002, 1.428431e+003
1.875011e+002, 1.422939e+003
1.879832e+002, 1.417610e+003
1.884653e+002, 1.414014e+003
1.889474e+002, 1.412285e+003
1.894296e+002, 1.411046e+003
1.899117e+002, 1.409255e+003
1.903938e+002, 1.406867e+003
1.908759e+002, 1.403441e+003
1.913580e+002, 1.397592e+003
1.918401e+002, 1.391310e+003
1.923223e+002, 1.387040e+003
1.928044e+002, 1.385294e+003
1.932865e+002, 1.384278e+003
1.937686e+002, 1.382182e+003
1.942507e+002, 1.379364e+003
1.947328e+002, 1.376986e+003
1.952150e+002, 1.375545e+003
1.956971e+002, 1.374744e+003
1.961792e+002, 1.374121e+003
1.966613e+002, 1.373854e+003
1.971434e+002, 1.373259e+003
1.976255e+002, 1.371622e+003
1.981077e+002, 1.369253e+003
1.985898e+002, 1.366956e+003
1.990719e+002, 1.365146e+003
1.995540e+002, 1.363736e+003
2.000361e+002, 1.362374e+003
2.005182e+002, 1.361057e+003
2.010004e+002, 1.359786e+003
2.014825e+002, 1.358424e+003
2.019646e+002, 1.357088e+003
2.024467e+002, 1.356099e+003
2.029288e+002, 1.356007e+003
2.034109e+002, 1.356714e+003
2.038930e+002, 1.356339e+003
2.043752e+002, 1.353493e+003
2.048573e+002, 1.350992e+003
2.053394e+002, 1.350340e+003
2.058215e+002, 1.350963e+003
2.063036e+002, 1.351366e+003
2.067857e+002, 1.350226e+003
2.072679e+002, 1.347442e+003
2.077500e+002, 1.345060e+003
2.082321e+002, 1.343214e+003
2.087142e+002, 1.341674e+003
2.091963e+002, 1.340603e+003
2.096784e+002, 1.339827e+003
2.101606e+002, 1.338971e+003
2.106427e+002, 1.337694e+003
2.111248e+002, 1.335963e+003
2.116069e+002, 1.334124e+003
2.120890e+002, 1.332283e+003
2.125711e+002, 1.330252e+003
2.130533e+002, 1.327618e+003
2.135354e+002, 1.324633e+003
2.140175e+002, 1.322023e+003
2.144996e+002, 1.320526e+003
2.149817e+002, 1.320372e+003
2.154638e+002, 1.319722e+003
2.159460e+002, 1.318457e+003
2.164281e+002, 1.316934e+003
2.169102e+002, 1.315158e+003
2.173923e+002, 1.313233e+003
2.178744e+002, 1.311437e+003
2.183565e+002, 1.310091e+003
2.188387e+002, 1.309287e+003
2.193208e+002, 1.307990e+003
2.198029e+002, 1.306223e+003
2.202850e+002, 1.304014e+003
2.207671e+002, 1.301043e+003
2.212492e+002, 1.297449e+003
2.217314e+002, 1.294066e+003
2.222135e+002, 1.291623e+003
2.226956e+002, 1.290220e+003
2.231777e+002, 1.288947e+003
2.236598e+002, 1.288439e+003
2.241419e+002, 1.287602e+003
2.246240e+002, 1.285265e+003
2.251062e+002, 1.281451e+003
2.255883e+002, 1.277724e+003
2.260704e+002, 1.275488e+003
2.265525e+002, 1.274577e+003
2.270346e+002, 1.273225e+003
2.275167e+002, 1.270924e+003
2.279989e+002, 1.268398e+003
2.284810e+002, 1.266401e+003
2.289631e+002, 1.264988e+003
2.294452e+002, 1.263564e+003
2.299273e+002, 1.261525e+003
2.304094e+002, 1.259157e+003
2.308916e+002, 1.257243e+003
2.313737e+002, 1.256052e+003
2.318558e+002, 1.255301e+003
2.323379e+002, 1.254770e+003
2.328200e+002, 1.254496e+003
2.333021e+002, 1.254186e+003
2.337843e+002, 1.253619e+003
2.342664e+002, 1.252895e+003
2.347485e+002, 1.252152e+003
2.352306e+002, 1.251464e+003
2.357127e+002, 1.250737e+003
2.361948e+002, 1.249713e+003
2.366770e+002, 1.248238e+003
2.371591e+002, 1.247088e+003
2.376412e+002, 1.247216e+003
2.381233e+002, 1.247723e+003
2.386054e+002, 1.247536e+003
2.390875e+002, 1.246102e+003
2.395697e+002, 1.244160e+003
2.400518e+002, 1.242958e+003
2.405339e+002, 1.242750e+003
2.410160e+002, 1.242456e+003
2.414981e+002, 1.241557e+003
2.419802e+002, 1.240414e+003
2.424624e+002, 1.239340e+003
2.429445e+002, 1.238434e+003
2.434266e+002, 1.237650e+003
2.439087e+002, 1.236819e+003
2.443908e+002, 1.235724e+003
2.448729e+002, 1.235199e+003
2.453550e+002, 1.236096e+003
2.458372e+002, 1.237288e+003
2.463193e+002, 1.237732e+003
2.468014e+002, 1.237048e+003
2.472835e+002, 1.235844e+003
2.477656e+002, 1.235205e+003
2.482477e+002, 1.235457e+003
2.487299e+002, 1.235490e+003
2.492120e+002, 1.234895e+003
2.496941e+002, 1.234158e+003
2.501762e+002, 1.233668e+003
2.506583e+002, 1.233541e+003
2.511404e+002, 1.233588e+003
2.516226e+002, 1.233575e+003
2.521047e+002, 1.233737e+003
2.525868e+002, 1.233257e+003
2.530689e+002, 1.231416e+003
2.535510e+002, 1.229448e+003
2.540331e+002, 1.228263e+003
2.545153e+002, 1.228078e+003
2.549974e+002, 1.228412e+003
2.554795e+002, 1.228519e+003
2.559616e+002, 1.228159e+003
2.564437e+002, 1.228118e+003
2.569258e+002, 1.228676e+003
2.574080e+002, 1.229309e+003
2.578901e+002, 1.229698e+003
2.583722e+002, 1.229776e+003
2.588543e+002, 1.229668e+003
2.593364e+002, 1.229530e+003
2.598185e+002, 1.229356e+003
2.603007e+002, 1.229163e+003
2.607828e+002, 1.229014e+003
2.612649e+002, 1.228800e+003
2.617470e+002, 1.228513e+003
2.622291e+002, 1.228117e+003
2.627112e+002, 1.227503e+003
2.631934e+002, 1.226483e+003
2.636755e+002, 1.224819e+003
2.641576e+002, 1.223631e+003
2.646397e+002, 1.222977e+003
2.651218e+002, 1.222637e+003
2.656039e+002, 1.222554e+003
2.660861e+002, 1.222688e+003
2.665682e+002, 1.222968e+003
2.670503e+002, 1.223327e+003
2.675324e+002, 1.223751e+003
2.680145e+002, 1.224365e+003
2.684966e+002, 1.225424e+003
2.689788e+002, 1.226403e+003
2.694609e+002, 1.227056e+003
2.699430e+002, 1.227390e+003
2.704251e+002, 1.227526e+003
2.709072e+002, 1.227545e+003
2.713893e+002, 1.227443e+003
2.718715e+002, 1.227316e+003
2.723536e+002, 1.227292e+003
2.728357e+002, 1.227125e+003
2.733178e+002, 1.226603e+003
2.737999e+002, 1.225834e+003
2.742820e+002, 1.225080e+003
2.747642e+002, 1.224495e+003
2.752463e+002, 1.224085e+003
2.757284e+002, 1.223973e+003
2.762105e+002, 1.224737e+003
2.766926e+002, 1.225107e+003
2.771747e+002, 1.224323e+003
2.776568e+002, 1.222810e+003
2.781389e+002, 1.221575e+003
2.786211e+002, 1.221214e+003
2.791032e+002, 1.221470e+003
2.795853e+002, 1.221226e+003
2.800674e+002, 1.220342e+003
2.805495e+002, 1.219247e+003
2.810316e+002, 1.217704e+003
2.815138e+002, 1.216065e+003
2.819959e+002, 1.215070e+003
2.824780e+002, 1.215129e+003
2.829601e+002, 1.215737e+003
2.834422e+002, 1.215590e+003
2.839243e+002, 1.214591e+003
2.844065e+002, 1.213213e+003
2.848886e+002, 1.211275e+003
2.853707e+002, 1.209087e+003
2.858528e+002, 1.207050e+003
2.863349e+002, 1.205275e+003
2.868170e+002, 1.203803e+003
2.872992e+002, 1.202792e+003
2.877813e+002, 1.202448e+003
2.882634e+002, 1.201841e+003
2.887455e+002, 1.201016e+003
2.892276e+002, 1.199779e+003
2.897097e+002, 1.197483e+003
2.901919e+002, 1.193917e+003
2.906740e+002, 1.190585e+003
2.911561e+002, 1.189650e+003
2.916382e+002, 1.191544e+003
2.921203e+002, 1.192463e+003
2.926024e+002, 1.191298e+003
2.930846e+002, 1.189411e+003
2.935667e+002, 1.188152e+003
2.940488e+002, 1.187684e+003
2.945309e+002, 1.187319e+003
2.950130e+002, 1.186410e+003
2.954951e+002, 1.184934e+003
2.959773e+002, 1.183543e+003
2.964594e+002, 1.181884e+003
2.969415e+002, 1.180580e+003
2.974236e+002, 1.180339e+003
2.979057e+002, 1.181093e+003
2.983878e+002, 1.181886e+003
2.988700e+002, 1.182018e+003
2.993521e+002, 1.181595e+003
2.998342e+002, 1.181473e+003
3.003163e+002, 1.182390e+003
3.007984e+002, 1.182932e+003
3.012805e+002, 1.181879e+003
3.017627e+002, 1.179574e+003
3.022448e+002, 1.177595e+003
3.027269e+002, 1.176748e+003
3.032090e+002, 1.176826e+003
3.036911e+002, 1.177098e+003
3.041732e+002, 1.177716e+003
3.046554e+002, 1.178276e+003
3.051375e+002, 1.178695e+003
3.056196e+002, 1.178934e+003
3.061017e+002, 1.178796e+003
3.065838e+002, 1.178086e+003
3.070659e+002, 1.177203e+003
3.075481e+002, 1.177056e+003
3.080302e+002, 1.177915e+003
3.085123e+002, 1.178357e+003
3.089944e+002, 1.177483e+003
3.094765e+002, 1.175985e+003
3.099586e+002, 1.175125e+003
3.104408e+002, 1.175294e+003
3.109229e+002, 1.175830e+003
3.114050e+002, 1.175746e+003
3.118871e+002, 1.174990e+003
3.123692e+002, 1.174726e+003
3.128513e+002, 1.175600e+003
3.133335e+002, 1.176885e+003
3.138156e+002, 1.177704e+003
3.142977e+002, 1.177917e+003
3.147798e+002, 1.177962e+003
3.152619e+002, 1.178278e+003
3.157440e+002, 1.178825e+003
3.162262e+002, 1.179085e+003
3.167083e+002, 1.178614e+003
3.171904e+002, 1.178121e+003
3.176725e+002, 1.178324e+003
3.181546e+002, 1.179191e+003
3.186367e+002, 1.179991e+003
3.191188e+002, 1.180252e+003
3.196010e+002, 1.180029e+003
3.200831e+002, 1.179766e+003
3.205652e+002, 1.179271e+003
3.210473e+002, 1.178927e+003
3.215294e+002, 1.179093e+003
3.220115e+002, 1.179623e+003
3.224937e+002, 1.179972e+003
3.229758e+002, 1.179817e+003
3.234579e+002, 1.179407e+003
3.239400e+002, 1.179372e+003
3.244221e+002, 1.179769e+003
3.249042e+002, 1.180330e+003
3.253864e+002, 1.181287e+003
3.258685e+002, 1.182307e+003
3.263506e+002, 1.182638e+003
3.268327e+002, 1.181940e+003
3.273148e+002, 1.180886e+003
3.277969e+002, 1.180496e+003
3.282791e+002, 1.180778e+003
3.287612e+002, 1.181422e+003
3.292433e+002, 1.182695e+003
3.297254e+002, 1.184156e+003
3.302075e+002, 1.185320e+003
3.306896e+002, 1.186104e+003
3.311718e+002, 1.186606e+003
3.316539e+002, 1.186780e+003
3.321360e+002, 1.186596e+003
3.326181e+002, 1.186989e+003
3.331002e+002, 1.188485e+003
3.335823e+002, 1.190184e+003
3.340645e+002, 1.191478e+003
3.345466e+002, 1.192345e+003
3.350287e+002, 1.192991e+003
3.355108e+002, 1.193446e+003
3.359929e+002, 1.193798e+003
3.364750e+002, 1.194611e+003
3.369572e+002, 1.196625e+003
3.374393e+002, 1.198273e+003
3.379214e+002, 1.198587e+003
3.384035e+002, 1.198020e+003
3.388856e+002, 1.197631e+003
3.393677e+002, 1.197899e+003
3.398499e+002, 1.198661e+003
3.403320e+002, 1.199478e+003
3.408141e+002, 1.199918e+003
3.412962e+002, 1.201132e+003
3.417783e+002, 1.205093e+003
3.422604e+002, 1.209327e+003
3.427426e+002, 1.209947e+003
3.432247e+002, 1.205836e+003
3.437068e+002, 1.200184e+003
3.441889e+002, 1.197320e+003
3.446710e+002, 1.198187e+003
3.451531e+002, 1.199763e+003
3.456353e+002, 1.203627e+003
3.461174e+002, 1.207095e+003
3.465995e+002, 1.207682e+003
3.470816e+002, 1.205444e+003
3.475637e+002, 1.202478e+003
3.480458e+002, 1.200550e+003
3.485280e+002, 1.199700e+003
3.490101e+002, 1.199496e+003
3.494922e+002, 1.200745e+003
3.499743e+002, 1.201724e+003
3.504564e+002, 1.201352e+003
3.509385e+002, 1.200119e+003
3.514207e+002, 1.199291e+003
3.519028e+002, 1.199671e+003
3.523849e+002, 1.200882e+003
3.528670e+002, 1.201291e+003
3.533491e+002, 1.200049e+003
3.538312e+002, 1.199067e+003
3.543134e+002, 1.198424e+003
3.547955e+002, 1.198221e+003
3.552776e+002, 1.198726e+003
3.557597e+002, 1.200009e+003
3.562418e+002, 1.201599e+003
3.567239e+002, 1.202722e+003
3.572061e+002, 1.203303e+003
3.576882e+002, 1.203479e+003
3.581703e+002, 1.202883e+003
3.586524e+002, 1.202189e+003
3.591345e+002, 1.201639e+003
3.596166e+002, 1.201379e+003
3.600987e+002, 1.201737e+003
3.605808e+002, 1.203178e+003
3.610630e+002, 1.205911e+003
3.615451e+002, 1.207640e+003
3.620272e+002, 1.207507e+003
3.625093e+002, 1.207326e+003
3.629914e+002, 1.207662e+003
3.634735e+002, 1.208399e+003
3.639557e+002, 1.209260e+003
3.644378e+002, 1.210098e+003
3.649199e+002, 1.210868e+003
3.654020e+002, 1.211319e+003
3.658841e+002, 1.210775e+003
3.663662e+002, 1.210889e+003
3.668484e+002, 1.212464e+003
3.673305e+002, 1.214450e+003
3.678126e+002, 1.215867e+003
3.682947e+002, 1.216391e+003
3.687768e+002, 1.216316e+003
3.692589e+002, 1.216035e+003
3.697411e+002, 1.215465e+003
3.702232e+002, 1.214913e+003
3.707053e+002, 1.214324e+003
3.711874e+002, 1.213802e+003
3.716695e+002, 1.213504e+003
3.721516e+002, 1.213357e+003
3.726338e+002, 1.213081e+003
3.731159e+002, 1.212406e+003
3.735980e+002, 1.211343e+003
3.740801e+002, 1.210229e+003
3.745622e+002, 1.208847e+003
3.750443e+002, 1.207689e+003
3.755265e+002, 1.207202e+003
3.760086e+002, 1.206967e+003
3.764907e+002, 1.206324e+003
3.769728e+002, 1.204897e+003
3.774549e+002, 1.203008e+003
3.779370e+002, 1.201424e+003
3.784192e+002, 1.200363e+003
3.789013e+002, 1.198984e+003
3.793834e+002, 1.196614e+003
3.798655e+002, 1.194108e+003
3.803476e+002, 1.192157e+003
3.808297e+002, 1.190897e+003
3.813119e+002, 1.189908e+003
3.817940e+002, 1.188845e+003
3.822761e+002, 1.187709e+003
3.827582e+002, 1.186478e+003
3.832403e+002, 1.185196e+003
3.837224e+002, 1.183749e+003
3.842046e+002, 1.181985e+003
3.846867e+002, 1.179995e+003
3.851688e+002, 1.178051e+003
3.856509e+002, 1.175944e+003
3.861330e+002, 1.174062e+003
3.866151e+002, 1.173644e+003
3.870973e+002, 1.175216e+003
3.875794e+002, 1.176334e+003
3.880615e+002, 1.175208e+003
3.885436e+002, 1.172826e+003
3.890257e+002, 1.170451e+003
3.895078e+002, 1.168195e+003
3.899900e+002, 1.166203e+003
3.904721e+002, 1.164727e+003
3.909542e+002, 1.163696e+003
3.914363e+002, 1.162608e+003
3.919184e+002, 1.161264e+003
3.924005e+002, 1.159835e+003
3.928827e+002, 1.158575e+003
3.933648e+002, 1.157498e+003
3.938469e+002, 1.156391e+003
3.943290e+002, 1.155050e+003
3.948111e+002, 1.153677e+003
3.952932e+002, 1.152683e+003
3.957754e+002, 1.152158e+003
3.962575e+002, 1.151666e+003
3.967396e+002, 1.150806e+003
3.972217e+002, 1.149609e+003
3.977038e+002, 1.148478e+003
3.981859e+002, 1.147401e+003
3.986681e+002, 1.146417e+003
3.991501e+002, 1.145523e+003
3.996323e+002, 1.144734e+003
4.001144e+002, 1.144115e+003
4.005965e+002, 1.143716e+003
4.010786e+002, 1.143474e+003
4.015607e+002, 1.143236e+003
4.020428e+002, 1.143071e+003
4.025250e+002, 1.142778e+003
4.030071e+002, 1.142100e+003
4.034892e+002, 1.141368e+003
4.039713e+002, 1.141074e+003
4.044534e+002, 1.141300e+003
4.049355e+002, 1.141560e+003
4.054177e+002, 1.141241e+003
4.058998e+002, 1.140153e+003
4.063819e+002, 1.139456e+003
4.068640e+002, 1.139648e+003
4.073461e+002, 1.139716e+003
4.078282e+002, 1.139078e+003
4.083104e+002, 1.137898e+003
4.087925e+002, 1.136610e+003
4.092746e+002, 1.135436e+003
4.097567e+002, 1.134454e+003
4.102388e+002, 1.134004e+003
4.107209e+002, 1.134447e+003
4.112031e+002, 1.135007e+003
4.116852e+002, 1.135975e+003
4.121673e+002, 1.136840e+003
4.126494e+002, 1.137046e+003
4.131315e+002, 1.136485e+003
4.136136e+002, 1.135579e+003
4.140958e+002, 1.134952e+003
4.145779e+002, 1.134815e+003
4.150600e+002, 1.134099e+003
4.155421e+002, 1.131698e+003
4.160242e+002, 1.129751e+003
4.165063e+002, 1.129511e+003
4.169885e+002, 1.130432e+003
4.174706e+002, 1.131060e+003
4.179527e+002, 1.130301e+003
4.184348e+002, 1.128733e+003
4.189169e+002, 1.128484e+003
4.193990e+002, 1.130335e+003
4.198812e+002, 1.131784e+003
4.203633e+002, 1.131601e+003
4.208454e+002, 1.130937e+003
4.213275e+002, 1.130996e+003
4.218096e+002, 1.132092e+003
4.222917e+002, 1.133108e+003
4.227739e+002, 1.132544e+003
4.232560e+002, 1.130510e+003
4.237381e+002, 1.129386e+003
4.242202e+002, 1.129887e+003
4.247023e+002, 1.130894e+003
4.251844e+002, 1.131725e+003
4.256666e+002, 1.132345e+003
4.261487e+002, 1.132612e+003
4.266308e+002, 1.132212e+003
4.271129e+002, 1.131538e+003
4.275950e+002, 1.131080e+003
4.280771e+002, 1.130830e+003
4.285593e+002, 1.131000e+003
4.290414e+002, 1.131911e+003
4.295235e+002, 1.133236e+003
4.300056e+002, 1.134256e+003
4.304877e+002, 1.135008e+003
4.309698e+002, 1.135383e+003
4.314520e+002, 1.135156e+003
4.319341e+002, 1.134544e+003
4.324162e+002, 1.133933e+003
4.328983e+002, 1.133406e+003
4.333804e+002, 1.133005e+003
4.338625e+002, 1.132773e+003
4.343447e+002, 1.132725e+003
4.348268e+002, 1.132842e+003
4.353089e+002, 1.133410e+003
4.357910e+002, 1.133893e+003
4.362731e+002, 1.133847e+003
4.367552e+002, 1.133381e+003
4.372374e+002, 1.132889e+003
4.377195e+002, 1.132578e+003
4.382016e+002, 1.132449e+003
4.386837e+002, 1.132529e+003
4.391658e+002, 1.132630e+003
4.396479e+002, 1.133199e+003
4.401301e+002, 1.134322e+003
4.406122e+002, 1.135897e+003
4.410943e+002, 1.138386e+003
4.415764e+002, 1.141587e+003
4.420585e+002, 1.144032e+003
4.425406e+002, 1.143800e+003
4.430227e+002, 1.140391e+003
4.435049e+002, 1.137986e+003
4.439870e+002, 1.137119e+003
4.444691e+002, 1.136736e+003
4.449512e+002, 1.136843e+003
4.454333e+002, 1.137167e+003
4.459154e+002, 1.137366e+003
4.463976e+002, 1.137274e+003
4.468797e+002, 1.136893e+003
4.473618e+002, 1.136016e+003
4.478439e+002, 1.134125e+003
4.483260e+002, 1.133282e+003
4.488081e+002, 1.134866e+003
4.492903e+002, 1.136888e+003
4.497724e+002, 1.138037e+003
4.502545e+002, 1.138290e+003
4.507366e+002, 1.138598e+003
4.512187e+002, 1.139975e+003
4.517008e+002, 1.142064e+003
4.521830e+002, 1.143182e+003
4.526651e+002, 1.142925e+003
4.531472e+002, 1.142610e+003
4.536293e+002, 1.143276e+003
4.541114e+002, 1.144306e+003
4.545935e+002, 1.144728e+003
4.550757e+002, 1.143982e+003
4.555578e+002, 1.143276e+003
4.560399e+002, 1.143894e+003
4.565220e+002, 1.145490e+003
4.570041e+002, 1.146485e+003
4.574862e+002, 1.146285e+003
4.579684e+002, 1.145653e+003
4.584505e+002, 1.145596e+003
4.589326e+002, 1.146105e+003
4.594147e+002, 1.146537e+003
4.598968e+002, 1.146832e+003
4.603789e+002, 1.146974e+003
4.608611e+002, 1.146765e+003
4.613432e+002, 1.146319e+003
4.618253e+002, 1.146250e+003
4.623074e+002, 1.147061e+003
4.627895e+002, 1.148421e+003
4.632716e+002, 1.148945e+003
4.637538e+002, 1.147919e+003
4.642359e+002, 1.147063e+003
4.647180e+002, 1.146125e+003
4.652001e+002, 1.145679e+003
4.656822e+002, 1.146889e+003
4.661643e+002, 1.149687e+003
4.666465e+002, 1.152137e+003
4.671286e+002, 1.151890e+003
4.676107e+002, 1.148495e+003
4.680928e+002, 1.146702e+003
4.685749e+002, 1.148049e+003
4.690570e+002, 1.149370e+003
4.695392e+002, 1.149730e+003
4.700213e+002, 1.149552e+003
4.705034e+002, 1.149603e+003
4.709855e+002, 1.150236e+003
4.714676e+002, 1.150981e+003
4.719497e+002, 1.150865e+003
4.724319e+002, 1.149588e+003
4.729140e+002, 1.148790e+003
4.733961e+002, 1.149318e+003
4.738782e+002, 1.149882e+003
4.743603e+002, 1.149758e+003
4.748424e+002, 1.149009e+003
4.753246e+002, 1.148056e+003
4.758067e+002, 1.146930e+003
4.762888e+002, 1.145854e+003
4.767709e+002, 1.145287e+003
4.772530e+002, 1.145250e+003
4.777351e+002, 1.145665e+003
4.782173e+002, 1.146910e+003
4.786994e+002, 1.148367e+003
4.791815e+002, 1.149016e+003
4.796636e+002, 1.148627e+003
4.801457e+002, 1.148131e+003
4.806278e+002, 1.147828e+003
4.811100e+002, 1.147770e+003
4.815920e+002, 1.148224e+003
4.820742e+002, 1.149260e+003
4.825563e+002, 1.150182e+003
4.830384e+002, 1.150355e+003
4.835205e+002, 1.149760e+003
4.840026e+002, 1.149086e+003
4.844847e+002, 1.148257e+003
4.849669e+002, 1.147431e+003
4.854490e+002, 1.146265e+003
4.859311e+002, 1.145228e+003
4.864132e+002, 1.145301e+003
4.868953e+002, 1.146837e+003
4.873774e+002, 1.148991e+003
4.878596e+002, 1.150373e+003
4.883417e+002, 1.150749e+003
4.888238e+002, 1.150982e+003
4.893059e+002, 1.150902e+003
4.897880e+002, 1.150874e+003
4.902701e+002, 1.151233e+003
4.907523e+002, 1.151789e+003
4.912344e+002, 1.152021e+003
4.917165e+002, 1.151536e+003
4.921986e+002, 1.150755e+003
4.926807e+002, 1.150907e+003
4.931628e+002, 1.152338e+003
4.936450e+002, 1.153759e+003
4.941271e+002, 1.154956e+003
4.946092e+002, 1.156010e+003
4.950913e+002, 1.157074e+003
4.955734e+002, 1.158103e+003
4.960555e+002, 1.158750e+003
4.965377e+002, 1.158164e+003
4.970198e+002, 1.157056e+003
4.975019e+002, 1.157737e+003
4.979840e+002, 1.160701e+003
4.984661e+002, 1.163304e+003
4.989482e+002, 1.163823e+003
4.994304e+002, 1.163148e+003
4.999125e+002, 1.163023e+003
5.003946e+002, 1.163665e+003
5.008767e+002, 1.164537e+003
5.013588e+002, 1.165402e+003
5.018409e+002, 1.166316e+003
5.023231e+002, 1.167542e+003
5.028052e+002, 1.169141e+003
5.032873e+002, 1.170475e+003
5.037694e+002, 1.170834e+003
5.042515e+002, 1.170178e+003
5.047336e+002, 1.169990e+003
5.052158e+002, 1.170316e+003
5.056979e+002, 1.171001e+003
5.061800e+002, 1.172252e+003
5.066621e+002, 1.173751e+003
5.071442e+002, 1.175034e+003
5.076263e+002, 1.175936e+003
5.081085e+002, 1.176602e+003
5.085906e+002, 1.177199e+003
5.090727e+002, 1.177608e+003
5.095548e+002, 1.178364e+003
5.100369e+002, 1.179795e+003
5.105190e+002, 1.181231e+003
5.110012e+002, 1.182561e+003
5.114833e+002, 1.183690e+003
5.119654e+002, 1.184401e+003
5.124475e+002, 1.184492e+003
5.129296e+002, 1.184433e+003
5.134117e+002, 1.185133e+003
5.138939e+002, 1.186696e+003
5.143760e+002, 1.188319e+003
5.148581e+002, 1.190337e+003
5.153402e+002, 1.191820e+003
5.158223e+002, 1.191643e+003
5.163044e+002, 1.190091e+003
5.167866e+002, 1.189054e+003
5.172687e+002, 1.189830e+003
5.177508e+002, 1.191260e+003
5.182329e+002, 1.191719e+003
5.187150e+002, 1.191273e+003
5.191971e+002, 1.191171e+003
5.196793e+002, 1.192134e+003
5.201614e+002, 1.193636e+003
5.206435e+002, 1.194453e+003
5.211256e+002, 1.194448e+003
5.216077e+002, 1.194340e+003
5.220898e+002, 1.194272e+003
5.225720e+002, 1.194128e+003
5.230541e+002, 1.193617e+003
5.235362e+002, 1.192863e+003
5.240183e+002, 1.192411e+003
5.245004e+002, 1.192658e+003
5.249825e+002, 1.193532e+003
5.254647e+002, 1.194725e+003
5.259468e+002, 1.197104e+003
5.264289e+002, 1.198509e+003
5.269110e+002, 1.198254e+003
5.273931e+002, 1.197368e+003
5.278752e+002, 1.196628e+003
5.283574e+002, 1.196150e+003
5.288395e+002, 1.195618e+003
5.293216e+002, 1.194575e+003
5.298037e+002, 1.193209e+003
5.302858e+002, 1.192764e+003
5.307679e+002, 1.193613e+003
5.312501e+002, 1.194522e+003
5.317322e+002, 1.195531e+003
5.322143e+002, 1.196049e+003
5.326964e+002, 1.195129e+003
5.331785e+002, 1.192407e+003
5.336606e+002, 1.189785e+003
5.341428e+002, 1.188610e+003
5.346249e+002, 1.188390e+003
5.351070e+002, 1.188065e+003
5.355891e+002, 1.187493e+003
5.360712e+002, 1.186983e+003
5.365533e+002, 1.186895e+003
5.370355e+002, 1.187077e+003
5.375176e+002, 1.186624e+003
5.379997e+002, 1.185006e+003
5.384818e+002, 1.183463e+003
5.389639e+002, 1.182193e+003
5.394460e+002, 1.181252e+003
5.399282e+002, 1.180987e+003
5.404103e+002, 1.181340e+003
5.408924e+002, 1.181440e+003
5.413745e+002, 1.180290e+003
5.418566e+002, 1.177842e+003
5.423387e+002, 1.175820e+003
5.428209e+002, 1.174772e+003
5.433029e+002, 1.173521e+003
5.437850e+002, 1.171824e+003
5.442672e+002, 1.169812e+003
5.447493e+002, 1.167445e+003
5.452314e+002, 1.164760e+003
5.457135e+002, 1.162398e+003
5.461956e+002, 1.161516e+003
5.466777e+002, 1.161907e+003
5.471599e+002, 1.161050e+003
5.476420e+002, 1.158434e+003
5.481241e+002, 1.155386e+003
5.486062e+002, 1.152386e+003
5.490883e+002, 1.149574e+003
5.495704e+002, 1.147237e+003
5.500526e+002, 1.145590e+003
5.505347e+002, 1.144082e+003
5.510168e+002, 1.142501e+003
5.514989e+002, 1.140778e+003
5.519810e+002, 1.138619e+003
5.524631e+002, 1.135945e+003
5.529453e+002, 1.133419e+003
5.534274e+002, 1.131756e+003
5.539095e+002, 1.130955e+003
5.543916e+002, 1.129579e+003
5.548737e+002, 1.126898e+003
5.553558e+002, 1.124598e+003
5.558380e+002, 1.123758e+003
5.563201e+002, 1.123257e+003
5.568022e+002, 1.121529e+003
5.572843e+002, 1.118264e+003
5.577664e+002, 1.114702e+003
5.582485e+002, 1.112449e+003
5.587307e+002, 1.111609e+003
5.592128e+002, 1.109372e+003
5.596949e+002, 1.104116e+003
5.601770e+002, 1.099848e+003
5.606591e+002, 1.098275e+003
5.611412e+002, 1.098139e+003
5.616234e+002, 1.098155e+003
5.621055e+002, 1.098074e+003
5.625876e+002, 1.097353e+003
5.630697e+002, 1.094810e+003
5.635518e+002, 1.091199e+003
5.640339e+002, 1.089307e+003
5.645161e+002, 1.089728e+003
5.649982e+002, 1.090445e+003
5.654803e+002, 1.090202e+003
5.659624e+002, 1.089031e+003
5.664445e+002, 1.087376e+003
5.669266e+002, 1.085143e+003
5.674088e+002, 1.082572e+003
5.678909e+002, 1.079281e+003
5.683730e+002, 1.075918e+003
5.688551e+002, 1.073368e+003
5.693372e+002, 1.071743e+003
5.698193e+002, 1.070407e+003
5.703015e+002, 1.068812e+003
5.707836e+002, 1.066962e+003
5.712657e+002, 1.065061e+003
5.717478e+002, 1.062746e+003
5.722299e+002, 1.060876e+003
5.727120e+002, 1.059647e+003
5.731942e+002, 1.058847e+003
5.736763e+002, 1.058622e+003
5.741584e+002, 1.058818e+003
5.746405e+002, 1.058455e+003
5.751226e+002, 1.056205e+003
5.756047e+002, 1.052624e+003
5.760869e+002, 1.050131e+003
5.765690e+002, 1.048958e+003
5.770511e+002, 1.047905e+003
5.775332e+002, 1.046475e+003
5.780153e+002, 1.044807e+003
5.784974e+002, 1.043242e+003
5.789796e+002, 1.041912e+003
5.794617e+002, 1.040098e+003
5.799438e+002, 1.036859e+003
5.804259e+002, 1.033398e+003
5.809080e+002, 1.031195e+003
5.813901e+002, 1.030240e+003
5.818723e+002, 1.029608e+003
5.823544e+002, 1.028804e+003
5.828365e+002, 1.027724e+003
5.833186e+002, 1.025969e+003
5.838007e+002, 1.022384e+003
5.842828e+002, 1.019915e+003
5.847650e+002, 1.019815e+003
5.852471e+002, 1.019763e+003
5.857292e+002, 1.018033e+003
5.862113e+002, 1.014932e+003
5.866934e+002, 1.011768e+003
5.871755e+002, 1.009184e+003
5.876577e+002, 1.007383e+003
5.881398e+002, 1.007372e+003
5.886219e+002, 1.009608e+003
5.891040e+002, 1.010412e+003
5.895861e+002, 1.008118e+003
5.900682e+002, 1.004927e+003
5.905504e+002, 1.003041e+003
5.910325e+002, 1.002224e+003
5.915146e+002, 1.000962e+003
5.919967e+002, 9.980077e+002
5.924788e+002, 9.950926e+002
5.929609e+002, 9.939326e+002
5.934431e+002, 9.940690e+002
5.939252e+002, 9.941905e+002
5.944073e+002, 9.938541e+002
5.948894e+002, 9.930252e+002
5.953715e+002, 9.915322e+002
5.958536e+002, 9.890382e+002
5.963358e+002, 9.874310e+002
5.968179e+002, 9.877501e+002
5.973000e+002, 9.876714e+002
5.977821e+002, 9.857773e+002
5.982642e+002, 9.831882e+002
5.987463e+002, 9.816036e+002
5.992285e+002, 9.815830e+002
5.997106e+002, 9.821708e+002
6.001927e+002, 9.822597e+002
6.006748e+002, 9.818643e+002
6.011569e+002, 9.815144e+002
6.016390e+002, 9.814408e+002
6.021212e+002, 9.809579e+002
6.026033e+002, 9.791951e+002
6.030854e+002, 9.769091e+002
6.035675e+002, 9.753404e+002
6.040496e+002, 9.748655e+002
6.045317e+002, 9.743947e+002
6.050139e+002, 9.732346e+002
6.054960e+002, 9.717990e+002
6.059781e+002, 9.708535e+002
6.064602e+002, 9.704135e+002
6.069423e+002, 9.696277e+002
6.074244e+002, 9.677839e+002
6.079066e+002, 9.652272e+002
6.083887e+002, 9.634986e+002
6.088708e+002, 9.631988e+002
6.093529e+002, 9.629373e+002
6.098350e+002, 9.630939e+002
6.103171e+002, 9.629291e+002
6.107993e+002, 9.615027e+002
6.112814e+002, 9.592108e+002
6.117635e+002, 9.574982e+002
6.122456e+002, 9.574638e+002
6.127277e+002, 9.582528e+002
6.132098e+002, 9.579949e+002
6.136920e+002, 9.565873e+002
6.141741e+002, 9.552719e+002
6.146562e+002, 9.543165e+002
6.151383e+002, 9.535803e+002
6.156204e+002, 9.528785e+002
6.161025e+002, 9.522321e+002
6.165847e+002, 9.518655e+002
6.170668e+002, 9.522856e+002
6.175489e+002, 9.525399e+002
6.180310e+002, 9.517631e+002
6.185131e+002, 9.504230e+002
6.189952e+002, 9.494979e+002
6.194774e+002, 9.492735e+002
6.199595e+002, 9.493171e+002
6.204416e+002, 9.491368e+002
6.209237e+002, 9.487222e+002
6.214058e+002, 9.482523e+002
6.218879e+002, 9.476492e+002
6.223701e+002, 9.470944e+002
6.228522e+002, 9.464701e+002
6.233343e+002, 9.460048e+002
6.238164e+002, 9.460309e+002
6.242985e+002, 9.465743e+002
6.247806e+002, 9.471762e+002
6.252628e+002, 9.475195e+002
6.257448e+002, 9.476290e+002
6.262269e+002, 9.476638e+002
6.267090e+002, 9.476642e+002
6.271912e+002, 9.469910e+002
6.276733e+002, 9.448680e+002
6.281554e+002, 9.423605e+002
6.286375e+002, 9.419097e+002
6.291196e+002, 9.442136e+002
6.296017e+002, 9.449300e+002
6.300839e+002, 9.417230e+002
6.305660e+002, 9.382424e+002
6.310481e+002, 9.372145e+002
6.315302e+002, 9.379658e+002
6.320123e+002, 9.385698e+002
6.324944e+002, 9.381420e+002
6.329766e+002, 9.370346e+002
6.334587e+002, 9.357557e+002
6.339408e+002, 9.342310e+002
6.344229e+002, 9.328839e+002
6.349050e+002, 9.317626e+002
6.353871e+002, 9.307836e+002
6.358693e+002, 9.299915e+002
6.363514e+002, 9.292789e+002
6.368335e+002, 9.285093e+002
6.373156e+002, 9.276794e+002
6.377977e+002, 9.266788e+002
6.382798e+002, 9.253995e+002
6.387620e+002, 9.239170e+002
6.392441e+002, 9.222297e+002
6.397262e+002, 9.203688e+002
6.402083e+002, 9.188157e+002
6.406904e+002, 9.179894e+002
6.411725e+002, 9.175833e+002
6.416547e+002, 9.165510e+002
6.421368e+002, 9.141201e+002
6.426189e+002, 9.121932e+002
6.431010e+002, 9.108848e+002
6.435831e+002, 9.099716e+002
6.440652e+002, 9.096558e+002
6.445474e+002, 9.095953e+002
6.450295e+002, 9.090006e+002
6.455116e+002, 9.074033e+002
6.459937e+002, 9.053651e+002
6.464758e+002, 9.037902e+002
6.469579e+002, 9.026750e+002
6.474401e+002, 9.015262e+002
6.479222e+002, 9.002032e+002
6.484043e+002, 8.990021e+002
6.488864e+002, 8.982762e+002
6.493685e+002, 8.978630e+002
6.498506e+002, 8.972569e+002
6.503328e+002, 8.962104e+002
6.508149e+002, 8.953050e+002
6.512970e+002, 8.950893e+002
6.517791e+002, 8.949719e+002
6.522612e+002, 8.942294e+002
6.527433e+002, 8.928094e+002
6.532255e+002, 8.910277e+002
6.537076e+002, 8.890446e+002
6.541897e+002, 8.870380e+002
6.546718e+002, 8.857453e+002
6.551539e+002, 8.855848e+002
6.556360e+002, 8.851164e+002
6.561182e+002, 8.835519e+002
6.566003e+002, 8.821298e+002
6.570824e+002, 8.816631e+002
6.575645e+002, 8.819150e+002
6.580466e+002, 8.821122e+002
6.585287e+002, 8.820215e+002
6.590109e+002, 8.816617e+002
6.594930e+002, 8.809591e+002
6.599751e+002, 8.800013e+002
6.604572e+002, 8.790549e+002
6.609393e+002, 8.781821e+002
6.614214e+002, 8.771657e+002
6.619036e+002, 8.757187e+002
6.623857e+002, 8.739309e+002
6.628678e+002, 8.727724e+002
6.633499e+002, 8.731954e+002
6.638320e+002, 8.730049e+002
6.643141e+002, 8.714073e+002
6.647963e+002, 8.696031e+002
6.652784e+002, 8.685670e+002
6.657605e+002, 8.682578e+002
6.662426e+002, 8.680886e+002
6.667247e+002, 8.678008e+002
6.672068e+002, 8.672707e+002
6.676890e+002, 8.660970e+002
6.681711e+002, 8.643072e+002
6.686532e+002, 8.627753e+002
6.691353e+002, 8.616248e+002
6.696174e+002, 8.609637e+002
6.700995e+002, 8.610529e+002
6.705817e+002, 8.618249e+002
6.710638e+002, 8.624597e+002
6.715459e+002, 8.631513e+002
6.720280e+002, 8.634402e+002
6.725101e+002, 8.630954e+002
6.729922e+002, 8.623153e+002
6.734744e+002, 8.611276e+002
6.739565e+002, 8.596699e+002
6.744386e+002, 8.583734e+002
6.749207e+002, 8.575822e+002
6.754028e+002, 8.571566e+002
6.758849e+002, 8.567436e+002
6.763671e+002, 8.564798e+002
6.768492e+002, 8.555271e+002
6.773313e+002, 8.527328e+002
6.778134e+002, 8.503279e+002
6.782955e+002, 8.506661e+002
6.787776e+002, 8.529207e+002
6.792598e+002, 8.541041e+002
6.797419e+002, 8.529385e+002
6.802240e+002, 8.513162e+002
6.807061e+002, 8.501890e+002
6.811882e+002, 8.493881e+002
6.816703e+002, 8.485349e+002
6.821525e+002, 8.476242e+002
6.826346e+002, 8.471445e+002
6.831167e+002, 8.475577e+002
6.835988e+002, 8.486645e+002
6.840809e+002, 8.495685e+002
6.845630e+002, 8.506413e+002
6.850452e+002, 8.506959e+002
6.855273e+002, 8.483347e+002
6.860094e+002, 8.459998e+002
6.864915e+002, 8.453721e+002
6.869736e+002, 8.459620e+002
6.874557e+002, 8.461227e+002
6.879379e+002, 8.451189e+002
6.884200e+002, 8.436953e+002
6.889021e+002, 8.421349e+002
6.893842e+002, 8.407156e+002
6.898663e+002, 8.402385e+002
6.903484e+002, 8.408263e+002
6.908306e+002, 8.417768e+002
6.913127e+002, 8.427003e+002
6.917948e+002, 8.434148e+002
6.922769e+002, 8.429455e+002
6.927590e+002, 8.397781e+002
6.932411e+002, 8.378741e+002
6.937233e+002, 8.382880e+002
6.942054e+002, 8.391555e+002
6.946875e+002, 8.394709e+002
6.951696e+002, 8.393007e+002
6.956517e+002, 8.390850e+002
6.961339e+002, 8.390438e+002
6.966160e+002, 8.389532e+002
6.970981e+002, 8.384753e+002
6.975802e+002, 8.377328e+002
6.980623e+002, 8.370641e+002
6.985444e+002, 8.364991e+002
6.990266e+002, 8.364141e+002
6.995087e+002, 8.373231e+002
6.999908e+002, 8.387565e+002
7.004729e+002, 8.389092e+002
7.009550e+002, 8.365522e+002
7.014371e+002, 8.347561e+002
7.019193e+002, 8.336035e+002
7.024014e+002, 8.329719e+002
7.028835e+002, 8.329882e+002
7.033656e+002, 8.334354e+002
7.038477e+002, 8.340136e+002
7.043298e+002, 8.346379e+002
7.048120e+002, 8.349579e+002
7.052941e+002, 8.343065e+002
7.057762e+002, 8.329210e+002
7.062583e+002, 8.318631e+002
7.067404e+002, 8.312035e+002
7.072225e+002, 8.311882e+002
7.077046e+002, 8.322859e+002
7.081867e+002, 8.338870e+002
7.086688e+002, 8.343450e+002
7.091509e+002, 8.330248e+002
7.096331e+002, 8.322424e+002
7.101152e+002, 8.328675e+002
7.105973e+002, 8.333564e+002
7.110794e+002, 8.323780e+002
7.115615e+002, 8.307167e+002
7.120436e+002, 8.298763e+002
7.125258e+002, 8.303901e+002
7.130079e+002, 8.314898e+002
7.134900e+002, 8.324991e+002
7.139721e+002, 8.333621e+002
7.144542e+002, 8.338161e+002
7.149363e+002, 8.338629e+002
7.154185e+002, 8.333441e+002
7.159006e+002, 8.317596e+002
7.163827e+002, 8.300166e+002
7.168648e+002, 8.299855e+002
7.173469e+002, 8.321447e+002
7.178290e+002, 8.329916e+002
7.183112e+002, 8.311406e+002
7.187933e+002, 8.290836e+002
7.192754e+002, 8.281642e+002
7.197575e+002, 8.277794e+002
7.202396e+002, 8.268265e+002
7.207217e+002, 8.251018e+002
7.212039e+002, 8.235252e+002
7.216860e+002, 8.231673e+002
7.221681e+002, 8.236463e+002
7.226502e+002, 8.234022e+002
7.231323e+002, 8.223452e+002
7.236144e+002, 8.212975e+002
7.240966e+002, 8.204974e+002
7.245787e+002, 8.198486e+002
7.250608e+002, 8.192371e+002
7.255429e+002, 8.186643e+002
7.260250e+002, 8.182806e+002
7.265071e+002, 8.186042e+002
7.269893e+002, 8.185159e+002
7.274714e+002, 8.170777e+002
7.279535e+002, 8.153359e+002
7.284356e+002, 8.144785e+002
7.289177e+002, 8.146224e+002
7.293998e+002, 8.152281e+002
7.298820e+002, 8.160400e+002
7.303641e+002, 8.167979e+002
7.308462e+002, 8.169381e+002
7.313283e+002, 8.164527e+002
7.318104e+002, 8.152487e+002
7.322925e+002, 8.128528e+002
7.327747e+002, 8.107725e+002
7.332568e+002, 8.102835e+002
7.337389e+002, 8.111979e+002
7.342210e+002, 8.123200e+002
7.347031e+002, 8.142401e+002
7.351852e+002, 8.154319e+002
7.356674e+002, 8.152670e+002
7.361495e+002, 8.145082e+002
7.366316e+002, 8.135175e+002
7.371137e+002, 8.125055e+002
7.375958e+002, 8.117670e+002
7.380779e+002, 8.114453e+002
7.385601e+002, 8.114274e+002
7.390422e+002, 8.118065e+002
7.395243e+002, 8.124704e+002
7.400064e+002, 8.121361e+002
7.404885e+002, 8.104657e+002
7.409706e+002, 8.088907e+002
7.414528e+002, 8.081680e+002
7.419349e+002, 8.080837e+002
7.424170e+002, 8.082742e+002
7.428991e+002, 8.089475e+002
7.433812e+002, 8.091862e+002
7.438633e+002, 8.087573e+002
7.443455e+002, 8.080521e+002
7.448276e+002, 8.066744e+002
7.453097e+002, 8.053916e+002
7.457918e+002, 8.056484e+002
7.462739e+002, 8.077025e+002
7.467560e+002, 8.098115e+002
7.472382e+002, 8.101903e+002
7.477203e+002, 8.093293e+002
7.482024e+002, 8.086315e+002
7.486845e+002, 8.080976e+002
7.491666e+002, 8.076886e+002
7.496487e+002, 8.073193e+002
7.501309e+002, 8.072697e+002
7.506130e+002, 8.080953e+002
7.510951e+002, 8.098867e+002
7.515772e+002, 8.105414e+002
7.520593e+002, 8.091271e+002
7.525414e+002, 8.078657e+002
7.530236e+002, 8.071398e+002
7.535057e+002, 8.068268e+002
7.539878e+002, 8.069179e+002
7.544699e+002, 8.073057e+002
7.549520e+002, 8.077900e+002
7.554341e+002, 8.084586e+002
7.559163e+002, 8.087267e+002
7.563984e+002, 8.072119e+002
7.568805e+002, 8.044760e+002
7.573626e+002, 8.032601e+002
7.578447e+002, 8.040934e+002
7.583268e+002, 8.050203e+002
7.588090e+002, 8.046034e+002
7.592911e+002, 8.033093e+002
7.597732e+002, 8.027125e+002
7.602553e+002, 8.035285e+002
7.607374e+002, 8.037693e+002
7.612195e+002, 8.029958e+002
7.617017e+002, 8.021829e+002
7.621838e+002, 8.016472e+002
7.626659e+002, 8.014424e+002
7.631480e+002, 8.017739e+002
7.636301e+002, 8.027361e+002
7.641122e+002, 8.033873e+002
7.645944e+002, 8.026806e+002
7.650765e+002, 8.014044e+002
7.655586e+002, 8.007388e+002
7.660407e+002, 8.006774e+002
7.665228e+002, 8.009521e+002
7.670049e+002, 8.014744e+002
7.674871e+002, 8.020457e+002
7.679692e+002, 8.024174e+002
7.684513e+002, 8.025830e+002
7.689334e+002, 8.025426e+002
7.694155e+002, 8.020399e+002
7.698976e+002, 8.017280e+002
7.703798e+002, 8.015269e+002
7.708619e+002, 8.017232e+002
7.713440e+002, 8.028931e+002
7.718261e+002, 8.047784e+002
7.723082e+002, 8.061068e+002
7.727903e+002, 8.062950e+002
7.732725e+002, 8.059887e+002
7.737546e+002, 8.053975e+002
7.742367e+002, 8.047073e+002
7.747188e+002, 8.042474e+002
7.752009e+002, 8.040269e+002
7.756830e+002, 8.037379e+002
7.761652e+002, 8.031397e+002
7.766473e+002, 8.025267e+002
7.771294e+002, 8.028453e+002
7.776115e+002, 8.044229e+002
7.780936e+002, 8.046700e+002
7.785757e+002, 8.028118e+002
7.790579e+002, 8.007333e+002
7.795400e+002, 7.991582e+002
7.800221e+002, 7.981368e+002
7.805042e+002, 7.980247e+002
7.809863e+002, 7.992133e+002
7.814684e+002, 7.993812e+002
7.819506e+002, 7.970154e+002
7.824327e+002, 7.944125e+002
7.829148e+002, 7.930613e+002
7.833969e+002, 7.924803e+002
7.838790e+002, 7.918170e+002
7.843611e+002, 7.908174e+002
7.848433e+002, 7.896491e+002
7.853254e+002, 7.884928e+002
7.858075e+002, 7.872667e+002
7.862896e+002, 7.855479e+002
7.867717e+002, 7.833259e+002
7.872538e+002, 7.818230e+002
7.877360e+002, 7.815645e+002
7.882181e+002, 7.814182e+002
7.887002e+002, 7.802474e+002
7.891823e+002, 7.782234e+002
7.896644e+002, 7.768391e+002
7.901465e+002, 7.770228e+002
7.906286e+002, 7.764765e+002
7.911107e+002, 7.744775e+002
7.915928e+002, 7.722141e+002
7.920750e+002, 7.703583e+002
7.925571e+002, 7.688609e+002
7.930392e+002, 7.674929e+002
7.935213e+002, 7.662020e+002
7.940034e+002, 7.648148e+002
7.944855e+002, 7.627678e+002
7.949677e+002, 7.606871e+002
7.954498e+002, 7.600776e+002
7.959319e+002, 7.607632e+002
7.964140e+002, 7.610333e+002
7.968961e+002, 7.601483e+002
7.973782e+002, 7.588925e+002
7.978604e+002, 7.584247e+002
7.983425e+002, 7.588024e+002
7.988246e+002, 7.583030e+002
7.993067e+002, 7.560277e+002
7.997888e+002, 7.544875e+002
8.002709e+002, 7.551407e+002
8.007531e+002, 7.560914e+002
8.012352e+002, 7.557725e+002
8.017173e+002, 7.544337e+002
8.021994e+002, 7.535193e+002
8.026815e+002, 7.535902e+002
8.031636e+002, 7.538935e+002
8.036458e+002, 7.541678e+002
8.041279e+002, 7.543885e+002
8.046100e+002, 7.542926e+002
8.050921e+002, 7.540889e+002
8.055742e+002, 7.547089e+002
8.060563e+002, 7.567282e+002
8.065385e+002, 7.588107e+002
8.070206e+002, 7.584589e+002
8.075027e+002, 7.559000e+002
8.079848e+002, 7.543735e+002
8.084669e+002, 7.542261e+002
8.089490e+002, 7.539996e+002
8.094312e+002, 7.531066e+002
8.099133e+002, 7.517273e+002
8.103954e+002, 7.500034e+002
8.108775e+002, 7.478069e+002
8.113596e+002, 7.461631e+002
8.118417e+002, 7.451880e+002
8.123239e+002, 7.446143e+002
8.128060e+002, 7.445814e+002
8.132881e+002, 7.447717e+002
8.137702e+002, 7.451215e+002
8.142523e+002, 7.454498e+002
8.147344e+002, 7.451973e+002
8.152166e+002, 7.438469e+002
8.156987e+002, 7.423234e+002
8.161808e+002, 7.417813e+002
8.166629e+002, 7.417552e+002
8.171450e+002, 7.411208e+002
8.176271e+002, 7.398129e+002
8.181093e+002, 7.385262e+002
8.185914e+002, 7.376268e+002
8.190735e+002, 7.371354e+002
8.195556e+002, 7.372226e+002
8.200377e+002, 7.380706e+002
8.205198e+002, 7.382813e+002
8.210020e+002, 7.376307e+002
8.214841e+002, 7.367396e+002
8.219662e+002, 7.355543e+002
8.224483e+002, 7.344395e+002
8.229304e+002, 7.339543e+002
8.234125e+002, 7.340684e+002
8.238947e+002, 7.338175e+002
8.243768e+002, 7.328349e+002
8.248589e+002, 7.316784e+002
8.253410e+002, 7.303149e+002
8.258231e+002, 7.290908e+002
8.263052e+002, 7.285447e+002
8.267874e+002, 7.285491e+002
8.272695e+002, 7.284446e+002
8.277516e+002, 7.278475e+002
8.282337e+002, 7.270548e+002
8.287158e+002, 7.263181e+002
8.291979e+002, 7.257301e+002
8.296801e+002, 7.258922e+002
8.301622e+002, 7.268596e+002
8.306443e+002, 7.274397e+002
8.311264e+002, 7.269870e+002
8.316085e+002, 7.259785e+002
8.320906e+002, 7.251971e+002
8.325728e+002, 7.247070e+002
8.330549e+002, 7.239548e+002
8.335370e+002, 7.225186e+002
8.340191e+002, 7.214307e+002
8.345012e+002, 7.212863e+002
8.349833e+002, 7.212706e+002
8.354655e+002, 7.205721e+002
8.359476e+002, 7.193430e+002
8.364297e+002, 7.184826e+002
8.369118e+002, 7.183382e+002
8.373939e+002, 7.185006e+002
8.378760e+002, 7.190841e+002
8.383582e+002, 7.196378e+002
8.388403e+002, 7.195642e+002
8.393224e+002, 7.189577e+002
8.398045e+002, 7.182684e+002
8.402866e+002, 7.177097e+002
8.407687e+002, 7.172538e+002
8.412509e+002, 7.169083e+002
8.417330e+002, 7.166472e+002
8.422151e+002, 7.162898e+002
8.426972e+002, 7.158240e+002
8.431793e+002, 7.154184e+002
8.436614e+002, 7.151104e+002
8.441436e+002, 7.149679e+002
8.446257e+002, 7.151810e+002
8.451078e+002, 7.157236e+002
8.455899e+002, 7.156082e+002
8.460720e+002, 7.142496e+002
8.465541e+002, 7.130667e+002
8.470363e+002, 7.121691e+002
8.475184e+002, 7.114793e+002
8.480005e+002, 7.109689e+002
8.484826e+002, 7.106179e+002
8.489647e+002, 7.103791e+002
8.494468e+002, 7.102229e+002
8.499290e+002, 7.102604e+002
8.504111e+002, 7.109321e+002
8.508932e+002, 7.115274e+002
8.513753e+002, 7.113645e+002
8.518574e+002, 7.105271e+002
8.523395e+002, 7.090314e+002
8.528217e+002, 7.070244e+002
8.533038e+002, 7.054533e+002
8.537859e+002, 7.054056e+002
8.542680e+002, 7.064003e+002
8.547501e+002, 7.070278e+002
8.552322e+002, 7.072924e+002
8.557144e+002, 7.071214e+002
8.561965e+002, 7.064064e+002
8.566786e+002, 7.056540e+002
8.571607e+002, 7.052064e+002
8.576428e+002, 7.050340e+002
8.581249e+002, 7.050700e+002
8.586071e+002, 7.055798e+002
8.590892e+002, 7.057060e+002
8.595713e+002, 7.044241e+002
8.600534e+002, 7.039533e+002
8.605355e+002, 7.064979e+002
8.610176e+002, 7.094667e+002
8.614998e+002, 7.093284e+002
8.619819e+002, 7.058510e+002
8.624640e+002, 7.026777e+002
8.629461e+002, 7.012263e+002
8.634282e+002, 7.005758e+002
8.639103e+002, 7.004048e+002
8.643925e+002, 7.004836e+002
8.648746e+002, 7.004923e+002
8.653567e+002, 7.004241e+002
8.658388e+002, 7.005577e+002
8.663209e+002, 7.011027e+002
8.668030e+002, 7.015642e+002
8.672852e+002, 7.010740e+002
8.677673e+002, 6.997994e+002
8.682494e+002, 6.984597e+002
8.687315e+002, 6.970823e+002
8.692136e+002, 6.963399e+002
8.696957e+002, 6.966326e+002
8.701779e+002, 6.972497e+002
8.706600e+002, 6.972206e+002
8.711421e+002, 6.965378e+002
8.716242e+002, 6.961279e+002
8.721063e+002, 6.962633e+002
8.725884e+002, 6.961891e+002
8.730705e+002, 6.954593e+002
8.735526e+002, 6.947845e+002
8.740347e+002, 6.948577e+002
8.745168e+002, 6.952795e+002
8.749990e+002, 6.949384e+002
8.754811e+002, 6.932321e+002
8.759632e+002, 6.920774e+002
8.764453e+002, 6.927911e+002
8.769274e+002, 6.936761e+002
8.774095e+002, 6.933535e+002
8.778917e+002, 6.923590e+002
8.783738e+002, 6.917135e+002
8.788559e+002, 6.916479e+002
8.793380e+002, 6.917255e+002
8.798201e+002, 6.917374e+002
8.803022e+002, 6.915437e+002
8.807844e+002, 6.904995e+002
8.812665e+002, 6.890302e+002
8.817486e+002, 6.890706e+002
8.822307e+002, 6.908147e+002
8.827128e+002, 6.920514e+002
8.831949e+002, 6.913058e+002
8.836771e+002, 6.895215e+002
8.841592e+002, 6.886731e+002
8.846413e+002, 6.888883e+002
8.851234e+002, 6.890558e+002
8.856055e+002, 6.891700e+002
8.860876e+002, 6.892405e+002
8.865698e+002, 6.892928e+002
8.870519e+002, 6.892728e+002
8.875340e+002, 6.890557e+002
8.880161e+002, 6.886624e+002
8.884982e+002, 6.884378e+002
8.889803e+002, 6.889899e+002
8.894625e+002, 6.888672e+002
8.899446e+002, 6.867320e+002
8.904267e+002, 6.848712e+002
8.909088e+002, 6.853642e+002
8.913909e+002, 6.871933e+002
8.918730e+002, 6.881790e+002
8.923552e+002, 6.877111e+002
8.928373e+002, 6.869338e+002
8.933194e+002, 6.866078e+002
8.938015e+002, 6.863182e+002
8.942836e+002, 6.856701e+002
8.947657e+002, 6.847054e+002
8.952479e+002, 6.833375e+002
8.957300e+002, 6.816869e+002
8.962121e+002, 6.804272e+002
8.966942e+002, 6.800740e+002
8.971763e+002, 6.803828e+002
8.976584e+002, 6.811096e+002
8.981406e+002, 6.821575e+002
8.986227e+002, 6.824562e+002
8.991048e+002, 6.818323e+002
8.995869e+002, 6.814092e+002
9.000690e+002, 6.817916e+002
9.005511e+002, 6.824182e+002
9.010333e+002, 6.824539e+002
9.015154e+002, 6.818713e+002
9.019975e+002, 6.812672e+002
9.024796e+002, 6.806555e+002
9.029617e+002, 6.799840e+002
9.034438e+002, 6.787521e+002
9.039260e+002, 6.779536e+002
9.044081e+002, 6.786049e+002
9.048902e+002, 6.801642e+002
9.053723e+002, 6.812419e+002
9.058544e+002, 6.816181e+002
9.063365e+002, 6.817218e+002
9.068187e+002, 6.814792e+002
9.073008e+002, 6.811774e+002
9.077829e+002, 6.811418e+002
9.082650e+002, 6.810697e+002
9.087471e+002, 6.802376e+002
9.092292e+002, 6.787528e+002
9.097114e+002, 6.779510e+002
9.101935e+002, 6.790046e+002
9.106756e+002, 6.804538e+002
9.111577e+002, 6.810053e+002
9.116398e+002, 6.808102e+002
9.121219e+002, 6.798700e+002
9.126041e+002, 6.784079e+002
9.130862e+002, 6.771614e+002
9.135683e+002, 6.764824e+002
9.140504e+002, 6.763074e+002
9.145325e+002, 6.768091e+002
9.150146e+002, 6.777615e+002
9.154968e+002, 6.776658e+002
9.159789e+002, 6.764796e+002
9.164610e+002, 6.757112e+002
9.169431e+002, 6.758447e+002
9.174252e+002, 6.759496e+002
9.179073e+002, 6.751600e+002
9.183895e+002, 6.738141e+002
9.188716e+002, 6.731667e+002
9.193537e+002, 6.735124e+002
9.198358e+002, 6.738004e+002
9.203179e+002, 6.742065e+002
9.208000e+002, 6.742780e+002
9.212822e+002, 6.734668e+002
9.217643e+002, 6.724565e+002
9.222464e+002, 6.720684e+002
9.227285e+002, 6.722769e+002
9.232106e+002, 6.722828e+002
9.236927e+002, 6.715309e+002
9.241749e+002, 6.711588e+002
9.246570e+002, 6.718857e+002
9.251391e+002, 6.727550e+002
9.256212e+002, 6.730898e+002
9.261033e+002, 6.729541e+002
9.265854e+002, 6.726271e+002
9.270676e+002, 6.721955e+002
9.275497e+002, 6.715361e+002
9.280318e+002, 6.701689e+002
9.285139e+002, 6.689039e+002
9.289960e+002, 6.688468e+002
9.294781e+002, 6.694063e+002
9.299603e+002, 6.692527e+002
9.304424e+002, 6.683325e+002
9.309245e+002, 6.677787e+002
9.314066e+002, 6.683464e+002
9.318887e+002, 6.694445e+002
9.323708e+002, 6.703558e+002
9.328530e+002, 6.709992e+002
9.333351e+002, 6.708506e+002
9.338172e+002, 6.699397e+002
9.342993e+002, 6.692814e+002
9.347814e+002, 6.692692e+002
9.352635e+002, 6.694376e+002
9.357457e+002, 6.692548e+002
9.362278e+002, 6.688221e+002
9.367099e+002, 6.688077e+002
9.371920e+002, 6.693542e+002
9.376741e+002, 6.696835e+002
9.381563e+002, 6.696996e+002
9.386384e+002, 6.694887e+002
9.391205e+002, 6.689566e+002
9.396026e+002, 6.683358e+002
9.400847e+002, 6.680317e+002
9.405668e+002, 6.680713e+002
9.410490e+002, 6.682792e+002
9.415311e+002, 6.690953e+002
9.420132e+002, 6.694821e+002
9.424953e+002, 6.687701e+002
9.429774e+002, 6.680000e+002
9.434595e+002, 6.681825e+002
9.439417e+002, 6.688942e+002
9.444238e+002, 6.688341e+002
9.449059e+002, 6.673958e+002
9.453880e+002, 6.665652e+002
9.458701e+002, 6.678183e+002
9.463522e+002, 6.690862e+002
9.468344e+002, 6.686830e+002
9.473165e+002, 6.676218e+002
9.477986e+002, 6.673857e+002
9.482807e+002, 6.680730e+002
9.487628e+002, 6.687665e+002
9.492449e+002, 6.689769e+002
9.497271e+002, 6.690272e+002
9.502092e+002, 6.693666e+002
9.506913e+002, 6.696661e+002
9.511734e+002, 6.694374e+002
9.516555e+002, 6.686895e+002
9.521376e+002, 6.673590e+002
9.526198e+002, 6.655211e+002
9.531019e+002, 6.641569e+002
9.535840e+002, 6.644254e+002
9.540661e+002, 6.655539e+002
9.545482e+002, 6.654971e+002
9.550303e+002, 6.644863e+002
9.555124e+002, 6.641768e+002
9.559945e+002, 6.647963e+002
9.564766e+002, 6.652151e+002
9.569587e+002, 6.647658e+002
9.574409e+002, 6.641300e+002
9.579230e+002, 6.644708e+002
9.584051e+002, 6.657654e+002
9.588872e+002, 6.666709e+002
9.593693e+002, 6.672098e+002
9.598514e+002, 6.672262e+002
9.603336e+002, 6.665433e+002
9.608157e+002, 6.656303e+002
9.612978e+002, 6.646630e+002
9.617799e+002, 6.638404e+002
9.622620e+002, 6.638066e+002
9.627441e+002, 6.650541e+002
9.632263e+002, 6.655659e+002
9.637084e+002, 6.647667e+002
9.641905e+002, 6.640101e+002
9.646726e+002, 6.637750e+002
9.651547e+002, 6.636358e+002
9.656368e+002, 6.632463e+002
9.661190e+002, 6.626307e+002
9.666011e+002, 6.619249e+002
9.670832e+002, 6.609393e+002
9.675653e+002, 6.602819e+002
9.680474e+002, 6.601785e+002
9.685295e+002, 6.603322e+002
9.690117e+002, 6.607230e+002
9.694938e+002, 6.611840e+002
9.699759e+002, 6.615401e+002
9.704580e+002, 6.617616e+002
9.709401e+002, 6.618771e+002
9.714222e+002, 6.619529e+002
9.719044e+002, 6.618390e+002
9.723865e+002, 6.614340e+002
9.728686e+002, 6.607992e+002
9.733507e+002, 6.596876e+002
9.738328e+002, 6.584779e+002
9.743149e+002, 6.581163e+002
9.747971e+002, 6.587999e+002
9.752792e+002, 6.594424e+002
9.757613e+002, 6.590316e+002
9.762434e+002, 6.582806e+002
9.767255e+002, 6.582538e+002
9.772076e+002, 6.585780e+002
9.776898e+002, 6.583221e+002
9.781719e+002, 6.575267e+002
9.786540e+002, 6.570884e+002
9.791361e+002, 6.574279e+002
9.796182e+002, 6.578105e+002
9.801003e+002, 6.569988e+002
9.805825e+002, 6.556077e+002
9.810646e+002, 6.560475e+002
9.815467e+002, 6.580453e+002
9.820288e+002, 6.593938e+002
9.825109e+002, 6.596539e+002
9.829930e+002, 6.594182e+002
9.834752e+002, 6.590201e+002
9.839573e+002, 6.585967e+002
9.844394e+002, 6.585000e+002
9.849215e+002, 6.587372e+002
9.854036e+002, 6.582625e+002
9.858857e+002, 6.568438e+002
9.863679e+002, 6.561740e+002
9.868500e+002, 6.568661e+002
9.873321e+002, 6.578714e+002
9.878142e+002, 6.583962e+002
9.882963e+002, 6.585280e+002
9.887784e+002, 6.585401e+002
9.892606e+002, 6.584337e+002
9.897427e+002, 6.581948e+002
9.902248e+002, 6.578317e+002
9.907069e+002, 6.572842e+002
9.911890e+002, 6.561799e+002
9.916711e+002, 6.552724e+002
9.921533e+002, 6.554658e+002
9.926354e+002, 6.565421e+002
9.931175e+002, 6.572054e+002
9.935996e+002, 6.573165e+002
9.940817e+002, 6.572697e+002
9.945638e+002, 6.569587e+002
9.950460e+002, 6.566275e+002
9.955281e+002, 6.564037e+002
9.960102e+002, 6.561858e+002
9.964923e+002, 6.559092e+002
9.969744e+002, 6.555488e+002
9.974565e+002, 6.549765e+002
9.979387e+002, 6.539108e+002
9.984208e+002, 6.530636e+002
9.989029e+002, 6.523733e+002
9.993850e+002, 6.522086e+002
9.998671e+002, 6.533885e+002
1.000349e+003, 6.549364e+002
1.000831e+003, 6.553091e+002
1.001313e+003, 6.544391e+002
1.001796e+003, 6.538366e+002
1.002278e+003, 6.545057e+002
1.002760e+003, 6.550005e+002
1.003242e+003, 6.542668e+002
1.003724e+003, 6.532352e+002
1.004206e+003, 6.527127e+002
1.004688e+003, 6.525964e+002
1.005170e+003, 6.525616e+002
1.005653e+003, 6.525088e+002
1.006135e+003, 6.524149e+002
1.006617e+003, 6.523015e+002
1.007099e+003, 6.520885e+002
1.007581e+003, 6.514313e+002
1.008063e+003, 6.507951e+002
1.008545e+003, 6.511511e+002
1.009027e+003, 6.521185e+002
1.009509e+003, 6.523417e+002
1.009992e+003, 6.514006e+002
1.010474e+003, 6.503552e+002
1.010956e+003, 6.502128e+002
1.011438e+003, 6.504258e+002
1.011920e+003, 6.500107e+002
1.012402e+003, 6.493533e+002
1.012884e+003, 6.496760e+002
1.013366e+003, 6.507805e+002
1.013849e+003, 6.509655e+002
1.014331e+003, 6.495117e+002
1.014813e+003, 6.477871e+002
1.015295e+003, 6.473240e+002
1.015777e+003, 6.477250e+002
1.016259e+003, 6.481309e+002
1.016741e+003, 6.485126e+002
1.017223e+003, 6.487083e+002
1.017705e+003, 6.487038e+002
1.018188e+003, 6.486848e+002
1.018670e+003, 6.487584e+002
1.019152e+003, 6.486141e+002
1.019634e+003, 6.475745e+002
1.020116e+003, 6.460207e+002
1.020598e+003, 6.462560e+002
1.021080e+003, 6.481663e+002
1.021562e+003, 6.484171e+002
1.022044e+003, 6.463351e+002
1.022527e+003, 6.443859e+002
1.023009e+003, 6.439815e+002
1.023491e+003, 6.445410e+002
1.023973e+003, 6.453147e+002
1.024455e+003, 6.462389e+002
1.024937e+003, 6.460536e+002
1.025419e+003, 6.445866e+002
1.025901e+003, 6.435032e+002
1.026384e+003, 6.431445e+002
1.026866e+003, 6.430386e+002
1.027348e+003, 6.429046e+002
1.027830e+003, 6.428339e+002
1.028312e+003, 6.430888e+002
1.028794e+003, 6.437181e+002
1.029276e+003, 6.434071e+002
1.029758e+003, 6.417390e+002
1.030240e+003, 6.406112e+002
1.030723e+003, 6.404548e+002
1.031205e+003, 6.407299e+002
1.031687e+003, 6.411579e+002
1.032169e+003, 6.417150e+002
1.032651e+003, 6.424032e+002
1.033133e+003, 6.432816e+002
1.033615e+003, 6.437577e+002
1.034097e+003, 6.437525e+002
1.034579e+003, 6.434473e+002
1.035062e+003, 6.423943e+002
1.035544e+003, 6.417958e+002
1.036026e+003, 6.428821e+002
1.036508e+003, 6.446970e+002
1.036990e+003, 6.451390e+002
1.037472e+003, 6.438700e+002
1.037954e+003, 6.431057e+002
1.038436e+003, 6.431787e+002
1.038919e+003, 6.432249e+002
1.039401e+003, 6.429347e+002
1.039883e+003, 6.427601e+002
1.040365e+003, 6.432899e+002
1.040847e+003, 6.440530e+002
1.041329e+003, 6.439726e+002
1.041811e+003, 6.428472e+002
1.042293e+003, 6.419827e+002
1.042776e+003, 6.415124e+002
1.043258e+003, 6.411594e+002
1.043740e+003, 6.409094e+002
1.044222e+003, 6.407327e+002
1.044704e+003, 6.406472e+002
1.045186e+003, 6.406132e+002
1.045668e+003, 6.406447e+002
1.046150e+003, 6.408250e+002
1.046632e+003, 6.404700e+002
1.047115e+003, 6.385424e+002
1.047597e+003, 6.374019e+002
1.048079e+003, 6.384990e+002
1.048561e+003, 6.397126e+002
1.049043e+003, 6.393411e+002
1.049525e+003, 6.381236e+002
1.050007e+003, 6.375270e+002
1.050489e+003, 6.377482e+002
1.050971e+003, 6.381785e+002
1.051454e+003, 6.393018e+002
1.051936e+003, 6.397968e+002
1.052418e+003, 6.385819e+002
1.052900e+003, 6.372678e+002
1.053382e+003, 6.374434e+002
1.053864e+003, 6.381989e+002
1.054346e+003, 6.376180e+002
1.054828e+003, 6.353931e+002
1.055311e+003, 6.335199e+002
1.055793e+003, 6.323981e+002
1.056275e+003, 6.318827e+002
1.056757e+003, 6.324955e+002
1.057239e+003, 6.331464e+002
1.057721e+003, 6.327717e+002
1.058203e+003, 6.319632e+002
1.058685e+003, 6.320261e+002
1.059167e+003, 6.331241e+002
1.059650e+003, 6.335377e+002
1.060132e+003, 6.320521e+002
1.060614e+003, 6.306713e+002
1.061096e+003, 6.301180e+002
1.061578e+003, 6.299838e+002
1.062060e+003, 6.301453e+002
1.062542e+003, 6.304075e+002
1.063024e+003, 6.305137e+002
1.063506e+003, 6.304241e+002
1.063989e+003, 6.302692e+002
1.064471e+003, 6.305650e+002
1.064953e+003, 6.301292e+002
1.065435e+003, 6.275002e+002
1.065917e+003, 6.249169e+002
1.066399e+003, 6.244279e+002
1.066881e+003, 6.249739e+002
1.067363e+003, 6.246697e+002
1.067846e+003, 6.233583e+002
1.068328e+003, 6.224820e+002
1.068810e+003, 6.228644e+002
1.069292e+003, 6.232790e+002
1.069774e+003, 6.233276e+002
1.070256e+003, 6.230578e+002
1.070738e+003, 6.225582e+002
1.071220e+003, 6.217404e+002
1.071703e+003, 6.199683e+002
1.072185e+003, 6.175650e+002
1.072667e+003, 6.166161e+002
1.073149e+003, 6.186710e+002
1.073631e+003, 6.204656e+002
1.074113e+003, 6.203248e+002
1.074595e+003, 6.195388e+002
1.075077e+003, 6.188266e+002
1.075559e+003, 6.181781e+002
1.076042e+003, 6.173721e+002
1.076524e+003, 6.165033e+002
1.077006e+003, 6.161578e+002
1.077488e+003, 6.168939e+002
1.077970e+003, 6.170053e+002
1.078452e+003, 6.145921e+002
1.078934e+003, 6.125003e+002
1.079416e+003, 6.132460e+002
1.079898e+003, 6.149943e+002
1.080380e+003, 6.155353e+002
1.080863e+003, 6.148923e+002
1.081345e+003, 6.141456e+002
1.081827e+003, 6.135814e+002
1.082309e+003, 6.131601e+002
1.082791e+003, 6.130791e+002
1.083273e+003, 6.128776e+002
1.083755e+003, 6.120673e+002
1.084237e+003, 6.111437e+002
1.084720e+003, 6.107597e+002
1.085202e+003, 6.107147e+002
1.085684e+003, 6.101931e+002
1.086166e+003, 6.088748e+002
1.086648e+003, 6.081839e+002
1.087130e+003, 6.093945e+002
1.087612e+003, 6.105427e+002
1.088094e+003, 6.107490e+002
1.088577e+003, 6.103065e+002
1.089059e+003, 6.092186e+002
1.089541e+003, 6.078196e+002
1.090023e+003, 6.067088e+002
1.090505e+003, 6.060045e+002
1.090987e+003, 6.053967e+002
1.091469e+003, 6.044685e+002
1.091951e+003, 6.040198e+002
1.092433e+003, 6.051022e+002
1.092916e+003, 6.061189e+002
1.093398e+003, 6.055716e+002
1.093880e+003, 6.041796e+002
1.094362e+003, 6.031991e+002
1.094844e+003, 6.028174e+002
1.095326e+003, 6.026320e+002
1.095808e+003, 6.028233e+002
1.096290e+003, 6.027457e+002
1.096772e+003, 6.018328e+002
1.097255e+003, 6.009680e+002
1.097737e+003, 6.007593e+002
1.098219e+003, 6.009045e+002
1.098701e+003, 6.009594e+002
1.099183e+003, 6.009088e+002
1.099665e+003, 6.010247e+002
1.100147e+003, 6.014642e+002
1.100629e+003, 6.018630e+002
1.101112e+003, 6.023900e+002
1.101594e+003, 6.025333e+002
1.102076e+003, 6.017932e+002
1.102558e+003, 6.007270e+002
1.103040e+003, 5.996710e+002
1.103522e+003, 5.988140e+002
1.104004e+003, 5.987460e+002
1.104486e+003, 5.999432e+002
1.104969e+003, 6.006637e+002
1.105451e+003, 6.003198e+002
1.105933e+003, 5.998151e+002
1.106415e+003, 5.993662e+002
1.106897e+003, 5.989689e+002
1.107379e+003, 5.986063e+002
1.107861e+003, 5.982851e+002
1.108343e+003, 5.980527e+002
1.108825e+003, 5.979537e+002
1.109307e+003, 5.976957e+002
1.109790e+003, 5.970090e+002
1.110272e+003, 5.965076e+002
1.110754e+003, 5.965947e+002
1.111236e+003, 5.966078e+002
1.111718e+003, 5.962287e+002
1.112200e+003, 5.954859e+002
1.112682e+003, 5.941346e+002
1.113164e+003, 5.920930e+002
1.113647e+003, 5.913680e+002
1.114129e+003, 5.936540e+002
1.114611e+003, 5.944307e+002
1.115093e+003, 5.923447e+002
1.115575e+003, 5.901340e+002
1.116057e+003, 5.886049e+002
1.116539e+003, 5.878582e+002
1.117021e+003, 5.882737e+002
1.117504e+003, 5.896501e+002
1.117986e+003, 5.905103e+002
1.118468e+003, 5.908461e+002
1.118950e+003, 5.906508e+002
1.119432e+003, 5.897390e+002
1.119914e+003, 5.886308e+002
1.120396e+003, 5.873173e+002
1.120878e+003, 5.860986e+002
1.121360e+003, 5.850646e+002
1.121843e+003, 5.844472e+002
1.122325e+003, 5.851827e+002
1.122807e+003, 5.878373e+002
1.123289e+003, 5.881340e+002
1.123771e+003, 5.850593e+002
1.124253e+003, 5.832076e+002
1.124735e+003, 5.839326e+002
1.125217e+003, 5.849065e+002
1.125699e+003, 5.846683e+002
1.126182e+003, 5.837697e+002
1.126664e+003, 5.831125e+002
1.127146e+003, 5.826925e+002
1.127628e+003, 5.824476e+002
1.128110e+003, 5.823915e+002
1.128592e+003, 5.824053e+002
1.129074e+003, 5.824904e+002
1.129556e+003, 5.825213e+002
1.130039e+003, 5.824542e+002
1.130521e+003, 5.821685e+002
1.131003e+003, 5.813881e+002
1.131485e+003, 5.804894e+002
1.131967e+003, 5.811351e+002
1.132449e+003, 5.831835e+002
1.132931e+003, 5.840665e+002
1.133413e+003, 5.836569e+002
1.133896e+003, 5.826541e+002
1.134378e+003, 5.812762e+002
1.134860e+003, 5.805432e+002
1.135342e+003, 5.813721e+002
1.135824e+003, 5.826543e+002
1.136306e+003, 5.822203e+002
1.136788e+003, 5.805366e+002
1.137270e+003, 5.791805e+002
1.137752e+003, 5.782432e+002
1.138234e+003, 5.782623e+002
1.138717e+003, 5.791551e+002
1.139199e+003, 5.795953e+002
1.139681e+003, 5.789019e+002
1.140163e+003, 5.780717e+002
1.140645e+003, 5.783948e+002
1.141127e+003, 5.791569e+002
1.141609e+003, 5.790316e+002
1.142091e+003, 5.783297e+002
1.142574e+003, 5.774848e+002
1.143056e+003, 5.767396e+002
1.143538e+003, 5.768535e+002
1.144020e+003, 5.778967e+002
1.144502e+003, 5.783851e+002
1.144984e+003, 5.770016e+002
1.145466e+003, 5.752761e+002
1.145948e+003, 5.747986e+002
1.146431e+003, 5.749115e+002
1.146913e+003, 5.748035e+002
1.147395e+003, 5.746381e+002
1.147877e+003, 5.748567e+002
1.148359e+003, 5.754592e+002
1.148841e+003, 5.762222e+002
1.149323e+003, 5.771948e+002
1.149805e+003, 5.774294e+002
1.150287e+003, 5.757372e+002
1.150770e+003, 5.737623e+002
1.151252e+003, 5.723939e+002
1.151734e+003, 5.716130e+002
1.152216e+003, 5.715508e+002
1.152698e+003, 5.719685e+002
1.153180e+003, 5.724565e+002
1.153662e+003, 5.729268e+002
1.154144e+003, 5.731761e+002
1.154626e+003, 5.731837e+002
1.155109e+003, 5.729003e+002
1.155591e+003, 5.716675e+002
1.156073e+003, 5.708486e+002
1.156555e+003, 5.718320e+002
1.157037e+003, 5.733755e+002
1.157519e+003, 5.738506e+002
1.158001e+003, 5.732852e+002
1.158483e+003, 5.726404e+002
1.158966e+003, 5.718530e+002
1.159448e+003, 5.713098e+002
1.159930e+003, 5.712000e+002
1.160412e+003, 5.711016e+002
1.160894e+003, 5.706724e+002
1.161376e+003, 5.704869e+002
1.161858e+003, 5.712980e+002
1.162340e+003, 5.724604e+002
1.162822e+003, 5.724685e+002
1.163305e+003, 5.711666e+002
1.163787e+003, 5.704319e+002
1.164269e+003, 5.705941e+002
1.164751e+003, 5.702799e+002
1.165233e+003, 5.690111e+002
1.165715e+003, 5.681669e+002
1.166197e+003, 5.684896e+002
1.166679e+003, 5.693189e+002
1.167161e+003, 5.699958e+002
1.167644e+003, 5.704010e+002
1.168126e+003, 5.699330e+002
1.168608e+003, 5.685566e+002
1.169090e+003, 5.672604e+002
1.169572e+003, 5.660755e+002
1.170054e+003, 5.655551e+002
1.170536e+003, 5.658607e+002
1.171018e+003, 5.664822e+002
1.171500e+003, 5.670986e+002
1.171983e+003, 5.676332e+002
1.172465e+003, 5.679835e+002
1.172947e+003, 5.681469e+002
1.173429e+003, 5.682074e+002
1.173911e+003, 5.680693e+002
1.174393e+003, 5.670230e+002
1.174875e+003, 5.653041e+002
1.175357e+003, 5.645580e+002
1.175840e+003, 5.653336e+002
1.176322e+003, 5.663027e+002
1.176804e+003, 5.663983e+002
1.177286e+003, 5.660818e+002
1.177768e+003, 5.658512e+002
1.178250e+003, 5.656295e+002
1.178732e+003, 5.652885e+002
1.179214e+003, 5.648728e+002
1.179697e+003, 5.644303e+002
1.180179e+003, 5.640106e+002
1.180661e+003, 5.637518e+002
1.181143e+003, 5.637169e+002
1.181625e+003, 5.637814e+002
1.182107e+003, 5.639023e+002
1.182589e+003, 5.640558e+002
1.183071e+003, 5.643562e+002
1.183553e+003, 5.645628e+002
1.184036e+003, 5.646526e+002
1.184518e+003, 5.643888e+002
1.185000e+003, 5.631010e+002
1.185482e+003, 5.607966e+002
1.185964e+003, 5.592079e+002
1.186446e+003, 5.590295e+002
1.186928e+003, 5.590972e+002
1.187410e+003, 5.595786e+002
1.187892e+003, 5.598282e+002
1.188375e+003, 5.594573e+002
1.188857e+003, 5.588386e+002
1.189339e+003, 5.581791e+002
1.189821e+003, 5.575844e+002
1.190303e+003, 5.573331e+002
1.190785e+003, 5.573801e+002
1.191267e+003, 5.581592e+002
1.191749e+003, 5.602902e+002
1.192232e+003, 5.613339e+002
1.192714e+003, 5.606378e+002
1.193196e+003, 5.595115e+002
1.193678e+003, 5.584341e+002
1.194160e+003, 5.577682e+002
1.194642e+003, 5.580892e+002
1.195124e+003, 5.590393e+002
1.195606e+003, 5.591650e+002
1.196089e+003, 5.584972e+002
1.196571e+003, 5.578119e+002
1.197053e+003, 5.571671e+002
1.197535e+003, 5.570772e+002
1.198017e+003, 5.576224e+002
1.198499e+003, 5.577618e+002
1.198981e+003, 5.568192e+002
1.199463e+003, 5.556193e+002
1.199945e+003, 5.554240e+002
1.200427e+003, 5.556187e+002
1.200910e+003, 5.547611e+002
1.201392e+003, 5.534074e+002
1.201874e+003, 5.528314e+002
1.202356e+003, 5.529199e+002
1.202838e+003, 5.527879e+002
1.203320e+003, 5.522844e+002
1.203802e+003, 5.523049e+002
1.204284e+003, 5.536288e+002
1.204767e+003, 5.548377e+002
1.205249e+003, 5.548443e+002
1.205731e+003, 5.543039e+002
1.206213e+003, 5.534471e+002
1.206695e+003, 5.525958e+002
1.207177e+003, 5.521077e+002
1.207659e+003, 5.519193e+002
1.208141e+003, 5.517590e+002
1.208624e+003, 5.515682e+002
1.209106e+003, 5.515412e+002
1.209588e+003, 5.518982e+002
1.210070e+003, 5.521633e+002
1.210552e+003, 5.521790e+002
1.211034e+003, 5.521498e+002
1.211516e+003, 5.522552e+002
1.211998e+003, 5.522903e+002
1.212480e+003, 5.520095e+002
1.212963e+003, 5.514865e+002
1.213445e+003, 5.510150e+002
1.213927e+003, 5.506024e+002
1.214409e+003, 5.501403e+002
1.214891e+003, 5.495361e+002
1.215373e+003, 5.492894e+002
1.215855e+003, 5.495859e+002
1.216337e+003, 5.498498e+002
1.216819e+003, 5.498292e+002
1.217302e+003, 5.493309e+002
1.217784e+003, 5.479621e+002
1.218266e+003, 5.461942e+002
1.218748e+003, 5.455480e+002
1.219230e+003, 5.458392e+002
1.219712e+003, 5.463161e+002
1.220194e+003, 5.468224e+002
1.220676e+003, 5.467819e+002
1.221159e+003, 5.461282e+002
1.221641e+003, 5.452138e+002
1.222123e+003, 5.441993e+002
1.222605e+003, 5.436711e+002
1.223087e+003, 5.447667e+002
1.223569e+003, 5.460973e+002
1.224051e+003, 5.457755e+002
1.224533e+003, 5.449362e+002
1.225016e+003, 5.450976e+002
1.225498e+003, 5.459233e+002
1.225980e+003, 5.465692e+002
1.226462e+003, 5.468635e+002
1.226944e+003, 5.470030e+002
1.227426e+003, 5.470988e+002
1.227908e+003, 5.468812e+002
1.228390e+003, 5.455853e+002
1.228872e+003, 5.448320e+002
1.229354e+003, 5.461191e+002
1.229837e+003, 5.474100e+002
1.230319e+003, 5.467507e+002
1.230801e+003, 5.451795e+002
1.231283e+003, 5.446058e+002
1.231765e+003, 5.450035e+002
1.232247e+003, 5.454174e+002
1.232729e+003, 5.459459e+002
1.233211e+003, 5.462275e+002
1.233694e+003, 5.462903e+002
1.234176e+003, 5.459193e+002
1.234658e+003, 5.449665e+002
1.235140e+003, 5.439084e+002
1.235622e+003, 5.430369e+002
1.236104e+003, 5.424792e+002
1.236586e+003, 5.426160e+002
1.237068e+003, 5.431686e+002
1.237551e+003, 5.429230e+002
1.238033e+003, 5.420250e+002
1.238515e+003, 5.408879e+002
1.238997e+003, 5.397253e+002
1.239479e+003, 5.392842e+002
1.239961e+003, 5.396967e+002
1.240443e+003, 5.402488e+002
1.240925e+003, 5.405291e+002
1.241407e+003, 5.405927e+002
1.241890e+003, 5.403805e+002
1.242372e+003, 5.400989e+002
1.242854e+003, 5.400121e+002
1.243336e+003, 5.399288e+002
1.243818e+003, 5.393969e+002
1.244300e+003, 5.387504e+002
1.244782e+003, 5.388886e+002
1.245264e+003, 5.398666e+002
1.245746e+003, 5.403683e+002
1.246229e+003, 5.396592e+002
1.246711e+003, 5.391830e+002
1.247193e+003, 5.393938e+002
1.247675e+003, 5.395848e+002
1.248157e+003, 5.395089e+002
1.248639e+003, 5.393386e+002
1.249121e+003, 5.391558e+002
1.249603e+003, 5.389969e+002
1.250085e+003, 5.389773e+002
1.250568e+003, 5.390659e+002
1.251050e+003, 5.386311e+002
1.251532e+003, 5.375574e+002
1.252014e+003, 5.372816e+002
1.252496e+003, 5.379362e+002
1.252978e+003, 5.387465e+002
1.253460e+003, 5.394758e+002
1.253942e+003, 5.395424e+002
1.254425e+003, 5.384843e+002
1.254907e+003, 5.372361e+002
1.255389e+003, 5.371371e+002
1.255871e+003, 5.377231e+002
1.256353e+003, 5.383711e+002
1.256835e+003, 5.389189e+002
1.257317e+003, 5.389146e+002
1.257799e+003, 5.385746e+002
1.258281e+003, 5.385412e+002
1.258764e+003, 5.388738e+002
1.259246e+003, 5.389984e+002
1.259728e+003, 5.385975e+002
1.260210e+003, 5.382592e+002
1.260692e+003, 5.385753e+002
1.261174e+003, 5.386022e+002
1.261656e+003, 5.371575e+002
1.262138e+003, 5.359986e+002
1.262620e+003, 5.371477e+002
1.263103e+003, 5.390731e+002
1.263585e+003, 5.390344e+002
1.264067e+003, 5.373349e+002
1.264549e+003, 5.366808e+002
1.265031e+003, 5.373840e+002
1.265513e+003, 5.380848e+002
1.265995e+003, 5.388065e+002
1.266477e+003, 5.394002e+002
1.266960e+003, 5.398712e+002
1.267442e+003, 5.398260e+002
1.267924e+003, 5.389846e+002
1.268406e+003, 5.380887e+002
1.268888e+003, 5.380511e+002
1.269370e+003, 5.385379e+002
1.269852e+003, 5.388904e+002
1.270334e+003, 5.390989e+002
1.270817e+003, 5.391988e+002
1.271299e+003, 5.391154e+002
1.271781e+003, 5.384368e+002
1.272263e+003, 5.373552e+002
1.272745e+003, 5.368318e+002
1.273227e+003, 5.372378e+002
1.273709e+003, 5.376674e+002
1.274191e+003, 5.375745e+002
1.274673e+003, 5.373856e+002
1.275156e+003, 5.369205e+002
1.275638e+003, 5.368755e+002
1.276120e+003, 5.383222e+002
1.276602e+003, 5.399572e+002
1.277084e+003, 5.402365e+002
1.277566e+003, 5.394386e+002
1.278048e+003, 5.386187e+002
1.278530e+003, 5.377255e+002
1.279012e+003, 5.373807e+002
1.279495e+003, 5.377443e+002
1.279977e+003, 5.379866e+002
1.280459e+003, 5.380391e+002
1.280941e+003, 5.379918e+002
1.281423e+003, 5.378554e+002
1.281905e+003, 5.377821e+002
1.282387e+003, 5.378953e+002
1.282869e+003, 5.381393e+002
1.283352e+003, 5.384711e+002
1.283834e+003, 5.387772e+002
1.284316e+003, 5.387733e+002
1.284798e+003, 5.384852e+002
##END=



