##NAMES=Paakkonenite
##RRUFFID=R090073
##IDEAL CHEMISTRY=Sb_2_AsS_2_
##LOCALITY=Damingshan Mountain area, Defeng, Shanglin County, Guangxi Province, China
##OWNER=RRUFF
##SOURCE=William W. Pinch
##DESCRIPTION=Silvery-gray metallic, elongated but platy, crystals in spherical aggregates associated with dolomite and kermesite
##STATUS=The identification of this mineral has been confirmed by single-crystal X-ray diffraction.
##URL=rruff.info/R090073
91.18097, 0.0000000E+00
91.66309, 33.67453
92.14520, 33.92250
92.62732, 34.20350
93.10944, 34.28516
93.59155, 34.14215
94.07367, 33.71852
94.55579, 33.06695
95.03790, 32.42904
95.52002, 32.11047
96.00214, 32.25254
96.48425, 32.05172
96.96637, 31.03002
97.44849, 29.91639
97.93060, 29.19026
98.41272, 28.98628
98.89484, 29.11597
99.37695, 29.24409
99.85907, 29.62207
100.3412, 29.67674
100.8233, 29.15482
101.3054, 28.32998
101.7875, 27.53465
102.2697, 26.95072
102.7518, 26.57648
103.2339, 26.52106
103.7160, 27.12454
104.1981, 27.62590
104.6802, 27.60178
105.1624, 27.10918
105.6445, 26.59003
106.1266, 26.46045
106.6087, 26.71876
107.0908, 26.80486
107.5729, 26.68643
108.0551, 26.38069
108.5372, 25.77402
109.0193, 24.69410
109.5014, 23.79882
109.9835, 23.91013
110.4656, 24.79319
110.9478, 25.59866
111.4299, 25.75240
111.9120, 25.35656
112.3941, 25.22788
112.8762, 25.76348
113.3583, 26.33772
113.8405, 26.56108
114.3226, 26.42830
114.8047, 26.19280
115.2868, 26.18633
115.7689, 26.57326
116.2510, 26.68859
116.7332, 26.40036
117.2153, 25.91824
117.6974, 25.28686
118.1795, 24.54174
118.6616, 23.80816
119.1437, 23.38357
119.6259, 23.65407
120.1080, 23.79450
120.5901, 23.72496
121.0722, 23.52225
121.5543, 23.27918
122.0364, 23.04262
122.5186, 22.80660
123.0007, 22.54003
123.4828, 22.27497
123.9649, 21.95633
124.4470, 21.41813
124.9291, 20.75538
125.4113, 20.36003
125.8934, 20.59583
126.3755, 21.32866
126.8576, 21.76927
127.3397, 21.65358
127.8218, 21.38937
128.3040, 21.39484
128.7861, 21.72423
129.2682, 22.04566
129.7503, 22.10620
130.2324, 21.99749
130.7145, 21.83787
131.1967, 21.63041
131.6788, 21.40525
132.1609, 21.25031
132.6430, 21.15448
133.1251, 21.16024
133.6072, 21.34740
134.0894, 21.64331
134.5715, 21.88836
135.0536, 21.94034
135.5357, 21.78148
136.0178, 21.65981
136.4999, 21.69620
136.9821, 21.66906
137.4642, 21.47105
137.9463, 21.11382
138.4284, 20.68640
138.9105, 20.26163
139.3926, 19.73551
139.8748, 19.53267
140.3569, 19.80389
140.8390, 20.22624
141.3211, 20.60278
141.8032, 20.87913
142.2853, 21.11335
142.7675, 21.40849
143.2496, 21.90765
143.7317, 22.17994
144.2138, 22.01057
144.6959, 21.65940
145.1780, 21.46063
145.6602, 21.54310
146.1423, 21.79316
146.6244, 21.98922
147.1065, 22.13704
147.5886, 22.24249
148.0707, 22.23236
148.5529, 22.16101
149.0350, 22.24274
149.5171, 22.66627
149.9992, 23.20213
150.4813, 23.51426
150.9634, 23.57939
151.4456, 23.46942
151.9277, 23.15553
152.4098, 22.60471
152.8919, 22.18390
153.3740, 22.06933
153.8561, 22.14768
154.3383, 22.36582
154.8204, 22.71937
155.3025, 23.17689
155.7846, 23.70980
156.2667, 24.37313
156.7488, 24.98503
157.2310, 25.65609
157.7131, 26.20780
158.1952, 26.37464
158.6773, 25.97454
159.1594, 25.23840
159.6415, 25.06968
160.1237, 26.21162
160.6058, 27.07642
161.0879, 27.25356
161.5700, 27.01991
162.0521, 26.76060
162.5342, 26.71553
163.0164, 26.87464
163.4985, 27.08951
163.9806, 27.44806
164.4627, 27.76936
164.9448, 27.95614
165.4269, 28.05672
165.9091, 28.19319
166.3912, 28.46689
166.8733, 28.88152
167.3554, 29.24229
167.8375, 29.53433
168.3196, 29.79718
168.8018, 30.02832
169.2839, 30.23725
169.7660, 30.46739
170.2481, 30.73966
170.7302, 31.06728
171.2123, 31.50649
171.6945, 31.99657
172.1766, 32.63337
172.6587, 33.60246
173.1408, 34.96343
173.6229, 36.32092
174.1050, 37.18268
174.5872, 37.73539
175.0693, 38.49601
175.5514, 39.80906
176.0335, 41.40831
176.5156, 42.74467
176.9977, 43.73196
177.4799, 44.57390
177.9620, 45.32878
178.4441, 46.05189
178.9262, 46.88292
179.4083, 48.06165
179.8904, 49.49893
180.3726, 50.47520
180.8547, 50.37025
181.3368, 50.53374
181.8189, 51.74657
182.3010, 53.77000
182.7831, 55.89528
183.2653, 57.55716
183.7474, 58.72543
184.2295, 59.88801
184.7116, 61.09410
185.1937, 62.25188
185.6758, 63.40837
186.1580, 64.50576
186.6401, 65.38943
187.1222, 65.85898
187.6043, 65.78580
188.0864, 65.85248
188.5685, 66.11452
189.0507, 66.44727
189.5328, 66.97624
190.0149, 67.60249
190.4970, 67.93515
190.9791, 67.42278
191.4612, 65.48943
191.9434, 64.56237
192.4255, 65.54819
192.9076, 66.75423
193.3897, 67.03911
193.8718, 66.21761
194.3539, 64.86974
194.8361, 63.70374
195.3182, 62.83014
195.8003, 61.83638
196.2824, 60.54823
196.7645, 59.23328
197.2466, 58.18691
197.7288, 57.47906
198.2109, 56.87423
198.6930, 56.02078
199.1751, 54.85976
199.6572, 53.87837
200.1393, 53.18759
200.6215, 52.71285
201.1036, 52.46981
201.5857, 52.56681
202.0678, 52.52599
202.5499, 51.58586
203.0320, 49.84432
203.5142, 48.04277
203.9963, 46.27807
204.4784, 44.63978
204.9605, 43.43623
205.4426, 42.93692
205.9247, 42.50642
206.4069, 41.40674
206.8890, 39.72923
207.3711, 38.19157
207.8532, 37.19089
208.3353, 36.66480
208.8174, 36.34539
209.2996, 36.31642
209.7817, 36.35688
210.2638, 36.32885
210.7459, 36.23083
211.2280, 36.07387
211.7101, 35.78057
212.1923, 35.36058
212.6744, 35.20427
213.1565, 35.84503
213.6386, 36.26910
214.1207, 35.70872
214.6028, 34.35764
215.0850, 33.09841
215.5671, 32.87590
216.0492, 33.85127
216.5313, 34.53931
217.0134, 34.81142
217.4955, 34.86383
217.9777, 34.66196
218.4598, 34.26845
218.9419, 33.85289
219.4240, 33.63372
219.9061, 33.70942
220.3882, 33.47489
220.8704, 32.37833
221.3525, 31.45622
221.8346, 31.35001
222.3167, 31.94508
222.7988, 32.59361
223.2809, 32.57985
223.7631, 31.67490
224.2452, 31.07243
224.7273, 30.75273
225.2094, 30.68537
225.6915, 31.05129
226.1736, 31.73731
226.6558, 32.32860
227.1379, 32.35130
227.6200, 31.60429
228.1021, 31.18965
228.5842, 31.56470
229.0663, 31.84555
229.5485, 31.30784
230.0306, 30.04099
230.5127, 28.83873
230.9948, 28.53769
231.4769, 29.36390
231.9590, 29.90598
232.4412, 30.16685
232.9233, 30.17734
233.4054, 29.80353
233.8875, 29.10380
234.3696, 28.45781
234.8517, 28.23786
235.3339, 28.50729
235.8160, 28.73953
236.2981, 28.98538
236.7802, 29.15989
237.2623, 29.22548
237.7444, 29.17292
238.2266, 28.94813
238.7087, 28.43835
239.1908, 27.65887
239.6729, 27.03389
240.1550, 26.81503
240.6371, 26.60058
241.1193, 25.88053
241.6014, 24.63946
242.0835, 23.66740
242.5656, 23.79077
243.0477, 24.71390
243.5298, 25.13267
244.0120, 24.43584
244.4941, 23.49151
244.9762, 23.20463
245.4583, 23.61905
245.9404, 23.98369
246.4225, 23.70090
246.9047, 23.03606
247.3868, 22.58166
247.8689, 22.59257
248.3510, 22.70157
248.8331, 22.43184
249.3152, 21.73054
249.7974, 21.17457
250.2795, 21.21645
250.7616, 21.55103
251.2437, 21.77666
251.7258, 21.82867
252.2079, 21.73126
252.6901, 21.50102
253.1722, 21.13532
253.6543, 20.66606
254.1364, 19.93914
254.6185, 19.19347
255.1006, 18.68941
255.5828, 18.53109
256.0649, 18.49473
256.5470, 18.29943
257.0291, 17.91180
257.5112, 17.57461
257.9933, 17.36501
258.4755, 17.24663
258.9576, 17.24449
259.4397, 17.37873
259.9218, 17.49463
260.4039, 17.41496
260.8860, 17.12669
261.3682, 16.71888
261.8503, 16.01509
262.3324, 15.31599
262.8145, 14.72463
263.2966, 14.27282
263.7787, 14.11367
264.2609, 14.61546
264.7430, 15.98805
265.2251, 16.84251
265.7072, 16.59401
266.1893, 16.02873
266.6714, 15.35623
267.1536, 14.67240
267.6357, 14.20413
268.1178, 14.32093
268.5999, 15.17958
269.0820, 15.69648
269.5641, 15.39002
270.0463, 15.06681
270.5284, 15.14994
271.0105, 15.58567
271.4926, 15.99433
271.9747, 15.97261
272.4568, 15.45495
272.9390, 15.08368
273.4211, 14.99754
273.9032, 14.94588
274.3853, 14.77333
274.8674, 14.54870
275.3495, 14.49409
275.8317, 14.87901
276.3138, 15.71411
276.7959, 16.07299
277.2780, 15.14281
277.7601, 14.48996
278.2422, 14.76279
278.7244, 15.62620
279.2065, 16.37683
279.6886, 16.50519
280.1707, 16.08152
280.6528, 15.83523
281.1349, 15.97582
281.6171, 16.08530
282.0992, 15.93288
282.5813, 15.72722
283.0634, 15.86761
283.5455, 16.63399
284.0276, 17.77933
284.5098, 18.15833
284.9919, 16.77692
285.4740, 15.80879
285.9561, 15.78746
286.4382, 16.22393
286.9203, 16.53915
287.4025, 16.46730
287.8846, 16.16154
288.3667, 16.02419
288.8488, 16.12242
289.3309, 16.32041
289.8130, 16.66150
290.2952, 17.06296
290.7773, 17.50081
291.2594, 17.95173
291.7415, 18.32749
292.2236, 18.45133
292.7057, 18.11619
293.1879, 17.86049
293.6700, 17.58274
294.1521, 17.43725
294.6342, 17.62104
295.1163, 18.13256
295.5984, 18.72807
296.0806, 19.08531
296.5627, 19.12078
297.0448, 19.13883
297.5269, 18.99969
298.0090, 18.95607
298.4911, 19.17966
298.9733, 19.66098
299.4554, 20.28094
299.9375, 20.95244
300.4196, 21.72326
300.9017, 22.21124
301.3839, 22.33602
301.8660, 22.31421
302.3481, 22.05572
302.8302, 21.70389
303.3123, 21.61929
303.7944, 22.13025
304.2766, 23.20553
304.7587, 23.75205
305.2408, 23.31757
305.7229, 22.88552
306.2050, 22.69517
306.6871, 22.68791
307.1693, 22.70884
307.6514, 22.66192
308.1335, 22.60433
308.6156, 22.79629
309.0977, 23.77829
309.5798, 24.37816
310.0620, 24.17373
310.5441, 23.62835
311.0262, 23.37239
311.5083, 23.65723
311.9904, 24.16551
312.4725, 24.18520
312.9547, 23.01598
313.4368, 22.30618
313.9189, 22.32064
314.4010, 22.61717
314.8831, 22.91699
315.3652, 23.11241
315.8474, 23.10526
316.3295, 22.72485
316.8116, 21.73956
317.2937, 20.97794
317.7758, 20.52431
318.2579, 20.19226
318.7401, 19.93410
319.2222, 19.70731
319.7043, 19.42138
320.1864, 18.97727
320.6685, 18.34924
321.1506, 17.77900
321.6328, 17.10407
322.1149, 16.63262
322.5970, 16.55696
323.0791, 16.79020
323.5612, 17.14398
324.0433, 17.51606
324.5255, 17.88230
325.0076, 17.98093
325.4897, 17.58619
325.9718, 17.17853
326.4539, 16.81461
326.9360, 16.49630
327.4182, 16.21940
327.9003, 15.98130
328.3824, 15.77078
328.8645, 15.55154
329.3466, 15.21404
329.8287, 15.02576
330.3109, 15.22401
330.7930, 15.44932
331.2751, 15.26663
331.7572, 14.59184
332.2393, 13.82420
332.7214, 13.61500
333.2036, 14.33767
333.6857, 14.76597
334.1678, 14.96027
334.6499, 14.87528
335.1320, 14.29791
335.6141, 13.33746
336.0963, 12.42729
336.5784, 12.02118
337.0605, 12.18280
337.5426, 12.29427
338.0247, 12.41602
338.5068, 12.43058
338.9890, 12.32609
339.4711, 12.08058
339.9532, 11.59501
340.4353, 10.74236
340.9174, 9.657447
341.3995, 9.212873
341.8817, 10.17428
342.3638, 10.88457
342.8459, 10.88729
343.3280, 10.58712
343.8101, 10.50062
344.2922, 10.84762
344.7744, 11.40134
345.2565, 11.67322
345.7386, 11.56598
346.2207, 11.34206
346.7028, 10.90991
347.1849, 10.46767
347.6671, 10.17708
348.1492, 10.05584
348.6313, 9.995910
349.1134, 9.838743
349.5955, 9.523464
350.0776, 9.385032
350.5598, 9.701058
351.0419, 9.948332
351.5240, 9.832494
352.0061, 9.447053
352.4882, 9.086964
352.9703, 8.968908
353.4525, 9.078968
353.9346, 9.296385
354.4167, 9.771997
354.8988, 10.15051
355.3809, 10.37776
355.8630, 10.44293
356.3452, 10.29120
356.8273, 9.865202
357.3094, 9.325415
357.7915, 9.030070
358.2736, 9.052068
358.7557, 9.139163
359.2379, 9.289368
359.7200, 9.444538
360.2021, 9.579480
360.6842, 9.685525
361.1663, 9.724381
361.6484, 9.633677
362.1306, 9.402521
362.6127, 9.159432
363.0948, 8.691352
363.5769, 8.453868
364.0590, 8.944449
364.5411, 9.960386
365.0233, 10.70669
365.5054, 10.41847
365.9875, 9.378387
366.4696, 8.867316
366.9517, 9.146353
367.4338, 9.448044
367.9160, 9.252131
368.3981, 8.851101
368.8802, 8.713181
369.3623, 9.115970
369.8444, 9.686432
370.3265, 9.813766
370.8087, 9.430445
371.2908, 9.218429
371.7729, 9.754017
372.2550, 10.36486
372.7371, 10.21652
373.2192, 9.117419
373.7014, 8.072148
374.1835, 7.945167
374.6656, 8.541156
375.1477, 8.961038
375.6298, 8.967673
376.1119, 8.858079
376.5941, 8.960378
377.0762, 9.228383
377.5583, 9.388864
378.0404, 9.232654
378.5225, 8.955073
379.0046, 8.834457
379.4868, 8.892425
379.9689, 9.059199
380.4510, 9.399024
380.9331, 9.799774
381.4152, 9.936758
381.8973, 9.697308
382.3795, 9.288695
382.8616, 8.735780
383.3437, 8.095432
383.8258, 7.571792
384.3079, 7.204371
384.7900, 7.060180
385.2722, 7.401263
385.7543, 8.429605
386.2364, 9.126683
386.7185, 8.967123
387.2006, 8.421419
387.6827, 8.131986
388.1649, 8.228343
388.6470, 8.340796
389.1291, 7.990209
389.6112, 7.074941
390.0933, 6.843775
390.5754, 8.127357
391.0576, 9.354124
391.5397, 9.459219
392.0218, 8.642733
392.5039, 7.688706
392.9860, 7.016935
393.4681, 6.651880
393.9503, 6.752556
394.4324, 7.894707
394.9145, 8.749563
395.3966, 9.015909
395.8787, 8.938788
396.3608, 8.734303
396.8430, 8.486080
397.3251, 8.297294
397.8072, 8.346612
398.2893, 8.807817
398.7714, 9.029770
399.2535, 9.065837
399.7357, 8.859552
400.2178, 8.022600
400.6999, 6.846472
401.1820, 6.231956
401.6641, 7.009000
402.1462, 9.003499
402.6284, 9.971088
403.1105, 8.786465
403.5926, 7.855754
404.0747, 7.780712
404.5568, 8.110387
405.0389, 8.309515
405.5211, 8.169395
406.0032, 7.832520
406.4853, 7.517243
406.9674, 7.180741
407.4495, 6.994384
407.9316, 7.130970
408.4138, 7.296008
408.8959, 7.285858
409.3780, 7.128807
409.8601, 7.035072
410.3422, 7.275797
410.8243, 7.775532
411.3065, 7.873044
411.7886, 7.267423
412.2707, 6.769789
412.7528, 6.797652
413.2349, 7.125933
413.7170, 7.474149
414.1992, 7.794065
414.6813, 7.984631
415.1634, 7.836857
415.6455, 7.329667
416.1276, 6.899504
416.6097, 6.729796
417.0919, 6.642944
417.5740, 6.395566
418.0561, 5.978944
418.5382, 5.721307
419.0203, 5.843328
419.5024, 6.242345
419.9846, 6.790880
420.4667, 7.546507
420.9488, 8.106084
421.4309, 7.981047
421.9130, 7.367465
422.3951, 7.004419
422.8773, 7.149393
423.3594, 7.414079
423.8415, 7.584504
424.3236, 7.659627
424.8057, 7.617751
425.2878, 7.418916
425.7700, 7.154591
426.2521, 7.028836
426.7342, 7.083845
427.2163, 7.128366
427.6984, 7.037126
428.1805, 6.971913
428.6627, 7.261186
429.1448, 7.886075
429.6269, 8.245112
430.1090, 7.671987
430.5911, 6.075796
431.0732, 5.373870
431.5554, 6.333300
432.0375, 7.153594
432.5196, 7.018203
433.0017, 6.369011
433.4838, 5.997837
433.9659, 6.274426
434.4481, 6.934215
434.9302, 7.426018
435.4123, 7.834840
435.8944, 7.880196
436.3765, 7.299772
436.8586, 6.612103
437.3408, 6.072158
437.8229, 5.743113
438.3050, 5.643485
438.7871, 5.842010
439.2692, 6.314430
439.7513, 6.622457
440.2335, 6.613659
440.7156, 6.655974
441.1977, 6.917447
441.6798, 7.264566
442.1619, 7.573505
442.6440, 7.819701
443.1262, 7.880288
443.6083, 7.468208
444.0904, 6.525865
444.5725, 5.827996
445.0546, 5.585483
445.5367, 5.584541
446.0189, 5.728477
446.5010, 5.981722
446.9831, 6.177119
447.4652, 6.138744
447.9473, 6.012842
448.4294, 6.099096
448.9116, 6.427679
449.3937, 6.774433
449.8758, 7.063256
450.3579, 7.258291
450.8400, 7.305552
451.3221, 7.178885
451.8043, 6.953650
452.2864, 6.629241
452.7685, 6.238806
453.2506, 5.789129
453.7327, 5.251547
454.2148, 4.877992
454.6970, 5.018484
455.1791, 5.784669
455.6612, 6.391020
456.1433, 6.932037
456.6254, 7.220217
457.1075, 7.037544
457.5897, 6.496017
458.0718, 5.849157
458.5539, 5.195832
459.0360, 4.668655
459.5181, 4.682189
460.0002, 5.974675
460.4824, 6.837435
460.9645, 6.982975
461.4466, 6.874941
461.9287, 6.874551
462.4108, 7.027636
462.8929, 7.175552
463.3751, 7.180328
463.8572, 7.042204
464.3393, 6.712228
464.8214, 5.846646
465.3035, 5.219270
465.7856, 5.118277
466.2678, 5.331664
466.7499, 5.601346
467.2320, 5.835883
467.7141, 6.055911
468.1962, 6.329545
468.6783, 6.678542
469.1605, 6.840796
469.6426, 6.662344
470.1247, 6.400001
470.6068, 6.248013
471.0889, 6.178908
471.5710, 6.066817
472.0532, 5.796574
472.5353, 5.472055
473.0174, 5.214000
473.4995, 5.017250
473.9816, 5.051577
474.4637, 5.595109
474.9459, 6.279686
475.4280, 6.319291
475.9101, 5.443356
476.3922, 4.785850
476.8743, 4.879424
477.3564, 5.409067
477.8386, 6.059935
478.3207, 6.764069
478.8028, 7.191511
479.2849, 6.952461
479.7670, 6.041947
480.2491, 5.574262
480.7313, 5.888620
481.2134, 6.193708
481.6955, 6.217478
482.1776, 6.057650
482.6597, 5.849654
483.1418, 5.649211
483.6240, 5.492181
484.1061, 5.465364
484.5882, 5.683790
485.0703, 5.700796
485.5524, 5.249515
486.0345, 4.868422
486.5167, 4.917450
486.9988, 5.234629
487.4809, 5.405994
487.9630, 5.154212
488.4451, 4.667955
488.9272, 4.395103
489.4094, 4.325792
489.8915, 4.508116
490.3736, 5.288191
490.8557, 6.102901
491.3378, 6.584265
491.8199, 6.700865
492.3021, 6.621204
492.7842, 6.375337
493.2663, 6.023578
493.7484, 5.718055
494.2305, 5.472986
494.7126, 5.208994
495.1948, 4.773753
495.6769, 4.323212
496.1590, 4.245455
496.6411, 4.780732
497.1232, 5.258745
497.6053, 5.135820
498.0875, 4.801188
498.5696, 5.114342
499.0517, 6.271249
499.5338, 7.341707
500.0159, 7.210193
500.4980, 5.703704
500.9802, 5.039284
501.4623, 6.044107
501.9444, 6.879997
502.4265, 6.623487
502.9086, 5.776470
503.3907, 5.210266
503.8729, 5.272414
504.3550, 5.659657
504.8371, 5.876158
505.3192, 5.949213
505.8013, 5.770138
506.2834, 4.944434
506.7656, 4.245097
507.2477, 4.109423
507.7298, 4.372162
508.2119, 4.590103
508.6940, 4.478437
509.1761, 4.257094
509.6583, 4.426270
510.1404, 5.065914
510.6225, 5.641154
511.1046, 6.058306
511.5867, 6.293067
512.0688, 6.274889
512.5510, 6.016951
513.0331, 5.791222
513.5152, 5.779584
513.9973, 5.849886
514.4794, 5.806082
514.9615, 5.640666
515.4437, 5.448110
515.9258, 5.259385
516.4079, 5.095163
516.8900, 5.020219
517.3721, 5.031584
517.8542, 5.115307
518.3364, 5.465151
518.8185, 5.770439
519.3006, 5.552458
519.7827, 4.853263
520.2648, 4.293881
520.7469, 4.452580
521.2291, 5.264903
521.7112, 5.761730
522.1933, 5.726550
522.6754, 5.613669
523.1575, 5.351485
523.6396, 5.110697
524.1218, 5.094299
524.6039, 5.327911
525.0860, 5.617694
525.5681, 5.735358
526.0502, 5.685693
526.5323, 5.796272
527.0145, 6.314764
527.4966, 6.553149
527.9787, 5.858406
528.4608, 4.811157
528.9429, 4.262274
529.4250, 4.524202
529.9072, 4.934607
530.3893, 4.860075
530.8714, 4.484880
531.3535, 4.483452
531.8356, 5.055402
532.3177, 5.701363
532.7999, 5.997211
533.2820, 5.931942
533.7641, 5.707450
534.2462, 5.013828
534.7283, 4.494813
535.2104, 4.606372
535.6926, 5.054863
536.1747, 5.306150
536.6568, 5.185667
537.1389, 4.948021
537.6210, 4.951689
538.1031, 5.260965
538.5853, 5.530051
539.0674, 5.816619
539.5495, 6.003751
540.0316, 6.056901
540.5137, 5.982338
540.9958, 5.746131
541.4780, 5.323393
541.9601, 4.897528
542.4422, 4.790549
542.9243, 5.031770
543.4064, 5.172411
543.8885, 5.071363
544.3707, 4.971473
544.8528, 5.041575
545.3349, 5.238669
545.8170, 5.464468
546.2991, 5.799651
546.7813, 6.022129
547.2634, 5.822798
547.7455, 5.308630
548.2276, 4.877564
548.7097, 4.630746
549.1918, 4.598952
549.6740, 4.882922
550.1561, 5.577265
550.6382, 6.045295
551.1203, 6.216988
551.6024, 6.228354
552.0845, 6.134157
552.5667, 5.936411
553.0488, 5.563250
553.5309, 4.987173
554.0130, 4.405826
554.4951, 4.205648
554.9772, 4.534028
555.4594, 4.796292
555.9415, 4.996992
556.4236, 5.122814
556.9057, 5.129530
557.3878, 5.060030
557.8699, 4.981223
558.3521, 4.905259
558.8342, 4.882791
559.3163, 5.095433
559.7984, 5.522637
560.2805, 5.534243
560.7626, 4.706394
561.2448, 3.920400
561.7269, 4.346957
562.2090, 5.675615
562.6911, 6.439713
563.1732, 5.888396
563.6553, 5.147748
564.1375, 5.002412
564.6196, 5.238929
565.1017, 5.289769
565.5838, 4.951897
566.0659, 4.484952
566.5480, 4.246019
567.0302, 4.258515
567.5123, 4.401764
567.9944, 4.835992
568.4765, 5.209548
568.9586, 5.436962
569.4407, 5.505589
569.9229, 5.338508
570.4050, 4.909502
570.8871, 4.474808
571.3692, 4.465175
571.8513, 4.906880
572.3334, 5.185448
572.8156, 5.244774
573.2977, 5.145724
573.7798, 4.811915
574.2619, 4.374835
574.7440, 4.073302
575.2261, 3.959830
575.7083, 4.005835
576.1904, 4.267450
576.6725, 4.665120
577.1546, 5.047183
577.6367, 5.388467
578.1188, 5.575099
578.6010, 5.458204
579.0831, 5.038931
579.5652, 4.761957
580.0473, 4.787293
580.5294, 4.740031
581.0115, 4.358996
581.4937, 3.932765
581.9758, 3.848759
582.4579, 4.162759
582.9400, 4.564644
583.4221, 4.731169
583.9042, 4.671577
584.3864, 4.617440
584.8685, 4.535816
585.3506, 4.519795
585.8327, 4.672655
586.3148, 4.863681
586.7969, 4.934806
587.2791, 4.856733
587.7612, 4.809134
588.2433, 5.061128
588.7254, 5.381791
589.2075, 5.221583
589.6896, 4.539398
590.1718, 3.910562
590.6539, 3.672308
591.1360, 3.731489
591.6181, 3.828259
592.1002, 4.024823
592.5823, 4.132384
593.0645, 3.994241
593.5466, 3.858766
594.0287, 4.013436
594.5108, 4.376237
594.9929, 4.570576
595.4750, 4.316024
595.9572, 3.839316
596.4393, 3.901507
596.9214, 4.856807
597.4035, 5.364918
597.8856, 4.724490
598.3677, 4.005189
598.8499, 3.828429
599.3320, 4.097737
599.8141, 4.370335
600.2962, 4.517431
600.7783, 4.497715
601.2604, 4.099322
601.7426, 3.424030
602.2247, 3.090250
602.7068, 3.323048
603.1889, 3.826579
603.6710, 4.323453
604.1531, 4.832201
604.6353, 5.034247
605.1174, 4.822897
605.5995, 4.427964
606.0816, 3.645432
606.5637, 2.848591
607.0458, 2.650783
607.5280, 3.200490
608.0101, 4.026983
608.4922, 4.602318
608.9743, 4.922833
609.4564, 5.038972
609.9385, 4.874571
610.4207, 4.623424
610.9028, 4.255097
611.3849, 3.893776
611.8670, 3.700389
612.3491, 3.711855
612.8312, 3.757674
613.3134, 3.763791
613.7955, 3.716661
614.2776, 3.507306
614.7597, 3.142868
615.2418, 2.989694
615.7239, 3.312015
616.2061, 3.928931
616.6882, 4.342095
617.1703, 4.509490
617.6524, 4.551700
618.1345, 4.356159
618.6166, 4.138473
619.0988, 4.072603
619.5809, 4.111208
620.0630, 4.089379
620.5451, 3.910401
621.0272, 3.664218
621.5093, 3.546917
621.9915, 3.584438
622.4736, 3.552824
622.9557, 3.287623
623.4378, 3.130962
623.9199, 3.326046
624.4020, 3.793085
624.8842, 4.385157
625.3663, 5.362840
625.8484, 5.978559
626.3305, 5.286417
626.8126, 3.943214
627.2947, 3.395379
627.7769, 3.912282
628.2590, 4.546484
628.7411, 4.432775
629.2232, 3.647098
629.7053, 3.145330
630.1874, 3.000267
630.6696, 3.072546
631.1517, 3.620305
631.6338, 4.191196
632.1159, 4.313253
632.5980, 4.039946
633.0801, 3.867221
633.5623, 4.189663
634.0444, 4.809500
634.5265, 5.320033
635.0086, 5.730473
635.4907, 5.852006
635.9728, 5.505883
636.4550, 5.011068
636.9371, 4.785909
637.4192, 4.799081
637.9013, 4.681382
638.3834, 4.086069
638.8655, 3.639737
639.3477, 3.858929
639.8298, 4.441081
640.3119, 4.867809
640.7940, 4.979478
641.2761, 4.869307
641.7582, 4.602008
642.2404, 4.172678
642.7225, 3.952112
643.2046, 4.030661
643.6867, 4.187964
644.1688, 4.456778
644.6509, 4.712323
645.1331, 4.793169
645.6152, 4.692349
646.0973, 4.630681
646.5794, 4.826927
647.0615, 5.104610
647.5436, 5.163364
648.0258, 5.017133
648.5079, 4.870450
648.9900, 4.820557
649.4721, 4.777629
649.9542, 4.572988
650.4363, 4.103631
650.9185, 3.860523
651.4006, 4.105321
651.8827, 4.278344
652.3648, 3.967464
652.8469, 3.497602
653.3290, 3.443378
653.8112, 3.957587
654.2933, 4.517013
654.7754, 4.449078
655.2575, 3.840393
655.7396, 3.420085
656.2217, 3.183175
656.7039, 3.206840
657.1860, 3.811352
657.6681, 4.526562
658.1502, 4.470382
658.6323, 3.431685
659.1144, 2.792191
659.5966, 3.297504
660.0787, 4.075303
660.5608, 4.450992
661.0429, 4.465312
661.5250, 4.375859
662.0071, 4.296182
662.4893, 4.202184
662.9714, 4.047500
663.4535, 3.816661
663.9356, 3.604887
664.4177, 3.439328
664.8998, 3.255390
665.3820, 2.930463
665.8641, 2.618073
666.3462, 2.530764
666.8283, 2.719825
667.3104, 3.014697
667.7925, 3.427027
668.2747, 3.819453
668.7568, 3.859645
669.2389, 3.586467
669.7210, 3.556618
670.2031, 4.131850
670.6852, 4.896201
671.1674, 4.968238
671.6495, 3.972663
672.1316, 3.280985
672.6137, 2.990506
673.0958, 2.869598
673.5779, 2.859687
674.0601, 2.943342
674.5422, 3.155805
675.0243, 3.507879
675.5064, 3.806758
675.9885, 3.710531
676.4706, 3.386268
676.9528, 3.602726
677.4349, 4.496017
677.9170, 5.116731
678.3991, 4.922603
678.8812, 4.202737
679.3633, 3.510852
679.8455, 2.768502
680.3276, 2.290630
680.8097, 2.142044
681.2918, 2.231270
681.7739, 2.667176
682.2560, 3.263245
682.7382, 3.645225
683.2203, 3.679321
683.7024, 3.658639
684.1845, 4.115287
684.6666, 5.014462
685.1487, 5.207397
685.6309, 4.351651
686.1130, 3.689054
686.5951, 3.981656
687.0772, 4.709764
687.5593, 5.087433
688.0414, 5.061656
688.5236, 4.937473
689.0057, 4.675371
689.4878, 4.457654
689.9699, 4.533866
690.4520, 4.768796
690.9341, 4.791292
691.4163, 4.461274
691.8984, 4.022778
692.3805, 3.849940
692.8626, 3.973657
693.3447, 3.854669
693.8268, 3.319932
694.3090, 2.846004
694.7911, 2.495772
695.2732, 2.356103
695.7553, 2.662053
696.2374, 3.441435
696.7195, 3.979386
697.2017, 3.630902
697.6838, 3.152080
698.1659, 3.491878
698.6480, 4.374407
699.1301, 4.840398
699.6122, 4.542476
700.0944, 3.952569
700.5765, 3.678637
701.0586, 3.741246
701.5407, 3.783399
702.0228, 3.753702
702.5049, 3.781127
702.9871, 4.028224
703.4692, 4.252172
703.9513, 4.147563
704.4334, 3.733803
704.9155, 3.434084
705.3976, 3.558034
705.8798, 3.855808
706.3619, 4.123367
706.8440, 4.321940
707.3261, 4.230886
707.8082, 3.765446
708.2903, 3.381423
708.7725, 3.645357
709.2546, 4.545027
709.7367, 4.964543
710.2188, 4.413355
710.7009, 4.052521
711.1830, 4.372568
711.6652, 4.683188
712.1473, 4.175200
712.6294, 3.052873
713.1115, 2.452685
713.5936, 3.235757
714.0757, 4.451374
714.5579, 5.035229
715.0400, 5.072202
715.5221, 4.740301
716.0042, 4.050679
716.4863, 3.469779
716.9684, 3.418309
717.4506, 3.823016
717.9327, 4.181758
718.4148, 4.728175
718.8969, 4.870032
719.3790, 4.076413
719.8611, 3.323721
720.3433, 3.363007
720.8254, 3.979320
721.3075, 4.483226
721.7896, 4.557858
722.2717, 4.461617
722.7538, 4.503211
723.2360, 4.608063
723.7181, 4.463351
724.2002, 4.016621
724.6823, 3.700758
725.1644, 3.830857
725.6465, 4.250325
726.1287, 4.491359
726.6108, 4.483065
727.0929, 4.421433
727.5750, 4.041038
728.0571, 3.881649
728.5392, 4.573062
729.0214, 5.555809
729.5035, 5.805109
729.9856, 4.974238
730.4677, 3.959480
730.9498, 3.527725
731.4319, 3.533673
731.9141, 3.738886
732.3962, 4.112638
732.8783, 4.314096
733.3604, 4.168892
733.8425, 3.813934
734.3246, 3.430403
734.8068, 2.931200
735.2889, 2.801051
735.7710, 3.351662
736.2531, 3.864228
736.7352, 4.186890
737.2173, 4.327205
737.6995, 4.230931
738.1816, 3.928494
738.6637, 3.668737
739.1458, 3.599885
739.6279, 3.693421
740.1100, 4.011323
740.5922, 4.487751
741.0743, 4.727915
741.5564, 4.605301
742.0385, 4.301207
742.5206, 3.946244
743.0027, 3.555107
743.4849, 3.487041
743.9670, 4.147612
744.4491, 4.574296
744.9312, 4.454524
745.4133, 4.263246
745.8954, 4.448943
746.3776, 4.874897
746.8597, 5.032440
747.3418, 4.658640
747.8239, 4.043996
748.3060, 3.261108
748.7881, 2.502101
749.2703, 2.373435
749.7524, 2.926509
750.2345, 3.545242
750.7166, 3.856551
751.1987, 3.901643
751.6808, 3.758232
752.1630, 3.190039
752.6451, 2.981358
753.1272, 3.516544
753.6093, 3.995798
754.0914, 4.076135
754.5735, 3.933231
755.0557, 3.835325
755.5378, 3.843426
756.0199, 3.825206
756.5020, 3.607759
756.9841, 3.374757
757.4662, 3.445175
757.9484, 3.731609
758.4305, 3.824799
758.9126, 3.566226
759.3947, 3.286866
759.8768, 3.470504
760.3589, 4.125440
760.8411, 4.149755
761.3232, 2.879049
761.8053, 2.185711
762.2874, 3.129660
762.7695, 4.344355
763.2516, 4.759443
763.7338, 4.476751
764.2159, 4.301768
764.6980, 4.721893
765.1801, 5.039698
765.6622, 4.600102
766.1443, 3.852623
766.6265, 3.522144
767.1086, 3.653819
767.5907, 3.788799
768.0728, 3.610454
768.5549, 3.252165
769.0370, 3.001273
769.5192, 2.833672
770.0013, 2.979812
770.4834, 3.727624
770.9655, 4.318017
771.4476, 4.087282
771.9297, 3.499418
772.4119, 3.423084
772.8940, 4.095541
773.3761, 4.443707
773.8582, 3.766821
774.3403, 3.059061
774.8224, 3.194154
775.3046, 3.778164
775.7867, 3.984515
776.2688, 3.578623
776.7509, 3.014387
777.2330, 2.680511
777.7151, 2.589193
778.1973, 2.911985
778.6794, 3.711858
779.1615, 4.194213
779.6436, 4.039681
780.1257, 3.697817
780.6078, 3.652732
781.0900, 3.881337
781.5721, 3.865685
782.0542, 3.248358
782.5363, 2.888898
783.0184, 3.061771
783.5005, 3.442054
783.9827, 3.936265
784.4648, 4.402263
784.9469, 4.552008
785.4290, 4.222858
785.9111, 3.715621
786.3932, 3.278359
786.8754, 2.939534
787.3575, 2.807720
787.8396, 2.885271
788.3217, 3.042535
788.8038, 3.236251
789.2859, 3.389993
789.7681, 3.327280
790.2502, 2.937192
790.7323, 2.900385
791.2144, 3.659451
791.6965, 4.209958
792.1786, 4.233715
792.6608, 3.995832
793.1429, 3.705726
793.6250, 3.397901
794.1071, 3.106927
794.5892, 2.653542
795.0714, 2.423541
795.5535, 3.065902
796.0356, 4.035084
796.5177, 4.218991
796.9998, 3.538743
797.4819, 2.839324
797.9641, 2.706333
798.4462, 3.014668
798.9283, 3.551364
799.4104, 4.416191
799.8925, 4.782394
800.3746, 4.388052
800.8568, 3.871388
801.3389, 3.496625
801.8210, 3.264997
802.3031, 3.165730
802.7852, 3.209064
803.2673, 3.337150
803.7495, 3.672004
804.2316, 3.948659
804.7137, 4.018986
805.1958, 3.934621
805.6779, 3.746591
806.1600, 3.485304
806.6422, 3.209431
807.1243, 2.866293
807.6064, 2.641558
808.0885, 3.125428
808.5706, 4.185741
809.0527, 4.651538
809.5349, 4.218973
810.0170, 3.626114
810.4991, 3.429769
810.9812, 3.554734
811.4633, 3.692539
811.9454, 3.856994
812.4276, 4.009333
812.9097, 4.296013
813.3918, 4.413639
813.8739, 3.970221
814.3560, 3.378259
814.8381, 3.352040
815.3203, 4.062778
815.8024, 4.638082
816.2845, 4.476995
816.7666, 4.080273
817.2487, 3.850834
817.7308, 3.806801
818.2130, 4.043677
818.6951, 4.539115
819.1772, 4.888628
819.6593, 4.648621
820.1414, 4.990066
820.6235, 4.104291
821.1057, 4.942420
821.5878, 5.322587
822.0699, 4.907264
822.5520, 4.260191
823.0341, 3.593642
823.5162, 3.033222
823.9984, 3.017867
824.4805, 3.942222
824.9626, 4.453393
825.4447, 3.901046
825.9268, 3.425773
826.4089, 3.953128
826.8911, 4.836012
827.3732, 4.953305
827.8553, 4.103505
828.3374, 3.248472
828.8195, 3.121483
829.3016, 3.418012
829.7838, 3.860313
830.2659, 4.341568
830.7480, 4.417691
831.2301, 3.992250
831.7122, 3.469703
832.1943, 3.170756
832.6765, 3.064941
833.1586, 3.048497
833.6407, 3.117535
834.1228, 3.303708
834.6049, 3.746531
835.0870, 4.109548
835.5692, 4.046002
836.0513, 3.854122
836.5334, 4.070898
837.0155, 4.850205
837.4976, 5.244763
837.9797, 4.690648
838.4619, 4.045915
838.9440, 3.791066
839.4261, 3.763220
839.9082, 3.684602
840.3903, 3.530678
840.8724, 3.518394
841.3546, 3.853303
841.8367, 4.312859
842.3188, 4.566422
842.8009, 4.629020
843.2830, 4.486739
843.7651, 4.134531
844.2473, 3.970858
844.7294, 4.299466
845.2115, 4.823676
845.6936, 4.853282
846.1757, 4.244141
846.6578, 3.731023
847.1400, 3.309301
847.6221, 2.996164
848.1042, 2.819001
848.5863, 2.734648
849.0684, 2.663297
849.5505, 2.619389
850.0327, 2.787959
850.5148, 3.466253
850.9969, 4.069829
851.4790, 4.299245
851.9611, 4.322503
852.4432, 4.270478
852.9254, 4.193006
853.4075, 4.179214
853.8896, 4.288066
854.3717, 4.320920
854.8538, 3.854761
855.3359, 3.106179
855.8181, 2.950242
856.3002, 3.401032
856.7823, 3.766878
857.2644, 3.778732
857.7465, 3.585143
858.2286, 3.333352
858.7108, 3.029505
859.1929, 2.943436
859.6750, 3.248392
860.1571, 3.428245
860.6392, 3.171932
861.1213, 2.993765
861.6035, 3.404853
862.0856, 4.104032
862.5677, 4.344179
863.0498, 3.876864
863.5319, 3.372539
864.0140, 2.925813
864.4962, 2.653852
864.9783, 2.699751
865.4604, 2.962821
865.9425, 3.356965
866.4246, 3.809197
866.9067, 4.057705
867.3889, 3.750607
867.8710, 3.242501
868.3531, 3.249043
868.8352, 3.647788
869.3173, 3.949624
869.7994, 4.062686
870.2816, 3.774990
870.7637, 2.847098
871.2458, 1.679604
871.7279, 1.290238
872.2100, 1.864725
872.6921, 2.471628
873.1743, 3.237182
873.6564, 3.794690
874.1385, 3.860157
874.6206, 3.750815
875.1027, 3.912616
875.5848, 4.322590
876.0670, 4.418622
876.5491, 3.752096
877.0312, 3.249176
877.5133, 3.480315
877.9954, 3.774715
878.4775, 3.372178
878.9597, 2.540458
879.4418, 2.114753
879.9239, 2.446552
880.4060, 2.955660
880.8881, 3.152603
881.3702, 3.184284
881.8524, 3.279622
882.3345, 3.427386
882.8166, 3.556343
883.2987, 3.641873
883.7808, 3.644204
884.2629, 3.496451
884.7451, 3.276075
885.2272, 3.357749
885.7093, 3.813143
886.1914, 3.895431
886.6735, 3.330448
887.1556, 2.882042
887.6378, 3.087635
888.1199, 3.653132
888.6020, 3.967812
889.0841, 3.996259
889.5662, 3.890743
890.0483, 3.472751
890.5305, 3.151425
891.0126, 3.152375
891.4947, 3.214994
891.9768, 3.007080
892.4589, 2.610501
892.9410, 2.487701
893.4232, 2.962741
893.9053, 3.403814
894.3874, 3.262244
894.8695, 3.015371
895.3516, 3.339809
895.8337, 4.011651
896.3159, 4.316338
896.7980, 4.013297
897.2801, 3.500111
897.7622, 3.038951
898.2443, 2.749776
898.7264, 3.217400
899.2086, 4.270284
899.6907, 4.431325
900.1728, 3.339795
900.6549, 2.201250
901.1370, 1.900278
901.6191, 2.189667
902.1013, 2.415357
902.5834, 2.559482
903.0655, 2.717520
903.5476, 2.936623
904.0297, 3.078233
904.5118, 3.077479
904.9940, 2.981511
905.4761, 2.803358
905.9582, 2.553300
906.4403, 2.408918
906.9224, 2.348997
907.4045, 2.443457
907.8867, 3.022152
908.3688, 3.470103
908.8509, 3.174883
909.3330, 2.449662
909.8151, 1.958997
910.2972, 1.895017
910.7794, 2.038679
911.2615, 2.395300
911.7436, 2.768962
912.2257, 2.977890
912.7078, 3.041232
913.1899, 2.949466
913.6721, 2.743454
914.1542, 2.615225
914.6363, 2.704739
915.1184, 2.913071
915.6005, 3.086453
916.0826, 3.226983
916.5648, 3.355834
917.0469, 3.473858
917.5290, 3.551313
918.0111, 3.584968
918.4932, 3.514614
918.9753, 3.224094
919.4575, 2.739505
919.9396, 2.542590
920.4217, 2.768275
920.9038, 2.911780
921.3859, 2.887756
921.8680, 2.779716
922.3502, 2.509310
922.8323, 2.232988
923.3144, 2.325779
923.7965, 2.896513
924.2786, 3.403008
924.7607, 4.050539
925.2429, 4.312693
925.7250, 3.664185
926.2071, 2.784195
926.6892, 2.344398
927.1713, 2.323976
927.6534, 2.311962
928.1356, 2.141683
928.6177, 1.995982
929.0998, 2.038482
929.5819, 2.126862
930.0640, 1.949859
930.5461, 1.726750
931.0283, 2.112646
931.5104, 3.205732
931.9925, 4.148824
932.4746, 4.150012
932.9567, 3.631155
933.4388, 3.287033
933.9210, 3.091119
934.4031, 2.960253
934.8852, 2.879025
935.3673, 2.818553
935.8494, 2.761594
936.3315, 2.735025
936.8137, 2.827672
937.2958, 3.029258
937.7779, 2.853353
938.2600, 2.155263
938.7421, 1.819262
939.2242, 2.178702
939.7064, 2.702164
940.1885, 2.999389
940.6706, 3.099548
941.1527, 3.093019
941.6348, 2.903430
942.1169, 2.784341
942.5991, 2.827613
943.0812, 2.830146
943.5633, 2.628322
944.0454, 2.428484
944.5275, 2.494779
945.0096, 2.790806
945.4918, 2.978253
945.9739, 3.041480
946.4560, 2.908218
946.9381, 2.200317
947.4202, 1.623791
947.9023, 1.803786
948.3845, 2.467285
948.8666, 3.171525
949.3487, 3.778049
949.8308, 4.073802
950.3129, 3.757182
950.7950, 3.237397
951.2772, 2.763947
951.7593, 2.420776
952.2414, 2.396103
952.7235, 2.652333
953.2056, 3.028734
953.6877, 3.452969
954.1699, 3.721191
954.6520, 3.407399
955.1341, 2.789054
955.6162, 2.689650
956.0983, 3.043802
956.5804, 3.470697
957.0626, 3.872746
957.5447, 3.953954
958.0268, 3.431515
958.5089, 2.644567
958.9910, 2.417124
959.4731, 2.781445
959.9553, 3.269780
960.4374, 4.006682
960.9195, 4.143787
961.4016, 3.118271
961.8837, 1.994597
962.3658, 1.957473
962.8480, 2.835999
963.3301, 3.369246
963.8122, 3.411988
964.2943, 3.419877
964.7764, 3.456216
965.2585, 3.400713
965.7407, 3.201775
966.2228, 2.879421
966.7049, 2.339472
967.1870, 1.588398
967.6691, 1.231939
968.1512, 1.510381
968.6334, 1.944467
969.1155, 2.682213
969.5976, 3.292697
970.0797, 3.374273
970.5618, 3.161223
971.0439, 3.129662
971.5261, 3.379871
972.0082, 3.531134
972.4903, 3.364671
972.9724, 3.099741
973.4545, 2.764547
973.9366, 2.487018
974.4188, 2.410666
974.9009, 2.528553
975.3830, 2.840127
975.8651, 3.366428
976.3472, 3.667599
976.8293, 3.195503
977.3115, 2.399514
977.7936, 1.723281
978.2757, 1.256639
978.7578, 1.234279
979.2399, 1.637080
979.7220, 2.150201
980.2042, 2.582043
980.6863, 2.972502
981.1684, 3.468190
981.6505, 3.960322
982.1326, 3.954169
982.6147, 3.511934
983.0969, 3.294478
983.5790, 3.494094
984.0611, 3.726267
984.5432, 3.664842
985.0253, 3.404751
985.5074, 3.177020
985.9896, 2.980603
986.4717, 2.883347
986.9538, 2.909263
987.4359, 2.872442
987.9180, 2.662883
988.4001, 2.501785
988.8823, 2.667268
989.3644, 3.082587
989.8465, 3.222360
990.3286, 2.965578
990.8107, 2.826966
991.2928, 2.948647
991.7750, 2.952625
992.2571, 2.460804
992.7392, 1.975742
993.2213, 2.299167
993.7034, 3.425530
994.1855, 3.977286
994.6677, 3.416743
995.1498, 3.084061
995.6319, 3.317182
996.1140, 3.512026
996.5961, 3.165637
997.0782, 2.707006
997.5604, 2.892590
998.0425, 3.785959
998.5246, 4.286870
999.0067, 3.878566
999.4888, 3.521775
999.9709, 3.551384
1000.453, 3.661437
1000.935, 3.669603
1001.417, 3.577002
1001.899, 3.407104
1002.382, 3.164886
1002.864, 2.906579
1003.346, 2.651963
1003.828, 2.393006
1004.310, 1.935535
1004.792, 1.620016
1005.274, 2.021842
1005.756, 2.835145
1006.238, 3.198516
1006.721, 2.832447
1007.203, 2.467339
1007.685, 2.720521
1008.167, 3.080967
1008.649, 3.043240
1009.131, 2.805202
1009.613, 2.599823
1010.095, 2.506726
1010.578, 2.674665
1011.060, 3.173362
1011.542, 3.622425
1012.024, 3.595586
1012.506, 3.322520
1012.988, 3.044223
1013.470, 2.832108
1013.952, 2.922604
1014.434, 3.281934
1014.917, 3.591634
1015.399, 3.682806
1015.881, 3.528597
1016.363, 2.857836
1016.845, 1.983327
1017.327, 1.861661
1017.809, 2.359521
1018.291, 2.917361
1018.773, 3.388601
1019.256, 3.520806
1019.738, 3.119912
1020.220, 2.595535
1020.702, 2.734522
1021.184, 3.401620
1021.666, 3.697446
1022.148, 3.621375
1022.630, 3.020975
1023.113, 1.815332
1023.595, 0.9420444
1024.077, 1.071615
1024.559, 1.902393
1025.041, 3.047899
1025.523, 4.519183
1026.005, 4.767114
1026.487, 3.625574
1026.969, 2.646846
1027.452, 2.215229
1027.934, 2.043588
1028.416, 1.947975
1028.898, 1.902668
1029.380, 1.834112
1029.862, 1.726146
1030.344, 1.769845
1030.826, 2.063029
1031.309, 2.117597
1031.791, 1.635779
1032.273, 1.318252
1032.755, 1.844296
1033.237, 2.813283
1033.719, 3.070907
1034.201, 2.361737
1034.683, 2.173677
1035.166, 2.829659
1035.648, 3.311761
1036.130, 3.423915
1036.612, 3.181891
1037.094, 2.329074
1037.576, 1.235065
1038.058, 1.049515
1038.540, 2.155365
1039.022, 2.813656
1039.505, 2.682891
1039.987, 2.651778
1040.469, 3.132562
1040.951, 3.570199
1041.433, 3.501154
1041.915, 3.065655
1042.397, 2.642554
1042.879, 2.182471
1043.361, 1.896378
1043.844, 1.933068
1044.326, 1.947630
1044.808, 1.767972
1045.290, 1.625053
1045.772, 1.655747
1046.254, 1.861971
1046.736, 2.326133
1047.218, 3.246466
1047.700, 3.632429
1048.183, 2.693320
1048.665, 2.128723
1049.147, 2.770274
1049.629, 3.630192
1050.111, 4.053948
1050.593, 4.071040
1051.075, 3.767613
1051.557, 3.063561
1052.040, 2.565589
1052.522, 2.379276
1053.004, 2.427955
1053.486, 2.980305
1053.968, 3.488099
1054.450, 3.423265
1054.932, 3.007832
1055.414, 2.738678
1055.896, 2.693698
1056.379, 2.791197
1056.861, 3.173506
1057.343, 3.481024
1057.825, 3.618870
1058.307, 3.589713
1058.789, 3.293361
1059.271, 2.868921
1059.753, 2.543428
1060.236, 2.356151
1060.718, 2.361390
1061.200, 2.756721
1061.682, 3.111617
1062.164, 3.290936
1062.646, 3.321190
1063.128, 3.205882
1063.610, 2.966807
1064.093, 2.558153
1064.575, 1.986574
1065.057, 1.641658
1065.539, 1.975220
1066.021, 2.153581
1066.503, 1.448657
1066.985, 0.8030841
1067.467, 1.057630
1067.949, 1.870757
1068.432, 2.759028
1068.914, 3.574941
1069.396, 3.900722
1069.878, 3.227368
1070.360, 2.544594
1070.842, 2.174103
1071.324, 2.077454
1071.806, 2.334305
1072.288, 2.784364
1072.771, 3.300343
1073.253, 3.803738
1073.735, 3.985563
1074.217, 3.608101
1074.699, 3.125170
1075.181, 2.502020
1075.663, 2.104715
1076.145, 2.404709
1076.627, 2.990418
1077.110, 3.271468
1077.592, 3.226234
1078.074, 3.224368
1078.556, 3.433589
1079.038, 3.605858
1079.520, 3.708038
1080.002, 3.643483
1080.484, 3.131599
1080.967, 2.553899
1081.449, 2.513200
1081.931, 2.875579
1082.413, 2.890182
1082.895, 2.206105
1083.377, 1.650457
1083.859, 1.610884
1084.341, 1.805807
1084.823, 2.225337
1085.306, 2.663819
1085.788, 2.928736
1086.270, 3.017490
1086.752, 2.981885
1087.234, 2.824355
1087.716, 2.639714
1088.198, 2.280986
1088.680, 2.136007
1089.163, 2.736773
1089.645, 3.373000
1090.127, 3.346702
1090.609, 2.813600
1091.091, 2.088836
1091.573, 1.231203
1092.055, 0.9488963
1092.537, 2.106052
1093.020, 3.113224
1093.502, 3.112962
1093.984, 2.841948
1094.466, 2.860038
1094.948, 3.042970
1095.430, 3.092142
1095.912, 2.971662
1096.394, 2.879673
1096.876, 2.877615
1097.359, 2.914741
1097.841, 2.989458
1098.323, 3.081525
1098.805, 3.339593
1099.287, 3.507503
1099.769, 3.088111
1100.251, 2.181849
1100.733, 1.667616
1101.215, 1.887391
1101.698, 2.213643
1102.180, 2.662746
1102.662, 2.966121
1103.144, 2.786211
1103.626, 2.552709
1104.108, 2.879691
1104.590, 3.557778
1105.072, 3.699024
1105.554, 2.930606
1106.037, 2.432143
1106.519, 2.700355
1107.001, 2.898154
1107.483, 2.556952
1107.965, 2.197006
1108.447, 2.292974
1108.929, 2.677562
1109.411, 2.958094
1109.894, 3.102097
1110.376, 3.152049
1110.858, 3.003000
1111.340, 2.918986
1111.822, 3.077073
1112.304, 3.177932
1112.786, 2.875394
1113.268, 2.494229
1113.750, 2.647011
1114.233, 3.359382
1114.715, 3.668048
1115.197, 3.454160
1115.679, 3.011304
1116.161, 1.897002
1116.643, 1.173014
1117.125, 1.437068
1117.607, 2.135696
1118.090, 2.840127
1118.572, 3.473171
1119.054, 3.587229
1119.536, 2.897416
1120.018, 2.394525
1120.500, 2.118948
1120.982, 1.953832
1121.464, 1.886515
1121.947, 1.890030
1122.429, 1.959261
1122.911, 2.071157
1123.393, 2.167308
1123.875, 2.245430
1124.357, 2.333850
1124.839, 2.466290
1125.321, 2.481019
1125.803, 2.297585
1126.286, 2.151284
1126.768, 2.225687
1127.250, 2.297721
1127.732, 1.935227
1128.214, 1.230523
1128.696, 1.407352
1129.178, 1.281205
1129.660, 1.015932
1130.142, 1.807688
1130.625, 1.130904
1131.107, 1.769086
1131.589, 2.735832
1132.071, 3.022038
1132.553, 2.824241
1133.035, 2.755297
1133.517, 2.799563
1133.999, 2.477655
1134.481, 1.786819
1134.964, 1.582042
1135.446, 2.095957
1135.928, 2.417696
1136.410, 1.860907
1136.892, 2.459449
1137.374, 1.498249
1137.856, 2.644138
1138.338, 2.826669
1138.821, 2.262492
1139.303, 2.000289
1139.785, 2.165809
1140.267, 2.314245
1140.749, 2.243833
1141.231, 2.198992
1141.713, 2.505054
1142.195, 2.887525
1142.677, 2.739625
1143.160, 2.336886
1143.642, 2.333675
1144.124, 2.656670
1144.606, 2.917164
1145.088, 2.993615
1145.570, 2.915652
1146.052, 2.688472
1146.534, 2.367364
1147.017, 1.806515
1147.499, 1.355472
1147.981, 1.627797
1148.463, 2.241337
1148.945, 2.482034
1149.427, 2.363299
1149.909, 2.411709
1150.391, 2.845970
1150.874, 3.030660
1151.356, 2.238196
1151.838, 1.430830
1152.320, 1.272945
1152.802, 1.449875
1153.284, 1.765004
1153.766, 2.109306
1154.248, 2.361786
1154.730, 2.501079
1155.213, 2.564889
1155.695, 2.531105
1156.177, 2.485549
1156.659, 2.384931
1157.141, 2.363709
1157.623, 2.634974
1158.105, 2.920568
1158.587, 2.833390
1159.069, 2.484754
1159.552, 2.363162
1160.034, 2.596194
1160.516, 2.792397
1160.998, 2.951863
1161.480, 3.024713
1161.962, 3.079818
1162.444, 2.944989
1162.926, 2.217498
1163.408, 1.452677
1163.891, 1.658354
1164.373, 2.814461
1164.855, 3.456229
1165.337, 3.486722
1165.819, 3.239308
1166.301, 2.582745
1166.783, 2.076505
1167.265, 1.961661
1167.748, 1.974284
1168.230, 1.847172
1168.712, 2.051560
1169.194, 1.897442
1169.676, 2.473459
1170.158, 2.854570
1170.640, 3.042798
1171.122, 2.904623
1171.604, 2.396468
1172.087, 2.112468
1172.569, 2.402602
1173.051, 2.754105
1173.533, 2.421679
1174.015, 1.749889
1174.497, 1.774162
1174.979, 2.315418
1175.461, 2.789865
1175.944, 3.097468
1176.426, 2.952477
1176.908, 2.358770
1177.390, 2.047323
1177.872, 2.586183
1178.354, 3.247913
1178.836, 3.150888
1179.318, 2.672207
1179.801, 2.183766
1180.283, 1.810009
1180.765, 1.803785
1181.247, 2.085614
1181.729, 2.336272
1182.211, 2.451403
1182.693, 2.593278
1183.175, 2.944171
1183.657, 3.238774
1184.140, 3.450974
1184.622, 3.398598
1185.104, 2.625961
1185.586, 1.672578
1186.068, 1.307991
1186.550, 1.535457
1187.032, 1.874988
1187.514, 2.284176
1187.996, 2.611037
1188.479, 2.965417
1188.961, 3.045067
1189.443, 2.423142
1189.925, 1.822384
1190.407, 1.764114
1190.889, 2.079460
1191.371, 2.545836
1191.853, 3.164115
1192.335, 3.695682
1192.818, 4.390378
1193.300, 4.222896
1193.782, 2.659850
1194.264, 1.540053
1194.746, 1.563514
1195.228, 2.113819
1195.710, 2.727709
1196.192, 3.348623
1196.675, 3.903241
1197.157, 4.372773
1197.639, 4.233630
1198.121, 3.513807
1198.603, 3.178011
1199.085, 3.353009
1199.567, 3.342923
1200.049, 2.837230
1200.531, 2.334840
1201.014, 2.369264
1201.496, 2.660300
1201.978, 2.628680
1202.460, 2.517037
1202.942, 3.060497
1203.424, 3.929600
1203.906, 4.090118
1204.388, 3.530602
1204.871, 3.196087
1205.353, 3.541646
1205.835, 3.729503
1206.317, 2.793309
1206.799, 1.859758
1207.281, 1.974775
1207.763, 2.370262
1208.245, 2.240509
1208.728, 1.821352
1209.210, 1.571912
1209.692, 1.568563
1210.174, 1.783924
1210.656, 2.365190
1211.138, 2.804254
1211.620, 3.024336
1212.102, 3.059425
1212.584, 2.825173
1213.067, 2.504040
1213.549, 2.136273
1214.031, 1.828218
1214.513, 1.795659
1214.995, 2.037652
1215.477, 2.271013
1215.959, 2.491277
1216.441, 2.721981
1216.923, 2.970446
1217.406, 3.223114
1217.888, 3.505182
1218.370, 3.631339
1218.852, 3.443274
1219.334, 3.026716
1219.816, 2.340183
1220.298, 1.585374
1220.780, 2.119596
1221.262, 3.597904
1221.745, 4.265615
1222.227, 3.990486
1222.709, 3.383064
1223.191, 2.716314
1223.673, 2.324862
1224.155, 2.538302
1224.637, 2.901473
1225.119, 2.965892
1225.602, 2.852023
1226.084, 2.551670
1226.566, 2.266914
1227.048, 2.371640
1227.530, 2.748151
1228.012, 2.957602
1228.494, 2.880708
1228.976, 2.823659
1229.458, 2.937500
1229.941, 3.037587
1230.423, 3.183689
1230.905, 3.163701
1231.387, 2.594515
1231.869, 2.011364
1232.351, 2.137023
1232.833, 2.705438
1233.315, 2.846126
1233.798, 2.439388
1234.280, 2.351087
1234.762, 2.717183
1235.244, 2.922965
1235.726, 2.821580
1236.208, 2.823046
1236.690, 3.153389
1237.172, 3.434016
1237.655, 3.252417
1238.137, 2.804338
1238.619, 2.460079
1239.101, 2.280254
1239.583, 2.770659
1240.065, 3.703553
1240.547, 4.036154
1241.029, 3.670919
1241.511, 2.999236
1241.994, 2.216953
1242.476, 1.790338
1242.958, 2.258495
1243.440, 2.902616
1243.922, 3.204883
1244.404, 3.179797
1244.886, 2.569645
1245.368, 1.829477
1245.850, 1.541707
1246.333, 1.706115
1246.815, 2.172868
1247.297, 2.989583
1247.779, 3.351880
1248.261, 2.684701
1248.743, 2.153569
1249.225, 1.913053
1249.707, 1.971179
1250.189, 2.626581
1250.672, 3.196132
1251.154, 2.869910
1251.636, 3.261550
1252.118, 3.359299
1252.600, 3.162293
1253.082, 3.556224
1253.564, 3.287875
1254.046, 3.268027
1254.529, 3.623429
1255.011, 3.954444
1255.493, 4.098608
1255.975, 3.912715
1256.457, 3.198983
1256.939, 2.406908
1257.421, 2.266841
1257.903, 2.497052
1258.385, 2.718742
1258.868, 2.874450
1259.350, 2.835693
1259.832, 2.675229
1260.314, 2.669119
1260.796, 2.860040
1261.278, 2.831413
1261.760, 2.128870
1262.242, 1.718249
1262.725, 2.437886
1263.207, 2.976370
1263.689, 2.245179
1264.171, 1.424819
1264.653, 1.730824
1265.135, 2.665923
1265.617, 3.286923
1266.099, 3.592565
1266.582, 3.406771
1267.064, 2.537811
1267.546, 1.939204
1268.028, 1.658268
1268.510, 1.801623
1268.992, 2.465777
1269.474, 2.772212
1269.956, 2.079148
1270.438, 1.227704
1270.921, 1.520981
1271.403, 2.410937
1271.885, 2.650151
1272.367, 2.462309
1272.849, 2.250940
1273.331, 2.098871
1273.813, 2.122590
1274.295, 2.300172
1274.777, 2.449071
1275.260, 2.495894
1275.742, 2.482270
1276.224, 2.136024
1276.706, 2.135189
1277.188, 3.303573
1277.670, 4.389636
1278.152, 4.449442
1278.634, 3.974343
1279.116, 3.539379
1279.599, 3.156708
1280.081, 2.789167
1280.563, 2.410763
1281.045, 2.208189
1281.527, 2.186953
1282.009, 2.373320
1282.491, 2.819174
1282.973, 3.084698
1283.456, 2.985429
1283.938, 2.701614
1284.420, 2.376634
1284.902, 2.036185
1285.384, 1.718904
##END=



