##NAMES=Palenzonaite
##RRUFFID=R060455
##IDEAL CHEMISTRY=NaCa_2_Mn^2+^_2_(V^5+^O_4_)_3_
##LOCALITY=Molinello mine, Val Graveglia, Genova Province, Liguria, Italy
##OWNER=RRUFF
##SOURCE=Michael Scott
##DESCRIPTION=Dark-red massive crystals associated with calcite, quartz, and muscovite
##STATUS=The identification of this mineral has been confirmed only by single crystal X-ray diffraction.
##URL=rruff.info/R060455
9.001007e+001, 0.000000e+000
9.049219e+001, 1.940582e+001
9.097430e+001, 1.967262e+001
9.145642e+001, 1.958865e+001
9.193854e+001, 1.918751e+001
9.242065e+001, 1.874924e+001
9.290277e+001, 1.854094e+001
9.338489e+001, 1.846749e+001
9.386700e+001, 1.830433e+001
9.434912e+001, 1.789593e+001
9.483124e+001, 1.737305e+001
9.531335e+001, 1.703117e+001
9.579547e+001, 1.688641e+001
9.627759e+001, 1.679963e+001
9.675970e+001, 1.656932e+001
9.724182e+001, 1.621231e+001
9.772394e+001, 1.594487e+001
9.820605e+001, 1.589707e+001
9.868817e+001, 1.605020e+001
9.917029e+001, 1.618590e+001
9.965240e+001, 1.631898e+001
1.001345e+002, 1.640697e+001
1.006166e+002, 1.635215e+001
1.010988e+002, 1.613187e+001
1.015809e+002, 1.586480e+001
1.020630e+002, 1.560672e+001
1.025451e+002, 1.535452e+001
1.030272e+002, 1.511297e+001
1.035093e+002, 1.487005e+001
1.039915e+002, 1.463871e+001
1.044736e+002, 1.446589e+001
1.049557e+002, 1.436656e+001
1.054378e+002, 1.430642e+001
1.059199e+002, 1.426273e+001
1.064020e+002, 1.423071e+001
1.068842e+002, 1.423299e+001
1.073663e+002, 1.437266e+001
1.078484e+002, 1.465594e+001
1.083305e+002, 1.452598e+001
1.088126e+002, 1.351072e+001
1.092947e+002, 1.235066e+001
1.097769e+002, 1.172676e+001
1.102590e+002, 1.218974e+001
1.107411e+002, 1.263230e+001
1.112232e+002, 1.285009e+001
1.117053e+002, 1.278180e+001
1.121874e+002, 1.274843e+001
1.126696e+002, 1.291925e+001
1.131517e+002, 1.309839e+001
1.136338e+002, 1.303209e+001
1.141159e+002, 1.197780e+001
1.145980e+002, 1.125038e+001
1.150801e+002, 1.152238e+001
1.155623e+002, 1.354739e+001
1.160444e+002, 1.491951e+001
1.165265e+002, 1.454259e+001
1.170086e+002, 1.305704e+001
1.174907e+002, 1.180584e+001
1.179728e+002, 1.133939e+001
1.184550e+002, 1.120270e+001
1.189371e+002, 1.112919e+001
1.194192e+002, 1.112227e+001
1.199013e+002, 1.107815e+001
1.203834e+002, 1.090274e+001
1.208655e+002, 1.063051e+001
1.213477e+002, 1.039538e+001
1.218298e+002, 1.027250e+001
1.223119e+002, 1.022663e+001
1.227940e+002, 1.022871e+001
1.232761e+002, 1.035679e+001
1.237582e+002, 1.045168e+001
1.242404e+002, 1.033059e+001
1.247225e+002, 1.001029e+001
1.252046e+002, 9.696583e+000
1.256867e+002, 9.555486e+000
1.261688e+002, 9.532581e+000
1.266509e+002, 9.530976e+000
1.271331e+002, 9.477239e+000
1.276152e+002, 9.435479e+000
1.280973e+002, 9.552386e+000
1.285794e+002, 9.843536e+000
1.290615e+002, 1.010443e+001
1.295436e+002, 1.010018e+001
1.300258e+002, 9.870658e+000
1.305079e+002, 9.594141e+000
1.309900e+002, 9.350910e+000
1.314721e+002, 9.123852e+000
1.319542e+002, 8.815703e+000
1.324363e+002, 8.387677e+000
1.329185e+002, 7.991173e+000
1.334006e+002, 7.916453e+000
1.338827e+002, 8.162736e+000
1.343648e+002, 8.383787e+000
1.348469e+002, 8.324952e+000
1.353290e+002, 8.015731e+000
1.358112e+002, 7.913189e+000
1.362933e+002, 8.108751e+000
1.367754e+002, 8.456387e+000
1.372575e+002, 8.638010e+000
1.377396e+002, 8.643731e+000
1.382217e+002, 8.525689e+000
1.387039e+002, 8.272884e+000
1.391860e+002, 7.854692e+000
1.396681e+002, 7.502757e+000
1.401502e+002, 7.214133e+000
1.406323e+002, 7.013403e+000
1.411144e+002, 7.042683e+000
1.415966e+002, 7.415839e+000
1.420787e+002, 7.802348e+000
1.425608e+002, 7.948750e+000
1.430429e+002, 7.800292e+000
1.435250e+002, 7.554598e+000
1.440071e+002, 7.160370e+000
1.444893e+002, 6.636408e+000
1.449714e+002, 6.414486e+000
1.454535e+002, 6.684323e+000
1.459356e+002, 7.073759e+000
1.464177e+002, 7.214345e+000
1.468998e+002, 6.891698e+000
1.473820e+002, 6.664330e+000
1.478641e+002, 6.679452e+000
1.483462e+002, 6.992539e+000
1.488283e+002, 7.156380e+000
1.493104e+002, 7.068171e+000
1.497925e+002, 6.879957e+000
1.502747e+002, 6.767393e+000
1.507568e+002, 6.848167e+000
1.512389e+002, 6.885955e+000
1.517210e+002, 6.822846e+000
1.522031e+002, 6.630813e+000
1.526852e+002, 6.429756e+000
1.531674e+002, 6.139266e+000
1.536495e+002, 5.857008e+000
1.541316e+002, 5.721721e+000
1.546137e+002, 5.880434e+000
1.550958e+002, 6.070179e+000
1.555779e+002, 6.216732e+000
1.560601e+002, 6.317517e+000
1.565422e+002, 6.367242e+000
1.570243e+002, 6.313376e+000
1.575064e+002, 6.209284e+000
1.579885e+002, 6.158296e+000
1.584706e+002, 6.219945e+000
1.589528e+002, 6.312358e+000
1.594349e+002, 6.398180e+000
1.599170e+002, 6.465411e+000
1.603991e+002, 6.536896e+000
1.608812e+002, 6.625550e+000
1.613633e+002, 6.724076e+000
1.618455e+002, 6.813328e+000
1.623276e+002, 6.831444e+000
1.628097e+002, 6.871285e+000
1.632918e+002, 6.995341e+000
1.637739e+002, 7.253584e+000
1.642560e+002, 7.547966e+000
1.647382e+002, 7.870371e+000
1.652203e+002, 8.205088e+000
1.657024e+002, 8.492002e+000
1.661845e+002, 8.568534e+000
1.666666e+002, 8.645144e+000
1.671487e+002, 8.913192e+000
1.676309e+002, 9.549611e+000
1.681130e+002, 1.026546e+001
1.685951e+002, 1.089573e+001
1.690772e+002, 1.145126e+001
1.695593e+002, 1.197948e+001
1.700414e+002, 1.251526e+001
1.705236e+002, 1.303974e+001
1.710057e+002, 1.352109e+001
1.714878e+002, 1.388255e+001
1.719699e+002, 1.425569e+001
1.724520e+002, 1.478597e+001
1.729341e+002, 1.546158e+001
1.734163e+002, 1.610499e+001
1.738984e+002, 1.655142e+001
1.743805e+002, 1.688726e+001
1.748626e+002, 1.724305e+001
1.753447e+002, 1.771256e+001
1.758268e+002, 1.820999e+001
1.763090e+002, 1.860974e+001
1.767911e+002, 1.890708e+001
1.772732e+002, 1.924527e+001
1.777553e+002, 1.970179e+001
1.782374e+002, 2.020148e+001
1.787195e+002, 2.066510e+001
1.792017e+002, 2.104503e+001
1.796838e+002, 2.138428e+001
1.801659e+002, 2.175655e+001
1.806480e+002, 2.217184e+001
1.811301e+002, 2.254903e+001
1.816122e+002, 2.275956e+001
1.820944e+002, 2.285882e+001
1.825765e+002, 2.302354e+001
1.830586e+002, 2.341378e+001
1.835407e+002, 2.390932e+001
1.840228e+002, 2.425606e+001
1.845049e+002, 2.443239e+001
1.849871e+002, 2.455032e+001
1.854692e+002, 2.468497e+001
1.859513e+002, 2.485090e+001
1.864334e+002, 2.512656e+001
1.869155e+002, 2.562615e+001
1.873976e+002, 2.627288e+001
1.878798e+002, 2.680186e+001
1.883619e+002, 2.718180e+001
1.888440e+002, 2.752354e+001
1.893261e+002, 2.798268e+001
1.898082e+002, 2.855418e+001
1.902903e+002, 2.912339e+001
1.907725e+002, 2.968205e+001
1.912546e+002, 3.021442e+001
1.917367e+002, 3.054751e+001
1.922188e+002, 3.063712e+001
1.927009e+002, 3.063149e+001
1.931830e+002, 3.077033e+001
1.936652e+002, 3.105253e+001
1.941473e+002, 3.136719e+001
1.946294e+002, 3.170055e+001
1.951115e+002, 3.204174e+001
1.955936e+002, 3.220896e+001
1.960757e+002, 3.213975e+001
1.965579e+002, 3.198419e+001
1.970400e+002, 3.207071e+001
1.975221e+002, 3.242485e+001
1.980042e+002, 3.274434e+001
1.984863e+002, 3.282114e+001
1.989684e+002, 3.265142e+001
1.994506e+002, 3.257102e+001
1.999327e+002, 3.260466e+001
2.004148e+002, 3.273495e+001
2.008969e+002, 3.295115e+001
2.013790e+002, 3.327335e+001
2.018611e+002, 3.358569e+001
2.023433e+002, 3.380199e+001
2.028254e+002, 3.390973e+001
2.033075e+002, 3.408677e+001
2.037896e+002, 3.437458e+001
2.042717e+002, 3.471185e+001
2.047538e+002, 3.490741e+001
2.052360e+002, 3.491174e+001
2.057181e+002, 3.495496e+001
2.062002e+002, 3.519841e+001
2.066823e+002, 3.567768e+001
2.071644e+002, 3.611489e+001
2.076465e+002, 3.647406e+001
2.081287e+002, 3.678342e+001
2.086108e+002, 3.715348e+001
2.090929e+002, 3.761644e+001
2.095750e+002, 3.805214e+001
2.100571e+002, 3.836688e+001
2.105392e+002, 3.853104e+001
2.110214e+002, 3.871880e+001
2.115035e+002, 3.893206e+001
2.119856e+002, 3.918251e+001
2.124677e+002, 3.957179e+001
2.129498e+002, 4.022355e+001
2.134319e+002, 4.074339e+001
2.139140e+002, 4.081512e+001
2.143962e+002, 4.024171e+001
2.148783e+002, 3.994361e+001
2.153604e+002, 4.007542e+001
2.158425e+002, 4.052960e+001
2.163246e+002, 4.085619e+001
2.168067e+002, 4.098181e+001
2.172889e+002, 4.112604e+001
2.177710e+002, 4.148112e+001
2.182531e+002, 4.221748e+001
2.187352e+002, 4.263916e+001
2.192173e+002, 4.257883e+001
2.196994e+002, 4.215841e+001
2.201816e+002, 4.196553e+001
2.206637e+002, 4.207598e+001
2.211458e+002, 4.227275e+001
2.216279e+002, 4.242513e+001
2.221100e+002, 4.252382e+001
2.225921e+002, 4.260282e+001
2.230743e+002, 4.265300e+001
2.235564e+002, 4.268518e+001
2.240385e+002, 4.277918e+001
2.245206e+002, 4.303738e+001
2.250027e+002, 4.319684e+001
2.254848e+002, 4.301913e+001
2.259670e+002, 4.218895e+001
2.264491e+002, 4.182209e+001
2.269312e+002, 4.222009e+001
2.274133e+002, 4.316636e+001
2.278954e+002, 4.359389e+001
2.283775e+002, 4.322849e+001
2.288597e+002, 4.273565e+001
2.293418e+002, 4.253364e+001
2.298239e+002, 4.278658e+001
2.303060e+002, 4.294109e+001
2.307881e+002, 4.290054e+001
2.312702e+002, 4.272258e+001
2.317524e+002, 4.269918e+001
2.322345e+002, 4.292989e+001
2.327166e+002, 4.317143e+001
2.331987e+002, 4.327317e+001
2.336808e+002, 4.316317e+001
2.341629e+002, 4.307148e+001
2.346451e+002, 4.302355e+001
2.351272e+002, 4.300447e+001
2.356093e+002, 4.293977e+001
2.360914e+002, 4.277240e+001
2.365735e+002, 4.263755e+001
2.370556e+002, 4.262389e+001
2.375378e+002, 4.281779e+001
2.380199e+002, 4.294564e+001
2.385020e+002, 4.298246e+001
2.389841e+002, 4.294422e+001
2.394662e+002, 4.288448e+001
2.399483e+002, 4.277081e+001
2.404305e+002, 4.268240e+001
2.409126e+002, 4.267248e+001
2.413947e+002, 4.281053e+001
2.418768e+002, 4.286776e+001
2.423589e+002, 4.277014e+001
2.428410e+002, 4.258872e+001
2.433232e+002, 4.260135e+001
2.438053e+002, 4.298079e+001
2.442874e+002, 4.331568e+001
2.447695e+002, 4.337962e+001
2.452516e+002, 4.302913e+001
2.457337e+002, 4.272244e+001
2.462159e+002, 4.244709e+001
2.466980e+002, 4.222570e+001
2.471801e+002, 4.214903e+001
2.476622e+002, 4.229327e+001
2.481443e+002, 4.246400e+001
2.486264e+002, 4.257929e+001
2.491086e+002, 4.265972e+001
2.495907e+002, 4.263107e+001
2.500728e+002, 4.244837e+001
2.505549e+002, 4.216891e+001
2.510370e+002, 4.193813e+001
2.515191e+002, 4.174567e+001
2.520013e+002, 4.161945e+001
2.524834e+002, 4.157659e+001
2.529655e+002, 4.164276e+001
2.534476e+002, 4.173095e+001
2.539297e+002, 4.185633e+001
2.544118e+002, 4.199748e+001
2.548940e+002, 4.209394e+001
2.553761e+002, 4.208031e+001
2.558582e+002, 4.213935e+001
2.563403e+002, 4.240200e+001
2.568224e+002, 4.302642e+001
2.573046e+002, 4.330031e+001
2.577867e+002, 4.306770e+001
2.582688e+002, 4.258095e+001
2.587509e+002, 4.232586e+001
2.592330e+002, 4.235812e+001
2.597151e+002, 4.251134e+001
2.601973e+002, 4.274994e+001
2.606794e+002, 4.310001e+001
2.611615e+002, 4.339155e+001
2.616436e+002, 4.358958e+001
2.621257e+002, 4.375651e+001
2.626078e+002, 4.400143e+001
2.630900e+002, 4.434861e+001
2.635721e+002, 4.471259e+001
2.640542e+002, 4.505111e+001
2.645363e+002, 4.535535e+001
2.650184e+002, 4.574145e+001
2.655005e+002, 4.625903e+001
2.659827e+002, 4.680976e+001
2.664648e+002, 4.724367e+001
2.669469e+002, 4.750471e+001
2.674290e+002, 4.780624e+001
2.679111e+002, 4.824190e+001
2.683932e+002, 4.882322e+001
2.688754e+002, 4.928817e+001
2.693575e+002, 4.957101e+001
2.698396e+002, 4.983579e+001
2.703217e+002, 5.028645e+001
2.708038e+002, 5.094472e+001
2.712859e+002, 5.170033e+001
2.717681e+002, 5.257299e+001
2.722502e+002, 5.354899e+001
2.727323e+002, 5.432695e+001
2.732144e+002, 5.485801e+001
2.736965e+002, 5.526175e+001
2.741786e+002, 5.561327e+001
2.746608e+002, 5.588084e+001
2.751429e+002, 5.628927e+001
2.756250e+002, 5.690779e+001
2.761071e+002, 5.771489e+001
2.765892e+002, 5.861440e+001
2.770714e+002, 5.962917e+001
2.775535e+002, 6.063080e+001
2.780356e+002, 6.149228e+001
2.785177e+002, 6.220473e+001
2.789998e+002, 6.287243e+001
2.794819e+002, 6.353801e+001
2.799641e+002, 6.417283e+001
2.804462e+002, 6.455678e+001
2.809283e+002, 6.462188e+001
2.814104e+002, 6.473235e+001
2.818925e+002, 6.523568e+001
2.823746e+002, 6.613759e+001
2.828568e+002, 6.702815e+001
2.833389e+002, 6.788956e+001
2.838210e+002, 6.866193e+001
2.843031e+002, 6.909286e+001
2.847852e+002, 6.914277e+001
2.852673e+002, 6.921650e+001
2.857495e+002, 6.964608e+001
2.862316e+002, 7.040398e+001
2.867137e+002, 7.111678e+001
2.871958e+002, 7.173302e+001
2.876779e+002, 7.229090e+001
2.881600e+002, 7.289455e+001
2.886422e+002, 7.354616e+001
2.891243e+002, 7.411736e+001
2.896064e+002, 7.443503e+001
2.900885e+002, 7.456491e+001
2.905706e+002, 7.483422e+001
2.910527e+002, 7.527420e+001
2.915349e+002, 7.585314e+001
2.920170e+002, 7.659264e+001
2.924991e+002, 7.746783e+001
2.929812e+002, 7.828877e+001
2.934633e+002, 7.891787e+001
2.939454e+002, 7.940258e+001
2.944276e+002, 7.987309e+001
2.949097e+002, 8.032579e+001
2.953918e+002, 8.079234e+001
2.958739e+002, 8.130172e+001
2.963560e+002, 8.185202e+001
2.968381e+002, 8.245798e+001
2.973203e+002, 8.314221e+001
2.978024e+002, 8.387699e+001
2.982845e+002, 8.464425e+001
2.987666e+002, 8.545583e+001
2.992487e+002, 8.620538e+001
2.997308e+002, 8.664674e+001
3.002130e+002, 8.692710e+001
3.006951e+002, 8.746599e+001
3.011772e+002, 8.870102e+001
3.016593e+002, 9.015413e+001
3.021414e+002, 9.102454e+001
3.026235e+002, 9.132009e+001
3.031057e+002, 9.171336e+001
3.035878e+002, 9.299555e+001
3.040699e+002, 9.474602e+001
3.045520e+002, 9.615157e+001
3.050341e+002, 9.675005e+001
3.055162e+002, 9.707271e+001
3.059984e+002, 9.769321e+001
3.064805e+002, 9.856460e+001
3.069626e+002, 9.940591e+001
3.074447e+002, 1.000230e+002
3.079268e+002, 1.004906e+002
3.084089e+002, 1.008858e+002
3.088911e+002, 1.011938e+002
3.093732e+002, 1.014900e+002
3.098553e+002, 1.019752e+002
3.103374e+002, 1.025366e+002
3.108195e+002, 1.027979e+002
3.113016e+002, 1.023206e+002
3.117838e+002, 1.015599e+002
3.122659e+002, 1.009225e+002
3.127480e+002, 1.005396e+002
3.132301e+002, 1.001646e+002
3.137122e+002, 9.974512e+001
3.141943e+002, 9.922265e+001
3.146765e+002, 9.848250e+001
3.151586e+002, 9.716158e+001
3.156407e+002, 9.582890e+001
3.161228e+002, 9.486525e+001
3.166049e+002, 9.440010e+001
3.170870e+002, 9.398101e+001
3.175692e+002, 9.344807e+001
3.180513e+002, 9.283587e+001
3.185334e+002, 9.219524e+001
3.190155e+002, 9.166220e+001
3.194976e+002, 9.100219e+001
3.199797e+002, 9.001058e+001
3.204619e+002, 8.863213e+001
3.209440e+002, 8.746689e+001
3.214261e+002, 8.701656e+001
3.219082e+002, 8.673169e+001
3.223903e+002, 8.609351e+001
3.228724e+002, 8.481310e+001
3.233546e+002, 8.334745e+001
3.238367e+002, 8.176098e+001
3.243188e+002, 8.006149e+001
3.248009e+002, 7.834875e+001
3.252830e+002, 7.682299e+001
3.257651e+002, 7.519460e+001
3.262473e+002, 7.328033e+001
3.267294e+002, 7.055528e+001
3.272115e+002, 6.813361e+001
3.276936e+002, 6.616940e+001
3.281757e+002, 6.462299e+001
3.286578e+002, 6.319963e+001
3.291400e+002, 6.212690e+001
3.296221e+002, 6.098219e+001
3.301042e+002, 5.954736e+001
3.305863e+002, 5.736844e+001
3.310684e+002, 5.565140e+001
3.315505e+002, 5.462365e+001
3.320327e+002, 5.402236e+001
3.325148e+002, 5.327799e+001
3.329969e+002, 5.226951e+001
3.334790e+002, 5.127178e+001
3.339611e+002, 5.035151e+001
3.344432e+002, 4.950276e+001
3.349254e+002, 4.874715e+001
3.354075e+002, 4.809836e+001
3.358896e+002, 4.753698e+001
3.363717e+002, 4.704543e+001
3.368538e+002, 4.664251e+001
3.373359e+002, 4.627308e+001
3.378180e+002, 4.592590e+001
3.383001e+002, 4.560262e+001
3.387823e+002, 4.531598e+001
3.392644e+002, 4.507930e+001
3.397465e+002, 4.486126e+001
3.402286e+002, 4.462235e+001
3.407107e+002, 4.435398e+001
3.411928e+002, 4.413859e+001
3.416750e+002, 4.401713e+001
3.421571e+002, 4.395641e+001
3.426392e+002, 4.383567e+001
3.431213e+002, 4.365094e+001
3.436034e+002, 4.342505e+001
3.440855e+002, 4.310334e+001
3.445677e+002, 4.269965e+001
3.450498e+002, 4.250964e+001
3.455319e+002, 4.259868e+001
3.460140e+002, 4.287040e+001
3.464961e+002, 4.322471e+001
3.469782e+002, 4.365250e+001
3.474604e+002, 4.394245e+001
3.479425e+002, 4.388195e+001
3.484246e+002, 4.357028e+001
3.489067e+002, 4.336325e+001
3.493888e+002, 4.328310e+001
3.498709e+002, 4.328925e+001
3.503531e+002, 4.334433e+001
3.508352e+002, 4.344703e+001
3.513173e+002, 4.359192e+001
3.517994e+002, 4.389845e+001
3.522815e+002, 4.420562e+001
3.527636e+002, 4.414201e+001
3.532458e+002, 4.370794e+001
3.537279e+002, 4.335356e+001
3.542100e+002, 4.359491e+001
3.546921e+002, 4.415516e+001
3.551742e+002, 4.454899e+001
3.556563e+002, 4.454441e+001
3.561385e+002, 4.440467e+001
3.566206e+002, 4.429288e+001
3.571027e+002, 4.423197e+001
3.575848e+002, 4.433534e+001
3.580669e+002, 4.493489e+001
3.585490e+002, 4.559941e+001
3.590312e+002, 4.588084e+001
3.595133e+002, 4.555236e+001
3.599954e+002, 4.515834e+001
3.604775e+002, 4.497869e+001
3.609596e+002, 4.496261e+001
3.614417e+002, 4.500357e+001
3.619239e+002, 4.508907e+001
3.624060e+002, 4.519614e+001
3.628881e+002, 4.532460e+001
3.633702e+002, 4.548497e+001
3.638523e+002, 4.560986e+001
3.643344e+002, 4.561849e+001
3.648166e+002, 4.560069e+001
3.652987e+002, 4.565948e+001
3.657808e+002, 4.585860e+001
3.662629e+002, 4.609554e+001
3.667450e+002, 4.641703e+001
3.672271e+002, 4.681897e+001
3.677093e+002, 4.701025e+001
3.681914e+002, 4.672784e+001
3.686735e+002, 4.636784e+001
3.691556e+002, 4.618629e+001
3.696377e+002, 4.630963e+001
3.701198e+002, 4.647122e+001
3.706020e+002, 4.669277e+001
3.710841e+002, 4.694947e+001
3.715662e+002, 4.715065e+001
3.720483e+002, 4.725380e+001
3.725304e+002, 4.734975e+001
3.730125e+002, 4.748864e+001
3.734947e+002, 4.772241e+001
3.739768e+002, 4.784106e+001
3.744589e+002, 4.781133e+001
3.749410e+002, 4.769442e+001
3.754231e+002, 4.755497e+001
3.759052e+002, 4.732414e+001
3.763874e+002, 4.727155e+001
3.768695e+002, 4.755381e+001
3.773516e+002, 4.816221e+001
3.778337e+002, 4.851323e+001
3.783158e+002, 4.856337e+001
3.787979e+002, 4.849711e+001
3.792801e+002, 4.851442e+001
3.797622e+002, 4.862481e+001
3.802443e+002, 4.861083e+001
3.807264e+002, 4.839202e+001
3.812085e+002, 4.805356e+001
3.816906e+002, 4.781840e+001
3.821728e+002, 4.768796e+001
3.826549e+002, 4.759279e+001
3.831370e+002, 4.744446e+001
3.836191e+002, 4.728283e+001
3.841012e+002, 4.730085e+001
3.845833e+002, 4.755043e+001
3.850655e+002, 4.786803e+001
3.855476e+002, 4.807865e+001
3.860297e+002, 4.818383e+001
3.865118e+002, 4.817782e+001
3.869939e+002, 4.802932e+001
3.874760e+002, 4.778004e+001
3.879582e+002, 4.743513e+001
3.884403e+002, 4.699149e+001
3.889224e+002, 4.663446e+001
3.894045e+002, 4.660503e+001
3.898866e+002, 4.673598e+001
3.903687e+002, 4.679515e+001
3.908509e+002, 4.673375e+001
3.913330e+002, 4.654825e+001
3.918151e+002, 4.610942e+001
3.922972e+002, 4.550233e+001
3.927793e+002, 4.506356e+001
3.932614e+002, 4.506892e+001
3.937436e+002, 4.523646e+001
3.942257e+002, 4.539962e+001
3.947078e+002, 4.560049e+001
3.951899e+002, 4.561367e+001
3.956720e+002, 4.522208e+001
3.961541e+002, 4.461536e+001
3.966363e+002, 4.409867e+001
3.971184e+002, 4.372810e+001
3.976005e+002, 4.347511e+001
3.980826e+002, 4.336812e+001
3.985647e+002, 4.342903e+001
3.990468e+002, 4.344816e+001
3.995290e+002, 4.348087e+001
4.000111e+002, 4.342125e+001
4.004932e+002, 4.317728e+001
4.009753e+002, 4.243289e+001
4.014574e+002, 4.193391e+001
4.019395e+002, 4.185409e+001
4.024217e+002, 4.209397e+001
4.029038e+002, 4.218760e+001
4.033859e+002, 4.208193e+001
4.038680e+002, 4.190813e+001
4.043501e+002, 4.169576e+001
4.048322e+002, 4.138238e+001
4.053144e+002, 4.129144e+001
4.057965e+002, 4.153974e+001
4.062786e+002, 4.187264e+001
4.067607e+002, 4.181769e+001
4.072428e+002, 4.128350e+001
4.077249e+002, 4.086272e+001
4.082071e+002, 4.079139e+001
4.086892e+002, 4.101024e+001
4.091713e+002, 4.114496e+001
4.096534e+002, 4.118325e+001
4.101355e+002, 4.121041e+001
4.106176e+002, 4.133061e+001
4.110998e+002, 4.152067e+001
4.115819e+002, 4.162898e+001
4.120640e+002, 4.159364e+001
4.125461e+002, 4.151841e+001
4.130282e+002, 4.160806e+001
4.135103e+002, 4.183128e+001
4.139925e+002, 4.200581e+001
4.144746e+002, 4.198228e+001
4.149567e+002, 4.185770e+001
4.154388e+002, 4.176267e+001
4.159209e+002, 4.170147e+001
4.164030e+002, 4.171675e+001
4.168852e+002, 4.196019e+001
4.173673e+002, 4.228481e+001
4.178494e+002, 4.245271e+001
4.183315e+002, 4.210868e+001
4.188136e+002, 4.179839e+001
4.192957e+002, 4.197370e+001
4.197779e+002, 4.255482e+001
4.202600e+002, 4.301735e+001
4.207421e+002, 4.297586e+001
4.212242e+002, 4.281311e+001
4.217063e+002, 4.283677e+001
4.221884e+002, 4.332074e+001
4.226706e+002, 4.358058e+001
4.231527e+002, 4.322973e+001
4.236348e+002, 4.256942e+001
4.241169e+002, 4.216559e+001
4.245990e+002, 4.224043e+001
4.250811e+002, 4.244361e+001
4.255633e+002, 4.275045e+001
4.260454e+002, 4.321044e+001
4.265275e+002, 4.339739e+001
4.270096e+002, 4.312146e+001
4.274917e+002, 4.272229e+001
4.279738e+002, 4.247806e+001
4.284560e+002, 4.245826e+001
4.289381e+002, 4.244136e+001
4.294202e+002, 4.237067e+001
4.299023e+002, 4.229247e+001
4.303844e+002, 4.241727e+001
4.308665e+002, 4.285279e+001
4.313487e+002, 4.318175e+001
4.318308e+002, 4.311134e+001
4.323129e+002, 4.261186e+001
4.327950e+002, 4.237173e+001
4.332771e+002, 4.245476e+001
4.337592e+002, 4.264843e+001
4.342414e+002, 4.265073e+001
4.347235e+002, 4.248280e+001
4.352056e+002, 4.239345e+001
4.356877e+002, 4.244778e+001
4.361698e+002, 4.263863e+001
4.366519e+002, 4.302358e+001
4.371341e+002, 4.359054e+001
4.376162e+002, 4.411332e+001
4.380983e+002, 4.442583e+001
4.385804e+002, 4.458709e+001
4.390625e+002, 4.469187e+001
4.395446e+002, 4.475075e+001
4.400268e+002, 4.477269e+001
4.405089e+002, 4.465500e+001
4.409910e+002, 4.450928e+001
4.414731e+002, 4.456366e+001
4.419552e+002, 4.519435e+001
4.424373e+002, 4.584154e+001
4.429195e+002, 4.610743e+001
4.434016e+002, 4.598825e+001
4.438837e+002, 4.587087e+001
4.443658e+002, 4.585028e+001
4.448479e+002, 4.593092e+001
4.453300e+002, 4.612170e+001
4.458122e+002, 4.659304e+001
4.462943e+002, 4.695357e+001
4.467764e+002, 4.711676e+001
4.472585e+002, 4.712292e+001
4.477406e+002, 4.707494e+001
4.482227e+002, 4.691179e+001
4.487049e+002, 4.676375e+001
4.491870e+002, 4.668956e+001
4.496691e+002, 4.672147e+001
4.501512e+002, 4.662487e+001
4.506333e+002, 4.629539e+001
4.511154e+002, 4.595345e+001
4.515976e+002, 4.584863e+001
4.520797e+002, 4.610049e+001
4.525618e+002, 4.618012e+001
4.530439e+002, 4.593822e+001
4.535260e+002, 4.550915e+001
4.540081e+002, 4.532275e+001
4.544903e+002, 4.541538e+001
4.549724e+002, 4.551247e+001
4.554545e+002, 4.543510e+001
4.559366e+002, 4.521385e+001
4.564187e+002, 4.509089e+001
4.569008e+002, 4.509606e+001
4.573830e+002, 4.507816e+001
4.578651e+002, 4.477325e+001
4.583472e+002, 4.428300e+001
4.588293e+002, 4.396434e+001
4.593114e+002, 4.403338e+001
4.597935e+002, 4.422165e+001
4.602757e+002, 4.421587e+001
4.607578e+002, 4.403238e+001
4.612399e+002, 4.375968e+001
4.617220e+002, 4.327237e+001
4.622041e+002, 4.281971e+001
4.626862e+002, 4.271291e+001
4.631684e+002, 4.308931e+001
4.636505e+002, 4.338883e+001
4.641326e+002, 4.333560e+001
4.646147e+002, 4.303331e+001
4.650968e+002, 4.261141e+001
4.655789e+002, 4.199152e+001
4.660611e+002, 4.138764e+001
4.665432e+002, 4.083204e+001
4.670253e+002, 4.033408e+001
4.675074e+002, 3.994077e+001
4.679895e+002, 3.973475e+001
4.684716e+002, 3.957347e+001
4.689538e+002, 3.939458e+001
4.694359e+002, 3.920094e+001
4.699180e+002, 3.898777e+001
4.704001e+002, 3.875010e+001
4.708822e+002, 3.849323e+001
4.713643e+002, 3.824120e+001
4.718465e+002, 3.803632e+001
4.723286e+002, 3.770060e+001
4.728107e+002, 3.712721e+001
4.732928e+002, 3.638371e+001
4.737749e+002, 3.581838e+001
4.742570e+002, 3.544641e+001
4.747392e+002, 3.519017e+001
4.752213e+002, 3.509139e+001
4.757034e+002, 3.510131e+001
4.761855e+002, 3.484401e+001
4.766676e+002, 3.423115e+001
4.771497e+002, 3.351392e+001
4.776319e+002, 3.303100e+001
4.781140e+002, 3.273019e+001
4.785961e+002, 3.244971e+001
4.790782e+002, 3.216897e+001
4.795603e+002, 3.184155e+001
4.800424e+002, 3.134623e+001
4.805246e+002, 3.071015e+001
4.810067e+002, 3.017138e+001
4.814888e+002, 2.989838e+001
4.819709e+002, 2.977675e+001
4.824530e+002, 2.974487e+001
4.829352e+002, 2.988578e+001
4.834173e+002, 2.987505e+001
4.838994e+002, 2.947871e+001
4.843815e+002, 2.887142e+001
4.848636e+002, 2.832368e+001
4.853457e+002, 2.789948e+001
4.858279e+002, 2.753931e+001
4.863100e+002, 2.721924e+001
4.867921e+002, 2.694039e+001
4.872742e+002, 2.676654e+001
4.877563e+002, 2.682104e+001
4.882384e+002, 2.685440e+001
4.887206e+002, 2.672116e+001
4.892027e+002, 2.635858e+001
4.896848e+002, 2.598841e+001
4.901669e+002, 2.556723e+001
4.906490e+002, 2.518946e+001
4.911311e+002, 2.502530e+001
4.916133e+002, 2.510506e+001
4.920954e+002, 2.520364e+001
4.925775e+002, 2.527855e+001
4.930596e+002, 2.531227e+001
4.935417e+002, 2.522711e+001
4.940238e+002, 2.502232e+001
4.945060e+002, 2.477173e+001
4.949881e+002, 2.444456e+001
4.954702e+002, 2.411878e+001
4.959523e+002, 2.403111e+001
4.964344e+002, 2.426126e+001
4.969165e+002, 2.450551e+001
4.973987e+002, 2.439988e+001
4.978808e+002, 2.409672e+001
4.983629e+002, 2.388551e+001
4.988450e+002, 2.398636e+001
4.993271e+002, 2.413377e+001
4.998092e+002, 2.416031e+001
5.002914e+002, 2.408158e+001
5.007735e+002, 2.398736e+001
5.012556e+002, 2.387265e+001
5.017377e+002, 2.378194e+001
5.022198e+002, 2.374340e+001
5.027019e+002, 2.377202e+001
5.031841e+002, 2.382159e+001
5.036662e+002, 2.393067e+001
5.041483e+002, 2.403963e+001
5.046304e+002, 2.407312e+001
5.051125e+002, 2.395246e+001
5.055946e+002, 2.388711e+001
5.060768e+002, 2.394232e+001
5.065589e+002, 2.408087e+001
5.070410e+002, 2.408479e+001
5.075231e+002, 2.387798e+001
5.080052e+002, 2.374932e+001
5.084873e+002, 2.393801e+001
5.089695e+002, 2.444610e+001
5.094516e+002, 2.463373e+001
5.099337e+002, 2.444414e+001
5.104158e+002, 2.415437e+001
5.108979e+002, 2.409801e+001
5.113800e+002, 2.422364e+001
5.118622e+002, 2.430621e+001
5.123443e+002, 2.428874e+001
5.128264e+002, 2.419623e+001
5.133085e+002, 2.399762e+001
5.137906e+002, 2.373554e+001
5.142728e+002, 2.356282e+001
5.147549e+002, 2.359125e+001
5.152370e+002, 2.372962e+001
5.157191e+002, 2.395150e+001
5.162012e+002, 2.426357e+001
5.166833e+002, 2.446928e+001
5.171655e+002, 2.442282e+001
5.176476e+002, 2.426232e+001
5.181297e+002, 2.410576e+001
5.186118e+002, 2.400889e+001
5.190939e+002, 2.387869e+001
5.195760e+002, 2.362139e+001
5.200582e+002, 2.332668e+001
5.205403e+002, 2.320637e+001
5.210224e+002, 2.343729e+001
5.215045e+002, 2.359117e+001
5.219866e+002, 2.348459e+001
5.224688e+002, 2.311827e+001
5.229509e+002, 2.309920e+001
5.234330e+002, 2.358050e+001
5.239151e+002, 2.405204e+001
5.243972e+002, 2.405450e+001
5.248793e+002, 2.357480e+001
5.253615e+002, 2.325350e+001
5.258436e+002, 2.316970e+001
5.263257e+002, 2.319036e+001
5.268078e+002, 2.313945e+001
5.272899e+002, 2.302495e+001
5.277720e+002, 2.287836e+001
5.282542e+002, 2.263635e+001
5.287363e+002, 2.242997e+001
5.292184e+002, 2.251218e+001
5.297005e+002, 2.282604e+001
5.301826e+002, 2.306536e+001
5.306647e+002, 2.294506e+001
5.311469e+002, 2.272714e+001
5.316290e+002, 2.264720e+001
5.321111e+002, 2.276664e+001
5.325932e+002, 2.288489e+001
5.330753e+002, 2.297405e+001
5.335574e+002, 2.300097e+001
5.340396e+002, 2.292991e+001
5.345217e+002, 2.262476e+001
5.350038e+002, 2.237414e+001
5.354859e+002, 2.221347e+001
5.359680e+002, 2.213465e+001
5.364501e+002, 2.211277e+001
5.369323e+002, 2.215107e+001
5.374144e+002, 2.224481e+001
5.378965e+002, 2.243679e+001
5.383786e+002, 2.273345e+001
5.388607e+002, 2.279932e+001
5.393428e+002, 2.257859e+001
5.398250e+002, 2.229668e+001
5.403071e+002, 2.216042e+001
5.407892e+002, 2.215838e+001
5.412713e+002, 2.217646e+001
5.417534e+002, 2.220582e+001
5.422355e+002, 2.222795e+001
5.427177e+002, 2.220344e+001
5.431998e+002, 2.214741e+001
5.436819e+002, 2.210875e+001
5.441640e+002, 2.213280e+001
5.446461e+002, 2.216890e+001
5.451282e+002, 2.215903e+001
5.456104e+002, 2.211242e+001
5.460925e+002, 2.208620e+001
5.465746e+002, 2.210902e+001
5.470567e+002, 2.216303e+001
5.475388e+002, 2.224656e+001
5.480209e+002, 2.237682e+001
5.485031e+002, 2.247568e+001
5.489852e+002, 2.253351e+001
5.494673e+002, 2.254953e+001
5.499494e+002, 2.252309e+001
5.504315e+002, 2.244628e+001
5.509136e+002, 2.233233e+001
5.513958e+002, 2.212359e+001
5.518779e+002, 2.189251e+001
5.523600e+002, 2.189149e+001
5.528421e+002, 2.219506e+001
5.533242e+002, 2.246617e+001
5.538063e+002, 2.255057e+001
5.542885e+002, 2.247251e+001
5.547706e+002, 2.242019e+001
5.552527e+002, 2.239526e+001
5.557348e+002, 2.237948e+001
5.562169e+002, 2.236328e+001
5.566990e+002, 2.234398e+001
5.571812e+002, 2.230818e+001
5.576633e+002, 2.224710e+001
5.581454e+002, 2.219652e+001
5.586275e+002, 2.219855e+001
5.591096e+002, 2.223438e+001
5.595917e+002, 2.227079e+001
5.600739e+002, 2.229618e+001
5.605560e+002, 2.231701e+001
5.610381e+002, 2.230813e+001
5.615202e+002, 2.228845e+001
5.620023e+002, 2.233947e+001
5.624844e+002, 2.265441e+001
5.629666e+002, 2.289607e+001
5.634487e+002, 2.286810e+001
5.639308e+002, 2.249067e+001
5.644129e+002, 2.224175e+001
5.648950e+002, 2.213938e+001
5.653771e+002, 2.214561e+001
5.658593e+002, 2.226803e+001
5.663414e+002, 2.256961e+001
5.668235e+002, 2.270141e+001
5.673056e+002, 2.258805e+001
5.677877e+002, 2.235625e+001
5.682698e+002, 2.224119e+001
5.687520e+002, 2.223477e+001
5.692341e+002, 2.221355e+001
5.697162e+002, 2.210749e+001
5.701983e+002, 2.197310e+001
5.706804e+002, 2.191715e+001
5.711625e+002, 2.193216e+001
5.716447e+002, 2.196189e+001
5.721268e+002, 2.194402e+001
5.726089e+002, 2.193818e+001
5.730910e+002, 2.201921e+001
5.735731e+002, 2.220902e+001
5.740552e+002, 2.238199e+001
5.745374e+002, 2.253628e+001
5.750195e+002, 2.262060e+001
5.755016e+002, 2.258802e+001
5.759837e+002, 2.224823e+001
5.764658e+002, 2.201553e+001
5.769479e+002, 2.196741e+001
5.774301e+002, 2.203785e+001
5.779122e+002, 2.210444e+001
5.783943e+002, 2.217745e+001
5.788764e+002, 2.222134e+001
5.793585e+002, 2.220078e+001
5.798406e+002, 2.213688e+001
5.803228e+002, 2.220716e+001
5.808049e+002, 2.243451e+001
5.812870e+002, 2.264730e+001
5.817691e+002, 2.274970e+001
5.822512e+002, 2.274529e+001
5.827333e+002, 2.261061e+001
5.832155e+002, 2.232837e+001
5.836975e+002, 2.207491e+001
5.841796e+002, 2.201326e+001
5.846617e+002, 2.209000e+001
5.851439e+002, 2.223840e+001
5.856260e+002, 2.254122e+001
5.861081e+002, 2.272818e+001
5.865902e+002, 2.250916e+001
5.870723e+002, 2.206953e+001
5.875544e+002, 2.177110e+001
5.880366e+002, 2.181440e+001
5.885187e+002, 2.190964e+001
5.890008e+002, 2.197262e+001
5.894829e+002, 2.200281e+001
5.899650e+002, 2.205000e+001
5.904471e+002, 2.214571e+001
5.909293e+002, 2.221579e+001
5.914114e+002, 2.221080e+001
5.918935e+002, 2.211210e+001
5.923756e+002, 2.209102e+001
5.928577e+002, 2.218556e+001
5.933398e+002, 2.225429e+001
5.938220e+002, 2.206507e+001
5.943041e+002, 2.167070e+001
5.947862e+002, 2.151036e+001
5.952683e+002, 2.171226e+001
5.957504e+002, 2.204505e+001
5.962325e+002, 2.223521e+001
5.967147e+002, 2.231879e+001
5.971968e+002, 2.238639e+001
5.976789e+002, 2.249685e+001
5.981610e+002, 2.259230e+001
5.986431e+002, 2.260748e+001
5.991252e+002, 2.256285e+001
5.996074e+002, 2.255374e+001
6.000895e+002, 2.269254e+001
6.005716e+002, 2.280828e+001
6.010537e+002, 2.280875e+001
6.015358e+002, 2.266062e+001
6.020179e+002, 2.251639e+001
6.025001e+002, 2.233213e+001
6.029822e+002, 2.219760e+001
6.034643e+002, 2.221369e+001
6.039464e+002, 2.246261e+001
6.044285e+002, 2.251315e+001
6.049106e+002, 2.227679e+001
6.053928e+002, 2.195050e+001
6.058749e+002, 2.181662e+001
6.063570e+002, 2.186844e+001
6.068391e+002, 2.203883e+001
6.073212e+002, 2.239522e+001
6.078033e+002, 2.274606e+001
6.082855e+002, 2.275159e+001
6.087676e+002, 2.248486e+001
6.092497e+002, 2.221531e+001
6.097318e+002, 2.204028e+001
6.102139e+002, 2.196068e+001
6.106960e+002, 2.201781e+001
6.111782e+002, 2.220655e+001
6.116603e+002, 2.236947e+001
6.121424e+002, 2.241627e+001
6.126245e+002, 2.244701e+001
6.131066e+002, 2.253865e+001
6.135887e+002, 2.279046e+001
6.140709e+002, 2.287949e+001
6.145530e+002, 2.272246e+001
6.150351e+002, 2.247862e+001
6.155172e+002, 2.229855e+001
6.159993e+002, 2.217664e+001
6.164814e+002, 2.214673e+001
6.169636e+002, 2.223398e+001
6.174457e+002, 2.238427e+001
6.179278e+002, 2.249473e+001
6.184099e+002, 2.256998e+001
6.188920e+002, 2.266047e+001
6.193741e+002, 2.282972e+001
6.198563e+002, 2.299616e+001
6.203384e+002, 2.302762e+001
6.208205e+002, 2.294029e+001
6.213026e+002, 2.281617e+001
6.217847e+002, 2.261994e+001
6.222668e+002, 2.246373e+001
6.227490e+002, 2.245985e+001
6.232311e+002, 2.263167e+001
6.237132e+002, 2.278228e+001
6.241953e+002, 2.289698e+001
6.246774e+002, 2.294694e+001
6.251595e+002, 2.290289e+001
6.256417e+002, 2.265616e+001
6.261238e+002, 2.254075e+001
6.266059e+002, 2.262079e+001
6.270880e+002, 2.276400e+001
6.275701e+002, 2.278234e+001
6.280522e+002, 2.265990e+001
6.285344e+002, 2.256819e+001
6.290165e+002, 2.254430e+001
6.294986e+002, 2.256840e+001
6.299807e+002, 2.260550e+001
6.304628e+002, 2.265695e+001
6.309449e+002, 2.272882e+001
6.314271e+002, 2.289975e+001
6.319092e+002, 2.304397e+001
6.323913e+002, 2.296232e+001
6.328734e+002, 2.269572e+001
6.333555e+002, 2.250783e+001
6.338376e+002, 2.252581e+001
6.343198e+002, 2.266404e+001
6.348019e+002, 2.292056e+001
6.352840e+002, 2.334730e+001
6.357661e+002, 2.360969e+001
6.362482e+002, 2.357964e+001
6.367303e+002, 2.345753e+001
6.372125e+002, 2.336818e+001
6.376946e+002, 2.330548e+001
6.381767e+002, 2.332026e+001
6.386588e+002, 2.347703e+001
6.391409e+002, 2.360399e+001
6.396230e+002, 2.333317e+001
6.401052e+002, 2.270543e+001
6.405873e+002, 2.239389e+001
6.410694e+002, 2.266142e+001
6.415515e+002, 2.316950e+001
6.420336e+002, 2.349405e+001
6.425157e+002, 2.364432e+001
6.429979e+002, 2.364990e+001
6.434800e+002, 2.334377e+001
6.439621e+002, 2.304728e+001
6.444442e+002, 2.303830e+001
6.449263e+002, 2.326734e+001
6.454084e+002, 2.342824e+001
6.458906e+002, 2.334532e+001
6.463727e+002, 2.323918e+001
6.468548e+002, 2.322495e+001
6.473369e+002, 2.332310e+001
6.478190e+002, 2.335452e+001
6.483011e+002, 2.325868e+001
6.487833e+002, 2.318667e+001
6.492654e+002, 2.330187e+001
6.497475e+002, 2.363617e+001
6.502296e+002, 2.372447e+001
6.507117e+002, 2.348811e+001
6.511938e+002, 2.321141e+001
6.516760e+002, 2.332812e+001
6.521581e+002, 2.370401e+001
6.526402e+002, 2.391236e+001
6.531223e+002, 2.380190e+001
6.536044e+002, 2.357485e+001
6.540865e+002, 2.336565e+001
6.545687e+002, 2.317531e+001
6.550508e+002, 2.300462e+001
6.555329e+002, 2.268466e+001
6.560150e+002, 2.255603e+001
6.564971e+002, 2.289121e+001
6.569792e+002, 2.357651e+001
6.574614e+002, 2.401192e+001
6.579435e+002, 2.404843e+001
6.584256e+002, 2.401126e+001
6.589077e+002, 2.400141e+001
6.593898e+002, 2.401573e+001
6.598719e+002, 2.395151e+001
6.603541e+002, 2.378075e+001
6.608362e+002, 2.366250e+001
6.613183e+002, 2.377383e+001
6.618004e+002, 2.403870e+001
6.622825e+002, 2.415243e+001
6.627646e+002, 2.409388e+001
6.632468e+002, 2.396516e+001
6.637289e+002, 2.378933e+001
6.642110e+002, 2.362396e+001
6.646931e+002, 2.355145e+001
6.651752e+002, 2.361587e+001
6.656573e+002, 2.370541e+001
6.661395e+002, 2.386068e+001
6.666216e+002, 2.398055e+001
6.671037e+002, 2.394047e+001
6.675858e+002, 2.343086e+001
6.680679e+002, 2.314348e+001
6.685500e+002, 2.322900e+001
6.690322e+002, 2.352432e+001
6.695143e+002, 2.367084e+001
6.699964e+002, 2.364278e+001
6.704785e+002, 2.359281e+001
6.709606e+002, 2.355363e+001
6.714427e+002, 2.353333e+001
6.719249e+002, 2.354394e+001
6.724070e+002, 2.358841e+001
6.728891e+002, 2.369394e+001
6.733712e+002, 2.402048e+001
6.738533e+002, 2.433084e+001
6.743354e+002, 2.423656e+001
6.748176e+002, 2.378061e+001
6.752997e+002, 2.348230e+001
6.757818e+002, 2.379391e+001
6.762639e+002, 2.420197e+001
6.767460e+002, 2.438151e+001
6.772281e+002, 2.422840e+001
6.777103e+002, 2.410122e+001
6.781924e+002, 2.399556e+001
6.786745e+002, 2.393894e+001
6.791566e+002, 2.397892e+001
6.796387e+002, 2.416296e+001
6.801208e+002, 2.418945e+001
6.806030e+002, 2.399646e+001
6.810851e+002, 2.376716e+001
6.815672e+002, 2.376315e+001
6.820493e+002, 2.392975e+001
6.825314e+002, 2.402354e+001
6.830135e+002, 2.395909e+001
6.834957e+002, 2.386481e+001
6.839778e+002, 2.387795e+001
6.844599e+002, 2.395838e+001
6.849420e+002, 2.402977e+001
6.854241e+002, 2.408079e+001
6.859063e+002, 2.410053e+001
6.863884e+002, 2.403171e+001
6.868705e+002, 2.392121e+001
6.873526e+002, 2.393393e+001
6.878347e+002, 2.416475e+001
6.883168e+002, 2.440018e+001
6.887990e+002, 2.463858e+001
6.892811e+002, 2.484583e+001
6.897632e+002, 2.467243e+001
6.902453e+002, 2.404401e+001
6.907274e+002, 2.355125e+001
6.912095e+002, 2.363491e+001
6.916917e+002, 2.411413e+001
6.921738e+002, 2.450130e+001
6.926559e+002, 2.478501e+001
6.931380e+002, 2.494914e+001
6.936201e+002, 2.488131e+001
6.941022e+002, 2.474608e+001
6.945844e+002, 2.473943e+001
6.950665e+002, 2.492272e+001
6.955486e+002, 2.497753e+001
6.960307e+002, 2.456022e+001
6.965128e+002, 2.412271e+001
6.969949e+002, 2.404089e+001
6.974771e+002, 2.459365e+001
6.979592e+002, 2.491252e+001
6.984413e+002, 2.490561e+001
6.989234e+002, 2.477997e+001
6.994055e+002, 2.478808e+001
6.998876e+002, 2.493288e+001
7.003698e+002, 2.506576e+001
7.008519e+002, 2.515769e+001
7.013340e+002, 2.523673e+001
7.018161e+002, 2.535260e+001
7.022982e+002, 2.548678e+001
7.027803e+002, 2.559131e+001
7.032625e+002, 2.563287e+001
7.037446e+002, 2.565868e+001
7.042267e+002, 2.562949e+001
7.047088e+002, 2.561070e+001
7.051909e+002, 2.574844e+001
7.056730e+002, 2.638234e+001
7.061552e+002, 2.683068e+001
7.066373e+002, 2.684569e+001
7.071194e+002, 2.653431e+001
7.076015e+002, 2.638256e+001
7.080836e+002, 2.640447e+001
7.085657e+002, 2.655425e+001
7.090479e+002, 2.687823e+001
7.095300e+002, 2.730794e+001
7.100121e+002, 2.749643e+001
7.104942e+002, 2.745585e+001
7.109763e+002, 2.747272e+001
7.114584e+002, 2.786820e+001
7.119406e+002, 2.836463e+001
7.124227e+002, 2.858770e+001
7.129048e+002, 2.852608e+001
7.133869e+002, 2.845524e+001
7.138690e+002, 2.842861e+001
7.143511e+002, 2.849864e+001
7.148333e+002, 2.872989e+001
7.153154e+002, 2.921396e+001
7.157975e+002, 2.957452e+001
7.162796e+002, 2.975102e+001
7.167617e+002, 2.988050e+001
7.172438e+002, 3.005116e+001
7.177260e+002, 3.025524e+001
7.182081e+002, 3.059656e+001
7.186902e+002, 3.110311e+001
7.191723e+002, 3.164706e+001
7.196544e+002, 3.212470e+001
7.201365e+002, 3.251456e+001
7.206187e+002, 3.272172e+001
7.211008e+002, 3.265083e+001
7.215829e+002, 3.262885e+001
7.220650e+002, 3.296622e+001
7.225471e+002, 3.348028e+001
7.230292e+002, 3.393398e+001
7.235114e+002, 3.414048e+001
7.239935e+002, 3.441652e+001
7.244756e+002, 3.487861e+001
7.249577e+002, 3.541426e+001
7.254398e+002, 3.581741e+001
7.259219e+002, 3.599251e+001
7.264041e+002, 3.633452e+001
7.268862e+002, 3.697251e+001
7.273683e+002, 3.778263e+001
7.278504e+002, 3.844665e+001
7.283325e+002, 3.898193e+001
7.288146e+002, 3.950774e+001
7.292968e+002, 4.004932e+001
7.297789e+002, 4.062585e+001
7.302610e+002, 4.133942e+001
7.307431e+002, 4.212082e+001
7.312252e+002, 4.274060e+001
7.317073e+002, 4.290775e+001
7.321895e+002, 4.307823e+001
7.326716e+002, 4.346127e+001
7.331537e+002, 4.405210e+001
7.336358e+002, 4.462041e+001
7.341179e+002, 4.514218e+001
7.346000e+002, 4.569774e+001
7.350822e+002, 4.633642e+001
7.355643e+002, 4.704619e+001
7.360464e+002, 4.765299e+001
7.365285e+002, 4.815036e+001
7.370106e+002, 4.867953e+001
7.374927e+002, 4.936821e+001
7.379749e+002, 5.014561e+001
7.384570e+002, 5.088417e+001
7.389391e+002, 5.157379e+001
7.394212e+002, 5.230275e+001
7.399033e+002, 5.320728e+001
7.403854e+002, 5.410845e+001
7.408676e+002, 5.483508e+001
7.413497e+002, 5.527625e+001
7.418318e+002, 5.593801e+001
7.423139e+002, 5.701348e+001
7.427960e+002, 5.813291e+001
7.432781e+002, 5.901071e+001
7.437603e+002, 5.957779e+001
7.442424e+002, 6.043925e+001
7.447245e+002, 6.167068e+001
7.452066e+002, 6.296135e+001
7.456887e+002, 6.397689e+001
7.461708e+002, 6.481428e+001
7.466530e+002, 6.569665e+001
7.471351e+002, 6.665192e+001
7.476172e+002, 6.769302e+001
7.480993e+002, 6.891576e+001
7.485814e+002, 7.019402e+001
7.490635e+002, 7.136913e+001
7.495457e+002, 7.234499e+001
7.500278e+002, 7.333665e+001
7.505099e+002, 7.436808e+001
7.509920e+002, 7.541068e+001
7.514741e+002, 7.637880e+001
7.519562e+002, 7.717326e+001
7.524384e+002, 7.832473e+001
7.529205e+002, 7.999406e+001
7.534026e+002, 8.182244e+001
7.538847e+002, 8.320591e+001
7.543668e+002, 8.423421e+001
7.548489e+002, 8.530441e+001
7.553311e+002, 8.658537e+001
7.558132e+002, 8.785197e+001
7.562953e+002, 8.880807e+001
7.567774e+002, 8.961952e+001
7.572595e+002, 9.055625e+001
7.577416e+002, 9.200795e+001
7.582238e+002, 9.324721e+001
7.587059e+002, 9.393784e+001
7.591880e+002, 9.436696e+001
7.596701e+002, 9.514632e+001
7.601522e+002, 9.637959e+001
7.606343e+002, 9.766068e+001
7.611165e+002, 9.891624e+001
7.615986e+002, 1.001484e+002
7.620807e+002, 1.014358e+002
7.625628e+002, 1.027431e+002
7.630449e+002, 1.038551e+002
7.635270e+002, 1.045155e+002
7.640092e+002, 1.050722e+002
7.644913e+002, 1.058355e+002
7.649734e+002, 1.067682e+002
7.654555e+002, 1.077658e+002
7.659376e+002, 1.088783e+002
7.664197e+002, 1.099416e+002
7.669019e+002, 1.108238e+002
7.673840e+002, 1.115854e+002
7.678661e+002, 1.125436e+002
7.683482e+002, 1.137876e+002
7.688303e+002, 1.149567e+002
7.693124e+002, 1.158904e+002
7.697946e+002, 1.166329e+002
7.702767e+002, 1.172794e+002
7.707588e+002, 1.178570e+002
7.712409e+002, 1.186221e+002
7.717230e+002, 1.198752e+002
7.722051e+002, 1.212894e+002
7.726873e+002, 1.225698e+002
7.731694e+002, 1.237219e+002
7.736515e+002, 1.248171e+002
7.741336e+002, 1.258394e+002
7.746157e+002, 1.268626e+002
7.750978e+002, 1.278778e+002
7.755800e+002, 1.288910e+002
7.760621e+002, 1.301303e+002
7.765442e+002, 1.316600e+002
7.770263e+002, 1.332398e+002
7.775084e+002, 1.346532e+002
7.779905e+002, 1.359898e+002
7.784727e+002, 1.377279e+002
7.789548e+002, 1.398447e+002
7.794369e+002, 1.419439e+002
7.799190e+002, 1.435117e+002
7.804011e+002, 1.450710e+002
7.808832e+002, 1.472496e+002
7.813654e+002, 1.500612e+002
7.818475e+002, 1.528377e+002
7.823296e+002, 1.555854e+002
7.828117e+002, 1.580216e+002
7.832938e+002, 1.598645e+002
7.837759e+002, 1.609891e+002
7.842581e+002, 1.630076e+002
7.847402e+002, 1.660535e+002
7.852223e+002, 1.695444e+002
7.857044e+002, 1.732896e+002
7.861865e+002, 1.771702e+002
7.866686e+002, 1.807138e+002
7.871508e+002, 1.839326e+002
7.876329e+002, 1.873953e+002
7.881150e+002, 1.916207e+002
7.885971e+002, 1.963171e+002
7.890792e+002, 2.010212e+002
7.895613e+002, 2.056865e+002
7.900435e+002, 2.109440e+002
7.905256e+002, 2.172813e+002
7.910077e+002, 2.240150e+002
7.914898e+002, 2.308993e+002
7.919719e+002, 2.378847e+002
7.924540e+002, 2.449353e+002
7.929362e+002, 2.518858e+002
7.934183e+002, 2.590677e+002
7.939004e+002, 2.664455e+002
7.943825e+002, 2.742293e+002
7.948646e+002, 2.829171e+002
7.953467e+002, 2.926247e+002
7.958289e+002, 3.026468e+002
7.963110e+002, 3.122261e+002
7.967931e+002, 3.219805e+002
7.972752e+002, 3.322791e+002
7.977573e+002, 3.433523e+002
7.982394e+002, 3.546240e+002
7.987216e+002, 3.659886e+002
7.992037e+002, 3.775919e+002
7.996858e+002, 3.894036e+002
8.001679e+002, 4.014567e+002
8.006500e+002, 4.138114e+002
8.011321e+002, 4.266373e+002
8.016143e+002, 4.397542e+002
8.020964e+002, 4.533121e+002
8.025785e+002, 4.669501e+002
8.030606e+002, 4.801035e+002
8.035427e+002, 4.926650e+002
8.040248e+002, 5.051407e+002
8.045070e+002, 5.184916e+002
8.049891e+002, 5.315655e+002
8.054712e+002, 5.433693e+002
8.059533e+002, 5.535124e+002
8.064354e+002, 5.635634e+002
8.069175e+002, 5.737752e+002
8.073997e+002, 5.835178e+002
8.078818e+002, 5.923918e+002
8.083639e+002, 6.003275e+002
8.088460e+002, 6.074866e+002
8.093281e+002, 6.138643e+002
8.098102e+002, 6.195593e+002
8.102924e+002, 6.247292e+002
8.107745e+002, 6.292440e+002
8.112566e+002, 6.327455e+002
8.117387e+002, 6.350608e+002
8.122208e+002, 6.374039e+002
8.127029e+002, 6.404315e+002
8.131851e+002, 6.435496e+002
8.136672e+002, 6.464570e+002
8.141493e+002, 6.493176e+002
8.146314e+002, 6.512847e+002
8.151135e+002, 6.523250e+002
8.155956e+002, 6.525110e+002
8.160778e+002, 6.514452e+002
8.165599e+002, 6.494777e+002
8.170420e+002, 6.486336e+002
8.175241e+002, 6.490436e+002
8.180062e+002, 6.487194e+002
8.184883e+002, 6.458636e+002
8.189705e+002, 6.416280e+002
8.194526e+002, 6.371860e+002
8.199347e+002, 6.327878e+002
8.204168e+002, 6.274801e+002
8.208989e+002, 6.210627e+002
8.213810e+002, 6.136375e+002
8.218632e+002, 6.050684e+002
8.223453e+002, 5.952768e+002
8.228274e+002, 5.852006e+002
8.233095e+002, 5.751010e+002
8.237916e+002, 5.642247e+002
8.242737e+002, 5.521266e+002
8.247559e+002, 5.389620e+002
8.252380e+002, 5.249405e+002
8.257201e+002, 5.102101e+002
8.262022e+002, 4.950192e+002
8.266843e+002, 4.792340e+002
8.271664e+002, 4.634423e+002
8.276486e+002, 4.481400e+002
8.281307e+002, 4.333226e+002
8.286128e+002, 4.184415e+002
8.290949e+002, 4.032728e+002
8.295770e+002, 3.882177e+002
8.300591e+002, 3.732258e+002
8.305413e+002, 3.583834e+002
8.310234e+002, 3.440345e+002
8.315055e+002, 3.301743e+002
8.319876e+002, 3.166853e+002
8.324697e+002, 3.030605e+002
8.329518e+002, 2.899156e+002
8.334340e+002, 2.777435e+002
8.339161e+002, 2.666035e+002
8.343982e+002, 2.560401e+002
8.348803e+002, 2.458992e+002
8.353624e+002, 2.363411e+002
8.358445e+002, 2.274390e+002
8.363267e+002, 2.192139e+002
8.368088e+002, 2.111927e+002
8.372909e+002, 2.033857e+002
8.377730e+002, 1.959266e+002
8.382551e+002, 1.888625e+002
8.387372e+002, 1.822096e+002
8.392194e+002, 1.759473e+002
8.397015e+002, 1.701068e+002
8.401836e+002, 1.648690e+002
8.406657e+002, 1.607286e+002
8.411478e+002, 1.568693e+002
8.416299e+002, 1.528374e+002
8.421121e+002, 1.486338e+002
8.425942e+002, 1.446013e+002
8.430763e+002, 1.406908e+002
8.435584e+002, 1.370141e+002
8.440405e+002, 1.336166e+002
8.445226e+002, 1.304751e+002
8.450048e+002, 1.274781e+002
8.454869e+002, 1.246325e+002
8.459690e+002, 1.220484e+002
8.464511e+002, 1.199926e+002
8.469332e+002, 1.180817e+002
8.474153e+002, 1.158263e+002
8.478975e+002, 1.133775e+002
8.483796e+002, 1.111613e+002
8.488617e+002, 1.093533e+002
8.493438e+002, 1.077756e+002
8.498259e+002, 1.064489e+002
8.503080e+002, 1.053005e+002
8.507902e+002, 1.042204e+002
8.512723e+002, 1.032706e+002
8.517544e+002, 1.020387e+002
8.522365e+002, 1.002918e+002
8.527186e+002, 9.838576e+001
8.532007e+002, 9.694676e+001
8.536829e+002, 9.587012e+001
8.541650e+002, 9.484741e+001
8.546471e+002, 9.354019e+001
8.551292e+002, 9.252297e+001
8.556113e+002, 9.226686e+001
8.560934e+002, 9.244202e+001
8.565756e+002, 9.243089e+001
8.570577e+002, 9.210226e+001
8.575398e+002, 9.177618e+001
8.580219e+002, 9.144010e+001
8.585040e+002, 9.118520e+001
8.589861e+002, 9.118118e+001
8.594683e+002, 9.139944e+001
8.599504e+002, 9.169074e+001
8.604325e+002, 9.201318e+001
8.609146e+002, 9.241439e+001
8.613967e+002, 9.291363e+001
8.618788e+002, 9.352052e+001
8.623610e+002, 9.425095e+001
8.628431e+002, 9.505800e+001
8.633252e+002, 9.608633e+001
8.638073e+002, 9.743200e+001
8.642894e+002, 9.889149e+001
8.647715e+002, 1.002429e+002
8.652537e+002, 1.014782e+002
8.657358e+002, 1.028059e+002
8.662179e+002, 1.042689e+002
8.667000e+002, 1.057302e+002
8.671821e+002, 1.069155e+002
8.676642e+002, 1.080787e+002
8.681464e+002, 1.096292e+002
8.686285e+002, 1.117162e+002
8.691106e+002, 1.137158e+002
8.695927e+002, 1.152608e+002
8.700748e+002, 1.167656e+002
8.705569e+002, 1.184956e+002
8.710391e+002, 1.204791e+002
8.715212e+002, 1.224167e+002
8.720033e+002, 1.242718e+002
8.724854e+002, 1.261821e+002
8.729675e+002, 1.283357e+002
8.734496e+002, 1.305872e+002
8.739318e+002, 1.324770e+002
8.744139e+002, 1.340140e+002
8.748960e+002, 1.355109e+002
8.753781e+002, 1.372549e+002
8.758602e+002, 1.389266e+002
8.763423e+002, 1.401927e+002
8.768245e+002, 1.410480e+002
8.773066e+002, 1.423722e+002
8.777887e+002, 1.444624e+002
8.782708e+002, 1.463564e+002
8.787529e+002, 1.476214e+002
8.792350e+002, 1.484238e+002
8.797172e+002, 1.493091e+002
8.801993e+002, 1.502561e+002
8.806814e+002, 1.511771e+002
8.811635e+002, 1.520497e+002
8.816456e+002, 1.528563e+002
8.821277e+002, 1.535124e+002
8.826099e+002, 1.540855e+002
8.830920e+002, 1.547795e+002
8.835741e+002, 1.558178e+002
8.840562e+002, 1.567086e+002
8.845383e+002, 1.573495e+002
8.850204e+002, 1.578246e+002
8.855026e+002, 1.582928e+002
8.859847e+002, 1.587536e+002
8.864668e+002, 1.592749e+002
8.869489e+002, 1.599371e+002
8.874310e+002, 1.605202e+002
8.879131e+002, 1.607107e+002
8.883953e+002, 1.606797e+002
8.888774e+002, 1.606877e+002
8.893595e+002, 1.608661e+002
8.898416e+002, 1.610074e+002
8.903237e+002, 1.611447e+002
8.908058e+002, 1.611883e+002
8.912880e+002, 1.610273e+002
8.917701e+002, 1.606510e+002
8.922522e+002, 1.601745e+002
8.927343e+002, 1.595730e+002
8.932164e+002, 1.590747e+002
8.936985e+002, 1.590084e+002
8.941807e+002, 1.591589e+002
8.946628e+002, 1.592944e+002
8.951449e+002, 1.594244e+002
8.956270e+002, 1.591728e+002
8.961091e+002, 1.580998e+002
8.965912e+002, 1.568573e+002
8.970734e+002, 1.558239e+002
8.975555e+002, 1.550270e+002
8.980376e+002, 1.542890e+002
8.985197e+002, 1.536738e+002
8.990018e+002, 1.527817e+002
8.994839e+002, 1.513236e+002
8.999661e+002, 1.494128e+002
9.004482e+002, 1.471703e+002
9.009303e+002, 1.446239e+002
9.014124e+002, 1.420354e+002
9.018945e+002, 1.394687e+002
9.023766e+002, 1.369204e+002
9.028588e+002, 1.345094e+002
9.033409e+002, 1.321352e+002
9.038230e+002, 1.291898e+002
9.043051e+002, 1.255752e+002
9.047872e+002, 1.216443e+002
9.052693e+002, 1.173840e+002
9.057515e+002, 1.129603e+002
9.062336e+002, 1.086365e+002
9.067157e+002, 1.044036e+002
9.071978e+002, 1.002350e+002
9.076799e+002, 9.606316e+001
9.081620e+002, 9.204234e+001
9.086442e+002, 8.835025e+001
9.091263e+002, 8.478902e+001
9.096084e+002, 8.094526e+001
9.100905e+002, 7.649796e+001
9.105726e+002, 7.263005e+001
9.110547e+002, 6.945297e+001
9.115369e+002, 6.671960e+001
9.120190e+002, 6.415809e+001
9.125011e+002, 6.175640e+001
9.129832e+002, 5.943932e+001
9.134653e+002, 5.716273e+001
9.139474e+002, 5.518456e+001
9.144296e+002, 5.382548e+001
9.149117e+002, 5.273014e+001
9.153938e+002, 5.159948e+001
9.158759e+002, 5.037008e+001
9.163580e+002, 4.926360e+001
9.168401e+002, 4.827511e+001
9.173223e+002, 4.742012e+001
9.178044e+002, 4.670221e+001
9.182865e+002, 4.612963e+001
9.187686e+002, 4.575847e+001
9.192507e+002, 4.556933e+001
9.197328e+002, 4.538562e+001
9.202150e+002, 4.511841e+001
9.206971e+002, 4.480349e+001
9.211792e+002, 4.443969e+001
9.216613e+002, 4.403685e+001
9.221434e+002, 4.367298e+001
9.226255e+002, 4.337766e+001
9.231077e+002, 4.304264e+001
9.235898e+002, 4.259612e+001
9.240719e+002, 4.213441e+001
9.245540e+002, 4.192872e+001
9.250361e+002, 4.191144e+001
9.255182e+002, 4.182360e+001
9.260004e+002, 4.162355e+001
9.264825e+002, 4.123026e+001
9.269646e+002, 4.042381e+001
9.274467e+002, 3.944419e+001
9.279288e+002, 3.866880e+001
9.284109e+002, 3.817799e+001
9.288931e+002, 3.776880e+001
9.293752e+002, 3.746496e+001
9.298573e+002, 3.718072e+001
9.303394e+002, 3.683688e+001
9.308215e+002, 3.643148e+001
9.313036e+002, 3.590296e+001
9.317858e+002, 3.523070e+001
9.322679e+002, 3.463697e+001
9.327500e+002, 3.435900e+001
9.332321e+002, 3.415443e+001
9.337142e+002, 3.380033e+001
9.341964e+002, 3.324662e+001
9.346785e+002, 3.286083e+001
9.351606e+002, 3.268739e+001
9.356427e+002, 3.258456e+001
9.361248e+002, 3.251644e+001
9.366069e+002, 3.245240e+001
9.370891e+002, 3.226635e+001
9.375712e+002, 3.198080e+001
9.380533e+002, 3.172122e+001
9.385354e+002, 3.160705e+001
9.390175e+002, 3.148602e+001
9.394996e+002, 3.122836e+001
9.399818e+002, 3.089807e+001
9.404639e+002, 3.068882e+001
9.409460e+002, 3.064782e+001
9.414281e+002, 3.062419e+001
9.419102e+002, 3.060571e+001
9.423923e+002, 3.056682e+001
9.428745e+002, 3.038924e+001
9.433566e+002, 3.015698e+001
9.438387e+002, 3.017954e+001
9.443208e+002, 3.064330e+001
9.448029e+002, 3.094763e+001
9.452850e+002, 3.057837e+001
9.457672e+002, 3.000010e+001
9.462493e+002, 2.965549e+001
9.467314e+002, 2.962338e+001
9.472135e+002, 2.953498e+001
9.476956e+002, 2.934489e+001
9.481777e+002, 2.925424e+001
9.486599e+002, 2.957950e+001
9.491420e+002, 3.008165e+001
9.496241e+002, 3.007330e+001
9.501062e+002, 2.961178e+001
9.505883e+002, 2.928386e+001
9.510704e+002, 2.955878e+001
9.515526e+002, 2.989582e+001
9.520347e+002, 3.000665e+001
9.525168e+002, 2.994782e+001
9.529989e+002, 2.995534e+001
9.534810e+002, 3.006301e+001
9.539631e+002, 3.005741e+001
9.544453e+002, 2.982166e+001
9.549274e+002, 2.954339e+001
9.554095e+002, 2.959156e+001
9.558916e+002, 2.982780e+001
9.563737e+002, 2.995094e+001
9.568558e+002, 2.981100e+001
9.573380e+002, 2.965081e+001
9.578201e+002, 2.948484e+001
9.583022e+002, 2.938435e+001
9.587843e+002, 2.941797e+001
9.592664e+002, 2.959981e+001
9.597485e+002, 2.989976e+001
9.602307e+002, 3.035015e+001
9.607128e+002, 3.066643e+001
9.611949e+002, 3.044603e+001
9.616770e+002, 3.000881e+001
9.621591e+002, 2.979224e+001
9.626412e+002, 2.982034e+001
9.631234e+002, 2.995337e+001
9.636055e+002, 3.028678e+001
9.640876e+002, 3.055539e+001
9.645697e+002, 3.065560e+001
9.650518e+002, 3.061972e+001
9.655339e+002, 3.057904e+001
9.660161e+002, 3.053325e+001
9.664982e+002, 3.052057e+001
9.669803e+002, 3.057128e+001
9.674624e+002, 3.063512e+001
9.679445e+002, 3.067460e+001
9.684266e+002, 3.068269e+001
9.689088e+002, 3.064712e+001
9.693909e+002, 3.051724e+001
9.698730e+002, 3.040619e+001
9.703551e+002, 3.029500e+001
9.708372e+002, 3.023678e+001
9.713193e+002, 3.029940e+001
9.718015e+002, 3.047222e+001
9.722836e+002, 3.069683e+001
9.727657e+002, 3.097250e+001
9.732478e+002, 3.114074e+001
9.737299e+002, 3.096666e+001
9.742120e+002, 3.071828e+001
9.746942e+002, 3.062156e+001
9.751763e+002, 3.069705e+001
9.756584e+002, 3.077668e+001
9.761405e+002, 3.087056e+001
9.766226e+002, 3.092790e+001
9.771047e+002, 3.092370e+001
9.775869e+002, 3.087534e+001
9.780690e+002, 3.081297e+001
9.785511e+002, 3.074584e+001
9.790332e+002, 3.070825e+001
9.795153e+002, 3.072567e+001
9.799974e+002, 3.075783e+001
9.804796e+002, 3.083165e+001
9.809617e+002, 3.088411e+001
9.814438e+002, 3.081316e+001
9.819259e+002, 3.053090e+001
9.824080e+002, 3.040814e+001
9.828901e+002, 3.048971e+001
9.833723e+002, 3.062457e+001
9.838544e+002, 3.066294e+001
9.843365e+002, 3.064654e+001
9.848186e+002, 3.065823e+001
9.853007e+002, 3.070411e+001
9.857828e+002, 3.073076e+001
9.862650e+002, 3.065203e+001
9.867471e+002, 3.062089e+001
9.872292e+002, 3.076048e+001
9.877113e+002, 3.100605e+001
9.881934e+002, 3.095497e+001
9.886755e+002, 3.058935e+001
9.891577e+002, 3.034033e+001
9.896398e+002, 3.038175e+001
9.901219e+002, 3.060270e+001
9.906040e+002, 3.101333e+001
9.910861e+002, 3.147264e+001
9.915682e+002, 3.174064e+001
9.920504e+002, 3.160987e+001
9.925325e+002, 3.149411e+001
9.930146e+002, 3.145409e+001
9.934967e+002, 3.140482e+001
9.939788e+002, 3.120088e+001
9.944609e+002, 3.088247e+001
9.949431e+002, 3.087170e+001
9.954252e+002, 3.118884e+001
9.959073e+002, 3.144645e+001
9.963894e+002, 3.121743e+001
9.968715e+002, 3.094227e+001
9.973536e+002, 3.105747e+001
9.978358e+002, 3.151859e+001
9.983179e+002, 3.155234e+001
9.988000e+002, 3.092393e+001
9.992821e+002, 3.045243e+001
9.997642e+002, 3.039606e+001
1.000246e+003, 3.059740e+001
1.000728e+003, 3.078762e+001
1.001211e+003, 3.097314e+001
1.001693e+003, 3.117433e+001
1.002175e+003, 3.145070e+001
1.002657e+003, 3.162980e+001
1.003139e+003, 3.152560e+001
1.003621e+003, 3.136553e+001
1.004103e+003, 3.137890e+001
1.004585e+003, 3.162483e+001
1.005068e+003, 3.167057e+001
1.005550e+003, 3.149603e+001
1.006032e+003, 3.131757e+001
1.006514e+003, 3.131759e+001
1.006996e+003, 3.139473e+001
1.007478e+003, 3.145776e+001
1.007960e+003, 3.149031e+001
1.008442e+003, 3.143771e+001
1.008924e+003, 3.110929e+001
1.009407e+003, 3.093421e+001
1.009889e+003, 3.106956e+001
1.010371e+003, 3.133754e+001
1.010853e+003, 3.129400e+001
1.011335e+003, 3.101023e+001
1.011817e+003, 3.100591e+001
1.012299e+003, 3.147783e+001
1.012781e+003, 3.191133e+001
1.013263e+003, 3.181254e+001
1.013746e+003, 3.155975e+001
1.014228e+003, 3.157406e+001
1.014710e+003, 3.199621e+001
1.015192e+003, 3.199825e+001
1.015674e+003, 3.141156e+001
1.016156e+003, 3.096216e+001
1.016638e+003, 3.126931e+001
1.017120e+003, 3.193279e+001
1.017603e+003, 3.200635e+001
1.018085e+003, 3.165221e+001
1.018567e+003, 3.144158e+001
1.019049e+003, 3.188024e+001
1.019531e+003, 3.218709e+001
1.020013e+003, 3.198432e+001
1.020495e+003, 3.161871e+001
1.020977e+003, 3.164156e+001
1.021459e+003, 3.206504e+001
1.021942e+003, 3.231649e+001
1.022424e+003, 3.231433e+001
1.022906e+003, 3.221165e+001
1.023388e+003, 3.207283e+001
1.023870e+003, 3.195836e+001
1.024352e+003, 3.195329e+001
1.024834e+003, 3.207707e+001
1.025316e+003, 3.211813e+001
1.025799e+003, 3.193931e+001
1.026281e+003, 3.195342e+001
1.026763e+003, 3.245265e+001
1.027245e+003, 3.314853e+001
1.027727e+003, 3.325615e+001
1.028209e+003, 3.291610e+001
1.028691e+003, 3.259151e+001
1.029173e+003, 3.244231e+001
1.029656e+003, 3.237773e+001
1.030138e+003, 3.242693e+001
1.030620e+003, 3.249742e+001
1.031102e+003, 3.246964e+001
1.031584e+003, 3.229835e+001
1.032066e+003, 3.231574e+001
1.032548e+003, 3.254799e+001
1.033030e+003, 3.277784e+001
1.033512e+003, 3.276192e+001
1.033995e+003, 3.268288e+001
1.034477e+003, 3.282373e+001
1.034959e+003, 3.313662e+001
1.035441e+003, 3.325094e+001
1.035923e+003, 3.284274e+001
1.036405e+003, 3.260089e+001
1.036887e+003, 3.271360e+001
1.037369e+003, 3.300052e+001
1.037851e+003, 3.310138e+001
1.038334e+003, 3.306697e+001
1.038816e+003, 3.312801e+001
1.039298e+003, 3.337958e+001
1.039780e+003, 3.352968e+001
1.040262e+003, 3.328354e+001
1.040744e+003, 3.295179e+001
1.041226e+003, 3.278353e+001
1.041708e+003, 3.278890e+001
1.042191e+003, 3.282770e+001
1.042673e+003, 3.291283e+001
1.043155e+003, 3.292434e+001
1.043637e+003, 3.272934e+001
1.044119e+003, 3.248287e+001
1.044601e+003, 3.237899e+001
1.045083e+003, 3.239336e+001
1.045565e+003, 3.247343e+001
1.046047e+003, 3.266448e+001
1.046530e+003, 3.284407e+001
1.047012e+003, 3.304515e+001
1.047494e+003, 3.316602e+001
1.047976e+003, 3.302990e+001
1.048458e+003, 3.270139e+001
1.048940e+003, 3.247447e+001
1.049422e+003, 3.237231e+001
1.049904e+003, 3.241918e+001
1.050386e+003, 3.285134e+001
1.050869e+003, 3.323182e+001
1.051351e+003, 3.321293e+001
1.051833e+003, 3.290527e+001
1.052315e+003, 3.275621e+001
1.052797e+003, 3.278178e+001
1.053279e+003, 3.284813e+001
1.053761e+003, 3.292834e+001
1.054243e+003, 3.301136e+001
1.054726e+003, 3.311804e+001
1.055208e+003, 3.320408e+001
1.055690e+003, 3.319771e+001
1.056172e+003, 3.304857e+001
1.056654e+003, 3.292714e+001
1.057136e+003, 3.289544e+001
1.057618e+003, 3.280497e+001
1.058100e+003, 3.249016e+001
1.058583e+003, 3.205838e+001
1.059065e+003, 3.194357e+001
1.059547e+003, 3.210625e+001
1.060029e+003, 3.236541e+001
1.060511e+003, 3.282226e+001
1.060993e+003, 3.312662e+001
1.061475e+003, 3.298289e+001
1.061957e+003, 3.267280e+001
1.062439e+003, 3.260689e+001
1.062922e+003, 3.282979e+001
1.063404e+003, 3.285694e+001
1.063886e+003, 3.262695e+001
1.064368e+003, 3.243244e+001
1.064850e+003, 3.265272e+001
1.065332e+003, 3.295243e+001
1.065814e+003, 3.297750e+001
1.066296e+003, 3.272272e+001
1.066778e+003, 3.246206e+001
1.067261e+003, 3.214813e+001
1.067743e+003, 3.200006e+001
1.068225e+003, 3.211406e+001
1.068707e+003, 3.235303e+001
1.069189e+003, 3.244721e+001
1.069671e+003, 3.246721e+001
1.070153e+003, 3.262891e+001
1.070635e+003, 3.308514e+001
1.071118e+003, 3.329403e+001
1.071600e+003, 3.273701e+001
1.072082e+003, 3.214603e+001
1.072564e+003, 3.193836e+001
1.073046e+003, 3.208787e+001
1.073528e+003, 3.230154e+001
1.074010e+003, 3.256847e+001
1.074492e+003, 3.274946e+001
1.074974e+003, 3.273251e+001
1.075457e+003, 3.264354e+001
1.075939e+003, 3.250351e+001
1.076421e+003, 3.237957e+001
1.076903e+003, 3.240084e+001
1.077385e+003, 3.264899e+001
1.077867e+003, 3.279171e+001
1.078349e+003, 3.279996e+001
1.078831e+003, 3.276050e+001
1.079313e+003, 3.275650e+001
1.079796e+003, 3.275370e+001
1.080278e+003, 3.267731e+001
1.080760e+003, 3.253978e+001
1.081242e+003, 3.245299e+001
1.081724e+003, 3.250204e+001
1.082206e+003, 3.254200e+001
1.082688e+003, 3.254993e+001
1.083170e+003, 3.252780e+001
1.083652e+003, 3.241653e+001
1.084135e+003, 3.227198e+001
1.084617e+003, 3.236658e+001
1.085099e+003, 3.279608e+001
1.085581e+003, 3.311848e+001
1.086063e+003, 3.301867e+001
1.086545e+003, 3.277386e+001
1.087027e+003, 3.254396e+001
1.087509e+003, 3.233179e+001
1.087992e+003, 3.211264e+001
1.088474e+003, 3.188547e+001
1.088956e+003, 3.173081e+001
1.089438e+003, 3.162921e+001
1.089920e+003, 3.170541e+001
1.090402e+003, 3.233205e+001
1.090884e+003, 3.310337e+001
1.091366e+003, 3.343851e+001
1.091849e+003, 3.310319e+001
1.092331e+003, 3.273771e+001
1.092813e+003, 3.229839e+001
1.093295e+003, 3.197692e+001
1.093777e+003, 3.194029e+001
1.094259e+003, 3.210470e+001
1.094741e+003, 3.239396e+001
1.095223e+003, 3.275433e+001
1.095705e+003, 3.300939e+001
1.096188e+003, 3.297976e+001
1.096670e+003, 3.299239e+001
1.097152e+003, 3.313322e+001
1.097634e+003, 3.329312e+001
1.098116e+003, 3.333158e+001
1.098598e+003, 3.326544e+001
1.099080e+003, 3.315966e+001
1.099562e+003, 3.302109e+001
1.100044e+003, 3.289814e+001
1.100527e+003, 3.286264e+001
1.101009e+003, 3.280656e+001
1.101491e+003, 3.261034e+001
1.101973e+003, 3.235773e+001
1.102455e+003, 3.237016e+001
1.102937e+003, 3.265175e+001
1.103419e+003, 3.279255e+001
1.103901e+003, 3.265217e+001
1.104384e+003, 3.250204e+001
1.104866e+003, 3.269405e+001
1.105348e+003, 3.295118e+001
1.105830e+003, 3.298655e+001
1.106312e+003, 3.274654e+001
1.106794e+003, 3.245153e+001
1.107276e+003, 3.204879e+001
1.107758e+003, 3.180565e+001
1.108240e+003, 3.189865e+001
1.108723e+003, 3.214894e+001
1.109205e+003, 3.229712e+001
1.109687e+003, 3.238338e+001
1.110169e+003, 3.249015e+001
1.110651e+003, 3.271081e+001
1.111133e+003, 3.281134e+001
1.111615e+003, 3.273331e+001
1.112097e+003, 3.261768e+001
1.112579e+003, 3.256841e+001
1.113062e+003, 3.257011e+001
1.113544e+003, 3.258449e+001
1.114026e+003, 3.260414e+001
1.114508e+003, 3.259574e+001
1.114990e+003, 3.253396e+001
1.115472e+003, 3.245225e+001
1.115954e+003, 3.236531e+001
1.116436e+003, 3.226322e+001
1.116919e+003, 3.210197e+001
1.117401e+003, 3.189269e+001
1.117883e+003, 3.185979e+001
1.118365e+003, 3.202346e+001
1.118847e+003, 3.209178e+001
1.119329e+003, 3.168843e+001
1.119811e+003, 3.127629e+001
1.120293e+003, 3.118322e+001
1.120776e+003, 3.133914e+001
1.121258e+003, 3.153192e+001
1.121740e+003, 3.178503e+001
1.122222e+003, 3.179607e+001
1.122704e+003, 3.144369e+001
1.123186e+003, 3.108674e+001
1.123668e+003, 3.114239e+001
1.124150e+003, 3.135237e+001
1.124632e+003, 3.144256e+001
1.125115e+003, 3.136626e+001
1.125597e+003, 3.133258e+001
1.126079e+003, 3.137589e+001
1.126561e+003, 3.134900e+001
1.127043e+003, 3.116570e+001
1.127525e+003, 3.093225e+001
1.128007e+003, 3.080920e+001
1.128489e+003, 3.076563e+001
1.128971e+003, 3.076257e+001
1.129454e+003, 3.084247e+001
1.129936e+003, 3.081179e+001
1.130418e+003, 3.061028e+001
1.130900e+003, 3.038774e+001
1.131382e+003, 3.021832e+001
1.131864e+003, 3.010223e+001
1.132346e+003, 3.006602e+001
1.132828e+003, 3.008243e+001
1.133311e+003, 3.006174e+001
1.133793e+003, 2.994490e+001
1.134275e+003, 2.980479e+001
1.134757e+003, 2.956202e+001
1.135239e+003, 2.940240e+001
1.135721e+003, 2.958583e+001
1.136203e+003, 3.004945e+001
1.136685e+003, 3.027043e+001
1.137167e+003, 3.024428e+001
1.137650e+003, 3.009629e+001
1.138132e+003, 2.973362e+001
1.138614e+003, 2.945275e+001
1.139096e+003, 2.946922e+001
1.139578e+003, 2.962877e+001
1.140060e+003, 2.969860e+001
1.140542e+003, 2.967793e+001
1.141024e+003, 2.964760e+001
1.141506e+003, 2.961600e+001
1.141989e+003, 2.958640e+001
1.142471e+003, 2.959719e+001
1.142953e+003, 2.958008e+001
1.143435e+003, 2.941182e+001
1.143917e+003, 2.915910e+001
1.144399e+003, 2.916218e+001
1.144881e+003, 2.947257e+001
1.145363e+003, 2.969192e+001
1.145846e+003, 2.972761e+001
1.146328e+003, 2.965931e+001
1.146810e+003, 2.945241e+001
1.147292e+003, 2.926462e+001
1.147774e+003, 2.931616e+001
1.148256e+003, 2.965709e+001
1.148738e+003, 2.977842e+001
1.149220e+003, 2.959644e+001
1.149703e+003, 2.948165e+001
1.150185e+003, 2.960539e+001
1.150667e+003, 2.977570e+001
1.151149e+003, 2.965591e+001
1.151631e+003, 2.940770e+001
1.152113e+003, 2.929056e+001
1.152595e+003, 2.939226e+001
1.153077e+003, 2.952822e+001
1.153559e+003, 2.972788e+001
1.154042e+003, 2.985131e+001
1.154524e+003, 2.977325e+001
1.155006e+003, 2.961417e+001
1.155488e+003, 2.967971e+001
1.155970e+003, 2.987986e+001
1.156452e+003, 2.999259e+001
1.156934e+003, 2.989559e+001
1.157416e+003, 2.978946e+001
1.157898e+003, 2.964219e+001
1.158381e+003, 2.958568e+001
1.158863e+003, 2.978548e+001
1.159345e+003, 3.015659e+001
1.159827e+003, 3.034536e+001
1.160309e+003, 3.038700e+001
1.160791e+003, 3.042070e+001
1.161273e+003, 3.060401e+001
1.161755e+003, 3.065507e+001
1.162238e+003, 3.045691e+001
1.162720e+003, 3.015766e+001
1.163202e+003, 2.984330e+001
1.163684e+003, 2.954921e+001
1.164166e+003, 2.955749e+001
1.164648e+003, 2.984742e+001
1.165130e+003, 3.011393e+001
1.165612e+003, 3.015171e+001
1.166094e+003, 3.016511e+001
1.166577e+003, 3.025511e+001
1.167059e+003, 3.036354e+001
1.167541e+003, 3.036491e+001
1.168023e+003, 3.027632e+001
1.168505e+003, 3.037002e+001
1.168987e+003, 3.067645e+001
1.169469e+003, 3.085809e+001
1.169951e+003, 3.043365e+001
1.170433e+003, 3.005730e+001
1.170916e+003, 3.026069e+001
1.171398e+003, 3.077697e+001
1.171880e+003, 3.087208e+001
1.172362e+003, 3.055521e+001
1.172844e+003, 3.060274e+001
1.173326e+003, 3.121327e+001
1.173808e+003, 3.177363e+001
1.174290e+003, 3.169401e+001
1.174773e+003, 3.142156e+001
1.175255e+003, 3.129598e+001
1.175737e+003, 3.129464e+001
1.176219e+003, 3.122224e+001
1.176701e+003, 3.106919e+001
1.177183e+003, 3.106046e+001
1.177665e+003, 3.129921e+001
1.178147e+003, 3.154883e+001
1.178630e+003, 3.155032e+001
1.179112e+003, 3.147493e+001
1.179594e+003, 3.148750e+001
1.180076e+003, 3.159711e+001
1.180558e+003, 3.175663e+001
1.181040e+003, 3.198740e+001
1.181522e+003, 3.205104e+001
1.182004e+003, 3.177416e+001
1.182486e+003, 3.147241e+001
1.182969e+003, 3.155528e+001
1.183451e+003, 3.177225e+001
1.183933e+003, 3.180580e+001
1.184415e+003, 3.159118e+001
1.184897e+003, 3.141278e+001
1.185379e+003, 3.126733e+001
1.185861e+003, 3.116507e+001
1.186343e+003, 3.109095e+001
1.186825e+003, 3.109025e+001
1.187308e+003, 3.130117e+001
1.187790e+003, 3.159091e+001
1.188272e+003, 3.174199e+001
1.188754e+003, 3.168548e+001
1.189236e+003, 3.161201e+001
1.189718e+003, 3.152427e+001
1.190200e+003, 3.140989e+001
1.190682e+003, 3.120728e+001
1.191165e+003, 3.101866e+001
1.191647e+003, 3.100637e+001
1.192129e+003, 3.110195e+001
1.192611e+003, 3.116958e+001
1.193093e+003, 3.120188e+001
1.193575e+003, 3.115021e+001
1.194057e+003, 3.098512e+001
1.194539e+003, 3.085399e+001
1.195021e+003, 3.087227e+001
1.195504e+003, 3.099189e+001
1.195986e+003, 3.124103e+001
1.196468e+003, 3.153448e+001
1.196950e+003, 3.161007e+001
1.197432e+003, 3.125137e+001
1.197914e+003, 3.109507e+001
1.198396e+003, 3.123315e+001
1.198878e+003, 3.137929e+001
1.199360e+003, 3.121685e+001
1.199843e+003, 3.092120e+001
1.200325e+003, 3.072935e+001
1.200807e+003, 3.063366e+001
1.201289e+003, 3.056249e+001
1.201771e+003, 3.048302e+001
1.202253e+003, 3.048582e+001
1.202735e+003, 3.060696e+001
1.203217e+003, 3.072973e+001
1.203700e+003, 3.068361e+001
1.204182e+003, 3.058117e+001
1.204664e+003, 3.060649e+001
1.205146e+003, 3.074537e+001
1.205628e+003, 3.082387e+001
1.206110e+003, 3.080673e+001
1.206592e+003, 3.073290e+001
1.207074e+003, 3.057629e+001
1.207557e+003, 3.045471e+001
1.208039e+003, 3.058966e+001
1.208521e+003, 3.081185e+001
1.209003e+003, 3.084142e+001
1.209485e+003, 3.067138e+001
1.209967e+003, 3.062380e+001
1.210449e+003, 3.086004e+001
1.210931e+003, 3.090449e+001
1.211413e+003, 3.060081e+001
1.211896e+003, 3.022458e+001
1.212378e+003, 3.017684e+001
1.212860e+003, 3.027658e+001
1.213342e+003, 3.025196e+001
1.213824e+003, 3.007231e+001
1.214306e+003, 2.994011e+001
1.214788e+003, 2.986299e+001
1.215270e+003, 2.988278e+001
1.215752e+003, 3.005695e+001
1.216235e+003, 3.021508e+001
1.216717e+003, 3.001777e+001
1.217199e+003, 2.969408e+001
1.217681e+003, 2.960350e+001
1.218163e+003, 2.981511e+001
1.218645e+003, 2.994391e+001
1.219127e+003, 2.994456e+001
1.219609e+003, 2.990962e+001
1.220092e+003, 2.985091e+001
1.220574e+003, 2.980964e+001
1.221056e+003, 2.987292e+001
1.221538e+003, 2.998016e+001
1.222020e+003, 3.006381e+001
1.222502e+003, 3.011898e+001
1.222984e+003, 3.001867e+001
1.223466e+003, 2.967813e+001
1.223948e+003, 2.947230e+001
1.224431e+003, 2.958911e+001
1.224913e+003, 2.980070e+001
1.225395e+003, 2.977381e+001
1.225877e+003, 2.962972e+001
1.226359e+003, 2.951494e+001
1.226841e+003, 2.944009e+001
1.227323e+003, 2.955001e+001
1.227805e+003, 2.992449e+001
1.228287e+003, 3.014106e+001
1.228770e+003, 2.995128e+001
1.229252e+003, 2.965031e+001
1.229734e+003, 2.965740e+001
1.230216e+003, 2.980165e+001
1.230698e+003, 2.984562e+001
1.231180e+003, 2.972606e+001
1.231662e+003, 2.963752e+001
1.232144e+003, 2.955981e+001
1.232627e+003, 2.964045e+001
1.233109e+003, 3.003823e+001
1.233591e+003, 3.047275e+001
1.234073e+003, 3.065811e+001
1.234555e+003, 3.065165e+001
1.235037e+003, 3.049735e+001
1.235519e+003, 3.016881e+001
1.236001e+003, 2.993764e+001
1.236484e+003, 2.981432e+001
1.236966e+003, 2.971321e+001
1.237448e+003, 2.958833e+001
1.237930e+003, 2.947493e+001
1.238412e+003, 2.942620e+001
1.238894e+003, 2.940004e+001
1.239376e+003, 2.930346e+001
1.239858e+003, 2.908317e+001
1.240340e+003, 2.920797e+001
1.240823e+003, 2.969293e+001
1.241305e+003, 3.012878e+001
1.241787e+003, 3.029885e+001
1.242269e+003, 3.032439e+001
1.242751e+003, 3.023728e+001
1.243233e+003, 3.010088e+001
1.243715e+003, 3.000699e+001
1.244197e+003, 2.997022e+001
1.244679e+003, 2.976210e+001
1.245162e+003, 2.938999e+001
1.245644e+003, 2.928771e+001
1.246126e+003, 3.001311e+001
1.246608e+003, 3.065438e+001
1.247090e+003, 3.044209e+001
1.247572e+003, 2.991370e+001
1.248054e+003, 2.970556e+001
1.248536e+003, 2.982842e+001
1.249019e+003, 2.993113e+001
1.249501e+003, 3.000795e+001
1.249983e+003, 2.998862e+001
1.250465e+003, 2.967963e+001
1.250947e+003, 2.945890e+001
1.251429e+003, 2.961456e+001
1.251911e+003, 2.988058e+001
1.252393e+003, 3.003004e+001
1.252875e+003, 3.006450e+001
1.253358e+003, 3.000071e+001
1.253840e+003, 2.985052e+001
1.254322e+003, 2.969641e+001
1.254804e+003, 2.946839e+001
1.255286e+003, 2.939515e+001
1.255768e+003, 2.968312e+001
1.256250e+003, 3.002155e+001
1.256732e+003, 3.014998e+001
1.257214e+003, 3.009792e+001
1.257697e+003, 3.000946e+001
1.258179e+003, 2.990050e+001
1.258661e+003, 2.983901e+001
1.259143e+003, 2.991442e+001
1.259625e+003, 2.995803e+001
1.260107e+003, 2.994691e+001
1.260589e+003, 2.988756e+001
1.261071e+003, 2.976475e+001
1.261554e+003, 2.960190e+001
1.262036e+003, 2.944233e+001
1.262518e+003, 2.930697e+001
1.263000e+003, 2.925916e+001
1.263482e+003, 2.944793e+001
1.263964e+003, 2.951490e+001
1.264446e+003, 2.936564e+001
1.264928e+003, 2.924099e+001
1.265411e+003, 2.941960e+001
1.265893e+003, 2.971973e+001
1.266375e+003, 2.977878e+001
1.266857e+003, 2.966532e+001
1.267339e+003, 2.957413e+001
1.267821e+003, 2.961738e+001
1.268303e+003, 2.956211e+001
1.268785e+003, 2.938611e+001
1.269267e+003, 2.917783e+001
1.269750e+003, 2.896267e+001
1.270232e+003, 2.879277e+001
1.270714e+003, 2.873678e+001
1.271196e+003, 2.877775e+001
1.271678e+003, 2.889391e+001
1.272160e+003, 2.914486e+001
1.272642e+003, 2.925348e+001
1.273124e+003, 2.920526e+001
1.273606e+003, 2.907325e+001
1.274089e+003, 2.877227e+001
1.274571e+003, 2.854288e+001
1.275053e+003, 2.873749e+001
1.275535e+003, 2.910024e+001
1.276017e+003, 2.916513e+001
1.276499e+003, 2.886675e+001
1.276981e+003, 2.868365e+001
1.277463e+003, 2.862340e+001
1.277946e+003, 2.847701e+001
1.278428e+003, 2.797229e+001
1.278910e+003, 2.749376e+001
1.279392e+003, 2.723829e+001
1.279874e+003, 2.718394e+001
1.280356e+003, 2.735568e+001
1.280838e+003, 2.774270e+001
1.281320e+003, 2.797013e+001
1.281802e+003, 2.803486e+001
1.282285e+003, 2.797796e+001
1.282767e+003, 2.762880e+001
1.283249e+003, 2.741777e+001
1.283731e+003, 2.766544e+001
1.284213e+003, 2.793121e+001
1.284695e+003, 2.777955e+001
1.285177e+003, 2.730902e+001
1.285659e+003, 2.695702e+001
1.286141e+003, 2.671796e+001
1.286624e+003, 2.656105e+001
1.287106e+003, 2.644120e+001
1.287588e+003, 2.648366e+001
1.288070e+003, 2.679862e+001
1.288552e+003, 2.706011e+001
1.289034e+003, 2.690249e+001
1.289516e+003, 2.653803e+001
1.289998e+003, 2.645547e+001
1.290481e+003, 2.656749e+001
1.290963e+003, 2.664482e+001
1.291445e+003, 2.664854e+001
1.291927e+003, 2.653456e+001
1.292409e+003, 2.625577e+001
1.292891e+003, 2.604481e+001
1.293373e+003, 2.621457e+001
1.293855e+003, 2.642809e+001
1.294338e+003, 2.614001e+001
1.294820e+003, 2.561596e+001
1.295302e+003, 2.539288e+001
1.295784e+003, 2.560727e+001
1.296266e+003, 2.565408e+001
1.296748e+003, 2.552275e+001
1.297230e+003, 2.541328e+001
1.297712e+003, 2.551006e+001
1.298194e+003, 2.560242e+001
1.298677e+003, 2.548485e+001
1.299159e+003, 2.529086e+001
1.299641e+003, 2.519169e+001
1.300123e+003, 2.518992e+001
1.300605e+003, 2.515033e+001
1.301087e+003, 2.507438e+001
1.301569e+003, 2.497222e+001
1.302051e+003, 2.479423e+001
1.302533e+003, 2.467461e+001
1.303016e+003, 2.466191e+001
##END=



