##NAMES=Palermoite
##RRUFFID=R120141
##IDEAL CHEMISTRY=Li_2_SrAl_4_(PO_4_)_4_(OH)_4_
##LOCALITY=Palermo No. 1 mine, Groton, New Hampshire, USA
##OWNER=RRUFF
##SOURCE=Benjamin N. Schumer
##DESCRIPTION=Striated, colorless, elongated prismatic crystals, associated with quartz, radiating childrenite, natropalermoite (R130092), and lefontite (R140539).
##STATUS=The identification of this mineral is confirmed by single-crystal X-ray diffraction and chemical analysis.
##URL=rruff.info/R120141
##MEASURED CHEMISTRY=(Li_1.87_Na_0.14_)(Sr_0.79_Ca_0.21_)(Al_3.89_Fe_0.01_)(PO_4_)_4.06_(OH)_3.99_
8.936163e+001, 0.000000e+000
8.984375e+001, 8.107832e+001
9.032587e+001, 8.263684e+001
9.080798e+001, 8.292427e+001
9.129010e+001, 8.140999e+001
9.177222e+001, 7.924146e+001
9.225433e+001, 7.778093e+001
9.273645e+001, 7.697808e+001
9.321857e+001, 7.637209e+001
9.370068e+001, 7.556882e+001
9.418280e+001, 7.464936e+001
9.466492e+001, 7.389954e+001
9.514703e+001, 7.353274e+001
9.562915e+001, 7.338131e+001
9.611127e+001, 7.296083e+001
9.659338e+001, 7.225631e+001
9.707550e+001, 7.136618e+001
9.755762e+001, 7.023200e+001
9.803973e+001, 6.883963e+001
9.852185e+001, 6.777676e+001
9.900397e+001, 6.749210e+001
9.948608e+001, 6.801142e+001
9.996820e+001, 6.800988e+001
1.004503e+002, 6.737060e+001
1.009324e+002, 6.633680e+001
1.014146e+002, 6.541209e+001
1.018967e+002, 6.463864e+001
1.023788e+002, 6.383116e+001
1.028609e+002, 6.282699e+001
1.033430e+002, 6.149951e+001
1.038251e+002, 6.041923e+001
1.043073e+002, 5.968588e+001
1.047894e+002, 5.924371e+001
1.052715e+002, 5.880768e+001
1.057536e+002, 5.836233e+001
1.062357e+002, 5.793587e+001
1.067178e+002, 5.754625e+001
1.072000e+002, 5.724820e+001
1.076821e+002, 5.691128e+001
1.081642e+002, 5.649625e+001
1.086463e+002, 5.599280e+001
1.091284e+002, 5.555588e+001
1.096105e+002, 5.532003e+001
1.100927e+002, 5.509138e+001
1.105748e+002, 5.469254e+001
1.110569e+002, 5.387608e+001
1.115390e+002, 5.311935e+001
1.120211e+002, 5.256831e+001
1.125032e+002, 5.230610e+001
1.129854e+002, 5.196002e+001
1.134675e+002, 5.134101e+001
1.139496e+002, 5.063610e+001
1.144317e+002, 5.010781e+001
1.149138e+002, 4.992673e+001
1.153959e+002, 4.986003e+001
1.158781e+002, 4.983966e+001
1.163602e+002, 4.995897e+001
1.168423e+002, 4.990404e+001
1.173244e+002, 4.952684e+001
1.178065e+002, 4.888795e+001
1.182886e+002, 4.814165e+001
1.187708e+002, 4.713593e+001
1.192529e+002, 4.615648e+001
1.197350e+002, 4.545324e+001
1.202171e+002, 4.525648e+001
1.206992e+002, 4.514777e+001
1.211813e+002, 4.489856e+001
1.216635e+002, 4.451905e+001
1.221456e+002, 4.406815e+001
1.226277e+002, 4.341879e+001
1.231098e+002, 4.275722e+001
1.235919e+002, 4.233650e+001
1.240740e+002, 4.255841e+001
1.245562e+002, 4.287152e+001
1.250383e+002, 4.254465e+001
1.255204e+002, 4.158131e+001
1.260025e+002, 4.070167e+001
1.264846e+002, 4.071648e+001
1.269667e+002, 4.132380e+001
1.274489e+002, 4.176874e+001
1.279310e+002, 4.151503e+001
1.284131e+002, 4.091264e+001
1.288952e+002, 4.073267e+001
1.293773e+002, 4.107457e+001
1.298594e+002, 4.145223e+001
1.303416e+002, 4.118655e+001
1.308237e+002, 4.035564e+001
1.313058e+002, 3.951091e+001
1.317879e+002, 3.892779e+001
1.322700e+002, 3.857412e+001
1.327521e+002, 3.832637e+001
1.332343e+002, 3.822023e+001
1.337164e+002, 3.813556e+001
1.341985e+002, 3.779053e+001
1.346806e+002, 3.716378e+001
1.351627e+002, 3.655724e+001
1.356448e+002, 3.619275e+001
1.361270e+002, 3.607174e+001
1.366091e+002, 3.594447e+001
1.370912e+002, 3.577145e+001
1.375733e+002, 3.557729e+001
1.380554e+002, 3.543890e+001
1.385375e+002, 3.536778e+001
1.390197e+002, 3.531833e+001
1.395018e+002, 3.532637e+001
1.399839e+002, 3.547923e+001
1.404660e+002, 3.526254e+001
1.409481e+002, 3.436091e+001
1.414302e+002, 3.288288e+001
1.419124e+002, 3.229487e+001
1.423945e+002, 3.298599e+001
1.428766e+002, 3.402812e+001
1.433587e+002, 3.451694e+001
1.438408e+002, 3.428215e+001
1.443229e+002, 3.381530e+001
1.448051e+002, 3.308581e+001
1.452872e+002, 3.198026e+001
1.457693e+002, 3.146396e+001
1.462514e+002, 3.196035e+001
1.467335e+002, 3.277320e+001
1.472156e+002, 3.299842e+001
1.476978e+002, 3.214607e+001
1.481799e+002, 3.130717e+001
1.486620e+002, 3.075051e+001
1.491441e+002, 3.057408e+001
1.496262e+002, 3.042450e+001
1.501083e+002, 3.021180e+001
1.505905e+002, 3.004145e+001
1.510726e+002, 3.010300e+001
1.515547e+002, 3.067261e+001
1.520368e+002, 3.123354e+001
1.525189e+002, 3.165355e+001
1.530010e+002, 3.198425e+001
1.534832e+002, 3.206716e+001
1.539653e+002, 3.158472e+001
1.544474e+002, 3.082928e+001
1.549295e+002, 3.050265e+001
1.554116e+002, 3.106812e+001
1.558937e+002, 3.180839e+001
1.563759e+002, 3.241121e+001
1.568580e+002, 3.291613e+001
1.573401e+002, 3.316985e+001
1.578222e+002, 3.280531e+001
1.583043e+002, 3.206836e+001
1.587864e+002, 3.186536e+001
1.592686e+002, 3.284521e+001
1.597507e+002, 3.420100e+001
1.602328e+002, 3.541486e+001
1.607149e+002, 3.593898e+001
1.611970e+002, 3.673414e+001
1.616791e+002, 3.823032e+001
1.621613e+002, 4.032334e+001
1.626434e+002, 4.247309e+001
1.631255e+002, 4.410741e+001
1.636076e+002, 4.583442e+001
1.640897e+002, 4.819588e+001
1.645718e+002, 5.168806e+001
1.650540e+002, 5.558930e+001
1.655361e+002, 5.950066e+001
1.660182e+002, 6.345139e+001
1.665003e+002, 6.775443e+001
1.669824e+002, 7.259231e+001
1.674645e+002, 7.793445e+001
1.679467e+002, 8.366970e+001
1.684288e+002, 9.008335e+001
1.689109e+002, 9.670630e+001
1.693930e+002, 1.031917e+002
1.698751e+002, 1.095477e+002
1.703572e+002, 1.159416e+002
1.708394e+002, 1.227308e+002
1.713215e+002, 1.297021e+002
1.718036e+002, 1.363905e+002
1.722857e+002, 1.422463e+002
1.727678e+002, 1.479700e+002
1.732499e+002, 1.543841e+002
1.737321e+002, 1.616840e+002
1.742142e+002, 1.689422e+002
1.746963e+002, 1.758162e+002
1.751784e+002, 1.822130e+002
1.756605e+002, 1.879351e+002
1.761426e+002, 1.925646e+002
1.766248e+002, 1.965152e+002
1.771069e+002, 2.002223e+002
1.775890e+002, 2.036830e+002
1.780711e+002, 2.071441e+002
1.785532e+002, 2.108259e+002
1.790353e+002, 2.147489e+002
1.795175e+002, 2.188409e+002
1.799996e+002, 2.229186e+002
1.804817e+002, 2.271752e+002
1.809638e+002, 2.322292e+002
1.814459e+002, 2.383883e+002
1.819280e+002, 2.447534e+002
1.824102e+002, 2.499306e+002
1.828923e+002, 2.540656e+002
1.833744e+002, 2.587089e+002
1.838565e+002, 2.645255e+002
1.843386e+002, 2.715665e+002
1.848207e+002, 2.800941e+002
1.853029e+002, 2.907643e+002
1.857850e+002, 3.019283e+002
1.862671e+002, 3.112349e+002
1.867492e+002, 3.186696e+002
1.872313e+002, 3.249386e+002
1.877134e+002, 3.296959e+002
1.881956e+002, 3.334435e+002
1.886777e+002, 3.384344e+002
1.891598e+002, 3.453548e+002
1.896419e+002, 3.534040e+002
1.901240e+002, 3.610633e+002
1.906061e+002, 3.684281e+002
1.910883e+002, 3.754081e+002
1.915704e+002, 3.819228e+002
1.920525e+002, 3.880601e+002
1.925346e+002, 3.941327e+002
1.930167e+002, 4.002398e+002
1.934988e+002, 4.060014e+002
1.939810e+002, 4.096114e+002
1.944631e+002, 4.106447e+002
1.949452e+002, 4.114455e+002
1.954273e+002, 4.122545e+002
1.959094e+002, 4.130677e+002
1.963915e+002, 4.137650e+002
1.968737e+002, 4.143897e+002
1.973558e+002, 4.148737e+002
1.978379e+002, 4.148871e+002
1.983200e+002, 4.143766e+002
1.988021e+002, 4.137138e+002
1.992842e+002, 4.131564e+002
1.997664e+002, 4.126957e+002
2.002485e+002, 4.125043e+002
2.007306e+002, 4.126377e+002
2.012127e+002, 4.130739e+002
2.016948e+002, 4.137907e+002
2.021769e+002, 4.149306e+002
2.026591e+002, 4.159521e+002
2.031412e+002, 4.161418e+002
2.036233e+002, 4.153393e+002
2.041054e+002, 4.149596e+002
2.045875e+002, 4.152899e+002
2.050696e+002, 4.162959e+002
2.055518e+002, 4.178515e+002
2.060339e+002, 4.200929e+002
2.065160e+002, 4.225476e+002
2.069981e+002, 4.247785e+002
2.074802e+002, 4.267632e+002
2.079623e+002, 4.285163e+002
2.084445e+002, 4.299552e+002
2.089266e+002, 4.311029e+002
2.094087e+002, 4.325043e+002
2.098908e+002, 4.343035e+002
2.103729e+002, 4.361010e+002
2.108550e+002, 4.374505e+002
2.113372e+002, 4.382576e+002
2.118193e+002, 4.389015e+002
2.123014e+002, 4.393798e+002
2.127835e+002, 4.396852e+002
2.132656e+002, 4.404209e+002
2.137477e+002, 4.418536e+002
2.142299e+002, 4.433403e+002
2.147120e+002, 4.440392e+002
2.151941e+002, 4.436738e+002
2.156762e+002, 4.433061e+002
2.161583e+002, 4.431855e+002
2.166404e+002, 4.433165e+002
2.171226e+002, 4.435114e+002
2.176047e+002, 4.437494e+002
2.180868e+002, 4.440688e+002
2.185689e+002, 4.445446e+002
2.190510e+002, 4.452622e+002
2.195331e+002, 4.459535e+002
2.200153e+002, 4.466115e+002
2.204974e+002, 4.472673e+002
2.209795e+002, 4.475605e+002
2.214616e+002, 4.471904e+002
2.219437e+002, 4.467891e+002
2.224258e+002, 4.472668e+002
2.229080e+002, 4.491922e+002
2.233901e+002, 4.507674e+002
2.238722e+002, 4.513258e+002
2.243543e+002, 4.506833e+002
2.248364e+002, 4.506347e+002
2.253185e+002, 4.510451e+002
2.258007e+002, 4.521474e+002
2.262828e+002, 4.545182e+002
2.267649e+002, 4.592196e+002
2.272470e+002, 4.630014e+002
2.277291e+002, 4.645918e+002
2.282112e+002, 4.635813e+002
2.286934e+002, 4.637340e+002
2.291755e+002, 4.655389e+002
2.296576e+002, 4.680630e+002
2.301397e+002, 4.700337e+002
2.306218e+002, 4.710622e+002
2.311039e+002, 4.722933e+002
2.315861e+002, 4.738882e+002
2.320682e+002, 4.757950e+002
2.325503e+002, 4.787695e+002
2.330324e+002, 4.837158e+002
2.335145e+002, 4.889789e+002
2.339966e+002, 4.924026e+002
2.344788e+002, 4.929324e+002
2.349609e+002, 4.934895e+002
2.354430e+002, 4.948459e+002
2.359251e+002, 4.971281e+002
2.364072e+002, 4.993492e+002
2.368893e+002, 5.015420e+002
2.373715e+002, 5.036424e+002
2.378536e+002, 5.056414e+002
2.383357e+002, 5.079492e+002
2.388178e+002, 5.094344e+002
2.392999e+002, 5.095779e+002
2.397820e+002, 5.081319e+002
2.402642e+002, 5.071739e+002
2.407463e+002, 5.068642e+002
2.412284e+002, 5.068850e+002
2.417105e+002, 5.068495e+002
2.421926e+002, 5.066616e+002
2.426747e+002, 5.065680e+002
2.431569e+002, 5.066268e+002
2.436390e+002, 5.068436e+002
2.441211e+002, 5.071312e+002
2.446032e+002, 5.074389e+002
2.450853e+002, 5.078602e+002
2.455674e+002, 5.084701e+002
2.460496e+002, 5.091329e+002
2.465317e+002, 5.102651e+002
2.470138e+002, 5.121114e+002
2.474959e+002, 5.147756e+002
2.479780e+002, 5.170803e+002
2.484601e+002, 5.187416e+002
2.489423e+002, 5.203634e+002
2.494244e+002, 5.226166e+002
2.499065e+002, 5.256857e+002
2.503886e+002, 5.290764e+002
2.508707e+002, 5.329279e+002
2.513528e+002, 5.372708e+002
2.518350e+002, 5.408222e+002
2.523171e+002, 5.436514e+002
2.527992e+002, 5.455813e+002
2.532813e+002, 5.463381e+002
2.537634e+002, 5.455964e+002
2.542455e+002, 5.443862e+002
2.547277e+002, 5.430726e+002
2.552098e+002, 5.416578e+002
2.556919e+002, 5.388034e+002
2.561740e+002, 5.341584e+002
2.566561e+002, 5.285052e+002
2.571382e+002, 5.224956e+002
2.576204e+002, 5.156968e+002
2.581025e+002, 5.094630e+002
2.585846e+002, 5.041355e+002
2.590667e+002, 4.996642e+002
2.595488e+002, 4.954991e+002
2.600309e+002, 4.916179e+002
2.605131e+002, 4.881982e+002
2.609952e+002, 4.855652e+002
2.614773e+002, 4.839982e+002
2.619594e+002, 4.823831e+002
2.624415e+002, 4.804619e+002
2.629236e+002, 4.782928e+002
2.634058e+002, 4.765616e+002
2.638879e+002, 4.751406e+002
2.643700e+002, 4.743521e+002
2.648521e+002, 4.747104e+002
2.653342e+002, 4.768106e+002
2.658163e+002, 4.779734e+002
2.662985e+002, 4.774409e+002
2.667806e+002, 4.756107e+002
2.672627e+002, 4.748370e+002
2.677448e+002, 4.754753e+002
2.682269e+002, 4.764277e+002
2.687090e+002, 4.767424e+002
2.691912e+002, 4.760927e+002
2.696733e+002, 4.762712e+002
2.701554e+002, 4.777688e+002
2.706375e+002, 4.801835e+002
2.711196e+002, 4.817467e+002
2.716017e+002, 4.821459e+002
2.720839e+002, 4.825414e+002
2.725660e+002, 4.837160e+002
2.730481e+002, 4.857675e+002
2.735302e+002, 4.879884e+002
2.740123e+002, 4.903942e+002
2.744944e+002, 4.929023e+002
2.749766e+002, 4.953050e+002
2.754587e+002, 4.975904e+002
2.759408e+002, 4.998203e+002
2.764229e+002, 5.019427e+002
2.769050e+002, 5.039515e+002
2.773871e+002, 5.061275e+002
2.778693e+002, 5.085738e+002
2.783514e+002, 5.111111e+002
2.788335e+002, 5.132994e+002
2.793156e+002, 5.151154e+002
2.797977e+002, 5.168504e+002
2.802798e+002, 5.190125e+002
2.807620e+002, 5.215937e+002
2.812441e+002, 5.226926e+002
2.817262e+002, 5.219793e+002
2.822083e+002, 5.201735e+002
2.826904e+002, 5.185134e+002
2.831725e+002, 5.170235e+002
2.836547e+002, 5.152753e+002
2.841368e+002, 5.131326e+002
2.846189e+002, 5.105983e+002
2.851010e+002, 5.072876e+002
2.855831e+002, 5.029761e+002
2.860652e+002, 4.984952e+002
2.865474e+002, 4.952688e+002
2.870295e+002, 4.932676e+002
2.875116e+002, 4.910577e+002
2.879937e+002, 4.877121e+002
2.884758e+002, 4.834847e+002
2.889579e+002, 4.801154e+002
2.894401e+002, 4.776475e+002
2.899222e+002, 4.756133e+002
2.904043e+002, 4.734879e+002
2.908864e+002, 4.712950e+002
2.913685e+002, 4.692076e+002
2.918506e+002, 4.672622e+002
2.923328e+002, 4.654803e+002
2.928149e+002, 4.639913e+002
2.932970e+002, 4.627893e+002
2.937791e+002, 4.618276e+002
2.942612e+002, 4.611203e+002
2.947433e+002, 4.606342e+002
2.952255e+002, 4.602766e+002
2.957076e+002, 4.602018e+002
2.961897e+002, 4.601354e+002
2.966718e+002, 4.593401e+002
2.971539e+002, 4.578411e+002
2.976360e+002, 4.564737e+002
2.981182e+002, 4.559330e+002
2.986003e+002, 4.560767e+002
2.990824e+002, 4.565908e+002
2.995645e+002, 4.576270e+002
3.000466e+002, 4.587377e+002
3.005287e+002, 4.591801e+002
3.010109e+002, 4.590372e+002
3.014930e+002, 4.589093e+002
3.019751e+002, 4.592731e+002
3.024572e+002, 4.599376e+002
3.029393e+002, 4.605719e+002
3.034214e+002, 4.611017e+002
3.039036e+002, 4.616084e+002
3.043857e+002, 4.622173e+002
3.048678e+002, 4.628928e+002
3.053499e+002, 4.635091e+002
3.058320e+002, 4.635647e+002
3.063141e+002, 4.636810e+002
3.067963e+002, 4.647520e+002
3.072784e+002, 4.672181e+002
3.077605e+002, 4.698107e+002
3.082426e+002, 4.712533e+002
3.087247e+002, 4.719863e+002
3.092068e+002, 4.730690e+002
3.096890e+002, 4.753619e+002
3.101711e+002, 4.780455e+002
3.106532e+002, 4.803446e+002
3.111353e+002, 4.820800e+002
3.116174e+002, 4.838431e+002
3.120995e+002, 4.860137e+002
3.125817e+002, 4.884272e+002
3.130638e+002, 4.908492e+002
3.135459e+002, 4.933513e+002
3.140280e+002, 4.957311e+002
3.145101e+002, 4.976581e+002
3.149922e+002, 4.990516e+002
3.154744e+002, 5.009646e+002
3.159565e+002, 5.041274e+002
3.164386e+002, 5.080179e+002
3.169207e+002, 5.119951e+002
3.174028e+002, 5.164822e+002
3.178849e+002, 5.205056e+002
3.183671e+002, 5.232324e+002
3.188492e+002, 5.247807e+002
3.193313e+002, 5.270134e+002
3.198134e+002, 5.305569e+002
3.202955e+002, 5.350536e+002
3.207776e+002, 5.401680e+002
3.212598e+002, 5.468067e+002
3.217419e+002, 5.530483e+002
3.222240e+002, 5.579280e+002
3.227061e+002, 5.618076e+002
3.231882e+002, 5.666086e+002
3.236703e+002, 5.739070e+002
3.241525e+002, 5.814080e+002
3.246346e+002, 5.877695e+002
3.251167e+002, 5.920992e+002
3.255988e+002, 5.963897e+002
3.260809e+002, 6.014586e+002
3.265630e+002, 6.066783e+002
3.270452e+002, 6.103377e+002
3.275273e+002, 6.118474e+002
3.280094e+002, 6.121661e+002
3.284915e+002, 6.116847e+002
3.289736e+002, 6.107916e+002
3.294557e+002, 6.082395e+002
3.299379e+002, 6.030823e+002
3.304200e+002, 5.965412e+002
3.309021e+002, 5.906627e+002
3.313842e+002, 5.860121e+002
3.318663e+002, 5.811885e+002
3.323484e+002, 5.755609e+002
3.328306e+002, 5.689503e+002
3.333127e+002, 5.633147e+002
3.337948e+002, 5.587664e+002
3.342769e+002, 5.550720e+002
3.347590e+002, 5.521550e+002
3.352411e+002, 5.504562e+002
3.357233e+002, 5.484853e+002
3.362054e+002, 5.458217e+002
3.366875e+002, 5.425193e+002
3.371696e+002, 5.398056e+002
3.376517e+002, 5.378883e+002
3.381339e+002, 5.361881e+002
3.386160e+002, 5.341867e+002
3.390981e+002, 5.317348e+002
3.395802e+002, 5.297570e+002
3.400623e+002, 5.286494e+002
3.405444e+002, 5.279814e+002
3.410266e+002, 5.262568e+002
3.415087e+002, 5.232580e+002
3.419908e+002, 5.201045e+002
3.424729e+002, 5.174050e+002
3.429550e+002, 5.151732e+002
3.434371e+002, 5.131456e+002
3.439193e+002, 5.113286e+002
3.444014e+002, 5.096776e+002
3.448835e+002, 5.081003e+002
3.453656e+002, 5.065988e+002
3.458477e+002, 5.053932e+002
3.463298e+002, 5.049602e+002
3.468120e+002, 5.050029e+002
3.472941e+002, 5.039894e+002
3.477762e+002, 5.016967e+002
3.482583e+002, 4.993614e+002
3.487404e+002, 4.985156e+002
3.492225e+002, 4.989266e+002
3.497047e+002, 4.996021e+002
3.501868e+002, 5.003224e+002
3.506689e+002, 5.009968e+002
3.511510e+002, 5.013672e+002
3.516331e+002, 5.014376e+002
3.521152e+002, 5.016057e+002
3.525974e+002, 5.022408e+002
3.530795e+002, 5.031985e+002
3.535616e+002, 5.042274e+002
3.540437e+002, 5.053121e+002
3.545258e+002, 5.063625e+002
3.550079e+002, 5.072298e+002
3.554901e+002, 5.079637e+002
3.559722e+002, 5.088000e+002
3.564543e+002, 5.099482e+002
3.569364e+002, 5.112456e+002
3.574185e+002, 5.125683e+002
3.579006e+002, 5.139406e+002
3.583828e+002, 5.152115e+002
3.588649e+002, 5.161812e+002
3.593470e+002, 5.169931e+002
3.598291e+002, 5.179440e+002
3.603112e+002, 5.192649e+002
3.607933e+002, 5.206850e+002
3.612755e+002, 5.219579e+002
3.617576e+002, 5.229880e+002
3.622397e+002, 5.243906e+002
3.627218e+002, 5.269386e+002
3.632039e+002, 5.297844e+002
3.636860e+002, 5.319828e+002
3.641682e+002, 5.324977e+002
3.646503e+002, 5.331057e+002
3.651324e+002, 5.345874e+002
3.656145e+002, 5.369089e+002
3.660966e+002, 5.386367e+002
3.665787e+002, 5.393896e+002
3.670609e+002, 5.395704e+002
3.675430e+002, 5.394379e+002
3.680251e+002, 5.384268e+002
3.685072e+002, 5.378058e+002
3.689893e+002, 5.381530e+002
3.694714e+002, 5.390342e+002
3.699536e+002, 5.389792e+002
3.704357e+002, 5.372789e+002
3.709178e+002, 5.353871e+002
3.713999e+002, 5.338950e+002
3.718820e+002, 5.329764e+002
3.723641e+002, 5.320123e+002
3.728463e+002, 5.311768e+002
3.733284e+002, 5.301901e+002
3.738105e+002, 5.285239e+002
3.742926e+002, 5.258287e+002
3.747747e+002, 5.232054e+002
3.752568e+002, 5.208650e+002
3.757390e+002, 5.187948e+002
3.762211e+002, 5.173318e+002
3.767032e+002, 5.166334e+002
3.771853e+002, 5.161696e+002
3.776674e+002, 5.154713e+002
3.781495e+002, 5.145359e+002
3.786317e+002, 5.132914e+002
3.791138e+002, 5.115793e+002
3.795959e+002, 5.096314e+002
3.800780e+002, 5.081484e+002
3.805601e+002, 5.071720e+002
3.810422e+002, 5.063206e+002
3.815244e+002, 5.051303e+002
3.820065e+002, 5.037598e+002
3.824886e+002, 5.033301e+002
3.829707e+002, 5.042116e+002
3.834528e+002, 5.053104e+002
3.839349e+002, 5.047863e+002
3.844171e+002, 5.029420e+002
3.848992e+002, 5.014244e+002
3.853813e+002, 5.011310e+002
3.858634e+002, 5.016367e+002
3.863455e+002, 5.024571e+002
3.868276e+002, 5.036009e+002
3.873098e+002, 5.043447e+002
3.877919e+002, 5.035290e+002
3.882740e+002, 5.019432e+002
3.887561e+002, 5.010162e+002
3.892382e+002, 5.015587e+002
3.897203e+002, 5.025858e+002
3.902025e+002, 5.033556e+002
3.906846e+002, 5.039052e+002
3.911667e+002, 5.044493e+002
3.916488e+002, 5.051020e+002
3.921309e+002, 5.057923e+002
3.926130e+002, 5.064339e+002
3.930952e+002, 5.068989e+002
3.935773e+002, 5.075471e+002
3.940594e+002, 5.085680e+002
3.945415e+002, 5.098733e+002
3.950236e+002, 5.112973e+002
3.955057e+002, 5.131308e+002
3.959879e+002, 5.147858e+002
3.964700e+002, 5.158522e+002
3.969521e+002, 5.161413e+002
3.974342e+002, 5.169444e+002
3.979163e+002, 5.187907e+002
3.983984e+002, 5.210851e+002
3.988806e+002, 5.232839e+002
3.993627e+002, 5.252318e+002
3.998448e+002, 5.272181e+002
4.003269e+002, 5.292313e+002
4.008090e+002, 5.312957e+002
4.012911e+002, 5.335326e+002
4.017733e+002, 5.361028e+002
4.022554e+002, 5.386722e+002
4.027375e+002, 5.409706e+002
4.032196e+002, 5.425511e+002
4.037017e+002, 5.450677e+002
4.041838e+002, 5.488647e+002
4.046660e+002, 5.533433e+002
4.051481e+002, 5.572548e+002
4.056302e+002, 5.604752e+002
4.061123e+002, 5.636586e+002
4.065944e+002, 5.669094e+002
4.070765e+002, 5.702676e+002
4.075587e+002, 5.743105e+002
4.080408e+002, 5.791569e+002
4.085229e+002, 5.842953e+002
4.090050e+002, 5.893942e+002
4.094871e+002, 5.943996e+002
4.099692e+002, 5.987811e+002
4.104514e+002, 6.020428e+002
4.109335e+002, 6.050716e+002
4.114156e+002, 6.100478e+002
4.118977e+002, 6.167734e+002
4.123798e+002, 6.235114e+002
4.128619e+002, 6.290206e+002
4.133441e+002, 6.336632e+002
4.138262e+002, 6.383228e+002
4.143083e+002, 6.432282e+002
4.147904e+002, 6.475751e+002
4.152725e+002, 6.506633e+002
4.157546e+002, 6.526510e+002
4.162368e+002, 6.539344e+002
4.167189e+002, 6.545609e+002
4.172010e+002, 6.546282e+002
4.176831e+002, 6.540349e+002
4.181652e+002, 6.528268e+002
4.186473e+002, 6.515813e+002
4.191295e+002, 6.510398e+002
4.196116e+002, 6.503926e+002
4.200937e+002, 6.488679e+002
4.205758e+002, 6.454550e+002
4.210579e+002, 6.423184e+002
4.215400e+002, 6.403419e+002
4.220222e+002, 6.391454e+002
4.225043e+002, 6.377325e+002
4.229864e+002, 6.353345e+002
4.234685e+002, 6.331886e+002
4.239506e+002, 6.318305e+002
4.244327e+002, 6.315684e+002
4.249149e+002, 6.312083e+002
4.253970e+002, 6.302436e+002
4.258791e+002, 6.294144e+002
4.263612e+002, 6.294666e+002
4.268433e+002, 6.307784e+002
4.273254e+002, 6.323713e+002
4.278076e+002, 6.341339e+002
4.282897e+002, 6.360677e+002
4.287718e+002, 6.380619e+002
4.292539e+002, 6.399307e+002
4.297360e+002, 6.421506e+002
4.302181e+002, 6.452035e+002
4.307003e+002, 6.493206e+002
4.311824e+002, 6.525720e+002
4.316645e+002, 6.546046e+002
4.321466e+002, 6.562031e+002
4.326287e+002, 6.588916e+002
4.331108e+002, 6.626835e+002
4.335930e+002, 6.659990e+002
4.340751e+002, 6.683641e+002
4.345572e+002, 6.697873e+002
4.350393e+002, 6.702096e+002
4.355214e+002, 6.696360e+002
4.360035e+002, 6.683082e+002
4.364857e+002, 6.663874e+002
4.369678e+002, 6.638904e+002
4.374499e+002, 6.607706e+002
4.379320e+002, 6.569320e+002
4.384141e+002, 6.526386e+002
4.388962e+002, 6.475549e+002
4.393784e+002, 6.421365e+002
4.398605e+002, 6.377305e+002
4.403426e+002, 6.360084e+002
4.408247e+002, 6.350002e+002
4.413068e+002, 6.329089e+002
4.417889e+002, 6.295081e+002
4.422711e+002, 6.261816e+002
4.427532e+002, 6.232156e+002
4.432353e+002, 6.208505e+002
4.437174e+002, 6.193367e+002
4.441995e+002, 6.196542e+002
4.446816e+002, 6.198712e+002
4.451638e+002, 6.191190e+002
4.456459e+002, 6.177040e+002
4.461280e+002, 6.170175e+002
4.466101e+002, 6.178704e+002
4.470922e+002, 6.189899e+002
4.475743e+002, 6.198248e+002
4.480565e+002, 6.201785e+002
4.485386e+002, 6.207584e+002
4.490207e+002, 6.222034e+002
4.495028e+002, 6.234691e+002
4.499849e+002, 6.230319e+002
4.504670e+002, 6.200059e+002
4.509492e+002, 6.172684e+002
4.514313e+002, 6.154711e+002
4.519134e+002, 6.145133e+002
4.523955e+002, 6.139006e+002
4.528776e+002, 6.138861e+002
4.533597e+002, 6.134208e+002
4.538419e+002, 6.116476e+002
4.543240e+002, 6.086117e+002
4.548061e+002, 6.052092e+002
4.552882e+002, 6.013118e+002
4.557703e+002, 5.976765e+002
4.562524e+002, 5.958259e+002
4.567346e+002, 5.954982e+002
4.572167e+002, 5.951326e+002
4.576988e+002, 5.940607e+002
4.581809e+002, 5.925125e+002
4.586630e+002, 5.906808e+002
4.591451e+002, 5.886044e+002
4.596273e+002, 5.867241e+002
4.601094e+002, 5.854369e+002
4.605915e+002, 5.845416e+002
4.610736e+002, 5.837461e+002
4.615557e+002, 5.828539e+002
4.620378e+002, 5.823285e+002
4.625200e+002, 5.829149e+002
4.630021e+002, 5.840606e+002
4.634842e+002, 5.846744e+002
4.639663e+002, 5.838093e+002
4.644484e+002, 5.827840e+002
4.649305e+002, 5.822079e+002
4.654127e+002, 5.821345e+002
4.658948e+002, 5.822122e+002
4.663769e+002, 5.825571e+002
4.668590e+002, 5.829240e+002
4.673411e+002, 5.831328e+002
4.678232e+002, 5.827921e+002
4.683054e+002, 5.828156e+002
4.687875e+002, 5.834774e+002
4.692696e+002, 5.844718e+002
4.697517e+002, 5.849973e+002
4.702338e+002, 5.847012e+002
4.707159e+002, 5.845836e+002
4.711981e+002, 5.851276e+002
4.716802e+002, 5.863777e+002
4.721623e+002, 5.869323e+002
4.726444e+002, 5.865291e+002
4.731265e+002, 5.861205e+002
4.736086e+002, 5.867096e+002
4.740908e+002, 5.882805e+002
4.745729e+002, 5.900201e+002
4.750550e+002, 5.918558e+002
4.755371e+002, 5.936617e+002
4.760192e+002, 5.952266e+002
4.765013e+002, 5.965541e+002
4.769835e+002, 5.976598e+002
4.774656e+002, 5.983824e+002
4.779477e+002, 5.989540e+002
4.784298e+002, 5.997678e+002
4.789119e+002, 6.008425e+002
4.793940e+002, 6.019940e+002
4.798762e+002, 6.031305e+002
4.803583e+002, 6.042418e+002
4.808404e+002, 6.053181e+002
4.813225e+002, 6.063701e+002
4.818046e+002, 6.073955e+002
4.822867e+002, 6.083737e+002
4.827689e+002, 6.093361e+002
4.832510e+002, 6.103509e+002
4.837331e+002, 6.115084e+002
4.842152e+002, 6.126920e+002
4.846973e+002, 6.138411e+002
4.851794e+002, 6.149425e+002
4.856616e+002, 6.161220e+002
4.861437e+002, 6.173762e+002
4.866258e+002, 6.187225e+002
4.871079e+002, 6.201846e+002
4.875900e+002, 6.217524e+002
4.880721e+002, 6.234602e+002
4.885543e+002, 6.253499e+002
4.890364e+002, 6.273529e+002
4.895185e+002, 6.292432e+002
4.900006e+002, 6.309327e+002
4.904827e+002, 6.326998e+002
4.909648e+002, 6.347171e+002
4.914470e+002, 6.369633e+002
4.919291e+002, 6.388593e+002
4.924112e+002, 6.403317e+002
4.928933e+002, 6.417594e+002
4.933754e+002, 6.436211e+002
4.938575e+002, 6.458094e+002
4.943397e+002, 6.477653e+002
4.948218e+002, 6.492529e+002
4.953039e+002, 6.506655e+002
4.957860e+002, 6.524661e+002
4.962681e+002, 6.546210e+002
4.967502e+002, 6.569901e+002
4.972324e+002, 6.595676e+002
4.977145e+002, 6.623118e+002
4.981966e+002, 6.651986e+002
4.986787e+002, 6.682477e+002
4.991608e+002, 6.713623e+002
4.996429e+002, 6.747960e+002
5.001251e+002, 6.781182e+002
5.006072e+002, 6.810461e+002
5.010893e+002, 6.835606e+002
5.015714e+002, 6.855313e+002
5.020535e+002, 6.862903e+002
5.025356e+002, 6.865086e+002
5.030178e+002, 6.877323e+002
5.034999e+002, 6.913466e+002
5.039820e+002, 6.946309e+002
5.044641e+002, 6.967917e+002
5.049462e+002, 6.977905e+002
5.054283e+002, 6.990349e+002
5.059105e+002, 7.007303e+002
5.063926e+002, 7.023675e+002
5.068747e+002, 7.035700e+002
5.073568e+002, 7.043127e+002
5.078389e+002, 7.047637e+002
5.083210e+002, 7.047929e+002
5.088032e+002, 7.047776e+002
5.092853e+002, 7.054638e+002
5.097674e+002, 7.068080e+002
5.102495e+002, 7.081512e+002
5.107316e+002, 7.093049e+002
5.112137e+002, 7.102374e+002
5.116959e+002, 7.109678e+002
5.121780e+002, 7.114661e+002
5.126601e+002, 7.115276e+002
5.131422e+002, 7.104971e+002
5.136243e+002, 7.091325e+002
5.141064e+002, 7.084619e+002
5.145886e+002, 7.087978e+002
5.150707e+002, 7.093535e+002
5.155528e+002, 7.096315e+002
5.160349e+002, 7.098361e+002
5.165170e+002, 7.102639e+002
5.169991e+002, 7.114149e+002
5.174813e+002, 7.124158e+002
5.179634e+002, 7.127704e+002
5.184455e+002, 7.126061e+002
5.189276e+002, 7.129343e+002
5.194097e+002, 7.143929e+002
5.198918e+002, 7.159196e+002
5.203740e+002, 7.170721e+002
5.208561e+002, 7.177372e+002
5.213382e+002, 7.183659e+002
5.218203e+002, 7.187979e+002
5.223024e+002, 7.193551e+002
5.227845e+002, 7.204544e+002
5.232667e+002, 7.221583e+002
5.237488e+002, 7.240001e+002
5.242309e+002, 7.258947e+002
5.247130e+002, 7.278281e+002
5.251951e+002, 7.297879e+002
5.256772e+002, 7.317841e+002
5.261594e+002, 7.338569e+002
5.266415e+002, 7.363204e+002
5.271236e+002, 7.388600e+002
5.276057e+002, 7.405292e+002
5.280878e+002, 7.412890e+002
5.285699e+002, 7.421630e+002
5.290521e+002, 7.442166e+002
5.295342e+002, 7.468151e+002
5.300163e+002, 7.491653e+002
5.304984e+002, 7.511771e+002
5.309805e+002, 7.526563e+002
5.314626e+002, 7.528389e+002
5.319448e+002, 7.524531e+002
5.324269e+002, 7.529072e+002
5.329090e+002, 7.559275e+002
5.333911e+002, 7.585562e+002
5.338732e+002, 7.596335e+002
5.343553e+002, 7.590438e+002
5.348375e+002, 7.586088e+002
5.353196e+002, 7.590641e+002
5.358017e+002, 7.589749e+002
5.362838e+002, 7.573827e+002
5.367659e+002, 7.534226e+002
5.372480e+002, 7.503821e+002
5.377302e+002, 7.486329e+002
5.382123e+002, 7.473250e+002
5.386944e+002, 7.451564e+002
5.391765e+002, 7.420385e+002
5.396586e+002, 7.391423e+002
5.401407e+002, 7.369489e+002
5.406229e+002, 7.350842e+002
5.411050e+002, 7.326525e+002
5.415871e+002, 7.297222e+002
5.420692e+002, 7.268850e+002
5.425513e+002, 7.246617e+002
5.430334e+002, 7.226954e+002
5.435156e+002, 7.204785e+002
5.439977e+002, 7.179823e+002
5.444798e+002, 7.153016e+002
5.449619e+002, 7.122189e+002
5.454440e+002, 7.091335e+002
5.459261e+002, 7.064851e+002
5.464083e+002, 7.045334e+002
5.468904e+002, 7.028038e+002
5.473725e+002, 7.012075e+002
5.478546e+002, 6.997175e+002
5.483367e+002, 6.982541e+002
5.488188e+002, 6.966063e+002
5.493010e+002, 6.951787e+002
5.497831e+002, 6.942271e+002
5.502652e+002, 6.937332e+002
5.507473e+002, 6.926038e+002
5.512294e+002, 6.903480e+002
5.517115e+002, 6.882875e+002
5.521937e+002, 6.874437e+002
5.526758e+002, 6.880201e+002
5.531579e+002, 6.879755e+002
5.536400e+002, 6.872102e+002
5.541221e+002, 6.859073e+002
5.546042e+002, 6.839921e+002
5.550864e+002, 6.816194e+002
5.555685e+002, 6.796866e+002
5.560506e+002, 6.783464e+002
5.565327e+002, 6.777503e+002
5.570148e+002, 6.787305e+002
5.574969e+002, 6.808217e+002
5.579791e+002, 6.822953e+002
5.584612e+002, 6.816185e+002
5.589433e+002, 6.802645e+002
5.594254e+002, 6.793075e+002
5.599075e+002, 6.788171e+002
5.603896e+002, 6.786819e+002
5.608718e+002, 6.794935e+002
5.613539e+002, 6.802540e+002
5.618360e+002, 6.802016e+002
5.623181e+002, 6.785328e+002
5.628002e+002, 6.771036e+002
5.632823e+002, 6.759442e+002
5.637645e+002, 6.751265e+002
5.642466e+002, 6.748138e+002
5.647287e+002, 6.752314e+002
5.652108e+002, 6.756960e+002
5.656929e+002, 6.761169e+002
5.661750e+002, 6.764608e+002
5.666572e+002, 6.766470e+002
5.671393e+002, 6.767023e+002
5.676214e+002, 6.763612e+002
5.681035e+002, 6.748975e+002
5.685856e+002, 6.728301e+002
5.690677e+002, 6.723790e+002
5.695499e+002, 6.736951e+002
5.700320e+002, 6.753454e+002
5.705141e+002, 6.762154e+002
5.709962e+002, 6.764539e+002
5.714783e+002, 6.761942e+002
5.719604e+002, 6.750980e+002
5.724426e+002, 6.742850e+002
5.729247e+002, 6.748032e+002
5.734068e+002, 6.760545e+002
5.738889e+002, 6.769789e+002
5.743710e+002, 6.769202e+002
5.748531e+002, 6.767996e+002
5.753353e+002, 6.768547e+002
5.758174e+002, 6.771057e+002
5.762995e+002, 6.776141e+002
5.767816e+002, 6.785549e+002
5.772637e+002, 6.795350e+002
5.777458e+002, 6.802168e+002
5.782280e+002, 6.803115e+002
5.787101e+002, 6.817998e+002
5.791922e+002, 6.850743e+002
5.796743e+002, 6.888753e+002
5.801564e+002, 6.919582e+002
5.806385e+002, 6.943344e+002
5.811207e+002, 6.963242e+002
5.816028e+002, 6.977741e+002
5.820849e+002, 6.992919e+002
5.825670e+002, 7.017709e+002
5.830491e+002, 7.050625e+002
5.835313e+002, 7.088308e+002
5.840134e+002, 7.130781e+002
5.844955e+002, 7.175734e+002
5.849776e+002, 7.220293e+002
5.854597e+002, 7.265070e+002
5.859418e+002, 7.313524e+002
5.864240e+002, 7.365498e+002
5.869061e+002, 7.422689e+002
5.873882e+002, 7.487604e+002
5.878703e+002, 7.561210e+002
5.883524e+002, 7.638153e+002
5.888345e+002, 7.715052e+002
5.893167e+002, 7.796957e+002
5.897988e+002, 7.889168e+002
5.902809e+002, 7.999407e+002
5.907630e+002, 8.101264e+002
5.912451e+002, 8.187543e+002
5.917272e+002, 8.270839e+002
5.922094e+002, 8.376854e+002
5.926915e+002, 8.505779e+002
5.931736e+002, 8.639960e+002
5.936557e+002, 8.772343e+002
5.941378e+002, 8.906649e+002
5.946199e+002, 9.052587e+002
5.951021e+002, 9.208500e+002
5.955842e+002, 9.371024e+002
5.960663e+002, 9.539696e+002
5.965484e+002, 9.712176e+002
5.970305e+002, 9.888005e+002
5.975126e+002, 1.006707e+003
5.979948e+002, 1.025066e+003
5.984769e+002, 1.044848e+003
5.989590e+002, 1.064376e+003
5.994411e+002, 1.082398e+003
5.999232e+002, 1.098716e+003
6.004053e+002, 1.113497e+003
6.008875e+002, 1.127214e+003
6.013696e+002, 1.139116e+003
6.018517e+002, 1.148117e+003
6.023338e+002, 1.154526e+003
6.028159e+002, 1.157321e+003
6.032980e+002, 1.156433e+003
6.037802e+002, 1.151799e+003
6.042623e+002, 1.142688e+003
6.047444e+002, 1.128959e+003
6.052265e+002, 1.112628e+003
6.057086e+002, 1.094226e+003
6.061907e+002, 1.074029e+003
6.066729e+002, 1.052370e+003
6.071550e+002, 1.029357e+003
6.076371e+002, 1.006102e+003
6.081192e+002, 9.823973e+002
6.086013e+002, 9.596525e+002
6.090834e+002, 9.404153e+002
6.095656e+002, 9.253812e+002
6.100477e+002, 9.117981e+002
6.105298e+002, 8.978234e+002
6.110119e+002, 8.846430e+002
6.114940e+002, 8.734274e+002
6.119761e+002, 8.658170e+002
6.124583e+002, 8.587823e+002
6.129404e+002, 8.515516e+002
6.134225e+002, 8.446458e+002
6.139046e+002, 8.391050e+002
6.143867e+002, 8.354093e+002
6.148688e+002, 8.323009e+002
6.153510e+002, 8.293965e+002
6.158331e+002, 8.267585e+002
6.163152e+002, 8.247164e+002
6.167973e+002, 8.232699e+002
6.172794e+002, 8.223137e+002
6.177615e+002, 8.221115e+002
6.182437e+002, 8.223136e+002
6.187258e+002, 8.217488e+002
6.192079e+002, 8.202977e+002
6.196900e+002, 8.190848e+002
6.201721e+002, 8.196202e+002
6.206542e+002, 8.207190e+002
6.211364e+002, 8.208139e+002
6.216185e+002, 8.191143e+002
6.221006e+002, 8.173607e+002
6.225827e+002, 8.163952e+002
6.230648e+002, 8.158225e+002
6.235469e+002, 8.150881e+002
6.240291e+002, 8.142614e+002
6.245112e+002, 8.130861e+002
6.249933e+002, 8.111271e+002
6.254754e+002, 8.088412e+002
6.259575e+002, 8.078450e+002
6.264396e+002, 8.084498e+002
6.269218e+002, 8.094392e+002
6.274039e+002, 8.102565e+002
6.278860e+002, 8.110504e+002
6.283681e+002, 8.127402e+002
6.288502e+002, 8.153339e+002
6.293323e+002, 8.185306e+002
6.298145e+002, 8.223401e+002
6.302966e+002, 8.265170e+002
6.307787e+002, 8.305103e+002
6.312608e+002, 8.342062e+002
6.317429e+002, 8.384527e+002
6.322250e+002, 8.448970e+002
6.327072e+002, 8.517387e+002
6.331893e+002, 8.570165e+002
6.336714e+002, 8.589387e+002
6.341535e+002, 8.613669e+002
6.346356e+002, 8.663073e+002
6.351177e+002, 8.720544e+002
6.355999e+002, 8.759713e+002
6.360820e+002, 8.773181e+002
6.365641e+002, 8.779710e+002
6.370462e+002, 8.782188e+002
6.375283e+002, 8.779811e+002
6.380104e+002, 8.770142e+002
6.384926e+002, 8.753076e+002
6.389747e+002, 8.728991e+002
6.394568e+002, 8.694316e+002
6.399389e+002, 8.653193e+002
6.404210e+002, 8.621846e+002
6.409031e+002, 8.599514e+002
6.413853e+002, 8.576125e+002
6.418674e+002, 8.537213e+002
6.423495e+002, 8.496610e+002
6.428316e+002, 8.471285e+002
6.433137e+002, 8.463337e+002
6.437958e+002, 8.465665e+002
6.442780e+002, 8.483298e+002
6.447601e+002, 8.504674e+002
6.452422e+002, 8.519186e+002
6.457243e+002, 8.515167e+002
6.462064e+002, 8.519484e+002
6.466885e+002, 8.534547e+002
6.471707e+002, 8.557576e+002
6.476528e+002, 8.585292e+002
6.481349e+002, 8.619186e+002
6.486170e+002, 8.653194e+002
6.490991e+002, 8.686146e+002
6.495812e+002, 8.719021e+002
6.500634e+002, 8.755792e+002
6.505455e+002, 8.796488e+002
6.510276e+002, 8.836738e+002
6.515097e+002, 8.872992e+002
6.519918e+002, 8.909101e+002
6.524739e+002, 8.953535e+002
6.529561e+002, 9.004102e+002
6.534382e+002, 9.052537e+002
6.539203e+002, 9.097175e+002
6.544024e+002, 9.134727e+002
6.548845e+002, 9.161060e+002
6.553666e+002, 9.174609e+002
6.558488e+002, 9.189523e+002
6.563309e+002, 9.219718e+002
6.568130e+002, 9.243792e+002
6.572951e+002, 9.248201e+002
6.577772e+002, 9.225304e+002
6.582593e+002, 9.204272e+002
6.587415e+002, 9.188865e+002
6.592236e+002, 9.169304e+002
6.597057e+002, 9.131766e+002
6.601878e+002, 9.076832e+002
6.606699e+002, 9.022783e+002
6.611520e+002, 8.974502e+002
6.616342e+002, 8.926528e+002
6.621163e+002, 8.873760e+002
6.625984e+002, 8.815412e+002
6.630805e+002, 8.749111e+002
6.635626e+002, 8.665432e+002
6.640447e+002, 8.582129e+002
6.645269e+002, 8.512856e+002
6.650090e+002, 8.454421e+002
6.654911e+002, 8.395563e+002
6.659732e+002, 8.328343e+002
6.664553e+002, 8.264683e+002
6.669374e+002, 8.209887e+002
6.674196e+002, 8.163192e+002
6.679017e+002, 8.118125e+002
6.683838e+002, 8.073519e+002
6.688659e+002, 8.032355e+002
6.693480e+002, 7.996888e+002
6.698301e+002, 7.967066e+002
6.703123e+002, 7.934528e+002
6.707944e+002, 7.898595e+002
6.712765e+002, 7.864381e+002
6.717586e+002, 7.835419e+002
6.722407e+002, 7.811141e+002
6.727228e+002, 7.791427e+002
6.732050e+002, 7.776456e+002
6.736871e+002, 7.762824e+002
6.741692e+002, 7.747299e+002
6.746513e+002, 7.731529e+002
6.751334e+002, 7.718018e+002
6.756155e+002, 7.712678e+002
6.760977e+002, 7.701071e+002
6.765798e+002, 7.672087e+002
6.770619e+002, 7.637706e+002
6.775440e+002, 7.616298e+002
6.780261e+002, 7.613431e+002
6.785082e+002, 7.612978e+002
6.789904e+002, 7.614715e+002
6.794725e+002, 7.615638e+002
6.799546e+002, 7.603770e+002
6.804367e+002, 7.579189e+002
6.809188e+002, 7.562756e+002
6.814009e+002, 7.569037e+002
6.818831e+002, 7.585556e+002
6.823652e+002, 7.588668e+002
6.828473e+002, 7.580629e+002
6.833294e+002, 7.572303e+002
6.838115e+002, 7.568795e+002
6.842936e+002, 7.568333e+002
6.847758e+002, 7.572106e+002
6.852579e+002, 7.579960e+002
6.857400e+002, 7.581253e+002
6.862221e+002, 7.558312e+002
6.867042e+002, 7.540878e+002
6.871863e+002, 7.547176e+002
6.876685e+002, 7.586580e+002
6.881506e+002, 7.607254e+002
6.886327e+002, 7.603346e+002
6.891148e+002, 7.593071e+002
6.895969e+002, 7.592242e+002
6.900790e+002, 7.600259e+002
6.905612e+002, 7.610699e+002
6.910433e+002, 7.623936e+002
6.915254e+002, 7.633642e+002
6.920075e+002, 7.629164e+002
6.924896e+002, 7.616295e+002
6.929717e+002, 7.605472e+002
6.934539e+002, 7.599081e+002
6.939360e+002, 7.596301e+002
6.944181e+002, 7.599346e+002
6.949002e+002, 7.605145e+002
6.953823e+002, 7.608953e+002
6.958644e+002, 7.606098e+002
6.963466e+002, 7.606097e+002
6.968287e+002, 7.613029e+002
6.973108e+002, 7.623253e+002
6.977929e+002, 7.625244e+002
6.982750e+002, 7.615408e+002
6.987571e+002, 7.612330e+002
6.992393e+002, 7.625640e+002
6.997214e+002, 7.648040e+002
7.002035e+002, 7.653315e+002
7.006856e+002, 7.643828e+002
7.011677e+002, 7.639821e+002
7.016498e+002, 7.664183e+002
7.021320e+002, 7.693463e+002
7.026141e+002, 7.695829e+002
7.030962e+002, 7.673964e+002
7.035783e+002, 7.658229e+002
7.040604e+002, 7.667432e+002
7.045425e+002, 7.682532e+002
7.050247e+002, 7.692966e+002
7.055068e+002, 7.696917e+002
7.059889e+002, 7.701082e+002
7.064710e+002, 7.706771e+002
7.069531e+002, 7.710811e+002
7.074352e+002, 7.709990e+002
7.079174e+002, 7.703533e+002
7.083995e+002, 7.701672e+002
7.088816e+002, 7.705203e+002
7.093637e+002, 7.710604e+002
7.098458e+002, 7.714641e+002
7.103279e+002, 7.717731e+002
7.108101e+002, 7.720884e+002
7.112922e+002, 7.724307e+002
7.117743e+002, 7.728118e+002
7.122564e+002, 7.732328e+002
7.127385e+002, 7.737200e+002
7.132206e+002, 7.743190e+002
7.137028e+002, 7.754135e+002
7.141849e+002, 7.761126e+002
7.146670e+002, 7.758234e+002
7.151491e+002, 7.752203e+002
7.156312e+002, 7.752491e+002
7.161133e+002, 7.761783e+002
7.165955e+002, 7.769791e+002
7.170776e+002, 7.774440e+002
7.175597e+002, 7.777054e+002
7.180418e+002, 7.779754e+002
7.185239e+002, 7.782599e+002
7.190060e+002, 7.786749e+002
7.194882e+002, 7.793511e+002
7.199703e+002, 7.800590e+002
7.204524e+002, 7.804348e+002
7.209345e+002, 7.805886e+002
7.214166e+002, 7.808777e+002
7.218987e+002, 7.817532e+002
7.223809e+002, 7.825186e+002
7.228630e+002, 7.827526e+002
7.233451e+002, 7.825113e+002
7.238272e+002, 7.823390e+002
7.243093e+002, 7.820037e+002
7.247914e+002, 7.821624e+002
7.252736e+002, 7.833435e+002
7.257557e+002, 7.853998e+002
7.262378e+002, 7.861722e+002
7.267199e+002, 7.855186e+002
7.272020e+002, 7.849584e+002
7.276841e+002, 7.857605e+002
7.281663e+002, 7.873368e+002
7.286484e+002, 7.884704e+002
7.291305e+002, 7.891175e+002
7.296126e+002, 7.893109e+002
7.300947e+002, 7.884368e+002
7.305768e+002, 7.875428e+002
7.310590e+002, 7.876089e+002
7.315411e+002, 7.889844e+002
7.320232e+002, 7.900653e+002
7.325053e+002, 7.902325e+002
7.329874e+002, 7.902635e+002
7.334695e+002, 7.906705e+002
7.339517e+002, 7.916641e+002
7.344338e+002, 7.921485e+002
7.349159e+002, 7.919456e+002
7.353980e+002, 7.917233e+002
7.358801e+002, 7.925260e+002
7.363622e+002, 7.939943e+002
7.368444e+002, 7.944452e+002
7.373265e+002, 7.934416e+002
7.378086e+002, 7.923574e+002
7.382907e+002, 7.923066e+002
7.387728e+002, 7.930427e+002
7.392549e+002, 7.943450e+002
7.397371e+002, 7.969252e+002
7.402192e+002, 7.987593e+002
7.407013e+002, 7.987919e+002
7.411834e+002, 7.979666e+002
7.416655e+002, 7.975273e+002
7.421476e+002, 7.974990e+002
7.426298e+002, 7.977626e+002
7.431119e+002, 7.982108e+002
7.435940e+002, 7.990414e+002
7.440761e+002, 8.010888e+002
7.445582e+002, 8.041296e+002
7.450403e+002, 8.060844e+002
7.455225e+002, 8.059798e+002
7.460046e+002, 8.050891e+002
7.464867e+002, 8.048220e+002
7.469688e+002, 8.049778e+002
7.474509e+002, 8.051396e+002
7.479330e+002, 8.048311e+002
7.484152e+002, 8.048165e+002
7.488973e+002, 8.055777e+002
7.493794e+002, 8.069026e+002
7.498615e+002, 8.080670e+002
7.503436e+002, 8.092816e+002
7.508257e+002, 8.099816e+002
7.513079e+002, 8.099990e+002
7.517900e+002, 8.094308e+002
7.522721e+002, 8.083682e+002
7.527542e+002, 8.068159e+002
7.532363e+002, 8.056962e+002
7.537184e+002, 8.056246e+002
7.542006e+002, 8.061687e+002
7.546827e+002, 8.067240e+002
7.551648e+002, 8.073097e+002
7.556469e+002, 8.079705e+002
7.561290e+002, 8.088778e+002
7.566111e+002, 8.097380e+002
7.570933e+002, 8.105233e+002
7.575754e+002, 8.111821e+002
7.580575e+002, 8.112483e+002
7.585396e+002, 8.099963e+002
7.590217e+002, 8.092162e+002
7.595038e+002, 8.098392e+002
7.599860e+002, 8.116718e+002
7.604681e+002, 8.123328e+002
7.609502e+002, 8.116908e+002
7.614323e+002, 8.113543e+002
7.619144e+002, 8.128574e+002
7.623965e+002, 8.152150e+002
7.628787e+002, 8.166459e+002
7.633608e+002, 8.171335e+002
7.638429e+002, 8.172852e+002
7.643250e+002, 8.169219e+002
7.648071e+002, 8.167570e+002
7.652892e+002, 8.174822e+002
7.657714e+002, 8.193440e+002
7.662535e+002, 8.205125e+002
7.667356e+002, 8.202738e+002
7.672177e+002, 8.201444e+002
7.676998e+002, 8.211552e+002
7.681819e+002, 8.234345e+002
7.686641e+002, 8.247831e+002
7.691462e+002, 8.251323e+002
7.696283e+002, 8.250187e+002
7.701104e+002, 8.246754e+002
7.705925e+002, 8.242442e+002
7.710746e+002, 8.238010e+002
7.715568e+002, 8.233269e+002
7.720389e+002, 8.236222e+002
7.725210e+002, 8.260597e+002
7.730031e+002, 8.288686e+002
7.734852e+002, 8.307359e+002
7.739673e+002, 8.313992e+002
7.744495e+002, 8.311996e+002
7.749316e+002, 8.292985e+002
7.754137e+002, 8.275852e+002
7.758958e+002, 8.277175e+002
7.763779e+002, 8.298903e+002
7.768600e+002, 8.313854e+002
7.773422e+002, 8.320967e+002
7.778243e+002, 8.322868e+002
7.783064e+002, 8.318077e+002
7.787885e+002, 8.311110e+002
7.792706e+002, 8.311779e+002
7.797527e+002, 8.323019e+002
7.802349e+002, 8.333571e+002
7.807170e+002, 8.335389e+002
7.811991e+002, 8.334396e+002
7.816812e+002, 8.335772e+002
7.821633e+002, 8.341328e+002
7.826454e+002, 8.347551e+002
7.831276e+002, 8.354584e+002
7.836097e+002, 8.362224e+002
7.840918e+002, 8.371059e+002
7.845739e+002, 8.381127e+002
7.850560e+002, 8.387434e+002
7.855381e+002, 8.389208e+002
7.860203e+002, 8.388301e+002
7.865024e+002, 8.384684e+002
7.869845e+002, 8.380325e+002
7.874666e+002, 8.378019e+002
7.879487e+002, 8.377459e+002
7.884308e+002, 8.382019e+002
7.889130e+002, 8.396951e+002
7.893951e+002, 8.415852e+002
7.898772e+002, 8.432468e+002
7.903593e+002, 8.446805e+002
7.908414e+002, 8.456844e+002
7.913235e+002, 8.459717e+002
7.918057e+002, 8.461962e+002
7.922878e+002, 8.473949e+002
7.927699e+002, 8.494670e+002
7.932520e+002, 8.504657e+002
7.937341e+002, 8.499043e+002
7.942162e+002, 8.492058e+002
7.946984e+002, 8.501321e+002
7.951805e+002, 8.518896e+002
7.956626e+002, 8.532254e+002
7.961447e+002, 8.537698e+002
7.966268e+002, 8.540754e+002
7.971089e+002, 8.539796e+002
7.975911e+002, 8.539577e+002
7.980732e+002, 8.546202e+002
7.985553e+002, 8.567128e+002
7.990374e+002, 8.576579e+002
7.995195e+002, 8.569404e+002
8.000016e+002, 8.557931e+002
8.004838e+002, 8.559521e+002
8.009659e+002, 8.571738e+002
8.014480e+002, 8.580131e+002
8.019301e+002, 8.581752e+002
8.024122e+002, 8.580525e+002
8.028943e+002, 8.579733e+002
8.033765e+002, 8.578574e+002
8.038586e+002, 8.575084e+002
8.043407e+002, 8.561703e+002
8.048228e+002, 8.558818e+002
8.053049e+002, 8.577835e+002
8.057870e+002, 8.605097e+002
8.062692e+002, 8.628398e+002
8.067513e+002, 8.648098e+002
8.072334e+002, 8.661190e+002
8.077155e+002, 8.665976e+002
8.081976e+002, 8.667350e+002
8.086797e+002, 8.672367e+002
8.091619e+002, 8.679019e+002
8.096440e+002, 8.680558e+002
8.101261e+002, 8.673846e+002
8.106082e+002, 8.668329e+002
8.110903e+002, 8.672267e+002
8.115724e+002, 8.680653e+002
8.120546e+002, 8.687869e+002
8.125367e+002, 8.688466e+002
8.130188e+002, 8.696351e+002
8.135009e+002, 8.720096e+002
8.139830e+002, 8.743602e+002
8.144651e+002, 8.745482e+002
8.149473e+002, 8.723903e+002
8.154294e+002, 8.715312e+002
8.159115e+002, 8.725095e+002
8.163936e+002, 8.740557e+002
8.168757e+002, 8.748082e+002
8.173578e+002, 8.750764e+002
8.178400e+002, 8.753043e+002
8.183221e+002, 8.754209e+002
8.188042e+002, 8.760752e+002
8.192863e+002, 8.779020e+002
8.197684e+002, 8.801986e+002
8.202505e+002, 8.823185e+002
8.207327e+002, 8.842231e+002
8.212148e+002, 8.859316e+002
8.216969e+002, 8.876315e+002
8.221790e+002, 8.887426e+002
8.226611e+002, 8.880793e+002
8.231432e+002, 8.860341e+002
8.236254e+002, 8.852910e+002
8.241075e+002, 8.861974e+002
8.245896e+002, 8.877623e+002
8.250717e+002, 8.897894e+002
8.255538e+002, 8.916083e+002
8.260359e+002, 8.923619e+002
8.265181e+002, 8.916899e+002
8.270002e+002, 8.907684e+002
8.274823e+002, 8.893231e+002
8.279644e+002, 8.881939e+002
8.284465e+002, 8.880524e+002
8.289286e+002, 8.892058e+002
8.294108e+002, 8.898513e+002
8.298929e+002, 8.898460e+002
8.303750e+002, 8.900366e+002
8.308571e+002, 8.916692e+002
8.313392e+002, 8.939805e+002
8.318214e+002, 8.951437e+002
8.323035e+002, 8.949251e+002
8.327856e+002, 8.948210e+002
8.332677e+002, 8.962663e+002
8.337498e+002, 8.978126e+002
8.342319e+002, 8.982357e+002
8.347141e+002, 8.969796e+002
8.351962e+002, 8.962996e+002
8.356783e+002, 8.964189e+002
8.361604e+002, 8.966882e+002
8.366425e+002, 8.964042e+002
8.371246e+002, 8.956740e+002
8.376068e+002, 8.965198e+002
8.380889e+002, 8.989584e+002
8.385710e+002, 9.015646e+002
8.390531e+002, 9.034901e+002
8.395352e+002, 9.048587e+002
8.400173e+002, 9.056390e+002
8.404995e+002, 9.058622e+002
8.409816e+002, 9.061868e+002
8.414637e+002, 9.071843e+002
8.419458e+002, 9.079743e+002
8.424279e+002, 9.079686e+002
8.429100e+002, 9.071941e+002
8.433922e+002, 9.074412e+002
8.438743e+002, 9.088580e+002
8.443564e+002, 9.104366e+002
8.448385e+002, 9.118174e+002
8.453206e+002, 9.128519e+002
8.458027e+002, 9.128925e+002
8.462849e+002, 9.121287e+002
8.467670e+002, 9.116429e+002
8.472491e+002, 9.124017e+002
8.477312e+002, 9.132903e+002
8.482133e+002, 9.137399e+002
8.486954e+002, 9.137513e+002
8.491776e+002, 9.135482e+002
8.496597e+002, 9.128231e+002
8.501418e+002, 9.125952e+002
8.506239e+002, 9.133486e+002
8.511060e+002, 9.147942e+002
8.515881e+002, 9.159935e+002
8.520703e+002, 9.169664e+002
8.525524e+002, 9.178406e+002
8.530345e+002, 9.189366e+002
8.535166e+002, 9.197028e+002
8.539987e+002, 9.191759e+002
8.544808e+002, 9.179091e+002
8.549630e+002, 9.173188e+002
8.554451e+002, 9.184836e+002
8.559272e+002, 9.195214e+002
8.564093e+002, 9.198326e+002
8.568914e+002, 9.198536e+002
8.573735e+002, 9.208212e+002
8.578557e+002, 9.228580e+002
8.583378e+002, 9.242264e+002
8.588199e+002, 9.242844e+002
8.593020e+002, 9.238663e+002
8.597841e+002, 9.243082e+002
8.602662e+002, 9.252043e+002
8.607484e+002, 9.256879e+002
8.612305e+002, 9.251295e+002
8.617126e+002, 9.246318e+002
8.621947e+002, 9.246388e+002
8.626768e+002, 9.249495e+002
8.631589e+002, 9.252678e+002
8.636411e+002, 9.256154e+002
8.641232e+002, 9.258848e+002
8.646053e+002, 9.259802e+002
8.650874e+002, 9.261977e+002
8.655695e+002, 9.272704e+002
8.660516e+002, 9.287993e+002
8.665338e+002, 9.294387e+002
8.670159e+002, 9.288000e+002
8.674980e+002, 9.279901e+002
8.679801e+002, 9.275109e+002
8.684622e+002, 9.274045e+002
8.689443e+002, 9.277520e+002
8.694265e+002, 9.288707e+002
8.699086e+002, 9.297706e+002
8.703907e+002, 9.305641e+002
8.708728e+002, 9.309653e+002
8.713549e+002, 9.304677e+002
8.718370e+002, 9.291947e+002
8.723192e+002, 9.286962e+002
8.728013e+002, 9.290325e+002
8.732834e+002, 9.295826e+002
8.737655e+002, 9.298752e+002
8.742476e+002, 9.300903e+002
8.747297e+002, 9.303757e+002
8.752119e+002, 9.307413e+002
8.756940e+002, 9.312239e+002
8.761761e+002, 9.318829e+002
8.766582e+002, 9.326019e+002
8.771403e+002, 9.334313e+002
8.776224e+002, 9.343281e+002
8.781046e+002, 9.346315e+002
8.785867e+002, 9.343176e+002
8.790688e+002, 9.340009e+002
8.795509e+002, 9.340862e+002
8.800330e+002, 9.343867e+002
8.805151e+002, 9.346814e+002
8.809973e+002, 9.349758e+002
8.814794e+002, 9.352675e+002
8.819615e+002, 9.356621e+002
8.824436e+002, 9.359579e+002
8.829257e+002, 9.359449e+002
8.834078e+002, 9.357985e+002
8.838900e+002, 9.361761e+002
8.843721e+002, 9.373074e+002
8.848542e+002, 9.375934e+002
8.853363e+002, 9.361105e+002
8.858184e+002, 9.342897e+002
8.863005e+002, 9.350018e+002
8.867827e+002, 9.373970e+002
8.872648e+002, 9.392897e+002
8.877469e+002, 9.395138e+002
8.882290e+002, 9.396119e+002
8.887111e+002, 9.402273e+002
8.891932e+002, 9.411238e+002
8.896754e+002, 9.419336e+002
8.901575e+002, 9.424806e+002
8.906396e+002, 9.434551e+002
8.911217e+002, 9.451122e+002
8.916038e+002, 9.467164e+002
8.920859e+002, 9.473368e+002
8.925681e+002, 9.471639e+002
8.930502e+002, 9.464879e+002
8.935323e+002, 9.451888e+002
8.940144e+002, 9.447206e+002
8.944965e+002, 9.470255e+002
8.949786e+002, 9.499880e+002
8.954608e+002, 9.517504e+002
8.959429e+002, 9.516847e+002
8.964250e+002, 9.519443e+002
8.969071e+002, 9.526630e+002
8.973892e+002, 9.534161e+002
8.978713e+002, 9.539068e+002
8.983535e+002, 9.541707e+002
8.988356e+002, 9.543397e+002
8.993177e+002, 9.544286e+002
8.997998e+002, 9.546426e+002
9.002819e+002, 9.554438e+002
9.007640e+002, 9.561627e+002
9.012462e+002, 9.560407e+002
9.017283e+002, 9.551985e+002
9.022104e+002, 9.550869e+002
9.026925e+002, 9.564615e+002
9.031746e+002, 9.575307e+002
9.036567e+002, 9.576417e+002
9.041389e+002, 9.571620e+002
9.046210e+002, 9.573790e+002
9.051031e+002, 9.581978e+002
9.055852e+002, 9.587394e+002
9.060673e+002, 9.583665e+002
9.065494e+002, 9.579490e+002
9.070316e+002, 9.582894e+002
9.075137e+002, 9.591298e+002
9.079958e+002, 9.600275e+002
9.084779e+002, 9.610344e+002
9.089600e+002, 9.618486e+002
9.094421e+002, 9.624544e+002
9.099243e+002, 9.628412e+002
9.104064e+002, 9.627056e+002
9.108885e+002, 9.621312e+002
9.113706e+002, 9.628164e+002
9.118527e+002, 9.651943e+002
9.123348e+002, 9.676942e+002
9.128170e+002, 9.690594e+002
9.132991e+002, 9.695766e+002
9.137812e+002, 9.693475e+002
9.142633e+002, 9.680449e+002
9.147454e+002, 9.675377e+002
9.152275e+002, 9.684202e+002
9.157097e+002, 9.697835e+002
9.161918e+002, 9.712338e+002
9.166739e+002, 9.727673e+002
9.171560e+002, 9.740179e+002
9.176381e+002, 9.749746e+002
9.181202e+002, 9.757280e+002
9.186024e+002, 9.761794e+002
9.190845e+002, 9.765642e+002
9.195666e+002, 9.771224e+002
9.200487e+002, 9.778398e+002
9.205308e+002, 9.786237e+002
9.210129e+002, 9.794329e+002
9.214951e+002, 9.802991e+002
9.219772e+002, 9.811459e+002
9.224593e+002, 9.820786e+002
9.229414e+002, 9.836969e+002
9.234235e+002, 9.859543e+002
9.239056e+002, 9.874049e+002
9.243878e+002, 9.873093e+002
9.248699e+002, 9.867197e+002
9.253520e+002, 9.868047e+002
9.258341e+002, 9.872281e+002
9.263162e+002, 9.874344e+002
9.267983e+002, 9.864130e+002
9.272805e+002, 9.865518e+002
9.277626e+002, 9.886534e+002
9.282447e+002, 9.914308e+002
9.287268e+002, 9.937495e+002
9.292089e+002, 9.956225e+002
9.296910e+002, 9.966629e+002
9.301732e+002, 9.967964e+002
9.306553e+002, 9.967208e+002
9.311374e+002, 9.969960e+002
9.316195e+002, 9.974606e+002
9.321016e+002, 9.976963e+002
9.325837e+002, 9.976091e+002
9.330659e+002, 9.986249e+002
9.335480e+002, 1.002149e+003
9.340301e+002, 1.005508e+003
9.345122e+002, 1.007394e+003
9.349943e+002, 1.008142e+003
9.354764e+002, 1.010342e+003
9.359586e+002, 1.013946e+003
9.364407e+002, 1.016924e+003
9.369228e+002, 1.017866e+003
9.374049e+002, 1.018100e+003
9.378870e+002, 1.018671e+003
9.383691e+002, 1.019640e+003
9.388513e+002, 1.021132e+003
9.393334e+002, 1.024419e+003
9.398155e+002, 1.026521e+003
9.402976e+002, 1.026390e+003
9.407797e+002, 1.025630e+003
9.412618e+002, 1.026972e+003
9.417440e+002, 1.030257e+003
9.422261e+002, 1.033072e+003
9.427082e+002, 1.035001e+003
9.431903e+002, 1.036689e+003
9.436724e+002, 1.038320e+003
9.441545e+002, 1.040258e+003
9.446367e+002, 1.043017e+003
9.451188e+002, 1.046926e+003
9.456009e+002, 1.050525e+003
9.460830e+002, 1.053908e+003
9.465651e+002, 1.056546e+003
9.470472e+002, 1.057548e+003
9.475294e+002, 1.057306e+003
9.480115e+002, 1.059655e+003
9.484936e+002, 1.064342e+003
9.489757e+002, 1.068493e+003
9.494578e+002, 1.069974e+003
9.499399e+002, 1.070511e+003
9.504221e+002, 1.071230e+003
9.509042e+002, 1.072147e+003
9.513863e+002, 1.073092e+003
9.518684e+002, 1.073822e+003
9.523505e+002, 1.075164e+003
9.528326e+002, 1.077488e+003
9.533148e+002, 1.080291e+003
9.537969e+002, 1.082922e+003
9.542790e+002, 1.085255e+003
9.547611e+002, 1.086306e+003
9.552432e+002, 1.085179e+003
9.557253e+002, 1.085101e+003
9.562075e+002, 1.089215e+003
9.566896e+002, 1.095024e+003
9.571717e+002, 1.100019e+003
9.576538e+002, 1.103448e+003
9.581359e+002, 1.107624e+003
9.586180e+002, 1.112551e+003
9.591002e+002, 1.118193e+003
9.595823e+002, 1.125043e+003
9.600644e+002, 1.132506e+003
9.605465e+002, 1.138507e+003
9.610286e+002, 1.143194e+003
9.615107e+002, 1.147838e+003
9.619929e+002, 1.152917e+003
9.624750e+002, 1.158452e+003
9.629571e+002, 1.164977e+003
9.634392e+002, 1.172018e+003
9.639213e+002, 1.178147e+003
9.644034e+002, 1.183277e+003
9.648856e+002, 1.187533e+003
9.653677e+002, 1.190701e+003
9.658498e+002, 1.193544e+003
9.663319e+002, 1.197057e+003
9.668140e+002, 1.201238e+003
9.672961e+002, 1.206123e+003
9.677783e+002, 1.212172e+003
9.682604e+002, 1.217821e+003
9.687425e+002, 1.222150e+003
9.692246e+002, 1.226145e+003
9.697067e+002, 1.230610e+003
9.701888e+002, 1.235492e+003
9.706710e+002, 1.240716e+003
9.711531e+002, 1.246246e+003
9.716352e+002, 1.251989e+003
9.721173e+002, 1.258167e+003
9.725994e+002, 1.264220e+003
9.730815e+002, 1.269418e+003
9.735637e+002, 1.273802e+003
9.740458e+002, 1.277946e+003
9.745279e+002, 1.281823e+003
9.750100e+002, 1.285682e+003
9.754921e+002, 1.289440e+003
9.759742e+002, 1.293352e+003
9.764564e+002, 1.298495e+003
9.769385e+002, 1.304801e+003
9.774206e+002, 1.309847e+003
9.779027e+002, 1.312638e+003
9.783848e+002, 1.315097e+003
9.788669e+002, 1.319628e+003
9.793491e+002, 1.324672e+003
9.798312e+002, 1.328295e+003
9.803133e+002, 1.329519e+003
9.807954e+002, 1.330870e+003
9.812775e+002, 1.332300e+003
9.817596e+002, 1.334139e+003
9.822418e+002, 1.336918e+003
9.827239e+002, 1.340354e+003
9.832060e+002, 1.342600e+003
9.836881e+002, 1.343835e+003
9.841702e+002, 1.345850e+003
9.846523e+002, 1.350840e+003
9.851345e+002, 1.355836e+003
9.856166e+002, 1.358532e+003
9.860987e+002, 1.359724e+003
9.865808e+002, 1.362631e+003
9.870629e+002, 1.367955e+003
9.875450e+002, 1.372750e+003
9.880272e+002, 1.376350e+003
9.885093e+002, 1.379475e+003
9.889914e+002, 1.383023e+003
9.894735e+002, 1.386930e+003
9.899556e+002, 1.390859e+003
9.904377e+002, 1.394488e+003
9.909199e+002, 1.399301e+003
9.914020e+002, 1.406979e+003
9.918841e+002, 1.415195e+003
9.923662e+002, 1.422342e+003
9.928483e+002, 1.428267e+003
9.933304e+002, 1.434848e+003
9.938126e+002, 1.442091e+003
9.942947e+002, 1.449879e+003
9.947768e+002, 1.458582e+003
9.952589e+002, 1.467444e+003
9.957410e+002, 1.475407e+003
9.962231e+002, 1.482816e+003
9.967053e+002, 1.490940e+003
9.971874e+002, 1.501162e+003
9.976695e+002, 1.510557e+003
9.981516e+002, 1.518628e+003
9.986337e+002, 1.525795e+003
9.991158e+002, 1.532776e+003
9.995980e+002, 1.539594e+003
1.000080e+003, 1.546142e+003
1.000562e+003, 1.552581e+003
1.001044e+003, 1.558025e+003
1.001526e+003, 1.561031e+003
1.002009e+003, 1.563428e+003
1.002491e+003, 1.567027e+003
1.002973e+003, 1.572251e+003
1.003455e+003, 1.575678e+003
1.003937e+003, 1.577113e+003
1.004419e+003, 1.577381e+003
1.004901e+003, 1.576495e+003
1.005383e+003, 1.575023e+003
1.005865e+003, 1.574054e+003
1.006348e+003, 1.573523e+003
1.006830e+003, 1.573211e+003
1.007312e+003, 1.573724e+003
1.007794e+003, 1.573562e+003
1.008276e+003, 1.571710e+003
1.008758e+003, 1.569248e+003
1.009240e+003, 1.567007e+003
1.009722e+003, 1.564867e+003
1.010205e+003, 1.564426e+003
1.010687e+003, 1.565905e+003
1.011169e+003, 1.567841e+003
1.011651e+003, 1.568926e+003
1.012133e+003, 1.569793e+003
1.012615e+003, 1.571247e+003
1.013097e+003, 1.573294e+003
1.013579e+003, 1.575001e+003
1.014061e+003, 1.575551e+003
1.014544e+003, 1.576853e+003
1.015026e+003, 1.579457e+003
1.015508e+003, 1.583157e+003
1.015990e+003, 1.587721e+003
1.016472e+003, 1.593027e+003
1.016954e+003, 1.598584e+003
1.017436e+003, 1.604395e+003
1.017918e+003, 1.610183e+003
1.018401e+003, 1.615679e+003
1.018883e+003, 1.621135e+003
1.019365e+003, 1.626847e+003
1.019847e+003, 1.632788e+003
1.020329e+003, 1.639284e+003
1.020811e+003, 1.646496e+003
1.021293e+003, 1.653446e+003
1.021775e+003, 1.659414e+003
1.022257e+003, 1.664682e+003
1.022740e+003, 1.669956e+003
1.023222e+003, 1.675047e+003
1.023704e+003, 1.679220e+003
1.024186e+003, 1.681795e+003
1.024668e+003, 1.683878e+003
1.025150e+003, 1.685693e+003
1.025632e+003, 1.687168e+003
1.026114e+003, 1.688893e+003
1.026596e+003, 1.690500e+003
1.027079e+003, 1.688756e+003
1.027561e+003, 1.682985e+003
1.028043e+003, 1.675118e+003
1.028525e+003, 1.667431e+003
1.029007e+003, 1.657783e+003
1.029489e+003, 1.643734e+003
1.029971e+003, 1.624894e+003
1.030453e+003, 1.606782e+003
1.030936e+003, 1.589898e+003
1.031418e+003, 1.571928e+003
1.031900e+003, 1.551581e+003
1.032382e+003, 1.529574e+003
1.032864e+003, 1.506906e+003
1.033346e+003, 1.483899e+003
1.033828e+003, 1.461843e+003
1.034310e+003, 1.441753e+003
1.034792e+003, 1.421880e+003
1.035275e+003, 1.401106e+003
1.035757e+003, 1.381015e+003
1.036239e+003, 1.362793e+003
1.036721e+003, 1.346587e+003
1.037203e+003, 1.331185e+003
1.037685e+003, 1.316802e+003
1.038167e+003, 1.302793e+003
1.038649e+003, 1.287827e+003
1.039132e+003, 1.273910e+003
1.039614e+003, 1.262904e+003
1.040096e+003, 1.254440e+003
1.040578e+003, 1.245845e+003
1.041060e+003, 1.236260e+003
1.041542e+003, 1.228154e+003
1.042024e+003, 1.222059e+003
1.042506e+003, 1.217111e+003
1.042989e+003, 1.211862e+003
1.043471e+003, 1.206689e+003
1.043953e+003, 1.202499e+003
1.044435e+003, 1.199563e+003
1.044917e+003, 1.196592e+003
1.045399e+003, 1.193641e+003
1.045881e+003, 1.189819e+003
1.046363e+003, 1.184151e+003
1.046845e+003, 1.177118e+003
1.047328e+003, 1.172888e+003
1.047810e+003, 1.171281e+003
1.048292e+003, 1.169875e+003
1.048774e+003, 1.167509e+003
1.049256e+003, 1.164957e+003
1.049738e+003, 1.162929e+003
1.050220e+003, 1.161088e+003
1.050702e+003, 1.158759e+003
1.051184e+003, 1.154953e+003
1.051667e+003, 1.153121e+003
1.052149e+003, 1.153810e+003
1.052631e+003, 1.154875e+003
1.053113e+003, 1.154550e+003
1.053595e+003, 1.153204e+003
1.054077e+003, 1.150813e+003
1.054559e+003, 1.147773e+003
1.055041e+003, 1.146482e+003
1.055523e+003, 1.149975e+003
1.056006e+003, 1.152820e+003
1.056488e+003, 1.153227e+003
1.056970e+003, 1.152407e+003
1.057452e+003, 1.152908e+003
1.057934e+003, 1.154569e+003
1.058416e+003, 1.155732e+003
1.058898e+003, 1.155988e+003
1.059380e+003, 1.156368e+003
1.059863e+003, 1.158399e+003
1.060345e+003, 1.160382e+003
1.060827e+003, 1.160168e+003
1.061309e+003, 1.157560e+003
1.061791e+003, 1.158031e+003
1.062273e+003, 1.162025e+003
1.062755e+003, 1.167072e+003
1.063237e+003, 1.172583e+003
1.063719e+003, 1.177801e+003
1.064202e+003, 1.181086e+003
1.064684e+003, 1.183345e+003
1.065166e+003, 1.186311e+003
1.065648e+003, 1.190437e+003
1.066130e+003, 1.195483e+003
1.066612e+003, 1.201938e+003
1.067094e+003, 1.208462e+003
1.067576e+003, 1.213341e+003
1.068059e+003, 1.217226e+003
1.068541e+003, 1.224104e+003
1.069023e+003, 1.233704e+003
1.069505e+003, 1.243229e+003
1.069987e+003, 1.250986e+003
1.070469e+003, 1.258210e+003
1.070951e+003, 1.265049e+003
1.071433e+003, 1.271802e+003
1.071916e+003, 1.278776e+003
1.072398e+003, 1.285829e+003
1.072880e+003, 1.294212e+003
1.073362e+003, 1.304285e+003
1.073844e+003, 1.313967e+003
1.074326e+003, 1.320613e+003
1.074808e+003, 1.325987e+003
1.075290e+003, 1.332314e+003
1.075772e+003, 1.339754e+003
1.076255e+003, 1.345242e+003
1.076737e+003, 1.348735e+003
1.077219e+003, 1.350064e+003
1.077701e+003, 1.349108e+003
1.078183e+003, 1.346008e+003
1.078665e+003, 1.340543e+003
1.079147e+003, 1.333220e+003
1.079629e+003, 1.325158e+003
1.080111e+003, 1.316398e+003
1.080594e+003, 1.307424e+003
1.081076e+003, 1.298377e+003
1.081558e+003, 1.289083e+003
1.082040e+003, 1.279389e+003
1.082522e+003, 1.269379e+003
1.083004e+003, 1.260594e+003
1.083486e+003, 1.252863e+003
1.083968e+003, 1.245298e+003
1.084450e+003, 1.236525e+003
1.084933e+003, 1.228702e+003
1.085415e+003, 1.224366e+003
1.085897e+003, 1.221438e+003
1.086379e+003, 1.216181e+003
1.086861e+003, 1.207553e+003
1.087343e+003, 1.200719e+003
1.087825e+003, 1.196000e+003
1.088307e+003, 1.192518e+003
1.088790e+003, 1.189838e+003
1.089272e+003, 1.187758e+003
1.089754e+003, 1.186154e+003
1.090236e+003, 1.184940e+003
1.090718e+003, 1.183670e+003
1.091200e+003, 1.181622e+003
1.091682e+003, 1.180854e+003
1.092164e+003, 1.182284e+003
1.092646e+003, 1.184075e+003
1.093129e+003, 1.183076e+003
1.093611e+003, 1.180262e+003
1.094093e+003, 1.177938e+003
1.094575e+003, 1.176457e+003
1.095057e+003, 1.175328e+003
1.095539e+003, 1.174747e+003
1.096021e+003, 1.174029e+003
1.096503e+003, 1.172969e+003
1.096986e+003, 1.171523e+003
1.097468e+003, 1.169258e+003
1.097950e+003, 1.166287e+003
1.098432e+003, 1.163622e+003
1.098914e+003, 1.161462e+003
1.099396e+003, 1.159985e+003
1.099878e+003, 1.160192e+003
1.100360e+003, 1.160566e+003
1.100843e+003, 1.159475e+003
1.101325e+003, 1.156713e+003
1.101807e+003, 1.154310e+003
1.102289e+003, 1.152234e+003
1.102771e+003, 1.150740e+003
1.103253e+003, 1.150308e+003
1.103735e+003, 1.150224e+003
1.104217e+003, 1.149648e+003
1.104699e+003, 1.148810e+003
1.105182e+003, 1.148142e+003
1.105664e+003, 1.147877e+003
1.106146e+003, 1.147447e+003
1.106628e+003, 1.146660e+003
1.107110e+003, 1.146189e+003
1.107592e+003, 1.146847e+003
1.108074e+003, 1.148164e+003
1.108556e+003, 1.149594e+003
1.109038e+003, 1.150900e+003
1.109521e+003, 1.151096e+003
1.110003e+003, 1.147949e+003
1.110485e+003, 1.146196e+003
1.110967e+003, 1.147340e+003
1.111449e+003, 1.149619e+003
1.111931e+003, 1.150231e+003
1.112413e+003, 1.149604e+003
1.112895e+003, 1.149720e+003
1.113377e+003, 1.150824e+003
1.113860e+003, 1.152158e+003
1.114342e+003, 1.154104e+003
1.114824e+003, 1.155267e+003
1.115306e+003, 1.154289e+003
1.115788e+003, 1.152076e+003
1.116270e+003, 1.151680e+003
1.116752e+003, 1.153072e+003
1.117234e+003, 1.154401e+003
1.117717e+003, 1.155122e+003
1.118199e+003, 1.155991e+003
1.118681e+003, 1.158416e+003
1.119163e+003, 1.160786e+003
1.119645e+003, 1.161332e+003
1.120127e+003, 1.159906e+003
1.120609e+003, 1.158652e+003
1.121091e+003, 1.157467e+003
1.121573e+003, 1.157108e+003
1.122056e+003, 1.158237e+003
1.122538e+003, 1.159782e+003
1.123020e+003, 1.160451e+003
1.123502e+003, 1.160578e+003
1.123984e+003, 1.160687e+003
1.124466e+003, 1.160876e+003
1.124948e+003, 1.161091e+003
1.125430e+003, 1.161310e+003
1.125913e+003, 1.161656e+003
1.126395e+003, 1.162530e+003
1.126877e+003, 1.163458e+003
1.127359e+003, 1.162742e+003
1.127841e+003, 1.161167e+003
1.128323e+003, 1.160896e+003
1.128805e+003, 1.164350e+003
1.129287e+003, 1.166853e+003
1.129770e+003, 1.167519e+003
1.130252e+003, 1.167519e+003
1.130734e+003, 1.167759e+003
1.131216e+003, 1.168298e+003
1.131698e+003, 1.169549e+003
1.132180e+003, 1.171432e+003
1.132662e+003, 1.173339e+003
1.133144e+003, 1.175141e+003
1.133626e+003, 1.176619e+003
1.134109e+003, 1.177650e+003
1.134591e+003, 1.178375e+003
1.135073e+003, 1.178912e+003
1.135555e+003, 1.179283e+003
1.136037e+003, 1.179903e+003
1.136519e+003, 1.180830e+003
1.137001e+003, 1.181752e+003
1.137483e+003, 1.182406e+003
1.137965e+003, 1.183053e+003
1.138448e+003, 1.184246e+003
1.138930e+003, 1.185578e+003
1.139412e+003, 1.185377e+003
1.139894e+003, 1.183541e+003
1.140376e+003, 1.182744e+003
1.140858e+003, 1.183676e+003
1.141340e+003, 1.185149e+003
1.141822e+003, 1.186886e+003
1.142304e+003, 1.188053e+003
1.142787e+003, 1.187463e+003
1.143269e+003, 1.185094e+003
1.143751e+003, 1.183789e+003
1.144233e+003, 1.183596e+003
1.144715e+003, 1.184263e+003
1.145197e+003, 1.185980e+003
1.145679e+003, 1.187781e+003
1.146161e+003, 1.188539e+003
1.146644e+003, 1.188510e+003
1.147126e+003, 1.187850e+003
1.147608e+003, 1.186204e+003
1.148090e+003, 1.185693e+003
1.148572e+003, 1.186862e+003
1.149054e+003, 1.187496e+003
1.149536e+003, 1.186197e+003
1.150018e+003, 1.184102e+003
1.150500e+003, 1.183359e+003
1.150983e+003, 1.183301e+003
1.151465e+003, 1.182556e+003
1.151947e+003, 1.180408e+003
1.152429e+003, 1.178242e+003
1.152911e+003, 1.175990e+003
1.153393e+003, 1.174130e+003
1.153875e+003, 1.173176e+003
1.154357e+003, 1.172795e+003
1.154840e+003, 1.172208e+003
1.155322e+003, 1.171405e+003
1.155804e+003, 1.170389e+003
1.156286e+003, 1.168121e+003
1.156768e+003, 1.167229e+003
1.157250e+003, 1.168558e+003
1.157732e+003, 1.170485e+003
1.158214e+003, 1.171542e+003
1.158697e+003, 1.171913e+003
1.159179e+003, 1.172521e+003
1.159661e+003, 1.173265e+003
1.160143e+003, 1.173417e+003
1.160625e+003, 1.171586e+003
1.161107e+003, 1.170428e+003
1.161589e+003, 1.170978e+003
1.162071e+003, 1.172295e+003
1.162553e+003, 1.173396e+003
1.163036e+003, 1.174241e+003
1.163518e+003, 1.174455e+003
1.164000e+003, 1.174058e+003
1.164482e+003, 1.173775e+003
1.164964e+003, 1.174276e+003
1.165446e+003, 1.174761e+003
1.165928e+003, 1.174740e+003
1.166410e+003, 1.174535e+003
1.166892e+003, 1.174757e+003
1.167375e+003, 1.175386e+003
1.167857e+003, 1.176111e+003
1.168339e+003, 1.176913e+003
1.168821e+003, 1.177406e+003
1.169303e+003, 1.176411e+003
1.169785e+003, 1.175869e+003
1.170267e+003, 1.177831e+003
1.170749e+003, 1.181100e+003
1.171231e+003, 1.182014e+003
1.171714e+003, 1.180587e+003
1.172196e+003, 1.179915e+003
1.172678e+003, 1.180688e+003
1.173160e+003, 1.181914e+003
1.173642e+003, 1.183098e+003
1.174124e+003, 1.184108e+003
1.174606e+003, 1.184761e+003
1.175088e+003, 1.185134e+003
1.175571e+003, 1.185539e+003
1.176053e+003, 1.185983e+003
1.176535e+003, 1.186596e+003
1.177017e+003, 1.187547e+003
1.177499e+003, 1.188247e+003
1.177981e+003, 1.187945e+003
1.178463e+003, 1.187239e+003
1.178945e+003, 1.186544e+003
1.179427e+003, 1.185892e+003
1.179910e+003, 1.186168e+003
1.180392e+003, 1.187522e+003
1.180874e+003, 1.188085e+003
1.181356e+003, 1.186661e+003
1.181838e+003, 1.185318e+003
1.182320e+003, 1.186701e+003
1.182802e+003, 1.189156e+003
1.183284e+003, 1.190778e+003
1.183767e+003, 1.191315e+003
1.184249e+003, 1.191634e+003
1.184731e+003, 1.191771e+003
1.185213e+003, 1.191420e+003
1.185695e+003, 1.190025e+003
1.186177e+003, 1.188739e+003
1.186659e+003, 1.189706e+003
1.187141e+003, 1.191322e+003
1.187624e+003, 1.190985e+003
1.188106e+003, 1.187458e+003
1.188588e+003, 1.185719e+003
1.189070e+003, 1.185924e+003
1.189552e+003, 1.187207e+003
1.190034e+003, 1.189692e+003
1.190516e+003, 1.192343e+003
1.190998e+003, 1.193850e+003
1.191480e+003, 1.194598e+003
1.191963e+003, 1.195251e+003
1.192445e+003, 1.195987e+003
1.192927e+003, 1.196345e+003
1.193409e+003, 1.196233e+003
1.193891e+003, 1.196084e+003
1.194373e+003, 1.195936e+003
1.194855e+003, 1.196083e+003
1.195337e+003, 1.197044e+003
1.195819e+003, 1.198568e+003
1.196302e+003, 1.200137e+003
1.196784e+003, 1.201907e+003
1.197266e+003, 1.203064e+003
1.197748e+003, 1.203469e+003
1.198230e+003, 1.203783e+003
1.198712e+003, 1.204781e+003
1.199194e+003, 1.205836e+003
1.199676e+003, 1.206015e+003
1.200158e+003, 1.205555e+003
1.200641e+003, 1.205074e+003
1.201123e+003, 1.204593e+003
1.201605e+003, 1.204322e+003
1.202087e+003, 1.204235e+003
1.202569e+003, 1.204574e+003
1.203051e+003, 1.205716e+003
1.203533e+003, 1.207301e+003
1.204015e+003, 1.209230e+003
1.204498e+003, 1.211203e+003
1.204980e+003, 1.212264e+003
1.205462e+003, 1.212193e+003
1.205944e+003, 1.211268e+003
1.206426e+003, 1.209172e+003
1.206908e+003, 1.207508e+003
1.207390e+003, 1.208046e+003
1.207872e+003, 1.209809e+003
1.208354e+003, 1.212244e+003
1.208837e+003, 1.214886e+003
1.209319e+003, 1.215705e+003
1.209801e+003, 1.213357e+003
1.210283e+003, 1.212405e+003
1.210765e+003, 1.213612e+003
1.211247e+003, 1.215386e+003
1.211729e+003, 1.215797e+003
1.212211e+003, 1.215977e+003
1.212694e+003, 1.217936e+003
1.213176e+003, 1.221247e+003
1.213658e+003, 1.222685e+003
1.214140e+003, 1.221533e+003
1.214622e+003, 1.219926e+003
1.215104e+003, 1.217919e+003
1.215586e+003, 1.216683e+003
1.216068e+003, 1.218631e+003
1.216551e+003, 1.221318e+003
1.217033e+003, 1.221288e+003
1.217515e+003, 1.218855e+003
1.217997e+003, 1.218047e+003
1.218479e+003, 1.219648e+003
1.218961e+003, 1.220976e+003
1.219443e+003, 1.221596e+003
1.219925e+003, 1.221766e+003
1.220407e+003, 1.221255e+003
1.220890e+003, 1.220797e+003
1.221372e+003, 1.221332e+003
1.221854e+003, 1.222821e+003
1.222336e+003, 1.224308e+003
1.222818e+003, 1.225854e+003
1.223300e+003, 1.226769e+003
1.223782e+003, 1.226769e+003
1.224264e+003, 1.226784e+003
1.224746e+003, 1.228158e+003
1.225229e+003, 1.229864e+003
1.225711e+003, 1.230946e+003
1.226193e+003, 1.231295e+003
1.226675e+003, 1.231067e+003
1.227157e+003, 1.230120e+003
1.227639e+003, 1.229360e+003
1.228121e+003, 1.228902e+003
1.228603e+003, 1.229092e+003
1.229085e+003, 1.230730e+003
1.229568e+003, 1.232854e+003
1.230050e+003, 1.234801e+003
1.230532e+003, 1.236399e+003
1.231014e+003, 1.236865e+003
1.231496e+003, 1.236043e+003
1.231978e+003, 1.235472e+003
1.232460e+003, 1.235560e+003
1.232942e+003, 1.235680e+003
1.233425e+003, 1.235088e+003
1.233907e+003, 1.234371e+003
1.234389e+003, 1.234192e+003
1.234871e+003, 1.234420e+003
1.235353e+003, 1.233848e+003
1.235835e+003, 1.232406e+003
1.236317e+003, 1.232230e+003
1.236799e+003, 1.234067e+003
1.237281e+003, 1.236031e+003
1.237764e+003, 1.236087e+003
1.238246e+003, 1.236028e+003
1.238728e+003, 1.237896e+003
1.239210e+003, 1.240938e+003
1.239692e+003, 1.241360e+003
1.240174e+003, 1.239293e+003
1.240656e+003, 1.238523e+003
1.241138e+003, 1.240161e+003
1.241621e+003, 1.241935e+003
1.242103e+003, 1.242072e+003
1.242585e+003, 1.241812e+003
1.243067e+003, 1.241904e+003
1.243549e+003, 1.242293e+003
1.244031e+003, 1.242907e+003
1.244513e+003, 1.243673e+003
1.244995e+003, 1.243790e+003
1.245478e+003, 1.242812e+003
1.245960e+003, 1.242791e+003
1.246442e+003, 1.246510e+003
1.246924e+003, 1.249875e+003
1.247406e+003, 1.250502e+003
1.247888e+003, 1.249281e+003
1.248370e+003, 1.248717e+003
1.248852e+003, 1.248703e+003
1.249334e+003, 1.248646e+003
1.249817e+003, 1.248312e+003
1.250299e+003, 1.248712e+003
1.250781e+003, 1.252220e+003
1.251263e+003, 1.254175e+003
1.251745e+003, 1.252045e+003
1.252227e+003, 1.247869e+003
1.252709e+003, 1.246683e+003
1.253191e+003, 1.247631e+003
1.253673e+003, 1.248127e+003
1.254156e+003, 1.247529e+003
1.254638e+003, 1.247497e+003
1.255120e+003, 1.248809e+003
1.255602e+003, 1.250420e+003
1.256084e+003, 1.252115e+003
1.256566e+003, 1.253711e+003
1.257048e+003, 1.254855e+003
1.257530e+003, 1.255617e+003
1.258012e+003, 1.256017e+003
1.258495e+003, 1.255987e+003
1.258977e+003, 1.256335e+003
1.259459e+003, 1.257132e+003
1.259941e+003, 1.258431e+003
1.260423e+003, 1.260546e+003
1.260905e+003, 1.262504e+003
1.261387e+003, 1.262296e+003
1.261869e+003, 1.261144e+003
1.262352e+003, 1.260918e+003
1.262834e+003, 1.261958e+003
1.263316e+003, 1.262794e+003
1.263798e+003, 1.263380e+003
1.264280e+003, 1.263686e+003
1.264762e+003, 1.263719e+003
1.265244e+003, 1.263436e+003
1.265726e+003, 1.262199e+003
1.266208e+003, 1.261010e+003
1.266691e+003, 1.261165e+003
1.267173e+003, 1.262769e+003
1.267655e+003, 1.264098e+003
1.268137e+003, 1.265147e+003
1.268619e+003, 1.265990e+003
1.269101e+003, 1.266607e+003
1.269583e+003, 1.267157e+003
1.270065e+003, 1.268220e+003
1.270548e+003, 1.268940e+003
1.271030e+003, 1.267991e+003
1.271512e+003, 1.265960e+003
1.271994e+003, 1.265577e+003
1.272476e+003, 1.266810e+003
1.272958e+003, 1.267747e+003
1.273440e+003, 1.267912e+003
1.273922e+003, 1.268202e+003
1.274405e+003, 1.269864e+003
1.274887e+003, 1.271226e+003
1.275369e+003, 1.271010e+003
1.275851e+003, 1.269965e+003
1.276333e+003, 1.270321e+003
1.276815e+003, 1.271784e+003
1.277297e+003, 1.272879e+003
1.277779e+003, 1.273314e+003
1.278261e+003, 1.273475e+003
1.278744e+003, 1.273108e+003
1.279226e+003, 1.273011e+003
1.279708e+003, 1.273388e+003
1.280190e+003, 1.274232e+003
1.280672e+003, 1.276160e+003
1.281154e+003, 1.278433e+003
1.281636e+003, 1.278758e+003
1.282118e+003, 1.276817e+003
1.282600e+003, 1.275896e+003
1.283083e+003, 1.277927e+003
1.283565e+003, 1.279334e+003
1.284047e+003, 1.279153e+003
1.284529e+003, 1.278446e+003
1.285011e+003, 1.278879e+003
1.285493e+003, 1.279721e+003
1.285975e+003, 1.279683e+003
1.286457e+003, 1.278752e+003
1.286939e+003, 1.278443e+003
1.287422e+003, 1.279086e+003
1.287904e+003, 1.279723e+003
1.288386e+003, 1.280218e+003
1.288868e+003, 1.280531e+003
1.289350e+003, 1.280379e+003
1.289832e+003, 1.280208e+003
1.290314e+003, 1.280516e+003
1.290796e+003, 1.281228e+003
1.291279e+003, 1.281689e+003
1.291761e+003, 1.281773e+003
1.292243e+003, 1.282876e+003
1.292725e+003, 1.285254e+003
1.293207e+003, 1.287400e+003
1.293689e+003, 1.288187e+003
1.294171e+003, 1.288210e+003
1.294653e+003, 1.287667e+003
1.295135e+003, 1.286688e+003
1.295618e+003, 1.285029e+003
1.296100e+003, 1.282883e+003
1.296582e+003, 1.282431e+003
1.297064e+003, 1.283918e+003
1.297546e+003, 1.285570e+003
1.298028e+003, 1.286143e+003
1.298510e+003, 1.286395e+003
1.298992e+003, 1.286462e+003
1.299475e+003, 1.286785e+003
1.299957e+003, 1.288147e+003
1.300439e+003, 1.290222e+003
1.300921e+003, 1.291491e+003
1.301403e+003, 1.292249e+003
1.301885e+003, 1.294355e+003
##END=



