##NAMES=Palermoite
##RRUFFID=R130090
##IDEAL CHEMISTRY=Li_2_SrAl_4_(PO_4_)_4_(OH)_4_
##LOCALITY=Palermo mine, North Groton, New Hampshire, USA
##OWNER=RRUFF
##SOURCE=William W. Pinch and Don Doell
##DESCRIPTION=Colorless prismatic crystal, associated with quartz
##STATUS=The identification of this mineral has been confirmed only by single crystal X-ray diffraction.
##URL=rruff.info/R130090
8.975323e+001, 0.000000e+000
9.023535e+001, 2.682056e+002
9.071747e+001, 2.704569e+002
9.119958e+001, 2.702365e+002
9.168170e+001, 2.703573e+002
9.216382e+001, 2.683195e+002
9.264594e+001, 2.647838e+002
9.312805e+001, 2.609242e+002
9.361017e+001, 2.570622e+002
9.409229e+001, 2.521159e+002
9.457440e+001, 2.450422e+002
9.505651e+001, 2.386680e+002
9.553863e+001, 2.331408e+002
9.602074e+001, 2.283302e+002
9.650286e+001, 2.242191e+002
9.698498e+001, 2.206514e+002
9.746709e+001, 2.170497e+002
9.794921e+001, 2.134184e+002
9.843133e+001, 2.097031e+002
9.891344e+001, 2.060647e+002
9.939556e+001, 2.023388e+002
9.987768e+001, 1.986091e+002
1.003598e+002, 1.951979e+002
1.008419e+002, 1.922124e+002
1.013240e+002, 1.897533e+002
1.018061e+002, 1.878380e+002
1.022883e+002, 1.867036e+002
1.027704e+002, 1.859047e+002
1.032525e+002, 1.850737e+002
1.037346e+002, 1.841925e+002
1.042167e+002, 1.833004e+002
1.046988e+002, 1.825622e+002
1.051810e+002, 1.817791e+002
1.056631e+002, 1.805929e+002
1.061452e+002, 1.786316e+002
1.066273e+002, 1.761000e+002
1.071094e+002, 1.738449e+002
1.075915e+002, 1.719881e+002
1.080737e+002, 1.702773e+002
1.085558e+002, 1.685845e+002
1.090379e+002, 1.669249e+002
1.095200e+002, 1.653660e+002
1.100021e+002, 1.639351e+002
1.104842e+002, 1.626058e+002
1.109664e+002, 1.615894e+002
1.114485e+002, 1.610886e+002
1.119306e+002, 1.607027e+002
1.124127e+002, 1.602899e+002
1.128948e+002, 1.598108e+002
1.133769e+002, 1.592710e+002
1.138591e+002, 1.586821e+002
1.143412e+002, 1.580027e+002
1.148233e+002, 1.573287e+002
1.153054e+002, 1.569039e+002
1.157875e+002, 1.563763e+002
1.162696e+002, 1.552458e+002
1.167517e+002, 1.532935e+002
1.172339e+002, 1.510088e+002
1.177160e+002, 1.496194e+002
1.181981e+002, 1.493145e+002
1.186802e+002, 1.492200e+002
1.191623e+002, 1.492113e+002
1.196444e+002, 1.492415e+002
1.201266e+002, 1.491844e+002
1.206087e+002, 1.489859e+002
1.210908e+002, 1.486441e+002
1.215729e+002, 1.481872e+002
1.220550e+002, 1.475292e+002
1.225371e+002, 1.469005e+002
1.230193e+002, 1.465752e+002
1.235014e+002, 1.465983e+002
1.239835e+002, 1.465325e+002
1.244656e+002, 1.460588e+002
1.249477e+002, 1.454273e+002
1.254298e+002, 1.447911e+002
1.259120e+002, 1.441135e+002
1.263941e+002, 1.435798e+002
1.268762e+002, 1.437177e+002
1.273583e+002, 1.451312e+002
1.278404e+002, 1.462060e+002
1.283225e+002, 1.463369e+002
1.288047e+002, 1.459246e+002
1.292868e+002, 1.455074e+002
1.297689e+002, 1.454442e+002
1.302510e+002, 1.456960e+002
1.307331e+002, 1.456820e+002
1.312152e+002, 1.450309e+002
1.316974e+002, 1.444561e+002
1.321795e+002, 1.440303e+002
1.326616e+002, 1.438157e+002
1.331437e+002, 1.439202e+002
1.336258e+002, 1.444844e+002
1.341079e+002, 1.456320e+002
1.345901e+002, 1.464175e+002
1.350722e+002, 1.464588e+002
1.355543e+002, 1.465150e+002
1.360364e+002, 1.471825e+002
1.365185e+002, 1.484527e+002
1.370006e+002, 1.497029e+002
1.374828e+002, 1.501748e+002
1.379649e+002, 1.496806e+002
1.384470e+002, 1.492636e+002
1.389291e+002, 1.489873e+002
1.394112e+002, 1.488122e+002
1.398933e+002, 1.487368e+002
1.403755e+002, 1.487933e+002
1.408576e+002, 1.488253e+002
1.413397e+002, 1.485530e+002
1.418218e+002, 1.480037e+002
1.423039e+002, 1.475478e+002
1.427860e+002, 1.472955e+002
1.432681e+002, 1.472485e+002
1.437503e+002, 1.474650e+002
1.442324e+002, 1.482234e+002
1.447145e+002, 1.489350e+002
1.451966e+002, 1.489758e+002
1.456787e+002, 1.483476e+002
1.461608e+002, 1.477489e+002
1.466430e+002, 1.479532e+002
1.471251e+002, 1.490875e+002
1.476072e+002, 1.497760e+002
1.480893e+002, 1.494546e+002
1.485714e+002, 1.487784e+002
1.490535e+002, 1.479750e+002
1.495357e+002, 1.471165e+002
1.500178e+002, 1.462887e+002
1.504999e+002, 1.456494e+002
1.509820e+002, 1.453135e+002
1.514641e+002, 1.449087e+002
1.519462e+002, 1.443057e+002
1.524284e+002, 1.436834e+002
1.529105e+002, 1.432010e+002
1.533926e+002, 1.429170e+002
1.538747e+002, 1.427394e+002
1.543568e+002, 1.424317e+002
1.548389e+002, 1.415761e+002
1.553211e+002, 1.411170e+002
1.558032e+002, 1.413330e+002
1.562853e+002, 1.418934e+002
1.567674e+002, 1.423802e+002
1.572495e+002, 1.425754e+002
1.577316e+002, 1.425970e+002
1.582138e+002, 1.429659e+002
1.586959e+002, 1.438598e+002
1.591780e+002, 1.448403e+002
1.596601e+002, 1.457638e+002
1.601422e+002, 1.466914e+002
1.606243e+002, 1.478099e+002
1.611065e+002, 1.492866e+002
1.615886e+002, 1.509933e+002
1.620707e+002, 1.523401e+002
1.625528e+002, 1.531569e+002
1.630349e+002, 1.538128e+002
1.635170e+002, 1.545585e+002
1.639991e+002, 1.553698e+002
1.644813e+002, 1.559955e+002
1.649634e+002, 1.563281e+002
1.654455e+002, 1.563170e+002
1.659276e+002, 1.559486e+002
1.664097e+002, 1.554209e+002
1.668918e+002, 1.543711e+002
1.673740e+002, 1.522695e+002
1.678561e+002, 1.489787e+002
1.683382e+002, 1.453044e+002
1.688203e+002, 1.414021e+002
1.693024e+002, 1.374850e+002
1.697845e+002, 1.338293e+002
1.702667e+002, 1.306524e+002
1.707488e+002, 1.277519e+002
1.712309e+002, 1.245940e+002
1.717130e+002, 1.208471e+002
1.721951e+002, 1.174863e+002
1.726772e+002, 1.148423e+002
1.731594e+002, 1.127306e+002
1.736415e+002, 1.109046e+002
1.741236e+002, 1.092694e+002
1.746057e+002, 1.078030e+002
1.750878e+002, 1.063860e+002
1.755699e+002, 1.049065e+002
1.760521e+002, 1.036276e+002
1.765342e+002, 1.027059e+002
1.770163e+002, 1.020247e+002
1.774984e+002, 1.014108e+002
1.779805e+002, 1.007574e+002
1.784626e+002, 1.000638e+002
1.789448e+002, 9.916575e+001
1.794269e+002, 9.760678e+001
1.799090e+002, 9.628813e+001
1.803911e+002, 9.559933e+001
1.808732e+002, 9.540623e+001
1.813553e+002, 9.533574e+001
1.818375e+002, 9.507371e+001
1.823196e+002, 9.459543e+001
1.828017e+002, 9.415433e+001
1.832838e+002, 9.378971e+001
1.837659e+002, 9.341781e+001
1.842480e+002, 9.298668e+001
1.847301e+002, 9.250291e+001
1.852123e+002, 9.200849e+001
1.856944e+002, 9.152568e+001
1.861765e+002, 9.104973e+001
1.866586e+002, 9.074474e+001
1.871407e+002, 9.072856e+001
1.876228e+002, 9.079343e+001
1.881050e+002, 9.081646e+001
1.885871e+002, 9.078007e+001
1.890692e+002, 9.066779e+001
1.895513e+002, 9.037755e+001
1.900334e+002, 8.992935e+001
1.905155e+002, 8.977937e+001
1.909977e+002, 9.031755e+001
1.914798e+002, 9.102282e+001
1.919619e+002, 9.126861e+001
1.924440e+002, 9.093155e+001
1.929261e+002, 9.041548e+001
1.934082e+002, 9.006062e+001
1.938904e+002, 8.982881e+001
1.943725e+002, 8.963921e+001
1.948546e+002, 8.947344e+001
1.953367e+002, 8.933199e+001
1.958188e+002, 8.919836e+001
1.963009e+002, 8.903693e+001
1.967831e+002, 8.896642e+001
1.972652e+002, 8.913926e+001
1.977473e+002, 8.947328e+001
1.982294e+002, 8.975710e+001
1.987115e+002, 8.986541e+001
1.991936e+002, 8.983084e+001
1.996758e+002, 8.977430e+001
2.001579e+002, 8.961324e+001
2.006400e+002, 8.956197e+001
2.011221e+002, 8.976919e+001
2.016042e+002, 9.016444e+001
2.020863e+002, 9.057430e+001
2.025685e+002, 9.090649e+001
2.030506e+002, 9.116024e+001
2.035327e+002, 9.129373e+001
2.040148e+002, 9.107684e+001
2.044969e+002, 9.098241e+001
2.049790e+002, 9.128870e+001
2.054612e+002, 9.187192e+001
2.059433e+002, 9.242048e+001
2.064254e+002, 9.263860e+001
2.069075e+002, 9.249870e+001
2.073896e+002, 9.256552e+001
2.078717e+002, 9.303521e+001
2.083539e+002, 9.354594e+001
2.088360e+002, 9.400631e+001
2.093181e+002, 9.441270e+001
2.098002e+002, 9.479428e+001
2.102823e+002, 9.517355e+001
2.107644e+002, 9.554546e+001
2.112466e+002, 9.594302e+001
2.117287e+002, 9.632917e+001
2.122108e+002, 9.677055e+001
2.126929e+002, 9.737052e+001
2.131750e+002, 9.807077e+001
2.136571e+002, 9.870020e+001
2.141393e+002, 9.908388e+001
2.146214e+002, 9.916738e+001
2.151035e+002, 9.939417e+001
2.155856e+002, 9.964146e+001
2.160677e+002, 1.000982e+002
2.165498e+002, 1.010094e+002
2.170320e+002, 1.022799e+002
2.175141e+002, 1.035022e+002
2.179962e+002, 1.042448e+002
2.184783e+002, 1.044099e+002
2.189604e+002, 1.051092e+002
2.194425e+002, 1.067817e+002
2.199247e+002, 1.085656e+002
2.204068e+002, 1.099413e+002
2.208889e+002, 1.108976e+002
2.213710e+002, 1.117113e+002
2.218531e+002, 1.125608e+002
2.223352e+002, 1.134624e+002
2.228174e+002, 1.146406e+002
2.232995e+002, 1.162403e+002
2.237816e+002, 1.180053e+002
2.242637e+002, 1.197770e+002
2.247458e+002, 1.215431e+002
2.252279e+002, 1.232758e+002
2.257100e+002, 1.249005e+002
2.261922e+002, 1.264535e+002
2.266743e+002, 1.282141e+002
2.271564e+002, 1.303008e+002
2.276385e+002, 1.325362e+002
2.281206e+002, 1.347893e+002
2.286027e+002, 1.370538e+002
2.290849e+002, 1.392235e+002
2.295670e+002, 1.410542e+002
2.300491e+002, 1.427202e+002
2.305312e+002, 1.447221e+002
2.310133e+002, 1.474428e+002
2.314954e+002, 1.503631e+002
2.319776e+002, 1.529507e+002
2.324597e+002, 1.552006e+002
2.329418e+002, 1.571505e+002
2.334239e+002, 1.587717e+002
2.339060e+002, 1.601100e+002
2.343881e+002, 1.612193e+002
2.348703e+002, 1.622818e+002
2.353524e+002, 1.629747e+002
2.358345e+002, 1.628443e+002
2.363166e+002, 1.618206e+002
2.367987e+002, 1.602382e+002
2.372808e+002, 1.580810e+002
2.377630e+002, 1.555096e+002
2.382451e+002, 1.525702e+002
2.387272e+002, 1.491480e+002
2.392093e+002, 1.455474e+002
2.396914e+002, 1.422912e+002
2.401735e+002, 1.394547e+002
2.406557e+002, 1.366812e+002
2.411378e+002, 1.337721e+002
2.416199e+002, 1.308775e+002
2.421020e+002, 1.281221e+002
2.425841e+002, 1.255379e+002
2.430662e+002, 1.231721e+002
2.435484e+002, 1.211137e+002
2.440305e+002, 1.193981e+002
2.445126e+002, 1.179222e+002
2.449947e+002, 1.167442e+002
2.454768e+002, 1.157288e+002
2.459589e+002, 1.147471e+002
2.464410e+002, 1.137483e+002
2.469232e+002, 1.128439e+002
2.474053e+002, 1.122643e+002
2.478874e+002, 1.122053e+002
2.483695e+002, 1.120059e+002
2.488516e+002, 1.113746e+002
2.493337e+002, 1.106782e+002
2.498159e+002, 1.102565e+002
2.502980e+002, 1.102023e+002
2.507801e+002, 1.102515e+002
2.512622e+002, 1.099416e+002
2.517443e+002, 1.091033e+002
2.522264e+002, 1.082772e+002
2.527086e+002, 1.075812e+002
2.531907e+002, 1.068714e+002
2.536728e+002, 1.060220e+002
2.541549e+002, 1.050108e+002
2.546370e+002, 1.039283e+002
2.551191e+002, 1.029119e+002
2.556013e+002, 1.020309e+002
2.560834e+002, 1.010709e+002
2.565655e+002, 9.978342e+001
2.570476e+002, 9.860194e+001
2.575297e+002, 9.788008e+001
2.580118e+002, 9.764568e+001
2.584940e+002, 9.759099e+001
2.589761e+002, 9.729623e+001
2.594582e+002, 9.663244e+001
2.599403e+002, 9.604707e+001
2.604224e+002, 9.537199e+001
2.609045e+002, 9.487529e+001
2.613867e+002, 9.490675e+001
2.618688e+002, 9.539523e+001
2.623509e+002, 9.582654e+001
2.628330e+002, 9.556152e+001
2.633151e+002, 9.429363e+001
2.637972e+002, 9.344449e+001
2.642794e+002, 9.324521e+001
2.647615e+002, 9.318359e+001
2.652436e+002, 9.295552e+001
2.657257e+002, 9.257213e+001
2.662078e+002, 9.226099e+001
2.666899e+002, 9.227245e+001
2.671721e+002, 9.269218e+001
2.676542e+002, 9.287556e+001
2.681363e+002, 9.268040e+001
2.686184e+002, 9.243117e+001
2.691005e+002, 9.221729e+001
2.695826e+002, 9.207780e+001
2.700648e+002, 9.208055e+001
2.705469e+002, 9.230395e+001
2.710290e+002, 9.275813e+001
2.715111e+002, 9.308645e+001
2.719932e+002, 9.326256e+001
2.724753e+002, 9.336901e+001
2.729575e+002, 9.338103e+001
2.734396e+002, 9.334341e+001
2.739217e+002, 9.336375e+001
2.744038e+002, 9.352100e+001
2.748859e+002, 9.380308e+001
2.753680e+002, 9.405968e+001
2.758501e+002, 9.402100e+001
2.763322e+002, 9.424494e+001
2.768144e+002, 9.520283e+001
2.772965e+002, 9.657468e+001
2.777786e+002, 9.767745e+001
2.782607e+002, 9.815557e+001
2.787428e+002, 9.806697e+001
2.792249e+002, 9.759624e+001
2.797071e+002, 9.635422e+001
2.801892e+002, 9.526574e+001
2.806713e+002, 9.464388e+001
2.811534e+002, 9.432039e+001
2.816355e+002, 9.407511e+001
2.821176e+002, 9.386221e+001
2.825998e+002, 9.352156e+001
2.830819e+002, 9.256313e+001
2.835640e+002, 9.055900e+001
2.840461e+002, 8.883743e+001
2.845282e+002, 8.787963e+001
2.850103e+002, 8.731008e+001
2.854925e+002, 8.653266e+001
2.859746e+002, 8.532554e+001
2.864567e+002, 8.402058e+001
2.869388e+002, 8.323384e+001
2.874209e+002, 8.317003e+001
2.879030e+002, 8.289001e+001
2.883852e+002, 8.210775e+001
2.888673e+002, 8.109166e+001
2.893494e+002, 8.012454e+001
2.898315e+002, 7.926525e+001
2.903136e+002, 7.854465e+001
2.907957e+002, 7.802938e+001
2.912779e+002, 7.775040e+001
2.917600e+002, 7.745615e+001
2.922421e+002, 7.714375e+001
2.927242e+002, 7.679302e+001
2.932063e+002, 7.633043e+001
2.936884e+002, 7.574991e+001
2.941706e+002, 7.523575e+001
2.946527e+002, 7.495428e+001
2.951348e+002, 7.492336e+001
2.956169e+002, 7.499918e+001
2.960990e+002, 7.534199e+001
2.965811e+002, 7.567112e+001
2.970633e+002, 7.566148e+001
2.975454e+002, 7.534435e+001
2.980275e+002, 7.517657e+001
2.985096e+002, 7.554529e+001
2.989917e+002, 7.635823e+001
2.994738e+002, 7.691977e+001
2.999560e+002, 7.706441e+001
3.004381e+002, 7.711124e+001
3.009202e+002, 7.713364e+001
3.014023e+002, 7.717850e+001
3.018844e+002, 7.745769e+001
3.023665e+002, 7.812175e+001
3.028487e+002, 7.908129e+001
3.033308e+002, 8.003465e+001
3.038129e+002, 8.095014e+001
3.042950e+002, 8.191419e+001
3.047771e+002, 8.292739e+001
3.052592e+002, 8.401598e+001
3.057414e+002, 8.529333e+001
3.062235e+002, 8.686465e+001
3.067056e+002, 8.852583e+001
3.071877e+002, 8.979420e+001
3.076698e+002, 9.052902e+001
3.081519e+002, 9.148938e+001
3.086341e+002, 9.307880e+001
3.091162e+002, 9.501792e+001
3.095983e+002, 9.677783e+001
3.100804e+002, 9.818259e+001
3.105625e+002, 9.954263e+001
3.110446e+002, 1.012786e+002
3.115268e+002, 1.033917e+002
3.120089e+002, 1.055676e+002
3.124910e+002, 1.077014e+002
3.129731e+002, 1.098849e+002
3.134552e+002, 1.122405e+002
3.139373e+002, 1.147800e+002
3.144195e+002, 1.174675e+002
3.149016e+002, 1.202923e+002
3.153837e+002, 1.232678e+002
3.158658e+002, 1.263622e+002
3.163479e+002, 1.294670e+002
3.168300e+002, 1.327657e+002
3.173121e+002, 1.364956e+002
3.177943e+002, 1.406463e+002
3.182764e+002, 1.448131e+002
3.187585e+002, 1.486453e+002
3.192406e+002, 1.522948e+002
3.197227e+002, 1.564773e+002
3.202048e+002, 1.613895e+002
3.206870e+002, 1.666357e+002
3.211691e+002, 1.722634e+002
3.216512e+002, 1.781029e+002
3.221333e+002, 1.836449e+002
3.226154e+002, 1.886010e+002
3.230975e+002, 1.931220e+002
3.235797e+002, 1.975365e+002
3.240618e+002, 2.021117e+002
3.245439e+002, 2.061154e+002
3.250260e+002, 2.095511e+002
3.255081e+002, 2.122166e+002
3.259902e+002, 2.137465e+002
3.264724e+002, 2.140061e+002
3.269545e+002, 2.131596e+002
3.274366e+002, 2.113441e+002
3.279187e+002, 2.086316e+002
3.284008e+002, 2.050126e+002
3.288829e+002, 2.001074e+002
3.293651e+002, 1.944697e+002
3.298472e+002, 1.885826e+002
3.303293e+002, 1.825286e+002
3.308114e+002, 1.765689e+002
3.312935e+002, 1.708624e+002
3.317756e+002, 1.654469e+002
3.322578e+002, 1.605810e+002
3.327399e+002, 1.564165e+002
3.332220e+002, 1.527269e+002
3.337041e+002, 1.493867e+002
3.341862e+002, 1.463909e+002
3.346683e+002, 1.436683e+002
3.351505e+002, 1.412209e+002
3.356326e+002, 1.390259e+002
3.361147e+002, 1.369109e+002
3.365968e+002, 1.348783e+002
3.370789e+002, 1.328905e+002
3.375610e+002, 1.310287e+002
3.380432e+002, 1.291980e+002
3.385253e+002, 1.271749e+002
3.390074e+002, 1.248375e+002
3.394895e+002, 1.222960e+002
3.399716e+002, 1.198529e+002
3.404537e+002, 1.175803e+002
3.409359e+002, 1.152687e+002
3.414180e+002, 1.128564e+002
3.419001e+002, 1.103885e+002
3.423822e+002, 1.078839e+002
3.428643e+002, 1.053568e+002
3.433464e+002, 1.029344e+002
3.438286e+002, 1.008096e+002
3.443107e+002, 9.908930e+001
3.447928e+002, 9.741702e+001
3.452749e+002, 9.582243e+001
3.457570e+002, 9.426730e+001
3.462391e+002, 9.261246e+001
3.467213e+002, 9.091281e+001
3.472034e+002, 8.948084e+001
3.476855e+002, 8.866817e+001
3.481676e+002, 8.851479e+001
3.486497e+002, 8.810056e+001
3.491318e+002, 8.711748e+001
3.496140e+002, 8.622887e+001
3.500961e+002, 8.581161e+001
3.505782e+002, 8.572092e+001
3.510603e+002, 8.558373e+001
3.515424e+002, 8.517657e+001
3.520245e+002, 8.457598e+001
3.525067e+002, 8.410689e+001
3.529888e+002, 8.368346e+001
3.534709e+002, 8.349654e+001
3.539530e+002, 8.369646e+001
3.544351e+002, 8.409566e+001
3.549172e+002, 8.451315e+001
3.553994e+002, 8.488027e+001
3.558815e+002, 8.517508e+001
3.563636e+002, 8.535123e+001
3.568457e+002, 8.528466e+001
3.573278e+002, 8.535548e+001
3.578099e+002, 8.560463e+001
3.582920e+002, 8.594524e+001
3.587741e+002, 8.630396e+001
3.592563e+002, 8.668501e+001
3.597384e+002, 8.716723e+001
3.602205e+002, 8.786923e+001
3.607026e+002, 8.884760e+001
3.611847e+002, 8.948569e+001
3.616668e+002, 8.948166e+001
3.621490e+002, 8.947403e+001
3.626311e+002, 8.963523e+001
3.631132e+002, 8.995347e+001
3.635953e+002, 9.040703e+001
3.640774e+002, 9.100578e+001
3.645595e+002, 9.166216e+001
3.650417e+002, 9.198672e+001
3.655238e+002, 9.160695e+001
3.660059e+002, 9.139743e+001
3.664880e+002, 9.162297e+001
3.669701e+002, 9.197588e+001
3.674522e+002, 9.217829e+001
3.679344e+002, 9.213489e+001
3.684165e+002, 9.190031e+001
3.688986e+002, 9.159668e+001
3.693807e+002, 9.136182e+001
3.698628e+002, 9.065428e+001
3.703449e+002, 8.908953e+001
3.708271e+002, 8.738912e+001
3.713092e+002, 8.580914e+001
3.717913e+002, 8.442564e+001
3.722734e+002, 8.326926e+001
3.727555e+002, 8.248567e+001
3.732376e+002, 8.205386e+001
3.737198e+002, 8.116311e+001
3.742019e+002, 7.932856e+001
3.746840e+002, 7.761673e+001
3.751661e+002, 7.645291e+001
3.756482e+002, 7.561494e+001
3.761303e+002, 7.475366e+001
3.766125e+002, 7.367966e+001
3.770946e+002, 7.251851e+001
3.775767e+002, 7.155335e+001
3.780588e+002, 7.083830e+001
3.785409e+002, 7.016846e+001
3.790230e+002, 6.943914e+001
3.795052e+002, 6.875964e+001
3.799873e+002, 6.826924e+001
3.804694e+002, 6.799148e+001
3.809515e+002, 6.770758e+001
3.814336e+002, 6.717632e+001
3.819157e+002, 6.640182e+001
3.823979e+002, 6.562743e+001
3.828800e+002, 6.475388e+001
3.833621e+002, 6.405869e+001
3.838442e+002, 6.378907e+001
3.843263e+002, 6.384973e+001
3.848084e+002, 6.388675e+001
3.852906e+002, 6.374300e+001
3.857727e+002, 6.343980e+001
3.862548e+002, 6.293629e+001
3.867369e+002, 6.212308e+001
3.872190e+002, 6.151374e+001
3.877011e+002, 6.165405e+001
3.881833e+002, 6.211730e+001
3.886654e+002, 6.228276e+001
3.891475e+002, 6.191512e+001
3.896296e+002, 6.144611e+001
3.901117e+002, 6.124706e+001
3.905938e+002, 6.129162e+001
3.910760e+002, 6.138781e+001
3.915581e+002, 6.150008e+001
3.920402e+002, 6.160569e+001
3.925223e+002, 6.164267e+001
3.930044e+002, 6.159620e+001
3.934865e+002, 6.165090e+001
3.939687e+002, 6.203276e+001
3.944508e+002, 6.251163e+001
3.949329e+002, 6.265891e+001
3.954150e+002, 6.238735e+001
3.958971e+002, 6.208090e+001
3.963792e+002, 6.207962e+001
3.968614e+002, 6.236807e+001
3.973435e+002, 6.263779e+001
3.978256e+002, 6.271843e+001
3.983077e+002, 6.291665e+001
3.987898e+002, 6.359552e+001
3.992719e+002, 6.460310e+001
3.997540e+002, 6.536495e+001
4.002361e+002, 6.555202e+001
4.007183e+002, 6.537424e+001
4.012004e+002, 6.542467e+001
4.016825e+002, 6.568869e+001
4.021646e+002, 6.615645e+001
4.026467e+002, 6.691706e+001
4.031288e+002, 6.784042e+001
4.036110e+002, 6.882977e+001
4.040931e+002, 6.984517e+001
4.045752e+002, 7.078638e+001
4.050573e+002, 7.151624e+001
4.055394e+002, 7.196626e+001
4.060215e+002, 7.252431e+001
4.065037e+002, 7.335165e+001
4.069858e+002, 7.411852e+001
4.074679e+002, 7.452917e+001
4.079500e+002, 7.474033e+001
4.084321e+002, 7.517178e+001
4.089142e+002, 7.611136e+001
4.093964e+002, 7.743221e+001
4.098785e+002, 7.855798e+001
4.103606e+002, 7.917041e+001
4.108427e+002, 7.999798e+001
4.113248e+002, 8.116192e+001
4.118069e+002, 8.252782e+001
4.122891e+002, 8.402064e+001
4.127712e+002, 8.559860e+001
4.132533e+002, 8.717269e+001
4.137354e+002, 8.861582e+001
4.142175e+002, 8.990281e+001
4.146996e+002, 9.118433e+001
4.151818e+002, 9.239775e+001
4.156639e+002, 9.365935e+001
4.161460e+002, 9.503158e+001
4.166281e+002, 9.649559e+001
4.171102e+002, 9.798654e+001
4.175923e+002, 9.949873e+001
4.180745e+002, 1.009886e+002
4.185566e+002, 1.022889e+002
4.190387e+002, 1.032342e+002
4.195208e+002, 1.043484e+002
4.200029e+002, 1.058488e+002
4.204850e+002, 1.075404e+002
4.209672e+002, 1.092917e+002
4.214493e+002, 1.110739e+002
4.219314e+002, 1.127883e+002
4.224135e+002, 1.142516e+002
4.228956e+002, 1.154816e+002
4.233777e+002, 1.169215e+002
4.238599e+002, 1.187352e+002
4.243420e+002, 1.206399e+002
4.248241e+002, 1.224570e+002
4.253062e+002, 1.241910e+002
4.257883e+002, 1.258671e+002
4.262704e+002, 1.273349e+002
4.267526e+002, 1.288278e+002
4.272347e+002, 1.307465e+002
4.277168e+002, 1.331276e+002
4.281989e+002, 1.355223e+002
4.286810e+002, 1.376464e+002
4.291631e+002, 1.396521e+002
4.296453e+002, 1.419120e+002
4.301274e+002, 1.446506e+002
4.306095e+002, 1.471400e+002
4.310916e+002, 1.489603e+002
4.315737e+002, 1.502761e+002
4.320558e+002, 1.514555e+002
4.325380e+002, 1.526003e+002
4.330201e+002, 1.535022e+002
4.335022e+002, 1.539692e+002
4.339843e+002, 1.539805e+002
4.344664e+002, 1.533069e+002
4.349485e+002, 1.519186e+002
4.354307e+002, 1.498594e+002
4.359128e+002, 1.469530e+002
4.363949e+002, 1.433656e+002
4.368770e+002, 1.395444e+002
4.373591e+002, 1.357215e+002
4.378412e+002, 1.319237e+002
4.383234e+002, 1.283208e+002
4.388055e+002, 1.249957e+002
4.392876e+002, 1.217568e+002
4.397697e+002, 1.184687e+002
4.402518e+002, 1.153434e+002
4.407339e+002, 1.125791e+002
4.412160e+002, 1.102348e+002
4.416982e+002, 1.082697e+002
4.421803e+002, 1.067012e+002
4.426624e+002, 1.055908e+002
4.431445e+002, 1.044009e+002
4.436266e+002, 1.028535e+002
4.441087e+002, 1.015207e+002
4.445909e+002, 1.007362e+002
4.450730e+002, 1.002648e+002
4.455551e+002, 9.972258e+001
4.460372e+002, 9.892384e+001
4.465193e+002, 9.792355e+001
4.470014e+002, 9.678874e+001
4.474836e+002, 9.540360e+001
4.479657e+002, 9.423423e+001
4.484478e+002, 9.356571e+001
4.489299e+002, 9.298927e+001
4.494120e+002, 9.232254e+001
4.498941e+002, 9.152234e+001
4.503763e+002, 9.052457e+001
4.508584e+002, 8.921952e+001
4.513405e+002, 8.766371e+001
4.518226e+002, 8.610883e+001
4.523047e+002, 8.453816e+001
4.527868e+002, 8.303915e+001
4.532690e+002, 8.168412e+001
4.537511e+002, 8.042930e+001
4.542332e+002, 7.924480e+001
4.547153e+002, 7.819933e+001
4.551974e+002, 7.708591e+001
4.556795e+002, 7.563517e+001
4.561617e+002, 7.394162e+001
4.566438e+002, 7.236636e+001
4.571259e+002, 7.097228e+001
4.576080e+002, 6.981357e+001
4.580901e+002, 6.910184e+001
4.585722e+002, 6.883857e+001
4.590544e+002, 6.835246e+001
4.595365e+002, 6.720513e+001
4.600186e+002, 6.601997e+001
4.605007e+002, 6.540285e+001
4.609828e+002, 6.530209e+001
4.614649e+002, 6.527322e+001
4.619471e+002, 6.507793e+001
4.624292e+002, 6.471080e+001
4.629113e+002, 6.413114e+001
4.633934e+002, 6.305440e+001
4.638755e+002, 6.215202e+001
4.643576e+002, 6.152170e+001
4.648398e+002, 6.108136e+001
4.653219e+002, 6.078624e+001
4.658040e+002, 6.060712e+001
4.662861e+002, 6.048450e+001
4.667682e+002, 6.036888e+001
4.672503e+002, 6.027237e+001
4.677325e+002, 6.004896e+001
4.682146e+002, 5.942839e+001
4.686967e+002, 5.897033e+001
4.691788e+002, 5.895953e+001
4.696609e+002, 5.917188e+001
4.701430e+002, 5.924728e+001
4.706252e+002, 5.902103e+001
4.711073e+002, 5.869627e+001
4.715894e+002, 5.864755e+001
4.720715e+002, 5.893781e+001
4.725536e+002, 5.923304e+001
4.730357e+002, 5.969224e+001
4.735179e+002, 5.995512e+001
4.740000e+002, 5.958593e+001
4.744821e+002, 5.876781e+001
4.749642e+002, 5.824182e+001
4.754463e+002, 5.865332e+001
4.759284e+002, 5.958252e+001
4.764106e+002, 6.008995e+001
4.768927e+002, 6.010978e+001
4.773748e+002, 6.010858e+001
4.778569e+002, 6.029653e+001
4.783390e+002, 6.059645e+001
4.788211e+002, 6.088694e+001
4.793033e+002, 6.116767e+001
4.797854e+002, 6.142054e+001
4.802675e+002, 6.168872e+001
4.807496e+002, 6.190907e+001
4.812317e+002, 6.189356e+001
4.817138e+002, 6.159584e+001
4.821959e+002, 6.135378e+001
4.826780e+002, 6.147563e+001
4.831602e+002, 6.196765e+001
4.836423e+002, 6.248697e+001
4.841244e+002, 6.314048e+001
4.846065e+002, 6.370323e+001
4.850886e+002, 6.403316e+001
4.855707e+002, 6.422298e+001
4.860529e+002, 6.444029e+001
4.865350e+002, 6.474828e+001
4.870171e+002, 6.507481e+001
4.874992e+002, 6.527030e+001
4.879813e+002, 6.515543e+001
4.884634e+002, 6.542434e+001
4.889456e+002, 6.644526e+001
4.894277e+002, 6.743126e+001
4.899098e+002, 6.793813e+001
4.903919e+002, 6.809946e+001
4.908740e+002, 6.827984e+001
4.913561e+002, 6.869860e+001
4.918383e+002, 6.927657e+001
4.923204e+002, 6.980296e+001
4.928025e+002, 7.026870e+001
4.932846e+002, 7.070486e+001
4.937667e+002, 7.103614e+001
4.942488e+002, 7.139639e+001
4.947310e+002, 7.190049e+001
4.952131e+002, 7.254114e+001
4.956952e+002, 7.319519e+001
4.961773e+002, 7.372092e+001
4.966594e+002, 7.419554e+001
4.971415e+002, 7.485833e+001
4.976237e+002, 7.575562e+001
4.981058e+002, 7.665382e+001
4.985879e+002, 7.751320e+001
4.990700e+002, 7.825810e+001
4.995521e+002, 7.870504e+001
5.000342e+002, 7.865438e+001
5.005164e+002, 7.877702e+001
5.009985e+002, 7.961756e+001
5.014806e+002, 8.080157e+001
5.019627e+002, 8.167344e+001
5.024448e+002, 8.209632e+001
5.029269e+002, 8.229137e+001
5.034091e+002, 8.240695e+001
5.038912e+002, 8.243990e+001
5.043733e+002, 8.274796e+001
5.048554e+002, 8.360821e+001
5.053375e+002, 8.440126e+001
5.058196e+002, 8.492082e+001
5.063018e+002, 8.522863e+001
5.067839e+002, 8.536765e+001
5.072660e+002, 8.536636e+001
5.077481e+002, 8.537348e+001
5.082302e+002, 8.564147e+001
5.087123e+002, 8.627778e+001
5.091945e+002, 8.678671e+001
5.096766e+002, 8.717498e+001
5.101587e+002, 8.742635e+001
5.106408e+002, 8.740324e+001
5.111229e+002, 8.725569e+001
5.116050e+002, 8.729913e+001
5.120872e+002, 8.774437e+001
5.125693e+002, 8.827698e+001
5.130514e+002, 8.823001e+001
5.135335e+002, 8.749534e+001
5.140156e+002, 8.701646e+001
5.144977e+002, 8.708988e+001
5.149799e+002, 8.740369e+001
5.154620e+002, 8.781113e+001
5.159441e+002, 8.826235e+001
5.164262e+002, 8.846427e+001
5.169083e+002, 8.818277e+001
5.173904e+002, 8.764929e+001
5.178726e+002, 8.713808e+001
5.183547e+002, 8.665061e+001
5.188368e+002, 8.611646e+001
5.193189e+002, 8.546825e+001
5.198010e+002, 8.479285e+001
5.202831e+002, 8.431675e+001
5.207653e+002, 8.408604e+001
5.212474e+002, 8.386295e+001
5.217295e+002, 8.369296e+001
5.222116e+002, 8.345695e+001
5.226937e+002, 8.302100e+001
5.231758e+002, 8.240456e+001
5.236580e+002, 8.172305e+001
5.241401e+002, 8.104683e+001
5.246222e+002, 8.039937e+001
5.251043e+002, 7.989135e+001
5.255864e+002, 7.961479e+001
5.260685e+002, 7.936203e+001
5.265507e+002, 7.923989e+001
5.270328e+002, 7.904654e+001
5.275149e+002, 7.849009e+001
5.279970e+002, 7.762291e+001
5.284791e+002, 7.689622e+001
5.289612e+002, 7.679473e+001
5.294434e+002, 7.719278e+001
5.299255e+002, 7.732045e+001
5.304076e+002, 7.712241e+001
5.308897e+002, 7.678019e+001
5.313718e+002, 7.626589e+001
5.318539e+002, 7.569697e+001
5.323361e+002, 7.518253e+001
5.328182e+002, 7.474124e+001
5.333003e+002, 7.434265e+001
5.337824e+002, 7.407049e+001
5.342645e+002, 7.380607e+001
5.347466e+002, 7.323820e+001
5.352288e+002, 7.230807e+001
5.357109e+002, 7.132641e+001
5.361930e+002, 7.048974e+001
5.366751e+002, 6.980473e+001
5.371572e+002, 6.928190e+001
5.376393e+002, 6.919827e+001
5.381215e+002, 6.892235e+001
5.386036e+002, 6.808217e+001
5.390857e+002, 6.703817e+001
5.395678e+002, 6.625117e+001
5.400499e+002, 6.580848e+001
5.405320e+002, 6.548258e+001
5.410142e+002, 6.505838e+001
5.414963e+002, 6.453700e+001
5.419784e+002, 6.386712e+001
5.424604e+002, 6.287626e+001
5.429426e+002, 6.194225e+001
5.434247e+002, 6.111718e+001
5.439068e+002, 6.040086e+001
5.443889e+002, 5.982545e+001
5.448710e+002, 5.939035e+001
5.453531e+002, 5.898020e+001
5.458353e+002, 5.846721e+001
5.463174e+002, 5.785938e+001
5.467995e+002, 5.728035e+001
5.472816e+002, 5.675472e+001
5.477637e+002, 5.622198e+001
5.482458e+002, 5.559507e+001
5.487280e+002, 5.494773e+001
5.492101e+002, 5.440147e+001
5.496922e+002, 5.399839e+001
5.501743e+002, 5.365668e+001
5.506564e+002, 5.334619e+001
5.511385e+002, 5.305539e+001
5.516207e+002, 5.275398e+001
5.521028e+002, 5.243523e+001
5.525849e+002, 5.212934e+001
5.530670e+002, 5.187135e+001
5.535491e+002, 5.166079e+001
5.540313e+002, 5.141549e+001
5.545134e+002, 5.117906e+001
5.549955e+002, 5.086307e+001
5.554776e+002, 5.027880e+001
5.559597e+002, 4.967395e+001
5.564418e+002, 4.942809e+001
5.569240e+002, 4.960151e+001
5.574061e+002, 4.984261e+001
5.578882e+002, 4.973206e+001
5.583703e+002, 4.925660e+001
5.588524e+002, 4.882423e+001
5.593345e+002, 4.844128e+001
5.598167e+002, 4.810051e+001
5.602988e+002, 4.772561e+001
5.607809e+002, 4.741602e+001
5.612630e+002, 4.733590e+001
5.617451e+002, 4.754680e+001
5.622272e+002, 4.776714e+001
5.627094e+002, 4.772924e+001
5.631915e+002, 4.750110e+001
5.636736e+002, 4.730062e+001
5.641557e+002, 4.714843e+001
5.646378e+002, 4.704432e+001
5.651199e+002, 4.700051e+001
5.656021e+002, 4.700715e+001
5.660842e+002, 4.701767e+001
5.665663e+002, 4.718628e+001
5.670484e+002, 4.714245e+001
5.675305e+002, 4.651124e+001
5.680126e+002, 4.571679e+001
5.684948e+002, 4.531097e+001
5.689769e+002, 4.537487e+001
5.694590e+002, 4.562207e+001
5.699411e+002, 4.581346e+001
5.704232e+002, 4.594521e+001
5.709053e+002, 4.592224e+001
5.713875e+002, 4.554811e+001
5.718696e+002, 4.528247e+001
5.723517e+002, 4.524976e+001
5.728338e+002, 4.531707e+001
5.733159e+002, 4.541886e+001
5.737980e+002, 4.551638e+001
5.742802e+002, 4.549100e+001
5.747623e+002, 4.507106e+001
5.752444e+002, 4.442072e+001
5.757265e+002, 4.429231e+001
5.762086e+002, 4.480444e+001
5.766907e+002, 4.533783e+001
5.771729e+002, 4.555565e+001
5.776550e+002, 4.564884e+001
5.781371e+002, 4.598778e+001
5.786192e+002, 4.668862e+001
5.791013e+002, 4.713478e+001
5.795834e+002, 4.680340e+001
5.800656e+002, 4.626737e+001
5.805477e+002, 4.619188e+001
5.810298e+002, 4.659343e+001
5.815119e+002, 4.715259e+001
5.819940e+002, 4.769101e+001
5.824761e+002, 4.819423e+001
5.829583e+002, 4.861146e+001
5.834404e+002, 4.880370e+001
5.839225e+002, 4.912595e+001
5.844046e+002, 4.962842e+001
5.848867e+002, 5.021795e+001
5.853688e+002, 5.092237e+001
5.858510e+002, 5.166613e+001
5.863331e+002, 5.225298e+001
5.868152e+002, 5.252281e+001
5.872973e+002, 5.262867e+001
5.877794e+002, 5.288255e+001
5.882615e+002, 5.327644e+001
5.887437e+002, 5.388356e+001
5.892258e+002, 5.476075e+001
5.897079e+002, 5.582950e+001
5.901900e+002, 5.709346e+001
5.906721e+002, 5.850594e+001
5.911542e+002, 5.974321e+001
5.916364e+002, 6.061195e+001
5.921185e+002, 6.134388e+001
5.926006e+002, 6.202538e+001
5.930827e+002, 6.271663e+001
5.935648e+002, 6.360833e+001
5.940469e+002, 6.477387e+001
5.945291e+002, 6.608797e+001
5.950112e+002, 6.738302e+001
5.954933e+002, 6.864268e+001
5.959754e+002, 6.997466e+001
5.964575e+002, 7.150188e+001
5.969396e+002, 7.295486e+001
5.974218e+002, 7.421524e+001
5.979039e+002, 7.535676e+001
5.983860e+002, 7.650880e+001
5.988681e+002, 7.771462e+001
5.993502e+002, 7.887092e+001
5.998323e+002, 7.987541e+001
6.003145e+002, 8.073118e+001
6.007966e+002, 8.145792e+001
6.012787e+002, 8.215030e+001
6.017608e+002, 8.250721e+001
6.022429e+002, 8.230891e+001
6.027250e+002, 8.166605e+001
6.032072e+002, 8.067123e+001
6.036893e+002, 7.924695e+001
6.041714e+002, 7.772300e+001
6.046535e+002, 7.621928e+001
6.051356e+002, 7.472981e+001
6.056177e+002, 7.324184e+001
6.060999e+002, 7.176107e+001
6.065820e+002, 7.031612e+001
6.070641e+002, 6.892818e+001
6.075462e+002, 6.760724e+001
6.080283e+002, 6.637967e+001
6.085104e+002, 6.512167e+001
6.089926e+002, 6.416376e+001
6.094747e+002, 6.351369e+001
6.099568e+002, 6.315945e+001
6.104389e+002, 6.324821e+001
6.109210e+002, 6.364582e+001
6.114031e+002, 6.395747e+001
6.118853e+002, 6.390225e+001
6.123674e+002, 6.366209e+001
6.128495e+002, 6.362798e+001
6.133316e+002, 6.381784e+001
6.138137e+002, 6.398926e+001
6.142958e+002, 6.401144e+001
6.147780e+002, 6.409389e+001
6.152601e+002, 6.451385e+001
6.157422e+002, 6.521127e+001
6.162243e+002, 6.582839e+001
6.167064e+002, 6.638533e+001
6.171885e+002, 6.674924e+001
6.176707e+002, 6.675829e+001
6.181528e+002, 6.652480e+001
6.186349e+002, 6.631223e+001
6.191170e+002, 6.619229e+001
6.195991e+002, 6.595487e+001
6.200812e+002, 6.534197e+001
6.205634e+002, 6.433055e+001
6.210455e+002, 6.325069e+001
6.215276e+002, 6.201446e+001
6.220097e+002, 6.081493e+001
6.224918e+002, 5.961799e+001
6.229739e+002, 5.852246e+001
6.234561e+002, 5.769787e+001
6.239382e+002, 5.715528e+001
6.244203e+002, 5.661608e+001
6.249023e+002, 5.577417e+001
6.253845e+002, 5.477818e+001
6.258666e+002, 5.402802e+001
6.263487e+002, 5.353840e+001
6.268308e+002, 5.320788e+001
6.273129e+002, 5.298734e+001
6.277950e+002, 5.289930e+001
6.282772e+002, 5.302326e+001
6.287593e+002, 5.339148e+001
6.292414e+002, 5.375719e+001
6.297235e+002, 5.401774e+001
6.302056e+002, 5.432462e+001
6.306877e+002, 5.489182e+001
6.311699e+002, 5.558447e+001
6.316520e+002, 5.603889e+001
6.321341e+002, 5.608573e+001
6.326162e+002, 5.600488e+001
6.330983e+002, 5.631512e+001
6.335804e+002, 5.713352e+001
6.340626e+002, 5.775457e+001
6.345447e+002, 5.816713e+001
6.350268e+002, 5.836531e+001
6.355089e+002, 5.825127e+001
6.359910e+002, 5.797730e+001
6.364731e+002, 5.777869e+001
6.369553e+002, 5.772562e+001
6.374374e+002, 5.768597e+001
6.379195e+002, 5.756073e+001
6.384016e+002, 5.738662e+001
6.388837e+002, 5.727708e+001
6.393658e+002, 5.723606e+001
6.398480e+002, 5.702341e+001
6.403301e+002, 5.642148e+001
6.408122e+002, 5.560202e+001
6.412943e+002, 5.513905e+001
6.417764e+002, 5.532644e+001
6.422585e+002, 5.545689e+001
6.427407e+002, 5.548366e+001
6.432228e+002, 5.549475e+001
6.437049e+002, 5.558389e+001
6.441870e+002, 5.570333e+001
6.446691e+002, 5.570317e+001
6.451512e+002, 5.548237e+001
6.456334e+002, 5.521472e+001
6.461155e+002, 5.516304e+001
6.465976e+002, 5.532702e+001
6.470797e+002, 5.567350e+001
6.475618e+002, 5.627460e+001
6.480439e+002, 5.689395e+001
6.485261e+002, 5.734552e+001
6.490082e+002, 5.767057e+001
6.494903e+002, 5.798479e+001
6.499724e+002, 5.831936e+001
6.504545e+002, 5.860923e+001
6.509366e+002, 5.881782e+001
6.514188e+002, 5.897272e+001
6.519009e+002, 5.905507e+001
6.523830e+002, 5.909625e+001
6.528651e+002, 5.924432e+001
6.533472e+002, 5.962569e+001
6.538293e+002, 6.016119e+001
6.543115e+002, 6.057067e+001
6.547936e+002, 6.086303e+001
6.552757e+002, 6.100285e+001
6.557578e+002, 6.096084e+001
6.562399e+002, 6.077576e+001
6.567220e+002, 6.044519e+001
6.572042e+002, 5.998206e+001
6.576863e+002, 5.941240e+001
6.581684e+002, 5.868014e+001
6.586505e+002, 5.794746e+001
6.591326e+002, 5.744684e+001
6.596147e+002, 5.706738e+001
6.600969e+002, 5.647855e+001
6.605790e+002, 5.560850e+001
6.610611e+002, 5.460595e+001
6.615432e+002, 5.357504e+001
6.620253e+002, 5.252201e+001
6.625074e+002, 5.153490e+001
6.629896e+002, 5.057822e+001
6.634717e+002, 4.973980e+001
6.639538e+002, 4.911327e+001
6.644359e+002, 4.853853e+001
6.649180e+002, 4.785907e+001
6.654001e+002, 4.710244e+001
6.658823e+002, 4.643685e+001
6.663644e+002, 4.599963e+001
6.668465e+002, 4.564838e+001
6.673286e+002, 4.506195e+001
6.678107e+002, 4.425163e+001
6.682928e+002, 4.363069e+001
6.687750e+002, 4.333668e+001
6.692571e+002, 4.315075e+001
6.697392e+002, 4.289862e+001
6.702213e+002, 4.257955e+001
6.707034e+002, 4.222907e+001
6.711855e+002, 4.171880e+001
6.716677e+002, 4.133554e+001
6.721498e+002, 4.128524e+001
6.726319e+002, 4.134267e+001
6.731140e+002, 4.125838e+001
6.735961e+002, 4.101134e+001
6.740782e+002, 4.072943e+001
6.745604e+002, 4.049959e+001
6.750425e+002, 4.032240e+001
6.755246e+002, 4.023061e+001
6.760067e+002, 4.027504e+001
6.764888e+002, 4.016626e+001
6.769709e+002, 3.969411e+001
6.774531e+002, 3.922595e+001
6.779352e+002, 3.903666e+001
6.784173e+002, 3.908694e+001
6.788994e+002, 3.925859e+001
6.793815e+002, 3.976760e+001
6.798636e+002, 4.008065e+001
6.803458e+002, 3.968328e+001
6.808279e+002, 3.896454e+001
6.813100e+002, 3.852080e+001
6.817921e+002, 3.845580e+001
6.822742e+002, 3.856553e+001
6.827563e+002, 3.869973e+001
6.832385e+002, 3.885161e+001
6.837206e+002, 3.900915e+001
6.842027e+002, 3.927724e+001
6.846848e+002, 3.931980e+001
6.851669e+002, 3.881369e+001
6.856490e+002, 3.831401e+001
6.861312e+002, 3.819466e+001
6.866133e+002, 3.835287e+001
6.870954e+002, 3.842764e+001
6.875775e+002, 3.821008e+001
6.880596e+002, 3.799945e+001
6.885417e+002, 3.814130e+001
6.890239e+002, 3.848027e+001
6.895060e+002, 3.865554e+001
6.899881e+002, 3.860288e+001
6.904702e+002, 3.843009e+001
6.909523e+002, 3.819316e+001
6.914344e+002, 3.792765e+001
6.919166e+002, 3.781332e+001
6.923987e+002, 3.798049e+001
6.928808e+002, 3.809372e+001
6.933629e+002, 3.814367e+001
6.938450e+002, 3.813300e+001
6.943271e+002, 3.800889e+001
6.948093e+002, 3.782832e+001
6.952914e+002, 3.773015e+001
6.957735e+002, 3.779055e+001
6.962556e+002, 3.790437e+001
6.967377e+002, 3.798543e+001
6.972198e+002, 3.802416e+001
6.977020e+002, 3.796294e+001
6.981841e+002, 3.778556e+001
6.986662e+002, 3.762049e+001
6.991483e+002, 3.755441e+001
6.996304e+002, 3.757247e+001
7.001125e+002, 3.762272e+001
7.005947e+002, 3.787486e+001
7.010768e+002, 3.789179e+001
7.015589e+002, 3.739450e+001
7.020410e+002, 3.691496e+001
7.025231e+002, 3.677358e+001
7.030052e+002, 3.690843e+001
7.034874e+002, 3.717530e+001
7.039695e+002, 3.753324e+001
7.044516e+002, 3.780536e+001
7.049337e+002, 3.766396e+001
7.054158e+002, 3.721878e+001
7.058979e+002, 3.704179e+001
7.063801e+002, 3.722170e+001
7.068622e+002, 3.742270e+001
7.073442e+002, 3.746037e+001
7.078264e+002, 3.738044e+001
7.083085e+002, 3.729042e+001
7.087906e+002, 3.716827e+001
7.092727e+002, 3.709129e+001
7.097548e+002, 3.693971e+001
7.102369e+002, 3.695570e+001
7.107191e+002, 3.755920e+001
7.112012e+002, 3.835675e+001
7.116833e+002, 3.856237e+001
7.121654e+002, 3.790644e+001
7.126475e+002, 3.708283e+001
7.131296e+002, 3.696013e+001
7.136118e+002, 3.739516e+001
7.140939e+002, 3.756186e+001
7.145760e+002, 3.739257e+001
7.150581e+002, 3.723925e+001
7.155402e+002, 3.727305e+001
7.160223e+002, 3.739926e+001
7.165045e+002, 3.746447e+001
7.169866e+002, 3.746436e+001
7.174687e+002, 3.744018e+001
7.179508e+002, 3.735082e+001
7.184329e+002, 3.728551e+001
7.189150e+002, 3.728656e+001
7.193972e+002, 3.734028e+001
7.198793e+002, 3.748755e+001
7.203614e+002, 3.770667e+001
7.208435e+002, 3.778514e+001
7.213256e+002, 3.741874e+001
7.218077e+002, 3.676356e+001
7.222899e+002, 3.646643e+001
7.227720e+002, 3.656408e+001
7.232541e+002, 3.670998e+001
7.237362e+002, 3.683158e+001
7.242183e+002, 3.690267e+001
7.247004e+002, 3.686068e+001
7.251826e+002, 3.670885e+001
7.256647e+002, 3.663383e+001
7.261468e+002, 3.666093e+001
7.266289e+002, 3.674787e+001
7.271110e+002, 3.693351e+001
7.275931e+002, 3.713937e+001
7.280753e+002, 3.731161e+001
7.285574e+002, 3.741927e+001
7.290395e+002, 3.737932e+001
7.295216e+002, 3.707321e+001
7.300037e+002, 3.668592e+001
7.304858e+002, 3.671881e+001
7.309680e+002, 3.719248e+001
7.314501e+002, 3.747125e+001
7.319322e+002, 3.738578e+001
7.324143e+002, 3.718982e+001
7.328964e+002, 3.705482e+001
7.333785e+002, 3.698115e+001
7.338607e+002, 3.695703e+001
7.343428e+002, 3.706370e+001
7.348249e+002, 3.709422e+001
7.353070e+002, 3.685558e+001
7.357891e+002, 3.664603e+001
7.362712e+002, 3.679972e+001
7.367534e+002, 3.720037e+001
7.372355e+002, 3.746816e+001
7.377176e+002, 3.740972e+001
7.381997e+002, 3.720887e+001
7.386818e+002, 3.712928e+001
7.391639e+002, 3.715863e+001
7.396461e+002, 3.719097e+001
7.401282e+002, 3.723225e+001
7.406103e+002, 3.720529e+001
7.410924e+002, 3.703260e+001
7.415745e+002, 3.678863e+001
7.420566e+002, 3.662749e+001
7.425388e+002, 3.653283e+001
7.430209e+002, 3.656250e+001
7.435030e+002, 3.687991e+001
7.439851e+002, 3.715812e+001
7.444672e+002, 3.723213e+001
7.449493e+002, 3.715035e+001
7.454315e+002, 3.696700e+001
7.459136e+002, 3.671251e+001
7.463957e+002, 3.647854e+001
7.468778e+002, 3.634297e+001
7.473599e+002, 3.629958e+001
7.478420e+002, 3.638754e+001
7.483242e+002, 3.661340e+001
7.488063e+002, 3.664594e+001
7.492884e+002, 3.628313e+001
7.497705e+002, 3.591376e+001
7.502526e+002, 3.603634e+001
7.507347e+002, 3.668738e+001
7.512169e+002, 3.714721e+001
7.516990e+002, 3.735045e+001
7.521811e+002, 3.746416e+001
7.526632e+002, 3.752290e+001
7.531453e+002, 3.750973e+001
7.536274e+002, 3.734825e+001
7.541096e+002, 3.708815e+001
7.545917e+002, 3.691776e+001
7.550738e+002, 3.697510e+001
7.555559e+002, 3.710404e+001
7.560380e+002, 3.710902e+001
7.565201e+002, 3.699850e+001
7.570023e+002, 3.675960e+001
7.574844e+002, 3.637583e+001
7.579665e+002, 3.609088e+001
7.584486e+002, 3.609548e+001
7.589307e+002, 3.631118e+001
7.594128e+002, 3.647364e+001
7.598950e+002, 3.653025e+001
7.603771e+002, 3.663007e+001
7.608592e+002, 3.688245e+001
7.613413e+002, 3.705964e+001
7.618234e+002, 3.702953e+001
7.623055e+002, 3.686164e+001
7.627877e+002, 3.662239e+001
7.632698e+002, 3.632169e+001
7.637519e+002, 3.616221e+001
7.642340e+002, 3.643573e+001
7.647161e+002, 3.687149e+001
7.651982e+002, 3.702431e+001
7.656804e+002, 3.692105e+001
7.661625e+002, 3.682137e+001
7.666446e+002, 3.682901e+001
7.671267e+002, 3.681504e+001
7.676088e+002, 3.656951e+001
7.680909e+002, 3.606851e+001
7.685731e+002, 3.594045e+001
7.690552e+002, 3.651116e+001
7.695373e+002, 3.692171e+001
7.700194e+002, 3.683023e+001
7.705015e+002, 3.663833e+001
7.709836e+002, 3.671384e+001
7.714658e+002, 3.699712e+001
7.719479e+002, 3.709026e+001
7.724300e+002, 3.664515e+001
7.729121e+002, 3.625211e+001
7.733942e+002, 3.644353e+001
7.738763e+002, 3.690026e+001
7.743585e+002, 3.707484e+001
7.748406e+002, 3.694629e+001
7.753227e+002, 3.693976e+001
7.758048e+002, 3.736399e+001
7.762869e+002, 3.795305e+001
7.767690e+002, 3.802826e+001
7.772512e+002, 3.749534e+001
7.777333e+002, 3.707776e+001
7.782154e+002, 3.681867e+001
7.786975e+002, 3.668281e+001
7.791796e+002, 3.670760e+001
7.796617e+002, 3.682329e+001
7.801439e+002, 3.692460e+001
7.806260e+002, 3.701763e+001
7.811081e+002, 3.705373e+001
7.815902e+002, 3.692226e+001
7.820723e+002, 3.682862e+001
7.825544e+002, 3.697296e+001
7.830366e+002, 3.722184e+001
7.835187e+002, 3.732747e+001
7.840008e+002, 3.723846e+001
7.844829e+002, 3.712876e+001
7.849650e+002, 3.717104e+001
7.854471e+002, 3.730706e+001
7.859293e+002, 3.735163e+001
7.864114e+002, 3.730288e+001
7.868935e+002, 3.728277e+001
7.873756e+002, 3.732971e+001
7.878577e+002, 3.738739e+001
7.883398e+002, 3.739931e+001
7.888220e+002, 3.737394e+001
7.893040e+002, 3.738197e+001
7.897861e+002, 3.745392e+001
7.902682e+002, 3.751437e+001
7.907504e+002, 3.764032e+001
7.912325e+002, 3.767704e+001
7.917146e+002, 3.742625e+001
7.921967e+002, 3.702771e+001
7.926788e+002, 3.679395e+001
7.931609e+002, 3.685333e+001
7.936431e+002, 3.695285e+001
7.941252e+002, 3.681873e+001
7.946073e+002, 3.659486e+001
7.950894e+002, 3.655499e+001
7.955715e+002, 3.669783e+001
7.960536e+002, 3.692792e+001
7.965358e+002, 3.721737e+001
7.970179e+002, 3.745282e+001
7.975000e+002, 3.744199e+001
7.979821e+002, 3.716452e+001
7.984642e+002, 3.717043e+001
7.989464e+002, 3.774648e+001
7.994285e+002, 3.808614e+001
7.999106e+002, 3.776048e+001
8.003927e+002, 3.730665e+001
8.008748e+002, 3.709069e+001
8.013569e+002, 3.709777e+001
8.018391e+002, 3.718587e+001
8.023212e+002, 3.736834e+001
8.028033e+002, 3.755062e+001
8.032854e+002, 3.767870e+001
8.037675e+002, 3.778199e+001
8.042496e+002, 3.790925e+001
8.047318e+002, 3.804782e+001
8.052139e+002, 3.812563e+001
8.056960e+002, 3.809853e+001
8.061781e+002, 3.805532e+001
8.066602e+002, 3.816191e+001
8.071423e+002, 3.840337e+001
8.076245e+002, 3.857616e+001
8.081066e+002, 3.867586e+001
8.085887e+002, 3.868880e+001
8.090708e+002, 3.860398e+001
8.095529e+002, 3.843264e+001
8.100350e+002, 3.813982e+001
8.105172e+002, 3.766640e+001
8.109993e+002, 3.749335e+001
8.114814e+002, 3.785105e+001
8.119635e+002, 3.821082e+001
8.124456e+002, 3.851275e+001
8.129277e+002, 3.869299e+001
8.134099e+002, 3.857872e+001
8.138920e+002, 3.826466e+001
8.143741e+002, 3.815892e+001
8.148562e+002, 3.858100e+001
8.153383e+002, 3.904020e+001
8.158204e+002, 3.891510e+001
8.163026e+002, 3.846656e+001
8.167847e+002, 3.827534e+001
8.172668e+002, 3.839611e+001
8.177489e+002, 3.861829e+001
8.182310e+002, 3.883538e+001
8.187131e+002, 3.900257e+001
8.191953e+002, 3.899279e+001
8.196774e+002, 3.874050e+001
8.201595e+002, 3.876102e+001
8.206416e+002, 3.930392e+001
8.211237e+002, 3.964357e+001
8.216058e+002, 3.930445e+001
8.220880e+002, 3.877074e+001
8.225701e+002, 3.857483e+001
8.230522e+002, 3.871325e+001
8.235343e+002, 3.888805e+001
8.240164e+002, 3.917237e+001
8.244985e+002, 3.932388e+001
8.249807e+002, 3.911062e+001
8.254628e+002, 3.879225e+001
8.259449e+002, 3.864132e+001
8.264270e+002, 3.867661e+001
8.269091e+002, 3.881030e+001
8.273912e+002, 3.901496e+001
8.278734e+002, 3.919502e+001
8.283555e+002, 3.914937e+001
8.288376e+002, 3.895575e+001
8.293197e+002, 3.897050e+001
8.298018e+002, 3.922552e+001
8.302839e+002, 3.949237e+001
8.307661e+002, 3.967973e+001
8.312482e+002, 3.974909e+001
8.317303e+002, 3.961073e+001
8.322124e+002, 3.921800e+001
8.326945e+002, 3.895927e+001
8.331766e+002, 3.881391e+001
8.336588e+002, 3.884241e+001
8.341409e+002, 3.921987e+001
8.346230e+002, 3.963564e+001
8.351051e+002, 3.983545e+001
8.355872e+002, 3.983707e+001
8.360693e+002, 3.980589e+001
8.365515e+002, 3.973500e+001
8.370336e+002, 3.973100e+001
8.375157e+002, 3.994965e+001
8.379978e+002, 4.020169e+001
8.384799e+002, 4.023522e+001
8.389620e+002, 4.008989e+001
8.394442e+002, 3.996974e+001
8.399263e+002, 3.997110e+001
8.404084e+002, 4.002549e+001
8.408905e+002, 4.006804e+001
8.413726e+002, 4.008761e+001
8.418547e+002, 4.000224e+001
8.423369e+002, 3.980542e+001
8.428190e+002, 3.958765e+001
8.433011e+002, 3.936002e+001
8.437832e+002, 3.918743e+001
8.442653e+002, 3.915110e+001
8.447474e+002, 3.924845e+001
8.452296e+002, 3.938142e+001
8.457117e+002, 3.963924e+001
8.461938e+002, 3.979832e+001
8.466759e+002, 3.972597e+001
8.471580e+002, 3.965946e+001
8.476401e+002, 3.978767e+001
8.481223e+002, 4.002953e+001
8.486044e+002, 4.018576e+001
8.490865e+002, 4.019334e+001
8.495686e+002, 4.017027e+001
8.500507e+002, 4.015831e+001
8.505328e+002, 4.016459e+001
8.510150e+002, 4.023761e+001
8.514971e+002, 4.032751e+001
8.519792e+002, 4.026172e+001
8.524613e+002, 4.001757e+001
8.529434e+002, 3.988936e+001
8.534255e+002, 4.026487e+001
8.539077e+002, 4.089328e+001
8.543898e+002, 4.088982e+001
8.548719e+002, 4.025525e+001
8.553540e+002, 3.979585e+001
8.558361e+002, 3.967288e+001
8.563182e+002, 3.975450e+001
8.568004e+002, 3.998645e+001
8.572825e+002, 4.031798e+001
8.577646e+002, 4.060015e+001
8.582467e+002, 4.092845e+001
8.587288e+002, 4.099237e+001
8.592109e+002, 4.049965e+001
8.596931e+002, 4.009148e+001
8.601752e+002, 4.008922e+001
8.606573e+002, 4.023869e+001
8.611394e+002, 4.018684e+001
8.616215e+002, 3.991044e+001
8.621036e+002, 3.976499e+001
8.625858e+002, 4.003507e+001
8.630679e+002, 4.032952e+001
8.635500e+002, 4.037637e+001
8.640321e+002, 4.028400e+001
8.645142e+002, 4.018932e+001
8.649963e+002, 4.011510e+001
8.654785e+002, 4.005683e+001
8.659606e+002, 4.002146e+001
8.664427e+002, 3.992635e+001
8.669248e+002, 3.952498e+001
8.674069e+002, 3.892552e+001
8.678890e+002, 3.880698e+001
8.683712e+002, 3.922717e+001
8.688533e+002, 3.944859e+001
8.693354e+002, 3.912049e+001
8.698175e+002, 3.861945e+001
8.702996e+002, 3.844817e+001
8.707817e+002, 3.860888e+001
8.712639e+002, 3.876421e+001
8.717459e+002, 3.896146e+001
8.722280e+002, 3.906970e+001
8.727101e+002, 3.904102e+001
8.731923e+002, 3.893951e+001
8.736744e+002, 3.877691e+001
8.741565e+002, 3.857357e+001
8.746386e+002, 3.833239e+001
8.751207e+002, 3.794567e+001
8.756028e+002, 3.786236e+001
8.760850e+002, 3.864562e+001
8.765671e+002, 3.939760e+001
8.770492e+002, 3.936652e+001
8.775313e+002, 3.886465e+001
8.780134e+002, 3.843095e+001
8.784955e+002, 3.821539e+001
8.789777e+002, 3.813438e+001
8.794598e+002, 3.817282e+001
8.799419e+002, 3.825031e+001
8.804240e+002, 3.818213e+001
8.809061e+002, 3.803600e+001
8.813882e+002, 3.811971e+001
8.818704e+002, 3.846407e+001
8.823525e+002, 3.871888e+001
8.828346e+002, 3.865278e+001
8.833167e+002, 3.840225e+001
8.837988e+002, 3.823984e+001
8.842809e+002, 3.816895e+001
8.847631e+002, 3.817219e+001
8.852452e+002, 3.830642e+001
8.857273e+002, 3.836255e+001
8.862094e+002, 3.815489e+001
8.866915e+002, 3.795565e+001
8.871736e+002, 3.815983e+001
8.876558e+002, 3.872675e+001
8.881379e+002, 3.902515e+001
8.886200e+002, 3.882657e+001
8.891021e+002, 3.865632e+001
8.895842e+002, 3.859290e+001
8.900663e+002, 3.859620e+001
8.905485e+002, 3.866664e+001
8.910306e+002, 3.877462e+001
8.915127e+002, 3.886922e+001
8.919948e+002, 3.893642e+001
8.924769e+002, 3.900765e+001
8.929590e+002, 3.917481e+001
8.934412e+002, 3.929608e+001
8.939233e+002, 3.918287e+001
8.944054e+002, 3.891602e+001
8.948875e+002, 3.861117e+001
8.953696e+002, 3.832973e+001
8.958517e+002, 3.822210e+001
8.963339e+002, 3.842181e+001
8.968160e+002, 3.879028e+001
8.972981e+002, 3.912370e+001
8.977802e+002, 3.939910e+001
8.982623e+002, 3.929652e+001
8.987444e+002, 3.874134e+001
8.992266e+002, 3.840399e+001
8.997087e+002, 3.864574e+001
9.001908e+002, 3.914285e+001
9.006729e+002, 3.944808e+001
9.011550e+002, 3.956337e+001
9.016371e+002, 3.940923e+001
9.021193e+002, 3.869167e+001
9.026014e+002, 3.825212e+001
9.030835e+002, 3.845793e+001
9.035656e+002, 3.878311e+001
9.040477e+002, 3.887443e+001
9.045298e+002, 3.880880e+001
9.050120e+002, 3.877921e+001
9.054941e+002, 3.879385e+001
9.059762e+002, 3.887978e+001
9.064583e+002, 3.902047e+001
9.069404e+002, 3.925910e+001
9.074225e+002, 3.978951e+001
9.079047e+002, 4.034422e+001
9.083868e+002, 4.049489e+001
9.088689e+002, 4.023376e+001
9.093510e+002, 4.001122e+001
9.098331e+002, 4.009432e+001
9.103152e+002, 4.032373e+001
9.107974e+002, 4.054820e+001
9.112795e+002, 4.079905e+001
9.117616e+002, 4.116533e+001
9.122437e+002, 4.162370e+001
9.127258e+002, 4.208112e+001
9.132079e+002, 4.249350e+001
9.136901e+002, 4.273523e+001
9.141722e+002, 4.249480e+001
9.146543e+002, 4.192440e+001
9.151364e+002, 4.197885e+001
9.156185e+002, 4.268176e+001
9.161006e+002, 4.335195e+001
9.165828e+002, 4.383636e+001
9.170649e+002, 4.417953e+001
9.175470e+002, 4.438562e+001
9.180291e+002, 4.451327e+001
9.185112e+002, 4.480512e+001
9.189933e+002, 4.546124e+001
9.194755e+002, 4.575771e+001
9.199576e+002, 4.534077e+001
9.204397e+002, 4.507257e+001
9.209218e+002, 4.543392e+001
9.214039e+002, 4.602262e+001
9.218860e+002, 4.639852e+001
9.223682e+002, 4.656531e+001
9.228503e+002, 4.680140e+001
9.233324e+002, 4.723622e+001
9.238145e+002, 4.762119e+001
9.242966e+002, 4.771161e+001
9.247787e+002, 4.788203e+001
9.252609e+002, 4.844827e+001
9.257430e+002, 4.932048e+001
9.262251e+002, 5.030296e+001
9.267072e+002, 5.134272e+001
9.271893e+002, 5.233396e+001
9.276714e+002, 5.320162e+001
9.281536e+002, 5.398372e+001
9.286357e+002, 5.457690e+001
9.291178e+002, 5.517179e+001
9.295999e+002, 5.621405e+001
9.300820e+002, 5.770002e+001
9.305641e+002, 5.915915e+001
9.310463e+002, 6.028778e+001
9.315284e+002, 6.125904e+001
9.320105e+002, 6.230300e+001
9.324926e+002, 6.341607e+001
9.329747e+002, 6.453518e+001
9.334568e+002, 6.566885e+001
9.339390e+002, 6.712577e+001
9.344211e+002, 6.904433e+001
9.349032e+002, 7.094919e+001
9.353853e+002, 7.227573e+001
9.358674e+002, 7.315957e+001
9.363495e+002, 7.438168e+001
9.368317e+002, 7.596058e+001
9.373138e+002, 7.787329e+001
9.377959e+002, 8.037988e+001
9.382780e+002, 8.263582e+001
9.387601e+002, 8.406646e+001
9.392422e+002, 8.507524e+001
9.397244e+002, 8.637374e+001
9.402065e+002, 8.799324e+001
9.406886e+002, 8.969997e+001
9.411707e+002, 9.180441e+001
9.416528e+002, 9.357390e+001
9.421349e+002, 9.471082e+001
9.426171e+002, 9.561066e+001
9.430992e+002, 9.650307e+001
9.435813e+002, 9.740280e+001
9.440634e+002, 9.830028e+001
9.445455e+002, 9.921825e+001
9.450276e+002, 1.000460e+002
9.455098e+002, 1.008228e+002
9.459919e+002, 1.014214e+002
9.464740e+002, 1.016944e+002
9.469561e+002, 1.017665e+002
9.474382e+002, 1.018669e+002
9.479203e+002, 1.019679e+002
9.484025e+002, 1.017907e+002
9.488846e+002, 1.012028e+002
9.493667e+002, 1.002404e+002
9.498488e+002, 9.874395e+001
9.503309e+002, 9.700328e+001
9.508130e+002, 9.552326e+001
9.512952e+002, 9.421049e+001
9.517773e+002, 9.254469e+001
9.522594e+002, 9.038851e+001
9.527415e+002, 8.831757e+001
9.532236e+002, 8.696079e+001
9.537057e+002, 8.596721e+001
9.541878e+002, 8.440705e+001
9.546699e+002, 8.238349e+001
9.551520e+002, 8.059420e+001
9.556342e+002, 7.912813e+001
9.561163e+002, 7.770161e+001
9.565984e+002, 7.613391e+001
9.570805e+002, 7.464373e+001
9.575626e+002, 7.365221e+001
9.580447e+002, 7.313831e+001
9.585269e+002, 7.220704e+001
9.590090e+002, 7.066422e+001
9.594911e+002, 6.957258e+001
9.599732e+002, 6.934477e+001
9.604553e+002, 6.919118e+001
9.609374e+002, 6.849326e+001
9.614196e+002, 6.745612e+001
9.619017e+002, 6.664487e+001
9.623838e+002, 6.606672e+001
9.628659e+002, 6.569540e+001
9.633480e+002, 6.571804e+001
9.638301e+002, 6.569473e+001
9.643123e+002, 6.526045e+001
9.647944e+002, 6.493328e+001
9.652765e+002, 6.530508e+001
9.657586e+002, 6.620773e+001
9.662407e+002, 6.682889e+001
9.667228e+002, 6.691933e+001
9.672050e+002, 6.703230e+001
9.676871e+002, 6.729070e+001
9.681692e+002, 6.759734e+001
9.686513e+002, 6.799564e+001
9.691334e+002, 6.835252e+001
9.696155e+002, 6.833175e+001
9.700977e+002, 6.800919e+001
9.705798e+002, 6.815565e+001
9.710619e+002, 6.948071e+001
9.715440e+002, 7.075576e+001
9.720261e+002, 7.091116e+001
9.725082e+002, 7.085790e+001
9.729904e+002, 7.175308e+001
9.734725e+002, 7.321706e+001
9.739546e+002, 7.420995e+001
9.744367e+002, 7.443568e+001
9.749188e+002, 7.441380e+001
9.754009e+002, 7.442596e+001
9.758831e+002, 7.455228e+001
9.763652e+002, 7.505010e+001
9.768473e+002, 7.569393e+001
9.773294e+002, 7.588197e+001
9.778115e+002, 7.567248e+001
9.782936e+002, 7.575019e+001
9.787758e+002, 7.643966e+001
9.792579e+002, 7.726524e+001
9.797400e+002, 7.754157e+001
9.802221e+002, 7.751307e+001
9.807042e+002, 7.813538e+001
9.811863e+002, 7.929213e+001
9.816685e+002, 7.999477e+001
9.821506e+002, 8.004723e+001
9.826327e+002, 7.996353e+001
9.831148e+002, 8.006170e+001
9.835969e+002, 8.029300e+001
9.840790e+002, 8.056335e+001
9.845612e+002, 8.087206e+001
9.850433e+002, 8.129838e+001
9.855254e+002, 8.186592e+001
9.860075e+002, 8.238972e+001
9.864896e+002, 8.277883e+001
9.869717e+002, 8.327029e+001
9.874539e+002, 8.412038e+001
9.879360e+002, 8.515864e+001
9.884181e+002, 8.578996e+001
9.889002e+002, 8.572504e+001
9.893823e+002, 8.631802e+001
9.898644e+002, 8.804173e+001
9.903466e+002, 8.948942e+001
9.908287e+002, 8.990266e+001
9.913108e+002, 9.023257e+001
9.917929e+002, 9.152000e+001
9.922750e+002, 9.356651e+001
9.927571e+002, 9.516927e+001
9.932393e+002, 9.590128e+001
9.937214e+002, 9.695492e+001
9.942035e+002, 9.853521e+001
9.946856e+002, 1.002248e+002
9.951677e+002, 1.018666e+002
9.956498e+002, 1.035304e+002
9.961320e+002, 1.053947e+002
9.966141e+002, 1.074021e+002
9.970962e+002, 1.090667e+002
9.975783e+002, 1.098670e+002
9.980604e+002, 1.110267e+002
9.985425e+002, 1.131261e+002
9.990247e+002, 1.153829e+002
9.995068e+002, 1.174217e+002
9.999889e+002, 1.192283e+002
1.000471e+003, 1.208320e+002
1.000953e+003, 1.222336e+002
1.001435e+003, 1.233722e+002
1.001917e+003, 1.241649e+002
1.002399e+003, 1.247675e+002
1.002882e+003, 1.252606e+002
1.003364e+003, 1.256042e+002
1.003846e+003, 1.256857e+002
1.004328e+003, 1.256165e+002
1.004810e+003, 1.255427e+002
1.005292e+003, 1.255314e+002
1.005774e+003, 1.257767e+002
1.006256e+003, 1.266657e+002
1.006739e+003, 1.275096e+002
1.007221e+003, 1.275267e+002
1.007703e+003, 1.271786e+002
1.008185e+003, 1.271215e+002
1.008667e+003, 1.273088e+002
1.009149e+003, 1.273237e+002
1.009631e+003, 1.270476e+002
1.010113e+003, 1.269123e+002
1.010595e+003, 1.273036e+002
1.011078e+003, 1.280464e+002
1.011560e+003, 1.289623e+002
1.012042e+003, 1.299985e+002
1.012524e+003, 1.310316e+002
1.013006e+003, 1.320572e+002
1.013488e+003, 1.331175e+002
1.013970e+003, 1.342379e+002
1.014452e+003, 1.354743e+002
1.014935e+003, 1.368660e+002
1.015417e+003, 1.384415e+002
1.015899e+003, 1.403798e+002
1.016381e+003, 1.425869e+002
1.016863e+003, 1.445717e+002
1.017345e+003, 1.462704e+002
1.017827e+003, 1.479352e+002
1.018309e+003, 1.496943e+002
1.018791e+003, 1.514728e+002
1.019274e+003, 1.531484e+002
1.019756e+003, 1.547585e+002
1.020238e+003, 1.565366e+002
1.020720e+003, 1.584711e+002
1.021202e+003, 1.604384e+002
1.021684e+003, 1.624328e+002
1.022166e+003, 1.642211e+002
1.022648e+003, 1.656686e+002
1.023130e+003, 1.668519e+002
1.023613e+003, 1.679155e+002
1.024095e+003, 1.688471e+002
1.024577e+003, 1.694558e+002
1.025059e+003, 1.697553e+002
1.025541e+003, 1.695952e+002
1.026023e+003, 1.689495e+002
1.026505e+003, 1.678125e+002
1.026987e+003, 1.661648e+002
1.027469e+003, 1.640513e+002
1.027952e+003, 1.615799e+002
1.028434e+003, 1.587362e+002
1.028916e+003, 1.554616e+002
1.029398e+003, 1.518056e+002
1.029880e+003, 1.474646e+002
1.030362e+003, 1.422141e+002
1.030844e+003, 1.366134e+002
1.031326e+003, 1.308964e+002
1.031809e+003, 1.251972e+002
1.032291e+003, 1.197535e+002
1.032773e+003, 1.145725e+002
1.033255e+003, 1.096658e+002
1.033737e+003, 1.050306e+002
1.034219e+003, 1.006681e+002
1.034701e+003, 9.663783e+001
1.035183e+003, 9.278397e+001
1.035666e+003, 8.903099e+001
1.036148e+003, 8.540870e+001
1.036630e+003, 8.196826e+001
1.037112e+003, 7.867377e+001
1.037594e+003, 7.578162e+001
1.038076e+003, 7.351424e+001
1.038558e+003, 7.131910e+001
1.039040e+003, 6.905930e+001
1.039522e+003, 6.690434e+001
1.040005e+003, 6.499362e+001
1.040487e+003, 6.325373e+001
1.040969e+003, 6.149887e+001
1.041451e+003, 5.964123e+001
1.041933e+003, 5.819994e+001
1.042415e+003, 5.757490e+001
1.042897e+003, 5.680941e+001
1.043379e+003, 5.555194e+001
1.043861e+003, 5.427785e+001
1.044344e+003, 5.323805e+001
1.044826e+003, 5.242226e+001
1.045308e+003, 5.189108e+001
1.045790e+003, 5.173733e+001
1.046272e+003, 5.124051e+001
1.046754e+003, 4.984745e+001
1.047236e+003, 4.876421e+001
1.047718e+003, 4.866909e+001
1.048201e+003, 4.860632e+001
1.048683e+003, 4.773382e+001
1.049165e+003, 4.648689e+001
1.049647e+003, 4.573350e+001
1.050129e+003, 4.561092e+001
1.050611e+003, 4.552343e+001
1.051093e+003, 4.543255e+001
1.051575e+003, 4.525963e+001
1.052057e+003, 4.478971e+001
1.052540e+003, 4.441368e+001
1.053022e+003, 4.455895e+001
1.053504e+003, 4.494428e+001
1.053986e+003, 4.500335e+001
1.054468e+003, 4.464711e+001
1.054950e+003, 4.439222e+001
1.055432e+003, 4.440606e+001
1.055914e+003, 4.450018e+001
1.056396e+003, 4.463627e+001
1.056879e+003, 4.480428e+001
1.057361e+003, 4.503247e+001
1.057843e+003, 4.527276e+001
1.058325e+003, 4.546862e+001
1.058807e+003, 4.560829e+001
1.059289e+003, 4.562887e+001
1.059771e+003, 4.529570e+001
1.060253e+003, 4.512983e+001
1.060736e+003, 4.546302e+001
1.061218e+003, 4.590557e+001
1.061700e+003, 4.608015e+001
1.062182e+003, 4.619339e+001
1.062664e+003, 4.668109e+001
1.063146e+003, 4.757600e+001
1.063628e+003, 4.835146e+001
1.064110e+003, 4.867538e+001
1.064593e+003, 4.905143e+001
1.065075e+003, 4.967094e+001
1.065557e+003, 5.043682e+001
1.066039e+003, 5.141886e+001
1.066521e+003, 5.242498e+001
1.067003e+003, 5.312819e+001
1.067485e+003, 5.351617e+001
1.067967e+003, 5.394146e+001
1.068449e+003, 5.447953e+001
1.068932e+003, 5.517480e+001
1.069414e+003, 5.623970e+001
1.069896e+003, 5.727410e+001
1.070378e+003, 5.789551e+001
1.070860e+003, 5.834230e+001
1.071342e+003, 5.904752e+001
1.071824e+003, 5.999517e+001
1.072306e+003, 6.070996e+001
1.072788e+003, 6.085039e+001
1.073271e+003, 6.111743e+001
1.073753e+003, 6.204553e+001
1.074235e+003, 6.300009e+001
1.074717e+003, 6.353876e+001
1.075199e+003, 6.381145e+001
1.075681e+003, 6.401154e+001
1.076163e+003, 6.417991e+001
1.076645e+003, 6.434146e+001
1.077127e+003, 6.455373e+001
1.077610e+003, 6.460403e+001
1.078092e+003, 6.411024e+001
1.078574e+003, 6.373244e+001
1.079056e+003, 6.405126e+001
1.079538e+003, 6.464591e+001
1.080020e+003, 6.500599e+001
1.080502e+003, 6.514080e+001
1.080984e+003, 6.528960e+001
1.081467e+003, 6.548429e+001
1.081949e+003, 6.590575e+001
1.082431e+003, 6.672431e+001
1.082913e+003, 6.769324e+001
1.083395e+003, 6.852691e+001
1.083877e+003, 6.953392e+001
1.084359e+003, 7.122801e+001
1.084841e+003, 7.335769e+001
1.085323e+003, 7.512000e+001
1.085806e+003, 7.622859e+001
1.086288e+003, 7.771883e+001
1.086770e+003, 8.003673e+001
1.087252e+003, 8.283201e+001
1.087734e+003, 8.654778e+001
1.088216e+003, 9.014809e+001
1.088698e+003, 9.235115e+001
1.089180e+003, 9.377367e+001
1.089662e+003, 9.588233e+001
1.090145e+003, 9.899947e+001
1.090627e+003, 1.019277e+002
1.091109e+003, 1.046656e+002
1.091591e+003, 1.065528e+002
1.092073e+003, 1.073628e+002
1.092555e+003, 1.071657e+002
1.093037e+003, 1.059793e+002
1.093519e+003, 1.038305e+002
1.094002e+003, 1.006022e+002
1.094484e+003, 9.634702e+001
1.094966e+003, 9.174344e+001
1.095448e+003, 8.664247e+001
1.095930e+003, 8.178316e+001
1.096412e+003, 7.734333e+001
1.096894e+003, 7.329494e+001
1.097376e+003, 6.966727e+001
1.097859e+003, 6.634533e+001
1.098341e+003, 6.312970e+001
1.098823e+003, 6.005257e+001
1.099305e+003, 5.736271e+001
1.099787e+003, 5.517046e+001
1.100269e+003, 5.325631e+001
1.100751e+003, 5.167785e+001
1.101233e+003, 5.024239e+001
1.101715e+003, 4.883606e+001
1.102198e+003, 4.753092e+001
1.102680e+003, 4.642704e+001
1.103162e+003, 4.550175e+001
1.103644e+003, 4.465903e+001
1.104126e+003, 4.389888e+001
1.104608e+003, 4.316777e+001
1.105090e+003, 4.237604e+001
1.105572e+003, 4.172034e+001
1.106054e+003, 4.128542e+001
1.106537e+003, 4.099485e+001
1.107019e+003, 4.090502e+001
1.107501e+003, 4.088198e+001
1.107983e+003, 4.059428e+001
1.108465e+003, 3.996235e+001
1.108947e+003, 3.938578e+001
1.109429e+003, 3.880975e+001
1.109911e+003, 3.841845e+001
1.110394e+003, 3.835943e+001
1.110876e+003, 3.838059e+001
1.111358e+003, 3.840809e+001
1.111840e+003, 3.838171e+001
1.112322e+003, 3.815311e+001
1.112804e+003, 3.770324e+001
1.113286e+003, 3.744633e+001
1.113768e+003, 3.750528e+001
1.114250e+003, 3.754717e+001
1.114733e+003, 3.726295e+001
1.115215e+003, 3.736148e+001
1.115697e+003, 3.842116e+001
1.116179e+003, 3.976071e+001
1.116661e+003, 4.063768e+001
1.117143e+003, 4.108791e+001
1.117625e+003, 4.135444e+001
1.118107e+003, 4.125365e+001
1.118589e+003, 4.142279e+001
1.119072e+003, 4.205611e+001
1.119554e+003, 4.256166e+001
1.120036e+003, 4.262285e+001
1.120518e+003, 4.273395e+001
1.121000e+003, 4.344322e+001
1.121482e+003, 4.444551e+001
1.121964e+003, 4.487226e+001
1.122446e+003, 4.473613e+001
1.122929e+003, 4.364898e+001
1.123411e+003, 4.070476e+001
1.123893e+003, 4.018740e+001
1.124375e+003, 4.386056e+001
1.124857e+003, 4.751272e+001
1.125339e+003, 4.841195e+001
1.125821e+003, 4.781236e+001
1.126303e+003, 4.775124e+001
1.126786e+003, 4.822137e+001
1.127268e+003, 4.918633e+001
1.127750e+003, 5.072086e+001
1.128232e+003, 5.209020e+001
1.128714e+003, 5.323322e+001
1.129196e+003, 5.376495e+001
1.129678e+003, 5.338377e+001
1.130160e+003, 5.304973e+001
1.130642e+003, 5.388933e+001
1.131125e+003, 5.561037e+001
1.131607e+003, 5.723864e+001
1.132089e+003, 5.877668e+001
1.132571e+003, 6.029106e+001
1.133053e+003, 6.179092e+001
1.133535e+003, 6.296688e+001
1.134017e+003, 6.372792e+001
1.134499e+003, 6.487303e+001
1.134981e+003, 6.709212e+001
1.135464e+003, 6.969518e+001
1.135946e+003, 7.137138e+001
1.136428e+003, 7.236651e+001
1.136910e+003, 7.353928e+001
1.137392e+003, 7.491434e+001
1.137874e+003, 7.649454e+001
1.138356e+003, 7.830221e+001
1.138838e+003, 8.052065e+001
1.139321e+003, 8.325648e+001
1.139803e+003, 8.604214e+001
1.140285e+003, 8.831650e+001
1.140767e+003, 9.037370e+001
1.141249e+003, 9.273879e+001
1.141731e+003, 9.532980e+001
1.142213e+003, 9.809510e+001
1.142695e+003, 1.008987e+002
1.143177e+003, 1.034928e+002
1.143660e+003, 1.057517e+002
1.144142e+003, 1.074328e+002
1.144624e+003, 1.083970e+002
1.145106e+003, 1.086566e+002
1.145588e+003, 1.084180e+002
1.146070e+003, 1.073323e+002
1.146552e+003, 1.048968e+002
1.147034e+003, 1.013050e+002
1.147516e+003, 9.665816e+001
1.147999e+003, 9.122900e+001
1.148481e+003, 8.583338e+001
1.148963e+003, 8.079055e+001
1.149445e+003, 7.585960e+001
1.149927e+003, 7.074261e+001
1.150409e+003, 6.583927e+001
1.150891e+003, 6.138297e+001
1.151373e+003, 5.733381e+001
1.151856e+003, 5.355035e+001
1.152338e+003, 5.016387e+001
1.152820e+003, 4.754739e+001
1.153302e+003, 4.577477e+001
1.153784e+003, 4.412347e+001
1.154266e+003, 4.213400e+001
1.154748e+003, 4.052358e+001
1.155230e+003, 3.987072e+001
1.155713e+003, 3.929316e+001
1.156195e+003, 3.819545e+001
1.156677e+003, 3.687616e+001
1.157159e+003, 3.566818e+001
1.157641e+003, 3.461310e+001
1.158123e+003, 3.380784e+001
1.158605e+003, 3.337324e+001
1.159087e+003, 3.293280e+001
1.159569e+003, 3.234399e+001
1.160052e+003, 3.191159e+001
1.160534e+003, 3.182205e+001
1.161016e+003, 3.179626e+001
1.161498e+003, 3.168869e+001
1.161980e+003, 3.146557e+001
1.162462e+003, 3.101464e+001
1.162944e+003, 3.029423e+001
1.163426e+003, 2.979204e+001
1.163908e+003, 2.957327e+001
1.164391e+003, 2.938436e+001
1.164873e+003, 2.918368e+001
1.165355e+003, 2.903977e+001
1.165837e+003, 2.898838e+001
1.166319e+003, 2.900886e+001
1.166801e+003, 2.910989e+001
1.167283e+003, 2.922801e+001
1.167765e+003, 2.904925e+001
1.168247e+003, 2.855773e+001
1.168730e+003, 2.829739e+001
1.169212e+003, 2.830013e+001
1.169694e+003, 2.818860e+001
1.170176e+003, 2.785619e+001
1.170658e+003, 2.761465e+001
1.171140e+003, 2.768887e+001
1.171622e+003, 2.790376e+001
1.172104e+003, 2.804009e+001
1.172587e+003, 2.806446e+001
1.173069e+003, 2.777943e+001
1.173551e+003, 2.728483e+001
1.174033e+003, 2.692573e+001
1.174515e+003, 2.675293e+001
1.174997e+003, 2.678308e+001
1.175479e+003, 2.700339e+001
1.175961e+003, 2.719716e+001
1.176443e+003, 2.718962e+001
1.176926e+003, 2.705996e+001
1.177408e+003, 2.678701e+001
1.177890e+003, 2.654283e+001
1.178372e+003, 2.670479e+001
1.178854e+003, 2.704045e+001
1.179336e+003, 2.702197e+001
1.179818e+003, 2.665578e+001
1.180300e+003, 2.635974e+001
1.180782e+003, 2.629846e+001
1.181265e+003, 2.638554e+001
1.181747e+003, 2.671375e+001
1.182229e+003, 2.699864e+001
1.182711e+003, 2.704733e+001
1.183193e+003, 2.696952e+001
1.183675e+003, 2.684220e+001
1.184157e+003, 2.668559e+001
1.184639e+003, 2.647138e+001
1.185122e+003, 2.620979e+001
1.185604e+003, 2.611645e+001
1.186086e+003, 2.645686e+001
1.186568e+003, 2.661683e+001
1.187050e+003, 2.631933e+001
1.187532e+003, 2.604001e+001
1.188014e+003, 2.597754e+001
1.188496e+003, 2.602448e+001
1.188979e+003, 2.610575e+001
1.189461e+003, 2.620656e+001
1.189943e+003, 2.627486e+001
1.190425e+003, 2.629232e+001
1.190907e+003, 2.639440e+001
1.191389e+003, 2.664009e+001
1.191871e+003, 2.679758e+001
1.192353e+003, 2.680670e+001
1.192835e+003, 2.680861e+001
1.193318e+003, 2.690935e+001
1.193800e+003, 2.691831e+001
1.194282e+003, 2.655602e+001
1.194764e+003, 2.596366e+001
1.195246e+003, 2.569805e+001
1.195728e+003, 2.575077e+001
1.196210e+003, 2.600964e+001
1.196692e+003, 2.644532e+001
1.197174e+003, 2.655555e+001
1.197657e+003, 2.623483e+001
1.198139e+003, 2.597262e+001
1.198621e+003, 2.607799e+001
1.199103e+003, 2.630434e+001
1.199585e+003, 2.635678e+001
1.200067e+003, 2.627542e+001
1.200549e+003, 2.607516e+001
1.201031e+003, 2.583102e+001
1.201514e+003, 2.569359e+001
1.201996e+003, 2.567079e+001
1.202478e+003, 2.574821e+001
1.202960e+003, 2.590617e+001
1.203442e+003, 2.606492e+001
1.203924e+003, 2.619315e+001
1.204406e+003, 2.626333e+001
1.204888e+003, 2.625740e+001
1.205370e+003, 2.618199e+001
1.205853e+003, 2.598451e+001
1.206335e+003, 2.576465e+001
1.206817e+003, 2.561951e+001
1.207299e+003, 2.555793e+001
1.207781e+003, 2.556393e+001
1.208263e+003, 2.563405e+001
1.208745e+003, 2.578014e+001
1.209227e+003, 2.611889e+001
1.209709e+003, 2.636188e+001
1.210192e+003, 2.645913e+001
1.210674e+003, 2.643656e+001
1.211156e+003, 2.617246e+001
1.211638e+003, 2.591059e+001
1.212120e+003, 2.591742e+001
1.212602e+003, 2.612554e+001
1.213084e+003, 2.629553e+001
1.213566e+003, 2.645739e+001
1.214049e+003, 2.638035e+001
1.214531e+003, 2.593116e+001
1.215013e+003, 2.582830e+001
1.215495e+003, 2.629999e+001
1.215977e+003, 2.665019e+001
1.216459e+003, 2.648217e+001
1.216941e+003, 2.616796e+001
1.217423e+003, 2.615650e+001
1.217906e+003, 2.637038e+001
1.218388e+003, 2.663046e+001
1.218870e+003, 2.690044e+001
1.219352e+003, 2.699309e+001
1.219834e+003, 2.691344e+001
1.220316e+003, 2.666820e+001
1.220798e+003, 2.631393e+001
1.221280e+003, 2.620364e+001
1.221762e+003, 2.653952e+001
1.222245e+003, 2.685928e+001
1.222727e+003, 2.651216e+001
1.223209e+003, 2.609105e+001
1.223691e+003, 2.638820e+001
1.224173e+003, 2.693750e+001
1.224655e+003, 2.717885e+001
1.225137e+003, 2.715526e+001
1.225619e+003, 2.701599e+001
1.226101e+003, 2.682289e+001
1.226584e+003, 2.667467e+001
1.227066e+003, 2.655819e+001
1.227548e+003, 2.663438e+001
1.228030e+003, 2.730714e+001
1.228512e+003, 2.772502e+001
1.228994e+003, 2.726276e+001
1.229476e+003, 2.667112e+001
1.229958e+003, 2.654734e+001
1.230441e+003, 2.669714e+001
1.230923e+003, 2.676073e+001
1.231405e+003, 2.673999e+001
1.231887e+003, 2.668266e+001
1.232369e+003, 2.652719e+001
1.232851e+003, 2.655499e+001
1.233333e+003, 2.687691e+001
1.233815e+003, 2.700813e+001
1.234297e+003, 2.676457e+001
1.234780e+003, 2.646813e+001
1.235262e+003, 2.635240e+001
1.235744e+003, 2.631361e+001
1.236226e+003, 2.615431e+001
1.236708e+003, 2.592945e+001
1.237190e+003, 2.587151e+001
1.237672e+003, 2.595753e+001
1.238154e+003, 2.615746e+001
1.238636e+003, 2.640730e+001
1.239119e+003, 2.642940e+001
1.239601e+003, 2.617026e+001
1.240083e+003, 2.587122e+001
1.240565e+003, 2.567625e+001
1.241047e+003, 2.553775e+001
1.241529e+003, 2.533209e+001
1.242011e+003, 2.524163e+001
1.242493e+003, 2.561545e+001
1.242975e+003, 2.607574e+001
1.243458e+003, 2.617230e+001
1.243940e+003, 2.596866e+001
1.244422e+003, 2.564191e+001
1.244904e+003, 2.524414e+001
1.245386e+003, 2.496393e+001
1.245868e+003, 2.485400e+001
1.246350e+003, 2.485922e+001
1.246832e+003, 2.507000e+001
1.247315e+003, 2.525810e+001
1.247797e+003, 2.526552e+001
1.248279e+003, 2.533633e+001
1.248761e+003, 2.578639e+001
1.249243e+003, 2.626023e+001
1.249725e+003, 2.602902e+001
1.250207e+003, 2.515867e+001
1.250689e+003, 2.487180e+001
1.251172e+003, 2.524446e+001
1.251654e+003, 2.533857e+001
1.252136e+003, 2.507176e+001
1.252618e+003, 2.487289e+001
1.253100e+003, 2.487022e+001
1.253582e+003, 2.483716e+001
1.254064e+003, 2.460364e+001
1.254546e+003, 2.441922e+001
1.255028e+003, 2.477451e+001
1.255510e+003, 2.531039e+001
1.255993e+003, 2.528136e+001
1.256475e+003, 2.496791e+001
1.256957e+003, 2.490661e+001
1.257439e+003, 2.502273e+001
1.257921e+003, 2.494514e+001
1.258403e+003, 2.465502e+001
1.258885e+003, 2.456511e+001
1.259367e+003, 2.494107e+001
1.259850e+003, 2.518560e+001
1.260332e+003, 2.489194e+001
1.260814e+003, 2.457240e+001
1.261296e+003, 2.434047e+001
1.261778e+003, 2.430626e+001
1.262260e+003, 2.471595e+001
1.262742e+003, 2.527888e+001
1.263224e+003, 2.554383e+001
1.263707e+003, 2.553305e+001
1.264189e+003, 2.542197e+001
1.264671e+003, 2.513980e+001
1.265153e+003, 2.500735e+001
1.265635e+003, 2.506006e+001
1.266117e+003, 2.511563e+001
1.266599e+003, 2.513540e+001
1.267081e+003, 2.513043e+001
1.267563e+003, 2.509993e+001
1.268046e+003, 2.511439e+001
1.268528e+003, 2.527899e+001
1.269010e+003, 2.551038e+001
1.269492e+003, 2.565881e+001
1.269974e+003, 2.570281e+001
1.270456e+003, 2.551131e+001
1.270938e+003, 2.518779e+001
1.271420e+003, 2.497116e+001
1.271902e+003, 2.491984e+001
1.272385e+003, 2.510000e+001
1.272867e+003, 2.553805e+001
1.273349e+003, 2.582798e+001
1.273831e+003, 2.562561e+001
1.274313e+003, 2.535845e+001
1.274795e+003, 2.515392e+001
1.275277e+003, 2.505372e+001
1.275759e+003, 2.515782e+001
1.276242e+003, 2.532265e+001
1.276724e+003, 2.537760e+001
1.277206e+003, 2.535806e+001
1.277688e+003, 2.540990e+001
1.278170e+003, 2.555078e+001
1.278652e+003, 2.560486e+001
1.279134e+003, 2.557434e+001
1.279616e+003, 2.541858e+001
1.280099e+003, 2.508506e+001
1.280581e+003, 2.489524e+001
1.281063e+003, 2.497477e+001
1.281545e+003, 2.514913e+001
1.282027e+003, 2.529156e+001
1.282509e+003, 2.538620e+001
1.282991e+003, 2.539286e+001
1.283473e+003, 2.533854e+001
1.283955e+003, 2.528622e+001
##END=



