##NAMES=Papagoite
##RRUFFID=R040182
##IDEAL CHEMISTRY=CaCu^2+^AlSi_2_O_6_(OH)_3_
##LOCALITY=Ajo, Pima County, Arizona, USA
##OWNER=RRUFF
##SOURCE=University of Arizona Mineral Museum
##DESCRIPTION=Blue crusty coating
##STATUS=The identification of this mineral has been confirmed by X-ray diffraction and chemical analysis
##URL=rruff.info/R040182
##MEASURED CHEMISTRY=Ca_0.97_Cu_1.00_Al_0.98_Si_2.03_O_6_(OH)_3_
173.0880, 365.1499
173.5701, 374.3631
174.0522, 379.1951
174.5344, 381.8391
175.0165, 385.4230
175.4986, 391.9145
175.9807, 400.0789
176.4628, 406.2428
176.9449, 408.5825
177.4271, 412.3642
177.9092, 420.9250
178.3913, 431.6009
178.8734, 440.5013
179.3555, 445.1088
179.8376, 447.4074
180.3197, 453.5476
180.8019, 465.5601
181.2840, 478.0302
181.7661, 487.7341
182.2482, 497.2174
182.7303, 509.7646
183.2124, 527.3033
183.6946, 548.3892
184.1767, 569.7394
184.6588, 594.6152
185.1409, 613.2161
185.6230, 621.5349
186.1051, 623.7995
186.5873, 624.6100
187.0694, 625.9541
187.5515, 627.4423
188.0336, 627.1044
188.5157, 619.4357
188.9978, 620.2590
189.4800, 635.4212
189.9621, 658.1248
190.4442, 681.8598
190.9263, 703.6614
191.4084, 724.7491
191.8905, 747.7961
192.3727, 772.2390
192.8548, 800.2853
193.3369, 836.6008
193.8190, 874.1519
194.3011, 904.5781
194.7832, 924.4127
195.2654, 940.4493
195.7475, 967.7619
196.2296, 1013.853
196.7117, 1058.039
197.1938, 1097.564
197.6759, 1134.472
198.1581, 1170.407
198.6402, 1206.034
199.1223, 1240.510
199.6044, 1271.266
200.0865, 1292.987
200.5686, 1322.212
201.0508, 1363.654
201.5329, 1409.673
202.0150, 1454.955
202.4971, 1497.986
202.9792, 1538.882
203.4613, 1579.509
203.9435, 1626.320
204.4256, 1656.881
204.9077, 1675.905
205.3898, 1677.815
205.8719, 1655.997
206.3540, 1610.354
206.8362, 1549.224
207.3183, 1482.771
207.8004, 1411.603
208.2825, 1334.147
208.7646, 1243.147
209.2467, 1152.135
209.7289, 1067.178
210.2110, 990.3217
210.6931, 921.4855
211.1752, 860.8318
211.6573, 809.0649
212.1395, 764.6859
212.6216, 731.0634
213.1037, 701.5309
213.5858, 674.2672
214.0679, 648.5929
214.5500, 623.6302
215.0322, 597.6244
215.5143, 569.3173
215.9964, 549.1702
216.4785, 544.9669
216.9606, 541.4887
217.4427, 532.2480
217.9249, 518.5045
218.4070, 505.4367
218.8891, 497.6014
219.3712, 495.1725
219.8533, 491.6741
220.3354, 483.6977
220.8176, 477.9915
221.2997, 477.9459
221.7818, 481.6180
222.2639, 485.0220
222.7460, 485.3082
223.2281, 482.7942
223.7103, 480.8768
224.1924, 479.6730
224.6745, 479.0263
225.1566, 477.7195
225.6387, 477.1583
226.1208, 479.9484
226.6030, 488.0075
227.0851, 499.5650
227.5672, 506.9938
228.0493, 506.1521
228.5314, 506.6130
229.0135, 508.8359
229.4957, 513.5361
229.9778, 522.0966
230.4599, 535.2603
230.9420, 551.0039
231.4241, 564.3981
231.9062, 573.9662
232.3884, 583.4877
232.8705, 591.5696
233.3526, 600.7670
233.8347, 614.3429
234.3168, 633.1611
234.7989, 653.8854
235.2811, 670.3279
235.7632, 680.0861
236.2453, 691.3348
236.7274, 703.3726
237.2095, 717.9250
237.6916, 737.6320
238.1738, 762.3792
238.6559, 788.1954
239.1380, 809.2023
239.6201, 822.7086
240.1022, 841.6735
240.5843, 871.1515
241.0665, 902.3845
241.5486, 932.2249
242.0307, 960.1428
242.5128, 986.4818
242.9949, 1012.428
243.4770, 1038.449
243.9592, 1058.741
244.4413, 1070.176
244.9234, 1078.418
245.4055, 1085.036
245.8876, 1090.145
246.3697, 1093.405
246.8519, 1094.147
247.3340, 1092.696
247.8161, 1091.834
248.2982, 1090.891
248.7803, 1091.634
249.2624, 1096.297
249.7446, 1102.612
250.2267, 1106.735
250.7088, 1106.099
251.1909, 1102.530
251.6730, 1102.238
252.1551, 1109.403
252.6373, 1111.025
253.1194, 1102.646
253.6015, 1087.501
254.0836, 1068.620
254.5657, 1047.014
255.0478, 1022.424
255.5300, 993.1865
256.0121, 957.7413
256.4942, 923.8687
256.9763, 888.0991
257.4584, 858.2388
257.9406, 841.4991
258.4227, 839.6780
258.9048, 845.4776
259.3869, 852.0112
259.8690, 859.2305
260.3511, 868.5688
260.8333, 878.6416
261.3154, 892.9995
261.7975, 916.1360
262.2796, 947.4759
262.7617, 978.4260
263.2438, 1004.360
263.7260, 1025.258
264.2081, 1041.263
264.6902, 1054.290
265.1723, 1058.676
265.6544, 1051.027
266.1365, 1032.630
266.6187, 1006.764
267.1008, 970.2034
267.5829, 928.0652
268.0650, 890.6208
268.5471, 858.1518
269.0292, 830.3860
269.5114, 811.6511
269.9935, 797.3593
270.4756, 779.1093
270.9577, 749.0641
271.4398, 718.8456
271.9219, 702.8882
272.4041, 701.5281
272.8862, 702.5371
273.3683, 700.2449
273.8504, 696.4938
274.3325, 694.7614
274.8146, 695.5129
275.2968, 697.7426
275.7789, 700.8819
276.2610, 704.9516
276.7431, 710.0070
277.2252, 715.9149
277.7073, 723.1181
278.1895, 734.1241
278.6716, 751.2558
279.1537, 761.5982
279.6358, 756.6639
280.1179, 742.7208
280.6000, 730.5848
281.0822, 722.8013
281.5643, 715.7568
282.0464, 705.1288
282.5285, 690.7832
283.0106, 675.3001
283.4927, 656.9344
283.9749, 638.8384
284.4570, 625.4467
284.9391, 616.5230
285.4212, 605.3196
285.9033, 585.3866
286.3854, 556.9800
286.8676, 534.0024
287.3497, 517.7897
287.8318, 505.0936
288.3139, 495.3146
288.7960, 487.8309
289.2781, 481.5509
289.7603, 475.9451
290.2424, 470.9427
290.7245, 466.3869
291.2066, 463.5055
291.6887, 459.5309
292.1708, 450.6352
292.6530, 441.6311
293.1351, 440.0059
293.6172, 448.2227
294.0993, 460.1736
294.5814, 464.7242
295.0635, 455.2524
295.5457, 450.7915
296.0278, 453.3365
296.5099, 459.0385
296.9920, 467.0983
297.4741, 476.3289
297.9562, 483.3601
298.4384, 484.1776
298.9205, 477.4967
299.4026, 473.5225
299.8847, 472.4759
300.3668, 473.8023
300.8489, 477.4330
301.3311, 483.3440
301.8131, 492.1738
302.2953, 505.1165
302.7774, 520.4954
303.2595, 529.1318
303.7416, 523.7440
304.2237, 522.3253
304.7058, 532.0471
305.1880, 545.6795
305.6701, 554.7412
306.1522, 555.9550
306.6343, 554.5137
307.1164, 559.4412
307.5985, 572.6677
308.0807, 585.0000
308.5628, 593.6218
309.0449, 601.6868
309.5270, 610.2730
310.0091, 619.7659
310.4912, 631.0941
310.9734, 647.2051
311.4555, 667.2765
311.9376, 680.9061
312.4197, 682.0553
312.9018, 684.3545
313.3839, 699.3314
313.8661, 722.2609
314.3482, 740.5283
314.8303, 745.2642
315.3124, 743.2836
315.7945, 748.1843
316.2766, 761.8439
316.7588, 771.2741
317.2409, 767.0322
317.7230, 754.6272
318.2051, 742.7830
318.6872, 731.5318
319.1693, 722.7825
319.6515, 720.8237
320.1336, 723.5924
320.6157, 720.8710
321.0978, 707.2078
321.5799, 689.7745
322.0620, 680.5424
322.5442, 680.5228
323.0263, 679.9542
323.5084, 676.8798
323.9905, 671.3822
324.4726, 662.9736
324.9547, 651.5547
325.4369, 638.9944
325.9190, 626.2652
326.4011, 613.2719
326.8832, 605.1218
327.3653, 605.6503
327.8474, 607.2575
328.3296, 607.0676
328.8117, 604.5234
329.2938, 598.4195
329.7759, 587.5367
330.2580, 573.3906
330.7401, 563.2145
331.2223, 559.9470
331.7044, 556.9935
332.1865, 552.8702
332.6686, 549.0909
333.1507, 548.2762
333.6328, 550.9227
334.1150, 553.7690
334.5971, 551.5644
335.0792, 541.6700
335.5613, 533.8526
336.0434, 529.3661
336.5255, 525.5909
337.0077, 519.8267
337.4898, 513.3161
337.9719, 510.4647
338.4540, 516.3150
338.9361, 529.2012
339.4182, 533.6431
339.9004, 523.8247
340.3825, 513.7567
340.8646, 507.1082
341.3467, 502.7556
341.8288, 499.8665
342.3109, 498.5327
342.7931, 496.5499
343.2752, 489.4247
343.7573, 476.0212
344.2394, 465.6322
344.7215, 463.3293
345.2036, 462.5754
345.6858, 458.4124
346.1679, 450.5775
346.6500, 441.0247
347.1321, 428.2229
347.6142, 414.6770
348.0963, 408.1169
348.5785, 410.7822
349.0606, 415.8553
349.5427, 419.1433
350.0248, 420.6992
350.5069, 420.2986
350.9890, 416.1218
351.4712, 411.3734
351.9533, 408.8761
352.4354, 408.2383
352.9175, 407.2948
353.3996, 404.9077
353.8817, 401.7262
354.3639, 399.3691
354.8460, 397.4657
355.3281, 396.8590
355.8102, 398.4193
356.2923, 401.0737
356.7744, 404.2761
357.2566, 407.7311
357.7387, 409.7483
358.2208, 408.3955
358.7029, 403.2461
359.1850, 396.6629
359.6671, 383.1342
360.1493, 373.7854
360.6314, 375.9384
361.1135, 386.1029
361.5956, 396.9057
362.0777, 404.3013
362.5598, 408.2654
363.0420, 408.4871
363.5241, 401.8627
364.0062, 396.3689
364.4883, 391.3714
364.9704, 388.6988
365.4525, 391.2794
365.9347, 399.1507
366.4168, 407.5404
366.8989, 409.9955
367.3810, 405.9649
367.8631, 405.9134
368.3452, 414.6872
368.8274, 422.1294
369.3095, 420.9418
369.7916, 414.5463
370.2737, 411.2361
370.7558, 415.4560
371.2379, 424.5007
371.7201, 435.1396
372.2022, 447.8053
372.6843, 457.4922
373.1664, 459.3717
373.6485, 458.6482
374.1306, 463.5421
374.6128, 475.7177
375.0949, 488.3558
375.5770, 497.8542
376.0591, 505.2659
376.5412, 512.9122
377.0233, 521.4139
377.5055, 528.8508
377.9876, 532.2657
378.4697, 531.0527
378.9518, 534.5505
379.4339, 549.7060
379.9160, 563.4380
380.3982, 565.3011
380.8803, 558.9448
381.3624, 555.4579
381.8445, 561.0886
382.3266, 572.7901
382.8087, 581.4597
383.2909, 584.4856
383.7730, 587.5754
384.2551, 594.1918
384.7372, 598.7709
385.2193, 595.0618
385.7014, 583.1284
386.1836, 569.8912
386.6657, 564.0785
387.1478, 566.6274
387.6299, 558.6976
388.1120, 529.5049
388.5941, 501.8245
389.0763, 484.0443
389.5584, 472.3766
390.0405, 460.4953
390.5226, 445.1575
391.0047, 429.6420
391.4868, 419.1925
391.9690, 414.2311
392.4511, 410.6335
392.9332, 406.7480
393.4153, 404.6001
393.8974, 407.0173
394.3795, 413.9291
394.8617, 419.4904
395.3438, 419.6074
395.8259, 416.9749
396.3080, 415.3332
396.7901, 414.9024
397.2722, 417.5708
397.7544, 426.5552
398.2365, 439.8265
398.7186, 446.9990
399.2007, 441.8255
399.6828, 437.6264
400.1649, 439.5019
400.6471, 445.7386
401.1292, 453.7194
401.6113, 462.6409
402.0934, 472.4586
402.5755, 482.7652
403.0576, 491.5313
403.5398, 507.5921
404.0219, 541.0063
404.5040, 571.5270
404.9861, 588.1469
405.4682, 593.1271
405.9503, 592.8343
406.4325, 590.1976
406.9146, 587.7963
407.3967, 595.8581
407.8788, 620.7440
408.3609, 643.0895
408.8430, 657.0326
409.3252, 668.6950
409.8073, 682.1861
410.2894, 698.3258
410.7715, 716.8516
411.2536, 737.2067
411.7357, 759.6683
412.2179, 785.9193
412.7000, 817.7471
413.1821, 849.0956
413.6642, 875.3619
414.1463, 898.1639
414.6284, 920.0342
415.1106, 946.1772
415.5927, 965.8964
416.0748, 969.3099
416.5569, 959.7125
417.0390, 946.9349
417.5211, 934.1865
418.0033, 919.9553
418.4854, 901.7548
418.9675, 878.4948
419.4496, 854.6931
419.9317, 829.9642
420.4138, 805.3263
420.8960, 782.0781
421.3781, 759.5514
421.8602, 735.3561
422.3423, 707.5344
422.8244, 677.3636
423.3065, 650.3373
423.7887, 626.3293
424.2708, 605.9528
424.7529, 592.6047
425.2350, 580.2798
425.7171, 561.7171
426.1992, 537.1401
426.6814, 516.2156
427.1635, 510.3373
427.6456, 518.0375
428.1277, 522.4192
428.6098, 523.0653
429.0919, 521.0965
429.5741, 514.9120
430.0562, 507.1303
430.5383, 501.3372
431.0204, 497.5966
431.5025, 497.6820
431.9846, 505.4410
432.4668, 518.6573
432.9489, 529.2629
433.4310, 534.9356
433.9131, 538.3138
434.3952, 541.6603
434.8773, 544.7404
435.3595, 551.0676
435.8416, 563.1064
436.3237, 576.3890
436.8058, 589.5432
437.2879, 601.7150
437.7701, 610.7313
438.2522, 615.1647
438.7343, 617.7953
439.2164, 626.2073
439.6985, 647.8870
440.1806, 661.7465
440.6628, 663.4471
441.1449, 661.5899
441.6270, 660.1185
442.1091, 660.0913
442.5912, 662.4833
443.0733, 669.7867
443.5555, 679.3940
444.0376, 679.8917
444.5197, 667.4623
445.0018, 656.5850
445.4839, 651.0809
445.9660, 650.8538
446.4482, 658.2157
446.9303, 674.6172
447.4124, 689.1004
447.8945, 691.7145
448.3766, 688.2945
448.8587, 690.6919
449.3409, 700.5699
449.8230, 715.1393
450.3051, 733.3275
450.7872, 754.7828
451.2693, 775.0692
451.7514, 791.0405
452.2336, 809.5435
452.7157, 833.4660
453.1978, 860.9941
453.6799, 889.4659
454.1620, 918.1127
454.6441, 947.6972
455.1263, 978.7399
455.6084, 1010.436
456.0905, 1047.913
456.5726, 1093.539
457.0547, 1142.588
457.5368, 1197.995
458.0190, 1254.894
458.5011, 1304.746
458.9832, 1342.960
459.4653, 1378.096
459.9474, 1424.746
460.4295, 1482.985
460.9117, 1535.617
461.3938, 1578.133
461.8759, 1615.658
462.3580, 1652.153
462.8401, 1687.750
463.3222, 1723.467
463.8044, 1760.286
464.2865, 1796.994
464.7686, 1832.635
465.2507, 1867.157
465.7328, 1899.605
466.2149, 1928.801
466.6971, 1958.238
467.1792, 1993.817
467.6613, 2034.825
468.1434, 2085.147
468.6255, 2150.399
469.1076, 2219.948
469.5898, 2291.225
470.0719, 2360.929
470.5540, 2422.781
471.0361, 2473.441
471.5182, 2512.969
472.0003, 2543.608
472.4825, 2568.321
472.9646, 2575.350
473.4467, 2559.561
473.9288, 2526.070
474.4109, 2477.394
474.8930, 2413.406
475.3752, 2331.341
475.8573, 2222.874
476.3394, 2098.198
476.8215, 1970.398
477.3036, 1840.000
477.7857, 1715.130
478.2679, 1599.249
478.7500, 1492.243
479.2321, 1393.083
479.7142, 1301.848
480.1963, 1217.934
480.6784, 1140.864
481.1606, 1071.357
481.6427, 1011.543
482.1248, 960.4155
482.6069, 913.8635
483.0890, 868.4030
483.5711, 824.8959
484.0533, 787.1344
484.5354, 755.6985
485.0175, 729.5283
485.4996, 711.4252
485.9817, 695.6903
486.4638, 678.0735
486.9460, 658.0286
487.4281, 637.6497
487.9102, 617.6587
488.3923, 598.6071
488.8744, 582.3703
489.3565, 569.2186
489.8387, 557.3817
490.3208, 545.0300
490.8029, 534.1888
491.2850, 529.4624
491.7671, 534.1445
492.2492, 535.3389
492.7314, 525.8369
493.2135, 512.1961
493.6956, 500.8943
494.1777, 492.9930
494.6598, 487.9865
495.1419, 485.8546
495.6241, 486.0728
496.1062, 485.2150
496.5883, 483.4698
497.0704, 480.2374
497.5525, 475.5372
498.0346, 469.3544
498.5168, 460.3735
498.9989, 449.2517
499.4810, 439.8162
499.9631, 435.9754
500.4452, 436.3066
500.9273, 435.3553
501.4095, 432.6672
501.8916, 430.7693
502.3737, 432.5089
502.8558, 434.5593
503.3379, 430.7861
503.8200, 418.9354
504.3022, 410.4677
504.7843, 413.0436
505.2664, 419.3424
505.7485, 420.8755
506.2306, 417.2808
506.7127, 412.4185
507.1949, 408.5793
507.6770, 405.9063
508.1591, 405.1035
508.6412, 408.0835
509.1233, 410.1790
509.6054, 410.7880
510.0876, 410.7452
510.5697, 411.2849
511.0518, 411.9691
511.5339, 410.5486
512.0161, 404.1111
512.4982, 395.2433
512.9803, 390.8375
513.4624, 391.1526
513.9445, 394.9875
514.4266, 405.0492
514.9088, 415.7578
515.3909, 419.8733
515.8730, 417.0754
516.3551, 412.5854
516.8372, 403.7995
517.3193, 397.0816
517.8015, 400.1388
518.2836, 411.1824
518.7657, 422.3611
519.2478, 429.6660
519.7299, 433.7656
520.2120, 435.7969
520.6942, 431.9682
521.1763, 433.5090
521.6584, 443.8356
522.1405, 455.6378
522.6226, 464.5046
523.1047, 471.6191
523.5869, 480.8549
524.0690, 494.9607
524.5511, 510.7274
525.0332, 523.2767
525.5153, 532.6148
525.9974, 539.1787
526.4796, 541.0615
526.9617, 543.4863
527.4438, 553.9953
527.9259, 571.3950
528.4080, 584.6284
528.8901, 584.7844
529.3723, 587.6788
529.8544, 605.7323
530.3365, 632.7269
530.8186, 655.9026
531.3007, 671.0515
531.7828, 683.4420
532.2650, 700.9105
532.7471, 725.1476
533.2292, 744.2665
533.7113, 754.0787
534.1934, 763.4634
534.6755, 776.4371
535.1577, 790.0723
535.6398, 800.2168
536.1219, 805.5707
536.6040, 808.7960
537.0861, 815.8572
537.5682, 822.9215
538.0504, 815.3199
538.5325, 789.9675
539.0146, 760.8224
539.4967, 737.0842
539.9788, 717.8403
540.4609, 698.8336
540.9431, 681.0740
541.4252, 661.9220
541.9073, 637.3925
542.3894, 613.4750
542.8715, 597.1180
543.3536, 587.9079
543.8358, 579.3853
544.3179, 566.3033
544.8000, 549.8194
545.2821, 534.3890
545.7642, 518.7094
546.2463, 507.7268
546.7285, 505.8951
547.2106, 507.0709
547.6927, 507.2940
548.1748, 506.3089
548.6569, 504.1786
549.1390, 500.2021
549.6211, 495.6115
550.1032, 490.6897
550.5853, 486.0931
551.0674, 485.0284
551.5496, 489.1460
552.0317, 495.4726
552.5138, 499.4781
552.9959, 501.4200
553.4780, 499.9714
553.9601, 490.7710
554.4423, 483.3297
554.9244, 480.9878
555.4065, 483.0655
555.8886, 489.3806
556.3707, 500.0554
556.8528, 510.1368
557.3350, 513.2160
557.8171, 509.9966
558.2992, 505.8745
558.7813, 500.8835
559.2634, 496.3445
559.7455, 492.3008
560.2277, 489.6045
560.7098, 490.8055
561.1919, 500.4081
561.6740, 506.0485
562.1561, 499.0486
562.6382, 489.1096
563.1204, 487.4351
563.6025, 494.1275
564.0846, 501.6523
564.5667, 504.6903
565.0488, 504.0537
565.5309, 502.7433
566.0131, 500.0772
566.4952, 498.4664
566.9773, 499.3364
567.4594, 500.5905
567.9415, 500.0278
568.4236, 498.3953
568.9058, 499.3229
569.3879, 508.2418
569.8700, 516.8878
570.3521, 514.9166
570.8342, 505.3885
571.3163, 499.0450
571.7985, 499.3760
572.2806, 501.5662
572.7627, 499.6226
573.2448, 492.8422
573.7269, 488.5390
574.2090, 489.4804
574.6912, 489.4107
575.1733, 484.4213
575.6554, 478.8438
576.1375, 479.3091
576.6196, 486.5368
577.1017, 491.9811
577.5839, 486.0590
578.0660, 472.1766
578.5481, 461.3969
579.0302, 453.9520
579.5123, 449.4623
579.9944, 449.6143
580.4766, 451.0353
580.9587, 446.0948
581.4408, 432.5273
581.9229, 423.1350
582.4050, 424.9048
582.8871, 426.6996
583.3693, 419.2278
583.8514, 406.1336
584.3335, 396.1161
584.8156, 393.2226
585.2977, 394.4700
585.7798, 395.7895
586.2620, 397.2982
586.7441, 397.2842
587.2262, 394.7533
587.7083, 392.1913
588.1904, 390.7375
588.6725, 390.2505
589.1547, 390.9477
589.6368, 393.8884
590.1189, 395.2659
590.6010, 391.6112
591.0831, 386.2480
591.5652, 383.7087
592.0474, 384.0290
592.5295, 384.1890
593.0116, 382.0551
593.4937, 378.7608
593.9758, 377.8508
594.4579, 380.1041
594.9401, 382.8996
595.4222, 387.9632
595.9043, 391.7177
596.3864, 392.0968
596.8685, 389.7024
597.3506, 385.7192
597.8328, 378.7191
598.3149, 373.9540
598.7970, 378.7748
599.2791, 389.3141
599.7612, 395.2263
600.2433, 394.5283
600.7255, 392.0694
601.2076, 392.0235
601.6897, 393.8830
602.1718, 393.4409
602.6539, 385.8983
603.1360, 382.7224
603.6182, 387.1458
604.1003, 394.2817
604.5824, 402.4956
605.0645, 410.3036
605.5466, 413.8871
606.0287, 408.5502
606.5109, 401.2582
606.9930, 405.1526
607.4751, 418.2768
607.9572, 423.4044
608.4393, 414.2942
608.9214, 404.2696
609.4036, 408.2557
609.8857, 426.3236
610.3678, 434.7796
610.8499, 421.2775
611.3320, 414.6960
611.8141, 427.4946
612.2963, 446.7650
612.7784, 460.0537
613.2605, 465.7389
613.7426, 468.5654
614.2247, 470.6905
614.7068, 473.6703
615.1890, 482.4242
615.6711, 497.2601
616.1532, 510.8862
616.6353, 520.8673
617.1174, 529.3860
617.5995, 538.3415
618.0817, 547.7707
618.5638, 558.9294
619.0459, 570.4050
619.5280, 585.2713
620.0101, 608.3550
620.4922, 633.7066
620.9744, 653.1489
621.4565, 665.7357
621.9386, 677.4521
622.4207, 692.6418
622.9028, 711.7197
623.3849, 737.6688
623.8671, 772.1836
624.3492, 803.1976
624.8313, 824.1292
625.3134, 843.4234
625.7955, 874.1000
626.2776, 915.3876
626.7598, 946.7439
627.2419, 954.9510
627.7240, 963.7161
628.2061, 990.0568
628.6882, 1022.305
629.1703, 1042.446
629.6525, 1046.739
630.1346, 1044.816
630.6167, 1047.290
631.0988, 1051.404
631.5809, 1040.637
632.0630, 1012.021
632.5452, 979.8156
633.0273, 947.5099
633.5094, 913.8779
633.9915, 876.0721
634.4736, 834.5098
634.9557, 796.4979
635.4379, 767.6320
635.9200, 738.7055
636.4021, 702.0739
636.8842, 662.9472
637.3663, 629.3290
637.8484, 603.1791
638.3306, 581.6489
638.8127, 562.1412
639.2948, 544.8135
639.7769, 531.8302
640.2590, 524.6978
640.7411, 516.4110
641.2233, 504.5529
641.7054, 491.1808
642.1875, 478.0007
642.6696, 465.0313
643.1517, 452.9147
643.6339, 441.6468
644.1160, 431.4028
644.5981, 422.6748
645.0802, 414.8657
645.5623, 406.2209
646.0444, 396.8844
646.5266, 390.4796
647.0087, 391.2911
647.4908, 397.3366
647.9729, 398.4915
648.4550, 392.8769
648.9371, 390.1935
649.4193, 395.8559
649.9014, 402.0739
650.3835, 399.5422
650.8656, 389.8707
651.3477, 384.6088
651.8298, 391.0047
652.3120, 396.1471
652.7941, 392.6327
653.2762, 384.9142
653.7583, 377.8418
654.2404, 372.8733
654.7225, 371.1047
655.2047, 374.2446
655.6868, 380.1438
656.1689, 381.2433
656.6510, 376.7292
657.1331, 372.2798
657.6152, 368.5318
658.0974, 365.9584
658.5795, 365.1537
659.0616, 365.9457
659.5437, 367.7935
660.0258, 371.4898
660.5079, 375.1905
660.9901, 378.6889
661.4722, 381.6146
661.9543, 384.1940
662.4364, 385.9571
662.9185, 385.2448
663.4006, 380.6601
663.8828, 373.7414
664.3649, 367.0316
664.8470, 360.4511
665.3291, 356.8888
665.8112, 357.2599
666.2933, 359.6310
666.7755, 363.3131
667.2576, 367.8558
667.7397, 371.4748
668.2218, 376.2309
668.7039, 376.7596
669.1860, 360.0276
669.6682, 370.3456
670.1503, 376.1096
670.6324, 377.5644
671.1145, 361.8029
671.5966, 368.2726
672.0787, 365.8330
672.5609, 363.0281
673.0430, 372.6267
673.5251, 359.3694
674.0072, 368.7712
674.4893, 369.1280
674.9714, 373.6245
675.4536, 369.1566
675.9357, 367.4576
676.4178, 374.7258
676.8999, 377.0287
677.3820, 371.5290
677.8641, 376.2887
678.3463, 362.7181
678.8284, 370.3271
679.3105, 372.9753
679.7926, 373.6575
680.2747, 371.8603
680.7568, 365.0851
681.2390, 355.9679
681.7211, 351.0803
682.2032, 350.5463
682.6853, 351.1136
683.1674, 351.4572
683.6495, 352.0296
684.1317, 353.5846
684.6138, 356.2898
685.0959, 359.0720
685.5780, 363.6415
686.0601, 366.2403
686.5422, 364.1750
687.0244, 360.7811
687.5065, 359.2583
687.9886, 360.0698
688.4707, 362.3011
688.9528, 367.9310
689.4349, 372.8097
689.9171, 370.4024
690.3992, 363.3046
690.8813, 359.7030
691.3634, 361.7559
691.8455, 364.6101
692.3276, 363.1115
692.8098, 358.0035
693.2919, 355.9519
693.7740, 357.9132
694.2561, 360.7966
694.7382, 362.7000
695.2203, 366.6676
695.7025, 378.5429
696.1846, 394.8369
696.6667, 402.1871
697.1488, 390.6952
697.6309, 379.5283
698.1130, 380.9741
698.5952, 387.3239
699.0773, 388.8743
699.5594, 385.2507
700.0415, 380.9938
700.5236, 378.6583
701.0057, 378.5916
701.4879, 383.1429
701.9700, 392.8178
702.4521, 395.5125
702.9342, 386.6259
703.4163, 379.8886
703.8984, 384.7031
704.3806, 396.7138
704.8627, 405.4073
705.3448, 409.6577
705.8269, 414.1142
706.3090, 422.9587
706.7911, 428.6718
707.2733, 425.4547
707.7554, 416.4382
708.2375, 405.2026
708.7196, 393.3044
709.2017, 386.1766
709.6838, 392.8365
710.1660, 407.2216
710.6481, 413.9067
711.1302, 412.9772
711.6123, 408.9235
712.0944, 402.5379
712.5765, 397.1815
713.0587, 398.0277
713.5408, 405.6828
714.0229, 406.4148
714.5050, 390.0410
714.9871, 380.7497
715.4692, 388.0917
715.9514, 399.2455
716.4335, 405.0824
716.9156, 405.1361
717.3977, 401.9504
717.8798, 395.3701
718.3619, 387.5597
718.8441, 377.1952
719.3262, 367.9406
719.8083, 367.7593
720.2904, 376.4199
720.7725, 385.7982
721.2546, 390.5510
721.7368, 391.9326
722.2189, 392.8654
722.7010, 393.4351
723.1831, 393.0925
723.6652, 392.3293
724.1473, 389.4756
724.6295, 381.1626
725.1116, 371.1042
725.5937, 367.2988
726.0758, 372.0530
726.5579, 375.1370
727.0400, 372.2010
727.5222, 369.6357
728.0043, 371.5981
728.4864, 376.3937
728.9685, 382.8587
729.4506, 389.8917
729.9327, 391.8192
730.4149, 378.7768
730.8970, 358.8834
731.3791, 350.7690
731.8612, 353.6212
732.3433, 360.8980
732.8254, 371.4808
733.3076, 381.0458
733.7897, 385.0620
734.2718, 383.8597
734.7539, 381.8828
735.2360, 378.1640
735.7181, 375.2803
736.2003, 372.9624
736.6824, 372.0219
737.1645, 373.5192
737.6466, 376.7799
738.1287, 380.0656
738.6108, 383.1663
739.0930, 385.6375
739.5751, 386.5760
740.0572, 387.1926
740.5393, 389.2871
741.0214, 392.4051
741.5035, 394.4669
741.9857, 394.4717
742.4678, 394.0895
742.9499, 395.9552
743.4320, 399.8668
743.9141, 403.4084
744.3962, 406.9180
744.8784, 407.4158
745.3605, 401.3816
745.8426, 395.4396
746.3247, 399.9464
746.8068, 416.7451
747.2889, 426.6537
747.7711, 424.1630
748.2532, 422.4334
748.7353, 424.6449
749.2174, 428.8586
749.6995, 434.9238
750.1816, 441.5042
750.6638, 444.3441
751.1459, 439.7924
751.6280, 433.9135
752.1101, 431.3523
752.5922, 431.7695
753.0743, 434.9493
753.5565, 440.6303
754.0386, 449.2483
754.5207, 461.7731
755.0028, 472.0759
755.4849, 464.5678
755.9670, 435.9172
756.4492, 422.1769
756.9313, 429.3929
757.4134, 437.9016
757.8955, 439.3589
758.3776, 437.3558
758.8597, 437.7719
759.3419, 441.0796
759.8240, 441.6729
760.3061, 439.3286
760.7882, 433.9196
761.2703, 420.8236
761.7524, 407.6356
762.2346, 404.1053
762.7167, 409.3502
763.1988, 412.9471
763.6809, 407.9678
764.1630, 400.6202
764.6451, 399.0638
765.1273, 400.5418
765.6094, 397.4324
766.0915, 389.1573
766.5736, 380.7270
767.0557, 374.9335
767.5378, 372.2866
768.0200, 375.1275
768.5021, 385.1423
768.9842, 390.0031
769.4663, 387.3030
769.9484, 384.2708
770.4305, 385.2863
770.9127, 386.7809
771.3948, 382.3355
771.8769, 371.1941
772.3590, 364.5435
772.8411, 366.5361
773.3232, 369.8291
773.8054, 372.2143
774.2875, 374.0715
774.7696, 376.9626
775.2517, 380.1178
775.7338, 379.6217
776.2159, 371.5843
776.6981, 362.7461
777.1802, 361.4694
777.6623, 364.9664
778.1444, 368.3063
778.6265, 370.2632
779.1086, 366.5125
779.5908, 353.9408
780.0729, 339.3489
780.5550, 336.5834
781.0371, 347.2527
781.5192, 353.2745
782.0013, 352.5024
782.4835, 352.9019
782.9656, 358.2748
783.4477, 365.5257
783.9298, 371.6553
784.4119, 376.7585
784.8940, 377.5357
785.3762, 368.7382
785.8583, 362.1993
786.3404, 362.5399
786.8225, 365.2920
787.3046, 367.6617
787.7867, 368.8417
788.2689, 367.7408
788.7510, 363.1662
789.2331, 358.6365
789.7152, 357.1234
790.1973, 357.5502
790.6794, 358.2266
791.1616, 359.1409
791.6437, 361.1898
792.1258, 364.7793
792.6079, 368.7086
793.0900, 371.6041
793.5721, 373.4235
794.0543, 373.4070
794.5364, 371.1940
795.0185, 369.5429
795.5006, 369.6558
795.9827, 369.6370
796.4648, 367.1891
796.9470, 362.6924
797.4291, 360.3328
797.9112, 360.3655
798.3933, 362.2665
798.8754, 368.0259
799.3575, 373.6585
799.8397, 378.0998
800.3218, 380.4146
800.8039, 377.3909
801.2860, 366.7262
801.7681, 362.0478
802.2502, 376.6309
802.7324, 394.5216
803.2145, 400.8156
803.6966, 399.6110
804.1787, 400.3985
804.6608, 405.2239
805.1429, 408.7176
805.6251, 405.3391
806.1072, 399.0322
806.5893, 398.6529
807.0714, 403.4836
807.5535, 408.9599
808.0356, 414.5313
808.5178, 416.4794
808.9999, 411.2556
809.4820, 403.0409
809.9641, 403.0719
810.4462, 414.6110
810.9283, 422.3967
811.4105, 424.7093
811.8926, 426.1129
812.3747, 428.5305
812.8568, 430.7702
813.3389, 431.3011
813.8210, 430.1190
814.3032, 428.8804
814.7853, 428.3056
815.2674, 427.0978
815.7495, 423.8867
816.2316, 420.5785
816.7137, 418.4857
817.1959, 417.8958
817.6780, 419.6645
818.1601, 425.0958
818.6422, 428.3954
819.1243, 422.4887
819.6064, 412.5135
820.0886, 405.5978
820.5707, 401.9958
821.0528, 401.2068
821.5349, 402.8850
822.0170, 404.5520
822.4991, 403.1165
822.9813, 399.5864
823.4634, 398.5210
823.9455, 400.0497
824.4276, 401.0463
824.9097, 400.5933
825.3918, 400.8896
825.8740, 404.5600
826.3561, 409.5175
826.8382, 408.2322
827.3203, 395.7748
827.8024, 388.5408
828.2845, 392.6299
828.7667, 394.4532
829.2488, 384.9817
829.7309, 373.1105
830.2130, 370.3333
830.6951, 377.2552
831.1772, 383.2371
831.6594, 387.1662
832.1415, 387.9234
832.6236, 382.6698
833.1057, 375.7507
833.5878, 371.0548
834.0699, 368.8194
834.5521, 367.6617
835.0342, 366.7928
835.5163, 367.8110
835.9984, 375.3792
836.4805, 384.0924
836.9626, 382.2627
837.4448, 373.0534
837.9269, 370.6490
838.4090, 379.5183
838.8911, 390.7375
839.3732, 395.4506
839.8553, 394.5033
840.3375, 389.4685
840.8196, 380.1888
841.3017, 375.7469
841.7838, 378.6497
842.2659, 382.0151
842.7480, 381.1046
843.2302, 377.5473
843.7123, 375.4242
844.1944, 375.0810
844.6765, 375.0308
845.1586, 375.3698
845.6407, 375.8607
846.1229, 377.8029
846.6050, 378.8914
847.0871, 375.5786
847.5692, 368.4130
848.0513, 364.3898
848.5334, 365.9666
849.0156, 368.7292
849.4977, 372.2503
849.9798, 375.8314
850.4619, 379.6682
850.9440, 382.9973
851.4261, 384.4644
851.9083, 383.6814
852.3904, 380.8151
852.8725, 371.5426
853.3546, 363.9542
853.8367, 370.2488
854.3188, 383.7458
854.8010, 390.0305
855.2831, 386.8741
855.7652, 382.2794
856.2473, 382.0946
856.7294, 383.8110
857.2115, 382.8653
857.6937, 379.9072
858.1758, 377.3757
858.6579, 375.5841
859.1400, 376.4716
859.6221, 381.4081
860.1042, 385.9594
860.5864, 382.7144
861.0685, 372.2007
861.5506, 369.1475
862.0327, 375.2757
862.5148, 382.6336
862.9969, 391.3454
863.4791, 397.3943
863.9612, 397.0760
864.4433, 391.7471
864.9254, 386.0179
865.4075, 376.7334
865.8896, 373.6786
866.3718, 382.9528
866.8539, 390.8936
867.3360, 391.0281
867.8181, 388.4584
868.3002, 389.5006
868.7823, 394.2071
869.2645, 396.9254
869.7466, 394.2835
870.2287, 391.9057
870.7108, 393.7246
871.1929, 395.2269
871.6750, 390.9207
872.1572, 383.2204
872.6393, 378.5182
873.1214, 379.0292
873.6035, 380.2798
874.0856, 377.7052
874.5677, 375.2727
875.0499, 378.4825
875.5320, 385.0082
876.0141, 390.5477
876.4962, 393.8857
876.9783, 394.7083
877.4604, 392.7699
877.9426, 388.3647
878.4247, 379.5602
878.9068, 368.7197
879.3889, 365.9111
879.8710, 371.1647
880.3531, 376.3304
880.8353, 378.0886
881.3174, 379.0122
881.7995, 382.3906
882.2816, 387.5492
882.7637, 390.6979
883.2458, 392.1387
883.7280, 388.2304
884.2101, 376.3064
884.6922, 365.8093
885.1743, 362.8410
885.6564, 365.3968
886.1385, 369.6501
886.6207, 376.6826
887.1028, 380.3039
887.5849, 377.7579
888.0670, 376.2868
888.5491, 380.7562
889.0313, 384.4011
889.5134, 379.2848
889.9955, 367.9108
890.4776, 361.9063
890.9597, 366.0347
891.4418, 368.3423
891.9240, 365.6254
892.4061, 362.4357
892.8882, 360.9118
893.3703, 360.5179
893.8524, 359.8442
894.3345, 358.9231
894.8167, 360.4459
895.2988, 368.6030
895.7809, 375.6739
896.2630, 376.4367
896.7451, 374.9167
897.2272, 374.8595
897.7094, 376.3110
898.1915, 378.8140
898.6736, 382.2373
899.1557, 383.1739
899.6378, 376.8569
900.1199, 368.1613
900.6021, 362.7037
901.0842, 359.6896
901.5663, 356.4319
902.0484, 353.0827
902.5305, 353.4871
903.0126, 360.4377
903.4948, 369.7676
903.9769, 376.9885
904.4590, 381.3608
904.9411, 377.8671
905.4232, 367.9176
905.9053, 364.1481
906.3875, 370.5928
906.8696, 376.5515
907.3517, 370.9593
907.8338, 358.2658
908.3159, 353.3846
908.7980, 356.3812
909.2802, 358.1939
909.7623, 357.7849
910.2444, 356.5271
910.7265, 354.2343
911.2086, 354.3375
911.6907, 363.5153
912.1729, 381.4930
912.6550, 386.5777
913.1371, 374.1629
913.6192, 363.2581
914.1013, 356.2748
914.5834, 353.0696
915.0656, 355.1226
915.5477, 359.8701
916.0298, 361.0521
916.5119, 356.8121
916.9940, 356.0448
917.4761, 362.2138
917.9583, 366.9480
918.4404, 367.8222
918.9225, 366.9945
919.4046, 365.5682
919.8867, 363.8209
920.3688, 362.2631
920.8510, 358.2704
921.3331, 360.4084
921.8152, 381.3988
922.2973, 395.4896
922.7794, 383.3029
923.2615, 362.6862
923.7437, 353.3887
924.2258, 356.7829
924.7079, 365.8412
925.1900, 384.6586
925.6721, 398.5681
926.1542, 398.5775
926.6364, 394.1324
927.1185, 391.2649
927.6006, 389.9995
928.0827, 390.2006
928.5648, 391.4087
929.0469, 389.6772
929.5291, 378.0695
930.0112, 368.2119
930.4933, 370.8533
930.9754, 378.8349
931.4575, 384.1557
931.9396, 386.4471
932.4218, 387.2648
932.9039, 387.2683
933.3860, 388.8479
933.8681, 395.6801
934.3502, 403.9311
934.8323, 409.1211
935.3145, 411.7410
935.7966, 411.6015
936.2787, 409.6718
936.7608, 409.4180
937.2429, 412.6729
937.7250, 418.3269
938.2072, 428.1808
938.6893, 438.1811
939.1714, 435.7986
939.6535, 424.8009
940.1356, 421.4751
940.6177, 428.8419
941.0999, 437.3380
941.5820, 440.3550
942.0641, 439.9382
942.5462, 438.9803
943.0283, 437.7696
943.5104, 438.2335
943.9926, 440.2636
944.4747, 441.1676
944.9568, 440.0826
945.4389, 439.1556
945.9210, 440.5427
946.4031, 442.9814
946.8853, 443.5051
947.3674, 442.0949
947.8495, 434.9784
948.3316, 420.9941
948.8137, 413.1950
949.2958, 417.7602
949.7780, 424.4857
950.2601, 421.4766
950.7422, 411.0940
951.2243, 405.9092
951.7064, 406.4415
952.1885, 409.3729
952.6707, 415.4193
953.1528, 420.1088
953.6349, 421.6301
954.1170, 419.9369
954.5991, 413.5817
955.0812, 403.1705
955.5634, 402.9046
956.0455, 419.4408
956.5276, 424.7905
957.0097, 410.5360
957.4918, 395.0026
957.9739, 386.7711
958.4561, 384.4872
958.9382, 386.7289
959.4203, 393.9404
959.9024, 399.3540
960.3845, 401.3206
960.8666, 405.0512
961.3488, 415.0478
961.8309, 421.6979
962.3130, 415.8530
962.7951, 404.3833
963.2772, 401.4022
963.7593, 409.1328
964.2415, 413.4451
964.7236, 411.5123
965.2057, 410.2714
965.6878, 412.1965
966.1699, 413.8771
966.6520, 410.6752
967.1342, 406.1771
967.6163, 410.0542
968.0984, 426.6293
968.5805, 434.9751
969.0626, 425.0593
969.5447, 418.9471
970.0269, 424.8437
970.5090, 434.0820
970.9911, 442.1506
971.4732, 447.9744
971.9553, 448.7126
972.4374, 442.0099
972.9196, 437.7675
973.4017, 438.1057
973.8838, 440.0960
974.3659, 443.1914
974.8480, 447.1057
975.3301, 451.8889
975.8123, 457.2957
976.2944, 462.5944
976.7765, 467.7181
977.2586, 472.5589
977.7407, 480.3621
978.2228, 483.8692
978.7050, 475.0186
979.1871, 464.1173
979.6692, 461.5770
980.1513, 466.2264
980.6334, 471.2403
981.1155, 475.6977
981.5977, 478.7631
982.0798, 479.4997
982.5619, 479.5872
983.0440, 479.7537
983.5261, 479.8279
984.0082, 480.7447
984.4904, 481.4364
984.9725, 477.9605
985.4546, 468.1010
985.9367, 457.5339
986.4188, 445.7709
986.9009, 436.6686
987.3831, 431.4835
987.8652, 430.8676
988.3473, 439.9389
988.8294, 454.7797
989.3115, 459.1706
989.7936, 444.1154
990.2758, 430.5383
990.7579, 429.1328
991.2400, 429.6708
991.7221, 425.0393
992.2042, 418.9121
992.6863, 415.7941
993.1685, 415.9889
993.6506, 417.9413
994.1327, 421.8319
994.6148, 425.3728
995.0969, 431.4299
995.5790, 432.6156
996.0612, 416.9664
996.5433, 397.9361
997.0254, 394.3219
997.5075, 404.6613
997.9896, 412.4232
998.4717, 411.7495
998.9539, 408.5728
999.4360, 403.8611
999.9181, 399.4786
1000.400, 396.4605
1000.882, 394.7536
1001.364, 392.7331
1001.847, 391.6560
1002.329, 397.9824
1002.811, 418.4922
1003.293, 432.2407
1003.775, 422.9680
1004.257, 410.5988
1004.739, 408.7422
1005.221, 411.9606
1005.703, 413.9392
1006.186, 413.4939
1006.668, 409.9977
1007.150, 401.3907
1007.632, 396.0737
1008.114, 401.6695
1008.596, 407.6187
1009.078, 404.7228
1009.560, 399.8248
1010.043, 402.9173
1010.525, 412.4113
1011.007, 417.8474
1011.489, 414.1501
1011.971, 413.3211
1012.453, 426.6331
1012.935, 437.4108
1013.417, 431.3354
1013.899, 420.2162
1014.382, 418.2166
1014.864, 423.8947
1015.346, 427.0464
1015.828, 424.3238
1016.310, 421.4262
1016.792, 419.5873
1017.274, 419.2642
1017.756, 421.4972
1018.239, 424.7400
1018.721, 429.2915
1019.203, 433.2727
1019.685, 430.2295
1020.167, 415.6661
1020.649, 409.5826
1021.131, 428.2698
1021.613, 444.7092
1022.095, 444.9735
1022.578, 438.5997
1023.060, 433.6396
1023.542, 429.8790
1024.024, 424.1164
1024.506, 415.1044
1024.988, 408.6320
1025.470, 403.2885
1025.952, 404.5826
1026.435, 423.5001
1026.917, 441.6933
1027.399, 442.1846
1027.881, 431.2530
1028.363, 423.1454
1028.845, 419.6658
1029.327, 419.3418
1029.809, 423.0033
1030.292, 428.2632
1030.774, 438.5239
1031.256, 446.1515
1031.738, 443.5039
1032.220, 435.6796
1032.702, 431.5495
1033.184, 431.8631
1033.666, 434.3494
1034.148, 438.1161
1034.630, 445.0094
1035.113, 461.7439
1035.595, 474.7202
1036.077, 471.9096
1036.559, 463.0648
1037.041, 463.0446
1037.523, 472.3354
1038.005, 480.6187
1038.487, 488.0772
1038.970, 494.0043
1039.452, 496.0681
1039.934, 499.5696
1040.416, 505.7303
1040.898, 515.3744
1041.380, 530.0327
1041.862, 549.3392
1042.344, 569.9673
1042.826, 594.9489
1043.309, 613.7168
1043.791, 620.3014
1044.273, 631.3491
1044.755, 655.2973
1045.237, 683.1782
1045.719, 706.4021
1046.201, 725.8329
1046.683, 745.4797
1047.166, 765.3047
1047.648, 785.7182
1048.130, 805.7643
1048.612, 829.9796
1049.094, 861.9371
1049.576, 892.3472
1050.058, 911.8275
1050.540, 925.7936
1051.022, 951.1435
1051.505, 990.6016
1051.987, 1011.346
1052.469, 1009.208
1052.951, 1015.150
1053.433, 1038.260
1053.915, 1061.407
1054.397, 1074.803
1054.879, 1076.079
1055.361, 1058.617
1055.844, 1024.170
1056.326, 991.9375
1056.808, 961.7267
1057.290, 940.2652
1057.772, 928.8282
1058.254, 912.3420
1058.736, 882.6830
1059.218, 847.2425
1059.701, 815.0164
1060.183, 785.7484
1060.665, 758.5226
1061.147, 733.3871
1061.629, 711.3652
1062.111, 692.3856
1062.593, 675.5883
1063.075, 660.5487
1063.557, 646.3722
1064.040, 632.4619
1064.522, 618.7173
1065.004, 604.5782
1065.486, 590.7304
1065.968, 579.2863
1066.450, 569.7924
1066.932, 559.9020
1067.414, 549.1712
1067.896, 539.0457
1068.379, 529.7362
1068.861, 524.5190
1069.343, 530.2659
1069.825, 539.9903
1070.307, 547.1093
1070.789, 549.2328
1071.271, 538.3901
1071.753, 518.1698
1072.236, 506.8710
1072.718, 513.5828
1073.200, 523.9553
1073.682, 531.2300
1074.164, 533.8821
1074.646, 526.8199
1075.128, 517.2188
1075.610, 514.3754
1076.093, 516.6719
1076.575, 515.6894
1077.057, 508.8922
1077.539, 509.1585
1078.021, 532.2173
1078.503, 550.1428
1078.985, 543.5986
1079.467, 533.6763
1079.949, 539.5416
1080.432, 552.0815
1080.914, 553.9752
1081.396, 543.8088
1081.878, 535.2924
1082.360, 528.3977
1082.842, 527.0721
1083.324, 536.5445
1083.806, 546.1729
1084.288, 554.6837
1084.771, 558.2975
1085.253, 549.6063
1085.735, 531.9309
1086.217, 521.2936
1086.699, 519.1851
1087.181, 520.7726
1087.663, 530.6700
1088.145, 534.5101
1088.628, 525.9661
1089.110, 515.3670
1089.592, 510.5950
1090.074, 508.4564
1090.556, 501.9434
1091.038, 490.9327
1091.520, 478.4357
1092.002, 463.2418
1092.484, 455.7985
1092.967, 458.8593
1093.449, 462.9121
1093.931, 463.4760
1094.413, 460.9030
1094.895, 455.3812
1095.377, 447.4395
1095.859, 437.5531
1096.341, 426.6140
1096.823, 423.4955
1097.306, 427.8171
1097.788, 427.6906
1098.270, 419.7860
1098.752, 415.3828
1099.234, 424.6097
1099.716, 437.2116
1100.198, 436.6361
1100.680, 428.4295
1101.163, 423.6089
1101.645, 420.9763
1102.127, 415.7971
1102.609, 407.9814
1103.091, 400.9309
1103.573, 396.2668
1104.055, 393.0482
1104.537, 390.7721
1105.020, 389.3409
1105.502, 386.3777
1105.984, 385.9703
1106.466, 398.7140
1106.948, 416.3614
1107.430, 417.8414
1107.912, 399.8632
1108.394, 386.7870
1108.876, 392.6713
1109.359, 398.9245
1109.841, 399.5858
1110.323, 397.4802
1110.805, 393.4171
1111.287, 388.1659
1111.769, 380.5787
1112.251, 372.1618
1112.733, 370.5071
1113.215, 380.2870
1113.698, 386.9369
1114.180, 389.4327
1114.662, 389.5752
1115.144, 385.4821
1115.626, 382.4897
1116.108, 385.1873
1116.590, 390.2647
1117.072, 391.2634
1117.555, 388.1553
1118.037, 387.9942
1118.519, 392.2787
1119.001, 389.5165
1119.483, 376.5731
1119.965, 369.0488
1120.447, 374.1057
1120.929, 382.8004
1121.411, 385.8664
1121.894, 385.8554
1122.376, 390.6249
1122.858, 398.3808
1123.340, 399.0032
1123.822, 393.3001
1124.304, 387.0966
1124.786, 382.1867
1125.268, 379.9714
1125.750, 381.2782
1126.233, 384.9580
1126.715, 392.6323
1127.197, 399.3935
1127.679, 396.2536
1128.161, 388.8278
1128.643, 385.6755
1129.125, 386.5508
1129.607, 388.4348
1130.090, 390.2776
1130.572, 390.9031
1131.054, 389.2905
1131.536, 387.0909
1132.018, 386.5696
1132.500, 384.1949
1132.982, 371.8353
1133.464, 360.3724
1133.947, 366.0377
1134.429, 384.7040
1134.911, 396.3600
1135.393, 397.1194
1135.875, 396.0012
1136.357, 392.1611
1136.839, 388.6371
1137.321, 385.4497
1137.803, 383.4888
1138.286, 383.9745
1138.768, 385.0847
1139.250, 383.8992
1139.732, 380.7906
1140.214, 379.7819
1140.696, 381.5705
1141.178, 378.9777
1141.660, 370.8499
1142.142, 366.4086
1142.625, 368.7399
1143.107, 373.2337
1143.589, 376.4699
1144.071, 378.9947
1144.553, 382.0091
1145.035, 385.0171
1145.517, 387.3779
1145.999, 388.2393
1146.482, 382.7302
1146.964, 372.7971
1147.446, 369.0125
1147.928, 374.9277
1148.410, 381.1110
1148.892, 379.0203
1149.374, 377.0755
1149.856, 387.3850
1150.339, 397.0586
1150.821, 389.3506
1151.303, 374.6006
1151.785, 368.7136
1152.267, 372.1486
1152.749, 376.6846
1153.231, 380.8839
1153.713, 383.9276
1154.195, 387.2595
1154.677, 387.1807
1155.160, 380.1190
1155.642, 371.9356
1156.124, 364.2980
1156.606, 359.2601
1157.088, 360.4766
1157.570, 367.4152
1158.052, 374.2294
1158.534, 381.7481
1159.017, 384.7196
1159.499, 381.9588
1159.981, 380.1154
1160.463, 381.2423
1160.945, 383.1644
1161.427, 384.4229
1161.909, 384.9380
1162.391, 383.8718
1162.874, 382.2338
1163.356, 384.7870
1163.838, 389.4774
1164.320, 388.5317
1164.802, 382.8340
1165.284, 379.6876
1165.766, 381.1879
1166.248, 383.0286
1166.730, 382.1902
1167.213, 381.1441
1167.695, 383.9824
1168.177, 385.3870
1168.659, 377.0931
1169.141, 367.0851
1169.623, 366.5023
1170.105, 373.0870
1170.587, 377.0596
1171.069, 376.1142
1171.552, 377.6415
1172.034, 386.5600
1172.516, 392.3841
1172.998, 393.9986
1173.480, 391.5427
1173.962, 383.6143
1174.444, 373.3523
1174.926, 362.7639
1175.409, 353.4706
1175.891, 351.8730
1176.373, 358.5458
1176.855, 365.8025
1177.337, 373.7849
1177.819, 375.2180
1178.301, 369.0122
1178.783, 366.8657
1179.266, 374.4932
1179.748, 383.5479
1180.230, 385.1673
1180.712, 382.9084
1181.194, 382.6817
1181.676, 382.4758
1182.158, 378.0552
1182.640, 371.1974
1183.122, 364.2523
1183.604, 359.0588
1184.087, 360.7897
1184.569, 372.5106
1185.051, 381.9829
1185.533, 381.4442
1186.015, 380.4411
1186.497, 385.6229
1186.979, 388.9416
1187.461, 380.7700
1187.944, 369.9163
1188.426, 370.0628
1188.908, 379.2079
1189.390, 384.7961
1189.872, 386.2259
1190.354, 385.6706
1190.836, 381.8744
1191.318, 382.9113
1191.801, 391.8554
1192.283, 395.6491
1192.765, 386.0813
1193.247, 374.3160
1193.729, 375.1729
1194.211, 382.8169
1194.693, 382.5319
1195.175, 377.5833
1195.657, 375.9569
1196.140, 377.7586
1196.622, 383.0019
1197.104, 390.1254
1197.586, 392.6481
1198.068, 387.1592
1198.550, 382.7155
1199.032, 388.7283
1199.514, 392.5508
1199.996, 382.1806
1200.479, 371.7213
1200.961, 373.9929
1201.443, 382.3040
1201.925, 386.4207
1202.407, 386.3114
1202.889, 386.6842
1203.371, 387.6262
1203.853, 388.8584
1204.336, 390.5814
1204.818, 392.3823
1205.300, 394.9191
1205.782, 393.3418
1206.264, 384.2887
1206.746, 374.8843
1207.228, 373.7698
1207.710, 378.1900
1208.193, 382.5858
1208.675, 386.3636
1209.157, 387.9290
1209.639, 387.2532
1210.121, 383.2038
1210.603, 376.9509
1211.085, 373.9058
1211.567, 376.2828
1212.049, 377.7693
1212.531, 370.5521
1213.014, 366.7521
1213.496, 376.6089
1213.978, 387.8802
1214.460, 393.8113
1214.942, 394.9403
1215.424, 390.8553
1215.906, 383.0911
1216.388, 376.5211
1216.871, 370.7864
1217.353, 368.9359
1217.835, 372.0438
1218.317, 374.3817
1218.799, 375.0103
1219.281, 376.2954
1219.763, 379.3845
1220.245, 380.7069
1220.728, 376.0918
1221.210, 371.5406
1221.692, 383.1284
1222.174, 399.1198
1222.656, 390.0231
1223.138, 368.7826
1223.620, 363.2421
1224.102, 371.6395
1224.584, 378.6411
1225.067, 380.0408
1225.549, 379.2823
1226.031, 375.7362
##END=



