##NAMES=Pararobertsite
##RRUFFID=R120119
##IDEAL CHEMISTRY=Ca_2_Mn^3+^_3_O_2_(PO_4_)_3_&#183;3H_2_O
##LOCALITY=Tip Top mine, Custer, South Dakota, USA
##OWNER=RRUFF
##SOURCE=Thomas A. Loomis. Anthony R. Kampf provided a few crystals (Kampf 2000).
##DESCRIPTION=Spherical aggregate of brown platy crystals on colorless bobdownsite
##STATUS=The identification of this mineral has been confirmed only by single crystal X-ray diffraction.
##URL=rruff.info/R120119
9.001007e+001, 0.000000e+000
9.049219e+001, 4.876926e+001
9.097430e+001, 4.902480e+001
9.145642e+001, 4.899841e+001
9.193854e+001, 4.870458e+001
9.242065e+001, 4.826469e+001
9.290277e+001, 4.776957e+001
9.338489e+001, 4.720267e+001
9.386700e+001, 4.651714e+001
9.434912e+001, 4.556801e+001
9.483124e+001, 4.453339e+001
9.531335e+001, 4.379721e+001
9.579547e+001, 4.337159e+001
9.627759e+001, 4.314647e+001
9.675970e+001, 4.314993e+001
9.724182e+001, 4.334835e+001
9.772394e+001, 4.329048e+001
9.820605e+001, 4.248610e+001
9.868817e+001, 4.104238e+001
9.917029e+001, 4.038966e+001
9.965240e+001, 4.068956e+001
1.001345e+002, 4.153736e+001
1.006166e+002, 4.228798e+001
1.010988e+002, 4.301454e+001
1.015809e+002, 4.335144e+001
1.020630e+002, 4.303366e+001
1.025451e+002, 4.194315e+001
1.030272e+002, 4.072993e+001
1.035093e+002, 3.928467e+001
1.039915e+002, 3.775985e+001
1.044736e+002, 3.682084e+001
1.049557e+002, 3.683137e+001
1.054378e+002, 3.691225e+001
1.059199e+002, 3.637900e+001
1.064020e+002, 3.456786e+001
1.068842e+002, 3.338127e+001
1.073663e+002, 3.327226e+001
1.078484e+002, 3.426026e+001
1.083305e+002, 3.482963e+001
1.088126e+002, 3.466149e+001
1.092947e+002, 3.425053e+001
1.097769e+002, 3.405277e+001
1.102590e+002, 3.457738e+001
1.107411e+002, 3.479792e+001
1.112232e+002, 3.444023e+001
1.117053e+002, 3.334017e+001
1.121874e+002, 3.238298e+001
1.126696e+002, 3.157091e+001
1.131517e+002, 3.094889e+001
1.136338e+002, 3.057518e+001
1.141159e+002, 3.095276e+001
1.145980e+002, 3.117548e+001
1.150801e+002, 3.081342e+001
1.155623e+002, 2.945221e+001
1.160444e+002, 2.839961e+001
1.165265e+002, 2.826563e+001
1.170086e+002, 2.868523e+001
1.174907e+002, 2.890732e+001
1.179728e+002, 2.839298e+001
1.184550e+002, 2.776431e+001
1.189371e+002, 2.745625e+001
1.194192e+002, 2.785236e+001
1.199013e+002, 2.813073e+001
1.203834e+002, 2.769329e+001
1.208655e+002, 2.671743e+001
1.213477e+002, 2.589390e+001
1.218298e+002, 2.566477e+001
1.223119e+002, 2.577091e+001
1.227940e+002, 2.595958e+001
1.232761e+002, 2.634858e+001
1.237582e+002, 2.661769e+001
1.242404e+002, 2.636602e+001
1.247225e+002, 2.563528e+001
1.252046e+002, 2.493783e+001
1.256867e+002, 2.475268e+001
1.261688e+002, 2.487504e+001
1.266509e+002, 2.493611e+001
1.271331e+002, 2.479307e+001
1.276152e+002, 2.450625e+001
1.280973e+002, 2.417349e+001
1.285794e+002, 2.379901e+001
1.290615e+002, 2.332752e+001
1.295436e+002, 2.247033e+001
1.300258e+002, 2.137169e+001
1.305079e+002, 2.067761e+001
1.309900e+002, 2.099309e+001
1.314721e+002, 2.196509e+001
1.319542e+002, 2.250327e+001
1.324363e+002, 2.252953e+001
1.329185e+002, 2.225270e+001
1.334006e+002, 2.184785e+001
1.338827e+002, 2.131400e+001
1.343648e+002, 2.097569e+001
1.348469e+002, 2.117492e+001
1.353290e+002, 2.185435e+001
1.358112e+002, 2.216719e+001
1.362933e+002, 2.201281e+001
1.367754e+002, 2.150864e+001
1.372575e+002, 2.075092e+001
1.377396e+002, 1.960807e+001
1.382217e+002, 1.879855e+001
1.387039e+002, 1.898371e+001
1.391860e+002, 2.037513e+001
1.396681e+002, 2.124866e+001
1.401502e+002, 2.132285e+001
1.406323e+002, 2.075751e+001
1.411144e+002, 2.020021e+001
1.415966e+002, 1.958842e+001
1.420787e+002, 1.910240e+001
1.425608e+002, 1.897631e+001
1.430429e+002, 1.947809e+001
1.435250e+002, 1.955996e+001
1.440071e+002, 1.887866e+001
1.444893e+002, 1.748702e+001
1.449714e+002, 1.662284e+001
1.454535e+002, 1.658050e+001
1.459356e+002, 1.678587e+001
1.464177e+002, 1.665994e+001
1.468998e+002, 1.571199e+001
1.473820e+002, 1.521477e+001
1.478641e+002, 1.561840e+001
1.483462e+002, 1.714617e+001
1.488283e+002, 1.798249e+001
1.493104e+002, 1.770800e+001
1.497925e+002, 1.694417e+001
1.502747e+002, 1.640365e+001
1.507568e+002, 1.635041e+001
1.512389e+002, 1.626113e+001
1.517210e+002, 1.597991e+001
1.522031e+002, 1.538625e+001
1.526852e+002, 1.498901e+001
1.531674e+002, 1.481639e+001
1.536495e+002, 1.483697e+001
1.541316e+002, 1.500198e+001
1.546137e+002, 1.562372e+001
1.550958e+002, 1.611831e+001
1.555779e+002, 1.624113e+001
1.560601e+002, 1.572033e+001
1.565422e+002, 1.542574e+001
1.570243e+002, 1.565072e+001
1.575064e+002, 1.617777e+001
1.579885e+002, 1.658575e+001
1.584706e+002, 1.653920e+001
1.589528e+002, 1.653262e+001
1.594349e+002, 1.681597e+001
1.599170e+002, 1.759218e+001
1.603991e+002, 1.836709e+001
1.608812e+002, 1.901067e+001
1.613633e+002, 1.955158e+001
1.618455e+002, 2.006512e+001
1.623276e+002, 2.031541e+001
1.628097e+002, 2.070308e+001
1.632918e+002, 2.150860e+001
1.637739e+002, 2.300549e+001
1.642560e+002, 2.463367e+001
1.647382e+002, 2.611953e+001
1.652203e+002, 2.752434e+001
1.657024e+002, 2.908252e+001
1.661845e+002, 3.080015e+001
1.666666e+002, 3.277734e+001
1.671487e+002, 3.509599e+001
1.676309e+002, 3.805728e+001
1.681130e+002, 4.110948e+001
1.685951e+002, 4.391958e+001
1.690772e+002, 4.651569e+001
1.695593e+002, 4.898808e+001
1.700414e+002, 5.134266e+001
1.705236e+002, 5.362730e+001
1.710057e+002, 5.586381e+001
1.714878e+002, 5.796730e+001
1.719699e+002, 6.013125e+001
1.724520e+002, 6.251793e+001
1.729341e+002, 6.512428e+001
1.734163e+002, 6.779018e+001
1.738984e+002, 7.031411e+001
1.743805e+002, 7.285277e+001
1.748626e+002, 7.558430e+001
1.753447e+002, 7.914074e+001
1.758268e+002, 8.268031e+001
1.763090e+002, 8.505107e+001
1.767911e+002, 8.622234e+001
1.772732e+002, 8.730382e+001
1.777553e+002, 8.908235e+001
1.782374e+002, 9.108677e+001
1.787195e+002, 9.265857e+001
1.792017e+002, 9.294859e+001
1.796838e+002, 9.289008e+001
1.801659e+002, 9.402752e+001
1.806480e+002, 9.643007e+001
1.811301e+002, 9.915808e+001
1.816122e+002, 1.013167e+002
1.820944e+002, 1.030718e+002
1.825765e+002, 1.049104e+002
1.830586e+002, 1.070589e+002
1.835407e+002, 1.094342e+002
1.840228e+002, 1.121361e+002
1.845049e+002, 1.152309e+002
1.849871e+002, 1.181333e+002
1.854692e+002, 1.198197e+002
1.859513e+002, 1.205276e+002
1.864334e+002, 1.214371e+002
1.869155e+002, 1.233646e+002
1.873976e+002, 1.259619e+002
1.878798e+002, 1.280355e+002
1.883619e+002, 1.294540e+002
1.888440e+002, 1.306746e+002
1.893261e+002, 1.323376e+002
1.898082e+002, 1.344216e+002
1.902903e+002, 1.364706e+002
1.907725e+002, 1.380728e+002
1.912546e+002, 1.393853e+002
1.917367e+002, 1.412910e+002
1.922188e+002, 1.439749e+002
1.927009e+002, 1.468940e+002
1.931830e+002, 1.492260e+002
1.936652e+002, 1.509720e+002
1.941473e+002, 1.521691e+002
1.946294e+002, 1.528242e+002
1.951115e+002, 1.529421e+002
1.955936e+002, 1.524003e+002
1.960757e+002, 1.510109e+002
1.965579e+002, 1.492799e+002
1.970400e+002, 1.482356e+002
1.975221e+002, 1.479346e+002
1.980042e+002, 1.476936e+002
1.984863e+002, 1.469906e+002
1.989684e+002, 1.458179e+002
1.994506e+002, 1.451999e+002
1.999327e+002, 1.453499e+002
2.004148e+002, 1.459085e+002
2.008969e+002, 1.460615e+002
2.013790e+002, 1.457372e+002
2.018611e+002, 1.454106e+002
2.023433e+002, 1.453408e+002
2.028254e+002, 1.455374e+002
2.033075e+002, 1.459067e+002
2.037896e+002, 1.465255e+002
2.042717e+002, 1.472355e+002
2.047538e+002, 1.476761e+002
2.052360e+002, 1.478748e+002
2.057181e+002, 1.477057e+002
2.062002e+002, 1.469248e+002
2.066823e+002, 1.453758e+002
2.071644e+002, 1.442300e+002
2.076465e+002, 1.436351e+002
2.081287e+002, 1.434661e+002
2.086108e+002, 1.434194e+002
2.090929e+002, 1.435978e+002
2.095750e+002, 1.436126e+002
2.100571e+002, 1.431580e+002
2.105392e+002, 1.421089e+002
2.110214e+002, 1.411627e+002
2.115035e+002, 1.403313e+002
2.119856e+002, 1.396609e+002
2.124677e+002, 1.393672e+002
2.129498e+002, 1.396413e+002
2.134319e+002, 1.398718e+002
2.139140e+002, 1.395983e+002
2.143962e+002, 1.385844e+002
2.148783e+002, 1.379370e+002
2.153604e+002, 1.378373e+002
2.158425e+002, 1.381624e+002
2.163246e+002, 1.384711e+002
2.168067e+002, 1.388537e+002
2.172889e+002, 1.390520e+002
2.177710e+002, 1.388010e+002
2.182531e+002, 1.377915e+002
2.187352e+002, 1.372552e+002
2.192173e+002, 1.373854e+002
2.196994e+002, 1.380643e+002
2.201816e+002, 1.387548e+002
2.206637e+002, 1.395180e+002
2.211458e+002, 1.402006e+002
2.216279e+002, 1.406252e+002
2.221100e+002, 1.405418e+002
2.225921e+002, 1.409095e+002
2.230743e+002, 1.420568e+002
2.235564e+002, 1.437266e+002
2.240385e+002, 1.446958e+002
2.245206e+002, 1.445901e+002
2.250027e+002, 1.443527e+002
2.254848e+002, 1.445807e+002
2.259670e+002, 1.454972e+002
2.264491e+002, 1.463457e+002
2.269312e+002, 1.470786e+002
2.274133e+002, 1.477038e+002
2.278954e+002, 1.482680e+002
2.283775e+002, 1.486757e+002
2.288597e+002, 1.491475e+002
2.293418e+002, 1.498296e+002
2.298239e+002, 1.508272e+002
2.303060e+002, 1.517743e+002
2.307881e+002, 1.525747e+002
2.312702e+002, 1.532928e+002
2.317524e+002, 1.542054e+002
2.322345e+002, 1.553112e+002
2.327166e+002, 1.565848e+002
2.331987e+002, 1.580981e+002
2.336808e+002, 1.602912e+002
2.341629e+002, 1.616925e+002
2.346451e+002, 1.618647e+002
2.351272e+002, 1.611514e+002
2.356093e+002, 1.610874e+002
2.360914e+002, 1.619347e+002
2.365735e+002, 1.630687e+002
2.370556e+002, 1.641527e+002
2.375378e+002, 1.651308e+002
2.380199e+002, 1.661882e+002
2.385020e+002, 1.673510e+002
2.389841e+002, 1.686099e+002
2.394662e+002, 1.699384e+002
2.399483e+002, 1.716858e+002
2.404305e+002, 1.730406e+002
2.409126e+002, 1.733768e+002
2.413947e+002, 1.715679e+002
2.418768e+002, 1.713181e+002
2.423589e+002, 1.735233e+002
2.428410e+002, 1.773493e+002
2.433232e+002, 1.798462e+002
2.438053e+002, 1.804150e+002
2.442874e+002, 1.804549e+002
2.447695e+002, 1.806361e+002
2.452516e+002, 1.810303e+002
2.457337e+002, 1.813661e+002
2.462159e+002, 1.814359e+002
2.466980e+002, 1.814636e+002
2.471801e+002, 1.822573e+002
2.476622e+002, 1.843911e+002
2.481443e+002, 1.864281e+002
2.486264e+002, 1.876297e+002
2.491086e+002, 1.876208e+002
2.495907e+002, 1.876750e+002
2.500728e+002, 1.877322e+002
2.505549e+002, 1.878879e+002
2.510370e+002, 1.884523e+002
2.515191e+002, 1.897271e+002
2.520013e+002, 1.909414e+002
2.524834e+002, 1.917250e+002
2.529655e+002, 1.918182e+002
2.534476e+002, 1.921688e+002
2.539297e+002, 1.929176e+002
2.544118e+002, 1.938631e+002
2.548940e+002, 1.945465e+002
2.553761e+002, 1.948201e+002
2.558582e+002, 1.950946e+002
2.563403e+002, 1.955604e+002
2.568224e+002, 1.963134e+002
2.573046e+002, 1.969499e+002
2.577867e+002, 1.975539e+002
2.582688e+002, 1.979775e+002
2.587509e+002, 1.978725e+002
2.592330e+002, 1.970230e+002
2.597151e+002, 1.960850e+002
2.601973e+002, 1.953510e+002
2.606794e+002, 1.949631e+002
2.611615e+002, 1.941604e+002
2.616436e+002, 1.927639e+002
2.621257e+002, 1.911209e+002
2.626078e+002, 1.898159e+002
2.630900e+002, 1.889337e+002
2.635721e+002, 1.882274e+002
2.640542e+002, 1.876651e+002
2.645363e+002, 1.872765e+002
2.650184e+002, 1.867856e+002
2.655005e+002, 1.860897e+002
2.659827e+002, 1.854080e+002
2.664648e+002, 1.850736e+002
2.669469e+002, 1.851909e+002
2.674290e+002, 1.853660e+002
2.679111e+002, 1.855075e+002
2.683932e+002, 1.856174e+002
2.688754e+002, 1.855798e+002
2.693575e+002, 1.853002e+002
2.698396e+002, 1.850103e+002
2.703217e+002, 1.850187e+002
2.708038e+002, 1.853728e+002
2.712859e+002, 1.858271e+002
2.717681e+002, 1.863523e+002
2.722502e+002, 1.869383e+002
2.727323e+002, 1.873750e+002
2.732144e+002, 1.875923e+002
2.736965e+002, 1.877842e+002
2.741786e+002, 1.881801e+002
2.746608e+002, 1.888270e+002
2.751429e+002, 1.894456e+002
2.756250e+002, 1.899693e+002
2.761071e+002, 1.904061e+002
2.765892e+002, 1.908963e+002
2.770714e+002, 1.915223e+002
2.775535e+002, 1.919440e+002
2.780356e+002, 1.916806e+002
2.785177e+002, 1.906375e+002
2.789998e+002, 1.898869e+002
2.794819e+002, 1.896887e+002
2.799641e+002, 1.899368e+002
2.804462e+002, 1.902368e+002
2.809283e+002, 1.906154e+002
2.814104e+002, 1.909290e+002
2.818925e+002, 1.909322e+002
2.823746e+002, 1.906158e+002
2.828568e+002, 1.907057e+002
2.833389e+002, 1.914114e+002
2.838210e+002, 1.925322e+002
2.843031e+002, 1.934752e+002
2.847852e+002, 1.942153e+002
2.852673e+002, 1.950667e+002
2.857495e+002, 1.962732e+002
2.862316e+002, 1.978220e+002
2.867137e+002, 1.995706e+002
2.871958e+002, 2.016134e+002
2.876779e+002, 2.036884e+002
2.881600e+002, 2.051388e+002
2.886422e+002, 2.059540e+002
2.891243e+002, 2.068017e+002
2.896064e+002, 2.080948e+002
2.900885e+002, 2.097719e+002
2.905706e+002, 2.114534e+002
2.910527e+002, 2.130606e+002
2.915349e+002, 2.147567e+002
2.920170e+002, 2.168295e+002
2.924991e+002, 2.192415e+002
2.929812e+002, 2.218276e+002
2.934633e+002, 2.245860e+002
2.939454e+002, 2.274376e+002
2.944276e+002, 2.300831e+002
2.949097e+002, 2.324592e+002
2.953918e+002, 2.347299e+002
2.958739e+002, 2.370700e+002
2.963560e+002, 2.394552e+002
2.968381e+002, 2.418797e+002
2.973203e+002, 2.443139e+002
2.978024e+002, 2.467615e+002
2.982845e+002, 2.493472e+002
2.987666e+002, 2.521134e+002
2.992487e+002, 2.547104e+002
2.997308e+002, 2.567499e+002
3.002130e+002, 2.583617e+002
3.006951e+002, 2.598855e+002
3.011772e+002, 2.614574e+002
3.016593e+002, 2.630157e+002
3.021414e+002, 2.644828e+002
3.026235e+002, 2.658466e+002
3.031057e+002, 2.671813e+002
3.035878e+002, 2.687017e+002
3.040699e+002, 2.702128e+002
3.045520e+002, 2.713016e+002
3.050341e+002, 2.715719e+002
3.055162e+002, 2.716082e+002
3.059984e+002, 2.719478e+002
3.064805e+002, 2.725798e+002
3.069626e+002, 2.734505e+002
3.074447e+002, 2.751209e+002
3.079268e+002, 2.768205e+002
3.084089e+002, 2.773979e+002
3.088911e+002, 2.759064e+002
3.093732e+002, 2.742305e+002
3.098553e+002, 2.740284e+002
3.103374e+002, 2.749478e+002
3.108195e+002, 2.757976e+002
3.113016e+002, 2.758369e+002
3.117838e+002, 2.755308e+002
3.122659e+002, 2.753096e+002
3.127480e+002, 2.753302e+002
3.132301e+002, 2.752590e+002
3.137122e+002, 2.749972e+002
3.141943e+002, 2.744989e+002
3.146765e+002, 2.736722e+002
3.151586e+002, 2.721400e+002
3.156407e+002, 2.705081e+002
3.161228e+002, 2.692104e+002
3.166049e+002, 2.684241e+002
3.170870e+002, 2.674754e+002
3.175692e+002, 2.660149e+002
3.180513e+002, 2.642336e+002
3.185334e+002, 2.624048e+002
3.190155e+002, 2.604245e+002
3.194976e+002, 2.585803e+002
3.199797e+002, 2.571186e+002
3.204619e+002, 2.560978e+002
3.209440e+002, 2.548858e+002
3.214261e+002, 2.530091e+002
3.219082e+002, 2.509849e+002
3.223903e+002, 2.493111e+002
3.228724e+002, 2.485644e+002
3.233546e+002, 2.476977e+002
3.238367e+002, 2.463365e+002
3.243188e+002, 2.444978e+002
3.248009e+002, 2.428253e+002
3.252830e+002, 2.415922e+002
3.257651e+002, 2.404717e+002
3.262473e+002, 2.392578e+002
3.267294e+002, 2.376126e+002
3.272115e+002, 2.362512e+002
3.276936e+002, 2.355963e+002
3.281757e+002, 2.354209e+002
3.286578e+002, 2.345420e+002
3.291400e+002, 2.320500e+002
3.296221e+002, 2.296119e+002
3.301042e+002, 2.279254e+002
3.305863e+002, 2.274440e+002
3.310684e+002, 2.269832e+002
3.315505e+002, 2.267637e+002
3.320327e+002, 2.265229e+002
3.325148e+002, 2.256441e+002
3.329969e+002, 2.236669e+002
3.334790e+002, 2.216442e+002
3.339611e+002, 2.199111e+002
3.344432e+002, 2.185523e+002
3.349254e+002, 2.171058e+002
3.354075e+002, 2.155573e+002
3.358896e+002, 2.139386e+002
3.363717e+002, 2.123483e+002
3.368538e+002, 2.109604e+002
3.373359e+002, 2.091886e+002
3.378180e+002, 2.067499e+002
3.383001e+002, 2.036723e+002
3.387823e+002, 2.009724e+002
3.392644e+002, 1.987645e+002
3.397465e+002, 1.967747e+002
3.402286e+002, 1.948536e+002
3.407107e+002, 1.931028e+002
3.411928e+002, 1.908689e+002
3.416750e+002, 1.878433e+002
3.421571e+002, 1.843295e+002
3.426392e+002, 1.817873e+002
3.431213e+002, 1.803396e+002
3.436034e+002, 1.791004e+002
3.440855e+002, 1.772841e+002
3.445677e+002, 1.749449e+002
3.450498e+002, 1.731460e+002
3.455319e+002, 1.722179e+002
3.460140e+002, 1.715717e+002
3.464961e+002, 1.698280e+002
3.469782e+002, 1.670481e+002
3.474604e+002, 1.645977e+002
3.479425e+002, 1.633696e+002
3.484246e+002, 1.631246e+002
3.489067e+002, 1.631815e+002
3.493888e+002, 1.635839e+002
3.498709e+002, 1.638930e+002
3.503531e+002, 1.633307e+002
3.508352e+002, 1.621499e+002
3.513173e+002, 1.612928e+002
3.517994e+002, 1.614059e+002
3.522815e+002, 1.620083e+002
3.527636e+002, 1.622225e+002
3.532458e+002, 1.620470e+002
3.537279e+002, 1.619933e+002
3.542100e+002, 1.627407e+002
3.546921e+002, 1.638667e+002
3.551742e+002, 1.646096e+002
3.556563e+002, 1.644251e+002
3.561385e+002, 1.641006e+002
3.566206e+002, 1.643795e+002
3.571027e+002, 1.651880e+002
3.575848e+002, 1.661460e+002
3.580669e+002, 1.673198e+002
3.585490e+002, 1.683972e+002
3.590312e+002, 1.690192e+002
3.595133e+002, 1.689293e+002
3.599954e+002, 1.688263e+002
3.604775e+002, 1.691515e+002
3.609596e+002, 1.697622e+002
3.614417e+002, 1.703471e+002
3.619239e+002, 1.708263e+002
3.624060e+002, 1.712192e+002
3.628881e+002, 1.715336e+002
3.633702e+002, 1.717691e+002
3.638523e+002, 1.719388e+002
3.643344e+002, 1.720103e+002
3.648166e+002, 1.720314e+002
3.652987e+002, 1.720571e+002
3.657808e+002, 1.721633e+002
3.662629e+002, 1.722120e+002
3.667450e+002, 1.723223e+002
3.672271e+002, 1.724861e+002
3.677093e+002, 1.720704e+002
3.681914e+002, 1.703164e+002
3.686735e+002, 1.683881e+002
3.691556e+002, 1.670355e+002
3.696377e+002, 1.670657e+002
3.701198e+002, 1.667269e+002
3.706020e+002, 1.658018e+002
3.710841e+002, 1.644375e+002
3.715662e+002, 1.631499e+002
3.720483e+002, 1.618854e+002
3.725304e+002, 1.607777e+002
3.730125e+002, 1.599024e+002
3.734947e+002, 1.593523e+002
3.739768e+002, 1.587944e+002
3.744589e+002, 1.582608e+002
3.749410e+002, 1.576871e+002
3.754231e+002, 1.569000e+002
3.759052e+002, 1.556968e+002
3.763874e+002, 1.548529e+002
3.768695e+002, 1.547246e+002
3.773516e+002, 1.552911e+002
3.778337e+002, 1.555583e+002
3.783158e+002, 1.554668e+002
3.787979e+002, 1.552659e+002
3.792801e+002, 1.551626e+002
3.797622e+002, 1.551554e+002
3.802443e+002, 1.553028e+002
3.807264e+002, 1.556547e+002
3.812085e+002, 1.561382e+002
3.816906e+002, 1.565388e+002
3.821728e+002, 1.568502e+002
3.826549e+002, 1.572246e+002
3.831370e+002, 1.577277e+002
3.836191e+002, 1.583686e+002
3.841012e+002, 1.592214e+002
3.845833e+002, 1.603547e+002
3.850655e+002, 1.615101e+002
3.855476e+002, 1.621915e+002
3.860297e+002, 1.625582e+002
3.865118e+002, 1.631592e+002
3.869939e+002, 1.647666e+002
3.874760e+002, 1.665693e+002
3.879582e+002, 1.671352e+002
3.884403e+002, 1.664316e+002
3.889224e+002, 1.658291e+002
3.894045e+002, 1.666711e+002
3.898866e+002, 1.682532e+002
3.903687e+002, 1.695907e+002
3.908509e+002, 1.702518e+002
3.913330e+002, 1.706718e+002
3.918151e+002, 1.711418e+002
3.922972e+002, 1.716328e+002
3.927793e+002, 1.720330e+002
3.932614e+002, 1.723479e+002
3.937436e+002, 1.725116e+002
3.942257e+002, 1.723516e+002
3.947078e+002, 1.714612e+002
3.951899e+002, 1.711818e+002
3.956720e+002, 1.725164e+002
3.961541e+002, 1.746684e+002
3.966363e+002, 1.763576e+002
3.971184e+002, 1.770655e+002
3.976005e+002, 1.774535e+002
3.980826e+002, 1.776440e+002
3.985647e+002, 1.776073e+002
3.990468e+002, 1.777101e+002
3.995290e+002, 1.781005e+002
4.000111e+002, 1.785810e+002
4.004932e+002, 1.789888e+002
4.009753e+002, 1.791201e+002
4.014574e+002, 1.794710e+002
4.019395e+002, 1.803316e+002
4.024217e+002, 1.814991e+002
4.029038e+002, 1.819537e+002
4.033859e+002, 1.813517e+002
4.038680e+002, 1.805429e+002
4.043501e+002, 1.798956e+002
4.048322e+002, 1.794113e+002
4.053144e+002, 1.791630e+002
4.057965e+002, 1.793294e+002
4.062786e+002, 1.795232e+002
4.067607e+002, 1.790957e+002
4.072428e+002, 1.779725e+002
4.077249e+002, 1.765961e+002
4.082071e+002, 1.749228e+002
4.086892e+002, 1.730827e+002
4.091713e+002, 1.722051e+002
4.096534e+002, 1.724670e+002
4.101355e+002, 1.726321e+002
4.106176e+002, 1.712399e+002
4.110998e+002, 1.685982e+002
4.115819e+002, 1.666081e+002
4.120640e+002, 1.658176e+002
4.125461e+002, 1.655311e+002
4.130282e+002, 1.646744e+002
4.135103e+002, 1.632994e+002
4.139925e+002, 1.617094e+002
4.144746e+002, 1.600033e+002
4.149567e+002, 1.582015e+002
4.154388e+002, 1.563476e+002
4.159209e+002, 1.544232e+002
4.164030e+002, 1.524978e+002
4.168852e+002, 1.505917e+002
4.173673e+002, 1.487098e+002
4.178494e+002, 1.468545e+002
4.183315e+002, 1.448267e+002
4.188136e+002, 1.429770e+002
4.192957e+002, 1.415637e+002
4.197779e+002, 1.405543e+002
4.202600e+002, 1.396346e+002
4.207421e+002, 1.389250e+002
4.212242e+002, 1.380991e+002
4.217063e+002, 1.368954e+002
4.221884e+002, 1.349500e+002
4.226706e+002, 1.331968e+002
4.231527e+002, 1.318554e+002
4.236348e+002, 1.308482e+002
4.241169e+002, 1.300184e+002
4.245990e+002, 1.295107e+002
4.250811e+002, 1.290029e+002
4.255633e+002, 1.283664e+002
4.260454e+002, 1.275615e+002
4.265275e+002, 1.268823e+002
4.270096e+002, 1.263005e+002
4.274917e+002, 1.258556e+002
4.279738e+002, 1.256267e+002
4.284560e+002, 1.258831e+002
4.289381e+002, 1.257542e+002
4.294202e+002, 1.249367e+002
4.299023e+002, 1.237133e+002
4.303844e+002, 1.230885e+002
4.308665e+002, 1.232714e+002
4.313487e+002, 1.234700e+002
4.318308e+002, 1.232196e+002
4.323129e+002, 1.224887e+002
4.327950e+002, 1.219949e+002
4.332771e+002, 1.217643e+002
4.337592e+002, 1.217301e+002
4.342414e+002, 1.218460e+002
4.347235e+002, 1.221033e+002
4.352056e+002, 1.223902e+002
4.356877e+002, 1.226825e+002
4.361698e+002, 1.229758e+002
4.366519e+002, 1.232754e+002
4.371341e+002, 1.235801e+002
4.376162e+002, 1.238546e+002
4.380983e+002, 1.241152e+002
4.385804e+002, 1.243224e+002
4.390625e+002, 1.243859e+002
4.395446e+002, 1.242604e+002
4.400268e+002, 1.240957e+002
4.405089e+002, 1.238621e+002
4.409910e+002, 1.236923e+002
4.414731e+002, 1.238580e+002
4.419552e+002, 1.250213e+002
4.424373e+002, 1.261320e+002
4.429195e+002, 1.263600e+002
4.434016e+002, 1.257076e+002
4.438837e+002, 1.252222e+002
4.443658e+002, 1.250991e+002
4.448479e+002, 1.254482e+002
4.453300e+002, 1.263869e+002
4.458122e+002, 1.289077e+002
4.462943e+002, 1.307515e+002
4.467764e+002, 1.313264e+002
4.472585e+002, 1.309537e+002
4.477406e+002, 1.304536e+002
4.482227e+002, 1.293763e+002
4.487049e+002, 1.286854e+002
4.491870e+002, 1.287462e+002
4.496691e+002, 1.297042e+002
4.501512e+002, 1.305674e+002
4.506333e+002, 1.314327e+002
4.511154e+002, 1.320921e+002
4.515976e+002, 1.322322e+002
4.520797e+002, 1.315785e+002
4.525618e+002, 1.313461e+002
4.530439e+002, 1.318191e+002
4.535260e+002, 1.327845e+002
4.540081e+002, 1.336826e+002
4.544903e+002, 1.345381e+002
4.549724e+002, 1.351850e+002
4.554545e+002, 1.353731e+002
4.559366e+002, 1.352007e+002
4.564187e+002, 1.354564e+002
4.569008e+002, 1.362179e+002
4.573830e+002, 1.370950e+002
4.578651e+002, 1.376400e+002
4.583472e+002, 1.379165e+002
4.588293e+002, 1.380980e+002
4.593114e+002, 1.382026e+002
4.597935e+002, 1.382791e+002
4.602757e+002, 1.384345e+002
4.607578e+002, 1.386365e+002
4.612399e+002, 1.387330e+002
4.617220e+002, 1.385731e+002
4.622041e+002, 1.382943e+002
4.626862e+002, 1.381070e+002
4.631684e+002, 1.381402e+002
4.636505e+002, 1.378280e+002
4.641326e+002, 1.365386e+002
4.646147e+002, 1.348432e+002
4.650968e+002, 1.334579e+002
4.655789e+002, 1.331589e+002
4.660611e+002, 1.326695e+002
4.665432e+002, 1.314028e+002
4.670253e+002, 1.294533e+002
4.675074e+002, 1.278897e+002
4.679895e+002, 1.271331e+002
4.684716e+002, 1.265504e+002
4.689538e+002, 1.258379e+002
4.694359e+002, 1.248479e+002
4.699180e+002, 1.240653e+002
4.704001e+002, 1.234939e+002
4.708822e+002, 1.231173e+002
4.713643e+002, 1.229580e+002
4.718465e+002, 1.231356e+002
4.723286e+002, 1.231464e+002
4.728107e+002, 1.226979e+002
4.732928e+002, 1.219606e+002
4.737749e+002, 1.220900e+002
4.742570e+002, 1.232580e+002
4.747392e+002, 1.243826e+002
4.752213e+002, 1.245802e+002
4.757034e+002, 1.239734e+002
4.761855e+002, 1.233405e+002
4.766676e+002, 1.227150e+002
4.771497e+002, 1.222410e+002
4.776319e+002, 1.221402e+002
4.781140e+002, 1.223613e+002
4.785961e+002, 1.227439e+002
4.790782e+002, 1.234549e+002
4.795603e+002, 1.241465e+002
4.800424e+002, 1.243688e+002
4.805246e+002, 1.241617e+002
4.810067e+002, 1.238503e+002
4.814888e+002, 1.234171e+002
4.819709e+002, 1.230921e+002
4.824530e+002, 1.231634e+002
4.829352e+002, 1.239405e+002
4.834173e+002, 1.244721e+002
4.838994e+002, 1.241532e+002
4.843815e+002, 1.234002e+002
4.848636e+002, 1.228515e+002
4.853457e+002, 1.230806e+002
4.858279e+002, 1.230895e+002
4.863100e+002, 1.224803e+002
4.867921e+002, 1.212456e+002
4.872742e+002, 1.202726e+002
4.877563e+002, 1.194406e+002
4.882384e+002, 1.189859e+002
4.887206e+002, 1.191418e+002
4.892027e+002, 1.203224e+002
4.896848e+002, 1.209599e+002
4.901669e+002, 1.208393e+002
4.906490e+002, 1.203862e+002
4.911311e+002, 1.202802e+002
4.916133e+002, 1.205672e+002
4.920954e+002, 1.208817e+002
4.925775e+002, 1.210621e+002
4.930596e+002, 1.211974e+002
4.935417e+002, 1.217342e+002
4.940238e+002, 1.226770e+002
4.945060e+002, 1.235156e+002
4.949881e+002, 1.238302e+002
4.954702e+002, 1.237455e+002
4.959523e+002, 1.235020e+002
4.964344e+002, 1.230662e+002
4.969165e+002, 1.227684e+002
4.973987e+002, 1.232997e+002
4.978808e+002, 1.241733e+002
4.983629e+002, 1.244600e+002
4.988450e+002, 1.231126e+002
4.993271e+002, 1.216143e+002
4.998092e+002, 1.210286e+002
5.002914e+002, 1.211984e+002
5.007735e+002, 1.212724e+002
5.012556e+002, 1.207715e+002
5.017377e+002, 1.201828e+002
5.022198e+002, 1.198502e+002
5.027019e+002, 1.200474e+002
5.031841e+002, 1.198826e+002
5.036662e+002, 1.189594e+002
5.041483e+002, 1.177360e+002
5.046304e+002, 1.167528e+002
5.051125e+002, 1.161617e+002
5.055946e+002, 1.155732e+002
5.060768e+002, 1.148426e+002
5.065589e+002, 1.140568e+002
5.070410e+002, 1.137440e+002
5.075231e+002, 1.141419e+002
5.080052e+002, 1.143434e+002
5.084873e+002, 1.136153e+002
5.089695e+002, 1.119524e+002
5.094516e+002, 1.112500e+002
5.099337e+002, 1.116838e+002
5.104158e+002, 1.123860e+002
5.108979e+002, 1.122976e+002
5.113800e+002, 1.115870e+002
5.118622e+002, 1.110368e+002
5.123443e+002, 1.109513e+002
5.128264e+002, 1.109779e+002
5.133085e+002, 1.104324e+002
5.137906e+002, 1.095329e+002
5.142728e+002, 1.090609e+002
5.147549e+002, 1.100373e+002
5.152370e+002, 1.112551e+002
5.157191e+002, 1.115784e+002
5.162012e+002, 1.108800e+002
5.166833e+002, 1.101889e+002
5.171655e+002, 1.099107e+002
5.176476e+002, 1.098867e+002
5.181297e+002, 1.099865e+002
5.186118e+002, 1.104618e+002
5.190939e+002, 1.107132e+002
5.195760e+002, 1.103921e+002
5.200582e+002, 1.097979e+002
5.205403e+002, 1.096540e+002
5.210224e+002, 1.104120e+002
5.215045e+002, 1.109840e+002
5.219866e+002, 1.109855e+002
5.224688e+002, 1.104166e+002
5.229509e+002, 1.101593e+002
5.234330e+002, 1.102516e+002
5.239151e+002, 1.105562e+002
5.243972e+002, 1.110707e+002
5.248793e+002, 1.118010e+002
5.253615e+002, 1.122759e+002
5.258436e+002, 1.124419e+002
5.263257e+002, 1.123819e+002
5.268078e+002, 1.120572e+002
5.272899e+002, 1.115557e+002
5.277720e+002, 1.113214e+002
5.282542e+002, 1.117346e+002
5.287363e+002, 1.123489e+002
5.292184e+002, 1.125748e+002
5.297005e+002, 1.124558e+002
5.301826e+002, 1.122412e+002
5.306647e+002, 1.118910e+002
5.311469e+002, 1.116303e+002
5.316290e+002, 1.116975e+002
5.321111e+002, 1.121922e+002
5.325932e+002, 1.126907e+002
5.330753e+002, 1.131357e+002
5.335574e+002, 1.134567e+002
5.340396e+002, 1.135732e+002
5.345217e+002, 1.134552e+002
5.350038e+002, 1.131520e+002
5.354859e+002, 1.123036e+002
5.359680e+002, 1.112514e+002
5.364501e+002, 1.111372e+002
5.369323e+002, 1.124846e+002
5.374144e+002, 1.138920e+002
5.378965e+002, 1.149387e+002
5.383786e+002, 1.156267e+002
5.388607e+002, 1.156793e+002
5.393428e+002, 1.149063e+002
5.398250e+002, 1.140786e+002
5.403071e+002, 1.139841e+002
5.407892e+002, 1.145459e+002
5.412713e+002, 1.150377e+002
5.417534e+002, 1.153353e+002
5.422355e+002, 1.155658e+002
5.427177e+002, 1.159727e+002
5.431998e+002, 1.164760e+002
5.436819e+002, 1.168093e+002
5.441640e+002, 1.167012e+002
5.446461e+002, 1.164699e+002
5.451282e+002, 1.164400e+002
5.456104e+002, 1.165746e+002
5.460925e+002, 1.166382e+002
5.465746e+002, 1.163510e+002
5.470567e+002, 1.160628e+002
5.475388e+002, 1.160907e+002
5.480209e+002, 1.166732e+002
5.485031e+002, 1.169017e+002
5.489852e+002, 1.162704e+002
5.494673e+002, 1.153455e+002
5.499494e+002, 1.147377e+002
5.504315e+002, 1.148293e+002
5.509136e+002, 1.146453e+002
5.513958e+002, 1.139665e+002
5.518779e+002, 1.129733e+002
5.523600e+002, 1.121695e+002
5.528421e+002, 1.115104e+002
5.533242e+002, 1.111927e+002
5.538063e+002, 1.115380e+002
5.542885e+002, 1.123857e+002
5.547706e+002, 1.123155e+002
5.552527e+002, 1.112555e+002
5.557348e+002, 1.100443e+002
5.562169e+002, 1.093898e+002
5.566990e+002, 1.091550e+002
5.571812e+002, 1.089748e+002
5.576633e+002, 1.087906e+002
5.581454e+002, 1.086625e+002
5.586275e+002, 1.087021e+002
5.591096e+002, 1.088314e+002
5.595917e+002, 1.089129e+002
5.600739e+002, 1.089065e+002
5.605560e+002, 1.088248e+002
5.610381e+002, 1.085411e+002
5.615202e+002, 1.081465e+002
5.620023e+002, 1.080247e+002
5.624844e+002, 1.086666e+002
5.629666e+002, 1.092627e+002
5.634487e+002, 1.093442e+002
5.639308e+002, 1.087110e+002
5.644129e+002, 1.085666e+002
5.648950e+002, 1.092534e+002
5.653771e+002, 1.100529e+002
5.658593e+002, 1.102639e+002
5.663414e+002, 1.096187e+002
5.668235e+002, 1.095957e+002
5.673056e+002, 1.105070e+002
5.677877e+002, 1.118424e+002
5.682698e+002, 1.126979e+002
5.687520e+002, 1.131008e+002
5.692341e+002, 1.133738e+002
5.697162e+002, 1.135445e+002
5.701983e+002, 1.137322e+002
5.706804e+002, 1.141685e+002
5.711625e+002, 1.148379e+002
5.716447e+002, 1.156312e+002
5.721268e+002, 1.166332e+002
5.726089e+002, 1.176384e+002
5.730910e+002, 1.183674e+002
5.735731e+002, 1.187489e+002
5.740552e+002, 1.192441e+002
5.745374e+002, 1.201322e+002
5.750195e+002, 1.212058e+002
5.755016e+002, 1.222728e+002
5.759837e+002, 1.234049e+002
5.764658e+002, 1.243860e+002
5.769479e+002, 1.251623e+002
5.774301e+002, 1.257871e+002
5.779122e+002, 1.263073e+002
5.783943e+002, 1.264354e+002
5.788764e+002, 1.270573e+002
5.793585e+002, 1.285482e+002
5.798406e+002, 1.307649e+002
5.803228e+002, 1.328031e+002
5.808049e+002, 1.346951e+002
5.812870e+002, 1.361892e+002
5.817691e+002, 1.367909e+002
5.822512e+002, 1.368093e+002
5.827333e+002, 1.376304e+002
5.832155e+002, 1.394063e+002
5.836975e+002, 1.413132e+002
5.841796e+002, 1.425033e+002
5.846617e+002, 1.433500e+002
5.851439e+002, 1.445278e+002
5.856260e+002, 1.464888e+002
5.861081e+002, 1.483396e+002
5.865902e+002, 1.493516e+002
5.870723e+002, 1.498911e+002
5.875544e+002, 1.506439e+002
5.880366e+002, 1.518229e+002
5.885187e+002, 1.532469e+002
5.890008e+002, 1.550958e+002
5.894829e+002, 1.573080e+002
5.899650e+002, 1.588976e+002
5.904471e+002, 1.596711e+002
5.909293e+002, 1.600590e+002
5.914114e+002, 1.601543e+002
5.918935e+002, 1.598695e+002
5.923756e+002, 1.599189e+002
5.928577e+002, 1.603479e+002
5.933398e+002, 1.609895e+002
5.938220e+002, 1.618792e+002
5.943041e+002, 1.629310e+002
5.947862e+002, 1.633430e+002
5.952683e+002, 1.627663e+002
5.957504e+002, 1.620538e+002
5.962325e+002, 1.624841e+002
5.967147e+002, 1.636817e+002
5.971968e+002, 1.646572e+002
5.976789e+002, 1.647404e+002
5.981610e+002, 1.646517e+002
5.986431e+002, 1.648070e+002
5.991252e+002, 1.652128e+002
5.996074e+002, 1.658690e+002
6.000895e+002, 1.668044e+002
6.005716e+002, 1.679672e+002
6.010537e+002, 1.694409e+002
6.015358e+002, 1.713515e+002
6.020179e+002, 1.728779e+002
6.025001e+002, 1.736480e+002
6.029822e+002, 1.743979e+002
6.034643e+002, 1.757977e+002
6.039464e+002, 1.782070e+002
6.044285e+002, 1.797856e+002
6.049106e+002, 1.801685e+002
6.053928e+002, 1.801828e+002
6.058749e+002, 1.810895e+002
6.063570e+002, 1.828495e+002
6.068391e+002, 1.848873e+002
6.073212e+002, 1.871089e+002
6.078033e+002, 1.894049e+002
6.082855e+002, 1.917312e+002
6.087676e+002, 1.940213e+002
6.092497e+002, 1.961210e+002
6.097318e+002, 1.978118e+002
6.102139e+002, 1.993475e+002
6.106960e+002, 2.007420e+002
6.111782e+002, 2.020220e+002
6.116603e+002, 2.037352e+002
6.121424e+002, 2.068241e+002
6.126245e+002, 2.098807e+002
6.131066e+002, 2.119449e+002
6.135887e+002, 2.123022e+002
6.140709e+002, 2.132515e+002
6.145530e+002, 2.153076e+002
6.150351e+002, 2.175104e+002
6.155172e+002, 2.187204e+002
6.159993e+002, 2.185964e+002
6.164814e+002, 2.191347e+002
6.169636e+002, 2.207601e+002
6.174457e+002, 2.229641e+002
6.179278e+002, 2.248391e+002
6.184099e+002, 2.264107e+002
6.188920e+002, 2.279550e+002
6.193741e+002, 2.296740e+002
6.198563e+002, 2.313841e+002
6.203384e+002, 2.327821e+002
6.208205e+002, 2.338952e+002
6.213026e+002, 2.348698e+002
6.217847e+002, 2.359339e+002
6.222668e+002, 2.367911e+002
6.227490e+002, 2.371391e+002
6.232311e+002, 2.369210e+002
6.237132e+002, 2.366348e+002
6.241953e+002, 2.365681e+002
6.246774e+002, 2.363767e+002
6.251595e+002, 2.358095e+002
6.256417e+002, 2.346514e+002
6.261238e+002, 2.336061e+002
6.266059e+002, 2.329680e+002
6.270880e+002, 2.321466e+002
6.275701e+002, 2.301863e+002
6.280522e+002, 2.269500e+002
6.285344e+002, 2.239290e+002
6.290165e+002, 2.214809e+002
6.294986e+002, 2.193450e+002
6.299807e+002, 2.170322e+002
6.304628e+002, 2.145641e+002
6.309449e+002, 2.121360e+002
6.314271e+002, 2.098279e+002
6.319092e+002, 2.075868e+002
6.323913e+002, 2.053017e+002
6.328734e+002, 2.029921e+002
6.333555e+002, 2.008686e+002
6.338376e+002, 1.990702e+002
6.343198e+002, 1.974343e+002
6.348019e+002, 1.958901e+002
6.352840e+002, 1.944632e+002
6.357661e+002, 1.929213e+002
6.362482e+002, 1.911869e+002
6.367303e+002, 1.893636e+002
6.372125e+002, 1.874505e+002
6.376946e+002, 1.852127e+002
6.381767e+002, 1.836061e+002
6.386588e+002, 1.828035e+002
6.391409e+002, 1.824070e+002
6.396230e+002, 1.820361e+002
6.401052e+002, 1.816651e+002
6.405873e+002, 1.808341e+002
6.410694e+002, 1.793057e+002
6.415515e+002, 1.774891e+002
6.420336e+002, 1.758388e+002
6.425157e+002, 1.744122e+002
6.429979e+002, 1.733514e+002
6.434800e+002, 1.731683e+002
6.439621e+002, 1.730227e+002
6.444442e+002, 1.722325e+002
6.449263e+002, 1.709044e+002
6.454084e+002, 1.697301e+002
6.458906e+002, 1.687927e+002
6.463727e+002, 1.681915e+002
6.468548e+002, 1.681866e+002
6.473369e+002, 1.689483e+002
6.478190e+002, 1.688940e+002
6.483011e+002, 1.676047e+002
6.487833e+002, 1.661285e+002
6.492654e+002, 1.652292e+002
6.497475e+002, 1.649283e+002
6.502296e+002, 1.649453e+002
6.507117e+002, 1.653694e+002
6.511938e+002, 1.656984e+002
6.516760e+002, 1.649962e+002
6.521581e+002, 1.636508e+002
6.526402e+002, 1.629329e+002
6.531223e+002, 1.633627e+002
6.536044e+002, 1.641150e+002
6.540865e+002, 1.646391e+002
6.545687e+002, 1.649295e+002
6.550508e+002, 1.649836e+002
6.555329e+002, 1.642194e+002
6.560150e+002, 1.638171e+002
6.564971e+002, 1.645388e+002
6.569792e+002, 1.661107e+002
6.574614e+002, 1.670679e+002
6.579435e+002, 1.669836e+002
6.584256e+002, 1.667974e+002
6.589077e+002, 1.667712e+002
6.593898e+002, 1.669033e+002
6.598719e+002, 1.671678e+002
6.603541e+002, 1.675740e+002
6.608362e+002, 1.680655e+002
6.613183e+002, 1.686771e+002
6.618004e+002, 1.693508e+002
6.622825e+002, 1.699197e+002
6.627646e+002, 1.703798e+002
6.632468e+002, 1.706462e+002
6.637289e+002, 1.705840e+002
6.642110e+002, 1.703079e+002
6.646931e+002, 1.700093e+002
6.651752e+002, 1.698534e+002
6.656573e+002, 1.693477e+002
6.661395e+002, 1.679654e+002
6.666216e+002, 1.662314e+002
6.671037e+002, 1.647909e+002
6.675858e+002, 1.639640e+002
6.680679e+002, 1.631826e+002
6.685500e+002, 1.627075e+002
6.690322e+002, 1.621217e+002
6.695143e+002, 1.603949e+002
6.699964e+002, 1.572796e+002
6.704785e+002, 1.541823e+002
6.709606e+002, 1.514887e+002
6.714427e+002, 1.491210e+002
6.719249e+002, 1.469096e+002
6.724070e+002, 1.448528e+002
6.728891e+002, 1.430182e+002
6.733712e+002, 1.418105e+002
6.738533e+002, 1.406449e+002
6.743354e+002, 1.386691e+002
6.748176e+002, 1.359567e+002
6.752997e+002, 1.335249e+002
6.757818e+002, 1.320783e+002
6.762639e+002, 1.309537e+002
6.767460e+002, 1.298230e+002
6.772281e+002, 1.287621e+002
6.777103e+002, 1.272893e+002
6.781924e+002, 1.249187e+002
6.786745e+002, 1.226179e+002
6.791566e+002, 1.211314e+002
6.796387e+002, 1.206381e+002
6.801208e+002, 1.201017e+002
6.806030e+002, 1.194608e+002
6.810851e+002, 1.187745e+002
6.815672e+002, 1.182060e+002
6.820493e+002, 1.176699e+002
6.825314e+002, 1.167218e+002
6.830135e+002, 1.151313e+002
6.834957e+002, 1.134084e+002
6.839778e+002, 1.120220e+002
6.844599e+002, 1.109040e+002
6.849420e+002, 1.099768e+002
6.854241e+002, 1.092430e+002
6.859063e+002, 1.086321e+002
6.863884e+002, 1.081858e+002
6.868705e+002, 1.078489e+002
6.873526e+002, 1.074207e+002
6.878347e+002, 1.067969e+002
6.883168e+002, 1.062134e+002
6.887990e+002, 1.057501e+002
6.892811e+002, 1.053841e+002
6.897632e+002, 1.049932e+002
6.902453e+002, 1.045717e+002
6.907274e+002, 1.041763e+002
6.912095e+002, 1.038192e+002
6.916917e+002, 1.035188e+002
6.921738e+002, 1.035075e+002
6.926559e+002, 1.037554e+002
6.931380e+002, 1.035848e+002
6.936201e+002, 1.018230e+002
6.941022e+002, 9.980485e+001
6.945844e+002, 9.894960e+001
6.950665e+002, 9.962424e+001
6.955486e+002, 1.002306e+002
6.960307e+002, 1.001729e+002
6.965128e+002, 9.985836e+001
6.969949e+002, 9.960867e+001
6.974771e+002, 9.949868e+001
6.979592e+002, 9.930305e+001
6.984413e+002, 9.893672e+001
6.989234e+002, 9.859923e+001
6.994055e+002, 9.864910e+001
6.998876e+002, 9.910112e+001
7.003698e+002, 9.918083e+001
7.008519e+002, 9.870737e+001
7.013340e+002, 9.795379e+001
7.018161e+002, 9.713345e+001
7.022982e+002, 9.633652e+001
7.027803e+002, 9.579752e+001
7.032625e+002, 9.576378e+001
7.037446e+002, 9.582016e+001
7.042267e+002, 9.568929e+001
7.047088e+002, 9.544470e+001
7.051909e+002, 9.524805e+001
7.056730e+002, 9.517650e+001
7.061552e+002, 9.512075e+001
7.066373e+002, 9.508718e+001
7.071194e+002, 9.505073e+001
7.076015e+002, 9.484397e+001
7.080836e+002, 9.433907e+001
7.085657e+002, 9.406222e+001
7.090479e+002, 9.433035e+001
7.095300e+002, 9.498496e+001
7.100121e+002, 9.540885e+001
7.104942e+002, 9.560036e+001
7.109763e+002, 9.553613e+001
7.114584e+002, 9.502558e+001
7.119406e+002, 9.434468e+001
7.124227e+002, 9.381264e+001
7.129048e+002, 9.344630e+001
7.133869e+002, 9.319215e+001
7.138690e+002, 9.312302e+001
7.143511e+002, 9.308687e+001
7.148333e+002, 9.298878e+001
7.153154e+002, 9.281533e+001
7.157975e+002, 9.258491e+001
7.162796e+002, 9.223521e+001
7.167617e+002, 9.190727e+001
7.172438e+002, 9.173623e+001
7.177260e+002, 9.174717e+001
7.182081e+002, 9.163895e+001
7.186902e+002, 9.135957e+001
7.191723e+002, 9.110967e+001
7.196544e+002, 9.127539e+001
7.201365e+002, 9.165004e+001
7.206187e+002, 9.163047e+001
7.211008e+002, 9.090823e+001
7.215829e+002, 9.030373e+001
7.220650e+002, 9.062553e+001
7.225471e+002, 9.137077e+001
7.230292e+002, 9.187236e+001
7.235114e+002, 9.179404e+001
7.239935e+002, 9.162154e+001
7.244756e+002, 9.132743e+001
7.249577e+002, 9.101777e+001
7.254398e+002, 9.085131e+001
7.259219e+002, 9.080550e+001
7.264041e+002, 9.103329e+001
7.268862e+002, 9.173946e+001
7.273683e+002, 9.255418e+001
7.278504e+002, 9.240923e+001
7.283325e+002, 9.144344e+001
7.288146e+002, 9.058843e+001
7.292968e+002, 9.032439e+001
7.297789e+002, 9.034023e+001
7.302610e+002, 9.035854e+001
7.307431e+002, 9.037111e+001
7.312252e+002, 9.035059e+001
7.317073e+002, 9.020470e+001
7.321895e+002, 9.010130e+001
7.326716e+002, 9.020244e+001
7.331537e+002, 9.047576e+001
7.336358e+002, 9.044913e+001
7.341179e+002, 8.990649e+001
7.346000e+002, 8.943267e+001
7.350822e+002, 8.929451e+001
7.355643e+002, 8.945676e+001
7.360464e+002, 8.960970e+001
7.365285e+002, 8.975779e+001
7.370106e+002, 8.982044e+001
7.374927e+002, 8.967456e+001
7.379749e+002, 8.943034e+001
7.384570e+002, 8.922440e+001
7.389391e+002, 8.907176e+001
7.394212e+002, 8.909794e+001
7.399033e+002, 8.969195e+001
7.403854e+002, 9.026769e+001
7.408676e+002, 9.032809e+001
7.413497e+002, 8.962025e+001
7.418318e+002, 8.918613e+001
7.423139e+002, 8.906857e+001
7.427960e+002, 8.924818e+001
7.432781e+002, 8.989173e+001
7.437603e+002, 9.117821e+001
7.442424e+002, 9.157968e+001
7.447245e+002, 9.095088e+001
7.452066e+002, 8.987756e+001
7.456887e+002, 8.857059e+001
7.461708e+002, 8.731735e+001
7.466530e+002, 8.705871e+001
7.471351e+002, 8.813953e+001
7.476172e+002, 8.922562e+001
7.480993e+002, 8.928918e+001
7.485814e+002, 8.883800e+001
7.490635e+002, 8.842520e+001
7.495457e+002, 8.805330e+001
7.500278e+002, 8.792387e+001
7.505099e+002, 8.826275e+001
7.509920e+002, 8.872075e+001
7.514741e+002, 8.888315e+001
7.519562e+002, 8.867834e+001
7.524384e+002, 8.841930e+001
7.529205e+002, 8.806631e+001
7.534026e+002, 8.784500e+001
7.538847e+002, 8.833430e+001
7.543668e+002, 8.931874e+001
7.548489e+002, 8.993933e+001
7.553311e+002, 8.985545e+001
7.558132e+002, 8.946793e+001
7.562953e+002, 8.893668e+001
7.567774e+002, 8.838105e+001
7.572595e+002, 8.802184e+001
7.577416e+002, 8.814909e+001
7.582238e+002, 8.821748e+001
7.587059e+002, 8.803476e+001
7.591880e+002, 8.772868e+001
7.596701e+002, 8.755296e+001
7.601522e+002, 8.751225e+001
7.606343e+002, 8.762454e+001
7.611165e+002, 8.801970e+001
7.615986e+002, 8.844680e+001
7.620807e+002, 8.801442e+001
7.625628e+002, 8.692448e+001
7.630449e+002, 8.637029e+001
7.635270e+002, 8.756177e+001
7.640092e+002, 8.895061e+001
7.644913e+002, 8.886665e+001
7.649734e+002, 8.774655e+001
7.654555e+002, 8.695274e+001
7.659376e+002, 8.735662e+001
7.664197e+002, 8.777258e+001
7.669019e+002, 8.773113e+001
7.673840e+002, 8.734443e+001
7.678661e+002, 8.714293e+001
7.683482e+002, 8.716439e+001
7.688303e+002, 8.726797e+001
7.693124e+002, 8.746014e+001
7.697946e+002, 8.767046e+001
7.702767e+002, 8.763724e+001
7.707588e+002, 8.737614e+001
7.712409e+002, 8.703456e+001
7.717230e+002, 8.653418e+001
7.722051e+002, 8.611472e+001
7.726873e+002, 8.611060e+001
7.731694e+002, 8.646382e+001
7.736515e+002, 8.670883e+001
7.741336e+002, 8.642751e+001
7.746157e+002, 8.625612e+001
7.750978e+002, 8.660086e+001
7.755800e+002, 8.742958e+001
7.760621e+002, 8.775697e+001
7.765442e+002, 8.744773e+001
7.770263e+002, 8.701976e+001
7.775084e+002, 8.671701e+001
7.779905e+002, 8.652767e+001
7.784727e+002, 8.639238e+001
7.789548e+002, 8.631390e+001
7.794369e+002, 8.634983e+001
7.799190e+002, 8.673863e+001
7.804011e+002, 8.713084e+001
7.808832e+002, 8.711650e+001
7.813654e+002, 8.667493e+001
7.818475e+002, 8.630779e+001
7.823296e+002, 8.621542e+001
7.828117e+002, 8.620250e+001
7.832938e+002, 8.615350e+001
7.837759e+002, 8.605441e+001
7.842581e+002, 8.608404e+001
7.847402e+002, 8.624772e+001
7.852223e+002, 8.652793e+001
7.857044e+002, 8.705744e+001
7.861865e+002, 8.770760e+001
7.866686e+002, 8.796692e+001
7.871508e+002, 8.782333e+001
7.876329e+002, 8.747206e+001
7.881150e+002, 8.693581e+001
7.885971e+002, 8.633481e+001
7.890792e+002, 8.573476e+001
7.895613e+002, 8.510741e+001
7.900435e+002, 8.475233e+001
7.905256e+002, 8.492316e+001
7.910077e+002, 8.522504e+001
7.914898e+002, 8.547367e+001
7.919719e+002, 8.566717e+001
7.924540e+002, 8.576968e+001
7.929362e+002, 8.574838e+001
7.934183e+002, 8.575807e+001
7.939004e+002, 8.606499e+001
7.943825e+002, 8.649355e+001
7.948646e+002, 8.642063e+001
7.953467e+002, 8.579436e+001
7.958289e+002, 8.530056e+001
7.963110e+002, 8.563780e+001
7.967931e+002, 8.619566e+001
7.972752e+002, 8.642728e+001
7.977573e+002, 8.615637e+001
7.982394e+002, 8.607014e+001
7.987216e+002, 8.643784e+001
7.992037e+002, 8.680220e+001
7.996858e+002, 8.684010e+001
8.001679e+002, 8.648936e+001
8.006500e+002, 8.636760e+001
8.011321e+002, 8.652895e+001
8.016143e+002, 8.657462e+001
8.020964e+002, 8.584716e+001
8.025785e+002, 8.483000e+001
8.030606e+002, 8.457753e+001
8.035427e+002, 8.525862e+001
8.040248e+002, 8.586560e+001
8.045070e+002, 8.568633e+001
8.049891e+002, 8.527593e+001
8.054712e+002, 8.504897e+001
8.059533e+002, 8.510225e+001
8.064354e+002, 8.518358e+001
8.069175e+002, 8.529337e+001
8.073997e+002, 8.542637e+001
8.078818e+002, 8.558949e+001
8.083639e+002, 8.577996e+001
8.088460e+002, 8.596981e+001
8.093281e+002, 8.616580e+001
8.098102e+002, 8.626427e+001
8.102924e+002, 8.614298e+001
8.107745e+002, 8.588042e+001
8.112566e+002, 8.548675e+001
8.117387e+002, 8.492518e+001
8.122208e+002, 8.468343e+001
8.127029e+002, 8.530909e+001
8.131851e+002, 8.606959e+001
8.136672e+002, 8.645749e+001
8.141493e+002, 8.640028e+001
8.146314e+002, 8.622166e+001
8.151135e+002, 8.583320e+001
8.155956e+002, 8.554774e+001
8.160778e+002, 8.573044e+001
8.165599e+002, 8.625499e+001
8.170420e+002, 8.651443e+001
8.175241e+002, 8.647215e+001
8.180062e+002, 8.636519e+001
8.184883e+002, 8.636340e+001
8.189705e+002, 8.639645e+001
8.194526e+002, 8.640432e+001
8.199347e+002, 8.638053e+001
8.204168e+002, 8.631455e+001
8.208989e+002, 8.605606e+001
8.213810e+002, 8.589528e+001
8.218632e+002, 8.603844e+001
8.223453e+002, 8.654280e+001
8.228274e+002, 8.676633e+001
8.233095e+002, 8.667578e+001
8.237916e+002, 8.649626e+001
8.242737e+002, 8.650350e+001
8.247559e+002, 8.652407e+001
8.252380e+002, 8.601857e+001
8.257201e+002, 8.499023e+001
8.262022e+002, 8.431212e+001
8.266843e+002, 8.484632e+001
8.271664e+002, 8.565965e+001
8.276486e+002, 8.615245e+001
8.281307e+002, 8.623663e+001
8.286128e+002, 8.619252e+001
8.290949e+002, 8.589011e+001
8.295770e+002, 8.568669e+001
8.300591e+002, 8.580241e+001
8.305413e+002, 8.621089e+001
8.310234e+002, 8.661829e+001
8.315055e+002, 8.702480e+001
8.319876e+002, 8.748987e+001
8.324697e+002, 8.847228e+001
8.329518e+002, 8.927458e+001
8.334340e+002, 8.883339e+001
8.339161e+002, 8.720798e+001
8.343982e+002, 8.603910e+001
8.348803e+002, 8.637667e+001
8.353624e+002, 8.683009e+001
8.358445e+002, 8.676833e+001
8.363267e+002, 8.621912e+001
8.368088e+002, 8.574986e+001
8.372909e+002, 8.531314e+001
8.377730e+002, 8.520103e+001
8.382551e+002, 8.588203e+001
8.387372e+002, 8.691273e+001
8.392194e+002, 8.702361e+001
8.397015e+002, 8.636435e+001
8.401836e+002, 8.580075e+001
8.406657e+002, 8.582627e+001
8.411478e+002, 8.610772e+001
8.416299e+002, 8.663531e+001
8.421121e+002, 8.732529e+001
8.425942e+002, 8.752489e+001
8.430763e+002, 8.690633e+001
8.435584e+002, 8.632563e+001
8.440405e+002, 8.600951e+001
8.445226e+002, 8.594730e+001
8.450048e+002, 8.622956e+001
8.454869e+002, 8.682307e+001
8.459690e+002, 8.722067e+001
8.464511e+002, 8.690827e+001
8.469332e+002, 8.648692e+001
8.474153e+002, 8.670134e+001
8.478975e+002, 8.735037e+001
8.483796e+002, 8.786411e+001
8.488617e+002, 8.813236e+001
8.493438e+002, 8.812612e+001
8.498259e+002, 8.770753e+001
8.503080e+002, 8.705401e+001
8.507902e+002, 8.659339e+001
8.512723e+002, 8.633103e+001
8.517544e+002, 8.626897e+001
8.522365e+002, 8.645374e+001
8.527186e+002, 8.676900e+001
8.532007e+002, 8.701762e+001
8.536829e+002, 8.722655e+001
8.541650e+002, 8.747854e+001
8.546471e+002, 8.797800e+001
8.551292e+002, 8.830791e+001
8.556113e+002, 8.810933e+001
8.560934e+002, 8.764218e+001
8.565756e+002, 8.739830e+001
8.570577e+002, 8.757891e+001
8.575398e+002, 8.756759e+001
8.580219e+002, 8.716671e+001
8.585040e+002, 8.674688e+001
8.589861e+002, 8.700071e+001
8.594683e+002, 8.780895e+001
8.599504e+002, 8.857715e+001
8.604325e+002, 8.922478e+001
8.609146e+002, 8.957894e+001
8.613967e+002, 8.913715e+001
8.618788e+002, 8.844913e+001
8.623610e+002, 8.822944e+001
8.628431e+002, 8.922883e+001
8.633252e+002, 8.962804e+001
8.638073e+002, 8.895702e+001
8.642894e+002, 8.798766e+001
8.647715e+002, 8.743869e+001
8.652537e+002, 8.732163e+001
8.657358e+002, 8.746502e+001
8.662179e+002, 8.789185e+001
8.667000e+002, 8.835610e+001
8.671821e+002, 8.877486e+001
8.676642e+002, 8.900674e+001
8.681464e+002, 8.867693e+001
8.686285e+002, 8.759495e+001
8.691106e+002, 8.691761e+001
8.695927e+002, 8.740577e+001
8.700748e+002, 8.819336e+001
8.705569e+002, 8.870443e+001
8.710391e+002, 8.888490e+001
8.715212e+002, 8.911410e+001
8.720033e+002, 8.937952e+001
8.724854e+002, 8.973038e+001
8.729675e+002, 9.040284e+001
8.734496e+002, 9.113854e+001
8.739318e+002, 9.113926e+001
8.744139e+002, 9.044922e+001
8.748960e+002, 8.988433e+001
8.753781e+002, 9.005791e+001
8.758602e+002, 9.039302e+001
8.763423e+002, 9.046870e+001
8.768245e+002, 9.027944e+001
8.773066e+002, 9.051308e+001
8.777887e+002, 9.142532e+001
8.782708e+002, 9.218033e+001
8.787529e+002, 9.236790e+001
8.792350e+002, 9.218226e+001
8.797172e+002, 9.228587e+001
8.801993e+002, 9.264011e+001
8.806814e+002, 9.298714e+001
8.811635e+002, 9.320840e+001
8.816456e+002, 9.335250e+001
8.821277e+002, 9.345577e+001
8.826099e+002, 9.350994e+001
8.830920e+002, 9.348647e+001
8.835741e+002, 9.319389e+001
8.840562e+002, 9.307967e+001
8.845383e+002, 9.322053e+001
8.850204e+002, 9.356747e+001
8.855026e+002, 9.406609e+001
8.859847e+002, 9.470288e+001
8.864668e+002, 9.530665e+001
8.869489e+002, 9.583298e+001
8.874310e+002, 9.629475e+001
8.879131e+002, 9.669932e+001
8.883953e+002, 9.704567e+001
8.888774e+002, 9.733424e+001
8.893595e+002, 9.751215e+001
8.898416e+002, 9.771195e+001
8.903237e+002, 9.788918e+001
8.908058e+002, 9.815032e+001
8.912880e+002, 9.876493e+001
8.917701e+002, 9.981026e+001
8.922522e+002, 9.997353e+001
8.927343e+002, 9.899492e+001
8.932164e+002, 9.807805e+001
8.936985e+002, 9.859881e+001
8.941807e+002, 9.993309e+001
8.946628e+002, 1.013526e+002
8.951449e+002, 1.028236e+002
8.956270e+002, 1.037005e+002
8.961091e+002, 1.032983e+002
8.965912e+002, 1.026160e+002
8.970734e+002, 1.022211e+002
8.975555e+002, 1.021290e+002
8.980376e+002, 1.022395e+002
8.985197e+002, 1.025990e+002
8.990018e+002, 1.028855e+002
8.994839e+002, 1.025911e+002
8.999661e+002, 1.021844e+002
9.004482e+002, 1.028427e+002
9.009303e+002, 1.043707e+002
9.014124e+002, 1.053875e+002
9.018945e+002, 1.045922e+002
9.023766e+002, 1.037503e+002
9.028588e+002, 1.037867e+002
9.033409e+002, 1.045186e+002
9.038230e+002, 1.050807e+002
9.043051e+002, 1.054452e+002
9.047872e+002, 1.057453e+002
9.052693e+002, 1.059792e+002
9.057515e+002, 1.062340e+002
9.062336e+002, 1.068224e+002
9.067157e+002, 1.075909e+002
9.071978e+002, 1.080840e+002
9.076799e+002, 1.077089e+002
9.081620e+002, 1.075289e+002
9.086442e+002, 1.082791e+002
9.091263e+002, 1.094505e+002
9.096084e+002, 1.102075e+002
9.100905e+002, 1.104703e+002
9.105726e+002, 1.104147e+002
9.110547e+002, 1.098915e+002
9.115369e+002, 1.094565e+002
9.120190e+002, 1.101312e+002
9.125011e+002, 1.114754e+002
9.129832e+002, 1.121816e+002
9.134653e+002, 1.119552e+002
9.139474e+002, 1.115632e+002
9.144296e+002, 1.111837e+002
9.149117e+002, 1.110543e+002
9.153938e+002, 1.115093e+002
9.158759e+002, 1.128177e+002
9.163580e+002, 1.134873e+002
9.168401e+002, 1.132784e+002
9.173223e+002, 1.130177e+002
9.178044e+002, 1.133650e+002
9.182865e+002, 1.141250e+002
9.187686e+002, 1.145927e+002
9.192507e+002, 1.147793e+002
9.197328e+002, 1.148580e+002
9.202150e+002, 1.146506e+002
9.206971e+002, 1.146305e+002
9.211792e+002, 1.153118e+002
9.216613e+002, 1.165603e+002
9.221434e+002, 1.172753e+002
9.226255e+002, 1.173034e+002
9.231077e+002, 1.170728e+002
9.235898e+002, 1.165129e+002
9.240719e+002, 1.159770e+002
9.245540e+002, 1.165695e+002
9.250361e+002, 1.179795e+002
9.255182e+002, 1.188888e+002
9.260004e+002, 1.184255e+002
9.264825e+002, 1.179633e+002
9.269646e+002, 1.184459e+002
9.274467e+002, 1.194476e+002
9.279288e+002, 1.203480e+002
9.284109e+002, 1.212535e+002
9.288931e+002, 1.216891e+002
9.293752e+002, 1.214706e+002
9.298573e+002, 1.211039e+002
9.303394e+002, 1.210929e+002
9.308215e+002, 1.214128e+002
9.313036e+002, 1.220212e+002
9.317858e+002, 1.229304e+002
9.322679e+002, 1.239149e+002
9.327500e+002, 1.248058e+002
9.332321e+002, 1.257308e+002
9.337142e+002, 1.269074e+002
9.341964e+002, 1.284206e+002
9.346785e+002, 1.294265e+002
9.351606e+002, 1.297112e+002
9.356427e+002, 1.300005e+002
9.361248e+002, 1.307037e+002
9.366069e+002, 1.316936e+002
9.370891e+002, 1.323141e+002
9.375712e+002, 1.327201e+002
9.380533e+002, 1.336618e+002
9.385354e+002, 1.362218e+002
9.390175e+002, 1.387588e+002
9.394996e+002, 1.401304e+002
9.399818e+002, 1.407418e+002
9.404639e+002, 1.418100e+002
9.409460e+002, 1.436113e+002
9.414281e+002, 1.451468e+002
9.419102e+002, 1.461123e+002
9.423923e+002, 1.469596e+002
9.428745e+002, 1.484529e+002
9.433566e+002, 1.504385e+002
9.438387e+002, 1.525262e+002
9.443208e+002, 1.547358e+002
9.448029e+002, 1.565364e+002
9.452850e+002, 1.571848e+002
9.457672e+002, 1.575774e+002
9.462493e+002, 1.586969e+002
9.467314e+002, 1.609845e+002
9.472135e+002, 1.621438e+002
9.476956e+002, 1.618461e+002
9.481777e+002, 1.615425e+002
9.486599e+002, 1.625518e+002
9.491420e+002, 1.643398e+002
9.496241e+002, 1.657727e+002
9.501062e+002, 1.667959e+002
9.505883e+002, 1.673038e+002
9.510704e+002, 1.667439e+002
9.515526e+002, 1.661353e+002
9.520347e+002, 1.661180e+002
9.525168e+002, 1.664969e+002
9.529989e+002, 1.664638e+002
9.534810e+002, 1.658849e+002
9.539631e+002, 1.655496e+002
9.544453e+002, 1.657684e+002
9.549274e+002, 1.661906e+002
9.554095e+002, 1.662114e+002
9.558916e+002, 1.659946e+002
9.563737e+002, 1.659010e+002
9.568558e+002, 1.661391e+002
9.573380e+002, 1.663392e+002
9.578201e+002, 1.662818e+002
9.583022e+002, 1.661978e+002
9.587843e+002, 1.662794e+002
9.592664e+002, 1.665204e+002
9.597485e+002, 1.670354e+002
9.602307e+002, 1.678614e+002
9.607128e+002, 1.686956e+002
9.611949e+002, 1.693599e+002
9.616770e+002, 1.698172e+002
9.621591e+002, 1.698657e+002
9.626412e+002, 1.695344e+002
9.631234e+002, 1.694549e+002
9.636055e+002, 1.699971e+002
9.640876e+002, 1.706953e+002
9.645697e+002, 1.716122e+002
9.650518e+002, 1.725230e+002
9.655339e+002, 1.723088e+002
9.660161e+002, 1.709649e+002
9.664982e+002, 1.695743e+002
9.669803e+002, 1.686163e+002
9.674624e+002, 1.676880e+002
9.679445e+002, 1.664337e+002
9.684266e+002, 1.648812e+002
9.689088e+002, 1.631046e+002
9.693909e+002, 1.605956e+002
9.698730e+002, 1.586413e+002
9.703551e+002, 1.575856e+002
9.708372e+002, 1.567361e+002
9.713193e+002, 1.552170e+002
9.718015e+002, 1.531476e+002
9.722836e+002, 1.515482e+002
9.727657e+002, 1.505127e+002
9.732478e+002, 1.497266e+002
9.737299e+002, 1.490452e+002
9.742120e+002, 1.484215e+002
9.746942e+002, 1.477882e+002
9.751763e+002, 1.471445e+002
9.756584e+002, 1.466448e+002
9.761405e+002, 1.462239e+002
9.766226e+002, 1.460958e+002
9.771047e+002, 1.464350e+002
9.775869e+002, 1.470376e+002
9.780690e+002, 1.474055e+002
9.785511e+002, 1.475437e+002
9.790332e+002, 1.474668e+002
9.795153e+002, 1.469169e+002
9.799974e+002, 1.465349e+002
9.804796e+002, 1.470609e+002
9.809617e+002, 1.477792e+002
9.814438e+002, 1.476725e+002
9.819259e+002, 1.464613e+002
9.824080e+002, 1.452549e+002
9.828901e+002, 1.441424e+002
9.833723e+002, 1.428835e+002
9.838544e+002, 1.410948e+002
9.843365e+002, 1.390397e+002
9.848186e+002, 1.372351e+002
9.853007e+002, 1.357128e+002
9.857828e+002, 1.341774e+002
9.862650e+002, 1.325749e+002
9.867471e+002, 1.308171e+002
9.872292e+002, 1.287410e+002
9.877113e+002, 1.264744e+002
9.881934e+002, 1.247483e+002
9.886755e+002, 1.235821e+002
9.891577e+002, 1.224626e+002
9.896398e+002, 1.212056e+002
9.901219e+002, 1.199053e+002
9.906040e+002, 1.185980e+002
9.910861e+002, 1.173519e+002
9.915682e+002, 1.162833e+002
9.920504e+002, 1.154332e+002
9.925325e+002, 1.147797e+002
9.930146e+002, 1.144383e+002
9.934967e+002, 1.141217e+002
9.939788e+002, 1.134644e+002
9.944609e+002, 1.125326e+002
9.949431e+002, 1.119159e+002
9.954252e+002, 1.116439e+002
9.959073e+002, 1.115242e+002
9.963894e+002, 1.116278e+002
9.968715e+002, 1.116486e+002
9.973536e+002, 1.112482e+002
9.978358e+002, 1.104701e+002
9.983179e+002, 1.099724e+002
9.988000e+002, 1.098083e+002
9.992821e+002, 1.098266e+002
9.997642e+002, 1.100195e+002
1.000246e+003, 1.103167e+002
1.000728e+003, 1.106913e+002
1.001211e+003, 1.110454e+002
1.001693e+003, 1.110453e+002
1.002175e+003, 1.102654e+002
1.002657e+003, 1.098411e+002
1.003139e+003, 1.106758e+002
1.003621e+003, 1.118093e+002
1.004103e+003, 1.123373e+002
1.004585e+003, 1.121226e+002
1.005068e+003, 1.120277e+002
1.005550e+003, 1.120321e+002
1.006032e+003, 1.123446e+002
1.006514e+003, 1.134245e+002
1.006996e+003, 1.147076e+002
1.007478e+003, 1.154816e+002
1.007960e+003, 1.157956e+002
1.008442e+003, 1.160917e+002
1.008924e+003, 1.162470e+002
1.009407e+003, 1.167518e+002
1.009889e+003, 1.178136e+002
1.010371e+003, 1.191839e+002
1.010853e+003, 1.204067e+002
1.011335e+003, 1.214968e+002
1.011817e+003, 1.224395e+002
1.012299e+003, 1.232319e+002
1.012781e+003, 1.239200e+002
1.013263e+003, 1.242835e+002
1.013746e+003, 1.247351e+002
1.014228e+003, 1.257243e+002
1.014710e+003, 1.273633e+002
1.015192e+003, 1.291065e+002
1.015674e+003, 1.310439e+002
1.016156e+003, 1.327766e+002
1.016638e+003, 1.338633e+002
1.017120e+003, 1.346895e+002
1.017603e+003, 1.361236e+002
1.018085e+003, 1.380495e+002
1.018567e+003, 1.400152e+002
1.019049e+003, 1.416410e+002
1.019531e+003, 1.435108e+002
1.020013e+003, 1.462332e+002
1.020495e+003, 1.490164e+002
1.020977e+003, 1.504988e+002
1.021459e+003, 1.506356e+002
1.021942e+003, 1.514446e+002
1.022424e+003, 1.532906e+002
1.022906e+003, 1.549549e+002
1.023388e+003, 1.550793e+002
1.023870e+003, 1.546247e+002
1.024352e+003, 1.545949e+002
1.024834e+003, 1.551455e+002
1.025316e+003, 1.553795e+002
1.025799e+003, 1.551994e+002
1.026281e+003, 1.547832e+002
1.026763e+003, 1.540470e+002
1.027245e+003, 1.532564e+002
1.027727e+003, 1.532666e+002
1.028209e+003, 1.538188e+002
1.028691e+003, 1.540247e+002
1.029173e+003, 1.532588e+002
1.029656e+003, 1.525209e+002
1.030138e+003, 1.523381e+002
1.030620e+003, 1.523791e+002
1.031102e+003, 1.522597e+002
1.031584e+003, 1.519067e+002
1.032066e+003, 1.517615e+002
1.032548e+003, 1.518205e+002
1.033030e+003, 1.521750e+002
1.033512e+003, 1.530394e+002
1.033995e+003, 1.541462e+002
1.034477e+003, 1.551695e+002
1.034959e+003, 1.561160e+002
1.035441e+003, 1.571721e+002
1.035923e+003, 1.585862e+002
1.036405e+003, 1.597849e+002
1.036887e+003, 1.605823e+002
1.037369e+003, 1.612057e+002
1.037851e+003, 1.620778e+002
1.038334e+003, 1.631692e+002
1.038816e+003, 1.644999e+002
1.039298e+003, 1.661749e+002
1.039780e+003, 1.676351e+002
1.040262e+003, 1.684273e+002
1.040744e+003, 1.689693e+002
1.041226e+003, 1.697086e+002
1.041708e+003, 1.707188e+002
1.042191e+003, 1.707563e+002
1.042673e+003, 1.696922e+002
1.043155e+003, 1.688006e+002
1.043637e+003, 1.692804e+002
1.044119e+003, 1.698736e+002
1.044601e+003, 1.684102e+002
1.045083e+003, 1.657201e+002
1.045565e+003, 1.637585e+002
1.046047e+003, 1.643609e+002
1.046530e+003, 1.637943e+002
1.047012e+003, 1.612875e+002
1.047494e+003, 1.582333e+002
1.047976e+003, 1.563789e+002
1.048458e+003, 1.553623e+002
1.048940e+003, 1.534180e+002
1.049422e+003, 1.504308e+002
1.049904e+003, 1.475547e+002
1.050386e+003, 1.457840e+002
1.050869e+003, 1.440588e+002
1.051351e+003, 1.414720e+002
1.051833e+003, 1.383425e+002
1.052315e+003, 1.361415e+002
1.052797e+003, 1.350127e+002
1.053279e+003, 1.336319e+002
1.053761e+003, 1.315126e+002
1.054243e+003, 1.292734e+002
1.054726e+003, 1.276432e+002
1.055208e+003, 1.264067e+002
1.055690e+003, 1.252937e+002
1.056172e+003, 1.243102e+002
1.056654e+003, 1.232199e+002
1.057136e+003, 1.218478e+002
1.057618e+003, 1.206409e+002
1.058100e+003, 1.199367e+002
1.058583e+003, 1.196011e+002
1.059065e+003, 1.192185e+002
1.059547e+003, 1.187497e+002
1.060029e+003, 1.180069e+002
1.060511e+003, 1.165783e+002
1.060993e+003, 1.152419e+002
1.061475e+003, 1.144180e+002
1.061957e+003, 1.138353e+002
1.062439e+003, 1.130521e+002
1.062922e+003, 1.119892e+002
1.063404e+003, 1.115509e+002
1.063886e+003, 1.118708e+002
1.064368e+003, 1.122332e+002
1.064850e+003, 1.120659e+002
1.065332e+003, 1.115781e+002
1.065814e+003, 1.107794e+002
1.066296e+003, 1.097458e+002
1.066778e+003, 1.092980e+002
1.067261e+003, 1.098961e+002
1.067743e+003, 1.101189e+002
1.068225e+003, 1.094517e+002
1.068707e+003, 1.084766e+002
1.069189e+003, 1.082409e+002
1.069671e+003, 1.085574e+002
1.070153e+003, 1.090820e+002
1.070635e+003, 1.098656e+002
1.071118e+003, 1.103207e+002
1.071600e+003, 1.099454e+002
1.072082e+003, 1.094021e+002
1.072564e+003, 1.090788e+002
1.073046e+003, 1.089487e+002
1.073528e+003, 1.085344e+002
1.074010e+003, 1.078727e+002
1.074492e+003, 1.074307e+002
1.074974e+003, 1.076346e+002
1.075457e+003, 1.079556e+002
1.075939e+003, 1.081151e+002
1.076421e+003, 1.080875e+002
1.076903e+003, 1.078050e+002
1.077385e+003, 1.071712e+002
1.077867e+003, 1.066277e+002
1.078349e+003, 1.062264e+002
1.078831e+003, 1.057781e+002
1.079313e+003, 1.049628e+002
1.079796e+003, 1.040655e+002
1.080278e+003, 1.036439e+002
1.080760e+003, 1.036205e+002
1.081242e+003, 1.033256e+002
1.081724e+003, 1.022457e+002
1.082206e+003, 1.012580e+002
1.082688e+003, 1.005235e+002
1.083170e+003, 1.000051e+002
1.083652e+003, 9.983733e+001
1.084135e+003, 9.985081e+001
1.084617e+003, 9.928364e+001
1.085099e+003, 9.789477e+001
1.085581e+003, 9.669375e+001
1.086063e+003, 9.643860e+001
1.086545e+003, 9.641936e+001
1.087027e+003, 9.615306e+001
1.087509e+003, 9.567805e+001
1.087992e+003, 9.552804e+001
1.088474e+003, 9.571053e+001
1.088956e+003, 9.554424e+001
1.089438e+003, 9.448927e+001
1.089920e+003, 9.343271e+001
1.090402e+003, 9.328461e+001
1.090884e+003, 9.365125e+001
1.091366e+003, 9.403371e+001
1.091849e+003, 9.450553e+001
1.092331e+003, 9.455335e+001
1.092813e+003, 9.406667e+001
1.093295e+003, 9.352959e+001
1.093777e+003, 9.334750e+001
1.094259e+003, 9.333179e+001
1.094741e+003, 9.313074e+001
1.095223e+003, 9.277745e+001
1.095705e+003, 9.240344e+001
1.096188e+003, 9.180117e+001
1.096670e+003, 9.156346e+001
1.097152e+003, 9.186433e+001
1.097634e+003, 9.243465e+001
1.098116e+003, 9.303851e+001
1.098598e+003, 9.362647e+001
1.099080e+003, 9.390203e+001
1.099562e+003, 9.384487e+001
1.100044e+003, 9.378709e+001
1.100527e+003, 9.387743e+001
1.101009e+003, 9.408614e+001
1.101491e+003, 9.452939e+001
1.101973e+003, 9.505653e+001
1.102455e+003, 9.507028e+001
1.102937e+003, 9.456406e+001
1.103419e+003, 9.437257e+001
1.103901e+003, 9.475565e+001
1.104384e+003, 9.529533e+001
1.104866e+003, 9.569168e+001
1.105348e+003, 9.596908e+001
1.105830e+003, 9.615649e+001
1.106312e+003, 9.625675e+001
1.106794e+003, 9.618495e+001
1.107276e+003, 9.586684e+001
1.107758e+003, 9.567292e+001
1.108240e+003, 9.580948e+001
1.108723e+003, 9.611712e+001
1.109205e+003, 9.635965e+001
1.109687e+003, 9.658057e+001
1.110169e+003, 9.688604e+001
1.110651e+003, 9.764693e+001
1.111133e+003, 9.779459e+001
1.111615e+003, 9.700603e+001
1.112097e+003, 9.608379e+001
1.112579e+003, 9.559663e+001
1.113062e+003, 9.548192e+001
1.113544e+003, 9.557914e+001
1.114026e+003, 9.586072e+001
1.114508e+003, 9.620222e+001
1.114990e+003, 9.685195e+001
1.115472e+003, 9.715141e+001
1.115954e+003, 9.665839e+001
1.116436e+003, 9.591451e+001
1.116919e+003, 9.570253e+001
1.117401e+003, 9.596008e+001
1.117883e+003, 9.570154e+001
1.118365e+003, 9.484096e+001
1.118847e+003, 9.412706e+001
1.119329e+003, 9.429187e+001
1.119811e+003, 9.460116e+001
1.120293e+003, 9.461923e+001
1.120776e+003, 9.437265e+001
1.121258e+003, 9.389946e+001
1.121740e+003, 9.313494e+001
1.122222e+003, 9.285918e+001
1.122704e+003, 9.334904e+001
1.123186e+003, 9.385803e+001
1.123668e+003, 9.352271e+001
1.124150e+003, 9.286269e+001
1.124632e+003, 9.243470e+001
1.125115e+003, 9.233242e+001
1.125597e+003, 9.207735e+001
1.126079e+003, 9.155253e+001
1.126561e+003, 9.129714e+001
1.127043e+003, 9.172015e+001
1.127525e+003, 9.219279e+001
1.128007e+003, 9.129886e+001
1.128489e+003, 8.983811e+001
1.128971e+003, 8.926625e+001
1.129454e+003, 9.042008e+001
1.129936e+003, 9.114579e+001
1.130418e+003, 9.108115e+001
1.130900e+003, 9.088338e+001
1.131382e+003, 9.104206e+001
1.131864e+003, 9.133617e+001
1.132346e+003, 9.090839e+001
1.132828e+003, 9.000329e+001
1.133311e+003, 8.942867e+001
1.133793e+003, 9.003195e+001
1.134275e+003, 9.032414e+001
1.134757e+003, 8.972327e+001
1.135239e+003, 8.895383e+001
1.135721e+003, 8.877208e+001
1.136203e+003, 8.907863e+001
1.136685e+003, 8.893864e+001
1.137167e+003, 8.837188e+001
1.137650e+003, 8.790079e+001
1.138132e+003, 8.766460e+001
1.138614e+003, 8.779066e+001
1.139096e+003, 8.880406e+001
1.139578e+003, 9.001043e+001
1.140060e+003, 9.019521e+001
1.140542e+003, 8.933580e+001
1.141024e+003, 8.860741e+001
1.141506e+003, 8.811977e+001
1.141989e+003, 8.803960e+001
1.142471e+003, 8.887289e+001
1.142953e+003, 8.983679e+001
1.143435e+003, 9.046207e+001
1.143917e+003, 9.069156e+001
1.144399e+003, 9.040794e+001
1.144881e+003, 8.952471e+001
1.145363e+003, 8.868850e+001
1.145846e+003, 8.801325e+001
1.146328e+003, 8.759423e+001
1.146810e+003, 8.754253e+001
1.147292e+003, 8.781225e+001
1.147774e+003, 8.858100e+001
1.148256e+003, 8.992165e+001
1.148738e+003, 9.022323e+001
1.149220e+003, 8.908504e+001
1.149703e+003, 8.834822e+001
1.150185e+003, 8.889431e+001
1.150667e+003, 8.968035e+001
1.151149e+003, 8.869556e+001
1.151631e+003, 8.706771e+001
1.152113e+003, 8.673847e+001
1.152595e+003, 8.870161e+001
1.153077e+003, 8.981999e+001
1.153559e+003, 8.962523e+001
1.154042e+003, 8.922447e+001
1.154524e+003, 8.918908e+001
1.155006e+003, 8.934599e+001
1.155488e+003, 8.940791e+001
1.155970e+003, 8.933775e+001
1.156452e+003, 8.902903e+001
1.156934e+003, 8.819624e+001
1.157416e+003, 8.758861e+001
1.157898e+003, 8.731678e+001
1.158381e+003, 8.722977e+001
1.158863e+003, 8.729630e+001
1.159345e+003, 8.745052e+001
1.159827e+003, 8.739798e+001
1.160309e+003, 8.718325e+001
1.160791e+003, 8.698769e+001
1.161273e+003, 8.682594e+001
1.161755e+003, 8.679259e+001
1.162238e+003, 8.699096e+001
1.162720e+003, 8.722822e+001
1.163202e+003, 8.734014e+001
1.163684e+003, 8.731567e+001
1.164166e+003, 8.702493e+001
1.164648e+003, 8.649308e+001
1.165130e+003, 8.601233e+001
1.165612e+003, 8.571807e+001
1.166094e+003, 8.555244e+001
1.166577e+003, 8.559809e+001
1.167059e+003, 8.568504e+001
1.167541e+003, 8.542681e+001
1.168023e+003, 8.488349e+001
1.168505e+003, 8.494836e+001
1.168987e+003, 8.571704e+001
1.169469e+003, 8.644585e+001
1.169951e+003, 8.649998e+001
1.170433e+003, 8.647395e+001
1.170916e+003, 8.681425e+001
1.171398e+003, 8.732785e+001
1.171880e+003, 8.753368e+001
1.172362e+003, 8.743501e+001
1.172844e+003, 8.711547e+001
1.173326e+003, 8.655157e+001
1.173808e+003, 8.608079e+001
1.174290e+003, 8.612045e+001
1.174773e+003, 8.625577e+001
1.175255e+003, 8.616517e+001
1.175737e+003, 8.587340e+001
1.176219e+003, 8.544102e+001
1.176701e+003, 8.483894e+001
1.177183e+003, 8.471770e+001
1.177665e+003, 8.537855e+001
1.178147e+003, 8.611940e+001
1.178630e+003, 8.626097e+001
1.179112e+003, 8.615916e+001
1.179594e+003, 8.616999e+001
1.180076e+003, 8.631535e+001
1.180558e+003, 8.624960e+001
1.181040e+003, 8.592844e+001
1.181522e+003, 8.588923e+001
1.182004e+003, 8.655749e+001
1.182486e+003, 8.711365e+001
1.182969e+003, 8.612277e+001
1.183451e+003, 8.481131e+001
1.183933e+003, 8.489147e+001
1.184415e+003, 8.687257e+001
1.184897e+003, 8.778537e+001
1.185379e+003, 8.750374e+001
1.185861e+003, 8.695655e+001
1.186343e+003, 8.639375e+001
1.186825e+003, 8.611095e+001
1.187308e+003, 8.682941e+001
1.187790e+003, 8.792995e+001
1.188272e+003, 8.834235e+001
1.188754e+003, 8.742744e+001
1.189236e+003, 8.745522e+001
1.189718e+003, 8.859843e+001
1.190200e+003, 8.979439e+001
1.190682e+003, 9.038291e+001
1.191165e+003, 9.061716e+001
1.191647e+003, 9.065397e+001
1.192129e+003, 9.062296e+001
1.192611e+003, 9.081063e+001
1.193093e+003, 9.150443e+001
1.193575e+003, 9.185681e+001
1.194057e+003, 9.181167e+001
1.194539e+003, 9.160979e+001
1.195021e+003, 9.123445e+001
1.195504e+003, 9.095765e+001
1.195986e+003, 9.145330e+001
1.196468e+003, 9.235615e+001
1.196950e+003, 9.254617e+001
1.197432e+003, 9.137904e+001
1.197914e+003, 9.057238e+001
1.198396e+003, 9.030760e+001
1.198878e+003, 9.011878e+001
1.199360e+003, 8.947997e+001
1.199843e+003, 8.869843e+001
1.200325e+003, 8.822070e+001
1.200807e+003, 8.801141e+001
1.201289e+003, 8.787244e+001
1.201771e+003, 8.783707e+001
1.202253e+003, 8.772194e+001
1.202735e+003, 8.750620e+001
1.203217e+003, 8.721323e+001
1.203700e+003, 8.685227e+001
1.204182e+003, 8.644485e+001
1.204664e+003, 8.603213e+001
1.205146e+003, 8.560719e+001
1.205628e+003, 8.506263e+001
1.206110e+003, 8.417410e+001
1.206592e+003, 8.367264e+001
1.207074e+003, 8.377005e+001
1.207557e+003, 8.398398e+001
1.208039e+003, 8.348642e+001
1.208521e+003, 8.283879e+001
1.209003e+003, 8.305766e+001
1.209485e+003, 8.414375e+001
1.209967e+003, 8.461989e+001
1.210449e+003, 8.400317e+001
1.210931e+003, 8.357773e+001
1.211413e+003, 8.370889e+001
1.211896e+003, 8.385403e+001
1.212378e+003, 8.300816e+001
1.212860e+003, 8.184663e+001
1.213342e+003, 8.152699e+001
1.213824e+003, 8.217233e+001
1.214306e+003, 8.221952e+001
1.214788e+003, 8.111447e+001
1.215270e+003, 8.057391e+001
1.215752e+003, 8.122889e+001
1.216235e+003, 8.218325e+001
1.216717e+003, 8.205395e+001
1.217199e+003, 8.144454e+001
1.217681e+003, 8.128075e+001
1.218163e+003, 8.173159e+001
1.218645e+003, 8.197494e+001
1.219127e+003, 8.202892e+001
1.219609e+003, 8.159917e+001
1.220092e+003, 8.038596e+001
1.220574e+003, 7.910439e+001
1.221056e+003, 7.874339e+001
1.221538e+003, 7.903442e+001
1.222020e+003, 7.978054e+001
1.222502e+003, 8.106393e+001
1.222984e+003, 8.156270e+001
1.223466e+003, 8.099273e+001
1.223948e+003, 8.041631e+001
1.224431e+003, 8.015281e+001
1.224913e+003, 8.020631e+001
1.225395e+003, 8.105764e+001
1.225877e+003, 8.199654e+001
1.226359e+003, 8.186300e+001
1.226841e+003, 8.008901e+001
1.227323e+003, 7.936074e+001
1.227805e+003, 7.993581e+001
1.228287e+003, 8.058821e+001
1.228770e+003, 8.084891e+001
1.229252e+003, 8.085755e+001
1.229734e+003, 8.062596e+001
1.230216e+003, 8.035036e+001
1.230698e+003, 8.034597e+001
1.231180e+003, 8.075419e+001
1.231662e+003, 8.089149e+001
1.232144e+003, 8.072390e+001
1.232627e+003, 8.049417e+001
1.233109e+003, 8.033123e+001
1.233591e+003, 8.012976e+001
1.234073e+003, 7.964958e+001
1.234555e+003, 7.910840e+001
1.235037e+003, 7.875797e+001
1.235519e+003, 7.857297e+001
1.236001e+003, 7.899761e+001
1.236484e+003, 8.011915e+001
1.236966e+003, 8.106194e+001
1.237448e+003, 8.140515e+001
1.237930e+003, 8.133791e+001
1.238412e+003, 8.070288e+001
1.238894e+003, 7.995251e+001
1.239376e+003, 7.977470e+001
1.239858e+003, 8.027784e+001
1.240340e+003, 8.064726e+001
1.240823e+003, 8.088416e+001
1.241305e+003, 8.075874e+001
1.241787e+003, 7.966614e+001
1.242269e+003, 7.884521e+001
1.242751e+003, 8.000394e+001
1.243233e+003, 8.166532e+001
1.243715e+003, 8.183183e+001
1.244197e+003, 8.026028e+001
1.244679e+003, 7.951261e+001
1.245162e+003, 7.957413e+001
1.245644e+003, 7.998766e+001
1.246126e+003, 8.090471e+001
1.246608e+003, 8.156725e+001
1.247090e+003, 8.127665e+001
1.247572e+003, 8.057088e+001
1.248054e+003, 8.007250e+001
1.248536e+003, 7.978059e+001
1.249019e+003, 7.957470e+001
1.249501e+003, 7.946297e+001
1.249983e+003, 7.952422e+001
1.250465e+003, 8.003303e+001
1.250947e+003, 8.043722e+001
1.251429e+003, 8.024404e+001
1.251911e+003, 7.997570e+001
1.252393e+003, 8.025361e+001
1.252875e+003, 8.101399e+001
1.253358e+003, 8.085483e+001
1.253840e+003, 7.992306e+001
1.254322e+003, 7.921091e+001
1.254804e+003, 7.937354e+001
1.255286e+003, 7.966944e+001
1.255768e+003, 7.993820e+001
1.256250e+003, 8.013693e+001
1.256732e+003, 8.020790e+001
1.257214e+003, 8.016887e+001
1.257697e+003, 8.008605e+001
1.258179e+003, 7.998414e+001
1.258661e+003, 7.996960e+001
1.259143e+003, 8.023775e+001
1.259625e+003, 8.037455e+001
1.260107e+003, 8.019507e+001
1.260589e+003, 8.004682e+001
1.261071e+003, 8.038625e+001
1.261554e+003, 8.095858e+001
1.262036e+003, 8.081902e+001
1.262518e+003, 8.017309e+001
1.263000e+003, 7.973675e+001
1.263482e+003, 8.004752e+001
1.263964e+003, 8.014367e+001
1.264446e+003, 7.984973e+001
1.264928e+003, 7.954401e+001
1.265411e+003, 7.963091e+001
1.265893e+003, 7.987745e+001
1.266375e+003, 7.976218e+001
1.266857e+003, 7.943156e+001
1.267339e+003, 7.929431e+001
1.267821e+003, 7.958804e+001
1.268303e+003, 7.986317e+001
1.268785e+003, 8.012430e+001
1.269267e+003, 8.032283e+001
1.269750e+003, 8.045183e+001
1.270232e+003, 8.047093e+001
1.270714e+003, 8.016933e+001
1.271196e+003, 7.974424e+001
1.271678e+003, 7.970264e+001
1.272160e+003, 8.029351e+001
1.272642e+003, 8.058597e+001
1.273124e+003, 8.055599e+001
1.273606e+003, 8.021896e+001
1.274089e+003, 7.910844e+001
1.274571e+003, 7.815365e+001
1.275053e+003, 7.858826e+001
1.275535e+003, 7.960390e+001
1.276017e+003, 7.966919e+001
1.276499e+003, 7.851076e+001
1.276981e+003, 7.812676e+001
1.277463e+003, 7.854760e+001
1.277946e+003, 7.910258e+001
1.278428e+003, 7.946258e+001
1.278910e+003, 7.969893e+001
1.279392e+003, 7.975521e+001
1.279874e+003, 7.977377e+001
1.280356e+003, 8.003178e+001
1.280838e+003, 8.050874e+001
1.281320e+003, 8.017104e+001
1.281802e+003, 7.911971e+001
1.282285e+003, 7.832517e+001
1.282767e+003, 7.831789e+001
1.283249e+003, 7.867620e+001
1.283731e+003, 7.966321e+001
1.284213e+003, 8.049634e+001
1.284695e+003, 8.021377e+001
1.285177e+003, 7.916199e+001
1.285659e+003, 7.904528e+001
1.286141e+003, 7.971239e+001
1.286624e+003, 8.048711e+001
1.287106e+003, 8.167197e+001
1.287588e+003, 8.191348e+001
1.288070e+003, 8.061961e+001
1.288552e+003, 7.934630e+001
1.289034e+003, 7.971655e+001
1.289516e+003, 8.089184e+001
1.289998e+003, 8.090878e+001
1.290481e+003, 8.014821e+001
1.290963e+003, 7.961163e+001
1.291445e+003, 7.987150e+001
1.291927e+003, 7.979263e+001
1.292409e+003, 7.924594e+001
1.292891e+003, 7.885377e+001
1.293373e+003, 7.924191e+001
1.293855e+003, 7.989249e+001
1.294338e+003, 8.022713e+001
1.294820e+003, 8.031607e+001
1.295302e+003, 8.027369e+001
1.295784e+003, 8.012135e+001
1.296266e+003, 7.983316e+001
1.296748e+003, 7.940073e+001
1.297230e+003, 7.897454e+001
1.297712e+003, 7.839330e+001
1.298194e+003, 7.814915e+001
1.298677e+003, 7.894395e+001
1.299159e+003, 8.010983e+001
1.299641e+003, 8.085792e+001
1.300123e+003, 8.118832e+001
1.300605e+003, 8.103194e+001
1.301087e+003, 8.044535e+001
1.301569e+003, 7.993526e+001
1.302051e+003, 7.972366e+001
1.302533e+003, 7.968240e+001
1.303016e+003, 7.978696e+001
##END=



