##NAMES=Pararealgar
##RRUFFID=R150123
##IDEAL CHEMISTRY=AsS
##LOCALITY=U.S. Borax mine, Kramer Borate deposit, Boron, California, USA
##OWNER=RRUFF
##SOURCE=Michael Scott S106210
##DESCRIPTION=Yellowish-orange granular, within a rind of realgar
##STATUS=The identification of this mineral has been confirmed by single-crystal X-ray diffraction.
##URL=rruff.info/R150123
8.930109e+001, 0.000000e+000
8.978320e+001, 4.650414e+002
9.026532e+001, 4.640088e+002
9.074744e+001, 4.644421e+002
9.122955e+001, 4.671989e+002
9.171167e+001, 4.707473e+002
9.219379e+001, 4.725617e+002
9.267590e+001, 4.731321e+002
9.315802e+001, 4.736483e+002
9.364014e+001, 4.748151e+002
9.412225e+001, 4.766549e+002
9.460437e+001, 4.790930e+002
9.508649e+001, 4.823815e+002
9.556860e+001, 4.859328e+002
9.605072e+001, 4.889923e+002
9.653284e+001, 4.919709e+002
9.701495e+001, 4.946994e+002
9.749707e+001, 4.968316e+002
9.797919e+001, 4.983718e+002
9.846130e+001, 4.997703e+002
9.894342e+001, 5.010504e+002
9.942554e+001, 5.022509e+002
9.990765e+001, 5.038429e+002
1.003898e+002, 5.058172e+002
1.008719e+002, 5.081685e+002
1.013540e+002, 5.107740e+002
1.018361e+002, 5.134674e+002
1.023182e+002, 5.169471e+002
1.028004e+002, 5.217714e+002
1.032825e+002, 5.284005e+002
1.037646e+002, 5.341940e+002
1.042467e+002, 5.388043e+002
1.047288e+002, 5.427990e+002
1.052109e+002, 5.474479e+002
1.056931e+002, 5.529296e+002
1.061752e+002, 5.588671e+002
1.066573e+002, 5.652250e+002
1.071394e+002, 5.724144e+002
1.076215e+002, 5.793146e+002
1.081036e+002, 5.856344e+002
1.085858e+002, 5.915739e+002
1.090679e+002, 5.981208e+002
1.095500e+002, 6.060306e+002
1.100321e+002, 6.140530e+002
1.105142e+002, 6.214730e+002
1.109963e+002, 6.283099e+002
1.114785e+002, 6.346140e+002
1.119606e+002, 6.401062e+002
1.124427e+002, 6.448419e+002
1.129248e+002, 6.499017e+002
1.134069e+002, 6.555731e+002
1.138890e+002, 6.615386e+002
1.143712e+002, 6.676132e+002
1.148533e+002, 6.744066e+002
1.153354e+002, 6.806750e+002
1.158175e+002, 6.860833e+002
1.162996e+002, 6.907015e+002
1.167817e+002, 6.944379e+002
1.172639e+002, 6.967811e+002
1.177460e+002, 6.984071e+002
1.182281e+002, 7.001694e+002
1.187102e+002, 7.032051e+002
1.191923e+002, 7.059011e+002
1.196744e+002, 7.067784e+002
1.201566e+002, 7.051537e+002
1.206387e+002, 7.041517e+002
1.211208e+002, 7.068159e+002
1.216029e+002, 7.115227e+002
1.220850e+002, 7.149855e+002
1.225671e+002, 7.143488e+002
1.230493e+002, 7.121292e+002
1.235314e+002, 7.106230e+002
1.240135e+002, 7.098964e+002
1.244956e+002, 7.106213e+002
1.249777e+002, 7.149851e+002
1.254598e+002, 7.219076e+002
1.259420e+002, 7.272675e+002
1.264241e+002, 7.264391e+002
1.269062e+002, 7.224200e+002
1.273883e+002, 7.208826e+002
1.278704e+002, 7.237213e+002
1.283525e+002, 7.285746e+002
1.288347e+002, 7.317115e+002
1.293168e+002, 7.332570e+002
1.297989e+002, 7.352384e+002
1.302810e+002, 7.402708e+002
1.307631e+002, 7.474167e+002
1.312452e+002, 7.529463e+002
1.317274e+002, 7.554642e+002
1.322095e+002, 7.559807e+002
1.326916e+002, 7.574510e+002
1.331737e+002, 7.600992e+002
1.336558e+002, 7.622382e+002
1.341379e+002, 7.618215e+002
1.346201e+002, 7.588969e+002
1.351022e+002, 7.561801e+002
1.355843e+002, 7.545268e+002
1.360664e+002, 7.538026e+002
1.365485e+002, 7.528039e+002
1.370306e+002, 7.511636e+002
1.375128e+002, 7.501328e+002
1.379949e+002, 7.517837e+002
1.384770e+002, 7.568233e+002
1.389591e+002, 7.610521e+002
1.394412e+002, 7.628312e+002
1.399233e+002, 7.619117e+002
1.404055e+002, 7.616342e+002
1.408876e+002, 7.621109e+002
1.413697e+002, 7.630942e+002
1.418518e+002, 7.642771e+002
1.423339e+002, 7.658361e+002
1.428160e+002, 7.671690e+002
1.432982e+002, 7.681747e+002
1.437803e+002, 7.690868e+002
1.442624e+002, 7.688025e+002
1.447445e+002, 7.667767e+002
1.452266e+002, 7.637216e+002
1.457087e+002, 7.614700e+002
1.461909e+002, 7.610785e+002
1.466730e+002, 7.601160e+002
1.471551e+002, 7.573061e+002
1.476372e+002, 7.493910e+002
1.481193e+002, 7.452383e+002
1.486014e+002, 7.462964e+002
1.490836e+002, 7.513123e+002
1.495657e+002, 7.560709e+002
1.500478e+002, 7.612131e+002
1.505299e+002, 7.654881e+002
1.510120e+002, 7.683606e+002
1.514941e+002, 7.681949e+002
1.519763e+002, 7.685143e+002
1.524584e+002, 7.703701e+002
1.529405e+002, 7.731473e+002
1.534226e+002, 7.738294e+002
1.539047e+002, 7.699326e+002
1.543868e+002, 7.653385e+002
1.548690e+002, 7.621594e+002
1.553511e+002, 7.622416e+002
1.558332e+002, 7.620323e+002
1.563153e+002, 7.603699e+002
1.567974e+002, 7.575584e+002
1.572795e+002, 7.560802e+002
1.577617e+002, 7.580921e+002
1.582438e+002, 7.607852e+002
1.587259e+002, 7.621332e+002
1.592080e+002, 7.588695e+002
1.596901e+002, 7.569059e+002
1.601722e+002, 7.584949e+002
1.606544e+002, 7.635190e+002
1.611365e+002, 7.689410e+002
1.616186e+002, 7.737362e+002
1.621007e+002, 7.783845e+002
1.625828e+002, 7.834462e+002
1.630649e+002, 7.894593e+002
1.635471e+002, 7.955545e+002
1.640292e+002, 8.014406e+002
1.645113e+002, 8.070989e+002
1.649934e+002, 8.123479e+002
1.654755e+002, 8.159512e+002
1.659576e+002, 8.193927e+002
1.664398e+002, 8.244474e+002
1.669219e+002, 8.335208e+002
1.674040e+002, 8.432806e+002
1.678861e+002, 8.514452e+002
1.683682e+002, 8.578948e+002
1.688503e+002, 8.637355e+002
1.693325e+002, 8.683882e+002
1.698146e+002, 8.730699e+002
1.702967e+002, 8.796555e+002
1.707788e+002, 8.925432e+002
1.712609e+002, 9.058060e+002
1.717430e+002, 9.131550e+002
1.722252e+002, 9.137415e+002
1.727073e+002, 9.131512e+002
1.731894e+002, 9.153866e+002
1.736715e+002, 9.198092e+002
1.741536e+002, 9.248594e+002
1.746357e+002, 9.298976e+002
1.751179e+002, 9.351756e+002
1.756000e+002, 9.410031e+002
1.760821e+002, 9.473522e+002
1.765642e+002, 9.542293e+002
1.770463e+002, 9.614957e+002
1.775284e+002, 9.692811e+002
1.780106e+002, 9.778480e+002
1.784927e+002, 9.872040e+002
1.789748e+002, 9.975071e+002
1.794569e+002, 1.008771e+003
1.799390e+002, 1.021083e+003
1.804211e+002, 1.034446e+003
1.809033e+002, 1.050475e+003
1.813854e+002, 1.068429e+003
1.818675e+002, 1.084346e+003
1.823496e+002, 1.095613e+003
1.828317e+002, 1.103224e+003
1.833138e+002, 1.110292e+003
1.837960e+002, 1.117317e+003
1.842781e+002, 1.123119e+003
1.847602e+002, 1.125933e+003
1.852423e+002, 1.125869e+003
1.857244e+002, 1.123695e+003
1.862065e+002, 1.119401e+003
1.866887e+002, 1.113259e+003
1.871708e+002, 1.106115e+003
1.876529e+002, 1.097890e+003
1.881350e+002, 1.089068e+003
1.886171e+002, 1.081079e+003
1.890992e+002, 1.073803e+003
1.895814e+002, 1.065458e+003
1.900635e+002, 1.053872e+003
1.905456e+002, 1.039565e+003
1.910277e+002, 1.027297e+003
1.915098e+002, 1.017784e+003
1.919919e+002, 1.010118e+003
1.924741e+002, 1.002303e+003
1.929562e+002, 9.942784e+002
1.934383e+002, 9.879777e+002
1.939204e+002, 9.852208e+002
1.944025e+002, 9.858470e+002
1.948846e+002, 9.871298e+002
1.953668e+002, 9.887909e+002
1.958489e+002, 9.908914e+002
1.963310e+002, 9.939921e+002
1.968131e+002, 9.982982e+002
1.972952e+002, 1.002008e+003
1.977773e+002, 1.003646e+003
1.982595e+002, 1.003140e+003
1.987416e+002, 1.002830e+003
1.992237e+002, 1.003157e+003
1.997058e+002, 1.003722e+003
2.001879e+002, 1.003605e+003
2.006700e+002, 1.002908e+003
2.011522e+002, 1.001100e+003
2.016343e+002, 9.974518e+002
2.021164e+002, 9.917570e+002
2.025985e+002, 9.862323e+002
2.030806e+002, 9.809047e+002
2.035627e+002, 9.760922e+002
2.040449e+002, 9.730505e+002
2.045270e+002, 9.720360e+002
2.050091e+002, 9.719279e+002
2.054912e+002, 9.714494e+002
2.059733e+002, 9.700533e+002
2.064554e+002, 9.717876e+002
2.069376e+002, 9.779557e+002
2.074197e+002, 9.873325e+002
2.079018e+002, 9.951255e+002
2.083839e+002, 1.000384e+003
2.088660e+002, 1.006531e+003
2.093481e+002, 1.016487e+003
2.098303e+002, 1.031496e+003
2.103124e+002, 1.044823e+003
2.107945e+002, 1.055096e+003
2.112766e+002, 1.063226e+003
2.117587e+002, 1.073319e+003
2.122408e+002, 1.085746e+003
2.127230e+002, 1.099448e+003
2.132051e+002, 1.114071e+003
2.136872e+002, 1.129933e+003
2.141693e+002, 1.145514e+003
2.146514e+002, 1.159908e+003
2.151335e+002, 1.173875e+003
2.156157e+002, 1.190581e+003
2.160978e+002, 1.211249e+003
2.165799e+002, 1.232591e+003
2.170620e+002, 1.252689e+003
2.175441e+002, 1.271291e+003
2.180262e+002, 1.289595e+003
2.185084e+002, 1.308432e+003
2.189905e+002, 1.327315e+003
2.194726e+002, 1.342664e+003
2.199547e+002, 1.353590e+003
2.204368e+002, 1.362955e+003
2.209189e+002, 1.372680e+003
2.214011e+002, 1.383863e+003
2.218832e+002, 1.392662e+003
2.223653e+002, 1.398066e+003
2.228474e+002, 1.400873e+003
2.233295e+002, 1.405009e+003
2.238116e+002, 1.411178e+003
2.242938e+002, 1.417437e+003
2.247759e+002, 1.422111e+003
2.252580e+002, 1.423073e+003
2.257401e+002, 1.427640e+003
2.262222e+002, 1.437346e+003
2.267043e+002, 1.451017e+003
2.271865e+002, 1.464476e+003
2.276686e+002, 1.477850e+003
2.281507e+002, 1.490400e+003
2.286328e+002, 1.501813e+003
2.291149e+002, 1.512963e+003
2.295970e+002, 1.520851e+003
2.300792e+002, 1.524896e+003
2.305613e+002, 1.525540e+003
2.310434e+002, 1.524199e+003
2.315255e+002, 1.520416e+003
2.320076e+002, 1.515431e+003
2.324897e+002, 1.510076e+003
2.329719e+002, 1.505108e+003
2.334540e+002, 1.498320e+003
2.339361e+002, 1.490408e+003
2.344182e+002, 1.480543e+003
2.349003e+002, 1.465768e+003
2.353824e+002, 1.445861e+003
2.358646e+002, 1.421357e+003
2.363467e+002, 1.391805e+003
2.368288e+002, 1.353967e+003
2.373109e+002, 1.318222e+003
2.377930e+002, 1.285385e+003
2.382751e+002, 1.254563e+003
2.387573e+002, 1.223881e+003
2.392394e+002, 1.191944e+003
2.397215e+002, 1.162066e+003
2.402036e+002, 1.135711e+003
2.406857e+002, 1.114384e+003
2.411678e+002, 1.093085e+003
2.416500e+002, 1.071218e+003
2.421321e+002, 1.049617e+003
2.426142e+002, 1.030169e+003
2.430963e+002, 1.014015e+003
2.435784e+002, 9.984889e+002
2.440605e+002, 9.826185e+002
2.445427e+002, 9.659376e+002
2.450248e+002, 9.498379e+002
2.455069e+002, 9.340605e+002
2.459890e+002, 9.189268e+002
2.464711e+002, 9.053926e+002
2.469532e+002, 8.935895e+002
2.474354e+002, 8.829993e+002
2.479175e+002, 8.738572e+002
2.483996e+002, 8.669517e+002
2.488817e+002, 8.586737e+002
2.493638e+002, 8.480759e+002
2.498459e+002, 8.366613e+002
2.503281e+002, 8.271317e+002
2.508102e+002, 8.196199e+002
2.512923e+002, 8.137775e+002
2.517744e+002, 8.096573e+002
2.522565e+002, 8.077002e+002
2.527386e+002, 8.057626e+002
2.532208e+002, 8.036756e+002
2.537029e+002, 8.017358e+002
2.541850e+002, 8.003041e+002
2.546671e+002, 7.991894e+002
2.551492e+002, 7.989742e+002
2.556313e+002, 8.002305e+002
2.561135e+002, 8.033854e+002
2.565956e+002, 8.048539e+002
2.570777e+002, 8.037206e+002
2.575598e+002, 8.017372e+002
2.580419e+002, 8.014107e+002
2.585240e+002, 8.035975e+002
2.590062e+002, 8.054269e+002
2.594883e+002, 8.057079e+002
2.599704e+002, 8.042084e+002
2.604525e+002, 8.046947e+002
2.609346e+002, 8.077770e+002
2.614167e+002, 8.120773e+002
2.618989e+002, 8.157552e+002
2.623810e+002, 8.178475e+002
2.628631e+002, 8.218766e+002
2.633452e+002, 8.289121e+002
2.638273e+002, 8.390539e+002
2.643094e+002, 8.492189e+002
2.647916e+002, 8.589653e+002
2.652737e+002, 8.697132e+002
2.657558e+002, 8.827135e+002
2.662379e+002, 8.975378e+002
2.667200e+002, 9.160518e+002
2.672021e+002, 9.400363e+002
2.676843e+002, 9.686641e+002
2.681664e+002, 9.944742e+002
2.686485e+002, 1.016514e+003
2.691306e+002, 1.037606e+003
2.696127e+002, 1.060885e+003
2.700948e+002, 1.087863e+003
2.705770e+002, 1.110304e+003
2.710591e+002, 1.128137e+003
2.715412e+002, 1.140132e+003
2.720233e+002, 1.139735e+003
2.725054e+002, 1.125298e+003
2.729875e+002, 1.102795e+003
2.734697e+002, 1.075597e+003
2.739518e+002, 1.042982e+003
2.744339e+002, 1.008308e+003
2.749160e+002, 9.709138e+002
2.753981e+002, 9.324799e+002
2.758802e+002, 8.966061e+002
2.763624e+002, 8.634315e+002
2.768445e+002, 8.344881e+002
2.773266e+002, 8.111783e+002
2.778087e+002, 7.936739e+002
2.782908e+002, 7.793558e+002
2.787729e+002, 7.680498e+002
2.792551e+002, 7.597833e+002
2.797372e+002, 7.556450e+002
2.802193e+002, 7.561378e+002
2.807014e+002, 7.574608e+002
2.811835e+002, 7.575338e+002
2.816656e+002, 7.563827e+002
2.821478e+002, 7.556972e+002
2.826299e+002, 7.554999e+002
2.831120e+002, 7.558803e+002
2.835941e+002, 7.570416e+002
2.840762e+002, 7.590065e+002
2.845583e+002, 7.614646e+002
2.850405e+002, 7.643089e+002
2.855226e+002, 7.675422e+002
2.860047e+002, 7.714806e+002
2.864868e+002, 7.764046e+002
2.869689e+002, 7.810955e+002
2.874510e+002, 7.833775e+002
2.879332e+002, 7.833862e+002
2.884153e+002, 7.839344e+002
2.888974e+002, 7.856917e+002
2.893795e+002, 7.888167e+002
2.898616e+002, 7.948204e+002
2.903438e+002, 8.041411e+002
2.908259e+002, 8.132794e+002
2.913080e+002, 8.175621e+002
2.917901e+002, 8.177698e+002
2.922722e+002, 8.189122e+002
2.927543e+002, 8.232031e+002
2.932365e+002, 8.291910e+002
2.937186e+002, 8.329227e+002
2.942007e+002, 8.343201e+002
2.946828e+002, 8.362490e+002
2.951649e+002, 8.414595e+002
2.956470e+002, 8.492955e+002
2.961292e+002, 8.580184e+002
2.966113e+002, 8.679002e+002
2.970934e+002, 8.775099e+002
2.975755e+002, 8.841305e+002
2.980576e+002, 8.880247e+002
2.985397e+002, 8.916691e+002
2.990219e+002, 8.964404e+002
2.995040e+002, 9.023932e+002
2.999861e+002, 9.098984e+002
3.004682e+002, 9.197275e+002
3.009503e+002, 9.296871e+002
3.014324e+002, 9.367297e+002
3.019146e+002, 9.414362e+002
3.023967e+002, 9.465292e+002
3.028788e+002, 9.537067e+002
3.033609e+002, 9.622767e+002
3.038430e+002, 9.715223e+002
3.043251e+002, 9.817358e+002
3.048073e+002, 9.911140e+002
3.052894e+002, 9.973444e+002
3.057715e+002, 1.001391e+003
3.062536e+002, 1.005792e+003
3.067357e+002, 1.010917e+003
3.072178e+002, 1.017462e+003
3.077000e+002, 1.026967e+003
3.081821e+002, 1.039910e+003
3.086642e+002, 1.052071e+003
3.091463e+002, 1.060300e+003
3.096284e+002, 1.065669e+003
3.101105e+002, 1.069952e+003
3.105927e+002, 1.071955e+003
3.110748e+002, 1.074450e+003
3.115569e+002, 1.079876e+003
3.120390e+002, 1.088269e+003
3.125211e+002, 1.096903e+003
3.130032e+002, 1.103957e+003
3.134854e+002, 1.110662e+003
3.139675e+002, 1.118234e+003
3.144496e+002, 1.127963e+003
3.149317e+002, 1.137854e+003
3.154138e+002, 1.146905e+003
3.158959e+002, 1.155262e+003
3.163781e+002, 1.164044e+003
3.168602e+002, 1.174711e+003
3.173423e+002, 1.185355e+003
3.178244e+002, 1.194442e+003
3.183065e+002, 1.200202e+003
3.187886e+002, 1.206416e+003
3.192708e+002, 1.214055e+003
3.197529e+002, 1.223017e+003
3.202350e+002, 1.233055e+003
3.207171e+002, 1.244164e+003
3.211992e+002, 1.256147e+003
3.216813e+002, 1.269120e+003
3.221635e+002, 1.283920e+003
3.226456e+002, 1.297770e+003
3.231277e+002, 1.309382e+003
3.236098e+002, 1.319811e+003
3.240919e+002, 1.330876e+003
3.245740e+002, 1.343270e+003
3.250562e+002, 1.355808e+003
3.255383e+002, 1.368052e+003
3.260204e+002, 1.379815e+003
3.265025e+002, 1.391961e+003
3.269846e+002, 1.405988e+003
3.274667e+002, 1.419823e+003
3.279489e+002, 1.431431e+003
3.284310e+002, 1.438489e+003
3.289131e+002, 1.445978e+003
3.293952e+002, 1.454846e+003
3.298773e+002, 1.465141e+003
3.303594e+002, 1.475445e+003
3.308416e+002, 1.486758e+003
3.313237e+002, 1.497138e+003
3.318058e+002, 1.505010e+003
3.322879e+002, 1.508503e+003
3.327700e+002, 1.512693e+003
3.332521e+002, 1.518277e+003
3.337343e+002, 1.524955e+003
3.342164e+002, 1.531156e+003
3.346985e+002, 1.535883e+003
3.351806e+002, 1.541536e+003
3.356627e+002, 1.550000e+003
3.361448e+002, 1.563058e+003
3.366270e+002, 1.572835e+003
3.371091e+002, 1.577594e+003
3.375912e+002, 1.580022e+003
3.380733e+002, 1.586188e+003
3.385554e+002, 1.597333e+003
3.390375e+002, 1.608011e+003
3.395197e+002, 1.615736e+003
3.400018e+002, 1.620246e+003
3.404839e+002, 1.625902e+003
3.409660e+002, 1.633101e+003
3.414481e+002, 1.640352e+003
3.419302e+002, 1.645995e+003
3.424124e+002, 1.650129e+003
3.428945e+002, 1.651627e+003
3.433766e+002, 1.649124e+003
3.438587e+002, 1.643760e+003
3.443408e+002, 1.641529e+003
3.448229e+002, 1.643017e+003
3.453051e+002, 1.643628e+003
3.457872e+002, 1.638348e+003
3.462693e+002, 1.628026e+003
3.467514e+002, 1.618042e+003
3.472335e+002, 1.609679e+003
3.477156e+002, 1.602127e+003
3.481978e+002, 1.594397e+003
3.486799e+002, 1.586446e+003
3.491620e+002, 1.577589e+003
3.496441e+002, 1.567182e+003
3.501262e+002, 1.555560e+003
3.506083e+002, 1.542792e+003
3.510905e+002, 1.528052e+003
3.515726e+002, 1.514842e+003
3.520547e+002, 1.508645e+003
3.525368e+002, 1.507578e+003
3.530189e+002, 1.505949e+003
3.535010e+002, 1.499703e+003
3.539832e+002, 1.491868e+003
3.544653e+002, 1.486460e+003
3.549474e+002, 1.483684e+003
3.554295e+002, 1.480916e+003
3.559116e+002, 1.475418e+003
3.563937e+002, 1.468698e+003
3.568759e+002, 1.463101e+003
3.573580e+002, 1.460318e+003
3.578401e+002, 1.458177e+003
3.583222e+002, 1.455405e+003
3.588043e+002, 1.452019e+003
3.592864e+002, 1.448259e+003
3.597686e+002, 1.444558e+003
3.602507e+002, 1.440355e+003
3.607328e+002, 1.435371e+003
3.612149e+002, 1.430299e+003
3.616970e+002, 1.423090e+003
3.621791e+002, 1.412667e+003
3.626613e+002, 1.399478e+003
3.631434e+002, 1.384567e+003
3.636255e+002, 1.365613e+003
3.641076e+002, 1.347106e+003
3.645897e+002, 1.331376e+003
3.650718e+002, 1.319966e+003
3.655540e+002, 1.307917e+003
3.660361e+002, 1.293642e+003
3.665182e+002, 1.278536e+003
3.670003e+002, 1.264272e+003
3.674824e+002, 1.250248e+003
3.679645e+002, 1.237924e+003
3.684467e+002, 1.228781e+003
3.689288e+002, 1.223229e+003
3.694109e+002, 1.214648e+003
3.698930e+002, 1.199857e+003
3.703751e+002, 1.184525e+003
3.708572e+002, 1.172457e+003
3.713394e+002, 1.165590e+003
3.718215e+002, 1.159020e+003
3.723036e+002, 1.152777e+003
3.727857e+002, 1.146579e+003
3.732678e+002, 1.139124e+003
3.737499e+002, 1.129260e+003
3.742321e+002, 1.120035e+003
3.747142e+002, 1.113518e+003
3.751963e+002, 1.110957e+003
3.756784e+002, 1.105189e+003
3.761605e+002, 1.095004e+003
3.766426e+002, 1.083159e+003
3.771248e+002, 1.074610e+003
3.776069e+002, 1.069879e+003
3.780890e+002, 1.064699e+003
3.785711e+002, 1.057758e+003
3.790532e+002, 1.049165e+003
3.795353e+002, 1.040052e+003
3.800175e+002, 1.030262e+003
3.804996e+002, 1.020329e+003
3.809817e+002, 1.010436e+003
3.814638e+002, 1.000714e+003
3.819459e+002, 9.920259e+002
3.824280e+002, 9.851292e+002
3.829102e+002, 9.787018e+002
3.833923e+002, 9.696143e+002
3.838744e+002, 9.581248e+002
3.843565e+002, 9.477197e+002
3.848386e+002, 9.417535e+002
3.853207e+002, 9.383031e+002
3.858029e+002, 9.336503e+002
3.862850e+002, 9.272733e+002
3.867671e+002, 9.202543e+002
3.872492e+002, 9.145078e+002
3.877313e+002, 9.089633e+002
3.882134e+002, 9.012723e+002
3.886956e+002, 8.873702e+002
3.891777e+002, 8.729382e+002
3.896598e+002, 8.636194e+002
3.901419e+002, 8.592982e+002
3.906240e+002, 8.556243e+002
3.911061e+002, 8.503151e+002
3.915883e+002, 8.440867e+002
3.920704e+002, 8.376089e+002
3.925525e+002, 8.305673e+002
3.930346e+002, 8.240345e+002
3.935167e+002, 8.183101e+002
3.939988e+002, 8.133867e+002
3.944810e+002, 8.091575e+002
3.949631e+002, 8.069680e+002
3.954452e+002, 8.043888e+002
3.959273e+002, 7.998293e+002
3.964094e+002, 7.921301e+002
3.968915e+002, 7.855782e+002
3.973737e+002, 7.812433e+002
3.978558e+002, 7.783670e+002
3.983379e+002, 7.760145e+002
3.988200e+002, 7.748241e+002
3.993021e+002, 7.733514e+002
3.997842e+002, 7.708763e+002
4.002664e+002, 7.674004e+002
4.007485e+002, 7.654157e+002
4.012306e+002, 7.665101e+002
4.017127e+002, 7.675526e+002
4.021948e+002, 7.663312e+002
4.026769e+002, 7.610701e+002
4.031591e+002, 7.574945e+002
4.036412e+002, 7.566721e+002
4.041233e+002, 7.573854e+002
4.046054e+002, 7.564192e+002
4.050875e+002, 7.532036e+002
4.055696e+002, 7.500294e+002
4.060518e+002, 7.479269e+002
4.065339e+002, 7.469401e+002
4.070160e+002, 7.455909e+002
4.074981e+002, 7.437345e+002
4.079802e+002, 7.420013e+002
4.084623e+002, 7.413671e+002
4.089445e+002, 7.418107e+002
4.094266e+002, 7.419102e+002
4.099087e+002, 7.412540e+002
4.103908e+002, 7.400795e+002
4.108729e+002, 7.383682e+002
4.113550e+002, 7.361812e+002
4.118372e+002, 7.352820e+002
4.123193e+002, 7.384433e+002
4.128014e+002, 7.437091e+002
4.132835e+002, 7.462693e+002
4.137656e+002, 7.451495e+002
4.142477e+002, 7.427283e+002
4.147299e+002, 7.408351e+002
4.152120e+002, 7.395751e+002
4.156941e+002, 7.392604e+002
4.161762e+002, 7.416005e+002
4.166583e+002, 7.438976e+002
4.171404e+002, 7.429933e+002
4.176226e+002, 7.389662e+002
4.181047e+002, 7.356716e+002
4.185868e+002, 7.362541e+002
4.190689e+002, 7.381778e+002
4.195510e+002, 7.389591e+002
4.200331e+002, 7.366918e+002
4.205153e+002, 7.348532e+002
4.209974e+002, 7.355438e+002
4.214795e+002, 7.377350e+002
4.219616e+002, 7.387868e+002
4.224437e+002, 7.371014e+002
4.229258e+002, 7.349604e+002
4.234080e+002, 7.334788e+002
4.238901e+002, 7.331743e+002
4.243722e+002, 7.319241e+002
4.248543e+002, 7.280601e+002
4.253364e+002, 7.239276e+002
4.258185e+002, 7.219255e+002
4.263007e+002, 7.243098e+002
4.267828e+002, 7.254704e+002
4.272649e+002, 7.239528e+002
4.277470e+002, 7.203377e+002
4.282291e+002, 7.184587e+002
4.287112e+002, 7.188395e+002
4.291934e+002, 7.200591e+002
4.296755e+002, 7.218134e+002
4.301576e+002, 7.246029e+002
4.306397e+002, 7.248018e+002
4.311218e+002, 7.212785e+002
4.316039e+002, 7.168055e+002
4.320861e+002, 7.162220e+002
4.325682e+002, 7.198160e+002
4.330503e+002, 7.230923e+002
4.335324e+002, 7.245305e+002
4.340145e+002, 7.244779e+002
4.344966e+002, 7.239096e+002
4.349788e+002, 7.228148e+002
4.354609e+002, 7.217460e+002
4.359430e+002, 7.215270e+002
4.364251e+002, 7.217118e+002
4.369072e+002, 7.208192e+002
4.373893e+002, 7.181329e+002
4.378715e+002, 7.154588e+002
4.383536e+002, 7.150668e+002
4.388357e+002, 7.163956e+002
4.393178e+002, 7.178796e+002
4.397999e+002, 7.186893e+002
4.402820e+002, 7.192968e+002
4.407642e+002, 7.202816e+002
4.412463e+002, 7.216761e+002
4.417284e+002, 7.225906e+002
4.422105e+002, 7.219251e+002
4.426926e+002, 7.208199e+002
4.431747e+002, 7.203899e+002
4.436569e+002, 7.216408e+002
4.441390e+002, 7.227396e+002
4.446211e+002, 7.224628e+002
4.451032e+002, 7.215148e+002
4.455853e+002, 7.219475e+002
4.460674e+002, 7.270011e+002
4.465496e+002, 7.309958e+002
4.470317e+002, 7.314274e+002
4.475138e+002, 7.268495e+002
4.479959e+002, 7.232336e+002
4.484780e+002, 7.206559e+002
4.489601e+002, 7.189923e+002
4.494423e+002, 7.181685e+002
4.499244e+002, 7.185566e+002
4.504065e+002, 7.190190e+002
4.508886e+002, 7.191854e+002
4.513707e+002, 7.193153e+002
4.518528e+002, 7.207994e+002
4.523350e+002, 7.241880e+002
4.528171e+002, 7.272611e+002
4.532992e+002, 7.287717e+002
4.537813e+002, 7.286929e+002
4.542634e+002, 7.282269e+002
4.547455e+002, 7.272214e+002
4.552277e+002, 7.263359e+002
4.557098e+002, 7.265413e+002
4.561919e+002, 7.276987e+002
4.566740e+002, 7.289642e+002
4.571561e+002, 7.302299e+002
4.576382e+002, 7.312717e+002
4.581204e+002, 7.312672e+002
4.586025e+002, 7.304109e+002
4.590846e+002, 7.300890e+002
4.595667e+002, 7.320248e+002
4.600488e+002, 7.347531e+002
4.605309e+002, 7.362924e+002
4.610131e+002, 7.362054e+002
4.614952e+002, 7.356938e+002
4.619773e+002, 7.353624e+002
4.624594e+002, 7.351945e+002
4.629415e+002, 7.351611e+002
4.634236e+002, 7.357557e+002
4.639058e+002, 7.360109e+002
4.643879e+002, 7.351998e+002
4.648700e+002, 7.334696e+002
4.653521e+002, 7.321731e+002
4.658342e+002, 7.313367e+002
4.663163e+002, 7.312286e+002
4.667985e+002, 7.321040e+002
4.672806e+002, 7.349200e+002
4.677627e+002, 7.369808e+002
4.682448e+002, 7.382198e+002
4.687269e+002, 7.386696e+002
4.692090e+002, 7.383241e+002
4.696912e+002, 7.367504e+002
4.701733e+002, 7.351007e+002
4.706554e+002, 7.333065e+002
4.711375e+002, 7.315218e+002
4.716196e+002, 7.316468e+002
4.721017e+002, 7.344415e+002
4.725839e+002, 7.370080e+002
4.730660e+002, 7.372545e+002
4.735481e+002, 7.351573e+002
4.740302e+002, 7.326075e+002
4.745123e+002, 7.294049e+002
4.749944e+002, 7.267423e+002
4.754766e+002, 7.271453e+002
4.759587e+002, 7.300938e+002
4.764408e+002, 7.321903e+002
4.769229e+002, 7.314440e+002
4.774050e+002, 7.294156e+002
4.778871e+002, 7.286903e+002
4.783693e+002, 7.291598e+002
4.788514e+002, 7.297904e+002
4.793335e+002, 7.299395e+002
4.798156e+002, 7.298054e+002
4.802977e+002, 7.295449e+002
4.807798e+002, 7.290787e+002
4.812620e+002, 7.288456e+002
4.817441e+002, 7.289302e+002
4.822262e+002, 7.294357e+002
4.827083e+002, 7.305162e+002
4.831904e+002, 7.335630e+002
4.836725e+002, 7.358793e+002
4.841547e+002, 7.359747e+002
4.846368e+002, 7.340137e+002
4.851189e+002, 7.326256e+002
4.856010e+002, 7.318121e+002
4.860831e+002, 7.319537e+002
4.865652e+002, 7.333318e+002
4.870474e+002, 7.368521e+002
4.875295e+002, 7.397134e+002
4.880116e+002, 7.419779e+002
4.884937e+002, 7.435041e+002
4.889758e+002, 7.440466e+002
4.894579e+002, 7.434366e+002
4.899401e+002, 7.422814e+002
4.904222e+002, 7.404132e+002
4.909043e+002, 7.381514e+002
4.913864e+002, 7.369388e+002
4.918685e+002, 7.368401e+002
4.923506e+002, 7.373490e+002
4.928328e+002, 7.383937e+002
4.933149e+002, 7.398161e+002
4.937970e+002, 7.411412e+002
4.942791e+002, 7.424911e+002
4.947612e+002, 7.429510e+002
4.952433e+002, 7.403375e+002
4.957255e+002, 7.359708e+002
4.962076e+002, 7.332521e+002
4.966897e+002, 7.346221e+002
4.971718e+002, 7.370006e+002
4.976539e+002, 7.375732e+002
4.981360e+002, 7.366488e+002
4.986182e+002, 7.354089e+002
4.991003e+002, 7.336588e+002
4.995824e+002, 7.323754e+002
5.000645e+002, 7.325051e+002
5.005466e+002, 7.345073e+002
5.010287e+002, 7.362331e+002
5.015109e+002, 7.371310e+002
5.019930e+002, 7.374138e+002
5.024751e+002, 7.372791e+002
5.029572e+002, 7.355716e+002
5.034393e+002, 7.348741e+002
5.039214e+002, 7.361844e+002
5.044036e+002, 7.387472e+002
5.048857e+002, 7.398905e+002
5.053678e+002, 7.389468e+002
5.058499e+002, 7.377452e+002
5.063320e+002, 7.369294e+002
5.068141e+002, 7.365028e+002
5.072963e+002, 7.365784e+002
5.077784e+002, 7.373353e+002
5.082605e+002, 7.381304e+002
5.087426e+002, 7.378916e+002
5.092247e+002, 7.367593e+002
5.097068e+002, 7.371671e+002
5.101890e+002, 7.401464e+002
5.106711e+002, 7.437560e+002
5.111532e+002, 7.441127e+002
5.116353e+002, 7.418947e+002
5.121174e+002, 7.403721e+002
5.125995e+002, 7.422776e+002
5.130817e+002, 7.452374e+002
5.135638e+002, 7.460763e+002
5.140459e+002, 7.448315e+002
5.145280e+002, 7.438547e+002
5.150101e+002, 7.455150e+002
5.154922e+002, 7.476965e+002
5.159744e+002, 7.482708e+002
5.164565e+002, 7.458519e+002
5.169386e+002, 7.437041e+002
5.174207e+002, 7.430016e+002
5.179028e+002, 7.432311e+002
5.183849e+002, 7.435479e+002
5.188671e+002, 7.444056e+002
5.193492e+002, 7.446859e+002
5.198313e+002, 7.436053e+002
5.203134e+002, 7.413528e+002
5.207955e+002, 7.408715e+002
5.212776e+002, 7.434787e+002
5.217598e+002, 7.458982e+002
5.222419e+002, 7.459589e+002
5.227240e+002, 7.429823e+002
5.232061e+002, 7.411966e+002
5.236882e+002, 7.406733e+002
5.241703e+002, 7.413137e+002
5.246525e+002, 7.436388e+002
5.251346e+002, 7.474982e+002
5.256167e+002, 7.502816e+002
5.260988e+002, 7.512236e+002
5.265809e+002, 7.507450e+002
5.270630e+002, 7.488340e+002
5.275452e+002, 7.458356e+002
5.280273e+002, 7.436458e+002
5.285094e+002, 7.433659e+002
5.289915e+002, 7.445074e+002
5.294736e+002, 7.471232e+002
5.299557e+002, 7.512992e+002
5.304379e+002, 7.545938e+002
5.309200e+002, 7.548076e+002
5.314021e+002, 7.537954e+002
5.318842e+002, 7.534482e+002
5.323663e+002, 7.553874e+002
5.328484e+002, 7.563312e+002
5.333306e+002, 7.541813e+002
5.338127e+002, 7.505574e+002
5.342948e+002, 7.489594e+002
5.347769e+002, 7.515284e+002
5.352590e+002, 7.539918e+002
5.357411e+002, 7.555639e+002
5.362233e+002, 7.562528e+002
5.367054e+002, 7.560426e+002
5.371875e+002, 7.545912e+002
5.376696e+002, 7.529368e+002
5.381517e+002, 7.516822e+002
5.386339e+002, 7.508537e+002
5.391160e+002, 7.501943e+002
5.395981e+002, 7.495535e+002
5.400802e+002, 7.495078e+002
5.405623e+002, 7.515687e+002
5.410444e+002, 7.552216e+002
5.415266e+002, 7.575087e+002
5.420087e+002, 7.569318e+002
5.424908e+002, 7.551900e+002
5.429729e+002, 7.546984e+002
5.434550e+002, 7.551766e+002
5.439371e+002, 7.554972e+002
5.444193e+002, 7.540686e+002
5.449014e+002, 7.528424e+002
5.453835e+002, 7.539814e+002
5.458656e+002, 7.578085e+002
5.463477e+002, 7.608160e+002
5.468298e+002, 7.609923e+002
5.473120e+002, 7.600809e+002
5.477941e+002, 7.594986e+002
5.482762e+002, 7.591439e+002
5.487583e+002, 7.595871e+002
5.492404e+002, 7.618710e+002
5.497225e+002, 7.646714e+002
5.502047e+002, 7.656349e+002
5.506868e+002, 7.638243e+002
5.511689e+002, 7.619379e+002
5.516510e+002, 7.604683e+002
5.521331e+002, 7.594607e+002
5.526152e+002, 7.594144e+002
5.530974e+002, 7.604928e+002
5.535795e+002, 7.617704e+002
5.540616e+002, 7.627286e+002
5.545437e+002, 7.633969e+002
5.550258e+002, 7.639477e+002
5.555079e+002, 7.644306e+002
5.559901e+002, 7.645955e+002
5.564722e+002, 7.638325e+002
5.569543e+002, 7.625997e+002
5.574364e+002, 7.618448e+002
5.579185e+002, 7.619095e+002
5.584006e+002, 7.624200e+002
5.588828e+002, 7.629819e+002
5.593649e+002, 7.637438e+002
5.598470e+002, 7.650696e+002
5.603291e+002, 7.685840e+002
5.608112e+002, 7.713145e+002
5.612933e+002, 7.715342e+002
5.617755e+002, 7.691486e+002
5.622576e+002, 7.670953e+002
5.627397e+002, 7.651368e+002
5.632218e+002, 7.641525e+002
5.637039e+002, 7.648287e+002
5.641860e+002, 7.684327e+002
5.646682e+002, 7.703557e+002
5.651503e+002, 7.701979e+002
5.656324e+002, 7.689067e+002
5.661145e+002, 7.672885e+002
5.665966e+002, 7.651641e+002
5.670787e+002, 7.645927e+002
5.675609e+002, 7.665063e+002
5.680430e+002, 7.696345e+002
5.685251e+002, 7.712252e+002
5.690072e+002, 7.714302e+002
5.694893e+002, 7.712923e+002
5.699714e+002, 7.712279e+002
5.704536e+002, 7.712378e+002
5.709357e+002, 7.713365e+002
5.714178e+002, 7.715164e+002
5.718999e+002, 7.717170e+002
5.723820e+002, 7.716672e+002
5.728641e+002, 7.717405e+002
5.733463e+002, 7.725565e+002
5.738284e+002, 7.750486e+002
5.743105e+002, 7.760029e+002
5.747926e+002, 7.722279e+002
5.752747e+002, 7.671801e+002
5.757568e+002, 7.652794e+002
5.762390e+002, 7.704989e+002
5.767211e+002, 7.739478e+002
5.772032e+002, 7.737689e+002
5.776853e+002, 7.711846e+002
5.781674e+002, 7.704608e+002
5.786495e+002, 7.720870e+002
5.791317e+002, 7.741693e+002
5.796138e+002, 7.760926e+002
5.800959e+002, 7.778392e+002
5.805780e+002, 7.793317e+002
5.810601e+002, 7.806167e+002
5.815422e+002, 7.813148e+002
5.820244e+002, 7.808023e+002
5.825065e+002, 7.794869e+002
5.829886e+002, 7.779986e+002
5.834707e+002, 7.761194e+002
5.839528e+002, 7.756432e+002
5.844349e+002, 7.801882e+002
5.849171e+002, 7.866614e+002
5.853992e+002, 7.904484e+002
5.858813e+002, 7.879038e+002
5.863634e+002, 7.845435e+002
5.868455e+002, 7.820877e+002
5.873276e+002, 7.804993e+002
5.878098e+002, 7.798087e+002
5.882919e+002, 7.813083e+002
5.887740e+002, 7.823730e+002
5.892561e+002, 7.820092e+002
5.897382e+002, 7.801791e+002
5.902203e+002, 7.789087e+002
5.907025e+002, 7.781097e+002
5.911846e+002, 7.780424e+002
5.916667e+002, 7.791599e+002
5.921488e+002, 7.815920e+002
5.926309e+002, 7.834910e+002
5.931130e+002, 7.848385e+002
5.935952e+002, 7.855612e+002
5.940773e+002, 7.852271e+002
5.945594e+002, 7.841222e+002
5.950415e+002, 7.833446e+002
5.955236e+002, 7.832042e+002
5.960057e+002, 7.834479e+002
5.964879e+002, 7.838240e+002
5.969700e+002, 7.843657e+002
5.974521e+002, 7.851457e+002
5.979342e+002, 7.864147e+002
5.984163e+002, 7.877427e+002
5.988984e+002, 7.893336e+002
5.993806e+002, 7.910231e+002
5.998627e+002, 7.913708e+002
6.003448e+002, 7.869058e+002
6.008269e+002, 7.837410e+002
6.013090e+002, 7.854775e+002
6.017911e+002, 7.943564e+002
6.022733e+002, 7.991711e+002
6.027554e+002, 7.987272e+002
6.032375e+002, 7.959003e+002
6.037196e+002, 7.927793e+002
6.042017e+002, 7.891486e+002
6.046838e+002, 7.874241e+002
6.051660e+002, 7.882340e+002
6.056481e+002, 7.902266e+002
6.061302e+002, 7.913166e+002
6.066123e+002, 7.916754e+002
6.070944e+002, 7.920840e+002
6.075765e+002, 7.928463e+002
6.080587e+002, 7.937881e+002
6.085408e+002, 7.948826e+002
6.090229e+002, 7.960228e+002
6.095050e+002, 7.968748e+002
6.099871e+002, 7.970194e+002
6.104692e+002, 7.969972e+002
6.109514e+002, 7.970562e+002
6.114335e+002, 7.972052e+002
6.119156e+002, 7.975768e+002
6.123977e+002, 7.986742e+002
6.128798e+002, 7.996249e+002
6.133619e+002, 7.997657e+002
6.138441e+002, 7.981007e+002
6.143262e+002, 7.983202e+002
6.148083e+002, 8.015739e+002
6.152904e+002, 8.051694e+002
6.157725e+002, 8.050994e+002
6.162546e+002, 8.010855e+002
6.167368e+002, 7.984108e+002
6.172189e+002, 7.982415e+002
6.177010e+002, 7.996085e+002
6.181831e+002, 8.013961e+002
6.186652e+002, 8.033494e+002
6.191473e+002, 8.044183e+002
6.196295e+002, 8.025819e+002
6.201116e+002, 8.006307e+002
6.205937e+002, 8.023196e+002
6.210758e+002, 8.068113e+002
6.215579e+002, 8.099554e+002
6.220400e+002, 8.079899e+002
6.225222e+002, 8.053746e+002
6.230043e+002, 8.049080e+002
6.234864e+002, 8.073746e+002
6.239685e+002, 8.089058e+002
6.244506e+002, 8.084287e+002
6.249327e+002, 8.074787e+002
6.254149e+002, 8.069676e+002
6.258970e+002, 8.068331e+002
6.263791e+002, 8.074944e+002
6.268612e+002, 8.093757e+002
6.273433e+002, 8.113608e+002
6.278254e+002, 8.114070e+002
6.283076e+002, 8.096467e+002
6.287897e+002, 8.090841e+002
6.292718e+002, 8.108845e+002
6.297539e+002, 8.135643e+002
6.302360e+002, 8.149411e+002
6.307181e+002, 8.152266e+002
6.312003e+002, 8.150570e+002
6.316824e+002, 8.145314e+002
6.321645e+002, 8.138528e+002
6.326466e+002, 8.129450e+002
6.331287e+002, 8.119182e+002
6.336108e+002, 8.114771e+002
6.340930e+002, 8.124982e+002
6.345751e+002, 8.136271e+002
6.350572e+002, 8.141782e+002
6.355393e+002, 8.140389e+002
6.360214e+002, 8.136310e+002
6.365035e+002, 8.120398e+002
6.369857e+002, 8.112945e+002
6.374678e+002, 8.138117e+002
6.379499e+002, 8.205198e+002
6.384320e+002, 8.231447e+002
6.389141e+002, 8.202366e+002
6.393962e+002, 8.157880e+002
6.398784e+002, 8.152781e+002
6.403605e+002, 8.179326e+002
6.408426e+002, 8.204352e+002
6.413247e+002, 8.219434e+002
6.418068e+002, 8.227834e+002
6.422889e+002, 8.228458e+002
6.427711e+002, 8.225324e+002
6.432532e+002, 8.227541e+002
6.437353e+002, 8.249518e+002
6.442174e+002, 8.267907e+002
6.446995e+002, 8.266718e+002
6.451816e+002, 8.249482e+002
6.456638e+002, 8.241541e+002
6.461459e+002, 8.258693e+002
6.466280e+002, 8.273317e+002
6.471101e+002, 8.273962e+002
6.475922e+002, 8.259259e+002
6.480743e+002, 8.254683e+002
6.485565e+002, 8.261901e+002
6.490386e+002, 8.274837e+002
6.495207e+002, 8.290399e+002
6.500028e+002, 8.307998e+002
6.504849e+002, 8.324380e+002
6.509670e+002, 8.339740e+002
6.514492e+002, 8.349474e+002
6.519313e+002, 8.344938e+002
6.524134e+002, 8.331727e+002
6.528955e+002, 8.319839e+002
6.533776e+002, 8.309980e+002
6.538597e+002, 8.305676e+002
6.543419e+002, 8.312248e+002
6.548240e+002, 8.325131e+002
6.553061e+002, 8.337213e+002
6.557882e+002, 8.346091e+002
6.562703e+002, 8.354874e+002
6.567524e+002, 8.364055e+002
6.572346e+002, 8.373849e+002
6.577167e+002, 8.385485e+002
6.581988e+002, 8.401956e+002
6.586809e+002, 8.413804e+002
6.591630e+002, 8.418143e+002
6.596451e+002, 8.415197e+002
6.601273e+002, 8.401755e+002
6.606094e+002, 8.376654e+002
6.610915e+002, 8.359636e+002
6.615736e+002, 8.365747e+002
6.620557e+002, 8.388282e+002
6.625378e+002, 8.422020e+002
6.630200e+002, 8.466301e+002
6.635021e+002, 8.494303e+002
6.639842e+002, 8.473118e+002
6.644663e+002, 8.434455e+002
6.649484e+002, 8.407800e+002
6.654305e+002, 8.400396e+002
6.659127e+002, 8.398273e+002
6.663948e+002, 8.392726e+002
6.668769e+002, 8.394258e+002
6.673590e+002, 8.415021e+002
6.678411e+002, 8.473057e+002
6.683232e+002, 8.512119e+002
6.688054e+002, 8.524835e+002
6.692875e+002, 8.520054e+002
6.697696e+002, 8.508264e+002
6.702517e+002, 8.489156e+002
6.707338e+002, 8.478590e+002
6.712159e+002, 8.482367e+002
6.716981e+002, 8.495684e+002
6.721802e+002, 8.517194e+002
6.726623e+002, 8.542580e+002
6.731444e+002, 8.557174e+002
6.736265e+002, 8.547381e+002
6.741086e+002, 8.528597e+002
6.745908e+002, 8.503560e+002
6.750729e+002, 8.476243e+002
6.755550e+002, 8.467799e+002
6.760371e+002, 8.514471e+002
6.765192e+002, 8.554691e+002
6.770013e+002, 8.555065e+002
6.774835e+002, 8.509952e+002
6.779656e+002, 8.487998e+002
6.784477e+002, 8.496337e+002
6.789298e+002, 8.514637e+002
6.794119e+002, 8.531371e+002
6.798940e+002, 8.546697e+002
6.803762e+002, 8.555125e+002
6.808583e+002, 8.556107e+002
6.813404e+002, 8.552873e+002
6.818225e+002, 8.546395e+002
6.823046e+002, 8.538517e+002
6.827867e+002, 8.532092e+002
6.832689e+002, 8.526473e+002
6.837510e+002, 8.526906e+002
6.842331e+002, 8.543925e+002
6.847152e+002, 8.566999e+002
6.851973e+002, 8.582334e+002
6.856794e+002, 8.583130e+002
6.861616e+002, 8.579955e+002
6.866437e+002, 8.568947e+002
6.871258e+002, 8.556644e+002
6.876079e+002, 8.555491e+002
6.880900e+002, 8.568612e+002
6.885721e+002, 8.585854e+002
6.890543e+002, 8.609283e+002
6.895364e+002, 8.632029e+002
6.900185e+002, 8.626613e+002
6.905006e+002, 8.594238e+002
6.909827e+002, 8.571464e+002
6.914648e+002, 8.585305e+002
6.919470e+002, 8.615509e+002
6.924291e+002, 8.633365e+002
6.929112e+002, 8.639701e+002
6.933933e+002, 8.639218e+002
6.938754e+002, 8.627943e+002
6.943575e+002, 8.616022e+002
6.948397e+002, 8.609109e+002
6.953218e+002, 8.607717e+002
6.958039e+002, 8.612477e+002
6.962860e+002, 8.628268e+002
6.967681e+002, 8.645833e+002
6.972502e+002, 8.662578e+002
6.977324e+002, 8.680835e+002
6.982145e+002, 8.684086e+002
6.986966e+002, 8.667811e+002
6.991787e+002, 8.649430e+002
6.996608e+002, 8.646336e+002
7.001429e+002, 8.656227e+002
7.006251e+002, 8.670859e+002
7.011072e+002, 8.691321e+002
7.015893e+002, 8.703449e+002
7.020714e+002, 8.681569e+002
7.025535e+002, 8.645739e+002
7.030356e+002, 8.625984e+002
7.035178e+002, 8.638483e+002
7.039999e+002, 8.654990e+002
7.044820e+002, 8.666826e+002
7.049641e+002, 8.675397e+002
7.054462e+002, 8.682863e+002
7.059283e+002, 8.685778e+002
7.064105e+002, 8.693870e+002
7.068926e+002, 8.711484e+002
7.073747e+002, 8.733226e+002
7.078568e+002, 8.746479e+002
7.083389e+002, 8.751076e+002
7.088210e+002, 8.752112e+002
7.093032e+002, 8.755177e+002
7.097853e+002, 8.752067e+002
7.102674e+002, 8.711194e+002
7.107495e+002, 8.644408e+002
7.112316e+002, 8.603013e+002
7.117137e+002, 8.638623e+002
7.121959e+002, 8.690358e+002
7.126780e+002, 8.715822e+002
7.131601e+002, 8.716606e+002
7.136422e+002, 8.713640e+002
7.141243e+002, 8.702225e+002
7.146064e+002, 8.698965e+002
7.150886e+002, 8.718024e+002
7.155707e+002, 8.761010e+002
7.160528e+002, 8.765499e+002
7.165349e+002, 8.715417e+002
7.170170e+002, 8.668049e+002
7.174991e+002, 8.667811e+002
7.179813e+002, 8.707061e+002
7.184634e+002, 8.721491e+002
7.189455e+002, 8.708685e+002
7.194276e+002, 8.693345e+002
7.199097e+002, 8.698165e+002
7.203918e+002, 8.712697e+002
7.208740e+002, 8.722415e+002
7.213561e+002, 8.724265e+002
7.218382e+002, 8.727489e+002
7.223203e+002, 8.738181e+002
7.228024e+002, 8.751151e+002
7.232845e+002, 8.762426e+002
7.237667e+002, 8.778290e+002
7.242488e+002, 8.779159e+002
7.247309e+002, 8.756421e+002
7.252130e+002, 8.727706e+002
7.256951e+002, 8.713329e+002
7.261772e+002, 8.713952e+002
7.266594e+002, 8.720256e+002
7.271415e+002, 8.732549e+002
7.276236e+002, 8.745111e+002
7.281057e+002, 8.751193e+002
7.285878e+002, 8.751277e+002
7.290699e+002, 8.745897e+002
7.295521e+002, 8.730101e+002
7.300342e+002, 8.717249e+002
7.305163e+002, 8.718812e+002
7.309984e+002, 8.729166e+002
7.314805e+002, 8.738267e+002
7.319626e+002, 8.743510e+002
7.324448e+002, 8.747596e+002
7.329269e+002, 8.752982e+002
7.334090e+002, 8.757261e+002
7.338911e+002, 8.751385e+002
7.343732e+002, 8.731237e+002
7.348553e+002, 8.718284e+002
7.353375e+002, 8.720394e+002
7.358196e+002, 8.733220e+002
7.363017e+002, 8.752827e+002
7.367838e+002, 8.776058e+002
7.372659e+002, 8.783658e+002
7.377480e+002, 8.746440e+002
7.382302e+002, 8.702633e+002
7.387123e+002, 8.686566e+002
7.391944e+002, 8.695602e+002
7.396765e+002, 8.713882e+002
7.401586e+002, 8.758516e+002
7.406407e+002, 8.789517e+002
7.411229e+002, 8.779567e+002
7.416050e+002, 8.731366e+002
7.420871e+002, 8.704407e+002
7.425692e+002, 8.702524e+002
7.430513e+002, 8.712616e+002
7.435334e+002, 8.733040e+002
7.440156e+002, 8.761496e+002
7.444977e+002, 8.778262e+002
7.449798e+002, 8.783472e+002
7.454619e+002, 8.779545e+002
7.459440e+002, 8.754751e+002
7.464261e+002, 8.728947e+002
7.469083e+002, 8.732935e+002
7.473904e+002, 8.769857e+002
7.478725e+002, 8.800178e+002
7.483546e+002, 8.803286e+002
7.488367e+002, 8.794485e+002
7.493188e+002, 8.782791e+002
7.498010e+002, 8.768604e+002
7.502831e+002, 8.752575e+002
7.507652e+002, 8.732427e+002
7.512473e+002, 8.713708e+002
7.517294e+002, 8.697001e+002
7.522115e+002, 8.682631e+002
7.526937e+002, 8.693229e+002
7.531758e+002, 8.734178e+002
7.536579e+002, 8.773285e+002
7.541400e+002, 8.775159e+002
7.546221e+002, 8.753868e+002
7.551042e+002, 8.727795e+002
7.555864e+002, 8.695637e+002
7.560685e+002, 8.680576e+002
7.565506e+002, 8.722150e+002
7.570327e+002, 8.773616e+002
7.575148e+002, 8.786689e+002
7.579969e+002, 8.716274e+002
7.584791e+002, 8.667725e+002
7.589612e+002, 8.643802e+002
7.594433e+002, 8.638513e+002
7.599254e+002, 8.650153e+002
7.604075e+002, 8.679847e+002
7.608896e+002, 8.701336e+002
7.613718e+002, 8.711100e+002
7.618539e+002, 8.709631e+002
7.623360e+002, 8.684063e+002
7.628181e+002, 8.649393e+002
7.633002e+002, 8.639174e+002
7.637823e+002, 8.676664e+002
7.642645e+002, 8.716128e+002
7.647466e+002, 8.737988e+002
7.652287e+002, 8.744243e+002
7.657108e+002, 8.738136e+002
7.661929e+002, 8.703492e+002
7.666750e+002, 8.680065e+002
7.671572e+002, 8.673522e+002
7.676393e+002, 8.678211e+002
7.681214e+002, 8.687722e+002
7.686035e+002, 8.703188e+002
7.690856e+002, 8.703090e+002
7.695677e+002, 8.674938e+002
7.700499e+002, 8.641938e+002
7.705320e+002, 8.646708e+002
7.710141e+002, 8.675865e+002
7.714962e+002, 8.695184e+002
7.719783e+002, 8.680951e+002
7.724604e+002, 8.662532e+002
7.729426e+002, 8.657889e+002
7.734247e+002, 8.660161e+002
7.739068e+002, 8.652762e+002
7.743889e+002, 8.611793e+002
7.748710e+002, 8.594034e+002
7.753531e+002, 8.619704e+002
7.758353e+002, 8.670153e+002
7.763174e+002, 8.689113e+002
7.767995e+002, 8.675041e+002
7.772816e+002, 8.661593e+002
7.777637e+002, 8.661393e+002
7.782458e+002, 8.668652e+002
7.787280e+002, 8.677441e+002
7.792101e+002, 8.686024e+002
7.796922e+002, 8.688617e+002
7.801743e+002, 8.668279e+002
7.806564e+002, 8.655215e+002
7.811385e+002, 8.676541e+002
7.816207e+002, 8.721273e+002
7.821028e+002, 8.739022e+002
7.825849e+002, 8.711079e+002
7.830670e+002, 8.681462e+002
7.835491e+002, 8.659398e+002
7.840313e+002, 8.644691e+002
7.845134e+002, 8.636913e+002
7.849955e+002, 8.635969e+002
7.854776e+002, 8.639623e+002
7.859597e+002, 8.651956e+002
7.864418e+002, 8.664508e+002
7.869240e+002, 8.658632e+002
7.874061e+002, 8.639904e+002
7.878882e+002, 8.629005e+002
7.883703e+002, 8.644730e+002
7.888524e+002, 8.662998e+002
7.893345e+002, 8.672047e+002
7.898167e+002, 8.672650e+002
7.902988e+002, 8.674631e+002
7.907809e+002, 8.682074e+002
7.912630e+002, 8.683506e+002
7.917451e+002, 8.671256e+002
7.922272e+002, 8.650773e+002
7.927094e+002, 8.647620e+002
7.931915e+002, 8.661203e+002
7.936736e+002, 8.675055e+002
7.941557e+002, 8.674976e+002
7.946378e+002, 8.672790e+002
7.951199e+002, 8.689494e+002
7.956021e+002, 8.719434e+002
7.960842e+002, 8.737584e+002
7.965663e+002, 8.726649e+002
7.970484e+002, 8.707466e+002
7.975305e+002, 8.681823e+002
7.980126e+002, 8.652734e+002
7.984948e+002, 8.646895e+002
7.989769e+002, 8.675897e+002
7.994590e+002, 8.699730e+002
7.999411e+002, 8.700192e+002
8.004232e+002, 8.682819e+002
8.009053e+002, 8.663220e+002
8.013875e+002, 8.642734e+002
8.018696e+002, 8.634391e+002
8.023517e+002, 8.659292e+002
8.028338e+002, 8.690570e+002
8.033159e+002, 8.700638e+002
8.037980e+002, 8.691976e+002
8.042802e+002, 8.682814e+002
8.047623e+002, 8.673345e+002
8.052444e+002, 8.670379e+002
8.057265e+002, 8.678955e+002
8.062086e+002, 8.697089e+002
8.066907e+002, 8.706331e+002
8.071729e+002, 8.703641e+002
8.076550e+002, 8.705220e+002
8.081371e+002, 8.726544e+002
8.086192e+002, 8.754437e+002
8.091013e+002, 8.745350e+002
8.095834e+002, 8.706270e+002
8.100656e+002, 8.676976e+002
8.105477e+002, 8.692625e+002
8.110298e+002, 8.716496e+002
8.115119e+002, 8.724645e+002
8.119940e+002, 8.717822e+002
8.124761e+002, 8.708604e+002
8.129583e+002, 8.694749e+002
8.134404e+002, 8.684284e+002
8.139225e+002, 8.678802e+002
8.144046e+002, 8.678771e+002
8.148867e+002, 8.690173e+002
8.153688e+002, 8.713784e+002
8.158510e+002, 8.731507e+002
8.163331e+002, 8.728497e+002
8.168152e+002, 8.716797e+002
8.172973e+002, 8.718199e+002
8.177794e+002, 8.729235e+002
8.182615e+002, 8.736372e+002
8.187437e+002, 8.729147e+002
8.192258e+002, 8.719764e+002
8.197079e+002, 8.710026e+002
8.201900e+002, 8.701868e+002
8.206721e+002, 8.706425e+002
8.211542e+002, 8.730421e+002
8.216364e+002, 8.752432e+002
8.221185e+002, 8.766496e+002
8.226006e+002, 8.772863e+002
8.230827e+002, 8.771383e+002
8.235648e+002, 8.762819e+002
8.240469e+002, 8.752863e+002
8.245291e+002, 8.743527e+002
8.250112e+002, 8.735139e+002
8.254933e+002, 8.728113e+002
8.259754e+002, 8.722350e+002
8.264575e+002, 8.717220e+002
8.269396e+002, 8.714842e+002
8.274218e+002, 8.710080e+002
8.279039e+002, 8.694541e+002
8.283860e+002, 8.676523e+002
8.288681e+002, 8.689221e+002
8.293502e+002, 8.739328e+002
8.298323e+002, 8.782046e+002
8.303145e+002, 8.803957e+002
8.307966e+002, 8.807761e+002
8.312787e+002, 8.790587e+002
8.317608e+002, 8.758590e+002
8.322429e+002, 8.731522e+002
8.327250e+002, 8.709977e+002
8.332072e+002, 8.704076e+002
8.336893e+002, 8.732623e+002
8.341714e+002, 8.780660e+002
8.346535e+002, 8.807909e+002
8.351356e+002, 8.804533e+002
8.356177e+002, 8.793530e+002
8.360999e+002, 8.773224e+002
8.365820e+002, 8.752667e+002
8.370641e+002, 8.754482e+002
8.375462e+002, 8.777030e+002
8.380283e+002, 8.802829e+002
8.385104e+002, 8.830529e+002
8.389926e+002, 8.851310e+002
8.394747e+002, 8.851752e+002
8.399568e+002, 8.839076e+002
8.404389e+002, 8.825837e+002
8.409210e+002, 8.816732e+002
8.414031e+002, 8.806694e+002
8.418853e+002, 8.787137e+002
8.423674e+002, 8.769703e+002
8.428495e+002, 8.776334e+002
8.433316e+002, 8.815697e+002
8.438137e+002, 8.832377e+002
8.442958e+002, 8.812010e+002
8.447780e+002, 8.780194e+002
8.452601e+002, 8.771890e+002
8.457422e+002, 8.782069e+002
8.462243e+002, 8.801385e+002
8.467064e+002, 8.835630e+002
8.471885e+002, 8.857386e+002
8.476707e+002, 8.837452e+002
8.481528e+002, 8.802604e+002
8.486349e+002, 8.784946e+002
8.491170e+002, 8.804453e+002
8.495991e+002, 8.809263e+002
8.500812e+002, 8.791849e+002
8.505634e+002, 8.770575e+002
8.510455e+002, 8.768636e+002
8.515276e+002, 8.783173e+002
8.520097e+002, 8.789717e+002
8.524918e+002, 8.783815e+002
8.529739e+002, 8.780060e+002
8.534561e+002, 8.794686e+002
8.539382e+002, 8.817367e+002
8.544203e+002, 8.836486e+002
8.549024e+002, 8.848701e+002
8.553845e+002, 8.861736e+002
8.558666e+002, 8.890189e+002
8.563488e+002, 8.907874e+002
8.568309e+002, 8.891847e+002
8.573130e+002, 8.834924e+002
8.577951e+002, 8.797933e+002
8.582772e+002, 8.782258e+002
8.587593e+002, 8.779288e+002
8.592415e+002, 8.782076e+002
8.597236e+002, 8.792357e+002
8.602057e+002, 8.820416e+002
8.606878e+002, 8.866589e+002
8.611699e+002, 8.897628e+002
8.616520e+002, 8.882150e+002
8.621342e+002, 8.859579e+002
8.626163e+002, 8.856312e+002
8.630984e+002, 8.873768e+002
8.635805e+002, 8.881652e+002
8.640626e+002, 8.878460e+002
8.645447e+002, 8.870376e+002
8.650269e+002, 8.856653e+002
8.655090e+002, 8.841442e+002
8.659911e+002, 8.843325e+002
8.664732e+002, 8.859772e+002
8.669553e+002, 8.872738e+002
8.674374e+002, 8.869346e+002
8.679196e+002, 8.859940e+002
8.684017e+002, 8.846808e+002
8.688838e+002, 8.832061e+002
8.693659e+002, 8.829962e+002
8.698480e+002, 8.849069e+002
8.703301e+002, 8.867289e+002
8.708123e+002, 8.877971e+002
8.712944e+002, 8.883226e+002
8.717765e+002, 8.894492e+002
8.722586e+002, 8.910016e+002
8.727407e+002, 8.911459e+002
8.732228e+002, 8.873724e+002
8.737050e+002, 8.837463e+002
8.741871e+002, 8.858322e+002
8.746692e+002, 8.911473e+002
8.751513e+002, 8.943153e+002
8.756334e+002, 8.920609e+002
8.761155e+002, 8.893698e+002
8.765977e+002, 8.866340e+002
8.770798e+002, 8.843563e+002
8.775619e+002, 8.835259e+002
8.780440e+002, 8.842113e+002
8.785261e+002, 8.855628e+002
8.790082e+002, 8.876193e+002
8.794904e+002, 8.897326e+002
8.799725e+002, 8.912541e+002
8.804546e+002, 8.922147e+002
8.809367e+002, 8.925765e+002
8.814188e+002, 8.919168e+002
8.819009e+002, 8.915615e+002
8.823831e+002, 8.930664e+002
8.828652e+002, 8.943875e+002
8.833473e+002, 8.930596e+002
8.838294e+002, 8.875497e+002
8.843115e+002, 8.858378e+002
8.847936e+002, 8.890280e+002
8.852758e+002, 8.929291e+002
8.857579e+002, 8.925969e+002
8.862400e+002, 8.898690e+002
8.867221e+002, 8.890080e+002
8.872042e+002, 8.906088e+002
8.876863e+002, 8.925687e+002
8.881685e+002, 8.942332e+002
8.886506e+002, 8.954103e+002
8.891327e+002, 8.958688e+002
8.896148e+002, 8.955345e+002
8.900969e+002, 8.949957e+002
8.905790e+002, 8.941554e+002
8.910612e+002, 8.932882e+002
8.915433e+002, 8.924103e+002
8.920254e+002, 8.916194e+002
8.925075e+002, 8.910794e+002
8.929896e+002, 8.908770e+002
8.934717e+002, 8.917642e+002
8.939539e+002, 8.954305e+002
8.944360e+002, 8.992565e+002
8.949181e+002, 9.015166e+002
8.954002e+002, 9.023376e+002
8.958823e+002, 9.028508e+002
8.963644e+002, 9.032767e+002
8.968466e+002, 9.032419e+002
8.973287e+002, 9.026226e+002
8.978108e+002, 9.015324e+002
8.982929e+002, 8.998138e+002
8.987750e+002, 8.977015e+002
8.992571e+002, 8.966727e+002
8.997393e+002, 8.980189e+002
9.002214e+002, 8.995594e+002
9.007035e+002, 8.993246e+002
9.011856e+002, 8.980533e+002
9.016677e+002, 8.969911e+002
9.021498e+002, 8.962672e+002
9.026320e+002, 8.958791e+002
9.031141e+002, 8.954445e+002
9.035962e+002, 8.957495e+002
9.040783e+002, 8.989714e+002
9.045604e+002, 9.046935e+002
9.050425e+002, 9.063923e+002
9.055247e+002, 9.025507e+002
9.060068e+002, 8.982548e+002
9.064889e+002, 8.986685e+002
9.069710e+002, 9.011237e+002
9.074531e+002, 9.027555e+002
9.079352e+002, 9.030290e+002
9.084174e+002, 9.027753e+002
9.088995e+002, 9.023751e+002
9.093816e+002, 9.012186e+002
9.098637e+002, 8.981760e+002
9.103458e+002, 8.932228e+002
9.108279e+002, 8.925790e+002
9.113101e+002, 8.963239e+002
9.117922e+002, 9.000898e+002
9.122743e+002, 9.002781e+002
9.127564e+002, 8.990858e+002
9.132385e+002, 8.987635e+002
9.137206e+002, 8.993200e+002
9.142028e+002, 9.000254e+002
9.146849e+002, 9.005106e+002
9.151670e+002, 9.013324e+002
9.156491e+002, 9.028843e+002
9.161312e+002, 9.048566e+002
9.166133e+002, 9.061063e+002
9.170955e+002, 9.066412e+002
9.175776e+002, 9.064415e+002
9.180597e+002, 9.051224e+002
9.185418e+002, 9.036665e+002
9.190239e+002, 9.032191e+002
9.195060e+002, 9.035506e+002
9.199882e+002, 9.042103e+002
9.204703e+002, 9.063533e+002
9.209524e+002, 9.069878e+002
9.214345e+002, 9.041942e+002
9.219166e+002, 9.008395e+002
9.223987e+002, 9.008939e+002
9.228809e+002, 9.046320e+002
9.233630e+002, 9.070673e+002
9.238451e+002, 9.075062e+002
9.243272e+002, 9.073827e+002
9.248093e+002, 9.086226e+002
9.252914e+002, 9.100377e+002
9.257736e+002, 9.097662e+002
9.262557e+002, 9.072112e+002
9.267378e+002, 9.051730e+002
9.272199e+002, 9.048457e+002
9.277020e+002, 9.049379e+002
9.281841e+002, 9.048496e+002
9.286663e+002, 9.045891e+002
9.291484e+002, 9.044398e+002
9.296305e+002, 9.043937e+002
9.301126e+002, 9.046895e+002
9.305947e+002, 9.060784e+002
9.310768e+002, 9.075095e+002
9.315590e+002, 9.070787e+002
9.320411e+002, 9.053361e+002
9.325232e+002, 9.046377e+002
9.330053e+002, 9.075381e+002
9.334874e+002, 9.093719e+002
9.339695e+002, 9.084754e+002
9.344517e+002, 9.060216e+002
9.349338e+002, 9.048636e+002
9.354159e+002, 9.050360e+002
9.358980e+002, 9.055267e+002
9.363801e+002, 9.063251e+002
9.368622e+002, 9.066628e+002
9.373444e+002, 9.046339e+002
9.378265e+002, 9.018846e+002
9.383086e+002, 9.009561e+002
9.387907e+002, 9.038314e+002
9.392728e+002, 9.059268e+002
9.397549e+002, 9.055306e+002
9.402371e+002, 9.050441e+002
9.407192e+002, 9.068558e+002
9.412013e+002, 9.110685e+002
9.416834e+002, 9.134287e+002
9.421655e+002, 9.137349e+002
9.426476e+002, 9.132515e+002
9.431298e+002, 9.120116e+002
9.436119e+002, 9.111930e+002
9.440940e+002, 9.125801e+002
9.445761e+002, 9.161569e+002
9.450582e+002, 9.188050e+002
9.455403e+002, 9.190353e+002
9.460225e+002, 9.191890e+002
9.465046e+002, 9.202975e+002
9.469867e+002, 9.218214e+002
9.474688e+002, 9.213129e+002
9.479509e+002, 9.188804e+002
9.484330e+002, 9.159894e+002
9.489152e+002, 9.121373e+002
9.493973e+002, 9.096190e+002
9.498794e+002, 9.122817e+002
9.503615e+002, 9.174802e+002
9.508436e+002, 9.205329e+002
9.513257e+002, 9.181152e+002
9.518079e+002, 9.165239e+002
9.522900e+002, 9.164110e+002
9.527721e+002, 9.168078e+002
9.532542e+002, 9.162334e+002
9.537363e+002, 9.149536e+002
9.542184e+002, 9.154290e+002
9.547006e+002, 9.181237e+002
9.551827e+002, 9.202601e+002
9.556648e+002, 9.184538e+002
9.561469e+002, 9.159004e+002
9.566290e+002, 9.160226e+002
9.571111e+002, 9.197026e+002
9.575933e+002, 9.203248e+002
9.580754e+002, 9.158001e+002
9.585575e+002, 9.119964e+002
9.590396e+002, 9.120192e+002
9.595217e+002, 9.147935e+002
9.600038e+002, 9.168869e+002
9.604860e+002, 9.183602e+002
9.609681e+002, 9.195341e+002
9.614502e+002, 9.207884e+002
9.619323e+002, 9.215565e+002
9.624144e+002, 9.209037e+002
9.628965e+002, 9.196066e+002
9.633787e+002, 9.194998e+002
9.638608e+002, 9.214147e+002
9.643429e+002, 9.223322e+002
9.648250e+002, 9.215653e+002
9.653071e+002, 9.204916e+002
9.657892e+002, 9.212694e+002
9.662714e+002, 9.231927e+002
9.667535e+002, 9.244992e+002
9.672356e+002, 9.248176e+002
9.677177e+002, 9.249659e+002
9.681998e+002, 9.259161e+002
9.686819e+002, 9.264050e+002
9.691641e+002, 9.249493e+002
9.696462e+002, 9.212282e+002
9.701283e+002, 9.209170e+002
9.706104e+002, 9.247015e+002
9.710925e+002, 9.280158e+002
9.715746e+002, 9.273466e+002
9.720568e+002, 9.249761e+002
9.725389e+002, 9.254034e+002
9.730210e+002, 9.277938e+002
9.735031e+002, 9.293851e+002
9.739852e+002, 9.276339e+002
9.744673e+002, 9.266136e+002
9.749495e+002, 9.281750e+002
9.754316e+002, 9.307781e+002
9.759137e+002, 9.315160e+002
9.763958e+002, 9.302363e+002
9.768779e+002, 9.302038e+002
9.773600e+002, 9.322570e+002
9.778422e+002, 9.344434e+002
9.783243e+002, 9.348848e+002
9.788064e+002, 9.341273e+002
9.792885e+002, 9.324628e+002
9.797706e+002, 9.294867e+002
9.802527e+002, 9.281221e+002
9.807349e+002, 9.302697e+002
9.812170e+002, 9.320744e+002
9.816991e+002, 9.307793e+002
9.821812e+002, 9.271169e+002
9.826633e+002, 9.279738e+002
9.831454e+002, 9.328130e+002
9.836276e+002, 9.356865e+002
9.841097e+002, 9.296063e+002
9.845918e+002, 9.233885e+002
9.850739e+002, 9.252574e+002
9.855560e+002, 9.322029e+002
9.860381e+002, 9.359005e+002
9.865203e+002, 9.338730e+002
9.870024e+002, 9.324871e+002
9.874845e+002, 9.325363e+002
9.879666e+002, 9.335237e+002
9.884487e+002, 9.354958e+002
9.889308e+002, 9.377873e+002
9.894130e+002, 9.380995e+002
9.898951e+002, 9.357606e+002
9.903772e+002, 9.337926e+002
9.908593e+002, 9.347444e+002
9.913414e+002, 9.361097e+002
9.918235e+002, 9.356730e+002
9.923057e+002, 9.332473e+002
9.927878e+002, 9.331623e+002
9.932699e+002, 9.358501e+002
9.937520e+002, 9.381697e+002
9.942341e+002, 9.380676e+002
9.947162e+002, 9.368077e+002
9.951984e+002, 9.365106e+002
9.956805e+002, 9.368602e+002
9.961626e+002, 9.370089e+002
9.966447e+002, 9.357322e+002
9.971268e+002, 9.354688e+002
9.976089e+002, 9.378011e+002
9.980911e+002, 9.405042e+002
9.985732e+002, 9.400197e+002
9.990553e+002, 9.363859e+002
9.995374e+002, 9.335954e+002
1.000020e+003, 9.321442e+002
1.000502e+003, 9.318662e+002
1.000984e+003, 9.331419e+002
1.001466e+003, 9.351885e+002
1.001948e+003, 9.374863e+002
1.002430e+003, 9.400153e+002
1.002912e+003, 9.417917e+002
1.003394e+003, 9.427931e+002
1.003876e+003, 9.429747e+002
1.004359e+003, 9.421050e+002
1.004841e+003, 9.405421e+002
1.005323e+003, 9.387982e+002
1.005805e+003, 9.372236e+002
1.006287e+003, 9.373837e+002
1.006769e+003, 9.424908e+002
1.007251e+003, 9.462035e+002
1.007733e+003, 9.427391e+002
1.008216e+003, 9.371076e+002
1.008698e+003, 9.366711e+002
1.009180e+003, 9.435948e+002
1.009662e+003, 9.474308e+002
1.010144e+003, 9.473158e+002
1.010626e+003, 9.457199e+002
1.011108e+003, 9.442722e+002
1.011590e+003, 9.433088e+002
1.012072e+003, 9.438768e+002
1.012555e+003, 9.458909e+002
1.013037e+003, 9.468377e+002
1.013519e+003, 9.446003e+002
1.014001e+003, 9.425432e+002
1.014483e+003, 9.416156e+002
1.014965e+003, 9.417072e+002
1.015447e+003, 9.427930e+002
1.015929e+003, 9.447435e+002
1.016411e+003, 9.460568e+002
1.016894e+003, 9.460074e+002
1.017376e+003, 9.457274e+002
1.017858e+003, 9.471110e+002
1.018340e+003, 9.484161e+002
1.018822e+003, 9.470186e+002
1.019304e+003, 9.396843e+002
1.019786e+003, 9.377372e+002
1.020268e+003, 9.428981e+002
1.020751e+003, 9.488988e+002
1.021233e+003, 9.511913e+002
1.021715e+003, 9.505687e+002
1.022197e+003, 9.482961e+002
1.022679e+003, 9.447755e+002
1.023161e+003, 9.420889e+002
1.023643e+003, 9.411105e+002
1.024125e+003, 9.413699e+002
1.024607e+003, 9.432425e+002
1.025090e+003, 9.459866e+002
1.025572e+003, 9.481632e+002
1.026054e+003, 9.497457e+002
1.026536e+003, 9.512283e+002
1.027018e+003, 9.527367e+002
1.027500e+003, 9.540706e+002
1.027982e+003, 9.559640e+002
1.028464e+003, 9.570388e+002
1.028947e+003, 9.547707e+002
1.029429e+003, 9.474550e+002
1.029911e+003, 9.445718e+002
1.030393e+003, 9.488109e+002
1.030875e+003, 9.534496e+002
1.031357e+003, 9.553628e+002
1.031839e+003, 9.549974e+002
1.032321e+003, 9.529099e+002
1.032803e+003, 9.496504e+002
1.033286e+003, 9.474369e+002
1.033768e+003, 9.484429e+002
1.034250e+003, 9.495446e+002
1.034732e+003, 9.489961e+002
1.035214e+003, 9.479064e+002
1.035696e+003, 9.478117e+002
1.036178e+003, 9.487710e+002
1.036660e+003, 9.507767e+002
1.037143e+003, 9.541494e+002
1.037625e+003, 9.564742e+002
1.038107e+003, 9.535988e+002
1.038589e+003, 9.495840e+002
1.039071e+003, 9.506840e+002
1.039553e+003, 9.568422e+002
1.040035e+003, 9.597380e+002
1.040517e+003, 9.540387e+002
1.041000e+003, 9.505453e+002
1.041482e+003, 9.529966e+002
1.041964e+003, 9.587496e+002
1.042446e+003, 9.618522e+002
1.042928e+003, 9.626878e+002
1.043410e+003, 9.625158e+002
1.043892e+003, 9.613544e+002
1.044374e+003, 9.603428e+002
1.044856e+003, 9.606541e+002
1.045339e+003, 9.611164e+002
1.045821e+003, 9.606694e+002
1.046303e+003, 9.592170e+002
1.046785e+003, 9.571088e+002
1.047267e+003, 9.540958e+002
1.047749e+003, 9.526483e+002
1.048231e+003, 9.563381e+002
1.048713e+003, 9.612018e+002
1.049195e+003, 9.618679e+002
1.049677e+003, 9.594261e+002
1.050160e+003, 9.570897e+002
1.050642e+003, 9.547837e+002
1.051124e+003, 9.542488e+002
1.051606e+003, 9.563838e+002
1.052088e+003, 9.592701e+002
1.052570e+003, 9.601202e+002
1.053052e+003, 9.594738e+002
1.053534e+003, 9.594904e+002
1.054017e+003, 9.604452e+002
1.054499e+003, 9.612332e+002
1.054981e+003, 9.611370e+002
1.055463e+003, 9.606785e+002
1.055945e+003, 9.601819e+002
1.056427e+003, 9.596322e+002
1.056909e+003, 9.584953e+002
1.057391e+003, 9.566155e+002
1.057874e+003, 9.563115e+002
1.058356e+003, 9.592404e+002
1.058838e+003, 9.622692e+002
1.059320e+003, 9.608397e+002
1.059802e+003, 9.573384e+002
1.060284e+003, 9.550184e+002
1.060766e+003, 9.542722e+002
1.061248e+003, 9.561312e+002
1.061730e+003, 9.625818e+002
1.062213e+003, 9.676743e+002
1.062695e+003, 9.653327e+002
1.063177e+003, 9.583279e+002
1.063659e+003, 9.576830e+002
1.064141e+003, 9.620164e+002
1.064623e+003, 9.647550e+002
1.065105e+003, 9.595015e+002
1.065587e+003, 9.555210e+002
1.066070e+003, 9.578314e+002
1.066552e+003, 9.628263e+002
1.067034e+003, 9.652825e+002
1.067516e+003, 9.651115e+002
1.067998e+003, 9.648035e+002
1.068480e+003, 9.646173e+002
1.068962e+003, 9.645830e+002
1.069444e+003, 9.642357e+002
1.069927e+003, 9.644266e+002
1.070409e+003, 9.667823e+002
1.070891e+003, 9.712556e+002
1.071373e+003, 9.727000e+002
1.071855e+003, 9.699691e+002
1.072337e+003, 9.669996e+002
1.072819e+003, 9.646038e+002
1.073301e+003, 9.633000e+002
1.073783e+003, 9.651476e+002
1.074266e+003, 9.685467e+002
1.074748e+003, 9.698981e+002
1.075230e+003, 9.671766e+002
1.075712e+003, 9.654053e+002
1.076194e+003, 9.673943e+002
1.076676e+003, 9.689752e+002
1.077158e+003, 9.666824e+002
1.077640e+003, 9.612625e+002
1.078122e+003, 9.613895e+002
1.078604e+003, 9.663815e+002
1.079087e+003, 9.704567e+002
1.079569e+003, 9.682886e+002
1.080051e+003, 9.663975e+002
1.080533e+003, 9.708821e+002
1.081015e+003, 9.773623e+002
1.081497e+003, 9.773903e+002
1.081979e+003, 9.687313e+002
1.082461e+003, 9.642371e+002
1.082944e+003, 9.652382e+002
1.083426e+003, 9.678187e+002
1.083908e+003, 9.685500e+002
1.084390e+003, 9.685522e+002
1.084872e+003, 9.693380e+002
1.085354e+003, 9.708797e+002
1.085836e+003, 9.715697e+002
1.086318e+003, 9.704647e+002
1.086801e+003, 9.698900e+002
1.087283e+003, 9.703633e+002
1.087765e+003, 9.717025e+002
1.088247e+003, 9.742565e+002
1.088729e+003, 9.773384e+002
1.089211e+003, 9.789329e+002
1.089693e+003, 9.783365e+002
1.090175e+003, 9.777971e+002
1.090657e+003, 9.794102e+002
1.091140e+003, 9.800801e+002
1.091622e+003, 9.773755e+002
1.092104e+003, 9.720547e+002
1.092586e+003, 9.707385e+002
1.093068e+003, 9.731342e+002
1.093550e+003, 9.757200e+002
1.094032e+003, 9.768148e+002
1.094514e+003, 9.777507e+002
1.094997e+003, 9.804426e+002
1.095479e+003, 9.830760e+002
1.095961e+003, 9.829469e+002
1.096443e+003, 9.785651e+002
1.096925e+003, 9.765373e+002
1.097407e+003, 9.770681e+002
1.097889e+003, 9.787425e+002
1.098371e+003, 9.813158e+002
1.098854e+003, 9.837926e+002
1.099336e+003, 9.852435e+002
1.099818e+003, 9.855107e+002
1.100300e+003, 9.840439e+002
1.100782e+003, 9.787591e+002
1.101264e+003, 9.751458e+002
1.101746e+003, 9.740763e+002
1.102228e+003, 9.745414e+002
1.102710e+003, 9.759351e+002
1.103193e+003, 9.776765e+002
1.103675e+003, 9.781500e+002
1.104157e+003, 9.771711e+002
1.104639e+003, 9.763343e+002
1.105121e+003, 9.768259e+002
1.105603e+003, 9.769828e+002
1.106085e+003, 9.757792e+002
1.106567e+003, 9.739943e+002
1.107049e+003, 9.742615e+002
1.107531e+003, 9.763374e+002
1.108014e+003, 9.781919e+002
1.108496e+003, 9.791037e+002
1.108978e+003, 9.803500e+002
1.109460e+003, 9.839518e+002
1.109942e+003, 9.874201e+002
1.110424e+003, 9.883084e+002
1.110906e+003, 9.865128e+002
1.111388e+003, 9.848276e+002
1.111871e+003, 9.831680e+002
1.112353e+003, 9.829271e+002
1.112835e+003, 9.859512e+002
1.113317e+003, 9.892896e+002
1.113799e+003, 9.890464e+002
1.114281e+003, 9.870928e+002
1.114763e+003, 9.865944e+002
1.115245e+003, 9.893394e+002
1.115728e+003, 9.910410e+002
1.116210e+003, 9.917868e+002
1.116692e+003, 9.912386e+002
1.117174e+003, 9.874691e+002
1.117656e+003, 9.830192e+002
1.118138e+003, 9.831666e+002
1.118620e+003, 9.870140e+002
1.119102e+003, 9.904248e+002
1.119584e+003, 9.923300e+002
1.120067e+003, 9.929041e+002
1.120549e+003, 9.913499e+002
1.121031e+003, 9.897377e+002
1.121513e+003, 9.919741e+002
1.121995e+003, 9.964675e+002
1.122477e+003, 9.971857e+002
1.122959e+003, 9.936434e+002
1.123441e+003, 9.903521e+002
1.123924e+003, 9.901222e+002
1.124406e+003, 9.901823e+002
1.124888e+003, 9.891124e+002
1.125370e+003, 9.875469e+002
1.125852e+003, 9.875596e+002
1.126334e+003, 9.889720e+002
1.126816e+003, 9.894409e+002
1.127298e+003, 9.881927e+002
1.127781e+003, 9.871733e+002
1.128263e+003, 9.879482e+002
1.128745e+003, 9.894914e+002
1.129227e+003, 9.912291e+002
1.129709e+003, 9.931007e+002
1.130191e+003, 9.941674e+002
1.130673e+003, 9.944416e+002
1.131155e+003, 9.936642e+002
1.131637e+003, 9.909247e+002
1.132120e+003, 9.885382e+002
1.132602e+003, 9.895042e+002
1.133084e+003, 9.921237e+002
1.133566e+003, 9.940696e+002
1.134048e+003, 9.950872e+002
1.134530e+003, 9.951322e+002
1.135012e+003, 9.938770e+002
1.135494e+003, 9.929404e+002
1.135976e+003, 9.937124e+002
1.136458e+003, 9.952291e+002
1.136941e+003, 9.960031e+002
1.137423e+003, 9.962575e+002
1.137905e+003, 9.965298e+002
1.138387e+003, 9.973405e+002
1.138869e+003, 9.974990e+002
1.139351e+003, 9.966351e+002
1.139833e+003, 9.957860e+002
1.140315e+003, 9.958426e+002
1.140798e+003, 9.967306e+002
1.141280e+003, 9.990929e+002
1.141762e+003, 1.002465e+003
1.142244e+003, 1.003928e+003
1.142726e+003, 1.000128e+003
1.143208e+003, 9.970672e+002
1.143690e+003, 9.958420e+002
1.144172e+003, 9.962344e+002
1.144655e+003, 9.988486e+002
1.145137e+003, 1.002848e+003
1.145619e+003, 1.004855e+003
1.146101e+003, 1.004434e+003
1.146583e+003, 1.003448e+003
1.147065e+003, 1.002887e+003
1.147547e+003, 1.002000e+003
1.148029e+003, 9.999953e+002
1.148511e+003, 9.976563e+002
1.148994e+003, 9.975233e+002
1.149476e+003, 9.993508e+002
1.149958e+003, 1.000813e+003
1.150440e+003, 1.001268e+003
1.150922e+003, 1.001887e+003
1.151404e+003, 1.004599e+003
1.151886e+003, 1.006811e+003
1.152368e+003, 1.005427e+003
1.152851e+003, 1.001207e+003
1.153333e+003, 1.003052e+003
1.153815e+003, 1.010990e+003
1.154297e+003, 1.015684e+003
1.154779e+003, 1.012152e+003
1.155261e+003, 1.007464e+003
1.155743e+003, 1.008405e+003
1.156225e+003, 1.011629e+003
1.156708e+003, 1.013398e+003
1.157190e+003, 1.013454e+003
1.157672e+003, 1.012374e+003
1.158154e+003, 1.009901e+003
1.158636e+003, 1.008679e+003
1.159118e+003, 1.011877e+003
1.159600e+003, 1.015234e+003
1.160082e+003, 1.012547e+003
1.160564e+003, 1.007123e+003
1.161047e+003, 1.004929e+003
1.161529e+003, 1.008914e+003
1.162011e+003, 1.010802e+003
1.162493e+003, 1.010141e+003
1.162975e+003, 1.009242e+003
1.163457e+003, 1.010140e+003
1.163939e+003, 1.011700e+003
1.164421e+003, 1.012529e+003
1.164903e+003, 1.012655e+003
1.165385e+003, 1.012191e+003
1.165868e+003, 1.009908e+003
1.166350e+003, 1.009475e+003
1.166832e+003, 1.011487e+003
1.167314e+003, 1.014448e+003
1.167796e+003, 1.017638e+003
1.168278e+003, 1.020272e+003
1.168760e+003, 1.020200e+003
1.169242e+003, 1.017861e+003
1.169725e+003, 1.016671e+003
1.170207e+003, 1.019479e+003
1.170689e+003, 1.020669e+003
1.171171e+003, 1.018853e+003
1.171653e+003, 1.016165e+003
1.172135e+003, 1.015643e+003
1.172617e+003, 1.016566e+003
1.173099e+003, 1.017441e+003
1.173582e+003, 1.018087e+003
1.174064e+003, 1.018491e+003
1.174546e+003, 1.017836e+003
1.175028e+003, 1.018099e+003
1.175510e+003, 1.020193e+003
1.175992e+003, 1.022959e+003
1.176474e+003, 1.024250e+003
1.176956e+003, 1.024247e+003
1.177438e+003, 1.023165e+003
1.177921e+003, 1.020876e+003
1.178403e+003, 1.019077e+003
1.178885e+003, 1.018217e+003
1.179367e+003, 1.018396e+003
1.179849e+003, 1.019948e+003
1.180331e+003, 1.022358e+003
1.180813e+003, 1.024257e+003
1.181295e+003, 1.025599e+003
1.181778e+003, 1.026023e+003
1.182260e+003, 1.025067e+003
1.182742e+003, 1.024554e+003
1.183224e+003, 1.026639e+003
1.183706e+003, 1.027934e+003
1.184188e+003, 1.025788e+003
1.184670e+003, 1.021324e+003
1.185152e+003, 1.021397e+003
1.185635e+003, 1.025171e+003
1.186117e+003, 1.028424e+003
1.186599e+003, 1.029572e+003
1.187081e+003, 1.029846e+003
1.187563e+003, 1.030021e+003
1.188045e+003, 1.029266e+003
1.188527e+003, 1.026313e+003
1.189009e+003, 1.021549e+003
1.189491e+003, 1.020080e+003
1.189974e+003, 1.021570e+003
1.190456e+003, 1.023554e+003
1.190938e+003, 1.024588e+003
1.191420e+003, 1.026115e+003
1.191902e+003, 1.030396e+003
1.192384e+003, 1.034369e+003
1.192866e+003, 1.034687e+003
1.193348e+003, 1.031250e+003
1.193830e+003, 1.028746e+003
1.194313e+003, 1.027216e+003
1.194795e+003, 1.027030e+003
1.195277e+003, 1.029735e+003
1.195759e+003, 1.032362e+003
1.196241e+003, 1.033397e+003
1.196723e+003, 1.033308e+003
1.197205e+003, 1.032538e+003
1.197687e+003, 1.031073e+003
1.198169e+003, 1.029061e+003
1.198652e+003, 1.026630e+003
1.199134e+003, 1.026654e+003
1.199616e+003, 1.034844e+003
1.200098e+003, 1.042105e+003
1.200580e+003, 1.041695e+003
1.201062e+003, 1.037323e+003
1.201544e+003, 1.035073e+003
1.202026e+003, 1.035006e+003
1.202509e+003, 1.034783e+003
1.202991e+003, 1.034204e+003
1.203473e+003, 1.033730e+003
1.203955e+003, 1.033528e+003
1.204437e+003, 1.033687e+003
1.204919e+003, 1.034521e+003
1.205401e+003, 1.035669e+003
1.205883e+003, 1.036312e+003
1.206365e+003, 1.036429e+003
1.206848e+003, 1.036643e+003
1.207330e+003, 1.037020e+003
1.207812e+003, 1.037628e+003
1.208294e+003, 1.039174e+003
1.208776e+003, 1.040364e+003
1.209258e+003, 1.039393e+003
1.209740e+003, 1.037479e+003
1.210222e+003, 1.038699e+003
1.210705e+003, 1.043126e+003
1.211187e+003, 1.045136e+003
1.211669e+003, 1.043654e+003
1.212151e+003, 1.040693e+003
1.212633e+003, 1.035496e+003
1.213115e+003, 1.031581e+003
1.213597e+003, 1.032569e+003
1.214079e+003, 1.037041e+003
1.214562e+003, 1.040695e+003
1.215044e+003, 1.043516e+003
1.215526e+003, 1.044250e+003
1.216008e+003, 1.042206e+003
1.216490e+003, 1.040326e+003
1.216972e+003, 1.041208e+003
1.217454e+003, 1.042933e+003
1.217936e+003, 1.044553e+003
1.218418e+003, 1.045737e+003
1.218901e+003, 1.044042e+003
1.219383e+003, 1.039654e+003
1.219865e+003, 1.037417e+003
1.220347e+003, 1.038998e+003
1.220829e+003, 1.041792e+003
1.221311e+003, 1.045460e+003
1.221793e+003, 1.048094e+003
1.222275e+003, 1.047931e+003
1.222757e+003, 1.045468e+003
1.223240e+003, 1.044262e+003
1.223722e+003, 1.044224e+003
1.224204e+003, 1.043971e+003
1.224686e+003, 1.042643e+003
1.225168e+003, 1.042236e+003
1.225650e+003, 1.045650e+003
1.226132e+003, 1.049135e+003
1.226614e+003, 1.049671e+003
1.227096e+003, 1.047629e+003
1.227579e+003, 1.046042e+003
1.228061e+003, 1.044934e+003
1.228543e+003, 1.044616e+003
1.229025e+003, 1.045600e+003
1.229507e+003, 1.046449e+003
1.229989e+003, 1.045480e+003
1.230471e+003, 1.044818e+003
1.230953e+003, 1.046373e+003
1.231436e+003, 1.049784e+003
1.231918e+003, 1.051868e+003
1.232400e+003, 1.052656e+003
1.232882e+003, 1.052314e+003
1.233364e+003, 1.050318e+003
1.233846e+003, 1.048349e+003
1.234328e+003, 1.046769e+003
1.234810e+003, 1.045980e+003
1.235292e+003, 1.046351e+003
1.235775e+003, 1.047800e+003
1.236257e+003, 1.050204e+003
1.236739e+003, 1.053222e+003
1.237221e+003, 1.054965e+003
1.237703e+003, 1.053015e+003
1.238185e+003, 1.052289e+003
1.238667e+003, 1.056444e+003
1.239149e+003, 1.060697e+003
1.239632e+003, 1.061319e+003
1.240114e+003, 1.058999e+003
1.240596e+003, 1.057796e+003
1.241078e+003, 1.057508e+003
1.241560e+003, 1.057239e+003
1.242042e+003, 1.056499e+003
1.242524e+003, 1.055821e+003
1.243006e+003, 1.054864e+003
1.243489e+003, 1.054614e+003
1.243971e+003, 1.056670e+003
1.244453e+003, 1.060069e+003
1.244935e+003, 1.059815e+003
1.245417e+003, 1.057068e+003
1.245899e+003, 1.056164e+003
1.246381e+003, 1.062101e+003
1.246863e+003, 1.065133e+003
1.247345e+003, 1.062904e+003
1.247828e+003, 1.059555e+003
1.248310e+003, 1.058435e+003
1.248792e+003, 1.058975e+003
1.249274e+003, 1.060225e+003
1.249756e+003, 1.061813e+003
1.250238e+003, 1.062565e+003
1.250720e+003, 1.061040e+003
1.251202e+003, 1.060118e+003
1.251684e+003, 1.059802e+003
1.252167e+003, 1.060595e+003
1.252649e+003, 1.064382e+003
1.253131e+003, 1.068857e+003
1.253613e+003, 1.068476e+003
1.254095e+003, 1.064800e+003
1.254577e+003, 1.063137e+003
1.255059e+003, 1.066110e+003
1.255541e+003, 1.068966e+003
1.256023e+003, 1.071845e+003
1.256506e+003, 1.073227e+003
1.256988e+003, 1.070154e+003
1.257470e+003, 1.065888e+003
1.257952e+003, 1.065318e+003
1.258434e+003, 1.067484e+003
1.258916e+003, 1.069256e+003
1.259398e+003, 1.070073e+003
1.259880e+003, 1.071176e+003
1.260363e+003, 1.072782e+003
1.260845e+003, 1.073846e+003
1.261327e+003, 1.073349e+003
1.261809e+003, 1.071984e+003
1.262291e+003, 1.069580e+003
1.262773e+003, 1.067042e+003
1.263255e+003, 1.066707e+003
1.263737e+003, 1.069110e+003
1.264219e+003, 1.071334e+003
1.264702e+003, 1.073188e+003
1.265184e+003, 1.074705e+003
1.265666e+003, 1.076940e+003
1.266148e+003, 1.077869e+003
1.266630e+003, 1.074572e+003
1.267112e+003, 1.069242e+003
1.267594e+003, 1.066539e+003
1.268076e+003, 1.066607e+003
1.268559e+003, 1.066953e+003
1.269041e+003, 1.067421e+003
1.269523e+003, 1.068038e+003
1.270005e+003, 1.068499e+003
1.270487e+003, 1.069473e+003
1.270969e+003, 1.072047e+003
1.271451e+003, 1.074940e+003
1.271933e+003, 1.076016e+003
1.272416e+003, 1.075501e+003
1.272898e+003, 1.076991e+003
1.273380e+003, 1.080461e+003
1.273862e+003, 1.082951e+003
1.274344e+003, 1.081930e+003
1.274826e+003, 1.080620e+003
1.275308e+003, 1.080363e+003
1.275790e+003, 1.080163e+003
1.276272e+003, 1.078051e+003
1.276755e+003, 1.074941e+003
1.277237e+003, 1.074735e+003
1.277719e+003, 1.077247e+003
1.278201e+003, 1.079526e+003
1.278683e+003, 1.080117e+003
1.279165e+003, 1.080579e+003
1.279647e+003, 1.081447e+003
1.280129e+003, 1.081868e+003
1.280611e+003, 1.080206e+003
1.281094e+003, 1.077678e+003
1.281576e+003, 1.076752e+003
1.282058e+003, 1.077396e+003
1.282540e+003, 1.078896e+003
1.283022e+003, 1.082522e+003
1.283504e+003, 1.083929e+003
1.283986e+003, 1.082197e+003
1.284468e+003, 1.079867e+003
1.284950e+003, 1.079172e+003
1.285433e+003, 1.079606e+003
1.285915e+003, 1.081117e+003
1.286397e+003, 1.083220e+003
1.286879e+003, 1.084135e+003
1.287361e+003, 1.083429e+003
1.287843e+003, 1.082837e+003
1.288325e+003, 1.082487e+003
1.288807e+003, 1.082512e+003
1.289290e+003, 1.083635e+003
1.289772e+003, 1.084627e+003
1.290254e+003, 1.083924e+003
1.290736e+003, 1.082400e+003
1.291218e+003, 1.082204e+003
1.291700e+003, 1.083439e+003
1.292182e+003, 1.084541e+003
1.292664e+003, 1.085397e+003
1.293146e+003, 1.086426e+003
1.293629e+003, 1.088895e+003
1.294111e+003, 1.090539e+003
1.294593e+003, 1.088998e+003
1.295075e+003, 1.086559e+003
1.295557e+003, 1.085984e+003
1.296039e+003, 1.087104e+003
1.296521e+003, 1.088983e+003
1.297003e+003, 1.091366e+003
1.297486e+003, 1.092790e+003
1.297968e+003, 1.092296e+003
1.298450e+003, 1.090963e+003
1.298932e+003, 1.088394e+003
1.299414e+003, 1.086391e+003
1.299896e+003, 1.088173e+003
1.300378e+003, 1.091822e+003
1.300860e+003, 1.090874e+003
1.301343e+003, 1.086499e+003
1.301825e+003, 1.084713e+003
##END=



