##NAMES=Parafransoletite
##RRUFFID=R130056
##IDEAL CHEMISTRY=Ca_3_Be_2_(PO_4_)_2_(PO_3_OH)_2_&#183;4H_2_O
##LOCALITY=Tip Top mine, Custer, South Dakota, USA
##OWNER=RRUFF
##SOURCE=Thomas A. Loomis
##DESCRIPTION=White bladed crystals
##STATUS=The identification of this mineral has been confirmed only by single crystal X-ray diffraction.
##URL=rruff.info/R130056
8.936163e+001, 0.000000e+000
8.984375e+001, 9.625094e+002
9.032587e+001, 9.753468e+002
9.080798e+001, 9.775499e+002
9.129010e+001, 9.640844e+002
9.177222e+001, 9.458565e+002
9.225433e+001, 9.372296e+002
9.273645e+001, 9.373796e+002
9.321857e+001, 9.378757e+002
9.370068e+001, 9.304964e+002
9.418280e+001, 9.174551e+002
9.466492e+001, 9.060012e+002
9.514703e+001, 8.988965e+002
9.562915e+001, 8.949669e+002
9.611127e+001, 8.916823e+002
9.659338e+001, 8.895278e+002
9.707550e+001, 8.856311e+002
9.755762e+001, 8.737385e+002
9.803973e+001, 8.535790e+002
9.852185e+001, 8.377932e+002
9.900397e+001, 8.333896e+002
9.948608e+001, 8.406705e+002
9.996820e+001, 8.460341e+002
1.004503e+002, 8.505349e+002
1.009324e+002, 8.518765e+002
1.014146e+002, 8.438594e+002
1.018967e+002, 8.233897e+002
1.023788e+002, 8.021961e+002
1.028609e+002, 7.859076e+002
1.033430e+002, 7.752612e+002
1.038251e+002, 7.680153e+002
1.043073e+002, 7.660145e+002
1.047894e+002, 7.676506e+002
1.052715e+002, 7.641931e+002
1.057536e+002, 7.524186e+002
1.062357e+002, 7.390721e+002
1.067178e+002, 7.285717e+002
1.072000e+002, 7.217205e+002
1.076821e+002, 7.167485e+002
1.081642e+002, 7.146195e+002
1.086463e+002, 7.157379e+002
1.091284e+002, 7.140869e+002
1.096105e+002, 7.100492e+002
1.100927e+002, 7.030453e+002
1.105748e+002, 6.925930e+002
1.110569e+002, 6.703544e+002
1.115390e+002, 6.525020e+002
1.120211e+002, 6.444830e+002
1.125032e+002, 6.499299e+002
1.129854e+002, 6.523753e+002
1.134675e+002, 6.491740e+002
1.139496e+002, 6.417897e+002
1.144317e+002, 6.322578e+002
1.149138e+002, 6.157108e+002
1.153959e+002, 6.011230e+002
1.158781e+002, 5.934214e+002
1.163602e+002, 5.968917e+002
1.168423e+002, 5.996055e+002
1.173244e+002, 5.968422e+002
1.178065e+002, 5.900898e+002
1.182886e+002, 5.831362e+002
1.187708e+002, 5.779044e+002
1.192529e+002, 5.729299e+002
1.197350e+002, 5.667586e+002
1.202171e+002, 5.557910e+002
1.206992e+002, 5.474038e+002
1.211813e+002, 5.490068e+002
1.216635e+002, 5.588120e+002
1.221456e+002, 5.669409e+002
1.226277e+002, 5.669987e+002
1.231098e+002, 5.617609e+002
1.235919e+002, 5.548287e+002
1.240740e+002, 5.454796e+002
1.245562e+002, 5.361797e+002
1.250383e+002, 5.305044e+002
1.255204e+002, 5.284016e+002
1.260025e+002, 5.259844e+002
1.264846e+002, 5.181653e+002
1.269667e+002, 5.071941e+002
1.274489e+002, 4.986942e+002
1.279310e+002, 4.973436e+002
1.284131e+002, 4.997430e+002
1.288952e+002, 4.994506e+002
1.293773e+002, 4.961803e+002
1.298594e+002, 4.907116e+002
1.303416e+002, 4.824833e+002
1.308237e+002, 4.720704e+002
1.313058e+002, 4.631141e+002
1.317879e+002, 4.587025e+002
1.322700e+002, 4.578015e+002
1.327521e+002, 4.549898e+002
1.332343e+002, 4.491385e+002
1.337164e+002, 4.424885e+002
1.341985e+002, 4.393766e+002
1.346806e+002, 4.400326e+002
1.351627e+002, 4.411927e+002
1.356448e+002, 4.413329e+002
1.361270e+002, 4.404778e+002
1.366091e+002, 4.372395e+002
1.370912e+002, 4.304645e+002
1.375733e+002, 4.216773e+002
1.380554e+002, 4.153875e+002
1.385375e+002, 4.116555e+002
1.390197e+002, 4.102387e+002
1.395018e+002, 4.122017e+002
1.399839e+002, 4.191303e+002
1.404660e+002, 4.221464e+002
1.409481e+002, 4.182599e+002
1.414302e+002, 4.082445e+002
1.419124e+002, 4.026449e+002
1.423945e+002, 4.037000e+002
1.428766e+002, 4.060954e+002
1.433587e+002, 4.041732e+002
1.438408e+002, 3.952375e+002
1.443229e+002, 3.875211e+002
1.448051e+002, 3.828789e+002
1.452872e+002, 3.815707e+002
1.457693e+002, 3.811809e+002
1.462514e+002, 3.824178e+002
1.467335e+002, 3.841234e+002
1.472156e+002, 3.847729e+002
1.476978e+002, 3.832174e+002
1.481799e+002, 3.820423e+002
1.486620e+002, 3.825639e+002
1.491441e+002, 3.870439e+002
1.496262e+002, 3.869693e+002
1.501083e+002, 3.779434e+002
1.505905e+002, 3.650815e+002
1.510726e+002, 3.573366e+002
1.515547e+002, 3.602019e+002
1.520368e+002, 3.634915e+002
1.525189e+002, 3.641756e+002
1.530010e+002, 3.610131e+002
1.534832e+002, 3.572329e+002
1.539653e+002, 3.514397e+002
1.544474e+002, 3.450697e+002
1.549295e+002, 3.415696e+002
1.554116e+002, 3.461057e+002
1.558937e+002, 3.501754e+002
1.563759e+002, 3.497050e+002
1.568580e+002, 3.398353e+002
1.573401e+002, 3.312003e+002
1.578222e+002, 3.256855e+002
1.583043e+002, 3.229587e+002
1.587864e+002, 3.217940e+002
1.592686e+002, 3.223611e+002
1.597507e+002, 3.240953e+002
1.602328e+002, 3.266779e+002
1.607149e+002, 3.335368e+002
1.611970e+002, 3.377066e+002
1.616791e+002, 3.347260e+002
1.621613e+002, 3.258677e+002
1.626434e+002, 3.192690e+002
1.631255e+002, 3.203292e+002
1.636076e+002, 3.242686e+002
1.640897e+002, 3.268292e+002
1.645718e+002, 3.264911e+002
1.650540e+002, 3.245804e+002
1.655361e+002, 3.208552e+002
1.660182e+002, 3.154249e+002
1.665003e+002, 3.109964e+002
1.669824e+002, 3.101906e+002
1.674645e+002, 3.108720e+002
1.679467e+002, 3.104164e+002
1.684288e+002, 3.051364e+002
1.689109e+002, 3.001954e+002
1.693930e+002, 3.003968e+002
1.698751e+002, 3.061304e+002
1.703572e+002, 3.112045e+002
1.708394e+002, 3.102693e+002
1.713215e+002, 3.059211e+002
1.718036e+002, 3.025686e+002
1.722857e+002, 3.031166e+002
1.727678e+002, 3.050490e+002
1.732499e+002, 3.055673e+002
1.737321e+002, 3.042632e+002
1.742142e+002, 3.034027e+002
1.746963e+002, 3.057320e+002
1.751784e+002, 3.100582e+002
1.756605e+002, 3.135692e+002
1.761426e+002, 3.118820e+002
1.766248e+002, 3.094906e+002
1.771069e+002, 3.135476e+002
1.775890e+002, 3.258031e+002
1.780711e+002, 3.398404e+002
1.785532e+002, 3.488482e+002
1.790353e+002, 3.538592e+002
1.795175e+002, 3.582293e+002
1.799996e+002, 3.632209e+002
1.804817e+002, 3.689814e+002
1.809638e+002, 3.761013e+002
1.814459e+002, 3.849473e+002
1.819280e+002, 3.944127e+002
1.824102e+002, 4.037948e+002
1.828923e+002, 4.127986e+002
1.833744e+002, 4.206797e+002
1.838565e+002, 4.262836e+002
1.843386e+002, 4.302765e+002
1.848207e+002, 4.344660e+002
1.853029e+002, 4.393161e+002
1.857850e+002, 4.441304e+002
1.862671e+002, 4.470743e+002
1.867492e+002, 4.482799e+002
1.872313e+002, 4.507102e+002
1.877134e+002, 4.578741e+002
1.881956e+002, 4.685836e+002
1.886777e+002, 4.766746e+002
1.891598e+002, 4.807611e+002
1.896419e+002, 4.823230e+002
1.901240e+002, 4.840449e+002
1.906061e+002, 4.859235e+002
1.910883e+002, 4.886297e+002
1.915704e+002, 4.925894e+002
1.920525e+002, 4.978347e+002
1.925346e+002, 5.043021e+002
1.930167e+002, 5.119068e+002
1.934988e+002, 5.204034e+002
1.939810e+002, 5.287327e+002
1.944631e+002, 5.365835e+002
1.949452e+002, 5.443503e+002
1.954273e+002, 5.500713e+002
1.959094e+002, 5.538098e+002
1.963915e+002, 5.576658e+002
1.968737e+002, 5.624138e+002
1.973558e+002, 5.674362e+002
1.978379e+002, 5.701817e+002
1.983200e+002, 5.702547e+002
1.988021e+002, 5.699763e+002
1.992842e+002, 5.718242e+002
1.997664e+002, 5.759796e+002
2.002485e+002, 5.789828e+002
2.007306e+002, 5.802523e+002
2.012127e+002, 5.798869e+002
2.016948e+002, 5.778926e+002
2.021769e+002, 5.738150e+002
2.026591e+002, 5.695917e+002
2.031412e+002, 5.671890e+002
2.036233e+002, 5.667756e+002
2.041054e+002, 5.666857e+002
2.045875e+002, 5.668065e+002
2.050696e+002, 5.670245e+002
2.055518e+002, 5.659782e+002
2.060339e+002, 5.631557e+002
2.065160e+002, 5.602131e+002
2.069981e+002, 5.590753e+002
2.074802e+002, 5.601720e+002
2.079623e+002, 5.609579e+002
2.084445e+002, 5.604853e+002
2.089266e+002, 5.588555e+002
2.094087e+002, 5.589579e+002
2.098908e+002, 5.612549e+002
2.103729e+002, 5.643779e+002
2.108550e+002, 5.669095e+002
2.113372e+002, 5.687373e+002
2.118193e+002, 5.703201e+002
2.123014e+002, 5.718604e+002
2.127835e+002, 5.733510e+002
2.132656e+002, 5.738710e+002
2.137477e+002, 5.726384e+002
2.142299e+002, 5.715273e+002
2.147120e+002, 5.730216e+002
2.151941e+002, 5.781175e+002
2.156762e+002, 5.830222e+002
2.161583e+002, 5.868781e+002
2.166404e+002, 5.896282e+002
2.171226e+002, 5.918214e+002
2.176047e+002, 5.933403e+002
2.180868e+002, 5.944442e+002
2.185689e+002, 5.954692e+002
2.190510e+002, 5.964785e+002
2.195331e+002, 5.972698e+002
2.200153e+002, 5.977267e+002
2.204974e+002, 5.978023e+002
2.209795e+002, 5.981688e+002
2.214616e+002, 5.989191e+002
2.219437e+002, 5.998821e+002
2.224258e+002, 6.011323e+002
2.229080e+002, 6.035726e+002
2.233901e+002, 6.043073e+002
2.238722e+002, 6.019169e+002
2.243543e+002, 5.957676e+002
2.248364e+002, 5.917757e+002
2.253185e+002, 5.900400e+002
2.258007e+002, 5.903588e+002
2.262828e+002, 5.928498e+002
2.267649e+002, 5.988301e+002
2.272470e+002, 6.043296e+002
2.277291e+002, 6.082987e+002
2.282112e+002, 6.107430e+002
2.286934e+002, 6.120083e+002
2.291755e+002, 6.119523e+002
2.296576e+002, 6.108497e+002
2.301397e+002, 6.089469e+002
2.306218e+002, 6.057238e+002
2.311039e+002, 6.025832e+002
2.315861e+002, 5.995875e+002
2.320682e+002, 5.964094e+002
2.325503e+002, 5.955428e+002
2.330324e+002, 5.980170e+002
2.335145e+002, 6.019373e+002
2.339966e+002, 6.051138e+002
2.344788e+002, 6.078156e+002
2.349609e+002, 6.092606e+002
2.354430e+002, 6.089417e+002
2.359251e+002, 6.065267e+002
2.364072e+002, 6.045009e+002
2.368893e+002, 6.018109e+002
2.373715e+002, 6.003501e+002
2.378536e+002, 6.031155e+002
2.383357e+002, 6.140784e+002
2.388178e+002, 6.222974e+002
2.392999e+002, 6.243617e+002
2.397820e+002, 6.193199e+002
2.402642e+002, 6.149933e+002
2.407463e+002, 6.105311e+002
2.412284e+002, 6.074635e+002
2.417105e+002, 6.081658e+002
2.421926e+002, 6.155098e+002
2.426747e+002, 6.213026e+002
2.431569e+002, 6.228582e+002
2.436390e+002, 6.193956e+002
2.441211e+002, 6.184287e+002
2.446032e+002, 6.219685e+002
2.450853e+002, 6.262061e+002
2.455674e+002, 6.263886e+002
2.460496e+002, 6.198911e+002
2.465317e+002, 6.141942e+002
2.470138e+002, 6.110057e+002
2.474959e+002, 6.105038e+002
2.479780e+002, 6.105264e+002
2.484601e+002, 6.112485e+002
2.489423e+002, 6.123412e+002
2.494244e+002, 6.133771e+002
2.499065e+002, 6.139960e+002
2.503886e+002, 6.153350e+002
2.508707e+002, 6.179704e+002
2.513528e+002, 6.219810e+002
2.518350e+002, 6.252025e+002
2.523171e+002, 6.280114e+002
2.527992e+002, 6.295996e+002
2.532813e+002, 6.287203e+002
2.537634e+002, 6.237308e+002
2.542455e+002, 6.198625e+002
2.547277e+002, 6.184493e+002
2.552098e+002, 6.195285e+002
2.556919e+002, 6.200432e+002
2.561740e+002, 6.196804e+002
2.566561e+002, 6.191205e+002
2.571382e+002, 6.191304e+002
2.576204e+002, 6.202107e+002
2.581025e+002, 6.206101e+002
2.585846e+002, 6.198405e+002
2.590667e+002, 6.179602e+002
2.595488e+002, 6.161055e+002
2.600309e+002, 6.138828e+002
2.605131e+002, 6.123156e+002
2.609952e+002, 6.126787e+002
2.614773e+002, 6.160356e+002
2.619594e+002, 6.183281e+002
2.624415e+002, 6.185803e+002
2.629236e+002, 6.170338e+002
2.634058e+002, 6.162963e+002
2.638879e+002, 6.170840e+002
2.643700e+002, 6.174705e+002
2.648521e+002, 6.153071e+002
2.653342e+002, 6.091489e+002
2.658163e+002, 6.055545e+002
2.662985e+002, 6.063740e+002
2.667806e+002, 6.106359e+002
2.672627e+002, 6.128857e+002
2.677448e+002, 6.128590e+002
2.682269e+002, 6.113205e+002
2.687090e+002, 6.081329e+002
2.691912e+002, 6.023181e+002
2.696733e+002, 5.990780e+002
2.701554e+002, 5.997649e+002
2.706375e+002, 6.032983e+002
2.711196e+002, 6.053998e+002
2.716017e+002, 6.058483e+002
2.720839e+002, 6.054648e+002
2.725660e+002, 6.046144e+002
2.730481e+002, 6.031893e+002
2.735302e+002, 6.019578e+002
2.740123e+002, 6.009080e+002
2.744944e+002, 6.001469e+002
2.749766e+002, 6.002109e+002
2.754587e+002, 6.013986e+002
2.759408e+002, 6.022768e+002
2.764229e+002, 6.016187e+002
2.769050e+002, 5.992289e+002
2.773871e+002, 5.976847e+002
2.778693e+002, 5.970018e+002
2.783514e+002, 5.974494e+002
2.788335e+002, 6.008342e+002
2.793156e+002, 6.080853e+002
2.797977e+002, 6.129680e+002
2.802798e+002, 6.102560e+002
2.807620e+002, 5.999103e+002
2.812441e+002, 5.939656e+002
2.817262e+002, 5.938994e+002
2.822083e+002, 5.967840e+002
2.826904e+002, 5.972013e+002
2.831725e+002, 5.949261e+002
2.836547e+002, 5.933439e+002
2.841368e+002, 5.946665e+002
2.846189e+002, 5.985781e+002
2.851010e+002, 6.014755e+002
2.855831e+002, 6.032263e+002
2.860652e+002, 6.041102e+002
2.865474e+002, 6.041782e+002
2.870295e+002, 6.034531e+002
2.875116e+002, 6.030533e+002
2.879937e+002, 6.039957e+002
2.884758e+002, 6.058781e+002
2.889579e+002, 6.060457e+002
2.894401e+002, 6.042635e+002
2.899222e+002, 6.020440e+002
2.904043e+002, 6.012285e+002
2.908864e+002, 6.016866e+002
2.913685e+002, 6.023679e+002
2.918506e+002, 6.029316e+002
2.923328e+002, 6.034178e+002
2.928149e+002, 6.041687e+002
2.932970e+002, 6.052583e+002
2.937791e+002, 6.057781e+002
2.942612e+002, 6.036795e+002
2.947433e+002, 5.998690e+002
2.952255e+002, 5.981450e+002
2.957076e+002, 6.010118e+002
2.961897e+002, 6.060496e+002
2.966718e+002, 6.082392e+002
2.971539e+002, 6.076398e+002
2.976360e+002, 6.066354e+002
2.981182e+002, 6.076533e+002
2.986003e+002, 6.098427e+002
2.990824e+002, 6.109523e+002
2.995645e+002, 6.096234e+002
3.000466e+002, 6.077555e+002
3.005287e+002, 6.085952e+002
3.010109e+002, 6.117542e+002
3.014930e+002, 6.145045e+002
3.019751e+002, 6.145598e+002
3.024572e+002, 6.129243e+002
3.029393e+002, 6.111154e+002
3.034214e+002, 6.090466e+002
3.039036e+002, 6.076344e+002
3.043857e+002, 6.083548e+002
3.048678e+002, 6.107277e+002
3.053499e+002, 6.130116e+002
3.058320e+002, 6.137075e+002
3.063141e+002, 6.138769e+002
3.067963e+002, 6.150659e+002
3.072784e+002, 6.180645e+002
3.077605e+002, 6.205482e+002
3.082426e+002, 6.196763e+002
3.087247e+002, 6.167122e+002
3.092068e+002, 6.146891e+002
3.096890e+002, 6.166718e+002
3.101711e+002, 6.193813e+002
3.106532e+002, 6.196062e+002
3.111353e+002, 6.165163e+002
3.116174e+002, 6.134344e+002
3.120995e+002, 6.116794e+002
3.125817e+002, 6.114620e+002
3.130638e+002, 6.130761e+002
3.135459e+002, 6.199112e+002
3.140280e+002, 6.261880e+002
3.145101e+002, 6.274881e+002
3.149922e+002, 6.232102e+002
3.154744e+002, 6.194987e+002
3.159565e+002, 6.198285e+002
3.164386e+002, 6.221574e+002
3.169207e+002, 6.241480e+002
3.174028e+002, 6.252543e+002
3.178849e+002, 6.257468e+002
3.183671e+002, 6.249700e+002
3.188492e+002, 6.230743e+002
3.193313e+002, 6.228260e+002
3.198134e+002, 6.279854e+002
3.202955e+002, 6.337050e+002
3.207776e+002, 6.360746e+002
3.212598e+002, 6.299035e+002
3.217419e+002, 6.249431e+002
3.222240e+002, 6.239376e+002
3.227061e+002, 6.262548e+002
3.231882e+002, 6.285448e+002
3.236703e+002, 6.306728e+002
3.241525e+002, 6.322466e+002
3.246346e+002, 6.329898e+002
3.251167e+002, 6.318142e+002
3.255988e+002, 6.312731e+002
3.260809e+002, 6.319988e+002
3.265630e+002, 6.335611e+002
3.270452e+002, 6.347805e+002
3.275273e+002, 6.359849e+002
3.280094e+002, 6.364890e+002
3.284915e+002, 6.358019e+002
3.289736e+002, 6.326458e+002
3.294557e+002, 6.311988e+002
3.299379e+002, 6.327048e+002
3.304200e+002, 6.355291e+002
3.309021e+002, 6.369435e+002
3.313842e+002, 6.352101e+002
3.318663e+002, 6.344102e+002
3.323484e+002, 6.363324e+002
3.328306e+002, 6.418114e+002
3.333127e+002, 6.440385e+002
3.337948e+002, 6.408849e+002
3.342769e+002, 6.363719e+002
3.347590e+002, 6.353352e+002
3.352411e+002, 6.400230e+002
3.357233e+002, 6.430683e+002
3.362054e+002, 6.423890e+002
3.366875e+002, 6.382897e+002
3.371696e+002, 6.357283e+002
3.376517e+002, 6.348865e+002
3.381339e+002, 6.352504e+002
3.386160e+002, 6.367217e+002
3.390981e+002, 6.396475e+002
3.395802e+002, 6.420452e+002
3.400623e+002, 6.436849e+002
3.405444e+002, 6.445641e+002
3.410266e+002, 6.441868e+002
3.415087e+002, 6.421501e+002
3.419908e+002, 6.407119e+002
3.424729e+002, 6.417586e+002
3.429550e+002, 6.452545e+002
3.434371e+002, 6.479293e+002
3.439193e+002, 6.495222e+002
3.444014e+002, 6.501337e+002
3.448835e+002, 6.491288e+002
3.453656e+002, 6.465304e+002
3.458477e+002, 6.452512e+002
3.463298e+002, 6.482261e+002
3.468120e+002, 6.540907e+002
3.472941e+002, 6.563026e+002
3.477762e+002, 6.543046e+002
3.482583e+002, 6.510335e+002
3.487404e+002, 6.496570e+002
3.492225e+002, 6.499437e+002
3.497047e+002, 6.509274e+002
3.501868e+002, 6.528667e+002
3.506689e+002, 6.549867e+002
3.511510e+002, 6.558202e+002
3.516331e+002, 6.553738e+002
3.521152e+002, 6.544767e+002
3.525974e+002, 6.537994e+002
3.530795e+002, 6.531561e+002
3.535616e+002, 6.520722e+002
3.540437e+002, 6.496909e+002
3.545258e+002, 6.477487e+002
3.550079e+002, 6.484107e+002
3.554901e+002, 6.512346e+002
3.559722e+002, 6.542242e+002
3.564543e+002, 6.572116e+002
3.569364e+002, 6.592442e+002
3.574185e+002, 6.589435e+002
3.579006e+002, 6.551077e+002
3.583828e+002, 6.515667e+002
3.588649e+002, 6.506784e+002
3.593470e+002, 6.518088e+002
3.598291e+002, 6.536472e+002
3.603112e+002, 6.569270e+002
3.607933e+002, 6.597617e+002
3.612755e+002, 6.607953e+002
3.617576e+002, 6.596595e+002
3.622397e+002, 6.585112e+002
3.627218e+002, 6.577393e+002
3.632039e+002, 6.575317e+002
3.636860e+002, 6.580988e+002
3.641682e+002, 6.605325e+002
3.646503e+002, 6.627465e+002
3.651324e+002, 6.638544e+002
3.656145e+002, 6.639081e+002
3.660966e+002, 6.642474e+002
3.665787e+002, 6.658845e+002
3.670609e+002, 6.673837e+002
3.675430e+002, 6.678255e+002
3.680251e+002, 6.655123e+002
3.685072e+002, 6.640668e+002
3.689893e+002, 6.645878e+002
3.694714e+002, 6.662921e+002
3.699536e+002, 6.665346e+002
3.704357e+002, 6.637923e+002
3.709178e+002, 6.611945e+002
3.713999e+002, 6.600698e+002
3.718820e+002, 6.611013e+002
3.723641e+002, 6.617128e+002
3.728463e+002, 6.610693e+002
3.733284e+002, 6.605418e+002
3.738105e+002, 6.627408e+002
3.742926e+002, 6.695843e+002
3.747747e+002, 6.747693e+002
3.752568e+002, 6.758763e+002
3.757390e+002, 6.728423e+002
3.762211e+002, 6.719535e+002
3.767032e+002, 6.738685e+002
3.771853e+002, 6.765213e+002
3.776674e+002, 6.780737e+002
3.781495e+002, 6.784734e+002
3.786317e+002, 6.781004e+002
3.791138e+002, 6.766552e+002
3.795959e+002, 6.747141e+002
3.800780e+002, 6.741350e+002
3.805601e+002, 6.750121e+002
3.810422e+002, 6.763115e+002
3.815244e+002, 6.771581e+002
3.820065e+002, 6.777566e+002
3.824886e+002, 6.797205e+002
3.829707e+002, 6.839150e+002
3.834528e+002, 6.875334e+002
3.839349e+002, 6.850186e+002
3.844171e+002, 6.776080e+002
3.848992e+002, 6.720450e+002
3.853813e+002, 6.728788e+002
3.858634e+002, 6.772273e+002
3.863455e+002, 6.802457e+002
3.868276e+002, 6.817395e+002
3.873098e+002, 6.828798e+002
3.877919e+002, 6.850058e+002
3.882740e+002, 6.874441e+002
3.887561e+002, 6.889094e+002
3.892382e+002, 6.876441e+002
3.897203e+002, 6.865482e+002
3.902025e+002, 6.886660e+002
3.906846e+002, 6.933409e+002
3.911667e+002, 6.975635e+002
3.916488e+002, 6.993082e+002
3.921309e+002, 7.000135e+002
3.926130e+002, 7.009128e+002
3.930952e+002, 7.024437e+002
3.935773e+002, 7.037304e+002
3.940594e+002, 7.036074e+002
3.945415e+002, 7.030533e+002
3.950236e+002, 7.038821e+002
3.955057e+002, 7.083965e+002
3.959879e+002, 7.128766e+002
3.964700e+002, 7.158360e+002
3.969521e+002, 7.170194e+002
3.974342e+002, 7.176898e+002
3.979163e+002, 7.171027e+002
3.983984e+002, 7.165450e+002
3.988806e+002, 7.171902e+002
3.993627e+002, 7.205024e+002
3.998448e+002, 7.234366e+002
4.003269e+002, 7.256121e+002
4.008090e+002, 7.271026e+002
4.012911e+002, 7.283754e+002
4.017733e+002, 7.291334e+002
4.022554e+002, 7.300306e+002
4.027375e+002, 7.314206e+002
4.032196e+002, 7.334554e+002
4.037017e+002, 7.356255e+002
4.041838e+002, 7.379423e+002
4.046660e+002, 7.403698e+002
4.051481e+002, 7.429618e+002
4.056302e+002, 7.459953e+002
4.061123e+002, 7.482105e+002
4.065944e+002, 7.487889e+002
4.070765e+002, 7.478495e+002
4.075587e+002, 7.482592e+002
4.080408e+002, 7.504152e+002
4.085229e+002, 7.523995e+002
4.090050e+002, 7.515762e+002
4.094871e+002, 7.482021e+002
4.099692e+002, 7.461779e+002
4.104514e+002, 7.468416e+002
4.109335e+002, 7.487532e+002
4.114156e+002, 7.490402e+002
4.118977e+002, 7.477755e+002
4.123798e+002, 7.458678e+002
4.128619e+002, 7.433852e+002
4.133441e+002, 7.408059e+002
4.138262e+002, 7.392708e+002
4.143083e+002, 7.391204e+002
4.147904e+002, 7.389573e+002
4.152725e+002, 7.370137e+002
4.157546e+002, 7.340592e+002
4.162368e+002, 7.316349e+002
4.167189e+002, 7.305498e+002
4.172010e+002, 7.302227e+002
4.176831e+002, 7.303842e+002
4.181652e+002, 7.309931e+002
4.186473e+002, 7.316048e+002
4.191295e+002, 7.321584e+002
4.196116e+002, 7.325079e+002
4.200937e+002, 7.324313e+002
4.205758e+002, 7.309731e+002
4.210579e+002, 7.303918e+002
4.215400e+002, 7.322423e+002
4.220222e+002, 7.355299e+002
4.225043e+002, 7.378520e+002
4.229864e+002, 7.377342e+002
4.234685e+002, 7.373524e+002
4.239506e+002, 7.376912e+002
4.244327e+002, 7.392924e+002
4.249149e+002, 7.399615e+002
4.253970e+002, 7.386491e+002
4.258791e+002, 7.369173e+002
4.263612e+002, 7.363017e+002
4.268433e+002, 7.372711e+002
4.273254e+002, 7.386229e+002
4.278076e+002, 7.402462e+002
4.282897e+002, 7.421230e+002
4.287718e+002, 7.441432e+002
4.292539e+002, 7.464752e+002
4.297360e+002, 7.485286e+002
4.302181e+002, 7.502240e+002
4.307003e+002, 7.518026e+002
4.311824e+002, 7.508084e+002
4.316645e+002, 7.460383e+002
4.321466e+002, 7.405496e+002
4.326287e+002, 7.404756e+002
4.331108e+002, 7.459418e+002
4.335930e+002, 7.504878e+002
4.340751e+002, 7.507370e+002
4.345572e+002, 7.483160e+002
4.350393e+002, 7.490770e+002
4.355214e+002, 7.530975e+002
4.360035e+002, 7.573301e+002
4.364857e+002, 7.590494e+002
4.369678e+002, 7.588760e+002
4.374499e+002, 7.581533e+002
4.379320e+002, 7.567538e+002
4.384141e+002, 7.557508e+002
4.388962e+002, 7.566155e+002
4.393784e+002, 7.588929e+002
4.398605e+002, 7.612589e+002
4.403426e+002, 7.634681e+002
4.408247e+002, 7.651481e+002
4.413068e+002, 7.653405e+002
4.417889e+002, 7.637265e+002
4.422711e+002, 7.636432e+002
4.427532e+002, 7.689617e+002
4.432353e+002, 7.757801e+002
4.437174e+002, 7.800466e+002
4.441995e+002, 7.764943e+002
4.446816e+002, 7.745899e+002
4.451638e+002, 7.783384e+002
4.456459e+002, 7.863905e+002
4.461280e+002, 7.926212e+002
4.466101e+002, 7.946979e+002
4.470922e+002, 7.959630e+002
4.475743e+002, 7.980199e+002
4.480565e+002, 8.018992e+002
4.485386e+002, 8.039089e+002
4.490207e+002, 8.027519e+002
4.495028e+002, 8.005317e+002
4.499849e+002, 8.002153e+002
4.504670e+002, 8.032415e+002
4.509492e+002, 8.048711e+002
4.514313e+002, 8.035976e+002
4.519134e+002, 7.999362e+002
4.523955e+002, 7.977721e+002
4.528776e+002, 7.975494e+002
4.533597e+002, 7.974592e+002
4.538419e+002, 7.962603e+002
4.543240e+002, 7.939886e+002
4.548061e+002, 7.915742e+002
4.552882e+002, 7.892310e+002
4.557703e+002, 7.864608e+002
4.562524e+002, 7.817081e+002
4.567346e+002, 7.753846e+002
4.572167e+002, 7.706849e+002
4.576988e+002, 7.694857e+002
4.581809e+002, 7.704260e+002
4.586630e+002, 7.718044e+002
4.591451e+002, 7.735156e+002
4.596273e+002, 7.741728e+002
4.601094e+002, 7.715222e+002
4.605915e+002, 7.675907e+002
4.610736e+002, 7.650926e+002
4.615557e+002, 7.650270e+002
4.620378e+002, 7.655427e+002
4.625200e+002, 7.651095e+002
4.630021e+002, 7.644208e+002
4.634842e+002, 7.648349e+002
4.639663e+002, 7.684677e+002
4.644484e+002, 7.719695e+002
4.649305e+002, 7.732908e+002
4.654127e+002, 7.721825e+002
4.658948e+002, 7.719678e+002
4.663769e+002, 7.740569e+002
4.668590e+002, 7.768463e+002
4.673411e+002, 7.791790e+002
4.678232e+002, 7.814318e+002
4.683054e+002, 7.826293e+002
4.687875e+002, 7.818290e+002
4.692696e+002, 7.801027e+002
4.697517e+002, 7.803833e+002
4.702338e+002, 7.842651e+002
4.707159e+002, 7.871359e+002
4.711981e+002, 7.869209e+002
4.716802e+002, 7.834448e+002
4.721623e+002, 7.815877e+002
4.726444e+002, 7.818505e+002
4.731265e+002, 7.824167e+002
4.736086e+002, 7.810601e+002
4.740908e+002, 7.778287e+002
4.745729e+002, 7.758760e+002
4.750550e+002, 7.759551e+002
4.755371e+002, 7.772848e+002
4.760192e+002, 7.786683e+002
4.765013e+002, 7.800790e+002
4.769835e+002, 7.813040e+002
4.774656e+002, 7.819805e+002
4.779477e+002, 7.824852e+002
4.784298e+002, 7.837320e+002
4.789119e+002, 7.857886e+002
4.793940e+002, 7.872811e+002
4.798762e+002, 7.866856e+002
4.803583e+002, 7.850124e+002
4.808404e+002, 7.836537e+002
4.813225e+002, 7.836527e+002
4.818046e+002, 7.831879e+002
4.822867e+002, 7.793148e+002
4.827689e+002, 7.741175e+002
4.832510e+002, 7.729474e+002
4.837331e+002, 7.836763e+002
4.842152e+002, 7.936108e+002
4.846973e+002, 7.962491e+002
4.851794e+002, 7.894109e+002
4.856616e+002, 7.845207e+002
4.861437e+002, 7.834840e+002
4.866258e+002, 7.842154e+002
4.871079e+002, 7.851890e+002
4.875900e+002, 7.864406e+002
4.880721e+002, 7.878729e+002
4.885543e+002, 7.895266e+002
4.890364e+002, 7.913197e+002
4.895185e+002, 7.928852e+002
4.900006e+002, 7.939362e+002
4.904827e+002, 7.955989e+002
4.909648e+002, 7.987918e+002
4.914470e+002, 8.033835e+002
4.919291e+002, 8.064065e+002
4.924112e+002, 8.077061e+002
4.928933e+002, 8.080836e+002
4.933754e+002, 8.080571e+002
4.938575e+002, 8.077413e+002
4.943397e+002, 8.075512e+002
4.948218e+002, 8.074453e+002
4.953039e+002, 8.077910e+002
4.957860e+002, 8.093643e+002
4.962681e+002, 8.118913e+002
4.967502e+002, 8.144095e+002
4.972324e+002, 8.158314e+002
4.977145e+002, 8.173972e+002
4.981966e+002, 8.210300e+002
4.986787e+002, 8.268530e+002
4.991608e+002, 8.310721e+002
4.996429e+002, 8.300990e+002
5.001251e+002, 8.274709e+002
5.006072e+002, 8.263156e+002
5.010893e+002, 8.282197e+002
5.015714e+002, 8.304177e+002
5.020535e+002, 8.323745e+002
5.025356e+002, 8.342061e+002
5.030178e+002, 8.361929e+002
5.034999e+002, 8.381218e+002
5.039820e+002, 8.405267e+002
5.044641e+002, 8.437425e+002
5.049462e+002, 8.478330e+002
5.054283e+002, 8.514307e+002
5.059105e+002, 8.548329e+002
5.063926e+002, 8.572704e+002
5.068747e+002, 8.580831e+002
5.073568e+002, 8.571564e+002
5.078389e+002, 8.551375e+002
5.083210e+002, 8.514617e+002
5.088032e+002, 8.478541e+002
5.092853e+002, 8.474761e+002
5.097674e+002, 8.502053e+002
5.102495e+002, 8.541478e+002
5.107316e+002, 8.594126e+002
5.112137e+002, 8.650056e+002
5.116959e+002, 8.689949e+002
5.121780e+002, 8.713563e+002
5.126601e+002, 8.723603e+002
5.131422e+002, 8.705071e+002
5.136243e+002, 8.680660e+002
5.141064e+002, 8.683196e+002
5.145886e+002, 8.725341e+002
5.150707e+002, 8.769101e+002
5.155528e+002, 8.793817e+002
5.160349e+002, 8.804632e+002
5.165170e+002, 8.809402e+002
5.169991e+002, 8.808440e+002
5.174813e+002, 8.804285e+002
5.179634e+002, 8.798583e+002
5.184455e+002, 8.791047e+002
5.189276e+002, 8.778438e+002
5.194097e+002, 8.758372e+002
5.198918e+002, 8.734867e+002
5.203740e+002, 8.706987e+002
5.208561e+002, 8.666972e+002
5.213382e+002, 8.647889e+002
5.218203e+002, 8.655082e+002
5.223024e+002, 8.676765e+002
5.227845e+002, 8.704426e+002
5.232667e+002, 8.742063e+002
5.237488e+002, 8.760358e+002
5.242309e+002, 8.747002e+002
5.247130e+002, 8.716474e+002
5.251951e+002, 8.706232e+002
5.256772e+002, 8.715896e+002
5.261594e+002, 8.727659e+002
5.266415e+002, 8.731571e+002
5.271236e+002, 8.730505e+002
5.276057e+002, 8.725198e+002
5.280878e+002, 8.715513e+002
5.285699e+002, 8.720877e+002
5.290521e+002, 8.784080e+002
5.295342e+002, 8.863070e+002
5.300163e+002, 8.899453e+002
5.304984e+002, 8.861003e+002
5.309805e+002, 8.808068e+002
5.314626e+002, 8.761115e+002
5.319448e+002, 8.724420e+002
5.324269e+002, 8.706336e+002
5.329090e+002, 8.718090e+002
5.333911e+002, 8.739760e+002
5.338732e+002, 8.771725e+002
5.343553e+002, 8.814128e+002
5.348375e+002, 8.837283e+002
5.353196e+002, 8.826010e+002
5.358017e+002, 8.809457e+002
5.362838e+002, 8.803933e+002
5.367659e+002, 8.814659e+002
5.372480e+002, 8.820084e+002
5.377302e+002, 8.815993e+002
5.382123e+002, 8.811921e+002
5.386944e+002, 8.822105e+002
5.391765e+002, 8.847218e+002
5.396586e+002, 8.880234e+002
5.401407e+002, 8.923414e+002
5.406229e+002, 8.969525e+002
5.411050e+002, 9.004675e+002
5.415871e+002, 9.028168e+002
5.420692e+002, 9.031532e+002
5.425513e+002, 8.988940e+002
5.430334e+002, 8.930820e+002
5.435156e+002, 8.909930e+002
5.439977e+002, 8.931257e+002
5.444798e+002, 8.950632e+002
5.449619e+002, 8.916382e+002
5.454440e+002, 8.872117e+002
5.459261e+002, 8.867722e+002
5.464083e+002, 8.950466e+002
5.468904e+002, 9.025421e+002
5.473725e+002, 9.055871e+002
5.478546e+002, 9.055786e+002
5.483367e+002, 9.055983e+002
5.488188e+002, 9.052314e+002
5.493010e+002, 9.058492e+002
5.497831e+002, 9.083663e+002
5.502652e+002, 9.127274e+002
5.507473e+002, 9.150733e+002
5.512294e+002, 9.140731e+002
5.517115e+002, 9.133151e+002
5.521937e+002, 9.154277e+002
5.526758e+002, 9.208340e+002
5.531579e+002, 9.252764e+002
5.536400e+002, 9.286272e+002
5.541221e+002, 9.309308e+002
5.546042e+002, 9.308405e+002
5.550864e+002, 9.291182e+002
5.555685e+002, 9.307074e+002
5.560506e+002, 9.380362e+002
5.565327e+002, 9.481152e+002
5.570148e+002, 9.579484e+002
5.574969e+002, 9.671708e+002
5.579791e+002, 9.744547e+002
5.584612e+002, 9.780023e+002
5.589433e+002, 9.799222e+002
5.594254e+002, 9.819891e+002
5.599075e+002, 9.843554e+002
5.603896e+002, 9.855466e+002
5.608718e+002, 9.845679e+002
5.613539e+002, 9.824160e+002
5.618360e+002, 9.797468e+002
5.623181e+002, 9.753943e+002
5.628002e+002, 9.725283e+002
5.632823e+002, 9.730126e+002
5.637645e+002, 9.743526e+002
5.642466e+002, 9.724352e+002
5.647287e+002, 9.654417e+002
5.652108e+002, 9.594270e+002
5.656929e+002, 9.560580e+002
5.661750e+002, 9.547117e+002
5.666572e+002, 9.522180e+002
5.671393e+002, 9.483660e+002
5.676214e+002, 9.449447e+002
5.681035e+002, 9.434311e+002
5.685856e+002, 9.432546e+002
5.690677e+002, 9.416996e+002
5.695499e+002, 9.385448e+002
5.700320e+002, 9.361643e+002
5.705141e+002, 9.384611e+002
5.709962e+002, 9.426270e+002
5.714783e+002, 9.438034e+002
5.719604e+002, 9.395142e+002
5.724426e+002, 9.347065e+002
5.729247e+002, 9.326098e+002
5.734068e+002, 9.321845e+002
5.738889e+002, 9.315212e+002
5.743710e+002, 9.300884e+002
5.748531e+002, 9.282651e+002
5.753353e+002, 9.261728e+002
5.758174e+002, 9.238260e+002
5.762995e+002, 9.210756e+002
5.767816e+002, 9.167700e+002
5.772637e+002, 9.134729e+002
5.777458e+002, 9.127727e+002
5.782280e+002, 9.155746e+002
5.787101e+002, 9.159996e+002
5.791922e+002, 9.135089e+002
5.796743e+002, 9.098206e+002
5.801564e+002, 9.064525e+002
5.806385e+002, 9.034237e+002
5.811207e+002, 9.006306e+002
5.816028e+002, 8.975905e+002
5.820849e+002, 8.958976e+002
5.825670e+002, 8.998505e+002
5.830491e+002, 9.075173e+002
5.835313e+002, 9.128297e+002
5.840134e+002, 9.103372e+002
5.844955e+002, 9.059810e+002
5.849776e+002, 9.051590e+002
5.854597e+002, 9.074197e+002
5.859418e+002, 9.100251e+002
5.864240e+002, 9.133008e+002
5.869061e+002, 9.152888e+002
5.873882e+002, 9.142995e+002
5.878703e+002, 9.090086e+002
5.883524e+002, 9.052496e+002
5.888345e+002, 9.049182e+002
5.893167e+002, 9.055928e+002
5.897988e+002, 9.052499e+002
5.902809e+002, 9.025796e+002
5.907630e+002, 9.022213e+002
5.912451e+002, 9.057552e+002
5.917272e+002, 9.104903e+002
5.922094e+002, 9.103220e+002
5.926915e+002, 9.048162e+002
5.931736e+002, 9.015781e+002
5.936557e+002, 9.044356e+002
5.941378e+002, 9.104055e+002
5.946199e+002, 9.116060e+002
5.951021e+002, 9.086420e+002
5.955842e+002, 9.065251e+002
5.960663e+002, 9.099282e+002
5.965484e+002, 9.152191e+002
5.970305e+002, 9.180695e+002
5.975126e+002, 9.180650e+002
5.979948e+002, 9.177393e+002
5.984769e+002, 9.178810e+002
5.989590e+002, 9.186743e+002
5.994411e+002, 9.204123e+002
5.999232e+002, 9.245483e+002
6.004053e+002, 9.273381e+002
6.008875e+002, 9.267344e+002
6.013696e+002, 9.249899e+002
6.018517e+002, 9.254413e+002
6.023338e+002, 9.299915e+002
6.028159e+002, 9.329086e+002
6.032980e+002, 9.326991e+002
6.037802e+002, 9.302582e+002
6.042623e+002, 9.286439e+002
6.047444e+002, 9.278746e+002
6.052265e+002, 9.278430e+002
6.057086e+002, 9.283519e+002
6.061907e+002, 9.295506e+002
6.066729e+002, 9.327031e+002
6.071550e+002, 9.377335e+002
6.076371e+002, 9.418461e+002
6.081192e+002, 9.424291e+002
6.086013e+002, 9.408572e+002
6.090834e+002, 9.384446e+002
6.095656e+002, 9.349075e+002
6.100477e+002, 9.326624e+002
6.105298e+002, 9.351036e+002
6.110119e+002, 9.387115e+002
6.114940e+002, 9.395542e+002
6.119761e+002, 9.323036e+002
6.124583e+002, 9.275569e+002
6.129404e+002, 9.288517e+002
6.134225e+002, 9.333926e+002
6.139046e+002, 9.349207e+002
6.143867e+002, 9.319834e+002
6.148688e+002, 9.289871e+002
6.153510e+002, 9.268180e+002
6.158331e+002, 9.255948e+002
6.163152e+002, 9.267953e+002
6.167973e+002, 9.307573e+002
6.172794e+002, 9.336181e+002
6.177615e+002, 9.314297e+002
6.182437e+002, 9.261508e+002
6.187258e+002, 9.235828e+002
6.192079e+002, 9.240695e+002
6.196900e+002, 9.248947e+002
6.201721e+002, 9.233326e+002
6.206542e+002, 9.209039e+002
6.211364e+002, 9.195596e+002
6.216185e+002, 9.200141e+002
6.221006e+002, 9.209706e+002
6.225827e+002, 9.226508e+002
6.230648e+002, 9.242713e+002
6.235469e+002, 9.247350e+002
6.240291e+002, 9.207083e+002
6.245112e+002, 9.195222e+002
6.249933e+002, 9.244781e+002
6.254754e+002, 9.329120e+002
6.259575e+002, 9.348705e+002
6.264396e+002, 9.276686e+002
6.269218e+002, 9.220858e+002
6.274039e+002, 9.236422e+002
6.278860e+002, 9.305508e+002
6.283681e+002, 9.307523e+002
6.288502e+002, 9.239822e+002
6.293323e+002, 9.174771e+002
6.298145e+002, 9.177488e+002
6.302966e+002, 9.218143e+002
6.307787e+002, 9.235361e+002
6.312608e+002, 9.221129e+002
6.317429e+002, 9.212935e+002
6.322250e+002, 9.249501e+002
6.327072e+002, 9.301779e+002
6.331893e+002, 9.339644e+002
6.336714e+002, 9.356232e+002
6.341535e+002, 9.356072e+002
6.346356e+002, 9.320287e+002
6.351177e+002, 9.273878e+002
6.355999e+002, 9.257341e+002
6.360820e+002, 9.296063e+002
6.365641e+002, 9.323701e+002
6.370462e+002, 9.323986e+002
6.375283e+002, 9.307415e+002
6.380104e+002, 9.311316e+002
6.384926e+002, 9.339161e+002
6.389747e+002, 9.365883e+002
6.394568e+002, 9.379541e+002
6.399389e+002, 9.383904e+002
6.404210e+002, 9.392657e+002
6.409031e+002, 9.405475e+002
6.413853e+002, 9.413786e+002
6.418674e+002, 9.408016e+002
6.423495e+002, 9.396057e+002
6.428316e+002, 9.385448e+002
6.433137e+002, 9.376423e+002
6.437958e+002, 9.374655e+002
6.442780e+002, 9.388592e+002
6.447601e+002, 9.407809e+002
6.452422e+002, 9.423134e+002
6.457243e+002, 9.431531e+002
6.462064e+002, 9.437773e+002
6.466885e+002, 9.438705e+002
6.471707e+002, 9.439589e+002
6.476528e+002, 9.448332e+002
6.481349e+002, 9.468257e+002
6.486170e+002, 9.485584e+002
6.490991e+002, 9.499075e+002
6.495812e+002, 9.507288e+002
6.500634e+002, 9.506367e+002
6.505455e+002, 9.496652e+002
6.510276e+002, 9.482812e+002
6.515097e+002, 9.456002e+002
6.519918e+002, 9.432928e+002
6.524739e+002, 9.449285e+002
6.529561e+002, 9.497249e+002
6.534382e+002, 9.536855e+002
6.539203e+002, 9.538468e+002
6.544024e+002, 9.527834e+002
6.548845e+002, 9.518093e+002
6.553666e+002, 9.509583e+002
6.558488e+002, 9.514943e+002
6.563309e+002, 9.552159e+002
6.568130e+002, 9.592679e+002
6.572951e+002, 9.619927e+002
6.577772e+002, 9.632406e+002
6.582593e+002, 9.634662e+002
6.587415e+002, 9.623648e+002
6.592236e+002, 9.607376e+002
6.597057e+002, 9.590245e+002
6.601878e+002, 9.572623e+002
6.606699e+002, 9.577004e+002
6.611520e+002, 9.615176e+002
6.616342e+002, 9.656781e+002
6.621163e+002, 9.650489e+002
6.625984e+002, 9.612434e+002
6.630805e+002, 9.585260e+002
6.635626e+002, 9.591657e+002
6.640447e+002, 9.609204e+002
6.645269e+002, 9.626565e+002
6.650090e+002, 9.642766e+002
6.654911e+002, 9.655516e+002
6.659732e+002, 9.656196e+002
6.664553e+002, 9.661128e+002
6.669374e+002, 9.685114e+002
6.674196e+002, 9.725562e+002
6.679017e+002, 9.734880e+002
6.683838e+002, 9.695831e+002
6.688659e+002, 9.658576e+002
6.693480e+002, 9.653522e+002
6.698301e+002, 9.680022e+002
6.703123e+002, 9.680674e+002
6.707944e+002, 9.652117e+002
6.712765e+002, 9.623397e+002
6.717586e+002, 9.619987e+002
6.722407e+002, 9.635299e+002
6.727228e+002, 9.657368e+002
6.732050e+002, 9.686263e+002
6.736871e+002, 9.710963e+002
6.741692e+002, 9.717892e+002
6.746513e+002, 9.718315e+002
6.751334e+002, 9.726130e+002
6.756155e+002, 9.759164e+002
6.760977e+002, 9.778010e+002
6.765798e+002, 9.757691e+002
6.770619e+002, 9.723060e+002
6.775440e+002, 9.711534e+002
6.780261e+002, 9.732653e+002
6.785082e+002, 9.757996e+002
6.789904e+002, 9.786367e+002
6.794725e+002, 9.813688e+002
6.799546e+002, 9.829578e+002
6.804367e+002, 9.833857e+002
6.809188e+002, 9.832017e+002
6.814009e+002, 9.823840e+002
6.818831e+002, 9.812797e+002
6.823652e+002, 9.804592e+002
6.828473e+002, 9.799177e+002
6.833294e+002, 9.796400e+002
6.838115e+002, 9.793143e+002
6.842936e+002, 9.794780e+002
6.847758e+002, 9.807839e+002
6.852579e+002, 9.832430e+002
6.857400e+002, 9.854281e+002
6.862221e+002, 9.873041e+002
6.867042e+002, 9.884617e+002
6.871863e+002, 9.884302e+002
6.876685e+002, 9.865709e+002
6.881506e+002, 9.865529e+002
6.886327e+002, 9.892324e+002
6.891148e+002, 9.919848e+002
6.895969e+002, 9.920034e+002
6.900790e+002, 9.895092e+002
6.905612e+002, 9.879951e+002
6.910433e+002, 9.877838e+002
6.915254e+002, 9.886318e+002
6.920075e+002, 9.909854e+002
6.924896e+002, 9.940508e+002
6.929717e+002, 9.964526e+002
6.934539e+002, 9.980980e+002
6.939360e+002, 9.984091e+002
6.944181e+002, 9.953065e+002
6.949002e+002, 9.910818e+002
6.953823e+002, 9.892883e+002
6.958644e+002, 9.937868e+002
6.963466e+002, 9.970521e+002
6.968287e+002, 9.978708e+002
6.973108e+002, 9.968652e+002
6.977929e+002, 9.956158e+002
6.982750e+002, 9.942773e+002
6.987571e+002, 9.920151e+002
6.992393e+002, 9.875586e+002
6.997214e+002, 9.825828e+002
7.002035e+002, 9.831710e+002
7.006856e+002, 9.887341e+002
7.011677e+002, 9.941568e+002
7.016498e+002, 9.957948e+002
7.021320e+002, 9.960845e+002
7.026141e+002, 9.982120e+002
7.030962e+002, 1.001931e+003
7.035783e+002, 1.004440e+003
7.040604e+002, 1.002660e+003
7.045425e+002, 1.000739e+003
7.050247e+002, 1.001255e+003
7.055068e+002, 1.004947e+003
7.059889e+002, 1.008045e+003
7.064710e+002, 1.010994e+003
7.069531e+002, 1.012708e+003
7.074352e+002, 1.011936e+003
7.079174e+002, 1.008334e+003
7.083995e+002, 1.006459e+003
7.088816e+002, 1.006653e+003
7.093637e+002, 1.007336e+003
7.098458e+002, 1.006227e+003
7.103279e+002, 1.004383e+003
7.108101e+002, 1.004887e+003
7.112922e+002, 1.008895e+003
7.117743e+002, 1.012591e+003
7.122564e+002, 1.013888e+003
7.127385e+002, 1.012935e+003
7.132206e+002, 1.009686e+003
7.137028e+002, 9.989608e+002
7.141849e+002, 9.931923e+002
7.146670e+002, 9.992741e+002
7.151491e+002, 1.009769e+003
7.156312e+002, 1.014298e+003
7.161133e+002, 1.009768e+003
7.165955e+002, 1.008113e+003
7.170776e+002, 1.012439e+003
7.175597e+002, 1.019406e+003
7.180418e+002, 1.021411e+003
7.185239e+002, 1.018922e+003
7.190060e+002, 1.016465e+003
7.194882e+002, 1.015747e+003
7.199703e+002, 1.015987e+003
7.204524e+002, 1.016987e+003
7.209345e+002, 1.018214e+003
7.214166e+002, 1.018149e+003
7.218987e+002, 1.014034e+003
7.223809e+002, 1.010387e+003
7.228630e+002, 1.009608e+003
7.233451e+002, 1.011480e+003
7.238272e+002, 1.013535e+003
7.243093e+002, 1.015651e+003
7.247914e+002, 1.017924e+003
7.252736e+002, 1.020365e+003
7.257557e+002, 1.022990e+003
7.262378e+002, 1.026369e+003
7.267199e+002, 1.030809e+003
7.272020e+002, 1.033797e+003
7.276841e+002, 1.032357e+003
7.281663e+002, 1.028639e+003
7.286484e+002, 1.028270e+003
7.291305e+002, 1.031253e+003
7.296126e+002, 1.032701e+003
7.300947e+002, 1.025970e+003
7.305768e+002, 1.018567e+003
7.310590e+002, 1.017226e+003
7.315411e+002, 1.024089e+003
7.320232e+002, 1.030010e+003
7.325053e+002, 1.032969e+003
7.329874e+002, 1.034760e+003
7.334695e+002, 1.036385e+003
7.339517e+002, 1.037842e+003
7.344338e+002, 1.039179e+003
7.349159e+002, 1.040592e+003
7.353980e+002, 1.041325e+003
7.358801e+002, 1.039886e+003
7.363622e+002, 1.036937e+003
7.368444e+002, 1.035448e+003
7.373265e+002, 1.036123e+003
7.378086e+002, 1.037107e+003
7.382907e+002, 1.036202e+003
7.387728e+002, 1.034749e+003
7.392549e+002, 1.034565e+003
7.397371e+002, 1.036946e+003
7.402192e+002, 1.039270e+003
7.407013e+002, 1.040877e+003
7.411834e+002, 1.042001e+003
7.416655e+002, 1.042982e+003
7.421476e+002, 1.043743e+003
7.426298e+002, 1.044581e+003
7.431119e+002, 1.045757e+003
7.435940e+002, 1.046683e+003
7.440761e+002, 1.045916e+003
7.445582e+002, 1.043638e+003
7.450403e+002, 1.041713e+003
7.455225e+002, 1.040407e+003
7.460046e+002, 1.040165e+003
7.464867e+002, 1.042274e+003
7.469688e+002, 1.045796e+003
7.474509e+002, 1.048710e+003
7.479330e+002, 1.050252e+003
7.484152e+002, 1.050951e+003
7.488973e+002, 1.050598e+003
7.493794e+002, 1.049542e+003
7.498615e+002, 1.048903e+003
7.503436e+002, 1.048729e+003
7.508257e+002, 1.049055e+003
7.513079e+002, 1.050330e+003
7.517900e+002, 1.051975e+003
7.522721e+002, 1.051259e+003
7.527542e+002, 1.048194e+003
7.532363e+002, 1.046102e+003
7.537184e+002, 1.047191e+003
7.542006e+002, 1.049871e+003
7.546827e+002, 1.052285e+003
7.551648e+002, 1.054251e+003
7.556469e+002, 1.054901e+003
7.561290e+002, 1.051225e+003
7.566111e+002, 1.048456e+003
7.570933e+002, 1.051059e+003
7.575754e+002, 1.058590e+003
7.580575e+002, 1.061311e+003
7.585396e+002, 1.055137e+003
7.590217e+002, 1.049531e+003
7.595038e+002, 1.048289e+003
7.599860e+002, 1.051019e+003
7.604681e+002, 1.053290e+003
7.609502e+002, 1.055067e+003
7.614323e+002, 1.056604e+003
7.619144e+002, 1.057888e+003
7.623965e+002, 1.059107e+003
7.628787e+002, 1.061195e+003
7.633608e+002, 1.063964e+003
7.638429e+002, 1.065197e+003
7.643250e+002, 1.060153e+003
7.648071e+002, 1.055714e+003
7.652892e+002, 1.057992e+003
7.657714e+002, 1.068841e+003
7.662535e+002, 1.074975e+003
7.667356e+002, 1.073958e+003
7.672177e+002, 1.070429e+003
7.676998e+002, 1.065783e+003
7.681819e+002, 1.059642e+003
7.686641e+002, 1.059788e+003
7.691462e+002, 1.067080e+003
7.696283e+002, 1.074117e+003
7.701104e+002, 1.073103e+003
7.705925e+002, 1.067867e+003
7.710746e+002, 1.066208e+003
7.715568e+002, 1.068995e+003
7.720389e+002, 1.071443e+003
7.725210e+002, 1.069632e+003
7.730031e+002, 1.066895e+003
7.734852e+002, 1.065712e+003
7.739673e+002, 1.066521e+003
7.744495e+002, 1.068771e+003
7.749316e+002, 1.074061e+003
7.754137e+002, 1.078742e+003
7.758958e+002, 1.079461e+003
7.763779e+002, 1.075765e+003
7.768600e+002, 1.074237e+003
7.773422e+002, 1.075331e+003
7.778243e+002, 1.077155e+003
7.783064e+002, 1.077645e+003
7.787885e+002, 1.077560e+003
7.792706e+002, 1.078633e+003
7.797527e+002, 1.081424e+003
7.802349e+002, 1.083547e+003
7.807170e+002, 1.082868e+003
7.811991e+002, 1.081308e+003
7.816812e+002, 1.080557e+003
7.821633e+002, 1.081267e+003
7.826454e+002, 1.082140e+003
7.831276e+002, 1.083569e+003
7.836097e+002, 1.084702e+003
7.840918e+002, 1.084393e+003
7.845739e+002, 1.082604e+003
7.850560e+002, 1.081662e+003
7.855381e+002, 1.081904e+003
7.860203e+002, 1.082408e+003
7.865024e+002, 1.081855e+003
7.869845e+002, 1.080938e+003
7.874666e+002, 1.080887e+003
7.879487e+002, 1.082105e+003
7.884308e+002, 1.083763e+003
7.889130e+002, 1.086590e+003
7.893951e+002, 1.089064e+003
7.898772e+002, 1.089500e+003
7.903593e+002, 1.085633e+003
7.908414e+002, 1.083647e+003
7.913235e+002, 1.083919e+003
7.918057e+002, 1.085622e+003
7.922878e+002, 1.088186e+003
7.927699e+002, 1.091536e+003
7.932520e+002, 1.094140e+003
7.937341e+002, 1.095809e+003
7.942162e+002, 1.096619e+003
7.946984e+002, 1.096637e+003
7.951805e+002, 1.095874e+003
7.956626e+002, 1.094095e+003
7.961447e+002, 1.090151e+003
7.966268e+002, 1.087724e+003
7.971089e+002, 1.089645e+003
7.975911e+002, 1.092982e+003
7.980732e+002, 1.094476e+003
7.985553e+002, 1.093631e+003
7.990374e+002, 1.091680e+003
7.995195e+002, 1.087638e+003
8.000016e+002, 1.084477e+003
8.004838e+002, 1.087192e+003
8.009659e+002, 1.094643e+003
8.014480e+002, 1.100244e+003
8.019301e+002, 1.102633e+003
8.024122e+002, 1.103571e+003
8.028943e+002, 1.104809e+003
8.033765e+002, 1.105567e+003
8.038586e+002, 1.104622e+003
8.043407e+002, 1.099789e+003
8.048228e+002, 1.096669e+003
8.053049e+002, 1.097946e+003
8.057870e+002, 1.100552e+003
8.062692e+002, 1.100966e+003
8.067513e+002, 1.097660e+003
8.072334e+002, 1.099103e+003
8.077155e+002, 1.107530e+003
8.081976e+002, 1.116503e+003
8.086797e+002, 1.116222e+003
8.091619e+002, 1.109642e+003
8.096440e+002, 1.105536e+003
8.101261e+002, 1.106219e+003
8.106082e+002, 1.107852e+003
8.110903e+002, 1.107605e+003
8.115724e+002, 1.106779e+003
8.120546e+002, 1.106809e+003
8.125367e+002, 1.108491e+003
8.130188e+002, 1.110337e+003
8.135009e+002, 1.112958e+003
8.139830e+002, 1.115075e+003
8.144651e+002, 1.114698e+003
8.149473e+002, 1.111578e+003
8.154294e+002, 1.110673e+003
8.159115e+002, 1.112817e+003
8.163936e+002, 1.115687e+003
8.168757e+002, 1.116370e+003
8.173578e+002, 1.115970e+003
8.178400e+002, 1.116493e+003
8.183221e+002, 1.118604e+003
8.188042e+002, 1.120803e+003
8.192863e+002, 1.122807e+003
8.197684e+002, 1.124273e+003
8.202505e+002, 1.124715e+003
8.207327e+002, 1.123094e+003
8.212148e+002, 1.122808e+003
8.216969e+002, 1.124289e+003
8.221790e+002, 1.126262e+003
8.226611e+002, 1.127864e+003
8.231432e+002, 1.128900e+003
8.236254e+002, 1.127189e+003
8.241075e+002, 1.122066e+003
8.245896e+002, 1.118040e+003
8.250717e+002, 1.121132e+003
8.255538e+002, 1.126695e+003
8.260359e+002, 1.129222e+003
8.265181e+002, 1.126831e+003
8.270002e+002, 1.124690e+003
8.274823e+002, 1.124927e+003
8.279644e+002, 1.125071e+003
8.284465e+002, 1.122797e+003
8.289286e+002, 1.116646e+003
8.294108e+002, 1.116204e+003
8.298929e+002, 1.122526e+003
8.303750e+002, 1.130133e+003
8.308571e+002, 1.134686e+003
8.313392e+002, 1.136594e+003
8.318214e+002, 1.136425e+003
8.323035e+002, 1.134198e+003
8.327856e+002, 1.131089e+003
8.332677e+002, 1.125030e+003
8.337498e+002, 1.120370e+003
8.342319e+002, 1.121422e+003
8.347141e+002, 1.131066e+003
8.351962e+002, 1.135591e+003
8.356783e+002, 1.132169e+003
8.361604e+002, 1.128337e+003
8.366425e+002, 1.129939e+003
8.371246e+002, 1.136412e+003
8.376068e+002, 1.138599e+003
8.380889e+002, 1.136424e+003
8.385710e+002, 1.134199e+003
8.390531e+002, 1.136208e+003
8.395352e+002, 1.139330e+003
8.400173e+002, 1.139747e+003
8.404995e+002, 1.137273e+003
8.409816e+002, 1.135675e+003
8.414637e+002, 1.136919e+003
8.419458e+002, 1.138674e+003
8.424279e+002, 1.140213e+003
8.429100e+002, 1.141509e+003
8.433922e+002, 1.140930e+003
8.438743e+002, 1.138037e+003
8.443564e+002, 1.135622e+003
8.448385e+002, 1.135267e+003
8.453206e+002, 1.136602e+003
8.458027e+002, 1.139468e+003
8.462849e+002, 1.143516e+003
8.467670e+002, 1.146742e+003
8.472491e+002, 1.148085e+003
8.477312e+002, 1.148242e+003
8.482133e+002, 1.146906e+003
8.486954e+002, 1.144401e+003
8.491776e+002, 1.143468e+003
8.496597e+002, 1.145191e+003
8.501418e+002, 1.146433e+003
8.506239e+002, 1.145909e+003
8.511060e+002, 1.144300e+003
8.515881e+002, 1.143618e+003
8.520703e+002, 1.143886e+003
8.525524e+002, 1.145263e+003
8.530345e+002, 1.148369e+003
8.535166e+002, 1.152090e+003
8.539987e+002, 1.156700e+003
8.544808e+002, 1.161123e+003
8.549630e+002, 1.162647e+003
8.554451e+002, 1.156006e+003
8.559272e+002, 1.151870e+003
8.564093e+002, 1.153563e+003
8.568914e+002, 1.158414e+003
8.573735e+002, 1.160235e+003
8.578557e+002, 1.158752e+003
8.583378e+002, 1.157364e+003
8.588199e+002, 1.156816e+003
8.593020e+002, 1.157082e+003
8.597841e+002, 1.158730e+003
8.602662e+002, 1.161094e+003
8.607484e+002, 1.162783e+003
8.612305e+002, 1.163469e+003
8.617126e+002, 1.163209e+003
8.621947e+002, 1.160643e+003
8.626768e+002, 1.157752e+003
8.631589e+002, 1.157310e+003
8.636411e+002, 1.160026e+003
8.641232e+002, 1.163564e+003
8.646053e+002, 1.168379e+003
8.650874e+002, 1.172353e+003
8.655695e+002, 1.171473e+003
8.660516e+002, 1.167419e+003
8.665338e+002, 1.165915e+003
8.670159e+002, 1.168568e+003
8.674980e+002, 1.170932e+003
8.679801e+002, 1.168416e+003
8.684622e+002, 1.164903e+003
8.689443e+002, 1.164488e+003
8.694265e+002, 1.170306e+003
8.699086e+002, 1.172867e+003
8.703907e+002, 1.170664e+003
8.708728e+002, 1.167534e+003
8.713549e+002, 1.166940e+003
8.718370e+002, 1.168576e+003
8.723192e+002, 1.168509e+003
8.728013e+002, 1.166556e+003
8.732834e+002, 1.164582e+003
8.737655e+002, 1.163589e+003
8.742476e+002, 1.163662e+003
8.747297e+002, 1.165296e+003
8.752119e+002, 1.168571e+003
8.756940e+002, 1.171330e+003
8.761761e+002, 1.172764e+003
8.766582e+002, 1.173798e+003
8.771403e+002, 1.174646e+003
8.776224e+002, 1.175341e+003
8.781046e+002, 1.176674e+003
8.785867e+002, 1.178716e+003
8.790688e+002, 1.179913e+003
8.795509e+002, 1.178216e+003
8.800330e+002, 1.175773e+003
8.805151e+002, 1.176521e+003
8.809973e+002, 1.179456e+003
8.814794e+002, 1.180654e+003
8.819615e+002, 1.175510e+003
8.824436e+002, 1.171583e+003
8.829257e+002, 1.173201e+003
8.834078e+002, 1.177998e+003
8.838900e+002, 1.178933e+003
8.843721e+002, 1.175144e+003
8.848542e+002, 1.171936e+003
8.853363e+002, 1.170642e+003
8.858184e+002, 1.171016e+003
8.863005e+002, 1.173490e+003
8.867827e+002, 1.177274e+003
8.872648e+002, 1.180409e+003
8.877469e+002, 1.182795e+003
8.882290e+002, 1.183433e+003
8.887111e+002, 1.179415e+003
8.891932e+002, 1.174357e+003
8.896754e+002, 1.173804e+003
8.901575e+002, 1.180379e+003
8.906396e+002, 1.184594e+003
8.911217e+002, 1.185309e+003
8.916038e+002, 1.184421e+003
8.920859e+002, 1.184110e+003
8.925681e+002, 1.184143e+003
8.930502e+002, 1.183339e+003
8.935323e+002, 1.181203e+003
8.940144e+002, 1.180628e+003
8.944965e+002, 1.185905e+003
8.949786e+002, 1.192112e+003
8.954608e+002, 1.194822e+003
8.959429e+002, 1.192347e+003
8.964250e+002, 1.190569e+003
8.969071e+002, 1.189155e+003
8.973892e+002, 1.189120e+003
8.978713e+002, 1.192297e+003
8.983535e+002, 1.197778e+003
8.988356e+002, 1.199650e+003
8.993177e+002, 1.198075e+003
8.997998e+002, 1.196054e+003
9.002819e+002, 1.194339e+003
9.007640e+002, 1.193999e+003
9.012462e+002, 1.197467e+003
9.017283e+002, 1.204034e+003
9.022104e+002, 1.206228e+003
9.026925e+002, 1.199233e+003
9.031746e+002, 1.194889e+003
9.036567e+002, 1.197556e+003
9.041389e+002, 1.204815e+003
9.046210e+002, 1.209639e+003
9.051031e+002, 1.212032e+003
9.055852e+002, 1.212127e+003
9.060673e+002, 1.208702e+003
9.065494e+002, 1.204765e+003
9.070316e+002, 1.202637e+003
9.075137e+002, 1.202008e+003
9.079958e+002, 1.202319e+003
9.084779e+002, 1.203052e+003
9.089600e+002, 1.205607e+003
9.094421e+002, 1.211814e+003
9.099243e+002, 1.217988e+003
9.104064e+002, 1.218135e+003
9.108885e+002, 1.212690e+003
9.113706e+002, 1.209866e+003
9.118527e+002, 1.211165e+003
9.123348e+002, 1.213367e+003
9.128170e+002, 1.213538e+003
9.132991e+002, 1.212810e+003
9.137812e+002, 1.212130e+003
9.142633e+002, 1.211213e+003
9.147454e+002, 1.212492e+003
9.152275e+002, 1.219077e+003
9.157097e+002, 1.224622e+003
9.161918e+002, 1.224723e+003
9.166739e+002, 1.219499e+003
9.171560e+002, 1.216915e+003
9.176381e+002, 1.217005e+003
9.181202e+002, 1.217549e+003
9.186024e+002, 1.215742e+003
9.190845e+002, 1.214464e+003
9.195666e+002, 1.218034e+003
9.200487e+002, 1.225487e+003
9.205308e+002, 1.231080e+003
9.210129e+002, 1.231241e+003
9.214951e+002, 1.231594e+003
9.219772e+002, 1.233789e+003
9.224593e+002, 1.237062e+003
9.229414e+002, 1.239292e+003
9.234235e+002, 1.240454e+003
9.239056e+002, 1.240516e+003
9.243878e+002, 1.239011e+003
9.248699e+002, 1.237272e+003
9.253520e+002, 1.236771e+003
9.258341e+002, 1.237076e+003
9.263162e+002, 1.237459e+003
9.267983e+002, 1.236452e+003
9.272805e+002, 1.237646e+003
9.277626e+002, 1.242999e+003
9.282447e+002, 1.249047e+003
9.287268e+002, 1.251907e+003
9.292089e+002, 1.251568e+003
9.296910e+002, 1.251851e+003
9.301732e+002, 1.252931e+003
9.306553e+002, 1.255781e+003
9.311374e+002, 1.263460e+003
9.316195e+002, 1.272111e+003
9.321016e+002, 1.277331e+003
9.325837e+002, 1.278427e+003
9.330659e+002, 1.278876e+003
9.335480e+002, 1.277360e+003
9.340301e+002, 1.277805e+003
9.345122e+002, 1.282192e+003
9.349943e+002, 1.289932e+003
9.354764e+002, 1.297022e+003
9.359586e+002, 1.303528e+003
9.364407e+002, 1.309657e+003
9.369228e+002, 1.315964e+003
9.374049e+002, 1.321682e+003
9.378870e+002, 1.324246e+003
9.383691e+002, 1.325760e+003
9.388513e+002, 1.331015e+003
9.393334e+002, 1.345618e+003
9.398155e+002, 1.358659e+003
9.402976e+002, 1.368980e+003
9.407797e+002, 1.376758e+003
9.412618e+002, 1.380855e+003
9.417440e+002, 1.381689e+003
9.422261e+002, 1.384597e+003
9.427082e+002, 1.390537e+003
9.431903e+002, 1.398636e+003
9.436724e+002, 1.409488e+003
9.441545e+002, 1.421092e+003
9.446367e+002, 1.431584e+003
9.451188e+002, 1.440625e+003
9.456009e+002, 1.448113e+003
9.460830e+002, 1.454003e+003
9.465651e+002, 1.458486e+003
9.470472e+002, 1.461607e+003
9.475294e+002, 1.463384e+003
9.480115e+002, 1.463610e+003
9.484936e+002, 1.462377e+003
9.489757e+002, 1.460848e+003
9.494578e+002, 1.462719e+003
9.499399e+002, 1.462004e+003
9.504221e+002, 1.451509e+003
9.509042e+002, 1.434030e+003
9.513863e+002, 1.421066e+003
9.518684e+002, 1.416767e+003
9.523505e+002, 1.411309e+003
9.528326e+002, 1.403116e+003
9.533148e+002, 1.392781e+003
9.537969e+002, 1.380068e+003
9.542790e+002, 1.365916e+003
9.547611e+002, 1.354464e+003
9.552432e+002, 1.347264e+003
9.557253e+002, 1.341391e+003
9.562075e+002, 1.334691e+003
9.566896e+002, 1.328328e+003
9.571717e+002, 1.323505e+003
9.576538e+002, 1.320728e+003
9.581359e+002, 1.317874e+003
9.586180e+002, 1.314558e+003
9.591002e+002, 1.312004e+003
9.595823e+002, 1.312025e+003
9.600644e+002, 1.313369e+003
9.605465e+002, 1.311779e+003
9.610286e+002, 1.307539e+003
9.615107e+002, 1.303562e+003
9.619929e+002, 1.302162e+003
9.624750e+002, 1.300767e+003
9.629571e+002, 1.297664e+003
9.634392e+002, 1.293411e+003
9.639213e+002, 1.289843e+003
9.644034e+002, 1.286760e+003
9.648856e+002, 1.285620e+003
9.653677e+002, 1.287514e+003
9.658498e+002, 1.289993e+003
9.663319e+002, 1.288497e+003
9.668140e+002, 1.284751e+003
9.672961e+002, 1.282358e+003
9.677783e+002, 1.282436e+003
9.682604e+002, 1.283474e+003
9.687425e+002, 1.285599e+003
9.692246e+002, 1.287948e+003
9.697067e+002, 1.289970e+003
9.701888e+002, 1.291691e+003
9.706710e+002, 1.292589e+003
9.711531e+002, 1.292613e+003
9.716352e+002, 1.292154e+003
9.721173e+002, 1.290614e+003
9.725994e+002, 1.289297e+003
9.730815e+002, 1.290619e+003
9.735637e+002, 1.294052e+003
9.740458e+002, 1.296311e+003
9.745279e+002, 1.295370e+003
9.750100e+002, 1.294170e+003
9.754921e+002, 1.293239e+003
9.759742e+002, 1.292667e+003
9.764564e+002, 1.292652e+003
9.769385e+002, 1.293204e+003
9.774206e+002, 1.294445e+003
9.779027e+002, 1.296751e+003
9.783848e+002, 1.298717e+003
9.788669e+002, 1.298396e+003
9.793491e+002, 1.297292e+003
9.798312e+002, 1.297216e+003
9.803133e+002, 1.298843e+003
9.807954e+002, 1.300792e+003
9.812775e+002, 1.303322e+003
9.817596e+002, 1.305638e+003
9.822418e+002, 1.306969e+003
9.827239e+002, 1.307555e+003
9.832060e+002, 1.308310e+003
9.836881e+002, 1.309360e+003
9.841702e+002, 1.311856e+003
9.846523e+002, 1.318252e+003
9.851345e+002, 1.324574e+003
9.856166e+002, 1.328618e+003
9.860987e+002, 1.330557e+003
9.865808e+002, 1.331296e+003
9.870629e+002, 1.329585e+003
9.875450e+002, 1.331202e+003
9.880272e+002, 1.338377e+003
9.885093e+002, 1.346706e+003
9.889914e+002, 1.349046e+003
9.894735e+002, 1.347596e+003
9.899556e+002, 1.346016e+003
9.904377e+002, 1.344148e+003
9.909199e+002, 1.346444e+003
9.914020e+002, 1.358637e+003
9.918841e+002, 1.372447e+003
9.923662e+002, 1.382771e+003
9.928483e+002, 1.389424e+003
9.933304e+002, 1.392610e+003
9.938126e+002, 1.391978e+003
9.942947e+002, 1.393948e+003
9.947768e+002, 1.405248e+003
9.952589e+002, 1.419383e+003
9.957410e+002, 1.427234e+003
9.962231e+002, 1.431412e+003
9.967053e+002, 1.439832e+003
9.971874e+002, 1.461372e+003
9.976695e+002, 1.477891e+003
9.981516e+002, 1.484977e+003
9.986337e+002, 1.488300e+003
9.991158e+002, 1.496793e+003
9.995980e+002, 1.509814e+003
1.000080e+003, 1.522371e+003
1.000562e+003, 1.533960e+003
1.001044e+003, 1.544453e+003
1.001526e+003, 1.554509e+003
1.002009e+003, 1.563092e+003
1.002491e+003, 1.569498e+003
1.002973e+003, 1.573733e+003
1.003455e+003, 1.574147e+003
1.003937e+003, 1.569671e+003
1.004419e+003, 1.564863e+003
1.004901e+003, 1.562150e+003
1.005383e+003, 1.560133e+003
1.005865e+003, 1.556382e+003
1.006348e+003, 1.550724e+003
1.006830e+003, 1.542536e+003
1.007312e+003, 1.527770e+003
1.007794e+003, 1.515172e+003
1.008276e+003, 1.509517e+003
1.008758e+003, 1.505857e+003
1.009240e+003, 1.498845e+003
1.009722e+003, 1.488175e+003
1.010205e+003, 1.476915e+003
1.010687e+003, 1.464902e+003
1.011169e+003, 1.454435e+003
1.011651e+003, 1.448075e+003
1.012133e+003, 1.443801e+003
1.012615e+003, 1.439991e+003
1.013097e+003, 1.436431e+003
1.013579e+003, 1.431637e+003
1.014061e+003, 1.424108e+003
1.014544e+003, 1.417531e+003
1.015026e+003, 1.413286e+003
1.015508e+003, 1.410436e+003
1.015990e+003, 1.406042e+003
1.016472e+003, 1.400784e+003
1.016954e+003, 1.397785e+003
1.017436e+003, 1.399118e+003
1.017918e+003, 1.399975e+003
1.018401e+003, 1.397313e+003
1.018883e+003, 1.392676e+003
1.019365e+003, 1.387101e+003
1.019847e+003, 1.379758e+003
1.020329e+003, 1.376287e+003
1.020811e+003, 1.377212e+003
1.021293e+003, 1.379202e+003
1.021775e+003, 1.380632e+003
1.022257e+003, 1.381189e+003
1.022740e+003, 1.379721e+003
1.023222e+003, 1.376825e+003
1.023704e+003, 1.374767e+003
1.024186e+003, 1.376521e+003
1.024668e+003, 1.376103e+003
1.025150e+003, 1.370578e+003
1.025632e+003, 1.363914e+003
1.026114e+003, 1.363620e+003
1.026596e+003, 1.368897e+003
1.027079e+003, 1.372589e+003
1.027561e+003, 1.373513e+003
1.028043e+003, 1.373149e+003
1.028525e+003, 1.372210e+003
1.029007e+003, 1.370871e+003
1.029489e+003, 1.368685e+003
1.029971e+003, 1.365530e+003
1.030453e+003, 1.366000e+003
1.030936e+003, 1.372094e+003
1.031418e+003, 1.374837e+003
1.031900e+003, 1.368383e+003
1.032382e+003, 1.358539e+003
1.032864e+003, 1.357957e+003
1.033346e+003, 1.363159e+003
1.033828e+003, 1.365891e+003
1.034310e+003, 1.361297e+003
1.034792e+003, 1.356842e+003
1.035275e+003, 1.354567e+003
1.035757e+003, 1.352932e+003
1.036239e+003, 1.350259e+003
1.036721e+003, 1.346575e+003
1.037203e+003, 1.345378e+003
1.037685e+003, 1.346785e+003
1.038167e+003, 1.347675e+003
1.038649e+003, 1.344157e+003
1.039132e+003, 1.340574e+003
1.039614e+003, 1.340990e+003
1.040096e+003, 1.344685e+003
1.040578e+003, 1.347051e+003
1.041060e+003, 1.347128e+003
1.041542e+003, 1.347805e+003
1.042024e+003, 1.349690e+003
1.042506e+003, 1.352247e+003
1.042989e+003, 1.356210e+003
1.043471e+003, 1.359884e+003
1.043953e+003, 1.358601e+003
1.044435e+003, 1.350125e+003
1.044917e+003, 1.344802e+003
1.045399e+003, 1.349702e+003
1.045881e+003, 1.355690e+003
1.046363e+003, 1.358249e+003
1.046845e+003, 1.357817e+003
1.047328e+003, 1.357551e+003
1.047810e+003, 1.357489e+003
1.048292e+003, 1.358101e+003
1.048774e+003, 1.359971e+003
1.049256e+003, 1.362126e+003
1.049738e+003, 1.364584e+003
1.050220e+003, 1.366573e+003
1.050702e+003, 1.366600e+003
1.051184e+003, 1.362823e+003
1.051667e+003, 1.361509e+003
1.052149e+003, 1.363140e+003
1.052631e+003, 1.366031e+003
1.053113e+003, 1.369306e+003
1.053595e+003, 1.372569e+003
1.054077e+003, 1.374611e+003
1.054559e+003, 1.375688e+003
1.055041e+003, 1.377780e+003
1.055523e+003, 1.382690e+003
1.056006e+003, 1.387574e+003
1.056488e+003, 1.391888e+003
1.056970e+003, 1.395577e+003
1.057452e+003, 1.398312e+003
1.057934e+003, 1.400210e+003
1.058416e+003, 1.402065e+003
1.058898e+003, 1.403890e+003
1.059380e+003, 1.406692e+003
1.059863e+003, 1.412388e+003
1.060345e+003, 1.418516e+003
1.060827e+003, 1.422181e+003
1.061309e+003, 1.423121e+003
1.061791e+003, 1.428555e+003
1.062273e+003, 1.439895e+003
1.062755e+003, 1.448899e+003
1.063237e+003, 1.451201e+003
1.063719e+003, 1.450046e+003
1.064202e+003, 1.449823e+003
1.064684e+003, 1.450058e+003
1.065166e+003, 1.449773e+003
1.065648e+003, 1.447299e+003
1.066130e+003, 1.447114e+003
1.066612e+003, 1.452124e+003
1.067094e+003, 1.455822e+003
1.067576e+003, 1.451711e+003
1.068059e+003, 1.441324e+003
1.068541e+003, 1.433286e+003
1.069023e+003, 1.427611e+003
1.069505e+003, 1.423431e+003
1.069987e+003, 1.421447e+003
1.070469e+003, 1.419593e+003
1.070951e+003, 1.416606e+003
1.071433e+003, 1.413123e+003
1.071916e+003, 1.410453e+003
1.072398e+003, 1.408733e+003
1.072880e+003, 1.406795e+003
1.073362e+003, 1.404502e+003
1.073844e+003, 1.401985e+003
1.074326e+003, 1.399640e+003
1.074808e+003, 1.397019e+003
1.075290e+003, 1.392982e+003
1.075772e+003, 1.387500e+003
1.076255e+003, 1.384794e+003
1.076737e+003, 1.386682e+003
1.077219e+003, 1.387559e+003
1.077701e+003, 1.385322e+003
1.078183e+003, 1.381498e+003
1.078665e+003, 1.378212e+003
1.079147e+003, 1.375832e+003
1.079629e+003, 1.375361e+003
1.080111e+003, 1.377507e+003
1.080594e+003, 1.380181e+003
1.081076e+003, 1.382635e+003
1.081558e+003, 1.385475e+003
1.082040e+003, 1.389375e+003
1.082522e+003, 1.394091e+003
1.083004e+003, 1.396758e+003
1.083486e+003, 1.397552e+003
1.083968e+003, 1.398045e+003
1.084450e+003, 1.400619e+003
1.084933e+003, 1.401499e+003
1.085415e+003, 1.396378e+003
1.085897e+003, 1.388795e+003
1.086379e+003, 1.384127e+003
1.086861e+003, 1.382580e+003
1.087343e+003, 1.384206e+003
1.087825e+003, 1.389475e+003
1.088307e+003, 1.394891e+003
1.088790e+003, 1.398669e+003
1.089272e+003, 1.400015e+003
1.089754e+003, 1.395595e+003
1.090236e+003, 1.387079e+003
1.090718e+003, 1.384012e+003
1.091200e+003, 1.392835e+003
1.091682e+003, 1.398212e+003
1.092164e+003, 1.396352e+003
1.092646e+003, 1.392200e+003
1.093129e+003, 1.394195e+003
1.093611e+003, 1.399736e+003
1.094093e+003, 1.401865e+003
1.094575e+003, 1.399235e+003
1.095057e+003, 1.397784e+003
1.095539e+003, 1.401014e+003
1.096021e+003, 1.405238e+003
1.096503e+003, 1.409632e+003
1.096986e+003, 1.413481e+003
1.097468e+003, 1.412953e+003
1.097950e+003, 1.408762e+003
1.098432e+003, 1.407264e+003
1.098914e+003, 1.411482e+003
1.099396e+003, 1.416181e+003
1.099878e+003, 1.417594e+003
1.100360e+003, 1.417617e+003
1.100843e+003, 1.418418e+003
1.101325e+003, 1.420410e+003
1.101807e+003, 1.419329e+003
1.102289e+003, 1.414815e+003
1.102771e+003, 1.411054e+003
1.103253e+003, 1.410622e+003
1.103735e+003, 1.412009e+003
1.104217e+003, 1.413922e+003
1.104699e+003, 1.416236e+003
1.105182e+003, 1.418779e+003
1.105664e+003, 1.422086e+003
1.106146e+003, 1.424843e+003
1.106628e+003, 1.427759e+003
1.107110e+003, 1.428179e+003
1.107592e+003, 1.420693e+003
1.108074e+003, 1.410219e+003
1.108556e+003, 1.407270e+003
1.109038e+003, 1.411139e+003
1.109521e+003, 1.415768e+003
1.110003e+003, 1.419880e+003
1.110485e+003, 1.423134e+003
1.110967e+003, 1.425573e+003
1.111449e+003, 1.427112e+003
1.111931e+003, 1.427441e+003
1.112413e+003, 1.426747e+003
1.112895e+003, 1.425697e+003
1.113377e+003, 1.424355e+003
1.113860e+003, 1.423397e+003
1.114342e+003, 1.424545e+003
1.114824e+003, 1.424806e+003
1.115306e+003, 1.421665e+003
1.115788e+003, 1.416582e+003
1.116270e+003, 1.414831e+003
1.116752e+003, 1.416325e+003
1.117234e+003, 1.416484e+003
1.117717e+003, 1.413725e+003
1.118199e+003, 1.411127e+003
1.118681e+003, 1.412394e+003
1.119163e+003, 1.414444e+003
1.119645e+003, 1.413820e+003
1.120127e+003, 1.410191e+003
1.120609e+003, 1.408992e+003
1.121091e+003, 1.410546e+003
1.121573e+003, 1.412546e+003
1.122056e+003, 1.414682e+003
1.122538e+003, 1.415677e+003
1.123020e+003, 1.412282e+003
1.123502e+003, 1.407244e+003
1.123984e+003, 1.405037e+003
1.124466e+003, 1.408721e+003
1.124948e+003, 1.409849e+003
1.125430e+003, 1.406600e+003
1.125913e+003, 1.405339e+003
1.126395e+003, 1.413158e+003
1.126877e+003, 1.424630e+003
1.127359e+003, 1.426658e+003
1.127841e+003, 1.421957e+003
1.128323e+003, 1.417978e+003
1.128805e+003, 1.417572e+003
1.129287e+003, 1.418026e+003
1.129770e+003, 1.418793e+003
1.130252e+003, 1.420390e+003
1.130734e+003, 1.424693e+003
1.131216e+003, 1.430273e+003
1.131698e+003, 1.429957e+003
1.132180e+003, 1.424450e+003
1.132662e+003, 1.421118e+003
1.133144e+003, 1.427062e+003
1.133626e+003, 1.431988e+003
1.134109e+003, 1.431295e+003
1.134591e+003, 1.428197e+003
1.135073e+003, 1.427634e+003
1.135555e+003, 1.429383e+003
1.136037e+003, 1.430501e+003
1.136519e+003, 1.430637e+003
1.137001e+003, 1.431543e+003
1.137483e+003, 1.436955e+003
1.137965e+003, 1.441228e+003
1.138448e+003, 1.439451e+003
1.138930e+003, 1.433742e+003
1.139412e+003, 1.429940e+003
1.139894e+003, 1.427994e+003
1.140376e+003, 1.429741e+003
1.140858e+003, 1.436460e+003
1.141340e+003, 1.442184e+003
1.141822e+003, 1.440062e+003
1.142304e+003, 1.435329e+003
1.142787e+003, 1.432637e+003
1.143269e+003, 1.432355e+003
1.143751e+003, 1.432043e+003
1.144233e+003, 1.431569e+003
1.144715e+003, 1.431855e+003
1.145197e+003, 1.433679e+003
1.145679e+003, 1.435206e+003
1.146161e+003, 1.433311e+003
1.146644e+003, 1.429995e+003
1.147126e+003, 1.427685e+003
1.147608e+003, 1.426752e+003
1.148090e+003, 1.427881e+003
1.148572e+003, 1.432141e+003
1.149054e+003, 1.434982e+003
1.149536e+003, 1.433534e+003
1.150018e+003, 1.430109e+003
1.150500e+003, 1.428145e+003
1.150983e+003, 1.427426e+003
1.151465e+003, 1.427494e+003
1.151947e+003, 1.428303e+003
1.152429e+003, 1.430209e+003
1.152911e+003, 1.434715e+003
1.153393e+003, 1.437187e+003
1.153875e+003, 1.432424e+003
1.154357e+003, 1.423979e+003
1.154840e+003, 1.421288e+003
1.155322e+003, 1.423324e+003
1.155804e+003, 1.426907e+003
1.156286e+003, 1.433777e+003
1.156768e+003, 1.437645e+003
1.157250e+003, 1.437073e+003
1.157732e+003, 1.434484e+003
1.158214e+003, 1.430928e+003
1.158697e+003, 1.427222e+003
1.159179e+003, 1.428026e+003
1.159661e+003, 1.432581e+003
1.160143e+003, 1.435917e+003
1.160625e+003, 1.434189e+003
1.161107e+003, 1.432594e+003
1.161589e+003, 1.433107e+003
1.162071e+003, 1.434119e+003
1.162553e+003, 1.433421e+003
1.163036e+003, 1.431276e+003
1.163518e+003, 1.429242e+003
1.164000e+003, 1.427491e+003
1.164482e+003, 1.427006e+003
1.164964e+003, 1.428294e+003
1.165446e+003, 1.431251e+003
1.165928e+003, 1.438174e+003
1.166410e+003, 1.445388e+003
1.166892e+003, 1.444024e+003
1.167375e+003, 1.434991e+003
1.167857e+003, 1.432404e+003
1.168339e+003, 1.438326e+003
1.168821e+003, 1.445173e+003
1.169303e+003, 1.449172e+003
1.169785e+003, 1.450645e+003
1.170267e+003, 1.447917e+003
1.170749e+003, 1.443159e+003
1.171231e+003, 1.442995e+003
1.171714e+003, 1.447362e+003
1.172196e+003, 1.449817e+003
1.172678e+003, 1.448700e+003
1.173160e+003, 1.447524e+003
1.173642e+003, 1.450358e+003
1.174124e+003, 1.453458e+003
1.174606e+003, 1.453456e+003
1.175088e+003, 1.450830e+003
1.175571e+003, 1.447823e+003
1.176053e+003, 1.444283e+003
1.176535e+003, 1.443631e+003
1.177017e+003, 1.447539e+003
1.177499e+003, 1.452148e+003
1.177981e+003, 1.454468e+003
1.178463e+003, 1.455151e+003
1.178945e+003, 1.454448e+003
1.179427e+003, 1.452439e+003
1.179910e+003, 1.450660e+003
1.180392e+003, 1.449068e+003
1.180874e+003, 1.447783e+003
1.181356e+003, 1.446460e+003
1.181838e+003, 1.446340e+003
1.182320e+003, 1.449809e+003
1.182802e+003, 1.454609e+003
1.183284e+003, 1.458523e+003
1.183767e+003, 1.461590e+003
1.184249e+003, 1.460498e+003
1.184731e+003, 1.454252e+003
1.185213e+003, 1.450858e+003
1.185695e+003, 1.455863e+003
1.186177e+003, 1.462847e+003
1.186659e+003, 1.465570e+003
1.187141e+003, 1.464919e+003
1.187624e+003, 1.461236e+003
1.188106e+003, 1.452518e+003
1.188588e+003, 1.450221e+003
1.189070e+003, 1.455679e+003
1.189552e+003, 1.460013e+003
1.190034e+003, 1.456365e+003
1.190516e+003, 1.450759e+003
1.190998e+003, 1.450060e+003
1.191480e+003, 1.452984e+003
1.191963e+003, 1.457767e+003
1.192445e+003, 1.466227e+003
1.192927e+003, 1.470497e+003
1.193409e+003, 1.469996e+003
1.193891e+003, 1.467861e+003
1.194373e+003, 1.464907e+003
1.194855e+003, 1.462536e+003
1.195337e+003, 1.462904e+003
1.195819e+003, 1.465217e+003
1.196302e+003, 1.467848e+003
1.196784e+003, 1.471252e+003
1.197266e+003, 1.473336e+003
1.197748e+003, 1.474119e+003
1.198230e+003, 1.473307e+003
1.198712e+003, 1.468839e+003
1.199194e+003, 1.463948e+003
1.199676e+003, 1.463601e+003
1.200158e+003, 1.466483e+003
1.200641e+003, 1.468952e+003
1.201123e+003, 1.470764e+003
1.201605e+003, 1.471157e+003
1.202087e+003, 1.469770e+003
1.202569e+003, 1.468348e+003
1.203051e+003, 1.469247e+003
1.203533e+003, 1.470537e+003
1.204015e+003, 1.468447e+003
1.204498e+003, 1.464392e+003
1.204980e+003, 1.463856e+003
1.205462e+003, 1.469962e+003
1.205944e+003, 1.473526e+003
1.206426e+003, 1.473389e+003
1.206908e+003, 1.472231e+003
1.207390e+003, 1.472748e+003
1.207872e+003, 1.473784e+003
1.208354e+003, 1.473859e+003
1.208837e+003, 1.473055e+003
1.209319e+003, 1.471948e+003
1.209801e+003, 1.469640e+003
1.210283e+003, 1.469628e+003
1.210765e+003, 1.472621e+003
1.211247e+003, 1.476836e+003
1.211729e+003, 1.482235e+003
1.212211e+003, 1.486577e+003
1.212694e+003, 1.485858e+003
1.213176e+003, 1.480909e+003
1.213658e+003, 1.477617e+003
1.214140e+003, 1.476609e+003
1.214622e+003, 1.477263e+003
1.215104e+003, 1.480008e+003
1.215586e+003, 1.482277e+003
1.216068e+003, 1.479975e+003
1.216551e+003, 1.476538e+003
1.217033e+003, 1.477108e+003
1.217515e+003, 1.481098e+003
1.217997e+003, 1.481402e+003
1.218479e+003, 1.476046e+003
1.218961e+003, 1.472779e+003
1.219443e+003, 1.473178e+003
1.219925e+003, 1.474723e+003
1.220407e+003, 1.475494e+003
1.220890e+003, 1.475180e+003
1.221372e+003, 1.471555e+003
1.221854e+003, 1.465621e+003
1.222336e+003, 1.466984e+003
1.222818e+003, 1.478630e+003
1.223300e+003, 1.485920e+003
1.223782e+003, 1.485409e+003
1.224264e+003, 1.482671e+003
1.224746e+003, 1.483286e+003
1.225229e+003, 1.485319e+003
1.225711e+003, 1.486983e+003
1.226193e+003, 1.488109e+003
1.226675e+003, 1.489099e+003
1.227157e+003, 1.490190e+003
1.227639e+003, 1.489583e+003
1.228121e+003, 1.486474e+003
1.228603e+003, 1.483662e+003
1.229085e+003, 1.484967e+003
1.229568e+003, 1.487382e+003
1.230050e+003, 1.487859e+003
1.230532e+003, 1.486449e+003
1.231014e+003, 1.485902e+003
1.231496e+003, 1.486347e+003
1.231978e+003, 1.486140e+003
1.232460e+003, 1.484591e+003
1.232942e+003, 1.483897e+003
1.233425e+003, 1.488310e+003
1.233907e+003, 1.492816e+003
1.234389e+003, 1.491583e+003
1.234871e+003, 1.485896e+003
1.235353e+003, 1.485132e+003
1.235835e+003, 1.489568e+003
1.236317e+003, 1.492812e+003
1.236799e+003, 1.493299e+003
1.237281e+003, 1.492503e+003
1.237764e+003, 1.489652e+003
1.238246e+003, 1.487794e+003
1.238728e+003, 1.491040e+003
1.239210e+003, 1.497485e+003
1.239692e+003, 1.498510e+003
1.240174e+003, 1.494328e+003
1.240656e+003, 1.490938e+003
1.241138e+003, 1.489851e+003
1.241621e+003, 1.489346e+003
1.242103e+003, 1.487743e+003
1.242585e+003, 1.486739e+003
1.243067e+003, 1.487655e+003
1.243549e+003, 1.489978e+003
1.244031e+003, 1.492354e+003
1.244513e+003, 1.494635e+003
1.244995e+003, 1.495155e+003
1.245478e+003, 1.493106e+003
1.245960e+003, 1.491952e+003
1.246442e+003, 1.494996e+003
1.246924e+003, 1.498286e+003
1.247406e+003, 1.499653e+003
1.247888e+003, 1.499641e+003
1.248370e+003, 1.499772e+003
1.248852e+003, 1.499960e+003
1.249334e+003, 1.499625e+003
1.249817e+003, 1.498475e+003
1.250299e+003, 1.498031e+003
1.250781e+003, 1.500517e+003
1.251263e+003, 1.502000e+003
1.251745e+003, 1.500321e+003
1.252227e+003, 1.497241e+003
1.252709e+003, 1.497324e+003
1.253191e+003, 1.499608e+003
1.253673e+003, 1.501116e+003
1.254156e+003, 1.501051e+003
1.254638e+003, 1.501949e+003
1.255120e+003, 1.506362e+003
1.255602e+003, 1.509169e+003
1.256084e+003, 1.508407e+003
1.256566e+003, 1.505381e+003
1.257048e+003, 1.501636e+003
1.257530e+003, 1.497916e+003
1.258012e+003, 1.495730e+003
1.258495e+003, 1.495309e+003
1.258977e+003, 1.496672e+003
1.259459e+003, 1.501017e+003
1.259941e+003, 1.503803e+003
1.260423e+003, 1.502781e+003
1.260905e+003, 1.501197e+003
1.261387e+003, 1.505059e+003
1.261869e+003, 1.511331e+003
1.262352e+003, 1.515425e+003
1.262834e+003, 1.516522e+003
1.263316e+003, 1.518883e+003
1.263798e+003, 1.524258e+003
1.264280e+003, 1.524707e+003
1.264762e+003, 1.516265e+003
1.265244e+003, 1.507173e+003
1.265726e+003, 1.508648e+003
1.266208e+003, 1.514189e+003
1.266691e+003, 1.516633e+003
1.267173e+003, 1.515306e+003
1.267655e+003, 1.514306e+003
1.268137e+003, 1.513619e+003
1.268619e+003, 1.513235e+003
1.269101e+003, 1.513075e+003
1.269583e+003, 1.513543e+003
1.270065e+003, 1.515290e+003
1.270548e+003, 1.517616e+003
1.271030e+003, 1.521148e+003
1.271512e+003, 1.524814e+003
1.271994e+003, 1.522026e+003
1.272476e+003, 1.513034e+003
1.272958e+003, 1.509336e+003
1.273440e+003, 1.514146e+003
1.273922e+003, 1.519508e+003
1.274405e+003, 1.520963e+003
1.274887e+003, 1.519694e+003
1.275369e+003, 1.514866e+003
1.275851e+003, 1.508928e+003
1.276333e+003, 1.509896e+003
1.276815e+003, 1.516187e+003
1.277297e+003, 1.519420e+003
1.277779e+003, 1.517843e+003
1.278261e+003, 1.516051e+003
1.278744e+003, 1.514994e+003
1.279226e+003, 1.516211e+003
1.279708e+003, 1.521272e+003
1.280190e+003, 1.527421e+003
1.280672e+003, 1.529316e+003
1.281154e+003, 1.528140e+003
1.281636e+003, 1.527121e+003
1.282118e+003, 1.526683e+003
1.282600e+003, 1.524739e+003
1.283083e+003, 1.518223e+003
1.283565e+003, 1.514477e+003
1.284047e+003, 1.515467e+003
1.284529e+003, 1.519208e+003
1.285011e+003, 1.525896e+003
1.285493e+003, 1.531879e+003
1.285975e+003, 1.529275e+003
1.286457e+003, 1.518354e+003
1.286939e+003, 1.513546e+003
1.287422e+003, 1.517695e+003
1.287904e+003, 1.522023e+003
1.288386e+003, 1.525086e+003
1.288868e+003, 1.527049e+003
1.289350e+003, 1.528667e+003
1.289832e+003, 1.528820e+003
1.290314e+003, 1.524957e+003
1.290796e+003, 1.518360e+003
1.291279e+003, 1.515234e+003
1.291761e+003, 1.515771e+003
1.292243e+003, 1.518030e+003
1.292725e+003, 1.521893e+003
1.293207e+003, 1.524831e+003
1.293689e+003, 1.524263e+003
1.294171e+003, 1.522584e+003
1.294653e+003, 1.520542e+003
1.295135e+003, 1.518902e+003
1.295618e+003, 1.519444e+003
1.296100e+003, 1.521871e+003
1.296582e+003, 1.523204e+003
1.297064e+003, 1.523370e+003
1.297546e+003, 1.523733e+003
1.298028e+003, 1.525062e+003
1.298510e+003, 1.526060e+003
1.298992e+003, 1.526397e+003
1.299475e+003, 1.526461e+003
1.299957e+003, 1.526131e+003
1.300439e+003, 1.526105e+003
1.300921e+003, 1.529055e+003
1.301403e+003, 1.534487e+003
1.301885e+003, 1.538579e+003
##END=



