##NAMES=Pargasite
##RRUFFID=R130006
##IDEAL CHEMISTRY=NaCa_2_(Mg_4_Al)(Si_6_Al_2_)O_22_(OH)_2_
##LOCALITY=Bear Lake diggings (Gibson Road Western occurrence), Gooderham, Monmouth Township, Haliburton County, Ontario, Canada
##OWNER=RRUFF
##SOURCE=Don Doell
##DESCRIPTION=Aggregate of black prismatic crystals
##STATUS=The identification of this mineral has been confirmed only by single crystal X-ray diffraction.
##URL=rruff.info/R130006
8.936163e+001, 0.000000e+000
8.984375e+001, 1.193299e+002
9.032587e+001, 1.198549e+002
9.080798e+001, 1.199847e+002
9.129010e+001, 1.196524e+002
9.177222e+001, 1.189996e+002
9.225433e+001, 1.181670e+002
9.273645e+001, 1.171552e+002
9.321857e+001, 1.159917e+002
9.370068e+001, 1.146596e+002
9.418280e+001, 1.131905e+002
9.466492e+001, 1.116975e+002
9.514703e+001, 1.101509e+002
9.562915e+001, 1.086224e+002
9.611127e+001, 1.072997e+002
9.659338e+001, 1.062161e+002
9.707550e+001, 1.052131e+002
9.755762e+001, 1.039936e+002
9.803973e+001, 1.025443e+002
9.852185e+001, 1.013576e+002
9.900397e+001, 1.007699e+002
9.948608e+001, 1.007979e+002
9.996820e+001, 1.005671e+002
1.004503e+002, 1.000804e+002
1.009324e+002, 9.932141e+001
1.014146e+002, 9.817774e+001
1.018967e+002, 9.650320e+001
1.023788e+002, 9.483291e+001
1.028609e+002, 9.339359e+001
1.033430e+002, 9.218003e+001
1.038251e+002, 9.128212e+001
1.043073e+002, 9.084757e+001
1.047894e+002, 9.076008e+001
1.052715e+002, 9.042225e+001
1.057536e+002, 8.979770e+001
1.062357e+002, 8.896069e+001
1.067178e+002, 8.792592e+001
1.072000e+002, 8.646887e+001
1.076821e+002, 8.515192e+001
1.081642e+002, 8.404934e+001
1.086463e+002, 8.316570e+001
1.091284e+002, 8.243654e+001
1.096105e+002, 8.215931e+001
1.100927e+002, 8.190588e+001
1.105748e+002, 8.128185e+001
1.110569e+002, 7.984719e+001
1.115390e+002, 7.844974e+001
1.120211e+002, 7.727206e+001
1.125032e+002, 7.634329e+001
1.129854e+002, 7.556031e+001
1.134675e+002, 7.520193e+001
1.139496e+002, 7.493159e+001
1.144317e+002, 7.425402e+001
1.149138e+002, 7.227592e+001
1.153959e+002, 7.044702e+001
1.158781e+002, 6.954635e+001
1.163602e+002, 7.021611e+001
1.168423e+002, 7.068903e+001
1.173244e+002, 7.020724e+001
1.178065e+002, 6.904295e+001
1.182886e+002, 6.788884e+001
1.187708e+002, 6.699816e+001
1.192529e+002, 6.625135e+001
1.197350e+002, 6.557186e+001
1.202171e+002, 6.497460e+001
1.206992e+002, 6.439427e+001
1.211813e+002, 6.374035e+001
1.216635e+002, 6.304094e+001
1.221456e+002, 6.247021e+001
1.226277e+002, 6.229792e+001
1.231098e+002, 6.228241e+001
1.235919e+002, 6.210314e+001
1.240740e+002, 6.154490e+001
1.245562e+002, 6.083150e+001
1.250383e+002, 6.019966e+001
1.255204e+002, 5.964603e+001
1.260025e+002, 5.909589e+001
1.264846e+002, 5.840761e+001
1.269667e+002, 5.766264e+001
1.274489e+002, 5.706454e+001
1.279310e+002, 5.678381e+001
1.284131e+002, 5.669608e+001
1.288952e+002, 5.659890e+001
1.293773e+002, 5.650353e+001
1.298594e+002, 5.631338e+001
1.303416e+002, 5.585777e+001
1.308237e+002, 5.516831e+001
1.313058e+002, 5.444500e+001
1.317879e+002, 5.380285e+001
1.322700e+002, 5.322071e+001
1.327521e+002, 5.257035e+001
1.332343e+002, 5.179650e+001
1.337164e+002, 5.102808e+001
1.341985e+002, 5.047328e+001
1.346806e+002, 5.013855e+001
1.351627e+002, 4.993177e+001
1.356448e+002, 4.989806e+001
1.361270e+002, 5.004374e+001
1.366091e+002, 4.993061e+001
1.370912e+002, 4.945121e+001
1.375733e+002, 4.870426e+001
1.380554e+002, 4.794493e+001
1.385375e+002, 4.713081e+001
1.390197e+002, 4.642344e+001
1.395018e+002, 4.593920e+001
1.399839e+002, 4.569970e+001
1.404660e+002, 4.562574e+001
1.409481e+002, 4.578984e+001
1.414302e+002, 4.615597e+001
1.419124e+002, 4.626290e+001
1.423945e+002, 4.608485e+001
1.428766e+002, 4.568663e+001
1.433587e+002, 4.506805e+001
1.438408e+002, 4.402044e+001
1.443229e+002, 4.319601e+001
1.448051e+002, 4.279724e+001
1.452872e+002, 4.289089e+001
1.457693e+002, 4.288226e+001
1.462514e+002, 4.277973e+001
1.467335e+002, 4.257107e+001
1.472156e+002, 4.222444e+001
1.476978e+002, 4.159076e+001
1.481799e+002, 4.100831e+001
1.486620e+002, 4.057295e+001
1.491441e+002, 4.036409e+001
1.496262e+002, 4.009460e+001
1.501083e+002, 3.971208e+001
1.505905e+002, 3.928138e+001
1.510726e+002, 3.891420e+001
1.515547e+002, 3.832251e+001
1.520368e+002, 3.804340e+001
1.525189e+002, 3.835412e+001
1.530010e+002, 4.012008e+001
1.534832e+002, 4.096119e+001
1.539653e+002, 3.995394e+001
1.544474e+002, 3.787441e+001
1.549295e+002, 3.658579e+001
1.554116e+002, 3.724855e+001
1.558937e+002, 3.807835e+001
1.563759e+002, 3.824536e+001
1.568580e+002, 3.703179e+001
1.573401e+002, 3.596412e+001
1.578222e+002, 3.539281e+001
1.583043e+002, 3.521354e+001
1.587864e+002, 3.504143e+001
1.592686e+002, 3.470539e+001
1.597507e+002, 3.438287e+001
1.602328e+002, 3.418864e+001
1.607149e+002, 3.431714e+001
1.611970e+002, 3.440885e+001
1.616791e+002, 3.429251e+001
1.621613e+002, 3.400680e+001
1.626434e+002, 3.379642e+001
1.631255e+002, 3.375230e+001
1.636076e+002, 3.383293e+001
1.640897e+002, 3.400135e+001
1.645718e+002, 3.451308e+001
1.650540e+002, 3.488900e+001
1.655361e+002, 3.478983e+001
1.660182e+002, 3.423278e+001
1.665003e+002, 3.370357e+001
1.669824e+002, 3.348938e+001
1.674645e+002, 3.344193e+001
1.679467e+002, 3.338032e+001
1.684288e+002, 3.306080e+001
1.689109e+002, 3.282044e+001
1.693930e+002, 3.287254e+001
1.698751e+002, 3.322697e+001
1.703572e+002, 3.385755e+001
1.708394e+002, 3.499986e+001
1.713215e+002, 3.639235e+001
1.718036e+002, 3.757608e+001
1.722857e+002, 3.812809e+001
1.727678e+002, 3.850284e+001
1.732499e+002, 3.912545e+001
1.737321e+002, 4.003534e+001
1.742142e+002, 4.114329e+001
1.746963e+002, 4.267240e+001
1.751784e+002, 4.438802e+001
1.756605e+002, 4.573936e+001
1.761426e+002, 4.605208e+001
1.766248e+002, 4.595544e+001
1.771069e+002, 4.637092e+001
1.775890e+002, 4.747401e+001
1.780711e+002, 4.869641e+001
1.785532e+002, 4.937740e+001
1.790353e+002, 4.964698e+001
1.795175e+002, 4.994472e+001
1.799996e+002, 5.055529e+001
1.804817e+002, 5.135995e+001
1.809638e+002, 5.216473e+001
1.814459e+002, 5.297233e+001
1.819280e+002, 5.371185e+001
1.824102e+002, 5.428458e+001
1.828923e+002, 5.469681e+001
1.833744e+002, 5.505687e+001
1.838565e+002, 5.533926e+001
1.843386e+002, 5.561082e+001
1.848207e+002, 5.607435e+001
1.853029e+002, 5.680262e+001
1.857850e+002, 5.765660e+001
1.862671e+002, 5.844720e+001
1.867492e+002, 5.917178e+001
1.872313e+002, 5.985258e+001
1.877134e+002, 6.038849e+001
1.881956e+002, 6.085604e+001
1.886777e+002, 6.161932e+001
1.891598e+002, 6.281401e+001
1.896419e+002, 6.425582e+001
1.901240e+002, 6.559279e+001
1.906061e+002, 6.684111e+001
1.910883e+002, 6.799003e+001
1.915704e+002, 6.893387e+001
1.920525e+002, 6.972116e+001
1.925346e+002, 7.077102e+001
1.930167e+002, 7.222129e+001
1.934988e+002, 7.388301e+001
1.939810e+002, 7.511178e+001
1.944631e+002, 7.582679e+001
1.949452e+002, 7.643760e+001
1.954273e+002, 7.693102e+001
1.959094e+002, 7.731065e+001
1.963915e+002, 7.773826e+001
1.968737e+002, 7.820905e+001
1.973558e+002, 7.875655e+001
1.978379e+002, 7.960911e+001
1.983200e+002, 8.083754e+001
1.988021e+002, 8.203410e+001
1.992842e+002, 8.281919e+001
1.997664e+002, 8.319177e+001
2.002485e+002, 8.342507e+001
2.007306e+002, 8.350949e+001
2.012127e+002, 8.350224e+001
2.016948e+002, 8.375525e+001
2.021769e+002, 8.432198e+001
2.026591e+002, 8.497934e+001
2.031412e+002, 8.550272e+001
2.036233e+002, 8.587613e+001
2.041054e+002, 8.627285e+001
2.045875e+002, 8.673180e+001
2.050696e+002, 8.724759e+001
2.055518e+002, 8.778220e+001
2.060339e+002, 8.834218e+001
2.065160e+002, 8.890392e+001
2.069981e+002, 8.939176e+001
2.074802e+002, 8.973483e+001
2.079623e+002, 9.031570e+001
2.084445e+002, 9.133212e+001
2.089266e+002, 9.275679e+001
2.094087e+002, 9.375537e+001
2.098908e+002, 9.417269e+001
2.103729e+002, 9.446336e+001
2.108550e+002, 9.512231e+001
2.113372e+002, 9.620025e+001
2.118193e+002, 9.742821e+001
2.123014e+002, 9.874661e+001
2.127835e+002, 1.001427e+002
2.132656e+002, 1.016872e+002
2.137477e+002, 1.034014e+002
2.142299e+002, 1.052378e+002
2.147120e+002, 1.071372e+002
2.151941e+002, 1.091543e+002
2.156762e+002, 1.111249e+002
2.161583e+002, 1.130320e+002
2.166404e+002, 1.148592e+002
2.171226e+002, 1.166076e+002
2.176047e+002, 1.182300e+002
2.180868e+002, 1.198297e+002
2.185689e+002, 1.216271e+002
2.190510e+002, 1.238732e+002
2.195331e+002, 1.257436e+002
2.200153e+002, 1.270039e+002
2.204974e+002, 1.276081e+002
2.209795e+002, 1.281861e+002
2.214616e+002, 1.287548e+002
2.219437e+002, 1.292908e+002
2.224258e+002, 1.298093e+002
2.229080e+002, 1.304241e+002
2.233901e+002, 1.307726e+002
2.238722e+002, 1.307055e+002
2.243543e+002, 1.301734e+002
2.248364e+002, 1.296743e+002
2.253185e+002, 1.292445e+002
2.258007e+002, 1.288160e+002
2.262828e+002, 1.282808e+002
2.267649e+002, 1.275633e+002
2.272470e+002, 1.268944e+002
2.277291e+002, 1.264292e+002
2.282112e+002, 1.262437e+002
2.286934e+002, 1.255860e+002
2.291755e+002, 1.242723e+002
2.296576e+002, 1.226489e+002
2.301397e+002, 1.211677e+002
2.306218e+002, 1.198078e+002
2.311039e+002, 1.186079e+002
2.315861e+002, 1.177035e+002
2.320682e+002, 1.171991e+002
2.325503e+002, 1.161539e+002
2.330324e+002, 1.143044e+002
2.335145e+002, 1.121525e+002
2.339966e+002, 1.103015e+002
2.344788e+002, 1.088824e+002
2.349609e+002, 1.075586e+002
2.354430e+002, 1.062713e+002
2.359251e+002, 1.050359e+002
2.364072e+002, 1.037250e+002
2.368893e+002, 1.023023e+002
2.373715e+002, 1.008318e+002
2.378536e+002, 9.940569e+001
2.383357e+002, 9.806219e+001
2.388178e+002, 9.665655e+001
2.392999e+002, 9.507253e+001
2.397820e+002, 9.325378e+001
2.402642e+002, 9.179945e+001
2.407463e+002, 9.089110e+001
2.412284e+002, 9.018996e+001
2.417105e+002, 8.926513e+001
2.421926e+002, 8.793874e+001
2.426747e+002, 8.671462e+001
2.431569e+002, 8.575400e+001
2.436390e+002, 8.509382e+001
2.441211e+002, 8.435725e+001
2.446032e+002, 8.350167e+001
2.450853e+002, 8.260233e+001
2.455674e+002, 8.174352e+001
2.460496e+002, 8.092629e+001
2.465317e+002, 8.014858e+001
2.470138e+002, 7.941747e+001
2.474959e+002, 7.873737e+001
2.479780e+002, 7.802780e+001
2.484601e+002, 7.724882e+001
2.489423e+002, 7.647670e+001
2.494244e+002, 7.578939e+001
2.499065e+002, 7.518068e+001
2.503886e+002, 7.468092e+001
2.508707e+002, 7.436996e+001
2.513528e+002, 7.427193e+001
2.518350e+002, 7.385395e+001
2.523171e+002, 7.290930e+001
2.527992e+002, 7.187524e+001
2.532813e+002, 7.123508e+001
2.537634e+002, 7.122195e+001
2.542455e+002, 7.110928e+001
2.547277e+002, 7.075297e+001
2.552098e+002, 7.014726e+001
2.556919e+002, 6.939514e+001
2.561740e+002, 6.830672e+001
2.566561e+002, 6.730561e+001
2.571382e+002, 6.687662e+001
2.576204e+002, 6.731767e+001
2.581025e+002, 6.759817e+001
2.585846e+002, 6.751434e+001
2.590667e+002, 6.707996e+001
2.595488e+002, 6.653661e+001
2.600309e+002, 6.580224e+001
2.605131e+002, 6.509523e+001
2.609952e+002, 6.467329e+001
2.614773e+002, 6.470951e+001
2.619594e+002, 6.452727e+001
2.624415e+002, 6.394147e+001
2.629236e+002, 6.300126e+001
2.634058e+002, 6.227023e+001
2.638879e+002, 6.179804e+001
2.643700e+002, 6.143899e+001
2.648521e+002, 6.106245e+001
2.653342e+002, 6.064547e+001
2.658163e+002, 6.029608e+001
2.662985e+002, 6.002098e+001
2.667806e+002, 5.982667e+001
2.672627e+002, 5.979206e+001
2.677448e+002, 6.001622e+001
2.682269e+002, 6.019109e+001
2.687090e+002, 6.004827e+001
2.691912e+002, 5.949009e+001
2.696733e+002, 5.901823e+001
2.701554e+002, 5.868356e+001
2.706375e+002, 5.847877e+001
2.711196e+002, 5.842557e+001
2.716017e+002, 5.858282e+001
2.720839e+002, 5.872724e+001
2.725660e+002, 5.869359e+001
2.730481e+002, 5.845491e+001
2.735302e+002, 5.822799e+001
2.740123e+002, 5.805853e+001
2.744944e+002, 5.789641e+001
2.749766e+002, 5.754969e+001
2.754587e+002, 5.696194e+001
2.759408e+002, 5.641445e+001
2.764229e+002, 5.608801e+001
2.769050e+002, 5.599065e+001
2.773871e+002, 5.599894e+001
2.778693e+002, 5.613421e+001
2.783514e+002, 5.633707e+001
2.788335e+002, 5.646067e+001
2.793156e+002, 5.648861e+001
2.797977e+002, 5.654198e+001
2.802798e+002, 5.674577e+001
2.807620e+002, 5.710009e+001
2.812441e+002, 5.722417e+001
2.817262e+002, 5.702244e+001
2.822083e+002, 5.672237e+001
2.826904e+002, 5.674979e+001
2.831725e+002, 5.712247e+001
2.836547e+002, 5.755853e+001
2.841368e+002, 5.796644e+001
2.846189e+002, 5.833638e+001
2.851010e+002, 5.856715e+001
2.855831e+002, 5.862638e+001
2.860652e+002, 5.863105e+001
2.865474e+002, 5.872284e+001
2.870295e+002, 5.890194e+001
2.875116e+002, 5.918560e+001
2.879937e+002, 5.966446e+001
2.884758e+002, 6.028786e+001
2.889579e+002, 6.067488e+001
2.894401e+002, 6.078387e+001
2.899222e+002, 6.089342e+001
2.904043e+002, 6.144048e+001
2.908864e+002, 6.236169e+001
2.913685e+002, 6.314294e+001
2.918506e+002, 6.348662e+001
2.923328e+002, 6.355542e+001
2.928149e+002, 6.376962e+001
2.932970e+002, 6.412475e+001
2.937791e+002, 6.467399e+001
2.942612e+002, 6.565459e+001
2.947433e+002, 6.692973e+001
2.952255e+002, 6.792553e+001
2.957076e+002, 6.830639e+001
2.961897e+002, 6.836645e+001
2.966718e+002, 6.871533e+001
2.971539e+002, 6.934275e+001
2.976360e+002, 6.991809e+001
2.981182e+002, 7.017400e+001
2.986003e+002, 7.015858e+001
2.990824e+002, 6.996481e+001
2.995645e+002, 6.946910e+001
3.000466e+002, 6.896915e+001
3.005287e+002, 6.898711e+001
3.010109e+002, 6.945596e+001
3.014930e+002, 6.990344e+001
3.019751e+002, 6.989478e+001
3.024572e+002, 6.965042e+001
3.029393e+002, 6.956158e+001
3.034214e+002, 6.977795e+001
3.039036e+002, 7.005203e+001
3.043857e+002, 7.019218e+001
3.048678e+002, 7.018643e+001
3.053499e+002, 6.998721e+001
3.058320e+002, 6.929255e+001
3.063141e+002, 6.849343e+001
3.067963e+002, 6.814302e+001
3.072784e+002, 6.846940e+001
3.077605e+002, 6.883097e+001
3.082426e+002, 6.856469e+001
3.087247e+002, 6.790856e+001
3.092068e+002, 6.743393e+001
3.096890e+002, 6.770582e+001
3.101711e+002, 6.812702e+001
3.106532e+002, 6.810622e+001
3.111353e+002, 6.748594e+001
3.116174e+002, 6.691228e+001
3.120995e+002, 6.693269e+001
3.125817e+002, 6.725694e+001
3.130638e+002, 6.741657e+001
3.135459e+002, 6.709605e+001
3.140280e+002, 6.664573e+001
3.145101e+002, 6.622533e+001
3.149922e+002, 6.584103e+001
3.154744e+002, 6.560643e+001
3.159565e+002, 6.566441e+001
3.164386e+002, 6.587770e+001
3.169207e+002, 6.608847e+001
3.174028e+002, 6.640123e+001
3.178849e+002, 6.656524e+001
3.183671e+002, 6.632412e+001
3.188492e+002, 6.570849e+001
3.193313e+002, 6.536764e+001
3.198134e+002, 6.580971e+001
3.202955e+002, 6.646353e+001
3.207776e+002, 6.686901e+001
3.212598e+002, 6.659628e+001
3.217419e+002, 6.641911e+001
3.222240e+002, 6.654034e+001
3.227061e+002, 6.691824e+001
3.231882e+002, 6.733180e+001
3.236703e+002, 6.792953e+001
3.241525e+002, 6.842020e+001
3.246346e+002, 6.862342e+001
3.251167e+002, 6.809899e+001
3.255988e+002, 6.786708e+001
3.260809e+002, 6.826290e+001
3.265630e+002, 6.903824e+001
3.270452e+002, 6.951363e+001
3.275273e+002, 6.946005e+001
3.280094e+002, 6.925977e+001
3.284915e+002, 6.903082e+001
3.289736e+002, 6.875324e+001
3.294557e+002, 6.850076e+001
3.299379e+002, 6.834417e+001
3.304200e+002, 6.818877e+001
3.309021e+002, 6.786800e+001
3.313842e+002, 6.711527e+001
3.318663e+002, 6.655148e+001
3.323484e+002, 6.644663e+001
3.328306e+002, 6.693484e+001
3.333127e+002, 6.698331e+001
3.337948e+002, 6.633254e+001
3.342769e+002, 6.547154e+001
3.347590e+002, 6.497063e+001
3.352411e+002, 6.502010e+001
3.357233e+002, 6.498918e+001
3.362054e+002, 6.470396e+001
3.366875e+002, 6.418816e+001
3.371696e+002, 6.387624e+001
3.376517e+002, 6.383218e+001
3.381339e+002, 6.387144e+001
3.386160e+002, 6.384098e+001
3.390981e+002, 6.372016e+001
3.395802e+002, 6.364666e+001
3.400623e+002, 6.368206e+001
3.405444e+002, 6.375805e+001
3.410266e+002, 6.353301e+001
3.415087e+002, 6.288964e+001
3.419908e+002, 6.248522e+001
3.424729e+002, 6.298103e+001
3.429550e+002, 6.436418e+001
3.434371e+002, 6.506516e+001
3.439193e+002, 6.481166e+001
3.444014e+002, 6.409278e+001
3.448835e+002, 6.378407e+001
3.453656e+002, 6.388264e+001
3.458477e+002, 6.400166e+001
3.463298e+002, 6.384925e+001
3.468120e+002, 6.353401e+001
3.472941e+002, 6.358434e+001
3.477762e+002, 6.405753e+001
3.482583e+002, 6.465804e+001
3.487404e+002, 6.505474e+001
3.492225e+002, 6.528094e+001
3.497047e+002, 6.547261e+001
3.501868e+002, 6.562993e+001
3.506689e+002, 6.580756e+001
3.511510e+002, 6.609371e+001
3.516331e+002, 6.648758e+001
3.521152e+002, 6.699664e+001
3.525974e+002, 6.768465e+001
3.530795e+002, 6.848472e+001
3.535616e+002, 6.927884e+001
3.540437e+002, 7.005679e+001
3.545258e+002, 7.078384e+001
3.550079e+002, 7.146658e+001
3.554901e+002, 7.208591e+001
3.559722e+002, 7.257174e+001
3.564543e+002, 7.257088e+001
3.569364e+002, 7.256071e+001
3.574185e+002, 7.311227e+001
3.579006e+002, 7.452773e+001
3.583828e+002, 7.596191e+001
3.588649e+002, 7.692493e+001
3.593470e+002, 7.753061e+001
3.598291e+002, 7.802029e+001
3.603112e+002, 7.827671e+001
3.607933e+002, 7.861474e+001
3.612755e+002, 7.927115e+001
3.617576e+002, 8.030978e+001
3.622397e+002, 8.134606e+001
3.627218e+002, 8.240124e+001
3.632039e+002, 8.331680e+001
3.636860e+002, 8.391606e+001
3.641682e+002, 8.373347e+001
3.646503e+002, 8.363748e+001
3.651324e+002, 8.401572e+001
3.656145e+002, 8.484816e+001
3.660966e+002, 8.544102e+001
3.665787e+002, 8.561363e+001
3.670609e+002, 8.555361e+001
3.675430e+002, 8.538133e+001
3.680251e+002, 8.471461e+001
3.685072e+002, 8.440366e+001
3.689893e+002, 8.482145e+001
3.694714e+002, 8.568599e+001
3.699536e+002, 8.605087e+001
3.704357e+002, 8.554710e+001
3.709178e+002, 8.493153e+001
3.713999e+002, 8.450695e+001
3.718820e+002, 8.436002e+001
3.723641e+002, 8.416935e+001
3.728463e+002, 8.390179e+001
3.733284e+002, 8.361392e+001
3.738105e+002, 8.342463e+001
3.742926e+002, 8.345730e+001
3.747747e+002, 8.329430e+001
3.752568e+002, 8.270995e+001
3.757390e+002, 8.169369e+001
3.762211e+002, 8.114155e+001
3.767032e+002, 8.124305e+001
3.771853e+002, 8.139922e+001
3.776674e+002, 8.090152e+001
3.781495e+002, 7.963773e+001
3.786317e+002, 7.874139e+001
3.791138e+002, 7.855541e+001
3.795959e+002, 7.879673e+001
3.800780e+002, 7.854436e+001
3.805601e+002, 7.776347e+001
3.810422e+002, 7.688632e+001
3.815244e+002, 7.621281e+001
3.820065e+002, 7.570155e+001
3.824886e+002, 7.516628e+001
3.829707e+002, 7.459123e+001
3.834528e+002, 7.396752e+001
3.839349e+002, 7.321986e+001
3.844171e+002, 7.237756e+001
3.848992e+002, 7.160560e+001
3.853813e+002, 7.101575e+001
3.858634e+002, 7.052760e+001
3.863455e+002, 7.000087e+001
3.868276e+002, 6.943346e+001
3.873098e+002, 6.882950e+001
3.877919e+002, 6.815592e+001
3.882740e+002, 6.744405e+001
3.887561e+002, 6.675413e+001
3.892382e+002, 6.608276e+001
3.897203e+002, 6.545356e+001
3.902025e+002, 6.486173e+001
3.906846e+002, 6.432459e+001
3.911667e+002, 6.391296e+001
3.916488e+002, 6.384800e+001
3.921309e+002, 6.383116e+001
3.926130e+002, 6.360014e+001
3.930952e+002, 6.304408e+001
3.935773e+002, 6.241143e+001
3.940594e+002, 6.178344e+001
3.945415e+002, 6.115718e+001
3.950236e+002, 6.052682e+001
3.955057e+002, 5.968236e+001
3.959879e+002, 5.901708e+001
3.964700e+002, 5.877613e+001
3.969521e+002, 5.906203e+001
3.974342e+002, 5.920542e+001
3.979163e+002, 5.911454e+001
3.983984e+002, 5.883128e+001
3.988806e+002, 5.839381e+001
3.993627e+002, 5.745984e+001
3.998448e+002, 5.677123e+001
4.003269e+002, 5.655182e+001
4.008090e+002, 5.671598e+001
4.012911e+002, 5.661674e+001
4.017733e+002, 5.607147e+001
4.022554e+002, 5.547842e+001
4.027375e+002, 5.504905e+001
4.032196e+002, 5.486090e+001
4.037017e+002, 5.464604e+001
4.041838e+002, 5.441375e+001
4.046660e+002, 5.414535e+001
4.051481e+002, 5.379322e+001
4.056302e+002, 5.332476e+001
4.061123e+002, 5.288660e+001
4.065944e+002, 5.253934e+001
4.070765e+002, 5.227719e+001
4.075587e+002, 5.202338e+001
4.080408e+002, 5.179176e+001
4.085229e+002, 5.151052e+001
4.090050e+002, 5.101894e+001
4.094871e+002, 5.034510e+001
4.099692e+002, 4.988964e+001
4.104514e+002, 4.981062e+001
4.109335e+002, 4.991388e+001
4.114156e+002, 4.977278e+001
4.118977e+002, 4.940937e+001
4.123798e+002, 4.906823e+001
4.128619e+002, 4.899327e+001
4.133441e+002, 4.904396e+001
4.138262e+002, 4.890441e+001
4.143083e+002, 4.849850e+001
4.147904e+002, 4.810719e+001
4.152725e+002, 4.802023e+001
4.157546e+002, 4.814853e+001
4.162368e+002, 4.830532e+001
4.167189e+002, 4.850359e+001
4.172010e+002, 4.862786e+001
4.176831e+002, 4.852681e+001
4.181652e+002, 4.821603e+001
4.186473e+002, 4.795203e+001
4.191295e+002, 4.786393e+001
4.196116e+002, 4.789222e+001
4.200937e+002, 4.799065e+001
4.205758e+002, 4.819543e+001
4.210579e+002, 4.840044e+001
4.215400e+002, 4.856993e+001
4.220222e+002, 4.871559e+001
4.225043e+002, 4.887111e+001
4.229864e+002, 4.907372e+001
4.234685e+002, 4.926051e+001
4.239506e+002, 4.940898e+001
4.244327e+002, 4.951104e+001
4.249149e+002, 4.959452e+001
4.253970e+002, 4.961943e+001
4.258791e+002, 4.964890e+001
4.263612e+002, 4.975474e+001
4.268433e+002, 5.003854e+001
4.273254e+002, 5.022984e+001
4.278076e+002, 5.024496e+001
4.282897e+002, 5.011857e+001
4.287718e+002, 5.011686e+001
4.292539e+002, 5.030763e+001
4.297360e+002, 5.048310e+001
4.302181e+002, 5.049872e+001
4.307003e+002, 5.032391e+001
4.311824e+002, 5.019845e+001
4.316645e+002, 5.015395e+001
4.321466e+002, 5.012530e+001
4.326287e+002, 5.000751e+001
4.331108e+002, 4.980149e+001
4.335930e+002, 4.954557e+001
4.340751e+002, 4.929804e+001
4.345572e+002, 4.900755e+001
4.350393e+002, 4.840942e+001
4.355214e+002, 4.749708e+001
4.360035e+002, 4.664175e+001
4.364857e+002, 4.621195e+001
4.369678e+002, 4.610095e+001
4.374499e+002, 4.607793e+001
4.379320e+002, 4.617660e+001
4.384141e+002, 4.617550e+001
4.388962e+002, 4.571262e+001
4.393784e+002, 4.492785e+001
4.398605e+002, 4.423243e+001
4.403426e+002, 4.383761e+001
4.408247e+002, 4.363306e+001
4.413068e+002, 4.355312e+001
4.417889e+002, 4.360080e+001
4.422711e+002, 4.367117e+001
4.427532e+002, 4.380748e+001
4.432353e+002, 4.389983e+001
4.437174e+002, 4.383412e+001
4.441995e+002, 4.337984e+001
4.446816e+002, 4.297194e+001
4.451638e+002, 4.274567e+001
4.456459e+002, 4.267257e+001
4.461280e+002, 4.260641e+001
4.466101e+002, 4.259034e+001
4.470922e+002, 4.252407e+001
4.475743e+002, 4.234690e+001
4.480565e+002, 4.198537e+001
4.485386e+002, 4.170317e+001
4.490207e+002, 4.152742e+001
4.495028e+002, 4.141570e+001
4.499849e+002, 4.131327e+001
4.504670e+002, 4.119884e+001
4.509492e+002, 4.114948e+001
4.514313e+002, 4.123318e+001
4.519134e+002, 4.141072e+001
4.523955e+002, 4.135143e+001
4.528776e+002, 4.099578e+001
4.533597e+002, 4.061681e+001
4.538419e+002, 4.041323e+001
4.543240e+002, 4.038238e+001
4.548061e+002, 4.034100e+001
4.552882e+002, 4.027113e+001
4.557703e+002, 4.019524e+001
4.562524e+002, 4.014313e+001
4.567346e+002, 4.011414e+001
4.572167e+002, 4.010917e+001
4.576988e+002, 4.014922e+001
4.581809e+002, 4.020333e+001
4.586630e+002, 4.020836e+001
4.591451e+002, 4.016720e+001
4.596273e+002, 4.013235e+001
4.601094e+002, 4.014305e+001
4.605915e+002, 4.018400e+001
4.610736e+002, 4.022912e+001
4.615557e+002, 4.025355e+001
4.620378e+002, 4.032500e+001
4.625200e+002, 4.057706e+001
4.630021e+002, 4.090331e+001
4.634842e+002, 4.109076e+001
4.639663e+002, 4.095707e+001
4.644484e+002, 4.075401e+001
4.649305e+002, 4.056721e+001
4.654127e+002, 4.039881e+001
4.658948e+002, 4.032753e+001
4.663769e+002, 4.040191e+001
4.668590e+002, 4.056146e+001
4.673411e+002, 4.076387e+001
4.678232e+002, 4.119360e+001
4.683054e+002, 4.141851e+001
4.687875e+002, 4.132228e+001
4.692696e+002, 4.103015e+001
4.697517e+002, 4.086304e+001
4.702338e+002, 4.092778e+001
4.707159e+002, 4.091535e+001
4.711981e+002, 4.066385e+001
4.716802e+002, 4.015572e+001
4.721623e+002, 3.989082e+001
4.726444e+002, 3.993123e+001
4.731265e+002, 4.005263e+001
4.736086e+002, 4.001402e+001
4.740908e+002, 3.981896e+001
4.745729e+002, 3.971198e+001
4.750550e+002, 3.977606e+001
4.755371e+002, 3.988784e+001
4.760192e+002, 3.977713e+001
4.765013e+002, 3.947192e+001
4.769835e+002, 3.919903e+001
4.774656e+002, 3.905455e+001
4.779477e+002, 3.902983e+001
4.784298e+002, 3.913808e+001
4.789119e+002, 3.938198e+001
4.793940e+002, 3.966054e+001
4.798762e+002, 3.991821e+001
4.803583e+002, 4.015542e+001
4.808404e+002, 4.037963e+001
4.813225e+002, 4.065456e+001
4.818046e+002, 4.083723e+001
4.822867e+002, 4.080965e+001
4.827689e+002, 4.063078e+001
4.832510e+002, 4.045129e+001
4.837331e+002, 4.025147e+001
4.842152e+002, 4.012192e+001
4.846973e+002, 4.014916e+001
4.851794e+002, 4.039775e+001
4.856616e+002, 4.049761e+001
4.861437e+002, 4.035090e+001
4.866258e+002, 4.008268e+001
4.871079e+002, 3.977522e+001
4.875900e+002, 3.936224e+001
4.880721e+002, 3.902058e+001
4.885543e+002, 3.875386e+001
4.890364e+002, 3.857082e+001
4.895185e+002, 3.853725e+001
4.900006e+002, 3.871796e+001
4.904827e+002, 3.883808e+001
4.909648e+002, 3.872308e+001
4.914470e+002, 3.839128e+001
4.919291e+002, 3.824933e+001
4.924112e+002, 3.831608e+001
4.928933e+002, 3.848802e+001
4.933754e+002, 3.866674e+001
4.938575e+002, 3.886152e+001
4.943397e+002, 3.914120e+001
4.948218e+002, 3.958783e+001
4.953039e+002, 3.999387e+001
4.957860e+002, 3.993520e+001
4.962681e+002, 3.955546e+001
4.967502e+002, 3.934479e+001
4.972324e+002, 3.978559e+001
4.977145e+002, 4.037746e+001
4.981966e+002, 4.063063e+001
4.986787e+002, 4.051955e+001
4.991608e+002, 4.037113e+001
4.996429e+002, 4.031834e+001
5.001251e+002, 4.032634e+001
5.006072e+002, 4.035493e+001
5.010893e+002, 4.026183e+001
5.015714e+002, 4.037332e+001
5.020535e+002, 4.096453e+001
5.025356e+002, 4.180250e+001
5.030178e+002, 4.235791e+001
5.034999e+002, 4.238311e+001
5.039820e+002, 4.235271e+001
5.044641e+002, 4.234975e+001
5.049462e+002, 4.237019e+001
5.054283e+002, 4.253779e+001
5.059105e+002, 4.297137e+001
5.063926e+002, 4.336766e+001
5.068747e+002, 4.344969e+001
5.073568e+002, 4.315371e+001
5.078389e+002, 4.297581e+001
5.083210e+002, 4.295685e+001
5.088032e+002, 4.308445e+001
5.092853e+002, 4.339880e+001
5.097674e+002, 4.388660e+001
5.102495e+002, 4.432777e+001
5.107316e+002, 4.461692e+001
5.112137e+002, 4.480839e+001
5.116959e+002, 4.497931e+001
5.121780e+002, 4.513572e+001
5.126601e+002, 4.538268e+001
5.131422e+002, 4.592596e+001
5.136243e+002, 4.655294e+001
5.141064e+002, 4.695179e+001
5.145886e+002, 4.699634e+001
5.150707e+002, 4.707662e+001
5.155528e+002, 4.757319e+001
5.160349e+002, 4.822306e+001
5.165170e+002, 4.865376e+001
5.169991e+002, 4.845982e+001
5.174813e+002, 4.832092e+001
5.179634e+002, 4.848077e+001
5.184455e+002, 4.891339e+001
5.189276e+002, 4.936495e+001
5.194097e+002, 4.991172e+001
5.198918e+002, 5.037373e+001
5.203740e+002, 5.061788e+001
5.208561e+002, 5.046709e+001
5.213382e+002, 5.071421e+001
5.218203e+002, 5.155571e+001
5.223024e+002, 5.256681e+001
5.227845e+002, 5.324105e+001
5.232667e+002, 5.350897e+001
5.237488e+002, 5.382637e+001
5.242309e+002, 5.428621e+001
5.247130e+002, 5.484002e+001
5.251951e+002, 5.536520e+001
5.256772e+002, 5.586573e+001
5.261594e+002, 5.641343e+001
5.266415e+002, 5.706746e+001
5.271236e+002, 5.780261e+001
5.276057e+002, 5.855657e+001
5.280878e+002, 5.932475e+001
5.285699e+002, 6.011895e+001
5.290521e+002, 6.103451e+001
5.295342e+002, 6.194390e+001
5.300163e+002, 6.264527e+001
5.304984e+002, 6.292782e+001
5.309805e+002, 6.327459e+001
5.314626e+002, 6.400013e+001
5.319448e+002, 6.497033e+001
5.324269e+002, 6.592130e+001
5.329090e+002, 6.679470e+001
5.333911e+002, 6.762634e+001
5.338732e+002, 6.845402e+001
5.343553e+002, 6.927217e+001
5.348375e+002, 6.998552e+001
5.353196e+002, 7.049638e+001
5.358017e+002, 7.098907e+001
5.362838e+002, 7.157571e+001
5.367659e+002, 7.233668e+001
5.372480e+002, 7.295802e+001
5.377302e+002, 7.336775e+001
5.382123e+002, 7.373021e+001
5.386944e+002, 7.437893e+001
5.391765e+002, 7.536237e+001
5.396586e+002, 7.599860e+001
5.401407e+002, 7.600323e+001
5.406229e+002, 7.563002e+001
5.411050e+002, 7.543572e+001
5.415871e+002, 7.541151e+001
5.420692e+002, 7.545940e+001
5.425513e+002, 7.565311e+001
5.430334e+002, 7.583141e+001
5.435156e+002, 7.571157e+001
5.439977e+002, 7.526882e+001
5.444798e+002, 7.475578e+001
5.449619e+002, 7.434356e+001
5.454440e+002, 7.396292e+001
5.459261e+002, 7.352977e+001
5.464083e+002, 7.291533e+001
5.468904e+002, 7.239645e+001
5.473725e+002, 7.214433e+001
5.478546e+002, 7.205083e+001
5.483367e+002, 7.188024e+001
5.488188e+002, 7.161698e+001
5.493010e+002, 7.124551e+001
5.497831e+002, 7.070749e+001
5.502652e+002, 7.000659e+001
5.507473e+002, 6.945866e+001
5.512294e+002, 6.912716e+001
5.517115e+002, 6.884068e+001
5.521937e+002, 6.849234e+001
5.526758e+002, 6.807700e+001
5.531579e+002, 6.767101e+001
5.536400e+002, 6.729573e+001
5.541221e+002, 6.688451e+001
5.546042e+002, 6.632930e+001
5.550864e+002, 6.564837e+001
5.555685e+002, 6.493952e+001
5.560506e+002, 6.419818e+001
5.565327e+002, 6.349822e+001
5.570148e+002, 6.300485e+001
5.574969e+002, 6.266377e+001
5.579791e+002, 6.227053e+001
5.584612e+002, 6.169208e+001
5.589433e+002, 6.102651e+001
5.594254e+002, 6.034157e+001
5.599075e+002, 5.963839e+001
5.603896e+002, 5.895771e+001
5.608718e+002, 5.829410e+001
5.613539e+002, 5.768020e+001
5.618360e+002, 5.714132e+001
5.623181e+002, 5.666527e+001
5.628002e+002, 5.629591e+001
5.632823e+002, 5.618950e+001
5.637645e+002, 5.612444e+001
5.642466e+002, 5.573054e+001
5.647287e+002, 5.482961e+001
5.652108e+002, 5.401485e+001
5.656929e+002, 5.343410e+001
5.661750e+002, 5.304442e+001
5.666572e+002, 5.262658e+001
5.671393e+002, 5.217516e+001
5.676214e+002, 5.174834e+001
5.681035e+002, 5.134686e+001
5.685856e+002, 5.099300e+001
5.690677e+002, 5.084102e+001
5.695499e+002, 5.091672e+001
5.700320e+002, 5.087657e+001
5.705141e+002, 5.022953e+001
5.709962e+002, 4.929333e+001
5.714783e+002, 4.860717e+001
5.719604e+002, 4.839756e+001
5.724426e+002, 4.825447e+001
5.729247e+002, 4.787539e+001
5.734068e+002, 4.738374e+001
5.738889e+002, 4.699183e+001
5.743710e+002, 4.684900e+001
5.748531e+002, 4.674203e+001
5.753353e+002, 4.664300e+001
5.758174e+002, 4.654153e+001
5.762995e+002, 4.631336e+001
5.767816e+002, 4.580770e+001
5.772637e+002, 4.535611e+001
5.777458e+002, 4.515250e+001
5.782280e+002, 4.529780e+001
5.787101e+002, 4.510255e+001
5.791922e+002, 4.443296e+001
5.796743e+002, 4.371632e+001
5.801564e+002, 4.349062e+001
5.806385e+002, 4.372123e+001
5.811207e+002, 4.373974e+001
5.816028e+002, 4.338695e+001
5.820849e+002, 4.287152e+001
5.825670e+002, 4.250261e+001
5.830491e+002, 4.223937e+001
5.835313e+002, 4.193037e+001
5.840134e+002, 4.139512e+001
5.844955e+002, 4.086471e+001
5.849776e+002, 4.068739e+001
5.854597e+002, 4.076882e+001
5.859418e+002, 4.057759e+001
5.864240e+002, 3.952580e+001
5.869061e+002, 3.838992e+001
5.873882e+002, 3.764074e+001
5.878703e+002, 3.745039e+001
5.883524e+002, 3.719081e+001
5.888345e+002, 3.677395e+001
5.893167e+002, 3.626725e+001
5.897988e+002, 3.571398e+001
5.902809e+002, 3.508776e+001
5.907630e+002, 3.446789e+001
5.912451e+002, 3.384367e+001
5.917272e+002, 3.323959e+001
5.922094e+002, 3.271720e+001
5.926915e+002, 3.228725e+001
5.931736e+002, 3.183606e+001
5.936557e+002, 3.130701e+001
5.941378e+002, 3.074492e+001
5.946199e+002, 3.025782e+001
5.951021e+002, 2.984386e+001
5.955842e+002, 2.945254e+001
5.960663e+002, 2.901219e+001
5.965484e+002, 2.859923e+001
5.970305e+002, 2.832278e+001
5.975126e+002, 2.819604e+001
5.979948e+002, 2.806297e+001
5.984769e+002, 2.780247e+001
5.989590e+002, 2.751846e+001
5.994411e+002, 2.729844e+001
5.999232e+002, 2.718119e+001
6.004053e+002, 2.709188e+001
6.008875e+002, 2.705149e+001
6.013696e+002, 2.702303e+001
6.018517e+002, 2.694770e+001
6.023338e+002, 2.677190e+001
6.028159e+002, 2.666272e+001
6.032980e+002, 2.668217e+001
6.037802e+002, 2.678003e+001
6.042623e+002, 2.675764e+001
6.047444e+002, 2.660048e+001
6.052265e+002, 2.644805e+001
6.057086e+002, 2.638643e+001
6.061907e+002, 2.638680e+001
6.066729e+002, 2.633015e+001
6.071550e+002, 2.621823e+001
6.076371e+002, 2.614206e+001
6.081192e+002, 2.621684e+001
6.086013e+002, 2.635437e+001
6.090834e+002, 2.644515e+001
6.095656e+002, 2.647343e+001
6.100477e+002, 2.644757e+001
6.105298e+002, 2.629094e+001
6.110119e+002, 2.611706e+001
6.114940e+002, 2.605201e+001
6.119761e+002, 2.623954e+001
6.124583e+002, 2.640305e+001
6.129404e+002, 2.647708e+001
6.134225e+002, 2.650520e+001
6.139046e+002, 2.658976e+001
6.143867e+002, 2.676171e+001
6.148688e+002, 2.692298e+001
6.153510e+002, 2.704551e+001
6.158331e+002, 2.713393e+001
6.163152e+002, 2.722410e+001
6.167973e+002, 2.731707e+001
6.172794e+002, 2.739401e+001
6.177615e+002, 2.739870e+001
6.182437e+002, 2.737815e+001
6.187258e+002, 2.750230e+001
6.192079e+002, 2.778688e+001
6.196900e+002, 2.804373e+001
6.201721e+002, 2.804714e+001
6.206542e+002, 2.795546e+001
6.211364e+002, 2.798031e+001
6.216185e+002, 2.823303e+001
6.221006e+002, 2.846548e+001
6.225827e+002, 2.855633e+001
6.230648e+002, 2.856741e+001
6.235469e+002, 2.858501e+001
6.240291e+002, 2.862375e+001
6.245112e+002, 2.867488e+001
6.249933e+002, 2.878799e+001
6.254754e+002, 2.891145e+001
6.259575e+002, 2.882554e+001
6.264396e+002, 2.841349e+001
6.269218e+002, 2.813889e+001
6.274039e+002, 2.824171e+001
6.278860e+002, 2.864274e+001
6.283681e+002, 2.884045e+001
6.288502e+002, 2.882795e+001
6.293323e+002, 2.879453e+001
6.298145e+002, 2.891789e+001
6.302966e+002, 2.911033e+001
6.307787e+002, 2.918734e+001
6.312608e+002, 2.912301e+001
6.317429e+002, 2.905624e+001
6.322250e+002, 2.905833e+001
6.327072e+002, 2.912698e+001
6.331893e+002, 2.926735e+001
6.336714e+002, 2.953806e+001
6.341535e+002, 2.977952e+001
6.346356e+002, 3.001553e+001
6.351177e+002, 3.017646e+001
6.355999e+002, 3.013826e+001
6.360820e+002, 2.960821e+001
6.365641e+002, 2.937395e+001
6.370462e+002, 2.970756e+001
6.375283e+002, 3.038493e+001
6.380104e+002, 3.059551e+001
6.384926e+002, 3.025553e+001
6.389747e+002, 2.999427e+001
6.394568e+002, 3.011115e+001
6.399389e+002, 3.052126e+001
6.404210e+002, 3.101332e+001
6.409031e+002, 3.158012e+001
6.413853e+002, 3.201874e+001
6.418674e+002, 3.205738e+001
6.423495e+002, 3.194957e+001
6.428316e+002, 3.200087e+001
6.433137e+002, 3.225685e+001
6.437958e+002, 3.255107e+001
6.442780e+002, 3.281263e+001
6.447601e+002, 3.307068e+001
6.452422e+002, 3.334884e+001
6.457243e+002, 3.366185e+001
6.462064e+002, 3.398001e+001
6.466885e+002, 3.432696e+001
6.471707e+002, 3.466252e+001
6.476528e+002, 3.489994e+001
6.481349e+002, 3.496615e+001
6.486170e+002, 3.519254e+001
6.490991e+002, 3.570182e+001
6.495812e+002, 3.634649e+001
6.500634e+002, 3.679192e+001
6.505455e+002, 3.705126e+001
6.510276e+002, 3.725498e+001
6.515097e+002, 3.733178e+001
6.519918e+002, 3.747239e+001
6.524739e+002, 3.807759e+001
6.529561e+002, 3.905860e+001
6.534382e+002, 3.999627e+001
6.539203e+002, 4.056712e+001
6.544024e+002, 4.105421e+001
6.548845e+002, 4.167004e+001
6.553666e+002, 4.244548e+001
6.558488e+002, 4.317861e+001
6.563309e+002, 4.373607e+001
6.568130e+002, 4.430613e+001
6.572951e+002, 4.499290e+001
6.577772e+002, 4.579272e+001
6.582593e+002, 4.672593e+001
6.587415e+002, 4.781281e+001
6.592236e+002, 4.900052e+001
6.597057e+002, 5.023277e+001
6.601878e+002, 5.150445e+001
6.606699e+002, 5.282445e+001
6.611520e+002, 5.414463e+001
6.616342e+002, 5.558246e+001
6.621163e+002, 5.744172e+001
6.625984e+002, 5.955481e+001
6.630805e+002, 6.146608e+001
6.635626e+002, 6.259668e+001
6.640447e+002, 6.386854e+001
6.645269e+002, 6.596233e+001
6.650090e+002, 6.871373e+001
6.654911e+002, 7.169629e+001
6.659732e+002, 7.505762e+001
6.664553e+002, 7.835075e+001
6.669374e+002, 8.135593e+001
6.674196e+002, 8.411414e+001
6.679017e+002, 8.693118e+001
6.683838e+002, 8.967513e+001
6.688659e+002, 9.277250e+001
6.693480e+002, 9.654195e+001
6.698301e+002, 1.009756e+002
6.703123e+002, 1.053824e+002
6.707944e+002, 1.097570e+002
6.712765e+002, 1.142802e+002
6.717586e+002, 1.192725e+002
6.722407e+002, 1.245784e+002
6.727228e+002, 1.297859e+002
6.732050e+002, 1.348918e+002
6.736871e+002, 1.398570e+002
6.741692e+002, 1.446803e+002
6.746513e+002, 1.494099e+002
6.751334e+002, 1.540686e+002
6.756155e+002, 1.590704e+002
6.760977e+002, 1.634753e+002
6.765798e+002, 1.668393e+002
6.770619e+002, 1.694787e+002
6.775440e+002, 1.718731e+002
6.780261e+002, 1.742980e+002
6.785082e+002, 1.758728e+002
6.789904e+002, 1.765135e+002
6.794725e+002, 1.761667e+002
6.799546e+002, 1.745563e+002
6.804367e+002, 1.717071e+002
6.809188e+002, 1.682042e+002
6.814009e+002, 1.642681e+002
6.818831e+002, 1.598841e+002
6.823652e+002, 1.550585e+002
6.828473e+002, 1.497861e+002
6.833294e+002, 1.442729e+002
6.838115e+002, 1.385203e+002
6.842936e+002, 1.326073e+002
6.847758e+002, 1.263126e+002
6.852579e+002, 1.196863e+002
6.857400e+002, 1.133101e+002
6.862221e+002, 1.072292e+002
6.867042e+002, 1.016259e+002
6.871863e+002, 9.653574e+001
6.876685e+002, 9.201325e+001
6.881506e+002, 8.784908e+001
6.886327e+002, 8.399937e+001
6.891148e+002, 8.045592e+001
6.895969e+002, 7.725227e+001
6.900790e+002, 7.434976e+001
6.905612e+002, 7.154098e+001
6.910433e+002, 6.878574e+001
6.915254e+002, 6.624287e+001
6.920075e+002, 6.435578e+001
6.924896e+002, 6.282328e+001
6.929717e+002, 6.107325e+001
6.934539e+002, 5.878420e+001
6.939360e+002, 5.658228e+001
6.944181e+002, 5.485742e+001
6.949002e+002, 5.346474e+001
6.953823e+002, 5.217388e+001
6.958644e+002, 5.086206e+001
6.963466e+002, 4.977226e+001
6.968287e+002, 4.898356e+001
6.973108e+002, 4.842109e+001
6.977929e+002, 4.795069e+001
6.982750e+002, 4.763356e+001
6.987571e+002, 4.716737e+001
6.992393e+002, 4.636932e+001
6.997214e+002, 4.540153e+001
7.002035e+002, 4.480844e+001
7.006856e+002, 4.455174e+001
7.011677e+002, 4.432415e+001
7.016498e+002, 4.390073e+001
7.021320e+002, 4.343750e+001
7.026141e+002, 4.314062e+001
7.030962e+002, 4.299213e+001
7.035783e+002, 4.280918e+001
7.040604e+002, 4.242825e+001
7.045425e+002, 4.204727e+001
7.050247e+002, 4.177248e+001
7.055068e+002, 4.161689e+001
7.059889e+002, 4.156030e+001
7.064710e+002, 4.170260e+001
7.069531e+002, 4.181184e+001
7.074352e+002, 4.171972e+001
7.079174e+002, 4.140713e+001
7.083995e+002, 4.109673e+001
7.088816e+002, 4.077521e+001
7.093637e+002, 4.053981e+001
7.098458e+002, 4.055794e+001
7.103279e+002, 4.073711e+001
7.108101e+002, 4.084622e+001
7.112922e+002, 4.083828e+001
7.117743e+002, 4.078522e+001
7.122564e+002, 4.070462e+001
7.127385e+002, 4.062609e+001
7.132206e+002, 4.058626e+001
7.137028e+002, 4.064058e+001
7.141849e+002, 4.067204e+001
7.146670e+002, 4.070034e+001
7.151491e+002, 4.067710e+001
7.156312e+002, 4.047528e+001
7.161133e+002, 3.990106e+001
7.165955e+002, 3.974229e+001
7.170776e+002, 4.028436e+001
7.175597e+002, 4.113343e+001
7.180418e+002, 4.140945e+001
7.185239e+002, 4.116221e+001
7.190060e+002, 4.086069e+001
7.194882e+002, 4.067964e+001
7.199703e+002, 4.054593e+001
7.204524e+002, 4.037435e+001
7.209345e+002, 4.017419e+001
7.214166e+002, 3.996838e+001
7.218987e+002, 3.967802e+001
7.223809e+002, 3.947103e+001
7.228630e+002, 3.953056e+001
7.233451e+002, 3.980484e+001
7.238272e+002, 3.982802e+001
7.243093e+002, 3.936402e+001
7.247914e+002, 3.898139e+001
7.252736e+002, 3.894713e+001
7.257557e+002, 3.921740e+001
7.262378e+002, 3.920485e+001
7.267199e+002, 3.887903e+001
7.272020e+002, 3.852999e+001
7.276841e+002, 3.834252e+001
7.281663e+002, 3.827007e+001
7.286484e+002, 3.825596e+001
7.291305e+002, 3.829197e+001
7.296126e+002, 3.825085e+001
7.300947e+002, 3.789117e+001
7.305768e+002, 3.752300e+001
7.310590e+002, 3.744085e+001
7.315411e+002, 3.775373e+001
7.320232e+002, 3.796325e+001
7.325053e+002, 3.800282e+001
7.329874e+002, 3.789039e+001
7.334695e+002, 3.759404e+001
7.339517e+002, 3.701457e+001
7.344338e+002, 3.662433e+001
7.349159e+002, 3.646997e+001
7.353980e+002, 3.636504e+001
7.358801e+002, 3.602858e+001
7.363622e+002, 3.555339e+001
7.368444e+002, 3.538991e+001
7.373265e+002, 3.566937e+001
7.378086e+002, 3.594914e+001
7.382907e+002, 3.573098e+001
7.387728e+002, 3.529295e+001
7.392549e+002, 3.501645e+001
7.397371e+002, 3.520589e+001
7.402192e+002, 3.521575e+001
7.407013e+002, 3.466831e+001
7.411834e+002, 3.392531e+001
7.416655e+002, 3.347807e+001
7.421476e+002, 3.349950e+001
7.426298e+002, 3.339792e+001
7.431119e+002, 3.304802e+001
7.435940e+002, 3.261721e+001
7.440761e+002, 3.246042e+001
7.445582e+002, 3.254457e+001
7.450403e+002, 3.251127e+001
7.455225e+002, 3.220843e+001
7.460046e+002, 3.181715e+001
7.464867e+002, 3.149109e+001
7.469688e+002, 3.125037e+001
7.474509e+002, 3.114305e+001
7.479330e+002, 3.140668e+001
7.484152e+002, 3.157769e+001
7.488973e+002, 3.139807e+001
7.493794e+002, 3.097486e+001
7.498615e+002, 3.068395e+001
7.503436e+002, 3.064074e+001
7.508257e+002, 3.052640e+001
7.513079e+002, 3.022030e+001
7.517900e+002, 2.980390e+001
7.522721e+002, 2.962506e+001
7.527542e+002, 2.968291e+001
7.532363e+002, 2.967062e+001
7.537184e+002, 2.935511e+001
7.542006e+002, 2.893510e+001
7.546827e+002, 2.871331e+001
7.551648e+002, 2.866343e+001
7.556469e+002, 2.868477e+001
7.561290e+002, 2.889804e+001
7.566111e+002, 2.901089e+001
7.570933e+002, 2.876406e+001
7.575754e+002, 2.818517e+001
7.580575e+002, 2.785106e+001
7.585396e+002, 2.796110e+001
7.590217e+002, 2.806011e+001
7.595038e+002, 2.793796e+001
7.599860e+002, 2.762755e+001
7.604681e+002, 2.751588e+001
7.609502e+002, 2.761489e+001
7.614323e+002, 2.778049e+001
7.619144e+002, 2.800452e+001
7.623965e+002, 2.819850e+001
7.628787e+002, 2.814056e+001
7.633608e+002, 2.784918e+001
7.638429e+002, 2.759885e+001
7.643250e+002, 2.756354e+001
7.648071e+002, 2.762106e+001
7.652892e+002, 2.772264e+001
7.657714e+002, 2.788183e+001
7.662535e+002, 2.792015e+001
7.667356e+002, 2.770856e+001
7.672177e+002, 2.753478e+001
7.676998e+002, 2.760816e+001
7.681819e+002, 2.795689e+001
7.686641e+002, 2.803914e+001
7.691462e+002, 2.782695e+001
7.696283e+002, 2.755819e+001
7.701104e+002, 2.744280e+001
7.705925e+002, 2.740927e+001
7.710746e+002, 2.729147e+001
7.715568e+002, 2.706831e+001
7.720389e+002, 2.692312e+001
7.725210e+002, 2.709218e+001
7.730031e+002, 2.730289e+001
7.734852e+002, 2.732830e+001
7.739673e+002, 2.706417e+001
7.744495e+002, 2.684461e+001
7.749316e+002, 2.663775e+001
7.754137e+002, 2.653061e+001
7.758958e+002, 2.664448e+001
7.763779e+002, 2.701037e+001
7.768600e+002, 2.718285e+001
7.773422e+002, 2.713541e+001
7.778243e+002, 2.697310e+001
7.783064e+002, 2.670662e+001
7.787885e+002, 2.642495e+001
7.792706e+002, 2.632442e+001
7.797527e+002, 2.646503e+001
7.802349e+002, 2.660810e+001
7.807170e+002, 2.662779e+001
7.811991e+002, 2.657697e+001
7.816812e+002, 2.649420e+001
7.821633e+002, 2.632814e+001
7.826454e+002, 2.625379e+001
7.831276e+002, 2.633215e+001
7.836097e+002, 2.642935e+001
7.840918e+002, 2.637102e+001
7.845739e+002, 2.615181e+001
7.850560e+002, 2.612299e+001
7.855381e+002, 2.634614e+001
7.860203e+002, 2.661209e+001
7.865024e+002, 2.669669e+001
7.869845e+002, 2.666101e+001
7.874666e+002, 2.662600e+001
7.879487e+002, 2.664959e+001
7.884308e+002, 2.656853e+001
7.889130e+002, 2.608950e+001
7.893951e+002, 2.557592e+001
7.898772e+002, 2.541750e+001
7.903593e+002, 2.598371e+001
7.908414e+002, 2.626041e+001
7.913235e+002, 2.611126e+001
7.918057e+002, 2.584711e+001
7.922878e+002, 2.587353e+001
7.927699e+002, 2.616726e+001
7.932520e+002, 2.636032e+001
7.937341e+002, 2.639672e+001
7.942162e+002, 2.634342e+001
7.946984e+002, 2.621861e+001
7.951805e+002, 2.606949e+001
7.956626e+002, 2.598830e+001
7.961447e+002, 2.606903e+001
7.966268e+002, 2.604923e+001
7.971089e+002, 2.571265e+001
7.975911e+002, 2.529055e+001
7.980732e+002, 2.503650e+001
7.985553e+002, 2.498286e+001
7.990374e+002, 2.502790e+001
7.995195e+002, 2.518017e+001
8.000016e+002, 2.540495e+001
8.004838e+002, 2.574376e+001
8.009659e+002, 2.614688e+001
8.014480e+002, 2.631260e+001
8.019301e+002, 2.615295e+001
8.024122e+002, 2.588661e+001
8.028943e+002, 2.568680e+001
8.033765e+002, 2.552503e+001
8.038586e+002, 2.535685e+001
8.043407e+002, 2.513406e+001
8.048228e+002, 2.497274e+001
8.053049e+002, 2.488009e+001
8.057870e+002, 2.487078e+001
8.062692e+002, 2.500885e+001
8.067513e+002, 2.539628e+001
8.072334e+002, 2.548429e+001
8.077155e+002, 2.515469e+001
8.081976e+002, 2.471348e+001
8.086797e+002, 2.455426e+001
8.091619e+002, 2.460672e+001
8.096440e+002, 2.467727e+001
8.101261e+002, 2.473385e+001
8.106082e+002, 2.476649e+001
8.110903e+002, 2.472232e+001
8.115724e+002, 2.467170e+001
8.120546e+002, 2.470174e+001
8.125367e+002, 2.502819e+001
8.130188e+002, 2.508357e+001
8.135009e+002, 2.464490e+001
8.139830e+002, 2.413129e+001
8.144651e+002, 2.405596e+001
8.149473e+002, 2.445422e+001
8.154294e+002, 2.467385e+001
8.159115e+002, 2.462999e+001
8.163936e+002, 2.449455e+001
8.168757e+002, 2.445398e+001
8.173578e+002, 2.446350e+001
8.178400e+002, 2.443557e+001
8.183221e+002, 2.433207e+001
8.188042e+002, 2.425818e+001
8.192863e+002, 2.426821e+001
8.197684e+002, 2.432846e+001
8.202505e+002, 2.441512e+001
8.207327e+002, 2.457189e+001
8.212148e+002, 2.463848e+001
8.216969e+002, 2.457558e+001
8.221790e+002, 2.449247e+001
8.226611e+002, 2.450693e+001
8.231432e+002, 2.460716e+001
8.236254e+002, 2.475109e+001
8.241075e+002, 2.494899e+001
8.245896e+002, 2.506033e+001
8.250717e+002, 2.485536e+001
8.255538e+002, 2.454275e+001
8.260359e+002, 2.437197e+001
8.265181e+002, 2.443090e+001
8.270002e+002, 2.447832e+001
8.274823e+002, 2.447774e+001
8.279644e+002, 2.443337e+001
8.284465e+002, 2.432197e+001
8.289286e+002, 2.410207e+001
8.294108e+002, 2.405662e+001
8.298929e+002, 2.422493e+001
8.303750e+002, 2.440013e+001
8.308571e+002, 2.430038e+001
8.313392e+002, 2.408580e+001
8.318214e+002, 2.414089e+001
8.323035e+002, 2.451242e+001
8.327856e+002, 2.488890e+001
8.332677e+002, 2.508854e+001
8.337498e+002, 2.520388e+001
8.342319e+002, 2.529076e+001
8.347141e+002, 2.533999e+001
8.351962e+002, 2.543813e+001
8.356783e+002, 2.565483e+001
8.361604e+002, 2.580104e+001
8.366425e+002, 2.569188e+001
8.371246e+002, 2.535359e+001
8.376068e+002, 2.519313e+001
8.380889e+002, 2.521317e+001
8.385710e+002, 2.532720e+001
8.390531e+002, 2.553846e+001
8.395352e+002, 2.576557e+001
8.400173e+002, 2.592219e+001
8.404995e+002, 2.600373e+001
8.409816e+002, 2.604676e+001
8.414637e+002, 2.591926e+001
8.419458e+002, 2.590737e+001
8.424279e+002, 2.623771e+001
8.429100e+002, 2.689628e+001
8.433922e+002, 2.701068e+001
8.438743e+002, 2.647773e+001
8.443564e+002, 2.596472e+001
8.448385e+002, 2.592997e+001
8.453206e+002, 2.618431e+001
8.458027e+002, 2.629994e+001
8.462849e+002, 2.629681e+001
8.467670e+002, 2.628371e+001
8.472491e+002, 2.638661e+001
8.477312e+002, 2.643748e+001
8.482133e+002, 2.628865e+001
8.486954e+002, 2.596719e+001
8.491776e+002, 2.575974e+001
8.496597e+002, 2.566890e+001
8.501418e+002, 2.570858e+001
8.506239e+002, 2.594258e+001
8.511060e+002, 2.628076e+001
8.515881e+002, 2.635854e+001
8.520703e+002, 2.621334e+001
8.525524e+002, 2.616128e+001
8.530345e+002, 2.647569e+001
8.535166e+002, 2.684436e+001
8.539987e+002, 2.698794e+001
8.544808e+002, 2.696063e+001
8.549630e+002, 2.690030e+001
8.554451e+002, 2.672890e+001
8.559272e+002, 2.668143e+001
8.564093e+002, 2.687666e+001
8.568914e+002, 2.718506e+001
8.573735e+002, 2.728328e+001
8.578557e+002, 2.714626e+001
8.583378e+002, 2.711777e+001
8.588199e+002, 2.732568e+001
8.593020e+002, 2.760826e+001
8.597841e+002, 2.766217e+001
8.602662e+002, 2.761653e+001
8.607484e+002, 2.774885e+001
8.612305e+002, 2.835196e+001
8.617126e+002, 2.885220e+001
8.621947e+002, 2.901260e+001
8.626768e+002, 2.894836e+001
8.631589e+002, 2.881258e+001
8.636411e+002, 2.852326e+001
8.641232e+002, 2.840595e+001
8.646053e+002, 2.851888e+001
8.650874e+002, 2.873954e+001
8.655695e+002, 2.891999e+001
8.660516e+002, 2.907600e+001
8.665338e+002, 2.926668e+001
8.670159e+002, 2.951384e+001
8.674980e+002, 2.974820e+001
8.679801e+002, 2.992493e+001
8.684622e+002, 3.006497e+001
8.689443e+002, 3.018273e+001
8.694265e+002, 3.023906e+001
8.699086e+002, 3.038848e+001
8.703907e+002, 3.067968e+001
8.708728e+002, 3.098740e+001
8.713549e+002, 3.122028e+001
8.718370e+002, 3.137919e+001
8.723192e+002, 3.144168e+001
8.728013e+002, 3.140583e+001
8.732834e+002, 3.137625e+001
8.737655e+002, 3.142593e+001
8.742476e+002, 3.153265e+001
8.747297e+002, 3.167446e+001
8.752119e+002, 3.184997e+001
8.756940e+002, 3.206794e+001
8.761761e+002, 3.239708e+001
8.766582e+002, 3.269261e+001
8.771403e+002, 3.286222e+001
8.776224e+002, 3.292523e+001
8.781046e+002, 3.321416e+001
8.785867e+002, 3.374428e+001
8.790688e+002, 3.415249e+001
8.795509e+002, 3.405716e+001
8.800330e+002, 3.379937e+001
8.805151e+002, 3.393236e+001
8.809973e+002, 3.434928e+001
8.814794e+002, 3.463308e+001
8.819615e+002, 3.451365e+001
8.824436e+002, 3.433336e+001
8.829257e+002, 3.419795e+001
8.834078e+002, 3.410122e+001
8.838900e+002, 3.397919e+001
8.843721e+002, 3.378621e+001
8.848542e+002, 3.384941e+001
8.853363e+002, 3.438561e+001
8.858184e+002, 3.502449e+001
8.863005e+002, 3.499707e+001
8.867827e+002, 3.454851e+001
8.872648e+002, 3.432249e+001
8.877469e+002, 3.480474e+001
8.882290e+002, 3.517426e+001
8.887111e+002, 3.491548e+001
8.891932e+002, 3.438853e+001
8.896754e+002, 3.412626e+001
8.901575e+002, 3.425004e+001
8.906396e+002, 3.434466e+001
8.911217e+002, 3.436477e+001
8.916038e+002, 3.438037e+001
8.920859e+002, 3.448724e+001
8.925681e+002, 3.466186e+001
8.930502e+002, 3.484631e+001
8.935323e+002, 3.503734e+001
8.940144e+002, 3.518059e+001
8.944965e+002, 3.514000e+001
8.949786e+002, 3.509772e+001
8.954608e+002, 3.525037e+001
8.959429e+002, 3.572978e+001
8.964250e+002, 3.595078e+001
8.969071e+002, 3.582178e+001
8.973892e+002, 3.561375e+001
8.978713e+002, 3.552160e+001
8.983535e+002, 3.551535e+001
8.988356e+002, 3.536754e+001
8.993177e+002, 3.509419e+001
8.997998e+002, 3.494960e+001
9.002819e+002, 3.529579e+001
9.007640e+002, 3.567836e+001
9.012462e+002, 3.567287e+001
9.017283e+002, 3.531872e+001
9.022104e+002, 3.518990e+001
9.026925e+002, 3.547524e+001
9.031746e+002, 3.576740e+001
9.036567e+002, 3.594756e+001
9.041389e+002, 3.605206e+001
9.046210e+002, 3.623444e+001
9.051031e+002, 3.647554e+001
9.055852e+002, 3.660548e+001
9.060673e+002, 3.649049e+001
9.065494e+002, 3.632506e+001
9.070316e+002, 3.624700e+001
9.075137e+002, 3.625141e+001
9.079958e+002, 3.632963e+001
9.084779e+002, 3.655159e+001
9.089600e+002, 3.674806e+001
9.094421e+002, 3.688121e+001
9.099243e+002, 3.700642e+001
9.104064e+002, 3.727230e+001
9.108885e+002, 3.765671e+001
9.113706e+002, 3.770919e+001
9.118527e+002, 3.730487e+001
9.123348e+002, 3.694385e+001
9.128170e+002, 3.724221e+001
9.132991e+002, 3.778014e+001
9.137812e+002, 3.805688e+001
9.142633e+002, 3.790500e+001
9.147454e+002, 3.785532e+001
9.152275e+002, 3.800263e+001
9.157097e+002, 3.825492e+001
9.161918e+002, 3.861611e+001
9.166739e+002, 3.908150e+001
9.171560e+002, 3.928529e+001
9.176381e+002, 3.922374e+001
9.181202e+002, 3.916289e+001
9.186024e+002, 3.924722e+001
9.190845e+002, 3.945643e+001
9.195666e+002, 3.990084e+001
9.200487e+002, 4.049744e+001
9.205308e+002, 4.082011e+001
9.210129e+002, 4.034930e+001
9.214951e+002, 4.007075e+001
9.219772e+002, 4.031273e+001
9.224593e+002, 4.088250e+001
9.229414e+002, 4.116559e+001
9.234235e+002, 4.116669e+001
9.239056e+002, 4.129699e+001
9.243878e+002, 4.178397e+001
9.248699e+002, 4.226841e+001
9.253520e+002, 4.228887e+001
9.258341e+002, 4.204693e+001
9.263162e+002, 4.186178e+001
9.267983e+002, 4.179950e+001
9.272805e+002, 4.184509e+001
9.277626e+002, 4.205231e+001
9.282447e+002, 4.230194e+001
9.287268e+002, 4.248188e+001
9.292089e+002, 4.259246e+001
9.296910e+002, 4.261610e+001
9.301732e+002, 4.253967e+001
9.306553e+002, 4.251643e+001
9.311374e+002, 4.282779e+001
9.316195e+002, 4.318493e+001
9.321016e+002, 4.319959e+001
9.325837e+002, 4.281077e+001
9.330659e+002, 4.256907e+001
9.335480e+002, 4.280020e+001
9.340301e+002, 4.295992e+001
9.345122e+002, 4.279276e+001
9.349943e+002, 4.236236e+001
9.354764e+002, 4.213443e+001
9.359586e+002, 4.210068e+001
9.364407e+002, 4.207375e+001
9.369228e+002, 4.195766e+001
9.374049e+002, 4.179989e+001
9.378870e+002, 4.158294e+001
9.383691e+002, 4.136639e+001
9.388513e+002, 4.129341e+001
9.393334e+002, 4.166864e+001
9.398155e+002, 4.181377e+001
9.402976e+002, 4.151585e+001
9.407797e+002, 4.108125e+001
9.412618e+002, 4.106043e+001
9.417440e+002, 4.141272e+001
9.422261e+002, 4.155031e+001
9.427082e+002, 4.134682e+001
9.431903e+002, 4.108041e+001
9.436724e+002, 4.097140e+001
9.441545e+002, 4.096872e+001
9.446367e+002, 4.103584e+001
9.451188e+002, 4.119201e+001
9.456009e+002, 4.130592e+001
9.460830e+002, 4.132688e+001
9.465651e+002, 4.136489e+001
9.470472e+002, 4.150440e+001
9.475294e+002, 4.172637e+001
9.480115e+002, 4.187597e+001
9.484936e+002, 4.195284e+001
9.489757e+002, 4.194537e+001
9.494578e+002, 4.167204e+001
9.499399e+002, 4.146535e+001
9.504221e+002, 4.171330e+001
9.509042e+002, 4.227216e+001
9.513863e+002, 4.254529e+001
9.518684e+002, 4.229098e+001
9.523505e+002, 4.210814e+001
9.528326e+002, 4.209645e+001
9.533148e+002, 4.222189e+001
9.537969e+002, 4.247580e+001
9.542790e+002, 4.282178e+001
9.547611e+002, 4.310118e+001
9.552432e+002, 4.326881e+001
9.557253e+002, 4.337639e+001
9.562075e+002, 4.344279e+001
9.566896e+002, 4.347608e+001
9.571717e+002, 4.346701e+001
9.576538e+002, 4.335747e+001
9.581359e+002, 4.340808e+001
9.586180e+002, 4.366887e+001
9.591002e+002, 4.396269e+001
9.595823e+002, 4.413867e+001
9.600644e+002, 4.424620e+001
9.605465e+002, 4.445736e+001
9.610286e+002, 4.475911e+001
9.615107e+002, 4.502368e+001
9.619929e+002, 4.508882e+001
9.624750e+002, 4.518977e+001
9.629571e+002, 4.557723e+001
9.634392e+002, 4.611048e+001
9.639213e+002, 4.624717e+001
9.644034e+002, 4.585949e+001
9.648856e+002, 4.558390e+001
9.653677e+002, 4.558586e+001
9.658498e+002, 4.574778e+001
9.663319e+002, 4.591266e+001
9.668140e+002, 4.608887e+001
9.672961e+002, 4.628895e+001
9.677783e+002, 4.651707e+001
9.682604e+002, 4.677262e+001
9.687425e+002, 4.725698e+001
9.692246e+002, 4.760907e+001
9.697067e+002, 4.749357e+001
9.701888e+002, 4.681341e+001
9.706710e+002, 4.637988e+001
9.711531e+002, 4.620593e+001
9.716352e+002, 4.618433e+001
9.721173e+002, 4.631179e+001
9.725994e+002, 4.649665e+001
9.730815e+002, 4.665971e+001
9.735637e+002, 4.678130e+001
9.740458e+002, 4.678645e+001
9.745279e+002, 4.650985e+001
9.750100e+002, 4.628541e+001
9.754921e+002, 4.621441e+001
9.759742e+002, 4.623563e+001
9.764564e+002, 4.620265e+001
9.769385e+002, 4.611764e+001
9.774206e+002, 4.604545e+001
9.779027e+002, 4.605813e+001
9.783848e+002, 4.592233e+001
9.788669e+002, 4.515471e+001
9.793491e+002, 4.423449e+001
9.798312e+002, 4.376397e+001
9.803133e+002, 4.408487e+001
9.807954e+002, 4.428002e+001
9.812775e+002, 4.433171e+001
9.817596e+002, 4.423210e+001
9.822418e+002, 4.392287e+001
9.827239e+002, 4.344736e+001
9.832060e+002, 4.298553e+001
9.836881e+002, 4.255324e+001
9.841702e+002, 4.228008e+001
9.846523e+002, 4.249616e+001
9.851345e+002, 4.265120e+001
9.856166e+002, 4.230608e+001
9.860987e+002, 4.161456e+001
9.865808e+002, 4.119273e+001
9.870629e+002, 4.114117e+001
9.875450e+002, 4.103759e+001
9.880272e+002, 4.077855e+001
9.885093e+002, 4.048750e+001
9.889914e+002, 4.040807e+001
9.894735e+002, 4.042743e+001
9.899556e+002, 4.028295e+001
9.904377e+002, 3.985936e+001
9.909199e+002, 3.952741e+001
9.914020e+002, 3.950208e+001
9.918841e+002, 3.957693e+001
9.923662e+002, 3.967827e+001
9.928483e+002, 3.981683e+001
9.933304e+002, 3.947089e+001
9.938126e+002, 3.860527e+001
9.942947e+002, 3.786546e+001
9.947768e+002, 3.771357e+001
9.952589e+002, 3.786780e+001
9.957410e+002, 3.811725e+001
9.962231e+002, 3.839147e+001
9.967053e+002, 3.850513e+001
9.971874e+002, 3.822920e+001
9.976695e+002, 3.802327e+001
9.981516e+002, 3.798354e+001
9.986337e+002, 3.799945e+001
9.991158e+002, 3.785841e+001
9.995980e+002, 3.759747e+001
1.000080e+003, 3.751058e+001
1.000562e+003, 3.765658e+001
1.001044e+003, 3.782011e+001
1.001526e+003, 3.788097e+001
1.002009e+003, 3.785730e+001
1.002491e+003, 3.771906e+001
1.002973e+003, 3.744360e+001
1.003455e+003, 3.736640e+001
1.003937e+003, 3.757607e+001
1.004419e+003, 3.769323e+001
1.004901e+003, 3.744503e+001
1.005383e+003, 3.707934e+001
1.005865e+003, 3.724701e+001
1.006348e+003, 3.775596e+001
1.006830e+003, 3.806215e+001
1.007312e+003, 3.774685e+001
1.007794e+003, 3.741676e+001
1.008276e+003, 3.717932e+001
1.008758e+003, 3.706923e+001
1.009240e+003, 3.717316e+001
1.009722e+003, 3.752272e+001
1.010205e+003, 3.775200e+001
1.010687e+003, 3.783626e+001
1.011169e+003, 3.783710e+001
1.011651e+003, 3.771462e+001
1.012133e+003, 3.760456e+001
1.012615e+003, 3.773127e+001
1.013097e+003, 3.808403e+001
1.013579e+003, 3.819702e+001
1.014061e+003, 3.777518e+001
1.014544e+003, 3.749818e+001
1.015026e+003, 3.765897e+001
1.015508e+003, 3.799596e+001
1.015990e+003, 3.770884e+001
1.016472e+003, 3.699448e+001
1.016954e+003, 3.671549e+001
1.017436e+003, 3.733876e+001
1.017918e+003, 3.792983e+001
1.018401e+003, 3.788436e+001
1.018883e+003, 3.752696e+001
1.019365e+003, 3.715541e+001
1.019847e+003, 3.674788e+001
1.020329e+003, 3.650238e+001
1.020811e+003, 3.642995e+001
1.021293e+003, 3.646026e+001
1.021775e+003, 3.661031e+001
1.022257e+003, 3.679339e+001
1.022740e+003, 3.684340e+001
1.023222e+003, 3.679965e+001
1.023704e+003, 3.681869e+001
1.024186e+003, 3.718197e+001
1.024668e+003, 3.729462e+001
1.025150e+003, 3.688148e+001
1.025632e+003, 3.631074e+001
1.026114e+003, 3.622420e+001
1.026596e+003, 3.657569e+001
1.027079e+003, 3.698393e+001
1.027561e+003, 3.741073e+001
1.028043e+003, 3.770132e+001
1.028525e+003, 3.759340e+001
1.029007e+003, 3.739357e+001
1.029489e+003, 3.740067e+001
1.029971e+003, 3.765505e+001
1.030453e+003, 3.772078e+001
1.030936e+003, 3.752476e+001
1.031418e+003, 3.738804e+001
1.031900e+003, 3.746958e+001
1.032382e+003, 3.766816e+001
1.032864e+003, 3.780975e+001
1.033346e+003, 3.790490e+001
1.033828e+003, 3.797363e+001
1.034310e+003, 3.799104e+001
1.034792e+003, 3.803307e+001
1.035275e+003, 3.815147e+001
1.035757e+003, 3.827208e+001
1.036239e+003, 3.831401e+001
1.036721e+003, 3.827717e+001
1.037203e+003, 3.829210e+001
1.037685e+003, 3.836319e+001
1.038167e+003, 3.855247e+001
1.038649e+003, 3.906469e+001
1.039132e+003, 3.957879e+001
1.039614e+003, 3.980645e+001
1.040096e+003, 3.979345e+001
1.040578e+003, 3.984475e+001
1.041060e+003, 4.001293e+001
1.041542e+003, 4.014870e+001
1.042024e+003, 4.021731e+001
1.042506e+003, 4.025887e+001
1.042989e+003, 4.029521e+001
1.043471e+003, 4.036010e+001
1.043953e+003, 4.052657e+001
1.044435e+003, 4.081588e+001
1.044917e+003, 4.117305e+001
1.045399e+003, 4.177335e+001
1.045881e+003, 4.222832e+001
1.046363e+003, 4.227095e+001
1.046845e+003, 4.197582e+001
1.047328e+003, 4.194404e+001
1.047810e+003, 4.216590e+001
1.048292e+003, 4.246090e+001
1.048774e+003, 4.272700e+001
1.049256e+003, 4.306138e+001
1.049738e+003, 4.368676e+001
1.050220e+003, 4.438718e+001
1.050702e+003, 4.478928e+001
1.051184e+003, 4.465601e+001
1.051667e+003, 4.476864e+001
1.052149e+003, 4.520671e+001
1.052631e+003, 4.568132e+001
1.053113e+003, 4.593579e+001
1.053595e+003, 4.605577e+001
1.054077e+003, 4.618594e+001
1.054559e+003, 4.633789e+001
1.055041e+003, 4.653266e+001
1.055523e+003, 4.681060e+001
1.056006e+003, 4.708501e+001
1.056488e+003, 4.724648e+001
1.056970e+003, 4.745749e+001
1.057452e+003, 4.822839e+001
1.057934e+003, 4.945644e+001
1.058416e+003, 5.011207e+001
1.058898e+003, 4.992574e+001
1.059380e+003, 4.962872e+001
1.059863e+003, 4.970953e+001
1.060345e+003, 5.000970e+001
1.060827e+003, 5.047205e+001
1.061309e+003, 5.109457e+001
1.061791e+003, 5.151772e+001
1.062273e+003, 5.170495e+001
1.062755e+003, 5.186366e+001
1.063237e+003, 5.208518e+001
1.063719e+003, 5.232273e+001
1.064202e+003, 5.253076e+001
1.064684e+003, 5.269688e+001
1.065166e+003, 5.279952e+001
1.065648e+003, 5.284931e+001
1.066130e+003, 5.279069e+001
1.066612e+003, 5.258264e+001
1.067094e+003, 5.233008e+001
1.067576e+003, 5.210867e+001
1.068059e+003, 5.191510e+001
1.068541e+003, 5.175756e+001
1.069023e+003, 5.162822e+001
1.069505e+003, 5.147003e+001
1.069987e+003, 5.124245e+001
1.070469e+003, 5.098516e+001
1.070951e+003, 5.071898e+001
1.071433e+003, 5.044047e+001
1.071916e+003, 5.016665e+001
1.072398e+003, 4.991637e+001
1.072880e+003, 4.945615e+001
1.073362e+003, 4.870992e+001
1.073844e+003, 4.807446e+001
1.074326e+003, 4.814421e+001
1.074808e+003, 4.841801e+001
1.075290e+003, 4.836685e+001
1.075772e+003, 4.793834e+001
1.076255e+003, 4.744331e+001
1.076737e+003, 4.684916e+001
1.077219e+003, 4.635656e+001
1.077701e+003, 4.608463e+001
1.078183e+003, 4.587775e+001
1.078665e+003, 4.538520e+001
1.079147e+003, 4.472210e+001
1.079629e+003, 4.416220e+001
1.080111e+003, 4.380165e+001
1.080594e+003, 4.346086e+001
1.081076e+003, 4.304919e+001
1.081558e+003, 4.266707e+001
1.082040e+003, 4.239809e+001
1.082522e+003, 4.222509e+001
1.083004e+003, 4.195956e+001
1.083486e+003, 4.161412e+001
1.083968e+003, 4.133268e+001
1.084450e+003, 4.133849e+001
1.084933e+003, 4.127428e+001
1.085415e+003, 4.086119e+001
1.085897e+003, 4.025146e+001
1.086379e+003, 3.965768e+001
1.086861e+003, 3.903180e+001
1.087343e+003, 3.869939e+001
1.087825e+003, 3.871787e+001
1.088307e+003, 3.874485e+001
1.088790e+003, 3.844186e+001
1.089272e+003, 3.800457e+001
1.089754e+003, 3.766253e+001
1.090236e+003, 3.740696e+001
1.090718e+003, 3.712342e+001
1.091200e+003, 3.676820e+001
1.091682e+003, 3.642127e+001
1.092164e+003, 3.608724e+001
1.092646e+003, 3.578316e+001
1.093129e+003, 3.550155e+001
1.093611e+003, 3.527718e+001
1.094093e+003, 3.522697e+001
1.094575e+003, 3.538166e+001
1.095057e+003, 3.549411e+001
1.095539e+003, 3.552426e+001
1.096021e+003, 3.538918e+001
1.096503e+003, 3.496528e+001
1.096986e+003, 3.438520e+001
1.097468e+003, 3.422669e+001
1.097950e+003, 3.442783e+001
1.098432e+003, 3.444650e+001
1.098914e+003, 3.403973e+001
1.099396e+003, 3.359792e+001
1.099878e+003, 3.339231e+001
1.100360e+003, 3.329938e+001
1.100843e+003, 3.321820e+001
1.101325e+003, 3.315566e+001
1.101807e+003, 3.296823e+001
1.102289e+003, 3.264732e+001
1.102771e+003, 3.228318e+001
1.103253e+003, 3.183649e+001
1.103735e+003, 3.146600e+001
1.104217e+003, 3.145099e+001
1.104699e+003, 3.163431e+001
1.105182e+003, 3.171465e+001
1.105664e+003, 3.151375e+001
1.106146e+003, 3.145387e+001
1.106628e+003, 3.160674e+001
1.107110e+003, 3.173644e+001
1.107592e+003, 3.155636e+001
1.108074e+003, 3.123167e+001
1.108556e+003, 3.115659e+001
1.109038e+003, 3.128178e+001
1.109521e+003, 3.127268e+001
1.110003e+003, 3.080060e+001
1.110485e+003, 3.045411e+001
1.110967e+003, 3.041479e+001
1.111449e+003, 3.047982e+001
1.111931e+003, 3.030903e+001
1.112413e+003, 2.996574e+001
1.112895e+003, 2.974945e+001
1.113377e+003, 2.969541e+001
1.113860e+003, 2.966190e+001
1.114342e+003, 2.952532e+001
1.114824e+003, 2.942669e+001
1.115306e+003, 2.949520e+001
1.115788e+003, 2.965189e+001
1.116270e+003, 2.960766e+001
1.116752e+003, 2.936673e+001
1.117234e+003, 2.918293e+001
1.117717e+003, 2.913346e+001
1.118199e+003, 2.910189e+001
1.118681e+003, 2.898704e+001
1.119163e+003, 2.883909e+001
1.119645e+003, 2.869746e+001
1.120127e+003, 2.856415e+001
1.120609e+003, 2.845774e+001
1.121091e+003, 2.837684e+001
1.121573e+003, 2.833319e+001
1.122056e+003, 2.834924e+001
1.122538e+003, 2.837623e+001
1.123020e+003, 2.835710e+001
1.123502e+003, 2.830389e+001
1.123984e+003, 2.823752e+001
1.124466e+003, 2.817622e+001
1.124948e+003, 2.805072e+001
1.125430e+003, 2.782094e+001
1.125913e+003, 2.763149e+001
1.126395e+003, 2.762140e+001
1.126877e+003, 2.769976e+001
1.127359e+003, 2.768789e+001
1.127841e+003, 2.758977e+001
1.128323e+003, 2.741453e+001
1.128805e+003, 2.694361e+001
1.129287e+003, 2.673827e+001
1.129770e+003, 2.699080e+001
1.130252e+003, 2.732648e+001
1.130734e+003, 2.736134e+001
1.131216e+003, 2.716709e+001
1.131698e+003, 2.704023e+001
1.132180e+003, 2.697940e+001
1.132662e+003, 2.688485e+001
1.133144e+003, 2.660638e+001
1.133626e+003, 2.640549e+001
1.134109e+003, 2.644924e+001
1.134591e+003, 2.656019e+001
1.135073e+003, 2.640991e+001
1.135555e+003, 2.603405e+001
1.136037e+003, 2.589180e+001
1.136519e+003, 2.604041e+001
1.137001e+003, 2.618694e+001
1.137483e+003, 2.617256e+001
1.137965e+003, 2.603967e+001
1.138448e+003, 2.574570e+001
1.138930e+003, 2.535926e+001
1.139412e+003, 2.506091e+001
1.139894e+003, 2.484625e+001
1.140376e+003, 2.482440e+001
1.140858e+003, 2.507146e+001
1.141340e+003, 2.522780e+001
1.141822e+003, 2.481545e+001
1.142304e+003, 2.426049e+001
1.142787e+003, 2.394598e+001
1.143269e+003, 2.390400e+001
1.143751e+003, 2.392526e+001
1.144233e+003, 2.402712e+001
1.144715e+003, 2.409721e+001
1.145197e+003, 2.410476e+001
1.145679e+003, 2.404297e+001
1.146161e+003, 2.387519e+001
1.146644e+003, 2.364602e+001
1.147126e+003, 2.339051e+001
1.147608e+003, 2.307853e+001
1.148090e+003, 2.293269e+001
1.148572e+003, 2.300464e+001
1.149054e+003, 2.308947e+001
1.149536e+003, 2.309485e+001
1.150018e+003, 2.304461e+001
1.150500e+003, 2.294817e+001
1.150983e+003, 2.283489e+001
1.151465e+003, 2.276548e+001
1.151947e+003, 2.279568e+001
1.152429e+003, 2.279084e+001
1.152911e+003, 2.274768e+001
1.153393e+003, 2.265839e+001
1.153875e+003, 2.246760e+001
1.154357e+003, 2.224534e+001
1.154840e+003, 2.225192e+001
1.155322e+003, 2.239878e+001
1.155804e+003, 2.240431e+001
1.156286e+003, 2.206066e+001
1.156768e+003, 2.168617e+001
1.157250e+003, 2.124375e+001
1.157732e+003, 2.091089e+001
1.158214e+003, 2.094480e+001
1.158697e+003, 2.123249e+001
1.159179e+003, 2.124390e+001
1.159661e+003, 2.101741e+001
1.160143e+003, 2.085738e+001
1.160625e+003, 2.097530e+001
1.161107e+003, 2.111241e+001
1.161589e+003, 2.124100e+001
1.162071e+003, 2.130014e+001
1.162553e+003, 2.114425e+001
1.163036e+003, 2.082279e+001
1.163518e+003, 2.071974e+001
1.164000e+003, 2.084893e+001
1.164482e+003, 2.096686e+001
1.164964e+003, 2.088618e+001
1.165446e+003, 2.080496e+001
1.165928e+003, 2.087010e+001
1.166410e+003, 2.096698e+001
1.166892e+003, 2.081968e+001
1.167375e+003, 2.045592e+001
1.167857e+003, 2.035629e+001
1.168339e+003, 2.059701e+001
1.168821e+003, 2.076176e+001
1.169303e+003, 2.043848e+001
1.169785e+003, 2.004564e+001
1.170267e+003, 1.979621e+001
1.170749e+003, 1.970190e+001
1.171231e+003, 1.987845e+001
1.171714e+003, 2.032299e+001
1.172196e+003, 2.055192e+001
1.172678e+003, 2.044182e+001
1.173160e+003, 2.024866e+001
1.173642e+003, 2.010830e+001
1.174124e+003, 2.003996e+001
1.174606e+003, 2.008964e+001
1.175088e+003, 2.023362e+001
1.175571e+003, 2.038166e+001
1.176053e+003, 2.054171e+001
1.176535e+003, 2.055938e+001
1.177017e+003, 2.037068e+001
1.177499e+003, 2.009894e+001
1.177981e+003, 1.975700e+001
1.178463e+003, 1.946523e+001
1.178945e+003, 1.935605e+001
1.179427e+003, 1.943218e+001
1.179910e+003, 1.957871e+001
1.180392e+003, 1.980995e+001
1.180874e+003, 1.997659e+001
1.181356e+003, 2.001481e+001
1.181838e+003, 1.998577e+001
1.182320e+003, 1.993612e+001
1.182802e+003, 1.986714e+001
1.183284e+003, 1.975330e+001
1.183767e+003, 1.956935e+001
1.184249e+003, 1.958552e+001
1.184731e+003, 1.984177e+001
1.185213e+003, 2.001894e+001
1.185695e+003, 1.990171e+001
1.186177e+003, 1.973155e+001
1.186659e+003, 1.986093e+001
1.187141e+003, 2.008804e+001
1.187624e+003, 2.008609e+001
1.188106e+003, 1.969722e+001
1.188588e+003, 1.958496e+001
1.189070e+003, 1.980297e+001
1.189552e+003, 1.999207e+001
1.190034e+003, 1.987425e+001
1.190516e+003, 1.969411e+001
1.190998e+003, 1.980825e+001
1.191480e+003, 2.006146e+001
1.191963e+003, 2.017694e+001
1.192445e+003, 2.000611e+001
1.192927e+003, 2.000138e+001
1.193409e+003, 2.021381e+001
1.193891e+003, 2.035592e+001
1.194373e+003, 2.011407e+001
1.194855e+003, 1.977577e+001
1.195337e+003, 1.975179e+001
1.195819e+003, 1.991979e+001
1.196302e+003, 2.000497e+001
1.196784e+003, 1.987840e+001
1.197266e+003, 1.988946e+001
1.197748e+003, 2.008376e+001
1.198230e+003, 2.024775e+001
1.198712e+003, 2.013237e+001
1.199194e+003, 1.994008e+001
1.199676e+003, 2.000337e+001
1.200158e+003, 2.021444e+001
1.200641e+003, 2.026139e+001
1.201123e+003, 2.002980e+001
1.201605e+003, 1.977439e+001
1.202087e+003, 1.948228e+001
1.202569e+003, 1.927335e+001
1.203051e+003, 1.933545e+001
1.203533e+003, 1.949305e+001
1.204015e+003, 1.950903e+001
1.204498e+003, 1.941417e+001
1.204980e+003, 1.934350e+001
1.205462e+003, 1.931977e+001
1.205944e+003, 1.931239e+001
1.206426e+003, 1.931938e+001
1.206908e+003, 1.933956e+001
1.207390e+003, 1.937756e+001
1.207872e+003, 1.942378e+001
1.208354e+003, 1.945624e+001
1.208837e+003, 1.948360e+001
1.209319e+003, 1.954993e+001
1.209801e+003, 1.967011e+001
1.210283e+003, 1.981505e+001
1.210765e+003, 2.000565e+001
1.211247e+003, 2.012973e+001
1.211729e+003, 1.984940e+001
1.212211e+003, 1.958447e+001
1.212694e+003, 2.011978e+001
1.213176e+003, 2.127128e+001
1.213658e+003, 2.168693e+001
1.214140e+003, 2.099106e+001
1.214622e+003, 2.042309e+001
1.215104e+003, 2.017348e+001
1.215586e+003, 2.003722e+001
1.216068e+003, 1.977869e+001
1.216551e+003, 1.951281e+001
1.217033e+003, 1.938147e+001
1.217515e+003, 1.938254e+001
1.217997e+003, 1.942939e+001
1.218479e+003, 1.953754e+001
1.218961e+003, 1.960344e+001
1.219443e+003, 1.960685e+001
1.219925e+003, 1.957713e+001
1.220407e+003, 1.952213e+001
1.220890e+003, 1.946957e+001
1.221372e+003, 1.944131e+001
1.221854e+003, 1.944451e+001
1.222336e+003, 1.951084e+001
1.222818e+003, 1.966421e+001
1.223300e+003, 1.978024e+001
1.223782e+003, 1.983298e+001
1.224264e+003, 1.985097e+001
1.224746e+003, 1.986472e+001
1.225229e+003, 1.986094e+001
1.225711e+003, 1.982391e+001
1.226193e+003, 1.975237e+001
1.226675e+003, 1.963819e+001
1.227157e+003, 1.943945e+001
1.227639e+003, 1.946778e+001
1.228121e+003, 1.983924e+001
1.228603e+003, 2.021105e+001
1.229085e+003, 2.019227e+001
1.229568e+003, 2.001595e+001
1.230050e+003, 1.986543e+001
1.230532e+003, 1.976388e+001
1.231014e+003, 1.975704e+001
1.231496e+003, 1.985655e+001
1.231978e+003, 1.995951e+001
1.232460e+003, 2.005624e+001
1.232942e+003, 2.008049e+001
1.233425e+003, 1.989040e+001
1.233907e+003, 1.966291e+001
1.234389e+003, 1.954858e+001
1.234871e+003, 1.954281e+001
1.235353e+003, 1.958832e+001
1.235835e+003, 1.968718e+001
1.236317e+003, 1.978842e+001
1.236799e+003, 1.988468e+001
1.237281e+003, 1.995184e+001
1.237764e+003, 1.991926e+001
1.238246e+003, 1.989411e+001
1.238728e+003, 2.003823e+001
1.239210e+003, 2.026869e+001
1.239692e+003, 2.013485e+001
1.240174e+003, 1.966009e+001
1.240656e+003, 1.943796e+001
1.241138e+003, 1.964784e+001
1.241621e+003, 1.990681e+001
1.242103e+003, 1.991459e+001
1.242585e+003, 1.988932e+001
1.243067e+003, 1.999627e+001
1.243549e+003, 2.018432e+001
1.244031e+003, 2.027158e+001
1.244513e+003, 2.026177e+001
1.244995e+003, 2.013634e+001
1.245478e+003, 1.984879e+001
1.245960e+003, 1.971142e+001
1.246442e+003, 2.014965e+001
1.246924e+003, 2.053647e+001
1.247406e+003, 2.052355e+001
1.247888e+003, 2.022121e+001
1.248370e+003, 1.985754e+001
1.248852e+003, 1.949318e+001
1.249334e+003, 1.942775e+001
1.249817e+003, 1.977566e+001
1.250299e+003, 2.010446e+001
1.250781e+003, 2.021709e+001
1.251263e+003, 2.024886e+001
1.251745e+003, 2.025376e+001
1.252227e+003, 2.021848e+001
1.252709e+003, 2.005214e+001
1.253191e+003, 1.982227e+001
1.253673e+003, 1.973877e+001
1.254156e+003, 1.986249e+001
1.254638e+003, 1.998365e+001
1.255120e+003, 2.006457e+001
1.255602e+003, 2.008460e+001
1.256084e+003, 2.001594e+001
1.256566e+003, 1.990916e+001
1.257048e+003, 1.984047e+001
1.257530e+003, 1.981811e+001
1.258012e+003, 1.989705e+001
1.258495e+003, 2.010893e+001
1.258977e+003, 2.014635e+001
1.259459e+003, 1.982506e+001
1.259941e+003, 1.968232e+001
1.260423e+003, 1.996266e+001
1.260905e+003, 2.034615e+001
1.261387e+003, 2.026065e+001
1.261869e+003, 1.997528e+001
1.262352e+003, 1.992822e+001
1.262834e+003, 2.020221e+001
1.263316e+003, 2.024994e+001
1.263798e+003, 1.994855e+001
1.264280e+003, 1.978863e+001
1.264762e+003, 1.994623e+001
1.265244e+003, 2.020113e+001
1.265726e+003, 2.035308e+001
1.266208e+003, 2.040994e+001
1.266691e+003, 2.034309e+001
1.267173e+003, 2.015649e+001
1.267655e+003, 2.007414e+001
1.268137e+003, 2.011590e+001
1.268619e+003, 2.007032e+001
1.269101e+003, 1.984835e+001
1.269583e+003, 1.967663e+001
1.270065e+003, 1.984979e+001
1.270548e+003, 2.010408e+001
1.271030e+003, 2.019406e+001
1.271512e+003, 2.015226e+001
1.271994e+003, 2.013849e+001
1.272476e+003, 2.015173e+001
1.272958e+003, 2.011857e+001
1.273440e+003, 2.000707e+001
1.273922e+003, 1.996759e+001
1.274405e+003, 2.028599e+001
1.274887e+003, 2.051825e+001
1.275369e+003, 2.033579e+001
1.275851e+003, 1.991593e+001
1.276333e+003, 1.974531e+001
1.276815e+003, 1.978907e+001
1.277297e+003, 1.990394e+001
1.277779e+003, 2.007326e+001
1.278261e+003, 2.014444e+001
1.278744e+003, 1.987672e+001
1.279226e+003, 1.969993e+001
1.279708e+003, 1.979655e+001
1.280190e+003, 2.003246e+001
1.280672e+003, 2.015215e+001
1.281154e+003, 2.020301e+001
1.281636e+003, 2.036089e+001
1.282118e+003, 2.065022e+001
1.282600e+003, 2.071451e+001
1.283083e+003, 2.021074e+001
1.283565e+003, 1.990234e+001
1.284047e+003, 2.001146e+001
1.284529e+003, 2.026410e+001
1.285011e+003, 2.029918e+001
1.285493e+003, 2.020347e+001
1.285975e+003, 2.002513e+001
1.286457e+003, 1.979916e+001
1.286939e+003, 1.992997e+001
1.287422e+003, 2.063797e+001
1.287904e+003, 2.095519e+001
1.288386e+003, 2.063139e+001
1.288868e+003, 2.018709e+001
1.289350e+003, 2.021498e+001
1.289832e+003, 2.038288e+001
1.290314e+003, 2.033545e+001
1.290796e+003, 2.011197e+001
1.291279e+003, 2.002970e+001
1.291761e+003, 2.010842e+001
1.292243e+003, 2.008896e+001
1.292725e+003, 1.992476e+001
1.293207e+003, 1.982421e+001
1.293689e+003, 2.012912e+001
1.294171e+003, 2.037801e+001
1.294653e+003, 2.009122e+001
1.295135e+003, 1.961734e+001
1.295618e+003, 1.960559e+001
1.296100e+003, 1.999679e+001
1.296582e+003, 2.023236e+001
1.297064e+003, 2.026346e+001
1.297546e+003, 2.017836e+001
1.298028e+003, 1.989251e+001
1.298510e+003, 1.966276e+001
1.298992e+003, 1.954222e+001
1.299475e+003, 1.954642e+001
1.299957e+003, 1.979577e+001
1.300439e+003, 2.016785e+001
1.300921e+003, 2.025583e+001
1.301403e+003, 2.008982e+001
1.301885e+003, 1.998974e+001
##END=



