##NAMES=Pargasite
##RRUFFID=R050321
##IDEAL CHEMISTRY=NaCa_2_(Mg_4_Al)(Si_6_Al_2_)O_22_(OH)_2_
##LOCALITY=Soper River, near Kimmirut, Baffin Island, Nunavut, Canada
##OWNER=RRUFF
##SOURCE=Frank Hawthorne
##DESCRIPTION=Greenish brown transparent fragment
##STATUS=The identification of this mineral has been confirmed by X-ray diffraction and chemical analysis
##URL=rruff.info/R050321
##MEASURED CHEMISTRY=(Na_0.77_K_0.23_)(Ca_1.90_Na_0.10_)_&#931;=2_Mg_4.00_(Al_0.58_Fe^3+^_0.07_Ti_0.05_Mg_0.30_)(Si_6.24_Al_1.76_)_&#931;=8_O_22_((OH)_0.69_F_0.31_)_2_
128.0302, 164.3998
128.5123, 165.1253
128.9944, 165.8535
129.4765, 166.5823
129.9586, 167.2921
130.4407, 167.6836
130.9229, 167.9593
131.4050, 169.0302
131.8871, 171.2658
132.3692, 174.1880
132.8513, 176.7110
133.3334, 178.5330
133.8156, 179.4053
134.2977, 179.7251
134.7798, 180.1178
135.2619, 180.6639
135.7440, 181.5339
136.2261, 182.5681
136.7083, 182.9534
137.1904, 182.5577
137.6725, 181.9812
138.1546, 181.8691
138.6367, 182.3101
139.1188, 182.7376
139.6010, 183.1412
140.0831, 183.5274
140.5652, 183.0912
141.0473, 181.4160
141.5294, 179.4942
142.0115, 178.7710
142.4937, 179.8467
142.9758, 180.6506
143.4579, 180.3818
143.9400, 178.6192
144.4221, 177.8909
144.9042, 178.7445
145.3864, 180.2923
145.8685, 180.9430
146.3506, 179.8827
146.8327, 179.0392
147.3148, 179.1158
147.7969, 180.7403
148.2791, 181.8555
148.7612, 182.2004
149.2433, 182.0683
149.7254, 182.1301
150.2075, 182.3371
150.6896, 182.7810
151.1718, 183.5180
151.6539, 184.9984
152.1360, 186.1224
152.6181, 186.5736
153.1002, 186.6117
153.5823, 187.0090
154.0645, 188.0005
154.5466, 189.2290
155.0287, 190.5373
155.5108, 192.3992
155.9929, 193.7707
156.4750, 194.1536
156.9572, 193.8071
157.4393, 193.7796
157.9214, 194.2671
158.4035, 195.1512
158.8856, 196.3569
159.3677, 198.5058
159.8499, 200.3424
160.3320, 201.1304
160.8141, 201.0969
161.2962, 201.6292
161.7783, 203.4306
162.2604, 205.9012
162.7426, 208.5460
163.2247, 211.6411
163.7068, 214.5127
164.1889, 216.9303
164.6710, 218.8715
165.1531, 220.3515
165.6353, 221.4807
166.1174, 222.1167
166.5995, 222.1049
167.0816, 221.0546
167.5637, 219.5887
168.0458, 218.1752
168.5280, 216.8297
169.0101, 215.0553
169.4922, 212.0424
169.9743, 208.5141
170.4564, 205.4996
170.9385, 203.6038
171.4207, 202.2874
171.9028, 201.0928
172.3849, 200.0051
172.8670, 199.1509
173.3491, 198.7758
173.8312, 198.6936
174.3134, 198.5469
174.7955, 198.1507
175.2776, 197.6163
175.7597, 197.0579
176.2418, 196.4733
176.7239, 195.8996
177.2061, 195.1038
177.6882, 194.2893
178.1703, 194.0162
178.6524, 195.1324
179.1345, 196.8178
179.6166, 197.6384
180.0988, 197.4499
180.5809, 196.7910
181.0630, 196.0121
181.5451, 195.1950
182.0272, 194.7028
182.5093, 194.9423
182.9915, 195.6299
183.4736, 196.0591
183.9557, 196.1509
184.4378, 196.1060
184.9199, 196.1948
185.4020, 196.3958
185.8842, 196.5754
186.3663, 196.7435
186.8484, 196.8458
187.3305, 196.6310
187.8126, 196.0177
188.2947, 195.2453
188.7769, 194.6890
189.2590, 194.3408
189.7411, 194.0202
190.2232, 193.5757
190.7053, 193.0462
191.1874, 192.7091
191.6696, 192.6498
192.1517, 192.6656
192.6338, 192.2922
193.1159, 191.5121
193.5980, 190.8233
194.0801, 190.5223
194.5623, 190.5922
195.0444, 190.8860
195.5265, 191.5236
196.0086, 192.1870
196.4907, 191.9621
196.9728, 190.7075
197.4550, 189.7366
197.9371, 190.1119
198.4192, 191.8618
198.9013, 193.0287
199.3834, 193.2863
199.8655, 193.0287
200.3477, 193.2517
200.8298, 194.0477
201.3119, 194.9082
201.7940, 195.5218
202.2761, 195.8660
202.7582, 196.2286
203.2404, 196.6289
203.7225, 197.0701
204.2046, 197.5718
204.6867, 198.1498
205.1688, 198.7413
205.6509, 199.2213
206.1331, 199.5180
206.6152, 200.2393
207.0973, 201.6049
207.5794, 203.3422
208.0615, 204.5668
208.5436, 205.1349
209.0258, 205.5738
209.5079, 206.1864
209.9900, 206.9893
210.4721, 207.8378
210.9542, 208.6243
211.4363, 209.4781
211.9185, 210.9860
212.4006, 213.5219
212.8827, 215.9123
213.3648, 217.2329
213.8469, 217.0642
214.3290, 217.4278
214.8112, 218.5432
215.2933, 220.2773
215.7754, 222.3337
216.2575, 225.0491
216.7396, 227.4547
217.2217, 228.8562
217.7038, 228.8719
218.1860, 229.0432
218.6681, 229.4925
219.1502, 230.1646
219.6323, 230.8404
220.1144, 231.4374
220.5965, 232.1729
221.0787, 233.2336
221.5608, 234.8542
222.0429, 236.1377
222.5250, 236.8715
223.0071, 237.2488
223.4892, 237.9680
223.9714, 239.2110
224.4535, 240.5246
224.9356, 241.7451
225.4177, 243.0522
225.8998, 243.7658
226.3819, 243.5669
226.8641, 242.7868
227.3462, 242.5847
227.8283, 243.1425
228.3104, 243.9932
228.7925, 244.9544
229.2746, 246.2653
229.7568, 247.1163
230.2389, 247.1848
230.7210, 246.8250
231.2031, 247.2474
231.6852, 249.0167
232.1673, 250.7265
232.6495, 251.6080
233.1316, 251.1042
233.6137, 251.0257
234.0958, 251.5314
234.5779, 252.4628
235.0600, 253.3727
235.5422, 254.2342
236.0243, 255.1308
236.5064, 256.1213
236.9885, 257.3127
237.4706, 258.3725
237.9527, 259.3431
238.4349, 260.1577
238.9170, 260.6266
239.3991, 260.6696
239.8812, 260.4858
240.3633, 260.1367
240.8454, 259.5632
241.3276, 258.9999
241.8097, 258.6418
242.2918, 258.2289
242.7739, 257.0838
243.2560, 254.5309
243.7381, 252.2940
244.2203, 251.1231
244.7024, 251.5243
245.1845, 251.5407
245.6666, 250.9125
246.1487, 250.0254
246.6308, 249.6739
247.1130, 250.3089
247.5951, 250.7386
248.0772, 250.4881
248.5593, 249.3355
249.0414, 248.2930
249.5235, 247.3088
250.0057, 246.4666
250.4878, 245.9616
250.9699, 246.1468
251.4520, 246.0247
251.9341, 245.1472
252.4162, 243.2473
252.8984, 241.9446
253.3805, 241.5911
253.8626, 241.5580
254.3447, 240.9288
254.8268, 239.5070
255.3089, 237.8626
255.7911, 236.0393
256.2732, 233.9370
256.7553, 232.5080
257.2374, 232.1791
257.7195, 232.0994
258.2017, 231.1605
258.6838, 228.9595
259.1659, 226.7964
259.6480, 224.9459
260.1301, 223.4292
260.6122, 222.0974
261.0944, 221.0330
261.5765, 220.0462
262.0586, 218.8561
262.5407, 217.2500
263.0228, 216.0594
263.5049, 215.6092
263.9871, 215.8571
264.4692, 215.7561
264.9513, 215.1486
265.4334, 214.4454
265.9155, 214.0542
266.3976, 214.1121
266.8798, 214.0451
267.3619, 213.7566
267.8440, 213.2555
268.3261, 212.6054
268.8082, 211.7403
269.2903, 210.8662
269.7725, 210.0804
270.2546, 209.3161
270.7367, 209.0261
271.2188, 209.4599
271.7009, 210.3843
272.1830, 210.7614
272.6652, 210.4228
273.1473, 209.9873
273.6294, 209.8715
274.1115, 210.1190
274.5936, 210.4676
275.0757, 210.9875
275.5579, 211.5266
276.0400, 211.4757
276.5221, 210.6319
277.0042, 210.0100
277.4863, 210.4775
277.9684, 212.1673
278.4506, 213.0205
278.9327, 212.7059
279.4148, 211.7317
279.8969, 211.0767
280.3790, 210.7416
280.8611, 210.7281
281.3433, 211.1169
281.8254, 211.9092
282.3075, 212.7820
282.7896, 213.8163
283.2717, 214.7460
283.7538, 215.0942
284.2360, 214.8462
284.7181, 214.4304
285.2002, 213.9352
285.6823, 213.3892
286.1644, 213.0620
286.6465, 212.9714
287.1287, 213.0399
287.6108, 213.1841
288.0929, 213.4027
288.5750, 213.6980
289.0571, 214.0910
289.5392, 214.5625
290.0214, 215.0686
290.5035, 215.6214
290.9856, 216.0975
291.4677, 216.2609
291.9498, 216.1798
292.4319, 216.2788
292.9141, 216.7751
293.3962, 217.4889
293.8783, 218.0592
294.3604, 218.4853
294.8425, 218.7049
295.3246, 218.5654
295.8068, 218.1604
296.2889, 217.7651
296.7710, 217.3259
297.2531, 217.0676
297.7352, 217.5787
298.2173, 218.7653
298.6995, 219.8457
299.1816, 220.0890
299.6637, 219.8226
300.1458, 219.7418
300.6279, 220.0188
301.1100, 220.4057
301.5922, 220.4633
302.0743, 220.3087
302.5564, 220.4220
303.0385, 221.5940
303.5206, 223.0397
304.0027, 223.5273
304.4849, 222.7298
304.9670, 221.6407
305.4491, 221.0490
305.9312, 220.8907
306.4133, 221.0121
306.8954, 221.7465
307.3776, 222.5094
307.8597, 222.4896
308.3418, 221.5543
308.8239, 220.8621
309.3060, 221.7086
309.7881, 223.3030
310.2703, 224.3680
310.7524, 223.5898
311.2345, 222.6964
311.7166, 223.1399
312.1987, 224.8915
312.6808, 226.5255
313.1630, 227.2491
313.6451, 227.4384
314.1272, 227.4988
314.6093, 227.2031
315.0914, 227.1394
315.5735, 227.7464
316.0557, 228.9053
316.5378, 229.9922
317.0199, 230.9385
317.5020, 231.5942
317.9841, 231.8103
318.4662, 231.1304
318.9484, 230.6351
319.4305, 230.7831
319.9126, 231.3957
320.3947, 232.0027
320.8768, 232.7686
321.3589, 233.2685
321.8411, 233.1178
322.3232, 231.6874
322.8053, 231.0480
323.2874, 232.4457
323.7695, 234.7188
324.2516, 236.0280
324.7338, 235.1959
325.2159, 234.1832
325.6980, 233.5193
326.1801, 233.2344
326.6622, 233.2828
327.1443, 233.9387
327.6265, 234.8050
328.1086, 235.4879
328.5907, 236.1423
329.0728, 236.4231
329.5549, 236.1186
330.0370, 235.2202
330.5192, 234.5760
331.0013, 234.1631
331.4834, 234.0192
331.9655, 234.2049
332.4476, 235.0613
332.9297, 235.6756
333.4119, 236.0338
333.8940, 236.0973
334.3761, 235.5419
334.8582, 233.7492
335.3403, 232.3292
335.8224, 232.2940
336.3046, 234.3855
336.7867, 235.5983
337.2688, 235.6270
337.7509, 234.9423
338.2330, 234.4505
338.7151, 234.1576
339.1973, 234.0585
339.6794, 234.2599
340.1615, 234.7920
340.6436, 234.9079
341.1257, 234.4876
341.6078, 233.9222
342.0899, 233.7845
342.5721, 234.1241
343.0542, 234.2796
343.5363, 233.9337
344.0184, 233.2632
344.5005, 233.0098
344.9826, 233.1885
345.4648, 233.6972
345.9469, 234.6968
346.4290, 236.0862
346.9111, 236.9100
347.3932, 236.8008
347.8753, 236.2903
348.3575, 236.4029
348.8396, 237.0945
349.3217, 237.9258
349.8038, 238.7442
350.2859, 239.4656
350.7680, 239.8317
351.2502, 239.7476
351.7323, 239.5451
352.2144, 239.6423
352.6965, 239.9449
353.1786, 240.1648
353.6607, 239.7588
354.1429, 239.3802
354.6250, 240.0659
355.1071, 241.8943
355.5892, 243.7029
356.0713, 244.6006
356.5534, 244.9056
357.0356, 245.0814
357.5177, 245.1152
357.9998, 245.2374
358.4819, 245.6433
358.9640, 246.3003
359.4461, 247.0199
359.9283, 247.8476
360.4104, 248.6161
360.8925, 249.1592
361.3746, 249.2771
361.8567, 249.4399
362.3388, 249.7975
362.8210, 250.3346
363.3031, 251.0266
363.7852, 252.1800
364.2673, 253.2305
364.7494, 253.7620
365.2315, 253.4371
365.7137, 253.6847
366.1958, 255.3161
366.6779, 257.4756
367.1600, 259.1715
367.6421, 259.8479
368.1242, 260.5134
368.6064, 261.5502
369.0885, 263.0066
369.5706, 263.7662
370.0527, 263.1884
370.5348, 262.4182
371.0169, 262.1938
371.4991, 262.7506
371.9812, 263.4752
372.4633, 264.4443
372.9454, 265.5560
373.4275, 266.4254
373.9096, 266.9977
374.3918, 267.4427
374.8739, 267.8098
375.3560, 268.0815
375.8381, 268.4042
376.3202, 268.8596
376.8023, 269.2541
377.2845, 269.1671
377.7666, 268.4622
378.2487, 268.0265
378.7308, 268.2531
379.2129, 269.0248
379.6950, 269.5592
380.1772, 269.8458
380.6593, 269.9629
381.1414, 269.7213
381.6235, 269.2225
382.1056, 269.5255
382.5877, 271.1581
383.0699, 273.2750
383.5520, 274.1437
384.0341, 273.8798
384.5162, 273.5761
384.9983, 274.2736
385.4804, 275.3876
385.9626, 275.3965
386.4447, 273.9313
386.9268, 272.5413
387.4089, 273.2785
387.8910, 275.3143
388.3731, 276.7694
388.8553, 276.4749
389.3374, 275.4254
389.8195, 274.3448
390.3016, 273.2821
390.7837, 272.5278
391.2658, 272.4683
391.7480, 272.7396
392.2301, 272.9973
392.7122, 273.4091
393.1943, 273.4375
393.6764, 272.5540
394.1585, 271.0471
394.6407, 269.7505
395.1228, 269.5040
395.6049, 269.1032
396.0870, 267.7609
396.5691, 264.9373
397.0512, 262.6818
397.5334, 261.7497
398.0155, 261.4726
398.4976, 261.0242
398.9797, 260.1627
399.4618, 259.2802
399.9439, 258.1947
400.4261, 256.9078
400.9082, 256.6133
401.3903, 258.2946
401.8724, 260.0262
402.3545, 260.5191
402.8366, 259.0882
403.3188, 257.8741
403.8009, 256.9259
404.2830, 256.2932
404.7651, 256.1899
405.2472, 256.8065
405.7293, 257.4133
406.2115, 257.6805
406.6936, 257.5946
407.1757, 257.6411
407.6578, 257.8607
408.1399, 258.1078
408.6220, 258.1459
409.1042, 257.9841
409.5863, 258.0554
410.0684, 258.6288
410.5505, 259.3863
411.0326, 259.4718
411.5147, 258.9073
411.9969, 258.3712
412.4790, 258.5285
412.9611, 259.0618
413.4432, 259.1040
413.9253, 258.4130
414.4074, 257.7298
414.8896, 257.8757
415.3717, 258.6454
415.8538, 259.5620
416.3359, 260.5433
416.8180, 261.4705
417.3001, 262.2515
417.7823, 262.8889
418.2644, 263.3178
418.7465, 263.4634
419.2286, 263.4107
419.7107, 263.2346
420.1928, 262.8795
420.6750, 262.4966
421.1571, 261.9298
421.6392, 261.3555
422.1213, 261.2515
422.6034, 262.6836
423.0855, 263.8059
423.5677, 263.6105
424.0498, 261.4107
424.5319, 260.1177
425.0140, 260.9414
425.4961, 262.3035
425.9782, 262.5785
426.4604, 260.6900
426.9425, 259.3182
427.4246, 259.0976
427.9067, 259.8040
428.3888, 259.8246
428.8709, 258.8463
429.3531, 257.7397
429.8352, 257.0062
430.3173, 256.7591
430.7994, 256.3138
431.2815, 255.5599
431.7636, 254.7441
432.2458, 254.4464
432.7279, 254.7202
433.2100, 254.5231
433.6921, 253.1708
434.1742, 251.1033
434.6563, 250.0895
435.1385, 250.1417
435.6206, 250.3955
436.1027, 250.2386
436.5848, 249.7081
437.0669, 248.7879
437.5490, 247.2743
438.0312, 245.8807
438.5133, 245.7345
438.9954, 246.4063
439.4775, 246.6980
439.9596, 245.5574
440.4417, 244.0447
440.9239, 243.0347
441.4060, 242.5804
441.8881, 242.5247
442.3702, 243.1220
442.8523, 243.9192
443.3344, 244.4884
443.8166, 244.7629
444.2987, 244.7339
444.7808, 244.1181
445.2629, 243.1556
445.7450, 242.5501
446.2271, 242.8340
446.7093, 243.1685
447.1914, 243.2182
447.6735, 242.8576
448.1556, 242.5772
448.6377, 242.4452
449.1198, 242.3490
449.6020, 242.1420
450.0841, 241.6365
450.5662, 241.4548
451.0483, 241.8734
451.5304, 242.6822
452.0125, 242.8299
452.4947, 242.0838
452.9768, 241.3982
453.4589, 241.3629
453.9410, 241.9960
454.4231, 242.5904
454.9052, 243.1913
455.3874, 243.5672
455.8695, 243.2286
456.3516, 242.2875
456.8337, 241.5987
457.3158, 241.5218
457.7979, 241.7793
458.2801, 241.9468
458.7622, 242.0209
459.2443, 241.9716
459.7264, 241.6461
460.2085, 241.2403
460.6906, 241.0185
461.1728, 241.0356
461.6549, 241.1728
462.1370, 241.4230
462.6191, 241.7252
463.1012, 241.9836
463.5833, 242.1028
464.0655, 242.2258
464.5476, 242.4694
465.0297, 242.8038
465.5118, 242.9943
465.9939, 242.6067
466.4760, 242.3194
466.9582, 242.5457
467.4403, 243.8294
467.9224, 244.7050
468.4045, 245.0356
468.8866, 244.9890
469.3687, 244.7604
469.8509, 244.1401
470.3330, 243.7401
470.8151, 243.7824
471.2972, 244.2110
471.7793, 244.4566
472.2614, 244.5537
472.7436, 244.3868
473.2257, 243.6343
473.7078, 242.2742
474.1899, 241.7363
474.6720, 242.2662
475.1541, 243.2424
475.6363, 243.8922
476.1184, 244.2159
476.6005, 244.1921
477.0826, 243.4226
477.5647, 242.5319
478.0468, 242.7261
478.5290, 243.9012
479.0111, 245.1161
479.4932, 245.7328
479.9753, 246.0065
480.4574, 246.2678
480.9395, 246.6429
481.4217, 246.7851
481.9038, 246.1927
482.3859, 245.2949
482.8680, 244.7296
483.3501, 244.8795
483.8322, 245.2265
484.3144, 245.7194
484.7965, 246.3183
485.2786, 246.6552
485.7607, 246.3651
486.2428, 246.0345
486.7249, 245.9597
487.2071, 246.2726
487.6892, 246.5550
488.1713, 246.7611
488.6534, 246.9720
489.1355, 247.3470
489.6176, 248.0001
490.0998, 248.5236
490.5819, 248.9135
491.0640, 249.1047
491.5461, 248.5263
492.0282, 247.0402
492.5103, 245.8097
492.9925, 245.7200
493.4746, 246.6150
493.9567, 247.8870
494.4388, 249.6437
494.9209, 251.0374
495.4030, 250.5275
495.8852, 248.8774
496.3673, 248.0445
496.8494, 249.4785
497.3315, 251.3485
497.8136, 251.7211
498.2957, 250.9380
498.7779, 250.3991
499.2600, 251.0199
499.7421, 252.0177
500.2242, 252.9220
500.7063, 253.7268
501.1884, 254.2374
501.6706, 254.0193
502.1527, 253.6488
502.6348, 253.7118
503.1169, 254.8734
503.5990, 255.7766
504.0811, 256.2752
504.5633, 256.4111
505.0454, 256.2424
505.5275, 255.3202
506.0096, 254.8849
506.4917, 255.6379
506.9738, 257.7390
507.4560, 259.0832
507.9381, 259.5127
508.4202, 259.6082
508.9023, 259.8922
509.3844, 260.3620
509.8665, 260.9729
510.3487, 261.7138
510.8308, 262.5988
511.3129, 263.9781
511.7950, 265.6504
512.2772, 266.6708
512.7593, 265.8078
513.2414, 264.4088
513.7235, 264.3075
514.2056, 265.4763
514.6877, 266.4777
515.1699, 266.2401
515.6520, 265.4906
516.1341, 264.8734
516.6162, 264.4875
517.0983, 264.3184
517.5804, 264.4317
518.0626, 264.7376
518.5447, 265.0899
519.0268, 265.8470
519.5089, 266.2250
519.9910, 265.8264
520.4731, 264.7275
520.9553, 264.1969
521.4374, 264.5743
521.9195, 265.0234
522.4016, 265.0386
522.8837, 264.5032
523.3658, 264.2134
523.8480, 264.2843
524.3301, 264.3793
524.8122, 263.8516
525.2943, 262.7687
525.7764, 262.2224
526.2585, 262.7227
526.7407, 263.6830
527.2228, 264.0194
527.7049, 263.8209
528.1870, 263.5974
528.6691, 263.5899
529.1512, 263.7588
529.6334, 264.1793
530.1155, 264.8719
530.5976, 265.3123
531.0797, 264.7735
531.5618, 264.0219
532.0439, 263.8513
532.5261, 265.0479
533.0082, 265.9817
533.4903, 266.0892
533.9724, 265.6703
534.4545, 265.3703
534.9366, 265.2639
535.4188, 265.2666
535.9009, 265.4161
536.3830, 265.7081
536.8651, 265.8257
537.3472, 265.6369
537.8293, 265.5433
538.3115, 265.8954
538.7936, 266.7419
539.2757, 267.3722
539.7578, 267.7452
540.2399, 267.9147
540.7220, 267.9040
541.2042, 267.7339
541.6863, 267.4952
542.1684, 267.0697
542.6505, 266.7581
543.1326, 267.2444
543.6147, 268.2926
544.0969, 269.0157
544.5790, 268.3896
545.0611, 267.5388
545.5432, 267.4149
546.0253, 268.1190
546.5074, 269.0154
546.9896, 270.1392
547.4717, 271.1676
547.9538, 271.8459
548.4359, 272.2618
548.9180, 272.1382
549.4001, 271.0725
549.8823, 269.5824
550.3644, 268.4988
550.8465, 267.7117
551.3286, 267.5675
551.8107, 268.4062
552.2928, 270.0301
552.7750, 270.9597
553.2571, 271.1577
553.7392, 270.8908
554.2213, 269.8731
554.7034, 268.3867
555.1855, 268.2685
555.6677, 269.7489
556.1498, 271.5157
556.6319, 272.2826
557.1140, 272.2907
557.5961, 271.9535
558.0782, 271.1102
558.5604, 270.4273
559.0425, 270.7772
559.5246, 271.6990
560.0067, 272.1643
560.4888, 271.3304
560.9709, 270.3256
561.4531, 269.4522
561.9352, 268.7320
562.4173, 268.7285
562.8994, 270.8756
563.3815, 272.6451
563.8636, 272.5472
564.3458, 269.2669
564.8279, 267.7765
565.3100, 268.6609
565.7921, 270.5793
566.2742, 271.9241
566.7563, 272.6870
567.2385, 273.0277
567.7206, 272.8886
568.2027, 272.4557
568.6848, 272.1277
569.1669, 271.8831
569.6490, 271.5930
570.1312, 270.8802
570.6133, 270.2155
571.0954, 270.4288
571.5775, 271.4889
572.0596, 272.6097
572.5417, 273.7482
573.0239, 274.4663
573.5060, 274.1619
573.9881, 272.1285
574.4702, 270.7441
574.9523, 271.1743
575.4344, 272.4673
575.9166, 273.4175
576.3987, 273.8597
576.8808, 274.0626
577.3629, 273.9583
577.8450, 273.6453
578.3271, 273.4534
578.8093, 273.4189
579.2914, 273.3922
579.7735, 273.3300
580.2556, 273.2245
580.7377, 272.8759
581.2198, 272.2309
581.7020, 271.9177
582.1841, 272.9404
582.6662, 274.6401
583.1483, 275.3279
583.6304, 274.6337
584.1125, 273.6736
584.5947, 273.3695
585.0768, 273.4522
585.5589, 273.5293
586.0410, 273.4867
586.5231, 273.4020
587.0052, 273.2271
587.4873, 273.0371
587.9694, 273.0278
588.4515, 273.6196
588.9337, 274.0053
589.4158, 273.8499
589.8979, 273.1495
590.3800, 272.7611
590.8621, 272.7471
591.3442, 272.9286
591.8264, 273.2865
592.3085, 273.8492
592.7906, 273.9828
593.2727, 273.5430
593.7548, 273.0980
594.2369, 273.4571
594.7191, 274.4074
595.2012, 275.1221
595.6833, 275.3495
596.1654, 275.3636
596.6475, 275.4970
597.1296, 275.6526
597.6118, 275.6090
598.0939, 274.9137
598.5760, 274.3133
599.0581, 274.3067
599.5402, 274.8451
600.0223, 275.3356
600.5045, 275.6449
600.9866, 275.8885
601.4687, 276.1451
601.9508, 276.4610
602.4329, 276.6034
602.9150, 276.5626
603.3972, 276.3592
603.8793, 275.8425
604.3614, 274.9156
604.8435, 274.7628
605.3256, 275.7192
605.8077, 277.0205
606.2899, 277.3848
606.7720, 276.9863
607.2541, 276.6435
607.7362, 276.7166
608.2183, 276.9283
608.7004, 276.8975
609.1826, 276.7139
609.6647, 276.6911
610.1468, 277.0708
610.6289, 277.5994
611.1110, 278.1287
611.5931, 278.6563
612.0753, 279.2364
612.5574, 280.2477
613.0395, 281.0327
613.5216, 281.1739
614.0037, 280.2964
614.4858, 279.7157
614.9680, 279.3818
615.4501, 279.4077
615.9322, 280.1940
616.4143, 281.8143
616.8964, 282.6137
617.3785, 282.0301
617.8607, 280.9396
618.3428, 280.9510
618.8249, 281.8273
619.3070, 282.5806
619.7891, 282.6046
620.2712, 282.3913
620.7534, 282.4418
621.2355, 282.7032
621.7176, 282.9172
622.1997, 282.6267
622.6818, 282.5316
623.1639, 283.1042
623.6461, 284.4809
624.1282, 285.8571
624.6103, 287.5075
625.0924, 288.8330
625.5745, 289.3759
626.0566, 288.7625
626.5388, 288.3675
627.0209, 288.0897
627.5030, 288.2451
627.9851, 289.7407
628.4672, 292.4514
628.9493, 293.9848
629.4315, 293.3657
629.9136, 292.0534
630.3957, 292.3609
630.8778, 293.8694
631.3599, 295.3292
631.8420, 296.1329
632.3242, 296.6622
632.8063, 297.0281
633.2884, 297.3091
633.7705, 297.8986
634.2526, 299.2836
634.7347, 300.7132
635.2169, 301.7753
635.6990, 302.3380
636.1811, 303.1917
636.6632, 304.2985
637.1453, 305.7481
637.6274, 307.7555
638.1096, 310.5063
638.5917, 312.6078
639.0738, 313.9593
639.5559, 314.8025
640.0380, 315.1411
640.5201, 315.1703
641.0023, 315.7621
641.4844, 317.2477
641.9665, 319.1705
642.4486, 321.3485
642.9307, 323.6194
643.4128, 325.5936
643.8950, 326.7894
644.3771, 327.9907
644.8592, 329.7447
645.3413, 331.8956
645.8234, 333.6633
646.3055, 334.3825
646.7877, 335.2278
647.2698, 336.5504
647.7519, 338.3726
648.2340, 340.4139
648.7161, 342.7580
649.1982, 345.0711
649.6804, 347.0561
650.1625, 348.7431
650.6446, 350.3649
651.1267, 351.8922
651.6088, 353.6200
652.0909, 356.2440
652.5731, 359.1667
653.0552, 361.2702
653.5373, 361.9627
654.0194, 362.5476
654.5015, 363.6641
654.9836, 365.2602
655.4658, 367.2602
655.9479, 369.7141
656.4300, 372.4950
656.9121, 376.0407
657.3942, 379.9102
657.8763, 382.7719
658.3585, 384.0989
658.8406, 385.6978
659.3227, 388.2360
659.8048, 391.5037
660.2869, 394.3158
660.7690, 396.6523
661.2512, 398.8460
661.7333, 401.4518
662.2154, 403.9284
662.6975, 404.6279
663.1796, 403.5752
663.6617, 403.3795
664.1439, 406.8125
664.6260, 411.3356
665.1081, 414.7625
665.5902, 416.5819
666.0723, 417.7503
666.5544, 417.8896
667.0366, 417.8408
667.5187, 418.4259
668.0008, 420.2322
668.4829, 421.5276
668.9650, 422.2941
669.4471, 422.4281
669.9293, 421.5422
670.4114, 419.6260
670.8935, 417.8820
671.3756, 416.7975
671.8577, 415.7773
672.3398, 413.7348
672.8220, 410.8592
673.3041, 407.8498
673.7862, 404.8456
674.2683, 402.0020
674.7504, 399.5930
675.2325, 397.4931
675.7147, 395.1656
676.1968, 392.1412
676.6789, 389.0854
677.1610, 386.3871
677.6431, 384.0489
678.1252, 381.5025
678.6074, 378.7258
679.0895, 375.8239
679.5716, 372.8417
680.0537, 369.7568
680.5358, 366.8299
681.0179, 364.0684
681.5001, 361.5257
681.9822, 359.5600
682.4643, 357.8237
682.9464, 355.5240
683.4285, 352.3060
683.9106, 349.3240
684.3928, 347.5768
684.8749, 346.4356
685.3570, 345.1071
685.8391, 342.9678
686.3212, 341.1351
686.8033, 340.0926
687.2855, 339.3478
687.7676, 338.0589
688.2497, 335.8442
688.7318, 334.0140
689.2139, 332.8327
689.6960, 332.1867
690.1782, 332.0103
690.6603, 332.2682
691.1424, 332.2365
691.6245, 331.5246
692.1066, 330.3555
692.5887, 328.8896
693.0709, 327.2228
693.5530, 325.7684
694.0351, 325.0359
694.5172, 324.3689
694.9993, 323.2707
695.4814, 321.6943
695.9636, 320.3784
696.4457, 319.3746
696.9278, 318.7113
697.4099, 318.5482
697.8920, 319.0528
698.3741, 318.8061
698.8563, 317.6005
699.3384, 316.2809
699.8205, 315.7069
700.3026, 315.7030
700.7847, 315.3420
701.2668, 314.4756
701.7490, 313.6616
702.2311, 313.8469
702.7132, 314.2730
703.1953, 313.7600
703.6774, 311.3545
704.1595, 309.3734
704.6417, 309.0994
705.1238, 309.6164
705.6059, 309.6435
706.0880, 308.5973
706.5701, 307.9011
707.0522, 307.7572
707.5344, 307.9809
708.0165, 308.2774
708.4986, 308.6639
708.9807, 308.7934
709.4628, 308.3931
709.9449, 307.8848
710.4271, 308.2977
710.9092, 309.3546
711.3913, 310.0426
711.8734, 309.5563
712.3555, 308.7433
712.8376, 307.9252
713.3198, 307.2160
713.8019, 307.1154
714.2840, 308.7619
714.7661, 310.0242
715.2482, 309.9261
715.7303, 308.5293
716.2125, 307.6065
716.6946, 307.1353
717.1767, 307.1812
717.6588, 308.1913
718.1409, 309.9293
718.6230, 310.1544
719.1052, 308.8252
719.5873, 307.8050
720.0694, 309.2598
720.5515, 311.5718
721.0336, 312.4557
721.5157, 311.4496
721.9979, 310.7278
722.4800, 311.7340
722.9621, 313.1657
723.4442, 313.9408
723.9263, 313.4605
724.4084, 313.4469
724.8906, 314.2756
725.3727, 315.1265
725.8548, 314.9666
726.3369, 313.6830
726.8190, 313.2158
727.3011, 313.9749
727.7833, 314.9269
728.2654, 314.3832
728.7475, 313.0042
729.2296, 312.4253
729.7117, 313.4236
730.1938, 314.6660
730.6760, 315.4395
731.1581, 315.8147
731.6402, 315.9151
732.1223, 315.0010
732.6044, 314.8156
733.0865, 316.2226
733.5687, 318.2603
734.0508, 318.7079
734.5329, 317.0695
735.0150, 315.9321
735.4971, 316.0396
735.9792, 316.9760
736.4614, 318.1233
736.9435, 319.3639
737.4256, 320.0907
737.9077, 319.5301
738.3898, 318.6828
738.8719, 318.3562
739.3541, 318.4998
739.8362, 318.9484
740.3183, 320.2527
740.8004, 321.2389
741.2825, 320.9946
741.7646, 319.7820
742.2468, 319.9974
742.7289, 322.2625
743.2110, 324.3920
743.6931, 325.4394
744.1752, 325.5036
744.6573, 324.9108
745.1395, 323.6887
745.6216, 322.6060
746.1037, 322.0927
746.5858, 322.0971
747.0679, 322.8391
747.5500, 324.2734
748.0322, 325.3201
748.5143, 324.8212
748.9964, 324.3101
749.4785, 324.9172
749.9606, 327.0957
750.4427, 328.3378
750.9249, 328.4791
751.4070, 328.0001
751.8891, 326.8061
752.3712, 324.9224
752.8533, 324.8673
753.3354, 326.8860
753.8176, 329.0134
754.2997, 329.2362
754.7818, 328.4267
755.2639, 327.7831
755.7460, 327.4309
756.2281, 327.6854
756.7103, 329.5115
757.1924, 331.5516
757.6745, 332.5923
758.1566, 331.9781
758.6387, 331.3082
759.1208, 330.3491
759.6030, 329.6053
760.0851, 329.7741
760.5672, 330.8963
761.0493, 331.5185
761.5314, 331.3839
762.0135, 331.1199
762.4957, 331.5835
762.9778, 332.4327
763.4599, 332.9848
763.9420, 332.8896
764.4241, 332.9056
764.9063, 333.7695
765.3884, 334.8525
765.8705, 335.3797
766.3526, 334.9097
766.8347, 334.3265
767.3168, 333.4817
767.7990, 332.7069
768.2811, 332.6182
768.7632, 333.2602
769.2453, 333.6980
769.7274, 333.7460
770.2095, 333.5087
770.6917, 332.8383
771.1738, 332.0165
771.6559, 331.6724
772.1380, 332.2309
772.6201, 333.0448
773.1022, 334.2258
773.5844, 335.3335
774.0665, 335.5407
774.5486, 333.7909
775.0307, 332.5204
775.5128, 331.9621
775.9949, 332.1022
776.4771, 333.3272
776.9592, 335.7218
777.4413, 336.9346
777.9234, 335.8004
778.4055, 333.9323
778.8876, 334.0340
779.3698, 335.4208
779.8519, 336.3317
780.3340, 335.2041
780.8161, 334.2063
781.2982, 334.4394
781.7803, 335.5649
782.2625, 336.6884
782.7446, 337.9152
783.2267, 338.8139
783.7088, 339.2527
784.1909, 339.3261
784.6730, 339.2389
785.1552, 338.9916
785.6373, 338.8488
786.1194, 338.9800
786.6015, 339.1985
787.0836, 339.0264
787.5657, 338.6957
788.0479, 338.8606
788.5300, 340.4599
789.0121, 341.9638
789.4942, 342.7216
789.9763, 342.8152
790.4584, 342.5965
790.9406, 341.6205
791.4227, 341.2745
791.9048, 342.2165
792.3869, 343.9025
792.8690, 344.4777
793.3511, 344.0144
793.8333, 343.5491
794.3154, 343.6756
794.7975, 343.9724
795.2796, 343.8951
795.7617, 343.5532
796.2438, 343.2941
796.7260, 343.2787
797.2081, 343.3578
797.6902, 343.4612
798.1723, 343.6147
798.6544, 343.9576
799.1365, 344.5923
799.6187, 345.1285
800.1008, 345.3603
800.5829, 345.4535
801.0650, 346.0627
801.5471, 347.0757
802.0292, 347.7906
802.5114, 347.5285
802.9935, 347.0243
803.4756, 346.9954
803.9577, 347.2960
804.4398, 347.4367
804.9219, 347.0062
805.4041, 346.6815
805.8862, 346.6297
806.3683, 346.8310
806.8504, 347.3288
807.3325, 348.2667
807.8146, 348.7529
808.2968, 348.1706
808.7789, 347.1660
809.2610, 347.4845
809.7431, 348.7645
810.2252, 349.5279
810.7073, 348.1250
811.1895, 346.7758
811.6716, 347.1250
812.1537, 348.7444
812.6358, 349.9952
813.1179, 350.8581
813.6000, 350.9594
814.0822, 349.7513
814.5643, 347.8467
815.0464, 347.7306
815.5285, 349.4374
816.0106, 350.9499
816.4927, 351.3360
816.9749, 351.1751
817.4570, 351.1937
817.9391, 351.3828
818.4212, 351.7189
818.9033, 352.5744
819.3854, 353.1653
819.8676, 352.7850
820.3497, 351.8503
820.8318, 351.8322
821.3139, 353.2596
821.7960, 354.3477
822.2781, 354.6234
822.7603, 354.3171
823.2424, 353.6526
823.7245, 352.7849
824.2066, 352.7915
824.6887, 354.8933
825.1708, 357.0683
825.6530, 357.1508
826.1351, 355.9302
826.6172, 355.1646
827.0993, 355.9602
827.5814, 356.5336
828.0635, 356.4124
828.5457, 355.9218
829.0278, 355.7212
829.5099, 355.8397
829.9920, 356.1291
830.4741, 356.6487
830.9562, 357.1404
831.4384, 356.9082
831.9205, 356.3181
832.4026, 356.3420
832.8847, 357.9192
833.3668, 359.3445
833.8489, 359.3721
834.3311, 358.7682
834.8132, 358.8963
835.2953, 360.4132
835.7774, 361.5513
836.2595, 362.2142
836.7416, 362.2968
837.2238, 361.1303
837.7059, 358.9370
838.1880, 358.0739
838.6701, 359.4193
839.1522, 361.1041
839.6343, 361.1668
840.1165, 360.3744
840.5986, 359.8014
841.0807, 359.7487
841.5628, 359.9356
842.0449, 360.6103
842.5270, 361.2932
843.0092, 361.4164
843.4913, 360.8219
843.9734, 360.5457
844.4555, 360.6734
844.9376, 361.1546
845.4197, 362.3629
845.9019, 363.7960
846.3840, 364.2970
846.8661, 363.4724
847.3482, 362.5814
847.8303, 362.0717
848.3124, 361.9802
848.7946, 362.4434
849.2767, 363.8751
849.7588, 364.6844
850.2409, 364.6319
850.7230, 364.4057
851.2051, 364.7019
851.6873, 365.3990
852.1694, 365.6053
852.6515, 365.2365
853.1336, 365.0187
853.6157, 365.5990
854.0978, 366.5819
854.5800, 367.7725
855.0621, 369.2341
855.5442, 370.0286
856.0263, 369.4155
856.5084, 368.6602
856.9905, 368.3614
857.4727, 368.5229
857.9548, 368.6118
858.4369, 368.6019
858.9190, 368.8748
859.4011, 370.3216
859.8832, 371.9383
860.3654, 371.5795
860.8475, 369.5172
861.3296, 368.3617
861.8117, 370.7592
862.2938, 372.9751
862.7759, 372.5982
863.2581, 370.1031
863.7402, 369.2521
864.2223, 370.4644
864.7044, 371.9493
865.1865, 373.1495
865.6686, 373.9772
866.1508, 373.9218
866.6329, 373.1862
867.1150, 372.6562
867.5971, 373.0627
868.0792, 373.5507
868.5613, 373.4568
869.0435, 373.0228
869.5256, 373.0390
870.0077, 373.7018
870.4898, 374.5800
870.9719, 375.7879
871.4540, 376.9905
871.9362, 377.2173
872.4183, 376.6298
872.9004, 376.5380
873.3825, 377.5347
873.8646, 378.7758
874.3467, 379.4869
874.8289, 379.8941
875.3110, 380.3278
875.7931, 381.1383
876.2752, 381.5977
876.7573, 381.4166
877.2394, 381.0880
877.7216, 381.2498
878.2037, 381.9371
878.6858, 382.4682
879.1679, 382.7453
879.6500, 382.9594
880.1321, 383.1270
880.6143, 383.4481
881.0964, 384.4280
881.5785, 386.4565
882.0606, 387.7351
882.5427, 386.6613
883.0248, 385.3856
883.5070, 385.4580
883.9891, 387.1609
884.4712, 388.4811
884.9533, 389.3627
885.4354, 390.0796
885.9175, 390.8176
886.3997, 391.5482
886.8818, 392.2459
887.3639, 392.8964
887.8460, 393.3633
888.3281, 393.2138
888.8102, 393.1707
889.2924, 393.8726
889.7745, 395.2342
890.2566, 395.7853
890.7387, 395.2646
891.2208, 394.7012
891.7029, 394.4376
892.1851, 394.4837
892.6672, 394.9711
893.1493, 395.8216
893.6314, 396.6752
894.1135, 397.4102
894.5956, 398.0507
895.0778, 398.5594
895.5599, 398.9911
896.0420, 399.4999
896.5241, 400.3451
897.0062, 400.6844
897.4883, 400.1256
897.9705, 399.3630
898.4526, 399.9157
898.9347, 401.4661
899.4168, 402.4035
899.8989, 402.0297
900.3810, 401.8826
900.8632, 403.9527
901.3453, 406.5739
901.8274, 407.7925
902.3095, 405.8290
902.7916, 404.9859
903.2737, 405.5265
903.7559, 406.8439
904.2380, 408.8829
904.7201, 411.4471
905.2022, 412.1400
905.6843, 410.7741
906.1664, 409.4316
906.6486, 409.9275
907.1307, 411.1542
907.6128, 412.1342
908.0949, 412.7476
908.5770, 413.4981
909.0591, 414.5832
909.5413, 415.6584
910.0234, 416.6539
910.5055, 417.5329
910.9876, 417.9088
911.4697, 417.8167
911.9518, 417.8817
912.4340, 418.7670
912.9161, 419.7310
913.3982, 419.6928
913.8803, 419.0963
914.3624, 419.1804
914.8445, 421.5913
915.3267, 422.9387
915.8088, 421.9946
916.2909, 420.1590
916.7730, 420.4663
917.2551, 422.8623
917.7372, 424.9458
918.2194, 426.2659
918.7015, 426.8333
919.1836, 426.0044
919.6657, 424.6906
920.1478, 424.2230
920.6299, 425.5489
921.1121, 426.3219
921.5942, 426.0230
922.0763, 425.3112
922.5584, 424.4660
923.0405, 423.4512
923.5226, 423.6834
924.0048, 425.2702
924.4869, 426.9406
924.9690, 427.5903
925.4511, 427.8140
925.9332, 428.2810
926.4153, 429.0202
926.8975, 429.6371
927.3796, 429.9554
927.8617, 430.2036
928.3438, 430.5498
928.8259, 430.8835
929.3080, 430.4614
929.7902, 429.2999
930.2723, 428.4532
930.7544, 428.6265
931.2365, 429.0762
931.7186, 428.9123
932.2007, 428.3843
932.6829, 428.0027
933.1650, 428.2228
933.6471, 428.1603
934.1292, 427.3587
934.6113, 426.5503
935.0934, 427.0227
935.5756, 428.7617
936.0577, 429.6605
936.5398, 429.2993
937.0219, 428.8964
937.5040, 430.0009
937.9861, 431.5493
938.4683, 432.1255
938.9504, 431.1958
939.4325, 430.9970
939.9146, 432.8405
940.3967, 434.2345
940.8788, 433.4813
941.3610, 430.8484
941.8431, 429.9501
942.3252, 430.7331
942.8073, 431.8882
943.2894, 432.7479
943.7715, 433.4438
944.2537, 433.9998
944.7358, 434.4823
945.2179, 435.1351
945.7000, 436.5672
946.1821, 437.3327
946.6642, 436.8488
947.1464, 435.8828
947.6285, 436.2442
948.1106, 437.7310
948.5927, 438.7347
949.0748, 438.6990
949.5569, 438.5854
950.0391, 439.5043
950.5212, 440.6938
951.0033, 441.2415
951.4854, 440.6368
951.9675, 440.1465
952.4496, 439.5962
952.9318, 439.4936
953.4139, 440.5016
953.8960, 442.3716
954.3781, 443.6068
954.8602, 444.2005
955.3423, 444.7338
955.8245, 445.3777
956.3066, 446.2830
956.7887, 447.9956
957.2708, 450.2641
957.7529, 451.1172
958.2350, 449.7544
958.7172, 448.8205
959.1993, 449.2006
959.6814, 450.1989
960.1635, 450.2177
960.6456, 449.5690
961.1277, 449.2440
961.6099, 449.6440
962.0920, 450.2907
962.5741, 451.0209
963.0562, 451.7998
963.5383, 452.6205
964.0204, 453.7022
964.5026, 454.0980
964.9847, 453.6075
965.4668, 453.1043
965.9489, 453.4362
966.4310, 454.3227
966.9131, 455.4516
967.3953, 456.7223
967.8774, 457.3224
968.3595, 455.4163
968.8416, 454.1898
969.3237, 455.8693
969.8058, 459.5805
970.2880, 461.1953
970.7701, 460.4718
971.2522, 459.7502
971.7343, 459.7611
972.2164, 460.2609
972.6985, 461.3509
973.1807, 462.5790
973.6628, 463.0221
974.1449, 461.3802
974.6270, 460.6468
975.1091, 461.9908
975.5912, 463.8856
976.0734, 464.8907
976.5555, 464.9809
977.0376, 465.5273
977.5197, 466.6118
978.0018, 467.7463
978.4839, 468.7562
978.9661, 469.4800
979.4482, 469.4399
979.9303, 468.7112
980.4124, 468.8947
980.8945, 471.0132
981.3766, 472.8200
981.8588, 473.6553
982.3409, 473.7660
982.8230, 473.6562
983.3051, 473.3957
983.7872, 473.3968
984.2693, 473.9717
984.7515, 474.5151
985.2336, 474.2018
985.7157, 473.7768
986.1978, 474.2930
986.6799, 476.3578
987.1620, 478.0098
987.6442, 479.1357
988.1263, 480.1558
988.6084, 481.6302
989.0905, 483.2418
989.5726, 484.2071
990.0547, 484.5073
990.5369, 484.3321
991.0190, 482.9227
991.5011, 481.9462
991.9832, 482.5628
992.4653, 484.2450
992.9474, 485.1270
993.4296, 485.0946
993.9117, 485.3120
994.3938, 486.1881
994.8759, 487.3216
995.3580, 488.3015
995.8401, 489.1230
996.3223, 489.7784
996.8044, 490.0731
997.2865, 490.6511
997.7686, 491.9438
998.2507, 493.1308
998.7328, 493.3766
999.2150, 492.7528
999.6971, 493.0910
1000.179, 494.3737
1000.661, 495.7678
1001.143, 496.7377
1001.626, 497.5591
1002.108, 498.4244
1002.590, 499.3336
1003.072, 500.2816
1003.554, 501.2715
1004.036, 502.2409
1004.518, 503.1420
1005.000, 504.0615
1005.482, 505.1470
1005.965, 506.3575
1006.447, 507.5580
1006.929, 508.7081
1007.411, 509.8732
1007.893, 511.7071
1008.375, 513.0320
1008.857, 512.7550
1009.339, 510.6675
1009.822, 510.0524
1010.304, 511.0150
1010.786, 512.2791
1011.268, 512.7706
1011.750, 513.2744
1012.232, 515.4694
1012.714, 518.5466
1013.196, 520.1973
1013.678, 517.6605
1014.161, 516.4969
1014.643, 518.0009
1015.125, 520.5883
1015.607, 522.0105
1016.089, 522.4250
1016.571, 522.8201
1017.053, 523.3395
1017.535, 523.8083
1018.018, 524.1063
1018.500, 524.2974
1018.982, 524.2248
1019.464, 523.8835
1019.946, 524.7889
1020.428, 527.5443
1020.910, 529.2474
1021.392, 528.0161
1021.874, 525.6769
1022.357, 525.9845
1022.839, 527.9939
1023.321, 529.5023
1023.803, 529.3789
1024.285, 529.0997
1024.767, 528.7092
1025.249, 528.5624
1025.731, 529.2584
1026.214, 530.8160
1026.696, 531.1608
1027.178, 530.1610
1027.660, 529.3273
1028.142, 530.2858
1028.624, 531.5790
1029.106, 531.7359
1029.588, 530.8997
1030.070, 530.8065
1030.553, 532.0079
1031.035, 532.8492
1031.517, 532.7986
1031.999, 532.4172
1032.481, 532.7672
1032.963, 533.5950
1033.445, 534.2026
1033.927, 534.2928
1034.410, 534.6249
1034.892, 536.1342
1035.374, 537.4600
1035.856, 537.5180
1036.338, 536.2680
1036.820, 535.7062
1037.302, 535.8485
1037.784, 536.3225
1038.266, 537.3804
1038.749, 538.2691
1039.231, 538.0490
1039.713, 537.0719
1040.195, 536.1744
1040.677, 535.4275
1041.159, 534.8839
1041.641, 534.4518
1042.123, 534.4114
1042.605, 535.5548
1043.088, 537.3196
1043.570, 537.8317
1044.052, 536.8979
1044.534, 536.2231
1045.016, 537.2614
1045.498, 538.2429
1045.980, 538.0832
1046.462, 537.0999
1046.945, 536.8175
1047.427, 537.2634
1047.909, 537.6049
1048.391, 537.4785
1048.873, 537.3546
1049.355, 537.8988
1049.837, 538.6891
1050.319, 539.0802
1050.802, 538.3644
1051.284, 538.8962
1051.766, 541.4470
1052.248, 543.5383
1052.730, 542.6172
1053.212, 539.9457
1053.694, 539.7371
1054.176, 541.5339
1054.658, 543.1724
1055.141, 543.7471
1055.623, 543.7610
1056.105, 542.8135
1056.587, 541.7506
1057.069, 542.0662
1057.551, 543.8179
1058.033, 544.7404
1058.515, 544.4753
1058.997, 544.1022
1059.480, 544.6667
1059.962, 545.5401
1060.444, 546.1848
1060.926, 546.5383
1061.408, 546.7493
1061.890, 546.7849
1062.372, 546.8008
1062.854, 546.8289
1063.337, 546.9034
1063.819, 547.1861
1064.301, 547.5502
1064.783, 547.5819
1065.265, 546.5904
1065.747, 546.6942
1066.229, 550.1994
1066.711, 553.3994
1067.193, 553.5795
1067.676, 550.9400
1068.158, 549.5402
1068.640, 549.3180
1069.122, 549.4240
1069.604, 549.6003
1070.086, 549.6592
1070.568, 548.9352
1071.050, 548.1416
1071.532, 549.0494
1072.015, 552.7335
1072.497, 554.0889
1072.979, 552.1573
1073.461, 549.9240
1073.943, 551.1344
1074.425, 553.7336
1074.907, 554.7122
1075.389, 553.8820
1075.872, 553.4000
1076.354, 553.8006
1076.836, 554.6846
1077.318, 556.2028
1077.800, 557.8684
1078.282, 558.6035
1078.764, 558.5559
1079.246, 558.2209
1079.729, 557.5863
1080.211, 557.1738
1080.693, 556.9832
1081.175, 557.4113
1081.657, 559.0030
1082.139, 561.7579
1082.621, 562.8713
1083.103, 562.3246
1083.585, 561.7893
1084.068, 562.3336
1084.550, 563.1347
1085.032, 563.4418
1085.514, 563.4329
1085.996, 563.3767
1086.478, 563.0018
1086.960, 563.4334
1087.442, 565.0297
1087.924, 566.4201
1088.406, 565.8006
1088.889, 564.3120
1089.371, 564.1993
1089.853, 565.3510
1090.335, 566.3434
1090.817, 566.7352
1091.299, 566.7493
1091.781, 566.2567
1092.263, 565.6348
1092.746, 565.5544
1093.228, 565.9603
1093.710, 566.6144
1094.192, 567.4803
1094.674, 568.5273
1095.156, 570.0887
1095.638, 571.5031
1096.120, 572.3430
1096.603, 572.6334
1097.085, 572.2637
1097.567, 571.1780
1098.049, 570.7800
1098.531, 571.7775
1099.013, 573.2457
1099.495, 574.6117
1099.977, 575.6815
1100.459, 576.1287
1100.942, 575.5248
1101.424, 575.5742
1101.906, 576.4803
1102.388, 577.3948
1102.870, 577.7994
1103.352, 577.8348
1103.834, 577.5402
1104.316, 577.1077
1104.798, 577.0792
1105.281, 578.2368
1105.763, 578.9608
1106.245, 578.9188
1106.727, 578.5770
1107.209, 578.2677
1107.691, 578.0916
1108.173, 578.8814
1108.655, 580.5607
1109.138, 581.3864
1109.620, 578.9581
1110.102, 577.0165
1110.584, 577.7809
1111.066, 580.0048
1111.548, 580.9667
1112.030, 580.7043
1112.512, 581.1064
1112.995, 582.6319
1113.477, 584.0440
1113.959, 584.0432
1114.441, 583.6258
1114.923, 583.7878
1115.405, 584.5254
1115.887, 584.2610
1116.369, 582.7094
1116.851, 581.7536
1117.333, 582.1338
1117.816, 583.2572
1118.298, 584.7147
1118.780, 586.2477
1119.262, 587.5579
1119.744, 588.7955
1120.226, 588.9305
1120.708, 587.4489
1121.190, 586.1213
1121.673, 586.1152
1122.155, 586.9272
1122.637, 587.5148
1123.119, 587.8922
1123.601, 588.0961
1124.083, 588.1749
1124.565, 588.0131
1125.047, 587.5447
1125.530, 586.9228
1126.012, 585.9273
1126.494, 584.8263
1126.976, 585.5085
1127.458, 587.7984
1127.940, 589.7587
1128.422, 589.9434
1128.904, 589.9374
1129.386, 590.4310
1129.869, 591.1661
1130.351, 591.6789
1130.833, 591.9769
1131.315, 592.8552
1131.797, 594.4678
1132.279, 595.5255
1132.761, 594.2346
1133.243, 592.6895
1133.725, 592.5275
1134.208, 593.5287
1134.690, 594.3277
1135.172, 594.9162
1135.654, 595.3606
1136.136, 595.6557
1136.618, 595.9212
1137.100, 596.1710
1137.582, 596.5430
1138.065, 597.3554
1138.547, 598.7629
1139.029, 599.3106
1139.511, 598.7709
1139.993, 598.0449
1140.475, 597.2366
1140.957, 596.8363
1141.439, 598.1142
1141.922, 600.1943
1142.404, 601.6085
1142.886, 601.8800
1143.368, 601.5943
1143.850, 600.4212
1144.332, 599.5877
1144.814, 600.1715
1145.296, 601.4786
1145.778, 601.3707
1146.260, 600.4388
1146.743, 600.4109
1147.225, 603.3015
1147.707, 605.2750
1148.189, 605.5712
1148.671, 605.1530
1149.153, 604.6313
1149.635, 604.1122
1150.117, 604.2637
1150.600, 604.9963
1151.082, 605.5710
1151.564, 605.6063
1152.046, 605.4033
1152.528, 604.5788
1153.010, 603.9727
1153.492, 605.3251
1153.974, 608.3172
1154.457, 608.8329
1154.939, 606.5439
1155.421, 604.5952
1155.903, 605.2103
1156.385, 606.6906
1156.867, 608.4302
1157.349, 610.1891
1157.831, 611.5428
1158.313, 612.4900
1158.796, 612.7336
1159.278, 612.1215
1159.760, 611.6627
1160.242, 612.3992
1160.724, 613.4890
1161.206, 614.3895
1161.688, 615.0446
1162.170, 615.0927
1162.652, 614.4196
1163.135, 614.4721
1163.617, 615.8608
1164.099, 617.4150
1164.581, 617.9271
1165.063, 617.9564
1165.545, 618.0256
1166.027, 618.1823
1166.509, 618.6140
1166.992, 619.3857
1167.474, 620.0267
1167.956, 620.1926
1168.438, 620.4066
1168.920, 621.6282
1169.402, 623.2211
1169.884, 624.3144
1170.366, 624.6962
1170.849, 624.5108
1171.331, 623.4918
1171.813, 622.8936
1172.295, 623.8420
1172.777, 625.2433
1173.259, 624.8173
1173.741, 623.5974
1174.223, 623.6682
1174.705, 627.3210
1175.188, 629.0491
1175.670, 628.2059
1176.152, 626.9980
1176.634, 627.0340
1177.116, 627.8765
1177.598, 628.9785
1178.080, 630.1397
1178.562, 630.8085
1179.044, 630.1194
1179.527, 630.0224
1180.009, 630.9327
1180.491, 631.9057
1180.973, 631.6698
1181.455, 630.9521
1181.937, 631.8409
1182.419, 633.9809
1182.901, 635.3069
1183.384, 634.3223
1183.866, 633.3639
1184.348, 632.5939
1184.830, 632.3746
1185.312, 633.7653
1185.794, 635.9414
1186.276, 636.2187
1186.758, 634.6583
1187.240, 634.1420
1187.723, 637.2133
1188.205, 639.6917
1188.687, 640.2936
1189.169, 640.1740
1189.651, 641.6990
1190.133, 644.0456
1190.615, 644.1341
1191.097, 641.5528
1191.579, 639.9619
1192.062, 642.2151
1192.544, 644.2080
1193.026, 644.4875
1193.508, 643.8124
1193.990, 643.7778
1194.472, 644.2228
1194.954, 644.5041
1195.436, 644.4682
1195.919, 644.7383
1196.401, 646.1168
1196.883, 647.2663
1197.365, 647.4969
1197.847, 647.2283
1198.329, 647.9792
1198.811, 649.3331
1199.293, 649.4517
1199.776, 647.4918
1200.258, 646.0946
1200.740, 646.6996
1201.222, 648.0315
1201.704, 649.7512
1202.186, 651.5488
1202.668, 651.6729
1203.150, 650.6547
1203.632, 650.7651
1204.115, 653.1638
1204.597, 655.4886
1205.079, 656.9941
1205.561, 657.6696
1206.043, 657.0754
1206.525, 655.6827
1207.007, 656.1281
1207.489, 658.0691
1207.971, 660.0803
1208.454, 662.1613
1208.936, 663.0651
1209.418, 660.8834
1209.900, 658.5836
1210.382, 658.1076
1210.864, 659.2219
1211.346, 660.6541
1211.828, 662.2960
1212.311, 663.5587
1212.793, 663.9299
1213.275, 664.2830
1213.757, 665.0092
1214.239, 665.7842
1214.721, 666.3604
1215.203, 666.7631
1215.685, 667.2193
1216.167, 667.7006
1216.650, 668.0605
1217.132, 667.7360
1217.614, 667.9505
1218.096, 669.6097
1218.578, 671.4000
1219.060, 672.0222
1219.542, 671.6993
1220.024, 672.1682
1220.506, 673.2531
1220.989, 673.8186
1221.471, 672.6674
1221.953, 671.7491
1222.435, 671.4904
1222.917, 671.8242
1223.399, 673.1353
1223.881, 675.0506
1224.363, 675.4249
1224.846, 674.4407
1225.328, 673.6231
1225.810, 673.6586
1226.292, 674.0377
1226.774, 674.4688
1227.256, 675.3203
1227.738, 677.5537
1228.220, 680.5406
1228.703, 681.8466
1229.185, 681.5635
1229.667, 681.2724
1230.149, 681.1608
1230.631, 681.9539
1231.113, 684.1508
1231.595, 686.6857
1232.077, 688.2748
1232.559, 689.0930
1233.042, 689.3746
1233.524, 689.2386
1234.006, 689.4418
1234.488, 691.1805
1234.970, 691.9238
1235.452, 690.8513
1235.934, 689.2562
1236.416, 688.9219
1236.898, 689.3841
1237.381, 689.6490
1237.863, 689.6592
1238.345, 689.7077
1238.827, 689.4794
1239.309, 690.0872
1239.791, 692.0413
1240.273, 694.2407
1240.755, 695.2825
1241.238, 695.5169
1241.720, 695.4164
1242.202, 695.0726
1242.684, 694.8494
1243.166, 694.3431
1243.648, 695.0865
1244.130, 697.7683
1244.612, 700.7037
1245.094, 701.4991
1245.577, 701.2278
1246.059, 701.3505
1246.541, 702.0031
1247.023, 703.1180
1247.505, 705.0185
1247.987, 706.2944
1248.469, 706.5751
1248.951, 706.3901
1249.433, 706.0450
1249.916, 705.8387
1250.398, 706.2527
1250.880, 707.2831
1251.362, 708.1349
1251.844, 708.8583
1252.326, 708.9446
1252.808, 708.0714
1253.290, 707.4503
1253.773, 708.8163
1254.255, 710.7688
1254.737, 712.0980
1255.219, 712.6716
1255.701, 712.4050
1256.183, 711.0863
1256.665, 710.9480
1257.147, 712.6744
1257.630, 714.6644
1258.112, 715.6940
1258.594, 716.1315
1259.076, 716.0828
1259.558, 715.7034
1260.040, 715.3867
1260.522, 715.1412
1261.004, 715.6443
1261.486, 717.1518
1261.969, 718.6752
1262.451, 719.1976
1262.933, 719.7507
1263.415, 721.2175
1263.897, 723.1964
1264.379, 724.2676
1264.861, 724.5389
1265.343, 724.7689
1265.825, 725.1200
1266.308, 725.4085
1266.790, 725.4113
1267.272, 725.4313
1267.754, 725.4016
1268.236, 725.6529
1268.718, 727.6217
1269.200, 730.6573
1269.682, 732.1109
1270.165, 731.2914
1270.647, 730.8843
1271.129, 732.3402
1271.611, 734.0836
1272.093, 735.9094
1272.575, 737.3567
1273.057, 736.9958
1273.539, 735.6970
1274.021, 735.5617
1274.504, 737.0647
1274.986, 738.0741
1275.468, 737.7059
1275.950, 737.9552
1276.432, 739.6857
1276.914, 741.7440
1277.396, 742.5683
1277.878, 742.4347
1278.360, 741.4133
1278.843, 739.4760
1279.325, 738.7528
1279.807, 739.5461
1280.289, 740.8115
1280.771, 742.4150
1281.253, 743.9281
1281.735, 744.3854
1282.217, 744.8103
1282.700, 746.8578
1283.182, 750.3968
1283.664, 751.6310
1284.146, 750.3210
1284.628, 749.2987
1285.110, 749.1934
1285.592, 749.8262
1286.074, 751.2784
1286.557, 753.1747
1287.039, 755.7863
1287.521, 758.5410
1288.003, 758.8943
1288.485, 757.0973
1288.967, 756.2885
1289.449, 757.2582
1289.931, 758.3131
1290.413, 758.3483
1290.896, 758.2715
1291.378, 758.4929
1291.860, 758.9703
1292.342, 759.7347
1292.824, 760.6544
1293.306, 761.2734
1293.788, 761.5113
1294.270, 761.5751
1294.752, 761.5887
1295.235, 761.2697
1295.717, 760.2633
1296.199, 759.3621
1296.681, 760.0615
1297.163, 761.7968
1297.645, 763.8265
1298.127, 766.0453
1298.609, 767.3875
1299.092, 767.5817
1299.574, 767.2728
1300.056, 766.4496
1300.538, 765.8092
1301.020, 766.6215
1301.502, 767.8285
1301.984, 768.0224
1302.466, 767.2579
1302.948, 767.4354
1303.431, 768.7595
1303.913, 769.6994
1304.395, 770.1098
1304.877, 769.5306
##END=



