##NAMES=Pargasite
##RRUFFID=R060072
##IDEAL CHEMISTRY=NaCa_2_(Mg_4_Al)(Si_6_Al_2_)O_22_(OH)_2_
##LOCALITY=Pein Pyit, Mogok, Burma
##OWNER=RRUFF
##SOURCE=Marcus Origlieri
##DESCRIPTION=Pale green prismatic crystal embedded in calcite
##STATUS=The identification of this mineral has been confirmed by X-ray diffraction and chemical analysis
##URL=rruff.info/R060072
##MEASURED CHEMISTRY=(Na_0.81_K_0.19_)_Σ=1_(Ca_1.90_Na_0.10_)_Σ=2_(Mg_3.46_Al_0.45_Fe^2+^_0.05_Ti_0.04_)_Σ=4_Al_1.00_(Si_5.57_Al_2.43_)_Σ=8_O_22_(OH)_2_
92.02539, 222497.3
92.50751, 219310.0
92.98962, 219414.1
93.47174, 221707.8
93.95386, 225507.7
94.43597, 228575.1
94.91809, 230382.9
95.40021, 231297.3
95.88232, 231580.8
96.36444, 231092.0
96.84656, 230184.5
97.32867, 229043.0
97.81078, 227768.8
98.29290, 226449.8
98.77502, 224995.3
99.25713, 223036.1
99.73925, 221208.8
100.2214, 219582.3
100.7035, 218062.5
101.1856, 216552.8
101.6677, 215043.9
102.1498, 213627.8
102.6320, 212417.5
103.1141, 211422.8
103.5962, 210630.0
104.0783, 210107.9
104.5604, 209724.4
105.0425, 209321.5
105.5247, 208828.3
106.0068, 208348.8
106.4889, 208034.1
106.9710, 207876.1
107.4531, 207744.8
107.9352, 207591.5
108.4173, 207412.1
108.8995, 207202.5
109.3816, 206935.4
109.8637, 206640.7
110.3458, 206351.9
110.8279, 206067.5
111.3100, 205788.7
111.7922, 205504.3
112.2743, 205194.1
112.7564, 204946.4
113.2385, 204804.3
113.7206, 204719.7
114.2027, 204665.4
114.6849, 204634.4
115.1670, 204608.9
115.6491, 204526.7
116.1312, 204321.6
116.6133, 204127.3
117.0954, 203998.1
117.5776, 203888.4
118.0597, 203718.6
118.5418, 203422.7
119.0239, 202995.8
119.5060, 202681.2
119.9881, 202535.2
120.4703, 202418.4
120.9524, 202254.1
121.4345, 202054.6
121.9166, 201898.8
122.3987, 201871.8
122.8808, 201999.7
123.3630, 202084.3
123.8451, 202102.6
124.3272, 202088.1
124.8093, 202077.2
125.2914, 202078.2
125.7735, 202062.4
126.2557, 201995.0
126.7378, 201884.8
127.2199, 201737.5
127.7020, 201514.0
128.1841, 201248.2
128.6662, 201056.1
129.1483, 200984.3
129.6305, 200962.7
130.1126, 200928.8
130.5947, 200885.1
131.0768, 200856.8
131.5589, 200880.8
132.0410, 200968.7
132.5232, 201019.7
133.0053, 200989.1
133.4874, 200940.6
133.9695, 200901.4
134.4516, 200878.3
134.9337, 200866.0
135.4159, 200857.0
135.8980, 200855.0
136.3801, 200848.8
136.8622, 200824.7
137.3443, 200802.8
137.8264, 200798.5
138.3086, 200817.6
138.7907, 200857.0
139.2728, 200909.3
139.7549, 200983.7
140.2370, 201060.9
140.7191, 201165.9
141.2013, 201269.2
141.6834, 201325.6
142.1655, 201309.0
142.6476, 201231.4
143.1297, 201145.8
143.6118, 201017.8
144.0939, 200919.8
144.5761, 200906.2
145.0582, 200959.9
145.5403, 200994.4
146.0224, 200938.5
146.5045, 200832.9
146.9866, 200796.2
147.4688, 200856.7
147.9509, 200968.5
148.4330, 201103.9
148.9151, 201269.5
149.3972, 201416.3
149.8793, 201515.7
150.3615, 201577.7
150.8436, 201604.9
151.3257, 201582.9
151.8078, 201532.8
152.2899, 201505.3
152.7720, 201514.1
153.2542, 201519.6
153.7363, 201481.8
154.2184, 201432.7
154.7005, 201424.2
155.1826, 201500.2
155.6647, 201649.4
156.1469, 201757.1
156.6290, 201764.0
157.1111, 201783.8
157.5932, 201855.0
158.0753, 201963.4
158.5574, 202077.6
159.0396, 202175.5
159.5217, 202260.4
160.0038, 202291.8
160.4859, 202236.5
160.9680, 202166.0
161.4501, 202096.8
161.9323, 202036.8
162.4144, 201993.1
162.8965, 201969.4
163.3786, 201959.4
163.8607, 202024.6
164.3428, 202242.7
164.8250, 202476.3
165.3071, 202615.8
165.7892, 202647.1
166.2713, 202647.5
166.7534, 202721.1
167.2355, 202887.6
167.7177, 202975.5
168.1998, 202917.7
168.6819, 202789.3
169.1640, 202679.2
169.6461, 202602.8
170.1282, 202555.3
170.6104, 202526.6
171.0925, 202513.5
171.5746, 202545.7
172.0567, 202659.7
172.5388, 202830.6
173.0209, 202993.0
173.5031, 203155.0
173.9852, 203271.4
174.4673, 203306.4
174.9494, 203265.3
175.4315, 203197.1
175.9136, 203119.9
176.3958, 203034.7
176.8779, 202985.0
177.3600, 203026.9
177.8421, 203064.0
178.3242, 203017.4
178.8063, 202894.3
179.2885, 202785.1
179.7706, 202792.2
180.2527, 202942.1
180.7348, 203095.5
181.2169, 203281.5
181.6990, 203441.1
182.1812, 203530.6
182.6633, 203548.3
183.1454, 203532.7
183.6275, 203543.2
184.1096, 203622.0
184.5917, 203632.0
185.0738, 203494.2
185.5560, 203351.8
186.0381, 203316.3
186.5202, 203411.3
187.0023, 203569.3
187.4844, 203674.6
187.9665, 203673.3
188.4487, 203702.6
188.9308, 203766.9
189.4129, 203857.2
189.8950, 203979.6
190.3771, 204134.3
190.8592, 204291.0
191.3414, 204388.6
191.8235, 204412.5
192.3056, 204403.8
192.7877, 204343.3
193.2698, 204258.9
193.7519, 204190.6
194.2341, 204154.9
194.7162, 204131.4
195.1983, 204061.9
195.6804, 203909.1
196.1625, 203831.1
196.6446, 203931.8
197.1268, 204142.0
197.6089, 204305.0
198.0910, 204364.6
198.5731, 204358.9
199.0552, 204352.7
199.5373, 204348.8
200.0195, 204331.8
200.5016, 204284.8
200.9837, 204213.9
201.4658, 204148.3
201.9479, 204079.7
202.4300, 204041.0
202.9122, 204066.7
203.3943, 204162.4
203.8764, 204279.0
204.3585, 204385.8
204.8406, 204483.5
205.3227, 204565.5
205.8048, 204606.3
206.2870, 204649.5
206.7691, 204742.7
207.2512, 204889.3
207.7333, 205023.3
208.2154, 205053.4
208.6975, 204954.2
209.1797, 204903.1
209.6618, 204988.2
210.1439, 205090.7
210.6260, 205136.1
211.1081, 205115.4
211.5902, 205083.6
212.0724, 205117.8
212.5545, 205245.5
213.0366, 205354.9
213.5187, 205404.7
214.0008, 205457.7
214.4829, 205568.4
214.9651, 205739.9
215.4472, 205919.0
215.9293, 206024.4
216.4114, 206014.3
216.8935, 206011.9
217.3756, 206018.8
217.8578, 206031.9
218.3399, 206049.7
218.8220, 206071.9
219.3041, 206099.0
219.7862, 206129.5
220.2683, 206148.2
220.7505, 206206.7
221.2326, 206335.8
221.7147, 206481.5
222.1968, 206607.1
222.6789, 206702.5
223.1610, 206774.5
223.6432, 206831.4
224.1253, 206859.4
224.6074, 206900.3
225.0895, 206969.8
225.5716, 207043.1
226.0537, 207097.0
226.5358, 207126.0
227.0180, 207141.0
227.5001, 207156.7
227.9822, 207175.5
228.4643, 207183.4
228.9464, 207158.9
229.4285, 207132.4
229.9107, 207142.4
230.3928, 207198.7
230.8749, 207269.3
231.3570, 207315.4
231.8391, 207337.2
232.3212, 207347.0
232.8034, 207328.0
233.2855, 207306.3
233.7676, 207326.7
234.2497, 207404.6
234.7318, 207483.0
235.2139, 207477.0
235.6961, 207399.4
236.1782, 207359.2
236.6603, 207399.2
237.1424, 207488.6
237.6245, 207578.4
238.1066, 207658.1
238.5888, 207754.0
239.0709, 207910.7
239.5530, 208107.7
240.0351, 208284.7
240.5172, 208436.8
240.9993, 208550.8
241.4815, 208584.1
241.9636, 208501.7
242.4457, 208420.9
242.9278, 208433.4
243.4099, 208509.5
243.8920, 208596.0
244.3742, 208687.7
244.8563, 208771.8
245.3384, 208801.9
245.8205, 208732.7
246.3026, 208714.6
246.7847, 208877.8
247.2668, 209137.6
247.7490, 209363.5
248.2311, 209503.7
248.7132, 209568.9
249.1953, 209580.4
249.6774, 209522.5
250.1595, 209440.8
250.6417, 209326.5
251.1238, 209211.2
251.6059, 209143.1
252.0880, 209157.2
252.5701, 209215.7
253.0522, 209216.3
253.5344, 209115.5
254.0165, 209043.9
254.4986, 209022.6
254.9807, 209052.8
255.4628, 209151.8
255.9449, 209337.2
256.4271, 209559.6
256.9092, 209701.2
257.3913, 209727.5
257.8734, 209733.6
258.3555, 209722.7
258.8376, 209713.9
259.3198, 209722.5
259.8019, 209754.3
260.2840, 209810.3
260.7661, 209894.4
261.2482, 210016.9
261.7303, 210148.4
262.2125, 210284.4
262.6946, 210425.3
263.1767, 210571.3
263.6588, 210722.7
264.1409, 210875.6
264.6230, 211032.0
265.1052, 211226.3
265.5873, 211346.7
266.0694, 211356.4
266.5515, 211323.9
267.0336, 211287.4
267.5157, 211260.5
267.9979, 211245.5
268.4800, 211245.0
268.9621, 211250.1
269.4442, 211294.5
269.9263, 211404.5
270.4084, 211527.9
270.8906, 211644.0
271.3727, 211744.0
271.8548, 211816.1
272.3369, 211843.3
272.8190, 211811.3
273.3011, 211783.8
273.7833, 211766.9
274.2654, 211750.5
274.7475, 211723.5
275.2296, 211689.5
275.7117, 211666.2
276.1938, 211673.5
276.6760, 211719.1
277.1581, 211750.7
277.6402, 211736.3
278.1223, 211740.8
278.6044, 211787.6
279.0865, 211879.0
279.5686, 212018.4
280.0508, 212219.3
280.5329, 212484.1
281.0150, 212646.3
281.4971, 212603.3
281.9792, 212581.5
282.4613, 212705.7
282.9435, 212920.4
283.4256, 213082.4
283.9077, 213093.2
284.3898, 212971.8
284.8719, 212894.2
285.3540, 212856.8
285.8362, 212856.3
286.3183, 212915.0
286.8004, 213007.3
287.2825, 213086.6
287.7646, 213127.4
288.2467, 213144.6
288.7289, 213192.3
289.2110, 213295.2
289.6931, 213396.5
290.1752, 213511.4
290.6573, 213614.6
291.1394, 213665.6
291.6216, 213648.0
292.1037, 213585.8
292.5858, 213523.8
293.0679, 213463.3
293.5500, 213404.3
294.0321, 213330.7
294.5143, 213266.6
294.9964, 213241.4
295.4785, 213263.3
295.9606, 213313.6
296.4427, 213366.1
296.9248, 213415.1
297.4070, 213490.0
297.8891, 213626.5
298.3712, 213768.4
298.8533, 213871.7
299.3354, 213927.8
299.8175, 213942.2
300.2997, 213912.9
300.7818, 213829.8
301.2639, 213765.0
301.7460, 213703.9
302.2281, 213671.2
302.7102, 213690.3
303.1924, 213758.1
303.6745, 213847.2
304.1566, 213941.7
304.6387, 214040.0
305.1208, 214126.7
305.6029, 214200.0
306.0851, 214264.2
306.5672, 214313.5
307.0493, 214353.5
307.5314, 214405.3
308.0135, 214488.7
308.4956, 214586.5
308.9778, 214621.7
309.4599, 214553.3
309.9420, 214485.5
310.4241, 214435.1
310.9062, 214409.5
311.3883, 214435.3
311.8705, 214531.7
312.3526, 214659.1
312.8347, 214719.2
313.3168, 214665.5
313.7989, 214664.9
314.2810, 214807.7
314.7632, 215002.5
315.2453, 215123.2
315.7274, 215133.5
316.2095, 215097.8
316.6916, 215113.7
317.1737, 215213.5
317.6559, 215212.9
318.1380, 214989.9
318.6201, 214724.0
319.1022, 214573.2
319.5843, 214558.4
320.0664, 214627.2
320.5485, 214739.4
321.0306, 214899.5
321.5128, 215079.5
321.9949, 215338.4
322.4770, 215568.0
322.9591, 215703.7
323.4412, 215746.7
323.9233, 215719.1
324.4055, 215619.8
324.8876, 215463.2
325.3697, 215361.1
325.8518, 215337.0
326.3339, 215331.1
326.8160, 215306.3
327.2982, 215283.5
327.7803, 215312.1
328.2624, 215419.6
328.7445, 215582.8
329.2266, 215745.9
329.7087, 215941.0
330.1909, 216082.2
330.6730, 216118.6
331.1551, 216104.4
331.6372, 216114.7
332.1193, 216172.1
332.6014, 216234.6
333.0836, 216236.2
333.5657, 216141.0
334.0478, 216093.0
334.5299, 216116.4
335.0120, 216175.8
335.4941, 216237.5
335.9763, 216299.4
336.4584, 216395.7
336.9405, 216571.8
337.4226, 216840.0
337.9047, 217006.2
338.3868, 217012.3
338.8690, 216985.2
339.3511, 216986.9
339.8332, 217011.5
340.3153, 217026.8
340.7974, 217012.3
341.2795, 216972.2
341.7617, 216930.6
342.2438, 216870.2
342.7259, 216830.2
343.2080, 216825.1
343.6901, 216845.3
344.1722, 216879.2
344.6544, 216922.5
345.1365, 216971.8
345.6186, 217018.7
346.1007, 217064.7
346.5828, 217108.0
347.0649, 217130.6
347.5471, 217161.5
348.0292, 217245.7
348.5113, 217382.7
348.9934, 217509.3
349.4755, 217544.5
349.9576, 217458.9
350.4398, 217396.2
350.9219, 217341.9
351.4040, 217317.1
351.8861, 217345.1
352.3682, 217414.0
352.8503, 217491.2
353.3325, 217552.0
353.8146, 217596.5
354.2967, 217636.1
354.7788, 217674.6
355.2609, 217701.8
355.7430, 217698.6
356.2252, 217686.5
356.7073, 217707.2
357.1894, 217781.5
357.6715, 217871.3
358.1536, 217878.3
358.6357, 217742.9
359.1179, 217611.7
359.5999, 217457.4
360.0821, 217331.0
360.5642, 217297.7
361.0463, 217358.9
361.5284, 217437.1
362.0105, 217427.1
362.4926, 217291.1
362.9748, 217218.4
363.4569, 217280.5
363.9390, 217336.9
364.4211, 217323.6
364.9032, 217251.7
365.3853, 217162.3
365.8675, 217081.0
366.3496, 217010.4
366.8317, 216980.0
367.3138, 217026.8
367.7959, 217067.3
368.2780, 217030.5
368.7602, 216994.5
369.2423, 217081.8
369.7244, 217350.2
370.2065, 217683.8
370.6886, 217845.3
371.1707, 217767.3
371.6529, 217680.5
372.1350, 217610.8
372.6171, 217547.4
373.0992, 217485.5
373.5813, 217423.3
374.0634, 217356.0
374.5456, 217270.4
375.0277, 217164.4
375.5098, 217087.8
375.9919, 217033.4
376.4740, 217024.2
376.9561, 217109.8
377.4383, 217246.8
377.9204, 217336.8
378.4025, 217311.4
378.8846, 217207.5
379.3667, 217122.7
379.8488, 217054.6
380.3310, 217012.3
380.8131, 216997.1
381.2952, 217009.4
381.7773, 217071.1
382.2594, 217203.3
382.7415, 217312.0
383.2237, 217258.7
383.7058, 217044.3
384.1879, 216897.8
384.6700, 216906.1
385.1521, 216970.5
385.6342, 217002.4
386.1164, 217002.6
386.5985, 216999.1
387.0806, 217011.0
387.5627, 217029.9
388.0448, 217039.2
388.5269, 217041.0
389.0091, 217022.0
389.4912, 216951.0
389.9733, 216852.1
390.4554, 216777.9
390.9375, 216737.8
391.4196, 216728.2
391.9018, 216771.0
392.3839, 216857.4
392.8660, 216892.8
393.3481, 216799.0
393.8302, 216666.7
394.3123, 216683.5
394.7945, 216895.6
395.2766, 217089.3
395.7587, 217151.3
396.2408, 217146.9
396.7229, 217197.7
397.2050, 217336.3
397.6872, 217476.8
398.1693, 217519.9
398.6514, 217454.6
399.1335, 217396.9
399.6156, 217366.5
400.0977, 217331.9
400.5798, 217257.8
401.0620, 217154.3
401.5441, 217063.0
402.0262, 217003.0
402.5083, 216980.5
402.9904, 217033.2
403.4725, 217262.6
403.9547, 217430.3
404.4368, 217442.6
404.9189, 217387.5
405.4010, 217386.7
405.8831, 217475.5
406.3652, 217580.3
406.8474, 217588.6
407.3295, 217454.1
407.8116, 217354.5
408.2937, 217315.3
408.7758, 217284.6
409.2579, 217210.8
409.7401, 217115.2
410.2222, 217072.3
410.7043, 217145.3
411.1864, 217316.5
411.6685, 217428.2
412.1506, 217452.2
412.6328, 217445.7
413.1149, 217390.1
413.5970, 217321.8
414.0791, 217287.0
414.5612, 217300.0
415.0433, 217324.1
415.5255, 217297.5
416.0076, 217201.4
416.4897, 217119.8
416.9718, 217053.6
417.4539, 217007.0
417.9360, 216976.4
418.4182, 216966.2
418.9003, 216990.3
419.3824, 217060.4
419.8645, 217171.8
420.3466, 217316.1
420.8287, 217523.5
421.3109, 217695.9
421.7930, 217800.6
422.2751, 217847.4
422.7572, 217833.3
423.2393, 217750.1
423.7214, 217641.8
424.2036, 217547.2
424.6857, 217466.7
425.1678, 217411.3
425.6499, 217398.7
426.1320, 217395.7
426.6141, 217375.1
427.0963, 217338.8
427.5784, 217291.7
428.0605, 217224.1
428.5426, 217153.4
429.0247, 217093.8
429.5068, 217043.8
429.9890, 217052.7
430.4711, 217192.5
430.9532, 217407.0
431.4353, 217514.5
431.9174, 217476.8
432.3995, 217388.0
432.8817, 217254.2
433.3638, 217106.1
433.8459, 217008.0
434.3280, 216979.5
434.8101, 217004.7
435.2922, 217072.7
435.7744, 217200.0
436.2565, 217291.5
436.7386, 217299.9
437.2207, 217304.0
437.7028, 217402.7
438.1849, 217560.3
438.6671, 217622.7
439.1492, 217474.3
439.6313, 217158.4
440.1134, 216933.6
440.5955, 216843.2
441.0776, 216795.0
441.5598, 216790.5
442.0418, 216821.0
442.5240, 216905.3
443.0061, 217037.8
443.4882, 217150.7
443.9703, 217145.8
444.4524, 216992.3
444.9345, 216871.3
445.4167, 216776.4
445.8988, 216723.0
446.3809, 216745.8
446.8630, 216812.3
447.3451, 216864.4
447.8272, 216870.0
448.3094, 216837.5
448.7915, 216775.3
449.2736, 216651.3
449.7557, 216586.1
450.2378, 216685.9
450.7199, 216801.6
451.2021, 216800.2
451.6842, 216675.3
452.1663, 216574.2
452.6484, 216665.8
453.1305, 216891.2
453.6126, 216967.8
454.0948, 216822.7
454.5769, 216663.7
455.0590, 216648.7
455.5411, 216716.5
456.0232, 216765.4
456.5053, 216771.9
456.9875, 216757.2
457.4696, 216728.3
457.9517, 216690.6
458.4338, 216665.9
458.9159, 216659.0
459.3980, 216673.1
459.8802, 216726.9
460.3623, 216826.6
460.8444, 216893.7
461.3265, 216866.3
461.8086, 216831.1
462.2907, 216891.8
462.7729, 217034.6
463.2550, 217142.2
463.7371, 217129.1
464.2192, 217017.1
464.7013, 216932.5
465.1834, 216911.1
465.6656, 216869.1
466.1477, 216754.7
466.6298, 216634.1
467.1119, 216584.3
467.5940, 216620.6
468.0761, 216698.5
468.5583, 216769.3
469.0404, 216836.5
469.5225, 216880.5
470.0046, 216884.1
470.4867, 216882.5
470.9688, 216882.8
471.4510, 216885.2
471.9331, 216886.3
472.4152, 216883.3
472.8973, 216883.5
473.3794, 216911.6
473.8615, 216984.0
474.3437, 217010.5
474.8258, 216945.2
475.3079, 216849.3
475.7900, 216738.6
476.2721, 216624.7
476.7542, 216545.3
477.2364, 216563.8
477.7185, 216626.3
478.2006, 216601.1
478.6827, 216477.0
479.1648, 216333.8
479.6469, 216186.5
480.1291, 216060.8
480.6112, 216005.1
481.0933, 216045.9
481.5754, 216091.3
482.0575, 216101.7
482.5396, 216084.4
483.0217, 216042.7
483.5038, 215975.5
483.9860, 215916.3
484.4681, 215895.0
484.9502, 215913.8
485.4323, 215953.7
485.9144, 216043.8
486.3965, 216121.0
486.8787, 216150.8
487.3608, 216149.1
487.8429, 216146.8
488.3250, 216156.0
488.8071, 216167.1
489.2892, 216162.7
489.7714, 216130.9
490.2535, 216110.1
490.7356, 216089.3
491.2177, 216087.0
491.6998, 216140.5
492.1819, 216220.9
492.6641, 216255.0
493.1462, 216186.8
493.6283, 216062.2
494.1104, 216023.7
494.5925, 216110.2
495.0746, 216178.1
495.5568, 216187.5
496.0389, 216170.3
496.5210, 216144.0
497.0031, 216111.3
497.4852, 216069.2
497.9673, 216018.2
498.4495, 215956.3
498.9316, 215872.3
499.4137, 215758.7
499.8958, 215654.7
500.3779, 215582.7
500.8600, 215535.4
501.3422, 215495.7
501.8243, 215460.2
502.3064, 215437.7
502.7885, 215437.5
503.2706, 215452.5
503.7527, 215478.1
504.2349, 215514.3
504.7170, 215535.3
505.1991, 215516.0
505.6812, 215454.5
506.1633, 215375.5
506.6454, 215250.4
507.1276, 215142.2
507.6097, 215068.6
508.0918, 215028.7
508.5739, 215038.2
509.0560, 215099.7
509.5381, 215157.4
510.0203, 215101.3
510.5024, 214853.9
510.9845, 214759.6
511.4666, 214986.2
511.9487, 215200.0
512.4308, 215271.7
512.9130, 215233.7
513.3951, 215152.5
513.8772, 215043.9
514.3593, 214960.8
514.8414, 215032.3
515.3235, 215288.0
515.8057, 215469.2
516.2878, 215497.8
516.7699, 215446.8
517.2520, 215356.5
517.7341, 215236.0
518.2162, 215147.1
518.6984, 215130.7
519.1805, 215149.7
519.6626, 215154.9
520.1447, 215147.0
520.6268, 215156.8
521.1089, 215204.1
521.5911, 215271.9
522.0732, 215325.8
522.5553, 215377.6
523.0374, 215389.6
523.5195, 215352.6
524.0016, 215275.8
524.4838, 215143.6
524.9659, 214972.2
525.4480, 214814.8
525.9301, 214705.8
526.4122, 214648.8
526.8943, 214665.3
527.3765, 214875.7
527.8586, 214984.7
528.3407, 214882.4
528.8228, 214734.7
529.3049, 214685.4
529.7870, 214742.5
530.2692, 214806.5
530.7513, 214777.4
531.2334, 214678.4
531.7155, 214663.7
532.1976, 214799.3
532.6797, 214866.0
533.1619, 214662.0
533.6440, 214396.6
534.1261, 214298.1
534.6082, 214418.0
535.0903, 214561.8
535.5724, 214614.2
536.0546, 214598.4
536.5367, 214541.1
537.0188, 214438.7
537.5009, 214387.8
537.9830, 214487.3
538.4651, 214698.5
538.9473, 214801.6
539.4294, 214687.7
539.9115, 214611.3
540.3936, 214691.0
540.8757, 214823.5
541.3578, 214876.3
541.8400, 214826.6
542.3221, 214745.3
542.8042, 214703.6
543.2863, 214702.2
543.7684, 214701.3
544.2505, 214691.2
544.7326, 214696.0
545.2147, 214744.6
545.6968, 214799.9
546.1790, 214819.9
546.6611, 214795.5
547.1432, 214751.6
547.6253, 214704.0
548.1074, 214655.8
548.5895, 214645.1
549.0717, 214690.3
549.5538, 214737.6
550.0359, 214732.7
550.5180, 214714.6
551.0001, 214748.2
551.4822, 214859.0
551.9644, 214982.9
552.4465, 215088.1
552.9286, 215175.8
553.4107, 215246.5
553.8928, 215299.5
554.3749, 215343.2
554.8571, 215381.3
555.3392, 215413.8
555.8213, 215466.2
556.3034, 215581.4
556.7855, 215660.1
557.2676, 215644.8
557.7498, 215594.7
558.2319, 215581.3
558.7140, 215620.1
559.1961, 215677.8
559.6782, 215727.8
560.1603, 215770.9
560.6425, 215742.5
561.1246, 215567.3
561.6067, 215432.8
562.0888, 215418.3
562.5709, 215459.7
563.0530, 215485.8
563.5352, 215479.4
564.0173, 215468.3
564.4994, 215477.3
564.9815, 215501.1
565.4636, 215520.5
565.9457, 215532.7
566.4279, 215547.1
566.9100, 215566.3
567.3921, 215594.2
567.8742, 215640.3
568.3563, 215713.7
568.8384, 215789.2
569.3206, 215889.9
569.8027, 215971.7
570.2848, 215949.9
570.7669, 215829.4
571.2490, 215731.5
571.7311, 215770.9
572.2133, 215930.2
572.6954, 216016.8
573.1775, 215976.3
573.6596, 215933.9
574.1417, 215880.2
574.6238, 215848.3
575.1060, 215880.8
575.5881, 215974.2
576.0702, 216071.4
576.5523, 216121.1
577.0344, 216137.9
577.5165, 216186.0
577.9987, 216281.8
578.4808, 216337.0
578.9629, 216285.1
579.4450, 216191.0
579.9271, 216145.3
580.4092, 216153.6
580.8914, 216179.5
581.3735, 216218.7
581.8556, 216262.2
582.3377, 216305.5
582.8198, 216345.1
583.3019, 216365.2
583.7841, 216350.9
584.2662, 216324.0
584.7483, 216345.5
585.2304, 216425.4
585.7125, 216540.0
586.1946, 216786.8
586.6768, 216979.9
587.1589, 216958.3
587.6410, 216783.2
588.1231, 216629.3
588.6052, 216595.8
589.0873, 216647.6
589.5695, 216729.5
590.0516, 216851.5
590.5337, 216929.2
591.0158, 216927.0
591.4979, 216898.3
591.9800, 216899.0
592.4622, 216916.5
592.9443, 216895.8
593.4264, 216772.6
593.9085, 216648.9
594.3906, 216618.1
594.8727, 216655.5
595.3549, 216694.4
595.8370, 216714.6
596.3191, 216726.4
596.8012, 216737.4
597.2833, 216741.1
597.7654, 216795.2
598.2476, 217009.3
598.7297, 217140.6
599.2118, 217050.9
599.6939, 216863.1
600.1760, 216735.9
600.6581, 216714.3
601.1403, 216731.5
601.6224, 216694.5
602.1045, 216608.6
602.5866, 216625.3
603.0687, 216796.8
603.5508, 216953.2
604.0330, 216967.5
604.5151, 216936.5
604.9972, 216998.0
605.4793, 217194.0
605.9614, 217347.0
606.4435, 217348.9
606.9257, 217264.8
607.4078, 217164.0
607.8899, 217060.6
608.3720, 216988.8
608.8541, 216973.5
609.3362, 217001.7
609.8184, 217030.8
610.3005, 217042.1
610.7826, 217086.5
611.2647, 217209.5
611.7468, 217326.3
612.2289, 217372.0
612.7111, 217364.5
613.1932, 217366.6
613.6753, 217419.3
614.1574, 217484.0
614.6395, 217475.5
615.1216, 217385.5
615.6038, 217330.9
616.0859, 217345.3
616.5680, 217381.4
617.0501, 217397.3
617.5322, 217400.0
618.0143, 217416.5
618.4965, 217485.2
618.9786, 217530.5
619.4607, 217466.3
619.9428, 217356.8
620.4249, 217333.4
620.9070, 217424.6
621.3892, 217541.1
621.8713, 217589.8
622.3534, 217572.8
622.8355, 217596.9
623.3176, 217732.9
623.7997, 217820.5
624.2819, 217829.2
624.7640, 217786.5
625.2461, 217683.3
625.7282, 217539.2
626.2103, 217446.4
626.6924, 217505.9
627.1745, 217657.3
627.6566, 217755.9
628.1387, 217800.7
628.6208, 217804.9
629.1030, 217746.5
629.5851, 217682.0
630.0672, 217715.0
630.5493, 217851.2
631.0314, 217942.7
631.5135, 217924.6
631.9957, 217895.5
632.4778, 217922.1
632.9599, 217983.9
633.4420, 218030.3
633.9241, 218042.2
634.4063, 218045.1
634.8884, 218077.7
635.3705, 218145.1
635.8526, 218192.3
636.3347, 218183.0
636.8168, 218203.9
637.2990, 218307.7
637.7811, 218443.5
638.2632, 218561.3
638.7453, 218652.1
639.2274, 218694.5
639.7095, 218639.6
640.1917, 218539.1
640.6738, 218486.4
641.1559, 218487.2
641.6380, 218508.3
642.1201, 218544.7
642.6022, 218569.1
643.0844, 218510.5
643.5665, 218282.3
644.0486, 218156.9
644.5307, 218193.7
645.0128, 218275.4
645.4949, 218357.3
645.9771, 218431.2
646.4592, 218497.8
646.9413, 218557.2
647.4234, 218603.4
647.9055, 218622.8
648.3876, 218615.7
648.8698, 218614.7
649.3519, 218629.5
649.8340, 218632.9
650.3161, 218610.4
650.7982, 218562.5
651.2803, 218478.4
651.7625, 218316.0
652.2446, 218223.9
652.7267, 218317.4
653.2088, 218474.8
653.6909, 218588.0
654.1730, 218636.9
654.6552, 218601.7
655.1373, 218463.3
655.6194, 218268.8
656.1015, 218136.8
656.5836, 218081.8
657.0657, 218055.2
657.5479, 218108.0
658.0300, 218138.5
658.5121, 218079.8
658.9942, 217970.3
659.4763, 217891.2
659.9584, 217876.2
660.4406, 217874.3
660.9227, 217838.2
661.4048, 217779.6
661.8869, 217727.6
662.3690, 217686.0
662.8511, 217648.0
663.3333, 217603.1
663.8154, 217560.8
664.2975, 217561.3
664.7796, 217676.0
665.2617, 217733.2
665.7438, 217691.1
666.2260, 217624.7
666.7081, 217573.8
667.1902, 217543.6
667.6723, 217530.8
668.1544, 217534.7
668.6365, 217552.0
669.1187, 217591.3
669.6008, 217650.5
670.0829, 217650.5
670.5650, 217553.3
671.0471, 217470.3
671.5292, 217511.4
672.0114, 217631.3
672.4935, 217662.8
672.9756, 217543.2
673.4577, 217438.5
673.9398, 217409.5
674.4219, 217408.3
674.9041, 217396.2
675.3862, 217366.7
675.8683, 217320.7
676.3504, 217257.1
676.8325, 217183.9
677.3146, 217112.8
677.7968, 217035.3
678.2789, 217001.3
678.7610, 217014.1
679.2431, 217076.8
679.7252, 217246.3
680.2073, 217454.3
680.6895, 217555.9
681.1716, 217499.1
681.6537, 217390.3
682.1358, 217248.5
682.6179, 217112.0
683.1000, 217049.4
683.5822, 217057.4
684.0643, 217061.2
684.5464, 217010.4
685.0285, 216927.8
685.5106, 216879.1
685.9927, 216873.6
686.4749, 216880.8
686.9570, 216909.4
687.4391, 216942.4
687.9212, 217009.0
688.4033, 217067.6
688.8854, 217032.5
689.3676, 216859.7
689.8497, 216666.9
690.3318, 216535.7
690.8139, 216461.7
691.2960, 216449.7
691.7781, 216497.7
692.2603, 216555.7
692.7424, 216597.5
693.2245, 216622.2
693.7066, 216627.5
694.1887, 216599.7
694.6708, 216577.1
695.1530, 216540.6
695.6351, 216526.2
696.1172, 216557.1
696.5993, 216619.3
697.0814, 216705.2
697.5635, 216815.5
698.0457, 216878.5
698.5278, 216772.2
699.0099, 216561.5
699.4920, 216473.3
699.9741, 216531.8
700.4562, 216575.8
700.9384, 216511.2
701.4205, 216395.0
701.9026, 216354.5
702.3847, 216451.1
702.8668, 216459.7
703.3489, 216268.1
703.8311, 216103.0
704.3132, 216104.2
704.7953, 216198.0
705.2774, 216258.7
705.7595, 216247.3
706.2416, 216220.5
706.7238, 216250.5
707.2059, 216317.3
707.6880, 216315.1
708.1701, 216226.2
708.6522, 216193.6
709.1343, 216301.5
709.6164, 216465.5
710.0985, 216552.2
710.5806, 216550.4
711.0627, 216553.5
711.5449, 216567.8
712.0270, 216586.1
712.5091, 216633.0
712.9912, 216668.7
713.4733, 216616.5
713.9554, 216471.4
714.4376, 216338.3
714.9197, 216334.3
715.4018, 216418.2
715.8839, 216430.4
716.3660, 216367.8
716.8481, 216250.1
717.3303, 216029.0
717.8124, 215831.8
718.2945, 215841.1
718.7766, 216039.2
719.2587, 216171.0
719.7408, 216166.9
720.2230, 216150.3
720.7051, 216190.6
721.1872, 216232.3
721.6693, 216189.4
722.1514, 216066.5
722.6335, 215958.7
723.1157, 215946.6
723.5978, 215984.7
724.0799, 215944.3
724.5620, 215815.6
725.0441, 215702.4
725.5262, 215621.8
726.0084, 215565.9
726.4905, 215535.8
726.9726, 215526.4
727.4547, 215519.8
727.9368, 215520.7
728.4189, 215516.7
728.9011, 215491.2
729.3832, 215469.5
729.8653, 215474.2
730.3474, 215506.3
730.8295, 215573.0
731.3116, 215685.1
731.7938, 215777.2
732.2759, 215701.4
732.7580, 215454.5
733.2401, 215296.8
733.7222, 215266.8
734.2043, 215280.8
734.6865, 215309.4
735.1686, 215342.8
735.6507, 215356.5
736.1328, 215338.1
736.6149, 215340.0
737.0970, 215410.6
737.5792, 215468.7
738.0613, 215424.8
738.5434, 215332.7
739.0255, 215322.5
739.5076, 215432.5
739.9897, 215536.0
740.4719, 215459.2
740.9540, 215233.0
741.4361, 215081.3
741.9182, 215013.1
742.4003, 214977.3
742.8824, 214961.0
743.3646, 214962.2
743.8467, 214977.3
744.3288, 215005.7
744.8109, 215055.8
745.2930, 215205.8
745.7751, 215287.7
746.2573, 215196.8
746.7394, 215022.5
747.2215, 214838.8
747.7036, 214679.9
748.1857, 214599.8
748.6678, 214663.8
749.1500, 214796.1
749.6321, 214826.5
750.1142, 214755.7
750.5963, 214647.6
751.0784, 214501.4
751.5605, 214359.2
752.0427, 214235.4
752.5248, 214143.2
753.0069, 214152.5
753.4890, 214423.0
753.9711, 214538.3
754.4532, 214313.2
754.9354, 214031.7
755.4175, 213880.7
755.8996, 213842.5
756.3817, 213843.0
756.8638, 213854.5
757.3459, 213838.3
757.8281, 213711.5
758.3102, 213516.2
758.7923, 213429.2
759.2744, 213465.5
759.7565, 213508.9
760.2386, 213496.8
760.7208, 213474.7
761.2029, 213527.1
761.6850, 213684.8
762.1671, 213793.7
762.6492, 213877.5
763.1313, 213889.5
763.6135, 213754.9
764.0956, 213578.3
764.5777, 213486.8
765.0598, 213487.7
765.5419, 213468.6
766.0240, 213324.5
766.5062, 213148.0
766.9883, 213081.3
767.4704, 213099.7
767.9525, 213099.6
768.4346, 213055.1
768.9167, 213012.6
769.3989, 213013.9
769.8810, 213051.9
770.3631, 213083.7
770.8452, 213091.7
771.3273, 213124.3
771.8094, 213225.4
772.2916, 213309.6
772.7737, 213326.9
773.2558, 213293.2
773.7379, 213242.9
774.2200, 213182.0
774.7021, 213121.0
775.1843, 213066.4
775.6664, 213016.7
776.1485, 212949.9
776.6306, 212882.0
777.1127, 212890.4
777.5948, 213011.5
778.0770, 213166.5
778.5591, 213234.4
779.0412, 213210.8
779.5233, 213197.5
780.0054, 213187.2
780.4875, 213205.2
780.9697, 213327.6
781.4518, 213429.3
781.9339, 213361.8
782.4160, 213139.6
782.8981, 212951.5
783.3802, 212838.0
783.8624, 212774.8
784.3445, 212759.4
784.8266, 212781.5
785.3087, 212827.9
785.7908, 212898.2
786.2729, 213009.2
786.7551, 213179.0
787.2372, 213366.8
787.7193, 213497.7
788.2014, 213570.5
788.6835, 213577.7
789.1656, 213508.8
789.6478, 213402.7
790.1299, 213264.9
790.6120, 213117.3
791.0941, 213012.3
791.5762, 212947.0
792.0583, 212929.8
792.5404, 213003.3
793.0225, 213079.8
793.5046, 213090.9
793.9868, 213094.1
794.4689, 213185.0
794.9510, 213374.2
795.4331, 213562.2
795.9152, 213702.2
796.3973, 213775.2
796.8795, 213733.7
797.3616, 213590.9
797.8437, 213389.8
798.3258, 213135.1
798.8079, 212932.5
799.2900, 212888.6
799.7722, 212966.7
800.2543, 212962.0
800.7364, 212798.9
801.2185, 212705.3
801.7006, 212781.4
802.1827, 212847.7
802.6649, 212782.6
803.1470, 212661.3
803.6291, 212635.1
804.1112, 212753.5
804.5933, 212867.3
805.0754, 212864.2
805.5576, 212853.5
806.0397, 212993.9
806.5218, 213213.3
807.0039, 213312.3
807.4860, 213228.4
807.9681, 213084.0
808.4503, 213005.4
808.9324, 212986.2
809.4145, 212992.2
809.8966, 213021.8
810.3787, 213089.2
810.8608, 213218.0
811.3430, 213346.6
811.8251, 213424.9
812.3072, 213452.6
812.7893, 213446.1
813.2714, 213421.8
813.7535, 213336.9
814.2357, 213095.0
814.7178, 212872.2
815.1999, 212802.9
815.6820, 212845.9
816.1641, 212904.3
816.6462, 212945.0
817.1284, 212983.1
817.6105, 213053.4
818.0926, 213122.5
818.5747, 213103.3
819.0568, 213011.5
819.5389, 212960.0
820.0211, 212990.2
820.5032, 213047.6
820.9853, 213071.2
821.4674, 213062.8
821.9495, 213058.2
822.4316, 213071.3
822.9138, 213054.0
823.3959, 212965.1
823.8780, 212874.6
824.3601, 212819.4
824.8422, 212798.6
825.3243, 212819.1
825.8065, 212922.4
826.2886, 212968.0
826.7707, 212785.5
827.2528, 212621.7
827.7349, 212759.2
828.2170, 213083.7
828.6992, 213322.6
829.1813, 213379.5
829.6634, 213335.8
830.1455, 213253.7
830.6276, 213147.0
831.1097, 213054.8
831.5919, 212977.8
832.0740, 212946.1
832.5561, 212985.2
833.0382, 212992.8
833.5203, 212844.6
834.0024, 212575.3
834.4846, 212454.8
834.9667, 212563.1
835.4488, 212689.4
835.9309, 212859.7
836.4130, 213003.3
836.8951, 213083.5
837.3773, 213111.3
837.8594, 213101.2
838.3415, 213051.5
838.8236, 213007.9
839.3057, 213021.9
839.7878, 213030.5
840.2700, 212967.6
840.7521, 212853.9
841.2342, 212736.3
841.7163, 212629.3
842.1984, 212522.8
842.6805, 212405.9
843.1627, 212287.9
843.6448, 212183.0
844.1269, 212091.1
844.6090, 212077.6
845.0911, 212169.3
845.5732, 212291.5
846.0554, 212405.5
846.5375, 212503.3
847.0196, 212565.4
847.5017, 212618.3
847.9838, 212565.5
848.4659, 212252.3
848.9481, 212013.5
849.4302, 212035.0
849.9123, 212164.1
850.3944, 212193.3
850.8765, 212107.8
851.3586, 212091.3
851.8408, 212300.5
852.3229, 212551.1
852.8050, 212701.5
853.2871, 212779.6
853.7692, 212835.0
854.2513, 212870.8
854.7335, 212842.0
855.2156, 212711.9
855.6977, 212563.8
856.1798, 212593.5
856.6619, 212791.3
857.1440, 212834.3
857.6262, 212684.0
858.1083, 212493.0
858.5904, 212296.8
859.0725, 212146.0
859.5546, 212128.5
860.0367, 212262.3
860.5189, 212333.3
861.0010, 212245.6
861.4831, 212230.6
861.9652, 212392.8
862.4473, 212583.4
862.9294, 212722.8
863.4116, 212794.1
863.8937, 212773.4
864.3758, 212636.2
864.8579, 212466.8
865.3400, 212279.5
865.8221, 212115.5
866.3043, 212021.8
866.7864, 211992.3
867.2685, 212005.3
867.7506, 212052.4
868.2327, 212138.1
868.7148, 212278.5
869.1970, 212452.5
869.6791, 212598.1
870.1612, 212714.3
870.6433, 212793.2
871.1254, 212833.1
871.6075, 212833.9
872.0897, 212796.3
872.5718, 212718.3
873.0539, 212587.8
873.5360, 212340.8
874.0181, 212188.3
874.5002, 212174.9
874.9823, 212209.3
875.4644, 212304.2
875.9465, 212408.2
876.4286, 212463.3
876.9108, 212466.3
877.3929, 212457.7
877.8750, 212460.1
878.3571, 212445.3
878.8392, 212374.8
879.3214, 212293.7
879.8035, 212263.8
880.2856, 212277.5
880.7677, 212286.0
881.2498, 212266.0
881.7319, 212220.8
882.2141, 212099.8
882.6962, 211964.7
883.1783, 212058.4
883.6604, 212361.3
884.1425, 212548.3
884.6246, 212492.9
885.1068, 212398.4
885.5889, 212497.9
886.0710, 212758.7
886.5531, 212925.8
887.0352, 212989.3
887.5173, 212987.3
887.9995, 212930.2
888.4816, 212798.9
888.9637, 212488.0
889.4458, 212121.3
889.9279, 211964.5
890.4100, 212079.6
890.8922, 212167.3
891.3743, 212132.4
891.8564, 212123.0
892.3385, 212245.0
892.8206, 212403.5
893.3027, 212485.0
893.7849, 212487.4
894.2670, 212486.9
894.7491, 212536.5
895.2312, 212563.8
895.7133, 212490.2
896.1954, 212356.7
896.6776, 212217.5
897.1597, 212084.0
897.6418, 211959.0
898.1239, 211845.3
898.6060, 211762.8
899.0881, 211747.5
899.5703, 211784.2
900.0524, 211794.6
900.5345, 211779.1
901.0166, 211713.5
901.4987, 211560.9
901.9808, 211490.6
902.4630, 211679.1
902.9451, 212025.1
903.4272, 212164.6
903.9093, 211988.8
904.3914, 211859.1
904.8735, 211808.5
905.3557, 211762.8
905.8378, 211687.2
906.3199, 211609.0
906.8020, 211557.0
907.2841, 211532.5
907.7662, 211524.5
908.2484, 211510.4
908.7305, 211537.5
909.2126, 211665.7
909.6947, 211810.2
910.1768, 211876.7
910.6589, 211893.0
911.1411, 211956.9
911.6232, 212106.4
912.1053, 212241.6
912.5874, 212270.0
913.0695, 212234.5
913.5516, 212206.8
914.0338, 212172.5
914.5159, 212062.9
914.9980, 211871.4
915.4801, 211691.8
915.9622, 211593.0
916.4443, 211566.7
916.9265, 211588.3
917.4086, 211658.2
917.8907, 211831.0
918.3728, 212144.2
918.8549, 212366.5
919.3370, 212378.9
919.8192, 212285.8
920.3013, 212221.5
920.7834, 212186.2
921.2655, 212184.3
921.7476, 212316.9
922.2297, 212309.0
922.7119, 211957.6
923.1940, 211619.8
923.6761, 211520.6
924.1582, 211576.7
924.6403, 211617.5
925.1224, 211624.8
925.6046, 211620.5
926.0867, 211559.8
926.5688, 211545.1
927.0509, 211650.5
927.5330, 211818.8
928.0151, 212026.2
928.4973, 212233.2
928.9794, 212323.2
929.4615, 212204.6
929.9436, 212048.4
930.4257, 212014.7
930.9078, 212029.3
931.3900, 211967.8
931.8721, 211852.5
932.3542, 211795.5
932.8363, 211829.3
933.3184, 211852.5
933.8005, 211738.8
934.2827, 211570.6
934.7648, 211600.8
935.2469, 211804.2
935.7290, 211931.8
936.2111, 211941.5
936.6932, 211929.2
937.1754, 211954.7
937.6575, 211975.0
938.1396, 211892.9
938.6217, 211690.2
939.1038, 211631.0
939.5859, 211788.8
940.0681, 211887.9
940.5502, 211820.2
941.0323, 211726.3
941.5144, 211732.2
941.9965, 211810.6
942.4786, 211843.8
942.9608, 211776.3
943.4429, 211779.8
943.9250, 211964.5
944.4071, 212100.2
944.8892, 212077.7
945.3713, 211968.9
945.8535, 211826.6
946.3356, 211671.3
946.8177, 211579.0
947.2998, 211632.0
947.7819, 211663.7
948.2640, 211580.8
948.7462, 211452.2
949.2283, 211287.0
949.7104, 211143.4
950.1925, 211130.7
950.6746, 211276.5
951.1567, 211482.6
951.6389, 211724.3
952.1210, 211939.8
952.6031, 212036.7
953.0852, 212051.1
953.5673, 212058.6
954.0494, 212069.2
954.5316, 212061.5
955.0137, 212024.0
955.4958, 211962.2
955.9779, 211875.8
956.4600, 211771.0
956.9421, 211667.9
957.4242, 211567.4
957.9063, 211512.5
958.3884, 211512.2
958.8705, 211579.2
959.3527, 211734.8
959.8348, 211941.0
960.3169, 212102.4
960.7990, 212239.5
961.2811, 212198.1
961.7632, 211899.7
962.2454, 211640.8
962.7275, 211563.8
963.2096, 211527.4
963.6917, 211367.8
964.1738, 211100.5
964.6559, 210887.2
965.1381, 210719.8
965.6202, 210625.8
966.1023, 210629.5
966.5844, 210680.3
967.0665, 210779.8
967.5486, 210903.5
968.0308, 211033.4
968.5129, 211167.4
968.9950, 211249.8
969.4771, 211265.5
969.9592, 211231.5
970.4413, 211101.3
970.9235, 210968.5
971.4056, 210937.8
971.8877, 210953.0
972.3698, 210873.1
972.8519, 210659.0
973.3340, 210485.3
973.8162, 210443.7
974.2983, 210486.9
974.7804, 210641.0
975.2625, 210818.2
975.7446, 210897.7
976.2267, 210877.8
976.7089, 210809.8
977.1910, 210715.2
977.6731, 210630.7
978.1552, 210630.3
978.6373, 210645.8
979.1194, 210508.0
979.6016, 210284.4
980.0837, 210230.5
980.5658, 210374.3
981.0479, 210465.2
981.5300, 210325.5
982.0121, 210093.1
982.4943, 210008.4
982.9764, 210050.9
983.4585, 210115.2
983.9406, 210195.9
984.4227, 210268.8
984.9048, 210325.5
985.3870, 210377.8
985.8691, 210440.7
986.3512, 210499.1
986.8333, 210500.1
987.3154, 210436.3
987.7975, 210361.3
988.2797, 210263.4
988.7618, 210214.9
989.2439, 210258.5
989.7260, 210340.0
990.2081, 210418.7
990.6902, 210482.5
991.1724, 210399.3
991.6545, 210046.9
992.1366, 209836.7
992.6187, 209854.8
993.1008, 209928.0
993.5829, 209989.1
994.0651, 210053.7
994.5472, 210169.0
995.0293, 210336.9
995.5114, 210389.4
995.9935, 210190.1
996.4756, 210068.1
996.9578, 210168.3
997.4399, 210244.9
997.9220, 210093.8
998.4041, 209858.5
998.8862, 209780.6
999.3683, 209889.8
999.8505, 209992.5
1000.333, 210046.8
1000.815, 210081.4
1001.297, 210098.5
1001.779, 210109.3
1002.261, 210130.2
1002.743, 210150.9
1003.225, 210151.8
1003.707, 210128.5
1004.190, 210082.0
1004.672, 209978.7
1005.154, 209891.3
1005.636, 209900.7
1006.118, 209928.5
1006.600, 209852.7
1007.082, 209709.4
1007.564, 209628.4
1008.046, 209656.2
1008.529, 209724.5
1009.011, 209772.9
1009.493, 209838.9
1009.975, 210002.6
1010.457, 210196.8
1010.939, 210314.8
1011.421, 210339.9
1011.903, 210281.4
1012.385, 210142.8
1012.868, 209979.6
1013.350, 209832.2
1013.832, 209715.5
1014.314, 209687.3
1014.796, 209710.3
1015.278, 209633.6
1015.760, 209459.3
1016.242, 209396.6
1016.725, 209574.7
1017.207, 209837.0
1017.689, 209969.6
1018.171, 209995.4
1018.653, 209967.5
1019.135, 209900.0
1019.617, 209898.0
1020.099, 209981.4
1020.581, 210058.7
1021.064, 210068.3
1021.546, 210028.4
1022.028, 209979.7
1022.510, 209917.6
1022.992, 209751.0
1023.474, 209475.3
1023.956, 209324.8
1024.438, 209363.8
1024.921, 209499.5
1025.403, 209681.3
1025.885, 209859.9
1026.367, 209900.5
1026.849, 209790.5
1027.331, 209754.6
1027.813, 209813.6
1028.295, 209818.8
1028.777, 209716.3
1029.260, 209599.8
1029.742, 209553.3
1030.224, 209538.5
1030.706, 209442.2
1031.188, 209240.8
1031.670, 209074.6
1032.152, 208920.9
1032.634, 208876.8
1033.116, 209015.0
1033.599, 209186.0
1034.081, 209266.2
1034.563, 209284.1
1035.045, 209331.2
1035.527, 209426.2
1036.009, 209487.4
1036.491, 209513.5
1036.973, 209508.9
1037.456, 209468.3
1037.938, 209407.4
1038.420, 209346.3
1038.902, 209275.0
1039.384, 209147.8
1039.866, 208908.5
1040.348, 208776.0
1040.830, 208804.3
1041.313, 208864.1
1041.795, 208962.0
1042.277, 209044.5
1042.759, 209044.6
1043.241, 208995.3
1043.723, 209012.1
1044.205, 209159.8
1044.687, 209192.5
1045.169, 208998.7
1045.651, 208818.0
1046.134, 208698.9
1046.616, 208631.2
1047.098, 208635.5
1047.580, 208679.9
1048.062, 208663.6
1048.544, 208529.1
1049.026, 208502.1
1049.508, 208735.7
1049.991, 208921.2
1050.473, 208908.9
1050.955, 208850.8
1051.437, 208912.5
1051.919, 209031.5
1052.401, 209004.5
1052.883, 208758.8
1053.365, 208580.0
1053.848, 208593.0
1054.330, 208603.4
1054.812, 208553.0
1055.294, 208455.8
1055.776, 208268.5
1056.258, 208057.0
1056.740, 207994.7
1057.222, 208140.7
1057.704, 208234.7
1058.187, 208164.0
1058.669, 208073.6
1059.151, 207947.9
1059.633, 207893.1
1060.115, 208067.2
1060.597, 208365.2
1061.079, 208551.7
1061.561, 208575.8
1062.043, 208539.3
1062.526, 208485.8
1063.008, 208371.0
1063.490, 208096.5
1063.972, 207823.9
1064.454, 207707.7
1064.936, 207703.7
1065.418, 207707.1
1065.900, 207697.2
1066.383, 207671.7
1066.865, 207599.3
1067.347, 207552.0
1067.829, 207601.0
1068.311, 207655.5
1068.793, 207626.9
1069.275, 207547.3
1069.757, 207495.9
1070.240, 207484.9
1070.722, 207437.1
1071.204, 207266.6
1071.686, 207121.1
1072.168, 207115.7
1072.650, 207118.3
1073.132, 206963.4
1073.614, 206761.2
1074.096, 206727.8
1074.578, 206884.0
1075.061, 207031.0
1075.543, 207066.2
1076.025, 207109.4
1076.507, 207288.2
1076.989, 207427.1
1077.471, 207345.8
1077.953, 207151.5
1078.435, 207018.7
1078.918, 206964.9
1079.400, 206895.4
1079.882, 206757.0
1080.364, 206635.0
1080.846, 206577.6
1081.328, 206544.1
1081.810, 206515.0
1082.292, 206486.5
1082.774, 206439.3
1083.257, 206388.0
1083.739, 206400.9
1084.221, 206522.1
1084.703, 206647.9
1085.185, 206793.6
1085.667, 206859.4
1086.149, 206713.9
1086.631, 206498.0
1087.114, 206357.4
1087.596, 206302.2
1088.078, 206303.8
1088.560, 206374.5
1089.042, 206396.2
1089.524, 206247.7
1090.006, 206121.1
1090.488, 206154.2
1090.970, 206239.7
1091.453, 206261.5
1091.935, 206240.1
1092.417, 206248.4
1092.899, 206301.4
1093.381, 206403.8
1093.863, 206689.7
1094.345, 206855.3
1094.827, 206726.2
1095.309, 206447.6
1095.792, 206038.6
1096.274, 205616.7
1096.756, 205388.7
1097.238, 205390.3
1097.720, 205412.8
1098.202, 205397.0
1098.684, 205386.2
1099.166, 205382.8
1099.649, 205404.0
1100.131, 205471.1
1100.613, 205566.0
1101.095, 205683.6
1101.577, 205813.0
1102.059, 205865.9
1102.541, 205770.9
1103.023, 205678.0
1103.505, 205652.7
1103.988, 205600.6
1104.470, 205462.2
1104.952, 205274.1
1105.434, 205037.9
1105.916, 204784.5
1106.398, 204647.2
1106.880, 204659.0
1107.362, 204756.0
1107.844, 205023.1
1108.327, 205252.5
1108.809, 205391.4
1109.291, 205440.9
1109.773, 205331.0
1110.255, 205142.8
1110.737, 205134.2
1111.219, 205416.8
1111.701, 205515.9
1112.184, 205290.6
1112.666, 205031.0
1113.148, 204742.3
1113.630, 204496.5
1114.112, 204342.0
1114.594, 204263.6
1115.076, 204242.5
1115.558, 204285.8
1116.041, 204317.0
1116.523, 204284.7
1117.005, 204331.4
1117.487, 204539.3
1117.969, 204733.5
1118.451, 204857.9
1118.933, 204896.8
1119.415, 204804.6
1119.897, 204596.4
1120.380, 204440.3
1120.862, 204340.9
1121.344, 204276.6
1121.826, 204219.3
1122.308, 204260.6
1122.790, 204477.0
1123.272, 204729.2
1123.754, 204903.5
1124.236, 204995.9
1124.719, 204985.6
1125.201, 204852.3
1125.683, 204727.2
1126.165, 204616.4
1126.647, 204488.5
1127.129, 204320.1
1127.611, 204199.0
1128.093, 204201.5
1128.576, 204254.0
1129.058, 204211.5
1129.540, 204080.7
1130.022, 204005.5
1130.504, 203990.8
1130.986, 203973.3
1131.468, 203940.5
1131.950, 203934.5
1132.432, 203974.8
1132.915, 204053.3
1133.397, 204165.7
1133.879, 204299.3
1134.361, 204421.7
1134.843, 204529.2
1135.325, 204579.6
1135.807, 204569.3
1136.289, 204491.6
1136.771, 204345.4
1137.254, 204170.3
1137.736, 203987.6
1138.218, 203845.7
1138.700, 203876.0
1139.182, 204011.8
1139.664, 203997.7
1140.146, 203877.0
1140.628, 203886.6
1141.111, 204045.1
1141.593, 204132.7
1142.075, 204032.2
1142.557, 203910.6
1143.039, 203990.6
1143.521, 204144.5
1144.003, 204155.2
1144.485, 204076.2
1144.968, 204005.3
1145.450, 203952.0
1145.932, 203889.2
1146.414, 203813.1
1146.896, 203777.0
1147.378, 203834.4
1147.860, 203912.3
1148.342, 203948.8
1148.824, 203960.1
1149.307, 203960.9
1149.789, 203953.2
1150.271, 203934.2
1150.753, 203907.2
1151.235, 203876.0
1151.717, 203828.8
1152.199, 203847.6
1152.681, 204087.4
1153.163, 204284.4
1153.646, 204225.0
1154.128, 204066.0
1154.610, 203946.7
1155.092, 203878.4
1155.574, 203846.7
1156.056, 203849.4
1156.538, 203868.5
1157.020, 203898.5
1157.503, 203943.9
1157.985, 203991.8
1158.467, 204069.6
1158.949, 204205.2
1159.431, 204371.0
1159.913, 204563.7
1160.395, 204765.0
1160.877, 204841.2
1161.359, 204718.2
1161.842, 204598.3
1162.324, 204454.7
1162.806, 204357.0
1163.288, 204350.7
1163.770, 204361.2
1164.252, 204338.0
1164.734, 204289.0
1165.216, 204223.5
1165.698, 204137.1
1166.181, 204119.1
1166.663, 204192.3
1167.145, 204264.9
1167.627, 204339.3
1168.109, 204352.7
1168.591, 204253.6
1169.073, 204165.8
1169.555, 204254.9
1170.037, 204442.9
1170.520, 204413.3
1171.002, 204173.2
1171.484, 203977.5
1171.966, 203839.5
1172.448, 203799.8
1172.930, 203868.6
1173.412, 204013.7
1173.894, 204222.4
1174.377, 204414.1
1174.859, 204442.0
1175.341, 204371.2
1175.823, 204393.5
1176.305, 204470.7
1176.787, 204472.6
1177.269, 204408.1
1177.751, 204409.5
1178.234, 204513.1
1178.716, 204560.1
1179.198, 204382.2
1179.680, 204195.6
1180.162, 204287.8
1180.644, 204467.4
1181.126, 204487.0
1181.608, 204412.4
1182.090, 204359.9
1182.573, 204361.0
1183.055, 204442.7
1183.537, 204629.6
1184.019, 204787.0
1184.501, 204864.5
1184.983, 204866.2
1185.465, 204746.7
1185.947, 204597.1
1186.429, 204476.2
1186.912, 204389.6
1187.394, 204344.1
1187.876, 204337.5
1188.358, 204322.5
1188.840, 204243.7
1189.322, 204232.6
1189.804, 204350.5
1190.286, 204476.6
1190.769, 204579.3
1191.251, 204663.7
1191.733, 204751.4
1192.215, 204813.6
1192.697, 204759.9
1193.179, 204566.7
1193.661, 204483.2
1194.143, 204565.6
1194.625, 204536.2
1195.108, 204320.7
1195.590, 204140.6
1196.072, 204109.7
1196.554, 204136.4
1197.036, 204121.1
1197.518, 204072.7
1198.000, 203995.7
1198.482, 203902.5
1198.964, 203932.4
1199.447, 204067.6
1199.929, 204077.0
1200.411, 203929.6
1200.893, 203899.2
1201.375, 204147.7
1201.857, 204437.5
1202.339, 204515.4
1202.821, 204437.9
1203.304, 204228.7
1203.786, 203971.1
1204.268, 203794.8
1204.750, 203708.6
1205.232, 203721.9
1205.714, 203815.5
1206.196, 203878.3
1206.678, 203842.5
1207.161, 203803.8
1207.643, 203850.3
1208.125, 203884.5
1208.607, 203799.8
1209.089, 203702.5
1209.571, 203746.5
1210.053, 203861.5
1210.535, 203845.4
1211.017, 203660.1
1211.500, 203544.2
1211.982, 203574.2
1212.464, 203608.3
1212.946, 203655.1
1213.428, 203661.2
1213.910, 203590.1
1214.392, 203480.9
1214.874, 203345.1
1215.356, 203214.1
1215.839, 203193.7
1216.321, 203294.0
1216.803, 203418.3
1217.285, 203587.6
1217.767, 203646.0
1218.249, 203567.5
1218.731, 203360.9
1219.213, 203015.8
1219.696, 202712.8
1220.178, 202671.8
1220.660, 202767.2
1221.142, 202685.3
1221.624, 202494.9
1222.106, 202415.8
1222.588, 202439.0
1223.070, 202507.8
1223.552, 202596.2
1224.035, 202650.7
1224.517, 202645.7
1224.999, 202635.2
1225.481, 202643.0
1225.963, 202686.9
1226.445, 202813.8
1226.927, 202953.7
1227.409, 203060.7
1227.891, 203108.1
1228.374, 203030.8
1228.856, 202854.5
1229.338, 202746.4
1229.820, 202787.5
1230.302, 202767.0
1230.784, 202539.3
1231.266, 202378.2
1231.748, 202383.4
1232.231, 202469.8
1232.713, 202632.7
1233.195, 202804.0
1233.677, 202889.0
1234.159, 202893.0
1234.641, 202844.9
1235.123, 202719.7
1235.605, 202683.4
1236.088, 202768.9
1236.570, 202768.7
1237.052, 202624.4
1237.534, 202422.4
1238.016, 202208.0
1238.498, 202041.5
1238.980, 202021.0
1239.462, 202097.3
1239.944, 202161.0
1240.427, 202203.5
1240.909, 202180.7
1241.391, 202117.0
1241.873, 202093.1
1242.355, 202127.9
1242.837, 202212.7
1243.319, 202359.3
1243.801, 202440.7
1244.283, 202314.2
1244.766, 202143.6
1245.248, 202008.8
1245.730, 201934.4
1246.212, 201985.5
1246.694, 202091.1
1247.176, 202139.0
1247.658, 202116.8
1248.140, 202050.0
1248.622, 201858.7
1249.105, 201800.6
1249.587, 201989.5
1250.069, 202143.3
1250.551, 202165.2
1251.033, 202195.6
1251.515, 202342.5
1251.997, 202510.7
1252.479, 202568.8
1252.962, 202514.9
1253.444, 202308.1
1253.926, 201952.0
1254.408, 201690.3
1254.890, 201539.0
1255.372, 201543.2
1255.854, 201700.6
1256.336, 201873.5
1256.818, 201984.4
1257.301, 202040.0
1257.783, 202026.2
1258.265, 201987.3
1258.747, 201963.6
1259.229, 201969.0
1259.711, 202060.9
1260.193, 202179.0
1260.675, 202198.3
1261.157, 202123.7
1261.640, 202077.8
1262.122, 202112.0
1262.604, 202103.6
1263.086, 201923.4
1263.568, 201820.1
1264.050, 201917.0
1264.532, 202061.7
1265.014, 202194.8
1265.497, 202295.7
1265.979, 202328.4
1266.461, 202310.8
1266.943, 202322.2
1267.425, 202366.6
1267.907, 202418.0
1268.389, 202484.6
1268.871, 202453.1
1269.354, 202302.5
1269.836, 202167.8
1270.318, 202110.3
1270.800, 202078.7
1271.282, 202015.7
1271.764, 201970.0
1272.246, 202029.7
1272.728, 202153.5
1273.210, 202297.4
1273.693, 202432.4
1274.175, 202512.7
1274.657, 202538.2
1275.139, 202516.5
1275.621, 202453.5
1276.103, 202425.1
1276.585, 202459.6
1277.067, 202535.8
1277.549, 202763.1
1278.032, 202883.2
1278.514, 202685.8
1278.996, 202410.0
1279.478, 202255.2
1279.960, 202177.3
1280.442, 202072.6
1280.924, 201946.5
1281.406, 201994.5
1281.889, 202254.2
1282.371, 202442.7
1282.853, 202542.4
1283.335, 202583.5
1283.817, 202579.4
1284.299, 202604.9
1284.781, 202705.8
1285.263, 202830.0
1285.745, 202906.8
1286.228, 202933.3
##END=



