##NAMES=Pargasite
##RRUFFID=R130006
##IDEAL CHEMISTRY=NaCa_2_(Mg_4_Al)(Si_6_Al_2_)O_22_(OH)_2_
##LOCALITY=Bear Lake diggings (Gibson Road Western occurrence), Gooderham, Monmouth Township, Haliburton County, Ontario, Canada
##OWNER=RRUFF
##SOURCE=Don Doell
##DESCRIPTION=Aggregate of black prismatic crystals
##STATUS=The identification of this mineral has been confirmed only by single crystal X-ray diffraction.
##URL=rruff.info/R130006
8.975323e+001, 0.000000e+000
9.023535e+001, 8.667069e+001
9.071747e+001, 8.672261e+001
9.119958e+001, 8.641026e+001
9.168170e+001, 8.716931e+001
9.216382e+001, 8.729279e+001
9.264594e+001, 8.655020e+001
9.312805e+001, 8.526961e+001
9.361017e+001, 8.380782e+001
9.409229e+001, 8.217600e+001
9.457440e+001, 7.993678e+001
9.505651e+001, 7.827486e+001
9.553863e+001, 7.755091e+001
9.602074e+001, 7.719588e+001
9.650286e+001, 7.667370e+001
9.698498e+001, 7.570208e+001
9.746709e+001, 7.431989e+001
9.794921e+001, 7.331524e+001
9.843133e+001, 7.299381e+001
9.891344e+001, 7.260529e+001
9.939556e+001, 7.178779e+001
9.987768e+001, 7.070035e+001
1.003598e+002, 6.982905e+001
1.008419e+002, 6.949435e+001
1.013240e+002, 6.961282e+001
1.018061e+002, 6.966257e+001
1.022883e+002, 6.949600e+001
1.027704e+002, 6.934547e+001
1.032525e+002, 6.946338e+001
1.037346e+002, 6.989136e+001
1.042167e+002, 7.034879e+001
1.046988e+002, 7.061964e+001
1.051810e+002, 7.077738e+001
1.056631e+002, 7.092823e+001
1.061452e+002, 7.119415e+001
1.066273e+002, 7.150135e+001
1.071094e+002, 7.153481e+001
1.075915e+002, 7.112253e+001
1.080737e+002, 7.061300e+001
1.085558e+002, 7.010360e+001
1.090379e+002, 6.961536e+001
1.095200e+002, 6.918556e+001
1.100021e+002, 6.887630e+001
1.104842e+002, 6.873766e+001
1.109664e+002, 6.845829e+001
1.114485e+002, 6.807024e+001
1.119306e+002, 6.753581e+001
1.124127e+002, 6.674626e+001
1.128948e+002, 6.573277e+001
1.133769e+002, 6.467077e+001
1.138591e+002, 6.383408e+001
1.143412e+002, 6.346458e+001
1.148233e+002, 6.286794e+001
1.153054e+002, 6.177812e+001
1.157875e+002, 6.058801e+001
1.162696e+002, 5.972752e+001
1.167517e+002, 5.936077e+001
1.172339e+002, 5.924920e+001
1.177160e+002, 5.881505e+001
1.181981e+002, 5.791598e+001
1.186802e+002, 5.706824e+001
1.191623e+002, 5.634566e+001
1.196444e+002, 5.577530e+001
1.201266e+002, 5.547582e+001
1.206087e+002, 5.565601e+001
1.210908e+002, 5.602218e+001
1.215729e+002, 5.597754e+001
1.220550e+002, 5.536358e+001
1.225371e+002, 5.461177e+001
1.230193e+002, 5.404467e+001
1.235014e+002, 5.366016e+001
1.239835e+002, 5.346253e+001
1.244656e+002, 5.377093e+001
1.249477e+002, 5.416096e+001
1.254298e+002, 5.416122e+001
1.259120e+002, 5.344493e+001
1.263941e+002, 5.245484e+001
1.268762e+002, 5.229123e+001
1.273583e+002, 5.364655e+001
1.278404e+002, 5.467754e+001
1.283225e+002, 5.477143e+001
1.288047e+002, 5.427918e+001
1.292868e+002, 5.364904e+001
1.297689e+002, 5.314760e+001
1.302510e+002, 5.276600e+001
1.307331e+002, 5.237518e+001
1.312152e+002, 5.182628e+001
1.316974e+002, 5.141143e+001
1.321795e+002, 5.125563e+001
1.326616e+002, 5.130668e+001
1.331437e+002, 5.143781e+001
1.336258e+002, 5.154840e+001
1.341079e+002, 5.164484e+001
1.345901e+002, 5.166011e+001
1.350722e+002, 5.143102e+001
1.355543e+002, 5.126340e+001
1.360364e+002, 5.138915e+001
1.365185e+002, 5.180692e+001
1.370006e+002, 5.229130e+001
1.374828e+002, 5.258521e+001
1.379649e+002, 5.264760e+001
1.384470e+002, 5.269567e+001
1.389291e+002, 5.268248e+001
1.394112e+002, 5.268359e+001
1.398933e+002, 5.278766e+001
1.403755e+002, 5.301646e+001
1.408576e+002, 5.333909e+001
1.413397e+002, 5.370750e+001
1.418218e+002, 5.411086e+001
1.423039e+002, 5.462466e+001
1.427860e+002, 5.526353e+001
1.432681e+002, 5.603358e+001
1.437503e+002, 5.695521e+001
1.442324e+002, 5.801456e+001
1.447145e+002, 5.927945e+001
1.451966e+002, 6.078241e+001
1.456787e+002, 6.252013e+001
1.461608e+002, 6.440232e+001
1.466430e+002, 6.633068e+001
1.471251e+002, 6.829382e+001
1.476072e+002, 7.044801e+001
1.480893e+002, 7.277314e+001
1.485714e+002, 7.537276e+001
1.490535e+002, 7.847511e+001
1.495357e+002, 8.208366e+001
1.500178e+002, 8.583829e+001
1.504999e+002, 8.918629e+001
1.509820e+002, 9.209161e+001
1.514641e+002, 9.467337e+001
1.519462e+002, 9.736027e+001
1.524284e+002, 9.960319e+001
1.529105e+002, 1.009789e+002
1.533926e+002, 1.013222e+002
1.538747e+002, 1.007888e+002
1.543568e+002, 9.974435e+001
1.548389e+002, 9.779684e+001
1.553211e+002, 9.573743e+001
1.558032e+002, 9.352366e+001
1.562853e+002, 9.124358e+001
1.567674e+002, 8.898728e+001
1.572495e+002, 8.679161e+001
1.577316e+002, 8.467677e+001
1.582138e+002, 8.274818e+001
1.586959e+002, 8.090573e+001
1.591780e+002, 7.931785e+001
1.596601e+002, 7.802270e+001
1.601422e+002, 7.701862e+001
1.606243e+002, 7.633835e+001
1.611065e+002, 7.607009e+001
1.615886e+002, 7.611606e+001
1.620707e+002, 7.600017e+001
1.625528e+002, 7.550175e+001
1.630349e+002, 7.506276e+001
1.635170e+002, 7.494185e+001
1.639991e+002, 7.512141e+001
1.644813e+002, 7.543697e+001
1.649634e+002, 7.580040e+001
1.654455e+002, 7.624277e+001
1.659276e+002, 7.682262e+001
1.664097e+002, 7.766284e+001
1.668918e+002, 7.855467e+001
1.673740e+002, 7.924413e+001
1.678561e+002, 7.969534e+001
1.683382e+002, 8.010902e+001
1.688203e+002, 8.060453e+001
1.693024e+002, 8.112951e+001
1.697845e+002, 8.161868e+001
1.702667e+002, 8.202348e+001
1.707488e+002, 8.238939e+001
1.712309e+002, 8.287276e+001
1.717130e+002, 8.368371e+001
1.721951e+002, 8.419779e+001
1.726772e+002, 8.418196e+001
1.731594e+002, 8.377994e+001
1.736415e+002, 8.318273e+001
1.741236e+002, 8.249566e+001
1.746057e+002, 8.170844e+001
1.750878e+002, 8.075307e+001
1.755699e+002, 7.945432e+001
1.760521e+002, 7.817046e+001
1.765342e+002, 7.707552e+001
1.770163e+002, 7.606226e+001
1.774984e+002, 7.492464e+001
1.779805e+002, 7.346685e+001
1.784626e+002, 7.168118e+001
1.789448e+002, 7.025098e+001
1.794269e+002, 6.952843e+001
1.799090e+002, 6.880965e+001
1.803911e+002, 6.779744e+001
1.808732e+002, 6.659595e+001
1.813553e+002, 6.553244e+001
1.818375e+002, 6.490900e+001
1.823196e+002, 6.479079e+001
1.828017e+002, 6.447804e+001
1.832838e+002, 6.379522e+001
1.837659e+002, 6.311828e+001
1.842480e+002, 6.263749e+001
1.847301e+002, 6.234926e+001
1.852123e+002, 6.213177e+001
1.856944e+002, 6.187097e+001
1.861765e+002, 6.155552e+001
1.866586e+002, 6.134129e+001
1.871407e+002, 6.135002e+001
1.876228e+002, 6.137191e+001
1.881050e+002, 6.118872e+001
1.885871e+002, 6.078998e+001
1.890692e+002, 6.044486e+001
1.895513e+002, 6.046014e+001
1.900334e+002, 6.082831e+001
1.905155e+002, 6.112118e+001
1.909977e+002, 6.119609e+001
1.914798e+002, 6.121854e+001
1.919619e+002, 6.137470e+001
1.924440e+002, 6.169437e+001
1.929261e+002, 6.210540e+001
1.934082e+002, 6.264411e+001
1.938904e+002, 6.325169e+001
1.943725e+002, 6.369630e+001
1.948546e+002, 6.371949e+001
1.953367e+002, 6.356313e+001
1.958188e+002, 6.370873e+001
1.963009e+002, 6.424041e+001
1.967831e+002, 6.498891e+001
1.972652e+002, 6.602627e+001
1.977473e+002, 6.720370e+001
1.982294e+002, 6.808467e+001
1.987115e+002, 6.828787e+001
1.991936e+002, 6.797318e+001
1.996758e+002, 6.781676e+001
2.001579e+002, 6.785262e+001
2.006400e+002, 6.804451e+001
2.011221e+002, 6.839632e+001
2.016042e+002, 6.886820e+001
2.020863e+002, 6.935775e+001
2.025685e+002, 6.973112e+001
2.030506e+002, 7.000983e+001
2.035327e+002, 7.057822e+001
2.040148e+002, 7.176131e+001
2.044969e+002, 7.291048e+001
2.049790e+002, 7.379399e+001
2.054612e+002, 7.444053e+001
2.059433e+002, 7.495668e+001
2.064254e+002, 7.537824e+001
2.069075e+002, 7.569041e+001
2.073896e+002, 7.619592e+001
2.078717e+002, 7.713272e+001
2.083539e+002, 7.805717e+001
2.088360e+002, 7.877335e+001
2.093181e+002, 7.934310e+001
2.098002e+002, 7.997054e+001
2.102823e+002, 8.086816e+001
2.107644e+002, 8.208730e+001
2.112466e+002, 8.306728e+001
2.117287e+002, 8.360111e+001
2.122108e+002, 8.411240e+001
2.126929e+002, 8.471815e+001
2.131750e+002, 8.544428e+001
2.136571e+002, 8.630977e+001
2.141393e+002, 8.735393e+001
2.146214e+002, 8.862627e+001
2.151035e+002, 8.972993e+001
2.155856e+002, 9.064092e+001
2.160677e+002, 9.145202e+001
2.165498e+002, 9.217430e+001
2.170320e+002, 9.282827e+001
2.175141e+002, 9.348962e+001
2.179962e+002, 9.424940e+001
2.184783e+002, 9.513650e+001
2.189604e+002, 9.574217e+001
2.194425e+002, 9.591006e+001
2.199247e+002, 9.596395e+001
2.204068e+002, 9.610246e+001
2.208889e+002, 9.632866e+001
2.213710e+002, 9.651842e+001
2.218531e+002, 9.654552e+001
2.223352e+002, 9.639794e+001
2.228174e+002, 9.635413e+001
2.232995e+002, 9.662900e+001
2.237816e+002, 9.685116e+001
2.242637e+002, 9.671900e+001
2.247458e+002, 9.622462e+001
2.252279e+002, 9.558740e+001
2.257100e+002, 9.494904e+001
2.261922e+002, 9.431139e+001
2.266743e+002, 9.367189e+001
2.271564e+002, 9.291903e+001
2.276385e+002, 9.223514e+001
2.281206e+002, 9.189326e+001
2.286027e+002, 9.191930e+001
2.290849e+002, 9.187159e+001
2.295670e+002, 9.138375e+001
2.300491e+002, 9.056801e+001
2.305312e+002, 8.973740e+001
2.310133e+002, 8.883020e+001
2.314954e+002, 8.799393e+001
2.319776e+002, 8.751310e+001
2.324597e+002, 8.746244e+001
2.329418e+002, 8.724292e+001
2.334239e+002, 8.630216e+001
2.339060e+002, 8.496551e+001
2.343881e+002, 8.370885e+001
2.348703e+002, 8.271778e+001
2.353524e+002, 8.180040e+001
2.358345e+002, 8.063984e+001
2.363166e+002, 7.914958e+001
2.367987e+002, 7.774833e+001
2.372808e+002, 7.673670e+001
2.377630e+002, 7.590308e+001
2.382451e+002, 7.501295e+001
2.387272e+002, 7.396616e+001
2.392093e+002, 7.287273e+001
2.396914e+002, 7.192416e+001
2.401735e+002, 7.115489e+001
2.406557e+002, 7.040915e+001
2.411378e+002, 6.970496e+001
2.416199e+002, 6.896142e+001
2.421020e+002, 6.803886e+001
2.425841e+002, 6.683886e+001
2.430662e+002, 6.561134e+001
2.435484e+002, 6.483283e+001
2.440305e+002, 6.468227e+001
2.445126e+002, 6.450152e+001
2.449947e+002, 6.415317e+001
2.454768e+002, 6.368042e+001
2.459589e+002, 6.306323e+001
2.464410e+002, 6.228296e+001
2.469232e+002, 6.148602e+001
2.474053e+002, 6.096132e+001
2.478874e+002, 6.090328e+001
2.483695e+002, 6.064837e+001
2.488516e+002, 5.984374e+001
2.493337e+002, 5.896114e+001
2.498159e+002, 5.839346e+001
2.502980e+002, 5.825418e+001
2.507801e+002, 5.831979e+001
2.512622e+002, 5.821634e+001
2.517443e+002, 5.786902e+001
2.522264e+002, 5.751480e+001
2.527086e+002, 5.723535e+001
2.531907e+002, 5.692162e+001
2.536728e+002, 5.644167e+001
2.541549e+002, 5.578328e+001
2.546370e+002, 5.510362e+001
2.551191e+002, 5.465681e+001
2.556013e+002, 5.458908e+001
2.560834e+002, 5.444899e+001
2.565655e+002, 5.428066e+001
2.570476e+002, 5.401751e+001
2.575297e+002, 5.355124e+001
2.580118e+002, 5.289469e+001
2.584940e+002, 5.221194e+001
2.589761e+002, 5.173271e+001
2.594582e+002, 5.155413e+001
2.599403e+002, 5.134314e+001
2.604224e+002, 5.106493e+001
2.609045e+002, 5.078616e+001
2.613867e+002, 5.058006e+001
2.618688e+002, 5.043500e+001
2.623509e+002, 5.025722e+001
2.628330e+002, 4.992838e+001
2.633151e+002, 4.939099e+001
2.637972e+002, 4.890705e+001
2.642794e+002, 4.843333e+001
2.647615e+002, 4.803688e+001
2.652436e+002, 4.776310e+001
2.657257e+002, 4.760875e+001
2.662078e+002, 4.755051e+001
2.666899e+002, 4.759052e+001
2.671721e+002, 4.777492e+001
2.676542e+002, 4.773466e+001
2.681363e+002, 4.727298e+001
2.686184e+002, 4.681376e+001
2.691005e+002, 4.660351e+001
2.695826e+002, 4.660070e+001
2.700648e+002, 4.659373e+001
2.705469e+002, 4.640583e+001
2.710290e+002, 4.603058e+001
2.715111e+002, 4.568755e+001
2.719932e+002, 4.537309e+001
2.724753e+002, 4.508662e+001
2.729575e+002, 4.486332e+001
2.734396e+002, 4.467365e+001
2.739217e+002, 4.442652e+001
2.744038e+002, 4.403831e+001
2.748859e+002, 4.353500e+001
2.753680e+002, 4.325981e+001
2.758501e+002, 4.339483e+001
2.763322e+002, 4.350177e+001
2.768144e+002, 4.340489e+001
2.772965e+002, 4.316756e+001
2.777786e+002, 4.292987e+001
2.782607e+002, 4.275842e+001
2.787428e+002, 4.265702e+001
2.792249e+002, 4.265384e+001
2.797071e+002, 4.284857e+001
2.801892e+002, 4.300386e+001
2.806713e+002, 4.303838e+001
2.811534e+002, 4.299652e+001
2.816355e+002, 4.294160e+001
2.821176e+002, 4.289176e+001
2.825998e+002, 4.287305e+001
2.830819e+002, 4.297031e+001
2.835640e+002, 4.327031e+001
2.840461e+002, 4.350580e+001
2.845282e+002, 4.356222e+001
2.850103e+002, 4.353759e+001
2.854925e+002, 4.356543e+001
2.859746e+002, 4.368709e+001
2.864567e+002, 4.388917e+001
2.869388e+002, 4.416067e+001
2.874209e+002, 4.450399e+001
2.879030e+002, 4.489341e+001
2.883852e+002, 4.533015e+001
2.888673e+002, 4.580779e+001
2.893494e+002, 4.635353e+001
2.898315e+002, 4.697906e+001
2.903136e+002, 4.755701e+001
2.907957e+002, 4.788452e+001
2.912779e+002, 4.790696e+001
2.917600e+002, 4.811232e+001
2.922421e+002, 4.868106e+001
2.927242e+002, 4.937887e+001
2.932063e+002, 4.997238e+001
2.936884e+002, 5.043471e+001
2.941706e+002, 5.088509e+001
2.946527e+002, 5.143920e+001
2.951348e+002, 5.210046e+001
2.956169e+002, 5.273304e+001
2.960990e+002, 5.340942e+001
2.965811e+002, 5.399992e+001
2.970633e+002, 5.437043e+001
2.975454e+002, 5.452927e+001
2.980275e+002, 5.463117e+001
2.985096e+002, 5.477485e+001
2.989917e+002, 5.495173e+001
2.994738e+002, 5.510269e+001
2.999560e+002, 5.524116e+001
3.004381e+002, 5.534163e+001
3.009202e+002, 5.535543e+001
3.014023e+002, 5.530531e+001
3.018844e+002, 5.530437e+001
3.023665e+002, 5.543688e+001
3.028487e+002, 5.563998e+001
3.033308e+002, 5.572958e+001
3.038129e+002, 5.568780e+001
3.042950e+002, 5.557956e+001
3.047771e+002, 5.538422e+001
3.052592e+002, 5.514069e+001
3.057414e+002, 5.497436e+001
3.062235e+002, 5.496891e+001
3.067056e+002, 5.499421e+001
3.071877e+002, 5.477106e+001
3.076698e+002, 5.425365e+001
3.081519e+002, 5.374506e+001
3.086341e+002, 5.334001e+001
3.091162e+002, 5.300806e+001
3.095983e+002, 5.271672e+001
3.100804e+002, 5.246853e+001
3.105625e+002, 5.221785e+001
3.110446e+002, 5.188452e+001
3.115268e+002, 5.146193e+001
3.120089e+002, 5.109850e+001
3.124910e+002, 5.085503e+001
3.129731e+002, 5.067137e+001
3.134552e+002, 5.047233e+001
3.139373e+002, 5.024681e+001
3.144195e+002, 5.003035e+001
3.149016e+002, 4.984636e+001
3.153837e+002, 4.969831e+001
3.158658e+002, 4.960619e+001
3.163479e+002, 4.961419e+001
3.168300e+002, 4.964868e+001
3.173121e+002, 4.967543e+001
3.177943e+002, 4.968688e+001
3.182764e+002, 4.961098e+001
3.187585e+002, 4.931747e+001
3.192406e+002, 4.891195e+001
3.197227e+002, 4.884156e+001
3.202048e+002, 4.948936e+001
3.206870e+002, 5.008169e+001
3.211691e+002, 5.011166e+001
3.216512e+002, 4.971159e+001
3.221333e+002, 4.934672e+001
3.226154e+002, 4.923499e+001
3.230975e+002, 4.929012e+001
3.235797e+002, 4.929193e+001
3.240618e+002, 4.921323e+001
3.245439e+002, 4.915034e+001
3.250260e+002, 4.922380e+001
3.255081e+002, 4.932474e+001
3.259902e+002, 4.920263e+001
3.264724e+002, 4.874046e+001
3.269545e+002, 4.817593e+001
3.274366e+002, 4.791027e+001
3.279187e+002, 4.799545e+001
3.284008e+002, 4.800682e+001
3.288829e+002, 4.788659e+001
3.293651e+002, 4.764331e+001
3.298472e+002, 4.723542e+001
3.303293e+002, 4.665550e+001
3.308114e+002, 4.607308e+001
3.312935e+002, 4.566279e+001
3.317756e+002, 4.544243e+001
3.322578e+002, 4.519860e+001
3.327399e+002, 4.496004e+001
3.332220e+002, 4.467095e+001
3.337041e+002, 4.420068e+001
3.341862e+002, 4.359216e+001
3.346683e+002, 4.313448e+001
3.351505e+002, 4.308535e+001
3.356326e+002, 4.336526e+001
3.361147e+002, 4.337452e+001
3.365968e+002, 4.291370e+001
3.370789e+002, 4.242745e+001
3.375610e+002, 4.208154e+001
3.380432e+002, 4.185120e+001
3.385253e+002, 4.169584e+001
3.390074e+002, 4.161499e+001
3.394895e+002, 4.155503e+001
3.399716e+002, 4.134644e+001
3.404537e+002, 4.081012e+001
3.409359e+002, 4.046772e+001
3.414180e+002, 4.061009e+001
3.419001e+002, 4.093158e+001
3.423822e+002, 4.098835e+001
3.428643e+002, 4.065312e+001
3.433464e+002, 4.022053e+001
3.438286e+002, 4.010813e+001
3.443107e+002, 4.046848e+001
3.447928e+002, 4.073726e+001
3.452749e+002, 4.091543e+001
3.457570e+002, 4.099679e+001
3.462391e+002, 4.092596e+001
3.467213e+002, 4.072496e+001
3.472034e+002, 4.051420e+001
3.476855e+002, 4.038118e+001
3.481676e+002, 4.032476e+001
3.486497e+002, 4.049596e+001
3.491318e+002, 4.112642e+001
3.496140e+002, 4.171166e+001
3.500961e+002, 4.202251e+001
3.505782e+002, 4.211456e+001
3.510603e+002, 4.212342e+001
3.515424e+002, 4.211265e+001
3.520245e+002, 4.211046e+001
3.525067e+002, 4.224469e+001
3.529888e+002, 4.267815e+001
3.534709e+002, 4.304515e+001
3.539530e+002, 4.323771e+001
3.544351e+002, 4.336560e+001
3.549172e+002, 4.355375e+001
3.553994e+002, 4.384612e+001
3.558815e+002, 4.421030e+001
3.563636e+002, 4.459486e+001
3.568457e+002, 4.499574e+001
3.573278e+002, 4.543031e+001
3.578099e+002, 4.596753e+001
3.582920e+002, 4.648454e+001
3.587741e+002, 4.691245e+001
3.592563e+002, 4.723766e+001
3.597384e+002, 4.744775e+001
3.602205e+002, 4.750022e+001
3.607026e+002, 4.735288e+001
3.611847e+002, 4.746632e+001
3.616668e+002, 4.813802e+001
3.621490e+002, 4.874365e+001
3.626311e+002, 4.904519e+001
3.631132e+002, 4.913019e+001
3.635953e+002, 4.917786e+001
3.640774e+002, 4.929410e+001
3.645595e+002, 4.946717e+001
3.650417e+002, 4.964613e+001
3.655238e+002, 4.980404e+001
3.660059e+002, 5.000911e+001
3.664880e+002, 5.031922e+001
3.669701e+002, 5.065134e+001
3.674522e+002, 5.093770e+001
3.679344e+002, 5.115224e+001
3.684165e+002, 5.129427e+001
3.688986e+002, 5.137207e+001
3.693807e+002, 5.141445e+001
3.698628e+002, 5.130316e+001
3.703449e+002, 5.081495e+001
3.708271e+002, 5.036578e+001
3.713092e+002, 5.021210e+001
3.717913e+002, 5.032631e+001
3.722734e+002, 5.048527e+001
3.727555e+002, 5.048595e+001
3.732376e+002, 5.033523e+001
3.737198e+002, 5.026574e+001
3.742019e+002, 5.043803e+001
3.746840e+002, 5.048674e+001
3.751661e+002, 5.019018e+001
3.756482e+002, 4.972260e+001
3.761303e+002, 4.936773e+001
3.766125e+002, 4.928320e+001
3.770946e+002, 4.933571e+001
3.775767e+002, 4.921764e+001
3.780588e+002, 4.886652e+001
3.785409e+002, 4.851983e+001
3.790230e+002, 4.824567e+001
3.795052e+002, 4.799886e+001
3.799873e+002, 4.778032e+001
3.804694e+002, 4.758746e+001
3.809515e+002, 4.731569e+001
3.814336e+002, 4.677184e+001
3.819157e+002, 4.596405e+001
3.823979e+002, 4.539479e+001
3.828800e+002, 4.529059e+001
3.833621e+002, 4.525359e+001
3.838442e+002, 4.497368e+001
3.843263e+002, 4.451753e+001
3.848084e+002, 4.412700e+001
3.852906e+002, 4.402956e+001
3.857727e+002, 4.407387e+001
3.862548e+002, 4.387360e+001
3.867369e+002, 4.335262e+001
3.872190e+002, 4.286503e+001
3.877011e+002, 4.271378e+001
3.881833e+002, 4.269374e+001
3.886654e+002, 4.250322e+001
3.891475e+002, 4.202863e+001
3.896296e+002, 4.147758e+001
3.901117e+002, 4.099466e+001
3.905938e+002, 4.058107e+001
3.910760e+002, 4.027289e+001
3.915581e+002, 4.012212e+001
3.920402e+002, 4.003492e+001
3.925223e+002, 3.986572e+001
3.930044e+002, 3.960531e+001
3.934865e+002, 3.938977e+001
3.939687e+002, 3.932965e+001
3.944508e+002, 3.932947e+001
3.949329e+002, 3.922524e+001
3.954150e+002, 3.898523e+001
3.958971e+002, 3.872135e+001
3.963792e+002, 3.852333e+001
3.968614e+002, 3.839034e+001
3.973435e+002, 3.827283e+001
3.978256e+002, 3.822844e+001
3.983077e+002, 3.814501e+001
3.987898e+002, 3.790254e+001
3.992719e+002, 3.754649e+001
3.997540e+002, 3.725621e+001
4.002361e+002, 3.714058e+001
4.007183e+002, 3.711761e+001
4.012004e+002, 3.694330e+001
4.016825e+002, 3.653598e+001
4.021646e+002, 3.614699e+001
4.026467e+002, 3.575351e+001
4.031288e+002, 3.543060e+001
4.036110e+002, 3.532757e+001
4.040931e+002, 3.546192e+001
4.045752e+002, 3.561952e+001
4.050573e+002, 3.554384e+001
4.055394e+002, 3.518122e+001
4.060215e+002, 3.483819e+001
4.065037e+002, 3.453675e+001
4.069858e+002, 3.423303e+001
4.074679e+002, 3.385678e+001
4.079500e+002, 3.345712e+001
4.084321e+002, 3.315799e+001
4.089142e+002, 3.304078e+001
4.093964e+002, 3.306780e+001
4.098785e+002, 3.306362e+001
4.103606e+002, 3.304864e+001
4.108427e+002, 3.296851e+001
4.113248e+002, 3.275857e+001
4.118069e+002, 3.251557e+001
4.122891e+002, 3.231807e+001
4.127712e+002, 3.219126e+001
4.132533e+002, 3.213046e+001
4.137354e+002, 3.215477e+001
4.142175e+002, 3.231373e+001
4.146996e+002, 3.235743e+001
4.151818e+002, 3.210497e+001
4.156639e+002, 3.190384e+001
4.161460e+002, 3.194241e+001
4.166281e+002, 3.214544e+001
4.171102e+002, 3.232075e+001
4.175923e+002, 3.235340e+001
4.180745e+002, 3.226283e+001
4.185566e+002, 3.208975e+001
4.190387e+002, 3.175457e+001
4.195208e+002, 3.151913e+001
4.200029e+002, 3.148574e+001
4.204850e+002, 3.156986e+001
4.209672e+002, 3.171940e+001
4.214493e+002, 3.192368e+001
4.219314e+002, 3.213895e+001
4.224135e+002, 3.232575e+001
4.228956e+002, 3.248414e+001
4.233777e+002, 3.261525e+001
4.238599e+002, 3.268029e+001
4.243420e+002, 3.277372e+001
4.248241e+002, 3.300129e+001
4.253062e+002, 3.332318e+001
4.257883e+002, 3.359495e+001
4.262704e+002, 3.374768e+001
4.267526e+002, 3.382000e+001
4.272347e+002, 3.387278e+001
4.277168e+002, 3.390912e+001
4.281989e+002, 3.387969e+001
4.286810e+002, 3.371357e+001
4.291631e+002, 3.348613e+001
4.296453e+002, 3.335846e+001
4.301274e+002, 3.334253e+001
4.306095e+002, 3.339998e+001
4.310916e+002, 3.359951e+001
4.315737e+002, 3.384587e+001
4.320558e+002, 3.394868e+001
4.325380e+002, 3.385786e+001
4.330201e+002, 3.363242e+001
4.335022e+002, 3.330997e+001
4.339843e+002, 3.287204e+001
4.344664e+002, 3.249154e+001
4.349485e+002, 3.213276e+001
4.354307e+002, 3.186765e+001
4.359128e+002, 3.181353e+001
4.363949e+002, 3.190974e+001
4.368770e+002, 3.195529e+001
4.373591e+002, 3.182820e+001
4.378412e+002, 3.157363e+001
4.383234e+002, 3.136521e+001
4.388055e+002, 3.113788e+001
4.392876e+002, 3.104407e+001
4.397697e+002, 3.125512e+001
4.402518e+002, 3.151376e+001
4.407339e+002, 3.155792e+001
4.412160e+002, 3.134690e+001
4.416982e+002, 3.104049e+001
4.421803e+002, 3.081602e+001
4.426624e+002, 3.068163e+001
4.431445e+002, 3.056667e+001
4.436266e+002, 3.047613e+001
4.441087e+002, 3.040084e+001
4.445909e+002, 3.034744e+001
4.450730e+002, 3.030643e+001
4.455551e+002, 3.026437e+001
4.460372e+002, 3.021540e+001
4.465193e+002, 3.015847e+001
4.470014e+002, 3.010503e+001
4.474836e+002, 3.008822e+001
4.479657e+002, 2.997492e+001
4.484478e+002, 2.956369e+001
4.489299e+002, 2.917708e+001
4.494120e+002, 2.902444e+001
4.498941e+002, 2.911309e+001
4.503763e+002, 2.931116e+001
4.508584e+002, 2.962354e+001
4.513405e+002, 2.998288e+001
4.518226e+002, 3.004507e+001
4.523047e+002, 2.968285e+001
4.527868e+002, 2.932646e+001
4.532690e+002, 2.931974e+001
4.537511e+002, 2.945730e+001
4.542332e+002, 2.943309e+001
4.547153e+002, 2.911472e+001
4.551974e+002, 2.875615e+001
4.556795e+002, 2.854159e+001
4.561617e+002, 2.845989e+001
4.566438e+002, 2.848205e+001
4.571259e+002, 2.864004e+001
4.576080e+002, 2.881392e+001
4.580901e+002, 2.881769e+001
4.585722e+002, 2.865307e+001
4.590544e+002, 2.854252e+001
4.595365e+002, 2.854712e+001
4.600186e+002, 2.860666e+001
4.605007e+002, 2.867951e+001
4.609828e+002, 2.876095e+001
4.614649e+002, 2.885468e+001
4.619471e+002, 2.897165e+001
4.624292e+002, 2.909472e+001
4.629113e+002, 2.915272e+001
4.633934e+002, 2.914138e+001
4.638755e+002, 2.907633e+001
4.643576e+002, 2.888228e+001
4.648398e+002, 2.867608e+001
4.653219e+002, 2.859072e+001
4.658040e+002, 2.864407e+001
4.662861e+002, 2.874891e+001
4.667682e+002, 2.881868e+001
4.672503e+002, 2.885724e+001
4.677325e+002, 2.882409e+001
4.682146e+002, 2.864245e+001
4.686967e+002, 2.846954e+001
4.691788e+002, 2.833169e+001
4.696609e+002, 2.823357e+001
4.701430e+002, 2.818840e+001
4.706252e+002, 2.820405e+001
4.711073e+002, 2.824196e+001
4.715894e+002, 2.823517e+001
4.720715e+002, 2.817807e+001
4.725536e+002, 2.810196e+001
4.730357e+002, 2.800814e+001
4.735179e+002, 2.789773e+001
4.740000e+002, 2.778627e+001
4.744821e+002, 2.766372e+001
4.749642e+002, 2.748381e+001
4.754463e+002, 2.709460e+001
4.759284e+002, 2.667465e+001
4.764106e+002, 2.669873e+001
4.768927e+002, 2.725192e+001
4.773748e+002, 2.770828e+001
4.778569e+002, 2.771145e+001
4.783390e+002, 2.747379e+001
4.788211e+002, 2.733959e+001
4.793033e+002, 2.734487e+001
4.797854e+002, 2.737008e+001
4.802675e+002, 2.735891e+001
4.807496e+002, 2.732648e+001
4.812317e+002, 2.729343e+001
4.817138e+002, 2.726233e+001
4.821959e+002, 2.725236e+001
4.826780e+002, 2.728872e+001
4.831602e+002, 2.737018e+001
4.836423e+002, 2.742318e+001
4.841244e+002, 2.747422e+001
4.846065e+002, 2.747065e+001
4.850886e+002, 2.730513e+001
4.855707e+002, 2.708843e+001
4.860529e+002, 2.704047e+001
4.865350e+002, 2.724121e+001
4.870171e+002, 2.753312e+001
4.874992e+002, 2.764532e+001
4.879813e+002, 2.746544e+001
4.884634e+002, 2.741731e+001
4.889456e+002, 2.766312e+001
4.894277e+002, 2.786373e+001
4.899098e+002, 2.777612e+001
4.903919e+002, 2.751174e+001
4.908740e+002, 2.735304e+001
4.913561e+002, 2.748510e+001
4.918383e+002, 2.779184e+001
4.923204e+002, 2.795850e+001
4.928025e+002, 2.795768e+001
4.932846e+002, 2.789154e+001
4.937667e+002, 2.763158e+001
4.942488e+002, 2.742224e+001
4.947310e+002, 2.746260e+001
4.952131e+002, 2.774531e+001
4.956952e+002, 2.807300e+001
4.961773e+002, 2.832780e+001
4.966594e+002, 2.852127e+001
4.971415e+002, 2.869845e+001
4.976237e+002, 2.887705e+001
4.981058e+002, 2.895154e+001
4.985879e+002, 2.876129e+001
4.990700e+002, 2.846809e+001
4.995521e+002, 2.838993e+001
5.000342e+002, 2.861336e+001
5.005164e+002, 2.887748e+001
5.009985e+002, 2.906395e+001
5.014806e+002, 2.920206e+001
5.019627e+002, 2.935372e+001
5.024448e+002, 2.953157e+001
5.029269e+002, 2.968583e+001
5.034091e+002, 2.975661e+001
5.038912e+002, 2.974051e+001
5.043733e+002, 2.979394e+001
5.048554e+002, 3.000253e+001
5.053375e+002, 3.017698e+001
5.058196e+002, 3.017747e+001
5.063018e+002, 3.012243e+001
5.067839e+002, 3.021409e+001
5.072660e+002, 3.052001e+001
5.077481e+002, 3.090787e+001
5.082302e+002, 3.117050e+001
5.087123e+002, 3.127027e+001
5.091945e+002, 3.138156e+001
5.096766e+002, 3.150498e+001
5.101587e+002, 3.163909e+001
5.106408e+002, 3.177069e+001
5.111229e+002, 3.191503e+001
5.116050e+002, 3.211360e+001
5.120872e+002, 3.240287e+001
5.125693e+002, 3.270510e+001
5.130514e+002, 3.285491e+001
5.135335e+002, 3.282557e+001
5.140156e+002, 3.285576e+001
5.144977e+002, 3.302892e+001
5.149799e+002, 3.324886e+001
5.154620e+002, 3.342911e+001
5.159441e+002, 3.357687e+001
5.164262e+002, 3.374606e+001
5.169083e+002, 3.396938e+001
5.173904e+002, 3.422137e+001
5.178726e+002, 3.449890e+001
5.183547e+002, 3.479401e+001
5.188368e+002, 3.500166e+001
5.193189e+002, 3.503997e+001
5.198010e+002, 3.499941e+001
5.202831e+002, 3.508942e+001
5.207653e+002, 3.533711e+001
5.212474e+002, 3.560247e+001
5.217295e+002, 3.589220e+001
5.222116e+002, 3.616848e+001
5.226937e+002, 3.637504e+001
5.231758e+002, 3.652467e+001
5.236580e+002, 3.669297e+001
5.241401e+002, 3.693344e+001
5.246222e+002, 3.723577e+001
5.251043e+002, 3.755280e+001
5.255864e+002, 3.783902e+001
5.260685e+002, 3.820837e+001
5.265507e+002, 3.876759e+001
5.270328e+002, 3.934370e+001
5.275149e+002, 3.976049e+001
5.279970e+002, 4.002209e+001
5.284791e+002, 4.030471e+001
5.289612e+002, 4.082145e+001
5.294434e+002, 4.150273e+001
5.299255e+002, 4.188437e+001
5.304076e+002, 4.180658e+001
5.308897e+002, 4.179848e+001
5.313718e+002, 4.214714e+001
5.318539e+002, 4.265395e+001
5.323361e+002, 4.315154e+001
5.328182e+002, 4.362340e+001
5.333003e+002, 4.402600e+001
5.337824e+002, 4.426499e+001
5.342645e+002, 4.442858e+001
5.347466e+002, 4.476154e+001
5.352288e+002, 4.531343e+001
5.357109e+002, 4.576987e+001
5.361930e+002, 4.581709e+001
5.366751e+002, 4.555783e+001
5.371572e+002, 4.563039e+001
5.376393e+002, 4.641993e+001
5.381215e+002, 4.703996e+001
5.386036e+002, 4.719716e+001
5.390857e+002, 4.706886e+001
5.395678e+002, 4.678876e+001
5.400499e+002, 4.642486e+001
5.405320e+002, 4.615118e+001
5.410142e+002, 4.618319e+001
5.414963e+002, 4.653530e+001
5.419784e+002, 4.669102e+001
5.424604e+002, 4.644453e+001
5.429426e+002, 4.623755e+001
5.434247e+002, 4.624207e+001
5.439068e+002, 4.629108e+001
5.443889e+002, 4.616992e+001
5.448710e+002, 4.582803e+001
5.453531e+002, 4.543688e+001
5.458353e+002, 4.519181e+001
5.463174e+002, 4.507904e+001
5.467995e+002, 4.495215e+001
5.472816e+002, 4.481483e+001
5.477637e+002, 4.463968e+001
5.482458e+002, 4.436639e+001
5.487280e+002, 4.405308e+001
5.492101e+002, 4.379574e+001
5.496922e+002, 4.363341e+001
5.501743e+002, 4.348150e+001
5.506564e+002, 4.329215e+001
5.511385e+002, 4.307369e+001
5.516207e+002, 4.287062e+001
5.521028e+002, 4.269514e+001
5.525849e+002, 4.241583e+001
5.530670e+002, 4.185608e+001
5.535491e+002, 4.101321e+001
5.540313e+002, 4.049766e+001
5.545134e+002, 4.057809e+001
5.549955e+002, 4.061234e+001
5.554776e+002, 4.043115e+001
5.559597e+002, 4.010266e+001
5.564418e+002, 3.968364e+001
5.569240e+002, 3.920406e+001
5.574061e+002, 3.873878e+001
5.578882e+002, 3.837886e+001
5.583703e+002, 3.813049e+001
5.588524e+002, 3.785761e+001
5.593345e+002, 3.751281e+001
5.598167e+002, 3.721650e+001
5.602988e+002, 3.704882e+001
5.607809e+002, 3.692722e+001
5.612630e+002, 3.677282e+001
5.617451e+002, 3.657278e+001
5.622272e+002, 3.626418e+001
5.627094e+002, 3.568255e+001
5.631915e+002, 3.494083e+001
5.636736e+002, 3.444498e+001
5.641557e+002, 3.427248e+001
5.646378e+002, 3.418512e+001
5.651199e+002, 3.406531e+001
5.656021e+002, 3.388677e+001
5.660842e+002, 3.356583e+001
5.665663e+002, 3.293752e+001
5.670484e+002, 3.240333e+001
5.675305e+002, 3.210045e+001
5.680126e+002, 3.196739e+001
5.684948e+002, 3.199904e+001
5.689769e+002, 3.215758e+001
5.694590e+002, 3.224915e+001
5.699411e+002, 3.207741e+001
5.704232e+002, 3.165898e+001
5.709053e+002, 3.132353e+001
5.713875e+002, 3.112639e+001
5.718696e+002, 3.094100e+001
5.723517e+002, 3.076909e+001
5.728338e+002, 3.058557e+001
5.733159e+002, 3.033388e+001
5.737980e+002, 3.002165e+001
5.742802e+002, 2.976741e+001
5.747623e+002, 2.972166e+001
5.752444e+002, 2.982539e+001
5.757265e+002, 2.982976e+001
5.762086e+002, 2.971982e+001
5.766907e+002, 2.956998e+001
5.771729e+002, 2.937773e+001
5.776550e+002, 2.918910e+001
5.781371e+002, 2.907774e+001
5.786192e+002, 2.905679e+001
5.791013e+002, 2.905929e+001
5.795834e+002, 2.909945e+001
5.800656e+002, 2.912663e+001
5.805477e+002, 2.908314e+001
5.810298e+002, 2.896707e+001
5.815119e+002, 2.879686e+001
5.819940e+002, 2.857530e+001
5.824761e+002, 2.832452e+001
5.829583e+002, 2.812035e+001
5.834404e+002, 2.801802e+001
5.839225e+002, 2.787717e+001
5.844046e+002, 2.762195e+001
5.848867e+002, 2.739030e+001
5.853688e+002, 2.734319e+001
5.858510e+002, 2.740966e+001
5.863331e+002, 2.735010e+001
5.868152e+002, 2.698669e+001
5.872973e+002, 2.645686e+001
5.877794e+002, 2.610268e+001
5.882615e+002, 2.596236e+001
5.887437e+002, 2.572149e+001
5.892258e+002, 2.521420e+001
5.897079e+002, 2.467999e+001
5.901900e+002, 2.434046e+001
5.906721e+002, 2.417480e+001
5.911542e+002, 2.406062e+001
5.916364e+002, 2.411196e+001
5.921185e+002, 2.407376e+001
5.926006e+002, 2.361787e+001
5.930827e+002, 2.288657e+001
5.935648e+002, 2.230056e+001
5.940469e+002, 2.201516e+001
5.945291e+002, 2.191056e+001
5.950112e+002, 2.183586e+001
5.954933e+002, 2.181390e+001
5.959754e+002, 2.171453e+001
5.964575e+002, 2.147352e+001
5.969396e+002, 2.123902e+001
5.974218e+002, 2.105102e+001
5.979039e+002, 2.090575e+001
5.983860e+002, 2.078458e+001
5.988681e+002, 2.068225e+001
5.993502e+002, 2.062778e+001
5.998323e+002, 2.067706e+001
6.003145e+002, 2.082552e+001
6.007966e+002, 2.094995e+001
6.012787e+002, 2.106181e+001
6.017608e+002, 2.111264e+001
6.022429e+002, 2.100858e+001
6.027250e+002, 2.084448e+001
6.032072e+002, 2.077222e+001
6.036893e+002, 2.083461e+001
6.041714e+002, 2.091291e+001
6.046535e+002, 2.096437e+001
6.051356e+002, 2.098736e+001
6.056177e+002, 2.097121e+001
6.060999e+002, 2.091838e+001
6.065820e+002, 2.085514e+001
6.070641e+002, 2.079783e+001
6.075462e+002, 2.074841e+001
6.080283e+002, 2.071420e+001
6.085104e+002, 2.065982e+001
6.089926e+002, 2.067672e+001
6.094747e+002, 2.082331e+001
6.099568e+002, 2.099503e+001
6.104389e+002, 2.114347e+001
6.109210e+002, 2.125127e+001
6.114031e+002, 2.129284e+001
6.118853e+002, 2.123323e+001
6.123674e+002, 2.112884e+001
6.128495e+002, 2.109468e+001
6.133316e+002, 2.113366e+001
6.138137e+002, 2.121400e+001
6.142958e+002, 2.135322e+001
6.147780e+002, 2.149889e+001
6.152601e+002, 2.156097e+001
6.157422e+002, 2.156424e+001
6.162243e+002, 2.167883e+001
6.167064e+002, 2.210667e+001
6.171885e+002, 2.249005e+001
6.176707e+002, 2.255541e+001
6.181528e+002, 2.241766e+001
6.186349e+002, 2.229752e+001
6.191170e+002, 2.226355e+001
6.195991e+002, 2.229206e+001
6.200812e+002, 2.236102e+001
6.205634e+002, 2.247388e+001
6.210455e+002, 2.257826e+001
6.215276e+002, 2.267181e+001
6.220097e+002, 2.275915e+001
6.224918e+002, 2.286625e+001
6.229739e+002, 2.295335e+001
6.234561e+002, 2.296614e+001
6.239382e+002, 2.289942e+001
6.244203e+002, 2.282015e+001
6.249023e+002, 2.277062e+001
6.253845e+002, 2.275170e+001
6.258666e+002, 2.277843e+001
6.263487e+002, 2.285598e+001
6.268308e+002, 2.292028e+001
6.273129e+002, 2.294100e+001
6.277950e+002, 2.293306e+001
6.282772e+002, 2.290434e+001
6.287593e+002, 2.282614e+001
6.292414e+002, 2.285319e+001
6.297235e+002, 2.306707e+001
6.302056e+002, 2.334049e+001
6.306877e+002, 2.364103e+001
6.311699e+002, 2.392498e+001
6.316520e+002, 2.412677e+001
6.321341e+002, 2.421567e+001
6.326162e+002, 2.418826e+001
6.330983e+002, 2.396833e+001
6.335804e+002, 2.345326e+001
6.340626e+002, 2.328970e+001
6.345447e+002, 2.377622e+001
6.350268e+002, 2.424042e+001
6.355089e+002, 2.432887e+001
6.359910e+002, 2.422985e+001
6.364731e+002, 2.423301e+001
6.369553e+002, 2.441956e+001
6.374374e+002, 2.465119e+001
6.379195e+002, 2.481182e+001
6.384016e+002, 2.495370e+001
6.388837e+002, 2.523286e+001
6.393658e+002, 2.565498e+001
6.398480e+002, 2.594760e+001
6.403301e+002, 2.589306e+001
6.408122e+002, 2.562371e+001
6.412943e+002, 2.558541e+001
6.417764e+002, 2.602333e+001
6.422585e+002, 2.633730e+001
6.427407e+002, 2.641069e+001
6.432228e+002, 2.646364e+001
6.437049e+002, 2.664696e+001
6.441870e+002, 2.692854e+001
6.446691e+002, 2.719440e+001
6.451512e+002, 2.738156e+001
6.456334e+002, 2.753618e+001
6.461155e+002, 2.771977e+001
6.465976e+002, 2.793258e+001
6.470797e+002, 2.820081e+001
6.475618e+002, 2.853734e+001
6.480439e+002, 2.890930e+001
6.485261e+002, 2.929901e+001
6.490082e+002, 2.970524e+001
6.494903e+002, 3.011009e+001
6.499724e+002, 3.047851e+001
6.504545e+002, 3.089753e+001
6.509366e+002, 3.148234e+001
6.514188e+002, 3.209041e+001
6.519009e+002, 3.250855e+001
6.523830e+002, 3.274360e+001
6.528651e+002, 3.298209e+001
6.533472e+002, 3.335182e+001
6.538293e+002, 3.385295e+001
6.543115e+002, 3.452013e+001
6.547936e+002, 3.546619e+001
6.552757e+002, 3.629900e+001
6.557578e+002, 3.677295e+001
6.562399e+002, 3.728709e+001
6.567220e+002, 3.813749e+001
6.572042e+002, 3.921996e+001
6.576863e+002, 4.016603e+001
6.581684e+002, 4.070013e+001
6.586505e+002, 4.127353e+001
6.591326e+002, 4.243738e+001
6.596147e+002, 4.397609e+001
6.600969e+002, 4.524562e+001
6.605790e+002, 4.609611e+001
6.610611e+002, 4.694682e+001
6.615432e+002, 4.814335e+001
6.620253e+002, 4.967926e+001
6.625074e+002, 5.145178e+001
6.629896e+002, 5.370504e+001
6.634717e+002, 5.587447e+001
6.639538e+002, 5.778101e+001
6.644359e+002, 5.969728e+001
6.649180e+002, 6.180972e+001
6.654001e+002, 6.413953e+001
6.658823e+002, 6.663389e+001
6.663644e+002, 6.927001e+001
6.668465e+002, 7.206616e+001
6.673286e+002, 7.515226e+001
6.678107e+002, 7.851864e+001
6.682928e+002, 8.176620e+001
6.687750e+002, 8.465250e+001
6.692571e+002, 8.773302e+001
6.697392e+002, 9.157424e+001
6.702213e+002, 9.612776e+001
6.707034e+002, 1.005549e+002
6.711855e+002, 1.048477e+002
6.716677e+002, 1.090023e+002
6.721498e+002, 1.129473e+002
6.726319e+002, 1.167503e+002
6.731140e+002, 1.205388e+002
6.735961e+002, 1.242924e+002
6.740782e+002, 1.279215e+002
6.745604e+002, 1.314521e+002
6.750425e+002, 1.346876e+002
6.755246e+002, 1.369479e+002
6.760067e+002, 1.380883e+002
6.764888e+002, 1.389089e+002
6.769709e+002, 1.397216e+002
6.774531e+002, 1.400592e+002
6.779352e+002, 1.396949e+002
6.784173e+002, 1.386177e+002
6.788994e+002, 1.367294e+002
6.793815e+002, 1.337799e+002
6.798636e+002, 1.303095e+002
6.803458e+002, 1.265505e+002
6.808279e+002, 1.225124e+002
6.813100e+002, 1.181032e+002
6.817921e+002, 1.133620e+002
6.822742e+002, 1.085032e+002
6.827563e+002, 1.036885e+002
6.832385e+002, 9.892041e+001
6.837206e+002, 9.415188e+001
6.842027e+002, 8.929980e+001
6.846848e+002, 8.464957e+001
6.851669e+002, 8.020529e+001
6.856490e+002, 7.603908e+001
6.861312e+002, 7.226694e+001
6.866133e+002, 6.882380e+001
6.870954e+002, 6.547055e+001
6.875775e+002, 6.203707e+001
6.880596e+002, 5.883405e+001
6.885417e+002, 5.626504e+001
6.890239e+002, 5.412825e+001
6.895060e+002, 5.193971e+001
6.899881e+002, 4.960436e+001
6.904702e+002, 4.742432e+001
6.909523e+002, 4.563089e+001
6.914344e+002, 4.417274e+001
6.919166e+002, 4.275579e+001
6.923987e+002, 4.133959e+001
6.928808e+002, 4.003392e+001
6.933629e+002, 3.881774e+001
6.938450e+002, 3.773532e+001
6.943271e+002, 3.685093e+001
6.948093e+002, 3.611541e+001
6.952914e+002, 3.541798e+001
6.957735e+002, 3.471249e+001
6.962556e+002, 3.401908e+001
6.967377e+002, 3.335920e+001
6.972198e+002, 3.272902e+001
6.977020e+002, 3.208909e+001
6.981841e+002, 3.143303e+001
6.986662e+002, 3.083913e+001
6.991483e+002, 3.037556e+001
6.996304e+002, 3.000924e+001
7.001125e+002, 2.962099e+001
7.005947e+002, 2.917685e+001
7.010768e+002, 2.876614e+001
7.015589e+002, 2.835856e+001
7.020410e+002, 2.801411e+001
7.025231e+002, 2.784885e+001
7.030052e+002, 2.776375e+001
7.034874e+002, 2.752129e+001
7.039695e+002, 2.700470e+001
7.044516e+002, 2.645906e+001
7.049337e+002, 2.622871e+001
7.054158e+002, 2.624670e+001
7.058979e+002, 2.617809e+001
7.063801e+002, 2.598245e+001
7.068622e+002, 2.577033e+001
7.073442e+002, 2.560900e+001
7.078264e+002, 2.547049e+001
7.083085e+002, 2.527869e+001
7.087906e+002, 2.500412e+001
7.092727e+002, 2.475387e+001
7.097548e+002, 2.447451e+001
7.102369e+002, 2.427834e+001
7.107191e+002, 2.430198e+001
7.112012e+002, 2.443738e+001
7.116833e+002, 2.448967e+001
7.121654e+002, 2.438902e+001
7.126475e+002, 2.423157e+001
7.131296e+002, 2.411420e+001
7.136118e+002, 2.403465e+001
7.140939e+002, 2.399981e+001
7.145760e+002, 2.402905e+001
7.150581e+002, 2.397748e+001
7.155402e+002, 2.374580e+001
7.160223e+002, 2.343202e+001
7.165045e+002, 2.317264e+001
7.169866e+002, 2.294589e+001
7.174687e+002, 2.288874e+001
7.179508e+002, 2.323853e+001
7.184329e+002, 2.352033e+001
7.189150e+002, 2.343304e+001
7.193972e+002, 2.315556e+001
7.198793e+002, 2.293379e+001
7.203614e+002, 2.284156e+001
7.208435e+002, 2.284124e+001
7.213256e+002, 2.293673e+001
7.218077e+002, 2.308560e+001
7.222899e+002, 2.311005e+001
7.227720e+002, 2.299779e+001
7.232541e+002, 2.286313e+001
7.237362e+002, 2.274160e+001
7.242183e+002, 2.261231e+001
7.247004e+002, 2.242614e+001
7.251826e+002, 2.218476e+001
7.256647e+002, 2.204708e+001
7.261468e+002, 2.210223e+001
7.266289e+002, 2.216505e+001
7.271110e+002, 2.214511e+001
7.275931e+002, 2.211182e+001
7.280753e+002, 2.217565e+001
7.285574e+002, 2.232441e+001
7.290395e+002, 2.242867e+001
7.295216e+002, 2.239574e+001
7.300037e+002, 2.225343e+001
7.304858e+002, 2.203242e+001
7.309680e+002, 2.172809e+001
7.314501e+002, 2.149771e+001
7.319322e+002, 2.138690e+001
7.324143e+002, 2.131925e+001
7.328964e+002, 2.122946e+001
7.333785e+002, 2.113043e+001
7.338607e+002, 2.108232e+001
7.343428e+002, 2.105509e+001
7.348249e+002, 2.112394e+001
7.353070e+002, 2.149039e+001
7.357891e+002, 2.180950e+001
7.362712e+002, 2.171264e+001
7.367534e+002, 2.131648e+001
7.372355e+002, 2.101399e+001
7.377176e+002, 2.100409e+001
7.381997e+002, 2.110608e+001
7.386818e+002, 2.106721e+001
7.391639e+002, 2.089686e+001
7.396461e+002, 2.065081e+001
7.401282e+002, 2.029731e+001
7.406103e+002, 2.004343e+001
7.410924e+002, 2.004386e+001
7.415745e+002, 2.019069e+001
7.420566e+002, 2.024763e+001
7.425388e+002, 2.019575e+001
7.430209e+002, 2.013054e+001
7.435030e+002, 2.006450e+001
7.439851e+002, 1.998187e+001
7.444672e+002, 1.981335e+001
7.449493e+002, 1.964611e+001
7.454315e+002, 1.965398e+001
7.459136e+002, 1.986661e+001
7.463957e+002, 2.006242e+001
7.468778e+002, 1.998995e+001
7.473599e+002, 1.973992e+001
7.478420e+002, 1.960102e+001
7.483242e+002, 1.957627e+001
7.488063e+002, 1.951830e+001
7.492884e+002, 1.935847e+001
7.497705e+002, 1.919662e+001
7.502526e+002, 1.916426e+001
7.507347e+002, 1.927239e+001
7.512169e+002, 1.930147e+001
7.516990e+002, 1.920843e+001
7.521811e+002, 1.909950e+001
7.526632e+002, 1.897470e+001
7.531453e+002, 1.886029e+001
7.536274e+002, 1.875613e+001
7.541096e+002, 1.868099e+001
7.545917e+002, 1.870374e+001
7.550738e+002, 1.891570e+001
7.555559e+002, 1.913275e+001
7.560380e+002, 1.905219e+001
7.565201e+002, 1.874295e+001
7.570023e+002, 1.850572e+001
7.574844e+002, 1.839018e+001
7.579665e+002, 1.831772e+001
7.584486e+002, 1.822722e+001
7.589307e+002, 1.814370e+001
7.594128e+002, 1.815572e+001
7.598950e+002, 1.837374e+001
7.603771e+002, 1.848541e+001
7.608592e+002, 1.840785e+001
7.613413e+002, 1.831837e+001
7.618234e+002, 1.829674e+001
7.623055e+002, 1.832008e+001
7.627877e+002, 1.834216e+001
7.632698e+002, 1.834969e+001
7.637519e+002, 1.837258e+001
7.642340e+002, 1.848983e+001
7.647161e+002, 1.860680e+001
7.651982e+002, 1.852424e+001
7.656804e+002, 1.828005e+001
7.661625e+002, 1.812367e+001
7.666446e+002, 1.815458e+001
7.671267e+002, 1.825304e+001
7.676088e+002, 1.825693e+001
7.680909e+002, 1.815994e+001
7.685731e+002, 1.813644e+001
7.690552e+002, 1.825314e+001
7.695373e+002, 1.833405e+001
7.700194e+002, 1.831520e+001
7.705015e+002, 1.826812e+001
7.709836e+002, 1.824430e+001
7.714658e+002, 1.824291e+001
7.719479e+002, 1.824392e+001
7.724300e+002, 1.828867e+001
7.729121e+002, 1.826892e+001
7.733942e+002, 1.796116e+001
7.738763e+002, 1.760507e+001
7.743585e+002, 1.767118e+001
7.748406e+002, 1.814156e+001
7.753227e+002, 1.852310e+001
7.758048e+002, 1.848111e+001
7.762869e+002, 1.819655e+001
7.767690e+002, 1.810943e+001
7.772512e+002, 1.825965e+001
7.777333e+002, 1.833927e+001
7.782154e+002, 1.831602e+001
7.786975e+002, 1.824263e+001
7.791796e+002, 1.806600e+001
7.796617e+002, 1.789267e+001
7.801439e+002, 1.792745e+001
7.806260e+002, 1.822928e+001
7.811081e+002, 1.847278e+001
7.815902e+002, 1.855533e+001
7.820723e+002, 1.857953e+001
7.825544e+002, 1.860872e+001
7.830366e+002, 1.862634e+001
7.835187e+002, 1.859051e+001
7.840008e+002, 1.849485e+001
7.844829e+002, 1.837823e+001
7.849650e+002, 1.825367e+001
7.854471e+002, 1.814943e+001
7.859293e+002, 1.820319e+001
7.864114e+002, 1.841909e+001
7.868935e+002, 1.846848e+001
7.873756e+002, 1.822379e+001
7.878577e+002, 1.792804e+001
7.883398e+002, 1.778537e+001
7.888220e+002, 1.778845e+001
7.893040e+002, 1.788043e+001
7.897861e+002, 1.823531e+001
7.902682e+002, 1.842542e+001
7.907504e+002, 1.829651e+001
7.912325e+002, 1.810740e+001
7.917146e+002, 1.799296e+001
7.921967e+002, 1.795688e+001
7.926788e+002, 1.798122e+001
7.931609e+002, 1.806585e+001
7.936431e+002, 1.815528e+001
7.941252e+002, 1.819950e+001
7.946073e+002, 1.821593e+001
7.950894e+002, 1.824564e+001
7.955715e+002, 1.828379e+001
7.960536e+002, 1.828234e+001
7.965358e+002, 1.822050e+001
7.970179e+002, 1.811846e+001
7.975000e+002, 1.799440e+001
7.979821e+002, 1.784413e+001
7.984642e+002, 1.776141e+001
7.989464e+002, 1.776150e+001
7.994285e+002, 1.780081e+001
7.999106e+002, 1.794599e+001
8.003927e+002, 1.806540e+001
8.008748e+002, 1.801851e+001
8.013569e+002, 1.784441e+001
8.018391e+002, 1.774266e+001
8.023212e+002, 1.778724e+001
8.028033e+002, 1.788231e+001
8.032854e+002, 1.800419e+001
8.037675e+002, 1.813341e+001
8.042496e+002, 1.828416e+001
8.047318e+002, 1.842373e+001
8.052139e+002, 1.843554e+001
8.056960e+002, 1.824877e+001
8.061781e+002, 1.800436e+001
8.066602e+002, 1.794805e+001
8.071423e+002, 1.806254e+001
8.076245e+002, 1.810020e+001
8.081066e+002, 1.803385e+001
8.085887e+002, 1.798047e+001
8.090708e+002, 1.799676e+001
8.095529e+002, 1.804633e+001
8.100350e+002, 1.808322e+001
8.105172e+002, 1.811159e+001
8.109993e+002, 1.809174e+001
8.114814e+002, 1.797656e+001
8.119635e+002, 1.787405e+001
8.124456e+002, 1.781431e+001
8.129277e+002, 1.777991e+001
8.134099e+002, 1.774027e+001
8.138920e+002, 1.770678e+001
8.143741e+002, 1.774566e+001
8.148562e+002, 1.794274e+001
8.153383e+002, 1.811188e+001
8.158204e+002, 1.800764e+001
8.163026e+002, 1.774058e+001
8.167847e+002, 1.753132e+001
8.172668e+002, 1.741305e+001
8.177489e+002, 1.740122e+001
8.182310e+002, 1.751646e+001
8.187131e+002, 1.767211e+001
8.191953e+002, 1.767731e+001
8.196774e+002, 1.748523e+001
8.201595e+002, 1.745306e+001
8.206416e+002, 1.769243e+001
8.211237e+002, 1.787974e+001
8.216058e+002, 1.785082e+001
8.220880e+002, 1.773994e+001
8.225701e+002, 1.767300e+001
8.230522e+002, 1.765294e+001
8.235343e+002, 1.770211e+001
8.240164e+002, 1.794465e+001
8.244985e+002, 1.811374e+001
8.249807e+002, 1.798957e+001
8.254628e+002, 1.779911e+001
8.259449e+002, 1.780223e+001
8.264270e+002, 1.799704e+001
8.269091e+002, 1.824359e+001
8.273912e+002, 1.848007e+001
8.278734e+002, 1.865998e+001
8.283555e+002, 1.869488e+001
8.288376e+002, 1.861457e+001
8.293197e+002, 1.854200e+001
8.298018e+002, 1.848844e+001
8.302839e+002, 1.841545e+001
8.307661e+002, 1.829192e+001
8.312482e+002, 1.817799e+001
8.317303e+002, 1.818689e+001
8.322124e+002, 1.834971e+001
8.326945e+002, 1.840656e+001
8.331766e+002, 1.827713e+001
8.336588e+002, 1.815557e+001
8.341409e+002, 1.802802e+001
8.346230e+002, 1.797003e+001
8.351051e+002, 1.809399e+001
8.355872e+002, 1.835790e+001
8.360693e+002, 1.854968e+001
8.365515e+002, 1.856144e+001
8.370336e+002, 1.855917e+001
8.375157e+002, 1.869303e+001
8.379978e+002, 1.882206e+001
8.384799e+002, 1.870760e+001
8.389620e+002, 1.842816e+001
8.394442e+002, 1.829527e+001
8.399263e+002, 1.845654e+001
8.404084e+002, 1.873203e+001
8.408905e+002, 1.892295e+001
8.413726e+002, 1.902027e+001
8.418547e+002, 1.890214e+001
8.423369e+002, 1.854550e+001
8.428190e+002, 1.835810e+001
8.433011e+002, 1.852980e+001
8.437832e+002, 1.880574e+001
8.442653e+002, 1.889509e+001
8.447474e+002, 1.880241e+001
8.452296e+002, 1.871194e+001
8.457117e+002, 1.857850e+001
8.461938e+002, 1.851605e+001
8.466759e+002, 1.856698e+001
8.471580e+002, 1.865827e+001
8.476401e+002, 1.878522e+001
8.481223e+002, 1.890987e+001
8.486044e+002, 1.894219e+001
8.490865e+002, 1.883153e+001
8.495686e+002, 1.875348e+001
8.500507e+002, 1.885229e+001
8.505328e+002, 1.899027e+001
8.510150e+002, 1.904224e+001
8.514971e+002, 1.901456e+001
8.519792e+002, 1.891938e+001
8.524613e+002, 1.877270e+001
8.529434e+002, 1.865337e+001
8.534255e+002, 1.864004e+001
8.539077e+002, 1.871430e+001
8.543898e+002, 1.883535e+001
8.548719e+002, 1.900334e+001
8.553540e+002, 1.916695e+001
8.558361e+002, 1.933943e+001
8.563182e+002, 1.938458e+001
8.568004e+002, 1.913975e+001
8.572825e+002, 1.873453e+001
8.577646e+002, 1.860057e+001
8.582467e+002, 1.896114e+001
8.587288e+002, 1.910790e+001
8.592109e+002, 1.876247e+001
8.596931e+002, 1.853425e+001
8.601752e+002, 1.879739e+001
8.606573e+002, 1.920334e+001
8.611394e+002, 1.930511e+001
8.616215e+002, 1.906483e+001
8.621036e+002, 1.882681e+001
8.625858e+002, 1.860879e+001
8.630679e+002, 1.856607e+001
8.635500e+002, 1.901311e+001
8.640321e+002, 1.959083e+001
8.645142e+002, 1.976284e+001
8.649963e+002, 1.952530e+001
8.654785e+002, 1.919311e+001
8.659606e+002, 1.893319e+001
8.664427e+002, 1.879475e+001
8.669248e+002, 1.891873e+001
8.674069e+002, 1.924659e+001
8.678890e+002, 1.945837e+001
8.683712e+002, 1.953201e+001
8.688533e+002, 1.961089e+001
8.693354e+002, 1.976699e+001
8.698175e+002, 1.990711e+001
8.702996e+002, 1.988770e+001
8.707817e+002, 1.970635e+001
8.712639e+002, 1.964813e+001
8.717459e+002, 1.978254e+001
8.722280e+002, 1.991772e+001
8.727101e+002, 2.005942e+001
8.731923e+002, 2.015781e+001
8.736744e+002, 2.014534e+001
8.741565e+002, 2.007041e+001
8.746386e+002, 2.005303e+001
8.751207e+002, 2.012646e+001
8.756028e+002, 2.021470e+001
8.760850e+002, 2.030261e+001
8.765671e+002, 2.038473e+001
8.770492e+002, 2.047205e+001
8.775313e+002, 2.054478e+001
8.780134e+002, 2.056946e+001
8.784955e+002, 2.054034e+001
8.789777e+002, 2.047643e+001
8.794598e+002, 2.035654e+001
8.799419e+002, 2.025310e+001
8.804240e+002, 2.032989e+001
8.809061e+002, 2.052821e+001
8.813882e+002, 2.060415e+001
8.818704e+002, 2.052796e+001
8.823525e+002, 2.049938e+001
8.828346e+002, 2.065034e+001
8.833167e+002, 2.090135e+001
8.837988e+002, 2.111797e+001
8.842809e+002, 2.132730e+001
8.847631e+002, 2.125925e+001
8.852452e+002, 2.073356e+001
8.857273e+002, 2.037969e+001
8.862094e+002, 2.047524e+001
8.866915e+002, 2.077385e+001
8.871736e+002, 2.103314e+001
8.876558e+002, 2.125383e+001
8.881379e+002, 2.146146e+001
8.886200e+002, 2.170856e+001
8.891021e+002, 2.186903e+001
8.895842e+002, 2.185487e+001
8.900663e+002, 2.181062e+001
8.905485e+002, 2.186778e+001
8.910306e+002, 2.196128e+001
8.915127e+002, 2.192244e+001
8.919948e+002, 2.169732e+001
8.924769e+002, 2.152453e+001
8.929590e+002, 2.161333e+001
8.934412e+002, 2.178243e+001
8.939233e+002, 2.188120e+001
8.944054e+002, 2.189777e+001
8.948875e+002, 2.173704e+001
8.953696e+002, 2.143521e+001
8.958517e+002, 2.131675e+001
8.963339e+002, 2.165585e+001
8.968160e+002, 2.221112e+001
8.972981e+002, 2.250863e+001
8.977802e+002, 2.256607e+001
8.982623e+002, 2.255411e+001
8.987444e+002, 2.248182e+001
8.992266e+002, 2.239793e+001
8.997087e+002, 2.230204e+001
9.001908e+002, 2.227643e+001
9.006729e+002, 2.247193e+001
9.011550e+002, 2.290550e+001
9.016371e+002, 2.316984e+001
9.021193e+002, 2.318558e+001
9.026014e+002, 2.318093e+001
9.030835e+002, 2.321398e+001
9.035656e+002, 2.322245e+001
9.040477e+002, 2.309155e+001
9.045298e+002, 2.291171e+001
9.050120e+002, 2.293832e+001
9.054941e+002, 2.329343e+001
9.059762e+002, 2.358154e+001
9.064583e+002, 2.370674e+001
9.069404e+002, 2.373808e+001
9.074225e+002, 2.360163e+001
9.079047e+002, 2.345580e+001
9.083868e+002, 2.355285e+001
9.088689e+002, 2.389448e+001
9.093510e+002, 2.420587e+001
9.098331e+002, 2.431938e+001
9.103152e+002, 2.434258e+001
9.107974e+002, 2.433926e+001
9.112795e+002, 2.434336e+001
9.117616e+002, 2.444120e+001
9.122437e+002, 2.461684e+001
9.127258e+002, 2.475009e+001
9.132079e+002, 2.478366e+001
9.136901e+002, 2.481667e+001
9.141722e+002, 2.501508e+001
9.146543e+002, 2.533315e+001
9.151364e+002, 2.547259e+001
9.156185e+002, 2.542356e+001
9.161006e+002, 2.552077e+001
9.165828e+002, 2.589163e+001
9.170649e+002, 2.621676e+001
9.175470e+002, 2.619117e+001
9.180291e+002, 2.594900e+001
9.185112e+002, 2.600498e+001
9.189933e+002, 2.657384e+001
9.194755e+002, 2.688350e+001
9.199576e+002, 2.669854e+001
9.204397e+002, 2.659123e+001
9.209218e+002, 2.689929e+001
9.214039e+002, 2.732463e+001
9.218860e+002, 2.751919e+001
9.223682e+002, 2.749038e+001
9.228503e+002, 2.754405e+001
9.233324e+002, 2.779099e+001
9.238145e+002, 2.803191e+001
9.242966e+002, 2.829583e+001
9.247787e+002, 2.845701e+001
9.252609e+002, 2.828342e+001
9.257430e+002, 2.796390e+001
9.262251e+002, 2.792044e+001
9.267072e+002, 2.828373e+001
9.271893e+002, 2.865586e+001
9.276714e+002, 2.878541e+001
9.281536e+002, 2.878654e+001
9.286357e+002, 2.872476e+001
9.291178e+002, 2.864021e+001
9.295999e+002, 2.863417e+001
9.300820e+002, 2.869516e+001
9.305641e+002, 2.865639e+001
9.310463e+002, 2.839310e+001
9.315284e+002, 2.808564e+001
9.320105e+002, 2.805911e+001
9.324926e+002, 2.823725e+001
9.329747e+002, 2.829493e+001
9.334568e+002, 2.822153e+001
9.339390e+002, 2.815409e+001
9.344211e+002, 2.814459e+001
9.349032e+002, 2.815389e+001
9.353853e+002, 2.815652e+001
9.358674e+002, 2.813031e+001
9.363495e+002, 2.789462e+001
9.368317e+002, 2.734231e+001
9.373138e+002, 2.707103e+001
9.377959e+002, 2.725418e+001
9.382780e+002, 2.749087e+001
9.387601e+002, 2.758934e+001
9.392422e+002, 2.758520e+001
9.397244e+002, 2.753999e+001
9.402065e+002, 2.745437e+001
9.406886e+002, 2.732279e+001
9.411707e+002, 2.711071e+001
9.416528e+002, 2.690069e+001
9.421349e+002, 2.659648e+001
9.426171e+002, 2.639954e+001
9.430992e+002, 2.659198e+001
9.435813e+002, 2.699288e+001
9.440634e+002, 2.709825e+001
9.445455e+002, 2.670701e+001
9.450276e+002, 2.642037e+001
9.455098e+002, 2.657477e+001
9.459919e+002, 2.677097e+001
9.464740e+002, 2.673791e+001
9.469561e+002, 2.658737e+001
9.474382e+002, 2.645168e+001
9.479203e+002, 2.637200e+001
9.484025e+002, 2.638741e+001
9.488846e+002, 2.655467e+001
9.493667e+002, 2.673127e+001
9.498488e+002, 2.676288e+001
9.503309e+002, 2.672689e+001
9.508130e+002, 2.672930e+001
9.512952e+002, 2.677704e+001
9.517773e+002, 2.685698e+001
9.522594e+002, 2.696365e+001
9.527415e+002, 2.709856e+001
9.532236e+002, 2.728876e+001
9.537057e+002, 2.747708e+001
9.541878e+002, 2.750014e+001
9.546699e+002, 2.738386e+001
9.551520e+002, 2.729539e+001
9.556342e+002, 2.725814e+001
9.561163e+002, 2.724233e+001
9.565984e+002, 2.723121e+001
9.570805e+002, 2.723625e+001
9.575626e+002, 2.727588e+001
9.580447e+002, 2.735028e+001
9.585269e+002, 2.746868e+001
9.590090e+002, 2.767756e+001
9.594911e+002, 2.770431e+001
9.599732e+002, 2.738962e+001
9.604553e+002, 2.711443e+001
9.609374e+002, 2.718847e+001
9.614196e+002, 2.749997e+001
9.619017e+002, 2.774573e+001
9.623838e+002, 2.794373e+001
9.628659e+002, 2.801690e+001
9.633480e+002, 2.783359e+001
9.638301e+002, 2.770278e+001
9.643123e+002, 2.773754e+001
9.647944e+002, 2.783080e+001
9.652765e+002, 2.792618e+001
9.657586e+002, 2.800498e+001
9.662407e+002, 2.799131e+001
9.667228e+002, 2.779413e+001
9.672050e+002, 2.767092e+001
9.676871e+002, 2.775088e+001
9.681692e+002, 2.783878e+001
9.686513e+002, 2.781903e+001
9.691334e+002, 2.774204e+001
9.696155e+002, 2.766362e+001
9.700977e+002, 2.760085e+001
9.705798e+002, 2.758776e+001
9.710619e+002, 2.767845e+001
9.715440e+002, 2.775970e+001
9.720261e+002, 2.775265e+001
9.725082e+002, 2.770629e+001
9.729904e+002, 2.765838e+001
9.734725e+002, 2.761871e+001
9.739546e+002, 2.760698e+001
9.744367e+002, 2.762353e+001
9.749188e+002, 2.761283e+001
9.754009e+002, 2.750606e+001
9.758831e+002, 2.737536e+001
9.763652e+002, 2.732808e+001
9.768473e+002, 2.732697e+001
9.773294e+002, 2.729402e+001
9.778115e+002, 2.722226e+001
9.782936e+002, 2.713679e+001
9.787758e+002, 2.704917e+001
9.792579e+002, 2.696008e+001
9.797400e+002, 2.681248e+001
9.802221e+002, 2.668397e+001
9.807042e+002, 2.697747e+001
9.811863e+002, 2.760455e+001
9.816685e+002, 2.768765e+001
9.821506e+002, 2.705661e+001
9.826327e+002, 2.684957e+001
9.831148e+002, 2.791829e+001
9.835969e+002, 2.931813e+001
9.840790e+002, 2.905149e+001
9.845612e+002, 2.710253e+001
9.850433e+002, 2.615555e+001
9.855254e+002, 2.639837e+001
9.860075e+002, 2.652871e+001
9.864896e+002, 2.616621e+001
9.869717e+002, 2.573948e+001
9.874539e+002, 2.558909e+001
9.879360e+002, 2.564738e+001
9.884181e+002, 2.571561e+001
9.889002e+002, 2.582620e+001
9.893823e+002, 2.582281e+001
9.898644e+002, 2.563841e+001
9.903466e+002, 2.546984e+001
9.908287e+002, 2.539691e+001
9.913108e+002, 2.534185e+001
9.917929e+002, 2.521004e+001
9.922750e+002, 2.502479e+001
9.927571e+002, 2.492682e+001
9.932393e+002, 2.494590e+001
9.937214e+002, 2.499876e+001
9.942035e+002, 2.514363e+001
9.946856e+002, 2.525167e+001
9.951677e+002, 2.523658e+001
9.956498e+002, 2.518543e+001
9.961320e+002, 2.519846e+001
9.966141e+002, 2.526987e+001
9.970962e+002, 2.531962e+001
9.975783e+002, 2.536192e+001
9.980604e+002, 2.533233e+001
9.985425e+002, 2.504848e+001
9.990247e+002, 2.486141e+001
9.995068e+002, 2.514432e+001
9.999889e+002, 2.558439e+001
1.000471e+003, 2.567494e+001
1.000953e+003, 2.539124e+001
1.001435e+003, 2.521222e+001
1.001917e+003, 2.541718e+001
1.002399e+003, 2.564668e+001
1.002882e+003, 2.573025e+001
1.003364e+003, 2.572765e+001
1.003846e+003, 2.564187e+001
1.004328e+003, 2.553233e+001
1.004810e+003, 2.552215e+001
1.005292e+003, 2.562642e+001
1.005774e+003, 2.567829e+001
1.006256e+003, 2.548144e+001
1.006739e+003, 2.531194e+001
1.007221e+003, 2.554814e+001
1.007703e+003, 2.589974e+001
1.008185e+003, 2.593201e+001
1.008667e+003, 2.569737e+001
1.009149e+003, 2.545475e+001
1.009631e+003, 2.530218e+001
1.010113e+003, 2.521243e+001
1.010595e+003, 2.514593e+001
1.011078e+003, 2.514700e+001
1.011560e+003, 2.534814e+001
1.012042e+003, 2.565056e+001
1.012524e+003, 2.582531e+001
1.013006e+003, 2.585959e+001
1.013488e+003, 2.585584e+001
1.013970e+003, 2.585818e+001
1.014452e+003, 2.580348e+001
1.014935e+003, 2.556439e+001
1.015417e+003, 2.526027e+001
1.015899e+003, 2.520633e+001
1.016381e+003, 2.536254e+001
1.016863e+003, 2.559181e+001
1.017345e+003, 2.585460e+001
1.017827e+003, 2.598086e+001
1.018309e+003, 2.587731e+001
1.018791e+003, 2.569847e+001
1.019274e+003, 2.565164e+001
1.019756e+003, 2.571537e+001
1.020238e+003, 2.580495e+001
1.020720e+003, 2.591712e+001
1.021202e+003, 2.595954e+001
1.021684e+003, 2.591328e+001
1.022166e+003, 2.585192e+001
1.022648e+003, 2.581650e+001
1.023130e+003, 2.579547e+001
1.023613e+003, 2.577045e+001
1.024095e+003, 2.574178e+001
1.024577e+003, 2.570959e+001
1.025059e+003, 2.566777e+001
1.025541e+003, 2.567700e+001
1.026023e+003, 2.575495e+001
1.026505e+003, 2.585555e+001
1.026987e+003, 2.595066e+001
1.027469e+003, 2.605044e+001
1.027952e+003, 2.617801e+001
1.028434e+003, 2.633683e+001
1.028916e+003, 2.645414e+001
1.029398e+003, 2.652117e+001
1.029880e+003, 2.657888e+001
1.030362e+003, 2.663600e+001
1.030844e+003, 2.667983e+001
1.031326e+003, 2.668438e+001
1.031809e+003, 2.669030e+001
1.032291e+003, 2.678384e+001
1.032773e+003, 2.697496e+001
1.033255e+003, 2.717623e+001
1.033737e+003, 2.743535e+001
1.034219e+003, 2.759605e+001
1.034701e+003, 2.757372e+001
1.035183e+003, 2.752965e+001
1.035666e+003, 2.755467e+001
1.036148e+003, 2.763775e+001
1.036630e+003, 2.774539e+001
1.037112e+003, 2.785653e+001
1.037594e+003, 2.811530e+001
1.038076e+003, 2.873485e+001
1.038558e+003, 2.915374e+001
1.039040e+003, 2.913696e+001
1.039522e+003, 2.904151e+001
1.040005e+003, 2.904910e+001
1.040487e+003, 2.915269e+001
1.040969e+003, 2.936511e+001
1.041451e+003, 2.973132e+001
1.041933e+003, 2.997080e+001
1.042415e+003, 3.000134e+001
1.042897e+003, 3.001443e+001
1.043379e+003, 2.996710e+001
1.043861e+003, 2.999100e+001
1.044344e+003, 3.019744e+001
1.044826e+003, 3.052645e+001
1.045308e+003, 3.088536e+001
1.045790e+003, 3.128768e+001
1.046272e+003, 3.157279e+001
1.046754e+003, 3.163083e+001
1.047236e+003, 3.169896e+001
1.047718e+003, 3.182733e+001
1.048201e+003, 3.199136e+001
1.048683e+003, 3.216301e+001
1.049165e+003, 3.236108e+001
1.049647e+003, 3.262828e+001
1.050129e+003, 3.297091e+001
1.050611e+003, 3.334415e+001
1.051093e+003, 3.388616e+001
1.051575e+003, 3.425425e+001
1.052057e+003, 3.414944e+001
1.052540e+003, 3.402523e+001
1.053022e+003, 3.417064e+001
1.053504e+003, 3.454924e+001
1.053986e+003, 3.513398e+001
1.054468e+003, 3.593148e+001
1.054950e+003, 3.650893e+001
1.055432e+003, 3.656011e+001
1.055914e+003, 3.663438e+001
1.056396e+003, 3.700603e+001
1.056879e+003, 3.738511e+001
1.057361e+003, 3.747438e+001
1.057843e+003, 3.744694e+001
1.058325e+003, 3.764412e+001
1.058807e+003, 3.811389e+001
1.059289e+003, 3.856069e+001
1.059771e+003, 3.894036e+001
1.060253e+003, 3.921128e+001
1.060736e+003, 3.931353e+001
1.061218e+003, 3.934646e+001
1.061700e+003, 3.938735e+001
1.062182e+003, 3.941209e+001
1.062664e+003, 3.936182e+001
1.063146e+003, 3.923234e+001
1.063628e+003, 3.909579e+001
1.064110e+003, 3.892669e+001
1.064593e+003, 3.882778e+001
1.065075e+003, 3.890732e+001
1.065557e+003, 3.900764e+001
1.066039e+003, 3.902906e+001
1.066521e+003, 3.897904e+001
1.067003e+003, 3.889949e+001
1.067485e+003, 3.878654e+001
1.067967e+003, 3.855769e+001
1.068449e+003, 3.813831e+001
1.068932e+003, 3.767455e+001
1.069414e+003, 3.710668e+001
1.069896e+003, 3.664563e+001
1.070378e+003, 3.662951e+001
1.070860e+003, 3.671829e+001
1.071342e+003, 3.633056e+001
1.071824e+003, 3.549212e+001
1.072306e+003, 3.485252e+001
1.072788e+003, 3.473690e+001
1.073271e+003, 3.465215e+001
1.073753e+003, 3.440810e+001
1.074235e+003, 3.407097e+001
1.074717e+003, 3.360757e+001
1.075199e+003, 3.313163e+001
1.075681e+003, 3.281184e+001
1.076163e+003, 3.262704e+001
1.076645e+003, 3.239005e+001
1.077127e+003, 3.202628e+001
1.077610e+003, 3.163736e+001
1.078092e+003, 3.125199e+001
1.078574e+003, 3.087565e+001
1.079056e+003, 3.052733e+001
1.079538e+003, 3.017714e+001
1.080020e+003, 2.974415e+001
1.080502e+003, 2.927388e+001
1.080984e+003, 2.893879e+001
1.081467e+003, 2.881913e+001
1.081949e+003, 2.870304e+001
1.082431e+003, 2.849543e+001
1.082913e+003, 2.826141e+001
1.083395e+003, 2.802662e+001
1.083877e+003, 2.779777e+001
1.084359e+003, 2.760698e+001
1.084841e+003, 2.742261e+001
1.085323e+003, 2.714246e+001
1.085806e+003, 2.672554e+001
1.086288e+003, 2.636717e+001
1.086770e+003, 2.617132e+001
1.087252e+003, 2.602825e+001
1.087734e+003, 2.587081e+001
1.088216e+003, 2.574596e+001
1.088698e+003, 2.575099e+001
1.089180e+003, 2.580842e+001
1.089662e+003, 2.574360e+001
1.090145e+003, 2.551969e+001
1.090627e+003, 2.530044e+001
1.091109e+003, 2.516979e+001
1.091591e+003, 2.502478e+001
1.092073e+003, 2.476847e+001
1.092555e+003, 2.453176e+001
1.093037e+003, 2.442609e+001
1.093519e+003, 2.441200e+001
1.094002e+003, 2.444790e+001
1.094484e+003, 2.451412e+001
1.094966e+003, 2.448157e+001
1.095448e+003, 2.425289e+001
1.095930e+003, 2.400346e+001
1.096412e+003, 2.376949e+001
1.096894e+003, 2.355541e+001
1.097376e+003, 2.339306e+001
1.097859e+003, 2.323207e+001
1.098341e+003, 2.297089e+001
1.098823e+003, 2.263131e+001
1.099305e+003, 2.239702e+001
1.099787e+003, 2.234760e+001
1.100269e+003, 2.232722e+001
1.100751e+003, 2.233997e+001
1.101233e+003, 2.232084e+001
1.101715e+003, 2.217256e+001
1.102198e+003, 2.202601e+001
1.102680e+003, 2.206377e+001
1.103162e+003, 2.222960e+001
1.103644e+003, 2.228489e+001
1.104126e+003, 2.217759e+001
1.104608e+003, 2.201660e+001
1.105090e+003, 2.169589e+001
1.105572e+003, 2.148795e+001
1.106054e+003, 2.164790e+001
1.106537e+003, 2.180971e+001
1.107019e+003, 2.156672e+001
1.107501e+003, 2.111938e+001
1.107983e+003, 2.101362e+001
1.108465e+003, 2.137512e+001
1.108947e+003, 2.157555e+001
1.109429e+003, 2.148684e+001
1.109911e+003, 2.133699e+001
1.110394e+003, 2.107040e+001
1.110876e+003, 2.086134e+001
1.111358e+003, 2.086246e+001
1.111840e+003, 2.096426e+001
1.112322e+003, 2.097879e+001
1.112804e+003, 2.089739e+001
1.113286e+003, 2.086917e+001
1.113768e+003, 2.097830e+001
1.114250e+003, 2.099927e+001
1.114733e+003, 2.084376e+001
1.115215e+003, 2.069849e+001
1.115697e+003, 2.065577e+001
1.116179e+003, 2.065021e+001
1.116661e+003, 2.060602e+001
1.117143e+003, 2.053003e+001
1.117625e+003, 2.047173e+001
1.118107e+003, 2.043298e+001
1.118589e+003, 2.041102e+001
1.119072e+003, 2.042679e+001
1.119554e+003, 2.041536e+001
1.120036e+003, 2.033910e+001
1.120518e+003, 2.025735e+001
1.121000e+003, 2.022178e+001
1.121482e+003, 2.021905e+001
1.121964e+003, 2.021666e+001
1.122446e+003, 2.022572e+001
1.122929e+003, 2.015231e+001
1.123411e+003, 1.994750e+001
1.123893e+003, 1.984589e+001
1.124375e+003, 1.995446e+001
1.124857e+003, 1.999147e+001
1.125339e+003, 1.975296e+001
1.125821e+003, 1.938762e+001
1.126303e+003, 1.913654e+001
1.126786e+003, 1.900041e+001
1.127268e+003, 1.903115e+001
1.127750e+003, 1.926264e+001
1.128232e+003, 1.934267e+001
1.128714e+003, 1.921143e+001
1.129196e+003, 1.899624e+001
1.129678e+003, 1.871924e+001
1.130160e+003, 1.861593e+001
1.130642e+003, 1.902261e+001
1.131125e+003, 1.971676e+001
1.131607e+003, 1.986149e+001
1.132089e+003, 1.949216e+001
1.132571e+003, 1.924089e+001
1.133053e+003, 1.913981e+001
1.133535e+003, 1.899262e+001
1.134017e+003, 1.873923e+001
1.134499e+003, 1.849203e+001
1.134981e+003, 1.833570e+001
1.135464e+003, 1.825027e+001
1.135946e+003, 1.820078e+001
1.136428e+003, 1.819102e+001
1.136910e+003, 1.826955e+001
1.137392e+003, 1.840643e+001
1.137874e+003, 1.846294e+001
1.138356e+003, 1.841462e+001
1.138838e+003, 1.827533e+001
1.139321e+003, 1.805100e+001
1.139803e+003, 1.786144e+001
1.140285e+003, 1.787673e+001
1.140767e+003, 1.797985e+001
1.141249e+003, 1.795222e+001
1.141731e+003, 1.784624e+001
1.142213e+003, 1.778832e+001
1.142695e+003, 1.776489e+001
1.143177e+003, 1.765494e+001
1.143660e+003, 1.743825e+001
1.144142e+003, 1.728447e+001
1.144624e+003, 1.734054e+001
1.145106e+003, 1.744262e+001
1.145588e+003, 1.745275e+001
1.146070e+003, 1.738268e+001
1.146552e+003, 1.714907e+001
1.147034e+003, 1.689173e+001
1.147516e+003, 1.693009e+001
1.147999e+003, 1.722021e+001
1.148481e+003, 1.735383e+001
1.148963e+003, 1.714159e+001
1.149445e+003, 1.686594e+001
1.149927e+003, 1.661529e+001
1.150409e+003, 1.646636e+001
1.150891e+003, 1.660030e+001
1.151373e+003, 1.676293e+001
1.151856e+003, 1.661154e+001
1.152338e+003, 1.627851e+001
1.152820e+003, 1.612403e+001
1.153302e+003, 1.622318e+001
1.153784e+003, 1.634682e+001
1.154266e+003, 1.647254e+001
1.154748e+003, 1.653353e+001
1.155230e+003, 1.649657e+001
1.155713e+003, 1.640097e+001
1.156195e+003, 1.620948e+001
1.156677e+003, 1.601373e+001
1.157159e+003, 1.595299e+001
1.157641e+003, 1.600800e+001
1.158123e+003, 1.599423e+001
1.158605e+003, 1.584346e+001
1.159087e+003, 1.573305e+001
1.159569e+003, 1.568372e+001
1.160052e+003, 1.566230e+001
1.160534e+003, 1.564996e+001
1.161016e+003, 1.567609e+001
1.161498e+003, 1.581539e+001
1.161980e+003, 1.597767e+001
1.162462e+003, 1.594575e+001
1.162944e+003, 1.569150e+001
1.163426e+003, 1.554883e+001
1.163908e+003, 1.555250e+001
1.164391e+003, 1.556891e+001
1.164873e+003, 1.558302e+001
1.165355e+003, 1.560429e+001
1.165837e+003, 1.564346e+001
1.166319e+003, 1.567774e+001
1.166801e+003, 1.568675e+001
1.167283e+003, 1.566169e+001
1.167765e+003, 1.553857e+001
1.168247e+003, 1.531031e+001
1.168730e+003, 1.522056e+001
1.169212e+003, 1.528368e+001
1.169694e+003, 1.533269e+001
1.170176e+003, 1.532113e+001
1.170658e+003, 1.534527e+001
1.171140e+003, 1.547954e+001
1.171622e+003, 1.562851e+001
1.172104e+003, 1.562784e+001
1.172587e+003, 1.552128e+001
1.173069e+003, 1.542058e+001
1.173551e+003, 1.534593e+001
1.174033e+003, 1.540774e+001
1.174515e+003, 1.558510e+001
1.174997e+003, 1.572264e+001
1.175479e+003, 1.575889e+001
1.175961e+003, 1.569832e+001
1.176443e+003, 1.549528e+001
1.176926e+003, 1.531080e+001
1.177408e+003, 1.538155e+001
1.177890e+003, 1.557154e+001
1.178372e+003, 1.575256e+001
1.178854e+003, 1.586580e+001
1.179336e+003, 1.577574e+001
1.179818e+003, 1.552343e+001
1.180300e+003, 1.533892e+001
1.180782e+003, 1.531486e+001
1.181265e+003, 1.538411e+001
1.181747e+003, 1.564588e+001
1.182229e+003, 1.581912e+001
1.182711e+003, 1.561779e+001
1.183193e+003, 1.533140e+001
1.183675e+003, 1.521960e+001
1.184157e+003, 1.524351e+001
1.184639e+003, 1.530043e+001
1.185122e+003, 1.537208e+001
1.185604e+003, 1.543681e+001
1.186086e+003, 1.554354e+001
1.186568e+003, 1.555646e+001
1.187050e+003, 1.533438e+001
1.187532e+003, 1.516182e+001
1.188014e+003, 1.521249e+001
1.188496e+003, 1.531886e+001
1.188979e+003, 1.531840e+001
1.189461e+003, 1.525213e+001
1.189943e+003, 1.524074e+001
1.190425e+003, 1.529669e+001
1.190907e+003, 1.533508e+001
1.191389e+003, 1.535824e+001
1.191871e+003, 1.534694e+001
1.192353e+003, 1.526603e+001
1.192835e+003, 1.525239e+001
1.193318e+003, 1.539218e+001
1.193800e+003, 1.558244e+001
1.194282e+003, 1.570514e+001
1.194764e+003, 1.576306e+001
1.195246e+003, 1.576184e+001
1.195728e+003, 1.570277e+001
1.196210e+003, 1.560151e+001
1.196692e+003, 1.546258e+001
1.197174e+003, 1.533203e+001
1.197657e+003, 1.522614e+001
1.198139e+003, 1.522576e+001
1.198621e+003, 1.538834e+001
1.199103e+003, 1.557582e+001
1.199585e+003, 1.557291e+001
1.200067e+003, 1.549021e+001
1.200549e+003, 1.562453e+001
1.201031e+003, 1.582194e+001
1.201514e+003, 1.565982e+001
1.201996e+003, 1.524805e+001
1.202478e+003, 1.503387e+001
1.202960e+003, 1.512250e+001
1.203442e+003, 1.527945e+001
1.203924e+003, 1.539122e+001
1.204406e+003, 1.546112e+001
1.204888e+003, 1.548016e+001
1.205370e+003, 1.547049e+001
1.205853e+003, 1.542069e+001
1.206335e+003, 1.537531e+001
1.206817e+003, 1.540560e+001
1.207299e+003, 1.548083e+001
1.207781e+003, 1.549824e+001
1.208263e+003, 1.543187e+001
1.208745e+003, 1.541518e+001
1.209227e+003, 1.558554e+001
1.209709e+003, 1.565007e+001
1.210192e+003, 1.543601e+001
1.210674e+003, 1.523519e+001
1.211156e+003, 1.519899e+001
1.211638e+003, 1.524030e+001
1.212120e+003, 1.527513e+001
1.212602e+003, 1.531526e+001
1.213084e+003, 1.542530e+001
1.213566e+003, 1.566383e+001
1.214049e+003, 1.563609e+001
1.214531e+003, 1.522278e+001
1.215013e+003, 1.504138e+001
1.215495e+003, 1.525181e+001
1.215977e+003, 1.549184e+001
1.216459e+003, 1.557362e+001
1.216941e+003, 1.557450e+001
1.217423e+003, 1.558492e+001
1.217906e+003, 1.559563e+001
1.218388e+003, 1.556119e+001
1.218870e+003, 1.549975e+001
1.219352e+003, 1.552910e+001
1.219834e+003, 1.562717e+001
1.220316e+003, 1.562936e+001
1.220798e+003, 1.551809e+001
1.221280e+003, 1.545510e+001
1.221762e+003, 1.553016e+001
1.222245e+003, 1.560907e+001
1.222727e+003, 1.553610e+001
1.223209e+003, 1.541660e+001
1.223691e+003, 1.537541e+001
1.224173e+003, 1.535772e+001
1.224655e+003, 1.527230e+001
1.225137e+003, 1.516122e+001
1.225619e+003, 1.509775e+001
1.226101e+003, 1.510555e+001
1.226584e+003, 1.523381e+001
1.227066e+003, 1.559139e+001
1.227548e+003, 1.579534e+001
1.228030e+003, 1.560133e+001
1.228512e+003, 1.537631e+001
1.228994e+003, 1.522348e+001
1.229476e+003, 1.514856e+001
1.229958e+003, 1.518806e+001
1.230441e+003, 1.528900e+001
1.230923e+003, 1.536800e+001
1.231405e+003, 1.542464e+001
1.231887e+003, 1.543344e+001
1.232369e+003, 1.537302e+001
1.232851e+003, 1.532734e+001
1.233333e+003, 1.529538e+001
1.233815e+003, 1.530068e+001
1.234297e+003, 1.536213e+001
1.234780e+003, 1.541199e+001
1.235262e+003, 1.540465e+001
1.235744e+003, 1.533809e+001
1.236226e+003, 1.515562e+001
1.236708e+003, 1.493820e+001
1.237190e+003, 1.511358e+001
1.237672e+003, 1.556459e+001
1.238154e+003, 1.577257e+001
1.238636e+003, 1.571874e+001
1.239119e+003, 1.556166e+001
1.239601e+003, 1.537979e+001
1.240083e+003, 1.533941e+001
1.240565e+003, 1.557655e+001
1.241047e+003, 1.582793e+001
1.241529e+003, 1.585964e+001
1.242011e+003, 1.576389e+001
1.242493e+003, 1.552512e+001
1.242975e+003, 1.529703e+001
1.243458e+003, 1.531974e+001
1.243940e+003, 1.548026e+001
1.244422e+003, 1.549262e+001
1.244904e+003, 1.532312e+001
1.245386e+003, 1.521166e+001
1.245868e+003, 1.524765e+001
1.246350e+003, 1.529530e+001
1.246832e+003, 1.534408e+001
1.247315e+003, 1.538534e+001
1.247797e+003, 1.545623e+001
1.248279e+003, 1.546328e+001
1.248761e+003, 1.526433e+001
1.249243e+003, 1.503768e+001
1.249725e+003, 1.514895e+001
1.250207e+003, 1.556480e+001
1.250689e+003, 1.568302e+001
1.251172e+003, 1.547248e+001
1.251654e+003, 1.528626e+001
1.252136e+003, 1.514917e+001
1.252618e+003, 1.507012e+001
1.253100e+003, 1.505173e+001
1.253582e+003, 1.511844e+001
1.254064e+003, 1.529469e+001
1.254546e+003, 1.547867e+001
1.255028e+003, 1.551106e+001
1.255510e+003, 1.546536e+001
1.255993e+003, 1.546454e+001
1.256475e+003, 1.549636e+001
1.256957e+003, 1.557931e+001
1.257439e+003, 1.566232e+001
1.257921e+003, 1.559500e+001
1.258403e+003, 1.538515e+001
1.258885e+003, 1.525786e+001
1.259367e+003, 1.532520e+001
1.259850e+003, 1.542198e+001
1.260332e+003, 1.550929e+001
1.260814e+003, 1.555818e+001
1.261296e+003, 1.552105e+001
1.261778e+003, 1.547497e+001
1.262260e+003, 1.547347e+001
1.262742e+003, 1.550513e+001
1.263224e+003, 1.555840e+001
1.263707e+003, 1.562724e+001
1.264189e+003, 1.566411e+001
1.264671e+003, 1.567629e+001
1.265153e+003, 1.561134e+001
1.265635e+003, 1.542387e+001
1.266117e+003, 1.540158e+001
1.266599e+003, 1.564909e+001
1.267081e+003, 1.574248e+001
1.267563e+003, 1.541768e+001
1.268046e+003, 1.509618e+001
1.268528e+003, 1.533728e+001
1.269010e+003, 1.583539e+001
1.269492e+003, 1.584777e+001
1.269974e+003, 1.556677e+001
1.270456e+003, 1.545174e+001
1.270938e+003, 1.548278e+001
1.271420e+003, 1.554553e+001
1.271902e+003, 1.560465e+001
1.272385e+003, 1.564395e+001
1.272867e+003, 1.565713e+001
1.273349e+003, 1.562504e+001
1.273831e+003, 1.548527e+001
1.274313e+003, 1.536847e+001
1.274795e+003, 1.531206e+001
1.275277e+003, 1.533129e+001
1.275759e+003, 1.554312e+001
1.276242e+003, 1.575157e+001
1.276724e+003, 1.565758e+001
1.277206e+003, 1.538614e+001
1.277688e+003, 1.537977e+001
1.278170e+003, 1.567897e+001
1.278652e+003, 1.588163e+001
1.279134e+003, 1.599498e+001
1.279616e+003, 1.596158e+001
1.280099e+003, 1.573735e+001
1.280581e+003, 1.556571e+001
1.281063e+003, 1.553433e+001
1.281545e+003, 1.559356e+001
1.282027e+003, 1.572029e+001
1.282509e+003, 1.582174e+001
1.282991e+003, 1.565412e+001
1.283473e+003, 1.538902e+001
1.283955e+003, 1.539776e+001
##END=



