##NAMES=Parisite-(Ce)
##RRUFFID=R120061
##IDEAL CHEMISTRY=CaCe_2_(CO_3_)_3_F_2_
##LOCALITY=Snowbird mine, Fish Creek, Alberton, Mineral County, Montana, USA
##OWNER=RRUFF
##SOURCE=Donald Doell
##DESCRIPTION=Brown hexagonal prismatic crystals, associated with white quartz
##STATUS=The identification of this mineral has been confirmed by single-crystal X-ray diffraction.
##URL=rruff.info/R120061
9.001007e+001, 0.000000e+000
9.049219e+001, 1.996118e+001
9.097430e+001, 2.010506e+001
9.145642e+001, 2.009148e+001
9.193854e+001, 1.992811e+001
9.242065e+001, 1.967933e+001
9.290277e+001, 1.934927e+001
9.338489e+001, 1.896985e+001
9.386700e+001, 1.861482e+001
9.434912e+001, 1.828078e+001
9.483124e+001, 1.799847e+001
9.531335e+001, 1.788600e+001
9.579547e+001, 1.796618e+001
9.627759e+001, 1.804855e+001
9.675970e+001, 1.785969e+001
9.724182e+001, 1.742199e+001
9.772394e+001, 1.703694e+001
9.820605e+001, 1.686446e+001
9.868817e+001, 1.688479e+001
9.917029e+001, 1.685099e+001
9.965240e+001, 1.674009e+001
1.001345e+002, 1.660624e+001
1.006166e+002, 1.659568e+001
1.010988e+002, 1.675585e+001
1.015809e+002, 1.683069e+001
1.020630e+002, 1.662076e+001
1.025451e+002, 1.603012e+001
1.030272e+002, 1.563825e+001
1.035093e+002, 1.554026e+001
1.039915e+002, 1.566076e+001
1.044736e+002, 1.567385e+001
1.049557e+002, 1.552946e+001
1.054378e+002, 1.534951e+001
1.059199e+002, 1.522907e+001
1.064020e+002, 1.525412e+001
1.068842e+002, 1.517204e+001
1.073663e+002, 1.488860e+001
1.078484e+002, 1.440151e+001
1.083305e+002, 1.407906e+001
1.088126e+002, 1.400424e+001
1.092947e+002, 1.404990e+001
1.097769e+002, 1.410028e+001
1.102590e+002, 1.420799e+001
1.107411e+002, 1.426682e+001
1.112232e+002, 1.424668e+001
1.117053e+002, 1.412864e+001
1.121874e+002, 1.401486e+001
1.126696e+002, 1.385372e+001
1.131517e+002, 1.371498e+001
1.136338e+002, 1.368904e+001
1.141159e+002, 1.407672e+001
1.145980e+002, 1.434362e+001
1.150801e+002, 1.425449e+001
1.155623e+002, 1.361193e+001
1.160444e+002, 1.302600e+001
1.165265e+002, 1.262916e+001
1.170086e+002, 1.239727e+001
1.174907e+002, 1.229515e+001
1.179728e+002, 1.244083e+001
1.184550e+002, 1.262895e+001
1.189371e+002, 1.272960e+001
1.194192e+002, 1.269143e+001
1.199013e+002, 1.259914e+001
1.203834e+002, 1.244124e+001
1.208655e+002, 1.224588e+001
1.213477e+002, 1.212279e+001
1.218298e+002, 1.221712e+001
1.223119e+002, 1.238624e+001
1.227940e+002, 1.247917e+001
1.232761e+002, 1.242755e+001
1.237582e+002, 1.230330e+001
1.242404e+002, 1.214616e+001
1.247225e+002, 1.195885e+001
1.252046e+002, 1.177412e+001
1.256867e+002, 1.162058e+001
1.261688e+002, 1.148824e+001
1.266509e+002, 1.136020e+001
1.271331e+002, 1.119613e+001
1.276152e+002, 1.104422e+001
1.280973e+002, 1.098618e+001
1.285794e+002, 1.102629e+001
1.290615e+002, 1.110827e+001
1.295436e+002, 1.124508e+001
1.300258e+002, 1.140113e+001
1.305079e+002, 1.142060e+001
1.309900e+002, 1.109644e+001
1.314721e+002, 1.056944e+001
1.319542e+002, 1.028485e+001
1.324363e+002, 1.028919e+001
1.329185e+002, 1.043627e+001
1.334006e+002, 1.055301e+001
1.338827e+002, 1.063936e+001
1.343648e+002, 1.064956e+001
1.348469e+002, 1.051576e+001
1.353290e+002, 1.025148e+001
1.358112e+002, 1.004729e+001
1.362933e+002, 9.911912e+000
1.367754e+002, 9.851633e+000
1.372575e+002, 9.918569e+000
1.377396e+002, 1.014530e+001
1.382217e+002, 1.035417e+001
1.387039e+002, 1.044174e+001
1.391860e+002, 1.040082e+001
1.396681e+002, 1.027427e+001
1.401502e+002, 1.002505e+001
1.406323e+002, 9.700062e+000
1.411144e+002, 9.505218e+000
1.415966e+002, 9.482064e+000
1.420787e+002, 9.509378e+000
1.425608e+002, 9.470267e+000
1.430429e+002, 9.287652e+000
1.435250e+002, 9.270679e+000
1.440071e+002, 9.566051e+000
1.444893e+002, 1.014784e+001
1.449714e+002, 1.038751e+001
1.454535e+002, 1.011219e+001
1.459356e+002, 9.659616e+000
1.464177e+002, 9.331700e+000
1.468998e+002, 9.061507e+000
1.473820e+002, 9.021207e+000
1.478641e+002, 9.385391e+000
1.483462e+002, 1.028038e+001
1.488283e+002, 1.065859e+001
1.493104e+002, 1.004457e+001
1.497925e+002, 9.138838e+000
1.502747e+002, 8.750256e+000
1.507568e+002, 9.383530e+000
1.512389e+002, 1.002072e+001
1.517210e+002, 1.049178e+001
1.522031e+002, 1.082955e+001
1.526852e+002, 1.089372e+001
1.531674e+002, 1.042186e+001
1.536495e+002, 9.731713e+000
1.541316e+002, 9.280575e+000
1.546137e+002, 9.240634e+000
1.550958e+002, 9.325680e+000
1.555779e+002, 9.445906e+000
1.560601e+002, 9.567946e+000
1.565422e+002, 9.786229e+000
1.570243e+002, 1.013424e+001
1.575064e+002, 1.058604e+001
1.579885e+002, 1.109142e+001
1.584706e+002, 1.164674e+001
1.589528e+002, 1.224801e+001
1.594349e+002, 1.290919e+001
1.599170e+002, 1.371424e+001
1.603991e+002, 1.443343e+001
1.608812e+002, 1.475274e+001
1.613633e+002, 1.490482e+001
1.618455e+002, 1.550034e+001
1.623276e+002, 1.721844e+001
1.628097e+002, 1.915642e+001
1.632918e+002, 2.075128e+001
1.637739e+002, 2.153960e+001
1.642560e+002, 2.240764e+001
1.647382e+002, 2.364906e+001
1.652203e+002, 2.525952e+001
1.657024e+002, 2.722233e+001
1.661845e+002, 2.973219e+001
1.666666e+002, 3.251181e+001
1.671487e+002, 3.528585e+001
1.676309e+002, 3.800410e+001
1.681130e+002, 4.071284e+001
1.685951e+002, 4.336947e+001
1.690772e+002, 4.600193e+001
1.695593e+002, 4.871238e+001
1.700414e+002, 5.172798e+001
1.705236e+002, 5.481951e+001
1.710057e+002, 5.766396e+001
1.714878e+002, 5.987806e+001
1.719699e+002, 6.206187e+001
1.724520e+002, 6.480887e+001
1.729341e+002, 6.808201e+001
1.734163e+002, 7.126867e+001
1.738984e+002, 7.393044e+001
1.743805e+002, 7.622883e+001
1.748626e+002, 7.835674e+001
1.753447e+002, 8.041930e+001
1.758268e+002, 8.237686e+001
1.763090e+002, 8.414426e+001
1.767911e+002, 8.570470e+001
1.772732e+002, 8.724364e+001
1.777553e+002, 8.851128e+001
1.782374e+002, 8.946199e+001
1.787195e+002, 9.040830e+001
1.792017e+002, 9.144529e+001
1.796838e+002, 9.258994e+001
1.801659e+002, 9.383268e+001
1.806480e+002, 9.518096e+001
1.811301e+002, 9.666455e+001
1.816122e+002, 9.838921e+001
1.820944e+002, 1.003121e+002
1.825765e+002, 1.022471e+002
1.830586e+002, 1.040870e+002
1.835407e+002, 1.058901e+002
1.840228e+002, 1.078623e+002
1.845049e+002, 1.099889e+002
1.849871e+002, 1.122810e+002
1.854692e+002, 1.148741e+002
1.859513e+002, 1.177060e+002
1.864334e+002, 1.202925e+002
1.869155e+002, 1.223176e+002
1.873976e+002, 1.239261e+002
1.878798e+002, 1.256183e+002
1.883619e+002, 1.274076e+002
1.888440e+002, 1.292690e+002
1.893261e+002, 1.311301e+002
1.898082e+002, 1.330083e+002
1.902903e+002, 1.349306e+002
1.907725e+002, 1.370693e+002
1.912546e+002, 1.393516e+002
1.917367e+002, 1.411221e+002
1.922188e+002, 1.422942e+002
1.927009e+002, 1.431414e+002
1.931830e+002, 1.440291e+002
1.936652e+002, 1.449527e+002
1.941473e+002, 1.459310e+002
1.946294e+002, 1.469358e+002
1.951115e+002, 1.479744e+002
1.955936e+002, 1.492418e+002
1.960757e+002, 1.508766e+002
1.965579e+002, 1.525255e+002
1.970400e+002, 1.534075e+002
1.975221e+002, 1.534618e+002
1.980042e+002, 1.534279e+002
1.984863e+002, 1.536881e+002
1.989684e+002, 1.542429e+002
1.994506e+002, 1.549314e+002
1.999327e+002, 1.557559e+002
2.004148e+002, 1.566809e+002
2.008969e+002, 1.577253e+002
2.013790e+002, 1.589771e+002
2.018611e+002, 1.599466e+002
2.023433e+002, 1.601208e+002
2.028254e+002, 1.593816e+002
2.033075e+002, 1.593105e+002
2.037896e+002, 1.601441e+002
2.042717e+002, 1.615957e+002
2.047538e+002, 1.629694e+002
2.052360e+002, 1.642479e+002
2.057181e+002, 1.655041e+002
2.062002e+002, 1.668491e+002
2.066823e+002, 1.683455e+002
2.071644e+002, 1.694761e+002
2.076465e+002, 1.700916e+002
2.081287e+002, 1.703706e+002
2.086108e+002, 1.708901e+002
2.090929e+002, 1.717308e+002
2.095750e+002, 1.725865e+002
2.100571e+002, 1.732473e+002
2.105392e+002, 1.736724e+002
2.110214e+002, 1.741012e+002
2.115035e+002, 1.745043e+002
2.119856e+002, 1.749416e+002
2.124677e+002, 1.756973e+002
2.129498e+002, 1.769368e+002
2.134319e+002, 1.781406e+002
2.139140e+002, 1.789597e+002
2.143962e+002, 1.792555e+002
2.148783e+002, 1.796852e+002
2.153604e+002, 1.803301e+002
2.158425e+002, 1.811475e+002
2.163246e+002, 1.819413e+002
2.168067e+002, 1.827168e+002
2.172889e+002, 1.834701e+002
2.177710e+002, 1.841978e+002
2.182531e+002, 1.848826e+002
2.187352e+002, 1.855866e+002
2.192173e+002, 1.862991e+002
2.196994e+002, 1.870394e+002
2.201816e+002, 1.878689e+002
2.206637e+002, 1.888237e+002
2.211458e+002, 1.898167e+002
2.216279e+002, 1.907703e+002
2.221100e+002, 1.916421e+002
2.225921e+002, 1.925975e+002
2.230743e+002, 1.936378e+002
2.235564e+002, 1.947702e+002
2.240385e+002, 1.961303e+002
2.245206e+002, 1.978596e+002
2.250027e+002, 1.995533e+002
2.254848e+002, 2.009494e+002
2.259670e+002, 2.019296e+002
2.264491e+002, 2.028837e+002
2.269312e+002, 2.038496e+002
2.274133e+002, 2.048165e+002
2.278954e+002, 2.057491e+002
2.283775e+002, 2.065115e+002
2.288597e+002, 2.074126e+002
2.293418e+002, 2.086443e+002
2.298239e+002, 2.103109e+002
2.303060e+002, 2.120632e+002
2.307881e+002, 2.139170e+002
2.312702e+002, 2.158391e+002
2.317524e+002, 2.175866e+002
2.322345e+002, 2.190141e+002
2.327166e+002, 2.204307e+002
2.331987e+002, 2.220181e+002
2.336808e+002, 2.239177e+002
2.341629e+002, 2.256485e+002
2.346451e+002, 2.271319e+002
2.351272e+002, 2.284221e+002
2.356093e+002, 2.298071e+002
2.360914e+002, 2.313859e+002
2.365735e+002, 2.329229e+002
2.370556e+002, 2.342658e+002
2.375378e+002, 2.352729e+002
2.380199e+002, 2.364101e+002
2.385020e+002, 2.377574e+002
2.389841e+002, 2.392661e+002
2.394662e+002, 2.406603e+002
2.399483e+002, 2.418250e+002
2.404305e+002, 2.430496e+002
2.409126e+002, 2.445428e+002
2.413947e+002, 2.465626e+002
2.418768e+002, 2.482791e+002
2.423589e+002, 2.495015e+002
2.428410e+002, 2.504029e+002
2.433232e+002, 2.516704e+002
2.438053e+002, 2.536344e+002
2.442874e+002, 2.554993e+002
2.447695e+002, 2.567484e+002
2.452516e+002, 2.568003e+002
2.457337e+002, 2.575645e+002
2.462159e+002, 2.593400e+002
2.466980e+002, 2.618336e+002
2.471801e+002, 2.641260e+002
2.476622e+002, 2.663687e+002
2.481443e+002, 2.682074e+002
2.486264e+002, 2.693731e+002
2.491086e+002, 2.694683e+002
2.495907e+002, 2.698725e+002
2.500728e+002, 2.707293e+002
2.505549e+002, 2.718755e+002
2.510370e+002, 2.728610e+002
2.515191e+002, 2.735704e+002
2.520013e+002, 2.743149e+002
2.524834e+002, 2.753068e+002
2.529655e+002, 2.768091e+002
2.534476e+002, 2.777852e+002
2.539297e+002, 2.777935e+002
2.544118e+002, 2.774755e+002
2.548940e+002, 2.784828e+002
2.553761e+002, 2.818544e+002
2.558582e+002, 2.847145e+002
2.563403e+002, 2.856402e+002
2.568224e+002, 2.837997e+002
2.573046e+002, 2.827742e+002
2.577867e+002, 2.827659e+002
2.582688e+002, 2.834393e+002
2.587509e+002, 2.842395e+002
2.592330e+002, 2.853361e+002
2.597151e+002, 2.861835e+002
2.601973e+002, 2.864987e+002
2.606794e+002, 2.861133e+002
2.611615e+002, 2.859283e+002
2.616436e+002, 2.860112e+002
2.621257e+002, 2.862409e+002
2.626078e+002, 2.864074e+002
2.630900e+002, 2.864652e+002
2.635721e+002, 2.865887e+002
2.640542e+002, 2.869167e+002
2.645363e+002, 2.875467e+002
2.650184e+002, 2.877802e+002
2.655005e+002, 2.875663e+002
2.659827e+002, 2.870390e+002
2.664648e+002, 2.862992e+002
2.669469e+002, 2.852092e+002
2.674290e+002, 2.843363e+002
2.679111e+002, 2.839447e+002
2.683932e+002, 2.840827e+002
2.688754e+002, 2.838882e+002
2.693575e+002, 2.833168e+002
2.698396e+002, 2.824718e+002
2.703217e+002, 2.814314e+002
2.708038e+002, 2.801232e+002
2.712859e+002, 2.788969e+002
2.717681e+002, 2.779241e+002
2.722502e+002, 2.771889e+002
2.727323e+002, 2.761371e+002
2.732144e+002, 2.747390e+002
2.736965e+002, 2.731158e+002
2.741786e+002, 2.713857e+002
2.746608e+002, 2.695236e+002
2.751429e+002, 2.675995e+002
2.756250e+002, 2.655827e+002
2.761071e+002, 2.635135e+002
2.765892e+002, 2.616716e+002
2.770714e+002, 2.601780e+002
2.775535e+002, 2.586507e+002
2.780356e+002, 2.567237e+002
2.785177e+002, 2.543691e+002
2.789998e+002, 2.518656e+002
2.794819e+002, 2.491758e+002
2.799641e+002, 2.463882e+002
2.804462e+002, 2.441035e+002
2.809283e+002, 2.424277e+002
2.814104e+002, 2.407662e+002
2.818925e+002, 2.384639e+002
2.823746e+002, 2.355078e+002
2.828568e+002, 2.329870e+002
2.833389e+002, 2.312100e+002
2.838210e+002, 2.298861e+002
2.843031e+002, 2.280907e+002
2.847852e+002, 2.257434e+002
2.852673e+002, 2.236014e+002
2.857495e+002, 2.223057e+002
2.862316e+002, 2.217929e+002
2.867137e+002, 2.212074e+002
2.871958e+002, 2.204523e+002
2.876779e+002, 2.195628e+002
2.881600e+002, 2.186672e+002
2.886422e+002, 2.177686e+002
2.891243e+002, 2.166091e+002
2.896064e+002, 2.147180e+002
2.900885e+002, 2.123134e+002
2.905706e+002, 2.107198e+002
2.910527e+002, 2.101842e+002
2.915349e+002, 2.101628e+002
2.920170e+002, 2.098427e+002
2.924991e+002, 2.092456e+002
2.929812e+002, 2.086137e+002
2.934633e+002, 2.080769e+002
2.939454e+002, 2.076108e+002
2.944276e+002, 2.071858e+002
2.949097e+002, 2.068316e+002
2.953918e+002, 2.064001e+002
2.958739e+002, 2.055735e+002
2.963560e+002, 2.044569e+002
2.968381e+002, 2.035037e+002
2.973203e+002, 2.031142e+002
2.978024e+002, 2.030139e+002
2.982845e+002, 2.025498e+002
2.987666e+002, 2.016693e+002
2.992487e+002, 2.008270e+002
2.997308e+002, 2.006345e+002
3.002130e+002, 2.008674e+002
3.006951e+002, 2.008840e+002
3.011772e+002, 2.003408e+002
3.016593e+002, 1.994793e+002
3.021414e+002, 1.985439e+002
3.026235e+002, 1.975461e+002
3.031057e+002, 1.966591e+002
3.035878e+002, 1.961253e+002
3.040699e+002, 1.958014e+002
3.045520e+002, 1.954270e+002
3.050341e+002, 1.948137e+002
3.055162e+002, 1.942108e+002
3.059984e+002, 1.941050e+002
3.064805e+002, 1.943833e+002
3.069626e+002, 1.942614e+002
3.074447e+002, 1.928268e+002
3.079268e+002, 1.907883e+002
3.084089e+002, 1.890726e+002
3.088911e+002, 1.879492e+002
3.093732e+002, 1.871595e+002
3.098553e+002, 1.866142e+002
3.103374e+002, 1.862628e+002
3.108195e+002, 1.859234e+002
3.113016e+002, 1.854835e+002
3.117838e+002, 1.850197e+002
3.122659e+002, 1.845993e+002
3.127480e+002, 1.842522e+002
3.132301e+002, 1.839117e+002
3.137122e+002, 1.835761e+002
3.141943e+002, 1.832142e+002
3.146765e+002, 1.827679e+002
3.151586e+002, 1.820086e+002
3.156407e+002, 1.813005e+002
3.161228e+002, 1.808758e+002
3.166049e+002, 1.808008e+002
3.170870e+002, 1.808706e+002
3.175692e+002, 1.813445e+002
3.180513e+002, 1.818329e+002
3.185334e+002, 1.817850e+002
3.190155e+002, 1.805010e+002
3.194976e+002, 1.790936e+002
3.199797e+002, 1.779836e+002
3.204619e+002, 1.772020e+002
3.209440e+002, 1.767038e+002
3.214261e+002, 1.767248e+002
3.219082e+002, 1.769180e+002
3.223903e+002, 1.769550e+002
3.228724e+002, 1.766874e+002
3.233546e+002, 1.763321e+002
3.238367e+002, 1.758781e+002
3.243188e+002, 1.753349e+002
3.248009e+002, 1.749134e+002
3.252830e+002, 1.746843e+002
3.257651e+002, 1.745710e+002
3.262473e+002, 1.745259e+002
3.267294e+002, 1.747422e+002
3.272115e+002, 1.748064e+002
3.276936e+002, 1.745732e+002
3.281757e+002, 1.741237e+002
3.286578e+002, 1.738433e+002
3.291400e+002, 1.740349e+002
3.296221e+002, 1.741533e+002
3.301042e+002, 1.739405e+002
3.305863e+002, 1.729380e+002
3.310684e+002, 1.723750e+002
3.315505e+002, 1.725216e+002
3.320327e+002, 1.730565e+002
3.325148e+002, 1.732563e+002
3.329969e+002, 1.728553e+002
3.334790e+002, 1.724620e+002
3.339611e+002, 1.722975e+002
3.344432e+002, 1.724472e+002
3.349254e+002, 1.724770e+002
3.354075e+002, 1.724511e+002
3.358896e+002, 1.722425e+002
3.363717e+002, 1.715609e+002
3.368538e+002, 1.700489e+002
3.373359e+002, 1.689550e+002
3.378180e+002, 1.687755e+002
3.383001e+002, 1.694907e+002
3.387823e+002, 1.697600e+002
3.392644e+002, 1.694566e+002
3.397465e+002, 1.689621e+002
3.402286e+002, 1.686183e+002
3.407107e+002, 1.684389e+002
3.411928e+002, 1.683927e+002
3.416750e+002, 1.685657e+002
3.421571e+002, 1.688464e+002
3.426392e+002, 1.687470e+002
3.431213e+002, 1.682202e+002
3.436034e+002, 1.675728e+002
3.440855e+002, 1.669850e+002
3.445677e+002, 1.664621e+002
3.450498e+002, 1.659738e+002
3.455319e+002, 1.654797e+002
3.460140e+002, 1.650872e+002
3.464961e+002, 1.651026e+002
3.469782e+002, 1.655078e+002
3.474604e+002, 1.658595e+002
3.479425e+002, 1.659281e+002
3.484246e+002, 1.657415e+002
3.489067e+002, 1.653156e+002
3.493888e+002, 1.645966e+002
3.498709e+002, 1.639100e+002
3.503531e+002, 1.637842e+002
3.508352e+002, 1.640652e+002
3.513173e+002, 1.641814e+002
3.517994e+002, 1.637754e+002
3.522815e+002, 1.630858e+002
3.527636e+002, 1.624492e+002
3.532458e+002, 1.618647e+002
3.537279e+002, 1.614100e+002
3.542100e+002, 1.612412e+002
3.546921e+002, 1.612315e+002
3.551742e+002, 1.611583e+002
3.556563e+002, 1.608923e+002
3.561385e+002, 1.605958e+002
3.566206e+002, 1.605421e+002
3.571027e+002, 1.606465e+002
3.575848e+002, 1.604977e+002
3.580669e+002, 1.595435e+002
3.585490e+002, 1.583722e+002
3.590312e+002, 1.575833e+002
3.595133e+002, 1.574431e+002
3.599954e+002, 1.573428e+002
3.604775e+002, 1.568795e+002
3.609596e+002, 1.561996e+002
3.614417e+002, 1.556209e+002
3.619239e+002, 1.552525e+002
3.624060e+002, 1.550314e+002
3.628881e+002, 1.550191e+002
3.633702e+002, 1.553096e+002
3.638523e+002, 1.553323e+002
3.643344e+002, 1.546077e+002
3.648166e+002, 1.536205e+002
3.652987e+002, 1.529184e+002
3.657808e+002, 1.530263e+002
3.662629e+002, 1.530537e+002
3.667450e+002, 1.525515e+002
3.672271e+002, 1.515236e+002
3.677093e+002, 1.510938e+002
3.681914e+002, 1.520945e+002
3.686735e+002, 1.532895e+002
3.691556e+002, 1.538765e+002
3.696377e+002, 1.532142e+002
3.701198e+002, 1.526906e+002
3.706020e+002, 1.524707e+002
3.710841e+002, 1.524402e+002
3.715662e+002, 1.521554e+002
3.720483e+002, 1.512330e+002
3.725304e+002, 1.505244e+002
3.730125e+002, 1.504592e+002
3.734947e+002, 1.513968e+002
3.739768e+002, 1.519358e+002
3.744589e+002, 1.519721e+002
3.749410e+002, 1.516989e+002
3.754231e+002, 1.513825e+002
3.759052e+002, 1.509554e+002
3.763874e+002, 1.506786e+002
3.768695e+002, 1.506697e+002
3.773516e+002, 1.509246e+002
3.778337e+002, 1.511235e+002
3.783158e+002, 1.512404e+002
3.787979e+002, 1.513901e+002
3.792801e+002, 1.517553e+002
3.797622e+002, 1.523593e+002
3.802443e+002, 1.527485e+002
3.807264e+002, 1.527801e+002
3.812085e+002, 1.525918e+002
3.816906e+002, 1.525245e+002
3.821728e+002, 1.525766e+002
3.826549e+002, 1.527263e+002
3.831370e+002, 1.530517e+002
3.836191e+002, 1.534794e+002
3.841012e+002, 1.536711e+002
3.845833e+002, 1.535398e+002
3.850655e+002, 1.533421e+002
3.855476e+002, 1.535087e+002
3.860297e+002, 1.539265e+002
3.865118e+002, 1.541800e+002
3.869939e+002, 1.538546e+002
3.874760e+002, 1.533348e+002
3.879582e+002, 1.532823e+002
3.884403e+002, 1.537156e+002
3.889224e+002, 1.540617e+002
3.894045e+002, 1.536076e+002
3.898866e+002, 1.528401e+002
3.903687e+002, 1.524597e+002
3.908509e+002, 1.529691e+002
3.913330e+002, 1.536514e+002
3.918151e+002, 1.540939e+002
3.922972e+002, 1.543079e+002
3.927793e+002, 1.543469e+002
3.932614e+002, 1.541833e+002
3.937436e+002, 1.538902e+002
3.942257e+002, 1.534837e+002
3.947078e+002, 1.528839e+002
3.951899e+002, 1.523785e+002
3.956720e+002, 1.521309e+002
3.961541e+002, 1.520290e+002
3.966363e+002, 1.518933e+002
3.971184e+002, 1.516909e+002
3.976005e+002, 1.514360e+002
3.980826e+002, 1.511589e+002
3.985647e+002, 1.508759e+002
3.990468e+002, 1.504345e+002
3.995290e+002, 1.495840e+002
4.000111e+002, 1.487015e+002
4.004932e+002, 1.480923e+002
4.009753e+002, 1.480396e+002
4.014574e+002, 1.478821e+002
4.019395e+002, 1.475421e+002
4.024217e+002, 1.470509e+002
4.029038e+002, 1.465478e+002
4.033859e+002, 1.459894e+002
4.038680e+002, 1.454843e+002
4.043501e+002, 1.451337e+002
4.048322e+002, 1.450708e+002
4.053144e+002, 1.446690e+002
4.057965e+002, 1.438013e+002
4.062786e+002, 1.427515e+002
4.067607e+002, 1.419769e+002
4.072428e+002, 1.415103e+002
4.077249e+002, 1.411432e+002
4.082071e+002, 1.408658e+002
4.086892e+002, 1.406427e+002
4.091713e+002, 1.402031e+002
4.096534e+002, 1.395049e+002
4.101355e+002, 1.388216e+002
4.106176e+002, 1.384654e+002
4.110998e+002, 1.383712e+002
4.115819e+002, 1.381749e+002
4.120640e+002, 1.378009e+002
4.125461e+002, 1.372999e+002
4.130282e+002, 1.366679e+002
4.135103e+002, 1.359398e+002
4.139925e+002, 1.353083e+002
4.144746e+002, 1.348834e+002
4.149567e+002, 1.346199e+002
4.154388e+002, 1.345239e+002
4.159209e+002, 1.346239e+002
4.164030e+002, 1.346244e+002
4.168852e+002, 1.341547e+002
4.173673e+002, 1.334405e+002
4.178494e+002, 1.328489e+002
4.183315e+002, 1.327326e+002
4.188136e+002, 1.326083e+002
4.192957e+002, 1.320521e+002
4.197779e+002, 1.311490e+002
4.202600e+002, 1.304224e+002
4.207421e+002, 1.302067e+002
4.212242e+002, 1.302072e+002
4.217063e+002, 1.302292e+002
4.221884e+002, 1.302692e+002
4.226706e+002, 1.302690e+002
4.231527e+002, 1.302572e+002
4.236348e+002, 1.301915e+002
4.241169e+002, 1.299938e+002
4.245990e+002, 1.293796e+002
4.250811e+002, 1.288887e+002
4.255633e+002, 1.287203e+002
4.260454e+002, 1.289223e+002
4.265275e+002, 1.290976e+002
4.270096e+002, 1.293153e+002
4.274917e+002, 1.294484e+002
4.279738e+002, 1.293750e+002
4.284560e+002, 1.289714e+002
4.289381e+002, 1.286171e+002
4.294202e+002, 1.283707e+002
4.299023e+002, 1.282010e+002
4.303844e+002, 1.279842e+002
4.308665e+002, 1.277038e+002
4.313487e+002, 1.274272e+002
4.318308e+002, 1.271928e+002
4.323129e+002, 1.270048e+002
4.327950e+002, 1.267597e+002
4.332771e+002, 1.263933e+002
4.337592e+002, 1.261486e+002
4.342414e+002, 1.265716e+002
4.347235e+002, 1.275765e+002
4.352056e+002, 1.280807e+002
4.356877e+002, 1.275220e+002
4.361698e+002, 1.264068e+002
4.366519e+002, 1.257946e+002
4.371341e+002, 1.256680e+002
4.376162e+002, 1.256647e+002
4.380983e+002, 1.255525e+002
4.385804e+002, 1.253729e+002
4.390625e+002, 1.251995e+002
4.395446e+002, 1.250509e+002
4.400268e+002, 1.248893e+002
4.405089e+002, 1.246025e+002
4.409910e+002, 1.242789e+002
4.414731e+002, 1.241029e+002
4.419552e+002, 1.243690e+002
4.424373e+002, 1.246384e+002
4.429195e+002, 1.245563e+002
4.434016e+002, 1.241235e+002
4.438837e+002, 1.237993e+002
4.443658e+002, 1.239314e+002
4.448479e+002, 1.241567e+002
4.453300e+002, 1.241820e+002
4.458122e+002, 1.236516e+002
4.462943e+002, 1.233057e+002
4.467764e+002, 1.233993e+002
4.472585e+002, 1.237686e+002
4.477406e+002, 1.239950e+002
4.482227e+002, 1.238837e+002
4.487049e+002, 1.237938e+002
4.491870e+002, 1.238568e+002
4.496691e+002, 1.241208e+002
4.501512e+002, 1.242580e+002
4.506333e+002, 1.242819e+002
4.511154e+002, 1.241672e+002
4.515976e+002, 1.238398e+002
4.520797e+002, 1.231959e+002
4.525618e+002, 1.227128e+002
4.530439e+002, 1.225012e+002
4.535260e+002, 1.224823e+002
4.540081e+002, 1.223621e+002
4.544903e+002, 1.221064e+002
4.549724e+002, 1.219764e+002
4.554545e+002, 1.222687e+002
4.559366e+002, 1.228820e+002
4.564187e+002, 1.230442e+002
4.569008e+002, 1.226739e+002
4.573830e+002, 1.221552e+002
4.578651e+002, 1.218588e+002
4.583472e+002, 1.217716e+002
4.588293e+002, 1.218978e+002
4.593114e+002, 1.224175e+002
4.597935e+002, 1.229616e+002
4.602757e+002, 1.230634e+002
4.607578e+002, 1.227674e+002
4.612399e+002, 1.223147e+002
4.617220e+002, 1.215796e+002
4.622041e+002, 1.209076e+002
4.626862e+002, 1.207155e+002
4.631684e+002, 1.211744e+002
4.636505e+002, 1.216078e+002
4.641326e+002, 1.216550e+002
4.646147e+002, 1.214773e+002
4.650968e+002, 1.212815e+002
4.655789e+002, 1.209896e+002
4.660611e+002, 1.208374e+002
4.665432e+002, 1.210247e+002
4.670253e+002, 1.215041e+002
4.675074e+002, 1.217372e+002
4.679895e+002, 1.214772e+002
4.684716e+002, 1.211071e+002
4.689538e+002, 1.207867e+002
4.694359e+002, 1.204498e+002
4.699180e+002, 1.203243e+002
4.704001e+002, 1.205110e+002
4.708822e+002, 1.208361e+002
4.713643e+002, 1.210346e+002
4.718465e+002, 1.210602e+002
4.723286e+002, 1.210901e+002
4.728107e+002, 1.211793e+002
4.732928e+002, 1.213091e+002
4.737749e+002, 1.213861e+002
4.742570e+002, 1.214099e+002
4.747392e+002, 1.213754e+002
4.752213e+002, 1.212168e+002
4.757034e+002, 1.209688e+002
4.761855e+002, 1.209024e+002
4.766676e+002, 1.210874e+002
4.771497e+002, 1.213196e+002
4.776319e+002, 1.212244e+002
4.781140e+002, 1.209258e+002
4.785961e+002, 1.208290e+002
4.790782e+002, 1.212773e+002
4.795603e+002, 1.219173e+002
4.800424e+002, 1.224495e+002
4.805246e+002, 1.228544e+002
4.810067e+002, 1.229641e+002
4.814888e+002, 1.222757e+002
4.819709e+002, 1.214660e+002
4.824530e+002, 1.212145e+002
4.829352e+002, 1.219389e+002
4.834173e+002, 1.225012e+002
4.838994e+002, 1.222363e+002
4.843815e+002, 1.215722e+002
4.848636e+002, 1.211641e+002
4.853457e+002, 1.213130e+002
4.858279e+002, 1.215742e+002
4.863100e+002, 1.218875e+002
4.867921e+002, 1.222502e+002
4.872742e+002, 1.225163e+002
4.877563e+002, 1.227054e+002
4.882384e+002, 1.227848e+002
4.887206e+002, 1.227086e+002
4.892027e+002, 1.223663e+002
4.896848e+002, 1.221893e+002
4.901669e+002, 1.222556e+002
4.906490e+002, 1.224128e+002
4.911311e+002, 1.223955e+002
4.916133e+002, 1.221722e+002
4.920954e+002, 1.219828e+002
4.925775e+002, 1.218480e+002
4.930596e+002, 1.218170e+002
4.935417e+002, 1.221880e+002
4.940238e+002, 1.229660e+002
4.945060e+002, 1.236562e+002
4.949881e+002, 1.238978e+002
4.954702e+002, 1.237641e+002
4.959523e+002, 1.233552e+002
4.964344e+002, 1.226088e+002
4.969165e+002, 1.219366e+002
4.973987e+002, 1.218472e+002
4.978808e+002, 1.221163e+002
4.983629e+002, 1.223239e+002
4.988450e+002, 1.222110e+002
4.993271e+002, 1.220522e+002
4.998092e+002, 1.220464e+002
5.002914e+002, 1.221649e+002
5.007735e+002, 1.222407e+002
5.012556e+002, 1.221249e+002
5.017377e+002, 1.220130e+002
5.022198e+002, 1.220528e+002
5.027019e+002, 1.223901e+002
5.031841e+002, 1.225472e+002
5.036662e+002, 1.223399e+002
5.041483e+002, 1.219754e+002
5.046304e+002, 1.216917e+002
5.051125e+002, 1.215047e+002
5.055946e+002, 1.213759e+002
5.060768e+002, 1.212871e+002
5.065589e+002, 1.212495e+002
5.070410e+002, 1.213420e+002
5.075231e+002, 1.216169e+002
5.080052e+002, 1.218703e+002
5.084873e+002, 1.219871e+002
5.089695e+002, 1.219637e+002
5.094516e+002, 1.219354e+002
5.099337e+002, 1.219011e+002
5.104158e+002, 1.218638e+002
5.108979e+002, 1.217736e+002
5.113800e+002, 1.216657e+002
5.118622e+002, 1.217427e+002
5.123443e+002, 1.221971e+002
5.128264e+002, 1.226547e+002
5.133085e+002, 1.224616e+002
5.137906e+002, 1.218020e+002
5.142728e+002, 1.213349e+002
5.147549e+002, 1.217653e+002
5.152370e+002, 1.223334e+002
5.157191e+002, 1.222992e+002
5.162012e+002, 1.215755e+002
5.166833e+002, 1.209292e+002
5.171655e+002, 1.207432e+002
5.176476e+002, 1.207742e+002
5.181297e+002, 1.208149e+002
5.186118e+002, 1.208013e+002
5.190939e+002, 1.208227e+002
5.195760e+002, 1.208899e+002
5.200582e+002, 1.210024e+002
5.205403e+002, 1.211670e+002
5.210224e+002, 1.215070e+002
5.215045e+002, 1.217169e+002
5.219866e+002, 1.216447e+002
5.224688e+002, 1.212901e+002
5.229509e+002, 1.211704e+002
5.234330e+002, 1.213007e+002
5.239151e+002, 1.216219e+002
5.243972e+002, 1.222294e+002
5.248793e+002, 1.231327e+002
5.253615e+002, 1.235608e+002
5.258436e+002, 1.233502e+002
5.263257e+002, 1.229166e+002
5.268078e+002, 1.229136e+002
5.272899e+002, 1.232521e+002
5.277720e+002, 1.235076e+002
5.282542e+002, 1.234160e+002
5.287363e+002, 1.232244e+002
5.292184e+002, 1.233293e+002
5.297005e+002, 1.236680e+002
5.301826e+002, 1.239035e+002
5.306647e+002, 1.236837e+002
5.311469e+002, 1.233597e+002
5.316290e+002, 1.232439e+002
5.321111e+002, 1.234158e+002
5.325932e+002, 1.236277e+002
5.330753e+002, 1.239104e+002
5.335574e+002, 1.241318e+002
5.340396e+002, 1.241509e+002
5.345217e+002, 1.235332e+002
5.350038e+002, 1.231987e+002
5.354859e+002, 1.234149e+002
5.359680e+002, 1.240134e+002
5.364501e+002, 1.244636e+002
5.369323e+002, 1.246723e+002
5.374144e+002, 1.248946e+002
5.378965e+002, 1.252676e+002
5.383786e+002, 1.257989e+002
5.388607e+002, 1.260190e+002
5.393428e+002, 1.258251e+002
5.398250e+002, 1.256272e+002
5.403071e+002, 1.259224e+002
5.407892e+002, 1.266331e+002
5.412713e+002, 1.269954e+002
5.417534e+002, 1.267926e+002
5.422355e+002, 1.264807e+002
5.427177e+002, 1.267703e+002
5.431998e+002, 1.274992e+002
5.436819e+002, 1.281435e+002
5.441640e+002, 1.277357e+002
5.446461e+002, 1.276308e+002
5.451282e+002, 1.298794e+002
5.456104e+002, 1.339853e+002
5.460925e+002, 1.369286e+002
5.465746e+002, 1.364151e+002
5.470567e+002, 1.347176e+002
5.475388e+002, 1.332297e+002
5.480209e+002, 1.321112e+002
5.485031e+002, 1.313497e+002
5.489852e+002, 1.311485e+002
5.494673e+002, 1.311992e+002
5.499494e+002, 1.311655e+002
5.504315e+002, 1.308105e+002
5.509136e+002, 1.307407e+002
5.513958e+002, 1.311487e+002
5.518779e+002, 1.318492e+002
5.523600e+002, 1.322621e+002
5.528421e+002, 1.323105e+002
5.533242e+002, 1.323457e+002
5.538063e+002, 1.325058e+002
5.542885e+002, 1.327800e+002
5.547706e+002, 1.330812e+002
5.552527e+002, 1.334081e+002
5.557348e+002, 1.337795e+002
5.562169e+002, 1.342415e+002
5.566990e+002, 1.347589e+002
5.571812e+002, 1.352578e+002
5.576633e+002, 1.357324e+002
5.581454e+002, 1.361670e+002
5.586275e+002, 1.366210e+002
5.591096e+002, 1.370133e+002
5.595917e+002, 1.372098e+002
5.600739e+002, 1.368122e+002
5.605560e+002, 1.365285e+002
5.610381e+002, 1.368479e+002
5.615202e+002, 1.376250e+002
5.620023e+002, 1.382218e+002
5.624844e+002, 1.383118e+002
5.629666e+002, 1.383277e+002
5.634487e+002, 1.384595e+002
5.639308e+002, 1.387379e+002
5.644129e+002, 1.389771e+002
5.648950e+002, 1.390753e+002
5.653771e+002, 1.392433e+002
5.658593e+002, 1.396837e+002
5.663414e+002, 1.404661e+002
5.668235e+002, 1.412545e+002
5.673056e+002, 1.420812e+002
5.677877e+002, 1.428126e+002
5.682698e+002, 1.430547e+002
5.687520e+002, 1.428529e+002
5.692341e+002, 1.429429e+002
5.697162e+002, 1.437878e+002
5.701983e+002, 1.449776e+002
5.706804e+002, 1.458178e+002
5.711625e+002, 1.463298e+002
5.716447e+002, 1.466827e+002
5.721268e+002, 1.469495e+002
5.726089e+002, 1.471363e+002
5.730910e+002, 1.471599e+002
5.735731e+002, 1.469622e+002
5.740552e+002, 1.470139e+002
5.745374e+002, 1.476877e+002
5.750195e+002, 1.486343e+002
5.755016e+002, 1.495279e+002
5.759837e+002, 1.503692e+002
5.764658e+002, 1.510675e+002
5.769479e+002, 1.515142e+002
5.774301e+002, 1.518361e+002
5.779122e+002, 1.522691e+002
5.783943e+002, 1.527708e+002
5.788764e+002, 1.534857e+002
5.793585e+002, 1.545603e+002
5.798406e+002, 1.559016e+002
5.803228e+002, 1.568093e+002
5.808049e+002, 1.572233e+002
5.812870e+002, 1.575843e+002
5.817691e+002, 1.582349e+002
5.822512e+002, 1.590916e+002
5.827333e+002, 1.598132e+002
5.832155e+002, 1.603771e+002
5.836975e+002, 1.608859e+002
5.841796e+002, 1.615068e+002
5.846617e+002, 1.621385e+002
5.851439e+002, 1.625733e+002
5.856260e+002, 1.625511e+002
5.861081e+002, 1.626968e+002
5.865902e+002, 1.635801e+002
5.870723e+002, 1.648870e+002
5.875544e+002, 1.659915e+002
5.880366e+002, 1.665573e+002
5.885187e+002, 1.670740e+002
5.890008e+002, 1.677205e+002
5.894829e+002, 1.684850e+002
5.899650e+002, 1.691014e+002
5.904471e+002, 1.693738e+002
5.909293e+002, 1.697475e+002
5.914114e+002, 1.705010e+002
5.918935e+002, 1.717364e+002
5.923756e+002, 1.726122e+002
5.928577e+002, 1.730819e+002
5.933398e+002, 1.733165e+002
5.938220e+002, 1.734210e+002
5.943041e+002, 1.734218e+002
5.947862e+002, 1.734977e+002
5.952683e+002, 1.736533e+002
5.957504e+002, 1.739782e+002
5.962325e+002, 1.747624e+002
5.967147e+002, 1.758284e+002
5.971968e+002, 1.766979e+002
5.976789e+002, 1.770538e+002
5.981610e+002, 1.772401e+002
5.986431e+002, 1.775958e+002
5.991252e+002, 1.780312e+002
5.996074e+002, 1.781335e+002
6.000895e+002, 1.774122e+002
6.005716e+002, 1.766172e+002
6.010537e+002, 1.760759e+002
6.015358e+002, 1.758330e+002
6.020179e+002, 1.758146e+002
6.025001e+002, 1.762235e+002
6.029822e+002, 1.766525e+002
6.034643e+002, 1.767922e+002
6.039464e+002, 1.765769e+002
6.044285e+002, 1.763421e+002
6.049106e+002, 1.761240e+002
6.053928e+002, 1.758598e+002
6.058749e+002, 1.753688e+002
6.063570e+002, 1.746768e+002
6.068391e+002, 1.741693e+002
6.073212e+002, 1.740507e+002
6.078033e+002, 1.740638e+002
6.082855e+002, 1.737844e+002
6.087676e+002, 1.732844e+002
6.092497e+002, 1.728211e+002
6.097318e+002, 1.727189e+002
6.102139e+002, 1.725770e+002
6.106960e+002, 1.720168e+002
6.111782e+002, 1.710359e+002
6.116603e+002, 1.700993e+002
6.121424e+002, 1.694602e+002
6.126245e+002, 1.688417e+002
6.131066e+002, 1.680710e+002
6.135887e+002, 1.670648e+002
6.140709e+002, 1.660476e+002
6.145530e+002, 1.649388e+002
6.150351e+002, 1.638855e+002
6.155172e+002, 1.630391e+002
6.159993e+002, 1.624296e+002
6.164814e+002, 1.618814e+002
6.169636e+002, 1.614068e+002
6.174457e+002, 1.609283e+002
6.179278e+002, 1.602151e+002
6.184099e+002, 1.592988e+002
6.188920e+002, 1.585240e+002
6.193741e+002, 1.582023e+002
6.198563e+002, 1.579682e+002
6.203384e+002, 1.572003e+002
6.208205e+002, 1.559973e+002
6.213026e+002, 1.548575e+002
6.217847e+002, 1.541354e+002
6.222668e+002, 1.535331e+002
6.227490e+002, 1.528147e+002
6.232311e+002, 1.519328e+002
6.237132e+002, 1.512050e+002
6.241953e+002, 1.509365e+002
6.246774e+002, 1.507048e+002
6.251595e+002, 1.502094e+002
6.256417e+002, 1.492918e+002
6.261238e+002, 1.484136e+002
6.266059e+002, 1.475655e+002
6.270880e+002, 1.467832e+002
6.275701e+002, 1.461290e+002
6.280522e+002, 1.456120e+002
6.285344e+002, 1.451425e+002
6.290165e+002, 1.447032e+002
6.294986e+002, 1.442986e+002
6.299807e+002, 1.439529e+002
6.304628e+002, 1.436543e+002
6.309449e+002, 1.433527e+002
6.314271e+002, 1.429889e+002
6.319092e+002, 1.426245e+002
6.323913e+002, 1.423257e+002
6.328734e+002, 1.420850e+002
6.333555e+002, 1.418719e+002
6.338376e+002, 1.417532e+002
6.343198e+002, 1.415872e+002
6.348019e+002, 1.412179e+002
6.352840e+002, 1.405401e+002
6.357661e+002, 1.401439e+002
6.362482e+002, 1.403988e+002
6.367303e+002, 1.406928e+002
6.372125e+002, 1.406194e+002
6.376946e+002, 1.401146e+002
6.381767e+002, 1.393637e+002
6.386588e+002, 1.382404e+002
6.391409e+002, 1.371102e+002
6.396230e+002, 1.365442e+002
6.401052e+002, 1.365119e+002
6.405873e+002, 1.366307e+002
6.410694e+002, 1.369031e+002
6.415515e+002, 1.371103e+002
6.420336e+002, 1.368640e+002
6.425157e+002, 1.362694e+002
6.429979e+002, 1.356257e+002
6.434800e+002, 1.349141e+002
6.439621e+002, 1.343484e+002
6.444442e+002, 1.341467e+002
6.449263e+002, 1.342584e+002
6.454084e+002, 1.343901e+002
6.458906e+002, 1.345519e+002
6.463727e+002, 1.346225e+002
6.468548e+002, 1.344893e+002
6.473369e+002, 1.341057e+002
6.478190e+002, 1.339181e+002
6.483011e+002, 1.340485e+002
6.487833e+002, 1.341947e+002
6.492654e+002, 1.341060e+002
6.497475e+002, 1.337559e+002
6.502296e+002, 1.334969e+002
6.507117e+002, 1.333677e+002
6.511938e+002, 1.332539e+002
6.516760e+002, 1.329340e+002
6.521581e+002, 1.325055e+002
6.526402e+002, 1.322899e+002
6.531223e+002, 1.324107e+002
6.536044e+002, 1.326827e+002
6.540865e+002, 1.331574e+002
6.545687e+002, 1.336383e+002
6.550508e+002, 1.337544e+002
6.555329e+002, 1.328847e+002
6.560150e+002, 1.321223e+002
6.564971e+002, 1.319635e+002
6.569792e+002, 1.322938e+002
6.574614e+002, 1.324717e+002
6.579435e+002, 1.323626e+002
6.584256e+002, 1.322484e+002
6.589077e+002, 1.322256e+002
6.593898e+002, 1.322890e+002
6.598719e+002, 1.322987e+002
6.603541e+002, 1.322349e+002
6.608362e+002, 1.322087e+002
6.613183e+002, 1.323559e+002
6.618004e+002, 1.326128e+002
6.622825e+002, 1.326877e+002
6.627646e+002, 1.325522e+002
6.632468e+002, 1.324619e+002
6.637289e+002, 1.327183e+002
6.642110e+002, 1.331274e+002
6.646931e+002, 1.334415e+002
6.651752e+002, 1.336019e+002
6.656573e+002, 1.336804e+002
6.661395e+002, 1.336879e+002
6.666216e+002, 1.336427e+002
6.671037e+002, 1.335669e+002
6.675858e+002, 1.333316e+002
6.680679e+002, 1.332455e+002
6.685500e+002, 1.334046e+002
6.690322e+002, 1.336946e+002
6.695143e+002, 1.338797e+002
6.699964e+002, 1.339634e+002
6.704785e+002, 1.339085e+002
6.709606e+002, 1.336120e+002
6.714427e+002, 1.332313e+002
6.719249e+002, 1.332807e+002
6.724070e+002, 1.337084e+002
6.728891e+002, 1.341026e+002
6.733712e+002, 1.340916e+002
6.738533e+002, 1.339897e+002
6.743354e+002, 1.341982e+002
6.748176e+002, 1.346985e+002
6.752997e+002, 1.351823e+002
6.757818e+002, 1.356250e+002
6.762639e+002, 1.358996e+002
6.767460e+002, 1.358784e+002
6.772281e+002, 1.354485e+002
6.777103e+002, 1.351113e+002
6.781924e+002, 1.348474e+002
6.786745e+002, 1.347195e+002
6.791566e+002, 1.348120e+002
6.796387e+002, 1.351956e+002
6.801208e+002, 1.354596e+002
6.806030e+002, 1.355742e+002
6.810851e+002, 1.355945e+002
6.815672e+002, 1.355284e+002
6.820493e+002, 1.354147e+002
6.825314e+002, 1.354627e+002
6.830135e+002, 1.358205e+002
6.834957e+002, 1.361179e+002
6.839778e+002, 1.358671e+002
6.844599e+002, 1.352833e+002
6.849420e+002, 1.347831e+002
6.854241e+002, 1.346022e+002
6.859063e+002, 1.344406e+002
6.863884e+002, 1.341708e+002
6.868705e+002, 1.338284e+002
6.873526e+002, 1.335434e+002
6.878347e+002, 1.334573e+002
6.883168e+002, 1.332220e+002
6.887990e+002, 1.326625e+002
6.892811e+002, 1.318586e+002
6.897632e+002, 1.314226e+002
6.902453e+002, 1.314004e+002
6.907274e+002, 1.314392e+002
6.912095e+002, 1.312967e+002
6.916917e+002, 1.310610e+002
6.921738e+002, 1.310286e+002
6.926559e+002, 1.311935e+002
6.931380e+002, 1.313534e+002
6.936201e+002, 1.313901e+002
6.941022e+002, 1.313293e+002
6.945844e+002, 1.311609e+002
6.950665e+002, 1.308593e+002
6.955486e+002, 1.306184e+002
6.960307e+002, 1.305034e+002
6.965128e+002, 1.304752e+002
6.969949e+002, 1.305123e+002
6.974771e+002, 1.306996e+002
6.979592e+002, 1.307536e+002
6.984413e+002, 1.305940e+002
6.989234e+002, 1.304072e+002
6.994055e+002, 1.305204e+002
6.998876e+002, 1.309474e+002
7.003698e+002, 1.309709e+002
7.008519e+002, 1.303714e+002
7.013340e+002, 1.295969e+002
7.018161e+002, 1.291516e+002
7.022982e+002, 1.290316e+002
7.027803e+002, 1.292595e+002
7.032625e+002, 1.303206e+002
7.037446e+002, 1.311497e+002
7.042267e+002, 1.307193e+002
7.047088e+002, 1.295451e+002
7.051909e+002, 1.287605e+002
7.056730e+002, 1.287603e+002
7.061552e+002, 1.291022e+002
7.066373e+002, 1.299272e+002
7.071194e+002, 1.310340e+002
7.076015e+002, 1.313918e+002
7.080836e+002, 1.306954e+002
7.085657e+002, 1.301756e+002
7.090479e+002, 1.304953e+002
7.095300e+002, 1.313746e+002
7.100121e+002, 1.315167e+002
7.104942e+002, 1.309496e+002
7.109763e+002, 1.304001e+002
7.114584e+002, 1.303714e+002
7.119406e+002, 1.306310e+002
7.124227e+002, 1.309396e+002
7.129048e+002, 1.312790e+002
7.133869e+002, 1.315700e+002
7.138690e+002, 1.316948e+002
7.143511e+002, 1.318196e+002
7.148333e+002, 1.321067e+002
7.153154e+002, 1.327197e+002
7.157975e+002, 1.329644e+002
7.162796e+002, 1.325333e+002
7.167617e+002, 1.321147e+002
7.172438e+002, 1.323207e+002
7.177260e+002, 1.332249e+002
7.182081e+002, 1.339565e+002
7.186902e+002, 1.344474e+002
7.191723e+002, 1.348185e+002
7.196544e+002, 1.350972e+002
7.201365e+002, 1.353663e+002
7.206187e+002, 1.358342e+002
7.211008e+002, 1.365639e+002
7.215829e+002, 1.374579e+002
7.220650e+002, 1.386372e+002
7.225471e+002, 1.398737e+002
7.230292e+002, 1.408873e+002
7.235114e+002, 1.411241e+002
7.239935e+002, 1.416821e+002
7.244756e+002, 1.430152e+002
7.249577e+002, 1.446627e+002
7.254398e+002, 1.458388e+002
7.259219e+002, 1.463372e+002
7.264041e+002, 1.469572e+002
7.268862e+002, 1.478429e+002
7.273683e+002, 1.489843e+002
7.278504e+002, 1.504801e+002
7.283325e+002, 1.522519e+002
7.288146e+002, 1.537637e+002
7.292968e+002, 1.545466e+002
7.297789e+002, 1.551221e+002
7.302610e+002, 1.560466e+002
7.307431e+002, 1.572592e+002
7.312252e+002, 1.585585e+002
7.317073e+002, 1.598431e+002
7.321895e+002, 1.612101e+002
7.326716e+002, 1.628765e+002
7.331537e+002, 1.647803e+002
7.336358e+002, 1.661080e+002
7.341179e+002, 1.666523e+002
7.346000e+002, 1.669940e+002
7.350822e+002, 1.673305e+002
7.355643e+002, 1.676668e+002
7.360464e+002, 1.680231e+002
7.365285e+002, 1.683996e+002
7.370106e+002, 1.688123e+002
7.374927e+002, 1.693415e+002
7.379749e+002, 1.698899e+002
7.384570e+002, 1.703431e+002
7.389391e+002, 1.706855e+002
7.394212e+002, 1.707836e+002
7.399033e+002, 1.704409e+002
7.403854e+002, 1.699058e+002
7.408676e+002, 1.693504e+002
7.413497e+002, 1.688054e+002
7.418318e+002, 1.681793e+002
7.423139e+002, 1.674287e+002
7.427960e+002, 1.666358e+002
7.432781e+002, 1.658845e+002
7.437603e+002, 1.652152e+002
7.442424e+002, 1.642677e+002
7.447245e+002, 1.629887e+002
7.452066e+002, 1.616068e+002
7.456887e+002, 1.603106e+002
7.461708e+002, 1.590860e+002
7.466530e+002, 1.578935e+002
7.471351e+002, 1.567123e+002
7.476172e+002, 1.556608e+002
7.480993e+002, 1.548964e+002
7.485814e+002, 1.542803e+002
7.490635e+002, 1.536569e+002
7.495457e+002, 1.528166e+002
7.500278e+002, 1.522405e+002
7.505099e+002, 1.521480e+002
7.509920e+002, 1.522453e+002
7.514741e+002, 1.522382e+002
7.519562e+002, 1.521544e+002
7.524384e+002, 1.518297e+002
7.529205e+002, 1.512344e+002
7.534026e+002, 1.504053e+002
7.538847e+002, 1.492892e+002
7.543668e+002, 1.479663e+002
7.548489e+002, 1.467512e+002
7.553311e+002, 1.457785e+002
7.558132e+002, 1.448746e+002
7.562953e+002, 1.438456e+002
7.567774e+002, 1.427956e+002
7.572595e+002, 1.419294e+002
7.577416e+002, 1.414678e+002
7.582238e+002, 1.410058e+002
7.587059e+002, 1.404731e+002
7.591880e+002, 1.398696e+002
7.596701e+002, 1.391813e+002
7.601522e+002, 1.383911e+002
7.606343e+002, 1.375548e+002
7.611165e+002, 1.366506e+002
7.615986e+002, 1.357361e+002
7.620807e+002, 1.349299e+002
7.625628e+002, 1.342296e+002
7.630449e+002, 1.336204e+002
7.635270e+002, 1.330922e+002
7.640092e+002, 1.326557e+002
7.644913e+002, 1.323648e+002
7.649734e+002, 1.321765e+002
7.654555e+002, 1.319533e+002
7.659376e+002, 1.315319e+002
7.664197e+002, 1.311896e+002
7.669019e+002, 1.311274e+002
7.673840e+002, 1.312485e+002
7.678661e+002, 1.310493e+002
7.683482e+002, 1.303686e+002
7.688303e+002, 1.298499e+002
7.693124e+002, 1.298518e+002
7.697946e+002, 1.301788e+002
7.702767e+002, 1.301539e+002
7.707588e+002, 1.297966e+002
7.712409e+002, 1.292902e+002
7.717230e+002, 1.283954e+002
7.722051e+002, 1.276523e+002
7.726873e+002, 1.278489e+002
7.731694e+002, 1.288377e+002
7.736515e+002, 1.294487e+002
7.741336e+002, 1.290729e+002
7.746157e+002, 1.284205e+002
7.750978e+002, 1.276714e+002
7.755800e+002, 1.268451e+002
7.760621e+002, 1.264249e+002
7.765442e+002, 1.265334e+002
7.770263e+002, 1.266983e+002
7.775084e+002, 1.265410e+002
7.779905e+002, 1.262104e+002
7.784727e+002, 1.266589e+002
7.789548e+002, 1.278255e+002
7.794369e+002, 1.286366e+002
7.799190e+002, 1.278762e+002
7.804011e+002, 1.266789e+002
7.808832e+002, 1.262140e+002
7.813654e+002, 1.265564e+002
7.818475e+002, 1.268057e+002
7.823296e+002, 1.265816e+002
7.828117e+002, 1.262743e+002
7.832938e+002, 1.260399e+002
7.837759e+002, 1.258678e+002
7.842581e+002, 1.259500e+002
7.847402e+002, 1.263742e+002
7.852223e+002, 1.267837e+002
7.857044e+002, 1.268856e+002
7.861865e+002, 1.267676e+002
7.866686e+002, 1.267945e+002
7.871508e+002, 1.269766e+002
7.876329e+002, 1.271523e+002
7.881150e+002, 1.273007e+002
7.885971e+002, 1.273233e+002
7.890792e+002, 1.270348e+002
7.895613e+002, 1.263589e+002
7.900435e+002, 1.259071e+002
7.905256e+002, 1.259932e+002
7.910077e+002, 1.261898e+002
7.914898e+002, 1.262534e+002
7.919719e+002, 1.261347e+002
7.924540e+002, 1.262540e+002
7.929362e+002, 1.266672e+002
7.934183e+002, 1.270707e+002
7.939004e+002, 1.271489e+002
7.943825e+002, 1.270183e+002
7.948646e+002, 1.270220e+002
7.953467e+002, 1.271862e+002
7.958289e+002, 1.273426e+002
7.963110e+002, 1.274571e+002
7.967931e+002, 1.274539e+002
7.972752e+002, 1.271983e+002
7.977573e+002, 1.265605e+002
7.982394e+002, 1.262002e+002
7.987216e+002, 1.262946e+002
7.992037e+002, 1.265648e+002
7.996858e+002, 1.269013e+002
8.001679e+002, 1.273482e+002
8.006500e+002, 1.275036e+002
8.011321e+002, 1.273429e+002
8.016143e+002, 1.270659e+002
8.020964e+002, 1.267506e+002
8.025785e+002, 1.264773e+002
8.030606e+002, 1.264384e+002
8.035427e+002, 1.266687e+002
8.040248e+002, 1.269088e+002
8.045070e+002, 1.269264e+002
8.049891e+002, 1.269454e+002
8.054712e+002, 1.271828e+002
8.059533e+002, 1.278237e+002
8.064354e+002, 1.281156e+002
8.069175e+002, 1.278238e+002
8.073997e+002, 1.275180e+002
8.078818e+002, 1.277048e+002
8.083639e+002, 1.283658e+002
8.088460e+002, 1.286919e+002
8.093281e+002, 1.286382e+002
8.098102e+002, 1.284735e+002
8.102924e+002, 1.284302e+002
8.107745e+002, 1.284302e+002
8.112566e+002, 1.283336e+002
8.117387e+002, 1.281044e+002
8.122208e+002, 1.279828e+002
8.127029e+002, 1.281342e+002
8.131851e+002, 1.283820e+002
8.136672e+002, 1.286147e+002
8.141493e+002, 1.288349e+002
8.146314e+002, 1.290144e+002
8.151135e+002, 1.291426e+002
8.155956e+002, 1.292532e+002
8.160778e+002, 1.294227e+002
8.165599e+002, 1.296057e+002
8.170420e+002, 1.294663e+002
8.175241e+002, 1.289755e+002
8.180062e+002, 1.287041e+002
8.184883e+002, 1.294615e+002
8.189705e+002, 1.304269e+002
8.194526e+002, 1.306806e+002
8.199347e+002, 1.299774e+002
8.204168e+002, 1.295971e+002
8.208989e+002, 1.303044e+002
8.213810e+002, 1.309350e+002
8.218632e+002, 1.307731e+002
8.223453e+002, 1.296726e+002
8.228274e+002, 1.293291e+002
8.233095e+002, 1.298516e+002
8.237916e+002, 1.305110e+002
8.242737e+002, 1.307155e+002
8.247559e+002, 1.306464e+002
8.252380e+002, 1.306306e+002
8.257201e+002, 1.306917e+002
8.262022e+002, 1.308315e+002
8.266843e+002, 1.312894e+002
8.271664e+002, 1.316401e+002
8.276486e+002, 1.314755e+002
8.281307e+002, 1.306327e+002
8.286128e+002, 1.302858e+002
8.290949e+002, 1.306783e+002
8.295770e+002, 1.311444e+002
8.300591e+002, 1.312960e+002
8.305413e+002, 1.311688e+002
8.310234e+002, 1.311917e+002
8.315055e+002, 1.313622e+002
8.319876e+002, 1.315651e+002
8.324697e+002, 1.318063e+002
8.329518e+002, 1.319812e+002
8.334340e+002, 1.318841e+002
8.339161e+002, 1.315365e+002
8.343982e+002, 1.313744e+002
8.348803e+002, 1.316178e+002
8.353624e+002, 1.320264e+002
8.358445e+002, 1.325795e+002
8.363267e+002, 1.332564e+002
8.368088e+002, 1.335369e+002
8.372909e+002, 1.333362e+002
8.377730e+002, 1.331248e+002
8.382551e+002, 1.332472e+002
8.387372e+002, 1.335240e+002
8.392194e+002, 1.333899e+002
8.397015e+002, 1.329338e+002
8.401836e+002, 1.326685e+002
8.406657e+002, 1.330572e+002
8.411478e+002, 1.335780e+002
8.416299e+002, 1.339843e+002
8.421121e+002, 1.342512e+002
8.425942e+002, 1.342843e+002
8.430763e+002, 1.338803e+002
8.435584e+002, 1.336084e+002
8.440405e+002, 1.336806e+002
8.445226e+002, 1.340084e+002
8.450048e+002, 1.342731e+002
8.454869e+002, 1.344741e+002
8.459690e+002, 1.346154e+002
8.464511e+002, 1.346753e+002
8.469332e+002, 1.346948e+002
8.474153e+002, 1.346335e+002
8.478975e+002, 1.345633e+002
8.483796e+002, 1.346867e+002
8.488617e+002, 1.353855e+002
8.493438e+002, 1.359307e+002
8.498259e+002, 1.360498e+002
8.503080e+002, 1.358955e+002
8.507902e+002, 1.358213e+002
8.512723e+002, 1.358188e+002
8.517544e+002, 1.359756e+002
8.522365e+002, 1.363763e+002
8.527186e+002, 1.368574e+002
8.532007e+002, 1.371408e+002
8.536829e+002, 1.372644e+002
8.541650e+002, 1.373300e+002
8.546471e+002, 1.372674e+002
8.551292e+002, 1.372969e+002
8.556113e+002, 1.375979e+002
8.560934e+002, 1.380418e+002
8.565756e+002, 1.384079e+002
8.570577e+002, 1.387413e+002
8.575398e+002, 1.388506e+002
8.580219e+002, 1.386159e+002
8.585040e+002, 1.383046e+002
8.589861e+002, 1.384066e+002
8.594683e+002, 1.388422e+002
8.599504e+002, 1.391701e+002
8.604325e+002, 1.392544e+002
8.609146e+002, 1.393036e+002
8.613967e+002, 1.395582e+002
8.618788e+002, 1.398645e+002
8.623610e+002, 1.400269e+002
8.628431e+002, 1.398644e+002
8.633252e+002, 1.397971e+002
8.638073e+002, 1.398814e+002
8.642894e+002, 1.400492e+002
8.647715e+002, 1.402515e+002
8.652537e+002, 1.404934e+002
8.657358e+002, 1.407465e+002
8.662179e+002, 1.410390e+002
8.667000e+002, 1.411687e+002
8.671821e+002, 1.407417e+002
8.676642e+002, 1.401049e+002
8.681464e+002, 1.397390e+002
8.686285e+002, 1.397150e+002
8.691106e+002, 1.399675e+002
8.695927e+002, 1.408586e+002
8.700748e+002, 1.416984e+002
8.705569e+002, 1.420246e+002
8.710391e+002, 1.417693e+002
8.715212e+002, 1.413945e+002
8.720033e+002, 1.408432e+002
8.724854e+002, 1.403889e+002
8.729675e+002, 1.402758e+002
8.734496e+002, 1.404016e+002
8.739318e+002, 1.405873e+002
8.744139e+002, 1.408120e+002
8.748960e+002, 1.409542e+002
8.753781e+002, 1.407379e+002
8.758602e+002, 1.405927e+002
8.763423e+002, 1.410021e+002
8.768245e+002, 1.419506e+002
8.773066e+002, 1.420218e+002
8.777887e+002, 1.406872e+002
8.782708e+002, 1.397209e+002
8.787529e+002, 1.400782e+002
8.792350e+002, 1.412450e+002
8.797172e+002, 1.413830e+002
8.801993e+002, 1.406363e+002
8.806814e+002, 1.399368e+002
8.811635e+002, 1.396707e+002
8.816456e+002, 1.397485e+002
8.821277e+002, 1.403623e+002
8.826099e+002, 1.412811e+002
8.830920e+002, 1.418202e+002
8.835741e+002, 1.415487e+002
8.840562e+002, 1.412789e+002
8.845383e+002, 1.410562e+002
8.850204e+002, 1.409655e+002
8.855026e+002, 1.413007e+002
8.859847e+002, 1.420229e+002
8.864668e+002, 1.425795e+002
8.869489e+002, 1.427731e+002
8.874310e+002, 1.428272e+002
8.879131e+002, 1.430115e+002
8.883953e+002, 1.432117e+002
8.888774e+002, 1.432536e+002
8.893595e+002, 1.429624e+002
8.898416e+002, 1.426996e+002
8.903237e+002, 1.424011e+002
8.908058e+002, 1.422504e+002
8.912880e+002, 1.425497e+002
8.917701e+002, 1.433614e+002
8.922522e+002, 1.437742e+002
8.927343e+002, 1.436768e+002
8.932164e+002, 1.434137e+002
8.936985e+002, 1.432665e+002
8.941807e+002, 1.432158e+002
8.946628e+002, 1.432480e+002
8.951449e+002, 1.433714e+002
8.956270e+002, 1.434942e+002
8.961091e+002, 1.434807e+002
8.965912e+002, 1.435538e+002
8.970734e+002, 1.439043e+002
8.975555e+002, 1.445765e+002
8.980376e+002, 1.449119e+002
8.985197e+002, 1.448587e+002
8.990018e+002, 1.447816e+002
8.994839e+002, 1.449593e+002
8.999661e+002, 1.452796e+002
9.004482e+002, 1.456080e+002
9.009303e+002, 1.459138e+002
9.014124e+002, 1.460186e+002
9.018945e+002, 1.454517e+002
9.023766e+002, 1.450403e+002
9.028588e+002, 1.452611e+002
9.033409e+002, 1.459911e+002
9.038230e+002, 1.467732e+002
9.043051e+002, 1.477327e+002
9.047872e+002, 1.482223e+002
9.052693e+002, 1.478656e+002
9.057515e+002, 1.471157e+002
9.062336e+002, 1.468430e+002
9.067157e+002, 1.469494e+002
9.071978e+002, 1.471578e+002
9.076799e+002, 1.474738e+002
9.081620e+002, 1.477129e+002
9.086442e+002, 1.476651e+002
9.091263e+002, 1.475340e+002
9.096084e+002, 1.476695e+002
9.100905e+002, 1.482079e+002
9.105726e+002, 1.486900e+002
9.110547e+002, 1.491229e+002
9.115369e+002, 1.493962e+002
9.120190e+002, 1.492088e+002
9.125011e+002, 1.487534e+002
9.129832e+002, 1.486373e+002
9.134653e+002, 1.490237e+002
9.139474e+002, 1.493500e+002
9.144296e+002, 1.490733e+002
9.149117e+002, 1.487050e+002
9.153938e+002, 1.487311e+002
9.158759e+002, 1.493232e+002
9.163580e+002, 1.496720e+002
9.168401e+002, 1.497448e+002
9.173223e+002, 1.496482e+002
9.178044e+002, 1.493705e+002
9.182865e+002, 1.489837e+002
9.187686e+002, 1.486909e+002
9.192507e+002, 1.485099e+002
9.197328e+002, 1.485692e+002
9.202150e+002, 1.492785e+002
9.206971e+002, 1.499586e+002
9.211792e+002, 1.500722e+002
9.216613e+002, 1.497075e+002
9.221434e+002, 1.496709e+002
9.226255e+002, 1.501399e+002
9.231077e+002, 1.505703e+002
9.235898e+002, 1.508156e+002
9.240719e+002, 1.509162e+002
9.245540e+002, 1.509040e+002
9.250361e+002, 1.508197e+002
9.255182e+002, 1.508352e+002
9.260004e+002, 1.510459e+002
9.264825e+002, 1.513149e+002
9.269646e+002, 1.516261e+002
9.274467e+002, 1.519153e+002
9.279288e+002, 1.520649e+002
9.284109e+002, 1.519055e+002
9.288931e+002, 1.519721e+002
9.293752e+002, 1.523653e+002
9.298573e+002, 1.528314e+002
9.303394e+002, 1.531057e+002
9.308215e+002, 1.532148e+002
9.313036e+002, 1.532213e+002
9.317858e+002, 1.531242e+002
9.322679e+002, 1.530931e+002
9.327500e+002, 1.534032e+002
9.332321e+002, 1.537136e+002
9.337142e+002, 1.537500e+002
9.341964e+002, 1.534549e+002
9.346785e+002, 1.531337e+002
9.351606e+002, 1.527203e+002
9.356427e+002, 1.524579e+002
9.361248e+002, 1.525204e+002
9.366069e+002, 1.528218e+002
9.370891e+002, 1.530867e+002
9.375712e+002, 1.533235e+002
9.380533e+002, 1.535599e+002
9.385354e+002, 1.537547e+002
9.390175e+002, 1.540062e+002
9.394996e+002, 1.544179e+002
9.399818e+002, 1.549244e+002
9.404639e+002, 1.553484e+002
9.409460e+002, 1.557226e+002
9.414281e+002, 1.558643e+002
9.419102e+002, 1.556531e+002
9.423923e+002, 1.553563e+002
9.428745e+002, 1.554594e+002
9.433566e+002, 1.558355e+002
9.438387e+002, 1.560760e+002
9.443208e+002, 1.560009e+002
9.448029e+002, 1.560818e+002
9.452850e+002, 1.569852e+002
9.457672e+002, 1.579206e+002
9.462493e+002, 1.580703e+002
9.467314e+002, 1.571787e+002
9.472135e+002, 1.565065e+002
9.476956e+002, 1.560442e+002
9.481777e+002, 1.558415e+002
9.486599e+002, 1.561674e+002
9.491420e+002, 1.567309e+002
9.496241e+002, 1.566851e+002
9.501062e+002, 1.561039e+002
9.505883e+002, 1.557367e+002
9.510704e+002, 1.562639e+002
9.515526e+002, 1.568327e+002
9.520347e+002, 1.569087e+002
9.525168e+002, 1.566519e+002
9.529989e+002, 1.567480e+002
9.534810e+002, 1.573342e+002
9.539631e+002, 1.576003e+002
9.544453e+002, 1.572396e+002
9.549274e+002, 1.565789e+002
9.554095e+002, 1.560600e+002
9.558916e+002, 1.556730e+002
9.563737e+002, 1.553755e+002
9.568558e+002, 1.550926e+002
9.573380e+002, 1.550200e+002
9.578201e+002, 1.554191e+002
9.583022e+002, 1.559323e+002
9.587843e+002, 1.562379e+002
9.592664e+002, 1.563171e+002
9.597485e+002, 1.562530e+002
9.602307e+002, 1.560203e+002
9.607128e+002, 1.558562e+002
9.611949e+002, 1.561031e+002
9.616770e+002, 1.564829e+002
9.621591e+002, 1.565384e+002
9.626412e+002, 1.562638e+002
9.631234e+002, 1.561043e+002
9.636055e+002, 1.562374e+002
9.640876e+002, 1.565023e+002
9.645697e+002, 1.569485e+002
9.650518e+002, 1.574622e+002
9.655339e+002, 1.575221e+002
9.660161e+002, 1.571253e+002
9.664982e+002, 1.565750e+002
9.669803e+002, 1.558264e+002
9.674624e+002, 1.552368e+002
9.679445e+002, 1.554448e+002
9.684266e+002, 1.560365e+002
9.689088e+002, 1.563244e+002
9.693909e+002, 1.557243e+002
9.698730e+002, 1.553995e+002
9.703551e+002, 1.555686e+002
9.708372e+002, 1.558482e+002
9.713193e+002, 1.557905e+002
9.718015e+002, 1.554478e+002
9.722836e+002, 1.553353e+002
9.727657e+002, 1.555013e+002
9.732478e+002, 1.556696e+002
9.737299e+002, 1.556212e+002
9.742120e+002, 1.554881e+002
9.746942e+002, 1.553976e+002
9.751763e+002, 1.553579e+002
9.756584e+002, 1.551709e+002
9.761405e+002, 1.546612e+002
9.766226e+002, 1.543823e+002
9.771047e+002, 1.546547e+002
9.775869e+002, 1.551948e+002
9.780690e+002, 1.551337e+002
9.785511e+002, 1.546288e+002
9.790332e+002, 1.542795e+002
9.795153e+002, 1.544405e+002
9.799974e+002, 1.546426e+002
9.804796e+002, 1.546143e+002
9.809617e+002, 1.544842e+002
9.814438e+002, 1.544296e+002
9.819259e+002, 1.544556e+002
9.824080e+002, 1.545970e+002
9.828901e+002, 1.549121e+002
9.833723e+002, 1.551353e+002
9.838544e+002, 1.548633e+002
9.843365e+002, 1.543599e+002
9.848186e+002, 1.541651e+002
9.853007e+002, 1.543155e+002
9.857828e+002, 1.544020e+002
9.862650e+002, 1.542545e+002
9.867471e+002, 1.539804e+002
9.872292e+002, 1.535000e+002
9.877113e+002, 1.529290e+002
9.881934e+002, 1.529992e+002
9.886755e+002, 1.537435e+002
9.891577e+002, 1.543215e+002
9.896398e+002, 1.543631e+002
9.901219e+002, 1.541584e+002
9.906040e+002, 1.538849e+002
9.910861e+002, 1.536515e+002
9.915682e+002, 1.536508e+002
9.920504e+002, 1.543319e+002
9.925325e+002, 1.546212e+002
9.930146e+002, 1.543079e+002
9.934967e+002, 1.537734e+002
9.939788e+002, 1.532873e+002
9.944609e+002, 1.528704e+002
9.949431e+002, 1.527670e+002
9.954252e+002, 1.529890e+002
9.959073e+002, 1.532034e+002
9.963894e+002, 1.531465e+002
9.968715e+002, 1.530078e+002
9.973536e+002, 1.529315e+002
9.978358e+002, 1.529173e+002
9.983179e+002, 1.528424e+002
9.988000e+002, 1.526797e+002
9.992821e+002, 1.525192e+002
9.997642e+002, 1.523765e+002
1.000246e+003, 1.522635e+002
1.000728e+003, 1.522793e+002
1.001211e+003, 1.523424e+002
1.001693e+003, 1.522309e+002
1.002175e+003, 1.518053e+002
1.002657e+003, 1.513541e+002
1.003139e+003, 1.508847e+002
1.003621e+003, 1.505374e+002
1.004103e+003, 1.504730e+002
1.004585e+003, 1.507696e+002
1.005068e+003, 1.508439e+002
1.005550e+003, 1.506643e+002
1.006032e+003, 1.505622e+002
1.006514e+003, 1.510372e+002
1.006996e+003, 1.515701e+002
1.007478e+003, 1.513958e+002
1.007960e+003, 1.506217e+002
1.008442e+003, 1.500085e+002
1.008924e+003, 1.496692e+002
1.009407e+003, 1.496734e+002
1.009889e+003, 1.502034e+002
1.010371e+003, 1.509281e+002
1.010853e+003, 1.510795e+002
1.011335e+003, 1.507587e+002
1.011817e+003, 1.506613e+002
1.012299e+003, 1.510246e+002
1.012781e+003, 1.513147e+002
1.013263e+003, 1.509669e+002
1.013746e+003, 1.504623e+002
1.014228e+003, 1.503507e+002
1.014710e+003, 1.508324e+002
1.015192e+003, 1.507643e+002
1.015674e+003, 1.499958e+002
1.016156e+003, 1.491685e+002
1.016638e+003, 1.485155e+002
1.017120e+003, 1.481401e+002
1.017603e+003, 1.485208e+002
1.018085e+003, 1.494207e+002
1.018567e+003, 1.499951e+002
1.019049e+003, 1.495134e+002
1.019531e+003, 1.490706e+002
1.020013e+003, 1.490527e+002
1.020495e+003, 1.492053e+002
1.020977e+003, 1.491679e+002
1.021459e+003, 1.489345e+002
1.021942e+003, 1.486433e+002
1.022424e+003, 1.482981e+002
1.022906e+003, 1.479920e+002
1.023388e+003, 1.477225e+002
1.023870e+003, 1.475930e+002
1.024352e+003, 1.478604e+002
1.024834e+003, 1.486026e+002
1.025316e+003, 1.487023e+002
1.025799e+003, 1.475265e+002
1.026281e+003, 1.469578e+002
1.026763e+003, 1.481037e+002
1.027245e+003, 1.500619e+002
1.027727e+003, 1.503974e+002
1.028209e+003, 1.495166e+002
1.028691e+003, 1.487805e+002
1.029173e+003, 1.489130e+002
1.029656e+003, 1.489862e+002
1.030138e+003, 1.482722e+002
1.030620e+003, 1.474794e+002
1.031102e+003, 1.474098e+002
1.031584e+003, 1.482465e+002
1.032066e+003, 1.487593e+002
1.032548e+003, 1.489056e+002
1.033030e+003, 1.488961e+002
1.033512e+003, 1.487972e+002
1.033995e+003, 1.487085e+002
1.034477e+003, 1.487296e+002
1.034959e+003, 1.488664e+002
1.035441e+003, 1.491313e+002
1.035923e+003, 1.497063e+002
1.036405e+003, 1.501353e+002
1.036887e+003, 1.502993e+002
1.037369e+003, 1.503097e+002
1.037851e+003, 1.504075e+002
1.038334e+003, 1.505481e+002
1.038816e+003, 1.505244e+002
1.039298e+003, 1.502363e+002
1.039780e+003, 1.500344e+002
1.040262e+003, 1.501979e+002
1.040744e+003, 1.504885e+002
1.041226e+003, 1.506742e+002
1.041708e+003, 1.507308e+002
1.042191e+003, 1.511792e+002
1.042673e+003, 1.520885e+002
1.043155e+003, 1.528371e+002
1.043637e+003, 1.528425e+002
1.044119e+003, 1.527198e+002
1.044601e+003, 1.534338e+002
1.045083e+003, 1.546860e+002
1.045565e+003, 1.557641e+002
1.046047e+003, 1.562905e+002
1.046530e+003, 1.568690e+002
1.047012e+003, 1.575068e+002
1.047494e+003, 1.582685e+002
1.047976e+003, 1.594058e+002
1.048458e+003, 1.607698e+002
1.048940e+003, 1.613962e+002
1.049422e+003, 1.612430e+002
1.049904e+003, 1.613201e+002
1.050386e+003, 1.626812e+002
1.050869e+003, 1.640816e+002
1.051351e+003, 1.644477e+002
1.051833e+003, 1.641693e+002
1.052315e+003, 1.649676e+002
1.052797e+003, 1.669838e+002
1.053279e+003, 1.690315e+002
1.053761e+003, 1.707974e+002
1.054243e+003, 1.725396e+002
1.054726e+003, 1.747323e+002
1.055208e+003, 1.770567e+002
1.055690e+003, 1.789817e+002
1.056172e+003, 1.801125e+002
1.056654e+003, 1.818578e+002
1.057136e+003, 1.846343e+002
1.057618e+003, 1.874635e+002
1.058100e+003, 1.896591e+002
1.058583e+003, 1.914548e+002
1.059065e+003, 1.937158e+002
1.059547e+003, 1.964112e+002
1.060029e+003, 1.994219e+002
1.060511e+003, 2.027019e+002
1.060993e+003, 2.061756e+002
1.061475e+003, 2.099129e+002
1.061957e+003, 2.137708e+002
1.062439e+003, 2.174576e+002
1.062922e+003, 2.208877e+002
1.063404e+003, 2.250166e+002
1.063886e+003, 2.299497e+002
1.064368e+003, 2.351036e+002
1.064850e+003, 2.398281e+002
1.065332e+003, 2.446606e+002
1.065814e+003, 2.501380e+002
1.066296e+003, 2.562418e+002
1.066778e+003, 2.628260e+002
1.067261e+003, 2.700845e+002
1.067743e+003, 2.772436e+002
1.068225e+003, 2.838582e+002
1.068707e+003, 2.906763e+002
1.069189e+003, 2.991588e+002
1.069671e+003, 3.087906e+002
1.070153e+003, 3.183176e+002
1.070635e+003, 3.272575e+002
1.071118e+003, 3.364676e+002
1.071600e+003, 3.461323e+002
1.072082e+003, 3.560675e+002
1.072564e+003, 3.660882e+002
1.073046e+003, 3.761639e+002
1.073528e+003, 3.869686e+002
1.074010e+003, 3.984081e+002
1.074492e+003, 4.103666e+002
1.074974e+003, 4.229476e+002
1.075457e+003, 4.356869e+002
1.075939e+003, 4.477338e+002
1.076421e+003, 4.598355e+002
1.076903e+003, 4.736947e+002
1.077385e+003, 4.903549e+002
1.077867e+003, 5.053374e+002
1.078349e+003, 5.182763e+002
1.078831e+003, 5.299102e+002
1.079313e+003, 5.415556e+002
1.079796e+003, 5.519758e+002
1.080278e+003, 5.593391e+002
1.080760e+003, 5.636927e+002
1.081242e+003, 5.656910e+002
1.081724e+003, 5.645878e+002
1.082206e+003, 5.621543e+002
1.082688e+003, 5.585615e+002
1.083170e+003, 5.540604e+002
1.083652e+003, 5.487770e+002
1.084135e+003, 5.429507e+002
1.084617e+003, 5.373205e+002
1.085099e+003, 5.318128e+002
1.085581e+003, 5.281724e+002
1.086063e+003, 5.282667e+002
1.086545e+003, 5.298631e+002
1.087027e+003, 5.313734e+002
1.087509e+003, 5.329201e+002
1.087992e+003, 5.365688e+002
1.088474e+003, 5.423527e+002
1.088956e+003, 5.475712e+002
1.089438e+003, 5.513284e+002
1.089920e+003, 5.537279e+002
1.090402e+003, 5.544378e+002
1.090884e+003, 5.540967e+002
1.091366e+003, 5.536600e+002
1.091849e+003, 5.539612e+002
1.092331e+003, 5.522570e+002
1.092813e+003, 5.484144e+002
1.093295e+003, 5.430094e+002
1.093777e+003, 5.358404e+002
1.094259e+003, 5.277029e+002
1.094741e+003, 5.197935e+002
1.095223e+003, 5.121010e+002
1.095705e+003, 5.044997e+002
1.096188e+003, 4.974736e+002
1.096670e+003, 4.900039e+002
1.097152e+003, 4.824770e+002
1.097634e+003, 4.737652e+002
1.098116e+003, 4.620461e+002
1.098598e+003, 4.476572e+002
1.099080e+003, 4.324232e+002
1.099562e+003, 4.164590e+002
1.100044e+003, 3.997856e+002
1.100527e+003, 3.823593e+002
1.101009e+003, 3.641921e+002
1.101491e+003, 3.446098e+002
1.101973e+003, 3.243286e+002
1.102455e+003, 3.060385e+002
1.102937e+003, 2.896673e+002
1.103419e+003, 2.748009e+002
1.103901e+003, 2.614922e+002
1.104384e+003, 2.495739e+002
1.104866e+003, 2.392696e+002
1.105348e+003, 2.302630e+002
1.105830e+003, 2.222493e+002
1.106312e+003, 2.153217e+002
1.106794e+003, 2.089329e+002
1.107276e+003, 2.030627e+002
1.107758e+003, 1.977315e+002
1.108240e+003, 1.928095e+002
1.108723e+003, 1.885082e+002
1.109205e+003, 1.851249e+002
1.109687e+003, 1.824604e+002
1.110169e+003, 1.801402e+002
1.110651e+003, 1.784590e+002
1.111133e+003, 1.762693e+002
1.111615e+003, 1.731270e+002
1.112097e+003, 1.701008e+002
1.112579e+003, 1.682785e+002
1.113062e+003, 1.672091e+002
1.113544e+003, 1.651332e+002
1.114026e+003, 1.622540e+002
1.114508e+003, 1.597060e+002
1.114990e+003, 1.579610e+002
1.115472e+003, 1.567589e+002
1.115954e+003, 1.563665e+002
1.116436e+003, 1.561949e+002
1.116919e+003, 1.554433e+002
1.117401e+003, 1.541591e+002
1.117883e+003, 1.531229e+002
1.118365e+003, 1.524045e+002
1.118847e+003, 1.516092e+002
1.119329e+003, 1.502607e+002
1.119811e+003, 1.489233e+002
1.120293e+003, 1.480141e+002
1.120776e+003, 1.474294e+002
1.121258e+003, 1.467730e+002
1.121740e+003, 1.460162e+002
1.122222e+003, 1.455086e+002
1.122704e+003, 1.453893e+002
1.123186e+003, 1.452302e+002
1.123668e+003, 1.445181e+002
1.124150e+003, 1.435663e+002
1.124632e+003, 1.426121e+002
1.125115e+003, 1.416706e+002
1.125597e+003, 1.412188e+002
1.126079e+003, 1.414606e+002
1.126561e+003, 1.415175e+002
1.127043e+003, 1.410269e+002
1.127525e+003, 1.402264e+002
1.128007e+003, 1.392509e+002
1.128489e+003, 1.383292e+002
1.128971e+003, 1.379136e+002
1.129454e+003, 1.383866e+002
1.129936e+003, 1.386340e+002
1.130418e+003, 1.384914e+002
1.130900e+003, 1.382386e+002
1.131382e+003, 1.380600e+002
1.131864e+003, 1.378948e+002
1.132346e+003, 1.374784e+002
1.132828e+003, 1.368972e+002
1.133311e+003, 1.364368e+002
1.133793e+003, 1.359847e+002
1.134275e+003, 1.360133e+002
1.134757e+003, 1.369442e+002
1.135239e+003, 1.380162e+002
1.135721e+003, 1.386008e+002
1.136203e+003, 1.386978e+002
1.136685e+003, 1.381550e+002
1.137167e+003, 1.370432e+002
1.137650e+003, 1.361799e+002
1.138132e+003, 1.364292e+002
1.138614e+003, 1.366387e+002
1.139096e+003, 1.360687e+002
1.139578e+003, 1.351774e+002
1.140060e+003, 1.346989e+002
1.140542e+003, 1.346393e+002
1.141024e+003, 1.346547e+002
1.141506e+003, 1.347209e+002
1.141989e+003, 1.346787e+002
1.142471e+003, 1.341726e+002
1.142953e+003, 1.337134e+002
1.143435e+003, 1.337910e+002
1.143917e+003, 1.342877e+002
1.144399e+003, 1.345246e+002
1.144881e+003, 1.344506e+002
1.145363e+003, 1.344744e+002
1.145846e+003, 1.347138e+002
1.146328e+003, 1.349384e+002
1.146810e+003, 1.347985e+002
1.147292e+003, 1.345664e+002
1.147774e+003, 1.345634e+002
1.148256e+003, 1.348490e+002
1.148738e+003, 1.350133e+002
1.149220e+003, 1.350790e+002
1.149703e+003, 1.348836e+002
1.150185e+003, 1.342676e+002
1.150667e+003, 1.335671e+002
1.151149e+003, 1.332691e+002
1.151631e+003, 1.332278e+002
1.152113e+003, 1.332320e+002
1.152595e+003, 1.332793e+002
1.153077e+003, 1.332088e+002
1.153559e+003, 1.329706e+002
1.154042e+003, 1.327191e+002
1.154524e+003, 1.325058e+002
1.155006e+003, 1.323604e+002
1.155488e+003, 1.323453e+002
1.155970e+003, 1.324522e+002
1.156452e+003, 1.326773e+002
1.156934e+003, 1.332792e+002
1.157416e+003, 1.334873e+002
1.157898e+003, 1.330221e+002
1.158381e+003, 1.325000e+002
1.158863e+003, 1.323843e+002
1.159345e+003, 1.325965e+002
1.159827e+003, 1.329509e+002
1.160309e+003, 1.333706e+002
1.160791e+003, 1.335371e+002
1.161273e+003, 1.330402e+002
1.161755e+003, 1.326117e+002
1.162238e+003, 1.324207e+002
1.162720e+003, 1.323799e+002
1.163202e+003, 1.325101e+002
1.163684e+003, 1.327395e+002
1.164166e+003, 1.325002e+002
1.164648e+003, 1.318264e+002
1.165130e+003, 1.312874e+002
1.165612e+003, 1.311924e+002
1.166094e+003, 1.313339e+002
1.166577e+003, 1.318722e+002
1.167059e+003, 1.324233e+002
1.167541e+003, 1.322463e+002
1.168023e+003, 1.314208e+002
1.168505e+003, 1.310015e+002
1.168987e+003, 1.310975e+002
1.169469e+003, 1.312717e+002
1.169951e+003, 1.313418e+002
1.170433e+003, 1.312778e+002
1.170916e+003, 1.309201e+002
1.171398e+003, 1.304501e+002
1.171880e+003, 1.303411e+002
1.172362e+003, 1.305870e+002
1.172844e+003, 1.308762e+002
1.173326e+003, 1.311753e+002
1.173808e+003, 1.313022e+002
1.174290e+003, 1.309426e+002
1.174773e+003, 1.304800e+002
1.175255e+003, 1.301916e+002
1.175737e+003, 1.300666e+002
1.176219e+003, 1.300340e+002
1.176701e+003, 1.300905e+002
1.177183e+003, 1.303719e+002
1.177665e+003, 1.310197e+002
1.178147e+003, 1.315382e+002
1.178630e+003, 1.313566e+002
1.179112e+003, 1.308854e+002
1.179594e+003, 1.304499e+002
1.180076e+003, 1.300777e+002
1.180558e+003, 1.300408e+002
1.181040e+003, 1.303950e+002
1.181522e+003, 1.305132e+002
1.182004e+003, 1.300231e+002
1.182486e+003, 1.294876e+002
1.182969e+003, 1.296666e+002
1.183451e+003, 1.300672e+002
1.183933e+003, 1.299928e+002
1.184415e+003, 1.292194e+002
1.184897e+003, 1.291230e+002
1.185379e+003, 1.298219e+002
1.185861e+003, 1.304328e+002
1.186343e+003, 1.304564e+002
1.186825e+003, 1.302232e+002
1.187308e+003, 1.300349e+002
1.187790e+003, 1.298880e+002
1.188272e+003, 1.297970e+002
1.188754e+003, 1.298365e+002
1.189236e+003, 1.296485e+002
1.189718e+003, 1.291631e+002
1.190200e+003, 1.288255e+002
1.190682e+003, 1.290317e+002
1.191165e+003, 1.294613e+002
1.191647e+003, 1.298344e+002
1.192129e+003, 1.300872e+002
1.192611e+003, 1.300669e+002
1.193093e+003, 1.295399e+002
1.193575e+003, 1.292105e+002
1.194057e+003, 1.290939e+002
1.194539e+003, 1.291533e+002
1.195021e+003, 1.295362e+002
1.195504e+003, 1.299520e+002
1.195986e+003, 1.299874e+002
1.196468e+003, 1.297182e+002
1.196950e+003, 1.293748e+002
1.197432e+003, 1.289443e+002
1.197914e+003, 1.285417e+002
1.198396e+003, 1.281526e+002
1.198878e+003, 1.278639e+002
1.199360e+003, 1.277593e+002
1.199843e+003, 1.278089e+002
1.200325e+003, 1.280527e+002
1.200807e+003, 1.284281e+002
1.201289e+003, 1.286785e+002
1.201771e+003, 1.286932e+002
1.202253e+003, 1.287643e+002
1.202735e+003, 1.289671e+002
1.203217e+003, 1.290991e+002
1.203700e+003, 1.287739e+002
1.204182e+003, 1.283320e+002
1.204664e+003, 1.283449e+002
1.205146e+003, 1.287605e+002
1.205628e+003, 1.289876e+002
1.206110e+003, 1.289180e+002
1.206592e+003, 1.286613e+002
1.207074e+003, 1.281571e+002
1.207557e+003, 1.276780e+002
1.208039e+003, 1.275540e+002
1.208521e+003, 1.276753e+002
1.209003e+003, 1.279819e+002
1.209485e+003, 1.284388e+002
1.209967e+003, 1.286256e+002
1.210449e+003, 1.283075e+002
1.210931e+003, 1.282374e+002
1.211413e+003, 1.286971e+002
1.211896e+003, 1.291255e+002
1.212378e+003, 1.285149e+002
1.212860e+003, 1.275248e+002
1.213342e+003, 1.272300e+002
1.213824e+003, 1.277478e+002
1.214306e+003, 1.278857e+002
1.214788e+003, 1.273083e+002
1.215270e+003, 1.269610e+002
1.215752e+003, 1.271375e+002
1.216235e+003, 1.275378e+002
1.216717e+003, 1.279321e+002
1.217199e+003, 1.281744e+002
1.217681e+003, 1.279338e+002
1.218163e+003, 1.271144e+002
1.218645e+003, 1.267141e+002
1.219127e+003, 1.269537e+002
1.219609e+003, 1.271163e+002
1.220092e+003, 1.269365e+002
1.220574e+003, 1.266620e+002
1.221056e+003, 1.267268e+002
1.221538e+003, 1.269035e+002
1.222020e+003, 1.267793e+002
1.222502e+003, 1.262080e+002
1.222984e+003, 1.261745e+002
1.223466e+003, 1.269445e+002
1.223948e+003, 1.274293e+002
1.224431e+003, 1.271076e+002
1.224913e+003, 1.265597e+002
1.225395e+003, 1.267372e+002
1.225877e+003, 1.271778e+002
1.226359e+003, 1.271622e+002
1.226841e+003, 1.263975e+002
1.227323e+003, 1.262172e+002
1.227805e+003, 1.268035e+002
1.228287e+003, 1.272503e+002
1.228770e+003, 1.271186e+002
1.229252e+003, 1.267745e+002
1.229734e+003, 1.267081e+002
1.230216e+003, 1.267524e+002
1.230698e+003, 1.266799e+002
1.231180e+003, 1.264354e+002
1.231662e+003, 1.261672e+002
1.232144e+003, 1.258625e+002
1.232627e+003, 1.256111e+002
1.233109e+003, 1.254924e+002
1.233591e+003, 1.253833e+002
1.234073e+003, 1.249456e+002
1.234555e+003, 1.245207e+002
1.235037e+003, 1.247007e+002
1.235519e+003, 1.257299e+002
1.236001e+003, 1.259591e+002
1.236484e+003, 1.252736e+002
1.236966e+003, 1.248365e+002
1.237448e+003, 1.254608e+002
1.237930e+003, 1.262347e+002
1.238412e+003, 1.262055e+002
1.238894e+003, 1.257756e+002
1.239376e+003, 1.254380e+002
1.239858e+003, 1.251828e+002
1.240340e+003, 1.253698e+002
1.240823e+003, 1.260217e+002
1.241305e+003, 1.264769e+002
1.241787e+003, 1.262908e+002
1.242269e+003, 1.258868e+002
1.242751e+003, 1.254798e+002
1.243233e+003, 1.251471e+002
1.243715e+003, 1.249681e+002
1.244197e+003, 1.249315e+002
1.244679e+003, 1.252085e+002
1.245162e+003, 1.257928e+002
1.245644e+003, 1.262611e+002
1.246126e+003, 1.263726e+002
1.246608e+003, 1.263211e+002
1.247090e+003, 1.261754e+002
1.247572e+003, 1.259782e+002
1.248054e+003, 1.257588e+002
1.248536e+003, 1.255102e+002
1.249019e+003, 1.255349e+002
1.249501e+003, 1.257939e+002
1.249983e+003, 1.258337e+002
1.250465e+003, 1.250634e+002
1.250947e+003, 1.244392e+002
1.251429e+003, 1.246196e+002
1.251911e+003, 1.250541e+002
1.252393e+003, 1.252284e+002
1.252875e+003, 1.251587e+002
1.253358e+003, 1.252400e+002
1.253840e+003, 1.254391e+002
1.254322e+003, 1.255524e+002
1.254804e+003, 1.255125e+002
1.255286e+003, 1.253008e+002
1.255768e+003, 1.246309e+002
1.256250e+003, 1.240760e+002
1.256732e+003, 1.243051e+002
1.257214e+003, 1.251229e+002
1.257697e+003, 1.252191e+002
1.258179e+003, 1.247505e+002
1.258661e+003, 1.244523e+002
1.259143e+003, 1.248820e+002
1.259625e+003, 1.252075e+002
1.260107e+003, 1.253347e+002
1.260589e+003, 1.252368e+002
1.261071e+003, 1.246395e+002
1.261554e+003, 1.238492e+002
1.262036e+003, 1.240861e+002
1.262518e+003, 1.250245e+002
1.263000e+003, 1.255445e+002
1.263482e+003, 1.247182e+002
1.263964e+003, 1.242407e+002
1.264446e+003, 1.243547e+002
1.264928e+003, 1.245984e+002
1.265411e+003, 1.245829e+002
1.265893e+003, 1.244325e+002
1.266375e+003, 1.243840e+002
1.266857e+003, 1.244049e+002
1.267339e+003, 1.244005e+002
1.267821e+003, 1.243202e+002
1.268303e+003, 1.243001e+002
1.268785e+003, 1.244007e+002
1.269267e+003, 1.243533e+002
1.269750e+003, 1.236647e+002
1.270232e+003, 1.229257e+002
1.270714e+003, 1.230810e+002
1.271196e+003, 1.237558e+002
1.271678e+003, 1.240266e+002
1.272160e+003, 1.235822e+002
1.272642e+003, 1.235647e+002
1.273124e+003, 1.240665e+002
1.273606e+003, 1.244089e+002
1.274089e+003, 1.238537e+002
1.274571e+003, 1.231574e+002
1.275053e+003, 1.229832e+002
1.275535e+003, 1.231552e+002
1.276017e+003, 1.233968e+002
1.276499e+003, 1.237810e+002
1.276981e+003, 1.234567e+002
1.277463e+003, 1.224251e+002
1.277946e+003, 1.217951e+002
1.278428e+003, 1.228841e+002
1.278910e+003, 1.239514e+002
1.279392e+003, 1.236866e+002
1.279874e+003, 1.229519e+002
1.280356e+003, 1.228075e+002
1.280838e+003, 1.232367e+002
1.281320e+003, 1.232518e+002
1.281802e+003, 1.228962e+002
1.282285e+003, 1.226670e+002
1.282767e+003, 1.230759e+002
1.283249e+003, 1.233400e+002
1.283731e+003, 1.230478e+002
1.284213e+003, 1.226359e+002
1.284695e+003, 1.224441e+002
1.285177e+003, 1.224557e+002
1.285659e+003, 1.227109e+002
1.286141e+003, 1.231208e+002
1.286624e+003, 1.233265e+002
1.287106e+003, 1.228018e+002
1.287588e+003, 1.226604e+002
1.288070e+003, 1.232089e+002
1.288552e+003, 1.237917e+002
1.289034e+003, 1.238363e+002
1.289516e+003, 1.235347e+002
1.289998e+003, 1.231678e+002
1.290481e+003, 1.228314e+002
1.290963e+003, 1.227673e+002
1.291445e+003, 1.233548e+002
1.291927e+003, 1.236498e+002
1.292409e+003, 1.235902e+002
1.292891e+003, 1.234697e+002
1.293373e+003, 1.235305e+002
1.293855e+003, 1.236251e+002
1.294338e+003, 1.234869e+002
1.294820e+003, 1.232679e+002
1.295302e+003, 1.232979e+002
1.295784e+003, 1.237186e+002
1.296266e+003, 1.238518e+002
1.296748e+003, 1.236873e+002
1.297230e+003, 1.234126e+002
1.297712e+003, 1.229106e+002
1.298194e+003, 1.226116e+002
1.298677e+003, 1.230361e+002
1.299159e+003, 1.237514e+002
1.299641e+003, 1.242595e+002
1.300123e+003, 1.245639e+002
1.300605e+003, 1.244144e+002
1.301087e+003, 1.238544e+002
1.301569e+003, 1.232653e+002
1.302051e+003, 1.226248e+002
1.302533e+003, 1.223148e+002
1.303016e+003, 1.224897e+002
##END=



