##NAMES=Parisite-(Ce)
##RRUFFID=R120061
##IDEAL CHEMISTRY=CaCe_2_(CO_3_)_3_F_2_
##LOCALITY=Snowbird mine, Fish Creek, Alberton, Mineral County, Montana, USA
##OWNER=RRUFF
##SOURCE=Donald Doell
##DESCRIPTION=Brown hexagonal prismatic crystals, associated with white quartz
##STATUS=The identification of this mineral has been confirmed by single-crystal X-ray diffraction.
##URL=rruff.info/R120061
9.112140e+001, 0.000000e+000
9.160352e+001, 1.368305e+004
9.208563e+001, 1.334325e+004
9.256775e+001, 1.330514e+004
9.304987e+001, 1.373791e+004
9.353198e+001, 1.424825e+004
9.401410e+001, 1.453048e+004
9.449622e+001, 1.462530e+004
9.497833e+001, 1.465811e+004
9.546045e+001, 1.473032e+004
9.594257e+001, 1.484224e+004
9.642468e+001, 1.489240e+004
9.690680e+001, 1.485097e+004
9.738892e+001, 1.481089e+004
9.787103e+001, 1.481025e+004
9.835315e+001, 1.482689e+004
9.883527e+001, 1.482179e+004
9.931738e+001, 1.479434e+004
9.979950e+001, 1.473543e+004
1.002816e+002, 1.470886e+004
1.007637e+002, 1.471755e+004
1.012458e+002, 1.474683e+004
1.017280e+002, 1.478527e+004
1.022101e+002, 1.483000e+004
1.026922e+002, 1.488033e+004
1.031743e+002, 1.492968e+004
1.036564e+002, 1.497048e+004
1.041385e+002, 1.503873e+004
1.046207e+002, 1.517543e+004
1.051028e+002, 1.535542e+004
1.055849e+002, 1.549013e+004
1.060670e+002, 1.552057e+004
1.065491e+002, 1.551551e+004
1.070313e+002, 1.554925e+004
1.075134e+002, 1.562636e+004
1.079955e+002, 1.573064e+004
1.084776e+002, 1.585040e+004
1.089597e+002, 1.598880e+004
1.094418e+002, 1.612679e+004
1.099240e+002, 1.626142e+004
1.104061e+002, 1.639160e+004
1.108882e+002, 1.651249e+004
1.113703e+002, 1.662154e+004
1.118524e+002, 1.672574e+004
1.123345e+002, 1.684418e+004
1.128167e+002, 1.698518e+004
1.132988e+002, 1.713166e+004
1.137809e+002, 1.728760e+004
1.142630e+002, 1.744525e+004
1.147451e+002, 1.759320e+004
1.152272e+002, 1.772113e+004
1.157094e+002, 1.783262e+004
1.161915e+002, 1.797795e+004
1.166736e+002, 1.820254e+004
1.171557e+002, 1.841176e+004
1.176378e+002, 1.855452e+004
1.181199e+002, 1.864688e+004
1.186021e+002, 1.874990e+004
1.190842e+002, 1.891904e+004
1.195663e+002, 1.916049e+004
1.200484e+002, 1.937146e+004
1.205305e+002, 1.953168e+004
1.210126e+002, 1.967514e+004
1.214948e+002, 1.982988e+004
1.219769e+002, 1.999984e+004
1.224590e+002, 2.017474e+004
1.229411e+002, 2.034495e+004
1.234232e+002, 2.051117e+004
1.239053e+002, 2.067377e+004
1.243875e+002, 2.081556e+004
1.248696e+002, 2.095236e+004
1.253517e+002, 2.112993e+004
1.258338e+002, 2.137190e+004
1.263159e+002, 2.163401e+004
1.267980e+002, 2.189565e+004
1.272802e+002, 2.215283e+004
1.277623e+002, 2.238519e+004
1.282444e+002, 2.256354e+004
1.287265e+002, 2.267936e+004
1.292086e+002, 2.282381e+004
1.296907e+002, 2.301305e+004
1.301729e+002, 2.322855e+004
1.306550e+002, 2.347334e+004
1.311371e+002, 2.374326e+004
1.316192e+002, 2.402111e+004
1.321013e+002, 2.428353e+004
1.325834e+002, 2.453208e+004
1.330656e+002, 2.476390e+004
1.335477e+002, 2.495393e+004
1.340298e+002, 2.514467e+004
1.345119e+002, 2.537287e+004
1.349940e+002, 2.564931e+004
1.354761e+002, 2.595491e+004
1.359583e+002, 2.624399e+004
1.364404e+002, 2.649907e+004
1.369225e+002, 2.675703e+004
1.374046e+002, 2.700473e+004
1.378867e+002, 2.726030e+004
1.383688e+002, 2.755127e+004
1.388510e+002, 2.789638e+004
1.393331e+002, 2.827665e+004
1.398152e+002, 2.862824e+004
1.402973e+002, 2.895420e+004
1.407794e+002, 2.925801e+004
1.412615e+002, 2.952034e+004
1.417437e+002, 2.975224e+004
1.422258e+002, 3.001062e+004
1.427079e+002, 3.033069e+004
1.431900e+002, 3.069490e+004
1.436721e+002, 3.105749e+004
1.441542e+002, 3.141228e+004
1.446364e+002, 3.177108e+004
1.451185e+002, 3.214858e+004
1.456006e+002, 3.254739e+004
1.460827e+002, 3.294802e+004
1.465648e+002, 3.334108e+004
1.470469e+002, 3.373240e+004
1.475291e+002, 3.412985e+004
1.480112e+002, 3.453838e+004
1.484933e+002, 3.495258e+004
1.489754e+002, 3.535856e+004
1.494575e+002, 3.575268e+004
1.499396e+002, 3.614925e+004
1.504218e+002, 3.653806e+004
1.509039e+002, 3.693652e+004
1.513860e+002, 3.736802e+004
1.518681e+002, 3.785217e+004
1.523502e+002, 3.838438e+004
1.528323e+002, 3.889631e+004
1.533145e+002, 3.935500e+004
1.537966e+002, 3.982543e+004
1.542787e+002, 4.031840e+004
1.547608e+002, 4.083516e+004
1.552429e+002, 4.137420e+004
1.557250e+002, 4.193493e+004
1.562072e+002, 4.251375e+004
1.566893e+002, 4.315563e+004
1.571714e+002, 4.395774e+004
1.576535e+002, 4.472408e+004
1.581356e+002, 4.535132e+004
1.586177e+002, 4.585508e+004
1.590999e+002, 4.633771e+004
1.595820e+002, 4.689367e+004
1.600641e+002, 4.754082e+004
1.605462e+002, 4.816166e+004
1.610283e+002, 4.869295e+004
1.615104e+002, 4.923801e+004
1.619926e+002, 4.987995e+004
1.624747e+002, 5.062789e+004
1.629568e+002, 5.143172e+004
1.634389e+002, 5.224598e+004
1.639210e+002, 5.307184e+004
1.644031e+002, 5.388184e+004
1.648853e+002, 5.467532e+004
1.653674e+002, 5.544923e+004
1.658495e+002, 5.616762e+004
1.663316e+002, 5.680478e+004
1.668137e+002, 5.745619e+004
1.672958e+002, 5.824255e+004
1.677780e+002, 5.913104e+004
1.682601e+002, 5.999723e+004
1.687422e+002, 6.074597e+004
1.692243e+002, 6.141545e+004
1.697064e+002, 6.215314e+004
1.701885e+002, 6.302508e+004
1.706707e+002, 6.390364e+004
1.711528e+002, 6.470060e+004
1.716349e+002, 6.542905e+004
1.721170e+002, 6.615516e+004
1.725991e+002, 6.693277e+004
1.730812e+002, 6.776436e+004
1.735634e+002, 6.859385e+004
1.740455e+002, 6.945496e+004
1.745276e+002, 7.028772e+004
1.750097e+002, 7.105435e+004
1.754918e+002, 7.176063e+004
1.759739e+002, 7.243863e+004
1.764561e+002, 7.312004e+004
1.769382e+002, 7.382108e+004
1.774203e+002, 7.448449e+004
1.779024e+002, 7.507788e+004
1.783845e+002, 7.566176e+004
1.788666e+002, 7.627643e+004
1.793488e+002, 7.691845e+004
1.798309e+002, 7.755468e+004
1.803130e+002, 7.813275e+004
1.807951e+002, 7.864396e+004
1.812772e+002, 7.910051e+004
1.817593e+002, 7.948105e+004
1.822415e+002, 7.982802e+004
1.827236e+002, 8.017652e+004
1.832057e+002, 8.053327e+004
1.836878e+002, 8.087159e+004
1.841699e+002, 8.115022e+004
1.846520e+002, 8.134479e+004
1.851342e+002, 8.151688e+004
1.856163e+002, 8.167960e+004
1.860984e+002, 8.181520e+004
1.865805e+002, 8.190601e+004
1.870626e+002, 8.194709e+004
1.875447e+002, 8.194167e+004
1.880269e+002, 8.188277e+004
1.885090e+002, 8.176233e+004
1.889911e+002, 8.163580e+004
1.894732e+002, 8.153632e+004
1.899553e+002, 8.143506e+004
1.904374e+002, 8.128231e+004
1.909196e+002, 8.105821e+004
1.914017e+002, 8.078314e+004
1.918838e+002, 8.046388e+004
1.923659e+002, 8.009389e+004
1.928480e+002, 7.976104e+004
1.933301e+002, 7.953550e+004
1.938123e+002, 7.938696e+004
1.942944e+002, 7.919887e+004
1.947765e+002, 7.892109e+004
1.952586e+002, 7.861826e+004
1.957407e+002, 7.835666e+004
1.962228e+002, 7.813729e+004
1.967050e+002, 7.793723e+004
1.971871e+002, 7.774598e+004
1.976692e+002, 7.756323e+004
1.981513e+002, 7.737871e+004
1.986334e+002, 7.719023e+004
1.991155e+002, 7.700027e+004
1.995977e+002, 7.678752e+004
2.000798e+002, 7.655674e+004
2.005619e+002, 7.637331e+004
2.010440e+002, 7.631827e+004
2.015261e+002, 7.641268e+004
2.020082e+002, 7.649652e+004
2.024904e+002, 7.651823e+004
2.029725e+002, 7.654891e+004
2.034546e+002, 7.663409e+004
2.039367e+002, 7.677499e+004
2.044188e+002, 7.693237e+004
2.049009e+002, 7.705355e+004
2.053831e+002, 7.711953e+004
2.058652e+002, 7.720722e+004
2.063473e+002, 7.734640e+004
2.068294e+002, 7.748542e+004
2.073115e+002, 7.758259e+004
2.077936e+002, 7.763680e+004
2.082758e+002, 7.768813e+004
2.087579e+002, 7.780198e+004
2.092400e+002, 7.804747e+004
2.097221e+002, 7.819745e+004
2.102042e+002, 7.817886e+004
2.106863e+002, 7.813254e+004
2.111685e+002, 7.815581e+004
2.116506e+002, 7.826673e+004
2.121327e+002, 7.841512e+004
2.126148e+002, 7.852788e+004
2.130969e+002, 7.856893e+004
2.135790e+002, 7.864963e+004
2.140612e+002, 7.879907e+004
2.145433e+002, 7.896648e+004
2.150254e+002, 7.911790e+004
2.155075e+002, 7.924310e+004
2.159896e+002, 7.934873e+004
2.164717e+002, 7.944269e+004
2.169539e+002, 7.952446e+004
2.174360e+002, 7.959182e+004
2.179181e+002, 7.961627e+004
2.184002e+002, 7.964035e+004
2.188823e+002, 7.970363e+004
2.193644e+002, 7.981555e+004
2.198466e+002, 7.996821e+004
2.203287e+002, 8.017091e+004
2.208108e+002, 8.044646e+004
2.212929e+002, 8.064691e+004
2.217750e+002, 8.068492e+004
2.222571e+002, 8.066309e+004
2.227393e+002, 8.071491e+004
2.232214e+002, 8.087409e+004
2.237035e+002, 8.107095e+004
2.241856e+002, 8.121216e+004
2.246677e+002, 8.130178e+004
2.251498e+002, 8.142078e+004
2.256320e+002, 8.160008e+004
2.261141e+002, 8.181920e+004
2.265962e+002, 8.205254e+004
2.270783e+002, 8.230482e+004
2.275604e+002, 8.254640e+004
2.280425e+002, 8.273405e+004
2.285247e+002, 8.288036e+004
2.290068e+002, 8.304424e+004
2.294889e+002, 8.325753e+004
2.299710e+002, 8.350177e+004
2.304531e+002, 8.373448e+004
2.309352e+002, 8.394084e+004
2.314174e+002, 8.415658e+004
2.318995e+002, 8.440244e+004
2.323816e+002, 8.467550e+004
2.328637e+002, 8.497307e+004
2.333458e+002, 8.532103e+004
2.338279e+002, 8.569527e+004
2.343101e+002, 8.602086e+004
2.347922e+002, 8.627757e+004
2.352743e+002, 8.650827e+004
2.357564e+002, 8.672873e+004
2.362385e+002, 8.694434e+004
2.367206e+002, 8.716737e+004
2.372028e+002, 8.739706e+004
2.376849e+002, 8.763798e+004
2.381670e+002, 8.792290e+004
2.386491e+002, 8.830520e+004
2.391312e+002, 8.864930e+004
2.396133e+002, 8.888622e+004
2.400955e+002, 8.905617e+004
2.405776e+002, 8.922977e+004
2.410597e+002, 8.944710e+004
2.415418e+002, 8.970081e+004
2.420239e+002, 8.995202e+004
2.425060e+002, 9.021262e+004
2.429882e+002, 9.045329e+004
2.434703e+002, 9.066205e+004
2.439524e+002, 9.084920e+004
2.444345e+002, 9.102066e+004
2.449166e+002, 9.116947e+004
2.453987e+002, 9.131675e+004
2.458809e+002, 9.156677e+004
2.463630e+002, 9.204234e+004
2.468451e+002, 9.246456e+004
2.473272e+002, 9.275265e+004
2.478093e+002, 9.296406e+004
2.482914e+002, 9.317105e+004
2.487736e+002, 9.341301e+004
2.492557e+002, 9.367962e+004
2.497378e+002, 9.392681e+004
2.502199e+002, 9.415882e+004
2.507020e+002, 9.436297e+004
2.511841e+002, 9.453886e+004
2.516663e+002, 9.468598e+004
2.521484e+002, 9.478986e+004
2.526305e+002, 9.484302e+004
2.531126e+002, 9.487258e+004
2.535947e+002, 9.496528e+004
2.540768e+002, 9.512645e+004
2.545590e+002, 9.535733e+004
2.550411e+002, 9.572901e+004
2.555232e+002, 9.614241e+004
2.560053e+002, 9.647534e+004
2.564874e+002, 9.667570e+004
2.569695e+002, 9.681330e+004
2.574517e+002, 9.705632e+004
2.579338e+002, 9.753950e+004
2.584159e+002, 9.797570e+004
2.588980e+002, 9.836998e+004
2.593801e+002, 9.871375e+004
2.598622e+002, 9.897795e+004
2.603444e+002, 9.915475e+004
2.608265e+002, 9.930490e+004
2.613086e+002, 9.954487e+004
2.617907e+002, 9.997673e+004
2.622728e+002, 1.003414e+005
2.627549e+002, 1.006053e+005
2.632371e+002, 1.008162e+005
2.637192e+002, 1.010122e+005
2.642013e+002, 1.012052e+005
2.646834e+002, 1.013972e+005
2.651655e+002, 1.015912e+005
2.656476e+002, 1.017876e+005
2.661298e+002, 1.019849e+005
2.666119e+002, 1.021738e+005
2.670940e+002, 1.023703e+005
2.675761e+002, 1.025893e+005
2.680582e+002, 1.028349e+005
2.685403e+002, 1.030978e+005
2.690225e+002, 1.033750e+005
2.695046e+002, 1.036762e+005
2.699867e+002, 1.039367e+005
2.704688e+002, 1.041413e+005
2.709509e+002, 1.043128e+005
2.714330e+002, 1.044626e+005
2.719152e+002, 1.045938e+005
2.723973e+002, 1.047186e+005
2.728794e+002, 1.048376e+005
2.733615e+002, 1.049524e+005
2.738436e+002, 1.051249e+005
2.743257e+002, 1.054317e+005
2.748079e+002, 1.057439e+005
2.752900e+002, 1.059276e+005
2.757721e+002, 1.059866e+005
2.762542e+002, 1.060670e+005
2.767363e+002, 1.062929e+005
2.772184e+002, 1.066476e+005
2.777006e+002, 1.069440e+005
2.781827e+002, 1.071744e+005
2.786648e+002, 1.073494e+005
2.791469e+002, 1.074438e+005
2.796290e+002, 1.074697e+005
2.801111e+002, 1.075158e+005
2.805933e+002, 1.076339e+005
2.810754e+002, 1.078177e+005
2.815575e+002, 1.080228e+005
2.820396e+002, 1.082741e+005
2.825217e+002, 1.085169e+005
2.830038e+002, 1.087150e+005
2.834860e+002, 1.088743e+005
2.839681e+002, 1.090283e+005
2.844502e+002, 1.091942e+005
2.849323e+002, 1.093609e+005
2.854144e+002, 1.095074e+005
2.858965e+002, 1.096313e+005
2.863787e+002, 1.097429e+005
2.868608e+002, 1.098192e+005
2.873429e+002, 1.098807e+005
2.878250e+002, 1.100033e+005
2.883071e+002, 1.102166e+005
2.887892e+002, 1.104992e+005
2.892714e+002, 1.108309e+005
2.897535e+002, 1.112188e+005
2.902356e+002, 1.115842e+005
2.907177e+002, 1.118840e+005
2.911998e+002, 1.121332e+005
2.916819e+002, 1.123896e+005
2.921641e+002, 1.126942e+005
2.926462e+002, 1.129486e+005
2.931283e+002, 1.129729e+005
2.936104e+002, 1.128003e+005
2.940925e+002, 1.127496e+005
2.945746e+002, 1.130240e+005
2.950568e+002, 1.134930e+005
2.955389e+002, 1.139014e+005
2.960210e+002, 1.142134e+005
2.965031e+002, 1.144826e+005
2.969852e+002, 1.147345e+005
2.974673e+002, 1.149777e+005
2.979495e+002, 1.152418e+005
2.984316e+002, 1.156067e+005
2.989137e+002, 1.159702e+005
2.993958e+002, 1.161252e+005
2.998779e+002, 1.160134e+005
3.003600e+002, 1.159575e+005
3.008422e+002, 1.162685e+005
3.013243e+002, 1.167698e+005
3.018064e+002, 1.171566e+005
3.022885e+002, 1.173171e+005
3.027706e+002, 1.173846e+005
3.032527e+002, 1.174983e+005
3.037349e+002, 1.176596e+005
3.042170e+002, 1.178534e+005
3.046991e+002, 1.180906e+005
3.051812e+002, 1.183494e+005
3.056633e+002, 1.185985e+005
3.061454e+002, 1.188293e+005
3.066276e+002, 1.190612e+005
3.071097e+002, 1.193390e+005
3.075918e+002, 1.196561e+005
3.080739e+002, 1.198895e+005
3.085560e+002, 1.199448e+005
3.090381e+002, 1.199402e+005
3.095203e+002, 1.200159e+005
3.100024e+002, 1.201820e+005
3.104845e+002, 1.203577e+005
3.109666e+002, 1.204978e+005
3.114487e+002, 1.206034e+005
3.119308e+002, 1.206655e+005
3.124130e+002, 1.206367e+005
3.128951e+002, 1.206310e+005
3.133772e+002, 1.207633e+005
3.138593e+002, 1.210157e+005
3.143414e+002, 1.212763e+005
3.148235e+002, 1.215209e+005
3.153057e+002, 1.217317e+005
3.157878e+002, 1.218562e+005
3.162699e+002, 1.218682e+005
3.167520e+002, 1.218437e+005
3.172341e+002, 1.218263e+005
3.177162e+002, 1.218157e+005
3.181984e+002, 1.218126e+005
3.186805e+002, 1.218233e+005
3.191626e+002, 1.218398e+005
3.196447e+002, 1.218418e+005
3.201268e+002, 1.218226e+005
3.206089e+002, 1.218260e+005
3.210911e+002, 1.219036e+005
3.215732e+002, 1.220136e+005
3.220553e+002, 1.221043e+005
3.225374e+002, 1.221809e+005
3.230195e+002, 1.222109e+005
3.235016e+002, 1.221212e+005
3.239838e+002, 1.219095e+005
3.244659e+002, 1.217653e+005
3.249480e+002, 1.218073e+005
3.254301e+002, 1.219236e+005
3.259122e+002, 1.219640e+005
3.263943e+002, 1.219039e+005
3.268765e+002, 1.218570e+005
3.273586e+002, 1.219801e+005
3.278407e+002, 1.222191e+005
3.283228e+002, 1.222413e+005
3.288049e+002, 1.218548e+005
3.292870e+002, 1.213871e+005
3.297692e+002, 1.211811e+005
3.302513e+002, 1.212159e+005
3.307334e+002, 1.212900e+005
3.312155e+002, 1.213443e+005
3.316976e+002, 1.213651e+005
3.321797e+002, 1.212986e+005
3.326619e+002, 1.211045e+005
3.331440e+002, 1.209205e+005
3.336261e+002, 1.209071e+005
3.341082e+002, 1.209956e+005
3.345903e+002, 1.210205e+005
3.350724e+002, 1.208401e+005
3.355546e+002, 1.206156e+005
3.360367e+002, 1.205839e+005
3.365188e+002, 1.207644e+005
3.370009e+002, 1.209459e+005
3.374830e+002, 1.210184e+005
3.379651e+002, 1.210066e+005
3.384473e+002, 1.209592e+005
3.389294e+002, 1.208745e+005
3.394115e+002, 1.207661e+005
3.398936e+002, 1.206442e+005
3.403757e+002, 1.205082e+005
3.408578e+002, 1.203490e+005
3.413400e+002, 1.201329e+005
3.418221e+002, 1.199244e+005
3.423042e+002, 1.198269e+005
3.427863e+002, 1.198585e+005
3.432684e+002, 1.198878e+005
3.437505e+002, 1.198256e+005
3.442327e+002, 1.197142e+005
3.447148e+002, 1.196657e+005
3.451969e+002, 1.197197e+005
3.456790e+002, 1.197972e+005
3.461611e+002, 1.198038e+005
3.466432e+002, 1.197507e+005
3.471254e+002, 1.196921e+005
3.476075e+002, 1.196768e+005
3.480896e+002, 1.196467e+005
3.485717e+002, 1.195037e+005
3.490538e+002, 1.192346e+005
3.495359e+002, 1.189773e+005
3.500181e+002, 1.188375e+005
3.505002e+002, 1.187983e+005
3.509823e+002, 1.187586e+005
3.514644e+002, 1.186972e+005
3.519465e+002, 1.186480e+005
3.524286e+002, 1.186758e+005
3.529108e+002, 1.187526e+005
3.533929e+002, 1.187298e+005
3.538750e+002, 1.185010e+005
3.543571e+002, 1.181616e+005
3.548392e+002, 1.179508e+005
3.553214e+002, 1.178980e+005
3.558035e+002, 1.178820e+005
3.562856e+002, 1.179021e+005
3.567677e+002, 1.179231e+005
3.572498e+002, 1.178738e+005
3.577319e+002, 1.177285e+005
3.582141e+002, 1.175388e+005
3.586962e+002, 1.173642e+005
3.591783e+002, 1.172016e+005
3.596604e+002, 1.170735e+005
3.601425e+002, 1.170217e+005
3.606246e+002, 1.169814e+005
3.611068e+002, 1.168851e+005
3.615889e+002, 1.167291e+005
3.620710e+002, 1.165701e+005
3.625531e+002, 1.164658e+005
3.630352e+002, 1.164120e+005
3.635173e+002, 1.162787e+005
3.639995e+002, 1.159831e+005
3.644816e+002, 1.156969e+005
3.649637e+002, 1.155128e+005
3.654458e+002, 1.154046e+005
3.659279e+002, 1.152994e+005
3.664100e+002, 1.151594e+005
3.668922e+002, 1.149956e+005
3.673743e+002, 1.148429e+005
3.678564e+002, 1.146101e+005
3.683385e+002, 1.145127e+005
3.688206e+002, 1.147231e+005
3.693027e+002, 1.150216e+005
3.697849e+002, 1.151575e+005
3.702670e+002, 1.150601e+005
3.707491e+002, 1.148177e+005
3.712312e+002, 1.145455e+005
3.717133e+002, 1.142418e+005
3.721954e+002, 1.139099e+005
3.726776e+002, 1.134835e+005
3.731597e+002, 1.130870e+005
3.736418e+002, 1.127968e+005
3.741239e+002, 1.126101e+005
3.746060e+002, 1.124847e+005
3.750881e+002, 1.123947e+005
3.755703e+002, 1.123383e+005
3.760524e+002, 1.122333e+005
3.765345e+002, 1.120648e+005
3.770166e+002, 1.118672e+005
3.774987e+002, 1.116025e+005
3.779808e+002, 1.113246e+005
3.784630e+002, 1.111217e+005
3.789451e+002, 1.110351e+005
3.794272e+002, 1.110061e+005
3.799093e+002, 1.108910e+005
3.803914e+002, 1.106098e+005
3.808735e+002, 1.103728e+005
3.813557e+002, 1.102382e+005
3.818378e+002, 1.101104e+005
3.823199e+002, 1.099074e+005
3.828020e+002, 1.096235e+005
3.832841e+002, 1.093216e+005
3.837662e+002, 1.090720e+005
3.842484e+002, 1.088796e+005
3.847305e+002, 1.086958e+005
3.852126e+002, 1.085644e+005
3.856947e+002, 1.083962e+005
3.861768e+002, 1.081292e+005
3.866589e+002, 1.078042e+005
3.871411e+002, 1.075050e+005
3.876232e+002, 1.072852e+005
3.881053e+002, 1.071199e+005
3.885874e+002, 1.069251e+005
3.890695e+002, 1.067009e+005
3.895516e+002, 1.064440e+005
3.900338e+002, 1.061405e+005
3.905159e+002, 1.058152e+005
3.909980e+002, 1.054787e+005
3.914801e+002, 1.051343e+005
3.919622e+002, 1.048163e+005
3.924443e+002, 1.045893e+005
3.929265e+002, 1.044702e+005
3.934086e+002, 1.042814e+005
3.938907e+002, 1.038970e+005
3.943728e+002, 1.035398e+005
3.948549e+002, 1.033983e+005
3.953370e+002, 1.034150e+005
3.958192e+002, 1.033596e+005
3.963013e+002, 1.030613e+005
3.967834e+002, 1.025785e+005
3.972655e+002, 1.020847e+005
3.977476e+002, 1.015492e+005
3.982297e+002, 1.010864e+005
3.987119e+002, 1.008200e+005
3.991940e+002, 1.006419e+005
3.996761e+002, 1.004206e+005
4.001582e+002, 1.001191e+005
4.006403e+002, 9.977378e+004
4.011224e+002, 9.939861e+004
4.016046e+002, 9.899472e+004
4.020867e+002, 9.864132e+004
4.025688e+002, 9.838382e+004
4.030509e+002, 9.816320e+004
4.035330e+002, 9.790400e+004
4.040151e+002, 9.760538e+004
4.044973e+002, 9.731408e+004
4.049794e+002, 9.707465e+004
4.054615e+002, 9.684910e+004
4.059436e+002, 9.656020e+004
4.064257e+002, 9.619439e+004
4.069078e+002, 9.582005e+004
4.073900e+002, 9.550499e+004
4.078721e+002, 9.523431e+004
4.083542e+002, 9.492109e+004
4.088363e+002, 9.451062e+004
4.093184e+002, 9.410166e+004
4.098005e+002, 9.378159e+004
4.102827e+002, 9.352355e+004
4.107648e+002, 9.322617e+004
4.112469e+002, 9.282962e+004
4.117290e+002, 9.239933e+004
4.122111e+002, 9.210160e+004
4.126932e+002, 9.200463e+004
4.131754e+002, 9.184935e+004
4.136575e+002, 9.155343e+004
4.141396e+002, 9.119829e+004
4.146217e+002, 9.086938e+004
4.151038e+002, 9.058059e+004
4.155859e+002, 9.028641e+004
4.160681e+002, 8.993666e+004
4.165502e+002, 8.952270e+004
4.170323e+002, 8.914827e+004
4.175144e+002, 8.884474e+004
4.179965e+002, 8.854103e+004
4.184786e+002, 8.817827e+004
4.189608e+002, 8.779801e+004
4.194429e+002, 8.748663e+004
4.199250e+002, 8.729181e+004
4.204071e+002, 8.717052e+004
4.208892e+002, 8.700359e+004
4.213713e+002, 8.676902e+004
4.218535e+002, 8.651934e+004
4.223356e+002, 8.626112e+004
4.228177e+002, 8.598606e+004
4.232998e+002, 8.567866e+004
4.237819e+002, 8.534225e+004
4.242640e+002, 8.500783e+004
4.247462e+002, 8.471112e+004
4.252283e+002, 8.445483e+004
4.257104e+002, 8.417721e+004
4.261925e+002, 8.383584e+004
4.266746e+002, 8.351932e+004
4.271567e+002, 8.325495e+004
4.276389e+002, 8.303082e+004
4.281210e+002, 8.283791e+004
4.286031e+002, 8.267798e+004
4.290852e+002, 8.252077e+004
4.295673e+002, 8.229558e+004
4.300494e+002, 8.197601e+004
4.305316e+002, 8.168320e+004
4.310137e+002, 8.152437e+004
4.314958e+002, 8.134850e+004
4.319779e+002, 8.102604e+004
4.324600e+002, 8.056155e+004
4.329421e+002, 8.011288e+004
4.334243e+002, 7.980459e+004
4.339064e+002, 7.961316e+004
4.343885e+002, 7.943745e+004
4.348706e+002, 7.927723e+004
4.353527e+002, 7.912095e+004
4.358348e+002, 7.896234e+004
4.363170e+002, 7.880173e+004
4.367991e+002, 7.863775e+004
4.372812e+002, 7.847255e+004
4.377633e+002, 7.830082e+004
4.382454e+002, 7.812487e+004
4.387275e+002, 7.794079e+004
4.392097e+002, 7.772255e+004
4.396918e+002, 7.744989e+004
4.401739e+002, 7.715716e+004
4.406560e+002, 7.688822e+004
4.411381e+002, 7.663713e+004
4.416202e+002, 7.642769e+004
4.421024e+002, 7.630742e+004
4.425845e+002, 7.621055e+004
4.430666e+002, 7.606259e+004
4.435487e+002, 7.585741e+004
4.440308e+002, 7.563059e+004
4.445129e+002, 7.540498e+004
4.449951e+002, 7.518152e+004
4.454772e+002, 7.495817e+004
4.459593e+002, 7.473787e+004
4.464414e+002, 7.451607e+004
4.469235e+002, 7.429018e+004
4.474056e+002, 7.406247e+004
4.478878e+002, 7.383395e+004
4.483699e+002, 7.360521e+004
4.488520e+002, 7.337981e+004
4.493341e+002, 7.315654e+004
4.498162e+002, 7.291107e+004
4.502983e+002, 7.274656e+004
4.507805e+002, 7.273209e+004
4.512626e+002, 7.272266e+004
4.517447e+002, 7.265338e+004
4.522268e+002, 7.252445e+004
4.527089e+002, 7.235416e+004
4.531910e+002, 7.215081e+004
4.536732e+002, 7.192541e+004
4.541553e+002, 7.172701e+004
4.546374e+002, 7.157162e+004
4.551195e+002, 7.141674e+004
4.556016e+002, 7.124391e+004
4.560837e+002, 7.107598e+004
4.565659e+002, 7.094151e+004
4.570480e+002, 7.084111e+004
4.575301e+002, 7.074155e+004
4.580122e+002, 7.059762e+004
4.584943e+002, 7.041016e+004
4.589764e+002, 7.025889e+004
4.594586e+002, 7.015541e+004
4.599407e+002, 7.007707e+004
4.604228e+002, 7.003664e+004
4.609049e+002, 7.000655e+004
4.613870e+002, 6.993530e+004
4.618691e+002, 6.979663e+004
4.623513e+002, 6.962346e+004
4.628334e+002, 6.944242e+004
4.633155e+002, 6.925492e+004
4.637976e+002, 6.909652e+004
4.642797e+002, 6.897680e+004
4.647618e+002, 6.889484e+004
4.652440e+002, 6.887159e+004
4.657261e+002, 6.891039e+004
4.662082e+002, 6.888928e+004
4.666903e+002, 6.872466e+004
4.671724e+002, 6.850098e+004
4.676545e+002, 6.831028e+004
4.681367e+002, 6.816163e+004
4.686188e+002, 6.804638e+004
4.691009e+002, 6.796573e+004
4.695830e+002, 6.791353e+004
4.700651e+002, 6.785597e+004
4.705472e+002, 6.779737e+004
4.710294e+002, 6.772927e+004
4.715115e+002, 6.762342e+004
4.719936e+002, 6.751754e+004
4.724757e+002, 6.747488e+004
4.729578e+002, 6.750667e+004
4.734399e+002, 6.754570e+004
4.739221e+002, 6.750906e+004
4.744042e+002, 6.738165e+004
4.748863e+002, 6.726338e+004
4.753684e+002, 6.714182e+004
4.758505e+002, 6.703984e+004
4.763326e+002, 6.699221e+004
4.768148e+002, 6.696494e+004
4.772969e+002, 6.690014e+004
4.777790e+002, 6.676966e+004
4.782611e+002, 6.659816e+004
4.787432e+002, 6.642955e+004
4.792253e+002, 6.624520e+004
4.797075e+002, 6.612036e+004
4.801896e+002, 6.611510e+004
4.806717e+002, 6.613002e+004
4.811538e+002, 6.610801e+004
4.816359e+002, 6.605470e+004
4.821180e+002, 6.601455e+004
4.826002e+002, 6.603187e+004
4.830823e+002, 6.607988e+004
4.835644e+002, 6.607517e+004
4.840465e+002, 6.600213e+004
4.845286e+002, 6.593412e+004
4.850107e+002, 6.592046e+004
4.854929e+002, 6.592008e+004
4.859750e+002, 6.587505e+004
4.864571e+002, 6.576846e+004
4.869392e+002, 6.567674e+004
4.874213e+002, 6.565955e+004
4.879034e+002, 6.568866e+004
4.883856e+002, 6.569771e+004
4.888677e+002, 6.567316e+004
4.893498e+002, 6.565323e+004
4.898319e+002, 6.567491e+004
4.903140e+002, 6.573520e+004
4.907961e+002, 6.577921e+004
4.912783e+002, 6.580568e+004
4.917604e+002, 6.581786e+004
4.922425e+002, 6.581045e+004
4.927246e+002, 6.579129e+004
4.932067e+002, 6.577061e+004
4.936888e+002, 6.575209e+004
4.941710e+002, 6.574422e+004
4.946531e+002, 6.576256e+004
4.951352e+002, 6.582041e+004
4.956173e+002, 6.586320e+004
4.960994e+002, 6.588449e+004
4.965815e+002, 6.589937e+004
4.970637e+002, 6.590501e+004
4.975458e+002, 6.591055e+004
4.980279e+002, 6.593588e+004
4.985100e+002, 6.599411e+004
4.989921e+002, 6.606837e+004
4.994742e+002, 6.611562e+004
4.999564e+002, 6.612537e+004
5.004385e+002, 6.613314e+004
5.009206e+002, 6.611507e+004
5.014027e+002, 6.611890e+004
5.018848e+002, 6.619698e+004
5.023669e+002, 6.633535e+004
5.028491e+002, 6.645405e+004
5.033312e+002, 6.648651e+004
5.038133e+002, 6.646248e+004
5.042954e+002, 6.645807e+004
5.047775e+002, 6.647341e+004
5.052596e+002, 6.650962e+004
5.057418e+002, 6.657603e+004
5.062239e+002, 6.666029e+004
5.067060e+002, 6.675012e+004
5.071881e+002, 6.685191e+004
5.076702e+002, 6.692943e+004
5.081523e+002, 6.693253e+004
5.086345e+002, 6.690995e+004
5.091166e+002, 6.694911e+004
5.095987e+002, 6.706330e+004
5.100808e+002, 6.720043e+004
5.105629e+002, 6.732691e+004
5.110450e+002, 6.743970e+004
5.115272e+002, 6.751830e+004
5.120093e+002, 6.757390e+004
5.124914e+002, 6.758735e+004
5.129735e+002, 6.749853e+004
5.134556e+002, 6.738640e+004
5.139377e+002, 6.737148e+004
5.144199e+002, 6.747924e+004
5.149020e+002, 6.761195e+004
5.153841e+002, 6.763409e+004
5.158662e+002, 6.751413e+004
5.163483e+002, 6.750122e+004
5.168304e+002, 6.773503e+004
5.173126e+002, 6.793020e+004
5.177947e+002, 6.797629e+004
5.182768e+002, 6.794250e+004
5.187589e+002, 6.794231e+004
5.192410e+002, 6.802291e+004
5.197231e+002, 6.811464e+004
5.202053e+002, 6.808573e+004
5.206874e+002, 6.792038e+004
5.211695e+002, 6.787877e+004
5.216516e+002, 6.810591e+004
5.221337e+002, 6.832073e+004
5.226158e+002, 6.830919e+004
5.230980e+002, 6.813395e+004
5.235801e+002, 6.797213e+004
5.240622e+002, 6.786636e+004
5.245443e+002, 6.782049e+004
5.250264e+002, 6.788314e+004
5.255085e+002, 6.802957e+004
5.259907e+002, 6.810388e+004
5.264728e+002, 6.804136e+004
5.269549e+002, 6.790802e+004
5.274370e+002, 6.779216e+004
5.279191e+002, 6.769198e+004
5.284012e+002, 6.761513e+004
5.288834e+002, 6.755170e+004
5.293655e+002, 6.752142e+004
5.298476e+002, 6.756654e+004
5.303297e+002, 6.765864e+004
5.308118e+002, 6.771768e+004
5.312939e+002, 6.769911e+004
5.317761e+002, 6.762956e+004
5.322582e+002, 6.757983e+004
5.327403e+002, 6.758793e+004
5.332224e+002, 6.754182e+004
5.337045e+002, 6.739277e+004
5.341866e+002, 6.723620e+004
5.346688e+002, 6.713393e+004
5.351509e+002, 6.707528e+004
5.356330e+002, 6.700803e+004
5.361151e+002, 6.688931e+004
5.365972e+002, 6.675052e+004
5.370793e+002, 6.668174e+004
5.375615e+002, 6.670038e+004
5.380436e+002, 6.672185e+004
5.385257e+002, 6.675279e+004
5.390078e+002, 6.675210e+004
5.394899e+002, 6.666242e+004
5.399720e+002, 6.648917e+004
5.404542e+002, 6.634266e+004
5.409363e+002, 6.631796e+004
5.414184e+002, 6.633219e+004
5.419005e+002, 6.625735e+004
5.423826e+002, 6.609322e+004
5.428647e+002, 6.592854e+004
5.433469e+002, 6.581367e+004
5.438290e+002, 6.572220e+004
5.443111e+002, 6.557448e+004
5.447932e+002, 6.531375e+004
5.452753e+002, 6.513633e+004
5.457574e+002, 6.514405e+004
5.462396e+002, 6.519167e+004
5.467217e+002, 6.514396e+004
5.472038e+002, 6.500813e+004
5.476859e+002, 6.488758e+004
5.481680e+002, 6.486199e+004
5.486501e+002, 6.489523e+004
5.491323e+002, 6.482067e+004
5.496144e+002, 6.455509e+004
5.500965e+002, 6.432434e+004
5.505786e+002, 6.414911e+004
5.510607e+002, 6.401498e+004
5.515428e+002, 6.392777e+004
5.520250e+002, 6.387759e+004
5.525071e+002, 6.382772e+004
5.529892e+002, 6.374848e+004
5.534713e+002, 6.365060e+004
5.539534e+002, 6.357024e+004
5.544355e+002, 6.351546e+004
5.549177e+002, 6.343532e+004
5.553998e+002, 6.328826e+004
5.558819e+002, 6.311983e+004
5.563640e+002, 6.299675e+004
5.568461e+002, 6.292680e+004
5.573282e+002, 6.284491e+004
5.578104e+002, 6.272555e+004
5.582925e+002, 6.258042e+004
5.587746e+002, 6.241312e+004
5.592567e+002, 6.222799e+004
5.597388e+002, 6.205452e+004
5.602209e+002, 6.190809e+004
5.607031e+002, 6.178720e+004
5.611852e+002, 6.168698e+004
5.616673e+002, 6.165065e+004
5.621494e+002, 6.157148e+004
5.626315e+002, 6.140352e+004
5.631136e+002, 6.122717e+004
5.635958e+002, 6.111404e+004
5.640779e+002, 6.105079e+004
5.645600e+002, 6.097083e+004
5.650421e+002, 6.082396e+004
5.655242e+002, 6.063037e+004
5.660063e+002, 6.045205e+004
5.664885e+002, 6.028188e+004
5.669706e+002, 6.015038e+004
5.674527e+002, 6.012873e+004
5.679348e+002, 6.010098e+004
5.684169e+002, 5.996621e+004
5.688990e+002, 5.973663e+004
5.693812e+002, 5.952546e+004
5.698633e+002, 5.941202e+004
5.703454e+002, 5.934280e+004
5.708275e+002, 5.924069e+004
5.713096e+002, 5.910763e+004
5.717917e+002, 5.898380e+004
5.722739e+002, 5.889779e+004
5.727560e+002, 5.880880e+004
5.732381e+002, 5.862601e+004
5.737202e+002, 5.830681e+004
5.742023e+002, 5.806492e+004
5.746844e+002, 5.795357e+004
5.751666e+002, 5.789581e+004
5.756487e+002, 5.786898e+004
5.761308e+002, 5.785072e+004
5.766129e+002, 5.779890e+004
5.770950e+002, 5.769020e+004
5.775771e+002, 5.754660e+004
5.780593e+002, 5.742473e+004
5.785414e+002, 5.736083e+004
5.790235e+002, 5.721832e+004
5.795056e+002, 5.691525e+004
5.799877e+002, 5.660018e+004
5.804698e+002, 5.630246e+004
5.809520e+002, 5.604735e+004
5.814341e+002, 5.588867e+004
5.819162e+002, 5.588622e+004
5.823983e+002, 5.591536e+004
5.828804e+002, 5.578612e+004
5.833625e+002, 5.551560e+004
5.838447e+002, 5.529655e+004
5.843268e+002, 5.518388e+004
5.848089e+002, 5.511231e+004
5.852910e+002, 5.504029e+004
5.857731e+002, 5.496249e+004
5.862552e+002, 5.481788e+004
5.867374e+002, 5.452414e+004
5.872195e+002, 5.424325e+004
5.877016e+002, 5.407269e+004
5.881837e+002, 5.396984e+004
5.886658e+002, 5.386287e+004
5.891479e+002, 5.372902e+004
5.896301e+002, 5.358243e+004
5.901122e+002, 5.344356e+004
5.905943e+002, 5.331798e+004
5.910764e+002, 5.314398e+004
5.915585e+002, 5.283105e+004
5.920406e+002, 5.257530e+004
5.925228e+002, 5.246865e+004
5.930049e+002, 5.242161e+004
5.934870e+002, 5.232313e+004
5.939691e+002, 5.214521e+004
5.944512e+002, 5.196042e+004
5.949333e+002, 5.185028e+004
5.954155e+002, 5.179307e+004
5.958976e+002, 5.168754e+004
5.963797e+002, 5.151663e+004
5.968618e+002, 5.135174e+004
5.973439e+002, 5.125108e+004
5.978260e+002, 5.117877e+004
5.983082e+002, 5.104675e+004
5.987903e+002, 5.083125e+004
5.992724e+002, 5.061729e+004
5.997545e+002, 5.042207e+004
6.002366e+002, 5.024828e+004
6.007188e+002, 5.010610e+004
6.012009e+002, 4.999177e+004
6.016830e+002, 4.988613e+004
6.021651e+002, 4.977537e+004
6.026472e+002, 4.966363e+004
6.031293e+002, 4.956625e+004
6.036115e+002, 4.948578e+004
6.040936e+002, 4.941555e+004
6.045757e+002, 4.937131e+004
6.050578e+002, 4.932196e+004
6.055399e+002, 4.926033e+004
6.060220e+002, 4.917777e+004
6.065042e+002, 4.904883e+004
6.069863e+002, 4.883580e+004
6.074684e+002, 4.860571e+004
6.079505e+002, 4.847310e+004
6.084326e+002, 4.843584e+004
6.089147e+002, 4.841211e+004
6.093969e+002, 4.838472e+004
6.098790e+002, 4.835778e+004
6.103611e+002, 4.836259e+004
6.108432e+002, 4.839112e+004
6.113253e+002, 4.831567e+004
6.118074e+002, 4.798601e+004
6.122896e+002, 4.769189e+004
6.127717e+002, 4.761178e+004
6.132538e+002, 4.766327e+004
6.137359e+002, 4.771436e+004
6.142180e+002, 4.772221e+004
6.147001e+002, 4.769804e+004
6.151823e+002, 4.765148e+004
6.156644e+002, 4.758102e+004
6.161465e+002, 4.751645e+004
6.166286e+002, 4.745388e+004
6.171107e+002, 4.740359e+004
6.175928e+002, 4.739521e+004
6.180750e+002, 4.738444e+004
6.185571e+002, 4.730364e+004
6.190392e+002, 4.714532e+004
6.195213e+002, 4.701889e+004
6.200034e+002, 4.704004e+004
6.204855e+002, 4.714445e+004
6.209677e+002, 4.718575e+004
6.214498e+002, 4.715637e+004
6.219319e+002, 4.711435e+004
6.224140e+002, 4.708582e+004
6.228961e+002, 4.706493e+004
6.233782e+002, 4.703825e+004
6.238604e+002, 4.700276e+004
6.243425e+002, 4.697239e+004
6.248246e+002, 4.694661e+004
6.253067e+002, 4.692834e+004
6.257888e+002, 4.690952e+004
6.262709e+002, 4.690040e+004
6.267531e+002, 4.693313e+004
6.272352e+002, 4.702455e+004
6.277173e+002, 4.713107e+004
6.281994e+002, 4.716725e+004
6.286815e+002, 4.711847e+004
6.291636e+002, 4.707931e+004
6.296458e+002, 4.706234e+004
6.301279e+002, 4.704507e+004
6.306100e+002, 4.700921e+004
6.310921e+002, 4.696678e+004
6.315742e+002, 4.694380e+004
6.320563e+002, 4.695666e+004
6.325385e+002, 4.695946e+004
6.330206e+002, 4.689204e+004
6.335027e+002, 4.679818e+004
6.339848e+002, 4.677358e+004
6.344669e+002, 4.683117e+004
6.349490e+002, 4.690793e+004
6.354312e+002, 4.696607e+004
6.359133e+002, 4.700156e+004
6.363954e+002, 4.699419e+004
6.368775e+002, 4.689383e+004
6.373596e+002, 4.681724e+004
6.378417e+002, 4.676421e+004
6.383239e+002, 4.673946e+004
6.388060e+002, 4.677545e+004
6.392881e+002, 4.684543e+004
6.397702e+002, 4.686769e+004
6.402523e+002, 4.678136e+004
6.407344e+002, 4.665116e+004
6.412166e+002, 4.661072e+004
6.416987e+002, 4.666439e+004
6.421808e+002, 4.670904e+004
6.426629e+002, 4.674404e+004
6.431450e+002, 4.673325e+004
6.436271e+002, 4.659714e+004
6.441093e+002, 4.637755e+004
6.445914e+002, 4.623535e+004
6.450735e+002, 4.624339e+004
6.455556e+002, 4.627558e+004
6.460377e+002, 4.627843e+004
6.465198e+002, 4.626759e+004
6.470020e+002, 4.627356e+004
6.474841e+002, 4.629763e+004
6.479662e+002, 4.630342e+004
6.484483e+002, 4.625594e+004
6.489304e+002, 4.616289e+004
6.494125e+002, 4.607723e+004
6.498947e+002, 4.601031e+004
6.503768e+002, 4.593008e+004
6.508589e+002, 4.580579e+004
6.513410e+002, 4.568723e+004
6.518231e+002, 4.561143e+004
6.523052e+002, 4.557573e+004
6.527874e+002, 4.555326e+004
6.532695e+002, 4.555179e+004
6.537516e+002, 4.553637e+004
6.542337e+002, 4.543488e+004
6.547158e+002, 4.527304e+004
6.551979e+002, 4.518199e+004
6.556801e+002, 4.520798e+004
6.561622e+002, 4.526212e+004
6.566443e+002, 4.524827e+004
6.571264e+002, 4.516309e+004
6.576085e+002, 4.507241e+004
6.580906e+002, 4.494646e+004
6.585728e+002, 4.485313e+004
6.590549e+002, 4.483574e+004
6.595370e+002, 4.484201e+004
6.600191e+002, 4.481902e+004
6.605012e+002, 4.475870e+004
6.609833e+002, 4.468540e+004
6.614655e+002, 4.462362e+004
6.619476e+002, 4.456149e+004
6.624297e+002, 4.444976e+004
6.629118e+002, 4.427750e+004
6.633939e+002, 4.414373e+004
6.638760e+002, 4.408382e+004
6.643582e+002, 4.407018e+004
6.648403e+002, 4.409273e+004
6.653224e+002, 4.414703e+004
6.658045e+002, 4.415523e+004
6.662866e+002, 4.407944e+004
6.667687e+002, 4.398127e+004
6.672509e+002, 4.388714e+004
6.677330e+002, 4.379638e+004
6.682151e+002, 4.369671e+004
6.686972e+002, 4.358879e+004
6.691793e+002, 4.350649e+004
6.696614e+002, 4.349348e+004
6.701436e+002, 4.354210e+004
6.706257e+002, 4.354079e+004
6.711078e+002, 4.347220e+004
6.715899e+002, 4.338926e+004
6.720720e+002, 4.329049e+004
6.725541e+002, 4.319322e+004
6.730363e+002, 4.311345e+004
6.735184e+002, 4.305026e+004
6.740005e+002, 4.298480e+004
6.744826e+002, 4.291679e+004
6.749647e+002, 4.283554e+004
6.754468e+002, 4.271457e+004
6.759290e+002, 4.257055e+004
6.764111e+002, 4.246076e+004
6.768932e+002, 4.240391e+004
6.773753e+002, 4.235335e+004
6.778574e+002, 4.224968e+004
6.783395e+002, 4.208913e+004
6.788217e+002, 4.197446e+004
6.793038e+002, 4.196458e+004
6.797859e+002, 4.192627e+004
6.802680e+002, 4.181896e+004
6.807501e+002, 4.168734e+004
6.812322e+002, 4.156815e+004
6.817144e+002, 4.146722e+004
6.821965e+002, 4.137339e+004
6.826786e+002, 4.128382e+004
6.831607e+002, 4.119521e+004
6.836428e+002, 4.110803e+004
6.841249e+002, 4.101985e+004
6.846071e+002, 4.091027e+004
6.850892e+002, 4.076874e+004
6.855713e+002, 4.061724e+004
6.860534e+002, 4.047955e+004
6.865355e+002, 4.035711e+004
6.870176e+002, 4.022971e+004
6.874998e+002, 4.010432e+004
6.879819e+002, 3.996600e+004
6.884640e+002, 3.979564e+004
6.889461e+002, 3.962031e+004
6.894282e+002, 3.946265e+004
6.899103e+002, 3.932794e+004
6.903925e+002, 3.921437e+004
6.908746e+002, 3.913073e+004
6.913567e+002, 3.905858e+004
6.918388e+002, 3.894487e+004
6.923209e+002, 3.878730e+004
6.928030e+002, 3.865740e+004
6.932852e+002, 3.858964e+004
6.937673e+002, 3.852677e+004
6.942494e+002, 3.840877e+004
6.947315e+002, 3.823763e+004
6.952136e+002, 3.805992e+004
6.956957e+002, 3.787036e+004
6.961779e+002, 3.768213e+004
6.966600e+002, 3.748263e+004
6.971421e+002, 3.729679e+004
6.976242e+002, 3.715846e+004
6.981063e+002, 3.706690e+004
6.985884e+002, 3.699202e+004
6.990706e+002, 3.691432e+004
6.995527e+002, 3.683106e+004
7.000348e+002, 3.673759e+004
7.005169e+002, 3.663695e+004
7.009990e+002, 3.650453e+004
7.014811e+002, 3.633148e+004
7.019633e+002, 3.613038e+004
7.024454e+002, 3.588746e+004
7.029275e+002, 3.562163e+004
7.034096e+002, 3.539452e+004
7.038917e+002, 3.522970e+004
7.043738e+002, 3.508371e+004
7.048560e+002, 3.493150e+004
7.053381e+002, 3.479068e+004
7.058202e+002, 3.470320e+004
7.063023e+002, 3.465597e+004
7.067844e+002, 3.456900e+004
7.072665e+002, 3.438368e+004
7.077487e+002, 3.413564e+004
7.082308e+002, 3.392447e+004
7.087129e+002, 3.375544e+004
7.091950e+002, 3.359918e+004
7.096771e+002, 3.345530e+004
7.101592e+002, 3.332023e+004
7.106414e+002, 3.320033e+004
7.111235e+002, 3.308655e+004
7.116056e+002, 3.295680e+004
7.120877e+002, 3.279709e+004
7.125698e+002, 3.264623e+004
7.130519e+002, 3.254855e+004
7.135341e+002, 3.245608e+004
7.140162e+002, 3.229975e+004
7.144983e+002, 3.208872e+004
7.149804e+002, 3.188672e+004
7.154625e+002, 3.172952e+004
7.159446e+002, 3.159974e+004
7.164268e+002, 3.145732e+004
7.169089e+002, 3.129453e+004
7.173910e+002, 3.115340e+004
7.178731e+002, 3.105490e+004
7.183552e+002, 3.094885e+004
7.188373e+002, 3.079823e+004
7.193195e+002, 3.063108e+004
7.198016e+002, 3.049199e+004
7.202837e+002, 3.039267e+004
7.207658e+002, 3.028581e+004
7.212479e+002, 3.012692e+004
7.217300e+002, 2.996468e+004
7.222122e+002, 2.986888e+004
7.226943e+002, 2.981977e+004
7.231764e+002, 2.973060e+004
7.236585e+002, 2.956279e+004
7.241406e+002, 2.937530e+004
7.246227e+002, 2.926507e+004
7.251049e+002, 2.924306e+004
7.255870e+002, 2.918771e+004
7.260691e+002, 2.908732e+004
7.265512e+002, 2.897212e+004
7.270333e+002, 2.884440e+004
7.275154e+002, 2.871224e+004
7.279976e+002, 2.858571e+004
7.284797e+002, 2.846565e+004
7.289618e+002, 2.834314e+004
7.294439e+002, 2.818266e+004
7.299260e+002, 2.804594e+004
7.304081e+002, 2.802043e+004
7.308903e+002, 2.806008e+004
7.313724e+002, 2.806136e+004
7.318545e+002, 2.799263e+004
7.323366e+002, 2.786448e+004
7.328187e+002, 2.767602e+004
7.333008e+002, 2.743635e+004
7.337830e+002, 2.725065e+004
7.342651e+002, 2.712467e+004
7.347472e+002, 2.704129e+004
7.352293e+002, 2.706350e+004
7.357114e+002, 2.707257e+004
7.361935e+002, 2.695383e+004
7.366757e+002, 2.673906e+004
7.371578e+002, 2.658026e+004
7.376399e+002, 2.656712e+004
7.381220e+002, 2.656640e+004
7.386041e+002, 2.648454e+004
7.390862e+002, 2.635913e+004
7.395684e+002, 2.624991e+004
7.400505e+002, 2.616490e+004
7.405326e+002, 2.607929e+004
7.410147e+002, 2.597483e+004
7.414968e+002, 2.585740e+004
7.419789e+002, 2.574103e+004
7.424611e+002, 2.561932e+004
7.429432e+002, 2.552464e+004
7.434253e+002, 2.548893e+004
7.439074e+002, 2.544457e+004
7.443895e+002, 2.532607e+004
7.448716e+002, 2.517967e+004
7.453538e+002, 2.510213e+004
7.458359e+002, 2.513839e+004
7.463180e+002, 2.514485e+004
7.468001e+002, 2.501510e+004
7.472822e+002, 2.485466e+004
7.477643e+002, 2.478584e+004
7.482465e+002, 2.478744e+004
7.487286e+002, 2.476032e+004
7.492107e+002, 2.465952e+004
7.496928e+002, 2.452778e+004
7.501749e+002, 2.442845e+004
7.506570e+002, 2.436317e+004
7.511392e+002, 2.429713e+004
7.516213e+002, 2.423954e+004
7.521034e+002, 2.415740e+004
7.525855e+002, 2.399935e+004
7.530676e+002, 2.383652e+004
7.535497e+002, 2.377220e+004
7.540319e+002, 2.381098e+004
7.545140e+002, 2.381160e+004
7.549961e+002, 2.370908e+004
7.554782e+002, 2.359135e+004
7.559603e+002, 2.351408e+004
7.564424e+002, 2.345542e+004
7.569246e+002, 2.337344e+004
7.574067e+002, 2.326278e+004
7.578888e+002, 2.315829e+004
7.583709e+002, 2.309194e+004
7.588530e+002, 2.305077e+004
7.593351e+002, 2.298450e+004
7.598173e+002, 2.288704e+004
7.602994e+002, 2.282430e+004
7.607815e+002, 2.283527e+004
7.612636e+002, 2.283974e+004
7.617457e+002, 2.275426e+004
7.622278e+002, 2.260138e+004
7.627100e+002, 2.249297e+004
7.631921e+002, 2.245765e+004
7.636742e+002, 2.242685e+004
7.641563e+002, 2.238870e+004
7.646384e+002, 2.234648e+004
7.651205e+002, 2.229545e+004
7.656027e+002, 2.224306e+004
7.660848e+002, 2.221289e+004
7.665669e+002, 2.221758e+004
7.670490e+002, 2.221919e+004
7.675311e+002, 2.215163e+004
7.680132e+002, 2.203209e+004
7.684954e+002, 2.197195e+004
7.689775e+002, 2.198864e+004
7.694596e+002, 2.196212e+004
7.699417e+002, 2.181341e+004
7.704238e+002, 2.161955e+004
7.709059e+002, 2.152117e+004
7.713881e+002, 2.155442e+004
7.718702e+002, 2.154004e+004
7.723523e+002, 2.142351e+004
7.728344e+002, 2.132547e+004
7.733165e+002, 2.129193e+004
7.737986e+002, 2.129617e+004
7.742808e+002, 2.132868e+004
7.747629e+002, 2.137426e+004
7.752450e+002, 2.137196e+004
7.757271e+002, 2.124234e+004
7.762092e+002, 2.107909e+004
7.766913e+002, 2.104507e+004
7.771735e+002, 2.110445e+004
7.776556e+002, 2.109487e+004
7.781377e+002, 2.097620e+004
7.786198e+002, 2.086579e+004
7.791019e+002, 2.087501e+004
7.795840e+002, 2.096946e+004
7.800662e+002, 2.096798e+004
7.805483e+002, 2.079601e+004
7.810304e+002, 2.066921e+004
7.815125e+002, 2.064310e+004
7.819946e+002, 2.062144e+004
7.824767e+002, 2.055311e+004
7.829589e+002, 2.045652e+004
7.834410e+002, 2.036589e+004
7.839231e+002, 2.028535e+004
7.844052e+002, 2.023136e+004
7.848873e+002, 2.023100e+004
7.853694e+002, 2.025112e+004
7.858516e+002, 2.026047e+004
7.863337e+002, 2.025371e+004
7.868158e+002, 2.021933e+004
7.872979e+002, 2.015315e+004
7.877800e+002, 2.007846e+004
7.882621e+002, 2.002543e+004
7.887443e+002, 1.999374e+004
7.892264e+002, 1.996034e+004
7.897085e+002, 1.991875e+004
7.901906e+002, 1.989409e+004
7.906727e+002, 1.990078e+004
7.911548e+002, 1.992052e+004
7.916370e+002, 1.993363e+004
7.921191e+002, 1.994206e+004
7.926012e+002, 1.996018e+004
7.930833e+002, 2.002711e+004
7.935654e+002, 2.005791e+004
7.940475e+002, 2.000403e+004
7.945297e+002, 1.990971e+004
7.950118e+002, 1.981022e+004
7.954939e+002, 1.971375e+004
7.959760e+002, 1.962050e+004
7.964581e+002, 1.952907e+004
7.969402e+002, 1.945002e+004
7.974224e+002, 1.939816e+004
7.979045e+002, 1.937265e+004
7.983866e+002, 1.938116e+004
7.988687e+002, 1.943085e+004
7.993508e+002, 1.945118e+004
7.998329e+002, 1.939671e+004
8.003151e+002, 1.930661e+004
8.007972e+002, 1.925631e+004
8.012793e+002, 1.926274e+004
8.017614e+002, 1.924148e+004
8.022435e+002, 1.917042e+004
8.027256e+002, 1.910164e+004
8.032078e+002, 1.903650e+004
8.036899e+002, 1.899010e+004
8.041720e+002, 1.898700e+004
8.046541e+002, 1.902251e+004
8.051362e+002, 1.905436e+004
8.056183e+002, 1.906818e+004
8.061005e+002, 1.905882e+004
8.065826e+002, 1.899958e+004
8.070647e+002, 1.891757e+004
8.075468e+002, 1.887901e+004
8.080289e+002, 1.889201e+004
8.085110e+002, 1.891363e+004
8.089932e+002, 1.891296e+004
8.094753e+002, 1.890174e+004
8.099574e+002, 1.892206e+004
8.104395e+002, 1.899715e+004
8.109216e+002, 1.899164e+004
8.114037e+002, 1.884146e+004
8.118859e+002, 1.870589e+004
8.123680e+002, 1.868284e+004
8.128501e+002, 1.871414e+004
8.133322e+002, 1.872113e+004
8.138143e+002, 1.869974e+004
8.142964e+002, 1.866016e+004
8.147786e+002, 1.856755e+004
8.152607e+002, 1.849666e+004
8.157428e+002, 1.851073e+004
8.162249e+002, 1.856469e+004
8.167070e+002, 1.858839e+004
8.171891e+002, 1.857368e+004
8.176713e+002, 1.857123e+004
8.181534e+002, 1.862987e+004
8.186355e+002, 1.870862e+004
8.191176e+002, 1.872024e+004
8.195997e+002, 1.867361e+004
8.200818e+002, 1.864111e+004
8.205640e+002, 1.863679e+004
8.210461e+002, 1.863179e+004
8.215282e+002, 1.860063e+004
8.220103e+002, 1.855966e+004
8.224924e+002, 1.856235e+004
8.229745e+002, 1.865030e+004
8.234567e+002, 1.868892e+004
8.239388e+002, 1.864907e+004
8.244209e+002, 1.859387e+004
8.249030e+002, 1.852870e+004
8.253851e+002, 1.846956e+004
8.258672e+002, 1.844097e+004
8.263494e+002, 1.844557e+004
8.268315e+002, 1.844804e+004
8.273136e+002, 1.843514e+004
8.277957e+002, 1.841067e+004
8.282778e+002, 1.836620e+004
8.287599e+002, 1.831661e+004
8.292421e+002, 1.828900e+004
8.297242e+002, 1.828769e+004
8.302063e+002, 1.829962e+004
8.306884e+002, 1.831588e+004
8.311705e+002, 1.833572e+004
8.316526e+002, 1.836014e+004
8.321348e+002, 1.838943e+004
8.326169e+002, 1.840382e+004
8.330990e+002, 1.839343e+004
8.335811e+002, 1.839322e+004
8.340632e+002, 1.843251e+004
8.345453e+002, 1.848877e+004
8.350275e+002, 1.851183e+004
8.355096e+002, 1.848883e+004
8.359917e+002, 1.846868e+004
8.364738e+002, 1.843915e+004
8.369559e+002, 1.842693e+004
8.374380e+002, 1.846029e+004
8.379202e+002, 1.850471e+004
8.384023e+002, 1.851530e+004
8.388844e+002, 1.849220e+004
8.393665e+002, 1.848104e+004
8.398486e+002, 1.851815e+004
8.403307e+002, 1.856367e+004
8.408129e+002, 1.858517e+004
8.412950e+002, 1.858312e+004
8.417771e+002, 1.854065e+004
8.422592e+002, 1.846651e+004
8.427413e+002, 1.842429e+004
8.432234e+002, 1.845622e+004
8.437056e+002, 1.853160e+004
8.441877e+002, 1.859327e+004
8.446698e+002, 1.864134e+004
8.451519e+002, 1.867100e+004
8.456340e+002, 1.868175e+004
8.461161e+002, 1.867107e+004
8.465983e+002, 1.861516e+004
8.470804e+002, 1.855846e+004
8.475625e+002, 1.858066e+004
8.480446e+002, 1.868990e+004
8.485267e+002, 1.873645e+004
8.490089e+002, 1.865547e+004
8.494910e+002, 1.858673e+004
8.499731e+002, 1.856203e+004
8.504552e+002, 1.857156e+004
8.509373e+002, 1.861756e+004
8.514194e+002, 1.868871e+004
8.519016e+002, 1.876546e+004
8.523837e+002, 1.885302e+004
8.528658e+002, 1.889471e+004
8.533479e+002, 1.877544e+004
8.538300e+002, 1.860445e+004
8.543121e+002, 1.859615e+004
8.547943e+002, 1.873358e+004
8.552764e+002, 1.886573e+004
8.557585e+002, 1.892729e+004
8.562406e+002, 1.894186e+004
8.567227e+002, 1.893296e+004
8.572048e+002, 1.890360e+004
8.576870e+002, 1.889186e+004
8.581691e+002, 1.889571e+004
8.586512e+002, 1.893086e+004
8.591333e+002, 1.902743e+004
8.596154e+002, 1.911379e+004
8.600975e+002, 1.910752e+004
8.605797e+002, 1.903197e+004
8.610618e+002, 1.902255e+004
8.615439e+002, 1.915832e+004
8.620260e+002, 1.922692e+004
8.625081e+002, 1.914108e+004
8.629902e+002, 1.904801e+004
8.634724e+002, 1.903171e+004
8.639545e+002, 1.906963e+004
8.644366e+002, 1.912451e+004
8.649187e+002, 1.918604e+004
8.654008e+002, 1.923124e+004
8.658829e+002, 1.922864e+004
8.663651e+002, 1.921521e+004
8.668472e+002, 1.924402e+004
8.673293e+002, 1.929449e+004
8.678114e+002, 1.930256e+004
8.682935e+002, 1.926236e+004
8.687756e+002, 1.924924e+004
8.692578e+002, 1.932640e+004
8.697399e+002, 1.945061e+004
8.702220e+002, 1.950808e+004
8.707041e+002, 1.949451e+004
8.711862e+002, 1.950451e+004
8.716683e+002, 1.955520e+004
8.721505e+002, 1.959268e+004
8.726326e+002, 1.957743e+004
8.731147e+002, 1.954639e+004
8.735968e+002, 1.956412e+004
8.740789e+002, 1.964114e+004
8.745610e+002, 1.971029e+004
8.750432e+002, 1.979020e+004
8.755253e+002, 1.983757e+004
8.760074e+002, 1.979777e+004
8.764895e+002, 1.975720e+004
8.769716e+002, 1.981130e+004
8.774537e+002, 1.993349e+004
8.779359e+002, 2.000404e+004
8.784180e+002, 1.995865e+004
8.789001e+002, 1.991558e+004
8.793822e+002, 1.994992e+004
8.798643e+002, 2.002345e+004
8.803464e+002, 2.011350e+004
8.808286e+002, 2.020225e+004
8.813107e+002, 2.024456e+004
8.817928e+002, 2.022827e+004
8.822749e+002, 2.021972e+004
8.827570e+002, 2.031259e+004
8.832391e+002, 2.045910e+004
8.837213e+002, 2.048511e+004
8.842034e+002, 2.040011e+004
8.846855e+002, 2.037220e+004
8.851676e+002, 2.044579e+004
8.856497e+002, 2.054228e+004
8.861318e+002, 2.060215e+004
8.866140e+002, 2.063572e+004
8.870961e+002, 2.067913e+004
8.875782e+002, 2.074241e+004
8.880603e+002, 2.078901e+004
8.885424e+002, 2.080527e+004
8.890245e+002, 2.082305e+004
8.895067e+002, 2.085010e+004
8.899888e+002, 2.088817e+004
8.904709e+002, 2.093674e+004
8.909530e+002, 2.099612e+004
8.914351e+002, 2.107844e+004
8.919172e+002, 2.123162e+004
8.923994e+002, 2.135204e+004
8.928815e+002, 2.135476e+004
8.933636e+002, 2.133738e+004
8.938457e+002, 2.142044e+004
8.943278e+002, 2.157088e+004
8.948099e+002, 2.165470e+004
8.952921e+002, 2.160683e+004
8.957742e+002, 2.155046e+004
8.962563e+002, 2.162843e+004
8.967384e+002, 2.176183e+004
8.972205e+002, 2.179736e+004
8.977026e+002, 2.175826e+004
8.981848e+002, 2.175924e+004
8.986669e+002, 2.183625e+004
8.991490e+002, 2.195280e+004
8.996311e+002, 2.207829e+004
9.001132e+002, 2.220931e+004
9.005953e+002, 2.233970e+004
9.010775e+002, 2.247346e+004
9.015596e+002, 2.255099e+004
9.020417e+002, 2.254622e+004
9.025238e+002, 2.254158e+004
9.030059e+002, 2.258518e+004
9.034880e+002, 2.266052e+004
9.039702e+002, 2.273369e+004
9.044523e+002, 2.279887e+004
9.049344e+002, 2.288410e+004
9.054165e+002, 2.302401e+004
9.058986e+002, 2.313868e+004
9.063807e+002, 2.316775e+004
9.068629e+002, 2.319914e+004
9.073450e+002, 2.333940e+004
9.078271e+002, 2.355588e+004
9.083092e+002, 2.369681e+004
9.087913e+002, 2.369210e+004
9.092734e+002, 2.367451e+004
9.097556e+002, 2.367853e+004
9.102377e+002, 2.371720e+004
9.107198e+002, 2.382874e+004
9.112019e+002, 2.397638e+004
9.116840e+002, 2.408507e+004
9.121661e+002, 2.413516e+004
9.126483e+002, 2.417772e+004
9.131304e+002, 2.426117e+004
9.136125e+002, 2.435780e+004
9.140946e+002, 2.441105e+004
9.145767e+002, 2.443897e+004
9.150588e+002, 2.449773e+004
9.155410e+002, 2.459671e+004
9.160231e+002, 2.472744e+004
9.165052e+002, 2.489040e+004
9.169873e+002, 2.505208e+004
9.174694e+002, 2.514069e+004
9.179515e+002, 2.515293e+004
9.184337e+002, 2.518193e+004
9.189158e+002, 2.522703e+004
9.193979e+002, 2.529575e+004
9.198800e+002, 2.539548e+004
9.203621e+002, 2.551038e+004
9.208442e+002, 2.562812e+004
9.213264e+002, 2.574708e+004
9.218085e+002, 2.584484e+004
9.222906e+002, 2.588899e+004
9.227727e+002, 2.596603e+004
9.232548e+002, 2.609624e+004
9.237369e+002, 2.624094e+004
9.242191e+002, 2.640754e+004
9.247012e+002, 2.656570e+004
9.251833e+002, 2.666379e+004
9.256654e+002, 2.669413e+004
9.261475e+002, 2.672111e+004
9.266296e+002, 2.673976e+004
9.271118e+002, 2.678786e+004
9.275939e+002, 2.692120e+004
9.280760e+002, 2.706841e+004
9.285581e+002, 2.712907e+004
9.290402e+002, 2.712817e+004
9.295223e+002, 2.717642e+004
9.300045e+002, 2.732580e+004
9.304866e+002, 2.751484e+004
9.309687e+002, 2.770094e+004
9.314508e+002, 2.788391e+004
9.319329e+002, 2.807994e+004
9.324150e+002, 2.827120e+004
9.328972e+002, 2.839245e+004
9.333793e+002, 2.843153e+004
9.338614e+002, 2.845694e+004
9.343435e+002, 2.852667e+004
9.348256e+002, 2.862645e+004
9.353077e+002, 2.872051e+004
9.357899e+002, 2.880998e+004
9.362720e+002, 2.891907e+004
9.367541e+002, 2.905228e+004
9.372362e+002, 2.917111e+004
9.377183e+002, 2.924996e+004
9.382004e+002, 2.932717e+004
9.386826e+002, 2.946924e+004
9.391647e+002, 2.967927e+004
9.396468e+002, 2.981298e+004
9.401289e+002, 2.981309e+004
9.406110e+002, 2.987891e+004
9.410931e+002, 3.009499e+004
9.415753e+002, 3.032305e+004
9.420574e+002, 3.045361e+004
9.425395e+002, 3.052544e+004
9.430216e+002, 3.065421e+004
9.435037e+002, 3.087843e+004
9.439858e+002, 3.104129e+004
9.444680e+002, 3.105573e+004
9.449501e+002, 3.109773e+004
9.454322e+002, 3.127905e+004
9.459143e+002, 3.148773e+004
9.463964e+002, 3.159265e+004
9.468785e+002, 3.160856e+004
9.473607e+002, 3.165605e+004
9.478428e+002, 3.177888e+004
9.483249e+002, 3.193291e+004
9.488070e+002, 3.212367e+004
9.492891e+002, 3.230901e+004
9.497712e+002, 3.244301e+004
9.502534e+002, 3.254116e+004
9.507355e+002, 3.261746e+004
9.512176e+002, 3.268592e+004
9.516997e+002, 3.281320e+004
9.521818e+002, 3.309894e+004
9.526639e+002, 3.340546e+004
9.531461e+002, 3.349754e+004
9.536282e+002, 3.347503e+004
9.541103e+002, 3.359514e+004
9.545924e+002, 3.386038e+004
9.550745e+002, 3.407727e+004
9.555566e+002, 3.415021e+004
9.560388e+002, 3.417755e+004
9.565209e+002, 3.429797e+004
9.570030e+002, 3.449045e+004
9.574851e+002, 3.464405e+004
9.579672e+002, 3.475995e+004
9.584493e+002, 3.488556e+004
9.589315e+002, 3.503355e+004
9.594136e+002, 3.518183e+004
9.598957e+002, 3.531357e+004
9.603778e+002, 3.543686e+004
9.608599e+002, 3.556983e+004
9.613420e+002, 3.570772e+004
9.618242e+002, 3.588433e+004
9.623063e+002, 3.613156e+004
9.627884e+002, 3.633498e+004
9.632705e+002, 3.643752e+004
9.637526e+002, 3.650539e+004
9.642347e+002, 3.658891e+004
9.647169e+002, 3.669238e+004
9.651990e+002, 3.685014e+004
9.656811e+002, 3.714757e+004
9.661632e+002, 3.736736e+004
9.666453e+002, 3.743639e+004
9.671274e+002, 3.751103e+004
9.676096e+002, 3.766987e+004
9.680917e+002, 3.786449e+004
9.685738e+002, 3.803894e+004
9.690559e+002, 3.818844e+004
9.695380e+002, 3.831380e+004
9.700201e+002, 3.836551e+004
9.705023e+002, 3.846112e+004
9.709844e+002, 3.870113e+004
9.714665e+002, 3.894838e+004
9.719486e+002, 3.907350e+004
9.724307e+002, 3.912611e+004
9.729128e+002, 3.921889e+004
9.733950e+002, 3.938165e+004
9.738771e+002, 3.957276e+004
9.743592e+002, 3.980116e+004
9.748413e+002, 4.001591e+004
9.753234e+002, 4.017514e+004
9.758055e+002, 4.029111e+004
9.762877e+002, 4.034507e+004
9.767698e+002, 4.037200e+004
9.772519e+002, 4.049102e+004
9.777340e+002, 4.076057e+004
9.782161e+002, 4.105896e+004
9.786982e+002, 4.124137e+004
9.791804e+002, 4.136836e+004
9.796625e+002, 4.156321e+004
9.801446e+002, 4.180278e+004
9.806267e+002, 4.199642e+004
9.811088e+002, 4.212920e+004
9.815909e+002, 4.227238e+004
9.820731e+002, 4.248004e+004
9.825552e+002, 4.269437e+004
9.830373e+002, 4.277974e+004
9.835194e+002, 4.276546e+004
9.840015e+002, 4.288191e+004
9.844836e+002, 4.313597e+004
9.849658e+002, 4.338656e+004
9.854479e+002, 4.358990e+004
9.859300e+002, 4.377368e+004
9.864121e+002, 4.396056e+004
9.868942e+002, 4.415237e+004
9.873763e+002, 4.435489e+004
9.878585e+002, 4.457131e+004
9.883406e+002, 4.478384e+004
9.888227e+002, 4.500086e+004
9.893048e+002, 4.517810e+004
9.897869e+002, 4.527739e+004
9.902690e+002, 4.536213e+004
9.907512e+002, 4.550778e+004
9.912333e+002, 4.570964e+004
9.917154e+002, 4.590892e+004
9.921975e+002, 4.612252e+004
9.926796e+002, 4.629404e+004
9.931617e+002, 4.635126e+004
9.936439e+002, 4.646110e+004
9.941260e+002, 4.676791e+004
9.946081e+002, 4.713646e+004
9.950902e+002, 4.736056e+004
9.955723e+002, 4.743407e+004
9.960544e+002, 4.755196e+004
9.965366e+002, 4.776941e+004
9.970187e+002, 4.796443e+004
9.975008e+002, 4.805712e+004
9.979829e+002, 4.818374e+004
9.984650e+002, 4.847434e+004
9.989471e+002, 4.883805e+004
9.994293e+002, 4.911232e+004
9.999114e+002, 4.927339e+004
1.000393e+003, 4.941798e+004
1.000876e+003, 4.957970e+004
1.001358e+003, 4.971982e+004
1.001840e+003, 4.978543e+004
1.002322e+003, 4.985193e+004
1.002804e+003, 4.999178e+004
1.003286e+003, 5.018720e+004
1.003768e+003, 5.038024e+004
1.004250e+003, 5.055237e+004
1.004733e+003, 5.076154e+004
1.005215e+003, 5.106288e+004
1.005697e+003, 5.138602e+004
1.006179e+003, 5.173425e+004
1.006661e+003, 5.203576e+004
1.007143e+003, 5.214162e+004
1.007625e+003, 5.211340e+004
1.008107e+003, 5.218016e+004
1.008589e+003, 5.244045e+004
1.009072e+003, 5.276270e+004
1.009554e+003, 5.307850e+004
1.010036e+003, 5.335889e+004
1.010518e+003, 5.353215e+004
1.011000e+003, 5.365662e+004
1.011482e+003, 5.386764e+004
1.011964e+003, 5.416499e+004
1.012446e+003, 5.442399e+004
1.012929e+003, 5.457305e+004
1.013411e+003, 5.471334e+004
1.013893e+003, 5.499848e+004
1.014375e+003, 5.534748e+004
1.014857e+003, 5.556643e+004
1.015339e+003, 5.570147e+004
1.015821e+003, 5.595884e+004
1.016303e+003, 5.636526e+004
1.016785e+003, 5.673155e+004
1.017268e+003, 5.692546e+004
1.017750e+003, 5.703398e+004
1.018232e+003, 5.719397e+004
1.018714e+003, 5.739412e+004
1.019196e+003, 5.757884e+004
1.019678e+003, 5.775236e+004
1.020160e+003, 5.798330e+004
1.020642e+003, 5.829121e+004
1.021125e+003, 5.859968e+004
1.021607e+003, 5.884985e+004
1.022089e+003, 5.905900e+004
1.022571e+003, 5.926757e+004
1.023053e+003, 5.947573e+004
1.023535e+003, 5.963521e+004
1.024017e+003, 5.973850e+004
1.024499e+003, 5.995868e+004
1.024981e+003, 6.036408e+004
1.025464e+003, 6.080949e+004
1.025946e+003, 6.117196e+004
1.026428e+003, 6.145460e+004
1.026910e+003, 6.164225e+004
1.027392e+003, 6.171513e+004
1.027874e+003, 6.188668e+004
1.028356e+003, 6.217447e+004
1.028838e+003, 6.251803e+004
1.029321e+003, 6.291466e+004
1.029803e+003, 6.330433e+004
1.030285e+003, 6.362058e+004
1.030767e+003, 6.389093e+004
1.031249e+003, 6.424821e+004
1.031731e+003, 6.473193e+004
1.032213e+003, 6.515991e+004
1.032695e+003, 6.554120e+004
1.033177e+003, 6.581902e+004
1.033660e+003, 6.590566e+004
1.034142e+003, 6.598664e+004
1.034624e+003, 6.625348e+004
1.035106e+003, 6.668660e+004
1.035588e+003, 6.716063e+004
1.036070e+003, 6.774074e+004
1.036552e+003, 6.820095e+004
1.037034e+003, 6.847645e+004
1.037516e+003, 6.873665e+004
1.037999e+003, 6.904216e+004
1.038481e+003, 6.935932e+004
1.038963e+003, 6.964942e+004
1.039445e+003, 6.991716e+004
1.039927e+003, 7.019651e+004
1.040409e+003, 7.044023e+004
1.040891e+003, 7.078209e+004
1.041373e+003, 7.136745e+004
1.041855e+003, 7.186424e+004
1.042338e+003, 7.203161e+004
1.042820e+003, 7.213556e+004
1.043302e+003, 7.247718e+004
1.043784e+003, 7.302056e+004
1.044266e+003, 7.348951e+004
1.044748e+003, 7.385556e+004
1.045230e+003, 7.417970e+004
1.045712e+003, 7.436598e+004
1.046195e+003, 7.462815e+004
1.046677e+003, 7.512133e+004
1.047159e+003, 7.568454e+004
1.047641e+003, 7.611925e+004
1.048123e+003, 7.644809e+004
1.048605e+003, 7.688836e+004
1.049087e+003, 7.762713e+004
1.049569e+003, 7.818295e+004
1.050052e+003, 7.828608e+004
1.050534e+003, 7.842598e+004
1.051016e+003, 7.883485e+004
1.051498e+003, 7.938951e+004
1.051980e+003, 7.998481e+004
1.052462e+003, 8.059585e+004
1.052944e+003, 8.115693e+004
1.053426e+003, 8.162149e+004
1.053908e+003, 8.211045e+004
1.054391e+003, 8.269005e+004
1.054873e+003, 8.325188e+004
1.055355e+003, 8.372641e+004
1.055837e+003, 8.416570e+004
1.056319e+003, 8.460533e+004
1.056801e+003, 8.506638e+004
1.057283e+003, 8.563268e+004
1.057765e+003, 8.641786e+004
1.058248e+003, 8.707874e+004
1.058730e+003, 8.739428e+004
1.059212e+003, 8.770102e+004
1.059694e+003, 8.817904e+004
1.060176e+003, 8.875648e+004
1.060658e+003, 8.937252e+004
1.061140e+003, 9.000334e+004
1.061622e+003, 9.059911e+004
1.062104e+003, 9.112948e+004
1.062587e+003, 9.166638e+004
1.063069e+003, 9.220588e+004
1.063551e+003, 9.278880e+004
1.064033e+003, 9.347109e+004
1.064515e+003, 9.418747e+004
1.064997e+003, 9.488195e+004
1.065479e+003, 9.553953e+004
1.065961e+003, 9.613652e+004
1.066443e+003, 9.663079e+004
1.066926e+003, 9.718411e+004
1.067408e+003, 9.791723e+004
1.067890e+003, 9.866398e+004
1.068372e+003, 9.934618e+004
1.068854e+003, 9.997580e+004
1.069336e+003, 1.005493e+005
1.069818e+003, 1.010894e+005
1.070300e+003, 1.016576e+005
1.070782e+003, 1.022728e+005
1.071265e+003, 1.029256e+005
1.071747e+003, 1.036656e+005
1.072229e+003, 1.043856e+005
1.072711e+003, 1.050101e+005
1.073193e+003, 1.055909e+005
1.073675e+003, 1.061446e+005
1.074157e+003, 1.067046e+005
1.074639e+003, 1.073507e+005
1.075122e+003, 1.081159e+005
1.075604e+003, 1.088906e+005
1.076086e+003, 1.096467e+005
1.076568e+003, 1.103734e+005
1.077050e+003, 1.110238e+005
1.077532e+003, 1.116743e+005
1.078014e+003, 1.124393e+005
1.078496e+003, 1.132620e+005
1.078979e+003, 1.139386e+005
1.079461e+003, 1.144020e+005
1.079943e+003, 1.150301e+005
1.080425e+003, 1.161670e+005
1.080907e+003, 1.172969e+005
1.081389e+003, 1.180952e+005
1.081871e+003, 1.187807e+005
1.082353e+003, 1.195689e+005
1.082835e+003, 1.204154e+005
1.083318e+003, 1.211500e+005
1.083800e+003, 1.217363e+005
1.084282e+003, 1.224124e+005
1.084764e+003, 1.233683e+005
1.085246e+003, 1.243280e+005
1.085728e+003, 1.251525e+005
1.086210e+003, 1.259240e+005
1.086692e+003, 1.266666e+005
1.087175e+003, 1.274307e+005
1.087657e+003, 1.282984e+005
1.088139e+003, 1.292777e+005
1.088621e+003, 1.302588e+005
1.089103e+003, 1.312332e+005
1.089585e+003, 1.321509e+005
1.090067e+003, 1.329436e+005
1.090549e+003, 1.337179e+005
1.091031e+003, 1.344690e+005
1.091514e+003, 1.352965e+005
1.091996e+003, 1.363928e+005
1.092478e+003, 1.377414e+005
1.092960e+003, 1.390224e+005
1.093442e+003, 1.401853e+005
1.093924e+003, 1.411582e+005
1.094406e+003, 1.418197e+005
1.094888e+003, 1.423975e+005
1.095370e+003, 1.429442e+005
1.095853e+003, 1.435616e+005
1.096335e+003, 1.444105e+005
1.096817e+003, 1.454562e+005
1.097299e+003, 1.464423e+005
1.097781e+003, 1.472554e+005
1.098263e+003, 1.481292e+005
1.098745e+003, 1.491420e+005
1.099227e+003, 1.502318e+005
1.099709e+003, 1.514756e+005
1.100192e+003, 1.526995e+005
1.100674e+003, 1.536410e+005
1.101156e+003, 1.543987e+005
1.101638e+003, 1.553513e+005
1.102120e+003, 1.566389e+005
1.102602e+003, 1.578594e+005
1.103084e+003, 1.588440e+005
1.103566e+003, 1.598370e+005
1.104049e+003, 1.609607e+005
1.104531e+003, 1.621109e+005
1.105013e+003, 1.631642e+005
1.105495e+003, 1.641830e+005
1.105977e+003, 1.653154e+005
1.106459e+003, 1.665781e+005
1.106941e+003, 1.679837e+005
1.107423e+003, 1.696759e+005
1.107906e+003, 1.713163e+005
1.108388e+003, 1.728092e+005
1.108870e+003, 1.742221e+005
1.109352e+003, 1.755954e+005
1.109834e+003, 1.769164e+005
1.110316e+003, 1.781508e+005
1.110798e+003, 1.793069e+005
1.111280e+003, 1.803904e+005
1.111762e+003, 1.813290e+005
1.112245e+003, 1.823159e+005
1.112727e+003, 1.832899e+005
1.113209e+003, 1.844228e+005
1.113691e+003, 1.859028e+005
1.114173e+003, 1.875157e+005
1.114655e+003, 1.889683e+005
1.115137e+003, 1.902755e+005
1.115619e+003, 1.917513e+005
1.116102e+003, 1.934866e+005
1.116584e+003, 1.952211e+005
1.117066e+003, 1.969658e+005
1.117548e+003, 1.986826e+005
1.118030e+003, 2.003764e+005
1.118512e+003, 2.020232e+005
1.118994e+003, 2.035766e+005
1.119476e+003, 2.050776e+005
1.119958e+003, 2.066986e+005
1.120441e+003, 2.084835e+005
1.120923e+003, 2.102463e+005
1.121405e+003, 2.119379e+005
1.121887e+003, 2.137050e+005
1.122369e+003, 2.155885e+005
1.122851e+003, 2.175412e+005
1.123333e+003, 2.195635e+005
1.123815e+003, 2.215970e+005
1.124297e+003, 2.235197e+005
1.124780e+003, 2.253238e+005
1.125262e+003, 2.270296e+005
1.125744e+003, 2.285456e+005
1.126226e+003, 2.302918e+005
1.126708e+003, 2.323754e+005
1.127190e+003, 2.345887e+005
1.127672e+003, 2.368435e+005
1.128154e+003, 2.391002e+005
1.128636e+003, 2.413005e+005
1.129119e+003, 2.434516e+005
1.129601e+003, 2.455652e+005
1.130083e+003, 2.476432e+005
1.130565e+003, 2.497766e+005
1.131047e+003, 2.519663e+005
1.131529e+003, 2.542163e+005
1.132011e+003, 2.565244e+005
1.132493e+003, 2.588266e+005
1.132976e+003, 2.610361e+005
1.133458e+003, 2.632359e+005
1.133940e+003, 2.657212e+005
1.134422e+003, 2.684658e+005
1.134904e+003, 2.710603e+005
1.135386e+003, 2.734947e+005
1.135868e+003, 2.760317e+005
1.136350e+003, 2.787421e+005
1.136833e+003, 2.815022e+005
1.137315e+003, 2.842392e+005
1.137797e+003, 2.869748e+005
1.138279e+003, 2.897503e+005
1.138761e+003, 2.925484e+005
1.139243e+003, 2.952402e+005
1.139725e+003, 2.978799e+005
1.140207e+003, 3.007694e+005
1.140689e+003, 3.039036e+005
1.141172e+003, 3.068199e+005
1.141654e+003, 3.093133e+005
1.142136e+003, 3.118572e+005
1.142618e+003, 3.150080e+005
1.143100e+003, 3.184465e+005
1.143582e+003, 3.216651e+005
1.144064e+003, 3.247381e+005
1.144546e+003, 3.276843e+005
1.145029e+003, 3.306563e+005
1.145511e+003, 3.341189e+005
1.145993e+003, 3.381635e+005
1.146475e+003, 3.422861e+005
1.146957e+003, 3.462350e+005
1.147439e+003, 3.498990e+005
1.147921e+003, 3.529198e+005
1.148403e+003, 3.558063e+005
1.148885e+003, 3.591418e+005
1.149368e+003, 3.627764e+005
1.149850e+003, 3.663896e+005
1.150332e+003, 3.699342e+005
1.150814e+003, 3.735566e+005
1.151296e+003, 3.772555e+005
1.151778e+003, 3.812419e+005
1.152260e+003, 3.858654e+005
1.152742e+003, 3.905245e+005
1.153224e+003, 3.948161e+005
1.153707e+003, 3.989804e+005
1.154189e+003, 4.033538e+005
1.154671e+003, 4.078248e+005
1.155153e+003, 4.120236e+005
1.155635e+003, 4.158883e+005
1.156117e+003, 4.199061e+005
1.156599e+003, 4.243096e+005
1.157081e+003, 4.287821e+005
1.157563e+003, 4.331561e+005
1.158046e+003, 4.376443e+005
1.158528e+003, 4.423674e+005
1.159010e+003, 4.472642e+005
1.159492e+003, 4.523090e+005
1.159974e+003, 4.574622e+005
1.160456e+003, 4.626708e+005
1.160938e+003, 4.679105e+005
1.161420e+003, 4.732298e+005
1.161903e+003, 4.784698e+005
1.162385e+003, 4.840036e+005
1.162867e+003, 4.902765e+005
1.163349e+003, 4.964755e+005
1.163831e+003, 5.018658e+005
1.164313e+003, 5.067866e+005
1.164795e+003, 5.119673e+005
1.165277e+003, 5.174143e+005
1.165760e+003, 5.232572e+005
1.166242e+003, 5.296301e+005
1.166724e+003, 5.359801e+005
1.167206e+003, 5.421729e+005
1.167688e+003, 5.483698e+005
1.168170e+003, 5.545674e+005
1.168652e+003, 5.609900e+005
1.169134e+003, 5.679449e+005
1.169616e+003, 5.753019e+005
1.170099e+003, 5.823355e+005
1.170581e+003, 5.890515e+005
1.171063e+003, 5.960453e+005
1.171545e+003, 6.033798e+005
1.172027e+003, 6.107208e+005
1.172509e+003, 6.180223e+005
1.172991e+003, 6.256301e+005
1.173473e+003, 6.338553e+005
1.173956e+003, 6.423706e+005
1.174438e+003, 6.506095e+005
1.174920e+003, 6.586848e+005
1.175402e+003, 6.667805e+005
1.175884e+003, 6.749557e+005
1.176366e+003, 6.834431e+005
1.176848e+003, 6.922561e+005
1.177330e+003, 7.010477e+005
1.177813e+003, 7.097083e+005
1.178295e+003, 7.186389e+005
1.178777e+003, 7.282928e+005
1.179259e+003, 7.384601e+005
1.179741e+003, 7.491993e+005
1.180223e+003, 7.600317e+005
1.180705e+003, 7.699034e+005
1.181187e+003, 7.793754e+005
1.181669e+003, 7.895999e+005
1.182151e+003, 8.006689e+005
1.182634e+003, 8.117510e+005
1.183116e+003, 8.223373e+005
1.183598e+003, 8.331858e+005
1.184080e+003, 8.447364e+005
1.184562e+003, 8.566288e+005
1.185044e+003, 8.685152e+005
1.185526e+003, 8.806841e+005
1.186008e+003, 8.935361e+005
1.186490e+003, 9.069511e+005
1.186973e+003, 9.207688e+005
1.187455e+003, 9.349469e+005
1.187937e+003, 9.488330e+005
1.188419e+003, 9.614200e+005
1.188901e+003, 9.751194e+005
1.189383e+003, 9.911107e+005
1.189865e+003, 1.007574e+006
1.190347e+003, 1.023636e+006
1.190830e+003, 1.039587e+006
1.191312e+003, 1.055632e+006
1.191794e+003, 1.071830e+006
1.192276e+003, 1.088591e+006
1.192758e+003, 1.106028e+006
1.193240e+003, 1.123744e+006
1.193722e+003, 1.141505e+006
1.194204e+003, 1.160201e+006
1.194687e+003, 1.180209e+006
1.195169e+003, 1.200617e+006
1.195651e+003, 1.220936e+006
1.196133e+003, 1.241383e+006
1.196615e+003, 1.262409e+006
1.197097e+003, 1.283885e+006
1.197579e+003, 1.305259e+006
1.198061e+003, 1.326703e+006
1.198543e+003, 1.349410e+006
1.199026e+003, 1.373479e+006
1.199508e+003, 1.397777e+006
1.199990e+003, 1.421827e+006
1.200472e+003, 1.446999e+006
1.200954e+003, 1.474288e+006
1.201436e+003, 1.502497e+006
1.201918e+003, 1.529744e+006
1.202400e+003, 1.556850e+006
1.202883e+003, 1.585438e+006
1.203365e+003, 1.615077e+006
1.203847e+003, 1.644359e+006
1.204329e+003, 1.673509e+006
1.204811e+003, 1.704467e+006
1.205293e+003, 1.737811e+006
1.205775e+003, 1.771660e+006
1.206257e+003, 1.804534e+006
1.206740e+003, 1.837735e+006
1.207222e+003, 1.872041e+006
1.207704e+003, 1.907272e+006
1.208186e+003, 1.943409e+006
1.208668e+003, 1.980266e+006
1.209150e+003, 2.018232e+006
1.209632e+003, 2.056977e+006
1.210114e+003, 2.094980e+006
1.210596e+003, 2.131298e+006
1.211078e+003, 2.168464e+006
1.211561e+003, 2.207425e+006
1.212043e+003, 2.247181e+006
1.212525e+003, 2.288675e+006
1.213007e+003, 2.329544e+006
1.213489e+003, 2.368095e+006
1.213971e+003, 2.405277e+006
1.214453e+003, 2.441963e+006
1.214935e+003, 2.478227e+006
1.215417e+003, 2.515963e+006
1.215900e+003, 2.555705e+006
1.216382e+003, 2.594860e+006
1.216864e+003, 2.633357e+006
1.217346e+003, 2.669927e+006
1.217828e+003, 2.704214e+006
1.218310e+003, 2.736125e+006
1.218792e+003, 2.765663e+006
1.219274e+003, 2.794034e+006
1.219757e+003, 2.824591e+006
1.220239e+003, 2.856075e+006
1.220721e+003, 2.882215e+006
1.221203e+003, 2.904055e+006
1.221685e+003, 2.926641e+006
1.222167e+003, 2.950212e+006
1.222649e+003, 2.972318e+006
1.223131e+003, 2.992064e+006
1.223614e+003, 3.009081e+006
1.224096e+003, 3.022959e+006
1.224578e+003, 3.034477e+006
1.225060e+003, 3.044018e+006
1.225542e+003, 3.052087e+006
1.226024e+003, 3.059604e+006
1.226506e+003, 3.065787e+006
1.226988e+003, 3.069492e+006
1.227470e+003, 3.070650e+006
1.227953e+003, 3.069587e+006
1.228435e+003, 3.066372e+006
1.228917e+003, 3.061012e+006
1.229399e+003, 3.053264e+006
1.229881e+003, 3.043737e+006
1.230363e+003, 3.032010e+006
1.230845e+003, 3.019130e+006
1.231327e+003, 3.005578e+006
1.231810e+003, 2.991284e+006
1.232292e+003, 2.976048e+006
1.232774e+003, 2.959905e+006
1.233256e+003, 2.943016e+006
1.233738e+003, 2.925115e+006
1.234220e+003, 2.907550e+006
1.234702e+003, 2.890445e+006
1.235184e+003, 2.873591e+006
1.235667e+003, 2.857060e+006
1.236149e+003, 2.840351e+006
1.236631e+003, 2.822994e+006
1.237113e+003, 2.806665e+006
1.237595e+003, 2.793230e+006
1.238077e+003, 2.782544e+006
1.238559e+003, 2.774155e+006
1.239041e+003, 2.767914e+006
1.239523e+003, 2.762387e+006
1.240005e+003, 2.758040e+006
1.240488e+003, 2.757250e+006
1.240970e+003, 2.760598e+006
1.241452e+003, 2.768079e+006
1.241934e+003, 2.779765e+006
1.242416e+003, 2.794600e+006
1.242898e+003, 2.812052e+006
1.243380e+003, 2.831674e+006
1.243862e+003, 2.852787e+006
1.244344e+003, 2.876137e+006
1.244827e+003, 2.902501e+006
1.245309e+003, 2.931942e+006
1.245791e+003, 2.965210e+006
1.246273e+003, 3.001660e+006
1.246755e+003, 3.038358e+006
1.247237e+003, 3.074703e+006
1.247719e+003, 3.110902e+006
1.248201e+003, 3.146951e+006
1.248684e+003, 3.183176e+006
1.249166e+003, 3.220165e+006
1.249648e+003, 3.256615e+006
1.250130e+003, 3.291434e+006
1.250612e+003, 3.325531e+006
1.251094e+003, 3.360802e+006
1.251576e+003, 3.396606e+006
1.252058e+003, 3.428425e+006
1.252541e+003, 3.456213e+006
1.253023e+003, 3.479979e+006
1.253505e+003, 3.499585e+006
1.253987e+003, 3.518592e+006
1.254469e+003, 3.537927e+006
1.254951e+003, 3.554610e+006
1.255433e+003, 3.566933e+006
1.255915e+003, 3.575625e+006
1.256397e+003, 3.581542e+006
1.256880e+003, 3.584477e+006
1.257362e+003, 3.583475e+006
1.257844e+003, 3.579492e+006
1.258326e+003, 3.574268e+006
1.258808e+003, 3.567770e+006
1.259290e+003, 3.559668e+006
1.259772e+003, 3.549767e+006
1.260254e+003, 3.537450e+006
1.260737e+003, 3.522400e+006
1.261219e+003, 3.505757e+006
1.261701e+003, 3.488353e+006
1.262183e+003, 3.469242e+006
1.262665e+003, 3.446498e+006
1.263147e+003, 3.423317e+006
1.263629e+003, 3.402131e+006
1.264111e+003, 3.381820e+006
1.264594e+003, 3.361339e+006
1.265076e+003, 3.340249e+006
1.265558e+003, 3.316161e+006
1.266040e+003, 3.287432e+006
1.266522e+003, 3.261718e+006
1.267004e+003, 3.240038e+006
1.267486e+003, 3.217503e+006
1.267968e+003, 3.193019e+006
1.268450e+003, 3.168171e+006
1.268932e+003, 3.143702e+006
1.269415e+003, 3.119601e+006
1.269897e+003, 3.095631e+006
1.270379e+003, 3.071827e+006
1.270861e+003, 3.047773e+006
1.271343e+003, 3.023888e+006
1.271825e+003, 3.001567e+006
1.272307e+003, 2.980503e+006
1.272789e+003, 2.960635e+006
1.273271e+003, 2.941163e+006
1.273754e+003, 2.919225e+006
1.274236e+003, 2.893702e+006
1.274718e+003, 2.868946e+006
1.275200e+003, 2.848090e+006
1.275682e+003, 2.828639e+006
1.276164e+003, 2.809205e+006
1.276646e+003, 2.790531e+006
1.277128e+003, 2.774508e+006
1.277611e+003, 2.758589e+006
1.278093e+003, 2.739343e+006
1.278575e+003, 2.717793e+006
1.279057e+003, 2.698184e+006
1.279539e+003, 2.680947e+006
1.280021e+003, 2.664260e+006
1.280503e+003, 2.647458e+006
1.280985e+003, 2.631683e+006
1.281468e+003, 2.618091e+006
1.281950e+003, 2.604957e+006
1.282432e+003, 2.591676e+006
1.282914e+003, 2.577957e+006
1.283396e+003, 2.563405e+006
1.283878e+003, 2.548818e+006
1.284360e+003, 2.535308e+006
1.284842e+003, 2.521676e+006
1.285324e+003, 2.505105e+006
##END=



