##NAMES=Pectolite
##RRUFFID=R070607
##IDEAL CHEMISTRY=NaCa_2_Si_3_O_8_(OH)
##LOCALITY=Poudrette quarry (Demix quarry; Uni-Mix quarry; Desourdy quarry), Mont Saint-Hilaire, Rouville County, Québec, Canada
##OWNER=RRUFF
##SOURCE=Michael Scott
##DESCRIPTION=Colorless platy microcrystals associated with griceite, R070436
##STATUS=The identification of this mineral is confirmed by single-crystal X-ray diffraction and chemical analysis.
##URL=rruff.info/R070607
##MEASURED CHEMISTRY=Na_1.00_(Ca_1.03_Mn_0.94_Fe^2+^_0.03_)_Σ=2_Si_3.00_O_8_(OH)
131.7175, 2625.465
132.1996, 2685.082
132.6818, 2737.991
133.1639, 2785.541
133.6460, 2845.909
134.1281, 2923.841
134.6102, 3007.011
135.0923, 3071.564
135.5745, 3112.953
136.0566, 3158.057
136.5387, 3223.295
137.0208, 3314.154
137.5029, 3398.497
137.9850, 3477.169
138.4672, 3548.081
138.9493, 3601.973
139.4314, 3631.421
139.9135, 3657.316
140.3956, 3696.971
140.8777, 3759.877
141.3599, 3813.142
141.8420, 3844.779
142.3241, 3853.941
142.8062, 3887.396
143.2883, 3948.609
143.7704, 4006.708
144.2526, 4029.377
144.7347, 3986.953
145.2168, 3950.309
145.6989, 3937.082
146.1810, 3956.336
146.6631, 3972.037
147.1453, 3988.836
147.6274, 4001.913
148.1095, 4001.085
148.5916, 3955.640
149.0737, 3922.088
149.5558, 3920.200
150.0379, 3996.052
150.5201, 4043.463
151.0022, 4043.562
151.4843, 4007.117
151.9664, 3977.689
152.4485, 3963.743
152.9306, 3955.776
153.4128, 3948.120
153.8949, 3943.763
154.3770, 3935.625
154.8591, 3922.042
155.3412, 3903.068
155.8233, 3880.220
156.3055, 3846.538
156.7876, 3811.687
157.2697, 3785.749
157.7518, 3776.130
158.2339, 3771.752
158.7160, 3771.976
159.1982, 3780.326
159.6803, 3776.418
160.1624, 3741.848
160.6445, 3690.934
161.1266, 3648.115
161.6087, 3638.226
162.0909, 3629.948
162.5730, 3601.005
163.0551, 3538.451
163.5372, 3473.767
164.0193, 3421.100
164.5014, 3379.169
164.9836, 3343.974
165.4657, 3321.863
165.9478, 3302.099
166.4299, 3273.020
166.9120, 3214.913
167.3941, 3162.643
167.8763, 3153.449
168.3584, 3182.623
168.8405, 3199.943
169.3226, 3154.444
169.8047, 3078.462
170.2868, 3020.239
170.7690, 3011.971
171.2511, 3023.261
171.7332, 3024.975
172.2153, 3016.315
172.6974, 3000.572
173.1795, 2971.645
173.6617, 2936.735
174.1438, 2913.742
174.6259, 2914.995
175.1080, 2932.662
175.5901, 2957.473
176.0722, 2991.210
176.5544, 3023.619
177.0365, 3042.607
177.5186, 3049.994
178.0007, 3054.023
178.4828, 3052.986
178.9649, 3052.536
179.4471, 3067.551
179.9292, 3105.227
180.4113, 3151.969
180.8934, 3187.482
181.3755, 3212.080
181.8576, 3234.906
182.3397, 3259.045
182.8219, 3286.245
183.3040, 3323.310
183.7861, 3378.628
184.2682, 3441.378
184.7503, 3488.522
185.2324, 3519.085
185.7146, 3541.540
186.1967, 3560.423
186.6788, 3576.439
187.1609, 3597.908
187.6430, 3628.786
188.1251, 3667.003
188.6073, 3707.692
189.0894, 3751.444
189.5715, 3794.050
190.0536, 3827.688
190.5357, 3852.172
191.0178, 3881.201
191.5000, 3924.859
191.9821, 3981.173
192.4642, 4032.842
192.9463, 4081.260
193.4284, 4121.915
193.9105, 4142.736
194.3927, 4142.274
194.8748, 4137.218
195.3569, 4137.265
195.8390, 4142.715
196.3211, 4143.998
196.8032, 4139.434
197.2853, 4131.103
197.7675, 4125.321
198.2496, 4123.114
198.7317, 4118.703
199.2138, 4106.649
199.6959, 4085.548
200.1780, 4066.349
200.6602, 4050.311
201.1423, 4037.191
201.6244, 4027.351
202.1065, 4022.633
202.5886, 4016.356
203.0707, 4000.142
203.5529, 3970.646
204.0350, 3948.045
204.5171, 3940.255
204.9992, 3945.857
205.4813, 3937.198
205.9634, 3906.551
206.4456, 3875.243
206.9277, 3872.370
207.4098, 3908.268
207.8919, 3937.900
208.3740, 3948.040
208.8561, 3937.628
209.3383, 3919.875
209.8204, 3890.030
210.3025, 3858.023
210.7846, 3840.249
211.2667, 3841.626
211.7488, 3844.903
212.2310, 3844.462
212.7131, 3840.186
213.1952, 3831.850
213.6773, 3816.067
214.1594, 3798.543
214.6415, 3792.763
215.1236, 3803.613
215.6058, 3816.518
216.0879, 3825.306
216.5700, 3829.273
217.0521, 3831.221
217.5342, 3832.573
218.0163, 3831.679
218.4985, 3822.650
218.9806, 3803.264
219.4627, 3779.529
219.9448, 3754.851
220.4269, 3731.163
220.9090, 3701.751
221.3912, 3661.095
221.8733, 3613.111
222.3554, 3584.795
222.8375, 3589.080
223.3196, 3595.220
223.8017, 3580.675
224.2839, 3535.475
224.7660, 3490.965
225.2481, 3451.446
225.7302, 3416.620
226.2123, 3378.541
226.6944, 3332.340
227.1766, 3288.717
227.6587, 3258.076
228.1408, 3245.722
228.6229, 3236.113
229.1050, 3227.151
229.5871, 3218.921
230.0692, 3210.799
230.5514, 3202.094
231.0335, 3194.299
231.5156, 3189.117
231.9977, 3187.462
232.4798, 3186.771
232.9619, 3186.266
233.4441, 3185.669
233.9262, 3187.580
234.4083, 3194.504
234.8904, 3202.050
235.3725, 3203.706
235.8546, 3194.579
236.3368, 3187.733
236.8189, 3187.950
237.3010, 3197.874
237.7831, 3203.412
238.2652, 3202.738
238.7473, 3198.701
239.2295, 3195.275
239.7116, 3189.303
240.1937, 3189.086
240.6758, 3199.419
241.1579, 3226.655
241.6400, 3244.113
242.1222, 3246.013
242.6043, 3240.548
243.0864, 3245.233
243.5685, 3263.878
244.0506, 3286.849
244.5327, 3311.813
245.0149, 3343.257
245.4970, 3364.032
245.9791, 3365.172
246.4612, 3357.762
246.9433, 3373.267
247.4254, 3422.991
247.9075, 3478.959
248.3897, 3529.360
248.8718, 3572.815
249.3539, 3612.400
249.8360, 3646.253
250.3181, 3676.592
250.8002, 3710.458
251.2824, 3748.570
251.7645, 3789.471
252.2466, 3832.907
252.7287, 3879.804
253.2108, 3927.137
253.6929, 3979.617
254.1751, 4032.641
254.6572, 4065.266
255.1393, 4065.808
255.6214, 4063.979
256.1035, 4080.960
256.5856, 4129.022
257.0677, 4164.138
257.5499, 4178.741
258.0320, 4176.657
258.5141, 4180.926
258.9962, 4194.736
259.4783, 4209.700
259.9604, 4218.591
260.4426, 4216.890
260.9247, 4221.789
261.4068, 4235.043
261.8889, 4256.671
262.3710, 4286.754
262.8531, 4327.870
263.3353, 4373.231
263.8174, 4418.662
264.2995, 4464.238
264.7816, 4508.322
265.2637, 4549.115
265.7458, 4587.288
266.2280, 4629.374
266.7101, 4677.395
267.1922, 4724.883
267.6743, 4766.103
268.1564, 4801.106
268.6385, 4829.708
269.1207, 4851.267
269.6028, 4866.057
270.0849, 4868.817
270.5670, 4847.739
271.0491, 4840.565
271.5313, 4900.653
272.0134, 5048.501
272.4955, 5154.785
272.9776, 5179.101
273.4597, 5131.478
273.9418, 5098.762
274.4240, 5080.581
274.9061, 5077.251
275.3882, 5092.361
275.8703, 5127.734
276.3524, 5165.504
276.8345, 5202.337
277.3167, 5237.572
277.7988, 5269.975
278.2809, 5298.886
278.7630, 5326.363
279.2451, 5353.166
279.7272, 5379.061
280.2094, 5409.191
280.6915, 5442.920
281.1736, 5481.934
281.6557, 5539.431
282.1378, 5619.823
282.6199, 5701.508
283.1021, 5759.178
283.5842, 5793.301
284.0663, 5822.978
284.5484, 5853.930
285.0305, 5885.529
285.5126, 5912.213
285.9948, 5933.421
286.4769, 5954.429
286.9590, 5983.841
287.4411, 6020.248
287.9232, 6051.033
288.4053, 6075.221
288.8874, 6090.046
289.3695, 6083.936
289.8517, 6055.375
290.3338, 6018.889
290.8159, 5992.922
291.2980, 5974.262
291.7801, 5945.153
292.2622, 5893.231
292.7444, 5828.008
293.2265, 5771.993
293.7086, 5726.552
294.1907, 5679.732
294.6728, 5613.201
295.1549, 5534.078
295.6371, 5468.012
296.1192, 5434.304
296.6013, 5415.666
297.0834, 5378.576
297.5655, 5321.835
298.0476, 5267.986
298.5298, 5240.636
299.0119, 5231.590
299.4940, 5221.721
299.9761, 5196.619
300.4582, 5169.445
300.9403, 5161.083
301.4225, 5171.765
301.9046, 5181.110
302.3867, 5174.393
302.8688, 5154.430
303.3509, 5126.401
303.8330, 5079.729
304.3152, 5033.337
304.7973, 5012.854
305.2794, 5017.908
305.7615, 5016.760
306.2436, 4972.111
306.7257, 4910.615
307.2079, 4870.210
307.6900, 4891.050
308.1721, 4919.413
308.6542, 4912.119
309.1363, 4870.407
309.6184, 4830.038
310.1006, 4811.329
310.5827, 4805.763
311.0648, 4803.669
311.5469, 4812.424
312.0290, 4814.716
312.5111, 4790.350
312.9933, 4741.712
313.4754, 4713.350
313.9575, 4744.960
314.4396, 4796.821
314.9217, 4831.789
315.4038, 4821.638
315.8860, 4808.978
316.3681, 4808.265
316.8502, 4819.244
317.3323, 4834.714
317.8144, 4857.212
318.2965, 4880.863
318.7787, 4901.071
319.2608, 4913.058
319.7429, 4925.400
320.2250, 4944.365
320.7071, 4968.299
321.1892, 4980.854
321.6713, 4973.008
322.1534, 4956.423
322.6356, 4938.519
323.1177, 4922.120
323.5998, 4902.174
324.0819, 4879.280
324.5640, 4853.018
325.0461, 4820.261
325.5283, 4788.527
326.0104, 4745.229
326.4925, 4683.312
326.9746, 4582.419
327.4567, 4489.689
327.9388, 4409.192
328.4210, 4338.736
328.9031, 4266.692
329.3852, 4184.791
329.8673, 4109.865
330.3494, 4049.409
330.8315, 4006.726
331.3137, 3972.437
331.7958, 3950.272
332.2779, 3936.020
332.7600, 3916.524
333.2421, 3893.719
333.7242, 3862.664
334.2064, 3813.424
334.6885, 3731.318
335.1706, 3688.014
335.6527, 3698.696
336.1348, 3741.788
336.6169, 3765.641
337.0991, 3765.873
337.5812, 3760.931
338.0633, 3761.019
338.5454, 3767.134
339.0275, 3763.733
339.5096, 3745.278
339.9918, 3724.796
340.4739, 3728.691
340.9560, 3758.709
341.4381, 3793.707
341.9202, 3827.146
342.4023, 3858.422
342.8845, 3876.918
343.3666, 3880.527
343.8487, 3877.130
344.3308, 3877.240
344.8129, 3880.473
345.2950, 3883.183
345.7772, 3884.093
346.2593, 3883.188
346.7414, 3882.224
347.2235, 3882.085
347.7056, 3876.025
348.1877, 3848.816
348.6699, 3807.845
349.1520, 3777.235
349.6341, 3778.660
350.1162, 3792.193
350.5983, 3784.908
351.0804, 3755.841
351.5626, 3732.165
352.0447, 3748.018
352.5268, 3783.512
353.0089, 3804.419
353.4910, 3785.596
353.9731, 3754.917
354.4552, 3734.277
354.9373, 3723.195
355.4195, 3715.434
355.9016, 3709.193
356.3837, 3703.415
356.8658, 3696.867
357.3479, 3684.423
357.8300, 3675.753
358.3122, 3679.507
358.7943, 3693.125
359.2764, 3701.941
359.7585, 3690.557
360.2406, 3677.564
360.7227, 3676.960
361.2049, 3710.526
361.6870, 3733.926
362.1691, 3725.684
362.6512, 3696.031
363.1333, 3681.863
363.6154, 3711.305
364.0976, 3742.579
364.5797, 3754.446
365.0618, 3726.659
365.5439, 3706.956
366.0260, 3700.811
366.5081, 3704.530
366.9903, 3709.179
367.4724, 3712.766
367.9545, 3719.329
368.4366, 3732.512
368.9187, 3761.415
369.4008, 3772.551
369.8830, 3757.688
370.3651, 3729.568
370.8472, 3708.416
371.3293, 3695.384
371.8114, 3687.592
372.2935, 3689.181
372.7757, 3703.924
373.2578, 3690.289
373.7399, 3638.775
374.2220, 3573.932
374.7041, 3527.976
375.1862, 3503.557
375.6684, 3480.679
376.1505, 3453.784
376.6326, 3423.625
377.1147, 3393.213
377.5968, 3362.544
378.0789, 3332.477
378.5611, 3299.755
379.0432, 3265.858
379.5253, 3245.458
380.0074, 3249.469
380.4895, 3263.861
380.9716, 3254.955
381.4538, 3223.170
381.9359, 3188.606
382.4180, 3161.297
382.9001, 3142.938
383.3822, 3142.404
383.8643, 3172.217
384.3465, 3201.366
384.8286, 3182.243
385.3107, 3126.202
385.7928, 3076.607
386.2749, 3068.393
386.7570, 3077.386
387.2391, 3075.367
387.7213, 3053.826
388.2034, 3033.600
388.6855, 3028.973
389.1676, 3036.119
389.6497, 3047.287
390.1318, 3069.578
390.6140, 3087.071
391.0961, 3085.474
391.5782, 3058.448
392.0603, 3040.982
392.5424, 3049.815
393.0245, 3074.124
393.5067, 3100.403
393.9888, 3129.422
394.4709, 3156.359
394.9530, 3181.659
395.4351, 3205.777
395.9172, 3220.680
396.3994, 3210.868
396.8815, 3199.821
397.3636, 3206.914
397.8457, 3254.110
398.3278, 3290.049
398.8099, 3302.632
399.2921, 3296.495
399.7742, 3307.816
400.2563, 3348.892
400.7384, 3391.036
401.2205, 3413.061
401.7026, 3399.966
402.1848, 3415.300
402.6669, 3473.813
403.1490, 3556.184
403.6311, 3611.890
404.1132, 3635.772
404.5953, 3654.017
405.0775, 3678.902
405.5596, 3710.155
406.0417, 3743.439
406.5238, 3779.393
407.0059, 3815.560
407.4880, 3849.148
407.9702, 3880.243
408.4523, 3910.090
408.9344, 3937.996
409.4165, 3965.083
409.8986, 3993.553
410.3807, 4023.310
410.8629, 4053.854
411.3450, 4090.270
411.8271, 4126.802
412.3092, 4151.267
412.7913, 4151.489
413.2734, 4145.268
413.7556, 4148.198
414.2377, 4160.040
414.7198, 4179.266
415.2019, 4217.174
415.6840, 4256.036
416.1661, 4277.877
416.6483, 4270.904
417.1304, 4258.687
417.6125, 4250.219
418.0946, 4244.800
418.5767, 4241.158
419.0588, 4244.694
419.5409, 4245.148
420.0230, 4239.061
420.5052, 4228.829
420.9873, 4203.887
421.4694, 4154.305
421.9515, 4091.330
422.4336, 4031.283
422.9157, 3974.484
423.3979, 3920.328
423.8800, 3869.426
424.3621, 3821.703
424.8442, 3773.914
425.3263, 3725.544
425.8084, 3678.506
426.2906, 3636.576
426.7727, 3603.641
427.2548, 3563.524
427.7369, 3508.344
428.2190, 3444.636
428.7011, 3403.523
429.1833, 3390.114
429.6654, 3377.878
430.1475, 3345.544
430.6296, 3294.071
431.1117, 3252.892
431.5938, 3226.125
432.0760, 3207.297
432.5581, 3185.714
433.0402, 3161.935
433.5223, 3141.630
434.0044, 3132.713
434.4865, 3127.902
434.9687, 3109.396
435.4508, 3075.093
435.9329, 3044.872
436.4150, 3041.790
436.8971, 3054.677
437.3792, 3063.634
437.8614, 3055.481
438.3435, 3045.221
438.8256, 3046.456
439.3077, 3057.317
439.7898, 3062.811
440.2719, 3050.957
440.7541, 3033.209
441.2362, 3018.578
441.7183, 3007.749
442.2004, 3001.731
442.6825, 3004.016
443.1646, 3011.563
443.6468, 3016.409
444.1289, 3014.001
444.6110, 3011.527
445.0931, 3011.319
445.5752, 3013.040
446.0573, 3017.954
446.5395, 3027.560
447.0216, 3039.370
447.5037, 3050.064
447.9858, 3057.701
448.4679, 3068.856
448.9500, 3088.743
449.4322, 3115.531
449.9143, 3124.990
450.3964, 3113.046
450.8785, 3095.771
451.3606, 3084.777
451.8427, 3079.983
452.3248, 3082.679
452.8069, 3093.747
453.2891, 3111.519
453.7712, 3135.863
454.2533, 3166.210
454.7354, 3192.998
455.2175, 3199.334
455.6996, 3200.431
456.1818, 3238.199
456.6639, 3323.458
457.1460, 3397.252
457.6281, 3388.099
458.1102, 3330.371
458.5923, 3286.289
459.0745, 3290.815
459.5566, 3311.743
460.0387, 3328.005
460.5208, 3339.778
461.0029, 3356.009
461.4850, 3393.659
461.9672, 3430.094
462.4493, 3447.151
462.9314, 3428.087
463.4135, 3406.079
463.8956, 3381.881
464.3777, 3358.458
464.8599, 3344.448
465.3420, 3340.805
465.8241, 3346.485
466.3062, 3367.838
466.7883, 3420.460
467.2704, 3429.392
467.7526, 3370.518
468.2347, 3290.166
468.7168, 3249.850
469.1989, 3262.490
469.6810, 3269.285
470.1631, 3252.797
470.6453, 3219.468
471.1274, 3202.038
471.6095, 3201.870
472.0916, 3208.755
472.5737, 3218.102
473.0558, 3228.684
473.5380, 3233.813
474.0201, 3231.853
474.5022, 3225.805
474.9843, 3215.341
475.4664, 3202.984
475.9485, 3198.452
476.4307, 3214.756
476.9128, 3237.527
477.3949, 3247.733
477.8770, 3243.519
478.3591, 3244.287
478.8412, 3270.805
479.3234, 3305.971
479.8055, 3330.177
480.2876, 3321.765
480.7697, 3316.941
481.2518, 3334.583
481.7339, 3369.220
482.2161, 3392.098
482.6982, 3384.398
483.1803, 3373.973
483.6624, 3373.932
484.1445, 3384.934
484.6266, 3405.712
485.1087, 3442.348
485.5909, 3485.205
486.0730, 3519.041
486.5551, 3538.868
487.0372, 3561.242
487.5193, 3591.577
488.0014, 3629.338
488.4836, 3664.606
488.9657, 3696.312
489.4478, 3729.263
489.9299, 3771.547
490.4120, 3821.574
490.8941, 3861.966
491.3763, 3889.583
491.8584, 3907.686
492.3405, 3919.882
492.8226, 3926.754
493.3047, 3931.962
493.7868, 3937.394
494.2690, 3942.435
494.7511, 3946.386
495.2332, 3949.324
495.7153, 3950.910
496.1974, 3957.522
496.6795, 3960.468
497.1617, 3949.406
497.6438, 3910.975
498.1259, 3868.098
498.6080, 3825.611
499.0901, 3784.247
499.5722, 3746.884
500.0544, 3713.040
500.5365, 3683.663
501.0186, 3658.301
501.5007, 3633.638
501.9828, 3619.715
502.4649, 3619.691
502.9471, 3628.252
503.4292, 3639.544
503.9113, 3656.990
504.3934, 3667.151
504.8755, 3663.693
505.3576, 3649.613
505.8398, 3644.530
506.3219, 3649.881
506.8040, 3656.847
507.2861, 3660.222
507.7682, 3659.651
508.2503, 3650.974
508.7325, 3630.529
509.2146, 3610.390
509.6967, 3611.307
510.1788, 3626.935
510.6609, 3637.245
511.1430, 3628.425
511.6252, 3611.739
512.1072, 3596.154
512.5894, 3582.173
513.0715, 3570.392
513.5536, 3563.413
514.0357, 3557.632
514.5178, 3549.760
514.9999, 3532.102
515.4821, 3520.477
515.9642, 3523.753
516.4463, 3536.230
516.9284, 3539.623
517.4105, 3522.616
517.8926, 3508.805
518.3748, 3508.108
518.8569, 3524.724
519.3390, 3528.073
519.8211, 3509.690
520.3032, 3490.677
520.7853, 3498.028
521.2675, 3536.334
521.7496, 3562.083
522.2317, 3565.930
522.7138, 3553.183
523.1959, 3532.165
523.6780, 3503.411
524.1602, 3479.388
524.6423, 3475.035
525.1244, 3479.332
525.6065, 3470.672
526.0886, 3446.409
526.5707, 3416.926
527.0529, 3385.273
527.5350, 3355.071
528.0171, 3331.584
528.4992, 3319.408
528.9813, 3311.591
529.4634, 3314.784
529.9456, 3323.212
530.4277, 3308.908
530.9098, 3242.315
531.3919, 3168.410
531.8740, 3110.549
532.3561, 3080.052
532.8383, 3040.896
533.3204, 2978.629
533.8025, 2916.995
534.2846, 2888.828
534.7667, 2906.779
535.2488, 2923.038
535.7310, 2930.139
536.2131, 2927.308
536.6952, 2907.302
537.1773, 2867.684
537.6594, 2829.683
538.1415, 2809.084
538.6237, 2802.292
539.1058, 2795.960
539.5879, 2788.316
540.0700, 2783.769
540.5521, 2793.233
541.0342, 2808.991
541.5164, 2814.768
541.9985, 2793.748
542.4806, 2768.654
542.9627, 2752.737
543.4448, 2746.005
543.9269, 2748.220
544.4091, 2775.194
544.8912, 2799.439
545.3733, 2803.055
545.8554, 2770.586
546.3375, 2745.719
546.8196, 2736.288
547.3018, 2734.439
547.7839, 2729.667
548.2660, 2715.440
548.7481, 2711.992
549.2302, 2728.720
549.7123, 2760.327
550.1945, 2772.829
550.6766, 2762.644
551.1587, 2749.595
551.6408, 2749.311
552.1229, 2758.931
552.6050, 2759.006
553.0872, 2746.433
553.5693, 2731.991
554.0514, 2728.644
554.5335, 2733.354
555.0156, 2738.513
555.4977, 2740.666
555.9799, 2742.585
556.4620, 2748.955
556.9441, 2758.071
557.4262, 2761.547
557.9083, 2749.064
558.3904, 2734.453
558.8726, 2726.119
559.3547, 2726.979
559.8368, 2729.008
560.3189, 2731.280
560.8010, 2734.120
561.2831, 2737.891
561.7653, 2742.452
562.2474, 2748.281
562.7295, 2756.787
563.2116, 2766.531
563.6937, 2769.803
564.1758, 2764.907
564.6580, 2761.764
565.1401, 2770.324
565.6222, 2787.238
566.1043, 2790.933
566.5864, 2779.431
567.0685, 2762.428
567.5506, 2745.876
568.0327, 2732.009
568.5148, 2725.191
568.9969, 2725.546
569.4791, 2735.151
569.9612, 2767.287
570.4433, 2812.250
570.9254, 2838.978
571.4075, 2814.829
571.8896, 2785.089
572.3718, 2773.530
572.8539, 2786.269
573.3360, 2796.379
573.8181, 2799.532
574.3002, 2800.408
574.7823, 2802.882
575.2645, 2808.410
575.7466, 2812.051
576.2287, 2813.377
576.7108, 2812.476
577.1929, 2807.809
577.6750, 2798.591
578.1572, 2793.393
578.6393, 2798.314
579.1214, 2810.381
579.6035, 2818.365
580.0856, 2822.296
580.5677, 2826.223
581.0499, 2837.575
581.5320, 2849.953
582.0141, 2852.108
582.4962, 2836.763
582.9783, 2822.324
583.4604, 2819.329
583.9426, 2824.879
584.4247, 2833.906
584.9068, 2853.394
585.3889, 2867.671
585.8710, 2866.274
586.3531, 2849.378
586.8353, 2848.874
587.3174, 2880.531
587.7995, 2909.084
588.2816, 2910.730
588.7637, 2874.320
589.2458, 2861.740
589.7280, 2879.907
590.2101, 2910.049
590.6922, 2927.777
591.1743, 2933.573
591.6564, 2934.628
592.1385, 2931.896
592.6207, 2926.924
593.1028, 2921.252
593.5849, 2915.312
594.0670, 2910.720
594.5491, 2905.171
595.0313, 2903.677
595.5134, 2912.859
595.9955, 2934.760
596.4776, 2954.697
596.9597, 2972.143
597.4418, 2982.595
597.9240, 2981.837
598.4061, 2947.531
598.8882, 2930.056
599.3703, 2938.176
599.8524, 2962.955
600.3345, 2984.925
600.8167, 3005.016
601.2988, 3018.608
601.7809, 3020.959
602.2630, 3014.375
602.7451, 3017.754
603.2272, 3031.743
603.7094, 3046.743
604.1915, 3052.998
604.6736, 3054.458
605.1557, 3063.223
605.6378, 3084.212
606.1199, 3100.010
606.6021, 3085.758
607.0842, 3057.731
607.5663, 3041.876
608.0484, 3056.370
608.5305, 3075.953
609.0126, 3091.155
609.4948, 3103.009
609.9769, 3117.575
610.4590, 3143.181
610.9411, 3164.023
611.4232, 3172.704
611.9053, 3166.164
612.3875, 3164.587
612.8696, 3167.521
613.3517, 3176.099
613.8338, 3194.618
614.3159, 3222.525
614.7980, 3244.179
615.2802, 3255.895
615.7623, 3263.034
616.2444, 3270.731
616.7265, 3280.255
617.2086, 3296.189
617.6907, 3313.337
618.1729, 3343.212
618.6550, 3414.549
619.1371, 3519.720
619.6192, 3589.090
620.1013, 3561.354
620.5834, 3512.834
621.0656, 3491.584
621.5477, 3518.865
622.0298, 3536.261
622.5119, 3530.819
622.9940, 3523.174
623.4761, 3537.939
623.9583, 3581.969
624.4404, 3622.152
624.9225, 3644.159
625.4046, 3667.043
625.8867, 3758.925
626.3688, 3915.433
626.8510, 4042.913
627.3331, 4065.711
627.8152, 4036.139
628.2973, 4047.419
628.7794, 4099.712
629.2615, 4154.177
629.7437, 4171.969
630.2258, 4186.333
630.7079, 4230.261
631.1900, 4323.863
631.6721, 4413.741
632.1542, 4476.646
632.6364, 4530.019
633.1184, 4597.177
633.6005, 4680.729
634.0826, 4775.782
634.5648, 4884.474
635.0469, 5003.609
635.5290, 5117.271
636.0111, 5221.228
636.4932, 5338.389
636.9753, 5481.146
637.4575, 5646.848
637.9396, 5824.409
638.4217, 6015.220
638.9038, 6223.572
639.3859, 6458.337
639.8680, 6714.312
640.3502, 6982.283
640.8323, 7267.049
641.3144, 7554.122
641.7965, 7830.015
642.2786, 8109.433
642.7607, 8418.743
643.2429, 8775.834
643.7250, 9146.190
644.2071, 9525.337
644.6892, 9912.989
645.1713, 10291.91
645.6534, 10654.02
646.1356, 11027.00
646.6177, 11426.66
647.0998, 11853.01
647.5819, 12259.92
648.0640, 12648.28
648.5461, 13044.30
649.0283, 13471.00
649.5104, 13921.80
649.9925, 14372.66
650.4746, 14818.80
650.9567, 15263.05
651.4388, 15698.01
651.9210, 16130.26
652.4031, 16567.54
652.8852, 17077.27
653.3673, 17528.06
653.8494, 17885.59
654.3315, 18156.70
654.8137, 18378.58
655.2958, 18579.18
655.7779, 18689.68
656.2600, 18693.41
656.7421, 18588.93
657.2242, 18346.38
657.7064, 17960.64
658.1885, 17466.87
658.6706, 16875.50
659.1527, 16196.75
659.6348, 15466.59
660.1169, 14677.31
660.5991, 13884.43
661.0812, 13114.95
661.5633, 12370.77
662.0454, 11654.69
662.5275, 10958.66
663.0096, 10300.35
663.4918, 9675.571
663.9739, 9089.454
664.4560, 8572.176
664.9381, 8149.190
665.4202, 7756.274
665.9023, 7374.204
666.3845, 7005.129
666.8666, 6681.905
667.3487, 6407.888
667.8308, 6164.363
668.3129, 5945.626
668.7950, 5749.714
669.2772, 5561.854
669.7593, 5379.642
670.2414, 5218.150
670.7235, 5101.493
671.2056, 5012.866
671.6877, 4930.000
672.1699, 4851.467
672.6520, 4770.990
673.1341, 4679.444
673.6162, 4584.118
674.0983, 4500.519
674.5804, 4427.198
675.0626, 4369.308
675.5447, 4333.857
676.0268, 4315.579
676.5089, 4285.673
676.9910, 4239.447
677.4731, 4200.577
677.9553, 4188.750
678.4374, 4196.726
678.9195, 4186.286
679.4016, 4156.642
679.8837, 4130.692
680.3658, 4131.725
680.8480, 4146.270
681.3301, 4156.193
681.8122, 4154.952
682.2943, 4158.684
682.7764, 4176.255
683.2585, 4202.271
683.7407, 4230.567
684.2228, 4264.975
684.7049, 4294.559
685.1870, 4316.638
685.6691, 4333.670
686.1512, 4348.633
686.6334, 4357.641
687.1155, 4383.950
687.5976, 4445.284
688.0797, 4527.062
688.5618, 4578.847
689.0439, 4603.180
689.5261, 4631.709
690.0082, 4691.135
690.4903, 4763.385
690.9724, 4829.005
691.4545, 4885.786
691.9366, 4940.120
692.4188, 4999.861
692.9009, 5055.182
693.3830, 5097.643
693.8651, 5113.809
694.3472, 5138.465
694.8293, 5182.012
695.3115, 5225.084
695.7936, 5239.351
696.2757, 5221.816
696.7578, 5199.229
697.2399, 5180.457
697.7220, 5155.802
698.2042, 5101.973
698.6863, 5023.574
699.1683, 4941.522
699.6505, 4868.928
700.1326, 4796.760
700.6147, 4714.259
701.0968, 4623.799
701.5789, 4538.756
702.0610, 4461.815
702.5432, 4393.576
703.0253, 4336.753
703.5074, 4294.639
703.9895, 4246.563
704.4716, 4186.777
704.9537, 4129.704
705.4359, 4086.792
705.9180, 4058.261
706.4001, 4034.771
706.8822, 4016.284
707.3643, 3999.396
707.8464, 3982.428
708.3286, 3963.209
708.8107, 3935.429
709.2928, 3889.117
709.7749, 3846.254
710.2570, 3827.696
710.7391, 3822.937
711.2213, 3809.071
711.7034, 3780.984
712.1855, 3741.636
712.6676, 3686.925
713.1497, 3620.809
713.6318, 3563.601
714.1140, 3517.570
714.5961, 3473.842
715.0782, 3427.933
715.5603, 3380.736
716.0424, 3334.234
716.5245, 3288.757
717.0067, 3249.235
717.4888, 3229.814
717.9709, 3214.895
718.4530, 3177.541
718.9351, 3106.943
719.4172, 3053.732
719.8994, 3058.250
720.3815, 3082.931
720.8636, 3091.761
721.3457, 3062.905
721.8278, 3043.920
722.3099, 3042.508
722.7921, 3045.816
723.2742, 3028.932
723.7563, 2988.674
724.2384, 2963.612
724.7205, 2968.492
725.2026, 2987.290
725.6848, 2989.762
726.1669, 2979.776
726.6490, 2972.846
727.1311, 2986.223
727.6132, 2998.103
728.0953, 2987.256
728.5775, 2957.180
729.0596, 2935.873
729.5417, 2938.267
730.0238, 2944.864
730.5059, 2947.935
730.9880, 2947.370
731.4702, 2943.913
731.9523, 2936.033
732.4344, 2929.126
732.9165, 2928.526
733.3986, 2933.165
733.8807, 2936.253
734.3629, 2937.442
734.8450, 2935.377
735.3271, 2926.298
735.8092, 2913.873
736.2913, 2903.209
736.7734, 2895.151
737.2556, 2889.879
737.7377, 2890.444
738.2198, 2893.001
738.7019, 2891.352
739.1840, 2879.017
739.6661, 2874.221
740.1483, 2883.791
740.6304, 2899.366
741.1125, 2897.044
741.5946, 2876.034
742.0767, 2861.917
742.5588, 2869.745
743.0410, 2886.065
743.5231, 2888.341
744.0052, 2878.247
744.4873, 2863.429
744.9694, 2838.944
745.4515, 2818.543
745.9337, 2812.043
746.4158, 2820.000
746.8979, 2830.661
747.3800, 2850.194
747.8621, 2863.531
748.3442, 2861.094
748.8264, 2840.199
749.3085, 2827.556
749.7906, 2824.208
750.2727, 2825.632
750.7548, 2828.822
751.2369, 2833.507
751.7191, 2839.164
752.2012, 2845.903
752.6833, 2852.557
753.1654, 2860.723
753.6475, 2867.159
754.1296, 2867.461
754.6118, 2849.505
755.0939, 2841.581
755.5760, 2861.209
756.0581, 2887.507
756.5402, 2888.601
757.0223, 2852.935
757.5045, 2830.890
757.9866, 2835.277
758.4687, 2853.146
758.9508, 2857.577
759.4329, 2850.471
759.9150, 2842.429
760.3972, 2837.153
760.8793, 2834.045
761.3614, 2833.026
761.8435, 2833.708
762.3256, 2834.699
762.8077, 2832.422
763.2899, 2833.378
763.7720, 2845.531
764.2541, 2867.271
764.7361, 2867.946
765.2183, 2835.969
765.7004, 2811.881
766.1825, 2827.024
766.6646, 2873.770
767.1467, 2885.787
767.6288, 2862.575
768.1110, 2840.871
768.5931, 2857.120
769.0752, 2888.170
769.5573, 2907.962
770.0394, 2912.420
770.5215, 2909.250
771.0037, 2894.741
771.4858, 2877.946
771.9679, 2866.499
772.4500, 2864.883
772.9321, 2857.835
773.4142, 2841.025
773.8964, 2825.844
774.3785, 2831.592
774.8606, 2855.188
775.3427, 2865.585
775.8248, 2854.924
776.3069, 2835.261
776.7891, 2810.020
777.2712, 2786.975
777.7533, 2779.473
778.2354, 2807.998
778.7175, 2834.970
779.1996, 2847.117
779.6818, 2849.385
780.1639, 2853.763
780.6460, 2865.468
781.1281, 2866.987
781.6102, 2848.619
782.0923, 2821.807
782.5745, 2824.207
783.0566, 2853.437
783.5387, 2879.548
784.0208, 2882.282
784.5029, 2877.364
784.9850, 2886.479
785.4672, 2905.164
785.9493, 2914.614
786.4314, 2898.033
786.9135, 2878.257
787.3956, 2864.950
787.8777, 2858.425
788.3599, 2853.455
788.8420, 2849.905
789.3241, 2848.289
789.8062, 2847.859
790.2883, 2849.232
790.7704, 2860.859
791.2526, 2883.057
791.7347, 2899.831
792.2168, 2895.512
792.6989, 2881.106
793.1810, 2865.820
793.6631, 2849.382
794.1453, 2844.580
794.6274, 2873.606
795.1095, 2902.958
795.5916, 2905.882
796.0737, 2866.877
796.5558, 2854.859
797.0380, 2878.823
797.5201, 2910.055
798.0022, 2918.686
798.4843, 2908.739
798.9664, 2898.812
799.4485, 2890.132
799.9307, 2889.384
800.4128, 2915.154
800.8949, 2947.730
801.3770, 2960.974
801.8591, 2935.827
802.3412, 2912.024
802.8234, 2894.610
803.3055, 2884.826
803.7876, 2885.715
804.2697, 2900.798
804.7518, 2914.752
805.2339, 2927.208
805.7161, 2934.359
806.1982, 2921.590
806.6803, 2896.520
807.1624, 2888.429
807.6445, 2920.343
808.1266, 2952.916
808.6088, 2949.330
809.0909, 2925.337
809.5730, 2901.699
810.0551, 2930.836
810.5372, 2948.732
811.0193, 2955.992
811.5015, 2920.759
811.9836, 2940.396
812.4657, 2938.044
812.9478, 2934.790
813.4299, 2962.151
813.9120, 2933.098
814.3942, 2959.974
814.8763, 2964.523
815.3584, 2979.291
815.8405, 2971.933
816.3226, 2971.408
816.8047, 2993.017
817.2869, 3002.372
817.7690, 2992.466
818.2511, 3007.883
818.7332, 2978.057
819.2153, 2987.932
819.6974, 2992.753
820.1796, 2992.142
820.6617, 2979.337
821.1438, 2968.707
821.6259, 2973.492
822.1080, 2982.959
822.5901, 2980.440
823.0723, 2967.258
823.5544, 2957.858
824.0365, 2958.775
824.5186, 2965.111
825.0007, 2977.214
825.4828, 2995.254
825.9650, 3004.375
826.4471, 3001.718
826.9292, 2997.151
827.4113, 2996.412
827.8934, 2998.771
828.3755, 3000.288
828.8577, 3000.951
829.3398, 3002.257
829.8219, 3007.015
830.3040, 3011.848
830.7861, 3012.945
831.2682, 3009.397
831.7503, 3007.572
832.2324, 3010.031
832.7145, 3013.739
833.1967, 3017.342
833.6788, 3020.860
834.1609, 3023.391
834.6430, 3024.239
835.1251, 3027.552
835.6072, 3042.780
836.0894, 3061.787
836.5715, 3062.829
837.0536, 3041.941
837.5357, 3016.733
838.0178, 3030.007
838.4999, 3039.442
838.9821, 3045.246
839.4642, 3036.539
839.9463, 3046.569
840.4284, 3049.090
840.9105, 3051.304
841.3926, 3063.970
841.8748, 3057.375
842.3569, 3069.876
842.8390, 3074.754
843.3211, 3083.121
843.8032, 3083.932
844.2853, 3087.077
844.7675, 3097.781
845.2496, 3104.298
845.7317, 3104.240
846.2138, 3112.829
846.6959, 3105.969
847.1780, 3112.664
847.6602, 3125.211
848.1423, 3132.219
848.6244, 3138.343
849.1065, 3144.657
849.5886, 3157.751
850.0707, 3174.589
850.5529, 3186.635
851.0350, 3191.360
851.5171, 3195.981
851.9992, 3209.298
852.4813, 3222.572
852.9634, 3226.736
853.4456, 3209.435
853.9277, 3203.028
854.4098, 3212.077
854.8919, 3225.724
855.3740, 3232.059
855.8561, 3231.569
856.3383, 3231.094
856.8204, 3231.739
857.3025, 3231.995
857.7846, 3228.609
858.2667, 3224.673
858.7488, 3224.813
859.2310, 3233.758
859.7131, 3239.322
860.1952, 3233.209
860.6773, 3226.005
861.1594, 3229.531
861.6415, 3248.322
862.1237, 3252.948
862.6058, 3238.230
863.0879, 3218.046
863.5700, 3208.837
864.0521, 3207.123
864.5342, 3205.377
865.0164, 3202.479
865.4985, 3197.622
865.9806, 3182.145
866.4627, 3168.493
866.9448, 3172.550
867.4269, 3216.478
867.9091, 3231.455
868.3912, 3204.698
868.8733, 3169.959
869.3554, 3175.382
869.8375, 3212.048
870.3196, 3228.181
870.8018, 3211.827
871.2839, 3191.341
871.7660, 3190.427
872.2481, 3199.879
872.7302, 3209.206
873.2123, 3216.169
873.6945, 3222.889
874.1766, 3228.137
874.6587, 3234.546
875.1408, 3247.388
875.6229, 3267.278
876.1050, 3275.108
876.5872, 3267.436
877.0693, 3255.855
877.5514, 3253.296
878.0335, 3254.981
878.5156, 3252.213
878.9977, 3239.309
879.4799, 3234.340
879.9620, 3251.046
880.4441, 3273.570
880.9262, 3287.190
881.4083, 3287.252
881.8904, 3296.529
882.3726, 3317.634
882.8547, 3341.735
883.3368, 3358.427
883.8189, 3370.570
884.3010, 3385.698
884.7831, 3405.629
885.2653, 3422.846
885.7474, 3429.155
886.2295, 3432.792
886.7116, 3441.583
887.1937, 3459.372
887.6758, 3471.669
888.1580, 3475.320
888.6401, 3479.656
889.1222, 3492.831
889.6043, 3514.019
890.0864, 3541.508
890.5685, 3575.359
891.0507, 3605.751
891.5328, 3624.730
892.0149, 3636.708
892.4970, 3645.464
892.9791, 3650.948
893.4612, 3655.169
893.9434, 3656.443
894.4255, 3659.186
894.9076, 3665.531
895.3897, 3675.473
895.8718, 3692.886
896.3539, 3717.917
896.8360, 3744.342
897.3181, 3769.623
897.8002, 3791.615
898.2823, 3806.053
898.7645, 3812.140
899.2466, 3821.013
899.7287, 3841.560
900.2108, 3859.916
900.6929, 3869.929
901.1750, 3871.601
901.6572, 3867.303
902.1393, 3856.709
902.6214, 3844.800
903.1035, 3834.692
903.5856, 3825.766
904.0677, 3815.832
904.5499, 3805.323
905.0320, 3799.038
905.5141, 3806.120
905.9962, 3810.833
906.4783, 3803.409
906.9604, 3785.466
907.4426, 3779.025
907.9247, 3786.655
908.4068, 3791.266
908.8889, 3780.886
909.3710, 3762.988
909.8531, 3752.346
910.3353, 3747.689
910.8174, 3743.172
911.2995, 3736.611
911.7816, 3728.891
912.2637, 3719.279
912.7458, 3708.574
913.2280, 3700.778
913.7101, 3695.922
914.1922, 3694.719
914.6743, 3701.750
915.1564, 3708.170
915.6385, 3686.553
916.1207, 3645.584
916.6028, 3616.387
917.0849, 3622.162
917.5670, 3633.714
918.0491, 3637.435
918.5313, 3636.239
919.0134, 3638.422
919.4955, 3646.860
919.9776, 3651.315
920.4597, 3647.746
920.9418, 3642.582
921.4240, 3652.568
921.9061, 3671.853
922.3882, 3678.118
922.8703, 3654.966
923.3524, 3633.761
923.8345, 3636.492
924.3167, 3653.085
924.7988, 3668.543
925.2809, 3683.237
925.7630, 3693.096
926.2451, 3696.049
926.7272, 3697.205
927.2094, 3703.316
927.6915, 3713.479
928.1736, 3723.794
928.6557, 3733.202
929.1378, 3744.032
929.6199, 3762.178
930.1021, 3780.039
930.5842, 3788.882
931.0663, 3778.316
931.5484, 3780.134
932.0305, 3798.375
932.5126, 3821.403
932.9948, 3840.180
933.4769, 3855.078
933.9590, 3866.321
934.4411, 3873.835
934.9232, 3881.658
935.4053, 3882.416
935.8875, 3892.096
936.3696, 3930.071
936.8517, 4004.278
937.3338, 4057.597
937.8159, 4084.558
938.2980, 4096.531
938.7802, 4089.002
939.2623, 4070.063
939.7444, 4094.780
940.2265, 4158.949
940.7086, 4217.568
941.1907, 4234.363
941.6729, 4241.309
942.1550, 4258.225
942.6371, 4285.977
943.1192, 4321.553
943.6013, 4366.066
944.0834, 4415.479
944.5656, 4471.781
945.0477, 4529.797
945.5298, 4575.483
946.0119, 4609.686
946.4940, 4638.325
946.9761, 4655.429
947.4583, 4677.130
947.9404, 4714.521
948.4225, 4764.634
948.9046, 4821.739
949.3867, 4889.709
949.8688, 4955.335
950.3510, 5016.734
950.8331, 5075.333
951.3152, 5133.653
951.7973, 5191.958
952.2794, 5251.115
952.7615, 5310.271
953.2437, 5373.590
953.7258, 5445.267
954.2079, 5521.321
954.6900, 5597.434
955.1721, 5666.954
955.6542, 5752.390
956.1364, 5862.985
956.6185, 5970.797
957.1006, 6043.063
957.5827, 6091.141
958.0648, 6155.483
958.5469, 6239.542
959.0291, 6331.125
959.5112, 6428.477
959.9933, 6525.766
960.4754, 6613.273
960.9575, 6688.396
961.4396, 6791.344
961.9218, 6935.594
962.4038, 7064.066
962.8859, 7131.133
963.3680, 7160.248
963.8502, 7226.027
964.3323, 7322.176
964.8144, 7416.602
965.2965, 7476.770
965.7786, 7543.644
966.2607, 7651.598
966.7429, 7785.778
967.2250, 7887.511
967.7071, 7948.639
968.1892, 8003.023
968.6713, 8057.513
969.1534, 8115.055
969.6356, 8190.986
970.1177, 8273.910
970.5998, 8335.786
971.0819, 8339.479
971.5640, 8357.727
972.0461, 8440.309
972.5283, 8540.858
973.0104, 8599.853
973.4925, 8611.298
973.9746, 8608.036
974.4567, 8590.566
974.9388, 8569.103
975.4210, 8552.515
975.9031, 8540.941
976.3852, 8539.807
976.8673, 8555.049
977.3494, 8550.175
977.8315, 8495.847
978.3137, 8432.326
978.7958, 8379.949
979.2779, 8338.962
979.7600, 8316.655
980.2421, 8315.208
980.7242, 8301.721
981.2064, 8237.358
981.6885, 8159.293
982.1706, 8115.325
982.6527, 8100.789
983.1348, 8075.423
983.6169, 8011.665
984.0991, 7955.120
984.5812, 7920.911
985.0633, 7899.976
985.5454, 7864.773
986.0275, 7816.413
986.5096, 7768.845
986.9918, 7727.984
987.4739, 7688.241
987.9560, 7642.026
988.4381, 7594.643
988.9202, 7555.044
989.4023, 7524.070
989.8845, 7505.797
990.3666, 7511.229
990.8487, 7511.379
991.3308, 7467.854
991.8129, 7386.958
992.2950, 7294.422
992.7772, 7191.208
993.2593, 7093.533
993.7414, 7015.252
994.2235, 6945.233
994.7056, 6874.339
995.1877, 6801.094
995.6699, 6729.507
996.1520, 6659.821
996.6341, 6588.011
997.1162, 6506.938
997.5983, 6424.030
998.0804, 6358.936
998.5626, 6309.401
999.0447, 6262.391
999.5268, 6211.769
1000.009, 6162.549
1000.491, 6110.533
1000.973, 6062.771
1001.455, 6042.086
1001.937, 6052.223
1002.419, 6053.471
1002.902, 6032.075
1003.384, 6004.530
1003.866, 5990.981
1004.348, 5986.230
1004.830, 5981.166
1005.312, 5964.172
1005.794, 5964.549
1006.276, 5992.999
1006.759, 6030.417
1007.241, 6062.296
1007.723, 6088.483
1008.205, 6104.950
1008.687, 6110.919
1009.169, 6128.172
1009.651, 6191.429
1010.133, 6260.870
1010.615, 6291.378
1011.098, 6278.414
1011.580, 6308.293
1012.062, 6403.288
1012.544, 6493.514
1013.026, 6544.894
1013.508, 6575.136
1013.990, 6635.317
1014.472, 6717.295
1014.955, 6792.654
1015.437, 6848.912
1015.919, 6896.140
1016.401, 6934.085
1016.883, 6967.551
1017.365, 7004.241
1017.847, 7044.795
1018.329, 7086.829
1018.811, 7130.537
1019.294, 7174.820
1019.776, 7225.031
1020.258, 7272.108
1020.740, 7302.785
1021.222, 7313.980
1021.704, 7311.961
1022.186, 7285.720
1022.668, 7260.878
1023.151, 7257.337
1023.633, 7270.581
1024.115, 7248.573
1024.597, 7192.105
1025.079, 7120.060
1025.561, 7030.231
1026.043, 6940.892
1026.525, 6878.316
1027.007, 6829.987
1027.490, 6748.015
1027.972, 6612.477
1028.454, 6486.400
1028.936, 6382.029
1029.418, 6289.975
1029.900, 6197.794
1030.382, 6103.739
1030.864, 5997.403
1031.346, 5865.963
1031.829, 5752.348
1032.311, 5693.759
1032.793, 5645.783
1033.275, 5568.339
1033.757, 5454.058
1034.239, 5366.630
1034.721, 5307.130
1035.203, 5252.256
1035.686, 5183.089
1036.168, 5108.783
1036.650, 5035.221
1037.132, 4964.596
1037.614, 4907.249
1038.096, 4877.699
1038.578, 4843.227
1039.060, 4796.464
1039.542, 4740.579
1040.025, 4680.000
1040.507, 4617.613
1040.989, 4561.834
1041.471, 4517.144
1041.953, 4477.014
1042.435, 4438.501
1042.917, 4401.636
1043.399, 4364.959
1043.881, 4324.598
1044.364, 4300.902
1044.846, 4297.144
1045.328, 4292.758
1045.810, 4264.683
1046.292, 4227.762
1046.774, 4206.985
1047.256, 4201.629
1047.738, 4188.288
1048.221, 4155.266
1048.703, 4117.394
1049.185, 4075.592
1049.667, 4033.708
1050.149, 4001.344
1050.631, 3978.747
1051.113, 3969.376
1051.595, 3980.664
1052.078, 3992.603
1052.560, 3995.083
1053.042, 3987.811
1053.524, 3968.653
1054.006, 3930.345
1054.488, 3902.689
1054.970, 3887.339
1055.452, 3877.172
1055.934, 3867.525
1056.417, 3857.774
1056.899, 3846.477
1057.381, 3833.676
1057.863, 3820.957
1058.345, 3806.284
1058.827, 3795.552
1059.309, 3794.057
1059.791, 3796.148
1060.273, 3778.970
1060.756, 3745.562
1061.238, 3720.770
1061.720, 3716.388
1062.202, 3716.566
1062.684, 3708.244
1063.166, 3697.806
1063.648, 3693.938
1064.130, 3699.651
1064.612, 3705.037
1065.095, 3711.167
1065.577, 3712.517
1066.059, 3702.726
1066.541, 3685.444
1067.023, 3663.651
1067.505, 3638.630
1067.987, 3620.359
1068.469, 3617.959
1068.952, 3616.963
1069.434, 3613.150
1069.916, 3607.955
1070.398, 3607.051
1070.880, 3609.250
1071.362, 3605.427
1071.844, 3588.888
1072.326, 3574.542
1072.808, 3575.588
1073.291, 3583.013
1073.773, 3586.256
1074.255, 3583.365
1074.737, 3582.233
1075.219, 3583.685
1075.701, 3582.684
1076.183, 3574.421
1076.665, 3561.606
1077.147, 3545.582
1077.630, 3527.756
1078.112, 3516.646
1078.594, 3520.490
1079.076, 3524.708
1079.558, 3526.632
1080.040, 3527.210
1080.522, 3527.870
1081.004, 3528.867
1081.487, 3531.512
1081.969, 3536.721
1082.451, 3541.574
1082.933, 3543.448
1083.415, 3544.624
1083.897, 3547.806
1084.379, 3553.897
1084.861, 3553.415
1085.344, 3545.759
1085.826, 3537.148
1086.308, 3530.605
1086.790, 3526.162
1087.272, 3523.518
1087.754, 3522.989
1088.236, 3525.955
1088.718, 3534.591
1089.200, 3544.224
1089.682, 3556.911
1090.165, 3565.669
1090.647, 3552.213
1091.129, 3527.122
1091.611, 3522.035
1092.093, 3547.478
1092.575, 3562.539
1093.057, 3530.559
1093.539, 3501.192
1094.022, 3506.032
1094.504, 3541.180
1094.986, 3557.328
1095.468, 3554.848
1095.950, 3545.246
1096.432, 3529.130
1096.914, 3513.533
1097.396, 3502.804
1097.879, 3496.779
1098.361, 3495.712
1098.843, 3501.450
1099.325, 3504.826
1099.807, 3503.672
1100.289, 3505.685
1100.771, 3528.053
1101.253, 3554.793
1101.735, 3556.456
1102.218, 3530.562
1102.700, 3514.965
1103.182, 3527.312
1103.664, 3540.544
1104.146, 3547.194
1104.628, 3548.014
1105.110, 3542.087
1105.592, 3531.520
1106.074, 3524.585
1106.557, 3524.099
1107.039, 3527.734
1107.521, 3541.663
1108.003, 3553.817
1108.485, 3551.385
1108.967, 3532.118
1109.449, 3517.242
1109.931, 3506.657
1110.414, 3505.878
1110.896, 3530.315
1111.378, 3556.584
1111.860, 3560.984
1112.342, 3548.205
1112.824, 3545.090
1113.306, 3557.596
1113.788, 3566.153
1114.271, 3567.826
1114.753, 3561.690
1115.235, 3535.948
1115.717, 3505.186
1116.199, 3497.218
1116.681, 3524.453
1117.163, 3539.275
1117.645, 3524.842
1118.127, 3508.233
1118.609, 3504.916
1119.092, 3509.645
1119.574, 3499.982
1120.056, 3478.966
1120.538, 3460.044
1121.020, 3447.320
1121.502, 3440.826
1121.984, 3445.573
1122.466, 3453.561
1122.949, 3455.478
1123.431, 3451.202
1123.913, 3446.193
1124.395, 3440.824
1124.877, 3435.422
1125.359, 3425.225
1125.841, 3419.291
1126.323, 3429.567
1126.805, 3453.948
1127.288, 3464.652
1127.770, 3459.326
1128.252, 3450.358
1128.734, 3439.866
1129.216, 3430.634
1129.698, 3425.261
1130.180, 3424.022
1130.662, 3428.545
1131.145, 3444.635
1131.627, 3450.659
1132.109, 3442.065
1132.591, 3430.883
1133.073, 3420.784
1133.555, 3414.887
1134.037, 3429.174
1134.519, 3457.396
1135.001, 3474.640
1135.484, 3456.083
1135.966, 3442.886
1136.448, 3450.226
1136.930, 3462.044
1137.412, 3452.646
1137.894, 3426.073
1138.376, 3406.335
1138.858, 3396.239
1139.340, 3398.046
1139.823, 3431.088
1140.305, 3459.840
1140.787, 3457.957
1141.269, 3432.227
1141.751, 3416.817
1142.233, 3411.774
1142.715, 3408.110
1143.197, 3401.404
1143.680, 3397.959
1144.162, 3409.465
1144.644, 3424.708
1145.126, 3427.983
1145.608, 3412.942
1146.090, 3408.233
1146.572, 3415.070
1147.054, 3425.881
1147.536, 3439.536
1148.019, 3451.057
1148.501, 3449.111
1148.983, 3438.749
1149.465, 3436.692
1149.947, 3449.077
1150.429, 3466.528
1150.911, 3492.192
1151.393, 3513.111
1151.875, 3510.440
1152.358, 3492.009
1152.840, 3471.260
1153.322, 3449.772
1153.804, 3432.644
1154.286, 3422.594
1154.768, 3417.177
1155.250, 3417.139
1155.732, 3420.253
1156.215, 3419.699
1156.697, 3416.910
1157.179, 3416.873
1157.661, 3421.629
1158.143, 3428.470
1158.625, 3444.205
1159.107, 3454.405
1159.589, 3446.748
1160.072, 3422.044
1160.554, 3397.705
1161.036, 3374.842
1161.518, 3367.601
1162.000, 3399.237
1162.482, 3433.204
1162.964, 3448.526
1163.446, 3451.365
1163.928, 3451.730
1164.411, 3448.981
1164.893, 3448.940
1165.375, 3452.276
1165.857, 3456.436
1166.339, 3462.296
1166.821, 3465.655
1167.303, 3461.762
1167.785, 3451.120
1168.267, 3441.003
1168.750, 3429.661
1169.232, 3430.188
1169.714, 3450.937
1170.196, 3471.818
1170.678, 3465.420
1171.160, 3445.417
1171.642, 3427.677
1172.124, 3413.981
1172.607, 3409.382
1173.089, 3415.857
1173.571, 3425.221
1174.053, 3435.016
1174.535, 3443.078
1175.017, 3442.435
1175.499, 3437.138
1175.981, 3436.466
1176.464, 3448.795
1176.946, 3457.545
1177.428, 3461.936
1177.910, 3462.441
1178.392, 3459.155
1178.874, 3452.411
1179.356, 3439.490
1179.838, 3422.185
1180.320, 3412.949
1180.802, 3420.605
1181.285, 3432.332
1181.767, 3447.307
1182.249, 3462.126
1182.731, 3474.162
1183.213, 3481.325
1183.695, 3472.656
1184.177, 3444.364
1184.659, 3425.763
1185.142, 3442.159
1185.624, 3457.552
1186.106, 3454.701
1186.588, 3439.676
1187.070, 3433.596
1187.552, 3435.131
1188.034, 3437.889
1188.516, 3439.307
1188.999, 3442.603
1189.481, 3455.991
1189.963, 3465.863
1190.445, 3458.160
1190.927, 3434.053
1191.409, 3431.406
1191.891, 3448.091
1192.373, 3464.008
1192.855, 3468.885
1193.338, 3468.611
1193.820, 3464.109
1194.302, 3457.286
1194.784, 3449.835
1195.266, 3441.609
1195.748, 3438.585
1196.230, 3441.195
1196.712, 3444.594
1197.194, 3445.766
1197.677, 3445.967
1198.159, 3446.230
1198.641, 3446.274
1199.123, 3443.693
1199.605, 3437.969
1200.087, 3439.591
1200.569, 3451.734
1201.051, 3465.276
1201.533, 3467.479
1202.016, 3470.210
1202.498, 3491.249
1202.980, 3528.260
1203.462, 3534.534
1203.944, 3507.238
1204.426, 3476.024
1204.908, 3445.376
1205.390, 3427.886
1205.873, 3448.206
1206.355, 3482.965
1206.837, 3502.028
1207.319, 3500.803
1207.801, 3499.077
1208.283, 3496.743
1208.765, 3495.669
1209.247, 3498.586
1209.729, 3502.226
1210.212, 3505.169
1210.694, 3505.966
1211.176, 3500.215
1211.658, 3483.765
1212.140, 3475.076
1212.622, 3475.927
1213.104, 3479.987
1213.586, 3484.872
1214.068, 3487.513
1214.551, 3479.609
1215.033, 3465.261
1215.515, 3466.449
1215.997, 3491.984
1216.479, 3505.311
1216.961, 3498.005
1217.443, 3487.086
1217.925, 3492.550
1218.408, 3505.411
1218.890, 3516.267
1219.372, 3523.935
1219.854, 3527.770
1220.336, 3527.172
1220.818, 3525.343
1221.300, 3523.117
1221.782, 3520.525
1222.265, 3513.772
1222.747, 3508.495
1223.229, 3514.163
1223.711, 3536.775
1224.193, 3551.378
1224.675, 3556.309
1225.157, 3559.060
1225.639, 3565.538
1226.121, 3569.395
1226.604, 3553.364
1227.086, 3529.746
1227.568, 3522.764
1228.050, 3548.133
1228.532, 3565.912
1229.014, 3575.846
1229.496, 3579.127
1229.978, 3571.685
1230.460, 3561.439
1230.943, 3564.107
1231.425, 3573.517
1231.907, 3569.263
1232.389, 3532.565
1232.871, 3522.609
1233.353, 3549.479
1233.835, 3580.781
1234.317, 3581.190
1234.800, 3568.328
1235.282, 3566.356
1235.764, 3574.070
1236.246, 3571.768
1236.728, 3551.378
1237.210, 3540.595
1237.692, 3545.521
1238.174, 3557.415
1238.656, 3570.539
1239.139, 3580.895
1239.621, 3579.992
1240.103, 3566.928
1240.585, 3565.859
1241.067, 3582.469
1241.549, 3593.094
1242.031, 3588.259
1242.513, 3580.293
1242.995, 3584.850
1243.478, 3596.588
1243.960, 3610.736
1244.442, 3629.117
1244.924, 3631.794
1245.406, 3615.401
1245.888, 3598.101
1246.370, 3585.718
1246.852, 3579.908
1247.335, 3587.257
1247.817, 3600.992
1248.299, 3610.859
1248.781, 3615.799
1249.263, 3615.683
1249.745, 3609.782
1250.227, 3603.646
1250.709, 3600.991
1251.192, 3599.780
1251.674, 3597.725
1252.156, 3595.543
1252.638, 3594.777
1253.120, 3595.783
1253.602, 3596.676
1254.084, 3597.239
1254.566, 3599.001
1255.048, 3604.816
1255.531, 3610.946
1256.013, 3616.172
1256.495, 3618.400
1256.977, 3610.472
1257.459, 3588.459
1257.941, 3582.812
1258.423, 3597.830
1258.905, 3619.770
1259.387, 3643.100
1259.870, 3662.780
1260.352, 3675.606
1260.834, 3680.768
1261.316, 3673.258
1261.798, 3652.307
1262.280, 3636.808
1262.762, 3630.093
1263.244, 3631.010
1263.726, 3644.306
1264.209, 3659.986
1264.691, 3671.370
1265.173, 3678.390
1265.655, 3680.209
1266.137, 3676.859
1266.619, 3668.358
1267.101, 3652.386
1267.583, 3639.688
1268.066, 3635.976
1268.548, 3640.757
1269.030, 3656.966
1269.512, 3680.883
1269.994, 3685.262
1270.476, 3672.740
1270.958, 3662.916
1271.440, 3663.698
1271.922, 3666.581
1272.405, 3670.521
1272.887, 3671.827
1273.369, 3666.570
1273.851, 3656.143
1274.333, 3650.305
1274.815, 3648.864
1275.297, 3650.950
1275.779, 3658.775
1276.261, 3666.461
1276.744, 3674.029
1277.226, 3678.959
1277.708, 3677.743
1278.190, 3672.084
1278.672, 3668.120
1279.154, 3666.075
1279.636, 3666.424
1280.118, 3677.531
1280.601, 3677.914
1281.083, 3660.106
1281.565, 3639.769
1282.047, 3633.892
##END=



