##NAMES=Pectolite
##RRUFFID=R050396
##IDEAL CHEMISTRY=NaCa_2_Si_3_O_8_(OH)
##LOCALITY=Jeffrey Quarry, Asbestos, Quebec, Canada
##OWNER=RRUFF
##SOURCE=Marcus Origlieri
##DESCRIPTION=Colorless to gray columnar blocky crystals
##STATUS=The identification of this mineral has been confirmed by X-ray diffraction and chemical analysis
##URL=rruff.info/R050396
##MEASURED CHEMISTRY=Na_1.00_Ca_2.00_Si_3.00_O_8_(OH)
92.35352, 61.06951
92.83563, 59.34096
93.31775, 58.60615
93.79987, 58.88282
94.28198, 60.15635
94.76410, 62.36198
95.24622, 65.36006
95.72833, 69.39929
96.21045, 74.68099
96.69257, 81.18144
97.17468, 89.55003
97.65680, 102.3888
98.13892, 119.5908
98.62103, 132.0904
99.10315, 135.3786
99.58527, 131.3462
100.0674, 132.6890
100.5495, 140.0922
101.0316, 151.3561
101.5137, 163.8555
101.9958, 177.6061
102.4780, 192.8288
102.9601, 209.6031
103.4422, 228.0293
103.9243, 247.2713
104.4064, 267.5095
104.8885, 288.5490
105.3707, 310.5292
105.8528, 333.1733
106.3349, 356.8910
106.8170, 381.8373
107.2991, 409.2187
107.7813, 435.5134
108.2634, 459.7776
108.7455, 482.9435
109.2276, 507.2303
109.7097, 536.7163
110.1918, 564.5721
110.6740, 588.0058
111.1561, 601.4934
111.6382, 616.6813
112.1203, 633.6125
112.6024, 652.6670
113.0845, 675.2277
113.5667, 701.7031
114.0488, 731.5322
114.5309, 764.6710
115.0130, 801.3557
115.4951, 840.8404
115.9772, 883.9680
116.4594, 930.9966
116.9415, 978.1591
117.4236, 1027.030
117.9057, 1074.416
118.3878, 1116.720
118.8699, 1146.917
119.3521, 1176.380
119.8342, 1213.357
120.3163, 1259.091
120.7984, 1304.027
121.2805, 1343.207
121.7626, 1377.593
122.2448, 1408.833
122.7269, 1439.235
123.2090, 1466.118
123.6911, 1485.933
124.1732, 1497.341
124.6553, 1505.727
125.1375, 1514.294
125.6196, 1523.485
126.1017, 1534.709
126.5838, 1548.547
127.0659, 1565.045
127.5480, 1584.211
128.0302, 1606.026
128.5123, 1630.782
128.9944, 1658.490
129.4765, 1689.251
129.9586, 1723.981
130.4407, 1765.061
130.9229, 1811.177
131.4050, 1857.180
131.8871, 1900.602
132.3692, 1943.472
132.8513, 1990.380
133.3334, 2038.455
133.8156, 2077.238
134.2977, 2105.111
134.7798, 2129.452
135.2619, 2151.609
135.7440, 2172.301
136.2261, 2191.060
136.7083, 2206.359
137.1904, 2217.505
137.6725, 2227.920
138.1546, 2240.931
138.6367, 2256.648
139.1188, 2274.736
139.6010, 2296.233
140.0831, 2321.083
140.5652, 2343.199
141.0473, 2362.181
141.5294, 2379.422
142.0115, 2396.526
142.4937, 2414.083
142.9758, 2430.432
143.4579, 2445.479
143.9400, 2459.410
144.4221, 2470.116
144.9042, 2474.824
145.3864, 2477.798
145.8685, 2486.482
146.3506, 2504.542
146.8327, 2523.272
147.3148, 2540.969
147.7969, 2561.010
148.2791, 2572.356
148.7612, 2574.842
149.2433, 2568.938
149.7254, 2555.388
150.2075, 2535.792
150.6896, 2507.495
151.1718, 2469.537
151.6539, 2416.795
152.1360, 2362.169
152.6181, 2302.975
153.1002, 2241.607
153.5823, 2185.517
154.0645, 2134.435
154.5466, 2088.532
155.0287, 2047.869
155.5108, 2010.886
155.9929, 1980.041
156.4750, 1958.952
156.9572, 1945.322
157.4393, 1930.440
157.9214, 1909.413
158.4035, 1888.199
158.8856, 1870.450
159.3677, 1858.946
159.8499, 1848.913
160.3320, 1839.618
160.8141, 1830.977
161.2962, 1822.427
161.7783, 1812.105
162.2604, 1802.662
162.7426, 1796.281
163.2247, 1796.459
163.7068, 1797.327
164.1889, 1795.415
164.6710, 1791.034
165.1531, 1788.673
165.6353, 1792.342
166.1174, 1798.553
166.5995, 1803.547
167.0816, 1805.740
167.5637, 1806.446
168.0458, 1805.542
168.5280, 1803.058
169.0101, 1801.902
169.4922, 1805.996
169.9743, 1812.169
170.4564, 1815.965
170.9385, 1812.342
171.4207, 1807.485
171.9028, 1807.106
172.3849, 1811.554
172.8670, 1817.452
173.3491, 1823.822
173.8312, 1829.797
174.3134, 1833.715
174.7955, 1832.436
175.2776, 1829.719
175.7597, 1830.128
176.2418, 1834.094
176.7239, 1839.573
177.2061, 1844.817
177.6882, 1850.157
178.1703, 1856.361
178.6524, 1863.025
179.1345, 1871.060
179.6166, 1881.999
180.0988, 1896.156
180.5809, 1912.500
181.0630, 1929.772
181.5451, 1948.297
182.0272, 1968.649
182.5093, 1993.594
182.9915, 2020.730
183.4736, 2044.715
183.9557, 2066.023
184.4378, 2081.943
184.9199, 2089.421
185.4020, 2088.505
185.8842, 2080.365
186.3663, 2062.760
186.8484, 2037.838
187.3305, 2013.112
187.8126, 1988.031
188.2947, 1965.512
188.7769, 1950.615
189.2590, 1943.129
189.7411, 1938.801
190.2232, 1935.651
190.7053, 1933.711
191.1874, 1932.961
191.6696, 1933.313
192.1517, 1935.026
192.6338, 1938.702
193.1159, 1944.368
193.5980, 1951.299
194.0801, 1959.050
194.5623, 1967.600
195.0444, 1977.395
195.5265, 1988.428
196.0086, 2000.651
196.4907, 2013.854
196.9728, 2027.963
197.4550, 2043.520
197.9371, 2061.026
198.4192, 2080.492
198.9013, 2101.511
199.3834, 2125.540
199.8655, 2149.496
200.3477, 2166.134
200.8298, 2174.852
201.3119, 2178.616
201.7940, 2179.250
202.2761, 2176.856
202.7582, 2170.160
203.2404, 2158.386
203.7225, 2142.786
204.2046, 2125.813
204.6867, 2106.481
205.1688, 2089.132
205.6509, 2077.337
206.1331, 2071.923
206.6152, 2065.922
207.0973, 2057.910
207.5794, 2049.362
208.0615, 2045.299
208.5436, 2046.910
209.0258, 2049.863
209.5079, 2051.444
209.9900, 2051.236
210.4721, 2051.269
210.9542, 2050.800
211.4363, 2050.957
211.9185, 2056.386
212.4006, 2069.237
212.8827, 2082.738
213.3648, 2091.880
213.8469, 2094.867
214.3290, 2100.586
214.8112, 2110.558
215.2933, 2123.496
215.7754, 2135.045
216.2575, 2144.422
216.7396, 2153.896
217.2217, 2164.545
217.7038, 2176.104
218.1860, 2189.896
218.6681, 2207.663
219.1502, 2227.406
219.6323, 2240.902
220.1144, 2245.114
220.5965, 2248.133
221.0787, 2255.134
221.5608, 2269.091
222.0429, 2279.153
222.5250, 2285.085
223.0071, 2286.652
223.4892, 2282.342
223.9714, 2270.188
224.4535, 2255.292
224.9356, 2240.541
225.4177, 2227.824
225.8998, 2210.571
226.3819, 2186.567
226.8641, 2157.947
227.3462, 2132.775
227.8283, 2111.528
228.3104, 2092.976
228.7925, 2076.984
229.2746, 2064.350
229.7568, 2051.752
230.2389, 2037.694
230.7210, 2023.661
231.2031, 2015.343
231.6852, 2015.996
232.1673, 2017.518
232.6495, 2015.924
233.1316, 2009.761
233.6137, 2003.591
234.0958, 1996.860
234.5779, 1990.387
235.0600, 1987.018
235.5422, 1989.440
236.0243, 1991.036
236.5064, 1988.255
236.9885, 1977.119
237.4706, 1970.622
237.9527, 1970.680
238.4349, 1974.949
238.9170, 1977.546
239.3991, 1977.200
239.8812, 1977.069
240.3633, 1978.506
240.8454, 1982.049
241.3276, 1985.869
241.8097, 1990.149
242.2918, 1994.586
242.7739, 1998.251
243.2560, 1999.804
243.7381, 2002.674
244.2203, 2008.533
244.7024, 2018.970
245.1845, 2027.826
245.6666, 2034.168
246.1487, 2039.367
246.6308, 2046.204
247.1130, 2055.208
247.5951, 2065.042
248.0772, 2075.504
248.5593, 2087.363
249.0414, 2097.110
249.5235, 2103.808
250.0057, 2108.950
250.4878, 2115.025
250.9699, 2122.046
251.4520, 2130.013
251.9341, 2139.160
252.4162, 2150.003
252.8984, 2159.591
253.3805, 2167.396
253.8626, 2174.409
254.3447, 2182.026
254.8268, 2191.113
255.3089, 2199.250
255.7911, 2205.416
256.2732, 2209.345
256.7553, 2213.958
257.2374, 2219.968
257.7195, 2225.985
258.2017, 2230.573
258.6838, 2234.308
259.1659, 2235.270
259.6480, 2231.865
260.1301, 2223.841
260.6122, 2219.363
261.0944, 2219.553
261.5765, 2221.920
262.0586, 2223.856
262.5407, 2225.046
263.0228, 2226.709
263.5049, 2229.144
263.9871, 2232.360
264.4692, 2235.735
264.9513, 2239.203
265.4334, 2243.001
265.9155, 2247.215
266.3976, 2251.400
266.8798, 2257.414
267.3619, 2266.425
267.8440, 2277.845
268.3261, 2285.929
268.8082, 2289.546
269.2903, 2292.169
269.7725, 2296.821
270.2546, 2304.133
270.7367, 2310.266
271.2188, 2314.601
271.7009, 2317.301
272.1830, 2318.998
272.6652, 2319.487
273.1473, 2319.464
273.6294, 2319.327
274.1115, 2319.052
274.5936, 2318.869
275.0757, 2319.068
275.5579, 2319.163
276.0400, 2317.445
276.5221, 2313.451
277.0042, 2309.427
277.4863, 2307.445
277.9684, 2307.854
278.4506, 2305.112
278.9327, 2298.210
279.4148, 2288.793
279.8969, 2280.046
280.3790, 2271.999
280.8611, 2264.535
281.3433, 2257.744
281.8254, 2251.607
282.3075, 2245.274
282.7896, 2238.315
283.2717, 2232.005
283.7538, 2229.118
284.2360, 2229.816
284.7181, 2229.993
285.2002, 2226.647
285.6823, 2220.488
286.1644, 2218.379
286.6465, 2220.849
287.1287, 2225.442
287.6108, 2229.500
288.0929, 2233.008
288.5750, 2235.865
289.0571, 2237.027
289.5392, 2237.474
290.0214, 2241.950
290.5035, 2250.884
290.9856, 2260.114
291.4677, 2264.345
291.9498, 2264.500
292.4319, 2266.035
292.9141, 2270.323
293.3962, 2277.241
293.8783, 2287.603
294.3604, 2301.438
294.8425, 2315.176
295.3246, 2325.615
295.8068, 2333.564
296.2889, 2341.297
296.7710, 2348.946
297.2531, 2357.310
297.7352, 2368.199
298.2173, 2381.302
298.6995, 2394.452
299.1816, 2404.674
299.6637, 2413.833
300.1458, 2426.086
300.6279, 2443.314
301.1100, 2461.521
301.5922, 2474.265
302.0743, 2482.978
302.5564, 2493.486
303.0385, 2510.255
303.5206, 2530.594
304.0027, 2551.414
304.4849, 2572.360
304.9670, 2592.675
305.4491, 2609.131
305.9312, 2623.985
306.4133, 2642.665
306.8954, 2670.987
307.3776, 2702.879
307.8597, 2731.243
308.3418, 2755.560
308.8239, 2780.644
309.3060, 2809.286
309.7881, 2841.515
310.2703, 2876.386
310.7524, 2915.915
311.2345, 2956.676
311.7166, 2996.285
312.1987, 3034.677
312.6808, 3071.527
313.1630, 3108.109
313.6451, 3142.831
314.1272, 3174.322
314.6093, 3204.272
315.0914, 3228.394
315.5735, 3244.031
316.0557, 3251.553
316.5378, 3253.008
317.0199, 3249.828
317.5020, 3240.641
317.9841, 3223.624
318.4662, 3193.085
318.9484, 3163.105
319.4305, 3138.356
319.9126, 3117.699
320.3947, 3098.120
320.8768, 3078.330
321.3589, 3059.734
321.8411, 3043.000
322.3232, 3028.634
322.8053, 3015.533
323.2874, 3007.420
323.7695, 2999.742
324.2516, 2985.285
324.7338, 2958.872
325.2159, 2929.258
325.6980, 2898.621
326.1801, 2866.727
326.6622, 2834.935
327.1443, 2803.457
327.6265, 2771.882
328.1086, 2739.645
328.5907, 2702.565
329.0728, 2669.932
329.5549, 2643.925
330.0370, 2624.518
330.5192, 2606.528
331.0013, 2589.477
331.4834, 2574.120
331.9655, 2560.765
332.4476, 2549.150
332.9297, 2540.007
333.4119, 2534.070
333.8940, 2530.733
334.3761, 2527.333
334.8582, 2522.918
335.3403, 2519.993
335.8224, 2519.769
336.3046, 2522.358
336.7867, 2527.481
337.2688, 2535.997
337.7509, 2546.373
338.2330, 2555.398
338.7151, 2562.170
339.1973, 2570.301
339.6794, 2582.321
340.1615, 2598.486
340.6436, 2610.522
341.1257, 2617.117
341.6078, 2622.312
342.0899, 2631.622
342.5721, 2645.228
343.0542, 2658.820
343.5363, 2670.798
344.0184, 2681.694
344.5005, 2693.681
344.9826, 2706.546
345.4648, 2721.438
345.9469, 2740.292
346.4290, 2762.740
346.9111, 2783.424
347.3932, 2800.286
347.8753, 2816.417
348.3575, 2836.494
348.8396, 2860.403
349.3217, 2888.784
349.8038, 2923.630
350.2859, 2962.919
350.7680, 3001.630
351.2502, 3038.847
351.7323, 3076.523
352.2144, 3116.786
352.6965, 3159.539
353.1786, 3203.316
353.6607, 3250.722
354.1429, 3297.344
354.6250, 3338.016
355.1071, 3372.550
355.5892, 3401.904
356.0713, 3431.741
356.5534, 3455.933
357.0356, 3465.312
357.5177, 3451.282
357.9998, 3425.735
358.4819, 3394.353
358.9640, 3357.810
359.4461, 3320.551
359.9283, 3282.934
360.4104, 3246.600
360.8925, 3212.401
361.3746, 3177.970
361.8567, 3150.039
362.3388, 3133.834
362.8210, 3126.245
363.3031, 3119.830
363.7852, 3110.076
364.2673, 3102.703
364.7494, 3100.570
365.2315, 3104.701
365.7137, 3111.393
366.1958, 3120.708
366.6779, 3131.875
367.1600, 3144.073
367.6421, 3154.914
368.1242, 3169.157
368.6064, 3186.920
369.0885, 3208.255
369.5706, 3236.268
370.0527, 3274.115
370.5348, 3316.365
371.0169, 3359.898
371.4991, 3401.716
371.9812, 3449.300
372.4633, 3504.847
372.9454, 3566.722
373.4275, 3628.277
373.9096, 3691.148
374.3918, 3752.161
374.8739, 3810.001
375.3560, 3867.177
375.8381, 3914.608
376.3202, 3955.317
376.8023, 3981.747
377.2845, 3981.178
377.7666, 3952.058
378.2487, 3903.737
378.7308, 3837.824
379.2129, 3754.906
379.6950, 3661.556
380.1772, 3554.725
380.6593, 3449.015
381.1414, 3354.575
381.6235, 3272.059
382.1056, 3200.187
382.5877, 3140.577
383.0699, 3090.018
383.5520, 3041.860
384.0341, 2996.196
384.5162, 2958.373
384.9983, 2934.179
385.4804, 2919.585
385.9626, 2905.748
386.4447, 2891.677
386.9268, 2878.961
387.4089, 2868.565
387.8910, 2860.674
388.3731, 2855.970
388.8553, 2856.806
389.3374, 2859.621
389.8195, 2860.555
390.3016, 2859.737
390.7837, 2860.323
391.2658, 2864.082
391.7480, 2870.358
392.2301, 2878.596
392.7122, 2889.668
393.1943, 2901.308
393.6764, 2911.514
394.1585, 2921.349
394.6407, 2933.556
395.1228, 2951.370
395.6049, 2970.086
396.0870, 2987.176
396.5691, 3001.168
397.0512, 3017.155
397.5334, 3035.930
398.0155, 3057.366
398.4976, 3081.016
398.9797, 3110.749
399.4618, 3138.630
399.9439, 3161.437
400.4261, 3179.167
400.9082, 3201.816
401.3903, 3232.012
401.8724, 3264.531
402.3545, 3296.096
402.8366, 3325.052
403.3188, 3355.665
403.8009, 3387.227
404.2830, 3420.976
404.7651, 3461.134
405.2472, 3509.468
405.7293, 3558.052
406.2115, 3603.345
406.6936, 3644.833
407.1757, 3688.122
407.6578, 3733.412
408.1399, 3780.362
408.6220, 3831.809
409.1042, 3887.527
409.5863, 3936.374
410.0684, 3975.077
410.5505, 4005.214
411.0326, 4033.769
411.5147, 4060.614
411.9969, 4079.030
412.4790, 4086.440
412.9611, 4081.945
413.4432, 4062.370
413.9253, 4025.917
414.4074, 3979.159
414.8896, 3927.379
415.3717, 3870.663
415.8538, 3809.362
416.3359, 3742.031
416.8180, 3671.644
417.3001, 3600.005
417.7823, 3526.500
418.2644, 3457.754
418.7465, 3397.724
419.2286, 3342.404
419.7107, 3288.304
420.1928, 3229.325
420.6750, 3177.355
421.1571, 3140.097
421.6392, 3113.243
422.1213, 3086.663
422.6034, 3055.018
423.0855, 3025.427
423.5677, 3000.478
424.0498, 2980.955
424.5319, 2964.812
425.0140, 2955.688
425.4961, 2948.031
425.9782, 2935.958
426.4604, 2913.612
426.9425, 2895.547
427.4246, 2884.507
427.9067, 2879.683
428.3888, 2876.399
428.8709, 2875.902
429.3531, 2874.774
429.8352, 2870.202
430.3173, 2860.829
430.7994, 2855.730
431.2815, 2856.505
431.7636, 2859.329
432.2458, 2857.631
432.7279, 2851.105
433.2100, 2844.542
433.6921, 2838.850
434.1742, 2834.472
434.6563, 2834.719
435.1385, 2839.787
435.6206, 2843.451
436.1027, 2837.372
436.5848, 2825.640
437.0669, 2820.175
437.5490, 2824.894
438.0312, 2832.365
438.5133, 2834.850
438.9954, 2833.357
439.4775, 2830.616
439.9596, 2825.473
440.4417, 2821.403
440.9239, 2822.916
441.4060, 2830.293
441.8881, 2836.510
442.3702, 2835.414
442.8523, 2832.147
443.3344, 2831.688
443.8166, 2838.092
444.2987, 2844.236
444.7808, 2848.204
445.2629, 2850.245
445.7450, 2851.139
446.2271, 2848.867
446.7093, 2847.283
447.1914, 2848.058
447.6735, 2852.056
448.1556, 2855.671
448.6377, 2858.521
449.1198, 2861.193
449.6020, 2864.176
450.0841, 2866.945
450.5662, 2871.262
451.0483, 2878.743
451.5304, 2887.957
452.0125, 2891.438
452.4947, 2887.253
452.9768, 2883.395
453.4589, 2884.677
453.9410, 2891.246
454.4231, 2897.751
454.9052, 2904.433
455.3874, 2910.020
455.8695, 2911.604
456.3516, 2909.931
456.8337, 2910.636
457.3158, 2916.627
457.7979, 2925.155
458.2801, 2931.764
458.7622, 2936.532
459.2443, 2940.122
459.7264, 2941.932
460.2085, 2943.253
460.6906, 2946.442
461.1728, 2952.613
461.6549, 2957.152
462.1370, 2954.406
462.6191, 2948.386
463.1012, 2945.020
463.5833, 2950.237
464.0655, 2955.090
464.5476, 2955.809
465.0297, 2952.530
465.5118, 2947.224
465.9939, 2935.481
466.4760, 2925.456
466.9582, 2922.242
467.4403, 2933.065
467.9224, 2938.224
468.4045, 2934.293
468.8866, 2925.806
469.3687, 2918.744
469.8509, 2912.174
470.3330, 2909.177
470.8151, 2911.771
471.2972, 2919.217
471.7793, 2923.173
472.2614, 2922.587
472.7436, 2921.567
473.2257, 2923.776
473.7078, 2929.323
474.1899, 2931.579
474.6720, 2929.485
475.1541, 2925.583
475.6363, 2922.150
476.1184, 2919.612
476.6005, 2921.032
477.0826, 2931.215
477.5647, 2943.928
478.0468, 2947.731
478.5290, 2943.471
479.0111, 2938.834
479.4932, 2939.083
479.9753, 2942.070
480.4574, 2945.855
480.9395, 2950.884
481.4217, 2954.055
481.9038, 2949.944
482.3859, 2943.496
482.8680, 2942.061
483.3501, 2953.907
483.8322, 2965.446
484.3144, 2971.426
484.7965, 2971.985
485.2786, 2972.409
485.7607, 2971.620
486.2428, 2972.278
486.7249, 2976.148
487.2071, 2986.603
487.6892, 2992.670
488.1713, 2991.707
488.6534, 2988.247
489.1355, 2988.941
489.6176, 2994.882
490.0998, 3002.257
490.5819, 3011.173
491.0640, 3020.915
491.5461, 3026.066
492.0282, 3025.778
492.5103, 3027.695
492.9925, 3039.559
493.4746, 3059.078
493.9567, 3072.788
494.4388, 3079.236
494.9209, 3083.428
495.4030, 3089.589
495.8852, 3097.919
496.3673, 3109.446
496.8494, 3127.953
497.3315, 3146.295
497.8136, 3157.586
498.2957, 3162.745
498.7779, 3165.212
499.2600, 3165.624
499.7421, 3164.845
500.2242, 3164.628
500.7063, 3166.646
501.1884, 3162.562
501.6706, 3142.934
502.1527, 3119.169
502.6348, 3103.107
503.1169, 3102.982
503.5990, 3102.765
504.0811, 3101.185
504.5633, 3098.360
505.0454, 3094.235
505.5275, 3087.148
506.0096, 3081.798
506.4917, 3080.749
506.9738, 3084.509
507.4560, 3085.921
507.9381, 3084.429
508.4202, 3082.046
508.9023, 3081.137
509.3844, 3081.557
509.8665, 3080.683
510.3487, 3077.734
510.8308, 3073.836
511.3129, 3069.493
511.7950, 3065.369
512.2772, 3064.536
512.7593, 3071.929
513.2414, 3081.749
513.7235, 3086.944
514.2056, 3087.482
514.6877, 3086.666
515.1699, 3083.500
515.6520, 3081.530
516.1341, 3084.801
516.6162, 3098.388
517.0983, 3108.949
517.5804, 3109.489
518.0626, 3104.755
518.5447, 3102.549
519.0268, 3106.650
519.5089, 3110.657
519.9910, 3113.406
520.4731, 3114.909
520.9553, 3114.862
521.4374, 3111.453
521.9195, 3109.232
522.4016, 3111.447
522.8837, 3119.377
523.3658, 3124.813
523.8480, 3127.065
524.3301, 3128.269
524.8122, 3130.757
525.2943, 3134.566
525.7764, 3140.464
526.2585, 3149.701
526.7407, 3159.998
527.2228, 3166.690
527.7049, 3170.442
528.1870, 3174.883
528.6691, 3182.780
529.1512, 3192.329
529.6334, 3202.421
530.1155, 3213.126
530.5976, 3220.868
531.0797, 3218.828
531.5618, 3215.013
532.0439, 3217.661
532.5261, 3234.917
533.0082, 3249.948
533.4903, 3257.746
533.9724, 3260.562
534.4545, 3263.384
534.9366, 3263.945
535.4188, 3267.782
535.9009, 3278.546
536.3830, 3295.932
536.8651, 3304.614
537.3472, 3301.458
537.8293, 3295.921
538.3115, 3293.975
538.7936, 3295.851
539.2757, 3299.158
539.7578, 3304.547
540.2399, 3309.229
540.7220, 3307.774
541.2042, 3301.517
541.6863, 3298.203
542.1684, 3301.405
542.6505, 3307.241
543.1326, 3310.874
543.6147, 3312.452
544.0969, 3312.675
544.5790, 3309.237
545.0611, 3306.336
545.5432, 3309.013
546.0253, 3318.017
546.5074, 3324.063
546.9896, 3319.717
547.4717, 3312.708
547.9538, 3309.257
548.4359, 3311.342
548.9180, 3315.899
549.4001, 3326.964
549.8823, 3339.122
550.3644, 3342.245
550.8465, 3329.571
551.3286, 3320.913
551.8107, 3322.769
552.2928, 3333.275
552.7750, 3338.157
553.2571, 3336.602
553.7392, 3333.676
554.2213, 3331.869
554.7034, 3331.301
555.1855, 3333.323
555.6677, 3338.344
556.1498, 3343.236
556.6319, 3344.290
557.1140, 3342.771
557.5961, 3340.972
558.0782, 3338.417
558.5604, 3337.661
559.0425, 3343.930
559.5246, 3353.555
560.0067, 3358.311
560.4888, 3349.073
560.9709, 3339.399
561.4531, 3335.728
561.9352, 3338.277
562.4173, 3341.165
562.8994, 3346.132
563.3815, 3349.171
563.8636, 3347.475
564.3458, 3337.099
564.8279, 3333.394
565.3100, 3339.448
565.7921, 3348.265
566.2742, 3350.718
566.7563, 3346.334
567.2385, 3340.071
567.7206, 3331.560
568.2027, 3323.595
568.6848, 3324.719
569.1669, 3333.607
569.6490, 3340.267
570.1312, 3336.294
570.6133, 3328.302
571.0954, 3326.225
571.5775, 3329.942
572.0596, 3334.544
572.5417, 3339.088
573.0239, 3341.843
573.5060, 3340.227
573.9881, 3330.870
574.4702, 3325.263
574.9523, 3331.185
575.4344, 3341.142
575.9166, 3345.567
576.3987, 3338.950
576.8808, 3333.234
577.3629, 3328.871
577.8450, 3326.370
578.3271, 3328.289
578.8093, 3336.784
579.2914, 3343.096
579.7735, 3342.378
580.2556, 3335.790
580.7377, 3332.492
581.2198, 3332.620
581.7020, 3334.342
582.1841, 3338.257
582.6662, 3342.375
583.1483, 3340.563
583.6304, 3330.822
584.1125, 3321.843
584.5947, 3323.845
585.0768, 3330.938
585.5589, 3334.467
586.0410, 3328.761
586.5231, 3322.126
587.0052, 3315.763
587.4873, 3311.061
587.9694, 3311.723
588.4515, 3328.270
588.9337, 3340.128
589.4158, 3339.372
589.8979, 3325.913
590.3800, 3317.762
590.8621, 3315.681
591.3442, 3317.487
591.8264, 3323.957
592.3085, 3335.833
592.7906, 3338.731
593.2727, 3330.300
593.7548, 3319.429
594.2369, 3316.720
594.7191, 3320.439
595.2012, 3324.167
595.6833, 3326.409
596.1654, 3327.805
596.6475, 3328.933
597.1296, 3329.770
597.6118, 3330.283
598.0939, 3331.517
598.5760, 3331.582
599.0581, 3328.284
599.5402, 3322.262
600.0223, 3318.418
600.5045, 3318.871
600.9866, 3321.047
601.4687, 3324.575
601.9508, 3330.768
602.4329, 3332.166
602.9150, 3326.078
603.3972, 3318.919
603.8793, 3316.576
604.3614, 3319.410
604.8435, 3323.114
605.3256, 3327.794
605.8077, 3331.545
606.2899, 3329.556
606.7720, 3323.258
607.2541, 3319.762
607.7362, 3323.262
608.2183, 3329.135
608.7004, 3332.806
609.1826, 3334.401
609.6647, 3334.235
610.1468, 3328.546
610.6289, 3324.395
611.1110, 3327.865
611.5931, 3339.619
612.0753, 3348.024
612.5574, 3348.265
613.0395, 3346.560
613.5216, 3346.250
614.0037, 3347.010
614.4858, 3350.601
614.9680, 3359.235
615.4501, 3367.679
615.9322, 3367.750
616.4143, 3358.715
616.8964, 3355.172
617.3785, 3361.010
617.8607, 3371.331
618.3428, 3378.391
618.8249, 3382.655
619.3070, 3386.082
619.7891, 3387.886
620.2712, 3390.536
620.7534, 3397.835
621.2355, 3408.761
621.7176, 3418.147
622.1997, 3420.882
622.6818, 3423.600
623.1639, 3429.996
623.6461, 3440.655
624.1282, 3453.438
624.6103, 3470.920
625.0924, 3488.061
625.5745, 3500.949
626.0566, 3506.327
626.5388, 3517.334
627.0209, 3535.175
627.5030, 3556.735
627.9851, 3578.306
628.4672, 3599.680
628.9493, 3620.562
629.4315, 3639.672
629.9136, 3660.431
630.3957, 3687.826
630.8778, 3721.069
631.3599, 3757.568
631.8420, 3796.564
632.3242, 3837.985
632.8063, 3879.911
633.2884, 3923.261
633.7705, 3974.706
634.2526, 4040.523
634.7347, 4111.580
635.2169, 4184.259
635.6990, 4257.324
636.1811, 4334.977
636.6632, 4416.656
637.1453, 4503.975
637.6274, 4598.521
638.1096, 4702.529
638.5917, 4802.334
639.0738, 4896.466
639.5559, 4991.134
640.0380, 5094.756
640.5201, 5207.259
641.0023, 5325.288
641.4844, 5449.032
641.9665, 5578.858
642.4486, 5715.341
642.9307, 5861.559
643.4128, 6021.658
643.8950, 6204.434
644.3771, 6396.510
644.8592, 6595.592
645.3413, 6799.723
645.8234, 7009.940
646.3055, 7228.559
646.7877, 7447.096
647.2698, 7663.844
647.7519, 7881.211
648.2340, 8080.113
648.7161, 8262.562
649.1982, 8419.957
649.6804, 8551.046
650.1625, 8653.180
650.6446, 8704.613
651.1267, 8705.415
651.6088, 8646.398
652.0909, 8511.843
652.5731, 8312.943
653.0552, 8062.501
653.5373, 7753.603
654.0194, 7421.679
654.5015, 7064.842
654.9836, 6700.024
655.4658, 6349.907
655.9479, 6007.333
656.4300, 5696.625
656.9121, 5422.966
657.3942, 5181.746
657.8763, 4963.790
658.3585, 4767.922
658.8406, 4594.931
659.3227, 4447.430
659.8048, 4322.212
660.2869, 4211.194
660.7690, 4114.452
661.2512, 4027.656
661.7333, 3949.979
662.2154, 3880.430
662.6975, 3818.268
663.1796, 3763.399
663.6617, 3714.641
664.1439, 3674.557
664.6260, 3638.242
665.1081, 3600.595
665.5902, 3559.520
666.0723, 3523.182
666.5544, 3495.051
667.0366, 3472.049
667.5187, 3451.288
668.0008, 3434.299
668.4829, 3416.294
668.9650, 3395.829
669.4471, 3376.014
669.9293, 3362.290
670.4114, 3354.733
670.8935, 3347.718
671.3756, 3340.220
671.8577, 3331.708
672.3398, 3319.108
672.8220, 3304.104
673.3041, 3292.727
673.7862, 3291.144
674.2683, 3291.476
674.7504, 3287.881
675.2325, 3281.020
675.7147, 3274.907
676.1968, 3269.437
676.6789, 3266.120
677.1610, 3266.779
677.6431, 3271.665
678.1252, 3273.159
678.6074, 3269.335
679.0895, 3265.715
679.5716, 3266.023
680.0537, 3270.276
680.5358, 3274.989
681.0179, 3280.283
681.5001, 3284.621
681.9822, 3284.720
682.4643, 3283.015
682.9464, 3285.304
683.4285, 3293.876
683.9106, 3301.271
684.3928, 3301.879
684.8749, 3298.446
685.3570, 3294.357
685.8391, 3289.872
686.3212, 3285.501
686.8033, 3283.577
687.2855, 3281.075
687.7676, 3272.305
688.2497, 3253.409
688.7318, 3237.875
689.2139, 3228.897
689.6960, 3224.495
690.1782, 3220.766
690.6603, 3217.586
691.1424, 3212.115
691.6245, 3200.664
692.1066, 3187.581
692.5887, 3179.917
693.0709, 3176.805
693.5530, 3174.536
694.0351, 3172.881
694.5172, 3169.949
694.9993, 3162.618
695.4814, 3150.526
695.9636, 3144.126
696.4457, 3149.574
696.9278, 3156.494
697.4099, 3160.167
697.8920, 3159.996
698.3741, 3160.410
698.8563, 3161.511
699.3384, 3162.858
699.8205, 3164.153
700.3026, 3165.378
700.7847, 3166.457
701.2668, 3167.378
701.7490, 3168.253
702.2311, 3168.906
702.7132, 3169.700
703.1953, 3171.698
703.6774, 3177.663
704.1595, 3179.572
704.6417, 3170.895
705.1238, 3157.579
705.6059, 3148.030
706.0880, 3144.569
706.5701, 3141.846
707.0522, 3140.394
707.5344, 3138.657
708.0165, 3132.215
708.4986, 3120.588
708.9807, 3112.167
709.4628, 3110.412
709.9449, 3112.094
710.4271, 3112.164
710.9092, 3110.601
711.3913, 3107.313
711.8734, 3099.017
712.3555, 3091.782
712.8376, 3091.547
713.3198, 3096.760
713.8019, 3099.472
714.2840, 3095.105
714.7661, 3090.232
715.2482, 3086.862
715.7303, 3085.010
716.2125, 3085.566
716.6946, 3089.916
717.1767, 3092.894
717.6588, 3089.353
718.1409, 3080.826
718.6230, 3081.062
719.1052, 3090.299
719.5873, 3098.895
720.0694, 3098.293
720.5515, 3093.015
721.0336, 3088.100
721.5157, 3084.017
721.9979, 3082.275
722.4800, 3085.263
722.9621, 3089.779
723.4442, 3093.467
723.9263, 3096.901
724.4084, 3097.217
724.8906, 3091.732
725.3727, 3086.266
725.8548, 3088.446
726.3369, 3099.177
726.8190, 3102.742
727.3011, 3095.927
727.7833, 3086.549
728.2654, 3084.535
728.7475, 3087.919
729.2296, 3092.592
729.7117, 3099.109
730.1938, 3102.999
730.6760, 3097.919
731.1581, 3089.074
731.6402, 3084.396
732.1223, 3089.132
732.6044, 3094.165
733.0865, 3099.328
733.5687, 3103.540
734.0508, 3103.901
734.5329, 3099.233
735.0150, 3095.774
735.4971, 3095.347
735.9792, 3096.906
736.4614, 3098.800
736.9435, 3100.785
737.4256, 3101.590
737.9077, 3098.306
738.3898, 3095.303
738.8719, 3097.770
739.3541, 3104.159
739.8362, 3109.029
740.3183, 3110.135
740.8004, 3109.613
741.2825, 3106.389
741.7646, 3101.285
742.2468, 3102.443
742.7289, 3113.294
743.2110, 3121.640
743.6931, 3120.554
744.1752, 3112.007
744.6573, 3106.805
745.1395, 3104.969
745.6216, 3105.612
746.1037, 3111.245
746.5858, 3117.324
747.0679, 3116.648
747.5500, 3109.281
748.0322, 3104.253
748.5143, 3107.848
748.9964, 3113.363
749.4785, 3117.057
749.9606, 3118.608
750.4427, 3118.425
750.9249, 3115.032
751.4070, 3112.360
751.8891, 3113.885
752.3712, 3119.522
752.8533, 3123.306
753.3354, 3125.083
753.8176, 3125.328
754.2997, 3122.499
754.7818, 3119.188
755.2639, 3120.402
755.7460, 3127.833
756.2281, 3133.671
756.7103, 3132.386
757.1924, 3128.514
757.6745, 3125.718
758.1566, 3123.222
758.6387, 3124.799
759.1208, 3133.331
759.6030, 3142.437
760.0851, 3144.198
760.5672, 3138.239
761.0493, 3136.794
761.5314, 3141.832
762.0135, 3148.763
762.4957, 3153.251
762.9778, 3155.421
763.4599, 3155.007
763.9420, 3150.354
764.4241, 3147.096
764.9063, 3149.818
765.3884, 3155.094
765.8705, 3158.752
766.3526, 3161.070
766.8347, 3160.077
767.3168, 3153.144
767.7990, 3145.221
768.2811, 3144.702
768.7632, 3152.021
769.2453, 3158.083
769.7274, 3161.164
770.2095, 3161.933
770.6917, 3159.162
771.1738, 3154.934
771.6559, 3154.094
772.1380, 3161.626
772.6201, 3168.337
773.1022, 3168.312
773.5844, 3164.353
774.0665, 3161.364
774.5486, 3159.287
775.0307, 3159.580
775.5128, 3164.448
775.9949, 3170.482
776.4771, 3168.255
776.9592, 3157.348
777.4413, 3151.208
777.9234, 3155.297
778.4055, 3163.655
778.8876, 3168.263
779.3698, 3169.754
779.8519, 3169.731
780.3340, 3166.969
780.8161, 3164.860
781.2982, 3165.521
781.7803, 3168.007
782.2625, 3169.711
782.7446, 3169.417
783.2267, 3169.999
783.7088, 3172.386
784.1909, 3175.785
784.6730, 3177.766
785.1552, 3178.344
785.6373, 3179.335
786.1194, 3181.791
786.6015, 3184.647
787.0836, 3185.999
787.5657, 3186.399
788.0479, 3187.385
788.5300, 3191.146
789.0121, 3194.080
789.4942, 3193.952
789.9763, 3191.527
790.4584, 3189.938
790.9406, 3189.123
791.4227, 3189.484
791.9048, 3191.742
792.3869, 3194.915
792.8690, 3195.217
793.3511, 3192.890
793.8333, 3191.583
794.3154, 3193.740
794.7975, 3197.231
795.2796, 3200.706
795.7617, 3203.547
796.2438, 3203.596
796.7260, 3195.993
797.2081, 3189.694
797.6902, 3189.358
798.1723, 3193.415
798.6544, 3195.825
799.1365, 3196.591
799.6187, 3195.339
800.1008, 3190.344
800.5829, 3184.247
801.0650, 3186.980
801.5471, 3197.035
802.0292, 3204.816
802.5114, 3203.094
802.9935, 3198.320
803.4756, 3195.178
803.9577, 3193.747
804.4398, 3194.280
804.9219, 3200.177
805.4041, 3204.194
805.8862, 3203.009
806.3683, 3198.298
806.8504, 3197.295
807.3325, 3200.653
807.8146, 3204.673
808.2968, 3208.491
808.7789, 3211.669
809.2610, 3213.125
809.7431, 3213.043
810.2252, 3212.149
810.7073, 3210.151
811.1895, 3208.134
811.6716, 3207.655
812.1537, 3207.899
812.6358, 3205.700
813.1179, 3196.097
813.6000, 3190.294
814.0822, 3191.631
814.5643, 3198.369
815.0464, 3205.294
815.5285, 3212.458
816.0106, 3216.252
816.4927, 3213.165
816.9749, 3207.985
817.4570, 3208.338
817.9391, 3212.685
818.4212, 3216.608
818.9033, 3219.264
819.3854, 3219.794
819.8676, 3214.819
820.3497, 3207.213
820.8318, 3207.158
821.3139, 3219.590
821.7960, 3227.590
822.2781, 3225.677
822.7603, 3217.988
823.2424, 3213.793
823.7245, 3212.871
824.2066, 3214.157
824.6887, 3219.867
825.1708, 3224.307
825.6530, 3220.335
826.1351, 3211.279
826.6172, 3204.664
827.0993, 3202.558
827.5814, 3203.532
828.0635, 3210.037
828.5457, 3218.135
829.0278, 3218.285
829.5099, 3208.810
829.9920, 3202.948
830.4741, 3204.394
830.9562, 3210.070
831.4384, 3218.058
831.9205, 3226.285
832.4026, 3229.197
832.8847, 3219.947
833.3668, 3211.857
833.8489, 3213.000
834.3311, 3219.382
834.8132, 3224.295
835.2953, 3227.224
835.7774, 3228.449
836.2595, 3226.952
836.7416, 3225.019
837.2238, 3227.613
837.7059, 3233.984
838.1880, 3236.672
838.6701, 3233.190
839.1522, 3228.233
839.6343, 3225.045
840.1165, 3223.970
840.5986, 3225.920
841.0807, 3235.476
841.5628, 3240.758
842.0449, 3234.939
842.5270, 3226.882
843.0092, 3226.089
843.4913, 3234.353
843.9734, 3240.023
844.4555, 3242.170
844.9376, 3241.258
845.4197, 3235.257
845.9019, 3227.124
846.3840, 3223.252
846.8661, 3225.418
847.3482, 3229.151
847.8303, 3234.323
848.3124, 3238.488
848.7946, 3238.868
849.2767, 3232.603
849.7588, 3229.985
850.2409, 3231.927
850.7230, 3235.762
851.2051, 3240.357
851.6873, 3245.106
852.1694, 3245.009
852.6515, 3239.461
853.1336, 3235.473
853.6157, 3241.109
854.0978, 3249.570
854.5800, 3254.437
855.0621, 3254.673
855.5442, 3253.415
856.0263, 3248.377
856.5084, 3245.168
856.9905, 3247.652
857.4727, 3255.856
857.9548, 3259.663
858.4369, 3258.892
858.9190, 3256.171
859.4011, 3251.696
859.8832, 3247.272
860.3654, 3246.023
860.8475, 3247.813
861.3296, 3250.513
861.8117, 3256.332
862.2938, 3259.843
862.7759, 3255.650
863.2581, 3245.479
863.7402, 3243.246
864.2223, 3251.479
864.7044, 3259.046
865.1865, 3261.168
865.6686, 3259.500
866.1508, 3256.514
866.6329, 3253.005
867.1150, 3252.581
867.5971, 3261.335
868.0792, 3269.613
868.5613, 3270.343
869.0435, 3265.886
869.5256, 3263.750
870.0077, 3265.157
870.4898, 3267.973
870.9719, 3273.044
871.4540, 3278.142
871.9362, 3277.106
872.4183, 3270.853
872.9004, 3266.609
873.3825, 3267.075
873.8646, 3269.399
874.3467, 3272.257
874.8289, 3274.744
875.3110, 3275.427
875.7931, 3270.740
876.2752, 3268.688
876.7573, 3271.446
877.2394, 3275.608
877.7216, 3277.479
878.2037, 3277.028
878.6858, 3273.423
879.1679, 3265.608
879.6500, 3259.431
880.1321, 3263.704
880.6143, 3272.671
881.0964, 3277.790
881.5785, 3276.860
882.0606, 3275.151
882.5427, 3273.116
883.0248, 3272.130
883.5070, 3273.373
883.9891, 3277.407
884.4712, 3280.028
884.9533, 3280.902
885.4354, 3281.851
885.9175, 3284.269
886.3997, 3287.764
886.8818, 3292.290
887.3639, 3297.581
887.8460, 3300.961
888.3281, 3298.281
888.8102, 3295.630
889.2924, 3296.521
889.7745, 3300.845
890.2566, 3306.237
890.7387, 3313.888
891.2208, 3318.691
891.7029, 3316.912
892.1851, 3311.976
892.6672, 3313.298
893.1493, 3319.735
893.6314, 3326.219
894.1135, 3330.966
894.5956, 3334.339
895.0778, 3334.074
895.5599, 3332.772
896.0420, 3337.568
896.5241, 3353.462
897.0062, 3365.335
897.4883, 3369.755
897.9705, 3370.370
898.4526, 3372.406
898.9347, 3376.156
899.4168, 3383.278
899.8989, 3395.015
900.3810, 3407.877
900.8632, 3419.890
901.3453, 3431.178
901.8274, 3442.065
902.3095, 3451.663
902.7916, 3462.180
903.2737, 3473.974
903.7559, 3486.260
904.2380, 3498.307
904.7201, 3510.238
905.2022, 3522.063
905.6843, 3533.582
906.1664, 3546.636
906.6486, 3566.437
907.1307, 3585.641
907.6128, 3596.983
908.0949, 3599.348
908.5770, 3601.082
909.0591, 3604.137
909.5413, 3606.028
910.0234, 3606.707
910.5055, 3605.497
910.9876, 3597.242
911.4697, 3582.192
911.9518, 3564.762
912.4340, 3544.088
912.9161, 3524.760
913.3982, 3513.759
913.8803, 3508.277
914.3624, 3500.670
914.8445, 3484.968
915.3267, 3471.883
915.8088, 3463.431
916.2909, 3458.359
916.7730, 3454.900
917.2551, 3452.970
917.7372, 3449.978
918.2194, 3444.833
918.7015, 3439.997
919.1836, 3437.460
919.6657, 3437.198
920.1478, 3439.719
920.6299, 3448.311
921.1121, 3452.501
921.5942, 3448.148
922.0763, 3442.184
922.5584, 3440.137
923.0405, 3442.152
923.5226, 3444.297
924.0048, 3446.530
924.4869, 3447.835
924.9690, 3445.595
925.4511, 3443.077
925.9332, 3444.386
926.4153, 3449.581
926.8975, 3454.812
927.3796, 3460.951
927.8617, 3464.447
928.3438, 3462.526
928.8259, 3457.004
929.3080, 3458.576
929.7902, 3467.086
930.2723, 3474.176
930.7544, 3476.137
931.2365, 3474.822
931.7186, 3469.612
932.2007, 3463.111
932.6829, 3460.646
933.1650, 3469.308
933.6471, 3474.651
934.1292, 3472.891
934.6113, 3468.838
935.0934, 3469.645
935.5756, 3475.273
936.0577, 3480.057
936.5398, 3483.299
937.0219, 3484.819
937.5040, 3482.407
937.9861, 3479.182
938.4683, 3479.086
938.9504, 3483.379
939.4325, 3487.414
939.9146, 3491.219
940.3967, 3493.442
940.8788, 3492.360
941.3610, 3488.481
941.8431, 3489.115
942.3252, 3494.114
942.8073, 3499.208
943.2894, 3501.615
943.7715, 3502.865
944.2537, 3503.574
944.7358, 3504.216
945.2179, 3506.402
945.7000, 3511.864
946.1821, 3516.973
946.6642, 3520.805
947.1464, 3524.366
947.6285, 3529.665
948.1106, 3536.624
948.5927, 3544.902
949.0748, 3555.083
949.5569, 3564.351
950.0391, 3569.082
950.5212, 3572.082
951.0033, 3576.198
951.4854, 3580.770
951.9675, 3590.035
952.4496, 3606.254
952.9318, 3623.134
953.4139, 3635.137
953.8960, 3643.303
954.3781, 3653.628
954.8602, 3666.107
955.3423, 3680.106
955.8245, 3696.332
956.3066, 3712.897
956.7887, 3728.785
957.2708, 3743.917
957.7529, 3757.412
958.2350, 3766.614
958.7172, 3781.111
959.1993, 3805.250
959.6814, 3834.179
960.1635, 3856.872
960.6456, 3875.188
961.1277, 3894.485
961.6099, 3915.885
962.0920, 3940.211
962.5741, 3970.418
963.0562, 4002.567
963.5383, 4031.629
964.0204, 4056.507
964.5026, 4081.002
964.9847, 4104.060
965.4668, 4129.702
965.9489, 4165.140
966.4310, 4204.514
966.9131, 4237.583
967.3953, 4263.516
967.8774, 4284.705
968.3595, 4295.943
968.8416, 4308.854
969.3237, 4332.250
969.8058, 4362.264
970.2880, 4380.740
970.7701, 4386.978
971.2522, 4388.180
971.7343, 4385.500
972.2164, 4381.221
972.6985, 4380.357
973.1807, 4379.885
973.6628, 4373.984
974.1449, 4357.537
974.6270, 4340.795
975.1091, 4325.693
975.5912, 4310.861
976.0734, 4295.490
976.5555, 4279.721
977.0376, 4259.912
977.5197, 4235.905
978.0018, 4213.509
978.4839, 4198.365
978.9661, 4186.453
979.4482, 4174.171
979.9303, 4161.285
980.4124, 4148.031
980.8945, 4131.547
981.3766, 4119.253
981.8588, 4114.398
982.3409, 4114.156
982.8230, 4111.038
983.3051, 4105.343
983.7872, 4098.254
984.2693, 4087.730
984.7515, 4080.648
985.2336, 4084.060
985.7157, 4092.725
986.1978, 4099.830
986.6799, 4103.600
987.1620, 4108.150
987.6442, 4112.877
988.1263, 4120.051
988.6084, 4132.598
989.0905, 4148.937
989.5726, 4164.854
990.0547, 4180.333
990.5369, 4196.904
991.0190, 4215.968
991.5011, 4235.799
991.9832, 4257.721
992.4653, 4279.687
992.9474, 4294.954
993.4296, 4303.201
993.9117, 4306.562
994.3938, 4304.788
994.8759, 4300.371
995.3580, 4298.514
995.8401, 4295.713
996.3223, 4285.312
996.8044, 4259.084
997.2865, 4239.611
997.7686, 4229.604
998.2507, 4227.223
998.7328, 4233.206
999.2150, 4247.045
999.6971, 4256.918
1000.179, 4262.866
1000.661, 4273.159
1001.143, 4296.089
1001.626, 4323.367
1002.108, 4352.726
1002.590, 4381.660
1003.072, 4401.071
1003.554, 4410.265
1004.036, 4410.812
1004.518, 4402.708
1005.000, 4386.568
1005.482, 4363.434
1005.965, 4333.153
1006.447, 4293.098
1006.929, 4238.178
1007.411, 4191.945
1007.893, 4167.310
1008.375, 4154.750
1008.857, 4146.731
1009.339, 4143.162
1009.822, 4142.339
1010.304, 4143.679
1010.786, 4153.884
1011.268, 4181.870
1011.750, 4217.511
1012.232, 4247.530
1012.714, 4274.533
1013.196, 4306.506
1013.678, 4348.652
1014.161, 4392.330
1014.643, 4434.564
1015.125, 4478.587
1015.607, 4531.589
1016.089, 4591.190
1016.571, 4641.804
1017.053, 4679.715
1017.535, 4722.292
1018.018, 4785.867
1018.500, 4857.086
1018.982, 4927.055
1019.464, 4995.177
1019.946, 5061.946
1020.428, 5126.014
1020.910, 5194.647
1021.392, 5275.218
1021.874, 5357.882
1022.357, 5425.228
1022.839, 5478.515
1023.321, 5519.954
1023.803, 5551.777
1024.285, 5569.413
1024.767, 5573.774
1025.249, 5561.533
1025.731, 5528.204
1026.214, 5473.645
1026.696, 5403.011
1027.178, 5315.965
1027.660, 5221.968
1028.142, 5125.777
1028.624, 5026.896
1029.106, 4922.096
1029.588, 4813.177
1030.070, 4710.245
1030.553, 4612.698
1031.035, 4522.088
1031.517, 4438.499
1031.999, 4362.307
1032.481, 4293.104
1032.963, 4230.536
1033.445, 4172.720
1033.927, 4117.958
1034.410, 4070.813
1034.892, 4037.476
1035.374, 4009.770
1035.856, 3983.035
1036.338, 3957.199
1036.820, 3928.683
1037.302, 3897.802
1037.784, 3871.397
1038.266, 3857.532
1038.749, 3847.372
1039.231, 3832.170
1039.713, 3813.827
1040.195, 3797.297
1040.677, 3783.629
1041.159, 3771.753
1041.641, 3762.015
1042.123, 3752.961
1042.605, 3742.345
1043.088, 3730.940
1043.570, 3721.079
1044.052, 3713.004
1044.534, 3706.506
1045.016, 3702.974
1045.498, 3699.479
1045.980, 3694.087
1046.462, 3687.495
1046.945, 3683.359
1047.427, 3681.777
1047.909, 3679.170
1048.391, 3673.792
1048.873, 3668.414
1049.355, 3665.694
1049.837, 3664.930
1050.319, 3665.210
1050.802, 3666.678
1051.284, 3669.024
1051.766, 3673.721
1052.248, 3675.887
1052.730, 3668.577
1053.212, 3656.472
1053.694, 3656.127
1054.176, 3665.195
1054.658, 3672.710
1055.141, 3674.763
1055.623, 3672.362
1056.105, 3661.784
1056.587, 3649.315
1057.069, 3644.319
1057.551, 3646.937
1058.033, 3653.185
1058.515, 3663.334
1058.997, 3670.456
1059.480, 3664.393
1059.962, 3655.282
1060.444, 3653.851
1060.926, 3661.063
1061.408, 3663.011
1061.890, 3657.304
1062.372, 3651.403
1062.854, 3646.772
1063.337, 3645.036
1063.819, 3652.279
1064.301, 3664.404
1064.783, 3672.270
1065.265, 3672.141
1065.747, 3670.249
1066.229, 3666.120
1066.711, 3663.100
1067.193, 3663.962
1067.676, 3668.405
1068.158, 3671.126
1068.640, 3672.128
1069.122, 3671.596
1069.604, 3666.345
1070.086, 3662.895
1070.568, 3668.046
1071.050, 3677.635
1071.532, 3682.283
1072.015, 3680.706
1072.497, 3677.587
1072.979, 3672.709
1073.461, 3669.253
1073.943, 3672.514
1074.425, 3678.291
1074.907, 3680.441
1075.389, 3678.586
1075.872, 3677.082
1076.354, 3676.194
1076.836, 3677.146
1077.318, 3681.035
1077.800, 3686.138
1078.282, 3689.782
1078.764, 3691.431
1079.246, 3687.965
1079.729, 3675.971
1080.211, 3668.140
1080.693, 3675.637
1081.175, 3686.609
1081.657, 3692.363
1082.139, 3692.909
1082.621, 3689.125
1083.103, 3680.821
1083.585, 3678.459
1084.068, 3694.631
1084.550, 3711.938
1085.032, 3710.923
1085.514, 3699.809
1085.996, 3693.165
1086.478, 3693.246
1086.960, 3698.020
1087.442, 3709.717
1087.924, 3718.895
1088.406, 3713.367
1088.889, 3700.647
1089.371, 3693.316
1089.853, 3691.857
1090.335, 3694.726
1090.817, 3708.148
1091.299, 3716.781
1091.781, 3714.985
1092.263, 3708.908
1092.746, 3710.210
1093.228, 3717.403
1093.710, 3723.913
1094.192, 3728.776
1094.674, 3731.075
1095.156, 3728.200
1095.638, 3724.205
1096.120, 3720.459
1096.603, 3717.583
1097.085, 3722.659
1097.567, 3736.134
1098.049, 3744.609
1098.531, 3741.544
1099.013, 3734.972
1099.495, 3730.706
1099.977, 3729.282
1100.459, 3732.240
1100.942, 3743.186
1101.424, 3747.104
1101.906, 3742.215
1102.388, 3736.141
1102.870, 3732.833
1103.352, 3732.235
1103.834, 3737.035
1104.316, 3744.483
1104.798, 3746.678
1105.281, 3734.304
1105.763, 3725.740
1106.245, 3723.562
1106.727, 3725.559
1107.209, 3732.674
1107.691, 3742.167
1108.173, 3739.761
1108.655, 3725.540
1109.138, 3712.649
1109.620, 3708.117
1110.102, 3707.115
1110.584, 3709.157
1111.066, 3712.271
1111.548, 3711.562
1112.030, 3707.132
1112.512, 3706.570
1112.995, 3712.004
1113.477, 3715.970
1113.959, 3709.453
1114.441, 3700.515
1114.923, 3696.267
1115.405, 3696.911
1115.887, 3696.713
1116.369, 3695.468
1116.851, 3694.588
1117.333, 3695.053
1117.816, 3695.145
1118.298, 3691.316
1118.780, 3686.182
1119.262, 3683.679
1119.744, 3685.683
1120.226, 3687.613
1120.708, 3690.064
1121.190, 3690.625
1121.673, 3686.781
1122.155, 3680.702
1122.637, 3676.989
1123.119, 3675.340
1123.601, 3674.902
1124.083, 3679.293
1124.565, 3678.920
1125.047, 3669.548
1125.530, 3658.976
1126.012, 3654.597
1126.494, 3655.391
1126.976, 3656.286
1127.458, 3657.039
1127.940, 3657.212
1128.422, 3655.505
1128.904, 3654.323
1129.386, 3655.085
1129.869, 3656.781
1130.351, 3658.467
1130.833, 3660.082
1131.315, 3658.840
1131.797, 3654.274
1132.279, 3648.788
1132.761, 3641.313
1133.243, 3636.228
1133.725, 3639.785
1134.208, 3649.210
1134.690, 3649.779
1135.172, 3639.877
1135.654, 3633.561
1136.136, 3634.793
1136.618, 3638.042
1137.100, 3637.850
1137.582, 3635.956
1138.065, 3633.948
1138.547, 3631.990
1139.029, 3631.200
1139.511, 3632.066
1139.993, 3632.689
1140.475, 3632.980
1140.957, 3631.575
1141.439, 3622.329
1141.922, 3611.083
1142.404, 3608.707
1142.886, 3623.404
1143.368, 3632.042
1143.850, 3632.386
1144.332, 3627.573
1144.814, 3616.587
1145.296, 3603.369
1145.778, 3598.445
1146.260, 3600.006
1146.743, 3602.626
1147.225, 3607.855
1147.707, 3608.315
1148.189, 3600.615
1148.671, 3591.539
1149.153, 3586.624
1149.635, 3585.498
1150.117, 3588.577
1150.600, 3594.705
1151.082, 3596.160
1151.564, 3582.520
1152.046, 3571.424
1152.528, 3569.631
1153.010, 3573.439
1153.492, 3580.552
1153.974, 3590.117
1154.457, 3590.139
1154.939, 3579.721
1155.421, 3571.615
1155.903, 3576.974
1156.385, 3584.644
1156.867, 3590.714
1157.349, 3593.437
1157.831, 3585.602
1158.313, 3566.874
1158.796, 3558.085
1159.278, 3563.419
1159.760, 3572.323
1160.242, 3579.648
1160.724, 3583.737
1161.206, 3580.469
1161.688, 3571.642
1162.170, 3570.948
1162.652, 3579.214
1163.135, 3587.435
1163.617, 3594.132
1164.099, 3596.481
1164.581, 3586.688
1165.063, 3574.134
1165.545, 3569.423
1166.027, 3574.398
1166.509, 3578.813
1166.992, 3582.921
1167.474, 3585.048
1167.956, 3584.278
1168.438, 3581.579
1168.920, 3575.563
1169.402, 3569.594
1169.884, 3569.353
1170.366, 3579.697
1170.849, 3582.184
1171.331, 3574.364
1171.813, 3567.457
1172.295, 3568.686
1172.777, 3573.813
1173.259, 3577.917
1173.741, 3580.238
1174.223, 3579.038
1174.705, 3568.662
1175.188, 3564.341
1175.670, 3567.685
1176.152, 3573.161
1176.634, 3578.235
1177.116, 3581.720
1177.598, 3580.544
1178.080, 3575.839
1178.562, 3571.155
1179.044, 3566.505
1179.527, 3563.826
1180.009, 3564.066
1180.491, 3564.494
1180.973, 3561.237
1181.455, 3556.630
1181.937, 3557.800
1182.419, 3563.367
1182.901, 3565.426
1183.384, 3557.849
1183.866, 3550.629
1184.348, 3544.690
1184.830, 3540.974
1185.312, 3541.613
1185.794, 3545.217
1186.276, 3549.438
1186.758, 3553.652
1187.240, 3553.561
1187.723, 3539.020
1188.205, 3531.374
1188.687, 3537.902
1189.169, 3550.392
1189.651, 3557.661
1190.133, 3559.462
1190.615, 3552.038
1191.097, 3534.838
1191.579, 3523.091
1192.062, 3526.074
1192.544, 3533.314
1193.026, 3544.126
1193.508, 3554.050
1193.990, 3550.935
1194.472, 3538.487
1194.954, 3529.432
1195.436, 3526.180
1195.919, 3525.591
1196.401, 3530.192
1196.883, 3532.416
1197.365, 3527.785
1197.847, 3519.703
1198.329, 3518.083
1198.811, 3521.724
1199.293, 3526.535
1199.776, 3532.331
1200.258, 3535.255
1200.740, 3529.564
1201.222, 3524.737
1201.704, 3526.279
1202.186, 3532.036
1202.668, 3534.308
1203.150, 3533.244
1203.632, 3528.692
1204.115, 3518.178
1204.597, 3511.285
1205.079, 3516.070
1205.561, 3522.397
1206.043, 3524.178
1206.525, 3522.589
1207.007, 3524.505
1207.489, 3528.696
1207.971, 3529.177
1208.454, 3520.092
1208.936, 3514.030
1209.418, 3522.296
1209.900, 3529.602
1210.382, 3523.450
1210.864, 3507.016
1211.346, 3504.643
1211.828, 3513.445
1212.311, 3519.417
1212.793, 3513.298
1213.275, 3507.896
1213.757, 3507.642
1214.239, 3510.249
1214.721, 3515.597
1215.203, 3522.854
1215.685, 3525.264
1216.167, 3523.371
1216.650, 3520.156
1217.132, 3514.547
1217.614, 3511.289
1218.096, 3513.390
1218.578, 3516.792
1219.060, 3519.141
1219.542, 3519.937
1220.024, 3513.416
1220.506, 3501.276
1220.989, 3493.136
1221.471, 3497.121
1221.953, 3501.464
1222.435, 3503.200
1222.917, 3503.449
1223.399, 3502.904
1223.881, 3501.802
1224.363, 3501.027
1224.846, 3500.720
1225.328, 3501.558
1225.810, 3507.392
1226.292, 3509.206
1226.774, 3502.387
1227.256, 3494.351
1227.738, 3493.707
1228.220, 3499.204
1228.703, 3508.791
1229.185, 3521.098
1229.667, 3528.266
1230.149, 3521.356
1230.631, 3515.859
1231.113, 3514.786
1231.595, 3517.032
1232.077, 3522.801
1232.559, 3530.374
1233.042, 3534.810
1233.524, 3535.993
1234.006, 3536.109
1234.488, 3533.604
1234.970, 3534.214
1235.452, 3541.389
1235.934, 3547.704
1236.416, 3539.750
1236.898, 3524.472
1237.381, 3517.604
1237.863, 3519.864
1238.345, 3523.701
1238.827, 3529.880
1239.309, 3532.239
1239.791, 3528.617
1240.273, 3523.445
1240.755, 3522.212
1241.238, 3523.856
1241.720, 3527.886
1242.202, 3533.718
1242.684, 3535.253
1243.166, 3528.935
1243.648, 3522.785
1244.130, 3517.041
1244.612, 3515.118
1245.094, 3526.677
1245.577, 3542.128
1246.059, 3545.179
1246.541, 3535.469
1247.023, 3530.239
1247.505, 3532.499
1247.987, 3534.848
1248.469, 3535.690
1248.951, 3536.198
1249.433, 3538.774
1249.916, 3541.207
1250.398, 3539.038
1250.880, 3532.793
1251.362, 3534.471
1251.844, 3546.915
1252.326, 3556.200
1252.808, 3559.344
1253.290, 3558.204
1253.773, 3550.761
1254.255, 3543.188
1254.737, 3542.527
1255.219, 3548.484
1255.701, 3553.091
1256.183, 3556.728
1256.665, 3554.354
1257.147, 3543.456
1257.630, 3534.113
1258.112, 3536.749
1258.594, 3544.116
1259.076, 3553.285
1259.558, 3561.957
1260.040, 3557.958
1260.522, 3541.569
1261.004, 3535.004
1261.486, 3544.602
1261.969, 3554.361
1262.451, 3550.094
1262.933, 3543.795
1263.415, 3543.577
1263.897, 3547.644
1264.379, 3549.755
1264.861, 3550.275
1265.343, 3552.697
1265.825, 3558.312
1266.308, 3561.156
1266.790, 3553.317
1267.272, 3546.910
1267.754, 3548.617
1268.236, 3555.056
1268.718, 3557.191
1269.200, 3556.358
1269.682, 3557.505
1270.165, 3561.803
1270.647, 3565.925
1271.129, 3569.219
1271.611, 3570.940
1272.093, 3570.332
1272.575, 3568.739
1273.057, 3569.808
1273.539, 3571.742
1274.021, 3569.315
1274.504, 3560.944
1274.986, 3557.567
1275.468, 3563.948
1275.950, 3569.231
1276.432, 3570.354
1276.914, 3568.624
1277.396, 3563.331
1277.878, 3557.938
1278.360, 3559.207
1278.843, 3568.417
1279.325, 3571.730
1279.807, 3567.031
1280.289, 3561.732
1280.771, 3557.144
1281.253, 3554.998
1281.735, 3560.378
1282.217, 3567.225
1282.700, 3567.801
1283.182, 3562.163
1283.664, 3560.332
1284.146, 3562.459
1284.628, 3566.813
1285.110, 3573.627
1285.592, 3579.257
1286.074, 3581.427
1286.557, 3580.200
1287.039, 3572.822
1287.521, 3562.323
1288.003, 3561.091
1288.485, 3568.184
1288.967, 3573.250
1289.449, 3574.378
1289.931, 3570.508
1290.413, 3553.245
1290.896, 3540.028
1291.378, 3541.446
1291.860, 3550.593
1292.342, 3549.676
1292.824, 3541.496
1293.306, 3534.694
1293.788, 3530.620
1294.270, 3531.318
1294.752, 3546.957
1295.235, 3553.914
1295.717, 3542.415
1296.199, 3525.016
1296.681, 3523.958
1297.163, 3532.385
1297.645, 3538.800
1298.127, 3541.698
1298.609, 3543.011
1299.092, 3543.492
1299.574, 3540.042
1300.056, 3530.158
1300.538, 3522.563
1301.020, 3533.387
1301.502, 3548.704
1301.984, 3550.821
##END=



