##NAMES=Pectolite
##RRUFFID=R120024
##IDEAL CHEMISTRY=NaCa_2_Si_3_O_8_(OH)
##LOCALITY=Eveslogchorr Mt., Khibiny Massif, Kola Peninsula, Murmanskaja Oblast', Russia
##OWNER=RRUFF
##SOURCE=Dr. JÃ¼rgen Wachsmuth 
##DESCRIPTION=Colorless elongated platy crystals
##STATUS=The identification of this mineral has been confirmed by single-crystal X-ray diffraction.
##URL=rruff.info/R120024
9.001007e+001, -1.490116e-008
9.049219e+001, 3.972969e+003
9.097430e+001, 4.059516e+003
9.145642e+001, 4.014458e+003
9.193854e+001, 3.854580e+003
9.242065e+001, 3.719607e+003
9.290277e+001, 3.775173e+003
9.338489e+001, 3.943428e+003
9.386700e+001, 4.038920e+003
9.434912e+001, 3.925510e+003
9.483124e+001, 3.719227e+003
9.531335e+001, 3.681100e+003
9.579547e+001, 3.826975e+003
9.627759e+001, 4.028135e+003
9.675970e+001, 4.161667e+003
9.724182e+001, 4.227192e+003
9.772394e+001, 4.232893e+003
9.820605e+001, 4.151828e+003
9.868817e+001, 3.993357e+003
9.917029e+001, 3.869003e+003
9.965240e+001, 3.768628e+003
1.001345e+002, 3.719776e+003
1.006166e+002, 3.815144e+003
1.010988e+002, 4.097676e+003
1.015809e+002, 4.340027e+003
1.020630e+002, 4.396701e+003
1.025451e+002, 4.222449e+003
1.030272e+002, 4.095260e+003
1.035093e+002, 4.054258e+003
1.039915e+002, 4.070818e+003
1.044736e+002, 4.001726e+003
1.049557e+002, 3.760018e+003
1.054378e+002, 3.559689e+003
1.059199e+002, 3.571839e+003
1.064020e+002, 3.979432e+003
1.068842e+002, 4.257170e+003
1.073663e+002, 4.295969e+003
1.078484e+002, 4.091368e+003
1.083305e+002, 3.974562e+003
1.088126e+002, 3.992767e+003
1.092947e+002, 4.073139e+003
1.097769e+002, 4.149102e+003
1.102590e+002, 4.217623e+003
1.107411e+002, 4.284830e+003
1.112232e+002, 4.368634e+003
1.117053e+002, 4.491213e+003
1.121874e+002, 4.532651e+003
1.126696e+002, 4.389991e+003
1.131517e+002, 4.185005e+003
1.136338e+002, 4.075623e+003
1.141159e+002, 4.218206e+003
1.145980e+002, 4.351233e+003
1.150801e+002, 4.362363e+003
1.155623e+002, 4.163656e+003
1.160444e+002, 4.025221e+003
1.165265e+002, 4.044468e+003
1.170086e+002, 4.174520e+003
1.174907e+002, 4.317208e+003
1.179728e+002, 4.510336e+003
1.184550e+002, 4.661588e+003
1.189371e+002, 4.701181e+003
1.194192e+002, 4.543160e+003
1.199013e+002, 4.381771e+003
1.203834e+002, 4.286403e+003
1.208655e+002, 4.261234e+003
1.213477e+002, 4.323035e+003
1.218298e+002, 4.609027e+003
1.223119e+002, 4.941012e+003
1.227940e+002, 5.119471e+003
1.232761e+002, 4.930056e+003
1.237582e+002, 4.703200e+003
1.242404e+002, 4.777582e+003
1.247225e+002, 5.128202e+003
1.252046e+002, 5.446978e+003
1.256867e+002, 5.460136e+003
1.261688e+002, 5.276661e+003
1.266509e+002, 5.092997e+003
1.271331e+002, 4.939817e+003
1.276152e+002, 4.845952e+003
1.280973e+002, 4.881534e+003
1.285794e+002, 5.054627e+003
1.290615e+002, 5.259476e+003
1.295437e+002, 5.388217e+003
1.300258e+002, 5.454038e+003
1.305079e+002, 5.511944e+003
1.309900e+002, 5.614060e+003
1.314721e+002, 5.730444e+003
1.319542e+002, 5.756478e+003
1.324364e+002, 5.671917e+003
1.329185e+002, 5.549964e+003
1.334006e+002, 5.496125e+003
1.338827e+002, 5.510326e+003
1.343648e+002, 5.548267e+003
1.348469e+002, 5.582583e+003
1.353291e+002, 5.615533e+003
1.358112e+002, 5.694989e+003
1.362933e+002, 5.850926e+003
1.367754e+002, 6.021786e+003
1.372575e+002, 6.036450e+003
1.377396e+002, 5.859618e+003
1.382218e+002, 5.685443e+003
1.387039e+002, 5.649257e+003
1.391860e+002, 5.774209e+003
1.396681e+002, 5.878011e+003
1.401502e+002, 5.951647e+003
1.406323e+002, 5.988063e+003
1.411145e+002, 5.931126e+003
1.415966e+002, 5.713901e+003
1.420787e+002, 5.531548e+003
1.425608e+002, 5.560933e+003
1.430429e+002, 5.900135e+003
1.435250e+002, 6.171741e+003
1.440072e+002, 6.307473e+003
1.444893e+002, 6.311636e+003
1.449714e+002, 6.315615e+003
1.454535e+002, 6.301370e+003
1.459356e+002, 6.304875e+003
1.464177e+002, 6.371145e+003
1.468999e+002, 6.599486e+003
1.473820e+002, 6.733315e+003
1.478641e+002, 6.683009e+003
1.483462e+002, 6.403941e+003
1.488283e+002, 6.257655e+003
1.493104e+002, 6.336923e+003
1.497926e+002, 6.504530e+003
1.502747e+002, 6.602093e+003
1.507568e+002, 6.532645e+003
1.512389e+002, 6.490967e+003
1.517210e+002, 6.528990e+003
1.522031e+002, 6.679394e+003
1.526853e+002, 6.804114e+003
1.531674e+002, 6.832050e+003
1.536495e+002, 6.848886e+003
1.541316e+002, 6.978313e+003
1.546137e+002, 7.446903e+003
1.550958e+002, 7.842740e+003
1.555780e+002, 7.987410e+003
1.560601e+002, 7.669522e+003
1.565422e+002, 7.567526e+003
1.570243e+002, 7.914969e+003
1.575064e+002, 8.537144e+003
1.579885e+002, 9.095568e+003
1.584707e+002, 9.346739e+003
1.589528e+002, 9.642980e+003
1.594349e+002, 1.015204e+004
1.599170e+002, 1.096235e+004
1.603991e+002, 1.187510e+004
1.608812e+002, 1.285259e+004
1.613634e+002, 1.389368e+004
1.618455e+002, 1.499516e+004
1.623276e+002, 1.601372e+004
1.628097e+002, 1.717242e+004
1.632918e+002, 1.863056e+004
1.637739e+002, 2.041026e+004
1.642561e+002, 2.249828e+004
1.647382e+002, 2.491550e+004
1.652203e+002, 2.764590e+004
1.657024e+002, 3.062357e+004
1.661845e+002, 3.382439e+004
1.666666e+002, 3.727019e+004
1.671488e+002, 4.094346e+004
1.676309e+002, 4.493971e+004
1.681130e+002, 4.911429e+004
1.685951e+002, 5.333088e+004
1.690772e+002, 5.761591e+004
1.695593e+002, 6.202619e+004
1.700415e+002, 6.669528e+004
1.705236e+002, 7.149849e+004
1.710057e+002, 7.622533e+004
1.714878e+002, 8.079550e+004
1.719699e+002, 8.533942e+004
1.724520e+002, 8.993109e+004
1.729342e+002, 9.458185e+004
1.734163e+002, 9.918316e+004
1.738984e+002, 1.036129e+005
1.743805e+002, 1.079851e+005
1.748626e+002, 1.123520e+005
1.753447e+002, 1.167357e+005
1.758269e+002, 1.212071e+005
1.763090e+002, 1.259217e+005
1.767911e+002, 1.308436e+005
1.772732e+002, 1.357734e+005
1.777553e+002, 1.398292e+005
1.782374e+002, 1.430831e+005
1.787196e+002, 1.463603e+005
1.792017e+002, 1.500384e+005
1.796838e+002, 1.539785e+005
1.801659e+002, 1.579051e+005
1.806480e+002, 1.618537e+005
1.811301e+002, 1.658092e+005
1.816123e+002, 1.698668e+005
1.820944e+002, 1.740027e+005
1.825765e+002, 1.780340e+005
1.830586e+002, 1.818319e+005
1.835407e+002, 1.854877e+005
1.840229e+002, 1.893824e+005
1.845050e+002, 1.934992e+005
1.849871e+002, 1.977914e+005
1.854692e+002, 2.021933e+005
1.859513e+002, 2.067167e+005
1.864334e+002, 2.111897e+005
1.869156e+002, 2.154928e+005
1.873977e+002, 2.197019e+005
1.878798e+002, 2.241825e+005
1.883619e+002, 2.289726e+005
1.888440e+002, 2.338730e+005
1.893261e+002, 2.384978e+005
1.898083e+002, 2.429040e+005
1.902904e+002, 2.472967e+005
1.907725e+002, 2.518215e+005
1.912546e+002, 2.564937e+005
1.917367e+002, 2.609916e+005
1.922188e+002, 2.653026e+005
1.927010e+002, 2.694938e+005
1.931831e+002, 2.736263e+005
1.936652e+002, 2.776857e+005
1.941473e+002, 2.815687e+005
1.946294e+002, 2.851153e+005
1.951115e+002, 2.883517e+005
1.955937e+002, 2.916461e+005
1.960758e+002, 2.950868e+005
1.965579e+002, 2.984795e+005
1.970400e+002, 3.014724e+005
1.975221e+002, 3.040603e+005
1.980042e+002, 3.063305e+005
1.984864e+002, 3.082753e+005
1.989685e+002, 3.098842e+005
1.994506e+002, 3.115241e+005
1.999327e+002, 3.132243e+005
2.004148e+002, 3.149439e+005
2.008969e+002, 3.165860e+005
2.013791e+002, 3.181718e+005
2.018612e+002, 3.196685e+005
2.023433e+002, 3.210304e+005
2.028254e+002, 3.222445e+005
2.033075e+002, 3.234978e+005
2.037896e+002, 3.247687e+005
2.042718e+002, 3.260980e+005
2.047539e+002, 3.275861e+005
2.052360e+002, 3.292454e+005
2.057181e+002, 3.309914e+005
2.062002e+002, 3.327569e+005
2.066823e+002, 3.345200e+005
2.071645e+002, 3.364184e+005
2.076466e+002, 3.385133e+005
2.081287e+002, 3.407095e+005
2.086108e+002, 3.427892e+005
2.090929e+002, 3.447239e+005
2.095750e+002, 3.466179e+005
2.100572e+002, 3.485227e+005
2.105393e+002, 3.504674e+005
2.110214e+002, 3.523358e+005
2.115035e+002, 3.541238e+005
2.119856e+002, 3.558294e+005
2.124677e+002, 3.575083e+005
2.129499e+002, 3.591934e+005
2.134320e+002, 3.608102e+005
2.139141e+002, 3.623378e+005
2.143962e+002, 3.637851e+005
2.148783e+002, 3.651454e+005
2.153604e+002, 3.664039e+005
2.158426e+002, 3.675796e+005
2.163247e+002, 3.686951e+005
2.168068e+002, 3.697783e+005
2.172889e+002, 3.707628e+005
2.177710e+002, 3.715752e+005
2.182531e+002, 3.721016e+005
2.187353e+002, 3.727951e+005
2.192174e+002, 3.737633e+005
2.196995e+002, 3.749301e+005
2.201816e+002, 3.758842e+005
2.206637e+002, 3.765349e+005
2.211458e+002, 3.771381e+005
2.216280e+002, 3.778679e+005
2.221101e+002, 3.788366e+005
2.225922e+002, 3.796314e+005
2.230743e+002, 3.801596e+005
2.235564e+002, 3.804890e+005
2.240385e+002, 3.809764e+005
2.245207e+002, 3.817078e+005
2.250028e+002, 3.824599e+005
2.254849e+002, 3.830481e+005
2.259670e+002, 3.832604e+005
2.264491e+002, 3.838521e+005
2.269312e+002, 3.850077e+005
2.274134e+002, 3.866029e+005
2.278955e+002, 3.881139e+005
2.283776e+002, 3.895793e+005
2.288597e+002, 3.908710e+005
2.293418e+002, 3.918476e+005
2.298239e+002, 3.922894e+005
2.303061e+002, 3.929163e+005
2.307882e+002, 3.938188e+005
2.312703e+002, 3.949422e+005
2.317524e+002, 3.960121e+005
2.322345e+002, 3.969717e+005
2.327166e+002, 3.979193e+005
2.331988e+002, 3.989140e+005
2.336809e+002, 4.000307e+005
2.341630e+002, 4.009932e+005
2.346451e+002, 4.017289e+005
2.351272e+002, 4.022895e+005
2.356093e+002, 4.029329e+005
2.360915e+002, 4.037215e+005
2.365736e+002, 4.045068e+005
2.370557e+002, 4.052216e+005
2.375378e+002, 4.059116e+005
2.380199e+002, 4.064442e+005
2.385020e+002, 4.067843e+005
2.389842e+002, 4.069755e+005
2.394663e+002, 4.071436e+005
2.399484e+002, 4.072030e+005
2.404305e+002, 4.073807e+005
2.409126e+002, 4.078333e+005
2.413947e+002, 4.087590e+005
2.418769e+002, 4.095434e+005
2.423590e+002, 4.101299e+005
2.428411e+002, 4.105622e+005
2.433232e+002, 4.109772e+005
2.438053e+002, 4.112563e+005
2.442874e+002, 4.116749e+005
2.447696e+002, 4.124062e+005
2.452517e+002, 4.136919e+005
2.457338e+002, 4.147206e+005
2.462159e+002, 4.153586e+005
2.466980e+002, 4.157264e+005
2.471802e+002, 4.162091e+005
2.476623e+002, 4.168422e+005
2.481444e+002, 4.175261e+005
2.486265e+002, 4.182178e+005
2.491086e+002, 4.189582e+005
2.495907e+002, 4.195972e+005
2.500729e+002, 4.200332e+005
2.505550e+002, 4.203987e+005
2.510371e+002, 4.210874e+005
2.515192e+002, 4.223607e+005
2.520013e+002, 4.235613e+005
2.524834e+002, 4.243812e+005
2.529656e+002, 4.246121e+005
2.534477e+002, 4.250129e+005
2.539298e+002, 4.256420e+005
2.544119e+002, 4.264210e+005
2.548940e+002, 4.271975e+005
2.553761e+002, 4.279917e+005
2.558583e+002, 4.287480e+005
2.563404e+002, 4.294180e+005
2.568225e+002, 4.299431e+005
2.573046e+002, 4.305478e+005
2.577867e+002, 4.312443e+005
2.582688e+002, 4.319922e+005
2.587509e+002, 4.327332e+005
2.592331e+002, 4.334989e+005
2.597152e+002, 4.341581e+005
2.601973e+002, 4.346133e+005
2.606794e+002, 4.347664e+005
2.611615e+002, 4.351179e+005
2.616436e+002, 4.357168e+005
2.621258e+002, 4.364716e+005
2.626079e+002, 4.372557e+005
2.630900e+002, 4.381160e+005
2.635721e+002, 4.389001e+005
2.640542e+002, 4.395130e+005
2.645363e+002, 4.399207e+005
2.650185e+002, 4.405331e+005
2.655006e+002, 4.414865e+005
2.659827e+002, 4.425163e+005
2.664648e+002, 4.431804e+005
2.669469e+002, 4.432761e+005
2.674290e+002, 4.436016e+005
2.679112e+002, 4.445230e+005
2.683933e+002, 4.460941e+005
2.688754e+002, 4.472010e+005
2.693575e+002, 4.476783e+005
2.698396e+002, 4.479285e+005
2.703217e+002, 4.484389e+005
2.708039e+002, 4.492386e+005
2.712860e+002, 4.501396e+005
2.717681e+002, 4.511068e+005
2.722502e+002, 4.521277e+005
2.727323e+002, 4.531212e+005
2.732144e+002, 4.541026e+005
2.736966e+002, 4.549829e+005
2.741787e+002, 4.555957e+005
2.746608e+002, 4.558743e+005
2.751429e+002, 4.562950e+005
2.756251e+002, 4.570268e+005
2.761072e+002, 4.580145e+005
2.765893e+002, 4.588617e+005
2.770714e+002, 4.595384e+005
2.775535e+002, 4.601264e+005
2.780356e+002, 4.606822e+005
2.785178e+002, 4.612004e+005
2.789999e+002, 4.617156e+005
2.794820e+002, 4.622341e+005
2.799641e+002, 4.627528e+005
2.804462e+002, 4.632773e+005
2.809283e+002, 4.638359e+005
2.814105e+002, 4.642753e+005
2.818926e+002, 4.644303e+005
2.823747e+002, 4.642989e+005
2.828568e+002, 4.641803e+005
2.833389e+002, 4.641128e+005
2.838210e+002, 4.641159e+005
2.843032e+002, 4.642444e+005
2.847853e+002, 4.645162e+005
2.852674e+002, 4.648769e+005
2.857495e+002, 4.653002e+005
2.862316e+002, 4.657938e+005
2.867137e+002, 4.663732e+005
2.871959e+002, 4.670603e+005
2.876780e+002, 4.678178e+005
2.881601e+002, 4.685634e+005
2.886422e+002, 4.692951e+005
2.891243e+002, 4.700559e+005
2.896064e+002, 4.708408e+005
2.900886e+002, 4.716538e+005
2.905707e+002, 4.725161e+005
2.910528e+002, 4.734304e+005
2.915349e+002, 4.743582e+005
2.920170e+002, 4.752768e+005
2.924991e+002, 4.761643e+005
2.929813e+002, 4.769516e+005
2.934634e+002, 4.775174e+005
2.939455e+002, 4.779370e+005
2.944276e+002, 4.784502e+005
2.949097e+002, 4.790722e+005
2.953918e+002, 4.797617e+005
2.958740e+002, 4.804768e+005
2.963561e+002, 4.812140e+005
2.968382e+002, 4.819847e+005
2.973203e+002, 4.828325e+005
2.978024e+002, 4.837045e+005
2.982845e+002, 4.845001e+005
2.987667e+002, 4.852202e+005
2.992488e+002, 4.858825e+005
2.997309e+002, 4.864751e+005
3.002130e+002, 4.870293e+005
3.006951e+002, 4.876236e+005
3.011772e+002, 4.882640e+005
3.016594e+002, 4.889704e+005
3.021415e+002, 4.898036e+005
3.026236e+002, 4.907526e+005
3.031057e+002, 4.917407e+005
3.035878e+002, 4.927658e+005
3.040699e+002, 4.937735e+005
3.045521e+002, 4.946399e+005
3.050342e+002, 4.952645e+005
3.055163e+002, 4.957893e+005
3.059984e+002, 4.963259e+005
3.064805e+002, 4.968795e+005
3.069626e+002, 4.975128e+005
3.074448e+002, 4.983455e+005
3.079269e+002, 4.992555e+005
3.084090e+002, 5.000478e+005
3.088911e+002, 5.005489e+005
3.093732e+002, 5.011142e+005
3.098553e+002, 5.021419e+005
3.103375e+002, 5.034992e+005
3.108196e+002, 5.047608e+005
3.113017e+002, 5.055848e+005
3.117838e+002, 5.062384e+005
3.122659e+002, 5.069604e+005
3.127480e+002, 5.077953e+005
3.132302e+002, 5.086894e+005
3.137123e+002, 5.096763e+005
3.141944e+002, 5.107080e+005
3.146765e+002, 5.116649e+005
3.151586e+002, 5.125567e+005
3.156407e+002, 5.133128e+005
3.161229e+002, 5.138530e+005
3.166050e+002, 5.141083e+005
3.170871e+002, 5.143982e+005
3.175692e+002, 5.149894e+005
3.180513e+002, 5.156730e+005
3.185334e+002, 5.161517e+005
3.190156e+002, 5.161261e+005
3.194977e+002, 5.160529e+005
3.199798e+002, 5.160839e+005
3.204619e+002, 5.162239e+005
3.209440e+002, 5.165426e+005
3.214261e+002, 5.172070e+005
3.219083e+002, 5.179863e+005
3.223904e+002, 5.186575e+005
3.228725e+002, 5.191508e+005
3.233546e+002, 5.195425e+005
3.238367e+002, 5.197975e+005
3.243188e+002, 5.199223e+005
3.248010e+002, 5.201082e+005
3.252831e+002, 5.203344e+005
3.257652e+002, 5.206669e+005
3.262473e+002, 5.211514e+005
3.267294e+002, 5.221373e+005
3.272115e+002, 5.229000e+005
3.276937e+002, 5.232463e+005
3.281758e+002, 5.232814e+005
3.286579e+002, 5.235135e+005
3.291400e+002, 5.241345e+005
3.296221e+002, 5.248184e+005
3.301042e+002, 5.254368e+005
3.305864e+002, 5.259453e+005
3.310685e+002, 5.264627e+005
3.315506e+002, 5.268767e+005
3.320327e+002, 5.273079e+005
3.325148e+002, 5.280504e+005
3.329969e+002, 5.293703e+005
3.334791e+002, 5.306060e+005
3.339612e+002, 5.314804e+005
3.344433e+002, 5.318098e+005
3.349254e+002, 5.324572e+005
3.354075e+002, 5.335503e+005
3.358896e+002, 5.348174e+005
3.363718e+002, 5.359070e+005
3.368539e+002, 5.368036e+005
3.373360e+002, 5.375043e+005
3.378181e+002, 5.379044e+005
3.383002e+002, 5.380143e+005
3.387823e+002, 5.385463e+005
3.392645e+002, 5.397169e+005
3.397466e+002, 5.408976e+005
3.402287e+002, 5.413813e+005
3.407108e+002, 5.410302e+005
3.411929e+002, 5.408596e+005
3.416750e+002, 5.410978e+005
3.421572e+002, 5.416632e+005
3.426393e+002, 5.422668e+005
3.431214e+002, 5.429478e+005
3.436035e+002, 5.435176e+005
3.440856e+002, 5.437199e+005
3.445677e+002, 5.435813e+005
3.450499e+002, 5.437799e+005
3.455320e+002, 5.444523e+005
3.460141e+002, 5.454045e+005
3.464962e+002, 5.463329e+005
3.469783e+002, 5.472306e+005
3.474604e+002, 5.480312e+005
3.479426e+002, 5.485273e+005
3.484247e+002, 5.488675e+005
3.489068e+002, 5.496553e+005
3.493889e+002, 5.509921e+005
3.498710e+002, 5.524310e+005
3.503531e+002, 5.533911e+005
3.508353e+002, 5.539791e+005
3.513174e+002, 5.545885e+005
3.517995e+002, 5.553699e+005
3.522816e+002, 5.562844e+005
3.527637e+002, 5.573424e+005
3.532458e+002, 5.585373e+005
3.537280e+002, 5.596418e+005
3.542101e+002, 5.603279e+005
3.546922e+002, 5.608039e+005
3.551743e+002, 5.614505e+005
3.556564e+002, 5.625855e+005
3.561385e+002, 5.637241e+005
3.566207e+002, 5.643085e+005
3.571028e+002, 5.644433e+005
3.575849e+002, 5.646463e+005
3.580670e+002, 5.652706e+005
3.585491e+002, 5.660932e+005
3.590313e+002, 5.669339e+005
3.595134e+002, 5.678405e+005
3.599955e+002, 5.686053e+005
3.604776e+002, 5.690829e+005
3.609597e+002, 5.693442e+005
3.614418e+002, 5.695253e+005
3.619240e+002, 5.694633e+005
3.624061e+002, 5.695190e+005
3.628882e+002, 5.699673e+005
3.633703e+002, 5.709271e+005
3.638524e+002, 5.717995e+005
3.643345e+002, 5.722862e+005
3.648167e+002, 5.726208e+005
3.652988e+002, 5.730744e+005
3.657809e+002, 5.736713e+005
3.662630e+002, 5.744211e+005
3.667451e+002, 5.754696e+005
3.672272e+002, 5.768079e+005
3.677094e+002, 5.778199e+005
3.681915e+002, 5.781448e+005
3.686736e+002, 5.782954e+005
3.691557e+002, 5.786034e+005
3.696378e+002, 5.790948e+005
3.701199e+002, 5.797096e+005
3.706021e+002, 5.804919e+005
3.710842e+002, 5.813949e+005
3.715663e+002, 5.822673e+005
3.720484e+002, 5.831024e+005
3.725305e+002, 5.838903e+005
3.730126e+002, 5.846321e+005
3.734948e+002, 5.853414e+005
3.739769e+002, 5.859274e+005
3.744590e+002, 5.863316e+005
3.749411e+002, 5.866657e+005
3.754232e+002, 5.871154e+005
3.759053e+002, 5.877323e+005
3.763875e+002, 5.883614e+005
3.768696e+002, 5.889879e+005
3.773517e+002, 5.896258e+005
3.778338e+002, 5.900989e+005
3.783159e+002, 5.903492e+005
3.787980e+002, 5.906538e+005
3.792802e+002, 5.913840e+005
3.797623e+002, 5.925818e+005
3.802444e+002, 5.935229e+005
3.807265e+002, 5.940012e+005
3.812086e+002, 5.942022e+005
3.816907e+002, 5.946059e+005
3.821729e+002, 5.952057e+005
3.826550e+002, 5.959124e+005
3.831371e+002, 5.966450e+005
3.836192e+002, 5.974155e+005
3.841013e+002, 5.982934e+005
3.845834e+002, 5.993076e+005
3.850656e+002, 6.003329e+005
3.855477e+002, 6.012223e+005
3.860298e+002, 6.019839e+005
3.865119e+002, 6.026224e+005
3.869940e+002, 6.029987e+005
3.874761e+002, 6.033195e+005
3.879583e+002, 6.039405e+005
3.884404e+002, 6.048814e+005
3.889225e+002, 6.058432e+005
3.894046e+002, 6.066433e+005
3.898867e+002, 6.073019e+005
3.903688e+002, 6.078337e+005
3.908510e+002, 6.080700e+005
3.913331e+002, 6.083812e+005
3.918152e+002, 6.092174e+005
3.922973e+002, 6.104229e+005
3.927794e+002, 6.113624e+005
3.932615e+002, 6.113988e+005
3.937437e+002, 6.112552e+005
3.942258e+002, 6.114424e+005
3.947079e+002, 6.121000e+005
3.951900e+002, 6.129556e+005
3.956721e+002, 6.140705e+005
3.961542e+002, 6.152857e+005
3.966364e+002, 6.163506e+005
3.971185e+002, 6.170379e+005
3.976006e+002, 6.177128e+005
3.980827e+002, 6.185142e+005
3.985648e+002, 6.194676e+005
3.990470e+002, 6.203666e+005
3.995291e+002, 6.212560e+005
4.000112e+002, 6.220449e+005
4.004933e+002, 6.226577e+005
4.009754e+002, 6.228249e+005
4.014576e+002, 6.231881e+005
4.019397e+002, 6.238859e+005
4.024218e+002, 6.248428e+005
4.029039e+002, 6.256609e+005
4.033860e+002, 6.261766e+005
4.038681e+002, 6.267989e+005
4.043503e+002, 6.277952e+005
4.048324e+002, 6.293551e+005
4.053145e+002, 6.305818e+005
4.057966e+002, 6.313915e+005
4.062787e+002, 6.319518e+005
4.067608e+002, 6.324544e+005
4.072430e+002, 6.328533e+005
4.077251e+002, 6.334558e+005
4.082072e+002, 6.344673e+005
4.086893e+002, 6.357872e+005
4.091714e+002, 6.366894e+005
4.096535e+002, 6.371114e+005
4.101357e+002, 6.374761e+005
4.106178e+002, 6.381717e+005
4.110999e+002, 6.391535e+005
4.115820e+002, 6.401739e+005
4.120641e+002, 6.411981e+005
4.125462e+002, 6.422114e+005
4.130284e+002, 6.432427e+005
4.135105e+002, 6.442714e+005
4.139926e+002, 6.452102e+005
4.144747e+002, 6.460178e+005
4.149568e+002, 6.467083e+005
4.154389e+002, 6.472818e+005
4.159211e+002, 6.477378e+005
4.164032e+002, 6.481260e+005
4.168853e+002, 6.485229e+005
4.173674e+002, 6.488819e+005
4.178495e+002, 6.491304e+005
4.183316e+002, 6.490563e+005
4.188138e+002, 6.490291e+005
4.192959e+002, 6.493381e+005
4.197780e+002, 6.499450e+005
4.202601e+002, 6.505728e+005
4.207422e+002, 6.511210e+005
4.212243e+002, 6.516403e+005
4.217065e+002, 6.521383e+005
4.221886e+002, 6.525508e+005
4.226707e+002, 6.531003e+005
4.231528e+002, 6.539944e+005
4.236349e+002, 6.550506e+005
4.241170e+002, 6.559308e+005
4.245992e+002, 6.564835e+005
4.250813e+002, 6.569523e+005
4.255634e+002, 6.572619e+005
4.260455e+002, 6.573000e+005
4.265276e+002, 6.579432e+005
4.270097e+002, 6.596542e+005
4.274919e+002, 6.615879e+005
4.279740e+002, 6.630391e+005
4.284561e+002, 6.637393e+005
4.289382e+002, 6.644955e+005
4.294203e+002, 6.654514e+005
4.299024e+002, 6.664926e+005
4.303846e+002, 6.672716e+005
4.308667e+002, 6.677364e+005
4.313488e+002, 6.680721e+005
4.318309e+002, 6.682976e+005
4.323130e+002, 6.683979e+005
4.327951e+002, 6.687856e+005
4.332773e+002, 6.695394e+005
4.337594e+002, 6.703983e+005
4.342415e+002, 6.710504e+005
4.347236e+002, 6.715114e+005
4.352057e+002, 6.718899e+005
4.356878e+002, 6.721281e+005
4.361700e+002, 6.723800e+005
4.366521e+002, 6.730442e+005
4.371342e+002, 6.741059e+005
4.376163e+002, 6.752107e+005
4.380984e+002, 6.761614e+005
4.385805e+002, 6.769768e+005
4.390627e+002, 6.776505e+005
4.395448e+002, 6.781354e+005
4.400269e+002, 6.786433e+005
4.405090e+002, 6.793348e+005
4.409911e+002, 6.801916e+005
4.414732e+002, 6.811632e+005
4.419554e+002, 6.823707e+005
4.424375e+002, 6.835716e+005
4.429196e+002, 6.846267e+005
4.434017e+002, 6.855264e+005
4.438838e+002, 6.863230e+005
4.443659e+002, 6.868530e+005
4.448481e+002, 6.873775e+005
4.453302e+002, 6.880938e+005
4.458123e+002, 6.891746e+005
4.462944e+002, 6.902625e+005
4.467765e+002, 6.913939e+005
4.472586e+002, 6.924924e+005
4.477408e+002, 6.933624e+005
4.482229e+002, 6.937641e+005
4.487050e+002, 6.941668e+005
4.491871e+002, 6.947553e+005
4.496692e+002, 6.955998e+005
4.501513e+002, 6.961984e+005
4.506335e+002, 6.963858e+005
4.511156e+002, 6.965186e+005
4.515977e+002, 6.969716e+005
4.520798e+002, 6.978730e+005
4.525619e+002, 6.986987e+005
4.530440e+002, 6.993845e+005
4.535262e+002, 6.999510e+005
4.540083e+002, 7.004280e+005
4.544904e+002, 7.007879e+005
4.549725e+002, 7.012830e+005
4.554546e+002, 7.020729e+005
4.559367e+002, 7.031253e+005
4.564189e+002, 7.043501e+005
4.569010e+002, 7.057669e+005
4.573831e+002, 7.071411e+005
4.578652e+002, 7.080316e+005
4.583473e+002, 7.085993e+005
4.588294e+002, 7.093614e+005
4.593116e+002, 7.106714e+005
4.597937e+002, 7.120535e+005
4.602758e+002, 7.127963e+005
4.607579e+002, 7.130193e+005
4.612400e+002, 7.133754e+005
4.617221e+002, 7.145939e+005
4.622043e+002, 7.159561e+005
4.626864e+002, 7.166466e+005
4.631685e+002, 7.163667e+005
4.636506e+002, 7.162703e+005
4.641327e+002, 7.172403e+005
4.646148e+002, 7.186646e+005
4.650970e+002, 7.197664e+005
4.655791e+002, 7.201465e+005
4.660612e+002, 7.203392e+005
4.665433e+002, 7.203614e+005
4.670254e+002, 7.202659e+005
4.675075e+002, 7.204854e+005
4.679897e+002, 7.213777e+005
4.684718e+002, 7.223607e+005
4.689539e+002, 7.231354e+005
4.694360e+002, 7.234841e+005
4.699181e+002, 7.240869e+005
4.704002e+002, 7.250485e+005
4.708824e+002, 7.261830e+005
4.713645e+002, 7.272341e+005
4.718466e+002, 7.282055e+005
4.723287e+002, 7.290350e+005
4.728108e+002, 7.296256e+005
4.732929e+002, 7.300396e+005
4.737751e+002, 7.307880e+005
4.742572e+002, 7.319324e+005
4.747393e+002, 7.330355e+005
4.752214e+002, 7.336929e+005
4.757035e+002, 7.339809e+005
4.761856e+002, 7.344256e+005
4.766678e+002, 7.350971e+005
4.771499e+002, 7.359043e+005
4.776320e+002, 7.367600e+005
4.781141e+002, 7.376572e+005
4.785962e+002, 7.385513e+005
4.790783e+002, 7.394486e+005
4.795605e+002, 7.403226e+005
4.800426e+002, 7.411203e+005
4.805247e+002, 7.418543e+005
4.810068e+002, 7.426041e+005
4.814889e+002, 7.434031e+005
4.819710e+002, 7.442419e+005
4.824532e+002, 7.451263e+005
4.829353e+002, 7.461008e+005
4.834174e+002, 7.469940e+005
4.838995e+002, 7.476618e+005
4.843816e+002, 7.482149e+005
4.848637e+002, 7.488184e+005
4.853459e+002, 7.494877e+005
4.858280e+002, 7.502225e+005
4.863101e+002, 7.511299e+005
4.867922e+002, 7.522106e+005
4.872743e+002, 7.529458e+005
4.877564e+002, 7.529078e+005
4.882386e+002, 7.529898e+005
4.887207e+002, 7.537571e+005
4.892028e+002, 7.556082e+005
4.896849e+002, 7.570999e+005
4.901670e+002, 7.581841e+005
4.906491e+002, 7.589546e+005
4.911313e+002, 7.594601e+005
4.916134e+002, 7.596226e+005
4.920955e+002, 7.600540e+005
4.925776e+002, 7.610354e+005
4.930597e+002, 7.623984e+005
4.935418e+002, 7.635201e+005
4.940240e+002, 7.643839e+005
4.945061e+002, 7.652236e+005
4.949882e+002, 7.661838e+005
4.954703e+002, 7.672318e+005
4.959524e+002, 7.683816e+005
4.964345e+002, 7.696621e+005
4.969167e+002, 7.708259e+005
4.973988e+002, 7.715137e+005
4.978809e+002, 7.719209e+005
4.983630e+002, 7.724055e+005
4.988451e+002, 7.732393e+005
4.993272e+002, 7.741049e+005
4.998094e+002, 7.748210e+005
5.002915e+002, 7.754086e+005
5.007736e+002, 7.759022e+005
5.012557e+002, 7.761394e+005
5.017378e+002, 7.764532e+005
5.022199e+002, 7.771216e+005
5.027021e+002, 7.784878e+005
5.031842e+002, 7.794455e+005
5.036663e+002, 7.794627e+005
5.041484e+002, 7.791816e+005
5.046305e+002, 7.793403e+005
5.051126e+002, 7.800894e+005
5.055948e+002, 7.810392e+005
5.060769e+002, 7.822501e+005
5.065590e+002, 7.836248e+005
5.070411e+002, 7.846757e+005
5.075232e+002, 7.853070e+005
5.080053e+002, 7.858556e+005
5.084875e+002, 7.864678e+005
5.089696e+002, 7.871311e+005
5.094517e+002, 7.879011e+005
5.099338e+002, 7.887844e+005
5.104159e+002, 7.897169e+005
5.108980e+002, 7.906483e+005
5.113802e+002, 7.915744e+005
5.118623e+002, 7.924659e+005
5.123444e+002, 7.933723e+005
5.128265e+002, 7.941555e+005
5.133087e+002, 7.944518e+005
5.137908e+002, 7.944292e+005
5.142729e+002, 7.946860e+005
5.147550e+002, 7.961006e+005
5.152371e+002, 7.975981e+005
5.157192e+002, 7.980188e+005
5.162014e+002, 7.972182e+005
5.166835e+002, 7.968057e+005
5.171656e+002, 7.978701e+005
5.176477e+002, 7.994776e+005
5.181298e+002, 8.008299e+005
5.186119e+002, 8.016929e+005
5.190941e+002, 8.023921e+005
5.195762e+002, 8.027968e+005
5.200583e+002, 8.030784e+005
5.205404e+002, 8.036526e+005
5.210225e+002, 8.046266e+005
5.215046e+002, 8.057261e+005
5.219868e+002, 8.068987e+005
5.224689e+002, 8.081431e+005
5.229510e+002, 8.093599e+005
5.234331e+002, 8.105430e+005
5.239152e+002, 8.117022e+005
5.243973e+002, 8.128321e+005
5.248795e+002, 8.139206e+005
5.253616e+002, 8.150293e+005
5.258437e+002, 8.161635e+005
5.263258e+002, 8.173188e+005
5.268079e+002, 8.185857e+005
5.272900e+002, 8.198971e+005
5.277722e+002, 8.209092e+005
5.282543e+002, 8.213100e+005
5.287364e+002, 8.214598e+005
5.292185e+002, 8.218667e+005
5.297006e+002, 8.224766e+005
5.301827e+002, 8.230224e+005
5.306649e+002, 8.232219e+005
5.311470e+002, 8.233648e+005
5.316291e+002, 8.237109e+005
5.321112e+002, 8.243243e+005
5.325933e+002, 8.250449e+005
5.330754e+002, 8.259934e+005
5.335576e+002, 8.269571e+005
5.340397e+002, 8.276979e+005
5.345218e+002, 8.279283e+005
5.350039e+002, 8.282558e+005
5.354860e+002, 8.287951e+005
5.359681e+002, 8.295062e+005
5.364503e+002, 8.302534e+005
5.369324e+002, 8.310208e+005
5.374145e+002, 8.318603e+005
5.378966e+002, 8.328282e+005
5.383787e+002, 8.339233e+005
5.388608e+002, 8.347923e+005
5.393430e+002, 8.353572e+005
5.398251e+002, 8.358828e+005
5.403072e+002, 8.365182e+005
5.407893e+002, 8.372689e+005
5.412714e+002, 8.384278e+005
5.417535e+002, 8.401459e+005
5.422357e+002, 8.419499e+005
5.427178e+002, 8.431738e+005
5.431999e+002, 8.439354e+005
5.436820e+002, 8.445747e+005
5.441641e+002, 8.452379e+005
5.446462e+002, 8.458528e+005
5.451284e+002, 8.462612e+005
5.456105e+002, 8.465184e+005
5.460926e+002, 8.469613e+005
5.465747e+002, 8.477319e+005
5.470568e+002, 8.487729e+005
5.475389e+002, 8.501744e+005
5.480211e+002, 8.521729e+005
5.485032e+002, 8.537469e+005
5.489853e+002, 8.544099e+005
5.494674e+002, 8.546879e+005
5.499495e+002, 8.551337e+005
5.504316e+002, 8.558335e+005
5.509138e+002, 8.565689e+005
5.513959e+002, 8.573158e+005
5.518780e+002, 8.580761e+005
5.523601e+002, 8.588306e+005
5.528422e+002, 8.595562e+005
5.533243e+002, 8.603609e+005
5.538065e+002, 8.613842e+005
5.542886e+002, 8.625605e+005
5.547707e+002, 8.633234e+005
5.552528e+002, 8.636499e+005
5.557349e+002, 8.638371e+005
5.562170e+002, 8.640329e+005
5.566992e+002, 8.642999e+005
5.571813e+002, 8.648321e+005
5.576634e+002, 8.657088e+005
5.581455e+002, 8.666944e+005
5.586276e+002, 8.676969e+005
5.591097e+002, 8.686341e+005
5.595919e+002, 8.693760e+005
5.600740e+002, 8.697521e+005
5.605561e+002, 8.700274e+005
5.610382e+002, 8.701806e+005
5.615203e+002, 8.702947e+005
5.620024e+002, 8.707266e+005
5.624846e+002, 8.720109e+005
5.629667e+002, 8.732395e+005
5.634488e+002, 8.738688e+005
5.639309e+002, 8.736529e+005
5.644130e+002, 8.740156e+005
5.648951e+002, 8.752282e+005
5.653773e+002, 8.767070e+005
5.658594e+002, 8.780303e+005
5.663415e+002, 8.792179e+005
5.668236e+002, 8.801241e+005
5.673057e+002, 8.806784e+005
5.677878e+002, 8.810420e+005
5.682700e+002, 8.814713e+005
5.687521e+002, 8.819748e+005
5.692342e+002, 8.825896e+005
5.697163e+002, 8.834309e+005
5.701984e+002, 8.843490e+005
5.706805e+002, 8.851075e+005
5.711627e+002, 8.857181e+005
5.716448e+002, 8.862211e+005
5.721269e+002, 8.864419e+005
5.726090e+002, 8.867014e+005
5.730911e+002, 8.873743e+005
5.735732e+002, 8.885679e+005
5.740554e+002, 8.897360e+005
5.745375e+002, 8.905371e+005
5.750196e+002, 8.912510e+005
5.755017e+002, 8.921372e+005
5.759838e+002, 8.933111e+005
5.764659e+002, 8.945465e+005
5.769481e+002, 8.959094e+005
5.774302e+002, 8.972746e+005
5.779123e+002, 8.983850e+005
5.783944e+002, 8.990453e+005
5.788765e+002, 8.997956e+005
5.793586e+002, 9.007748e+005
5.798408e+002, 9.019489e+005
5.803229e+002, 9.032472e+005
5.808050e+002, 9.047292e+005
5.812871e+002, 9.059303e+005
5.817692e+002, 9.063818e+005
5.822513e+002, 9.062846e+005
5.827335e+002, 9.064651e+005
5.832156e+002, 9.070054e+005
5.836977e+002, 9.076443e+005
5.841798e+002, 9.080925e+005
5.846619e+002, 9.085121e+005
5.851440e+002, 9.091560e+005
5.856262e+002, 9.101003e+005
5.861083e+002, 9.113085e+005
5.865904e+002, 9.132036e+005
5.870725e+002, 9.153118e+005
5.875546e+002, 9.166806e+005
5.880367e+002, 9.160876e+005
5.885189e+002, 9.156974e+005
5.890010e+002, 9.162751e+005
5.894831e+002, 9.177809e+005
5.899652e+002, 9.192111e+005
5.904473e+002, 9.206424e+005
5.909294e+002, 9.218434e+005
5.914116e+002, 9.225902e+005
5.918937e+002, 9.227563e+005
5.923758e+002, 9.233494e+005
5.928579e+002, 9.244782e+005
5.933400e+002, 9.257287e+005
5.938221e+002, 9.267138e+005
5.943043e+002, 9.274559e+005
5.947864e+002, 9.281126e+005
5.952685e+002, 9.287476e+005
5.957506e+002, 9.292524e+005
5.962327e+002, 9.293396e+005
5.967148e+002, 9.291919e+005
5.971970e+002, 9.292640e+005
5.976791e+002, 9.297736e+005
5.981612e+002, 9.305813e+005
5.986433e+002, 9.318479e+005
5.991254e+002, 9.334174e+005
5.996075e+002, 9.345859e+005
6.000897e+002, 9.347852e+005
6.005718e+002, 9.348048e+005
6.010539e+002, 9.349694e+005
6.015360e+002, 9.352803e+005
6.020181e+002, 9.358634e+005
6.025002e+002, 9.369354e+005
6.029824e+002, 9.380655e+005
6.034645e+002, 9.389215e+005
6.039466e+002, 9.394416e+005
6.044287e+002, 9.399640e+005
6.049108e+002, 9.405066e+005
6.053929e+002, 9.410723e+005
6.058751e+002, 9.415808e+005
6.063572e+002, 9.420610e+005
6.068393e+002, 9.429067e+005
6.073214e+002, 9.443909e+005
6.078035e+002, 9.460914e+005
6.082856e+002, 9.473671e+005
6.087678e+002, 9.482946e+005
6.092499e+002, 9.492201e+005
6.097320e+002, 9.504266e+005
6.102141e+002, 9.516103e+005
6.106962e+002, 9.524686e+005
6.111783e+002, 9.529959e+005
6.116605e+002, 9.535421e+005
6.121426e+002, 9.542109e+005
6.126247e+002, 9.549584e+005
6.131068e+002, 9.557716e+005
6.135889e+002, 9.567233e+005
6.140710e+002, 9.576261e+005
6.145532e+002, 9.585851e+005
6.150353e+002, 9.594391e+005
6.155174e+002, 9.599518e+005
6.159995e+002, 9.599949e+005
6.164816e+002, 9.603705e+005
6.169637e+002, 9.612622e+005
6.174459e+002, 9.624346e+005
6.179280e+002, 9.634683e+005
6.184101e+002, 9.643707e+005
6.188922e+002, 9.652596e+005
6.193743e+002, 9.661962e+005
6.198564e+002, 9.671276e+005
6.203386e+002, 9.679829e+005
6.208207e+002, 9.687492e+005
6.213028e+002, 9.694045e+005
6.217849e+002, 9.697864e+005
6.222670e+002, 9.701551e+005
6.227491e+002, 9.707534e+005
6.232313e+002, 9.716392e+005
6.237134e+002, 9.723797e+005
6.241955e+002, 9.725930e+005
6.246776e+002, 9.728331e+005
6.251597e+002, 9.735352e+005
6.256418e+002, 9.752838e+005
6.261240e+002, 9.763784e+005
6.266061e+002, 9.765585e+005
6.270882e+002, 9.763993e+005
6.275703e+002, 9.766016e+005
6.280524e+002, 9.771782e+005
6.285345e+002, 9.780885e+005
6.290167e+002, 9.794066e+005
6.294988e+002, 9.809318e+005
6.299809e+002, 9.822833e+005
6.304630e+002, 9.834886e+005
6.309451e+002, 9.846803e+005
6.314272e+002, 9.858804e+005
6.319094e+002, 9.871180e+005
6.323915e+002, 9.884554e+005
6.328736e+002, 9.898634e+005
6.333557e+002, 9.911974e+005
6.338378e+002, 9.922726e+005
6.343199e+002, 9.933274e+005
6.348021e+002, 9.945599e+005
6.352842e+002, 9.960552e+005
6.357663e+002, 9.973483e+005
6.362484e+002, 9.982286e+005
6.367305e+002, 9.990453e+005
6.372126e+002, 1.000056e+006
6.376948e+002, 1.001394e+006
6.381769e+002, 1.002596e+006
6.386590e+002, 1.003654e+006
6.391411e+002, 1.004589e+006
6.396232e+002, 1.005325e+006
6.401053e+002, 1.005893e+006
6.405875e+002, 1.006660e+006
6.410696e+002, 1.007752e+006
6.415517e+002, 1.009030e+006
6.420338e+002, 1.010273e+006
6.425159e+002, 1.011510e+006
6.429980e+002, 1.012837e+006
6.434802e+002, 1.014372e+006
6.439623e+002, 1.015940e+006
6.444444e+002, 1.017309e+006
6.449265e+002, 1.018545e+006
6.454086e+002, 1.020024e+006
6.458907e+002, 1.022083e+006
6.463729e+002, 1.024215e+006
6.468550e+002, 1.026198e+006
6.473371e+002, 1.028013e+006
6.478192e+002, 1.029771e+006
6.483013e+002, 1.031446e+006
6.487834e+002, 1.033089e+006
6.492656e+002, 1.034713e+006
6.497477e+002, 1.036336e+006
6.502298e+002, 1.037902e+006
6.507119e+002, 1.039383e+006
6.511940e+002, 1.040914e+006
6.516761e+002, 1.042783e+006
6.521583e+002, 1.044841e+006
6.526404e+002, 1.046561e+006
6.531225e+002, 1.047744e+006
6.536046e+002, 1.048662e+006
6.540867e+002, 1.049669e+006
6.545688e+002, 1.050585e+006
6.550510e+002, 1.051081e+006
6.555331e+002, 1.050813e+006
6.560152e+002, 1.050335e+006
6.564973e+002, 1.049643e+006
6.569794e+002, 1.048849e+006
6.574615e+002, 1.048506e+006
6.579437e+002, 1.048920e+006
6.584258e+002, 1.049373e+006
6.589079e+002, 1.049627e+006
6.593900e+002, 1.049689e+006
6.598721e+002, 1.049777e+006
6.603542e+002, 1.049880e+006
6.608364e+002, 1.050050e+006
6.613185e+002, 1.050312e+006
6.618006e+002, 1.050671e+006
6.622827e+002, 1.051229e+006
6.627648e+002, 1.052007e+006
6.632469e+002, 1.052732e+006
6.637291e+002, 1.053108e+006
6.642112e+002, 1.053322e+006
6.646933e+002, 1.053632e+006
6.651754e+002, 1.054142e+006
6.656575e+002, 1.054654e+006
6.661396e+002, 1.054955e+006
6.666218e+002, 1.055279e+006
6.671039e+002, 1.055915e+006
6.675860e+002, 1.057264e+006
6.680681e+002, 1.058469e+006
6.685502e+002, 1.059319e+006
6.690323e+002, 1.060048e+006
6.695145e+002, 1.061240e+006
6.699966e+002, 1.063059e+006
6.704787e+002, 1.064517e+006
6.709608e+002, 1.065208e+006
6.714429e+002, 1.065403e+006
6.719250e+002, 1.065637e+006
6.724072e+002, 1.065959e+006
6.728893e+002, 1.066813e+006
6.733714e+002, 1.069152e+006
6.738535e+002, 1.071745e+006
6.743356e+002, 1.072853e+006
6.748177e+002, 1.072607e+006
6.752999e+002, 1.072683e+006
6.757820e+002, 1.074516e+006
6.762641e+002, 1.076488e+006
6.767462e+002, 1.077453e+006
6.772283e+002, 1.076846e+006
6.777104e+002, 1.076967e+006
6.781926e+002, 1.078207e+006
6.786747e+002, 1.079875e+006
6.791568e+002, 1.081490e+006
6.796389e+002, 1.083007e+006
6.801210e+002, 1.084742e+006
6.806031e+002, 1.086801e+006
6.810853e+002, 1.088875e+006
6.815674e+002, 1.090687e+006
6.820495e+002, 1.092222e+006
6.825316e+002, 1.093479e+006
6.830137e+002, 1.094360e+006
6.834958e+002, 1.095139e+006
6.839780e+002, 1.096065e+006
6.844601e+002, 1.097090e+006
6.849422e+002, 1.098095e+006
6.854243e+002, 1.099239e+006
6.859064e+002, 1.100159e+006
6.863885e+002, 1.100418e+006
6.868707e+002, 1.100315e+006
6.873528e+002, 1.100914e+006
6.878349e+002, 1.102801e+006
6.883170e+002, 1.104652e+006
6.887991e+002, 1.106123e+006
6.892813e+002, 1.107281e+006
6.897634e+002, 1.108321e+006
6.902455e+002, 1.109230e+006
6.907276e+002, 1.110146e+006
6.912097e+002, 1.111098e+006
6.916918e+002, 1.112108e+006
6.921740e+002, 1.113425e+006
6.926561e+002, 1.115000e+006
6.931382e+002, 1.116232e+006
6.936203e+002, 1.116209e+006
6.941024e+002, 1.115883e+006
6.945845e+002, 1.116178e+006
6.950667e+002, 1.117249e+006
6.955488e+002, 1.118588e+006
6.960309e+002, 1.120347e+006
6.965130e+002, 1.122065e+006
6.969951e+002, 1.123390e+006
6.974772e+002, 1.124188e+006
6.979594e+002, 1.124847e+006
6.984415e+002, 1.125271e+006
6.989236e+002, 1.125702e+006
6.994057e+002, 1.126581e+006
6.998878e+002, 1.127937e+006
7.003699e+002, 1.128831e+006
7.008521e+002, 1.129019e+006
7.013342e+002, 1.128967e+006
7.018163e+002, 1.129304e+006
7.022984e+002, 1.129925e+006
7.027805e+002, 1.130533e+006
7.032626e+002, 1.130888e+006
7.037448e+002, 1.131375e+006
7.042269e+002, 1.132304e+006
7.047090e+002, 1.133544e+006
7.051911e+002, 1.134803e+006
7.056732e+002, 1.135998e+006
7.061553e+002, 1.137159e+006
7.066375e+002, 1.138142e+006
7.071196e+002, 1.139047e+006
7.076017e+002, 1.140496e+006
7.080839e+002, 1.142708e+006
7.085660e+002, 1.144672e+006
7.090481e+002, 1.145822e+006
7.095302e+002, 1.146395e+006
7.100123e+002, 1.147513e+006
7.104944e+002, 1.149147e+006
7.109766e+002, 1.150747e+006
7.114587e+002, 1.152046e+006
7.119408e+002, 1.153056e+006
7.124229e+002, 1.153710e+006
7.129050e+002, 1.154029e+006
7.133871e+002, 1.154382e+006
7.138693e+002, 1.155197e+006
7.143514e+002, 1.155953e+006
7.148335e+002, 1.156202e+006
7.153156e+002, 1.155542e+006
7.157977e+002, 1.155745e+006
7.162798e+002, 1.157475e+006
7.167620e+002, 1.159316e+006
7.172441e+002, 1.160039e+006
7.177262e+002, 1.159512e+006
7.182083e+002, 1.159436e+006
7.186904e+002, 1.159928e+006
7.191725e+002, 1.160855e+006
7.196547e+002, 1.162284e+006
7.201368e+002, 1.164004e+006
7.206189e+002, 1.165403e+006
7.211010e+002, 1.166212e+006
7.215831e+002, 1.167101e+006
7.220652e+002, 1.168712e+006
7.225474e+002, 1.170649e+006
7.230295e+002, 1.172418e+006
7.235116e+002, 1.173666e+006
7.239937e+002, 1.174902e+006
7.244758e+002, 1.176148e+006
7.249579e+002, 1.177428e+006
7.254401e+002, 1.178829e+006
7.259222e+002, 1.180357e+006
7.264043e+002, 1.181909e+006
7.268864e+002, 1.183429e+006
7.273685e+002, 1.184985e+006
7.278506e+002, 1.186853e+006
7.283328e+002, 1.188944e+006
7.288149e+002, 1.190650e+006
7.292970e+002, 1.191517e+006
7.297791e+002, 1.191992e+006
7.302612e+002, 1.192468e+006
7.307433e+002, 1.192957e+006
7.312255e+002, 1.193505e+006
7.317076e+002, 1.194095e+006
7.321897e+002, 1.194788e+006
7.326718e+002, 1.195643e+006
7.331539e+002, 1.196657e+006
7.336360e+002, 1.197680e+006
7.341182e+002, 1.198793e+006
7.346003e+002, 1.199827e+006
7.350824e+002, 1.200712e+006
7.355645e+002, 1.201469e+006
7.360466e+002, 1.202148e+006
7.365287e+002, 1.202751e+006
7.370109e+002, 1.203364e+006
7.374930e+002, 1.203931e+006
7.379751e+002, 1.204601e+006
7.384572e+002, 1.205764e+006
7.389393e+002, 1.207408e+006
7.394214e+002, 1.208914e+006
7.399036e+002, 1.210048e+006
7.403857e+002, 1.210801e+006
7.408678e+002, 1.210946e+006
7.413499e+002, 1.210045e+006
7.418320e+002, 1.210253e+006
7.423141e+002, 1.212526e+006
7.427963e+002, 1.214951e+006
7.432784e+002, 1.216078e+006
7.437605e+002, 1.215617e+006
7.442426e+002, 1.216083e+006
7.447247e+002, 1.217702e+006
7.452068e+002, 1.219636e+006
7.456890e+002, 1.221164e+006
7.461711e+002, 1.222344e+006
7.466532e+002, 1.223186e+006
7.471353e+002, 1.223608e+006
7.476174e+002, 1.224184e+006
7.480995e+002, 1.225598e+006
7.485817e+002, 1.227290e+006
7.490638e+002, 1.228578e+006
7.495459e+002, 1.228694e+006
7.500280e+002, 1.229423e+006
7.505101e+002, 1.231190e+006
7.509922e+002, 1.233489e+006
7.514744e+002, 1.235844e+006
7.519565e+002, 1.238319e+006
7.524386e+002, 1.240332e+006
7.529207e+002, 1.241675e+006
7.534028e+002, 1.242689e+006
7.538849e+002, 1.243790e+006
7.543671e+002, 1.244990e+006
7.548492e+002, 1.246452e+006
7.553313e+002, 1.248446e+006
7.558134e+002, 1.250279e+006
7.562955e+002, 1.251149e+006
7.567776e+002, 1.251456e+006
7.572598e+002, 1.251874e+006
7.577419e+002, 1.252695e+006
7.582240e+002, 1.253594e+006
7.587061e+002, 1.254702e+006
7.591882e+002, 1.255843e+006
7.596703e+002, 1.256599e+006
7.601525e+002, 1.256868e+006
7.606346e+002, 1.257188e+006
7.611167e+002, 1.257674e+006
7.615988e+002, 1.258351e+006
7.620809e+002, 1.259335e+006
7.625630e+002, 1.260588e+006
7.630452e+002, 1.261869e+006
7.635273e+002, 1.263114e+006
7.640094e+002, 1.264286e+006
7.644915e+002, 1.265306e+006
7.649736e+002, 1.266220e+006
7.654557e+002, 1.267209e+006
7.659379e+002, 1.268278e+006
7.664200e+002, 1.269458e+006
7.669021e+002, 1.270820e+006
7.673842e+002, 1.272291e+006
7.678663e+002, 1.273590e+006
7.683484e+002, 1.274707e+006
7.688306e+002, 1.275615e+006
7.693127e+002, 1.276169e+006
7.697948e+002, 1.276536e+006
7.702769e+002, 1.277389e+006
7.707590e+002, 1.278681e+006
7.712411e+002, 1.280023e+006
7.717233e+002, 1.281053e+006
7.722054e+002, 1.282116e+006
7.726875e+002, 1.283785e+006
7.731696e+002, 1.285940e+006
7.736517e+002, 1.287576e+006
7.741339e+002, 1.288066e+006
7.746160e+002, 1.288246e+006
7.750981e+002, 1.288276e+006
7.755802e+002, 1.288190e+006
7.760623e+002, 1.288912e+006
7.765444e+002, 1.290677e+006
7.770266e+002, 1.292597e+006
7.775087e+002, 1.294172e+006
7.779908e+002, 1.295482e+006
7.784729e+002, 1.296940e+006
7.789550e+002, 1.298522e+006
7.794371e+002, 1.299947e+006
7.799193e+002, 1.300810e+006
7.804014e+002, 1.301525e+006
7.808835e+002, 1.302528e+006
7.813656e+002, 1.303828e+006
7.818477e+002, 1.305124e+006
7.823298e+002, 1.306529e+006
7.828120e+002, 1.307692e+006
7.832941e+002, 1.308370e+006
7.837762e+002, 1.308495e+006
7.842583e+002, 1.309003e+006
7.847404e+002, 1.309954e+006
7.852225e+002, 1.311162e+006
7.857047e+002, 1.312867e+006
7.861868e+002, 1.314782e+006
7.866689e+002, 1.315619e+006
7.871510e+002, 1.315370e+006
7.876331e+002, 1.314989e+006
7.881152e+002, 1.314802e+006
7.885974e+002, 1.315079e+006
7.890795e+002, 1.316228e+006
7.895616e+002, 1.318388e+006
7.900437e+002, 1.320436e+006
7.905258e+002, 1.322046e+006
7.910079e+002, 1.323487e+006
7.914901e+002, 1.324841e+006
7.919722e+002, 1.326024e+006
7.924543e+002, 1.327557e+006
7.929364e+002, 1.329501e+006
7.934185e+002, 1.331350e+006
7.939006e+002, 1.332475e+006
7.943828e+002, 1.333164e+006
7.948649e+002, 1.334375e+006
7.953470e+002, 1.336198e+006
7.958291e+002, 1.337656e+006
7.963112e+002, 1.337567e+006
7.967933e+002, 1.337139e+006
7.972755e+002, 1.337477e+006
7.977576e+002, 1.338997e+006
7.982397e+002, 1.340136e+006
7.987218e+002, 1.340563e+006
7.992039e+002, 1.340797e+006
7.996860e+002, 1.340997e+006
8.001682e+002, 1.341058e+006
8.006503e+002, 1.342302e+006
8.011324e+002, 1.344949e+006
8.016145e+002, 1.347531e+006
8.020966e+002, 1.348484e+006
8.025787e+002, 1.348494e+006
8.030609e+002, 1.348827e+006
8.035430e+002, 1.349624e+006
8.040251e+002, 1.350676e+006
8.045072e+002, 1.351899e+006
8.049893e+002, 1.353288e+006
8.054714e+002, 1.354845e+006
8.059536e+002, 1.356631e+006
8.064357e+002, 1.358417e+006
8.069178e+002, 1.360243e+006
8.073999e+002, 1.361979e+006
8.078820e+002, 1.363552e+006
8.083641e+002, 1.364942e+006
8.088463e+002, 1.366147e+006
8.093284e+002, 1.367176e+006
8.098105e+002, 1.367851e+006
8.102926e+002, 1.367407e+006
8.107747e+002, 1.366796e+006
8.112568e+002, 1.367552e+006
8.117390e+002, 1.370025e+006
8.122211e+002, 1.372307e+006
8.127032e+002, 1.373321e+006
8.131853e+002, 1.374113e+006
8.136674e+002, 1.375480e+006
8.141495e+002, 1.377673e+006
8.146317e+002, 1.379406e+006
8.151138e+002, 1.380561e+006
8.155959e+002, 1.381511e+006
8.160780e+002, 1.382375e+006
8.165601e+002, 1.383241e+006
8.170422e+002, 1.384628e+006
8.175244e+002, 1.386569e+006
8.180065e+002, 1.388400e+006
8.184886e+002, 1.389329e+006
8.189707e+002, 1.390058e+006
8.194528e+002, 1.391297e+006
8.199349e+002, 1.393181e+006
8.204171e+002, 1.395036e+006
8.208992e+002, 1.397023e+006
8.213813e+002, 1.398647e+006
8.218634e+002, 1.399588e+006
8.223455e+002, 1.399780e+006
8.228276e+002, 1.400144e+006
8.233098e+002, 1.400753e+006
8.237919e+002, 1.401201e+006
8.242740e+002, 1.400876e+006
8.247561e+002, 1.400272e+006
8.252382e+002, 1.400416e+006
8.257203e+002, 1.401369e+006
8.262025e+002, 1.402571e+006
8.266846e+002, 1.403969e+006
8.271667e+002, 1.405285e+006
8.276488e+002, 1.406210e+006
8.281309e+002, 1.406621e+006
8.286130e+002, 1.407538e+006
8.290952e+002, 1.409235e+006
8.295773e+002, 1.410946e+006
8.300594e+002, 1.412122e+006
8.305415e+002, 1.412844e+006
8.310236e+002, 1.414385e+006
8.315057e+002, 1.416720e+006
8.319879e+002, 1.418780e+006
8.324700e+002, 1.419680e+006
8.329521e+002, 1.419993e+006
8.334342e+002, 1.420103e+006
8.339163e+002, 1.420096e+006
8.343984e+002, 1.420655e+006
8.348806e+002, 1.422749e+006
8.353627e+002, 1.424746e+006
8.358448e+002, 1.425859e+006
8.363269e+002, 1.426139e+006
8.368090e+002, 1.426772e+006
8.372911e+002, 1.427854e+006
8.377733e+002, 1.428848e+006
8.382554e+002, 1.429170e+006
8.387375e+002, 1.429290e+006
8.392196e+002, 1.430661e+006
8.397017e+002, 1.433063e+006
8.401838e+002, 1.435199e+006
8.406660e+002, 1.435947e+006
8.411481e+002, 1.436535e+006
8.416302e+002, 1.437835e+006
8.421123e+002, 1.439756e+006
8.425944e+002, 1.441172e+006
8.430765e+002, 1.441677e+006
8.435587e+002, 1.442280e+006
8.440408e+002, 1.443305e+006
8.445229e+002, 1.444645e+006
8.450050e+002, 1.445999e+006
8.454871e+002, 1.447342e+006
8.459692e+002, 1.448431e+006
8.464514e+002, 1.448830e+006
8.469335e+002, 1.449167e+006
8.474156e+002, 1.450367e+006
8.478977e+002, 1.452093e+006
8.483798e+002, 1.453367e+006
8.488619e+002, 1.453193e+006
8.493441e+002, 1.453334e+006
8.498262e+002, 1.454451e+006
8.503083e+002, 1.456201e+006
8.507904e+002, 1.457647e+006
8.512725e+002, 1.458708e+006
8.517546e+002, 1.460024e+006
8.522368e+002, 1.461894e+006
8.527189e+002, 1.463942e+006
8.532010e+002, 1.465454e+006
8.536831e+002, 1.466580e+006
8.541652e+002, 1.467744e+006
8.546473e+002, 1.469039e+006
8.551295e+002, 1.470480e+006
8.556116e+002, 1.472275e+006
8.560937e+002, 1.474140e+006
8.565758e+002, 1.475554e+006
8.570579e+002, 1.476180e+006
8.575400e+002, 1.477017e+006
8.580222e+002, 1.478205e+006
8.585043e+002, 1.479599e+006
8.589864e+002, 1.481002e+006
8.594685e+002, 1.482401e+006
8.599506e+002, 1.483719e+006
8.604327e+002, 1.484914e+006
8.609149e+002, 1.486043e+006
8.613970e+002, 1.487237e+006
8.618791e+002, 1.488335e+006
8.623612e+002, 1.489121e+006
8.628433e+002, 1.489102e+006
8.633254e+002, 1.489604e+006
8.638076e+002, 1.491234e+006
8.642897e+002, 1.492915e+006
8.647718e+002, 1.493348e+006
8.652539e+002, 1.492450e+006
8.657360e+002, 1.492669e+006
8.662181e+002, 1.494361e+006
8.667003e+002, 1.496178e+006
8.671824e+002, 1.496493e+006
8.676645e+002, 1.496211e+006
8.681466e+002, 1.496623e+006
8.686287e+002, 1.498001e+006
8.691108e+002, 1.499697e+006
8.695930e+002, 1.502000e+006
8.700751e+002, 1.504094e+006
8.705572e+002, 1.505253e+006
8.710393e+002, 1.505168e+006
8.715214e+002, 1.506130e+006
8.720035e+002, 1.508276e+006
8.724857e+002, 1.510700e+006
8.729678e+002, 1.512720e+006
8.734499e+002, 1.514436e+006
8.739320e+002, 1.516095e+006
8.744141e+002, 1.517663e+006
8.748962e+002, 1.518957e+006
8.753784e+002, 1.519641e+006
8.758605e+002, 1.520208e+006
8.763426e+002, 1.520977e+006
8.768247e+002, 1.521976e+006
8.773068e+002, 1.522967e+006
8.777889e+002, 1.524183e+006
8.782711e+002, 1.525001e+006
8.787532e+002, 1.525079e+006
8.792353e+002, 1.524708e+006
8.797174e+002, 1.524577e+006
8.801995e+002, 1.524774e+006
8.806816e+002, 1.525598e+006
8.811638e+002, 1.527820e+006
8.816459e+002, 1.530203e+006
8.821280e+002, 1.531677e+006
8.826101e+002, 1.532537e+006
8.830922e+002, 1.533701e+006
8.835743e+002, 1.535577e+006
8.840565e+002, 1.537327e+006
8.845386e+002, 1.538712e+006
8.850207e+002, 1.539918e+006
8.855028e+002, 1.541419e+006
8.859849e+002, 1.543163e+006
8.864670e+002, 1.544774e+006
8.869492e+002, 1.546027e+006
8.874313e+002, 1.547326e+006
8.879134e+002, 1.549396e+006
8.883955e+002, 1.551715e+006
8.888776e+002, 1.553522e+006
8.893597e+002, 1.554413e+006
8.898419e+002, 1.555102e+006
8.903240e+002, 1.555509e+006
8.908061e+002, 1.555960e+006
8.912882e+002, 1.556949e+006
8.917703e+002, 1.558570e+006
8.922524e+002, 1.559447e+006
8.927346e+002, 1.559362e+006
8.932167e+002, 1.559233e+006
8.936988e+002, 1.559980e+006
8.941809e+002, 1.561300e+006
8.946630e+002, 1.562946e+006
8.951451e+002, 1.564969e+006
8.956273e+002, 1.566497e+006
8.961094e+002, 1.566870e+006
8.965915e+002, 1.566951e+006
8.970736e+002, 1.567186e+006
8.975557e+002, 1.567552e+006
8.980378e+002, 1.568597e+006
8.985200e+002, 1.570473e+006
8.990021e+002, 1.572209e+006
8.994842e+002, 1.572787e+006
8.999663e+002, 1.572915e+006
9.004484e+002, 1.574044e+006
9.009305e+002, 1.576051e+006
9.014127e+002, 1.577888e+006
9.018948e+002, 1.578777e+006
9.023769e+002, 1.579637e+006
9.028590e+002, 1.580908e+006
9.033411e+002, 1.582505e+006
9.038232e+002, 1.584128e+006
9.043054e+002, 1.585756e+006
9.047875e+002, 1.587449e+006
9.052696e+002, 1.589332e+006
9.057517e+002, 1.591135e+006
9.062338e+002, 1.592109e+006
9.067159e+002, 1.592544e+006
9.071981e+002, 1.593315e+006
9.076802e+002, 1.594971e+006
9.081623e+002, 1.596786e+006
9.086444e+002, 1.598577e+006
9.091265e+002, 1.600305e+006
9.096086e+002, 1.601985e+006
9.100908e+002, 1.603903e+006
9.105729e+002, 1.604953e+006
9.110550e+002, 1.604788e+006
9.115371e+002, 1.604445e+006
9.120192e+002, 1.605534e+006
9.125013e+002, 1.607549e+006
9.129835e+002, 1.608978e+006
9.134656e+002, 1.609486e+006
9.139477e+002, 1.609939e+006
9.144298e+002, 1.610721e+006
9.149119e+002, 1.611784e+006
9.153940e+002, 1.613102e+006
9.158762e+002, 1.614667e+006
9.163583e+002, 1.616405e+006
9.168404e+002, 1.618387e+006
9.173225e+002, 1.620288e+006
9.178046e+002, 1.622070e+006
9.182867e+002, 1.623583e+006
9.187689e+002, 1.624056e+006
9.192510e+002, 1.623623e+006
9.197331e+002, 1.623464e+006
9.202152e+002, 1.624884e+006
9.206973e+002, 1.626320e+006
9.211794e+002, 1.626437e+006
9.216616e+002, 1.625524e+006
9.221437e+002, 1.625920e+006
9.226258e+002, 1.628398e+006
9.231079e+002, 1.630473e+006
9.235900e+002, 1.631219e+006
9.240721e+002, 1.631361e+006
9.245543e+002, 1.632804e+006
9.250364e+002, 1.635199e+006
9.255185e+002, 1.637074e+006
9.260006e+002, 1.637547e+006
9.264827e+002, 1.637863e+006
9.269648e+002, 1.638597e+006
9.274470e+002, 1.639712e+006
9.279291e+002, 1.641235e+006
9.284112e+002, 1.643730e+006
9.288933e+002, 1.645313e+006
9.293754e+002, 1.645641e+006
9.298575e+002, 1.645542e+006
9.303397e+002, 1.646120e+006
9.308218e+002, 1.647088e+006
9.313039e+002, 1.647222e+006
9.317860e+002, 1.646334e+006
9.322681e+002, 1.645720e+006
9.327502e+002, 1.646584e+006
9.332324e+002, 1.647911e+006
9.337145e+002, 1.649058e+006
9.341966e+002, 1.650000e+006
9.346787e+002, 1.650431e+006
9.351608e+002, 1.650066e+006
9.356429e+002, 1.649933e+006
9.361251e+002, 1.650658e+006
9.366072e+002, 1.652002e+006
9.370893e+002, 1.653016e+006
9.375714e+002, 1.653823e+006
9.380535e+002, 1.654998e+006
9.385356e+002, 1.657409e+006
9.390178e+002, 1.659675e+006
9.394999e+002, 1.660707e+006
9.399820e+002, 1.660941e+006
9.404641e+002, 1.661692e+006
9.409462e+002, 1.663083e+006
9.414283e+002, 1.664625e+006
9.419105e+002, 1.666265e+006
9.423926e+002, 1.667872e+006
9.428747e+002, 1.669220e+006
9.433568e+002, 1.670369e+006
9.438389e+002, 1.671455e+006
9.443210e+002, 1.672477e+006
9.448032e+002, 1.673542e+006
9.452853e+002, 1.674757e+006
9.457674e+002, 1.676058e+006
9.462495e+002, 1.677525e+006
9.467316e+002, 1.679478e+006
9.472137e+002, 1.680219e+006
9.476959e+002, 1.679409e+006
9.481780e+002, 1.678615e+006
9.486601e+002, 1.679140e+006
9.491422e+002, 1.680566e+006
9.496243e+002, 1.681926e+006
9.501064e+002, 1.683207e+006
9.505886e+002, 1.684622e+006
9.510707e+002, 1.686322e+006
9.515528e+002, 1.688124e+006
9.520349e+002, 1.689940e+006
9.525170e+002, 1.691762e+006
9.529991e+002, 1.693670e+006
9.534813e+002, 1.695805e+006
9.539634e+002, 1.697293e+006
9.544456e+002, 1.697742e+006
9.549277e+002, 1.697676e+006
9.554098e+002, 1.697683e+006
9.558919e+002, 1.697888e+006
9.563740e+002, 1.698634e+006
9.568561e+002, 1.700641e+006
9.573383e+002, 1.702068e+006
9.578204e+002, 1.701561e+006
9.583025e+002, 1.700724e+006
9.587846e+002, 1.701068e+006
9.592667e+002, 1.702817e+006
9.597488e+002, 1.704685e+006
9.602310e+002, 1.706664e+006
9.607131e+002, 1.708495e+006
9.611952e+002, 1.709617e+006
9.616773e+002, 1.710611e+006
9.621594e+002, 1.712502e+006
9.626415e+002, 1.715284e+006
9.631237e+002, 1.717561e+006
9.636058e+002, 1.717924e+006
9.640879e+002, 1.718756e+006
9.645700e+002, 1.721186e+006
9.650521e+002, 1.724678e+006
9.655342e+002, 1.727010e+006
9.660164e+002, 1.728174e+006
9.664985e+002, 1.728857e+006
9.669806e+002, 1.728815e+006
9.674627e+002, 1.729226e+006
9.679448e+002, 1.732258e+006
9.684269e+002, 1.736428e+006
9.689091e+002, 1.739229e+006
9.693912e+002, 1.739082e+006
9.698733e+002, 1.738785e+006
9.703554e+002, 1.738290e+006
9.708375e+002, 1.738083e+006
9.713196e+002, 1.738852e+006
9.718018e+002, 1.740492e+006
9.722839e+002, 1.741900e+006
9.727660e+002, 1.743001e+006
9.732481e+002, 1.743995e+006
9.737302e+002, 1.745036e+006
9.742123e+002, 1.746073e+006
9.746945e+002, 1.747087e+006
9.751766e+002, 1.748078e+006
9.756587e+002, 1.748904e+006
9.761408e+002, 1.749259e+006
9.766229e+002, 1.750129e+006
9.771050e+002, 1.752055e+006
9.775872e+002, 1.754565e+006
9.780693e+002, 1.756203e+006
9.785514e+002, 1.757205e+006
9.790335e+002, 1.758601e+006
9.795156e+002, 1.761419e+006
9.799977e+002, 1.763798e+006
9.804799e+002, 1.764577e+006
9.809620e+002, 1.764357e+006
9.814441e+002, 1.763935e+006
9.819262e+002, 1.763034e+006
9.824083e+002, 1.763039e+006
9.828904e+002, 1.764227e+006
9.833726e+002, 1.765581e+006
9.838547e+002, 1.765737e+006
9.843368e+002, 1.765485e+006
9.848189e+002, 1.766528e+006
9.853010e+002, 1.768980e+006
9.857831e+002, 1.771159e+006
9.862653e+002, 1.771901e+006
9.867474e+002, 1.772701e+006
9.872295e+002, 1.774444e+006
9.877116e+002, 1.776800e+006
9.881937e+002, 1.777764e+006
9.886758e+002, 1.777230e+006
9.891580e+002, 1.777470e+006
9.896401e+002, 1.779671e+006
9.901222e+002, 1.782432e+006
9.906043e+002, 1.784195e+006
9.910864e+002, 1.785276e+006
9.915685e+002, 1.786224e+006
9.920507e+002, 1.787181e+006
9.925328e+002, 1.787954e+006
9.930149e+002, 1.788259e+006
9.934970e+002, 1.788748e+006
9.939791e+002, 1.790397e+006
9.944612e+002, 1.792987e+006
9.949434e+002, 1.794292e+006
9.954255e+002, 1.794224e+006
9.959076e+002, 1.794085e+006
9.963897e+002, 1.794906e+006
9.968718e+002, 1.795979e+006
9.973539e+002, 1.796920e+006
9.978361e+002, 1.797658e+006
9.983182e+002, 1.797887e+006
9.988003e+002, 1.797099e+006
9.992824e+002, 1.797221e+006
9.997645e+002, 1.799079e+006
1.000247e+003, 1.801803e+006
1.000729e+003, 1.803825e+006
1.001211e+003, 1.805236e+006
1.001693e+003, 1.806147e+006
1.002175e+003, 1.806441e+006
1.002657e+003, 1.806617e+006
1.003139e+003, 1.806322e+006
1.003621e+003, 1.806437e+006
1.004104e+003, 1.807842e+006
1.004586e+003, 1.810821e+006
1.005068e+003, 1.813443e+006
1.005550e+003, 1.815733e+006
1.006032e+003, 1.817553e+006
1.006514e+003, 1.818391e+006
1.006996e+003, 1.818952e+006
1.007478e+003, 1.820327e+006
1.007961e+003, 1.822325e+006
1.008443e+003, 1.823768e+006
1.008925e+003, 1.823100e+006
1.009407e+003, 1.823563e+006
1.009889e+003, 1.826435e+006
1.010371e+003, 1.830197e+006
1.010853e+003, 1.831484e+006
1.011335e+003, 1.830674e+006
1.011817e+003, 1.829986e+006
1.012300e+003, 1.829849e+006
1.012782e+003, 1.830411e+006
1.013264e+003, 1.832658e+006
1.013746e+003, 1.835164e+006
1.014228e+003, 1.836429e+006
1.014710e+003, 1.836080e+006
1.015192e+003, 1.836268e+006
1.015674e+003, 1.837064e+006
1.016156e+003, 1.838281e+006
1.016639e+003, 1.839795e+006
1.017121e+003, 1.841653e+006
1.017603e+003, 1.844179e+006
1.018085e+003, 1.847166e+006
1.018567e+003, 1.849813e+006
1.019049e+003, 1.851338e+006
1.019531e+003, 1.852880e+006
1.020013e+003, 1.854667e+006
1.020496e+003, 1.856644e+006
1.020978e+003, 1.858855e+006
1.021460e+003, 1.861276e+006
1.021942e+003, 1.863356e+006
1.022424e+003, 1.865017e+006
1.022906e+003, 1.866414e+006
1.023388e+003, 1.867964e+006
1.023870e+003, 1.869208e+006
1.024352e+003, 1.869412e+006
1.024835e+003, 1.868429e+006
1.025317e+003, 1.868545e+006
1.025799e+003, 1.870588e+006
1.026281e+003, 1.872378e+006
1.026763e+003, 1.872898e+006
1.027245e+003, 1.872766e+006
1.027727e+003, 1.873810e+006
1.028209e+003, 1.875639e+006
1.028692e+003, 1.876872e+006
1.029174e+003, 1.876489e+006
1.029656e+003, 1.876174e+006
1.030138e+003, 1.876979e+006
1.030620e+003, 1.878018e+006
1.031102e+003, 1.878166e+006
1.031584e+003, 1.877004e+006
1.032066e+003, 1.877328e+006
1.032548e+003, 1.879283e+006
1.033031e+003, 1.881603e+006
1.033513e+003, 1.883080e+006
1.033995e+003, 1.884411e+006
1.034477e+003, 1.886666e+006
1.034959e+003, 1.889649e+006
1.035441e+003, 1.891967e+006
1.035923e+003, 1.893468e+006
1.036405e+003, 1.893885e+006
1.036887e+003, 1.892666e+006
1.037370e+003, 1.890960e+006
1.037852e+003, 1.891452e+006
1.038334e+003, 1.893461e+006
1.038816e+003, 1.894210e+006
1.039298e+003, 1.892762e+006
1.039780e+003, 1.891500e+006
1.040262e+003, 1.892124e+006
1.040744e+003, 1.893387e+006
1.041227e+003, 1.894333e+006
1.041709e+003, 1.894941e+006
1.042191e+003, 1.895580e+006
1.042673e+003, 1.896262e+006
1.043155e+003, 1.897027e+006
1.043637e+003, 1.898009e+006
1.044119e+003, 1.899004e+006
1.044601e+003, 1.899460e+006
1.045083e+003, 1.899736e+006
1.045566e+003, 1.900634e+006
1.046048e+003, 1.903441e+006
1.046530e+003, 1.905226e+006
1.047012e+003, 1.905152e+006
1.047494e+003, 1.904870e+006
1.047976e+003, 1.906535e+006
1.048458e+003, 1.909675e+006
1.048940e+003, 1.911747e+006
1.049422e+003, 1.912596e+006
1.049905e+003, 1.913693e+006
1.050387e+003, 1.917096e+006
1.050869e+003, 1.919959e+006
1.051351e+003, 1.919434e+006
1.051833e+003, 1.916764e+006
1.052315e+003, 1.917541e+006
1.052797e+003, 1.922345e+006
1.053279e+003, 1.926065e+006
1.053762e+003, 1.927195e+006
1.054244e+003, 1.927219e+006
1.054726e+003, 1.927470e+006
1.055208e+003, 1.928074e+006
1.055690e+003, 1.929278e+006
1.056172e+003, 1.931348e+006
1.056654e+003, 1.933381e+006
1.057136e+003, 1.935576e+006
1.057619e+003, 1.937248e+006
1.058101e+003, 1.937869e+006
1.058583e+003, 1.937667e+006
1.059065e+003, 1.937236e+006
1.059547e+003, 1.936713e+006
1.060029e+003, 1.936717e+006
1.060511e+003, 1.938319e+006
1.060993e+003, 1.939656e+006
1.061475e+003, 1.939066e+006
1.061958e+003, 1.938235e+006
1.062440e+003, 1.939798e+006
1.062922e+003, 1.944146e+006
1.063404e+003, 1.947234e+006
1.063886e+003, 1.948688e+006
1.064368e+003, 1.949235e+006
1.064850e+003, 1.949351e+006
1.065332e+003, 1.949028e+006
1.065814e+003, 1.947642e+006
1.066297e+003, 1.945398e+006
1.066779e+003, 1.945280e+006
1.067261e+003, 1.948666e+006
1.067743e+003, 1.951301e+006
1.068225e+003, 1.951754e+006
1.068707e+003, 1.951406e+006
1.069189e+003, 1.952989e+006
1.069671e+003, 1.955728e+006
1.070154e+003, 1.957848e+006
1.070636e+003, 1.958851e+006
1.071118e+003, 1.959367e+006
1.071600e+003, 1.959185e+006
1.072082e+003, 1.959025e+006
1.072564e+003, 1.959428e+006
1.073046e+003, 1.960325e+006
1.073528e+003, 1.960294e+006
1.074010e+003, 1.959480e+006
1.074493e+003, 1.959608e+006
1.074975e+003, 1.962755e+006
1.075457e+003, 1.965884e+006
1.075939e+003, 1.966183e+006
1.076421e+003, 1.965153e+006
1.076903e+003, 1.965494e+006
1.077385e+003, 1.968051e+006
1.077867e+003, 1.969561e+006
1.078350e+003, 1.969655e+006
1.078832e+003, 1.969550e+006
1.079314e+003, 1.970325e+006
1.079796e+003, 1.971592e+006
1.080278e+003, 1.972955e+006
1.080760e+003, 1.974315e+006
1.081242e+003, 1.975276e+006
1.081724e+003, 1.974656e+006
1.082207e+003, 1.975159e+006
1.082689e+003, 1.977818e+006
1.083171e+003, 1.981259e+006
1.083653e+003, 1.982890e+006
1.084135e+003, 1.983147e+006
1.084617e+003, 1.983534e+006
1.085099e+003, 1.984367e+006
1.085581e+003, 1.985240e+006
1.086063e+003, 1.986333e+006
1.086546e+003, 1.986990e+006
1.087028e+003, 1.986485e+006
1.087510e+003, 1.985066e+006
1.087992e+003, 1.985286e+006
1.088474e+003, 1.987169e+006
1.088956e+003, 1.989140e+006
1.089438e+003, 1.990689e+006
1.089920e+003, 1.991835e+006
1.090402e+003, 1.991910e+006
1.090885e+003, 1.991919e+006
1.091367e+003, 1.993413e+006
1.091849e+003, 1.997554e+006
1.092331e+003, 2.000450e+006
1.092813e+003, 2.001888e+006
1.093295e+003, 2.002765e+006
1.093777e+003, 2.003487e+006
1.094259e+003, 2.004207e+006
1.094742e+003, 2.005269e+006
1.095224e+003, 2.006586e+006
1.095706e+003, 2.007875e+006
1.096188e+003, 2.008257e+006
1.096670e+003, 2.009756e+006
1.097152e+003, 2.013412e+006
1.097634e+003, 2.017247e+006
1.098116e+003, 2.018264e+006
1.098599e+003, 2.017164e+006
1.099081e+003, 2.017322e+006
1.099563e+003, 2.019031e+006
1.100045e+003, 2.021003e+006
1.100527e+003, 2.023407e+006
1.101009e+003, 2.024894e+006
1.101491e+003, 2.024137e+006
1.101973e+003, 2.022056e+006
1.102455e+003, 2.021474e+006
1.102938e+003, 2.022425e+006
1.103420e+003, 2.023506e+006
1.103902e+003, 2.024431e+006
1.104384e+003, 2.025220e+006
1.104866e+003, 2.025452e+006
1.105348e+003, 2.025847e+006
1.105830e+003, 2.027439e+006
1.106312e+003, 2.030562e+006
1.106794e+003, 2.032279e+006
1.107277e+003, 2.032296e+006
1.107759e+003, 2.031986e+006
1.108241e+003, 2.031659e+006
1.108723e+003, 2.031739e+006
1.109205e+003, 2.033105e+006
1.109687e+003, 2.035323e+006
1.110169e+003, 2.037554e+006
1.110651e+003, 2.039311e+006
1.111134e+003, 2.041717e+006
1.111616e+003, 2.045655e+006
1.112098e+003, 2.048783e+006
1.112580e+003, 2.048396e+006
1.113062e+003, 2.045836e+006
1.113544e+003, 2.046116e+006
1.114026e+003, 2.048725e+006
1.114508e+003, 2.050970e+006
1.114990e+003, 2.051289e+006
1.115473e+003, 2.051352e+006
1.115955e+003, 2.051501e+006
1.116437e+003, 2.051853e+006
1.116919e+003, 2.052694e+006
1.117401e+003, 2.054000e+006
1.117883e+003, 2.054856e+006
1.118365e+003, 2.055201e+006
1.118847e+003, 2.055999e+006
1.119329e+003, 2.058797e+006
1.119812e+003, 2.061490e+006
1.120294e+003, 2.062286e+006
1.120776e+003, 2.061816e+006
1.121258e+003, 2.062243e+006
1.121740e+003, 2.063597e+006
1.122222e+003, 2.065636e+006
1.122704e+003, 2.068615e+006
1.123186e+003, 2.070765e+006
1.123669e+003, 2.069277e+006
1.124151e+003, 2.066654e+006
1.124633e+003, 2.065602e+006
1.125115e+003, 2.066582e+006
1.125597e+003, 2.067222e+006
1.126079e+003, 2.067231e+006
1.126561e+003, 2.067854e+006
1.127043e+003, 2.070022e+006
1.127526e+003, 2.072375e+006
1.128008e+003, 2.072384e+006
1.128490e+003, 2.071132e+006
1.128972e+003, 2.070498e+006
1.129454e+003, 2.071385e+006
1.129936e+003, 2.071762e+006
1.130418e+003, 2.071201e+006
1.130900e+003, 2.070663e+006
1.131382e+003, 2.070593e+006
1.131865e+003, 2.071054e+006
1.132347e+003, 2.072409e+006
1.132829e+003, 2.074444e+006
1.133311e+003, 2.076470e+006
1.133793e+003, 2.077972e+006
1.134275e+003, 2.079668e+006
1.134757e+003, 2.081735e+006
1.135239e+003, 2.083947e+006
1.135721e+003, 2.086141e+006
1.136204e+003, 2.088249e+006
1.136686e+003, 2.090159e+006
1.137168e+003, 2.091842e+006
1.137650e+003, 2.093225e+006
1.138132e+003, 2.093891e+006
1.138614e+003, 2.094654e+006
1.139096e+003, 2.096476e+006
1.139578e+003, 2.098402e+006
1.140061e+003, 2.098505e+006
1.140543e+003, 2.096758e+006
1.141025e+003, 2.096548e+006
1.141507e+003, 2.098325e+006
1.141989e+003, 2.100488e+006
1.142471e+003, 2.102397e+006
1.142953e+003, 2.103741e+006
1.143435e+003, 2.104089e+006
1.143917e+003, 2.103654e+006
1.144400e+003, 2.103242e+006
1.144882e+003, 2.102683e+006
1.145364e+003, 2.103566e+006
1.145846e+003, 2.106452e+006
1.146328e+003, 2.109725e+006
1.146810e+003, 2.112167e+006
1.147292e+003, 2.113574e+006
1.147774e+003, 2.113049e+006
1.148256e+003, 2.110261e+006
1.148739e+003, 2.110469e+006
1.149221e+003, 2.114880e+006
1.149703e+003, 2.117851e+006
1.150185e+003, 2.116823e+006
1.150667e+003, 2.114594e+006
1.151149e+003, 2.115286e+006
1.151631e+003, 2.117660e+006
1.152113e+003, 2.119872e+006
1.152596e+003, 2.121680e+006
1.153078e+003, 2.122740e+006
1.153560e+003, 2.122920e+006
1.154042e+003, 2.122753e+006
1.154524e+003, 2.122209e+006
1.155006e+003, 2.121792e+006
1.155488e+003, 2.123129e+006
1.155970e+003, 2.125465e+006
1.156453e+003, 2.126889e+006
1.156935e+003, 2.126131e+006
1.157417e+003, 2.125689e+006
1.157899e+003, 2.125920e+006
1.158381e+003, 2.126489e+006
1.158863e+003, 2.127231e+006
1.159345e+003, 2.128110e+006
1.159827e+003, 2.128884e+006
1.160309e+003, 2.129612e+006
1.160792e+003, 2.130523e+006
1.161274e+003, 2.131555e+006
1.161756e+003, 2.132980e+006
1.162238e+003, 2.134974e+006
1.162720e+003, 2.137170e+006
1.163202e+003, 2.139408e+006
1.163684e+003, 2.141535e+006
1.164166e+003, 2.142464e+006
1.164648e+003, 2.142279e+006
1.165131e+003, 2.142269e+006
1.165613e+003, 2.143591e+006
1.166095e+003, 2.144724e+006
1.166577e+003, 2.144809e+006
1.167059e+003, 2.144499e+006
1.167541e+003, 2.144940e+006
1.168023e+003, 2.146061e+006
1.168505e+003, 2.146414e+006
1.168988e+003, 2.145865e+006
1.169470e+003, 2.145800e+006
1.169952e+003, 2.147704e+006
1.170434e+003, 2.149880e+006
1.170916e+003, 2.151379e+006
1.171398e+003, 2.152375e+006
1.171880e+003, 2.153238e+006
1.172362e+003, 2.153969e+006
1.172844e+003, 2.154700e+006
1.173327e+003, 2.155416e+006
1.173809e+003, 2.156264e+006
1.174291e+003, 2.157373e+006
1.174773e+003, 2.158597e+006
1.175255e+003, 2.159818e+006
1.175737e+003, 2.161032e+006
1.176219e+003, 2.162330e+006
1.176701e+003, 2.163745e+006
1.177183e+003, 2.164711e+006
1.177666e+003, 2.164991e+006
1.178148e+003, 2.165197e+006
1.178630e+003, 2.166141e+006
1.179112e+003, 2.167163e+006
1.179594e+003, 2.167282e+006
1.180076e+003, 2.166492e+006
1.180558e+003, 2.167541e+006
1.181040e+003, 2.170672e+006
1.181523e+003, 2.173517e+006
1.182005e+003, 2.175261e+006
1.182487e+003, 2.176159e+006
1.182969e+003, 2.175712e+006
1.183451e+003, 2.174987e+006
1.183933e+003, 2.175298e+006
1.184415e+003, 2.176837e+006
1.184897e+003, 2.179054e+006
1.185380e+003, 2.182210e+006
1.185862e+003, 2.184194e+006
1.186344e+003, 2.182943e+006
1.186826e+003, 2.181293e+006
1.187308e+003, 2.183406e+006
1.187790e+003, 2.187067e+006
1.188272e+003, 2.188602e+006
1.188754e+003, 2.186513e+006
1.189236e+003, 2.185408e+006
1.189719e+003, 2.185426e+006
1.190201e+003, 2.185833e+006
1.190683e+003, 2.186132e+006
1.191165e+003, 2.186627e+006
1.191647e+003, 2.188077e+006
1.192129e+003, 2.189961e+006
1.192611e+003, 2.191173e+006
1.193093e+003, 2.191090e+006
1.193575e+003, 2.191481e+006
1.194058e+003, 2.192562e+006
1.194540e+003, 2.193354e+006
1.195022e+003, 2.192312e+006
1.195504e+003, 2.191067e+006
1.195986e+003, 2.192230e+006
1.196468e+003, 2.195036e+006
1.196950e+003, 2.197173e+006
1.197432e+003, 2.197968e+006
1.197915e+003, 2.198576e+006
1.198397e+003, 2.198943e+006
1.198879e+003, 2.199511e+006
1.199361e+003, 2.201098e+006
1.199843e+003, 2.202891e+006
1.200325e+003, 2.203434e+006
1.200807e+003, 2.203086e+006
1.201289e+003, 2.203549e+006
1.201771e+003, 2.205933e+006
1.202254e+003, 2.207217e+006
1.202736e+003, 2.206788e+006
1.203218e+003, 2.206280e+006
1.203700e+003, 2.207667e+006
1.204182e+003, 2.210010e+006
1.204664e+003, 2.211819e+006
1.205146e+003, 2.213148e+006
1.205628e+003, 2.215302e+006
1.206110e+003, 2.219355e+006
1.206593e+003, 2.221933e+006
1.207075e+003, 2.222140e+006
1.207557e+003, 2.221665e+006
1.208039e+003, 2.222599e+006
1.208521e+003, 2.224171e+006
1.209003e+003, 2.225311e+006
1.209485e+003, 2.225923e+006
1.209967e+003, 2.226474e+006
1.210450e+003, 2.227178e+006
1.210932e+003, 2.227387e+006
1.211414e+003, 2.226748e+006
1.211896e+003, 2.226242e+006
1.212378e+003, 2.227453e+006
1.212860e+003, 2.229538e+006
1.213342e+003, 2.231648e+006
1.213824e+003, 2.233705e+006
1.214307e+003, 2.233850e+006
1.214789e+003, 2.231132e+006
1.215271e+003, 2.229025e+006
1.215753e+003, 2.228549e+006
1.216235e+003, 2.228846e+006
1.216717e+003, 2.228914e+006
1.217199e+003, 2.228863e+006
1.217681e+003, 2.228724e+006
1.218163e+003, 2.228483e+006
1.218646e+003, 2.229006e+006
1.219128e+003, 2.230689e+006
1.219610e+003, 2.232008e+006
1.220092e+003, 2.232330e+006
1.220574e+003, 2.232446e+006
1.221056e+003, 2.233595e+006
1.221538e+003, 2.235249e+006
1.222020e+003, 2.236609e+006
1.222502e+003, 2.237436e+006
1.222985e+003, 2.238637e+006
1.223467e+003, 2.240336e+006
1.223949e+003, 2.241911e+006
1.224431e+003, 2.243083e+006
1.224913e+003, 2.244071e+006
1.225395e+003, 2.245195e+006
1.225877e+003, 2.246334e+006
1.226359e+003, 2.247399e+006
1.226842e+003, 2.248428e+006
1.227324e+003, 2.248918e+006
1.227806e+003, 2.248794e+006
1.228288e+003, 2.248395e+006
1.228770e+003, 2.247673e+006
1.229252e+003, 2.247098e+006
1.229734e+003, 2.247370e+006
1.230216e+003, 2.248186e+006
1.230698e+003, 2.249236e+006
1.231181e+003, 2.250625e+006
1.231663e+003, 2.251380e+006
1.232145e+003, 2.251423e+006
1.232627e+003, 2.251385e+006
1.233109e+003, 2.251576e+006
1.233591e+003, 2.251852e+006
1.234073e+003, 2.252568e+006
1.234555e+003, 2.253031e+006
1.235037e+003, 2.251975e+006
1.235520e+003, 2.248897e+006
1.236002e+003, 2.247258e+006
1.236484e+003, 2.247129e+006
1.236966e+003, 2.248247e+006
1.237448e+003, 2.251309e+006
1.237930e+003, 2.254287e+006
1.238412e+003, 2.254359e+006
1.238894e+003, 2.253486e+006
1.239377e+003, 2.254512e+006
1.239859e+003, 2.257806e+006
1.240341e+003, 2.260307e+006
1.240823e+003, 2.261891e+006
1.241305e+003, 2.263581e+006
1.241787e+003, 2.266142e+006
1.242269e+003, 2.268538e+006
1.242751e+003, 2.269357e+006
1.243234e+003, 2.269737e+006
1.243716e+003, 2.271368e+006
1.244198e+003, 2.274549e+006
1.244680e+003, 2.275492e+006
1.245162e+003, 2.274267e+006
1.245644e+003, 2.273090e+006
1.246126e+003, 2.273261e+006
1.246608e+003, 2.273829e+006
1.247090e+003, 2.274543e+006
1.247573e+003, 2.275129e+006
1.248055e+003, 2.275220e+006
1.248537e+003, 2.274834e+006
1.249019e+003, 2.275133e+006
1.249501e+003, 2.276078e+006
1.249983e+003, 2.276857e+006
1.250465e+003, 2.276039e+006
1.250947e+003, 2.276201e+006
1.251429e+003, 2.280216e+006
1.251912e+003, 2.284567e+006
1.252394e+003, 2.285543e+006
1.252876e+003, 2.283380e+006
1.253358e+003, 2.283228e+006
1.253840e+003, 2.284801e+006
1.254322e+003, 2.286444e+006
1.254804e+003, 2.287202e+006
1.255286e+003, 2.287904e+006
1.255769e+003, 2.288981e+006
1.256251e+003, 2.289921e+006
1.256733e+003, 2.290027e+006
1.257215e+003, 2.289583e+006
1.257697e+003, 2.290429e+006
1.258179e+003, 2.292352e+006
1.258661e+003, 2.294161e+006
1.259143e+003, 2.295782e+006
1.259625e+003, 2.296648e+006
1.260108e+003, 2.296481e+006
1.260590e+003, 2.296016e+006
1.261072e+003, 2.295348e+006
1.261554e+003, 2.294993e+006
1.262036e+003, 2.297379e+006
1.262518e+003, 2.301569e+006
1.263000e+003, 2.304412e+006
1.263482e+003, 2.303557e+006
1.263964e+003, 2.302917e+006
1.264447e+003, 2.302787e+006
1.264929e+003, 2.302919e+006
1.265411e+003, 2.303328e+006
1.265893e+003, 2.303715e+006
1.266375e+003, 2.303150e+006
1.266857e+003, 2.302110e+006
1.267339e+003, 2.301896e+006
1.267821e+003, 2.303158e+006
1.268304e+003, 2.305019e+006
1.268786e+003, 2.307744e+006
1.269268e+003, 2.310188e+006
1.269750e+003, 2.311320e+006
1.270232e+003, 2.311748e+006
1.270714e+003, 2.312039e+006
1.271196e+003, 2.312285e+006
1.271678e+003, 2.312636e+006
1.272161e+003, 2.313036e+006
1.272643e+003, 2.313614e+006
1.273125e+003, 2.314320e+006
1.273607e+003, 2.315367e+006
1.274089e+003, 2.317062e+006
1.274571e+003, 2.318925e+006
1.275053e+003, 2.320816e+006
1.275535e+003, 2.322379e+006
1.276017e+003, 2.322957e+006
1.276500e+003, 2.322248e+006
1.276982e+003, 2.322914e+006
1.277464e+003, 2.324982e+006
1.277946e+003, 2.326417e+006
1.278428e+003, 2.325279e+006
1.278910e+003, 2.323843e+006
1.279392e+003, 2.323588e+006
1.279874e+003, 2.323855e+006
1.280356e+003, 2.323549e+006
1.280839e+003, 2.322756e+006
1.281321e+003, 2.324698e+006
1.281803e+003, 2.328975e+006
1.282285e+003, 2.331873e+006
1.282767e+003, 2.329614e+006
1.283249e+003, 2.327958e+006
1.283731e+003, 2.329594e+006
1.284213e+003, 2.331928e+006
1.284696e+003, 2.332441e+006
1.285178e+003, 2.331680e+006
1.285660e+003, 2.332563e+006
1.286142e+003, 2.334687e+006
1.286624e+003, 2.336359e+006
1.287106e+003, 2.336070e+006
1.287588e+003, 2.336539e+006
1.288070e+003, 2.338468e+006
1.288552e+003, 2.340415e+006
1.289035e+003, 2.340924e+006
1.289517e+003, 2.340712e+006
1.289999e+003, 2.341247e+006
1.290481e+003, 2.342424e+006
1.290963e+003, 2.343981e+006
1.291445e+003, 2.346640e+006
1.291927e+003, 2.348010e+006
1.292409e+003, 2.347666e+006
1.292891e+003, 2.347704e+006
1.293374e+003, 2.350805e+006
1.293856e+003, 2.354181e+006
1.294338e+003, 2.353431e+006
1.294820e+003, 2.350626e+006
1.295302e+003, 2.349857e+006
1.295784e+003, 2.351898e+006
1.296266e+003, 2.353635e+006
1.296748e+003, 2.355041e+006
1.297231e+003, 2.356531e+006
1.297713e+003, 2.358656e+006
1.298195e+003, 2.360569e+006
1.298677e+003, 2.361456e+006
1.299159e+003, 2.361703e+006
1.299641e+003, 2.361726e+006
1.300123e+003, 2.361492e+006
1.300605e+003, 2.360609e+006
1.301088e+003, 2.359146e+006
1.301570e+003, 2.357892e+006
1.302052e+003, 2.357847e+006
1.302534e+003, 2.356560e+006
1.303016e+003, 2.353085e+006
##END=



