##NAMES=Pellyite
##RRUFFID=R150078
##IDEAL CHEMISTRY=Ba_2_CaFe^2+^_2_Si_6_O_17_
##LOCALITY=Gun Claim, Yukon Territory, Canada
##OWNER=RRUFF
##SOURCE=Gunnar Farber
##DESCRIPTION=Colorless tabular or prismatic crystals with conchoidal fracture, associated with suzukiite (R150039), walstromite (R150079), and bavsiite.
##STATUS=The identification of this mineral has been confirmed by single-crystal X-ray diffraction.
##URL=rruff.info/R150078
9.059570e+001, 4.987275e+003
9.107782e+001, 4.818109e+003
9.155994e+001, 4.758198e+003
9.204205e+001, 4.886203e+003
9.252417e+001, 5.070200e+003
9.300629e+001, 5.266911e+003
9.348840e+001, 5.433261e+003
9.397052e+001, 5.532967e+003
9.445264e+001, 5.550762e+003
9.493475e+001, 5.555332e+003
9.541687e+001, 5.557107e+003
9.589898e+001, 5.562905e+003
9.638110e+001, 5.569616e+003
9.686321e+001, 5.574283e+003
9.734533e+001, 5.571951e+003
9.782745e+001, 5.553335e+003
9.830956e+001, 5.538376e+003
9.879168e+001, 5.530829e+003
9.927380e+001, 5.524327e+003
9.975591e+001, 5.516929e+003
1.002380e+002, 5.508088e+003
1.007201e+002, 5.497842e+003
1.012023e+002, 5.486579e+003
1.016844e+002, 5.473077e+003
1.021665e+002, 5.455331e+003
1.026486e+002, 5.429851e+003
1.031307e+002, 5.401672e+003
1.036128e+002, 5.374438e+003
1.040950e+002, 5.347316e+003
1.045771e+002, 5.322924e+003
1.050592e+002, 5.300960e+003
1.055413e+002, 5.281243e+003
1.060234e+002, 5.264753e+003
1.065055e+002, 5.251093e+003
1.069877e+002, 5.240494e+003
1.074698e+002, 5.235036e+003
1.079519e+002, 5.239585e+003
1.084340e+002, 5.242830e+003
1.089161e+002, 5.239462e+003
1.093982e+002, 5.230780e+003
1.098804e+002, 5.220405e+003
1.103625e+002, 5.210886e+003
1.108446e+002, 5.201768e+003
1.113267e+002, 5.195850e+003
1.118088e+002, 5.196085e+003
1.122909e+002, 5.196739e+003
1.127731e+002, 5.196029e+003
1.132552e+002, 5.193233e+003
1.137373e+002, 5.187781e+003
1.142194e+002, 5.178644e+003
1.147015e+002, 5.161636e+003
1.151836e+002, 5.148259e+003
1.156658e+002, 5.141602e+003
1.161479e+002, 5.136917e+003
1.166300e+002, 5.129171e+003
1.171121e+002, 5.116412e+003
1.175942e+002, 5.101088e+003
1.180763e+002, 5.089173e+003
1.185584e+002, 5.081584e+003
1.190406e+002, 5.074395e+003
1.195227e+002, 5.066747e+003
1.200048e+002, 5.058675e+003
1.204869e+002, 5.049871e+003
1.209690e+002, 5.039088e+003
1.214511e+002, 5.028564e+003
1.219333e+002, 5.022217e+003
1.224154e+002, 5.021439e+003
1.228975e+002, 5.022320e+003
1.233796e+002, 5.021381e+003
1.238617e+002, 5.018314e+003
1.243438e+002, 5.015774e+003
1.248260e+002, 5.017240e+003
1.253081e+002, 5.019059e+003
1.257902e+002, 5.017489e+003
1.262723e+002, 5.010557e+003
1.267544e+002, 5.000366e+003
1.272365e+002, 4.991539e+003
1.277187e+002, 4.984092e+003
1.282008e+002, 4.978227e+003
1.286829e+002, 4.974098e+003
1.291650e+002, 4.971242e+003
1.296471e+002, 4.969335e+003
1.301292e+002, 4.968500e+003
1.306114e+002, 4.968534e+003
1.310935e+002, 4.966147e+003
1.315756e+002, 4.958819e+003
1.320577e+002, 4.951392e+003
1.325398e+002, 4.944575e+003
1.330219e+002, 4.938609e+003
1.335041e+002, 4.933728e+003
1.339862e+002, 4.930234e+003
1.344683e+002, 4.928436e+003
1.349504e+002, 4.925988e+003
1.354325e+002, 4.920790e+003
1.359146e+002, 4.916672e+003
1.363968e+002, 4.916712e+003
1.368789e+002, 4.920840e+003
1.373610e+002, 4.925778e+003
1.378431e+002, 4.927604e+003
1.383252e+002, 4.925445e+003
1.388073e+002, 4.924458e+003
1.392895e+002, 4.925208e+003
1.397716e+002, 4.927135e+003
1.402537e+002, 4.930138e+003
1.407358e+002, 4.934558e+003
1.412179e+002, 4.938550e+003
1.417000e+002, 4.939293e+003
1.421821e+002, 4.937141e+003
1.426643e+002, 4.934463e+003
1.431464e+002, 4.931256e+003
1.436285e+002, 4.928067e+003
1.441106e+002, 4.926997e+003
1.445927e+002, 4.929394e+003
1.450748e+002, 4.933229e+003
1.455570e+002, 4.937195e+003
1.460391e+002, 4.941217e+003
1.465212e+002, 4.943924e+003
1.470033e+002, 4.943572e+003
1.474854e+002, 4.939799e+003
1.479675e+002, 4.936457e+003
1.484497e+002, 4.935748e+003
1.489318e+002, 4.934687e+003
1.494139e+002, 4.931399e+003
1.498960e+002, 4.925551e+003
1.503781e+002, 4.918354e+003
1.508602e+002, 4.911456e+003
1.513424e+002, 4.904443e+003
1.518245e+002, 4.898661e+003
1.523066e+002, 4.894167e+003
1.527887e+002, 4.890685e+003
1.532708e+002, 4.888437e+003
1.537529e+002, 4.887451e+003
1.542351e+002, 4.886871e+003
1.547172e+002, 4.884487e+003
1.551993e+002, 4.876392e+003
1.556814e+002, 4.871288e+003
1.561635e+002, 4.871938e+003
1.566456e+002, 4.875065e+003
1.571278e+002, 4.876679e+003
1.576099e+002, 4.874727e+003
1.580920e+002, 4.870127e+003
1.585741e+002, 4.866784e+003
1.590562e+002, 4.865391e+003
1.595383e+002, 4.864213e+003
1.600205e+002, 4.862843e+003
1.605026e+002, 4.861374e+003
1.609847e+002, 4.860008e+003
1.614668e+002, 4.858799e+003
1.619489e+002, 4.857847e+003
1.624310e+002, 4.857488e+003
1.629131e+002, 4.859821e+003
1.633953e+002, 4.860786e+003
1.638774e+002, 4.857798e+003
1.643595e+002, 4.851084e+003
1.648416e+002, 4.842730e+003
1.653237e+002, 4.833147e+003
1.658058e+002, 4.822952e+003
1.662880e+002, 4.813551e+003
1.667701e+002, 4.805294e+003
1.672522e+002, 4.797685e+003
1.677343e+002, 4.790183e+003
1.682164e+002, 4.782742e+003
1.686985e+002, 4.775717e+003
1.691807e+002, 4.769562e+003
1.696628e+002, 4.763919e+003
1.701449e+002, 4.758269e+003
1.706270e+002, 4.751966e+003
1.711091e+002, 4.745822e+003
1.715912e+002, 4.741936e+003
1.720734e+002, 4.741422e+003
1.725555e+002, 4.741257e+003
1.730376e+002, 4.740867e+003
1.735197e+002, 4.739917e+003
1.740018e+002, 4.737833e+003
1.744839e+002, 4.734129e+003
1.749661e+002, 4.729064e+003
1.754482e+002, 4.724128e+003
1.759303e+002, 4.718728e+003
1.764124e+002, 4.714281e+003
1.768945e+002, 4.711161e+003
1.773766e+002, 4.709242e+003
1.778588e+002, 4.708306e+003
1.783409e+002, 4.708208e+003
1.788230e+002, 4.708948e+003
1.793051e+002, 4.710454e+003
1.797872e+002, 4.713942e+003
1.802693e+002, 4.716979e+003
1.807515e+002, 4.718559e+003
1.812336e+002, 4.718987e+003
1.817157e+002, 4.719293e+003
1.821978e+002, 4.720500e+003
1.826799e+002, 4.722880e+003
1.831620e+002, 4.722958e+003
1.836441e+002, 4.718974e+003
1.841263e+002, 4.714756e+003
1.846084e+002, 4.712905e+003
1.850905e+002, 4.713013e+003
1.855726e+002, 4.712130e+003
1.860547e+002, 4.707066e+003
1.865368e+002, 4.696987e+003
1.870190e+002, 4.690417e+003
1.875011e+002, 4.689881e+003
1.879832e+002, 4.690967e+003
1.884653e+002, 4.690966e+003
1.889474e+002, 4.689523e+003
1.894296e+002, 4.686815e+003
1.899117e+002, 4.682805e+003
1.903938e+002, 4.677493e+003
1.908759e+002, 4.671485e+003
1.913580e+002, 4.663299e+003
1.918401e+002, 4.655196e+003
1.923223e+002, 4.650275e+003
1.928044e+002, 4.649365e+003
1.932865e+002, 4.649078e+003
1.937686e+002, 4.645249e+003
1.942507e+002, 4.639084e+003
1.947328e+002, 4.634544e+003
1.952150e+002, 4.634186e+003
1.956971e+002, 4.636019e+003
1.961792e+002, 4.636001e+003
1.966613e+002, 4.633246e+003
1.971434e+002, 4.629789e+003
1.976255e+002, 4.626476e+003
1.981077e+002, 4.623531e+003
1.985898e+002, 4.621817e+003
1.990719e+002, 4.622941e+003
1.995540e+002, 4.625947e+003
2.000361e+002, 4.626409e+003
2.005182e+002, 4.622030e+003
2.010004e+002, 4.618165e+003
2.014825e+002, 4.618565e+003
2.019646e+002, 4.621806e+003
2.024467e+002, 4.624269e+003
2.029288e+002, 4.622563e+003
2.034109e+002, 4.617086e+003
2.038930e+002, 4.614690e+003
2.043752e+002, 4.619765e+003
2.048573e+002, 4.623492e+003
2.053394e+002, 4.622245e+003
2.058215e+002, 4.616952e+003
2.063036e+002, 4.610206e+003
2.067857e+002, 4.603935e+003
2.072679e+002, 4.598161e+003
2.077500e+002, 4.592524e+003
2.082321e+002, 4.587067e+003
2.087142e+002, 4.581705e+003
2.091963e+002, 4.575187e+003
2.096784e+002, 4.568532e+003
2.101606e+002, 4.564375e+003
2.106427e+002, 4.565667e+003
2.111248e+002, 4.573424e+003
2.116069e+002, 4.577350e+003
2.120890e+002, 4.574203e+003
2.125711e+002, 4.570623e+003
2.130533e+002, 4.569502e+003
2.135354e+002, 4.570450e+003
2.140175e+002, 4.571197e+003
2.144996e+002, 4.569514e+003
2.149817e+002, 4.564822e+003
2.154638e+002, 4.561808e+003
2.159460e+002, 4.560548e+003
2.164281e+002, 4.560456e+003
2.169102e+002, 4.562284e+003
2.173923e+002, 4.565408e+003
2.178744e+002, 4.567653e+003
2.183565e+002, 4.566890e+003
2.188387e+002, 4.562667e+003
2.193208e+002, 4.558925e+003
2.198029e+002, 4.555416e+003
2.202850e+002, 4.552487e+003
2.207671e+002, 4.550421e+003
2.212492e+002, 4.549183e+003
2.217314e+002, 4.548427e+003
2.222135e+002, 4.547776e+003
2.226956e+002, 4.547287e+003
2.231777e+002, 4.547821e+003
2.236598e+002, 4.550800e+003
2.241419e+002, 4.553759e+003
2.246240e+002, 4.554761e+003
2.251062e+002, 4.553749e+003
2.255883e+002, 4.551916e+003
2.260704e+002, 4.549694e+003
2.265525e+002, 4.547374e+003
2.270346e+002, 4.546557e+003
2.275167e+002, 4.547874e+003
2.279989e+002, 4.550424e+003
2.284810e+002, 4.553869e+003
2.289631e+002, 4.558234e+003
2.294452e+002, 4.562155e+003
2.299273e+002, 4.564068e+003
2.304094e+002, 4.564744e+003
2.308916e+002, 4.566355e+003
2.313737e+002, 4.569875e+003
2.318558e+002, 4.574130e+003
2.323379e+002, 4.577725e+003
2.328200e+002, 4.580539e+003
2.333021e+002, 4.583511e+003
2.337843e+002, 4.588106e+003
2.342664e+002, 4.593083e+003
2.347485e+002, 4.596303e+003
2.352306e+002, 4.596041e+003
2.357127e+002, 4.594792e+003
2.361948e+002, 4.596016e+003
2.366770e+002, 4.600115e+003
2.371591e+002, 4.605087e+003
2.376412e+002, 4.612009e+003
2.381233e+002, 4.618610e+003
2.386054e+002, 4.622076e+003
2.390875e+002, 4.621125e+003
2.395697e+002, 4.617271e+003
2.400518e+002, 4.612507e+003
2.405339e+002, 4.606418e+003
2.410160e+002, 4.600718e+003
2.414981e+002, 4.595891e+003
2.419802e+002, 4.591815e+003
2.424624e+002, 4.588800e+003
2.429445e+002, 4.587275e+003
2.434266e+002, 4.585838e+003
2.439087e+002, 4.581426e+003
2.443908e+002, 4.572150e+003
2.448729e+002, 4.565108e+003
2.453550e+002, 4.564218e+003
2.458372e+002, 4.565180e+003
2.463193e+002, 4.564373e+003
2.468014e+002, 4.560526e+003
2.472835e+002, 4.555014e+003
2.477656e+002, 4.550269e+003
2.482477e+002, 4.547092e+003
2.487299e+002, 4.542681e+003
2.492120e+002, 4.535841e+003
2.496941e+002, 4.528189e+003
2.501762e+002, 4.520852e+003
2.506583e+002, 4.514178e+003
2.511404e+002, 4.507975e+003
2.516226e+002, 4.501865e+003
2.521047e+002, 4.495886e+003
2.525868e+002, 4.490055e+003
2.530689e+002, 4.483726e+003
2.535510e+002, 4.477950e+003
2.540331e+002, 4.473982e+003
2.545153e+002, 4.471957e+003
2.549974e+002, 4.470307e+003
2.554795e+002, 4.466186e+003
2.559616e+002, 4.456993e+003
2.564437e+002, 4.451190e+003
2.569258e+002, 4.450705e+003
2.574080e+002, 4.451703e+003
2.578901e+002, 4.451672e+003
2.583722e+002, 4.450182e+003
2.588543e+002, 4.448487e+003
2.593364e+002, 4.448337e+003
2.598185e+002, 4.450458e+003
2.603007e+002, 4.452361e+003
2.607828e+002, 4.454509e+003
2.612649e+002, 4.456155e+003
2.617470e+002, 4.456520e+003
2.622291e+002, 4.455708e+003
2.627112e+002, 4.454705e+003
2.631934e+002, 4.454776e+003
2.636755e+002, 4.456623e+003
2.641576e+002, 4.456827e+003
2.646397e+002, 4.454690e+003
2.651218e+002, 4.451831e+003
2.656039e+002, 4.448597e+003
2.660861e+002, 4.445331e+003
2.665682e+002, 4.442797e+003
2.670503e+002, 4.441940e+003
2.675324e+002, 4.443250e+003
2.680145e+002, 4.442982e+003
2.684966e+002, 4.440769e+003
2.689788e+002, 4.437682e+003
2.694609e+002, 4.433847e+003
2.699430e+002, 4.429521e+003
2.704251e+002, 4.425320e+003
2.709072e+002, 4.421829e+003
2.713893e+002, 4.419128e+003
2.718715e+002, 4.415384e+003
2.723536e+002, 4.409941e+003
2.728357e+002, 4.404350e+003
2.733178e+002, 4.398701e+003
2.737999e+002, 4.393372e+003
2.742820e+002, 4.389252e+003
2.747642e+002, 4.387021e+003
2.752463e+002, 4.386541e+003
2.757284e+002, 4.386313e+003
2.762105e+002, 4.388032e+003
2.766926e+002, 4.388152e+003
2.771747e+002, 4.384624e+003
2.776568e+002, 4.378560e+003
2.781389e+002, 4.372253e+003
2.786211e+002, 4.366766e+003
2.791032e+002, 4.362246e+003
2.795853e+002, 4.359498e+003
2.800674e+002, 4.359118e+003
2.805495e+002, 4.359386e+003
2.810316e+002, 4.361482e+003
2.815138e+002, 4.363777e+003
2.819959e+002, 4.362728e+003
2.824780e+002, 4.356375e+003
2.829601e+002, 4.347292e+003
2.834422e+002, 4.342471e+003
2.839243e+002, 4.344256e+003
2.844065e+002, 4.345138e+003
2.848886e+002, 4.342267e+003
2.853707e+002, 4.337943e+003
2.858528e+002, 4.335770e+003
2.863349e+002, 4.337060e+003
2.868170e+002, 4.339986e+003
2.872992e+002, 4.341513e+003
2.877813e+002, 4.341314e+003
2.882634e+002, 4.340993e+003
2.887455e+002, 4.340401e+003
2.892276e+002, 4.339963e+003
2.897097e+002, 4.340747e+003
2.901919e+002, 4.343073e+003
2.906740e+002, 4.344839e+003
2.911561e+002, 4.342575e+003
2.916382e+002, 4.335374e+003
2.921203e+002, 4.331603e+003
2.926024e+002, 4.335955e+003
2.930846e+002, 4.341908e+003
2.935667e+002, 4.342166e+003
2.940488e+002, 4.335888e+003
2.945309e+002, 4.329084e+003
2.950130e+002, 4.327432e+003
2.954951e+002, 4.331123e+003
2.959773e+002, 4.334028e+003
2.964594e+002, 4.336413e+003
2.969415e+002, 4.337578e+003
2.974236e+002, 4.336259e+003
2.979057e+002, 4.332661e+003
2.983878e+002, 4.329128e+003
2.988700e+002, 4.327077e+003
2.993521e+002, 4.326582e+003
2.998342e+002, 4.327051e+003
3.003163e+002, 4.330208e+003
3.007984e+002, 4.332726e+003
3.012805e+002, 4.332051e+003
3.017627e+002, 4.328799e+003
3.022448e+002, 4.325885e+003
3.027269e+002, 4.324935e+003
3.032090e+002, 4.325296e+003
3.036911e+002, 4.324931e+003
3.041732e+002, 4.323700e+003
3.046554e+002, 4.322121e+003
3.051375e+002, 4.320213e+003
3.056196e+002, 4.318144e+003
3.061017e+002, 4.316513e+003
3.065838e+002, 4.315845e+003
3.070659e+002, 4.315212e+003
3.075481e+002, 4.312336e+003
3.080302e+002, 4.306436e+003
3.085123e+002, 4.301818e+003
3.089944e+002, 4.301883e+003
3.094765e+002, 4.303740e+003
3.099586e+002, 4.301583e+003
3.104408e+002, 4.293250e+003
3.109229e+002, 4.283707e+003
3.114050e+002, 4.280331e+003
3.118871e+002, 4.283232e+003
3.123692e+002, 4.284964e+003
3.128513e+002, 4.283100e+003
3.133335e+002, 4.279732e+003
3.138156e+002, 4.277047e+003
3.142977e+002, 4.275333e+003
3.147798e+002, 4.274658e+003
3.152619e+002, 4.275994e+003
3.157440e+002, 4.278983e+003
3.162262e+002, 4.279058e+003
3.167083e+002, 4.273224e+003
3.171904e+002, 4.266174e+003
3.176725e+002, 4.261665e+003
3.181546e+002, 4.259734e+003
3.186367e+002, 4.258706e+003
3.191188e+002, 4.257378e+003
3.196010e+002, 4.256155e+003
3.200831e+002, 4.256468e+003
3.205652e+002, 4.260034e+003
3.210473e+002, 4.263396e+003
3.215294e+002, 4.264144e+003
3.220115e+002, 4.262980e+003
3.224937e+002, 4.262556e+003
3.229758e+002, 4.264411e+003
3.234579e+002, 4.267396e+003
3.239400e+002, 4.268464e+003
3.244221e+002, 4.266942e+003
3.249042e+002, 4.265423e+003
3.253864e+002, 4.263148e+003
3.258685e+002, 4.261733e+003
3.263506e+002, 4.265426e+003
3.268327e+002, 4.276563e+003
3.273148e+002, 4.289508e+003
3.277969e+002, 4.295001e+003
3.282791e+002, 4.292277e+003
3.287612e+002, 4.288929e+003
3.292433e+002, 4.286443e+003
3.297254e+002, 4.283996e+003
3.302075e+002, 4.280483e+003
3.306896e+002, 4.275718e+003
3.311718e+002, 4.270562e+003
3.316539e+002, 4.265638e+003
3.321360e+002, 4.260990e+003
3.326181e+002, 4.257274e+003
3.331002e+002, 4.255476e+003
3.335823e+002, 4.253909e+003
3.340645e+002, 4.250417e+003
3.345466e+002, 4.245443e+003
3.350287e+002, 4.242562e+003
3.355108e+002, 4.245129e+003
3.359929e+002, 4.251957e+003
3.364750e+002, 4.254272e+003
3.369572e+002, 4.249110e+003
3.374393e+002, 4.243124e+003
3.379214e+002, 4.239372e+003
3.384035e+002, 4.236916e+003
3.388856e+002, 4.233156e+003
3.393677e+002, 4.226561e+003
3.398499e+002, 4.218672e+003
3.403320e+002, 4.213976e+003
3.408141e+002, 4.214418e+003
3.412962e+002, 4.213977e+003
3.417783e+002, 4.210543e+003
3.422604e+002, 4.205945e+003
3.427426e+002, 4.202993e+003
3.432247e+002, 4.202508e+003
3.437068e+002, 4.202285e+003
3.441889e+002, 4.199141e+003
3.446710e+002, 4.191667e+003
3.451531e+002, 4.185152e+003
3.456353e+002, 4.179457e+003
3.461174e+002, 4.174920e+003
3.465995e+002, 4.172432e+003
3.470816e+002, 4.171761e+003
3.475637e+002, 4.171227e+003
3.480458e+002, 4.169502e+003
3.485280e+002, 4.166548e+003
3.490101e+002, 4.162097e+003
3.494922e+002, 4.154748e+003
3.499743e+002, 4.147599e+003
3.504564e+002, 4.140896e+003
3.509385e+002, 4.135466e+003
3.514207e+002, 4.133374e+003
3.519028e+002, 4.136222e+003
3.523849e+002, 4.142501e+003
3.528670e+002, 4.145693e+003
3.533491e+002, 4.143055e+003
3.538312e+002, 4.140767e+003
3.543134e+002, 4.138547e+003
3.547955e+002, 4.137466e+003
3.552776e+002, 4.139581e+003
3.557597e+002, 4.145476e+003
3.562418e+002, 4.152414e+003
3.567239e+002, 4.155655e+003
3.572061e+002, 4.152545e+003
3.576882e+002, 4.150969e+003
3.581703e+002, 4.151351e+003
3.586524e+002, 4.152757e+003
3.591345e+002, 4.155149e+003
3.596166e+002, 4.158146e+003
3.600987e+002, 4.160523e+003
3.605808e+002, 4.160864e+003
3.610630e+002, 4.158749e+003
3.615451e+002, 4.158539e+003
3.620272e+002, 4.163802e+003
3.625093e+002, 4.167141e+003
3.629914e+002, 4.164171e+003
3.634735e+002, 4.157585e+003
3.639557e+002, 4.152841e+003
3.644378e+002, 4.153400e+003
3.649199e+002, 4.157862e+003
3.654020e+002, 4.160214e+003
3.658841e+002, 4.158350e+003
3.663662e+002, 4.157208e+003
3.668484e+002, 4.156993e+003
3.673305e+002, 4.157934e+003
3.678126e+002, 4.161148e+003
3.682947e+002, 4.166725e+003
3.687768e+002, 4.172135e+003
3.692589e+002, 4.173177e+003
3.697411e+002, 4.168243e+003
3.702232e+002, 4.163182e+003
3.707053e+002, 4.158155e+003
3.711874e+002, 4.153071e+003
3.716695e+002, 4.146561e+003
3.721516e+002, 4.139507e+003
3.726338e+002, 4.134944e+003
3.731159e+002, 4.136386e+003
3.735980e+002, 4.143584e+003
3.740801e+002, 4.148497e+003
3.745622e+002, 4.148593e+003
3.750443e+002, 4.149440e+003
3.755265e+002, 4.154205e+003
3.760086e+002, 4.160588e+003
3.764907e+002, 4.164650e+003
3.769728e+002, 4.164009e+003
3.774549e+002, 4.161152e+003
3.779370e+002, 4.161761e+003
3.784192e+002, 4.166891e+003
3.789013e+002, 4.172553e+003
3.793834e+002, 4.177379e+003
3.798655e+002, 4.182479e+003
3.803476e+002, 4.188757e+003
3.808297e+002, 4.196398e+003
3.813119e+002, 4.204949e+003
3.817940e+002, 4.214286e+003
3.822761e+002, 4.224411e+003
3.827582e+002, 4.233988e+003
3.832403e+002, 4.243146e+003
3.837224e+002, 4.251286e+003
3.842046e+002, 4.257283e+003
3.846867e+002, 4.261841e+003
3.851688e+002, 4.267645e+003
3.856509e+002, 4.278196e+003
3.861330e+002, 4.290570e+003
3.866151e+002, 4.297695e+003
3.870973e+002, 4.298461e+003
3.875794e+002, 4.297799e+003
3.880615e+002, 4.297885e+003
3.885436e+002, 4.298394e+003
3.890257e+002, 4.299154e+003
3.895078e+002, 4.300893e+003
3.899900e+002, 4.301417e+003
3.904721e+002, 4.298343e+003
3.909542e+002, 4.291996e+003
3.914363e+002, 4.284921e+003
3.919184e+002, 4.277299e+003
3.924005e+002, 4.270115e+003
3.928827e+002, 4.265431e+003
3.933648e+002, 4.263615e+003
3.938469e+002, 4.259841e+003
3.943290e+002, 4.251626e+003
3.948111e+002, 4.240520e+003
3.952932e+002, 4.228522e+003
3.957754e+002, 4.215695e+003
3.962575e+002, 4.203460e+003
3.967396e+002, 4.192970e+003
3.972217e+002, 4.184283e+003
3.977038e+002, 4.176442e+003
3.981859e+002, 4.169428e+003
3.986681e+002, 4.163172e+003
3.991501e+002, 4.157993e+003
3.996323e+002, 4.153601e+003
4.001144e+002, 4.148848e+003
4.005965e+002, 4.142946e+003
4.010786e+002, 4.136634e+003
4.015607e+002, 4.132297e+003
4.020428e+002, 4.130822e+003
4.025250e+002, 4.129344e+003
4.030071e+002, 4.127136e+003
4.034892e+002, 4.124745e+003
4.039713e+002, 4.123391e+003
4.044534e+002, 4.123191e+003
4.049355e+002, 4.122042e+003
4.054177e+002, 4.117059e+003
4.058998e+002, 4.106897e+003
4.063819e+002, 4.099900e+003
4.068640e+002, 4.098356e+003
4.073461e+002, 4.097401e+003
4.078282e+002, 4.093888e+003
4.083104e+002, 4.088933e+003
4.087925e+002, 4.086011e+003
4.092746e+002, 4.087523e+003
4.097567e+002, 4.092158e+003
4.102388e+002, 4.093807e+003
4.107209e+002, 4.088675e+003
4.112031e+002, 4.085393e+003
4.116852e+002, 4.085542e+003
4.121673e+002, 4.087336e+003
4.126494e+002, 4.089275e+003
4.131315e+002, 4.090881e+003
4.136136e+002, 4.092254e+003
4.140958e+002, 4.093331e+003
4.145779e+002, 4.093745e+003
4.150600e+002, 4.095396e+003
4.155421e+002, 4.100237e+003
4.160242e+002, 4.104525e+003
4.165063e+002, 4.104988e+003
4.169885e+002, 4.103661e+003
4.174706e+002, 4.105560e+003
4.179527e+002, 4.114587e+003
4.184348e+002, 4.128551e+003
4.189169e+002, 4.140077e+003
4.193990e+002, 4.148338e+003
4.198812e+002, 4.155821e+003
4.203633e+002, 4.163866e+003
4.208454e+002, 4.171192e+003
4.213275e+002, 4.175879e+003
4.218096e+002, 4.177366e+003
4.222917e+002, 4.178742e+003
4.227739e+002, 4.183793e+003
4.232560e+002, 4.192260e+003
4.237381e+002, 4.199141e+003
4.242202e+002, 4.203179e+003
4.247023e+002, 4.206048e+003
4.251844e+002, 4.208965e+003
4.256666e+002, 4.211870e+003
4.261487e+002, 4.214573e+003
4.266308e+002, 4.218039e+003
4.271129e+002, 4.220782e+003
4.275950e+002, 4.220661e+003
4.280771e+002, 4.217638e+003
4.285593e+002, 4.212420e+003
4.290414e+002, 4.205749e+003
4.295235e+002, 4.196689e+003
4.300056e+002, 4.183788e+003
4.304877e+002, 4.165433e+003
4.309698e+002, 4.146948e+003
4.314520e+002, 4.131890e+003
4.319341e+002, 4.118525e+003
4.324162e+002, 4.102388e+003
4.328983e+002, 4.082020e+003
4.333804e+002, 4.062091e+003
4.338625e+002, 4.049102e+003
4.343447e+002, 4.044456e+003
4.348268e+002, 4.034852e+003
4.353089e+002, 4.014185e+003
4.357910e+002, 3.993240e+003
4.362731e+002, 3.979850e+003
4.367552e+002, 3.972668e+003
4.372374e+002, 3.965692e+003
4.377195e+002, 3.955331e+003
4.382016e+002, 3.942778e+003
4.386837e+002, 3.932788e+003
4.391658e+002, 3.926392e+003
4.396479e+002, 3.921305e+003
4.401301e+002, 3.917953e+003
4.406122e+002, 3.915560e+003
4.410943e+002, 3.914236e+003
4.415764e+002, 3.913612e+003
4.420585e+002, 3.911828e+003
4.425406e+002, 3.906454e+003
4.430227e+002, 3.896799e+003
4.435049e+002, 3.888632e+003
4.439870e+002, 3.883292e+003
4.444691e+002, 3.878124e+003
4.449512e+002, 3.871501e+003
4.454333e+002, 3.864716e+003
4.459154e+002, 3.860165e+003
4.463976e+002, 3.859323e+003
4.468797e+002, 3.860329e+003
4.473618e+002, 3.858640e+003
4.478439e+002, 3.852688e+003
4.483260e+002, 3.848702e+003
4.488081e+002, 3.850125e+003
4.492903e+002, 3.852164e+003
4.497724e+002, 3.851637e+003
4.502545e+002, 3.848481e+003
4.507366e+002, 3.844973e+003
4.512187e+002, 3.842165e+003
4.517008e+002, 3.840296e+003
4.521830e+002, 3.840900e+003
4.526651e+002, 3.844886e+003
4.531472e+002, 3.849084e+003
4.536293e+002, 3.851681e+003
4.541114e+002, 3.853278e+003
4.545935e+002, 3.854694e+003
4.550757e+002, 3.856305e+003
4.555578e+002, 3.857328e+003
4.560399e+002, 3.856695e+003
4.565220e+002, 3.854793e+003
4.570041e+002, 3.853556e+003
4.574862e+002, 3.853965e+003
4.579684e+002, 3.854279e+003
4.584505e+002, 3.851956e+003
4.589326e+002, 3.847099e+003
4.594147e+002, 3.841915e+003
4.598968e+002, 3.836632e+003
4.603789e+002, 3.831340e+003
4.608611e+002, 3.825868e+003
4.613432e+002, 3.820374e+003
4.618253e+002, 3.815559e+003
4.623074e+002, 3.811824e+003
4.627895e+002, 3.809108e+003
4.632716e+002, 3.807071e+003
4.637538e+002, 3.807942e+003
4.642359e+002, 3.806569e+003
4.647180e+002, 3.800449e+003
4.652001e+002, 3.792818e+003
4.656822e+002, 3.787011e+003
4.661643e+002, 3.783616e+003
4.666465e+002, 3.781043e+003
4.671286e+002, 3.777431e+003
4.676107e+002, 3.772459e+003
4.680928e+002, 3.769127e+003
4.685749e+002, 3.768169e+003
4.690570e+002, 3.768068e+003
4.695392e+002, 3.769150e+003
4.700213e+002, 3.770634e+003
4.705034e+002, 3.771406e+003
4.709855e+002, 3.770956e+003
4.714676e+002, 3.769886e+003
4.719497e+002, 3.769432e+003
4.724319e+002, 3.769972e+003
4.729140e+002, 3.769542e+003
4.733961e+002, 3.767693e+003
4.738782e+002, 3.764907e+003
4.743603e+002, 3.761594e+003
4.748424e+002, 3.757663e+003
4.753246e+002, 3.752535e+003
4.758067e+002, 3.744824e+003
4.762888e+002, 3.736099e+003
4.767709e+002, 3.729778e+003
4.772530e+002, 3.726117e+003
4.777351e+002, 3.723478e+003
4.782173e+002, 3.721491e+003
4.786994e+002, 3.719924e+003
4.791815e+002, 3.718195e+003
4.796636e+002, 3.715958e+003
4.801457e+002, 3.714730e+003
4.806278e+002, 3.716099e+003
4.811100e+002, 3.718768e+003
4.815920e+002, 3.720834e+003
4.820742e+002, 3.722015e+003
4.825563e+002, 3.721261e+003
4.830384e+002, 3.717068e+003
4.835205e+002, 3.709473e+003
4.840026e+002, 3.703313e+003
4.844847e+002, 3.697693e+003
4.849669e+002, 3.694333e+003
4.854490e+002, 3.695891e+003
4.859311e+002, 3.699754e+003
4.864132e+002, 3.701373e+003
4.868953e+002, 3.699060e+003
4.873774e+002, 3.694494e+003
4.878596e+002, 3.690404e+003
4.883417e+002, 3.686991e+003
4.888238e+002, 3.683427e+003
4.893059e+002, 3.677736e+003
4.897880e+002, 3.673799e+003
4.902701e+002, 3.674895e+003
4.907523e+002, 3.679258e+003
4.912344e+002, 3.682854e+003
4.917165e+002, 3.683250e+003
4.921986e+002, 3.681312e+003
4.926807e+002, 3.679173e+003
4.931628e+002, 3.676499e+003
4.936450e+002, 3.674593e+003
4.941271e+002, 3.673946e+003
4.946092e+002, 3.674042e+003
4.950913e+002, 3.675083e+003
4.955734e+002, 3.676841e+003
4.960555e+002, 3.677949e+003
4.965377e+002, 3.677807e+003
4.970198e+002, 3.676262e+003
4.975019e+002, 3.671971e+003
4.979840e+002, 3.663944e+003
4.984661e+002, 3.657780e+003
4.989482e+002, 3.657653e+003
4.994304e+002, 3.660988e+003
4.999125e+002, 3.662738e+003
5.003946e+002, 3.662275e+003
5.008767e+002, 3.661174e+003
5.013588e+002, 3.659556e+003
5.018409e+002, 3.658006e+003
5.023231e+002, 3.657757e+003
5.028052e+002, 3.659081e+003
5.032873e+002, 3.660909e+003
5.037694e+002, 3.662647e+003
5.042515e+002, 3.664310e+003
5.047336e+002, 3.663013e+003
5.052158e+002, 3.655542e+003
5.056979e+002, 3.649053e+003
5.061800e+002, 3.645710e+003
5.066621e+002, 3.645089e+003
5.071442e+002, 3.646998e+003
5.076263e+002, 3.651236e+003
5.081085e+002, 3.656251e+003
5.085906e+002, 3.659522e+003
5.090727e+002, 3.660330e+003
5.095548e+002, 3.661944e+003
5.100369e+002, 3.666983e+003
5.105190e+002, 3.670162e+003
5.110012e+002, 3.668466e+003
5.114833e+002, 3.663542e+003
5.119654e+002, 3.658161e+003
5.124475e+002, 3.653231e+003
5.129296e+002, 3.650065e+003
5.134117e+002, 3.652633e+003
5.138939e+002, 3.662258e+003
5.143760e+002, 3.667387e+003
5.148581e+002, 3.663487e+003
5.153402e+002, 3.656146e+003
5.158223e+002, 3.649694e+003
5.163044e+002, 3.644110e+003
5.167866e+002, 3.638751e+003
5.172687e+002, 3.632759e+003
5.177508e+002, 3.627175e+003
5.182329e+002, 3.623670e+003
5.187150e+002, 3.622122e+003
5.191971e+002, 3.620702e+003
5.196793e+002, 3.618705e+003
5.201614e+002, 3.616131e+003
5.206435e+002, 3.613018e+003
5.211256e+002, 3.609546e+003
5.216077e+002, 3.605160e+003
5.220898e+002, 3.598702e+003
5.225720e+002, 3.592041e+003
5.230541e+002, 3.586870e+003
5.235362e+002, 3.583219e+003
5.240183e+002, 3.580085e+003
5.245004e+002, 3.576730e+003
5.249825e+002, 3.573378e+003
5.254647e+002, 3.571256e+003
5.259468e+002, 3.573304e+003
5.264289e+002, 3.572271e+003
5.269110e+002, 3.564373e+003
5.273931e+002, 3.555512e+003
5.278752e+002, 3.550540e+003
5.283574e+002, 3.549922e+003
5.288395e+002, 3.551115e+003
5.293216e+002, 3.553027e+003
5.298037e+002, 3.555002e+003
5.302858e+002, 3.552180e+003
5.307679e+002, 3.541914e+003
5.312501e+002, 3.533021e+003
5.317322e+002, 3.530781e+003
5.322143e+002, 3.531165e+003
5.326964e+002, 3.529963e+003
5.331785e+002, 3.526298e+003
5.336606e+002, 3.522888e+003
5.341428e+002, 3.522149e+003
5.346249e+002, 3.522797e+003
5.351070e+002, 3.521470e+003
5.355891e+002, 3.517522e+003
5.360712e+002, 3.514704e+003
5.365533e+002, 3.516730e+003
5.370355e+002, 3.522399e+003
5.375176e+002, 3.524190e+003
5.379997e+002, 3.517793e+003
5.384818e+002, 3.513155e+003
5.389639e+002, 3.514731e+003
5.394460e+002, 3.518845e+003
5.399282e+002, 3.520991e+003
5.404103e+002, 3.520232e+003
5.408924e+002, 3.518287e+003
5.413745e+002, 3.516820e+003
5.418566e+002, 3.515826e+003
5.423387e+002, 3.515450e+003
5.428209e+002, 3.514178e+003
5.433029e+002, 3.515516e+003
5.437850e+002, 3.522653e+003
5.442672e+002, 3.531552e+003
5.447493e+002, 3.537029e+003
5.452314e+002, 3.537882e+003
5.457135e+002, 3.538415e+003
5.461956e+002, 3.543876e+003
5.466777e+002, 3.553796e+003
5.471599e+002, 3.562352e+003
5.476420e+002, 3.569038e+003
5.481241e+002, 3.574770e+003
5.486062e+002, 3.579384e+003
5.490883e+002, 3.583564e+003
5.495704e+002, 3.588302e+003
5.500526e+002, 3.593220e+003
5.505347e+002, 3.599841e+003
5.510168e+002, 3.610913e+003
5.514989e+002, 3.624081e+003
5.519810e+002, 3.634522e+003
5.524631e+002, 3.641216e+003
5.529453e+002, 3.645676e+003
5.534274e+002, 3.649206e+003
5.539095e+002, 3.651798e+003
5.543916e+002, 3.652975e+003
5.548737e+002, 3.650894e+003
5.553558e+002, 3.649794e+003
5.558380e+002, 3.653068e+003
5.563201e+002, 3.656950e+003
5.568022e+002, 3.656503e+003
5.572843e+002, 3.650625e+003
5.577664e+002, 3.642166e+003
5.582485e+002, 3.633769e+003
5.587307e+002, 3.625390e+003
5.592128e+002, 3.619735e+003
5.596949e+002, 3.619781e+003
5.601770e+002, 3.618326e+003
5.606591e+002, 3.611961e+003
5.611412e+002, 3.603395e+003
5.616234e+002, 3.595909e+003
5.621055e+002, 3.590425e+003
5.625876e+002, 3.585208e+003
5.630697e+002, 3.577827e+003
5.635518e+002, 3.569436e+003
5.640339e+002, 3.564279e+003
5.645161e+002, 3.563249e+003
5.649982e+002, 3.563251e+003
5.654803e+002, 3.561824e+003
5.659624e+002, 3.559667e+003
5.664445e+002, 3.559634e+003
5.669266e+002, 3.562358e+003
5.674088e+002, 3.566261e+003
5.678909e+002, 3.571202e+003
5.683730e+002, 3.576836e+003
5.688551e+002, 3.583249e+003
5.693372e+002, 3.590180e+003
5.698193e+002, 3.596316e+003
5.703015e+002, 3.600134e+003
5.707836e+002, 3.601831e+003
5.712657e+002, 3.605087e+003
5.717478e+002, 3.611251e+003
5.722299e+002, 3.617222e+003
5.727120e+002, 3.620880e+003
5.731942e+002, 3.625160e+003
5.736763e+002, 3.633785e+003
5.741584e+002, 3.646828e+003
5.746405e+002, 3.659669e+003
5.751226e+002, 3.668093e+003
5.756047e+002, 3.672950e+003
5.760869e+002, 3.678149e+003
5.765690e+002, 3.684287e+003
5.770511e+002, 3.688154e+003
5.775332e+002, 3.687451e+003
5.780153e+002, 3.683852e+003
5.784974e+002, 3.680242e+003
5.789796e+002, 3.676766e+003
5.794617e+002, 3.672851e+003
5.799438e+002, 3.668669e+003
5.804259e+002, 3.663723e+003
5.809080e+002, 3.657416e+003
5.813901e+002, 3.649757e+003
5.818723e+002, 3.641105e+003
5.823544e+002, 3.631766e+003
5.828365e+002, 3.621437e+003
5.833186e+002, 3.608969e+003
5.838007e+002, 3.592562e+003
5.842828e+002, 3.576652e+003
5.847650e+002, 3.561661e+003
5.852471e+002, 3.546833e+003
5.857292e+002, 3.531441e+003
5.862113e+002, 3.515721e+003
5.866934e+002, 3.500571e+003
5.871755e+002, 3.486712e+003
5.876577e+002, 3.473495e+003
5.881398e+002, 3.459450e+003
5.886219e+002, 3.444351e+003
5.891040e+002, 3.429716e+003
5.895861e+002, 3.415459e+003
5.900682e+002, 3.402225e+003
5.905504e+002, 3.390335e+003
5.910325e+002, 3.379821e+003
5.915146e+002, 3.371223e+003
5.919967e+002, 3.367144e+003
5.924788e+002, 3.363012e+003
5.929609e+002, 3.353953e+003
5.934431e+002, 3.341608e+003
5.939252e+002, 3.330786e+003
5.944073e+002, 3.323243e+003
5.948894e+002, 3.317957e+003
5.953715e+002, 3.313562e+003
5.958536e+002, 3.310116e+003
5.963358e+002, 3.307363e+003
5.968179e+002, 3.306567e+003
5.973000e+002, 3.304969e+003
5.977821e+002, 3.301002e+003
5.982642e+002, 3.295827e+003
5.987463e+002, 3.291078e+003
5.992285e+002, 3.287307e+003
5.997106e+002, 3.284017e+003
6.001927e+002, 3.280427e+003
6.006748e+002, 3.276558e+003
6.011569e+002, 3.273700e+003
6.016390e+002, 3.272287e+003
6.021212e+002, 3.271063e+003
6.026033e+002, 3.269317e+003
6.030854e+002, 3.267292e+003
6.035675e+002, 3.265421e+003
6.040496e+002, 3.263862e+003
6.045317e+002, 3.262100e+003
6.050139e+002, 3.259523e+003
6.054960e+002, 3.256734e+003
6.059781e+002, 3.254911e+003
6.064602e+002, 3.254065e+003
6.069423e+002, 3.252906e+003
6.074244e+002, 3.250542e+003
6.079066e+002, 3.247129e+003
6.083887e+002, 3.243260e+003
6.088708e+002, 3.237139e+003
6.093529e+002, 3.233295e+003
6.098350e+002, 3.233662e+003
6.103171e+002, 3.234868e+003
6.107993e+002, 3.234791e+003
6.112814e+002, 3.233355e+003
6.117635e+002, 3.231340e+003
6.122456e+002, 3.229118e+003
6.127277e+002, 3.226798e+003
6.132098e+002, 3.224392e+003
6.136920e+002, 3.221799e+003
6.141741e+002, 3.220220e+003
6.146562e+002, 3.220648e+003
6.151383e+002, 3.221223e+003
6.156204e+002, 3.220006e+003
6.161025e+002, 3.217235e+003
6.165847e+002, 3.214165e+003
6.170668e+002, 3.210422e+003
6.175489e+002, 3.207069e+003
6.180310e+002, 3.204866e+003
6.185131e+002, 3.203538e+003
6.189952e+002, 3.202911e+003
6.194774e+002, 3.202860e+003
6.199595e+002, 3.202078e+003
6.204416e+002, 3.198757e+003
6.209237e+002, 3.192610e+003
6.214058e+002, 3.188160e+003
6.218879e+002, 3.186341e+003
6.223701e+002, 3.185210e+003
6.228522e+002, 3.185009e+003
6.233343e+002, 3.184952e+003
6.238164e+002, 3.184417e+003
6.242985e+002, 3.183237e+003
6.247806e+002, 3.181265e+003
6.252628e+002, 3.177850e+003
6.257448e+002, 3.173632e+003
6.262269e+002, 3.170437e+003
6.267090e+002, 3.168370e+003
6.271912e+002, 3.166363e+003
6.276733e+002, 3.163639e+003
6.281554e+002, 3.160952e+003
6.286375e+002, 3.159902e+003
6.291196e+002, 3.160744e+003
6.296017e+002, 3.161537e+003
6.300839e+002, 3.162399e+003
6.305660e+002, 3.162747e+003
6.310481e+002, 3.162032e+003
6.315302e+002, 3.160474e+003
6.320123e+002, 3.158498e+003
6.324944e+002, 3.156303e+003
6.329766e+002, 3.154183e+003
6.334587e+002, 3.152823e+003
6.339408e+002, 3.152512e+003
6.344229e+002, 3.151428e+003
6.349050e+002, 3.149514e+003
6.353871e+002, 3.146820e+003
6.358693e+002, 3.142517e+003
6.363514e+002, 3.137822e+003
6.368335e+002, 3.134450e+003
6.373156e+002, 3.132744e+003
6.377977e+002, 3.132750e+003
6.382798e+002, 3.136681e+003
6.387620e+002, 3.141699e+003
6.392441e+002, 3.141630e+003
6.397262e+002, 3.135954e+003
6.402083e+002, 3.129941e+003
6.406904e+002, 3.126972e+003
6.411725e+002, 3.126238e+003
6.416547e+002, 3.125000e+003
6.421368e+002, 3.122851e+003
6.426189e+002, 3.120754e+003
6.431010e+002, 3.118680e+003
6.435831e+002, 3.116669e+003
6.440652e+002, 3.114486e+003
6.445474e+002, 3.112385e+003
6.450295e+002, 3.111137e+003
6.455116e+002, 3.111334e+003
6.459937e+002, 3.111699e+003
6.464758e+002, 3.109781e+003
6.469579e+002, 3.105605e+003
6.474401e+002, 3.102263e+003
6.479222e+002, 3.100188e+003
6.484043e+002, 3.099132e+003
6.488864e+002, 3.099577e+003
6.493685e+002, 3.100939e+003
6.498506e+002, 3.101355e+003
6.503328e+002, 3.100537e+003
6.508149e+002, 3.099036e+003
6.512970e+002, 3.096970e+003
6.517791e+002, 3.094417e+003
6.522612e+002, 3.090809e+003
6.527433e+002, 3.086538e+003
6.532255e+002, 3.083858e+003
6.537076e+002, 3.084793e+003
6.541897e+002, 3.087825e+003
6.546718e+002, 3.086831e+003
6.551539e+002, 3.079199e+003
6.556360e+002, 3.073836e+003
6.561182e+002, 3.074134e+003
6.566003e+002, 3.075122e+003
6.570824e+002, 3.073546e+003
6.575645e+002, 3.070323e+003
6.580466e+002, 3.068764e+003
6.585287e+002, 3.071029e+003
6.590109e+002, 3.073886e+003
6.594930e+002, 3.074688e+003
6.599751e+002, 3.073620e+003
6.604572e+002, 3.070463e+003
6.609393e+002, 3.065083e+003
6.614214e+002, 3.060718e+003
6.619036e+002, 3.060707e+003
6.623857e+002, 3.064437e+003
6.628678e+002, 3.065156e+003
6.633499e+002, 3.060796e+003
6.638320e+002, 3.056150e+003
6.643141e+002, 3.050382e+003
6.647963e+002, 3.045449e+003
6.652784e+002, 3.042702e+003
6.657605e+002, 3.042249e+003
6.662426e+002, 3.044075e+003
6.667247e+002, 3.049383e+003
6.672068e+002, 3.054945e+003
6.676890e+002, 3.053762e+003
6.681711e+002, 3.046081e+003
6.686532e+002, 3.040493e+003
6.691353e+002, 3.039344e+003
6.696174e+002, 3.039698e+003
6.700995e+002, 3.038915e+003
6.705817e+002, 3.037152e+003
6.710638e+002, 3.036169e+003
6.715459e+002, 3.035910e+003
6.720280e+002, 3.036499e+003
6.725101e+002, 3.038782e+003
6.729922e+002, 3.041438e+003
6.734744e+002, 3.042974e+003
6.739565e+002, 3.043292e+003
6.744386e+002, 3.043185e+003
6.749207e+002, 3.043083e+003
6.754028e+002, 3.043304e+003
6.758849e+002, 3.044974e+003
6.763671e+002, 3.048316e+003
6.768492e+002, 3.052093e+003
6.773313e+002, 3.055829e+003
6.778134e+002, 3.060273e+003
6.782955e+002, 3.066174e+003
6.787776e+002, 3.073246e+003
6.792598e+002, 3.080453e+003
6.797419e+002, 3.087475e+003
6.802240e+002, 3.094699e+003
6.807061e+002, 3.102993e+003
6.811882e+002, 3.111394e+003
6.816703e+002, 3.119116e+003
6.821525e+002, 3.125676e+003
6.826346e+002, 3.129492e+003
6.831167e+002, 3.129156e+003
6.835988e+002, 3.125106e+003
6.840809e+002, 3.119251e+003
6.845630e+002, 3.110475e+003
6.850452e+002, 3.102377e+003
6.855273e+002, 3.097200e+003
6.860094e+002, 3.091303e+003
6.864915e+002, 3.082541e+003
6.869736e+002, 3.071279e+003
6.874557e+002, 3.058677e+003
6.879379e+002, 3.044372e+003
6.884200e+002, 3.030298e+003
6.889021e+002, 3.017057e+003
6.893842e+002, 3.005556e+003
6.898663e+002, 2.998874e+003
6.903484e+002, 2.997411e+003
6.908306e+002, 2.997130e+003
6.913127e+002, 2.995112e+003
6.917948e+002, 2.991437e+003
6.922769e+002, 2.986330e+003
6.927590e+002, 2.977214e+003
6.932411e+002, 2.970900e+003
6.937233e+002, 2.970078e+003
6.942054e+002, 2.969865e+003
6.946875e+002, 2.967541e+003
6.951696e+002, 2.963367e+003
6.956517e+002, 2.958454e+003
6.961339e+002, 2.952923e+003
6.966160e+002, 2.948017e+003
6.970981e+002, 2.945345e+003
6.975802e+002, 2.944460e+003
6.980623e+002, 2.943871e+003
6.985444e+002, 2.943390e+003
6.990266e+002, 2.942611e+003
6.995087e+002, 2.940924e+003
6.999908e+002, 2.938898e+003
7.004729e+002, 2.938842e+003
7.009550e+002, 2.945597e+003
7.014371e+002, 2.946705e+003
7.019193e+002, 2.936286e+003
7.024014e+002, 2.925453e+003
7.028835e+002, 2.921201e+003
7.033656e+002, 2.921888e+003
7.038477e+002, 2.923016e+003
7.043298e+002, 2.922763e+003
7.048120e+002, 2.921551e+003
7.052941e+002, 2.919440e+003
7.057762e+002, 2.916738e+003
7.062583e+002, 2.914973e+003
7.067404e+002, 2.914390e+003
7.072225e+002, 2.914257e+003
7.077046e+002, 2.914669e+003
7.081867e+002, 2.914854e+003
7.086688e+002, 2.912373e+003
7.091509e+002, 2.904802e+003
7.096331e+002, 2.900856e+003
7.101152e+002, 2.903963e+003
7.105973e+002, 2.908013e+003
7.110794e+002, 2.910125e+003
7.115615e+002, 2.910357e+003
7.120436e+002, 2.909062e+003
7.125258e+002, 2.906397e+003
7.130079e+002, 2.903401e+003
7.134900e+002, 2.901253e+003
7.139721e+002, 2.899823e+003
7.144542e+002, 2.898403e+003
7.149363e+002, 2.896987e+003
7.154185e+002, 2.895578e+003
7.159006e+002, 2.894281e+003
7.163827e+002, 2.892917e+003
7.168648e+002, 2.890880e+003
7.173469e+002, 2.887820e+003
7.178290e+002, 2.886282e+003
7.183112e+002, 2.889157e+003
7.187933e+002, 2.890759e+003
7.192754e+002, 2.887399e+003
7.197575e+002, 2.881350e+003
7.202396e+002, 2.875541e+003
7.207217e+002, 2.870947e+003
7.212039e+002, 2.867631e+003
7.216860e+002, 2.866093e+003
7.221681e+002, 2.865785e+003
7.226502e+002, 2.864406e+003
7.231323e+002, 2.861764e+003
7.236144e+002, 2.859707e+003
7.240966e+002, 2.859287e+003
7.245787e+002, 2.859003e+003
7.250608e+002, 2.856750e+003
7.255429e+002, 2.852580e+003
7.260250e+002, 2.849666e+003
7.265071e+002, 2.849156e+003
7.269893e+002, 2.848770e+003
7.274714e+002, 2.847386e+003
7.279535e+002, 2.845889e+003
7.284356e+002, 2.845514e+003
7.289177e+002, 2.846227e+003
7.293998e+002, 2.846897e+003
7.298820e+002, 2.846683e+003
7.303641e+002, 2.845898e+003
7.308462e+002, 2.845024e+003
7.313283e+002, 2.844020e+003
7.318104e+002, 2.844075e+003
7.322925e+002, 2.845893e+003
7.327747e+002, 2.847679e+003
7.332568e+002, 2.848160e+003
7.337389e+002, 2.847319e+003
7.342210e+002, 2.845438e+003
7.347031e+002, 2.840602e+003
7.351852e+002, 2.837651e+003
7.356674e+002, 2.839618e+003
7.361495e+002, 2.842159e+003
7.366316e+002, 2.841269e+003
7.371137e+002, 2.837743e+003
7.375958e+002, 2.834819e+003
7.380779e+002, 2.834119e+003
7.385601e+002, 2.834319e+003
7.390422e+002, 2.833856e+003
7.395243e+002, 2.832671e+003
7.400064e+002, 2.829772e+003
7.404885e+002, 2.824740e+003
7.409706e+002, 2.819516e+003
7.414528e+002, 2.814569e+003
7.419349e+002, 2.810593e+003
7.424170e+002, 2.809669e+003
7.428991e+002, 2.813229e+003
7.433812e+002, 2.814712e+003
7.438633e+002, 2.812777e+003
7.443455e+002, 2.809530e+003
7.448276e+002, 2.805100e+003
7.453097e+002, 2.800486e+003
7.457918e+002, 2.797218e+003
7.462739e+002, 2.795649e+003
7.467560e+002, 2.794415e+003
7.472382e+002, 2.791930e+003
7.477203e+002, 2.788821e+003
7.482024e+002, 2.787426e+003
7.486845e+002, 2.787808e+003
7.491666e+002, 2.786984e+003
7.496487e+002, 2.783349e+003
7.501309e+002, 2.779672e+003
7.506130e+002, 2.779597e+003
7.510951e+002, 2.783415e+003
7.515772e+002, 2.785084e+003
7.520593e+002, 2.782547e+003
7.525414e+002, 2.780644e+003
7.530236e+002, 2.781750e+003
7.535057e+002, 2.782923e+003
7.539878e+002, 2.780637e+003
7.544699e+002, 2.775567e+003
7.549520e+002, 2.771841e+003
7.554341e+002, 2.772458e+003
7.559163e+002, 2.774020e+003
7.563984e+002, 2.770879e+003
7.568805e+002, 2.764352e+003
7.573626e+002, 2.760582e+003
7.578447e+002, 2.760683e+003
7.583268e+002, 2.761589e+003
7.588090e+002, 2.761275e+003
7.592911e+002, 2.760051e+003
7.597732e+002, 2.758894e+003
7.602553e+002, 2.757855e+003
7.607374e+002, 2.756909e+003
7.612195e+002, 2.756849e+003
7.617017e+002, 2.756150e+003
7.621838e+002, 2.753305e+003
7.626659e+002, 2.749677e+003
7.631480e+002, 2.747453e+003
7.636301e+002, 2.747278e+003
7.641122e+002, 2.747776e+003
7.645944e+002, 2.747848e+003
7.650765e+002, 2.747987e+003
7.655586e+002, 2.749602e+003
7.660407e+002, 2.752238e+003
7.665228e+002, 2.752819e+003
7.670049e+002, 2.749987e+003
7.674871e+002, 2.746799e+003
7.679692e+002, 2.747579e+003
7.684513e+002, 2.752544e+003
7.689334e+002, 2.755135e+003
7.694155e+002, 2.752730e+003
7.698976e+002, 2.752193e+003
7.703798e+002, 2.757083e+003
7.708619e+002, 2.762658e+003
7.713440e+002, 2.765701e+003
7.718261e+002, 2.766075e+003
7.723082e+002, 2.764421e+003
7.727903e+002, 2.759757e+003
7.732725e+002, 2.754755e+003
7.737546e+002, 2.751215e+003
7.742367e+002, 2.748597e+003
7.747188e+002, 2.746511e+003
7.752009e+002, 2.744621e+003
7.756830e+002, 2.741608e+003
7.761652e+002, 2.736411e+003
7.766473e+002, 2.730404e+003
7.771294e+002, 2.727090e+003
7.776115e+002, 2.726961e+003
7.780936e+002, 2.726263e+003
7.785757e+002, 2.724628e+003
7.790579e+002, 2.722649e+003
7.795400e+002, 2.719737e+003
7.800221e+002, 2.717097e+003
7.805042e+002, 2.717461e+003
7.809863e+002, 2.722071e+003
7.814684e+002, 2.723832e+003
7.819506e+002, 2.717659e+003
7.824327e+002, 2.711488e+003
7.829148e+002, 2.711183e+003
7.833969e+002, 2.714115e+003
7.838790e+002, 2.716216e+003
7.843611e+002, 2.716109e+003
7.848433e+002, 2.713427e+003
7.853254e+002, 2.706739e+003
7.858075e+002, 2.697886e+003
7.862896e+002, 2.692681e+003
7.867717e+002, 2.691185e+003
7.872538e+002, 2.690418e+003
7.877360e+002, 2.689973e+003
7.882181e+002, 2.688972e+003
7.887002e+002, 2.685897e+003
7.891823e+002, 2.681331e+003
7.896644e+002, 2.680363e+003
7.901465e+002, 2.687686e+003
7.906286e+002, 2.691698e+003
7.911107e+002, 2.689231e+003
7.915928e+002, 2.685353e+003
7.920750e+002, 2.682976e+003
7.925571e+002, 2.681855e+003
7.930392e+002, 2.680938e+003
7.935213e+002, 2.679927e+003
7.940034e+002, 2.678436e+003
7.944855e+002, 2.674973e+003
7.949677e+002, 2.671267e+003
7.954498e+002, 2.671788e+003
7.959319e+002, 2.675871e+003
7.964140e+002, 2.677338e+003
7.968961e+002, 2.673458e+003
7.973782e+002, 2.667789e+003
7.978604e+002, 2.665323e+003
7.983425e+002, 2.666209e+003
7.988246e+002, 2.666027e+003
7.993067e+002, 2.663939e+003
7.997888e+002, 2.662255e+003
8.002709e+002, 2.662356e+003
8.007531e+002, 2.662404e+003
8.012352e+002, 2.661007e+003
8.017173e+002, 2.658302e+003
8.021994e+002, 2.655128e+003
8.026815e+002, 2.650224e+003
8.031636e+002, 2.647068e+003
8.036458e+002, 2.648359e+003
8.041279e+002, 2.651877e+003
8.046100e+002, 2.655814e+003
8.050921e+002, 2.659471e+003
8.055742e+002, 2.662040e+003
8.060563e+002, 2.663083e+003
8.065385e+002, 2.662590e+003
8.070206e+002, 2.660090e+003
8.075027e+002, 2.655757e+003
8.079848e+002, 2.651842e+003
8.084669e+002, 2.648379e+003
8.089490e+002, 2.645535e+003
8.094312e+002, 2.643274e+003
8.099133e+002, 2.641862e+003
8.103954e+002, 2.642228e+003
8.108775e+002, 2.645043e+003
8.113596e+002, 2.644970e+003
8.118417e+002, 2.638633e+003
8.123239e+002, 2.633760e+003
8.128060e+002, 2.633169e+003
8.132881e+002, 2.634475e+003
8.137702e+002, 2.636147e+003
8.142523e+002, 2.637588e+003
8.147344e+002, 2.637861e+003
8.152166e+002, 2.636193e+003
8.156987e+002, 2.633844e+003
8.161808e+002, 2.631933e+003
8.166629e+002, 2.630391e+003
8.171450e+002, 2.628829e+003
8.176271e+002, 2.627315e+003
8.181093e+002, 2.627146e+003
8.185914e+002, 2.629271e+003
8.190735e+002, 2.631831e+003
8.195556e+002, 2.630903e+003
8.200377e+002, 2.625691e+003
8.205198e+002, 2.621925e+003
8.210020e+002, 2.620477e+003
8.214841e+002, 2.618673e+003
8.219662e+002, 2.614321e+003
8.224483e+002, 2.609977e+003
8.229304e+002, 2.609324e+003
8.234125e+002, 2.612191e+003
8.238947e+002, 2.612853e+003
8.243768e+002, 2.608276e+003
8.248589e+002, 2.603616e+003
8.253410e+002, 2.600726e+003
8.258231e+002, 2.599208e+003
8.263052e+002, 2.598759e+003
8.267874e+002, 2.599230e+003
8.272695e+002, 2.600717e+003
8.277516e+002, 2.603591e+003
8.282337e+002, 2.606054e+003
8.287158e+002, 2.605161e+003
8.291979e+002, 2.601621e+003
8.296801e+002, 2.598199e+003
8.301622e+002, 2.595151e+003
8.306443e+002, 2.592554e+003
8.311264e+002, 2.590520e+003
8.316085e+002, 2.588746e+003
8.320906e+002, 2.586700e+003
8.325728e+002, 2.584311e+003
8.330549e+002, 2.582087e+003
8.335370e+002, 2.579616e+003
8.340191e+002, 2.577910e+003
8.345012e+002, 2.577577e+003
8.349833e+002, 2.577741e+003
8.354655e+002, 2.577880e+003
8.359476e+002, 2.577903e+003
8.364297e+002, 2.577640e+003
8.369118e+002, 2.577122e+003
8.373939e+002, 2.576218e+003
8.378760e+002, 2.574819e+003
8.383582e+002, 2.573039e+003
8.388403e+002, 2.570568e+003
8.393224e+002, 2.567833e+003
8.398045e+002, 2.566217e+003
8.402866e+002, 2.566390e+003
8.407687e+002, 2.566974e+003
8.412509e+002, 2.565739e+003
8.417330e+002, 2.563156e+003
8.422151e+002, 2.562099e+003
8.426972e+002, 2.562697e+003
8.431793e+002, 2.563550e+003
8.436614e+002, 2.564311e+003
8.441436e+002, 2.564661e+003
8.446257e+002, 2.564142e+003
8.451078e+002, 2.562760e+003
8.455899e+002, 2.561482e+003
8.460720e+002, 2.560324e+003
8.465541e+002, 2.559201e+003
8.470363e+002, 2.557676e+003
8.475184e+002, 2.556551e+003
8.480005e+002, 2.557157e+003
8.484826e+002, 2.558390e+003
8.489647e+002, 2.557352e+003
8.494468e+002, 2.552515e+003
8.499290e+002, 2.548975e+003
8.504111e+002, 2.550255e+003
8.508932e+002, 2.553561e+003
8.513753e+002, 2.557488e+003
8.518574e+002, 2.560834e+003
8.523395e+002, 2.560664e+003
8.528217e+002, 2.556482e+003
8.533038e+002, 2.552153e+003
8.537859e+002, 2.551890e+003
8.542680e+002, 2.554069e+003
8.547501e+002, 2.553093e+003
8.552322e+002, 2.548973e+003
8.557144e+002, 2.546507e+003
8.561965e+002, 2.546964e+003
8.566786e+002, 2.547758e+003
8.571607e+002, 2.546721e+003
8.576428e+002, 2.544737e+003
8.581249e+002, 2.544875e+003
8.586071e+002, 2.549706e+003
8.590892e+002, 2.550994e+003
8.595713e+002, 2.544388e+003
8.600534e+002, 2.539385e+003
8.605355e+002, 2.540872e+003
8.610176e+002, 2.544865e+003
8.614998e+002, 2.546570e+003
8.619819e+002, 2.545467e+003
8.624640e+002, 2.543894e+003
8.629461e+002, 2.542853e+003
8.634282e+002, 2.541569e+003
8.639103e+002, 2.539149e+003
8.643925e+002, 2.536358e+003
8.648746e+002, 2.534339e+003
8.653567e+002, 2.533111e+003
8.658388e+002, 2.532358e+003
8.663209e+002, 2.532083e+003
8.668030e+002, 2.530755e+003
8.672852e+002, 2.524717e+003
8.677673e+002, 2.515264e+003
8.682494e+002, 2.509642e+003
8.687315e+002, 2.508385e+003
8.692136e+002, 2.507387e+003
8.696957e+002, 2.504906e+003
8.701779e+002, 2.502106e+003
8.706600e+002, 2.500683e+003
8.711421e+002, 2.500650e+003
8.716242e+002, 2.499584e+003
8.721063e+002, 2.496728e+003
8.725884e+002, 2.494157e+003
8.730705e+002, 2.493232e+003
8.735526e+002, 2.491734e+003
8.740347e+002, 2.487245e+003
8.745168e+002, 2.481294e+003
8.749990e+002, 2.477758e+003
8.754811e+002, 2.478067e+003
8.759632e+002, 2.478371e+003
8.764453e+002, 2.477846e+003
8.769274e+002, 2.476354e+003
8.774095e+002, 2.473003e+003
8.778917e+002, 2.468911e+003
8.783738e+002, 2.465667e+003
8.788559e+002, 2.463751e+003
8.793380e+002, 2.463179e+003
8.798201e+002, 2.464611e+003
8.803022e+002, 2.466641e+003
8.807844e+002, 2.466929e+003
8.812665e+002, 2.465818e+003
8.817486e+002, 2.464392e+003
8.822307e+002, 2.462866e+003
8.827128e+002, 2.461453e+003
8.831949e+002, 2.460246e+003
8.836771e+002, 2.459453e+003
8.841592e+002, 2.459703e+003
8.846413e+002, 2.461243e+003
8.851234e+002, 2.462033e+003
8.856055e+002, 2.462411e+003
8.860876e+002, 2.461047e+003
8.865698e+002, 2.456556e+003
8.870519e+002, 2.451046e+003
8.875340e+002, 2.446597e+003
8.880161e+002, 2.443199e+003
8.884982e+002, 2.440468e+003
8.889803e+002, 2.438992e+003
8.894625e+002, 2.437341e+003
8.899446e+002, 2.434759e+003
8.904267e+002, 2.432413e+003
8.909088e+002, 2.431057e+003
8.913909e+002, 2.430585e+003
8.918730e+002, 2.430906e+003
8.923552e+002, 2.432052e+003
8.928373e+002, 2.432781e+003
8.933194e+002, 2.432222e+003
8.938015e+002, 2.430948e+003
8.942836e+002, 2.429845e+003
8.947657e+002, 2.428445e+003
8.952479e+002, 2.424872e+003
8.957300e+002, 2.419337e+003
8.962121e+002, 2.415501e+003
8.966942e+002, 2.416357e+003
8.971763e+002, 2.419665e+003
8.976584e+002, 2.421253e+003
8.981406e+002, 2.421175e+003
8.986227e+002, 2.419969e+003
8.991048e+002, 2.417605e+003
8.995869e+002, 2.414737e+003
9.000690e+002, 2.411360e+003
9.005511e+002, 2.408483e+003
9.010333e+002, 2.407833e+003
9.015154e+002, 2.409558e+003
9.019975e+002, 2.409973e+003
9.024796e+002, 2.407475e+003
9.029617e+002, 2.406707e+003
9.034438e+002, 2.410951e+003
9.039260e+002, 2.414826e+003
9.044081e+002, 2.414079e+003
9.048902e+002, 2.410246e+003
9.053723e+002, 2.407231e+003
9.058544e+002, 2.405555e+003
9.063365e+002, 2.404429e+003
9.068187e+002, 2.404365e+003
9.073008e+002, 2.404058e+003
9.077829e+002, 2.402603e+003
9.082650e+002, 2.400477e+003
9.087471e+002, 2.398113e+003
9.092292e+002, 2.395747e+003
9.097114e+002, 2.393914e+003
9.101935e+002, 2.393002e+003
9.106756e+002, 2.392633e+003
9.111577e+002, 2.393072e+003
9.116398e+002, 2.393496e+003
9.121219e+002, 2.391894e+003
9.126041e+002, 2.388596e+003
9.130862e+002, 2.386049e+003
9.135683e+002, 2.385419e+003
9.140504e+002, 2.385456e+003
9.145325e+002, 2.384585e+003
9.150146e+002, 2.382919e+003
9.154968e+002, 2.380759e+003
9.159789e+002, 2.378079e+003
9.164610e+002, 2.376204e+003
9.169431e+002, 2.375562e+003
9.174252e+002, 2.375409e+003
9.179073e+002, 2.375327e+003
9.183895e+002, 2.375070e+003
9.188716e+002, 2.373491e+003
9.193537e+002, 2.368971e+003
9.198358e+002, 2.367323e+003
9.203179e+002, 2.371073e+003
9.208000e+002, 2.374024e+003
9.212822e+002, 2.373284e+003
9.217643e+002, 2.370769e+003
9.222464e+002, 2.367897e+003
9.227285e+002, 2.364787e+003
9.232106e+002, 2.363306e+003
9.236927e+002, 2.365319e+003
9.241749e+002, 2.366786e+003
9.246570e+002, 2.367173e+003
9.251391e+002, 2.366070e+003
9.256212e+002, 2.361848e+003
9.261033e+002, 2.356261e+003
9.265854e+002, 2.352765e+003
9.270676e+002, 2.352404e+003
9.275497e+002, 2.353363e+003
9.280318e+002, 2.356183e+003
9.285139e+002, 2.358249e+003
9.289960e+002, 2.355360e+003
9.294781e+002, 2.350288e+003
9.299603e+002, 2.349007e+003
9.304424e+002, 2.351836e+003
9.309245e+002, 2.354058e+003
9.314066e+002, 2.352581e+003
9.318887e+002, 2.349495e+003
9.323708e+002, 2.348130e+003
9.328530e+002, 2.348000e+003
9.333351e+002, 2.346925e+003
9.338172e+002, 2.344859e+003
9.342993e+002, 2.343331e+003
9.347814e+002, 2.342938e+003
9.352635e+002, 2.342866e+003
9.357457e+002, 2.342184e+003
9.362278e+002, 2.341066e+003
9.367099e+002, 2.340632e+003
9.371920e+002, 2.341035e+003
9.376741e+002, 2.341459e+003
9.381563e+002, 2.342059e+003
9.386384e+002, 2.342093e+003
9.391205e+002, 2.341012e+003
9.396026e+002, 2.339208e+003
9.400847e+002, 2.337200e+003
9.405668e+002, 2.334809e+003
9.410490e+002, 2.333347e+003
9.415311e+002, 2.335336e+003
9.420132e+002, 2.334804e+003
9.424953e+002, 2.327562e+003
9.429774e+002, 2.320218e+003
9.434595e+002, 2.317804e+003
9.439417e+002, 2.319177e+003
9.444238e+002, 2.321016e+003
9.449059e+002, 2.322968e+003
9.453880e+002, 2.324308e+003
9.458701e+002, 2.324255e+003
9.463522e+002, 2.324086e+003
9.468344e+002, 2.324951e+003
9.473165e+002, 2.326052e+003
9.477986e+002, 2.326231e+003
9.482807e+002, 2.325411e+003
9.487628e+002, 2.324316e+003
9.492449e+002, 2.323345e+003
9.497271e+002, 2.322183e+003
9.502092e+002, 2.320285e+003
9.506913e+002, 2.318131e+003
9.511734e+002, 2.316122e+003
9.516555e+002, 2.314538e+003
9.521376e+002, 2.314263e+003
9.526198e+002, 2.315489e+003
9.531019e+002, 2.316868e+003
9.535840e+002, 2.316966e+003
9.540661e+002, 2.316480e+003
9.545482e+002, 2.317460e+003
9.550303e+002, 2.319552e+003
9.555124e+002, 2.320162e+003
9.559945e+002, 2.318928e+003
9.564766e+002, 2.317875e+003
9.569587e+002, 2.318049e+003
9.574409e+002, 2.319181e+003
9.579230e+002, 2.320916e+003
9.584051e+002, 2.323253e+003
9.588872e+002, 2.325914e+003
9.593693e+002, 2.329403e+003
9.598514e+002, 2.330913e+003
9.603336e+002, 2.329229e+003
9.608157e+002, 2.326782e+003
9.612978e+002, 2.325083e+003
9.617799e+002, 2.324158e+003
9.622620e+002, 2.324245e+003
9.627441e+002, 2.326163e+003
9.632263e+002, 2.326543e+003
9.637084e+002, 2.323638e+003
9.641905e+002, 2.321585e+003
9.646726e+002, 2.321826e+003
9.651547e+002, 2.323071e+003
9.656368e+002, 2.324620e+003
9.661190e+002, 2.326270e+003
9.666011e+002, 2.327214e+003
9.670832e+002, 2.326625e+003
9.675653e+002, 2.326818e+003
9.680474e+002, 2.330102e+003
9.685295e+002, 2.332329e+003
9.690117e+002, 2.329935e+003
9.694938e+002, 2.325711e+003
9.699759e+002, 2.323230e+003
9.704580e+002, 2.322949e+003
9.709401e+002, 2.323698e+003
9.714222e+002, 2.326347e+003
9.719044e+002, 2.327655e+003
9.723865e+002, 2.323548e+003
9.728686e+002, 2.318659e+003
9.733507e+002, 2.319011e+003
9.738328e+002, 2.322532e+003
9.743149e+002, 2.323205e+003
9.747971e+002, 2.319511e+003
9.752792e+002, 2.316083e+003
9.757613e+002, 2.316826e+003
9.762434e+002, 2.319579e+003
9.767255e+002, 2.321354e+003
9.772076e+002, 2.322956e+003
9.776898e+002, 2.326707e+003
9.781719e+002, 2.332313e+003
9.786540e+002, 2.336752e+003
9.791361e+002, 2.338616e+003
9.796182e+002, 2.339895e+003
9.801003e+002, 2.342690e+003
9.805825e+002, 2.347038e+003
9.810646e+002, 2.353709e+003
9.815467e+002, 2.362298e+003
9.820288e+002, 2.369072e+003
9.825109e+002, 2.373284e+003
9.829930e+002, 2.378556e+003
9.834752e+002, 2.387252e+003
9.839573e+002, 2.398277e+003
9.844394e+002, 2.409722e+003
9.849215e+002, 2.421574e+003
9.854036e+002, 2.433547e+003
9.858857e+002, 2.445593e+003
9.863679e+002, 2.458475e+003
9.868500e+002, 2.473325e+003
9.873321e+002, 2.486222e+003
9.878142e+002, 2.493868e+003
9.882963e+002, 2.497227e+003
9.887784e+002, 2.499566e+003
9.892606e+002, 2.502007e+003
9.897427e+002, 2.499243e+003
9.902248e+002, 2.489873e+003
9.907069e+002, 2.477844e+003
9.911890e+002, 2.463237e+003
9.916711e+002, 2.447594e+003
9.921533e+002, 2.431991e+003
9.926354e+002, 2.416546e+003
9.931175e+002, 2.402083e+003
9.935996e+002, 2.388136e+003
9.940817e+002, 2.376089e+003
9.945638e+002, 2.366744e+003
9.950460e+002, 2.358290e+003
9.955281e+002, 2.350544e+003
9.960102e+002, 2.343031e+003
9.964923e+002, 2.334907e+003
9.969744e+002, 2.326386e+003
9.974565e+002, 2.319272e+003
9.979387e+002, 2.313470e+003
9.984208e+002, 2.309861e+003
9.989029e+002, 2.310448e+003
9.993850e+002, 2.311450e+003
9.998671e+002, 2.310350e+003
1.000349e+003, 2.308245e+003
1.000831e+003, 2.306907e+003
1.001313e+003, 2.306515e+003
1.001796e+003, 2.306030e+003
1.002278e+003, 2.304913e+003
1.002760e+003, 2.303773e+003
1.003242e+003, 2.302064e+003
1.003724e+003, 2.301244e+003
1.004206e+003, 2.303363e+003
1.004688e+003, 2.307214e+003
1.005170e+003, 2.310365e+003
1.005653e+003, 2.312240e+003
1.006135e+003, 2.313884e+003
1.006617e+003, 2.315719e+003
1.007099e+003, 2.317936e+003
1.007581e+003, 2.321268e+003
1.008063e+003, 2.324735e+003
1.008545e+003, 2.326763e+003
1.009027e+003, 2.327635e+003
1.009509e+003, 2.328199e+003
1.009992e+003, 2.328889e+003
1.010474e+003, 2.330928e+003
1.010956e+003, 2.336431e+003
1.011438e+003, 2.342735e+003
1.011920e+003, 2.345500e+003
1.012402e+003, 2.346008e+003
1.012884e+003, 2.346853e+003
1.013366e+003, 2.348508e+003
1.013849e+003, 2.351432e+003
1.014331e+003, 2.355794e+003
1.014813e+003, 2.359953e+003
1.015295e+003, 2.361508e+003
1.015777e+003, 2.361948e+003
1.016259e+003, 2.366215e+003
1.016741e+003, 2.372963e+003
1.017223e+003, 2.374991e+003
1.017705e+003, 2.371675e+003
1.018188e+003, 2.368922e+003
1.018670e+003, 2.369803e+003
1.019152e+003, 2.371921e+003
1.019634e+003, 2.371971e+003
1.020116e+003, 2.370401e+003
1.020598e+003, 2.369364e+003
1.021080e+003, 2.368844e+003
1.021562e+003, 2.368129e+003
1.022044e+003, 2.367021e+003
1.022527e+003, 2.367304e+003
1.023009e+003, 2.370157e+003
1.023491e+003, 2.374230e+003
1.023973e+003, 2.377394e+003
1.024455e+003, 2.379715e+003
1.024937e+003, 2.382334e+003
1.025419e+003, 2.385407e+003
1.025901e+003, 2.387199e+003
1.026384e+003, 2.387034e+003
1.026866e+003, 2.387216e+003
1.027348e+003, 2.389174e+003
1.027830e+003, 2.392390e+003
1.028312e+003, 2.395883e+003
1.028794e+003, 2.399670e+003
1.029276e+003, 2.404198e+003
1.029758e+003, 2.409634e+003
1.030240e+003, 2.415412e+003
1.030723e+003, 2.421762e+003
1.031205e+003, 2.427575e+003
1.031687e+003, 2.431501e+003
1.032169e+003, 2.435094e+003
1.032651e+003, 2.441548e+003
1.033133e+003, 2.451045e+003
1.033615e+003, 2.461692e+003
1.034097e+003, 2.473821e+003
1.034579e+003, 2.486325e+003
1.035062e+003, 2.498565e+003
1.035544e+003, 2.511796e+003
1.036026e+003, 2.527267e+003
1.036508e+003, 2.543876e+003
1.036990e+003, 2.559229e+003
1.037472e+003, 2.573024e+003
1.037954e+003, 2.587070e+003
1.038436e+003, 2.601089e+003
1.038919e+003, 2.615703e+003
1.039401e+003, 2.633542e+003
1.039883e+003, 2.649183e+003
1.040365e+003, 2.659392e+003
1.040847e+003, 2.664893e+003
1.041329e+003, 2.667080e+003
1.041811e+003, 2.665906e+003
1.042293e+003, 2.661882e+003
1.042776e+003, 2.656415e+003
1.043258e+003, 2.646177e+003
1.043740e+003, 2.629060e+003
1.044222e+003, 2.608523e+003
1.044704e+003, 2.586324e+003
1.045186e+003, 2.562484e+003
1.045668e+003, 2.536252e+003
1.046150e+003, 2.506902e+003
1.046632e+003, 2.480779e+003
1.047115e+003, 2.460028e+003
1.047597e+003, 2.440542e+003
1.048079e+003, 2.421739e+003
1.048561e+003, 2.403560e+003
1.049043e+003, 2.385431e+003
1.049525e+003, 2.368058e+003
1.050007e+003, 2.352172e+003
1.050489e+003, 2.337851e+003
1.050971e+003, 2.326328e+003
1.051454e+003, 2.320580e+003
1.051936e+003, 2.314006e+003
1.052418e+003, 2.302803e+003
1.052900e+003, 2.291871e+003
1.053382e+003, 2.285614e+003
1.053864e+003, 2.281865e+003
1.054346e+003, 2.275780e+003
1.054828e+003, 2.266545e+003
1.055311e+003, 2.260104e+003
1.055793e+003, 2.260435e+003
1.056275e+003, 2.260538e+003
1.056757e+003, 2.258211e+003
1.057239e+003, 2.254624e+003
1.057721e+003, 2.250060e+003
1.058203e+003, 2.245170e+003
1.058685e+003, 2.240376e+003
1.059167e+003, 2.235826e+003
1.059650e+003, 2.233556e+003
1.060132e+003, 2.236554e+003
1.060614e+003, 2.238811e+003
1.061096e+003, 2.237621e+003
1.061578e+003, 2.235251e+003
1.062060e+003, 2.232892e+003
1.062542e+003, 2.230810e+003
1.063024e+003, 2.229087e+003
1.063506e+003, 2.227764e+003
1.063989e+003, 2.227167e+003
1.064471e+003, 2.227616e+003
1.064953e+003, 2.228496e+003
1.065435e+003, 2.229156e+003
1.065917e+003, 2.230527e+003
1.066399e+003, 2.234877e+003
1.066881e+003, 2.239633e+003
1.067363e+003, 2.240114e+003
1.067846e+003, 2.236224e+003
1.068328e+003, 2.233360e+003
1.068810e+003, 2.233687e+003
1.069292e+003, 2.235136e+003
1.069774e+003, 2.236880e+003
1.070256e+003, 2.239329e+003
1.070738e+003, 2.243583e+003
1.071220e+003, 2.248304e+003
1.071703e+003, 2.251530e+003
1.072185e+003, 2.253202e+003
1.072667e+003, 2.254903e+003
1.073149e+003, 2.257168e+003
1.073631e+003, 2.259632e+003
1.074113e+003, 2.262829e+003
1.074595e+003, 2.265416e+003
1.075077e+003, 2.267299e+003
1.075559e+003, 2.267432e+003
1.076042e+003, 2.263129e+003
1.076524e+003, 2.255540e+003
1.077006e+003, 2.250635e+003
1.077488e+003, 2.251377e+003
1.077970e+003, 2.251929e+003
1.078452e+003, 2.250062e+003
1.078934e+003, 2.246549e+003
1.079416e+003, 2.240714e+003
1.079898e+003, 2.234372e+003
1.080380e+003, 2.229584e+003
1.080863e+003, 2.226263e+003
1.081345e+003, 2.223233e+003
1.081827e+003, 2.220204e+003
1.082309e+003, 2.217126e+003
1.082791e+003, 2.213772e+003
1.083273e+003, 2.210559e+003
1.083755e+003, 2.208050e+003
1.084237e+003, 2.205564e+003
1.084720e+003, 2.202216e+003
1.085202e+003, 2.198266e+003
1.085684e+003, 2.194416e+003
1.086166e+003, 2.190773e+003
1.086648e+003, 2.188013e+003
1.087130e+003, 2.185270e+003
1.087612e+003, 2.184892e+003
1.088094e+003, 2.191668e+003
1.088577e+003, 2.198263e+003
1.089059e+003, 2.196328e+003
1.089541e+003, 2.189233e+003
1.090023e+003, 2.184827e+003
1.090505e+003, 2.184718e+003
1.090987e+003, 2.186171e+003
1.091469e+003, 2.189758e+003
1.091951e+003, 2.192615e+003
1.092433e+003, 2.194915e+003
1.092916e+003, 2.194709e+003
1.093398e+003, 2.188997e+003
1.093880e+003, 2.180385e+003
1.094362e+003, 2.172230e+003
1.094844e+003, 2.165364e+003
1.095326e+003, 2.162105e+003
1.095808e+003, 2.166061e+003
1.096290e+003, 2.169519e+003
1.096772e+003, 2.170516e+003
1.097255e+003, 2.169634e+003
1.097737e+003, 2.165283e+003
1.098219e+003, 2.160468e+003
1.098701e+003, 2.159833e+003
1.099183e+003, 2.162963e+003
1.099665e+003, 2.164193e+003
1.100147e+003, 2.160844e+003
1.100629e+003, 2.158376e+003
1.101112e+003, 2.158058e+003
1.101594e+003, 2.159081e+003
1.102076e+003, 2.162258e+003
1.102558e+003, 2.165640e+003
1.103040e+003, 2.167368e+003
1.103522e+003, 2.167487e+003
1.104004e+003, 2.166573e+003
1.104486e+003, 2.164095e+003
1.104969e+003, 2.162542e+003
1.105451e+003, 2.162907e+003
1.105933e+003, 2.163545e+003
1.106415e+003, 2.162842e+003
1.106897e+003, 2.163139e+003
1.107379e+003, 2.168501e+003
1.107861e+003, 2.175866e+003
1.108343e+003, 2.176953e+003
1.108825e+003, 2.169514e+003
1.109307e+003, 2.165426e+003
1.109790e+003, 2.168742e+003
1.110272e+003, 2.171178e+003
1.110754e+003, 2.170911e+003
1.111236e+003, 2.169503e+003
1.111718e+003, 2.167153e+003
1.112200e+003, 2.164633e+003
1.112682e+003, 2.163314e+003
1.113164e+003, 2.163285e+003
1.113647e+003, 2.163031e+003
1.114129e+003, 2.161630e+003
1.114611e+003, 2.161610e+003
1.115093e+003, 2.164693e+003
1.115575e+003, 2.167054e+003
1.116057e+003, 2.166205e+003
1.116539e+003, 2.164684e+003
1.117021e+003, 2.166108e+003
1.117504e+003, 2.169726e+003
1.117986e+003, 2.169698e+003
1.118468e+003, 2.163176e+003
1.118950e+003, 2.159875e+003
1.119432e+003, 2.161245e+003
1.119914e+003, 2.163122e+003
1.120396e+003, 2.164439e+003
1.120878e+003, 2.165454e+003
1.121360e+003, 2.166408e+003
1.121843e+003, 2.167218e+003
1.122325e+003, 2.167594e+003
1.122807e+003, 2.167435e+003
1.123289e+003, 2.167587e+003
1.123771e+003, 2.168400e+003
1.124253e+003, 2.168325e+003
1.124735e+003, 2.166923e+003
1.125217e+003, 2.164743e+003
1.125699e+003, 2.161648e+003
1.126182e+003, 2.159058e+003
1.126664e+003, 2.159637e+003
1.127146e+003, 2.163196e+003
1.127628e+003, 2.166518e+003
1.128110e+003, 2.169695e+003
1.128592e+003, 2.171492e+003
1.129074e+003, 2.171612e+003
1.129556e+003, 2.170996e+003
1.130039e+003, 2.169859e+003
1.130521e+003, 2.169376e+003
1.131003e+003, 2.171027e+003
1.131485e+003, 2.174205e+003
1.131967e+003, 2.177022e+003
1.132449e+003, 2.179439e+003
1.132931e+003, 2.180745e+003
1.133413e+003, 2.180923e+003
1.133896e+003, 2.180323e+003
1.134378e+003, 2.179056e+003
1.134860e+003, 2.178530e+003
1.135342e+003, 2.179938e+003
1.135824e+003, 2.182193e+003
1.136306e+003, 2.183098e+003
1.136788e+003, 2.183191e+003
1.137270e+003, 2.184516e+003
1.137752e+003, 2.186983e+003
1.138234e+003, 2.190531e+003
1.138717e+003, 2.194812e+003
1.139199e+003, 2.197624e+003
1.139681e+003, 2.197849e+003
1.140163e+003, 2.196868e+003
1.140645e+003, 2.196024e+003
1.141127e+003, 2.195200e+003
1.141609e+003, 2.193385e+003
1.142091e+003, 2.191735e+003
1.142574e+003, 2.193663e+003
1.143056e+003, 2.198246e+003
1.143538e+003, 2.201015e+003
1.144020e+003, 2.200878e+003
1.144502e+003, 2.201583e+003
1.144984e+003, 2.206258e+003
1.145466e+003, 2.211748e+003
1.145948e+003, 2.215913e+003
1.146431e+003, 2.218042e+003
1.146913e+003, 2.215653e+003
1.147395e+003, 2.211263e+003
1.147877e+003, 2.209357e+003
1.148359e+003, 2.210348e+003
1.148841e+003, 2.212066e+003
1.149323e+003, 2.213663e+003
1.149805e+003, 2.215430e+003
1.150287e+003, 2.217258e+003
1.150770e+003, 2.219652e+003
1.151252e+003, 2.223874e+003
1.151734e+003, 2.228127e+003
1.152216e+003, 2.229915e+003
1.152698e+003, 2.230268e+003
1.153180e+003, 2.232051e+003
1.153662e+003, 2.235860e+003
1.154144e+003, 2.239355e+003
1.154626e+003, 2.242308e+003
1.155109e+003, 2.244075e+003
1.155591e+003, 2.242354e+003
1.156073e+003, 2.241699e+003
1.156555e+003, 2.246245e+003
1.157037e+003, 2.252684e+003
1.157519e+003, 2.256686e+003
1.158001e+003, 2.258306e+003
1.158483e+003, 2.259912e+003
1.158966e+003, 2.261044e+003
1.159448e+003, 2.263653e+003
1.159930e+003, 2.268755e+003
1.160412e+003, 2.274159e+003
1.160894e+003, 2.280390e+003
1.161376e+003, 2.285496e+003
1.161858e+003, 2.287536e+003
1.162340e+003, 2.287683e+003
1.162822e+003, 2.288385e+003
1.163305e+003, 2.289635e+003
1.163787e+003, 2.291414e+003
1.164269e+003, 2.293315e+003
1.164751e+003, 2.297254e+003
1.165233e+003, 2.304527e+003
1.165715e+003, 2.310608e+003
1.166197e+003, 2.313007e+003
1.166679e+003, 2.314167e+003
1.167161e+003, 2.316787e+003
1.167644e+003, 2.320790e+003
1.168126e+003, 2.326829e+003
1.168608e+003, 2.335114e+003
1.169090e+003, 2.337724e+003
1.169572e+003, 2.334122e+003
1.170054e+003, 2.332281e+003
1.170536e+003, 2.334382e+003
1.171018e+003, 2.337974e+003
1.171500e+003, 2.341510e+003
1.171983e+003, 2.344648e+003
1.172465e+003, 2.346611e+003
1.172947e+003, 2.347831e+003
1.173429e+003, 2.349844e+003
1.173911e+003, 2.352416e+003
1.174393e+003, 2.354786e+003
1.174875e+003, 2.356797e+003
1.175357e+003, 2.358191e+003
1.175840e+003, 2.358924e+003
1.176322e+003, 2.359677e+003
1.176804e+003, 2.361406e+003
1.177286e+003, 2.362548e+003
1.177768e+003, 2.359700e+003
1.178250e+003, 2.356107e+003
1.178732e+003, 2.357529e+003
1.179214e+003, 2.361519e+003
1.179697e+003, 2.363269e+003
1.180179e+003, 2.361897e+003
1.180661e+003, 2.357631e+003
1.181143e+003, 2.349990e+003
1.181625e+003, 2.344247e+003
1.182107e+003, 2.345938e+003
1.182589e+003, 2.347792e+003
1.183071e+003, 2.344783e+003
1.183553e+003, 2.339919e+003
1.184036e+003, 2.335579e+003
1.184518e+003, 2.331914e+003
1.185000e+003, 2.328392e+003
1.185482e+003, 2.325024e+003
1.185964e+003, 2.323178e+003
1.186446e+003, 2.325021e+003
1.186928e+003, 2.325407e+003
1.187410e+003, 2.322546e+003
1.187892e+003, 2.319259e+003
1.188375e+003, 2.316594e+003
1.188857e+003, 2.314167e+003
1.189339e+003, 2.311038e+003
1.189821e+003, 2.308015e+003
1.190303e+003, 2.307697e+003
1.190785e+003, 2.310702e+003
1.191267e+003, 2.312866e+003
1.191749e+003, 2.314286e+003
1.192232e+003, 2.314411e+003
1.192714e+003, 2.312668e+003
1.193196e+003, 2.310864e+003
1.193678e+003, 2.309593e+003
1.194160e+003, 2.309742e+003
1.194642e+003, 2.313055e+003
1.195124e+003, 2.317895e+003
1.195606e+003, 2.316849e+003
1.196089e+003, 2.310240e+003
1.196571e+003, 2.307502e+003
1.197053e+003, 2.308874e+003
1.197535e+003, 2.310227e+003
1.198017e+003, 2.310439e+003
1.198499e+003, 2.308600e+003
1.198981e+003, 2.303960e+003
1.199463e+003, 2.299725e+003
1.199945e+003, 2.301018e+003
1.200427e+003, 2.305060e+003
1.200910e+003, 2.306645e+003
1.201392e+003, 2.306466e+003
1.201874e+003, 2.305711e+003
1.202356e+003, 2.304716e+003
1.202838e+003, 2.303488e+003
1.203320e+003, 2.302267e+003
1.203802e+003, 2.302663e+003
1.204284e+003, 2.306384e+003
1.204767e+003, 2.309626e+003
1.205249e+003, 2.308792e+003
1.205731e+003, 2.307054e+003
1.206213e+003, 2.306626e+003
1.206695e+003, 2.307157e+003
1.207177e+003, 2.308358e+003
1.207659e+003, 2.309927e+003
1.208141e+003, 2.311603e+003
1.208624e+003, 2.313422e+003
1.209106e+003, 2.313703e+003
1.209588e+003, 2.309852e+003
1.210070e+003, 2.307712e+003
1.210552e+003, 2.309506e+003
1.211034e+003, 2.312071e+003
1.211516e+003, 2.314698e+003
1.211998e+003, 2.316559e+003
1.212480e+003, 2.316457e+003
1.212963e+003, 2.314938e+003
1.213445e+003, 2.314017e+003
1.213927e+003, 2.313519e+003
1.214409e+003, 2.314538e+003
1.214891e+003, 2.317551e+003
1.215373e+003, 2.320368e+003
1.215855e+003, 2.322948e+003
1.216337e+003, 2.323131e+003
1.216819e+003, 2.319325e+003
1.217302e+003, 2.315053e+003
1.217784e+003, 2.314701e+003
1.218266e+003, 2.317223e+003
1.218748e+003, 2.320529e+003
1.219230e+003, 2.323827e+003
1.219712e+003, 2.321099e+003
1.220194e+003, 2.313950e+003
1.220676e+003, 2.312575e+003
1.221159e+003, 2.318471e+003
1.221641e+003, 2.324568e+003
1.222123e+003, 2.327069e+003
1.222605e+003, 2.328652e+003
1.223087e+003, 2.332523e+003
1.223569e+003, 2.336361e+003
1.224051e+003, 2.336846e+003
1.224533e+003, 2.336138e+003
1.225016e+003, 2.337088e+003
1.225498e+003, 2.339071e+003
1.225980e+003, 2.340461e+003
1.226462e+003, 2.340956e+003
1.226944e+003, 2.341000e+003
1.227426e+003, 2.340396e+003
1.227908e+003, 2.340273e+003
1.228390e+003, 2.341834e+003
1.228872e+003, 2.342832e+003
1.229354e+003, 2.341598e+003
1.229837e+003, 2.340146e+003
1.230319e+003, 2.339587e+003
1.230801e+003, 2.340191e+003
1.231283e+003, 2.342982e+003
1.231765e+003, 2.347836e+003
1.232247e+003, 2.349433e+003
1.232729e+003, 2.346156e+003
1.233211e+003, 2.344668e+003
1.233694e+003, 2.345484e+003
1.234176e+003, 2.347530e+003
1.234658e+003, 2.350845e+003
1.235140e+003, 2.353774e+003
1.235622e+003, 2.355137e+003
1.236104e+003, 2.355419e+003
1.236586e+003, 2.355419e+003
1.237068e+003, 2.355069e+003
1.237551e+003, 2.353361e+003
1.238033e+003, 2.351027e+003
1.238515e+003, 2.352345e+003
1.238997e+003, 2.356575e+003
1.239479e+003, 2.357515e+003
1.239961e+003, 2.354008e+003
1.240443e+003, 2.352145e+003
1.240925e+003, 2.356174e+003
1.241407e+003, 2.361074e+003
1.241890e+003, 2.362055e+003
1.242372e+003, 2.361551e+003
1.242854e+003, 2.361280e+003
1.243336e+003, 2.361509e+003
1.243818e+003, 2.362601e+003
1.244300e+003, 2.364325e+003
1.244782e+003, 2.366271e+003
1.245264e+003, 2.368344e+003
1.245746e+003, 2.370276e+003
1.246229e+003, 2.372479e+003
1.246711e+003, 2.373637e+003
1.247193e+003, 2.372095e+003
1.247675e+003, 2.371417e+003
1.248157e+003, 2.373333e+003
1.248639e+003, 2.375871e+003
1.249121e+003, 2.377969e+003
1.249603e+003, 2.379447e+003
1.250085e+003, 2.379768e+003
1.250568e+003, 2.379052e+003
1.251050e+003, 2.379826e+003
1.251532e+003, 2.382298e+003
1.252014e+003, 2.383774e+003
1.252496e+003, 2.384019e+003
1.252978e+003, 2.383818e+003
1.253460e+003, 2.383417e+003
1.253942e+003, 2.384461e+003
1.254425e+003, 2.388180e+003
1.254907e+003, 2.392794e+003
1.255389e+003, 2.396332e+003
1.255871e+003, 2.398633e+003
1.256353e+003, 2.398448e+003
1.256835e+003, 2.397301e+003
1.257317e+003, 2.397775e+003
1.257799e+003, 2.399910e+003
1.258281e+003, 2.403846e+003
1.258764e+003, 2.408925e+003
1.259246e+003, 2.411888e+003
1.259728e+003, 2.410705e+003
1.260210e+003, 2.409777e+003
1.260692e+003, 2.412477e+003
1.261174e+003, 2.414173e+003
1.261656e+003, 2.410484e+003
1.262138e+003, 2.407177e+003
1.262620e+003, 2.409289e+003
1.263103e+003, 2.414372e+003
1.263585e+003, 2.418742e+003
1.264067e+003, 2.422299e+003
1.264549e+003, 2.424288e+003
1.265031e+003, 2.424110e+003
1.265513e+003, 2.423876e+003
1.265995e+003, 2.422728e+003
1.266477e+003, 2.426472e+003
1.266960e+003, 2.437590e+003
1.267442e+003, 2.444962e+003
1.267924e+003, 2.442100e+003
1.268406e+003, 2.435312e+003
1.268888e+003, 2.431600e+003
1.269370e+003, 2.430349e+003
1.269852e+003, 2.430238e+003
1.270334e+003, 2.431352e+003
1.270817e+003, 2.435104e+003
1.271299e+003, 2.439946e+003
1.271781e+003, 2.440887e+003
1.272263e+003, 2.438468e+003
1.272745e+003, 2.438674e+003
1.273227e+003, 2.443806e+003
1.273709e+003, 2.447311e+003
1.274191e+003, 2.442766e+003
1.274673e+003, 2.439160e+003
1.275156e+003, 2.440804e+003
1.275638e+003, 2.445082e+003
1.276120e+003, 2.452236e+003
1.276602e+003, 2.459490e+003
1.277084e+003, 2.463555e+003
1.277566e+003, 2.465217e+003
1.278048e+003, 2.467593e+003
1.278530e+003, 2.471012e+003
1.279012e+003, 2.472102e+003
1.279495e+003, 2.469841e+003
1.279977e+003, 2.468249e+003
1.280459e+003, 2.467519e+003
1.280941e+003, 2.469758e+003
1.281423e+003, 2.476035e+003
1.281905e+003, 2.482657e+003
1.282387e+003, 2.486847e+003
1.282869e+003, 2.489169e+003
1.283352e+003, 2.490022e+003
1.283834e+003, 2.489770e+003
1.284316e+003, 2.489002e+003
1.284798e+003, 2.487840e+003
##END=



