##NAMES=Perovskite
##RRUFFID=R120121
##IDEAL CHEMISTRY=CaTi^4+^O_3_
##LOCALITY=Fuka mine, Bicchu-cho, Okayama Prefecture, Japan
##OWNER=RRUFF
##SOURCE=Marcus Origlieri
##DESCRIPTION=Isolated grey-to-black octahedra frozen in matrix, associated with wollastonite R120122, spurrite and gehlenite
##STATUS=The identification of this mineral has been confirmed only by single crystal X-ray diffraction.
##URL=rruff.info/R120121
8.975323e+001, 0.000000e+000
9.023535e+001, 3.185613e+003
9.071747e+001, 3.093940e+003
9.119958e+001, 3.049059e+003
9.168170e+001, 3.142688e+003
9.216382e+001, 3.246803e+003
9.264594e+001, 3.331064e+003
9.312805e+001, 3.398466e+003
9.361017e+001, 3.457711e+003
9.409229e+001, 3.503812e+003
9.457440e+001, 3.533468e+003
9.505651e+001, 3.555113e+003
9.553863e+001, 3.568537e+003
9.602074e+001, 3.579165e+003
9.650286e+001, 3.592722e+003
9.698498e+001, 3.609477e+003
9.746709e+001, 3.620167e+003
9.794921e+001, 3.624600e+003
9.843133e+001, 3.615012e+003
9.891344e+001, 3.610998e+003
9.939556e+001, 3.619650e+003
9.987768e+001, 3.637155e+003
1.003598e+002, 3.653709e+003
1.008419e+002, 3.662465e+003
1.013240e+002, 3.665808e+003
1.018061e+002, 3.674093e+003
1.022883e+002, 3.690903e+003
1.027704e+002, 3.709767e+003
1.032525e+002, 3.723709e+003
1.037346e+002, 3.731499e+003
1.042167e+002, 3.740159e+003
1.046988e+002, 3.754591e+003
1.051810e+002, 3.771935e+003
1.056631e+002, 3.788240e+003
1.061452e+002, 3.800408e+003
1.066273e+002, 3.809857e+003
1.071094e+002, 3.823214e+003
1.075915e+002, 3.844503e+003
1.080737e+002, 3.864607e+003
1.085558e+002, 3.878880e+003
1.090379e+002, 3.888802e+003
1.095200e+002, 3.898108e+003
1.100021e+002, 3.910369e+003
1.104842e+002, 3.926335e+003
1.109664e+002, 3.941016e+003
1.114485e+002, 3.953151e+003
1.119306e+002, 3.965193e+003
1.124127e+002, 3.978562e+003
1.128948e+002, 3.993258e+003
1.133769e+002, 4.008291e+003
1.138591e+002, 4.022193e+003
1.143412e+002, 4.035619e+003
1.148233e+002, 4.046322e+003
1.153054e+002, 4.050539e+003
1.157875e+002, 4.053813e+003
1.162696e+002, 4.062845e+003
1.167517e+002, 4.080355e+003
1.172339e+002, 4.101419e+003
1.177160e+002, 4.113476e+003
1.181981e+002, 4.112890e+003
1.186802e+002, 4.113071e+003
1.191623e+002, 4.118557e+003
1.196444e+002, 4.127812e+003
1.201266e+002, 4.136708e+003
1.206087e+002, 4.143203e+003
1.210908e+002, 4.148263e+003
1.215729e+002, 4.154534e+003
1.220550e+002, 4.163396e+003
1.225371e+002, 4.171056e+003
1.230193e+002, 4.173136e+003
1.235014e+002, 4.168938e+003
1.239835e+002, 4.165132e+003
1.244656e+002, 4.164827e+003
1.249477e+002, 4.166618e+003
1.254298e+002, 4.169976e+003
1.259120e+002, 4.175451e+003
1.263941e+002, 4.181507e+003
1.268762e+002, 4.184459e+003
1.273583e+002, 4.182837e+003
1.278404e+002, 4.180377e+003
1.283225e+002, 4.177556e+003
1.288047e+002, 4.174904e+003
1.292868e+002, 4.173312e+003
1.297689e+002, 4.173621e+003
1.302510e+002, 4.175589e+003
1.307331e+002, 4.175506e+003
1.312152e+002, 4.171761e+003
1.316974e+002, 4.167375e+003
1.321795e+002, 4.161710e+003
1.326616e+002, 4.155800e+003
1.331437e+002, 4.151811e+003
1.336258e+002, 4.151867e+003
1.341079e+002, 4.156855e+003
1.345901e+002, 4.160237e+003
1.350722e+002, 4.162391e+003
1.355543e+002, 4.163057e+003
1.360364e+002, 4.162222e+003
1.365185e+002, 4.159853e+003
1.370006e+002, 4.155498e+003
1.374828e+002, 4.147778e+003
1.379649e+002, 4.135326e+003
1.384470e+002, 4.127468e+003
1.389291e+002, 4.128807e+003
1.394112e+002, 4.133399e+003
1.398933e+002, 4.134115e+003
1.403755e+002, 4.129028e+003
1.408576e+002, 4.121515e+003
1.413397e+002, 4.115156e+003
1.418218e+002, 4.109770e+003
1.423039e+002, 4.105978e+003
1.427860e+002, 4.105347e+003
1.432681e+002, 4.106827e+003
1.437503e+002, 4.106692e+003
1.442324e+002, 4.104167e+003
1.447145e+002, 4.099411e+003
1.451966e+002, 4.092356e+003
1.456787e+002, 4.083050e+003
1.461608e+002, 4.073600e+003
1.466430e+002, 4.065741e+003
1.471251e+002, 4.059559e+003
1.476072e+002, 4.053959e+003
1.480893e+002, 4.050844e+003
1.485714e+002, 4.046822e+003
1.490535e+002, 4.039085e+003
1.495357e+002, 4.027271e+003
1.500178e+002, 4.014299e+003
1.504999e+002, 4.004744e+003
1.509820e+002, 4.000175e+003
1.514641e+002, 3.995653e+003
1.519462e+002, 3.988173e+003
1.524284e+002, 3.981827e+003
1.529105e+002, 3.981507e+003
1.533926e+002, 3.988766e+003
1.538747e+002, 3.999126e+003
1.543568e+002, 4.001210e+003
1.548389e+002, 3.983165e+003
1.553211e+002, 3.970559e+003
1.558032e+002, 3.966475e+003
1.562853e+002, 3.967827e+003
1.567674e+002, 3.972130e+003
1.572495e+002, 3.978474e+003
1.577316e+002, 3.985292e+003
1.582138e+002, 3.985456e+003
1.586959e+002, 3.969759e+003
1.591780e+002, 3.958614e+003
1.596601e+002, 3.958278e+003
1.601422e+002, 3.966305e+003
1.606243e+002, 3.977587e+003
1.611065e+002, 3.990163e+003
1.615886e+002, 4.003135e+003
1.620707e+002, 4.012790e+003
1.625528e+002, 4.018401e+003
1.630349e+002, 4.021796e+003
1.635170e+002, 4.021816e+003
1.639991e+002, 4.019052e+003
1.644813e+002, 4.019544e+003
1.649634e+002, 4.028507e+003
1.654455e+002, 4.043316e+003
1.659276e+002, 4.057361e+003
1.664097e+002, 4.070000e+003
1.668918e+002, 4.081654e+003
1.673740e+002, 4.092458e+003
1.678561e+002, 4.102178e+003
1.683382e+002, 4.112063e+003
1.688203e+002, 4.121569e+003
1.693024e+002, 4.131870e+003
1.697845e+002, 4.145136e+003
1.702667e+002, 4.163695e+003
1.707488e+002, 4.184769e+003
1.712309e+002, 4.202087e+003
1.717130e+002, 4.215134e+003
1.721951e+002, 4.224856e+003
1.726772e+002, 4.230778e+003
1.731594e+002, 4.234540e+003
1.736415e+002, 4.238810e+003
1.741236e+002, 4.245940e+003
1.746057e+002, 4.254780e+003
1.750878e+002, 4.257948e+003
1.755699e+002, 4.250833e+003
1.760521e+002, 4.242665e+003
1.765342e+002, 4.235393e+003
1.770163e+002, 4.228925e+003
1.774984e+002, 4.222755e+003
1.779805e+002, 4.216392e+003
1.784626e+002, 4.209814e+003
1.789448e+002, 4.204622e+003
1.794269e+002, 4.199378e+003
1.799090e+002, 4.196856e+003
1.803911e+002, 4.198715e+003
1.808732e+002, 4.204204e+003
1.813553e+002, 4.211653e+003
1.818375e+002, 4.220012e+003
1.823196e+002, 4.229655e+003
1.828017e+002, 4.235806e+003
1.832838e+002, 4.235763e+003
1.837659e+002, 4.235403e+003
1.842480e+002, 4.236886e+003
1.847301e+002, 4.240563e+003
1.852123e+002, 4.246343e+003
1.856944e+002, 4.254230e+003
1.861765e+002, 4.264537e+003
1.866586e+002, 4.275876e+003
1.871407e+002, 4.289023e+003
1.876228e+002, 4.302507e+003
1.881050e+002, 4.315142e+003
1.885871e+002, 4.326774e+003
1.890692e+002, 4.338422e+003
1.895513e+002, 4.351717e+003
1.900334e+002, 4.366448e+003
1.905155e+002, 4.378413e+003
1.909977e+002, 4.384687e+003
1.914798e+002, 4.389069e+003
1.919619e+002, 4.395498e+003
1.924440e+002, 4.404409e+003
1.929261e+002, 4.415569e+003
1.934082e+002, 4.430168e+003
1.938904e+002, 4.447229e+003
1.943725e+002, 4.463929e+003
1.948546e+002, 4.479240e+003
1.953367e+002, 4.493699e+003
1.958188e+002, 4.508382e+003
1.963009e+002, 4.523385e+003
1.967831e+002, 4.538597e+003
1.972652e+002, 4.553663e+003
1.977473e+002, 4.568862e+003
1.982294e+002, 4.584718e+003
1.987115e+002, 4.601495e+003
1.991936e+002, 4.619232e+003
1.996758e+002, 4.638009e+003
2.001579e+002, 4.658559e+003
2.006400e+002, 4.679271e+003
2.011221e+002, 4.698812e+003
2.016042e+002, 4.717665e+003
2.020863e+002, 4.736815e+003
2.025685e+002, 4.756851e+003
2.030506e+002, 4.777784e+003
2.035327e+002, 4.799376e+003
2.040148e+002, 4.821607e+003
2.044969e+002, 4.844518e+003
2.049790e+002, 4.868606e+003
2.054612e+002, 4.893295e+003
2.059433e+002, 4.917361e+003
2.064254e+002, 4.938951e+003
2.069075e+002, 4.957720e+003
2.073896e+002, 4.980616e+003
2.078717e+002, 5.013330e+003
2.083539e+002, 5.045216e+003
2.088360e+002, 5.071431e+003
2.093181e+002, 5.093535e+003
2.098002e+002, 5.116540e+003
2.102823e+002, 5.145488e+003
2.107644e+002, 5.181362e+003
2.112466e+002, 5.212934e+003
2.117287e+002, 5.237052e+003
2.122108e+002, 5.260243e+003
2.126929e+002, 5.284329e+003
2.131750e+002, 5.309703e+003
2.136571e+002, 5.336632e+003
2.141393e+002, 5.365401e+003
2.146214e+002, 5.396266e+003
2.151035e+002, 5.427783e+003
2.155856e+002, 5.464123e+003
2.160677e+002, 5.497510e+003
2.165498e+002, 5.522650e+003
2.170320e+002, 5.540519e+003
2.175141e+002, 5.557056e+003
2.179962e+002, 5.577528e+003
2.184783e+002, 5.602536e+003
2.189604e+002, 5.626535e+003
2.194425e+002, 5.650075e+003
2.199247e+002, 5.672403e+003
2.204068e+002, 5.691505e+003
2.208889e+002, 5.708018e+003
2.213710e+002, 5.726359e+003
2.218531e+002, 5.750825e+003
2.223352e+002, 5.781942e+003
2.228174e+002, 5.811252e+003
2.232995e+002, 5.834618e+003
2.237816e+002, 5.859194e+003
2.242637e+002, 5.892372e+003
2.247458e+002, 5.934063e+003
2.252279e+002, 5.974473e+003
2.257100e+002, 6.003859e+003
2.261922e+002, 6.023917e+003
2.266743e+002, 6.050265e+003
2.271564e+002, 6.083434e+003
2.276385e+002, 6.123497e+003
2.281206e+002, 6.173161e+003
2.286027e+002, 6.232775e+003
2.290849e+002, 6.291847e+003
2.295670e+002, 6.341115e+003
2.300491e+002, 6.383576e+003
2.305312e+002, 6.427971e+003
2.310133e+002, 6.475001e+003
2.314954e+002, 6.524817e+003
2.319776e+002, 6.577575e+003
2.324597e+002, 6.633281e+003
2.329418e+002, 6.691883e+003
2.334239e+002, 6.758366e+003
2.339060e+002, 6.827099e+003
2.343881e+002, 6.888645e+003
2.348703e+002, 6.936188e+003
2.353524e+002, 6.979265e+003
2.358345e+002, 7.034319e+003
2.363166e+002, 7.106356e+003
2.367987e+002, 7.170650e+003
2.372808e+002, 7.207535e+003
2.377630e+002, 7.231867e+003
2.382451e+002, 7.259858e+003
2.387272e+002, 7.298495e+003
2.392093e+002, 7.339965e+003
2.396914e+002, 7.369601e+003
2.401735e+002, 7.382619e+003
2.406557e+002, 7.399663e+003
2.411378e+002, 7.433088e+003
2.416199e+002, 7.472456e+003
2.421020e+002, 7.507655e+003
2.425841e+002, 7.534388e+003
2.430662e+002, 7.558062e+003
2.435484e+002, 7.587366e+003
2.440305e+002, 7.622386e+003
2.445126e+002, 7.663198e+003
2.449947e+002, 7.712131e+003
2.454768e+002, 7.764983e+003
2.459589e+002, 7.819517e+003
2.464410e+002, 7.875304e+003
2.469232e+002, 7.929716e+003
2.474053e+002, 7.977189e+003
2.478874e+002, 8.011020e+003
2.483695e+002, 8.054191e+003
2.488516e+002, 8.115340e+003
2.493337e+002, 8.183109e+003
2.498159e+002, 8.249357e+003
2.502980e+002, 8.311656e+003
2.507801e+002, 8.371983e+003
2.512622e+002, 8.434165e+003
2.517443e+002, 8.498180e+003
2.522264e+002, 8.563521e+003
2.527086e+002, 8.628227e+003
2.531907e+002, 8.695112e+003
2.536728e+002, 8.767557e+003
2.541549e+002, 8.845870e+003
2.546370e+002, 8.926865e+003
2.551191e+002, 9.005877e+003
2.556013e+002, 9.079985e+003
2.560834e+002, 9.158215e+003
2.565655e+002, 9.241873e+003
2.570476e+002, 9.327938e+003
2.575297e+002, 9.417335e+003
2.580118e+002, 9.508811e+003
2.584940e+002, 9.597663e+003
2.589761e+002, 9.676414e+003
2.594582e+002, 9.738084e+003
2.599403e+002, 9.807503e+003
2.604224e+002, 9.886023e+003
2.609045e+002, 9.970030e+003
2.613867e+002, 1.006102e+004
2.618688e+002, 1.015724e+004
2.623509e+002, 1.025015e+004
2.628330e+002, 1.032939e+004
2.633151e+002, 1.038860e+004
2.637972e+002, 1.045746e+004
2.642794e+002, 1.054203e+004
2.647615e+002, 1.062889e+004
2.652436e+002, 1.070906e+004
2.657257e+002, 1.078306e+004
2.662078e+002, 1.085883e+004
2.666899e+002, 1.094534e+004
2.671721e+002, 1.104575e+004
2.676542e+002, 1.113412e+004
2.681363e+002, 1.120640e+004
2.686184e+002, 1.127310e+004
2.691005e+002, 1.133576e+004
2.695826e+002, 1.139641e+004
2.700648e+002, 1.145977e+004
2.705469e+002, 1.153084e+004
2.710290e+002, 1.160974e+004
2.715111e+002, 1.167856e+004
2.719932e+002, 1.173075e+004
2.724753e+002, 1.178147e+004
2.729575e+002, 1.184036e+004
2.734396e+002, 1.190352e+004
2.739217e+002, 1.195765e+004
2.744038e+002, 1.199154e+004
2.748859e+002, 1.200816e+004
2.753680e+002, 1.204383e+004
2.758501e+002, 1.211644e+004
2.763322e+002, 1.218412e+004
2.768144e+002, 1.223217e+004
2.772965e+002, 1.226488e+004
2.777786e+002, 1.229212e+004
2.782607e+002, 1.231886e+004
2.787428e+002, 1.234475e+004
2.792249e+002, 1.236823e+004
2.797071e+002, 1.238517e+004
2.801892e+002, 1.240509e+004
2.806713e+002, 1.243732e+004
2.811534e+002, 1.247337e+004
2.816355e+002, 1.249773e+004
2.821176e+002, 1.250323e+004
2.825998e+002, 1.249490e+004
2.830819e+002, 1.248358e+004
2.835640e+002, 1.246246e+004
2.840461e+002, 1.245106e+004
2.845282e+002, 1.246388e+004
2.850103e+002, 1.248615e+004
2.854925e+002, 1.249534e+004
2.859746e+002, 1.248351e+004
2.864567e+002, 1.246030e+004
2.869388e+002, 1.244052e+004
2.874209e+002, 1.242376e+004
2.879030e+002, 1.241138e+004
2.883852e+002, 1.240791e+004
2.888673e+002, 1.240730e+004
2.893494e+002, 1.240186e+004
2.898315e+002, 1.238973e+004
2.903136e+002, 1.237504e+004
2.907957e+002, 1.236266e+004
2.912779e+002, 1.235302e+004
2.917600e+002, 1.234210e+004
2.922421e+002, 1.232608e+004
2.927242e+002, 1.231047e+004
2.932063e+002, 1.230207e+004
2.936884e+002, 1.230155e+004
2.941706e+002, 1.230182e+004
2.946527e+002, 1.229627e+004
2.951348e+002, 1.228465e+004
2.956169e+002, 1.227357e+004
2.960990e+002, 1.225995e+004
2.965811e+002, 1.224935e+004
2.970633e+002, 1.224720e+004
2.975454e+002, 1.225321e+004
2.980275e+002, 1.226216e+004
2.985096e+002, 1.227169e+004
2.989917e+002, 1.228109e+004
2.994738e+002, 1.228717e+004
2.999560e+002, 1.228248e+004
3.004381e+002, 1.228121e+004
3.009202e+002, 1.229315e+004
3.014023e+002, 1.231635e+004
3.018844e+002, 1.234170e+004
3.023665e+002, 1.236467e+004
3.028487e+002, 1.238662e+004
3.033308e+002, 1.241223e+004
3.038129e+002, 1.244610e+004
3.042950e+002, 1.247612e+004
3.047771e+002, 1.249248e+004
3.052592e+002, 1.250055e+004
3.057414e+002, 1.251451e+004
3.062235e+002, 1.254028e+004
3.067056e+002, 1.257332e+004
3.071877e+002, 1.260458e+004
3.076698e+002, 1.263271e+004
3.081519e+002, 1.266407e+004
3.086341e+002, 1.270445e+004
3.091162e+002, 1.274864e+004
3.095983e+002, 1.278711e+004
3.100804e+002, 1.281703e+004
3.105625e+002, 1.284213e+004
3.110446e+002, 1.286482e+004
3.115268e+002, 1.288468e+004
3.120089e+002, 1.290980e+004
3.124910e+002, 1.294519e+004
3.129731e+002, 1.298504e+004
3.134552e+002, 1.302392e+004
3.139373e+002, 1.306105e+004
3.144195e+002, 1.309499e+004
3.149016e+002, 1.312510e+004
3.153837e+002, 1.315093e+004
3.158658e+002, 1.317012e+004
3.163479e+002, 1.317628e+004
3.168300e+002, 1.318005e+004
3.173121e+002, 1.318996e+004
3.177943e+002, 1.320617e+004
3.182764e+002, 1.322506e+004
3.187585e+002, 1.324550e+004
3.192406e+002, 1.326657e+004
3.197227e+002, 1.328491e+004
3.202048e+002, 1.329968e+004
3.206870e+002, 1.331284e+004
3.211691e+002, 1.332631e+004
3.216512e+002, 1.333930e+004
3.221333e+002, 1.334884e+004
3.226154e+002, 1.335272e+004
3.230975e+002, 1.335320e+004
3.235797e+002, 1.335557e+004
3.240618e+002, 1.335898e+004
3.245439e+002, 1.336552e+004
3.250260e+002, 1.337614e+004
3.255081e+002, 1.339037e+004
3.259902e+002, 1.340904e+004
3.264724e+002, 1.343370e+004
3.269545e+002, 1.345814e+004
3.274366e+002, 1.346981e+004
3.279187e+002, 1.346523e+004
3.284008e+002, 1.346970e+004
3.288829e+002, 1.349587e+004
3.293651e+002, 1.352974e+004
3.298472e+002, 1.355439e+004
3.303293e+002, 1.356686e+004
3.308114e+002, 1.357579e+004
3.312935e+002, 1.358796e+004
3.317756e+002, 1.360371e+004
3.322578e+002, 1.362814e+004
3.327399e+002, 1.366648e+004
3.332220e+002, 1.370942e+004
3.337041e+002, 1.375144e+004
3.341862e+002, 1.379188e+004
3.346683e+002, 1.383133e+004
3.351505e+002, 1.386906e+004
3.356326e+002, 1.390613e+004
3.361147e+002, 1.394820e+004
3.365968e+002, 1.400119e+004
3.370789e+002, 1.405289e+004
3.375610e+002, 1.409541e+004
3.380432e+002, 1.413283e+004
3.385253e+002, 1.417453e+004
3.390074e+002, 1.422508e+004
3.394895e+002, 1.428198e+004
3.399716e+002, 1.433839e+004
3.404537e+002, 1.439097e+004
3.409359e+002, 1.444887e+004
3.414180e+002, 1.451806e+004
3.419001e+002, 1.459213e+004
3.423822e+002, 1.466147e+004
3.428643e+002, 1.472307e+004
3.433464e+002, 1.478314e+004
3.438286e+002, 1.484990e+004
3.443107e+002, 1.492518e+004
3.447928e+002, 1.500362e+004
3.452749e+002, 1.508638e+004
3.457570e+002, 1.517082e+004
3.462391e+002, 1.525524e+004
3.467213e+002, 1.533889e+004
3.472034e+002, 1.542279e+004
3.476855e+002, 1.550670e+004
3.481676e+002, 1.559093e+004
3.486497e+002, 1.567637e+004
3.491318e+002, 1.576305e+004
3.496140e+002, 1.585073e+004
3.500961e+002, 1.593702e+004
3.505782e+002, 1.602353e+004
3.510603e+002, 1.611490e+004
3.515424e+002, 1.621376e+004
3.520245e+002, 1.631836e+004
3.525067e+002, 1.642239e+004
3.529888e+002, 1.652687e+004
3.534709e+002, 1.662922e+004
3.539530e+002, 1.672334e+004
3.544351e+002, 1.681718e+004
3.549172e+002, 1.692481e+004
3.553994e+002, 1.705029e+004
3.558815e+002, 1.717831e+004
3.563636e+002, 1.728293e+004
3.568457e+002, 1.734695e+004
3.573278e+002, 1.742131e+004
3.578099e+002, 1.751461e+004
3.582920e+002, 1.761078e+004
3.587741e+002, 1.769834e+004
3.592563e+002, 1.777691e+004
3.597384e+002, 1.785234e+004
3.602205e+002, 1.793117e+004
3.607026e+002, 1.801425e+004
3.611847e+002, 1.809205e+004
3.616668e+002, 1.816165e+004
3.621490e+002, 1.822927e+004
3.626311e+002, 1.830020e+004
3.631132e+002, 1.837067e+004
3.635953e+002, 1.843164e+004
3.640774e+002, 1.847735e+004
3.645595e+002, 1.851093e+004
3.650417e+002, 1.854554e+004
3.655238e+002, 1.858009e+004
3.660059e+002, 1.861743e+004
3.664880e+002, 1.866183e+004
3.669701e+002, 1.870687e+004
3.674522e+002, 1.874726e+004
3.679344e+002, 1.878091e+004
3.684165e+002, 1.880810e+004
3.688986e+002, 1.882995e+004
3.693807e+002, 1.884852e+004
3.698628e+002, 1.885530e+004
3.703449e+002, 1.883823e+004
3.708271e+002, 1.882012e+004
3.713092e+002, 1.881455e+004
3.717913e+002, 1.882036e+004
3.722734e+002, 1.882668e+004
3.727555e+002, 1.882485e+004
3.732376e+002, 1.881504e+004
3.737198e+002, 1.879957e+004
3.742019e+002, 1.877218e+004
3.746840e+002, 1.874689e+004
3.751661e+002, 1.873248e+004
3.756482e+002, 1.872220e+004
3.761303e+002, 1.870480e+004
3.766125e+002, 1.867325e+004
3.770946e+002, 1.863484e+004
3.775767e+002, 1.860627e+004
3.780588e+002, 1.859092e+004
3.785409e+002, 1.857572e+004
3.790230e+002, 1.855254e+004
3.795052e+002, 1.853064e+004
3.799873e+002, 1.852110e+004
3.804694e+002, 1.852576e+004
3.809515e+002, 1.852808e+004
3.814336e+002, 1.850726e+004
3.819157e+002, 1.846382e+004
3.823979e+002, 1.842825e+004
3.828800e+002, 1.840425e+004
3.833621e+002, 1.839002e+004
3.838442e+002, 1.838853e+004
3.843263e+002, 1.839570e+004
3.848084e+002, 1.839711e+004
3.852906e+002, 1.838069e+004
3.857727e+002, 1.835389e+004
3.862548e+002, 1.833312e+004
3.867369e+002, 1.831906e+004
3.872190e+002, 1.830893e+004
3.877011e+002, 1.830571e+004
3.881833e+002, 1.830424e+004
3.886654e+002, 1.829581e+004
3.891475e+002, 1.827418e+004
3.896296e+002, 1.825380e+004
3.901117e+002, 1.824944e+004
3.905938e+002, 1.825926e+004
3.910760e+002, 1.826867e+004
3.915581e+002, 1.827307e+004
3.920402e+002, 1.827508e+004
3.925223e+002, 1.827663e+004
3.930044e+002, 1.827707e+004
3.934865e+002, 1.828388e+004
3.939687e+002, 1.830404e+004
3.944508e+002, 1.833116e+004
3.949329e+002, 1.835498e+004
3.954150e+002, 1.837409e+004
3.958971e+002, 1.839168e+004
3.963792e+002, 1.841014e+004
3.968614e+002, 1.842951e+004
3.973435e+002, 1.844996e+004
3.978256e+002, 1.846597e+004
3.983077e+002, 1.848791e+004
3.987898e+002, 1.852555e+004
3.992719e+002, 1.857559e+004
3.997540e+002, 1.862564e+004
4.002361e+002, 1.866884e+004
4.007183e+002, 1.870900e+004
4.012004e+002, 1.875772e+004
4.016825e+002, 1.882353e+004
4.021646e+002, 1.888165e+004
4.026467e+002, 1.892138e+004
4.031288e+002, 1.895422e+004
4.036110e+002, 1.899210e+004
4.040931e+002, 1.903786e+004
4.045752e+002, 1.908971e+004
4.050573e+002, 1.914627e+004
4.055394e+002, 1.920861e+004
4.060215e+002, 1.926911e+004
4.065037e+002, 1.932612e+004
4.069858e+002, 1.938299e+004
4.074679e+002, 1.944073e+004
4.079500e+002, 1.949990e+004
4.084321e+002, 1.956145e+004
4.089142e+002, 1.962670e+004
4.093964e+002, 1.969482e+004
4.098785e+002, 1.976341e+004
4.103606e+002, 1.983778e+004
4.108427e+002, 1.990481e+004
4.113248e+002, 1.995672e+004
4.118069e+002, 2.000452e+004
4.122891e+002, 2.005916e+004
4.127712e+002, 2.012324e+004
4.132533e+002, 2.019113e+004
4.137354e+002, 2.025760e+004
4.142175e+002, 2.032634e+004
4.146996e+002, 2.037954e+004
4.151818e+002, 2.039939e+004
4.156639e+002, 2.041973e+004
4.161460e+002, 2.045459e+004
4.166281e+002, 2.050084e+004
4.171102e+002, 2.054791e+004
4.175923e+002, 2.058958e+004
4.180745e+002, 2.062714e+004
4.185566e+002, 2.066696e+004
4.190387e+002, 2.071395e+004
4.195208e+002, 2.075165e+004
4.200029e+002, 2.077107e+004
4.204850e+002, 2.078158e+004
4.209672e+002, 2.079272e+004
4.214493e+002, 2.080703e+004
4.219314e+002, 2.081502e+004
4.224135e+002, 2.080415e+004
4.228956e+002, 2.077534e+004
4.233777e+002, 2.074757e+004
4.238599e+002, 2.072478e+004
4.243420e+002, 2.070212e+004
4.248241e+002, 2.067937e+004
4.253062e+002, 2.065467e+004
4.257883e+002, 2.062033e+004
4.262704e+002, 2.056816e+004
4.267526e+002, 2.050674e+004
4.272347e+002, 2.045014e+004
4.277168e+002, 2.039864e+004
4.281989e+002, 2.034273e+004
4.286810e+002, 2.027517e+004
4.291631e+002, 2.020111e+004
4.296453e+002, 2.013419e+004
4.301274e+002, 2.008079e+004
4.306095e+002, 2.001992e+004
4.310916e+002, 1.994053e+004
4.315737e+002, 1.984670e+004
4.320558e+002, 1.974162e+004
4.325380e+002, 1.962458e+004
4.330201e+002, 1.951041e+004
4.335022e+002, 1.942001e+004
4.339843e+002, 1.935804e+004
4.344664e+002, 1.928058e+004
4.349485e+002, 1.917605e+004
4.354307e+002, 1.906400e+004
4.359128e+002, 1.895628e+004
4.363949e+002, 1.885256e+004
4.368770e+002, 1.874847e+004
4.373591e+002, 1.864163e+004
4.378412e+002, 1.853246e+004
4.383234e+002, 1.842435e+004
4.388055e+002, 1.831406e+004
4.392876e+002, 1.820897e+004
4.397697e+002, 1.811280e+004
4.402518e+002, 1.802072e+004
4.407339e+002, 1.793057e+004
4.412160e+002, 1.784139e+004
4.416982e+002, 1.774992e+004
4.421803e+002, 1.765286e+004
4.426624e+002, 1.754929e+004
4.431445e+002, 1.744546e+004
4.436266e+002, 1.733403e+004
4.441087e+002, 1.723043e+004
4.445909e+002, 1.714272e+004
4.450730e+002, 1.706619e+004
4.455551e+002, 1.699229e+004
4.460372e+002, 1.691752e+004
4.465193e+002, 1.684223e+004
4.470014e+002, 1.676704e+004
4.474836e+002, 1.669169e+004
4.479657e+002, 1.661743e+004
4.484478e+002, 1.654042e+004
4.489299e+002, 1.646719e+004
4.494120e+002, 1.640217e+004
4.498941e+002, 1.634544e+004
4.503763e+002, 1.629387e+004
4.508584e+002, 1.624629e+004
4.513405e+002, 1.620207e+004
4.518226e+002, 1.615991e+004
4.523047e+002, 1.612010e+004
4.527868e+002, 1.608190e+004
4.532690e+002, 1.604456e+004
4.537511e+002, 1.600857e+004
4.542332e+002, 1.597487e+004
4.547153e+002, 1.594353e+004
4.551974e+002, 1.591489e+004
4.556795e+002, 1.588835e+004
4.561617e+002, 1.586447e+004
4.566438e+002, 1.584540e+004
4.571259e+002, 1.583194e+004
4.576080e+002, 1.582308e+004
4.580901e+002, 1.581867e+004
4.585722e+002, 1.581859e+004
4.590544e+002, 1.581926e+004
4.595365e+002, 1.581940e+004
4.600186e+002, 1.582067e+004
4.605007e+002, 1.582525e+004
4.609828e+002, 1.583272e+004
4.614649e+002, 1.584004e+004
4.619471e+002, 1.584510e+004
4.624292e+002, 1.584891e+004
4.629113e+002, 1.585571e+004
4.633934e+002, 1.586790e+004
4.638755e+002, 1.587972e+004
4.643576e+002, 1.588626e+004
4.648398e+002, 1.589445e+004
4.653219e+002, 1.591263e+004
4.658040e+002, 1.594172e+004
4.662861e+002, 1.597468e+004
4.667682e+002, 1.600384e+004
4.672503e+002, 1.602886e+004
4.677325e+002, 1.605468e+004
4.682146e+002, 1.608178e+004
4.686967e+002, 1.610905e+004
4.691788e+002, 1.613668e+004
4.696609e+002, 1.616406e+004
4.701430e+002, 1.619041e+004
4.706252e+002, 1.621545e+004
4.711073e+002, 1.623881e+004
4.715894e+002, 1.625918e+004
4.720715e+002, 1.627554e+004
4.725536e+002, 1.629360e+004
4.730357e+002, 1.631678e+004
4.735179e+002, 1.633972e+004
4.740000e+002, 1.635919e+004
4.744821e+002, 1.637556e+004
4.749642e+002, 1.639143e+004
4.754463e+002, 1.640969e+004
4.759284e+002, 1.642792e+004
4.764106e+002, 1.644018e+004
4.768927e+002, 1.644560e+004
4.773748e+002, 1.644971e+004
4.778569e+002, 1.644985e+004
4.783390e+002, 1.645344e+004
4.788211e+002, 1.647480e+004
4.793033e+002, 1.652156e+004
4.797854e+002, 1.655973e+004
4.802675e+002, 1.656432e+004
4.807496e+002, 1.655075e+004
4.812317e+002, 1.654811e+004
4.817138e+002, 1.656183e+004
4.821959e+002, 1.657748e+004
4.826780e+002, 1.658111e+004
4.831602e+002, 1.657304e+004
4.836423e+002, 1.657369e+004
4.841244e+002, 1.659605e+004
4.846065e+002, 1.661250e+004
4.850886e+002, 1.660619e+004
4.855707e+002, 1.658753e+004
4.860529e+002, 1.657508e+004
4.865350e+002, 1.657574e+004
4.870171e+002, 1.658330e+004
4.874992e+002, 1.658813e+004
4.879813e+002, 1.659133e+004
4.884634e+002, 1.658853e+004
4.889456e+002, 1.657000e+004
4.894277e+002, 1.655581e+004
4.899098e+002, 1.656031e+004
4.903919e+002, 1.657698e+004
4.908740e+002, 1.659037e+004
4.913561e+002, 1.659132e+004
4.918383e+002, 1.658253e+004
4.923204e+002, 1.656875e+004
4.928025e+002, 1.654397e+004
4.932846e+002, 1.653111e+004
4.937667e+002, 1.654995e+004
4.942488e+002, 1.657165e+004
4.947310e+002, 1.657337e+004
4.952131e+002, 1.655592e+004
4.956952e+002, 1.654205e+004
4.961773e+002, 1.655293e+004
4.966594e+002, 1.657888e+004
4.971415e+002, 1.659432e+004
4.976237e+002, 1.659844e+004
4.981058e+002, 1.659263e+004
4.985879e+002, 1.656921e+004
4.990700e+002, 1.653928e+004
4.995521e+002, 1.652466e+004
5.000342e+002, 1.653154e+004
5.005164e+002, 1.654112e+004
5.009985e+002, 1.654502e+004
5.014806e+002, 1.654511e+004
5.019627e+002, 1.654413e+004
5.024448e+002, 1.654262e+004
5.029269e+002, 1.654218e+004
5.034091e+002, 1.654603e+004
5.038912e+002, 1.655443e+004
5.043733e+002, 1.655050e+004
5.048554e+002, 1.652553e+004
5.053375e+002, 1.649956e+004
5.058196e+002, 1.647789e+004
5.063018e+002, 1.646033e+004
5.067839e+002, 1.644804e+004
5.072660e+002, 1.644104e+004
5.077481e+002, 1.643388e+004
5.082302e+002, 1.641746e+004
5.087123e+002, 1.638815e+004
5.091945e+002, 1.636260e+004
5.096766e+002, 1.634490e+004
5.101587e+002, 1.632690e+004
5.106408e+002, 1.630833e+004
5.111229e+002, 1.628667e+004
5.116050e+002, 1.625628e+004
5.120872e+002, 1.621241e+004
5.125693e+002, 1.616465e+004
5.130514e+002, 1.613440e+004
5.135335e+002, 1.612556e+004
5.140156e+002, 1.610266e+004
5.144977e+002, 1.605063e+004
5.149799e+002, 1.598867e+004
5.154620e+002, 1.593330e+004
5.159441e+002, 1.588349e+004
5.164262e+002, 1.583140e+004
5.169083e+002, 1.577053e+004
5.173904e+002, 1.570710e+004
5.178726e+002, 1.564981e+004
5.183547e+002, 1.559826e+004
5.188368e+002, 1.554495e+004
5.193189e+002, 1.548498e+004
5.198010e+002, 1.542263e+004
5.202831e+002, 1.537020e+004
5.207653e+002, 1.533206e+004
5.212474e+002, 1.528828e+004
5.217295e+002, 1.523445e+004
5.222116e+002, 1.517458e+004
5.226937e+002, 1.511202e+004
5.231758e+002, 1.504733e+004
5.236580e+002, 1.497771e+004
5.241401e+002, 1.489991e+004
5.246222e+002, 1.481814e+004
5.251043e+002, 1.475316e+004
5.255864e+002, 1.472567e+004
5.260685e+002, 1.468634e+004
5.265507e+002, 1.462741e+004
5.270328e+002, 1.455798e+004
5.275149e+002, 1.448050e+004
5.279970e+002, 1.439850e+004
5.284791e+002, 1.432213e+004
5.289612e+002, 1.426103e+004
5.294434e+002, 1.421355e+004
5.299255e+002, 1.417030e+004
5.304076e+002, 1.413519e+004
5.308897e+002, 1.409560e+004
5.313718e+002, 1.404231e+004
5.318539e+002, 1.398371e+004
5.323361e+002, 1.392691e+004
5.328182e+002, 1.387292e+004
5.333003e+002, 1.382163e+004
5.337824e+002, 1.377350e+004
5.342645e+002, 1.372777e+004
5.347466e+002, 1.368121e+004
5.352288e+002, 1.363306e+004
5.357109e+002, 1.358920e+004
5.361930e+002, 1.355485e+004
5.366751e+002, 1.352894e+004
5.371572e+002, 1.350407e+004
5.376393e+002, 1.348170e+004
5.381215e+002, 1.345834e+004
5.386036e+002, 1.342977e+004
5.390857e+002, 1.340101e+004
5.395678e+002, 1.337992e+004
5.400499e+002, 1.336731e+004
5.405320e+002, 1.335501e+004
5.410142e+002, 1.333375e+004
5.414963e+002, 1.330305e+004
5.419784e+002, 1.327902e+004
5.424604e+002, 1.326178e+004
5.429426e+002, 1.325189e+004
5.434247e+002, 1.325411e+004
5.439068e+002, 1.326145e+004
5.443889e+002, 1.326607e+004
5.448710e+002, 1.326591e+004
5.453531e+002, 1.326475e+004
5.458353e+002, 1.326577e+004
5.463174e+002, 1.326907e+004
5.467995e+002, 1.327666e+004
5.472816e+002, 1.329042e+004
5.477637e+002, 1.330464e+004
5.482458e+002, 1.331432e+004
5.487280e+002, 1.332240e+004
5.492101e+002, 1.333383e+004
5.496922e+002, 1.334957e+004
5.501743e+002, 1.336838e+004
5.506564e+002, 1.339216e+004
5.511385e+002, 1.341813e+004
5.516207e+002, 1.344010e+004
5.521028e+002, 1.345679e+004
5.525849e+002, 1.347172e+004
5.530670e+002, 1.348782e+004
5.535491e+002, 1.350518e+004
5.540313e+002, 1.352429e+004
5.545134e+002, 1.354828e+004
5.549955e+002, 1.357015e+004
5.554776e+002, 1.358576e+004
5.559597e+002, 1.359940e+004
5.564418e+002, 1.361545e+004
5.569240e+002, 1.363541e+004
5.574061e+002, 1.365918e+004
5.578882e+002, 1.368959e+004
5.583703e+002, 1.372723e+004
5.588524e+002, 1.374870e+004
5.593345e+002, 1.374179e+004
5.598167e+002, 1.373528e+004
5.602988e+002, 1.374173e+004
5.607809e+002, 1.375252e+004
5.612630e+002, 1.375624e+004
5.617451e+002, 1.374942e+004
5.622272e+002, 1.374150e+004
5.627094e+002, 1.374187e+004
5.631915e+002, 1.374779e+004
5.636736e+002, 1.375035e+004
5.641557e+002, 1.374853e+004
5.646378e+002, 1.374333e+004
5.651199e+002, 1.373526e+004
5.656021e+002, 1.372419e+004
5.660842e+002, 1.371071e+004
5.665663e+002, 1.369609e+004
5.670484e+002, 1.367751e+004
5.675305e+002, 1.365441e+004
5.680126e+002, 1.362679e+004
5.684948e+002, 1.359375e+004
5.689769e+002, 1.355575e+004
5.694590e+002, 1.351465e+004
5.699411e+002, 1.347262e+004
5.704232e+002, 1.342948e+004
5.709053e+002, 1.338428e+004
5.713875e+002, 1.333500e+004
5.718696e+002, 1.328611e+004
5.723517e+002, 1.323799e+004
5.728338e+002, 1.319054e+004
5.733159e+002, 1.314330e+004
5.737980e+002, 1.309618e+004
5.742802e+002, 1.305046e+004
5.747623e+002, 1.300854e+004
5.752444e+002, 1.296905e+004
5.757265e+002, 1.292703e+004
5.762086e+002, 1.288321e+004
5.766907e+002, 1.283373e+004
5.771729e+002, 1.277408e+004
5.776550e+002, 1.270950e+004
5.781371e+002, 1.264814e+004
5.786192e+002, 1.258983e+004
5.791013e+002, 1.253614e+004
5.795834e+002, 1.249377e+004
5.800656e+002, 1.245273e+004
5.805477e+002, 1.239991e+004
5.810298e+002, 1.233579e+004
5.815119e+002, 1.226887e+004
5.819940e+002, 1.220366e+004
5.824761e+002, 1.214117e+004
5.829583e+002, 1.208473e+004
5.834404e+002, 1.203897e+004
5.839225e+002, 1.199202e+004
5.844046e+002, 1.194564e+004
5.848867e+002, 1.189610e+004
5.853688e+002, 1.183694e+004
5.858510e+002, 1.177188e+004
5.863331e+002, 1.171239e+004
5.868152e+002, 1.166682e+004
5.872973e+002, 1.162915e+004
5.877794e+002, 1.158754e+004
5.882615e+002, 1.154229e+004
5.887437e+002, 1.148977e+004
5.892258e+002, 1.142399e+004
5.897079e+002, 1.135581e+004
5.901900e+002, 1.129642e+004
5.906721e+002, 1.124454e+004
5.911542e+002, 1.119231e+004
5.916364e+002, 1.113772e+004
5.921185e+002, 1.108183e+004
5.926006e+002, 1.102330e+004
5.930827e+002, 1.096468e+004
5.935648e+002, 1.091467e+004
5.940469e+002, 1.087730e+004
5.945291e+002, 1.084300e+004
5.950112e+002, 1.079772e+004
5.954933e+002, 1.073804e+004
5.959754e+002, 1.068283e+004
5.964575e+002, 1.063610e+004
5.969396e+002, 1.058891e+004
5.974218e+002, 1.053660e+004
5.979039e+002, 1.048227e+004
5.983860e+002, 1.043007e+004
5.988681e+002, 1.038134e+004
5.993502e+002, 1.033534e+004
5.998323e+002, 1.029041e+004
6.003145e+002, 1.024646e+004
6.007966e+002, 1.020746e+004
6.012787e+002, 1.017618e+004
6.017608e+002, 1.014443e+004
6.022429e+002, 1.010721e+004
6.027250e+002, 1.006654e+004
6.032072e+002, 1.002597e+004
6.036893e+002, 9.985633e+003
6.041714e+002, 9.945412e+003
6.046535e+002, 9.905313e+003
6.051356e+002, 9.864939e+003
6.056177e+002, 9.823421e+003
6.060999e+002, 9.780939e+003
6.065820e+002, 9.739420e+003
6.070641e+002, 9.700782e+003
6.075462e+002, 9.664112e+003
6.080283e+002, 9.624626e+003
6.085104e+002, 9.576918e+003
6.089926e+002, 9.534571e+003
6.094747e+002, 9.502833e+003
6.099568e+002, 9.472694e+003
6.104389e+002, 9.437279e+003
6.109210e+002, 9.397459e+003
6.114031e+002, 9.358765e+003
6.118853e+002, 9.325310e+003
6.123674e+002, 9.294092e+003
6.128495e+002, 9.258019e+003
6.133316e+002, 9.216433e+003
6.138137e+002, 9.175083e+003
6.142958e+002, 9.133215e+003
6.147780e+002, 9.094669e+003
6.152601e+002, 9.065881e+003
6.157422e+002, 9.044801e+003
6.162243e+002, 9.019016e+003
6.167064e+002, 8.983503e+003
6.171885e+002, 8.945053e+003
6.176707e+002, 8.906367e+003
6.181528e+002, 8.868170e+003
6.186349e+002, 8.832260e+003
6.191170e+002, 8.799036e+003
6.195991e+002, 8.765407e+003
6.200812e+002, 8.726849e+003
6.205634e+002, 8.682326e+003
6.210455e+002, 8.646242e+003
6.215276e+002, 8.623275e+003
6.220097e+002, 8.603498e+003
6.224918e+002, 8.590918e+003
6.229739e+002, 8.577178e+003
6.234561e+002, 8.551927e+003
6.239382e+002, 8.514100e+003
6.244203e+002, 8.474905e+003
6.249023e+002, 8.443326e+003
6.253845e+002, 8.417487e+003
6.258666e+002, 8.393861e+003
6.263487e+002, 8.372758e+003
6.268308e+002, 8.348230e+003
6.273129e+002, 8.315236e+003
6.277950e+002, 8.279342e+003
6.282772e+002, 8.252213e+003
6.287593e+002, 8.236439e+003
6.292414e+002, 8.215775e+003
6.297235e+002, 8.184333e+003
6.302056e+002, 8.150300e+003
6.306877e+002, 8.117004e+003
6.311699e+002, 8.085825e+003
6.316520e+002, 8.059013e+003
6.321341e+002, 8.037731e+003
6.326162e+002, 8.019125e+003
6.330983e+002, 7.998712e+003
6.335804e+002, 7.976291e+003
6.340626e+002, 7.952694e+003
6.345447e+002, 7.927438e+003
6.350268e+002, 7.901831e+003
6.355089e+002, 7.874457e+003
6.359910e+002, 7.847828e+003
6.364731e+002, 7.826588e+003
6.369553e+002, 7.813083e+003
6.374374e+002, 7.799688e+003
6.379195e+002, 7.780954e+003
6.384016e+002, 7.758744e+003
6.388837e+002, 7.735201e+003
6.393658e+002, 7.710838e+003
6.398480e+002, 7.688888e+003
6.403301e+002, 7.672152e+003
6.408122e+002, 7.658556e+003
6.412943e+002, 7.640931e+003
6.417764e+002, 7.611002e+003
6.422585e+002, 7.589483e+003
6.427407e+002, 7.584880e+003
6.432228e+002, 7.581079e+003
6.437049e+002, 7.567104e+003
6.441870e+002, 7.545244e+003
6.446691e+002, 7.523455e+003
6.451512e+002, 7.505978e+003
6.456334e+002, 7.490687e+003
6.461155e+002, 7.474787e+003
6.465976e+002, 7.458297e+003
6.470797e+002, 7.439181e+003
6.475618e+002, 7.414617e+003
6.480439e+002, 7.393073e+003
6.485261e+002, 7.384446e+003
6.490082e+002, 7.384173e+003
6.494903e+002, 7.378039e+003
6.499724e+002, 7.361427e+003
6.504545e+002, 7.344381e+003
6.509366e+002, 7.333307e+003
6.514188e+002, 7.322583e+003
6.519009e+002, 7.303625e+003
6.523830e+002, 7.276916e+003
6.528651e+002, 7.251108e+003
6.533472e+002, 7.232466e+003
6.538293e+002, 7.219954e+003
6.543115e+002, 7.209880e+003
6.547936e+002, 7.202731e+003
6.552757e+002, 7.196808e+003
6.557578e+002, 7.195053e+003
6.562399e+002, 7.191630e+003
6.567220e+002, 7.181342e+003
6.572042e+002, 7.166477e+003
6.576863e+002, 7.154419e+003
6.581684e+002, 7.149008e+003
6.586505e+002, 7.145632e+003
6.591326e+002, 7.140767e+003
6.596147e+002, 7.134469e+003
6.600969e+002, 7.127046e+003
6.605790e+002, 7.118620e+003
6.610611e+002, 7.107738e+003
6.615432e+002, 7.091901e+003
6.620253e+002, 7.072142e+003
6.625074e+002, 7.059765e+003
6.629896e+002, 7.061823e+003
6.634717e+002, 7.062124e+003
6.639538e+002, 7.058055e+003
6.644359e+002, 7.052733e+003
6.649180e+002, 7.048059e+003
6.654001e+002, 7.044478e+003
6.658823e+002, 7.042281e+003
6.663644e+002, 7.042114e+003
6.668465e+002, 7.042641e+003
6.673286e+002, 7.041978e+003
6.678107e+002, 7.040084e+003
6.682928e+002, 7.034995e+003
6.687750e+002, 7.025216e+003
6.692571e+002, 7.014638e+003
6.697392e+002, 7.006443e+003
6.702213e+002, 7.000682e+003
6.707034e+002, 6.997073e+003
6.711855e+002, 6.997101e+003
6.716677e+002, 6.997349e+003
6.721498e+002, 6.997888e+003
6.726319e+002, 6.997372e+003
6.731140e+002, 6.992746e+003
6.735961e+002, 6.984866e+003
6.740782e+002, 6.979325e+003
6.745604e+002, 6.980913e+003
6.750425e+002, 6.987063e+003
6.755246e+002, 6.989124e+003
6.760067e+002, 6.986060e+003
6.764888e+002, 6.983680e+003
6.769709e+002, 6.984142e+003
6.774531e+002, 6.984481e+003
6.779352e+002, 6.981228e+003
6.784173e+002, 6.975784e+003
6.788994e+002, 6.973345e+003
6.793815e+002, 6.978872e+003
6.798636e+002, 6.982901e+003
6.803458e+002, 6.976330e+003
6.808279e+002, 6.966043e+003
6.813100e+002, 6.963703e+003
6.817921e+002, 6.970751e+003
6.822742e+002, 6.979993e+003
6.827563e+002, 6.985792e+003
6.832385e+002, 6.988592e+003
6.837206e+002, 6.990547e+003
6.842027e+002, 6.990981e+003
6.846848e+002, 6.991917e+003
6.851669e+002, 6.990191e+003
6.856490e+002, 6.992027e+003
6.861312e+002, 7.006364e+003
6.866133e+002, 7.027566e+003
6.870954e+002, 7.038557e+003
6.875775e+002, 7.028364e+003
6.880596e+002, 7.014052e+003
6.885417e+002, 7.009258e+003
6.890239e+002, 7.012156e+003
6.895060e+002, 7.020158e+003
6.899881e+002, 7.032651e+003
6.904702e+002, 7.044664e+003
6.909523e+002, 7.052380e+003
6.914344e+002, 7.056438e+003
6.919166e+002, 7.060044e+003
6.923987e+002, 7.062237e+003
6.928808e+002, 7.065589e+003
6.933629e+002, 7.070760e+003
6.938450e+002, 7.076526e+003
6.943271e+002, 7.083329e+003
6.948093e+002, 7.090048e+003
6.952914e+002, 7.093728e+003
6.957735e+002, 7.092076e+003
6.962556e+002, 7.089969e+003
6.967377e+002, 7.092822e+003
6.972198e+002, 7.099723e+003
6.977020e+002, 7.108207e+003
6.981841e+002, 7.118009e+003
6.986662e+002, 7.127065e+003
6.991483e+002, 7.133942e+003
6.996304e+002, 7.138956e+003
7.001125e+002, 7.143165e+003
7.005947e+002, 7.145465e+003
7.010768e+002, 7.148731e+003
7.015589e+002, 7.155628e+003
7.020410e+002, 7.161173e+003
7.025231e+002, 7.162030e+003
7.030052e+002, 7.159245e+003
7.034874e+002, 7.154115e+003
7.039695e+002, 7.146636e+003
7.044516e+002, 7.142597e+003
7.049337e+002, 7.153170e+003
7.054158e+002, 7.174386e+003
7.058979e+002, 7.185348e+003
7.063801e+002, 7.182665e+003
7.068622e+002, 7.179972e+003
7.073442e+002, 7.186301e+003
7.078264e+002, 7.197030e+003
7.083085e+002, 7.199719e+003
7.087906e+002, 7.189307e+003
7.092727e+002, 7.184025e+003
7.097548e+002, 7.190195e+003
7.102369e+002, 7.196682e+003
7.107191e+002, 7.195973e+003
7.112012e+002, 7.191066e+003
7.116833e+002, 7.188343e+003
7.121654e+002, 7.190058e+003
7.126475e+002, 7.192608e+003
7.131296e+002, 7.191369e+003
7.136118e+002, 7.187191e+003
7.140939e+002, 7.185934e+003
7.145760e+002, 7.188973e+003
7.150581e+002, 7.186664e+003
7.155402e+002, 7.170370e+003
7.160223e+002, 7.150814e+003
7.165045e+002, 7.148795e+003
7.169866e+002, 7.168496e+003
7.174687e+002, 7.178832e+003
7.179508e+002, 7.172187e+003
7.184329e+002, 7.160980e+003
7.189150e+002, 7.149124e+003
7.193972e+002, 7.137537e+003
7.198793e+002, 7.126219e+003
7.203614e+002, 7.115477e+003
7.208435e+002, 7.107011e+003
7.213256e+002, 7.102724e+003
7.218077e+002, 7.101965e+003
7.222899e+002, 7.104001e+003
7.227720e+002, 7.109908e+003
7.232541e+002, 7.108731e+003
7.237362e+002, 7.093694e+003
7.242183e+002, 7.075184e+003
7.247004e+002, 7.067237e+003
7.251826e+002, 7.069468e+003
7.256647e+002, 7.064048e+003
7.261468e+002, 7.041061e+003
7.266289e+002, 7.021080e+003
7.271110e+002, 7.013359e+003
7.275931e+002, 7.011479e+003
7.280753e+002, 7.008989e+003
7.285574e+002, 7.004647e+003
7.290395e+002, 7.000088e+003
7.295216e+002, 6.997050e+003
7.300037e+002, 6.993615e+003
7.304858e+002, 6.984163e+003
7.309680e+002, 6.968428e+003
7.314501e+002, 6.954799e+003
7.319322e+002, 6.945072e+003
7.324143e+002, 6.937438e+003
7.328964e+002, 6.932798e+003
7.333785e+002, 6.929228e+003
7.338607e+002, 6.917241e+003
7.343428e+002, 6.884491e+003
7.348249e+002, 6.862496e+003
7.353070e+002, 6.869047e+003
7.357891e+002, 6.879508e+003
7.362712e+002, 6.871381e+003
7.367534e+002, 6.848946e+003
7.372355e+002, 6.830835e+003
7.377176e+002, 6.826690e+003
7.381997e+002, 6.825211e+003
7.386818e+002, 6.803937e+003
7.391639e+002, 6.766589e+003
7.396461e+002, 6.753327e+003
7.401282e+002, 6.773419e+003
7.406103e+002, 6.790064e+003
7.410924e+002, 6.783634e+003
7.415745e+002, 6.760194e+003
7.420566e+002, 6.730031e+003
7.425388e+002, 6.687284e+003
7.430209e+002, 6.658192e+003
7.435030e+002, 6.657062e+003
7.439851e+002, 6.657432e+003
7.444672e+002, 6.645763e+003
7.449493e+002, 6.626233e+003
7.454315e+002, 6.604853e+003
7.459136e+002, 6.584061e+003
7.463957e+002, 6.566678e+003
7.468778e+002, 6.557280e+003
7.473599e+002, 6.553194e+003
7.478420e+002, 6.546468e+003
7.483242e+002, 6.537040e+003
7.488063e+002, 6.526266e+003
7.492884e+002, 6.514265e+003
7.497705e+002, 6.501838e+003
7.502526e+002, 6.489505e+003
7.507347e+002, 6.477243e+003
7.512169e+002, 6.466603e+003
7.516990e+002, 6.461453e+003
7.521811e+002, 6.452796e+003
7.526632e+002, 6.435547e+003
7.531453e+002, 6.416177e+003
7.536274e+002, 6.399320e+003
7.541096e+002, 6.386019e+003
7.545917e+002, 6.376936e+003
7.550738e+002, 6.374373e+003
7.555559e+002, 6.372035e+003
7.560380e+002, 6.358777e+003
7.565201e+002, 6.337607e+003
7.570023e+002, 6.322997e+003
7.574844e+002, 6.317674e+003
7.579665e+002, 6.312136e+003
7.584486e+002, 6.299286e+003
7.589307e+002, 6.281507e+003
7.594128e+002, 6.266732e+003
7.598950e+002, 6.255929e+003
7.603771e+002, 6.246362e+003
7.608592e+002, 6.239369e+003
7.613413e+002, 6.232104e+003
7.618234e+002, 6.223305e+003
7.623055e+002, 6.213306e+003
7.627877e+002, 6.202404e+003
7.632698e+002, 6.190651e+003
7.637519e+002, 6.179345e+003
7.642340e+002, 6.169905e+003
7.647161e+002, 6.161286e+003
7.651982e+002, 6.151594e+003
7.656804e+002, 6.141011e+003
7.661625e+002, 6.132069e+003
7.666446e+002, 6.125972e+003
7.671267e+002, 6.118177e+003
7.676088e+002, 6.101589e+003
7.680909e+002, 6.075402e+003
7.685731e+002, 6.058731e+003
7.690552e+002, 6.058681e+003
7.695373e+002, 6.056452e+003
7.700194e+002, 6.046861e+003
7.705015e+002, 6.034474e+003
7.709836e+002, 6.022070e+003
7.714658e+002, 6.009982e+003
7.719479e+002, 5.998547e+003
7.724300e+002, 5.988505e+003
7.729121e+002, 5.978320e+003
7.733942e+002, 5.965804e+003
7.738763e+002, 5.953037e+003
7.743585e+002, 5.944212e+003
7.748406e+002, 5.939132e+003
7.753227e+002, 5.933235e+003
7.758048e+002, 5.923418e+003
7.762869e+002, 5.911258e+003
7.767690e+002, 5.900224e+003
7.772512e+002, 5.890272e+003
7.777333e+002, 5.882126e+003
7.782154e+002, 5.877498e+003
7.786975e+002, 5.871616e+003
7.791796e+002, 5.860386e+003
7.796617e+002, 5.846934e+003
7.801439e+002, 5.837017e+003
7.806260e+002, 5.831700e+003
7.811081e+002, 5.824862e+003
7.815902e+002, 5.813782e+003
7.820723e+002, 5.801905e+003
7.825544e+002, 5.790201e+003
7.830366e+002, 5.779568e+003
7.835187e+002, 5.772166e+003
7.840008e+002, 5.768026e+003
7.844829e+002, 5.763335e+003
7.849650e+002, 5.754047e+003
7.854471e+002, 5.741843e+003
7.859293e+002, 5.731737e+003
7.864114e+002, 5.723776e+003
7.868935e+002, 5.717554e+003
7.873756e+002, 5.713967e+003
7.878577e+002, 5.708962e+003
7.883398e+002, 5.697636e+003
7.888220e+002, 5.681219e+003
7.893040e+002, 5.670458e+003
7.897861e+002, 5.675447e+003
7.902682e+002, 5.671324e+003
7.907504e+002, 5.646230e+003
7.912325e+002, 5.620823e+003
7.917146e+002, 5.608854e+003
7.921967e+002, 5.606976e+003
7.926788e+002, 5.606347e+003
7.931609e+002, 5.604065e+003
7.936431e+002, 5.600440e+003
7.941252e+002, 5.596295e+003
7.946073e+002, 5.590739e+003
7.950894e+002, 5.581352e+003
7.955715e+002, 5.568506e+003
7.960536e+002, 5.555813e+003
7.965358e+002, 5.544695e+003
7.970179e+002, 5.534373e+003
7.975000e+002, 5.523834e+003
7.979821e+002, 5.512989e+003
7.984642e+002, 5.502071e+003
7.989464e+002, 5.489528e+003
7.994285e+002, 5.479636e+003
7.999106e+002, 5.475529e+003
8.003927e+002, 5.472881e+003
8.008748e+002, 5.469884e+003
8.013569e+002, 5.465887e+003
8.018391e+002, 5.458426e+003
8.023212e+002, 5.444366e+003
8.028033e+002, 5.430467e+003
8.032854e+002, 5.418470e+003
8.037675e+002, 5.409835e+003
8.042496e+002, 5.409225e+003
8.047318e+002, 5.414060e+003
8.052139e+002, 5.414944e+003
8.056960e+002, 5.406697e+003
8.061781e+002, 5.393624e+003
8.066602e+002, 5.381366e+003
8.071423e+002, 5.370068e+003
8.076245e+002, 5.363079e+003
8.081066e+002, 5.361651e+003
8.085887e+002, 5.358452e+003
8.090708e+002, 5.349616e+003
8.095529e+002, 5.338226e+003
8.100350e+002, 5.328935e+003
8.105172e+002, 5.322222e+003
8.109993e+002, 5.314438e+003
8.114814e+002, 5.302313e+003
8.119635e+002, 5.293314e+003
8.124456e+002, 5.292597e+003
8.129277e+002, 5.293708e+003
8.134099e+002, 5.289130e+003
8.138920e+002, 5.280093e+003
8.143741e+002, 5.275136e+003
8.148562e+002, 5.280594e+003
8.153383e+002, 5.287312e+003
8.158204e+002, 5.284947e+003
8.163026e+002, 5.276822e+003
8.167847e+002, 5.270013e+003
8.172668e+002, 5.265328e+003
8.177489e+002, 5.260773e+003
8.182310e+002, 5.255098e+003
8.187131e+002, 5.249479e+003
8.191953e+002, 5.246741e+003
8.196774e+002, 5.247819e+003
8.201595e+002, 5.245178e+003
8.206416e+002, 5.235227e+003
8.211237e+002, 5.228260e+003
8.216058e+002, 5.230155e+003
8.220880e+002, 5.235524e+003
8.225701e+002, 5.239551e+003
8.230522e+002, 5.242071e+003
8.235343e+002, 5.241022e+003
8.240164e+002, 5.232818e+003
8.244985e+002, 5.224782e+003
8.249807e+002, 5.218771e+003
8.254628e+002, 5.215449e+003
8.259449e+002, 5.217163e+003
8.264270e+002, 5.222488e+003
8.269091e+002, 5.226153e+003
8.273912e+002, 5.224994e+003
8.278734e+002, 5.221995e+003
8.283555e+002, 5.221790e+003
8.288376e+002, 5.223447e+003
8.293197e+002, 5.222034e+003
8.298018e+002, 5.217103e+003
8.302839e+002, 5.215257e+003
8.307661e+002, 5.220599e+003
8.312482e+002, 5.228353e+003
8.317303e+002, 5.230695e+003
8.322124e+002, 5.227005e+003
8.326945e+002, 5.222190e+003
8.331766e+002, 5.212448e+003
8.336588e+002, 5.207215e+003
8.341409e+002, 5.210021e+003
8.346230e+002, 5.216691e+003
8.351051e+002, 5.224878e+003
8.355872e+002, 5.234018e+003
8.360693e+002, 5.243102e+003
8.365515e+002, 5.254861e+003
8.370336e+002, 5.261681e+003
8.375157e+002, 5.254107e+003
8.379978e+002, 5.242929e+003
8.384799e+002, 5.240747e+003
8.389620e+002, 5.247022e+003
8.394442e+002, 5.255742e+003
8.399263e+002, 5.264097e+003
8.404084e+002, 5.271313e+003
8.408905e+002, 5.275261e+003
8.413726e+002, 5.276823e+003
8.418547e+002, 5.281794e+003
8.423369e+002, 5.290563e+003
8.428190e+002, 5.296851e+003
8.433011e+002, 5.297176e+003
8.437832e+002, 5.297511e+003
8.442653e+002, 5.304755e+003
8.447474e+002, 5.318778e+003
8.452296e+002, 5.334193e+003
8.457117e+002, 5.355794e+003
8.461938e+002, 5.371446e+003
8.466759e+002, 5.377080e+003
8.471580e+002, 5.379507e+003
8.476401e+002, 5.380679e+003
8.481223e+002, 5.382382e+003
8.486044e+002, 5.388169e+003
8.490865e+002, 5.399708e+003
8.495686e+002, 5.411931e+003
8.500507e+002, 5.421762e+003
8.505328e+002, 5.431304e+003
8.510150e+002, 5.443664e+003
8.514971e+002, 5.457442e+003
8.519792e+002, 5.468747e+003
8.524613e+002, 5.476575e+003
8.529434e+002, 5.484152e+003
8.534255e+002, 5.494870e+003
8.539077e+002, 5.507405e+003
8.543898e+002, 5.516604e+003
8.548719e+002, 5.522483e+003
8.553540e+002, 5.531756e+003
8.558361e+002, 5.546509e+003
8.563182e+002, 5.561136e+003
8.568004e+002, 5.570917e+003
8.572825e+002, 5.577659e+003
8.577646e+002, 5.587670e+003
8.582467e+002, 5.605214e+003
8.587288e+002, 5.616548e+003
8.592109e+002, 5.613897e+003
8.596931e+002, 5.614257e+003
8.601752e+002, 5.625833e+003
8.606573e+002, 5.642442e+003
8.611394e+002, 5.657739e+003
8.616215e+002, 5.670742e+003
8.621036e+002, 5.680174e+003
8.625858e+002, 5.684025e+003
8.630679e+002, 5.685964e+003
8.635500e+002, 5.686482e+003
8.640321e+002, 5.687754e+003
8.645142e+002, 5.694761e+003
8.649963e+002, 5.706163e+003
8.654785e+002, 5.713847e+003
8.659606e+002, 5.712813e+003
8.664427e+002, 5.708126e+003
8.669248e+002, 5.707092e+003
8.674069e+002, 5.709215e+003
8.678890e+002, 5.712626e+003
8.683712e+002, 5.717280e+003
8.688533e+002, 5.719928e+003
8.693354e+002, 5.718945e+003
8.698175e+002, 5.716312e+003
8.702996e+002, 5.714719e+003
8.707817e+002, 5.714172e+003
8.712639e+002, 5.712450e+003
8.717459e+002, 5.709218e+003
8.722280e+002, 5.705388e+003
8.727101e+002, 5.699896e+003
8.731923e+002, 5.695029e+003
8.736744e+002, 5.694589e+003
8.741565e+002, 5.695558e+003
8.746386e+002, 5.689941e+003
8.751207e+002, 5.674235e+003
8.756028e+002, 5.658926e+003
8.760850e+002, 5.647554e+003
8.765671e+002, 5.638071e+003
8.770492e+002, 5.629826e+003
8.775313e+002, 5.622081e+003
8.780134e+002, 5.614294e+003
8.784955e+002, 5.606087e+003
8.789777e+002, 5.596087e+003
8.794598e+002, 5.582080e+003
8.799419e+002, 5.567015e+003
8.804240e+002, 5.555423e+003
8.809061e+002, 5.546910e+003
8.813882e+002, 5.541542e+003
8.818704e+002, 5.538936e+003
8.823525e+002, 5.533328e+003
8.828346e+002, 5.521026e+003
8.833167e+002, 5.503788e+003
8.837988e+002, 5.484931e+003
8.842809e+002, 5.464116e+003
8.847631e+002, 5.444016e+003
8.852452e+002, 5.425116e+003
8.857273e+002, 5.405667e+003
8.862094e+002, 5.385183e+003
8.866915e+002, 5.363636e+003
8.871736e+002, 5.338994e+003
8.876558e+002, 5.311866e+003
8.881379e+002, 5.290760e+003
8.886200e+002, 5.282139e+003
8.891021e+002, 5.270760e+003
8.895842e+002, 5.251557e+003
8.900663e+002, 5.231011e+003
8.905485e+002, 5.215291e+003
8.910306e+002, 5.201190e+003
8.915127e+002, 5.181509e+003
8.919948e+002, 5.153967e+003
8.924769e+002, 5.125409e+003
8.929590e+002, 5.100343e+003
8.934412e+002, 5.076267e+003
8.939233e+002, 5.050239e+003
8.944054e+002, 5.023294e+003
8.948875e+002, 4.998532e+003
8.953696e+002, 4.976302e+003
8.958517e+002, 4.953547e+003
8.963339e+002, 4.928097e+003
8.968160e+002, 4.900967e+003
8.972981e+002, 4.872282e+003
8.977802e+002, 4.842962e+003
8.982623e+002, 4.823920e+003
8.987444e+002, 4.817410e+003
8.992266e+002, 4.805041e+003
8.997087e+002, 4.776805e+003
9.001908e+002, 4.741573e+003
9.006729e+002, 4.711678e+003
9.011550e+002, 4.687103e+003
9.016371e+002, 4.668609e+003
9.021193e+002, 4.663213e+003
9.026014e+002, 4.650598e+003
9.030835e+002, 4.621298e+003
9.035656e+002, 4.589142e+003
9.040477e+002, 4.562962e+003
9.045298e+002, 4.541303e+003
9.050120e+002, 4.521270e+003
9.054941e+002, 4.504562e+003
9.059762e+002, 4.484022e+003
9.064583e+002, 4.453620e+003
9.069404e+002, 4.423623e+003
9.074225e+002, 4.401979e+003
9.079047e+002, 4.383951e+003
9.083868e+002, 4.360376e+003
9.088689e+002, 4.331578e+003
9.093510e+002, 4.309361e+003
9.098331e+002, 4.305321e+003
9.103152e+002, 4.303574e+003
9.107974e+002, 4.286865e+003
9.112795e+002, 4.261222e+003
9.117616e+002, 4.236555e+003
9.122437e+002, 4.214294e+003
9.127258e+002, 4.193703e+003
9.132079e+002, 4.174445e+003
9.136901e+002, 4.155558e+003
9.141722e+002, 4.135572e+003
9.146543e+002, 4.114750e+003
9.151364e+002, 4.093163e+003
9.156185e+002, 4.070595e+003
9.161006e+002, 4.052689e+003
9.165828e+002, 4.041260e+003
9.170649e+002, 4.032806e+003
9.175470e+002, 4.025958e+003
9.180291e+002, 4.018352e+003
9.185112e+002, 4.000240e+003
9.189933e+002, 3.963454e+003
9.194755e+002, 3.937103e+003
9.199576e+002, 3.929698e+003
9.204397e+002, 3.920666e+003
9.209218e+002, 3.900947e+003
9.214039e+002, 3.876226e+003
9.218860e+002, 3.850123e+003
9.223682e+002, 3.823210e+003
9.228503e+002, 3.804320e+003
9.233324e+002, 3.804125e+003
9.238145e+002, 3.799298e+003
9.242966e+002, 3.779964e+003
9.247787e+002, 3.756589e+003
9.252609e+002, 3.736046e+003
9.257430e+002, 3.718437e+003
9.262251e+002, 3.702458e+003
9.267072e+002, 3.687740e+003
9.271893e+002, 3.673760e+003
9.276714e+002, 3.661715e+003
9.281536e+002, 3.648969e+003
9.286357e+002, 3.632185e+003
9.291178e+002, 3.612757e+003
9.295999e+002, 3.592635e+003
9.300820e+002, 3.572590e+003
9.305641e+002, 3.554337e+003
9.310463e+002, 3.539221e+003
9.315284e+002, 3.524988e+003
9.320105e+002, 3.507100e+003
9.324926e+002, 3.487095e+003
9.329747e+002, 3.472248e+003
9.334568e+002, 3.462630e+003
9.339390e+002, 3.451988e+003
9.344211e+002, 3.438109e+003
9.349032e+002, 3.422384e+003
9.353853e+002, 3.405977e+003
9.358674e+002, 3.389303e+003
9.363495e+002, 3.375079e+003
9.368317e+002, 3.364073e+003
9.373138e+002, 3.351958e+003
9.377959e+002, 3.337521e+003
9.382780e+002, 3.323427e+003
9.387601e+002, 3.311003e+003
9.392422e+002, 3.299718e+003
9.397244e+002, 3.288582e+003
9.402065e+002, 3.277558e+003
9.406886e+002, 3.266844e+003
9.411707e+002, 3.256490e+003
9.416528e+002, 3.246255e+003
9.421349e+002, 3.235792e+003
9.426171e+002, 3.225665e+003
9.430992e+002, 3.217192e+003
9.435813e+002, 3.209262e+003
9.440634e+002, 3.198477e+003
9.445455e+002, 3.182530e+003
9.450276e+002, 3.170086e+003
9.455098e+002, 3.168045e+003
9.459919e+002, 3.166409e+003
9.464740e+002, 3.157942e+003
9.469561e+002, 3.146233e+003
9.474382e+002, 3.135972e+003
9.479203e+002, 3.128068e+003
9.484025e+002, 3.121588e+003
9.488846e+002, 3.116275e+003
9.493667e+002, 3.111611e+003
9.498488e+002, 3.107988e+003
9.503309e+002, 3.104132e+003
9.508130e+002, 3.097014e+003
9.512952e+002, 3.087764e+003
9.517773e+002, 3.080522e+003
9.522594e+002, 3.076619e+003
9.527415e+002, 3.074074e+003
9.532236e+002, 3.071281e+003
9.537057e+002, 3.068081e+003
9.541878e+002, 3.063679e+003
9.546699e+002, 3.058373e+003
9.551520e+002, 3.054710e+003
9.556342e+002, 3.053016e+003
9.561163e+002, 3.049307e+003
9.565984e+002, 3.040965e+003
9.570805e+002, 3.032104e+003
9.575626e+002, 3.029727e+003
9.580447e+002, 3.033695e+003
9.585269e+002, 3.036757e+003
9.590090e+002, 3.039825e+003
9.594911e+002, 3.037419e+003
9.599732e+002, 3.025771e+003
9.604553e+002, 3.014388e+003
9.609374e+002, 3.010708e+003
9.614196e+002, 3.012442e+003
9.619017e+002, 3.013367e+003
9.623838e+002, 3.013701e+003
9.628659e+002, 3.012384e+003
9.633480e+002, 3.005468e+003
9.638301e+002, 3.002233e+003
9.643123e+002, 3.009930e+003
9.647944e+002, 3.018262e+003
9.652765e+002, 3.017183e+003
9.657586e+002, 3.008635e+003
9.662407e+002, 3.002408e+003
9.667228e+002, 2.999830e+003
9.672050e+002, 2.999321e+003
9.676871e+002, 3.003257e+003
9.681692e+002, 3.006269e+003
9.686513e+002, 3.003847e+003
9.691334e+002, 2.999483e+003
9.696155e+002, 2.997516e+003
9.700977e+002, 2.998612e+003
9.705798e+002, 3.001884e+003
9.710619e+002, 3.009012e+003
9.715440e+002, 3.014911e+003
9.720261e+002, 3.015545e+003
9.725082e+002, 3.014010e+003
9.729904e+002, 3.012701e+003
9.734725e+002, 3.012219e+003
9.739546e+002, 3.013320e+003
9.744367e+002, 3.016076e+003
9.749188e+002, 3.018998e+003
9.754009e+002, 3.020755e+003
9.758831e+002, 3.022148e+003
9.763652e+002, 3.024101e+003
9.768473e+002, 3.026531e+003
9.773294e+002, 3.030222e+003
9.778115e+002, 3.034499e+003
9.782936e+002, 3.035121e+003
9.787758e+002, 3.030108e+003
9.792579e+002, 3.025578e+003
9.797400e+002, 3.030009e+003
9.802221e+002, 3.040750e+003
9.807042e+002, 3.048831e+003
9.811863e+002, 3.054640e+003
9.816685e+002, 3.062244e+003
9.821506e+002, 3.072413e+003
9.826327e+002, 3.079388e+003
9.831148e+002, 3.078935e+003
9.835969e+002, 3.075284e+003
9.840790e+002, 3.076569e+003
9.845612e+002, 3.082829e+003
9.850433e+002, 3.089033e+003
9.855254e+002, 3.095409e+003
9.860075e+002, 3.100167e+003
9.864896e+002, 3.102521e+003
9.869717e+002, 3.103968e+003
9.874539e+002, 3.105088e+003
9.879360e+002, 3.106796e+003
9.884181e+002, 3.112550e+003
9.889002e+002, 3.124645e+003
9.893823e+002, 3.131979e+003
9.898644e+002, 3.130001e+003
9.903466e+002, 3.132298e+003
9.908287e+002, 3.147038e+003
9.913108e+002, 3.163416e+003
9.917929e+002, 3.170376e+003
9.922750e+002, 3.169649e+003
9.927571e+002, 3.171445e+003
9.932393e+002, 3.178647e+003
9.937214e+002, 3.183226e+003
9.942035e+002, 3.179908e+003
9.946856e+002, 3.180209e+003
9.951677e+002, 3.193283e+003
9.956498e+002, 3.208910e+003
9.961320e+002, 3.214923e+003
9.966141e+002, 3.212260e+003
9.970962e+002, 3.212149e+003
9.975783e+002, 3.219348e+003
9.980604e+002, 3.224735e+003
9.985425e+002, 3.223811e+003
9.990247e+002, 3.222640e+003
9.995068e+002, 3.225375e+003
9.999889e+002, 3.230042e+003
1.000471e+003, 3.233886e+003
1.000953e+003, 3.236402e+003
1.001435e+003, 3.237815e+003
1.001917e+003, 3.238037e+003
1.002399e+003, 3.237413e+003
1.002882e+003, 3.234423e+003
1.003364e+003, 3.232153e+003
1.003846e+003, 3.235110e+003
1.004328e+003, 3.240518e+003
1.004810e+003, 3.242557e+003
1.005292e+003, 3.239994e+003
1.005774e+003, 3.236467e+003
1.006256e+003, 3.234194e+003
1.006739e+003, 3.232026e+003
1.007221e+003, 3.228146e+003
1.007703e+003, 3.224195e+003
1.008185e+003, 3.223836e+003
1.008667e+003, 3.225472e+003
1.009149e+003, 3.222889e+003
1.009631e+003, 3.214403e+003
1.010113e+003, 3.207461e+003
1.010595e+003, 3.211785e+003
1.011078e+003, 3.217944e+003
1.011560e+003, 3.209492e+003
1.012042e+003, 3.192348e+003
1.012524e+003, 3.180142e+003
1.013006e+003, 3.173728e+003
1.013488e+003, 3.167541e+003
1.013970e+003, 3.159131e+003
1.014452e+003, 3.151292e+003
1.014935e+003, 3.148310e+003
1.015417e+003, 3.147288e+003
1.015899e+003, 3.140624e+003
1.016381e+003, 3.129246e+003
1.016863e+003, 3.117034e+003
1.017345e+003, 3.104803e+003
1.017827e+003, 3.093476e+003
1.018309e+003, 3.083533e+003
1.018791e+003, 3.075113e+003
1.019274e+003, 3.069204e+003
1.019756e+003, 3.064775e+003
1.020238e+003, 3.056027e+003
1.020720e+003, 3.043177e+003
1.021202e+003, 3.030457e+003
1.021684e+003, 3.018507e+003
1.022166e+003, 3.008644e+003
1.022648e+003, 3.001942e+003
1.023130e+003, 2.996142e+003
1.023613e+003, 2.987506e+003
1.024095e+003, 2.976167e+003
1.024577e+003, 2.964848e+003
1.025059e+003, 2.953692e+003
1.025541e+003, 2.941337e+003
1.026023e+003, 2.927153e+003
1.026505e+003, 2.913038e+003
1.026987e+003, 2.900003e+003
1.027469e+003, 2.888041e+003
1.027952e+003, 2.877316e+003
1.028434e+003, 2.867777e+003
1.028916e+003, 2.858876e+003
1.029398e+003, 2.851057e+003
1.029880e+003, 2.842143e+003
1.030362e+003, 2.831407e+003
1.030844e+003, 2.820174e+003
1.031326e+003, 2.808933e+003
1.031809e+003, 2.798236e+003
1.032291e+003, 2.789572e+003
1.032773e+003, 2.783626e+003
1.033255e+003, 2.773957e+003
1.033737e+003, 2.757360e+003
1.034219e+003, 2.744301e+003
1.034701e+003, 2.738922e+003
1.035183e+003, 2.734196e+003
1.035666e+003, 2.725263e+003
1.036148e+003, 2.714061e+003
1.036630e+003, 2.704589e+003
1.037112e+003, 2.697009e+003
1.037594e+003, 2.690241e+003
1.038076e+003, 2.685788e+003
1.038558e+003, 2.679715e+003
1.039040e+003, 2.670981e+003
1.039522e+003, 2.660806e+003
1.040005e+003, 2.648466e+003
1.040487e+003, 2.635644e+003
1.040969e+003, 2.626441e+003
1.041451e+003, 2.621804e+003
1.041933e+003, 2.615515e+003
1.042415e+003, 2.606546e+003
1.042897e+003, 2.597165e+003
1.043379e+003, 2.586291e+003
1.043861e+003, 2.576658e+003
1.044344e+003, 2.570864e+003
1.044826e+003, 2.567352e+003
1.045308e+003, 2.563206e+003
1.045790e+003, 2.558232e+003
1.046272e+003, 2.553025e+003
1.046754e+003, 2.547442e+003
1.047236e+003, 2.541982e+003
1.047718e+003, 2.536756e+003
1.048201e+003, 2.531751e+003
1.048683e+003, 2.527326e+003
1.049165e+003, 2.522960e+003
1.049647e+003, 2.517510e+003
1.050129e+003, 2.510775e+003
1.050611e+003, 2.504064e+003
1.051093e+003, 2.497182e+003
1.051575e+003, 2.490943e+003
1.052057e+003, 2.485035e+003
1.052540e+003, 2.480335e+003
1.053022e+003, 2.478398e+003
1.053504e+003, 2.477730e+003
1.053986e+003, 2.475306e+003
1.054468e+003, 2.470617e+003
1.054950e+003, 2.467260e+003
1.055432e+003, 2.467709e+003
1.055914e+003, 2.467574e+003
1.056396e+003, 2.465843e+003
1.056879e+003, 2.462530e+003
1.057361e+003, 2.456219e+003
1.057843e+003, 2.448994e+003
1.058325e+003, 2.444489e+003
1.058807e+003, 2.443223e+003
1.059289e+003, 2.442000e+003
1.059771e+003, 2.439220e+003
1.060253e+003, 2.437092e+003
1.060736e+003, 2.437477e+003
1.061218e+003, 2.437825e+003
1.061700e+003, 2.436166e+003
1.062182e+003, 2.433109e+003
1.062664e+003, 2.429682e+003
1.063146e+003, 2.426115e+003
1.063628e+003, 2.422743e+003
1.064110e+003, 2.419015e+003
1.064593e+003, 2.416434e+003
1.065075e+003, 2.416152e+003
1.065557e+003, 2.416725e+003
1.066039e+003, 2.417315e+003
1.066521e+003, 2.417878e+003
1.067003e+003, 2.419258e+003
1.067485e+003, 2.421105e+003
1.067967e+003, 2.419995e+003
1.068449e+003, 2.411762e+003
1.068932e+003, 2.405409e+003
1.069414e+003, 2.406390e+003
1.069896e+003, 2.409307e+003
1.070378e+003, 2.410654e+003
1.070860e+003, 2.410990e+003
1.071342e+003, 2.411766e+003
1.071824e+003, 2.412926e+003
1.072306e+003, 2.412855e+003
1.072788e+003, 2.410240e+003
1.073271e+003, 2.407951e+003
1.073753e+003, 2.407818e+003
1.074235e+003, 2.407961e+003
1.074717e+003, 2.406647e+003
1.075199e+003, 2.405002e+003
1.075681e+003, 2.405062e+003
1.076163e+003, 2.406480e+003
1.076645e+003, 2.406495e+003
1.077127e+003, 2.403459e+003
1.077610e+003, 2.401241e+003
1.078092e+003, 2.402370e+003
1.078574e+003, 2.404130e+003
1.079056e+003, 2.403920e+003
1.079538e+003, 2.403835e+003
1.080020e+003, 2.407457e+003
1.080502e+003, 2.413683e+003
1.080984e+003, 2.417778e+003
1.081467e+003, 2.417992e+003
1.081949e+003, 2.417505e+003
1.082431e+003, 2.417348e+003
1.082913e+003, 2.417385e+003
1.083395e+003, 2.416847e+003
1.083877e+003, 2.416989e+003
1.084359e+003, 2.420048e+003
1.084841e+003, 2.424803e+003
1.085323e+003, 2.427404e+003
1.085806e+003, 2.426486e+003
1.086288e+003, 2.427029e+003
1.086770e+003, 2.434224e+003
1.087252e+003, 2.439555e+003
1.087734e+003, 2.436959e+003
1.088216e+003, 2.431905e+003
1.088698e+003, 2.428599e+003
1.089180e+003, 2.427303e+003
1.089662e+003, 2.427889e+003
1.090145e+003, 2.430332e+003
1.090627e+003, 2.432209e+003
1.091109e+003, 2.431608e+003
1.091591e+003, 2.431617e+003
1.092073e+003, 2.433797e+003
1.092555e+003, 2.436876e+003
1.093037e+003, 2.440996e+003
1.093519e+003, 2.444753e+003
1.094002e+003, 2.445002e+003
1.094484e+003, 2.441777e+003
1.094966e+003, 2.441289e+003
1.095448e+003, 2.448253e+003
1.095930e+003, 2.454154e+003
1.096412e+003, 2.457142e+003
1.096894e+003, 2.457194e+003
1.097376e+003, 2.451516e+003
1.097859e+003, 2.444619e+003
1.098341e+003, 2.442414e+003
1.098823e+003, 2.445001e+003
1.099305e+003, 2.448659e+003
1.099787e+003, 2.453986e+003
1.100269e+003, 2.457273e+003
1.100751e+003, 2.454741e+003
1.101233e+003, 2.453295e+003
1.101715e+003, 2.458376e+003
1.102198e+003, 2.464697e+003
1.102680e+003, 2.466759e+003
1.103162e+003, 2.464948e+003
1.103644e+003, 2.461708e+003
1.104126e+003, 2.455548e+003
1.104608e+003, 2.453923e+003
1.105090e+003, 2.462912e+003
1.105572e+003, 2.470460e+003
1.106054e+003, 2.472007e+003
1.106537e+003, 2.470859e+003
1.107019e+003, 2.467897e+003
1.107501e+003, 2.464809e+003
1.107983e+003, 2.465697e+003
1.108465e+003, 2.471745e+003
1.108947e+003, 2.476569e+003
1.109429e+003, 2.477538e+003
1.109911e+003, 2.480180e+003
1.110394e+003, 2.488288e+003
1.110876e+003, 2.495486e+003
1.111358e+003, 2.498240e+003
1.111840e+003, 2.497492e+003
1.112322e+003, 2.493704e+003
1.112804e+003, 2.486589e+003
1.113286e+003, 2.482995e+003
1.113768e+003, 2.485540e+003
1.114250e+003, 2.487259e+003
1.114733e+003, 2.486738e+003
1.115215e+003, 2.486630e+003
1.115697e+003, 2.487660e+003
1.116179e+003, 2.490095e+003
1.116661e+003, 2.495117e+003
1.117143e+003, 2.502077e+003
1.117625e+003, 2.505930e+003
1.118107e+003, 2.504421e+003
1.118589e+003, 2.505339e+003
1.119072e+003, 2.510393e+003
1.119554e+003, 2.514578e+003
1.120036e+003, 2.516029e+003
1.120518e+003, 2.516576e+003
1.121000e+003, 2.517386e+003
1.121482e+003, 2.518783e+003
1.121964e+003, 2.521800e+003
1.122446e+003, 2.526677e+003
1.122929e+003, 2.531869e+003
1.123411e+003, 2.538006e+003
1.123893e+003, 2.542250e+003
1.124375e+003, 2.543801e+003
1.124857e+003, 2.543560e+003
1.125339e+003, 2.541205e+003
1.125821e+003, 2.539361e+003
1.126303e+003, 2.543126e+003
1.126786e+003, 2.552047e+003
1.127268e+003, 2.558132e+003
1.127750e+003, 2.561336e+003
1.128232e+003, 2.561004e+003
1.128714e+003, 2.556327e+003
1.129196e+003, 2.553774e+003
1.129678e+003, 2.556514e+003
1.130160e+003, 2.561182e+003
1.130642e+003, 2.563919e+003
1.131125e+003, 2.565560e+003
1.131607e+003, 2.568964e+003
1.132089e+003, 2.574083e+003
1.132571e+003, 2.580840e+003
1.133053e+003, 2.589120e+003
1.133535e+003, 2.592656e+003
1.134017e+003, 2.589562e+003
1.134499e+003, 2.586949e+003
1.134981e+003, 2.590360e+003
1.135464e+003, 2.597381e+003
1.135946e+003, 2.604667e+003
1.136428e+003, 2.611692e+003
1.136910e+003, 2.615881e+003
1.137392e+003, 2.617820e+003
1.137874e+003, 2.619952e+003
1.138356e+003, 2.623000e+003
1.138838e+003, 2.628700e+003
1.139321e+003, 2.637980e+003
1.139803e+003, 2.646978e+003
1.140285e+003, 2.650980e+003
1.140767e+003, 2.652305e+003
1.141249e+003, 2.654800e+003
1.141731e+003, 2.658160e+003
1.142213e+003, 2.661430e+003
1.142695e+003, 2.664921e+003
1.143177e+003, 2.670721e+003
1.143660e+003, 2.679015e+003
1.144142e+003, 2.685417e+003
1.144624e+003, 2.685382e+003
1.145106e+003, 2.685799e+003
1.145588e+003, 2.696169e+003
1.146070e+003, 2.709336e+003
1.146552e+003, 2.716235e+003
1.147034e+003, 2.719015e+003
1.147516e+003, 2.722208e+003
1.147999e+003, 2.726630e+003
1.148481e+003, 2.731130e+003
1.148963e+003, 2.735124e+003
1.149445e+003, 2.739784e+003
1.149927e+003, 2.745095e+003
1.150409e+003, 2.752170e+003
1.150891e+003, 2.764474e+003
1.151373e+003, 2.776770e+003
1.151856e+003, 2.781110e+003
1.152338e+003, 2.781342e+003
1.152820e+003, 2.788505e+003
1.153302e+003, 2.804844e+003
1.153784e+003, 2.817337e+003
1.154266e+003, 2.818253e+003
1.154748e+003, 2.819494e+003
1.155230e+003, 2.826484e+003
1.155713e+003, 2.833353e+003
1.156195e+003, 2.834744e+003
1.156677e+003, 2.834999e+003
1.157159e+003, 2.839966e+003
1.157641e+003, 2.849526e+003
1.158123e+003, 2.860152e+003
1.158605e+003, 2.874246e+003
1.159087e+003, 2.883744e+003
1.159569e+003, 2.881507e+003
1.160052e+003, 2.883909e+003
1.160534e+003, 2.899149e+003
1.161016e+003, 2.916159e+003
1.161498e+003, 2.926815e+003
1.161980e+003, 2.933472e+003
1.162462e+003, 2.941320e+003
1.162944e+003, 2.950660e+003
1.163426e+003, 2.957987e+003
1.163908e+003, 2.962752e+003
1.164391e+003, 2.966758e+003
1.164873e+003, 2.969427e+003
1.165355e+003, 2.973544e+003
1.165837e+003, 2.980340e+003
1.166319e+003, 2.989592e+003
1.166801e+003, 3.001645e+003
1.167283e+003, 3.015320e+003
1.167765e+003, 3.025475e+003
1.168247e+003, 3.031940e+003
1.168730e+003, 3.040820e+003
1.169212e+003, 3.052480e+003
1.169694e+003, 3.060273e+003
1.170176e+003, 3.062210e+003
1.170658e+003, 3.066960e+003
1.171140e+003, 3.080780e+003
1.171622e+003, 3.098803e+003
1.172104e+003, 3.113947e+003
1.172587e+003, 3.126636e+003
1.173069e+003, 3.138200e+003
1.173551e+003, 3.148659e+003
1.174033e+003, 3.158169e+003
1.174515e+003, 3.166750e+003
1.174997e+003, 3.174130e+003
1.175479e+003, 3.180343e+003
1.175961e+003, 3.186524e+003
1.176443e+003, 3.193456e+003
1.176926e+003, 3.201263e+003
1.177408e+003, 3.209961e+003
1.177890e+003, 3.219730e+003
1.178372e+003, 3.231674e+003
1.178854e+003, 3.244552e+003
1.179336e+003, 3.256162e+003
1.179818e+003, 3.266246e+003
1.180300e+003, 3.275275e+003
1.180782e+003, 3.283372e+003
1.181265e+003, 3.291207e+003
1.181747e+003, 3.298981e+003
1.182229e+003, 3.306862e+003
1.182711e+003, 3.315243e+003
1.183193e+003, 3.323512e+003
1.183675e+003, 3.330564e+003
1.184157e+003, 3.337281e+003
1.184639e+003, 3.345361e+003
1.185122e+003, 3.355023e+003
1.185604e+003, 3.365279e+003
1.186086e+003, 3.378081e+003
1.186568e+003, 3.387993e+003
1.187050e+003, 3.390393e+003
1.187532e+003, 3.394361e+003
1.188014e+003, 3.404872e+003
1.188496e+003, 3.417611e+003
1.188979e+003, 3.428653e+003
1.189461e+003, 3.438643e+003
1.189943e+003, 3.449243e+003
1.190425e+003, 3.460607e+003
1.190907e+003, 3.471378e+003
1.191389e+003, 3.480803e+003
1.191871e+003, 3.491886e+003
1.192353e+003, 3.505942e+003
1.192835e+003, 3.518891e+003
1.193318e+003, 3.528157e+003
1.193800e+003, 3.536970e+003
1.194282e+003, 3.549503e+003
1.194764e+003, 3.564490e+003
1.195246e+003, 3.576419e+003
1.195728e+003, 3.585461e+003
1.196210e+003, 3.595929e+003
1.196692e+003, 3.607985e+003
1.197174e+003, 3.622884e+003
1.197657e+003, 3.640563e+003
1.198139e+003, 3.654731e+003
1.198621e+003, 3.661201e+003
1.199103e+003, 3.666100e+003
1.199585e+003, 3.678471e+003
1.200067e+003, 3.694169e+003
1.200549e+003, 3.704844e+003
1.201031e+003, 3.712506e+003
1.201514e+003, 3.720968e+003
1.201996e+003, 3.730861e+003
1.202478e+003, 3.743298e+003
1.202960e+003, 3.757915e+003
1.203442e+003, 3.769810e+003
1.203924e+003, 3.774645e+003
1.204406e+003, 3.780607e+003
1.204888e+003, 3.796494e+003
1.205370e+003, 3.813264e+003
1.205853e+003, 3.822566e+003
1.206335e+003, 3.828930e+003
1.206817e+003, 3.836751e+003
1.207299e+003, 3.847157e+003
1.207781e+003, 3.861941e+003
1.208263e+003, 3.881753e+003
1.208745e+003, 3.899719e+003
1.209227e+003, 3.914417e+003
1.209709e+003, 3.926623e+003
1.210192e+003, 3.932994e+003
1.210674e+003, 3.941184e+003
1.211156e+003, 3.957137e+003
1.211638e+003, 3.974850e+003
1.212120e+003, 3.988237e+003
1.212602e+003, 3.998371e+003
1.213084e+003, 4.009014e+003
1.213566e+003, 4.019760e+003
1.214049e+003, 4.032996e+003
1.214531e+003, 4.048982e+003
1.215013e+003, 4.066988e+003
1.215495e+003, 4.087789e+003
1.215977e+003, 4.106221e+003
1.216459e+003, 4.119410e+003
1.216941e+003, 4.128899e+003
1.217423e+003, 4.135069e+003
1.217906e+003, 4.141518e+003
1.218388e+003, 4.163000e+003
1.218870e+003, 4.195043e+003
1.219352e+003, 4.212625e+003
1.219834e+003, 4.218001e+003
1.220316e+003, 4.231016e+003
1.220798e+003, 4.254821e+003
1.221280e+003, 4.276702e+003
1.221762e+003, 4.289802e+003
1.222245e+003, 4.300589e+003
1.222727e+003, 4.315565e+003
1.223209e+003, 4.331687e+003
1.223691e+003, 4.345755e+003
1.224173e+003, 4.358647e+003
1.224655e+003, 4.369528e+003
1.225137e+003, 4.380846e+003
1.225619e+003, 4.398001e+003
1.226101e+003, 4.420689e+003
1.226584e+003, 4.442091e+003
1.227066e+003, 4.459265e+003
1.227548e+003, 4.476404e+003
1.228030e+003, 4.498173e+003
1.228512e+003, 4.515875e+003
1.228994e+003, 4.519103e+003
1.229476e+003, 4.523559e+003
1.229958e+003, 4.545247e+003
1.230441e+003, 4.574753e+003
1.230923e+003, 4.594189e+003
1.231405e+003, 4.604005e+003
1.231887e+003, 4.617909e+003
1.232369e+003, 4.637255e+003
1.232851e+003, 4.656141e+003
1.233333e+003, 4.673426e+003
1.233815e+003, 4.693872e+003
1.234297e+003, 4.719526e+003
1.234780e+003, 4.746326e+003
1.235262e+003, 4.771944e+003
1.235744e+003, 4.794748e+003
1.236226e+003, 4.810994e+003
1.236708e+003, 4.822502e+003
1.237190e+003, 4.836656e+003
1.237672e+003, 4.853300e+003
1.238154e+003, 4.872835e+003
1.238636e+003, 4.894695e+003
1.239119e+003, 4.916579e+003
1.239601e+003, 4.937862e+003
1.240083e+003, 4.959638e+003
1.240565e+003, 4.982479e+003
1.241047e+003, 5.006865e+003
1.241529e+003, 5.035548e+003
1.242011e+003, 5.063675e+003
1.242493e+003, 5.087163e+003
1.242975e+003, 5.107144e+003
1.243458e+003, 5.122382e+003
1.243940e+003, 5.136602e+003
1.244422e+003, 5.157003e+003
1.244904e+003, 5.184577e+003
1.245386e+003, 5.213355e+003
1.245868e+003, 5.242114e+003
1.246350e+003, 5.271299e+003
1.246832e+003, 5.301423e+003
1.247315e+003, 5.331557e+003
1.247797e+003, 5.363087e+003
1.248279e+003, 5.392173e+003
1.248761e+003, 5.413420e+003
1.249243e+003, 5.433030e+003
1.249725e+003, 5.463111e+003
1.250207e+003, 5.502843e+003
1.250689e+003, 5.539797e+003
1.251172e+003, 5.573760e+003
1.251654e+003, 5.605688e+003
1.252136e+003, 5.635572e+003
1.252618e+003, 5.667624e+003
1.253100e+003, 5.703106e+003
1.253582e+003, 5.740750e+003
1.254064e+003, 5.779643e+003
1.254546e+003, 5.818509e+003
1.255028e+003, 5.854538e+003
1.255510e+003, 5.889466e+003
1.255993e+003, 5.926339e+003
1.256475e+003, 5.964347e+003
1.256957e+003, 6.000700e+003
1.257439e+003, 6.036471e+003
1.257921e+003, 6.075878e+003
1.258403e+003, 6.118710e+003
1.258885e+003, 6.158908e+003
1.259367e+003, 6.192169e+003
1.259850e+003, 6.228830e+003
1.260332e+003, 6.279318e+003
1.260814e+003, 6.326889e+003
1.261296e+003, 6.357862e+003
1.261778e+003, 6.388991e+003
1.262260e+003, 6.434009e+003
1.262742e+003, 6.487423e+003
1.263224e+003, 6.540379e+003
1.263707e+003, 6.592950e+003
1.264189e+003, 6.643224e+003
1.264671e+003, 6.689785e+003
1.265153e+003, 6.739353e+003
1.265635e+003, 6.792240e+003
1.266117e+003, 6.845763e+003
1.266599e+003, 6.899159e+003
1.267081e+003, 6.955197e+003
1.267563e+003, 7.015762e+003
1.268046e+003, 7.076449e+003
1.268528e+003, 7.131669e+003
1.269010e+003, 7.185369e+003
1.269492e+003, 7.248591e+003
1.269974e+003, 7.317224e+003
1.270456e+003, 7.379926e+003
1.270938e+003, 7.439665e+003
1.271420e+003, 7.507668e+003
1.271902e+003, 7.582919e+003
1.272385e+003, 7.653041e+003
1.272867e+003, 7.713214e+003
1.273349e+003, 7.774782e+003
1.273831e+003, 7.841696e+003
1.274313e+003, 7.916007e+003
1.274795e+003, 8.004972e+003
1.275277e+003, 8.095549e+003
1.275759e+003, 8.181052e+003
1.276242e+003, 8.262640e+003
1.276724e+003, 8.340317e+003
1.277206e+003, 8.416306e+003
1.277688e+003, 8.494833e+003
1.278170e+003, 8.575833e+003
1.278652e+003, 8.659852e+003
1.279134e+003, 8.745666e+003
1.279616e+003, 8.839314e+003
1.280099e+003, 8.942461e+003
1.280581e+003, 9.047622e+003
1.281063e+003, 9.152823e+003
1.281545e+003, 9.251570e+003
1.282027e+003, 9.338054e+003
1.282509e+003, 9.424400e+003
1.282991e+003, 9.534553e+003
1.283473e+003, 9.657700e+003
1.283955e+003, 9.772451e+003
##END=



