##NAMES=Petersite-(Ce)
##RRUFFID=R050541
##IDEAL CHEMISTRY=Cu^2+^_6_Ce^3+^(PO_4_)_3_(OH)_6_&#183;3H_2_O
##LOCALITY=Cherry Creek district, Yavapai County, Arizona, USA
##OWNER=RRUFF
##SOURCE=UAMM
##DESCRIPTION=Spray of yellowish-green acicular crystals, type sample
##STATUS=The identification of this mineral is confirmed by single-crystal X-ray diffraction and chemical analysis.
##URL=rruff.info/R050541
##MEASURED CHEMISTRY=Cu_6.03_(Ce_0.18_Y_0.16_La_0.12_Nd_0.09_Gd_0.03_Pr_0.02_Sm_0.01_Dy_0.01_Ca_0.42_)_Σ=1.05_[(PO_4_)_0.95_(SiO_4_)_0.05_]_3_(OH)_6_·3.21H_2_O
9.112140e+001, 0.000000e+000
9.160352e+001, 2.234144e+002
9.208563e+001, 2.198426e+002
9.256775e+001, 2.193727e+002
9.304987e+001, 2.233419e+002
9.353198e+001, 2.288236e+002
9.401410e+001, 2.323252e+002
9.449622e+001, 2.337603e+002
9.497833e+001, 2.340520e+002
9.546045e+001, 2.340404e+002
9.594257e+001, 2.337397e+002
9.642468e+001, 2.327250e+002
9.690680e+001, 2.308433e+002
9.738892e+001, 2.288740e+002
9.787103e+001, 2.269974e+002
9.835315e+001, 2.250037e+002
9.883527e+001, 2.228279e+002
9.931738e+001, 2.211104e+002
9.979950e+001, 2.202440e+002
1.002816e+002, 2.186336e+002
1.007637e+002, 2.154794e+002
1.012458e+002, 2.119992e+002
1.017280e+002, 2.092477e+002
1.022101e+002, 2.074464e+002
1.026922e+002, 2.063308e+002
1.031743e+002, 2.055643e+002
1.036564e+002, 2.050352e+002
1.041385e+002, 2.048957e+002
1.046207e+002, 2.055235e+002
1.051028e+002, 2.066468e+002
1.055849e+002, 2.073133e+002
1.060670e+002, 2.069397e+002
1.065491e+002, 2.061443e+002
1.070313e+002, 2.055249e+002
1.075134e+002, 2.050565e+002
1.079955e+002, 2.049805e+002
1.084776e+002, 2.058433e+002
1.089597e+002, 2.080130e+002
1.094418e+002, 2.094475e+002
1.099240e+002, 2.085863e+002
1.104061e+002, 2.072965e+002
1.108882e+002, 2.070783e+002
1.113703e+002, 2.085546e+002
1.118524e+002, 2.110551e+002
1.123345e+002, 2.127912e+002
1.128167e+002, 2.132546e+002
1.132988e+002, 2.135277e+002
1.137809e+002, 2.132166e+002
1.142630e+002, 2.129413e+002
1.147451e+002, 2.136946e+002
1.152272e+002, 2.162231e+002
1.157094e+002, 2.203606e+002
1.161915e+002, 2.224263e+002
1.166736e+002, 2.208109e+002
1.171557e+002, 2.190810e+002
1.176378e+002, 2.185967e+002
1.181199e+002, 2.191293e+002
1.186021e+002, 2.196197e+002
1.190842e+002, 2.192575e+002
1.195663e+002, 2.179067e+002
1.200484e+002, 2.159352e+002
1.205305e+002, 2.130760e+002
1.210126e+002, 2.097664e+002
1.214948e+002, 2.062204e+002
1.219769e+002, 2.024125e+002
1.224590e+002, 1.987782e+002
1.229411e+002, 1.958713e+002
1.234232e+002, 1.935352e+002
1.239053e+002, 1.914646e+002
1.243875e+002, 1.899681e+002
1.248696e+002, 1.886956e+002
1.253517e+002, 1.865584e+002
1.258338e+002, 1.827769e+002
1.263159e+002, 1.790126e+002
1.267980e+002, 1.763247e+002
1.272802e+002, 1.746273e+002
1.277623e+002, 1.735099e+002
1.282444e+002, 1.729506e+002
1.287265e+002, 1.730711e+002
1.292086e+002, 1.724846e+002
1.296907e+002, 1.699724e+002
1.301729e+002, 1.675113e+002
1.306550e+002, 1.660849e+002
1.311371e+002, 1.657775e+002
1.316192e+002, 1.659651e+002
1.321013e+002, 1.657986e+002
1.325834e+002, 1.650707e+002
1.330656e+002, 1.643661e+002
1.335477e+002, 1.634633e+002
1.340298e+002, 1.627111e+002
1.345119e+002, 1.624768e+002
1.349940e+002, 1.628597e+002
1.354761e+002, 1.635637e+002
1.359583e+002, 1.639160e+002
1.364404e+002, 1.639666e+002
1.369225e+002, 1.635591e+002
1.374046e+002, 1.622561e+002
1.378867e+002, 1.605671e+002
1.383688e+002, 1.593010e+002
1.388510e+002, 1.588935e+002
1.393331e+002, 1.589930e+002
1.398152e+002, 1.584245e+002
1.402973e+002, 1.567257e+002
1.407794e+002, 1.551717e+002
1.412615e+002, 1.542753e+002
1.417437e+002, 1.539735e+002
1.422258e+002, 1.539872e+002
1.427079e+002, 1.542797e+002
1.431900e+002, 1.547718e+002
1.436721e+002, 1.552931e+002
1.441542e+002, 1.559978e+002
1.446364e+002, 1.565302e+002
1.451185e+002, 1.564787e+002
1.456006e+002, 1.557708e+002
1.460827e+002, 1.549161e+002
1.465648e+002, 1.538794e+002
1.470469e+002, 1.529229e+002
1.475291e+002, 1.523945e+002
1.480112e+002, 1.525381e+002
1.484933e+002, 1.530540e+002
1.489754e+002, 1.532670e+002
1.494575e+002, 1.530499e+002
1.499396e+002, 1.527201e+002
1.504218e+002, 1.519834e+002
1.509039e+002, 1.512969e+002
1.513860e+002, 1.514159e+002
1.518681e+002, 1.529985e+002
1.523502e+002, 1.557515e+002
1.528323e+002, 1.570368e+002
1.533145e+002, 1.548217e+002
1.537966e+002, 1.530010e+002
1.542787e+002, 1.523894e+002
1.547608e+002, 1.527763e+002
1.552429e+002, 1.535971e+002
1.557250e+002, 1.544370e+002
1.562072e+002, 1.552891e+002
1.566893e+002, 1.562419e+002
1.571714e+002, 1.580196e+002
1.576535e+002, 1.592388e+002
1.581356e+002, 1.590097e+002
1.586177e+002, 1.575320e+002
1.590999e+002, 1.557937e+002
1.595820e+002, 1.546656e+002
1.600641e+002, 1.542511e+002
1.605462e+002, 1.540601e+002
1.610283e+002, 1.540154e+002
1.615104e+002, 1.542270e+002
1.619926e+002, 1.549028e+002
1.624747e+002, 1.560588e+002
1.629568e+002, 1.573051e+002
1.634389e+002, 1.583235e+002
1.639210e+002, 1.591118e+002
1.644031e+002, 1.594206e+002
1.648853e+002, 1.588677e+002
1.653674e+002, 1.579043e+002
1.658495e+002, 1.571989e+002
1.663316e+002, 1.568842e+002
1.668137e+002, 1.567202e+002
1.672958e+002, 1.563641e+002
1.677780e+002, 1.559011e+002
1.682601e+002, 1.557601e+002
1.687422e+002, 1.563996e+002
1.692243e+002, 1.575947e+002
1.697064e+002, 1.583841e+002
1.701885e+002, 1.583552e+002
1.706707e+002, 1.582950e+002
1.711528e+002, 1.589323e+002
1.716349e+002, 1.600777e+002
1.721170e+002, 1.609345e+002
1.725991e+002, 1.607745e+002
1.730812e+002, 1.595507e+002
1.735634e+002, 1.583138e+002
1.740455e+002, 1.569061e+002
1.745276e+002, 1.556612e+002
1.750097e+002, 1.546840e+002
1.754918e+002, 1.539984e+002
1.759739e+002, 1.536201e+002
1.764561e+002, 1.536169e+002
1.769382e+002, 1.541031e+002
1.774203e+002, 1.545899e+002
1.779024e+002, 1.552086e+002
1.783845e+002, 1.557280e+002
1.788666e+002, 1.562192e+002
1.793488e+002, 1.565845e+002
1.798309e+002, 1.564589e+002
1.803130e+002, 1.552359e+002
1.807951e+002, 1.520419e+002
1.812772e+002, 1.497318e+002
1.817593e+002, 1.484162e+002
1.822415e+002, 1.477762e+002
1.827236e+002, 1.477327e+002
1.832057e+002, 1.482202e+002
1.836878e+002, 1.490198e+002
1.841699e+002, 1.498474e+002
1.846520e+002, 1.509944e+002
1.851342e+002, 1.514838e+002
1.856163e+002, 1.508419e+002
1.860984e+002, 1.497245e+002
1.865805e+002, 1.487545e+002
1.870626e+002, 1.481062e+002
1.875447e+002, 1.477390e+002
1.880269e+002, 1.475969e+002
1.885090e+002, 1.476116e+002
1.889911e+002, 1.480043e+002
1.894732e+002, 1.493531e+002
1.899553e+002, 1.510359e+002
1.904374e+002, 1.518192e+002
1.909196e+002, 1.511218e+002
1.914017e+002, 1.499258e+002
1.918838e+002, 1.497385e+002
1.923659e+002, 1.506050e+002
1.928480e+002, 1.514071e+002
1.933301e+002, 1.516071e+002
1.938123e+002, 1.513196e+002
1.942944e+002, 1.509105e+002
1.947765e+002, 1.502446e+002
1.952586e+002, 1.497907e+002
1.957407e+002, 1.501705e+002
1.962228e+002, 1.514012e+002
1.967050e+002, 1.524400e+002
1.971871e+002, 1.523326e+002
1.976692e+002, 1.511396e+002
1.981513e+002, 1.502407e+002
1.986334e+002, 1.500483e+002
1.991155e+002, 1.501386e+002
1.995977e+002, 1.502279e+002
2.000798e+002, 1.502992e+002
2.005619e+002, 1.504605e+002
2.010440e+002, 1.508805e+002
2.015261e+002, 1.516225e+002
2.020082e+002, 1.522202e+002
2.024904e+002, 1.525001e+002
2.029725e+002, 1.527020e+002
2.034546e+002, 1.530123e+002
2.039367e+002, 1.534208e+002
2.044188e+002, 1.537051e+002
2.049009e+002, 1.534788e+002
2.053831e+002, 1.524248e+002
2.058652e+002, 1.518494e+002
2.063473e+002, 1.520217e+002
2.068294e+002, 1.524638e+002
2.073115e+002, 1.530080e+002
2.077936e+002, 1.535786e+002
2.082758e+002, 1.541041e+002
2.087579e+002, 1.545198e+002
2.092400e+002, 1.550024e+002
2.097221e+002, 1.549149e+002
2.102042e+002, 1.538237e+002
2.106863e+002, 1.525701e+002
2.111685e+002, 1.517349e+002
2.116506e+002, 1.514246e+002
2.121327e+002, 1.513366e+002
2.126148e+002, 1.510267e+002
2.130969e+002, 1.503266e+002
2.135790e+002, 1.497544e+002
2.140612e+002, 1.490930e+002
2.145433e+002, 1.486755e+002
2.150254e+002, 1.489619e+002
2.155075e+002, 1.500036e+002
2.159896e+002, 1.511933e+002
2.164717e+002, 1.516595e+002
2.169539e+002, 1.510684e+002
2.174360e+002, 1.504346e+002
2.179181e+002, 1.495540e+002
2.184002e+002, 1.487447e+002
2.188823e+002, 1.483950e+002
2.193644e+002, 1.486034e+002
2.198466e+002, 1.489975e+002
2.203287e+002, 1.490326e+002
2.208108e+002, 1.486038e+002
2.212929e+002, 1.484275e+002
2.217750e+002, 1.490941e+002
2.222571e+002, 1.498765e+002
2.227393e+002, 1.496711e+002
2.232214e+002, 1.481292e+002
2.237035e+002, 1.463213e+002
2.241856e+002, 1.457108e+002
2.246677e+002, 1.461924e+002
2.251498e+002, 1.465970e+002
2.256320e+002, 1.465368e+002
2.261141e+002, 1.462385e+002
2.265962e+002, 1.460862e+002
2.270783e+002, 1.461743e+002
2.275604e+002, 1.463120e+002
2.280425e+002, 1.462392e+002
2.285247e+002, 1.460190e+002
2.290068e+002, 1.459506e+002
2.294889e+002, 1.461468e+002
2.299710e+002, 1.465751e+002
2.304531e+002, 1.473691e+002
2.309352e+002, 1.489795e+002
2.314174e+002, 1.499816e+002
2.318995e+002, 1.487442e+002
2.323816e+002, 1.459978e+002
2.328637e+002, 1.437238e+002
2.333458e+002, 1.430797e+002
2.338279e+002, 1.436646e+002
2.343101e+002, 1.441893e+002
2.347922e+002, 1.445964e+002
2.352743e+002, 1.449848e+002
2.357564e+002, 1.454363e+002
2.362385e+002, 1.459131e+002
2.367206e+002, 1.463420e+002
2.372028e+002, 1.466912e+002
2.376849e+002, 1.469579e+002
2.381670e+002, 1.471732e+002
2.386491e+002, 1.475373e+002
2.391312e+002, 1.475016e+002
2.396133e+002, 1.464906e+002
2.400955e+002, 1.450306e+002
2.405776e+002, 1.440181e+002
2.410597e+002, 1.440897e+002
2.415418e+002, 1.450047e+002
2.420239e+002, 1.455778e+002
2.425060e+002, 1.454758e+002
2.429882e+002, 1.454799e+002
2.434703e+002, 1.458544e+002
2.439524e+002, 1.464635e+002
2.444345e+002, 1.470966e+002
2.449166e+002, 1.476218e+002
2.453987e+002, 1.480904e+002
2.458809e+002, 1.487696e+002
2.463630e+002, 1.501754e+002
2.468451e+002, 1.510906e+002
2.473272e+002, 1.509311e+002
2.478093e+002, 1.502608e+002
2.482914e+002, 1.498631e+002
2.487736e+002, 1.501932e+002
2.492557e+002, 1.509812e+002
2.497378e+002, 1.510976e+002
2.502199e+002, 1.495359e+002
2.507020e+002, 1.485427e+002
2.511841e+002, 1.489143e+002
2.516663e+002, 1.498359e+002
2.521484e+002, 1.502933e+002
2.526305e+002, 1.497908e+002
2.531126e+002, 1.486590e+002
2.535947e+002, 1.479244e+002
2.540768e+002, 1.477310e+002
2.545590e+002, 1.478420e+002
2.550411e+002, 1.485715e+002
2.555232e+002, 1.494666e+002
2.560053e+002, 1.500398e+002
2.564874e+002, 1.500824e+002
2.569695e+002, 1.497392e+002
2.574517e+002, 1.493593e+002
2.579338e+002, 1.487711e+002
2.584159e+002, 1.483607e+002
2.588980e+002, 1.484891e+002
2.593801e+002, 1.486410e+002
2.598622e+002, 1.480500e+002
2.603444e+002, 1.464770e+002
2.608265e+002, 1.446799e+002
2.613086e+002, 1.441247e+002
2.617907e+002, 1.461676e+002
2.622728e+002, 1.473479e+002
2.627549e+002, 1.471947e+002
2.632371e+002, 1.463698e+002
2.637192e+002, 1.452277e+002
2.642013e+002, 1.439065e+002
2.646834e+002, 1.429827e+002
2.651655e+002, 1.434794e+002
2.656476e+002, 1.465497e+002
2.661298e+002, 1.481631e+002
2.666119e+002, 1.469171e+002
2.670940e+002, 1.449171e+002
2.675761e+002, 1.441839e+002
2.680582e+002, 1.450964e+002
2.685403e+002, 1.466113e+002
2.690225e+002, 1.475844e+002
2.695046e+002, 1.479050e+002
2.699867e+002, 1.479688e+002
2.704688e+002, 1.481128e+002
2.709509e+002, 1.477964e+002
2.714330e+002, 1.460330e+002
2.719152e+002, 1.428312e+002
2.723973e+002, 1.399686e+002
2.728794e+002, 1.392684e+002
2.733615e+002, 1.409581e+002
2.738436e+002, 1.423972e+002
2.743257e+002, 1.438316e+002
2.748079e+002, 1.448062e+002
2.752900e+002, 1.445115e+002
2.757721e+002, 1.430365e+002
2.762542e+002, 1.419587e+002
2.767363e+002, 1.426876e+002
2.772184e+002, 1.450038e+002
2.777006e+002, 1.464516e+002
2.781827e+002, 1.464896e+002
2.786648e+002, 1.460707e+002
2.791469e+002, 1.457258e+002
2.796290e+002, 1.454719e+002
2.801111e+002, 1.453111e+002
2.805933e+002, 1.452366e+002
2.810754e+002, 1.452762e+002
2.815575e+002, 1.454711e+002
2.820396e+002, 1.460529e+002
2.825217e+002, 1.465111e+002
2.830038e+002, 1.465335e+002
2.834860e+002, 1.461572e+002
2.839681e+002, 1.455306e+002
2.844502e+002, 1.445628e+002
2.849323e+002, 1.435207e+002
2.854144e+002, 1.429176e+002
2.858965e+002, 1.428083e+002
2.863787e+002, 1.429625e+002
2.868608e+002, 1.434025e+002
2.873429e+002, 1.440378e+002
2.878250e+002, 1.445453e+002
2.883071e+002, 1.448085e+002
2.887892e+002, 1.449048e+002
2.892714e+002, 1.449573e+002
2.897535e+002, 1.449705e+002
2.902356e+002, 1.449273e+002
2.907177e+002, 1.448365e+002
2.911998e+002, 1.446838e+002
2.916819e+002, 1.443668e+002
2.921641e+002, 1.437341e+002
2.926462e+002, 1.431918e+002
2.931283e+002, 1.433237e+002
2.936104e+002, 1.440401e+002
2.940925e+002, 1.446139e+002
2.945746e+002, 1.446662e+002
2.950568e+002, 1.443955e+002
2.955389e+002, 1.441633e+002
2.960210e+002, 1.439845e+002
2.965031e+002, 1.439243e+002
2.969852e+002, 1.441501e+002
2.974673e+002, 1.445581e+002
2.979495e+002, 1.448620e+002
2.984316e+002, 1.450771e+002
2.989137e+002, 1.450937e+002
2.993958e+002, 1.446266e+002
2.998779e+002, 1.435607e+002
3.003600e+002, 1.425435e+002
3.008422e+002, 1.420004e+002
3.013243e+002, 1.418067e+002
3.018064e+002, 1.417941e+002
3.022885e+002, 1.418928e+002
3.027706e+002, 1.421907e+002
3.032527e+002, 1.429474e+002
3.037349e+002, 1.442157e+002
3.042170e+002, 1.452437e+002
3.046991e+002, 1.457576e+002
3.051812e+002, 1.457474e+002
3.056633e+002, 1.451116e+002
3.061454e+002, 1.436065e+002
3.066276e+002, 1.420423e+002
3.071097e+002, 1.411464e+002
3.075918e+002, 1.408895e+002
3.080739e+002, 1.407272e+002
3.085560e+002, 1.404461e+002
3.090381e+002, 1.402424e+002
3.095203e+002, 1.403012e+002
3.100024e+002, 1.406338e+002
3.104845e+002, 1.411632e+002
3.109666e+002, 1.420034e+002
3.114487e+002, 1.430539e+002
3.119308e+002, 1.438176e+002
3.124130e+002, 1.442004e+002
3.128951e+002, 1.442314e+002
3.133772e+002, 1.438247e+002
3.138593e+002, 1.430529e+002
3.143414e+002, 1.424134e+002
3.148235e+002, 1.423079e+002
3.153057e+002, 1.425105e+002
3.157878e+002, 1.424355e+002
3.162699e+002, 1.420039e+002
3.167520e+002, 1.413643e+002
3.172341e+002, 1.404097e+002
3.177162e+002, 1.393295e+002
3.181984e+002, 1.385674e+002
3.186805e+002, 1.383953e+002
3.191626e+002, 1.385855e+002
3.196447e+002, 1.388070e+002
3.201268e+002, 1.390596e+002
3.206089e+002, 1.393450e+002
3.210911e+002, 1.396282e+002
3.215732e+002, 1.399613e+002
3.220553e+002, 1.404947e+002
3.225374e+002, 1.415022e+002
3.230195e+002, 1.423230e+002
3.235016e+002, 1.420004e+002
3.239838e+002, 1.405199e+002
3.244659e+002, 1.394576e+002
3.249480e+002, 1.397617e+002
3.254301e+002, 1.405561e+002
3.259122e+002, 1.406410e+002
3.263943e+002, 1.397917e+002
3.268765e+002, 1.390956e+002
3.273586e+002, 1.396407e+002
3.278407e+002, 1.411516e+002
3.283228e+002, 1.420146e+002
3.288049e+002, 1.415761e+002
3.292870e+002, 1.407625e+002
3.297692e+002, 1.405816e+002
3.302513e+002, 1.409747e+002
3.307334e+002, 1.413017e+002
3.312155e+002, 1.411506e+002
3.316976e+002, 1.407213e+002
3.321797e+002, 1.405053e+002
3.326619e+002, 1.406158e+002
3.331440e+002, 1.407653e+002
3.336261e+002, 1.406807e+002
3.341082e+002, 1.404494e+002
3.345903e+002, 1.402738e+002
3.350724e+002, 1.403157e+002
3.355546e+002, 1.403961e+002
3.360367e+002, 1.402761e+002
3.365188e+002, 1.399444e+002
3.370009e+002, 1.395258e+002
3.374830e+002, 1.390226e+002
3.379651e+002, 1.384993e+002
3.384473e+002, 1.380385e+002
3.389294e+002, 1.374913e+002
3.394115e+002, 1.372595e+002
3.398936e+002, 1.379142e+002
3.403757e+002, 1.393212e+002
3.408578e+002, 1.404646e+002
3.413400e+002, 1.410244e+002
3.418221e+002, 1.410522e+002
3.423042e+002, 1.405373e+002
3.427863e+002, 1.393088e+002
3.432684e+002, 1.384680e+002
3.437505e+002, 1.390157e+002
3.442327e+002, 1.403344e+002
3.447148e+002, 1.408015e+002
3.451969e+002, 1.398509e+002
3.456790e+002, 1.385924e+002
3.461611e+002, 1.384341e+002
3.466432e+002, 1.391911e+002
3.471254e+002, 1.397911e+002
3.476075e+002, 1.398010e+002
3.480896e+002, 1.395800e+002
3.485717e+002, 1.396341e+002
3.490538e+002, 1.400201e+002
3.495359e+002, 1.402790e+002
3.500181e+002, 1.399656e+002
3.505002e+002, 1.392234e+002
3.509823e+002, 1.387514e+002
3.514644e+002, 1.385188e+002
3.519465e+002, 1.386284e+002
3.524286e+002, 1.394631e+002
3.529108e+002, 1.408242e+002
3.533929e+002, 1.417387e+002
3.538750e+002, 1.416330e+002
3.543571e+002, 1.408764e+002
3.548392e+002, 1.403521e+002
3.553214e+002, 1.399350e+002
3.558035e+002, 1.399483e+002
3.562856e+002, 1.410965e+002
3.567677e+002, 1.426494e+002
3.572498e+002, 1.431270e+002
3.577319e+002, 1.419958e+002
3.582141e+002, 1.403310e+002
3.586962e+002, 1.396260e+002
3.591783e+002, 1.400438e+002
3.596604e+002, 1.403675e+002
3.601425e+002, 1.403972e+002
3.606246e+002, 1.403148e+002
3.611068e+002, 1.401931e+002
3.615889e+002, 1.400693e+002
3.620710e+002, 1.401849e+002
3.625531e+002, 1.408422e+002
3.630352e+002, 1.420203e+002
3.635173e+002, 1.426655e+002
3.639995e+002, 1.425249e+002
3.644816e+002, 1.421627e+002
3.649637e+002, 1.417268e+002
3.654458e+002, 1.412752e+002
3.659279e+002, 1.409140e+002
3.664100e+002, 1.406998e+002
3.668922e+002, 1.406102e+002
3.673743e+002, 1.405849e+002
3.678564e+002, 1.406932e+002
3.683385e+002, 1.407622e+002
3.688206e+002, 1.405191e+002
3.693027e+002, 1.403314e+002
3.697849e+002, 1.408537e+002
3.702670e+002, 1.422170e+002
3.707491e+002, 1.435898e+002
3.712312e+002, 1.437203e+002
3.717133e+002, 1.418829e+002
3.721954e+002, 1.410202e+002
3.726776e+002, 1.421051e+002
3.731597e+002, 1.432775e+002
3.736418e+002, 1.431565e+002
3.741239e+002, 1.419477e+002
3.746060e+002, 1.409089e+002
3.750881e+002, 1.410769e+002
3.755703e+002, 1.424114e+002
3.760524e+002, 1.434153e+002
3.765345e+002, 1.444461e+002
3.770166e+002, 1.447648e+002
3.774987e+002, 1.434150e+002
3.779808e+002, 1.414473e+002
3.784630e+002, 1.405061e+002
3.789451e+002, 1.413572e+002
3.794272e+002, 1.431617e+002
3.799093e+002, 1.438935e+002
3.803914e+002, 1.426910e+002
3.808735e+002, 1.418083e+002
3.813557e+002, 1.414270e+002
3.818378e+002, 1.412879e+002
3.823199e+002, 1.411733e+002
3.828020e+002, 1.410664e+002
3.832841e+002, 1.411282e+002
3.837662e+002, 1.415775e+002
3.842484e+002, 1.424846e+002
3.847305e+002, 1.432961e+002
3.852126e+002, 1.441468e+002
3.856947e+002, 1.447602e+002
3.861768e+002, 1.448003e+002
3.866589e+002, 1.445435e+002
3.871411e+002, 1.445434e+002
3.876232e+002, 1.451708e+002
3.881053e+002, 1.462393e+002
3.885874e+002, 1.470705e+002
3.890695e+002, 1.475429e+002
3.895516e+002, 1.479952e+002
3.900338e+002, 1.485279e+002
3.905159e+002, 1.490713e+002
3.909980e+002, 1.495707e+002
3.914801e+002, 1.500113e+002
3.919622e+002, 1.503855e+002
3.924443e+002, 1.507525e+002
3.929265e+002, 1.511487e+002
3.934086e+002, 1.511811e+002
3.938907e+002, 1.505241e+002
3.943728e+002, 1.497321e+002
3.948549e+002, 1.489694e+002
3.953370e+002, 1.483161e+002
3.958192e+002, 1.479961e+002
3.963013e+002, 1.483769e+002
3.967834e+002, 1.491970e+002
3.972655e+002, 1.496040e+002
3.977476e+002, 1.495634e+002
3.982297e+002, 1.491924e+002
3.987119e+002, 1.480806e+002
3.991940e+002, 1.468161e+002
3.996761e+002, 1.462949e+002
4.001582e+002, 1.470334e+002
4.006403e+002, 1.479179e+002
4.011224e+002, 1.475083e+002
4.016046e+002, 1.459122e+002
4.020867e+002, 1.451237e+002
4.025688e+002, 1.461995e+002
4.030509e+002, 1.478312e+002
4.035330e+002, 1.483919e+002
4.040151e+002, 1.478667e+002
4.044973e+002, 1.473170e+002
4.049794e+002, 1.472289e+002
4.054615e+002, 1.474109e+002
4.059436e+002, 1.475392e+002
4.064257e+002, 1.475717e+002
4.069078e+002, 1.475848e+002
4.073900e+002, 1.476227e+002
4.078721e+002, 1.476926e+002
4.083542e+002, 1.478175e+002
4.088363e+002, 1.482251e+002
4.093184e+002, 1.484863e+002
4.098005e+002, 1.483526e+002
4.102827e+002, 1.478443e+002
4.107648e+002, 1.469329e+002
4.112469e+002, 1.454764e+002
4.117290e+002, 1.438672e+002
4.122111e+002, 1.430379e+002
4.126932e+002, 1.430908e+002
4.131754e+002, 1.434966e+002
4.136575e+002, 1.444444e+002
4.141396e+002, 1.455535e+002
4.146217e+002, 1.464479e+002
4.151038e+002, 1.470571e+002
4.155859e+002, 1.475317e+002
4.160681e+002, 1.480911e+002
4.165502e+002, 1.488053e+002
4.170323e+002, 1.486476e+002
4.175144e+002, 1.465152e+002
4.179965e+002, 1.447996e+002
4.184786e+002, 1.446469e+002
4.189608e+002, 1.456048e+002
4.194429e+002, 1.468113e+002
4.199250e+002, 1.478472e+002
4.204071e+002, 1.486379e+002
4.208892e+002, 1.489526e+002
4.213713e+002, 1.483222e+002
4.218535e+002, 1.479077e+002
4.223356e+002, 1.480337e+002
4.228177e+002, 1.481733e+002
4.232998e+002, 1.478438e+002
4.237819e+002, 1.470339e+002
4.242640e+002, 1.461421e+002
4.247462e+002, 1.455534e+002
4.252283e+002, 1.452712e+002
4.257104e+002, 1.452087e+002
4.261925e+002, 1.453773e+002
4.266746e+002, 1.457834e+002
4.271567e+002, 1.467402e+002
4.276389e+002, 1.478634e+002
4.281210e+002, 1.485750e+002
4.286031e+002, 1.485911e+002
4.290852e+002, 1.480943e+002
4.295673e+002, 1.472611e+002
4.300494e+002, 1.457934e+002
4.305316e+002, 1.450545e+002
4.310137e+002, 1.459528e+002
4.314958e+002, 1.473206e+002
4.319779e+002, 1.487513e+002
4.324600e+002, 1.501041e+002
4.329421e+002, 1.508226e+002
4.334243e+002, 1.499632e+002
4.339064e+002, 1.480049e+002
4.343885e+002, 1.471754e+002
4.348706e+002, 1.480331e+002
4.353527e+002, 1.489559e+002
4.358348e+002, 1.485883e+002
4.363170e+002, 1.476268e+002
4.367991e+002, 1.472620e+002
4.372812e+002, 1.479816e+002
4.377633e+002, 1.491093e+002
4.382454e+002, 1.501069e+002
4.387275e+002, 1.509842e+002
4.392097e+002, 1.518320e+002
4.396918e+002, 1.527962e+002
4.401739e+002, 1.535622e+002
4.406560e+002, 1.535112e+002
4.411381e+002, 1.525922e+002
4.416202e+002, 1.518185e+002
4.421024e+002, 1.519319e+002
4.425845e+002, 1.520852e+002
4.430666e+002, 1.509112e+002
4.435487e+002, 1.484139e+002
4.440308e+002, 1.463655e+002
4.445129e+002, 1.461297e+002
4.449951e+002, 1.475714e+002
4.454772e+002, 1.491799e+002
4.459593e+002, 1.514893e+002
4.464414e+002, 1.533188e+002
4.469235e+002, 1.541377e+002
4.474056e+002, 1.542999e+002
4.478878e+002, 1.543083e+002
4.483699e+002, 1.543385e+002
4.488520e+002, 1.543156e+002
4.493341e+002, 1.540994e+002
4.498162e+002, 1.535374e+002
4.502983e+002, 1.532276e+002
4.507805e+002, 1.532852e+002
4.512626e+002, 1.534480e+002
4.517447e+002, 1.536291e+002
4.522268e+002, 1.538008e+002
4.527089e+002, 1.539478e+002
4.531910e+002, 1.540623e+002
4.536732e+002, 1.541375e+002
4.541553e+002, 1.540878e+002
4.546374e+002, 1.534784e+002
4.551195e+002, 1.535292e+002
4.556016e+002, 1.549595e+002
4.560837e+002, 1.566956e+002
4.565659e+002, 1.578094e+002
4.570480e+002, 1.581509e+002
4.575301e+002, 1.582248e+002
4.580122e+002, 1.585027e+002
4.584943e+002, 1.589834e+002
4.589764e+002, 1.595718e+002
4.594586e+002, 1.604213e+002
4.599407e+002, 1.611356e+002
4.604228e+002, 1.614870e+002
4.609049e+002, 1.615826e+002
4.613870e+002, 1.615583e+002
4.618691e+002, 1.613003e+002
4.623513e+002, 1.612078e+002
4.628334e+002, 1.619650e+002
4.633155e+002, 1.635309e+002
4.637976e+002, 1.647769e+002
4.642797e+002, 1.651695e+002
4.647618e+002, 1.653139e+002
4.652440e+002, 1.660032e+002
4.657261e+002, 1.672398e+002
4.662082e+002, 1.684924e+002
4.666903e+002, 1.695677e+002
4.671724e+002, 1.705762e+002
4.676545e+002, 1.717544e+002
4.681367e+002, 1.730884e+002
4.686188e+002, 1.741562e+002
4.691009e+002, 1.746109e+002
4.695830e+002, 1.745753e+002
4.700651e+002, 1.746896e+002
4.705472e+002, 1.745765e+002
4.710294e+002, 1.750514e+002
4.715115e+002, 1.771342e+002
4.719936e+002, 1.795815e+002
4.724757e+002, 1.806160e+002
4.729578e+002, 1.798493e+002
4.734399e+002, 1.785640e+002
4.739221e+002, 1.783703e+002
4.744042e+002, 1.796121e+002
4.748863e+002, 1.799330e+002
4.753684e+002, 1.785709e+002
4.758505e+002, 1.772109e+002
4.763326e+002, 1.765325e+002
4.768148e+002, 1.762729e+002
4.772969e+002, 1.759375e+002
4.777790e+002, 1.752910e+002
4.782611e+002, 1.744278e+002
4.787432e+002, 1.735529e+002
4.792253e+002, 1.726970e+002
4.797075e+002, 1.717516e+002
4.801896e+002, 1.703536e+002
4.806717e+002, 1.691603e+002
4.811538e+002, 1.686254e+002
4.816359e+002, 1.686725e+002
4.821180e+002, 1.688788e+002
4.826002e+002, 1.691779e+002
4.830823e+002, 1.693635e+002
4.835644e+002, 1.686608e+002
4.840465e+002, 1.667642e+002
4.845286e+002, 1.651348e+002
4.850107e+002, 1.651015e+002
4.854929e+002, 1.653167e+002
4.859750e+002, 1.638772e+002
4.864571e+002, 1.602166e+002
4.869392e+002, 1.569016e+002
4.874213e+002, 1.555342e+002
4.879034e+002, 1.556276e+002
4.883856e+002, 1.563994e+002
4.888677e+002, 1.578561e+002
4.893498e+002, 1.589756e+002
4.898319e+002, 1.586976e+002
4.903140e+002, 1.571245e+002
4.907961e+002, 1.561193e+002
4.912783e+002, 1.558974e+002
4.917604e+002, 1.560003e+002
4.922425e+002, 1.564833e+002
4.927246e+002, 1.570960e+002
4.932067e+002, 1.574827e+002
4.936888e+002, 1.575206e+002
4.941710e+002, 1.570431e+002
4.946531e+002, 1.556854e+002
4.951352e+002, 1.528928e+002
4.956173e+002, 1.509968e+002
4.960994e+002, 1.500880e+002
4.965815e+002, 1.498441e+002
4.970637e+002, 1.505375e+002
4.975458e+002, 1.517475e+002
4.980279e+002, 1.526517e+002
4.985100e+002, 1.527623e+002
4.989921e+002, 1.524165e+002
4.994742e+002, 1.525070e+002
4.999564e+002, 1.532696e+002
5.004385e+002, 1.538704e+002
5.009206e+002, 1.542463e+002
5.014027e+002, 1.543848e+002
5.018848e+002, 1.541432e+002
5.023669e+002, 1.535962e+002
5.028491e+002, 1.530865e+002
5.033312e+002, 1.528278e+002
5.038133e+002, 1.527811e+002
5.042954e+002, 1.529501e+002
5.047775e+002, 1.534448e+002
5.052596e+002, 1.536098e+002
5.057418e+002, 1.527641e+002
5.062239e+002, 1.516222e+002
5.067060e+002, 1.512505e+002
5.071881e+002, 1.518622e+002
5.076702e+002, 1.525788e+002
5.081523e+002, 1.530356e+002
5.086345e+002, 1.532890e+002
5.091166e+002, 1.533759e+002
5.095987e+002, 1.533018e+002
5.100808e+002, 1.532654e+002
5.105629e+002, 1.534891e+002
5.110450e+002, 1.539203e+002
5.115272e+002, 1.539730e+002
5.120093e+002, 1.532967e+002
5.124914e+002, 1.527102e+002
5.129735e+002, 1.522127e+002
5.134556e+002, 1.520363e+002
5.139377e+002, 1.527460e+002
5.144199e+002, 1.543874e+002
5.149020e+002, 1.560449e+002
5.153841e+002, 1.565219e+002
5.158662e+002, 1.556523e+002
5.163483e+002, 1.547414e+002
5.168304e+002, 1.536565e+002
5.173126e+002, 1.526763e+002
5.177947e+002, 1.514846e+002
5.182768e+002, 1.505738e+002
5.187589e+002, 1.509123e+002
5.192410e+002, 1.529524e+002
5.197231e+002, 1.553032e+002
5.202053e+002, 1.558391e+002
5.206874e+002, 1.544266e+002
5.211695e+002, 1.530102e+002
5.216516e+002, 1.513087e+002
5.221337e+002, 1.503821e+002
5.226158e+002, 1.514826e+002
5.230980e+002, 1.538895e+002
5.235801e+002, 1.555070e+002
5.240622e+002, 1.551719e+002
5.245443e+002, 1.541483e+002
5.250264e+002, 1.537266e+002
5.255085e+002, 1.538050e+002
5.259907e+002, 1.537477e+002
5.264728e+002, 1.532443e+002
5.269549e+002, 1.527186e+002
5.274370e+002, 1.530092e+002
5.279191e+002, 1.543963e+002
5.284012e+002, 1.547987e+002
5.288834e+002, 1.528625e+002
5.293655e+002, 1.508610e+002
5.298476e+002, 1.505690e+002
5.303297e+002, 1.515858e+002
5.308118e+002, 1.525247e+002
5.312939e+002, 1.526476e+002
5.317761e+002, 1.521849e+002
5.322582e+002, 1.516918e+002
5.327403e+002, 1.509948e+002
5.332224e+002, 1.506010e+002
5.337045e+002, 1.507494e+002
5.341866e+002, 1.509580e+002
5.346688e+002, 1.508097e+002
5.351509e+002, 1.504471e+002
5.356330e+002, 1.503623e+002
5.361151e+002, 1.509089e+002
5.365972e+002, 1.519087e+002
5.370793e+002, 1.529293e+002
5.375615e+002, 1.539850e+002
5.380436e+002, 1.550073e+002
5.385257e+002, 1.564382e+002
5.390078e+002, 1.574250e+002
5.394899e+002, 1.569957e+002
5.399720e+002, 1.552033e+002
5.404542e+002, 1.534512e+002
5.409363e+002, 1.523244e+002
5.414184e+002, 1.516926e+002
5.419005e+002, 1.514331e+002
5.423826e+002, 1.515296e+002
5.428647e+002, 1.518698e+002
5.433469e+002, 1.525082e+002
5.438290e+002, 1.532401e+002
5.443111e+002, 1.535106e+002
5.447932e+002, 1.531986e+002
5.452753e+002, 1.527917e+002
5.457574e+002, 1.522365e+002
5.462396e+002, 1.516950e+002
5.467217e+002, 1.512421e+002
5.472038e+002, 1.509235e+002
5.476859e+002, 1.508344e+002
5.481680e+002, 1.510426e+002
5.486501e+002, 1.515289e+002
5.491323e+002, 1.522373e+002
5.496144e+002, 1.534044e+002
5.500965e+002, 1.543755e+002
5.505786e+002, 1.553416e+002
5.510607e+002, 1.559248e+002
5.515428e+002, 1.554197e+002
5.520250e+002, 1.540851e+002
5.525071e+002, 1.533125e+002
5.529892e+002, 1.546237e+002
5.534713e+002, 1.570773e+002
5.539534e+002, 1.576362e+002
5.544355e+002, 1.558273e+002
5.549177e+002, 1.545180e+002
5.553998e+002, 1.551274e+002
5.558819e+002, 1.566430e+002
5.563640e+002, 1.577641e+002
5.568461e+002, 1.584815e+002
5.573282e+002, 1.587290e+002
5.578104e+002, 1.582831e+002
5.582925e+002, 1.574706e+002
5.587746e+002, 1.563266e+002
5.592567e+002, 1.550175e+002
5.597388e+002, 1.547168e+002
5.602209e+002, 1.564073e+002
5.607031e+002, 1.591701e+002
5.611852e+002, 1.600684e+002
5.616673e+002, 1.571528e+002
5.621494e+002, 1.550625e+002
5.626315e+002, 1.538853e+002
5.631136e+002, 1.535301e+002
5.635958e+002, 1.542899e+002
5.640779e+002, 1.558731e+002
5.645600e+002, 1.574618e+002
5.650421e+002, 1.585118e+002
5.655242e+002, 1.590895e+002
5.660063e+002, 1.593756e+002
5.664885e+002, 1.592798e+002
5.669706e+002, 1.591455e+002
5.674527e+002, 1.584943e+002
5.679348e+002, 1.582713e+002
5.684169e+002, 1.596981e+002
5.688990e+002, 1.624825e+002
5.693812e+002, 1.644614e+002
5.698633e+002, 1.637570e+002
5.703454e+002, 1.619648e+002
5.708275e+002, 1.612872e+002
5.713096e+002, 1.617061e+002
5.717917e+002, 1.626961e+002
5.722739e+002, 1.642422e+002
5.727560e+002, 1.659309e+002
5.732381e+002, 1.669073e+002
5.737202e+002, 1.668516e+002
5.742023e+002, 1.674038e+002
5.746844e+002, 1.691696e+002
5.751666e+002, 1.712025e+002
5.756487e+002, 1.732163e+002
5.761308e+002, 1.749470e+002
5.766129e+002, 1.758282e+002
5.770950e+002, 1.755385e+002
5.775771e+002, 1.745708e+002
5.780593e+002, 1.740520e+002
5.785414e+002, 1.742724e+002
5.790235e+002, 1.741455e+002
5.795056e+002, 1.737395e+002
5.799877e+002, 1.728450e+002
5.804698e+002, 1.708544e+002
5.809520e+002, 1.683174e+002
5.814341e+002, 1.664037e+002
5.819162e+002, 1.656371e+002
5.823983e+002, 1.657227e+002
5.828804e+002, 1.669674e+002
5.833625e+002, 1.691302e+002
5.838447e+002, 1.693226e+002
5.843268e+002, 1.663136e+002
5.848089e+002, 1.624364e+002
5.852910e+002, 1.598215e+002
5.857731e+002, 1.584330e+002
5.862552e+002, 1.579875e+002
5.867374e+002, 1.594616e+002
5.872195e+002, 1.608320e+002
5.877016e+002, 1.607237e+002
5.881837e+002, 1.598801e+002
5.886658e+002, 1.597362e+002
5.891479e+002, 1.606922e+002
5.896301e+002, 1.618483e+002
5.901122e+002, 1.620239e+002
5.905943e+002, 1.610553e+002
5.910764e+002, 1.606813e+002
5.915585e+002, 1.620480e+002
5.920406e+002, 1.626518e+002
5.925228e+002, 1.609693e+002
5.930049e+002, 1.586497e+002
5.934870e+002, 1.578133e+002
5.939691e+002, 1.589701e+002
5.944512e+002, 1.605171e+002
5.949333e+002, 1.610318e+002
5.954155e+002, 1.606680e+002
5.958976e+002, 1.599956e+002
5.963797e+002, 1.589490e+002
5.968618e+002, 1.580281e+002
5.973439e+002, 1.575205e+002
5.978260e+002, 1.573586e+002
5.983082e+002, 1.573327e+002
5.987903e+002, 1.574834e+002
5.992724e+002, 1.576692e+002
5.997545e+002, 1.578421e+002
6.002366e+002, 1.580301e+002
6.007188e+002, 1.583785e+002
6.012009e+002, 1.588177e+002
6.016830e+002, 1.589876e+002
6.021651e+002, 1.586341e+002
6.026472e+002, 1.578544e+002
6.031293e+002, 1.569612e+002
6.036115e+002, 1.555922e+002
6.040936e+002, 1.547990e+002
6.045757e+002, 1.549035e+002
6.050578e+002, 1.553148e+002
6.055399e+002, 1.558900e+002
6.060220e+002, 1.564705e+002
6.065042e+002, 1.567023e+002
6.069863e+002, 1.562337e+002
6.074684e+002, 1.555426e+002
6.079505e+002, 1.556563e+002
6.084326e+002, 1.565366e+002
6.089147e+002, 1.564530e+002
6.093969e+002, 1.544394e+002
6.098790e+002, 1.522771e+002
6.103611e+002, 1.521973e+002
6.108432e+002, 1.539991e+002
6.113253e+002, 1.552190e+002
6.118074e+002, 1.552398e+002
6.122896e+002, 1.549957e+002
6.127717e+002, 1.549458e+002
6.132538e+002, 1.549734e+002
6.137359e+002, 1.547673e+002
6.142180e+002, 1.542628e+002
6.147001e+002, 1.538452e+002
6.151823e+002, 1.540110e+002
6.156644e+002, 1.547978e+002
6.161465e+002, 1.553914e+002
6.166286e+002, 1.557000e+002
6.171107e+002, 1.559258e+002
6.175928e+002, 1.559503e+002
6.180750e+002, 1.560173e+002
6.185571e+002, 1.564906e+002
6.190392e+002, 1.574119e+002
6.195213e+002, 1.582087e+002
6.200034e+002, 1.584319e+002
6.204855e+002, 1.582263e+002
6.209677e+002, 1.578270e+002
6.214498e+002, 1.572360e+002
6.219319e+002, 1.567985e+002
6.224140e+002, 1.568281e+002
6.228961e+002, 1.569609e+002
6.233782e+002, 1.561897e+002
6.238604e+002, 1.538162e+002
6.243425e+002, 1.528356e+002
6.248246e+002, 1.552731e+002
6.253067e+002, 1.577176e+002
6.257888e+002, 1.573498e+002
6.262709e+002, 1.551012e+002
6.267531e+002, 1.536455e+002
6.272352e+002, 1.543139e+002
6.277173e+002, 1.560562e+002
6.281994e+002, 1.570968e+002
6.286815e+002, 1.574361e+002
6.291636e+002, 1.570223e+002
6.296458e+002, 1.551686e+002
6.301279e+002, 1.534347e+002
6.306100e+002, 1.523807e+002
6.310921e+002, 1.520029e+002
6.315742e+002, 1.524362e+002
6.320563e+002, 1.539926e+002
6.325385e+002, 1.555143e+002
6.330206e+002, 1.559621e+002
6.335027e+002, 1.558347e+002
6.339848e+002, 1.562465e+002
6.344669e+002, 1.573425e+002
6.349490e+002, 1.582841e+002
6.354312e+002, 1.584497e+002
6.359133e+002, 1.579771e+002
6.363954e+002, 1.575135e+002
6.368775e+002, 1.570584e+002
6.373596e+002, 1.566195e+002
6.378417e+002, 1.556978e+002
6.383239e+002, 1.552011e+002
6.388060e+002, 1.563851e+002
6.392881e+002, 1.586485e+002
6.397702e+002, 1.599885e+002
6.402523e+002, 1.590395e+002
6.407344e+002, 1.569369e+002
6.412166e+002, 1.557967e+002
6.416987e+002, 1.556435e+002
6.421808e+002, 1.558834e+002
6.426629e+002, 1.566717e+002
6.431450e+002, 1.573872e+002
6.436271e+002, 1.573609e+002
6.441093e+002, 1.567738e+002
6.445914e+002, 1.562468e+002
6.450735e+002, 1.556233e+002
6.455556e+002, 1.553540e+002
6.460377e+002, 1.560378e+002
6.465198e+002, 1.570454e+002
6.470020e+002, 1.575181e+002
6.474841e+002, 1.572782e+002
6.479662e+002, 1.564834e+002
6.484483e+002, 1.551279e+002
6.489304e+002, 1.534138e+002
6.494125e+002, 1.527994e+002
6.498947e+002, 1.538569e+002
6.503768e+002, 1.549682e+002
6.508589e+002, 1.564204e+002
6.513410e+002, 1.573768e+002
6.518231e+002, 1.566442e+002
6.523052e+002, 1.546517e+002
6.527874e+002, 1.536013e+002
6.532695e+002, 1.553760e+002
6.537516e+002, 1.578907e+002
6.542337e+002, 1.583528e+002
6.547158e+002, 1.572066e+002
6.551979e+002, 1.565874e+002
6.556801e+002, 1.571699e+002
6.561622e+002, 1.580337e+002
6.566443e+002, 1.581658e+002
6.571264e+002, 1.575224e+002
6.576085e+002, 1.569685e+002
6.580906e+002, 1.563911e+002
6.585728e+002, 1.560303e+002
6.590549e+002, 1.561432e+002
6.595370e+002, 1.563777e+002
6.600191e+002, 1.563060e+002
6.605012e+002, 1.559134e+002
6.609833e+002, 1.556035e+002
6.614655e+002, 1.558289e+002
6.619476e+002, 1.563205e+002
6.624297e+002, 1.560026e+002
6.629118e+002, 1.546798e+002
6.633939e+002, 1.541772e+002
6.638760e+002, 1.555518e+002
6.643582e+002, 1.573878e+002
6.648403e+002, 1.578045e+002
6.653224e+002, 1.569368e+002
6.658045e+002, 1.565493e+002
6.662866e+002, 1.576740e+002
6.667687e+002, 1.585605e+002
6.672509e+002, 1.578301e+002
6.677330e+002, 1.563394e+002
6.682151e+002, 1.555288e+002
6.686972e+002, 1.557609e+002
6.691793e+002, 1.564409e+002
6.696614e+002, 1.570715e+002
6.701436e+002, 1.576067e+002
6.706257e+002, 1.572933e+002
6.711078e+002, 1.554327e+002
6.715899e+002, 1.541654e+002
6.720720e+002, 1.546572e+002
6.725541e+002, 1.555706e+002
6.730363e+002, 1.558001e+002
6.735184e+002, 1.553544e+002
6.740005e+002, 1.550795e+002
6.744826e+002, 1.555475e+002
6.749647e+002, 1.561792e+002
6.754468e+002, 1.565295e+002
6.759290e+002, 1.565658e+002
6.764111e+002, 1.559414e+002
6.768932e+002, 1.545246e+002
6.773753e+002, 1.534898e+002
6.778574e+002, 1.544343e+002
6.783395e+002, 1.574910e+002
6.788217e+002, 1.591129e+002
6.793038e+002, 1.580993e+002
6.797859e+002, 1.571277e+002
6.802680e+002, 1.565196e+002
6.807501e+002, 1.562312e+002
6.812322e+002, 1.562102e+002
6.817144e+002, 1.564524e+002
6.821965e+002, 1.570098e+002
6.826786e+002, 1.583318e+002
6.831607e+002, 1.596979e+002
6.836428e+002, 1.596929e+002
6.841249e+002, 1.584775e+002
6.846071e+002, 1.574085e+002
6.850892e+002, 1.568657e+002
6.855713e+002, 1.567028e+002
6.860534e+002, 1.567889e+002
6.865355e+002, 1.571354e+002
6.870176e+002, 1.575507e+002
6.874998e+002, 1.583158e+002
6.879819e+002, 1.587897e+002
6.884640e+002, 1.583340e+002
6.889461e+002, 1.578076e+002
6.894282e+002, 1.584150e+002
6.899103e+002, 1.600450e+002
6.903925e+002, 1.611922e+002
6.908746e+002, 1.604759e+002
6.913567e+002, 1.587180e+002
6.918388e+002, 1.579270e+002
6.923209e+002, 1.581419e+002
6.928030e+002, 1.583733e+002
6.932852e+002, 1.584001e+002
6.937673e+002, 1.582925e+002
6.942494e+002, 1.580681e+002
6.947315e+002, 1.577409e+002
6.952136e+002, 1.575247e+002
6.956957e+002, 1.573121e+002
6.961779e+002, 1.573513e+002
6.966600e+002, 1.580572e+002
6.971421e+002, 1.588655e+002
6.976242e+002, 1.590965e+002
6.981063e+002, 1.587171e+002
6.985884e+002, 1.582027e+002
6.990706e+002, 1.579261e+002
6.995527e+002, 1.577547e+002
7.000348e+002, 1.570403e+002
7.005169e+002, 1.555074e+002
7.009990e+002, 1.554166e+002
7.014811e+002, 1.583105e+002
7.019633e+002, 1.612143e+002
7.024454e+002, 1.610590e+002
7.029275e+002, 1.587609e+002
7.034096e+002, 1.573619e+002
7.038917e+002, 1.579875e+002
7.043738e+002, 1.585724e+002
7.048560e+002, 1.577039e+002
7.053381e+002, 1.566392e+002
7.058202e+002, 1.571829e+002
7.063023e+002, 1.592445e+002
7.067844e+002, 1.612282e+002
7.072665e+002, 1.620532e+002
7.077487e+002, 1.619872e+002
7.082308e+002, 1.615800e+002
7.087129e+002, 1.606352e+002
7.091950e+002, 1.603039e+002
7.096771e+002, 1.611089e+002
7.101592e+002, 1.620444e+002
7.106414e+002, 1.627921e+002
7.111235e+002, 1.631571e+002
7.116056e+002, 1.625587e+002
7.120877e+002, 1.603760e+002
7.125698e+002, 1.584707e+002
7.130519e+002, 1.578211e+002
7.135341e+002, 1.579075e+002
7.140162e+002, 1.583785e+002
7.144983e+002, 1.590337e+002
7.149804e+002, 1.593874e+002
7.154625e+002, 1.591445e+002
7.159446e+002, 1.585725e+002
7.164268e+002, 1.582465e+002
7.169089e+002, 1.582343e+002
7.173910e+002, 1.581286e+002
7.178731e+002, 1.575656e+002
7.183552e+002, 1.574062e+002
7.188373e+002, 1.583432e+002
7.193195e+002, 1.597866e+002
7.198016e+002, 1.608875e+002
7.202837e+002, 1.614841e+002
7.207658e+002, 1.620009e+002
7.212479e+002, 1.630764e+002
7.217300e+002, 1.638669e+002
7.222122e+002, 1.631092e+002
7.226943e+002, 1.611865e+002
7.231764e+002, 1.594076e+002
7.236585e+002, 1.583324e+002
7.241406e+002, 1.581255e+002
7.246227e+002, 1.592807e+002
7.251049e+002, 1.620660e+002
7.255870e+002, 1.636789e+002
7.260691e+002, 1.633973e+002
7.265512e+002, 1.630919e+002
7.270333e+002, 1.638957e+002
7.275154e+002, 1.646774e+002
7.279976e+002, 1.638677e+002
7.284797e+002, 1.614064e+002
7.289618e+002, 1.598255e+002
7.294439e+002, 1.609799e+002
7.299260e+002, 1.627946e+002
7.304081e+002, 1.634124e+002
7.308903e+002, 1.631908e+002
7.313724e+002, 1.630778e+002
7.318545e+002, 1.633522e+002
7.323366e+002, 1.637785e+002
7.328187e+002, 1.641900e+002
7.333008e+002, 1.645331e+002
7.337830e+002, 1.640771e+002
7.342651e+002, 1.622525e+002
7.347472e+002, 1.608571e+002
7.352293e+002, 1.602363e+002
7.357114e+002, 1.602424e+002
7.361935e+002, 1.612105e+002
7.366757e+002, 1.628304e+002
7.371578e+002, 1.637942e+002
7.376399e+002, 1.633542e+002
7.381220e+002, 1.626004e+002
7.386041e+002, 1.622392e+002
7.390862e+002, 1.620469e+002
7.395684e+002, 1.614766e+002
7.400505e+002, 1.605754e+002
7.405326e+002, 1.602436e+002
7.410147e+002, 1.612538e+002
7.414968e+002, 1.629637e+002
7.419789e+002, 1.631830e+002
7.424611e+002, 1.611708e+002
7.429432e+002, 1.604684e+002
7.434253e+002, 1.625246e+002
7.439074e+002, 1.645381e+002
7.443895e+002, 1.647323e+002
7.448716e+002, 1.638422e+002
7.453538e+002, 1.632569e+002
7.458359e+002, 1.633633e+002
7.463180e+002, 1.632076e+002
7.468001e+002, 1.615376e+002
7.472822e+002, 1.599947e+002
7.477643e+002, 1.608525e+002
7.482465e+002, 1.634300e+002
7.487286e+002, 1.652583e+002
7.492107e+002, 1.652081e+002
7.496928e+002, 1.640813e+002
7.501749e+002, 1.627634e+002
7.506570e+002, 1.611828e+002
7.511392e+002, 1.611267e+002
7.516213e+002, 1.633809e+002
7.521034e+002, 1.653584e+002
7.525855e+002, 1.658908e+002
7.530676e+002, 1.657183e+002
7.535497e+002, 1.657987e+002
7.540319e+002, 1.661604e+002
7.545140e+002, 1.661244e+002
7.549961e+002, 1.654595e+002
7.554782e+002, 1.644221e+002
7.559603e+002, 1.625110e+002
7.564424e+002, 1.605966e+002
7.569246e+002, 1.602269e+002
7.574067e+002, 1.615503e+002
7.578888e+002, 1.631708e+002
7.583709e+002, 1.640129e+002
7.588530e+002, 1.641004e+002
7.593351e+002, 1.631824e+002
7.598173e+002, 1.610165e+002
7.602994e+002, 1.600386e+002
7.607815e+002, 1.612636e+002
7.612636e+002, 1.629088e+002
7.617457e+002, 1.634188e+002
7.622278e+002, 1.630487e+002
7.627100e+002, 1.631001e+002
7.631921e+002, 1.639536e+002
7.636742e+002, 1.646802e+002
7.641563e+002, 1.650082e+002
7.646384e+002, 1.651739e+002
7.651205e+002, 1.653503e+002
7.656027e+002, 1.655383e+002
7.660848e+002, 1.657346e+002
7.665669e+002, 1.659532e+002
7.670490e+002, 1.659490e+002
7.675311e+002, 1.651448e+002
7.680132e+002, 1.637614e+002
7.684954e+002, 1.630942e+002
7.689775e+002, 1.632816e+002
7.694596e+002, 1.637077e+002
7.699417e+002, 1.642316e+002
7.704238e+002, 1.646000e+002
7.709059e+002, 1.643069e+002
7.713881e+002, 1.631183e+002
7.718702e+002, 1.621906e+002
7.723523e+002, 1.609855e+002
7.728344e+002, 1.606591e+002
7.733165e+002, 1.625354e+002
7.737986e+002, 1.649556e+002
7.742808e+002, 1.659125e+002
7.747629e+002, 1.652638e+002
7.752450e+002, 1.645876e+002
7.757271e+002, 1.650254e+002
7.762092e+002, 1.659446e+002
7.766913e+002, 1.665832e+002
7.771735e+002, 1.669057e+002
7.776556e+002, 1.664911e+002
7.781377e+002, 1.651972e+002
7.786198e+002, 1.643820e+002
7.791019e+002, 1.653812e+002
7.795840e+002, 1.677121e+002
7.800662e+002, 1.688775e+002
7.805483e+002, 1.683592e+002
7.810304e+002, 1.676401e+002
7.815125e+002, 1.662738e+002
7.819946e+002, 1.652720e+002
7.824767e+002, 1.651784e+002
7.829589e+002, 1.657912e+002
7.834410e+002, 1.668450e+002
7.839231e+002, 1.684411e+002
7.844052e+002, 1.696309e+002
7.848873e+002, 1.695442e+002
7.853694e+002, 1.689414e+002
7.858516e+002, 1.689089e+002
7.863337e+002, 1.692313e+002
7.868158e+002, 1.687971e+002
7.872979e+002, 1.671749e+002
7.877800e+002, 1.653851e+002
7.882621e+002, 1.647726e+002
7.887443e+002, 1.653110e+002
7.892264e+002, 1.660577e+002
7.897085e+002, 1.672114e+002
7.901906e+002, 1.680120e+002
7.906727e+002, 1.680800e+002
7.911548e+002, 1.678605e+002
7.916370e+002, 1.680280e+002
7.921191e+002, 1.684329e+002
7.926012e+002, 1.679401e+002
7.930833e+002, 1.651664e+002
7.935654e+002, 1.629788e+002
7.940475e+002, 1.626590e+002
7.945297e+002, 1.633163e+002
7.950118e+002, 1.643707e+002
7.954939e+002, 1.655297e+002
7.959760e+002, 1.663465e+002
7.964581e+002, 1.665594e+002
7.969402e+002, 1.664237e+002
7.974224e+002, 1.661354e+002
7.979045e+002, 1.657803e+002
7.983866e+002, 1.660984e+002
7.988687e+002, 1.672455e+002
7.993508e+002, 1.681415e+002
7.998329e+002, 1.681246e+002
8.003151e+002, 1.677065e+002
8.007972e+002, 1.678490e+002
8.012793e+002, 1.687411e+002
8.017614e+002, 1.694568e+002
8.022435e+002, 1.701682e+002
8.027256e+002, 1.705158e+002
8.032078e+002, 1.700440e+002
8.036899e+002, 1.693852e+002
8.041720e+002, 1.691667e+002
8.046541e+002, 1.694471e+002
8.051362e+002, 1.699385e+002
8.056183e+002, 1.705867e+002
8.061005e+002, 1.712624e+002
8.065826e+002, 1.720721e+002
8.070647e+002, 1.727535e+002
8.075468e+002, 1.724398e+002
8.080289e+002, 1.711150e+002
8.085110e+002, 1.700400e+002
8.089932e+002, 1.701300e+002
8.094753e+002, 1.710045e+002
8.099574e+002, 1.717253e+002
8.104395e+002, 1.723460e+002
8.109216e+002, 1.725670e+002
8.114037e+002, 1.722620e+002
8.118859e+002, 1.717366e+002
8.123680e+002, 1.709131e+002
8.128501e+002, 1.700658e+002
8.133322e+002, 1.695392e+002
8.138143e+002, 1.693286e+002
8.142964e+002, 1.695945e+002
8.147786e+002, 1.709151e+002
8.152607e+002, 1.721469e+002
8.157428e+002, 1.725625e+002
8.162249e+002, 1.724971e+002
8.167070e+002, 1.724236e+002
8.171891e+002, 1.724442e+002
8.176713e+002, 1.724087e+002
8.181534e+002, 1.721505e+002
8.186355e+002, 1.718456e+002
8.191176e+002, 1.717547e+002
8.195997e+002, 1.719005e+002
8.200818e+002, 1.726542e+002
8.205640e+002, 1.741840e+002
8.210461e+002, 1.753544e+002
8.215282e+002, 1.752554e+002
8.220103e+002, 1.743305e+002
8.224924e+002, 1.739407e+002
8.229745e+002, 1.743923e+002
8.234567e+002, 1.746927e+002
8.239388e+002, 1.753906e+002
8.244209e+002, 1.753140e+002
8.249030e+002, 1.729010e+002
8.253851e+002, 1.700648e+002
8.258672e+002, 1.695021e+002
8.263494e+002, 1.715524e+002
8.268315e+002, 1.736287e+002
8.273136e+002, 1.749465e+002
8.277957e+002, 1.754028e+002
8.282778e+002, 1.741173e+002
8.287599e+002, 1.721660e+002
8.292421e+002, 1.715951e+002
8.297242e+002, 1.726888e+002
8.302063e+002, 1.743691e+002
8.306884e+002, 1.760090e+002
8.311705e+002, 1.771470e+002
8.316526e+002, 1.761040e+002
8.321348e+002, 1.727635e+002
8.326169e+002, 1.711634e+002
8.330990e+002, 1.722624e+002
8.335811e+002, 1.735273e+002
8.340632e+002, 1.734046e+002
8.345453e+002, 1.725088e+002
8.350275e+002, 1.721770e+002
8.355096e+002, 1.725626e+002
8.359917e+002, 1.730892e+002
8.364738e+002, 1.741045e+002
8.369559e+002, 1.748465e+002
8.374380e+002, 1.751302e+002
8.379202e+002, 1.749380e+002
8.384023e+002, 1.739498e+002
8.388844e+002, 1.723395e+002
8.393665e+002, 1.712568e+002
8.398486e+002, 1.717461e+002
8.403307e+002, 1.724973e+002
8.408129e+002, 1.717552e+002
8.412950e+002, 1.704307e+002
8.417771e+002, 1.706982e+002
8.422592e+002, 1.726011e+002
8.427413e+002, 1.741530e+002
8.432234e+002, 1.740725e+002
8.437056e+002, 1.730445e+002
8.441877e+002, 1.724165e+002
8.446698e+002, 1.722252e+002
8.451519e+002, 1.719959e+002
8.456340e+002, 1.716545e+002
8.461161e+002, 1.714339e+002
8.465983e+002, 1.713019e+002
8.470804e+002, 1.714628e+002
8.475625e+002, 1.724465e+002
8.480446e+002, 1.743491e+002
8.485267e+002, 1.754437e+002
8.490089e+002, 1.755371e+002
8.494910e+002, 1.749724e+002
8.499731e+002, 1.729073e+002
8.504552e+002, 1.709466e+002
8.509373e+002, 1.705296e+002
8.514194e+002, 1.715411e+002
8.519016e+002, 1.733344e+002
8.523837e+002, 1.760591e+002
8.528658e+002, 1.779306e+002
8.533479e+002, 1.762518e+002
8.538300e+002, 1.731139e+002
8.543121e+002, 1.724802e+002
8.547943e+002, 1.741316e+002
8.552764e+002, 1.755952e+002
8.557585e+002, 1.758040e+002
8.562406e+002, 1.752208e+002
8.567227e+002, 1.742212e+002
8.572048e+002, 1.729176e+002
8.576870e+002, 1.730283e+002
8.581691e+002, 1.751326e+002
8.586512e+002, 1.762900e+002
8.591333e+002, 1.753925e+002
8.596154e+002, 1.739257e+002
8.600975e+002, 1.729148e+002
8.605797e+002, 1.724179e+002
8.610618e+002, 1.726861e+002
8.615439e+002, 1.744657e+002
8.620260e+002, 1.757451e+002
8.625081e+002, 1.763091e+002
8.629902e+002, 1.763270e+002
8.634724e+002, 1.755788e+002
8.639545e+002, 1.744800e+002
8.644366e+002, 1.735150e+002
8.649187e+002, 1.728197e+002
8.654008e+002, 1.727268e+002
8.658829e+002, 1.741457e+002
8.663651e+002, 1.757262e+002
8.668472e+002, 1.755472e+002
8.673293e+002, 1.743515e+002
8.678114e+002, 1.739938e+002
8.682935e+002, 1.748349e+002
8.687756e+002, 1.761435e+002
8.692578e+002, 1.774598e+002
8.697399e+002, 1.785349e+002
8.702220e+002, 1.785353e+002
8.707041e+002, 1.773857e+002
8.711862e+002, 1.768884e+002
8.716683e+002, 1.774980e+002
8.721505e+002, 1.775249e+002
8.726326e+002, 1.755337e+002
8.731147e+002, 1.731274e+002
8.735968e+002, 1.732683e+002
8.740789e+002, 1.767153e+002
8.745610e+002, 1.786087e+002
8.750432e+002, 1.776568e+002
8.755253e+002, 1.769104e+002
8.760074e+002, 1.774516e+002
8.764895e+002, 1.781531e+002
8.769716e+002, 1.780589e+002
8.774537e+002, 1.772379e+002
8.779359e+002, 1.761694e+002
8.784180e+002, 1.746357e+002
8.789001e+002, 1.738113e+002
8.793822e+002, 1.750605e+002
8.798643e+002, 1.769323e+002
8.803464e+002, 1.779138e+002
8.808286e+002, 1.780359e+002
8.813107e+002, 1.778023e+002
8.817928e+002, 1.774046e+002
8.822749e+002, 1.767057e+002
8.827570e+002, 1.751512e+002
8.832391e+002, 1.733690e+002
8.837213e+002, 1.737081e+002
8.842034e+002, 1.760246e+002
8.846855e+002, 1.779745e+002
8.851676e+002, 1.790640e+002
8.856497e+002, 1.792588e+002
8.861318e+002, 1.782985e+002
8.866140e+002, 1.766951e+002
8.870961e+002, 1.763304e+002
8.875782e+002, 1.782006e+002
8.880603e+002, 1.786863e+002
8.885424e+002, 1.764623e+002
8.890245e+002, 1.746538e+002
8.895067e+002, 1.749238e+002
8.899888e+002, 1.760143e+002
8.904709e+002, 1.764985e+002
8.909530e+002, 1.763203e+002
8.914351e+002, 1.762211e+002
8.919172e+002, 1.759096e+002
8.923994e+002, 1.762579e+002
8.928815e+002, 1.786175e+002
8.933636e+002, 1.810503e+002
8.938457e+002, 1.815783e+002
8.943278e+002, 1.804349e+002
8.948099e+002, 1.786884e+002
8.952921e+002, 1.766491e+002
8.957742e+002, 1.753539e+002
8.962563e+002, 1.763940e+002
8.967384e+002, 1.785197e+002
8.972205e+002, 1.799153e+002
8.977026e+002, 1.804150e+002
8.981848e+002, 1.793755e+002
8.986669e+002, 1.767014e+002
8.991490e+002, 1.744202e+002
8.996311e+002, 1.746078e+002
9.001132e+002, 1.766203e+002
9.005953e+002, 1.780389e+002
9.010775e+002, 1.788086e+002
9.015596e+002, 1.797065e+002
9.020417e+002, 1.810902e+002
9.025238e+002, 1.816807e+002
9.030059e+002, 1.803180e+002
9.034880e+002, 1.780797e+002
9.039702e+002, 1.772273e+002
9.044523e+002, 1.781777e+002
9.049344e+002, 1.788489e+002
9.054165e+002, 1.791701e+002
9.058986e+002, 1.793002e+002
9.063807e+002, 1.790631e+002
9.068629e+002, 1.788163e+002
9.073450e+002, 1.788361e+002
9.078271e+002, 1.791217e+002
9.083092e+002, 1.795885e+002
9.087913e+002, 1.802874e+002
9.092734e+002, 1.810217e+002
9.097556e+002, 1.818152e+002
9.102377e+002, 1.825154e+002
9.107198e+002, 1.831546e+002
9.112019e+002, 1.835483e+002
9.116840e+002, 1.831928e+002
9.121661e+002, 1.820238e+002
9.126483e+002, 1.809182e+002
9.131304e+002, 1.806776e+002
9.136125e+002, 1.808814e+002
9.140946e+002, 1.810011e+002
9.145767e+002, 1.809799e+002
9.150588e+002, 1.803553e+002
9.155410e+002, 1.791735e+002
9.160231e+002, 1.787458e+002
9.165052e+002, 1.799822e+002
9.169873e+002, 1.819857e+002
9.174694e+002, 1.828963e+002
9.179515e+002, 1.826508e+002
9.184337e+002, 1.833051e+002
9.189158e+002, 1.852276e+002
9.193979e+002, 1.863459e+002
9.198800e+002, 1.857304e+002
9.203621e+002, 1.844586e+002
9.208442e+002, 1.834794e+002
9.213264e+002, 1.828309e+002
9.218085e+002, 1.829793e+002
9.222906e+002, 1.851570e+002
9.227727e+002, 1.861089e+002
9.232548e+002, 1.845454e+002
9.237369e+002, 1.830324e+002
9.242191e+002, 1.826990e+002
9.247012e+002, 1.832112e+002
9.251833e+002, 1.841551e+002
9.256654e+002, 1.855032e+002
9.261475e+002, 1.866999e+002
9.266296e+002, 1.875300e+002
9.271118e+002, 1.882229e+002
9.275939e+002, 1.892035e+002
9.280760e+002, 1.898967e+002
9.285581e+002, 1.893413e+002
9.290402e+002, 1.878871e+002
9.295223e+002, 1.868803e+002
9.300045e+002, 1.869510e+002
9.304866e+002, 1.873125e+002
9.309687e+002, 1.871591e+002
9.314508e+002, 1.868900e+002
9.319329e+002, 1.869101e+002
9.324150e+002, 1.873804e+002
9.328972e+002, 1.892255e+002
9.333793e+002, 1.924441e+002
9.338614e+002, 1.946360e+002
9.343435e+002, 1.934917e+002
9.348256e+002, 1.903495e+002
9.353077e+002, 1.881262e+002
9.357899e+002, 1.868541e+002
9.362720e+002, 1.874012e+002
9.367541e+002, 1.900499e+002
9.372362e+002, 1.922298e+002
9.377183e+002, 1.926035e+002
9.382004e+002, 1.920762e+002
9.386826e+002, 1.919725e+002
9.391647e+002, 1.923036e+002
9.396468e+002, 1.925306e+002
9.401289e+002, 1.924459e+002
9.406110e+002, 1.928141e+002
9.410931e+002, 1.944214e+002
9.415753e+002, 1.956604e+002
9.420574e+002, 1.946723e+002
9.425395e+002, 1.925950e+002
9.430216e+002, 1.926531e+002
9.435037e+002, 1.957605e+002
9.439858e+002, 1.982216e+002
9.444680e+002, 2.000193e+002
9.449501e+002, 2.007919e+002
9.454322e+002, 1.997364e+002
9.459143e+002, 1.980719e+002
9.463964e+002, 1.968460e+002
9.468785e+002, 1.961800e+002
9.473607e+002, 1.960344e+002
9.478428e+002, 1.968845e+002
9.483249e+002, 1.971802e+002
9.488070e+002, 1.952127e+002
9.492891e+002, 1.930554e+002
9.497712e+002, 1.928629e+002
9.502534e+002, 1.939669e+002
9.507355e+002, 1.947757e+002
9.512176e+002, 1.948896e+002
9.516997e+002, 1.951104e+002
9.521818e+002, 1.964430e+002
9.526639e+002, 1.976836e+002
9.531461e+002, 1.968136e+002
9.536282e+002, 1.946643e+002
9.541103e+002, 1.930217e+002
9.545924e+002, 1.921396e+002
9.550745e+002, 1.918841e+002
9.555566e+002, 1.921970e+002
9.560388e+002, 1.927579e+002
9.565209e+002, 1.932699e+002
9.570030e+002, 1.936445e+002
9.574851e+002, 1.931002e+002
9.579672e+002, 1.916477e+002
9.584493e+002, 1.915148e+002
9.589315e+002, 1.934102e+002
9.594136e+002, 1.950064e+002
9.598957e+002, 1.945208e+002
9.603778e+002, 1.926742e+002
9.608599e+002, 1.912158e+002
9.613420e+002, 1.900858e+002
9.618242e+002, 1.897962e+002
9.623063e+002, 1.908824e+002
9.627884e+002, 1.914847e+002
9.632705e+002, 1.908750e+002
9.637526e+002, 1.896913e+002
9.642347e+002, 1.883193e+002
9.647169e+002, 1.868715e+002
9.651990e+002, 1.861721e+002
9.656811e+002, 1.866992e+002
9.661632e+002, 1.872574e+002
9.666453e+002, 1.882878e+002
9.671274e+002, 1.888413e+002
9.676096e+002, 1.877880e+002
9.680917e+002, 1.864638e+002
9.685738e+002, 1.870276e+002
9.690559e+002, 1.894433e+002
9.695380e+002, 1.904573e+002
9.700201e+002, 1.877022e+002
9.705023e+002, 1.855407e+002
9.709844e+002, 1.859702e+002
9.714665e+002, 1.871826e+002
9.719486e+002, 1.877035e+002
9.724307e+002, 1.878548e+002
9.729128e+002, 1.888207e+002
9.733950e+002, 1.908717e+002
9.738771e+002, 1.921664e+002
9.743592e+002, 1.908927e+002
9.748413e+002, 1.891289e+002
9.753234e+002, 1.887568e+002
9.758055e+002, 1.890416e+002
9.762877e+002, 1.887244e+002
9.767698e+002, 1.879189e+002
9.772519e+002, 1.877575e+002
9.777340e+002, 1.887923e+002
9.782161e+002, 1.899573e+002
9.786982e+002, 1.901501e+002
9.791804e+002, 1.896563e+002
9.796625e+002, 1.887039e+002
9.801446e+002, 1.875464e+002
9.806267e+002, 1.868989e+002
9.811088e+002, 1.869444e+002
9.815909e+002, 1.878908e+002
9.820731e+002, 1.900432e+002
9.825552e+002, 1.922149e+002
9.830373e+002, 1.917086e+002
9.835194e+002, 1.890570e+002
9.840015e+002, 1.883913e+002
9.844836e+002, 1.898262e+002
9.849658e+002, 1.911449e+002
9.854479e+002, 1.917165e+002
9.859300e+002, 1.912812e+002
9.864121e+002, 1.893694e+002
9.868942e+002, 1.866164e+002
9.873763e+002, 1.855222e+002
9.878585e+002, 1.864450e+002
9.883406e+002, 1.865395e+002
9.888227e+002, 1.852701e+002
9.893048e+002, 1.845557e+002
9.897869e+002, 1.853481e+002
9.902690e+002, 1.867504e+002
9.907512e+002, 1.877819e+002
9.912333e+002, 1.884502e+002
9.917154e+002, 1.888258e+002
9.921975e+002, 1.888661e+002
9.926796e+002, 1.886654e+002
9.931617e+002, 1.876565e+002
9.936439e+002, 1.872130e+002
9.941260e+002, 1.887300e+002
9.946081e+002, 1.907544e+002
9.950902e+002, 1.909961e+002
9.955723e+002, 1.893758e+002
9.960544e+002, 1.884039e+002
9.965366e+002, 1.882755e+002
9.970187e+002, 1.886534e+002
9.975008e+002, 1.902809e+002
9.979829e+002, 1.915901e+002
9.984650e+002, 1.912188e+002
9.989471e+002, 1.900484e+002
9.994293e+002, 1.895491e+002
9.999114e+002, 1.899208e+002
1.000393e+003, 1.907700e+002
1.000876e+003, 1.929700e+002
1.001358e+003, 1.943745e+002
1.001840e+003, 1.933868e+002
1.002322e+003, 1.917971e+002
1.002804e+003, 1.911926e+002
1.003286e+003, 1.913197e+002
1.003768e+003, 1.911925e+002
1.004250e+003, 1.905212e+002
1.004733e+003, 1.900147e+002
1.005215e+003, 1.901913e+002
1.005697e+003, 1.905267e+002
1.006179e+003, 1.907821e+002
1.006661e+003, 1.908649e+002
1.007143e+003, 1.903950e+002
1.007625e+003, 1.896554e+002
1.008107e+003, 1.896601e+002
1.008589e+003, 1.908972e+002
1.009072e+003, 1.920549e+002
1.009554e+003, 1.917492e+002
1.010036e+003, 1.909913e+002
1.010518e+003, 1.912310e+002
1.011000e+003, 1.918651e+002
1.011482e+003, 1.915010e+002
1.011964e+003, 1.901076e+002
1.012446e+003, 1.886022e+002
1.012929e+003, 1.873962e+002
1.013411e+003, 1.870456e+002
1.013893e+003, 1.887460e+002
1.014375e+003, 1.915123e+002
1.014857e+003, 1.938603e+002
1.015339e+003, 1.954636e+002
1.015821e+003, 1.949274e+002
1.016303e+003, 1.922752e+002
1.016785e+003, 1.902637e+002
1.017268e+003, 1.908846e+002
1.017750e+003, 1.924330e+002
1.018232e+003, 1.919646e+002
1.018714e+003, 1.900068e+002
1.019196e+003, 1.885620e+002
1.019678e+003, 1.877250e+002
1.020160e+003, 1.876519e+002
1.020642e+003, 1.883852e+002
1.021125e+003, 1.897203e+002
1.021607e+003, 1.916073e+002
1.022089e+003, 1.935958e+002
1.022571e+003, 1.947582e+002
1.023053e+003, 1.950987e+002
1.023535e+003, 1.942330e+002
1.024017e+003, 1.920701e+002
1.024499e+003, 1.906481e+002
1.024981e+003, 1.906050e+002
1.025464e+003, 1.915626e+002
1.025946e+003, 1.933750e+002
1.026428e+003, 1.955681e+002
1.026910e+003, 1.965253e+002
1.027392e+003, 1.960862e+002
1.027874e+003, 1.959657e+002
1.028356e+003, 1.962890e+002
1.028838e+003, 1.966302e+002
1.029321e+003, 1.969156e+002
1.029803e+003, 1.968914e+002
1.030285e+003, 1.960881e+002
1.030767e+003, 1.949074e+002
1.031249e+003, 1.953843e+002
1.031731e+003, 1.983678e+002
1.032213e+003, 1.996700e+002
1.032695e+003, 1.986572e+002
1.033177e+003, 1.971949e+002
1.033660e+003, 1.954839e+002
1.034142e+003, 1.943786e+002
1.034624e+003, 1.948375e+002
1.035106e+003, 1.966915e+002
1.035588e+003, 1.989897e+002
1.036070e+003, 2.026866e+002
1.036552e+003, 2.044249e+002
1.037034e+003, 2.027956e+002
1.037516e+003, 2.015233e+002
1.037999e+003, 2.020396e+002
1.038481e+003, 2.035043e+002
1.038963e+003, 2.054411e+002
1.039445e+003, 2.076535e+002
1.039927e+003, 2.085883e+002
1.040409e+003, 2.072406e+002
1.040891e+003, 2.063933e+002
1.041373e+003, 2.066165e+002
1.041855e+003, 2.066332e+002
1.042338e+003, 2.051831e+002
1.042820e+003, 2.038840e+002
1.043302e+003, 2.048795e+002
1.043784e+003, 2.077734e+002
1.044266e+003, 2.094988e+002
1.044748e+003, 2.096518e+002
1.045230e+003, 2.091582e+002
1.045712e+003, 2.069753e+002
1.046195e+003, 2.054614e+002
1.046677e+003, 2.060925e+002
1.047159e+003, 2.074709e+002
1.047641e+003, 2.086943e+002
1.048123e+003, 2.094356e+002
1.048605e+003, 2.080370e+002
1.049087e+003, 2.025534e+002
1.049569e+003, 1.981312e+002
1.050052e+003, 1.951977e+002
1.050534e+003, 1.938419e+002
1.051016e+003, 1.952901e+002
1.051498e+003, 1.975141e+002
1.051980e+003, 1.984524e+002
1.052462e+003, 1.980612e+002
1.052944e+003, 1.970572e+002
1.053426e+003, 1.947619e+002
1.053908e+003, 1.934969e+002
1.054391e+003, 1.947574e+002
1.054873e+003, 1.960513e+002
1.055355e+003, 1.956450e+002
1.055837e+003, 1.949231e+002
1.056319e+003, 1.957541e+002
1.056801e+003, 1.979103e+002
1.057283e+003, 1.995568e+002
1.057765e+003, 2.003707e+002
1.058248e+003, 2.003882e+002
1.058730e+003, 1.989403e+002
1.059212e+003, 1.974739e+002
1.059694e+003, 1.967636e+002
1.060176e+003, 1.964965e+002
1.060658e+003, 1.963630e+002
1.061140e+003, 1.962851e+002
1.061622e+003, 1.961590e+002
1.062104e+003, 1.959362e+002
1.062587e+003, 1.957243e+002
1.063069e+003, 1.954092e+002
1.063551e+003, 1.952899e+002
1.064033e+003, 1.957141e+002
1.064515e+003, 1.963084e+002
1.064997e+003, 1.967959e+002
1.065479e+003, 1.970475e+002
1.065961e+003, 1.966895e+002
1.066443e+003, 1.952713e+002
1.066926e+003, 1.944867e+002
1.067408e+003, 1.954688e+002
1.067890e+003, 1.967771e+002
1.068372e+003, 1.979408e+002
1.068854e+003, 1.986828e+002
1.069336e+003, 1.983990e+002
1.069818e+003, 1.974690e+002
1.070300e+003, 1.972013e+002
1.070782e+003, 1.981306e+002
1.071265e+003, 1.989383e+002
1.071747e+003, 1.988233e+002
1.072229e+003, 1.986711e+002
1.072711e+003, 1.997567e+002
1.073193e+003, 2.005281e+002
1.073675e+003, 1.981768e+002
1.074157e+003, 1.941197e+002
1.074639e+003, 1.928284e+002
1.075122e+003, 1.958647e+002
1.075604e+003, 1.992042e+002
1.076086e+003, 2.016850e+002
1.076568e+003, 2.031355e+002
1.077050e+003, 2.029812e+002
1.077532e+003, 2.021246e+002
1.078014e+003, 2.011970e+002
1.078496e+003, 2.004230e+002
1.078979e+003, 2.000979e+002
1.079461e+003, 2.003143e+002
1.079943e+003, 2.006043e+002
1.080425e+003, 2.009496e+002
1.080907e+003, 2.010716e+002
1.081389e+003, 2.000647e+002
1.081871e+003, 1.994026e+002
1.082353e+003, 2.015386e+002
1.082835e+003, 2.048273e+002
1.083318e+003, 2.052766e+002
1.083800e+003, 2.020326e+002
1.084282e+003, 1.992755e+002
1.084764e+003, 1.988475e+002
1.085246e+003, 1.992899e+002
1.085728e+003, 2.003574e+002
1.086210e+003, 2.015388e+002
1.086692e+003, 2.025947e+002
1.087175e+003, 2.033623e+002
1.087657e+003, 2.037649e+002
1.088139e+003, 2.037401e+002
1.088621e+003, 2.027677e+002
1.089103e+003, 1.990498e+002
1.089585e+003, 1.965743e+002
1.090067e+003, 1.982163e+002
1.090549e+003, 2.006082e+002
1.091031e+003, 2.016917e+002
1.091514e+003, 2.015071e+002
1.091996e+003, 1.998570e+002
1.092478e+003, 1.970678e+002
1.092960e+003, 1.953115e+002
1.093442e+003, 1.954681e+002
1.093924e+003, 1.964619e+002
1.094406e+003, 1.991324e+002
1.094888e+003, 2.011754e+002
1.095370e+003, 2.002879e+002
1.095853e+003, 1.984030e+002
1.096335e+003, 1.980296e+002
1.096817e+003, 1.991803e+002
1.097299e+003, 2.004112e+002
1.097781e+003, 2.015959e+002
1.098263e+003, 2.021873e+002
1.098745e+003, 2.017659e+002
1.099227e+003, 2.010023e+002
1.099709e+003, 1.999680e+002
1.100192e+003, 1.989849e+002
1.100674e+003, 1.981256e+002
1.101156e+003, 1.976078e+002
1.101638e+003, 1.982538e+002
1.102120e+003, 2.008215e+002
1.102602e+003, 2.022298e+002
1.103084e+003, 2.007667e+002
1.103566e+003, 1.992449e+002
1.104049e+003, 1.980548e+002
1.104531e+003, 1.979021e+002
1.105013e+003, 2.005785e+002
1.105495e+003, 2.044373e+002
1.105977e+003, 2.053707e+002
1.106459e+003, 2.023734e+002
1.106941e+003, 2.000395e+002
1.107423e+003, 1.990148e+002
1.107906e+003, 1.988980e+002
1.108388e+003, 2.006304e+002
1.108870e+003, 2.021763e+002
1.109352e+003, 2.017702e+002
1.109834e+003, 2.004637e+002
1.110316e+003, 2.001632e+002
1.110798e+003, 2.010228e+002
1.111280e+003, 2.017798e+002
1.111762e+003, 2.028071e+002
1.112245e+003, 2.030221e+002
1.112727e+003, 2.018786e+002
1.113209e+003, 2.003752e+002
1.113691e+003, 1.985454e+002
1.114173e+003, 1.969110e+002
1.114655e+003, 1.959910e+002
1.115137e+003, 1.958046e+002
1.115619e+003, 1.966339e+002
1.116102e+003, 1.997230e+002
1.116584e+003, 2.016078e+002
1.117066e+003, 2.016840e+002
1.117548e+003, 2.013812e+002
1.118030e+003, 2.012532e+002
1.118512e+003, 2.008447e+002
1.118994e+003, 1.993102e+002
1.119476e+003, 1.971850e+002
1.119958e+003, 1.967352e+002
1.120441e+003, 1.987004e+002
1.120923e+003, 1.999923e+002
1.121405e+003, 2.004812e+002
1.121887e+003, 2.005233e+002
1.122369e+003, 1.999312e+002
1.122851e+003, 1.994393e+002
1.123333e+003, 1.996937e+002
1.123815e+003, 2.003068e+002
1.124297e+003, 2.002989e+002
1.124780e+003, 1.995332e+002
1.125262e+003, 2.002021e+002
1.125744e+003, 2.032400e+002
1.126226e+003, 2.038516e+002
1.126708e+003, 2.002584e+002
1.127190e+003, 1.974932e+002
1.127672e+003, 1.986549e+002
1.128154e+003, 2.013241e+002
1.128636e+003, 2.020106e+002
1.129119e+003, 2.009238e+002
1.129601e+003, 1.997099e+002
1.130083e+003, 1.983097e+002
1.130565e+003, 1.972228e+002
1.131047e+003, 1.964185e+002
1.131529e+003, 1.970161e+002
1.132011e+003, 1.997234e+002
1.132493e+003, 2.021101e+002
1.132976e+003, 2.016215e+002
1.133458e+003, 1.991209e+002
1.133940e+003, 1.966191e+002
1.134422e+003, 1.942453e+002
1.134904e+003, 1.942705e+002
1.135386e+003, 1.966292e+002
1.135868e+003, 1.977632e+002
1.136350e+003, 1.967311e+002
1.136833e+003, 1.956009e+002
1.137315e+003, 1.959026e+002
1.137797e+003, 1.964844e+002
1.138279e+003, 1.946302e+002
1.138761e+003, 1.916027e+002
1.139243e+003, 1.924622e+002
1.139725e+003, 1.962270e+002
1.140207e+003, 1.988668e+002
1.140689e+003, 1.996704e+002
1.141172e+003, 1.990142e+002
1.141654e+003, 1.971016e+002
1.142136e+003, 1.949990e+002
1.142618e+003, 1.935032e+002
1.143100e+003, 1.929285e+002
1.143582e+003, 1.946780e+002
1.144064e+003, 1.973817e+002
1.144546e+003, 1.978840e+002
1.145029e+003, 1.966316e+002
1.145511e+003, 1.957501e+002
1.145993e+003, 1.959632e+002
1.146475e+003, 1.973597e+002
1.146957e+003, 2.005826e+002
1.147439e+003, 2.035023e+002
1.147921e+003, 2.040753e+002
1.148403e+003, 2.031127e+002
1.148885e+003, 2.004075e+002
1.149368e+003, 1.974754e+002
1.149850e+003, 1.970260e+002
1.150332e+003, 1.989682e+002
1.150814e+003, 2.012655e+002
1.151296e+003, 2.033306e+002
1.151778e+003, 2.041069e+002
1.152260e+003, 2.020617e+002
1.152742e+003, 1.995493e+002
1.153224e+003, 1.972995e+002
1.153707e+003, 1.961102e+002
1.154189e+003, 1.977762e+002
1.154671e+003, 2.008360e+002
1.155153e+003, 2.016907e+002
1.155635e+003, 1.995916e+002
1.156117e+003, 1.982513e+002
1.156599e+003, 1.997768e+002
1.157081e+003, 2.008941e+002
1.157563e+003, 1.999749e+002
1.158046e+003, 1.990115e+002
1.158528e+003, 1.994970e+002
1.159010e+003, 2.005161e+002
1.159492e+003, 2.007576e+002
1.159974e+003, 2.002566e+002
1.160456e+003, 1.999660e+002
1.160938e+003, 1.999958e+002
1.161420e+003, 2.001684e+002
1.161903e+003, 2.006874e+002
1.162385e+003, 2.010486e+002
1.162867e+003, 2.011470e+002
1.163349e+003, 2.009784e+002
1.163831e+003, 2.002485e+002
1.164313e+003, 1.994091e+002
1.164795e+003, 1.995964e+002
1.165277e+003, 2.009084e+002
1.165760e+003, 2.025862e+002
1.166242e+003, 2.051635e+002
1.166724e+003, 2.062825e+002
1.167206e+003, 2.052162e+002
1.167688e+003, 2.037840e+002
1.168170e+003, 2.028086e+002
1.168652e+003, 2.022330e+002
1.169134e+003, 2.020306e+002
1.169616e+003, 2.021284e+002
1.170099e+003, 2.021052e+002
1.170581e+003, 2.019542e+002
1.171063e+003, 2.026265e+002
1.171545e+003, 2.041923e+002
1.172027e+003, 2.046165e+002
1.172509e+003, 2.032613e+002
1.172991e+003, 2.020291e+002
1.173473e+003, 2.024097e+002
1.173956e+003, 2.035093e+002
1.174438e+003, 2.039288e+002
1.174920e+003, 2.037668e+002
1.175402e+003, 2.032105e+002
1.175884e+003, 2.023646e+002
1.176366e+003, 2.013743e+002
1.176848e+003, 2.004251e+002
1.177330e+003, 2.003840e+002
1.177813e+003, 2.015723e+002
1.178295e+003, 2.026424e+002
1.178777e+003, 2.018733e+002
1.179259e+003, 2.011494e+002
1.179741e+003, 2.036711e+002
1.180223e+003, 2.071257e+002
1.180705e+003, 2.083581e+002
1.181187e+003, 2.077140e+002
1.181669e+003, 2.060256e+002
1.182151e+003, 2.038151e+002
1.182634e+003, 2.022598e+002
1.183116e+003, 2.020405e+002
1.183598e+003, 2.020149e+002
1.184080e+003, 2.014124e+002
1.184562e+003, 2.009024e+002
1.185044e+003, 2.007437e+002
1.185526e+003, 2.010614e+002
1.186008e+003, 2.021752e+002
1.186490e+003, 2.037960e+002
1.186973e+003, 2.054096e+002
1.187455e+003, 2.069629e+002
1.187937e+003, 2.078103e+002
1.188419e+003, 2.075623e+002
1.188901e+003, 2.069944e+002
1.189383e+003, 2.055039e+002
1.189865e+003, 2.046055e+002
1.190347e+003, 2.056235e+002
1.190830e+003, 2.071847e+002
1.191312e+003, 2.078090e+002
1.191794e+003, 2.076905e+002
1.192276e+003, 2.078167e+002
1.192758e+003, 2.083554e+002
1.193240e+003, 2.086265e+002
1.193722e+003, 2.088174e+002
1.194204e+003, 2.080432e+002
1.194687e+003, 2.057517e+002
1.195169e+003, 2.035397e+002
1.195651e+003, 2.023332e+002
1.196133e+003, 2.020435e+002
1.196615e+003, 2.027730e+002
1.197097e+003, 2.041877e+002
1.197579e+003, 2.040212e+002
1.198061e+003, 2.023765e+002
1.198543e+003, 2.011854e+002
1.199026e+003, 2.006429e+002
1.199508e+003, 2.007548e+002
1.199990e+003, 2.015114e+002
1.200472e+003, 2.028597e+002
1.200954e+003, 2.048878e+002
1.201436e+003, 2.067994e+002
1.201918e+003, 2.076902e+002
1.202400e+003, 2.074266e+002
1.202883e+003, 2.044737e+002
1.203365e+003, 2.006054e+002
1.203847e+003, 2.004763e+002
1.204329e+003, 2.035791e+002
1.204811e+003, 2.057715e+002
1.205293e+003, 2.055179e+002
1.205775e+003, 2.043786e+002
1.206257e+003, 2.026230e+002
1.206740e+003, 2.014718e+002
1.207222e+003, 2.021728e+002
1.207704e+003, 2.035256e+002
1.208186e+003, 2.050750e+002
1.208668e+003, 2.061592e+002
1.209150e+003, 2.053088e+002
1.209632e+003, 2.030745e+002
1.210114e+003, 2.026811e+002
1.210596e+003, 2.057462e+002
1.211078e+003, 2.076523e+002
1.211561e+003, 2.065479e+002
1.212043e+003, 2.054787e+002
1.212525e+003, 2.051539e+002
1.213007e+003, 2.053889e+002
1.213489e+003, 2.065818e+002
1.213971e+003, 2.078514e+002
1.214453e+003, 2.077521e+002
1.214935e+003, 2.063555e+002
1.215417e+003, 2.049182e+002
1.215900e+003, 2.031935e+002
1.216382e+003, 2.023508e+002
1.216864e+003, 2.024646e+002
1.217346e+003, 2.036247e+002
1.217828e+003, 2.061139e+002
1.218310e+003, 2.082763e+002
1.218792e+003, 2.088034e+002
1.219274e+003, 2.084915e+002
1.219757e+003, 2.090048e+002
1.220239e+003, 2.099528e+002
1.220721e+003, 2.089198e+002
1.221203e+003, 2.065153e+002
1.221685e+003, 2.059110e+002
1.222167e+003, 2.072306e+002
1.222649e+003, 2.091091e+002
1.223131e+003, 2.108914e+002
1.223614e+003, 2.111656e+002
1.224096e+003, 2.082169e+002
1.224578e+003, 2.053098e+002
1.225060e+003, 2.065642e+002
1.225542e+003, 2.094095e+002
1.226024e+003, 2.115962e+002
1.226506e+003, 2.127163e+002
1.226988e+003, 2.116180e+002
1.227470e+003, 2.092386e+002
1.227953e+003, 2.085544e+002
1.228435e+003, 2.104664e+002
1.228917e+003, 2.117300e+002
1.229399e+003, 2.103490e+002
1.229881e+003, 2.092005e+002
1.230363e+003, 2.097275e+002
1.230845e+003, 2.101763e+002
1.231327e+003, 2.094422e+002
1.231810e+003, 2.081226e+002
1.232292e+003, 2.067048e+002
1.232774e+003, 2.053425e+002
1.233256e+003, 2.046549e+002
1.233738e+003, 2.048271e+002
1.234220e+003, 2.048323e+002
1.234702e+003, 2.044488e+002
1.235184e+003, 2.047221e+002
1.235667e+003, 2.060814e+002
1.236149e+003, 2.070840e+002
1.236631e+003, 2.068508e+002
1.237113e+003, 2.065700e+002
1.237595e+003, 2.077795e+002
1.238077e+003, 2.098478e+002
1.238559e+003, 2.109464e+002
1.239041e+003, 2.111963e+002
1.239523e+003, 2.112759e+002
1.240005e+003, 2.111333e+002
1.240488e+003, 2.100981e+002
1.240970e+003, 2.082459e+002
1.241452e+003, 2.066448e+002
1.241934e+003, 2.058054e+002
1.242416e+003, 2.060432e+002
1.242898e+003, 2.083196e+002
1.243380e+003, 2.110305e+002
1.243862e+003, 2.130403e+002
1.244344e+003, 2.142007e+002
1.244827e+003, 2.142563e+002
1.245309e+003, 2.134079e+002
1.245791e+003, 2.112757e+002
1.246273e+003, 2.084544e+002
1.246755e+003, 2.077634e+002
1.247237e+003, 2.108150e+002
1.247719e+003, 2.128821e+002
1.248201e+003, 2.120454e+002
1.248684e+003, 2.112984e+002
1.249166e+003, 2.122209e+002
1.249648e+003, 2.125865e+002
1.250130e+003, 2.100971e+002
1.250612e+003, 2.074501e+002
1.251094e+003, 2.087843e+002
1.251576e+003, 2.131940e+002
1.252058e+003, 2.145692e+002
1.252541e+003, 2.123744e+002
1.253023e+003, 2.111228e+002
1.253505e+003, 2.110337e+002
1.253987e+003, 2.105323e+002
1.254469e+003, 2.092385e+002
1.254951e+003, 2.079905e+002
1.255433e+003, 2.072568e+002
1.255915e+003, 2.069997e+002
1.256397e+003, 2.070304e+002
1.256880e+003, 2.077099e+002
1.257362e+003, 2.112637e+002
1.257844e+003, 2.151531e+002
1.258326e+003, 2.126637e+002
1.258808e+003, 2.066653e+002
1.259290e+003, 2.050213e+002
1.259772e+003, 2.083189e+002
1.260254e+003, 2.115816e+002
1.260737e+003, 2.128884e+002
1.261219e+003, 2.132672e+002
1.261701e+003, 2.132577e+002
1.262183e+003, 2.124579e+002
1.262665e+003, 2.092449e+002
1.263147e+003, 2.066772e+002
1.263629e+003, 2.077362e+002
1.264111e+003, 2.103206e+002
1.264594e+003, 2.114688e+002
1.265076e+003, 2.112999e+002
1.265558e+003, 2.110552e+002
1.266040e+003, 2.104826e+002
1.266522e+003, 2.109162e+002
1.267004e+003, 2.129637e+002
1.267486e+003, 2.137062e+002
1.267968e+003, 2.122752e+002
1.268450e+003, 2.109934e+002
1.268932e+003, 2.110271e+002
1.269415e+003, 2.119115e+002
1.269897e+003, 2.133831e+002
1.270379e+003, 2.147371e+002
1.270861e+003, 2.138045e+002
1.271343e+003, 2.115020e+002
1.271825e+003, 2.105154e+002
1.272307e+003, 2.106839e+002
1.272789e+003, 2.113433e+002
1.273271e+003, 2.122290e+002
1.273754e+003, 2.130273e+002
1.274236e+003, 2.136178e+002
1.274718e+003, 2.139445e+002
1.275200e+003, 2.134275e+002
1.275682e+003, 2.134597e+002
1.276164e+003, 2.157626e+002
1.276646e+003, 2.179147e+002
1.277128e+003, 2.182182e+002
1.277611e+003, 2.173665e+002
1.278093e+003, 2.156658e+002
1.278575e+003, 2.136436e+002
1.279057e+003, 2.130220e+002
1.279539e+003, 2.141644e+002
1.280021e+003, 2.139431e+002
1.280503e+003, 2.111334e+002
1.280985e+003, 2.106110e+002
1.281468e+003, 2.137591e+002
1.281950e+003, 2.158928e+002
1.282432e+003, 2.150715e+002
1.282914e+003, 2.140581e+002
1.283396e+003, 2.152835e+002
1.283878e+003, 2.171832e+002
1.284360e+003, 2.164639e+002
1.284842e+003, 2.141334e+002
1.285324e+003, 2.130722e+002
##END=



