##NAMES=Petersenite-(Ce)
##RRUFFID=R120035
##IDEAL CHEMISTRY=Na_4_Ce_2_(CO_3_)_5_
##LOCALITY=Mont Saint-Hilaire, Rouville RCM, Montérégie, Québec, Canada
##OWNER=RRUFF
##SOURCE=Donald Doell
##DESCRIPTION=Pale yellow or pink (depending on light source) hexagonal prismatic crystals, associated with albite and aegirine.
##STATUS=The identification of this mineral has been confirmed only by single crystal X-ray diffraction.
##URL=rruff.info/R120035
##MEASURED CHEMISTRY=(Na_2.47_Ca_0.49_Ba_0.20_Sr_0.19_K_0.03_)_Σ=3.38_(Ce_0.91_La_0.43_Nd_0.26_Pr_0.10_)_Σ=1.70_(CO_3_)_5_
9.001007e+001, 0.000000e+000
9.049219e+001, 2.741011e+001
9.097430e+001, 2.772176e+001
9.145642e+001, 2.761614e+001
9.193854e+001, 2.713522e+001
9.242065e+001, 2.662914e+001
9.290277e+001, 2.644669e+001
9.338489e+001, 2.645503e+001
9.386700e+001, 2.633765e+001
9.434912e+001, 2.583997e+001
9.483124e+001, 2.519097e+001
9.531335e+001, 2.495477e+001
9.579547e+001, 2.518102e+001
9.627759e+001, 2.545763e+001
9.675970e+001, 2.521630e+001
9.724182e+001, 2.449954e+001
9.772394e+001, 2.388711e+001
9.820605e+001, 2.369293e+001
9.868817e+001, 2.387775e+001
9.917029e+001, 2.394812e+001
9.965240e+001, 2.386761e+001
1.001345e+002, 2.372157e+001
1.006166e+002, 2.370850e+001
1.010988e+002, 2.387384e+001
1.015809e+002, 2.397237e+001
1.020630e+002, 2.381114e+001
1.025451e+002, 2.329672e+001
1.030272e+002, 2.299882e+001
1.035093e+002, 2.302406e+001
1.039915e+002, 2.328400e+001
1.044736e+002, 2.340963e+001
1.049557e+002, 2.336914e+001
1.054378e+002, 2.323783e+001
1.059199e+002, 2.306215e+001
1.064020e+002, 2.282489e+001
1.068842e+002, 2.257113e+001
1.073663e+002, 2.229242e+001
1.078484e+002, 2.199046e+001
1.083305e+002, 2.171262e+001
1.088126e+002, 2.138435e+001
1.092947e+002, 2.112503e+001
1.097769e+002, 2.104597e+001
1.102590e+002, 2.141845e+001
1.107411e+002, 2.169625e+001
1.112232e+002, 2.178546e+001
1.117053e+002, 2.166569e+001
1.121874e+002, 2.144433e+001
1.126696e+002, 2.102972e+001
1.131517e+002, 2.054120e+001
1.136338e+002, 2.013348e+001
1.141159e+002, 1.987996e+001
1.145980e+002, 1.967082e+001
1.150801e+002, 1.945146e+001
1.155623e+002, 1.917313e+001
1.160444e+002, 1.899353e+001
1.165265e+002, 1.898713e+001
1.170086e+002, 1.910922e+001
1.174907e+002, 1.926695e+001
1.179728e+002, 1.952835e+001
1.184550e+002, 1.975402e+001
1.189371e+002, 1.987796e+001
1.194192e+002, 1.998779e+001
1.199013e+002, 1.983768e+001
1.203834e+002, 1.899162e+001
1.208655e+002, 1.766601e+001
1.213477e+002, 1.670398e+001
1.218298e+002, 1.680326e+001
1.223119e+002, 1.743318e+001
1.227940e+002, 1.805108e+001
1.232761e+002, 1.861656e+001
1.237582e+002, 1.899864e+001
1.242404e+002, 1.900634e+001
1.247225e+002, 1.866316e+001
1.252046e+002, 1.825813e+001
1.256867e+002, 1.796001e+001
1.261688e+002, 1.775955e+001
1.266509e+002, 1.764348e+001
1.271331e+002, 1.764373e+001
1.276152e+002, 1.771268e+001
1.280973e+002, 1.781935e+001
1.285794e+002, 1.797246e+001
1.290615e+002, 1.805756e+001
1.295436e+002, 1.792775e+001
1.300258e+002, 1.761388e+001
1.305079e+002, 1.725766e+001
1.309900e+002, 1.682206e+001
1.314721e+002, 1.638482e+001
1.319542e+002, 1.622219e+001
1.324363e+002, 1.639577e+001
1.329185e+002, 1.667867e+001
1.334006e+002, 1.672775e+001
1.338827e+002, 1.654270e+001
1.343648e+002, 1.631835e+001
1.348469e+002, 1.611908e+001
1.353290e+002, 1.594972e+001
1.358112e+002, 1.588497e+001
1.362933e+002, 1.594059e+001
1.367754e+002, 1.609133e+001
1.372575e+002, 1.631803e+001
1.377396e+002, 1.665107e+001
1.382217e+002, 1.692744e+001
1.387039e+002, 1.705939e+001
1.391860e+002, 1.704372e+001
1.396681e+002, 1.686919e+001
1.401502e+002, 1.642520e+001
1.406323e+002, 1.583785e+001
1.411144e+002, 1.573784e+001
1.415966e+002, 1.639370e+001
1.420787e+002, 1.702336e+001
1.425608e+002, 1.691310e+001
1.430429e+002, 1.565779e+001
1.435250e+002, 1.482470e+001
1.440071e+002, 1.477453e+001
1.444893e+002, 1.546914e+001
1.449714e+002, 1.592263e+001
1.454535e+002, 1.602166e+001
1.459356e+002, 1.598599e+001
1.464177e+002, 1.602326e+001
1.468998e+002, 1.622681e+001
1.473820e+002, 1.635964e+001
1.478641e+002, 1.640062e+001
1.483462e+002, 1.636102e+001
1.488283e+002, 1.613444e+001
1.493104e+002, 1.549827e+001
1.497925e+002, 1.477847e+001
1.502747e+002, 1.433841e+001
1.507568e+002, 1.412211e+001
1.512389e+002, 1.425119e+001
1.517210e+002, 1.493757e+001
1.522031e+002, 1.657116e+001
1.526852e+002, 1.751169e+001
1.531674e+002, 1.722225e+001
1.536495e+002, 1.634349e+001
1.541316e+002, 1.580360e+001
1.546137e+002, 1.572829e+001
1.550958e+002, 1.595251e+001
1.555779e+002, 1.648958e+001
1.560601e+002, 1.753569e+001
1.565422e+002, 1.842936e+001
1.570243e+002, 1.891526e+001
1.575064e+002, 1.918892e+001
1.579885e+002, 1.962898e+001
1.584706e+002, 2.029623e+001
1.589528e+002, 2.116323e+001
1.594349e+002, 2.225577e+001
1.599170e+002, 2.377470e+001
1.603991e+002, 2.516829e+001
1.608812e+002, 2.601502e+001
1.613633e+002, 2.658588e+001
1.618455e+002, 2.759220e+001
1.623276e+002, 2.934320e+001
1.628097e+002, 3.156112e+001
1.632918e+002, 3.413988e+001
1.637739e+002, 3.726616e+001
1.642560e+002, 4.043182e+001
1.647382e+002, 4.323603e+001
1.652203e+002, 4.583577e+001
1.657024e+002, 4.883165e+001
1.661845e+002, 5.277481e+001
1.666666e+002, 5.714175e+001
1.671487e+002, 6.140533e+001
1.676309e+002, 6.520359e+001
1.681130e+002, 6.915292e+001
1.685951e+002, 7.370305e+001
1.690772e+002, 7.878340e+001
1.695593e+002, 8.385489e+001
1.700414e+002, 8.868381e+001
1.705236e+002, 9.331834e+001
1.710057e+002, 9.775149e+001
1.714878e+002, 1.019843e+002
1.719699e+002, 1.060809e+002
1.724520e+002, 1.100680e+002
1.729341e+002, 1.139570e+002
1.734163e+002, 1.176578e+002
1.738984e+002, 1.211739e+002
1.743805e+002, 1.244775e+002
1.748626e+002, 1.274216e+002
1.753447e+002, 1.296370e+002
1.758268e+002, 1.316935e+002
1.763090e+002, 1.344229e+002
1.767911e+002, 1.378096e+002
1.772732e+002, 1.410096e+002
1.777553e+002, 1.425317e+002
1.782374e+002, 1.426463e+002
1.787195e+002, 1.426472e+002
1.792017e+002, 1.428557e+002
1.796838e+002, 1.433680e+002
1.801659e+002, 1.443297e+002
1.806480e+002, 1.457471e+002
1.811301e+002, 1.475473e+002
1.816122e+002, 1.498873e+002
1.820944e+002, 1.526299e+002
1.825765e+002, 1.552600e+002
1.830586e+002, 1.575912e+002
1.835407e+002, 1.596624e+002
1.840228e+002, 1.616131e+002
1.845049e+002, 1.634095e+002
1.849871e+002, 1.652189e+002
1.854692e+002, 1.672198e+002
1.859513e+002, 1.694004e+002
1.864334e+002, 1.715975e+002
1.869155e+002, 1.737844e+002
1.873976e+002, 1.759430e+002
1.878798e+002, 1.780768e+002
1.883619e+002, 1.801992e+002
1.888440e+002, 1.822200e+002
1.893261e+002, 1.839475e+002
1.898082e+002, 1.854100e+002
1.902903e+002, 1.867634e+002
1.907725e+002, 1.881228e+002
1.912546e+002, 1.894734e+002
1.917367e+002, 1.905895e+002
1.922188e+002, 1.914387e+002
1.927009e+002, 1.921349e+002
1.931830e+002, 1.927175e+002
1.936652e+002, 1.931784e+002
1.941473e+002, 1.939209e+002
1.946294e+002, 1.953517e+002
1.951115e+002, 1.973953e+002
1.955936e+002, 1.990894e+002
1.960757e+002, 2.003659e+002
1.965579e+002, 2.013035e+002
1.970400e+002, 2.019500e+002
1.975221e+002, 2.022746e+002
1.980042e+002, 2.026388e+002
1.984863e+002, 2.031919e+002
1.989684e+002, 2.039301e+002
1.994506e+002, 2.049842e+002
1.999327e+002, 2.063775e+002
2.004148e+002, 2.080513e+002
2.008969e+002, 2.100085e+002
2.013790e+002, 2.123722e+002
2.018611e+002, 2.144747e+002
2.023433e+002, 2.157027e+002
2.028254e+002, 2.159324e+002
2.033075e+002, 2.168621e+002
2.037896e+002, 2.188040e+002
2.042717e+002, 2.213337e+002
2.047538e+002, 2.234315e+002
2.052360e+002, 2.251043e+002
2.057181e+002, 2.263222e+002
2.062002e+002, 2.267668e+002
2.066823e+002, 2.261719e+002
2.071644e+002, 2.265777e+002
2.076465e+002, 2.284157e+002
2.081287e+002, 2.311952e+002
2.086108e+002, 2.336081e+002
2.090929e+002, 2.356984e+002
2.095750e+002, 2.373105e+002
2.100571e+002, 2.381147e+002
2.105392e+002, 2.378132e+002
2.110214e+002, 2.381780e+002
2.115035e+002, 2.395744e+002
2.119856e+002, 2.416686e+002
2.124677e+002, 2.433313e+002
2.129498e+002, 2.444478e+002
2.134319e+002, 2.454156e+002
2.139140e+002, 2.465052e+002
2.143962e+002, 2.477939e+002
2.148783e+002, 2.489411e+002
2.153604e+002, 2.498571e+002
2.158425e+002, 2.506203e+002
2.163246e+002, 2.514996e+002
2.168067e+002, 2.525224e+002
2.172889e+002, 2.536175e+002
2.177710e+002, 2.547504e+002
2.182531e+002, 2.559176e+002
2.187352e+002, 2.571235e+002
2.192173e+002, 2.583409e+002
2.196994e+002, 2.596067e+002
2.201816e+002, 2.610739e+002
2.206637e+002, 2.629073e+002
2.211458e+002, 2.646842e+002
2.216279e+002, 2.660749e+002
2.221100e+002, 2.668823e+002
2.225921e+002, 2.678724e+002
2.230743e+002, 2.692521e+002
2.235564e+002, 2.708709e+002
2.240385e+002, 2.720256e+002
2.245206e+002, 2.724192e+002
2.250027e+002, 2.727906e+002
2.254848e+002, 2.736234e+002
2.259670e+002, 2.751421e+002
2.264491e+002, 2.765938e+002
2.269312e+002, 2.780000e+002
2.274133e+002, 2.793101e+002
2.278954e+002, 2.802630e+002
2.283775e+002, 2.805178e+002
2.288597e+002, 2.808894e+002
2.293418e+002, 2.819475e+002
2.298239e+002, 2.841479e+002
2.303060e+002, 2.859408e+002
2.307881e+002, 2.870121e+002
2.312702e+002, 2.875581e+002
2.317524e+002, 2.884870e+002
2.322345e+002, 2.899218e+002
2.327166e+002, 2.915287e+002
2.331987e+002, 2.931410e+002
2.336808e+002, 2.948969e+002
2.341629e+002, 2.963110e+002
2.346451e+002, 2.972171e+002
2.351272e+002, 2.977477e+002
2.356093e+002, 2.985155e+002
2.360914e+002, 2.996098e+002
2.365735e+002, 3.008173e+002
2.370556e+002, 3.020036e+002
2.375378e+002, 3.030565e+002
2.380199e+002, 3.043596e+002
2.385020e+002, 3.060533e+002
2.389841e+002, 3.080306e+002
2.394662e+002, 3.098074e+002
2.399483e+002, 3.114789e+002
2.404305e+002, 3.128443e+002
2.409126e+002, 3.137040e+002
2.413947e+002, 3.135145e+002
2.418768e+002, 3.140795e+002
2.423589e+002, 3.158543e+002
2.428410e+002, 3.184138e+002
2.433232e+002, 3.202271e+002
2.438053e+002, 3.207923e+002
2.442874e+002, 3.212863e+002
2.447695e+002, 3.223283e+002
2.452516e+002, 3.242748e+002
2.457337e+002, 3.259758e+002
2.462159e+002, 3.274173e+002
2.466980e+002, 3.285820e+002
2.471801e+002, 3.293653e+002
2.476622e+002, 3.295674e+002
2.481443e+002, 3.296888e+002
2.486264e+002, 3.299658e+002
2.491086e+002, 3.304796e+002
2.495907e+002, 3.309297e+002
2.500728e+002, 3.311733e+002
2.505549e+002, 3.313919e+002
2.510370e+002, 3.321126e+002
2.515191e+002, 3.336225e+002
2.520013e+002, 3.351945e+002
2.524834e+002, 3.365314e+002
2.529655e+002, 3.375508e+002
2.534476e+002, 3.385547e+002
2.539297e+002, 3.396603e+002
2.544118e+002, 3.407032e+002
2.548940e+002, 3.413008e+002
2.553761e+002, 3.412654e+002
2.558582e+002, 3.411127e+002
2.563403e+002, 3.409865e+002
2.568224e+002, 3.407625e+002
2.573046e+002, 3.409848e+002
2.577867e+002, 3.418172e+002
2.582688e+002, 3.429761e+002
2.587509e+002, 3.439821e+002
2.592330e+002, 3.449645e+002
2.597151e+002, 3.454932e+002
2.601973e+002, 3.452584e+002
2.606794e+002, 3.440014e+002
2.611615e+002, 3.431775e+002
2.616436e+002, 3.429424e+002
2.621257e+002, 3.430175e+002
2.626078e+002, 3.430238e+002
2.630900e+002, 3.431303e+002
2.635721e+002, 3.427726e+002
2.640542e+002, 3.415747e+002
2.645363e+002, 3.392980e+002
2.650184e+002, 3.378143e+002
2.655005e+002, 3.374306e+002
2.659827e+002, 3.374611e+002
2.664648e+002, 3.369047e+002
2.669469e+002, 3.356346e+002
2.674290e+002, 3.341589e+002
2.679111e+002, 3.325952e+002
2.683932e+002, 3.309471e+002
2.688754e+002, 3.292039e+002
2.693575e+002, 3.273557e+002
2.698396e+002, 3.254170e+002
2.703217e+002, 3.234224e+002
2.708038e+002, 3.213630e+002
2.712859e+002, 3.192794e+002
2.717681e+002, 3.172093e+002
2.722502e+002, 3.151542e+002
2.727323e+002, 3.129872e+002
2.732144e+002, 3.107666e+002
2.736965e+002, 3.083847e+002
2.741786e+002, 3.057689e+002
2.746608e+002, 3.029076e+002
2.751429e+002, 2.997252e+002
2.756250e+002, 2.960909e+002
2.761071e+002, 2.921042e+002
2.765892e+002, 2.884213e+002
2.770714e+002, 2.852147e+002
2.775535e+002, 2.819869e+002
2.780356e+002, 2.781109e+002
2.785177e+002, 2.734768e+002
2.789998e+002, 2.693408e+002
2.794819e+002, 2.660660e+002
2.799641e+002, 2.634481e+002
2.804462e+002, 2.608045e+002
2.809283e+002, 2.581458e+002
2.814104e+002, 2.553758e+002
2.818925e+002, 2.521982e+002
2.823746e+002, 2.486011e+002
2.828568e+002, 2.455947e+002
2.833389e+002, 2.435291e+002
2.838210e+002, 2.420212e+002
2.843031e+002, 2.399481e+002
2.847852e+002, 2.372458e+002
2.852673e+002, 2.345084e+002
2.857495e+002, 2.319632e+002
2.862316e+002, 2.296414e+002
2.867137e+002, 2.280346e+002
2.871958e+002, 2.273969e+002
2.876779e+002, 2.272206e+002
2.881600e+002, 2.263999e+002
2.886422e+002, 2.249233e+002
2.891243e+002, 2.234528e+002
2.896064e+002, 2.225881e+002
2.900885e+002, 2.221593e+002
2.905706e+002, 2.212571e+002
2.910527e+002, 2.196792e+002
2.915349e+002, 2.178835e+002
2.920170e+002, 2.165453e+002
2.924991e+002, 2.156552e+002
2.929812e+002, 2.150095e+002
2.934633e+002, 2.147751e+002
2.939454e+002, 2.147280e+002
2.944276e+002, 2.140456e+002
2.949097e+002, 2.125917e+002
2.953918e+002, 2.109508e+002
2.958739e+002, 2.099060e+002
2.963560e+002, 2.093557e+002
2.968381e+002, 2.087645e+002
2.973203e+002, 2.078504e+002
2.978024e+002, 2.067388e+002
2.982845e+002, 2.057060e+002
2.987666e+002, 2.047689e+002
2.992487e+002, 2.037563e+002
2.997308e+002, 2.023845e+002
3.002130e+002, 2.007653e+002
3.006951e+002, 1.992425e+002
3.011772e+002, 1.980208e+002
3.016593e+002, 1.969430e+002
3.021414e+002, 1.957395e+002
3.026235e+002, 1.944238e+002
3.031057e+002, 1.931528e+002
3.035878e+002, 1.922199e+002
3.040699e+002, 1.914174e+002
3.045520e+002, 1.903651e+002
3.050341e+002, 1.887466e+002
3.055162e+002, 1.870090e+002
3.059984e+002, 1.856299e+002
3.064805e+002, 1.845779e+002
3.069626e+002, 1.835454e+002
3.074447e+002, 1.822573e+002
3.079268e+002, 1.808932e+002
3.084089e+002, 1.797246e+002
3.088911e+002, 1.789287e+002
3.093732e+002, 1.781783e+002
3.098553e+002, 1.773353e+002
3.103374e+002, 1.763571e+002
3.108195e+002, 1.750725e+002
3.113016e+002, 1.727741e+002
3.117838e+002, 1.704582e+002
3.122659e+002, 1.691646e+002
3.127480e+002, 1.695961e+002
3.132301e+002, 1.698724e+002
3.137122e+002, 1.685505e+002
3.141943e+002, 1.662494e+002
3.146765e+002, 1.642998e+002
3.151586e+002, 1.638091e+002
3.156407e+002, 1.635040e+002
3.161228e+002, 1.624674e+002
3.166049e+002, 1.603865e+002
3.170870e+002, 1.584507e+002
3.175692e+002, 1.574247e+002
3.180513e+002, 1.568223e+002
3.185334e+002, 1.559704e+002
3.190155e+002, 1.544698e+002
3.194976e+002, 1.528303e+002
3.199797e+002, 1.512292e+002
3.204619e+002, 1.496722e+002
3.209440e+002, 1.482397e+002
3.214261e+002, 1.469644e+002
3.219082e+002, 1.458311e+002
3.223903e+002, 1.448317e+002
3.228724e+002, 1.441769e+002
3.233546e+002, 1.434382e+002
3.238367e+002, 1.424827e+002
3.243188e+002, 1.413143e+002
3.248009e+002, 1.401134e+002
3.252830e+002, 1.388985e+002
3.257651e+002, 1.376806e+002
3.262473e+002, 1.364707e+002
3.267294e+002, 1.351099e+002
3.272115e+002, 1.339475e+002
3.276936e+002, 1.332023e+002
3.281757e+002, 1.327586e+002
3.286578e+002, 1.319921e+002
3.291400e+002, 1.302861e+002
3.296221e+002, 1.287702e+002
3.301042e+002, 1.279543e+002
3.305863e+002, 1.285952e+002
3.310684e+002, 1.286756e+002
3.315505e+002, 1.279171e+002
3.320327e+002, 1.266481e+002
3.325148e+002, 1.255931e+002
3.329969e+002, 1.248037e+002
3.334790e+002, 1.241520e+002
3.339611e+002, 1.236201e+002
3.344432e+002, 1.232727e+002
3.349254e+002, 1.227472e+002
3.354075e+002, 1.219340e+002
3.358896e+002, 1.210347e+002
3.363717e+002, 1.203332e+002
3.368538e+002, 1.198878e+002
3.373359e+002, 1.195118e+002
3.378180e+002, 1.191676e+002
3.383001e+002, 1.188572e+002
3.387823e+002, 1.185930e+002
3.392644e+002, 1.184246e+002
3.397465e+002, 1.182171e+002
3.402286e+002, 1.178010e+002
3.407107e+002, 1.171360e+002
3.411928e+002, 1.165490e+002
3.416750e+002, 1.161529e+002
3.421571e+002, 1.158752e+002
3.426392e+002, 1.153923e+002
3.431213e+002, 1.146441e+002
3.436034e+002, 1.139945e+002
3.440855e+002, 1.138601e+002
3.445677e+002, 1.142078e+002
3.450498e+002, 1.140861e+002
3.455319e+002, 1.132398e+002
3.460140e+002, 1.121114e+002
3.464961e+002, 1.116395e+002
3.469782e+002, 1.117980e+002
3.474604e+002, 1.118887e+002
3.479425e+002, 1.113410e+002
3.484246e+002, 1.103768e+002
3.489067e+002, 1.098420e+002
3.493888e+002, 1.098138e+002
3.498709e+002, 1.100494e+002
3.503531e+002, 1.104587e+002
3.508352e+002, 1.109394e+002
3.513173e+002, 1.111117e+002
3.517994e+002, 1.105846e+002
3.522815e+002, 1.097221e+002
3.527636e+002, 1.091001e+002
3.532458e+002, 1.087180e+002
3.537279e+002, 1.084826e+002
3.542100e+002, 1.084039e+002
3.546921e+002, 1.084036e+002
3.551742e+002, 1.083436e+002
3.556563e+002, 1.081396e+002
3.561385e+002, 1.079004e+002
3.566206e+002, 1.077021e+002
3.571027e+002, 1.075481e+002
3.575848e+002, 1.074603e+002
3.580669e+002, 1.075826e+002
3.585490e+002, 1.077112e+002
3.590312e+002, 1.076108e+002
3.595133e+002, 1.071005e+002
3.599954e+002, 1.066667e+002
3.604775e+002, 1.066954e+002
3.609596e+002, 1.070065e+002
3.614417e+002, 1.072153e+002
3.619239e+002, 1.070747e+002
3.624060e+002, 1.068640e+002
3.628881e+002, 1.067678e+002
3.633702e+002, 1.068491e+002
3.638523e+002, 1.068100e+002
3.643344e+002, 1.063927e+002
3.648166e+002, 1.058604e+002
3.652987e+002, 1.055108e+002
3.657808e+002, 1.056890e+002
3.662629e+002, 1.057908e+002
3.667450e+002, 1.056150e+002
3.672271e+002, 1.051595e+002
3.677093e+002, 1.047448e+002
3.681914e+002, 1.043103e+002
3.686735e+002, 1.039873e+002
3.691556e+002, 1.038627e+002
3.696377e+002, 1.041769e+002
3.701198e+002, 1.043934e+002
3.706020e+002, 1.044905e+002
3.710841e+002, 1.044741e+002
3.715662e+002, 1.043530e+002
3.720483e+002, 1.039860e+002
3.725304e+002, 1.036858e+002
3.730125e+002, 1.035964e+002
3.734947e+002, 1.038059e+002
3.739768e+002, 1.039788e+002
3.744589e+002, 1.041209e+002
3.749410e+002, 1.042236e+002
3.754231e+002, 1.042807e+002
3.759052e+002, 1.043119e+002
3.763874e+002, 1.042471e+002
3.768695e+002, 1.040486e+002
3.773516e+002, 1.037188e+002
3.778337e+002, 1.034016e+002
3.783158e+002, 1.030980e+002
3.787979e+002, 1.028000e+002
3.792801e+002, 1.024570e+002
3.797622e+002, 1.020568e+002
3.802443e+002, 1.018472e+002
3.807264e+002, 1.019017e+002
3.812085e+002, 1.021538e+002
3.816906e+002, 1.024997e+002
3.821728e+002, 1.029418e+002
3.826549e+002, 1.032634e+002
3.831370e+002, 1.031618e+002
3.836191e+002, 1.027797e+002
3.841012e+002, 1.027822e+002
3.845833e+002, 1.033443e+002
3.850655e+002, 1.039194e+002
3.855476e+002, 1.036105e+002
3.860297e+002, 1.026421e+002
3.865118e+002, 1.018506e+002
3.869939e+002, 1.017490e+002
3.874760e+002, 1.020133e+002
3.879582e+002, 1.022168e+002
3.884403e+002, 1.023520e+002
3.889224e+002, 1.024168e+002
3.894045e+002, 1.024308e+002
3.898866e+002, 1.023712e+002
3.903687e+002, 1.021881e+002
3.908509e+002, 1.016644e+002
3.913330e+002, 1.012360e+002
3.918151e+002, 1.013149e+002
3.922972e+002, 1.017885e+002
3.927793e+002, 1.021946e+002
3.932614e+002, 1.023826e+002
3.937436e+002, 1.023675e+002
3.942257e+002, 1.021161e+002
3.947078e+002, 1.014908e+002
3.951899e+002, 1.009550e+002
3.956720e+002, 1.007272e+002
3.961541e+002, 1.006815e+002
3.966363e+002, 1.006161e+002
3.971184e+002, 1.003987e+002
3.976005e+002, 1.002301e+002
3.980826e+002, 1.001714e+002
3.985647e+002, 1.002278e+002
3.990468e+002, 1.003742e+002
3.995290e+002, 1.008600e+002
4.000111e+002, 1.012933e+002
4.004932e+002, 1.013530e+002
4.009753e+002, 1.006006e+002
4.014574e+002, 1.000668e+002
4.019395e+002, 9.993948e+001
4.024217e+002, 1.001224e+002
4.029038e+002, 1.001499e+002
4.033859e+002, 9.988182e+001
4.038680e+002, 9.966474e+001
4.043501e+002, 9.966032e+001
4.048322e+002, 9.989029e+001
4.053144e+002, 1.002963e+002
4.057965e+002, 1.009857e+002
4.062786e+002, 1.017178e+002
4.067607e+002, 1.020631e+002
4.072428e+002, 1.019544e+002
4.077249e+002, 1.018271e+002
4.082071e+002, 1.018459e+002
4.086892e+002, 1.019736e+002
4.091713e+002, 1.019527e+002
4.096534e+002, 1.017627e+002
4.101355e+002, 1.015384e+002
4.106176e+002, 1.013941e+002
4.110998e+002, 1.013207e+002
4.115819e+002, 1.012973e+002
4.120640e+002, 1.013715e+002
4.125461e+002, 1.014048e+002
4.130282e+002, 1.010599e+002
4.135103e+002, 1.004106e+002
4.139925e+002, 9.988669e+001
4.144746e+002, 9.985559e+001
4.149567e+002, 1.000660e+002
4.154388e+002, 1.000934e+002
4.159209e+002, 9.988039e+001
4.164030e+002, 9.970811e+001
4.168852e+002, 9.990598e+001
4.173673e+002, 1.002865e+002
4.178494e+002, 1.005443e+002
4.183315e+002, 1.004913e+002
4.188136e+002, 1.003401e+002
4.192957e+002, 1.002108e+002
4.197779e+002, 1.001020e+002
4.202600e+002, 9.998350e+001
4.207421e+002, 9.980559e+001
4.212242e+002, 9.963750e+001
4.217063e+002, 9.954068e+001
4.221884e+002, 9.957370e+001
4.226706e+002, 9.958597e+001
4.231527e+002, 9.947612e+001
4.236348e+002, 9.932854e+001
4.241169e+002, 9.930030e+001
4.245990e+002, 9.945519e+001
4.250811e+002, 9.969145e+001
4.255633e+002, 1.000694e+002
4.260454e+002, 1.006574e+002
4.265275e+002, 1.008733e+002
4.270096e+002, 1.003916e+002
4.274917e+002, 9.979321e+001
4.279738e+002, 9.958196e+001
4.284560e+002, 1.000256e+002
4.289381e+002, 1.002920e+002
4.294202e+002, 1.002694e+002
4.299023e+002, 1.000089e+002
4.303844e+002, 9.960487e+001
4.308665e+002, 9.893238e+001
4.313487e+002, 9.848152e+001
4.318308e+002, 9.863630e+001
4.323129e+002, 9.944268e+001
4.327950e+002, 9.985648e+001
4.332771e+002, 9.978918e+001
4.337592e+002, 9.953638e+001
4.342414e+002, 9.949062e+001
4.347235e+002, 9.963221e+001
4.352056e+002, 9.970496e+001
4.356877e+002, 9.956653e+001
4.361698e+002, 9.935310e+001
4.366519e+002, 9.939201e+001
4.371341e+002, 9.967151e+001
4.376162e+002, 9.995761e+001
4.380983e+002, 1.001275e+002
4.385804e+002, 1.001791e+002
4.390625e+002, 1.000759e+002
4.395446e+002, 9.976914e+001
4.400268e+002, 9.945429e+001
4.405089e+002, 9.928451e+001
4.409910e+002, 9.923508e+001
4.414731e+002, 9.925706e+001
4.419552e+002, 9.937959e+001
4.424373e+002, 9.952388e+001
4.429195e+002, 9.964015e+001
4.434016e+002, 9.972634e+001
4.438837e+002, 9.981123e+001
4.443658e+002, 9.990276e+001
4.448479e+002, 9.999787e+001
4.453300e+002, 1.000906e+002
4.458122e+002, 1.001131e+002
4.462943e+002, 1.002185e+002
4.467764e+002, 1.005731e+002
4.472585e+002, 1.010343e+002
4.477406e+002, 1.012371e+002
4.482227e+002, 1.008568e+002
4.487049e+002, 1.005142e+002
4.491870e+002, 1.004058e+002
4.496691e+002, 1.005836e+002
4.501512e+002, 1.006949e+002
4.506333e+002, 1.007279e+002
4.511154e+002, 1.007092e+002
4.515976e+002, 1.006643e+002
4.520797e+002, 1.006000e+002
4.525618e+002, 1.004943e+002
4.530439e+002, 1.003395e+002
4.535260e+002, 1.001466e+002
4.540081e+002, 9.989604e+001
4.544903e+002, 9.956076e+001
4.549724e+002, 9.934554e+001
4.554545e+002, 9.947444e+001
4.559366e+002, 9.987264e+001
4.564187e+002, 9.992700e+001
4.569008e+002, 9.955197e+001
4.573830e+002, 9.919361e+001
4.578651e+002, 9.952077e+001
4.583472e+002, 1.003237e+002
4.588293e+002, 1.009076e+002
4.593114e+002, 1.009782e+002
4.597935e+002, 1.007933e+002
4.602757e+002, 1.006022e+002
4.607578e+002, 1.004178e+002
4.612399e+002, 1.003038e+002
4.617220e+002, 1.003389e+002
4.622041e+002, 1.004412e+002
4.626862e+002, 1.004789e+002
4.631684e+002, 1.003664e+002
4.636505e+002, 1.004934e+002
4.641326e+002, 1.016019e+002
4.646147e+002, 1.029063e+002
4.650968e+002, 1.034010e+002
4.655789e+002, 1.019647e+002
4.660611e+002, 1.005028e+002
4.665432e+002, 9.948356e+001
4.670253e+002, 9.891761e+001
4.675074e+002, 9.866489e+001
4.679895e+002, 9.894418e+001
4.684716e+002, 9.934898e+001
4.689538e+002, 9.971379e+001
4.694359e+002, 1.001363e+002
4.699180e+002, 1.002832e+002
4.704001e+002, 1.000266e+002
4.708822e+002, 9.958131e+001
4.713643e+002, 9.924138e+001
4.718465e+002, 9.898026e+001
4.723286e+002, 9.890813e+001
4.728107e+002, 9.911132e+001
4.732928e+002, 9.952920e+001
4.737749e+002, 9.981660e+001
4.742570e+002, 9.994939e+001
4.747392e+002, 1.000666e+002
4.752213e+002, 1.002674e+002
4.757034e+002, 1.005440e+002
4.761855e+002, 1.008267e+002
4.766676e+002, 1.010907e+002
4.771497e+002, 1.014246e+002
4.776319e+002, 1.022601e+002
4.781140e+002, 1.033293e+002
4.785961e+002, 1.037324e+002
4.790782e+002, 1.024185e+002
4.795603e+002, 1.006422e+002
4.800424e+002, 9.995683e+001
4.805246e+002, 1.002426e+002
4.810067e+002, 1.005429e+002
4.814888e+002, 1.001259e+002
4.819709e+002, 9.952575e+001
4.824530e+002, 9.924807e+001
4.829352e+002, 9.953340e+001
4.834173e+002, 9.978286e+001
4.838994e+002, 9.960641e+001
4.843815e+002, 9.927790e+001
4.848636e+002, 9.921640e+001
4.853457e+002, 9.988152e+001
4.858279e+002, 1.004465e+002
4.863100e+002, 1.006517e+002
4.867921e+002, 1.004910e+002
4.872742e+002, 1.003812e+002
4.877563e+002, 1.004092e+002
4.882384e+002, 1.004020e+002
4.887206e+002, 1.002336e+002
4.892027e+002, 9.976128e+001
4.896848e+002, 9.952978e+001
4.901669e+002, 9.960849e+001
4.906490e+002, 9.986413e+001
4.911311e+002, 1.001663e+002
4.916133e+002, 1.005594e+002
4.920954e+002, 1.006459e+002
4.925775e+002, 1.001251e+002
4.930596e+002, 9.924953e+001
4.935417e+002, 9.901543e+001
4.940238e+002, 9.942866e+001
4.945060e+002, 9.999660e+001
4.949881e+002, 1.004900e+002
4.954702e+002, 1.008470e+002
4.959523e+002, 1.008786e+002
4.964344e+002, 1.005105e+002
4.969165e+002, 1.000327e+002
4.973987e+002, 9.966697e+001
4.978808e+002, 9.940332e+001
4.983629e+002, 9.923083e+001
4.988450e+002, 9.915280e+001
4.993271e+002, 9.915762e+001
4.998092e+002, 9.931664e+001
5.002914e+002, 9.958916e+001
5.007735e+002, 9.973978e+001
5.012556e+002, 9.956953e+001
5.017377e+002, 9.933566e+001
5.022198e+002, 9.915641e+001
5.027019e+002, 9.896877e+001
5.031841e+002, 9.903915e+001
5.036662e+002, 9.976329e+001
5.041483e+002, 1.006127e+002
5.046304e+002, 1.009448e+002
5.051125e+002, 1.003230e+002
5.055946e+002, 9.989723e+001
5.060768e+002, 9.993894e+001
5.065589e+002, 1.003215e+002
5.070410e+002, 1.003541e+002
5.075231e+002, 9.988503e+001
5.080052e+002, 9.948941e+001
5.084873e+002, 9.955710e+001
5.089695e+002, 1.000924e+002
5.094516e+002, 1.003336e+002
5.099337e+002, 1.002356e+002
5.104158e+002, 1.000078e+002
5.108979e+002, 9.987013e+001
5.113800e+002, 9.980511e+001
5.118622e+002, 9.972205e+001
5.123443e+002, 9.952810e+001
5.128264e+002, 9.940660e+001
5.133085e+002, 9.975133e+001
5.137906e+002, 1.004193e+002
5.142728e+002, 1.008968e+002
5.147549e+002, 1.007846e+002
5.152370e+002, 1.004303e+002
5.157191e+002, 1.001080e+002
5.162012e+002, 9.984036e+001
5.166833e+002, 9.957967e+001
5.171655e+002, 9.919003e+001
5.176476e+002, 9.885635e+001
5.181297e+002, 9.873961e+001
5.186118e+002, 9.910796e+001
5.190939e+002, 9.940331e+001
5.195760e+002, 9.947796e+001
5.200582e+002, 9.942446e+001
5.205403e+002, 9.948093e+001
5.210224e+002, 9.986293e+001
5.215045e+002, 1.000418e+002
5.219866e+002, 9.976022e+001
5.224688e+002, 9.901794e+001
5.229509e+002, 9.871571e+001
5.234330e+002, 9.896119e+001
5.239151e+002, 9.938612e+001
5.243972e+002, 9.973119e+001
5.248793e+002, 9.999242e+001
5.253615e+002, 1.002642e+002
5.258436e+002, 1.005788e+002
5.263257e+002, 1.008428e+002
5.268078e+002, 1.008503e+002
5.272899e+002, 1.006577e+002
5.277720e+002, 1.005457e+002
5.282542e+002, 1.007845e+002
5.287363e+002, 1.010386e+002
5.292184e+002, 1.007079e+002
5.297005e+002, 9.991212e+001
5.301826e+002, 9.928635e+001
5.306647e+002, 9.928785e+001
5.311469e+002, 9.959127e+001
5.316290e+002, 9.997122e+001
5.321111e+002, 1.004335e+002
5.325932e+002, 1.007819e+002
5.330753e+002, 1.008561e+002
5.335574e+002, 1.008164e+002
5.340396e+002, 1.008280e+002
5.345217e+002, 1.010384e+002
5.350038e+002, 1.011647e+002
5.354859e+002, 1.011234e+002
5.359680e+002, 1.009687e+002
5.364501e+002, 1.008800e+002
5.369323e+002, 1.009415e+002
5.374144e+002, 1.009214e+002
5.378965e+002, 1.006703e+002
5.383786e+002, 1.001766e+002
5.388607e+002, 9.996473e+001
5.393428e+002, 1.000543e+002
5.398250e+002, 1.003669e+002
5.403071e+002, 1.010337e+002
5.407892e+002, 1.019679e+002
5.412713e+002, 1.023442e+002
5.417534e+002, 1.019278e+002
5.422355e+002, 1.012102e+002
5.427177e+002, 1.007582e+002
5.431998e+002, 1.005553e+002
5.436819e+002, 1.005642e+002
5.441640e+002, 1.010757e+002
5.446461e+002, 1.015745e+002
5.451282e+002, 1.014354e+002
5.456104e+002, 1.007689e+002
5.460925e+002, 1.002633e+002
5.465746e+002, 1.002929e+002
5.470567e+002, 1.005929e+002
5.475388e+002, 1.010737e+002
5.480209e+002, 1.018653e+002
5.485031e+002, 1.023386e+002
5.489852e+002, 1.021693e+002
5.494673e+002, 1.017133e+002
5.499494e+002, 1.013331e+002
5.504315e+002, 1.009012e+002
5.509136e+002, 1.007766e+002
5.513958e+002, 1.011855e+002
5.518779e+002, 1.018781e+002
5.523600e+002, 1.020531e+002
5.528421e+002, 1.015635e+002
5.533242e+002, 1.010744e+002
5.538063e+002, 1.008791e+002
5.542885e+002, 1.009367e+002
5.547706e+002, 1.009068e+002
5.552527e+002, 1.007782e+002
5.557348e+002, 1.006849e+002
5.562169e+002, 1.007292e+002
5.566990e+002, 1.009005e+002
5.571812e+002, 1.012244e+002
5.576633e+002, 1.017644e+002
5.581454e+002, 1.022267e+002
5.586275e+002, 1.021319e+002
5.591096e+002, 1.017896e+002
5.595917e+002, 1.017434e+002
5.600739e+002, 1.027942e+002
5.605560e+002, 1.036450e+002
5.610381e+002, 1.034274e+002
5.615202e+002, 1.023858e+002
5.620023e+002, 1.016081e+002
5.624844e+002, 1.014382e+002
5.629666e+002, 1.015301e+002
5.634487e+002, 1.018245e+002
5.639308e+002, 1.024123e+002
5.644129e+002, 1.026875e+002
5.648950e+002, 1.024385e+002
5.653771e+002, 1.021063e+002
5.658593e+002, 1.020686e+002
5.663414e+002, 1.023983e+002
5.668235e+002, 1.027267e+002
5.673056e+002, 1.030530e+002
5.677877e+002, 1.033142e+002
5.682698e+002, 1.033851e+002
5.687520e+002, 1.032732e+002
5.692341e+002, 1.030805e+002
5.697162e+002, 1.027928e+002
5.701983e+002, 1.024858e+002
5.706804e+002, 1.022164e+002
5.711625e+002, 1.020138e+002
5.716447e+002, 1.020586e+002
5.721268e+002, 1.028248e+002
5.726089e+002, 1.036922e+002
5.730910e+002, 1.039468e+002
5.735731e+002, 1.034233e+002
5.740552e+002, 1.030053e+002
5.745374e+002, 1.032034e+002
5.750195e+002, 1.036410e+002
5.755016e+002, 1.039650e+002
5.759837e+002, 1.041373e+002
5.764658e+002, 1.041516e+002
5.769479e+002, 1.039067e+002
5.774301e+002, 1.035242e+002
5.779122e+002, 1.032110e+002
5.783943e+002, 1.028467e+002
5.788764e+002, 1.028017e+002
5.793585e+002, 1.033037e+002
5.798406e+002, 1.042359e+002
5.803228e+002, 1.047837e+002
5.808049e+002, 1.049222e+002
5.812870e+002, 1.048341e+002
5.817691e+002, 1.045690e+002
5.822512e+002, 1.041691e+002
5.827333e+002, 1.037526e+002
5.832155e+002, 1.033106e+002
5.836975e+002, 1.030173e+002
5.841796e+002, 1.031403e+002
5.846617e+002, 1.034950e+002
5.851439e+002, 1.037710e+002
5.856260e+002, 1.038481e+002
5.861081e+002, 1.038961e+002
5.865902e+002, 1.040888e+002
5.870723e+002, 1.043197e+002
5.875544e+002, 1.043808e+002
5.880366e+002, 1.038024e+002
5.885187e+002, 1.034601e+002
5.890008e+002, 1.037982e+002
5.894829e+002, 1.047721e+002
5.899650e+002, 1.053947e+002
5.904471e+002, 1.054556e+002
5.909293e+002, 1.054338e+002
5.914114e+002, 1.055979e+002
5.918935e+002, 1.060190e+002
5.923756e+002, 1.060485e+002
5.928577e+002, 1.055651e+002
5.933398e+002, 1.050151e+002
5.938220e+002, 1.049400e+002
5.943041e+002, 1.052665e+002
5.947862e+002, 1.053788e+002
5.952683e+002, 1.050963e+002
5.957504e+002, 1.047523e+002
5.962325e+002, 1.048457e+002
5.967147e+002, 1.052299e+002
5.971968e+002, 1.055193e+002
5.976789e+002, 1.053907e+002
5.981610e+002, 1.052386e+002
5.986431e+002, 1.054184e+002
5.991252e+002, 1.058498e+002
5.996074e+002, 1.061532e+002
6.000895e+002, 1.061701e+002
6.005716e+002, 1.060497e+002
6.010537e+002, 1.058228e+002
6.015358e+002, 1.054503e+002
6.020179e+002, 1.051861e+002
6.025001e+002, 1.050493e+002
6.029822e+002, 1.050049e+002
6.034643e+002, 1.050511e+002
6.039464e+002, 1.052351e+002
6.044285e+002, 1.052812e+002
6.049106e+002, 1.050729e+002
6.053928e+002, 1.049049e+002
6.058749e+002, 1.054160e+002
6.063570e+002, 1.065332e+002
6.068391e+002, 1.072535e+002
6.073212e+002, 1.071415e+002
6.078033e+002, 1.066419e+002
6.082855e+002, 1.063474e+002
6.087676e+002, 1.062346e+002
6.092497e+002, 1.062083e+002
6.097318e+002, 1.061987e+002
6.102139e+002, 1.062677e+002
6.106960e+002, 1.065116e+002
6.111782e+002, 1.069253e+002
6.116603e+002, 1.072827e+002
6.121424e+002, 1.074918e+002
6.126245e+002, 1.076329e+002
6.131066e+002, 1.077608e+002
6.135887e+002, 1.079182e+002
6.140709e+002, 1.079752e+002
6.145530e+002, 1.079028e+002
6.150351e+002, 1.077595e+002
6.155172e+002, 1.075750e+002
6.159993e+002, 1.073076e+002
6.164814e+002, 1.071930e+002
6.169636e+002, 1.072850e+002
6.174457e+002, 1.075138e+002
6.179278e+002, 1.077877e+002
6.184099e+002, 1.080977e+002
6.188920e+002, 1.083641e+002
6.193741e+002, 1.086353e+002
6.198563e+002, 1.087868e+002
6.203384e+002, 1.084331e+002
6.208205e+002, 1.077062e+002
6.213026e+002, 1.072701e+002
6.217847e+002, 1.078904e+002
6.222668e+002, 1.086721e+002
6.227490e+002, 1.088822e+002
6.232311e+002, 1.084026e+002
6.237132e+002, 1.080113e+002
6.241953e+002, 1.078080e+002
6.246774e+002, 1.078415e+002
6.251595e+002, 1.081773e+002
6.256417e+002, 1.091636e+002
6.261238e+002, 1.097732e+002
6.266059e+002, 1.099596e+002
6.270880e+002, 1.098202e+002
6.275701e+002, 1.093367e+002
6.280522e+002, 1.084347e+002
6.285344e+002, 1.079394e+002
6.290165e+002, 1.080908e+002
6.294986e+002, 1.086403e+002
6.299807e+002, 1.092581e+002
6.304628e+002, 1.098982e+002
6.309449e+002, 1.103026e+002
6.314271e+002, 1.101714e+002
6.319092e+002, 1.098545e+002
6.323913e+002, 1.096617e+002
6.328734e+002, 1.096011e+002
6.333555e+002, 1.097095e+002
6.338376e+002, 1.102521e+002
6.343198e+002, 1.107732e+002
6.348019e+002, 1.109675e+002
6.352840e+002, 1.107345e+002
6.357661e+002, 1.105450e+002
6.362482e+002, 1.104169e+002
6.367303e+002, 1.103719e+002
6.372125e+002, 1.104512e+002
6.376946e+002, 1.107466e+002
6.381767e+002, 1.108861e+002
6.386588e+002, 1.108063e+002
6.391409e+002, 1.106570e+002
6.396230e+002, 1.107373e+002
6.401052e+002, 1.110182e+002
6.405873e+002, 1.109640e+002
6.410694e+002, 1.102666e+002
6.415515e+002, 1.094740e+002
6.420336e+002, 1.095264e+002
6.425157e+002, 1.101905e+002
6.429979e+002, 1.107884e+002
6.434800e+002, 1.109332e+002
6.439621e+002, 1.109315e+002
6.444442e+002, 1.109602e+002
6.449263e+002, 1.110199e+002
6.454084e+002, 1.110876e+002
6.458906e+002, 1.111573e+002
6.463727e+002, 1.112322e+002
6.468548e+002, 1.113444e+002
6.473369e+002, 1.115202e+002
6.478190e+002, 1.115086e+002
6.483011e+002, 1.111432e+002
6.487833e+002, 1.108407e+002
6.492654e+002, 1.109733e+002
6.497475e+002, 1.115902e+002
6.502296e+002, 1.120427e+002
6.507117e+002, 1.122724e+002
6.511938e+002, 1.124262e+002
6.516760e+002, 1.126993e+002
6.521581e+002, 1.130454e+002
6.526402e+002, 1.133176e+002
6.531223e+002, 1.134838e+002
6.536044e+002, 1.135503e+002
6.540865e+002, 1.134849e+002
6.545687e+002, 1.133302e+002
6.550508e+002, 1.131698e+002
6.555329e+002, 1.129091e+002
6.560150e+002, 1.127754e+002
6.564971e+002, 1.129082e+002
6.569792e+002, 1.132603e+002
6.574614e+002, 1.135836e+002
6.579435e+002, 1.139365e+002
6.584256e+002, 1.141543e+002
6.589077e+002, 1.140943e+002
6.593898e+002, 1.137805e+002
6.598719e+002, 1.139148e+002
6.603541e+002, 1.146081e+002
6.608362e+002, 1.152269e+002
6.613183e+002, 1.152426e+002
6.618004e+002, 1.148038e+002
6.622825e+002, 1.144729e+002
6.627646e+002, 1.142794e+002
6.632468e+002, 1.142211e+002
6.637289e+002, 1.142944e+002
6.642110e+002, 1.145035e+002
6.646931e+002, 1.148835e+002
6.651752e+002, 1.155269e+002
6.656573e+002, 1.161213e+002
6.661395e+002, 1.165709e+002
6.666216e+002, 1.168868e+002
6.671037e+002, 1.170824e+002
6.675858e+002, 1.171196e+002
6.680679e+002, 1.170636e+002
6.685500e+002, 1.167429e+002
6.690322e+002, 1.164101e+002
6.695143e+002, 1.167300e+002
6.699964e+002, 1.178787e+002
6.704785e+002, 1.188048e+002
6.709606e+002, 1.191006e+002
6.714427e+002, 1.190182e+002
6.719249e+002, 1.192258e+002
6.724070e+002, 1.197020e+002
6.728891e+002, 1.202786e+002
6.733712e+002, 1.208145e+002
6.738533e+002, 1.214188e+002
6.743354e+002, 1.223301e+002
6.748176e+002, 1.235070e+002
6.752997e+002, 1.244633e+002
6.757818e+002, 1.246778e+002
6.762639e+002, 1.247957e+002
6.767460e+002, 1.252904e+002
6.772281e+002, 1.263951e+002
6.777103e+002, 1.270709e+002
6.781924e+002, 1.268386e+002
6.786745e+002, 1.266206e+002
6.791566e+002, 1.271271e+002
6.796387e+002, 1.285073e+002
6.801208e+002, 1.300166e+002
6.806030e+002, 1.317742e+002
6.810851e+002, 1.332798e+002
6.815672e+002, 1.336048e+002
6.820493e+002, 1.330780e+002
6.825314e+002, 1.331563e+002
6.830135e+002, 1.342864e+002
6.834957e+002, 1.359013e+002
6.839778e+002, 1.376364e+002
6.844599e+002, 1.393999e+002
6.849420e+002, 1.409545e+002
6.854241e+002, 1.419205e+002
6.859063e+002, 1.430098e+002
6.863884e+002, 1.445444e+002
6.868705e+002, 1.464301e+002
6.873526e+002, 1.483659e+002
6.878347e+002, 1.506707e+002
6.883168e+002, 1.525548e+002
6.887990e+002, 1.536181e+002
6.892811e+002, 1.540486e+002
6.897632e+002, 1.549646e+002
6.902453e+002, 1.563757e+002
6.907274e+002, 1.581753e+002
6.912095e+002, 1.604095e+002
6.916917e+002, 1.629559e+002
6.921738e+002, 1.655878e+002
6.926559e+002, 1.682607e+002
6.931380e+002, 1.707876e+002
6.936201e+002, 1.729536e+002
6.941022e+002, 1.749326e+002
6.945844e+002, 1.770504e+002
6.950665e+002, 1.794420e+002
6.955486e+002, 1.811894e+002
6.960307e+002, 1.820427e+002
6.965128e+002, 1.820677e+002
6.969949e+002, 1.812890e+002
6.974771e+002, 1.794181e+002
6.979592e+002, 1.773708e+002
6.984413e+002, 1.749698e+002
6.989234e+002, 1.726467e+002
6.994055e+002, 1.709803e+002
6.998876e+002, 1.699834e+002
7.003698e+002, 1.690874e+002
7.008519e+002, 1.682295e+002
7.013340e+002, 1.673820e+002
7.018161e+002, 1.663951e+002
7.022982e+002, 1.653914e+002
7.027803e+002, 1.646690e+002
7.032625e+002, 1.642724e+002
7.037446e+002, 1.642763e+002
7.042267e+002, 1.649626e+002
7.047088e+002, 1.660740e+002
7.051909e+002, 1.670433e+002
7.056730e+002, 1.674544e+002
7.061552e+002, 1.679918e+002
7.066373e+002, 1.688221e+002
7.071194e+002, 1.699035e+002
7.076015e+002, 1.710487e+002
7.080836e+002, 1.722174e+002
7.085657e+002, 1.735347e+002
7.090479e+002, 1.750342e+002
7.095300e+002, 1.767288e+002
7.100121e+002, 1.789786e+002
7.104942e+002, 1.817427e+002
7.109763e+002, 1.838812e+002
7.114584e+002, 1.839737e+002
7.119406e+002, 1.833773e+002
7.124227e+002, 1.838406e+002
7.129048e+002, 1.854373e+002
7.133869e+002, 1.871695e+002
7.138690e+002, 1.891249e+002
7.143511e+002, 1.906300e+002
7.148333e+002, 1.912604e+002
7.153154e+002, 1.908429e+002
7.157975e+002, 1.898327e+002
7.162796e+002, 1.880676e+002
7.167617e+002, 1.859191e+002
7.172438e+002, 1.837431e+002
7.177260e+002, 1.816302e+002
7.182081e+002, 1.786364e+002
7.186902e+002, 1.746259e+002
7.191723e+002, 1.701740e+002
7.196544e+002, 1.656976e+002
7.201365e+002, 1.613646e+002
7.206187e+002, 1.576226e+002
7.211008e+002, 1.545689e+002
7.215829e+002, 1.520143e+002
7.220650e+002, 1.500741e+002
7.225471e+002, 1.484273e+002
7.230292e+002, 1.465997e+002
7.235114e+002, 1.439940e+002
7.239935e+002, 1.418263e+002
7.244756e+002, 1.404705e+002
7.249577e+002, 1.395787e+002
7.254398e+002, 1.384973e+002
7.259219e+002, 1.370210e+002
7.264041e+002, 1.360361e+002
7.268862e+002, 1.358471e+002
7.273683e+002, 1.361394e+002
7.278504e+002, 1.361855e+002
7.283325e+002, 1.360218e+002
7.288146e+002, 1.358985e+002
7.292968e+002, 1.360594e+002
7.297789e+002, 1.362054e+002
7.302610e+002, 1.359015e+002
7.307431e+002, 1.352778e+002
7.312252e+002, 1.347663e+002
7.317073e+002, 1.346714e+002
7.321895e+002, 1.346133e+002
7.326716e+002, 1.342446e+002
7.331537e+002, 1.336383e+002
7.336358e+002, 1.337941e+002
7.341179e+002, 1.352627e+002
7.346000e+002, 1.365769e+002
7.350822e+002, 1.371992e+002
7.355643e+002, 1.371476e+002
7.360464e+002, 1.362950e+002
7.365285e+002, 1.345937e+002
7.370106e+002, 1.330579e+002
7.374927e+002, 1.324710e+002
7.379749e+002, 1.325061e+002
7.384570e+002, 1.326994e+002
7.389391e+002, 1.330162e+002
7.394212e+002, 1.333067e+002
7.399033e+002, 1.334810e+002
7.403854e+002, 1.335953e+002
7.408676e+002, 1.336029e+002
7.413497e+002, 1.333513e+002
7.418318e+002, 1.336517e+002
7.423139e+002, 1.350409e+002
7.427960e+002, 1.364263e+002
7.432781e+002, 1.369927e+002
7.437603e+002, 1.365809e+002
7.442424e+002, 1.365259e+002
7.447245e+002, 1.369294e+002
7.452066e+002, 1.374137e+002
7.456887e+002, 1.375630e+002
7.461708e+002, 1.374890e+002
7.466530e+002, 1.375076e+002
7.471351e+002, 1.377061e+002
7.476172e+002, 1.378266e+002
7.480993e+002, 1.375849e+002
7.485814e+002, 1.372033e+002
7.490635e+002, 1.369310e+002
7.495457e+002, 1.368447e+002
7.500278e+002, 1.368365e+002
7.505099e+002, 1.369722e+002
7.509920e+002, 1.371233e+002
7.514741e+002, 1.371531e+002
7.519562e+002, 1.370658e+002
7.524384e+002, 1.368141e+002
7.529205e+002, 1.363701e+002
7.534026e+002, 1.358026e+002
7.538847e+002, 1.350558e+002
7.543668e+002, 1.342463e+002
7.548489e+002, 1.338691e+002
7.553311e+002, 1.342550e+002
7.558132e+002, 1.347808e+002
7.562953e+002, 1.348938e+002
7.567774e+002, 1.347642e+002
7.572595e+002, 1.346889e+002
7.577416e+002, 1.349291e+002
7.582238e+002, 1.350368e+002
7.587059e+002, 1.348132e+002
7.591880e+002, 1.344178e+002
7.596701e+002, 1.341925e+002
7.601522e+002, 1.342106e+002
7.606343e+002, 1.341267e+002
7.611165e+002, 1.337185e+002
7.615986e+002, 1.332941e+002
7.620807e+002, 1.338427e+002
7.625628e+002, 1.351750e+002
7.630449e+002, 1.361770e+002
7.635270e+002, 1.360154e+002
7.640092e+002, 1.355732e+002
7.644913e+002, 1.357315e+002
7.649734e+002, 1.363041e+002
7.654555e+002, 1.367136e+002
7.659376e+002, 1.365891e+002
7.664197e+002, 1.364323e+002
7.669019e+002, 1.364212e+002
7.673840e+002, 1.365223e+002
7.678661e+002, 1.365467e+002
7.683482e+002, 1.364046e+002
7.688303e+002, 1.364536e+002
7.693124e+002, 1.369132e+002
7.697946e+002, 1.376440e+002
7.702767e+002, 1.382320e+002
7.707588e+002, 1.386706e+002
7.712409e+002, 1.388981e+002
7.717230e+002, 1.386224e+002
7.722051e+002, 1.382978e+002
7.726873e+002, 1.384269e+002
7.731694e+002, 1.389652e+002
7.736515e+002, 1.394814e+002
7.741336e+002, 1.400422e+002
7.746157e+002, 1.403341e+002
7.750978e+002, 1.400215e+002
7.755800e+002, 1.391494e+002
7.760621e+002, 1.390295e+002
7.765442e+002, 1.399441e+002
7.770263e+002, 1.408108e+002
7.775084e+002, 1.409443e+002
7.779905e+002, 1.405238e+002
7.784727e+002, 1.403193e+002
7.789548e+002, 1.403319e+002
7.794369e+002, 1.405938e+002
7.799190e+002, 1.414489e+002
7.804011e+002, 1.423512e+002
7.808832e+002, 1.426654e+002
7.813654e+002, 1.423566e+002
7.818475e+002, 1.422048e+002
7.823296e+002, 1.424605e+002
7.828117e+002, 1.429457e+002
7.832938e+002, 1.436813e+002
7.837759e+002, 1.447366e+002
7.842581e+002, 1.451662e+002
7.847402e+002, 1.447931e+002
7.852223e+002, 1.443468e+002
7.857044e+002, 1.443132e+002
7.861865e+002, 1.446253e+002
7.866686e+002, 1.451440e+002
7.871508e+002, 1.458603e+002
7.876329e+002, 1.463192e+002
7.881150e+002, 1.458452e+002
7.885971e+002, 1.451682e+002
7.890792e+002, 1.450095e+002
7.895613e+002, 1.454873e+002
7.900435e+002, 1.460560e+002
7.905256e+002, 1.469555e+002
7.910077e+002, 1.475691e+002
7.914898e+002, 1.473839e+002
7.919719e+002, 1.461438e+002
7.924540e+002, 1.461035e+002
7.929362e+002, 1.475421e+002
7.934183e+002, 1.490192e+002
7.939004e+002, 1.491010e+002
7.943825e+002, 1.482820e+002
7.948646e+002, 1.478995e+002
7.953467e+002, 1.480474e+002
7.958289e+002, 1.485230e+002
7.963110e+002, 1.496943e+002
7.967931e+002, 1.507841e+002
7.972752e+002, 1.510220e+002
7.977573e+002, 1.500843e+002
7.982394e+002, 1.493466e+002
7.987216e+002, 1.488586e+002
7.992037e+002, 1.487231e+002
7.996858e+002, 1.491423e+002
8.001679e+002, 1.502504e+002
8.006500e+002, 1.507934e+002
8.011321e+002, 1.506899e+002
8.016143e+002, 1.505852e+002
8.020964e+002, 1.513484e+002
8.025785e+002, 1.524474e+002
8.030606e+002, 1.526789e+002
8.035427e+002, 1.518410e+002
8.040248e+002, 1.512521e+002
8.045070e+002, 1.519384e+002
8.049891e+002, 1.530082e+002
8.054712e+002, 1.537829e+002
8.059533e+002, 1.540794e+002
8.064354e+002, 1.544199e+002
8.069175e+002, 1.547772e+002
8.073997e+002, 1.552196e+002
8.078818e+002, 1.559249e+002
8.083639e+002, 1.568717e+002
8.088460e+002, 1.572380e+002
8.093281e+002, 1.569561e+002
8.098102e+002, 1.565904e+002
8.102924e+002, 1.565120e+002
8.107745e+002, 1.567250e+002
8.112566e+002, 1.573964e+002
8.117387e+002, 1.586193e+002
8.122208e+002, 1.594923e+002
8.127029e+002, 1.592607e+002
8.131851e+002, 1.588362e+002
8.136672e+002, 1.588996e+002
8.141493e+002, 1.596431e+002
8.146314e+002, 1.600342e+002
8.151135e+002, 1.599314e+002
8.155956e+002, 1.598214e+002
8.160778e+002, 1.601688e+002
8.165599e+002, 1.608576e+002
8.170420e+002, 1.613592e+002
8.175241e+002, 1.616441e+002
8.180062e+002, 1.617995e+002
8.184883e+002, 1.616530e+002
8.189705e+002, 1.615616e+002
8.194526e+002, 1.619517e+002
8.199347e+002, 1.629482e+002
8.204168e+002, 1.638140e+002
8.208989e+002, 1.644016e+002
8.213810e+002, 1.648057e+002
8.218632e+002, 1.650134e+002
8.223453e+002, 1.649823e+002
8.228274e+002, 1.652179e+002
8.233095e+002, 1.657485e+002
8.237916e+002, 1.663636e+002
8.242737e+002, 1.669396e+002
8.247559e+002, 1.674644e+002
8.252380e+002, 1.678485e+002
8.257201e+002, 1.680941e+002
8.262022e+002, 1.684533e+002
8.266843e+002, 1.694630e+002
8.271664e+002, 1.703351e+002
8.276486e+002, 1.703249e+002
8.281307e+002, 1.691462e+002
8.286128e+002, 1.688806e+002
8.290949e+002, 1.699834e+002
8.295770e+002, 1.712156e+002
8.300591e+002, 1.718629e+002
8.305413e+002, 1.719897e+002
8.310234e+002, 1.724272e+002
8.315055e+002, 1.731691e+002
8.319876e+002, 1.738223e+002
8.324697e+002, 1.740206e+002
8.329518e+002, 1.740405e+002
8.334340e+002, 1.742415e+002
8.339161e+002, 1.746176e+002
8.343982e+002, 1.747962e+002
8.348803e+002, 1.740056e+002
8.353624e+002, 1.736515e+002
8.358445e+002, 1.745609e+002
8.363267e+002, 1.766468e+002
8.368088e+002, 1.778682e+002
8.372909e+002, 1.780709e+002
8.377730e+002, 1.780846e+002
8.382551e+002, 1.782827e+002
8.387372e+002, 1.786533e+002
8.392194e+002, 1.792140e+002
8.397015e+002, 1.799398e+002
8.401836e+002, 1.806844e+002
8.406657e+002, 1.812402e+002
8.411478e+002, 1.818979e+002
8.416299e+002, 1.830645e+002
8.421121e+002, 1.846234e+002
8.425942e+002, 1.854638e+002
8.430763e+002, 1.851241e+002
8.435584e+002, 1.847874e+002
8.440405e+002, 1.847294e+002
8.445226e+002, 1.849841e+002
8.450048e+002, 1.858591e+002
8.454869e+002, 1.873067e+002
8.459690e+002, 1.886173e+002
8.464511e+002, 1.893744e+002
8.469332e+002, 1.898514e+002
8.474153e+002, 1.901777e+002
8.478975e+002, 1.904538e+002
8.483796e+002, 1.909625e+002
8.488617e+002, 1.921475e+002
8.493438e+002, 1.931794e+002
8.498259e+002, 1.936024e+002
8.503080e+002, 1.937655e+002
8.507902e+002, 1.946889e+002
8.512723e+002, 1.965370e+002
8.517544e+002, 1.980725e+002
8.522365e+002, 1.988063e+002
8.527186e+002, 1.992587e+002
8.532007e+002, 2.003921e+002
8.536829e+002, 2.020063e+002
8.541650e+002, 2.035623e+002
8.546471e+002, 2.048899e+002
8.551292e+002, 2.060707e+002
8.556113e+002, 2.070375e+002
8.560934e+002, 2.079003e+002
8.565756e+002, 2.088871e+002
8.570577e+002, 2.100700e+002
8.575398e+002, 2.112807e+002
8.580219e+002, 2.126074e+002
8.585040e+002, 2.138183e+002
8.589861e+002, 2.143611e+002
8.594683e+002, 2.143840e+002
8.599504e+002, 2.146984e+002
8.604325e+002, 2.155344e+002
8.609146e+002, 2.165588e+002
8.613967e+002, 2.175231e+002
8.618788e+002, 2.184609e+002
8.623610e+002, 2.194535e+002
8.628431e+002, 2.208470e+002
8.633252e+002, 2.216611e+002
8.638073e+002, 2.216283e+002
8.642894e+002, 2.212212e+002
8.647715e+002, 2.207316e+002
8.652537e+002, 2.201245e+002
8.657358e+002, 2.203314e+002
8.662179e+002, 2.215202e+002
8.667000e+002, 2.228897e+002
8.671821e+002, 2.237197e+002
8.676642e+002, 2.241838e+002
8.681464e+002, 2.243957e+002
8.686285e+002, 2.242987e+002
8.691106e+002, 2.245491e+002
8.695927e+002, 2.256760e+002
8.700748e+002, 2.270182e+002
8.705569e+002, 2.280824e+002
8.710391e+002, 2.287645e+002
8.715212e+002, 2.298590e+002
8.720033e+002, 2.314296e+002
8.724854e+002, 2.331150e+002
8.729675e+002, 2.346679e+002
8.734496e+002, 2.361087e+002
8.739318e+002, 2.374468e+002
8.744139e+002, 2.386761e+002
8.748960e+002, 2.397738e+002
8.753781e+002, 2.406643e+002
8.758602e+002, 2.414710e+002
8.763423e+002, 2.423711e+002
8.768245e+002, 2.433422e+002
8.773066e+002, 2.438019e+002
8.777887e+002, 2.436923e+002
8.782708e+002, 2.432040e+002
8.787529e+002, 2.422538e+002
8.792350e+002, 2.410705e+002
8.797172e+002, 2.403513e+002
8.801993e+002, 2.400924e+002
8.806814e+002, 2.401662e+002
8.811635e+002, 2.405815e+002
8.816456e+002, 2.412395e+002
8.821277e+002, 2.422036e+002
8.826099e+002, 2.433569e+002
8.830920e+002, 2.443591e+002
8.835741e+002, 2.451321e+002
8.840562e+002, 2.457349e+002
8.845383e+002, 2.460976e+002
8.850204e+002, 2.463575e+002
8.855026e+002, 2.467559e+002
8.859847e+002, 2.472980e+002
8.864668e+002, 2.481605e+002
8.869489e+002, 2.494749e+002
8.874310e+002, 2.509360e+002
8.879131e+002, 2.523082e+002
8.883953e+002, 2.535580e+002
8.888774e+002, 2.546463e+002
8.893595e+002, 2.554858e+002
8.898416e+002, 2.562855e+002
8.903237e+002, 2.571578e+002
8.908058e+002, 2.579450e+002
8.912880e+002, 2.583793e+002
8.917701e+002, 2.583984e+002
8.922522e+002, 2.589152e+002
8.927343e+002, 2.600469e+002
8.932164e+002, 2.614341e+002
8.936985e+002, 2.629804e+002
8.941807e+002, 2.644198e+002
8.946628e+002, 2.652879e+002
8.951449e+002, 2.654152e+002
8.956270e+002, 2.656600e+002
8.961091e+002, 2.662607e+002
8.965912e+002, 2.671526e+002
8.970734e+002, 2.683452e+002
8.975555e+002, 2.698631e+002
8.980376e+002, 2.713203e+002
8.985197e+002, 2.727275e+002
8.990018e+002, 2.739680e+002
8.994839e+002, 2.748885e+002
8.999661e+002, 2.756053e+002
9.004482e+002, 2.762404e+002
9.009303e+002, 2.768405e+002
9.014124e+002, 2.776138e+002
9.018945e+002, 2.787972e+002
9.023766e+002, 2.800522e+002
9.028588e+002, 2.812101e+002
9.033409e+002, 2.822949e+002
9.038230e+002, 2.835206e+002
9.043051e+002, 2.849349e+002
9.047872e+002, 2.863264e+002
9.052693e+002, 2.876583e+002
9.057515e+002, 2.889009e+002
9.062336e+002, 2.899790e+002
9.067157e+002, 2.909248e+002
9.071978e+002, 2.918378e+002
9.076799e+002, 2.927928e+002
9.081620e+002, 2.936768e+002
9.086442e+002, 2.943840e+002
9.091263e+002, 2.950154e+002
9.096084e+002, 2.957531e+002
9.100905e+002, 2.966703e+002
9.105726e+002, 2.975035e+002
9.110547e+002, 2.982074e+002
9.115369e+002, 2.989171e+002
9.120190e+002, 2.996686e+002
9.125011e+002, 3.005811e+002
9.129832e+002, 3.022041e+002
9.134653e+002, 3.048017e+002
9.139474e+002, 3.069487e+002
9.144296e+002, 3.072549e+002
9.149117e+002, 3.070414e+002
9.153938e+002, 3.074701e+002
9.158759e+002, 3.088243e+002
9.163580e+002, 3.098660e+002
9.168401e+002, 3.104389e+002
9.173223e+002, 3.110722e+002
9.178044e+002, 3.122044e+002
9.182865e+002, 3.136902e+002
9.187686e+002, 3.150794e+002
9.192507e+002, 3.163640e+002
9.197328e+002, 3.175154e+002
9.202150e+002, 3.184481e+002
9.206971e+002, 3.193092e+002
9.211792e+002, 3.202810e+002
9.216613e+002, 3.213141e+002
9.221434e+002, 3.219323e+002
9.226255e+002, 3.216803e+002
9.231077e+002, 3.221473e+002
9.235898e+002, 3.240856e+002
9.240719e+002, 3.267052e+002
9.245540e+002, 3.281759e+002
9.250361e+002, 3.287112e+002
9.255182e+002, 3.291426e+002
9.260004e+002, 3.296928e+002
9.264825e+002, 3.303697e+002
9.269646e+002, 3.312007e+002
9.274467e+002, 3.321542e+002
9.279288e+002, 3.331776e+002
9.284109e+002, 3.342574e+002
9.288931e+002, 3.354434e+002
9.293752e+002, 3.367935e+002
9.298573e+002, 3.381154e+002
9.303394e+002, 3.390821e+002
9.308215e+002, 3.398383e+002
9.313036e+002, 3.410263e+002
9.317858e+002, 3.427630e+002
9.322679e+002, 3.444010e+002
9.327500e+002, 3.454142e+002
9.332321e+002, 3.462329e+002
9.337142e+002, 3.471982e+002
9.341964e+002, 3.483524e+002
9.346785e+002, 3.496021e+002
9.351606e+002, 3.510492e+002
9.356427e+002, 3.523185e+002
9.361248e+002, 3.530177e+002
9.366069e+002, 3.534401e+002
9.370891e+002, 3.545934e+002
9.375712e+002, 3.563817e+002
9.380533e+002, 3.582631e+002
9.385354e+002, 3.603043e+002
9.390175e+002, 3.619847e+002
9.394996e+002, 3.625924e+002
9.399818e+002, 3.625983e+002
9.404639e+002, 3.633900e+002
9.409460e+002, 3.653657e+002
9.414281e+002, 3.670760e+002
9.419102e+002, 3.681540e+002
9.423923e+002, 3.690422e+002
9.428745e+002, 3.705005e+002
9.433566e+002, 3.723682e+002
9.438387e+002, 3.741909e+002
9.443208e+002, 3.759005e+002
9.448029e+002, 3.773420e+002
9.452850e+002, 3.782041e+002
9.457672e+002, 3.789146e+002
9.462493e+002, 3.798936e+002
9.467314e+002, 3.812242e+002
9.472135e+002, 3.825499e+002
9.476956e+002, 3.838755e+002
9.481777e+002, 3.851879e+002
9.486599e+002, 3.863739e+002
9.491420e+002, 3.875397e+002
9.496241e+002, 3.890079e+002
9.501062e+002, 3.907377e+002
9.505883e+002, 3.923612e+002
9.510704e+002, 3.936939e+002
9.515526e+002, 3.948564e+002
9.520347e+002, 3.957552e+002
9.525168e+002, 3.965119e+002
9.529989e+002, 3.975977e+002
9.534810e+002, 3.991027e+002
9.539631e+002, 4.005098e+002
9.544453e+002, 4.016764e+002
9.549274e+002, 4.026607e+002
9.554095e+002, 4.035621e+002
9.558916e+002, 4.043538e+002
9.563737e+002, 4.049626e+002
9.568558e+002, 4.051384e+002
9.573380e+002, 4.055699e+002
9.578201e+002, 4.068412e+002
9.583022e+002, 4.082531e+002
9.587843e+002, 4.091069e+002
9.592664e+002, 4.092625e+002
9.597485e+002, 4.096725e+002
9.602307e+002, 4.103703e+002
9.607128e+002, 4.112705e+002
9.611949e+002, 4.124477e+002
9.616770e+002, 4.137049e+002
9.621591e+002, 4.148101e+002
9.626412e+002, 4.157433e+002
9.631234e+002, 4.163690e+002
9.636055e+002, 4.159056e+002
9.640876e+002, 4.159836e+002
9.645697e+002, 4.174580e+002
9.650518e+002, 4.198770e+002
9.655339e+002, 4.212842e+002
9.660161e+002, 4.216778e+002
9.664982e+002, 4.217035e+002
9.669803e+002, 4.213382e+002
9.674624e+002, 4.211523e+002
9.679445e+002, 4.221554e+002
9.684266e+002, 4.236889e+002
9.689088e+002, 4.246463e+002
9.693909e+002, 4.242707e+002
9.698730e+002, 4.239857e+002
9.703551e+002, 4.241236e+002
9.708372e+002, 4.241002e+002
9.713193e+002, 4.229872e+002
9.718015e+002, 4.209911e+002
9.722836e+002, 4.201015e+002
9.727657e+002, 4.205054e+002
9.732478e+002, 4.211214e+002
9.737299e+002, 4.213329e+002
9.742120e+002, 4.212311e+002
9.746942e+002, 4.207675e+002
9.751763e+002, 4.199456e+002
9.756584e+002, 4.194061e+002
9.761405e+002, 4.192838e+002
9.766226e+002, 4.191984e+002
9.771047e+002, 4.190422e+002
9.775869e+002, 4.187947e+002
9.780690e+002, 4.181987e+002
9.785511e+002, 4.174297e+002
9.790332e+002, 4.171927e+002
9.795153e+002, 4.184947e+002
9.799974e+002, 4.193277e+002
9.804796e+002, 4.183537e+002
9.809617e+002, 4.163595e+002
9.814438e+002, 4.144052e+002
9.819259e+002, 4.122601e+002
9.824080e+002, 4.110202e+002
9.828901e+002, 4.109038e+002
9.833723e+002, 4.110367e+002
9.838544e+002, 4.105940e+002
9.843365e+002, 4.097637e+002
9.848186e+002, 4.087542e+002
9.853007e+002, 4.076035e+002
9.857828e+002, 4.068034e+002
9.862650e+002, 4.069645e+002
9.867471e+002, 4.071188e+002
9.872292e+002, 4.070221e+002
9.877113e+002, 4.065748e+002
9.881934e+002, 4.048708e+002
9.886755e+002, 4.018160e+002
9.891577e+002, 3.997192e+002
9.896398e+002, 3.999180e+002
9.901219e+002, 4.007433e+002
9.906040e+002, 4.003384e+002
9.910861e+002, 3.991119e+002
9.915682e+002, 3.977450e+002
9.920504e+002, 3.959191e+002
9.925325e+002, 3.948188e+002
9.930146e+002, 3.950096e+002
9.934967e+002, 3.952821e+002
9.939788e+002, 3.943249e+002
9.944609e+002, 3.923133e+002
9.949431e+002, 3.908263e+002
9.954252e+002, 3.899418e+002
9.959073e+002, 3.890537e+002
9.963894e+002, 3.875879e+002
9.968715e+002, 3.860458e+002
9.973536e+002, 3.847829e+002
9.978358e+002, 3.838183e+002
9.983179e+002, 3.828944e+002
9.988000e+002, 3.820805e+002
9.992821e+002, 3.810807e+002
9.997642e+002, 3.797081e+002
1.000246e+003, 3.782269e+002
1.000728e+003, 3.772316e+002
1.001211e+003, 3.765825e+002
1.001693e+003, 3.759609e+002
1.002175e+003, 3.752368e+002
1.002657e+003, 3.745841e+002
1.003139e+003, 3.742559e+002
1.003621e+003, 3.739117e+002
1.004103e+003, 3.732762e+002
1.004585e+003, 3.723453e+002
1.005068e+003, 3.709999e+002
1.005550e+003, 3.691574e+002
1.006032e+003, 3.675693e+002
1.006514e+003, 3.669570e+002
1.006996e+003, 3.668021e+002
1.007478e+003, 3.666127e+002
1.007960e+003, 3.663133e+002
1.008442e+003, 3.656805e+002
1.008924e+003, 3.640726e+002
1.009407e+003, 3.629034e+002
1.009889e+003, 3.627257e+002
1.010371e+003, 3.628751e+002
1.010853e+003, 3.618095e+002
1.011335e+003, 3.597145e+002
1.011817e+003, 3.578709e+002
1.012299e+003, 3.565551e+002
1.012781e+003, 3.555991e+002
1.013263e+003, 3.552760e+002
1.013746e+003, 3.549986e+002
1.014228e+003, 3.540759e+002
1.014710e+003, 3.522603e+002
1.015192e+003, 3.510829e+002
1.015674e+003, 3.507382e+002
1.016156e+003, 3.504266e+002
1.016638e+003, 3.496629e+002
1.017120e+003, 3.485836e+002
1.017603e+003, 3.472943e+002
1.018085e+003, 3.459094e+002
1.018567e+003, 3.448859e+002
1.019049e+003, 3.448809e+002
1.019531e+003, 3.446851e+002
1.020013e+003, 3.436828e+002
1.020495e+003, 3.424365e+002
1.020977e+003, 3.418924e+002
1.021459e+003, 3.420719e+002
1.021942e+003, 3.416697e+002
1.022424e+003, 3.404505e+002
1.022906e+003, 3.391729e+002
1.023388e+003, 3.387512e+002
1.023870e+003, 3.384817e+002
1.024352e+003, 3.375022e+002
1.024834e+003, 3.356542e+002
1.025316e+003, 3.344788e+002
1.025799e+003, 3.344864e+002
1.026281e+003, 3.343043e+002
1.026763e+003, 3.332676e+002
1.027245e+003, 3.317898e+002
1.027727e+003, 3.308861e+002
1.028209e+003, 3.304353e+002
1.028691e+003, 3.300327e+002
1.029173e+003, 3.295776e+002
1.029656e+003, 3.290434e+002
1.030138e+003, 3.282999e+002
1.030620e+003, 3.275462e+002
1.031102e+003, 3.270146e+002
1.031584e+003, 3.267698e+002
1.032066e+003, 3.263497e+002
1.032548e+003, 3.257370e+002
1.033030e+003, 3.249613e+002
1.033512e+003, 3.239404e+002
1.033995e+003, 3.228430e+002
1.034477e+003, 3.216616e+002
1.034959e+003, 3.205201e+002
1.035441e+003, 3.201446e+002
1.035923e+003, 3.219261e+002
1.036405e+003, 3.225517e+002
1.036887e+003, 3.209572e+002
1.037369e+003, 3.183561e+002
1.037851e+003, 3.170117e+002
1.038334e+003, 3.167198e+002
1.038816e+003, 3.166669e+002
1.039298e+003, 3.167371e+002
1.039780e+003, 3.167392e+002
1.040262e+003, 3.166823e+002
1.040744e+003, 3.164072e+002
1.041226e+003, 3.156605e+002
1.041708e+003, 3.143866e+002
1.042191e+003, 3.138339e+002
1.042673e+003, 3.140993e+002
1.043155e+003, 3.141974e+002
1.043637e+003, 3.134702e+002
1.044119e+003, 3.123760e+002
1.044601e+003, 3.111467e+002
1.045083e+003, 3.100785e+002
1.045565e+003, 3.098902e+002
1.046047e+003, 3.121412e+002
1.046530e+003, 3.132211e+002
1.047012e+003, 3.122318e+002
1.047494e+003, 3.108781e+002
1.047976e+003, 3.111461e+002
1.048458e+003, 3.127434e+002
1.048940e+003, 3.142385e+002
1.049422e+003, 3.155312e+002
1.049904e+003, 3.169871e+002
1.050386e+003, 3.191115e+002
1.050869e+003, 3.212329e+002
1.051351e+003, 3.225762e+002
1.051833e+003, 3.235283e+002
1.052315e+003, 3.259143e+002
1.052797e+003, 3.299810e+002
1.053279e+003, 3.335457e+002
1.053761e+003, 3.358189e+002
1.054243e+003, 3.380620e+002
1.054726e+003, 3.421576e+002
1.055208e+003, 3.471333e+002
1.055690e+003, 3.514517e+002
1.056172e+003, 3.541675e+002
1.056654e+003, 3.584571e+002
1.057136e+003, 3.649900e+002
1.057618e+003, 3.722689e+002
1.058100e+003, 3.792558e+002
1.058583e+003, 3.862942e+002
1.059065e+003, 3.948020e+002
1.059547e+003, 4.046314e+002
1.060029e+003, 4.151797e+002
1.060511e+003, 4.259549e+002
1.060993e+003, 4.372740e+002
1.061475e+003, 4.490300e+002
1.061957e+003, 4.615378e+002
1.062439e+003, 4.753906e+002
1.062922e+003, 4.907681e+002
1.063404e+003, 5.058216e+002
1.063886e+003, 5.202682e+002
1.064368e+003, 5.350579e+002
1.064850e+003, 5.510261e+002
1.065332e+003, 5.679307e+002
1.065814e+003, 5.854691e+002
1.066296e+003, 6.035378e+002
1.066778e+003, 6.229733e+002
1.067261e+003, 6.435638e+002
1.067743e+003, 6.659534e+002
1.068225e+003, 6.901642e+002
1.068707e+003, 7.164490e+002
1.069189e+003, 7.451921e+002
1.069671e+003, 7.759219e+002
1.070153e+003, 8.075795e+002
1.070635e+003, 8.398602e+002
1.071118e+003, 8.722780e+002
1.071600e+003, 9.053024e+002
1.072082e+003, 9.368082e+002
1.072564e+003, 9.658995e+002
1.073046e+003, 9.922733e+002
1.073528e+003, 1.015421e+003
1.074010e+003, 1.035067e+003
1.074492e+003, 1.049714e+003
1.074974e+003, 1.058931e+003
1.075457e+003, 1.062191e+003
1.075939e+003, 1.058609e+003
1.076421e+003, 1.048902e+003
1.076903e+003, 1.034033e+003
1.077385e+003, 1.014120e+003
1.077867e+003, 9.898804e+002
1.078349e+003, 9.608980e+002
1.078831e+003, 9.298850e+002
1.079313e+003, 8.981524e+002
1.079796e+003, 8.666190e+002
1.080278e+003, 8.367104e+002
1.080760e+003, 8.082104e+002
1.081242e+003, 7.808567e+002
1.081724e+003, 7.550973e+002
1.082206e+003, 7.297978e+002
1.082688e+003, 7.052687e+002
1.083170e+003, 6.811575e+002
1.083652e+003, 6.566477e+002
1.084135e+003, 6.320153e+002
1.084617e+003, 6.090804e+002
1.085099e+003, 5.881873e+002
1.085581e+003, 5.688796e+002
1.086063e+003, 5.515991e+002
1.086545e+003, 5.352970e+002
1.087027e+003, 5.186948e+002
1.087509e+003, 5.020278e+002
1.087992e+003, 4.874658e+002
1.088474e+003, 4.750323e+002
1.088956e+003, 4.625498e+002
1.089438e+003, 4.484336e+002
1.089920e+003, 4.350998e+002
1.090402e+003, 4.249379e+002
1.090884e+003, 4.168465e+002
1.091366e+003, 4.093757e+002
1.091849e+003, 4.021923e+002
1.092331e+003, 3.960768e+002
1.092813e+003, 3.913236e+002
1.093295e+003, 3.866385e+002
1.093777e+003, 3.809878e+002
1.094259e+003, 3.748084e+002
1.094741e+003, 3.692341e+002
1.095223e+003, 3.638228e+002
1.095705e+003, 3.569945e+002
1.096188e+003, 3.472414e+002
1.096670e+003, 3.372916e+002
1.097152e+003, 3.274516e+002
1.097634e+003, 3.178169e+002
1.098116e+003, 3.083970e+002
1.098598e+003, 2.991352e+002
1.099080e+003, 2.897597e+002
1.099562e+003, 2.802217e+002
1.100044e+003, 2.716850e+002
1.100527e+003, 2.650390e+002
1.101009e+003, 2.594320e+002
1.101491e+003, 2.545530e+002
1.101973e+003, 2.502538e+002
1.102455e+003, 2.463345e+002
1.102937e+003, 2.427794e+002
1.103419e+003, 2.397835e+002
1.103901e+003, 2.375205e+002
1.104384e+003, 2.354381e+002
1.104866e+003, 2.330017e+002
1.105348e+003, 2.305240e+002
1.105830e+003, 2.282003e+002
1.106312e+003, 2.260278e+002
1.106794e+003, 2.246045e+002
1.107276e+003, 2.240644e+002
1.107758e+003, 2.237343e+002
1.108240e+003, 2.233391e+002
1.108723e+003, 2.229229e+002
1.109205e+003, 2.226492e+002
1.109687e+003, 2.223714e+002
1.110169e+003, 2.217975e+002
1.110651e+003, 2.205825e+002
1.111133e+003, 2.195464e+002
1.111615e+003, 2.188107e+002
1.112097e+003, 2.181247e+002
1.112579e+003, 2.172755e+002
1.113062e+003, 2.163170e+002
1.113544e+003, 2.152905e+002
1.114026e+003, 2.142833e+002
1.114508e+003, 2.137507e+002
1.114990e+003, 2.146907e+002
1.115472e+003, 2.151541e+002
1.115954e+003, 2.141882e+002
1.116436e+003, 2.127325e+002
1.116919e+003, 2.119830e+002
1.117401e+003, 2.118895e+002
1.117883e+003, 2.118605e+002
1.118365e+003, 2.118465e+002
1.118847e+003, 2.117099e+002
1.119329e+003, 2.112310e+002
1.119811e+003, 2.107121e+002
1.120293e+003, 2.104826e+002
1.120776e+003, 2.103746e+002
1.121258e+003, 2.096697e+002
1.121740e+003, 2.082531e+002
1.122222e+003, 2.074240e+002
1.122704e+003, 2.075584e+002
1.123186e+003, 2.078638e+002
1.123668e+003, 2.075550e+002
1.124150e+003, 2.069557e+002
1.124632e+003, 2.063667e+002
1.125115e+003, 2.058203e+002
1.125597e+003, 2.054033e+002
1.126079e+003, 2.052049e+002
1.126561e+003, 2.048144e+002
1.127043e+003, 2.039678e+002
1.127525e+003, 2.030259e+002
1.128007e+003, 2.027430e+002
1.128489e+003, 2.027389e+002
1.128971e+003, 2.023008e+002
1.129454e+003, 2.009299e+002
1.129936e+003, 2.000864e+002
1.130418e+003, 2.002023e+002
1.130900e+003, 2.002737e+002
1.131382e+003, 1.995465e+002
1.131864e+003, 1.983704e+002
1.132346e+003, 1.977564e+002
1.132828e+003, 1.976093e+002
1.133311e+003, 1.976171e+002
1.133793e+003, 1.977652e+002
1.134275e+003, 1.978907e+002
1.134757e+003, 1.980229e+002
1.135239e+003, 1.980402e+002
1.135721e+003, 1.977759e+002
1.136203e+003, 1.972641e+002
1.136685e+003, 1.967828e+002
1.137167e+003, 1.963392e+002
1.137650e+003, 1.959616e+002
1.138132e+003, 1.957770e+002
1.138614e+003, 1.955404e+002
1.139096e+003, 1.949978e+002
1.139578e+003, 1.943879e+002
1.140060e+003, 1.941541e+002
1.140542e+003, 1.943084e+002
1.141024e+003, 1.942678e+002
1.141506e+003, 1.939649e+002
1.141989e+003, 1.936623e+002
1.142471e+003, 1.937323e+002
1.142953e+003, 1.937435e+002
1.143435e+003, 1.933154e+002
1.143917e+003, 1.925200e+002
1.144399e+003, 1.916589e+002
1.144881e+003, 1.906378e+002
1.145363e+003, 1.903415e+002
1.145846e+003, 1.911060e+002
1.146328e+003, 1.920391e+002
1.146810e+003, 1.924381e+002
1.147292e+003, 1.922944e+002
1.147774e+003, 1.913714e+002
1.148256e+003, 1.895635e+002
1.148738e+003, 1.884480e+002
1.149220e+003, 1.881940e+002
1.149703e+003, 1.880964e+002
1.150185e+003, 1.879142e+002
1.150667e+003, 1.877568e+002
1.151149e+003, 1.879224e+002
1.151631e+003, 1.881714e+002
1.152113e+003, 1.880864e+002
1.152595e+003, 1.874397e+002
1.153077e+003, 1.869715e+002
1.153559e+003, 1.867966e+002
1.154042e+003, 1.866525e+002
1.154524e+003, 1.864233e+002
1.155006e+003, 1.861174e+002
1.155488e+003, 1.856758e+002
1.155970e+003, 1.851763e+002
1.156452e+003, 1.848366e+002
1.156934e+003, 1.849478e+002
1.157416e+003, 1.847864e+002
1.157898e+003, 1.841067e+002
1.158381e+003, 1.834243e+002
1.158863e+003, 1.831106e+002
1.159345e+003, 1.831164e+002
1.159827e+003, 1.834100e+002
1.160309e+003, 1.838770e+002
1.160791e+003, 1.840497e+002
1.161273e+003, 1.834265e+002
1.161755e+003, 1.828518e+002
1.162238e+003, 1.825540e+002
1.162720e+003, 1.823653e+002
1.163202e+003, 1.821476e+002
1.163684e+003, 1.818887e+002
1.164166e+003, 1.814654e+002
1.164648e+003, 1.808935e+002
1.165130e+003, 1.803908e+002
1.165612e+003, 1.799844e+002
1.166094e+003, 1.797984e+002
1.166577e+003, 1.801340e+002
1.167059e+003, 1.805527e+002
1.167541e+003, 1.802592e+002
1.168023e+003, 1.793260e+002
1.168505e+003, 1.787325e+002
1.168987e+003, 1.785806e+002
1.169469e+003, 1.784075e+002
1.169951e+003, 1.777082e+002
1.170433e+003, 1.770743e+002
1.170916e+003, 1.769842e+002
1.171398e+003, 1.771961e+002
1.171880e+003, 1.770811e+002
1.172362e+003, 1.766441e+002
1.172844e+003, 1.763192e+002
1.173326e+003, 1.761895e+002
1.173808e+003, 1.761662e+002
1.174290e+003, 1.762334e+002
1.174773e+003, 1.763282e+002
1.175255e+003, 1.765667e+002
1.175737e+003, 1.768235e+002
1.176219e+003, 1.762080e+002
1.176701e+003, 1.746511e+002
1.177183e+003, 1.736208e+002
1.177665e+003, 1.735890e+002
1.178147e+003, 1.739082e+002
1.178630e+003, 1.740893e+002
1.179112e+003, 1.742236e+002
1.179594e+003, 1.745117e+002
1.180076e+003, 1.749585e+002
1.180558e+003, 1.746520e+002
1.181040e+003, 1.734739e+002
1.181522e+003, 1.727386e+002
1.182004e+003, 1.731711e+002
1.182486e+003, 1.737666e+002
1.182969e+003, 1.734389e+002
1.183451e+003, 1.726482e+002
1.183933e+003, 1.718688e+002
1.184415e+003, 1.710942e+002
1.184897e+003, 1.708063e+002
1.185379e+003, 1.710898e+002
1.185861e+003, 1.712803e+002
1.186343e+003, 1.709093e+002
1.186825e+003, 1.704459e+002
1.187308e+003, 1.705192e+002
1.187790e+003, 1.708505e+002
1.188272e+003, 1.709965e+002
1.188754e+003, 1.708222e+002
1.189236e+003, 1.707197e+002
1.189718e+003, 1.707326e+002
1.190200e+003, 1.706015e+002
1.190682e+003, 1.699075e+002
1.191165e+003, 1.691863e+002
1.191647e+003, 1.694906e+002
1.192129e+003, 1.702151e+002
1.192611e+003, 1.700661e+002
1.193093e+003, 1.681331e+002
1.193575e+003, 1.669521e+002
1.194057e+003, 1.666840e+002
1.194539e+003, 1.666449e+002
1.195021e+003, 1.661995e+002
1.195504e+003, 1.657218e+002
1.195986e+003, 1.658508e+002
1.196468e+003, 1.663756e+002
1.196950e+003, 1.666528e+002
1.197432e+003, 1.664191e+002
1.197914e+003, 1.662832e+002
1.198396e+003, 1.662930e+002
1.198878e+003, 1.663541e+002
1.199360e+003, 1.665016e+002
1.199843e+003, 1.665669e+002
1.200325e+003, 1.662080e+002
1.200807e+003, 1.655294e+002
1.201289e+003, 1.649830e+002
1.201771e+003, 1.646082e+002
1.202253e+003, 1.644872e+002
1.202735e+003, 1.646817e+002
1.203217e+003, 1.649738e+002
1.203700e+003, 1.652829e+002
1.204182e+003, 1.654418e+002
1.204664e+003, 1.650032e+002
1.205146e+003, 1.640883e+002
1.205628e+003, 1.636492e+002
1.206110e+003, 1.639521e+002
1.206592e+003, 1.645114e+002
1.207074e+003, 1.654268e+002
1.207557e+003, 1.660570e+002
1.208039e+003, 1.653025e+002
1.208521e+003, 1.639160e+002
1.209003e+003, 1.629033e+002
1.209485e+003, 1.623487e+002
1.209967e+003, 1.620869e+002
1.210449e+003, 1.622613e+002
1.210931e+003, 1.622337e+002
1.211413e+003, 1.617979e+002
1.211896e+003, 1.613113e+002
1.212378e+003, 1.614728e+002
1.212860e+003, 1.617766e+002
1.213342e+003, 1.612601e+002
1.213824e+003, 1.598226e+002
1.214306e+003, 1.592678e+002
1.214788e+003, 1.602021e+002
1.215270e+003, 1.607811e+002
1.215752e+003, 1.604701e+002
1.216235e+003, 1.597328e+002
1.216717e+003, 1.589549e+002
1.217199e+003, 1.583167e+002
1.217681e+003, 1.581747e+002
1.218163e+003, 1.586217e+002
1.218645e+003, 1.587981e+002
1.219127e+003, 1.585174e+002
1.219609e+003, 1.583790e+002
1.220092e+003, 1.586513e+002
1.220574e+003, 1.589731e+002
1.221056e+003, 1.588067e+002
1.221538e+003, 1.583407e+002
1.222020e+003, 1.577782e+002
1.222502e+003, 1.571219e+002
1.222984e+003, 1.567540e+002
1.223466e+003, 1.567906e+002
1.223948e+003, 1.567403e+002
1.224431e+003, 1.563600e+002
1.224913e+003, 1.559326e+002
1.225395e+003, 1.560487e+002
1.225877e+003, 1.562942e+002
1.226359e+003, 1.559942e+002
1.226841e+003, 1.548328e+002
1.227323e+003, 1.543323e+002
1.227805e+003, 1.546888e+002
1.228287e+003, 1.549385e+002
1.228770e+003, 1.546473e+002
1.229252e+003, 1.541096e+002
1.229734e+003, 1.536908e+002
1.230216e+003, 1.533026e+002
1.230698e+003, 1.527726e+002
1.231180e+003, 1.519794e+002
1.231662e+003, 1.516428e+002
1.232144e+003, 1.518277e+002
1.232627e+003, 1.521113e+002
1.233109e+003, 1.524181e+002
1.233591e+003, 1.525366e+002
1.234073e+003, 1.521090e+002
1.234555e+003, 1.513952e+002
1.235037e+003, 1.506754e+002
1.235519e+003, 1.499114e+002
1.236001e+003, 1.497095e+002
1.236484e+003, 1.501586e+002
1.236966e+003, 1.503941e+002
1.237448e+003, 1.498216e+002
1.237930e+003, 1.490969e+002
1.238412e+003, 1.489716e+002
1.238894e+003, 1.490486e+002
1.239376e+003, 1.487309e+002
1.239858e+003, 1.479028e+002
1.240340e+003, 1.474042e+002
1.240823e+003, 1.472509e+002
1.241305e+003, 1.471761e+002
1.241787e+003, 1.470654e+002
1.242269e+003, 1.469373e+002
1.242751e+003, 1.467496e+002
1.243233e+003, 1.465888e+002
1.243715e+003, 1.466251e+002
1.244197e+003, 1.469170e+002
1.244679e+003, 1.466838e+002
1.245162e+003, 1.459370e+002
1.245644e+003, 1.453020e+002
1.246126e+003, 1.453665e+002
1.246608e+003, 1.453193e+002
1.247090e+003, 1.442077e+002
1.247572e+003, 1.429747e+002
1.248054e+003, 1.428357e+002
1.248536e+003, 1.438608e+002
1.249019e+003, 1.438645e+002
1.249501e+003, 1.429312e+002
1.249983e+003, 1.419249e+002
1.250465e+003, 1.409208e+002
1.250947e+003, 1.404789e+002
1.251429e+003, 1.416521e+002
1.251911e+003, 1.429222e+002
1.252393e+003, 1.427097e+002
1.252875e+003, 1.411210e+002
1.253358e+003, 1.401818e+002
1.253840e+003, 1.398433e+002
1.254322e+003, 1.397585e+002
1.254804e+003, 1.399489e+002
1.255286e+003, 1.400954e+002
1.255768e+003, 1.400686e+002
1.256250e+003, 1.399725e+002
1.256732e+003, 1.399800e+002
1.257214e+003, 1.400110e+002
1.257697e+003, 1.393949e+002
1.258179e+003, 1.382924e+002
1.258661e+003, 1.374531e+002
1.259143e+003, 1.372575e+002
1.259625e+003, 1.373443e+002
1.260107e+003, 1.378531e+002
1.260589e+003, 1.382614e+002
1.261071e+003, 1.379559e+002
1.261554e+003, 1.372308e+002
1.262036e+003, 1.370741e+002
1.262518e+003, 1.373409e+002
1.263000e+003, 1.375081e+002
1.263482e+003, 1.374486e+002
1.263964e+003, 1.370848e+002
1.264446e+003, 1.361905e+002
1.264928e+003, 1.355140e+002
1.265411e+003, 1.359867e+002
1.265893e+003, 1.369461e+002
1.266375e+003, 1.372627e+002
1.266857e+003, 1.369826e+002
1.267339e+003, 1.362504e+002
1.267821e+003, 1.346017e+002
1.268303e+003, 1.334103e+002
1.268785e+003, 1.327270e+002
1.269267e+003, 1.324108e+002
1.269750e+003, 1.325970e+002
1.270232e+003, 1.329034e+002
1.270714e+003, 1.326899e+002
1.271196e+003, 1.322307e+002
1.271678e+003, 1.322658e+002
1.272160e+003, 1.333186e+002
1.272642e+003, 1.332050e+002
1.273124e+003, 1.317357e+002
1.273606e+003, 1.302705e+002
1.274089e+003, 1.298059e+002
1.274571e+003, 1.297639e+002
1.275053e+003, 1.298459e+002
1.275535e+003, 1.299036e+002
1.276017e+003, 1.296259e+002
1.276499e+003, 1.288809e+002
1.276981e+003, 1.288602e+002
1.277463e+003, 1.295727e+002
1.277946e+003, 1.299726e+002
1.278428e+003, 1.289760e+002
1.278910e+003, 1.279017e+002
1.279392e+003, 1.276321e+002
1.279874e+003, 1.277083e+002
1.280356e+003, 1.275915e+002
1.280838e+003, 1.272903e+002
1.281320e+003, 1.270271e+002
1.281802e+003, 1.268106e+002
1.282285e+003, 1.266627e+002
1.282767e+003, 1.266646e+002
1.283249e+003, 1.266491e+002
1.283731e+003, 1.266524e+002
1.284213e+003, 1.265056e+002
1.284695e+003, 1.258390e+002
1.285177e+003, 1.248748e+002
1.285659e+003, 1.249856e+002
1.286141e+003, 1.258499e+002
1.286624e+003, 1.261248e+002
1.287106e+003, 1.244987e+002
1.287588e+003, 1.233465e+002
1.288070e+003, 1.230888e+002
1.288552e+003, 1.231147e+002
1.289034e+003, 1.228697e+002
1.289516e+003, 1.225772e+002
1.289998e+003, 1.228560e+002
1.290481e+003, 1.235005e+002
1.290963e+003, 1.239766e+002
1.291445e+003, 1.238917e+002
1.291927e+003, 1.241251e+002
1.292409e+003, 1.248003e+002
1.292891e+003, 1.253199e+002
1.293373e+003, 1.251438e+002
1.293855e+003, 1.246608e+002
1.294338e+003, 1.243711e+002
1.294820e+003, 1.241333e+002
1.295302e+003, 1.236624e+002
1.295784e+003, 1.228909e+002
1.296266e+003, 1.220880e+002
1.296748e+003, 1.212445e+002
1.297230e+003, 1.205320e+002
1.297712e+003, 1.200231e+002
1.298194e+003, 1.197203e+002
1.298677e+003, 1.197921e+002
1.299159e+003, 1.199667e+002
1.299641e+003, 1.198381e+002
1.300123e+003, 1.193851e+002
1.300605e+003, 1.195200e+002
1.301087e+003, 1.201638e+002
1.301569e+003, 1.206209e+002
1.302051e+003, 1.205473e+002
1.302533e+003, 1.201713e+002
1.303016e+003, 1.195316e+002
##END=



