##NAMES=Petedunnite
##RRUFFID=R070207
##IDEAL CHEMISTRY=CaZn^2+^Si_2_O_6_
##LOCALITY=Franklin, New Jersey, USA
##OWNER=RRUFF
##SOURCE=William W. Pinch
##DESCRIPTION=Dark green fine-grained massive
##STATUS=The identification of this mineral is confirmed by single-crystal X-ray diffraction and chemical analysis.
##URL=rruff.info/R070207
##MEASURED CHEMISTRY=(Ca_0.94_Mn_0.06_)_Σ=1_(Zn_0.33_Fe^2+^_0.29_Mg_0.21_Mn_0.15_Fe^3+^_0.02_)_Σ=1_(Si_1.98_Al_0.02_)_Σ=2_O_6_ ; = gray phase
180.6098, 4514.518
181.0919, 4516.182
181.5740, 4525.464
182.0561, 4552.026
182.5383, 4585.724
183.0204, 4613.544
183.5025, 4628.413
183.9846, 4634.715
184.4667, 4645.200
184.9488, 4662.967
185.4310, 4679.461
185.9131, 4692.699
186.3952, 4703.483
186.8773, 4712.647
187.3594, 4720.464
187.8415, 4727.184
188.3237, 4733.537
188.8058, 4739.101
189.2879, 4744.959
189.7700, 4754.071
190.2521, 4762.450
190.7342, 4766.274
191.2164, 4763.836
191.6985, 4755.735
192.1806, 4742.599
192.6627, 4719.764
193.1448, 4700.121
193.6269, 4681.405
194.1091, 4668.199
194.5912, 4668.250
195.0733, 4684.913
195.5554, 4707.609
196.0375, 4712.278
196.5196, 4686.836
197.0018, 4665.409
197.4839, 4652.642
197.9660, 4644.907
198.4481, 4641.812
198.9302, 4642.819
199.4123, 4642.261
199.8945, 4626.010
200.3766, 4573.396
200.8587, 4547.977
201.3408, 4573.074
201.8229, 4611.115
202.3050, 4636.539
202.7872, 4641.452
203.2693, 4629.938
203.7514, 4604.600
204.2335, 4550.144
204.7156, 4517.465
205.1977, 4518.029
205.6799, 4530.856
206.1620, 4544.793
206.6441, 4556.380
207.1262, 4565.435
207.6083, 4572.795
208.0904, 4581.885
208.5726, 4579.489
209.0547, 4551.597
209.5368, 4524.353
210.0189, 4516.783
210.5010, 4528.797
210.9831, 4543.502
211.4653, 4539.148
211.9474, 4507.214
212.4295, 4487.832
212.9116, 4488.892
213.3937, 4494.811
213.8758, 4497.512
214.3580, 4497.466
214.8401, 4501.230
215.3222, 4518.354
215.8043, 4553.711
216.2864, 4568.989
216.7685, 4535.848
217.2507, 4509.206
217.7328, 4514.222
218.2149, 4545.045
218.6970, 4580.489
219.1791, 4604.216
219.6612, 4616.146
220.1434, 4619.045
220.6255, 4598.463
221.1076, 4582.576
221.5897, 4583.161
222.0718, 4594.370
222.5539, 4603.099
223.0361, 4599.181
223.5182, 4584.463
224.0003, 4579.027
224.4824, 4583.566
224.9645, 4598.233
225.4466, 4633.233
225.9288, 4676.378
226.4109, 4710.068
226.8930, 4723.619
227.3751, 4721.090
227.8572, 4718.902
228.3393, 4712.059
228.8215, 4713.090
229.3036, 4732.292
229.7857, 4756.938
230.2678, 4770.714
230.7499, 4765.880
231.2320, 4751.700
231.7142, 4752.972
232.1963, 4787.996
232.6784, 4806.325
233.1605, 4790.218
233.6426, 4763.473
234.1247, 4746.104
234.6069, 4744.819
235.0890, 4753.251
235.5711, 4761.469
236.0532, 4770.931
236.5353, 4776.497
237.0174, 4774.472
237.4996, 4771.236
237.9817, 4771.232
238.4638, 4775.196
238.9459, 4780.539
239.4280, 4784.770
239.9101, 4788.630
240.3923, 4788.451
240.8744, 4776.840
241.3565, 4767.105
241.8386, 4769.045
242.3207, 4780.826
242.8028, 4790.891
243.2850, 4785.654
243.7671, 4763.088
244.2492, 4749.654
244.7313, 4755.610
245.2134, 4761.410
245.6955, 4755.574
246.1777, 4743.049
246.6598, 4737.780
247.1419, 4753.141
247.6240, 4785.921
248.1061, 4806.350
248.5882, 4810.276
249.0704, 4806.004
249.5525, 4792.578
250.0346, 4774.476
250.5167, 4758.886
250.9988, 4750.140
251.4809, 4745.732
251.9631, 4737.625
252.4452, 4721.973
252.9273, 4710.596
253.4094, 4708.331
253.8915, 4711.292
254.3736, 4717.287
254.8558, 4726.915
255.3379, 4733.970
255.8200, 4725.254
256.3021, 4694.785
256.7842, 4671.432
257.2664, 4672.797
257.7485, 4679.146
258.2306, 4673.481
258.7127, 4651.803
259.1948, 4631.134
259.6769, 4632.742
260.1591, 4657.871
260.6412, 4676.400
261.1233, 4678.888
261.6054, 4676.149
262.0875, 4675.971
262.5696, 4678.544
263.0518, 4680.461
263.5339, 4679.912
264.0160, 4676.834
264.4981, 4670.063
264.9802, 4656.102
265.4623, 4643.755
265.9445, 4639.220
266.4266, 4641.211
266.9087, 4646.025
267.3908, 4655.380
267.8729, 4665.756
268.3550, 4666.870
268.8372, 4654.159
269.3193, 4646.321
269.8014, 4665.912
270.2835, 4698.518
270.7656, 4719.169
271.2477, 4715.409
271.7299, 4702.017
272.2120, 4695.817
272.6941, 4697.062
273.1762, 4695.522
273.6583, 4680.100
274.1404, 4661.954
274.6226, 4662.868
275.1047, 4693.852
275.5868, 4725.771
276.0689, 4737.649
276.5510, 4733.550
277.0331, 4729.842
277.5153, 4731.632
277.9974, 4737.310
278.4795, 4744.860
278.9616, 4754.979
279.4437, 4763.475
279.9258, 4768.651
280.4080, 4771.245
280.8901, 4772.468
281.3722, 4772.603
281.8543, 4771.248
282.3364, 4766.507
282.8185, 4757.755
283.3007, 4753.996
283.7828, 4760.378
284.2649, 4769.577
284.7470, 4778.563
285.2291, 4785.976
285.7112, 4782.857
286.1934, 4757.182
286.6755, 4710.168
287.1576, 4687.763
287.6397, 4709.408
288.1218, 4734.333
288.6039, 4744.669
289.0861, 4742.419
289.5682, 4735.022
290.0503, 4726.353
290.5324, 4716.090
291.0145, 4702.874
291.4966, 4669.664
291.9788, 4654.458
292.4609, 4677.861
292.9430, 4717.130
293.4251, 4744.955
293.9072, 4751.680
294.3893, 4744.157
294.8715, 4733.882
295.3536, 4717.580
295.8357, 4704.791
296.3178, 4690.286
296.7999, 4682.720
297.2820, 4691.768
297.7642, 4716.306
298.2463, 4745.072
298.7284, 4767.413
299.2105, 4783.497
299.6926, 4791.606
300.1747, 4779.802
300.6569, 4772.167
301.1390, 4780.802
301.6211, 4800.145
302.1032, 4817.125
302.5853, 4822.630
303.0674, 4819.418
303.5495, 4822.372
304.0316, 4841.141
304.5138, 4851.414
304.9959, 4836.732
305.4780, 4816.890
305.9601, 4815.185
306.4422, 4840.648
306.9243, 4878.384
307.4065, 4905.235
307.8886, 4919.933
308.3707, 4927.993
308.8528, 4924.376
309.3349, 4918.321
309.8170, 4914.784
310.2992, 4914.322
310.7813, 4915.051
311.2634, 4914.492
311.7455, 4913.063
312.2276, 4916.856
312.7097, 4933.515
313.1919, 4944.543
313.6740, 4935.893
314.1561, 4913.165
314.6382, 4890.707
315.1203, 4872.502
315.6024, 4859.579
316.0846, 4856.518
316.5667, 4865.512
317.0488, 4871.615
317.5309, 4867.174
318.0130, 4854.240
318.4951, 4834.072
318.9773, 4797.994
319.4594, 4770.399
319.9415, 4780.579
320.4236, 4818.642
320.9057, 4839.078
321.3878, 4823.156
321.8700, 4788.130
322.3521, 4758.181
322.8342, 4732.091
323.3163, 4714.794
323.7984, 4713.299
324.2805, 4718.936
324.7627, 4720.689
325.2448, 4716.710
325.7269, 4710.540
326.2090, 4704.659
326.6911, 4699.029
327.1732, 4698.088
327.6554, 4707.720
328.1375, 4716.466
328.6196, 4717.646
329.1017, 4712.444
329.5838, 4705.437
330.0659, 4699.314
330.5481, 4693.396
331.0302, 4684.792
331.5123, 4669.690
331.9944, 4656.562
332.4765, 4648.296
332.9586, 4641.472
333.4408, 4630.450
333.9229, 4614.151
334.4050, 4599.269
334.8871, 4597.105
335.3692, 4615.524
335.8513, 4625.288
336.3335, 4615.889
336.8156, 4608.131
337.2977, 4619.688
337.7798, 4644.021
338.2619, 4658.143
338.7440, 4640.708
339.2262, 4596.235
339.7083, 4565.500
340.1904, 4554.339
340.6725, 4549.677
341.1546, 4547.803
341.6367, 4549.160
342.1189, 4556.011
342.6010, 4570.401
343.0831, 4584.886
343.5652, 4586.929
344.0473, 4574.657
344.5294, 4563.307
345.0116, 4558.469
345.4937, 4554.123
345.9758, 4543.974
346.4579, 4527.971
346.9400, 4514.384
347.4221, 4508.965
347.9043, 4509.918
348.3864, 4513.646
348.8685, 4521.532
349.3506, 4526.794
349.8327, 4522.248
350.3148, 4510.526
350.7970, 4498.996
351.2791, 4483.098
351.7612, 4472.431
352.2433, 4479.825
352.7254, 4501.539
353.2076, 4517.053
353.6897, 4514.708
354.1718, 4502.525
354.6539, 4502.647
355.1360, 4521.859
355.6181, 4536.292
356.1003, 4533.686
356.5824, 4526.663
357.0645, 4533.660
357.5466, 4557.625
358.0287, 4581.269
358.5108, 4583.462
358.9930, 4557.573
359.4751, 4547.645
359.9572, 4567.357
360.4393, 4586.959
360.9214, 4591.991
361.4035, 4586.489
361.8857, 4580.332
362.3678, 4578.886
362.8499, 4582.589
363.3320, 4593.833
363.8141, 4621.390
364.2962, 4642.253
364.7784, 4650.825
365.2605, 4654.223
365.7426, 4656.985
366.2247, 4660.604
366.7068, 4666.368
367.1889, 4674.522
367.6711, 4684.833
368.1532, 4703.710
368.6353, 4742.562
369.1174, 4776.553
369.5995, 4790.200
370.0816, 4789.819
370.5638, 4791.292
371.0459, 4806.564
371.5280, 4824.247
372.0101, 4818.720
372.4922, 4786.189
372.9743, 4767.949
373.4565, 4791.898
373.9386, 4834.156
374.4207, 4858.324
374.9028, 4860.637
375.3849, 4854.591
375.8670, 4842.149
376.3492, 4827.072
376.8313, 4817.961
377.3134, 4817.153
377.7955, 4817.945
378.2776, 4814.524
378.7597, 4806.475
379.2419, 4792.567
379.7240, 4767.670
380.2061, 4741.527
380.6882, 4720.379
381.1703, 4702.958
381.6524, 4685.385
382.1346, 4665.650
382.6167, 4644.018
383.0988, 4620.742
383.5809, 4588.965
384.0630, 4565.242
384.5451, 4561.061
385.0273, 4557.772
385.5094, 4537.061
385.9915, 4498.004
386.4736, 4455.824
386.9557, 4426.106
387.4378, 4409.459
387.9200, 4395.779
388.4021, 4386.173
388.8842, 4378.454
389.3663, 4376.979
389.8484, 4375.690
390.3305, 4363.698
390.8127, 4333.808
391.2948, 4298.493
391.7769, 4276.740
392.2590, 4269.403
392.7411, 4268.533
393.2232, 4274.403
393.7054, 4284.406
394.1875, 4299.053
394.6696, 4318.093
395.1517, 4328.968
395.6338, 4320.431
396.1159, 4301.583
396.5981, 4286.834
397.0802, 4277.499
397.5623, 4271.244
398.0444, 4268.018
398.5265, 4266.598
399.0086, 4260.891
399.4908, 4241.655
399.9729, 4228.561
400.4550, 4236.590
400.9371, 4254.077
401.4192, 4259.581
401.9013, 4245.988
402.3835, 4226.407
402.8656, 4220.891
403.3477, 4237.248
403.8298, 4243.924
404.3119, 4233.494
404.7940, 4221.745
405.2762, 4216.790
405.7583, 4217.380
406.2404, 4218.528
406.7225, 4217.021
407.2046, 4213.853
407.6867, 4213.025
408.1689, 4217.262
408.6510, 4218.138
409.1331, 4208.997
409.6152, 4199.426
410.0973, 4198.974
410.5794, 4208.424
411.0616, 4217.130
411.5437, 4214.941
412.0258, 4203.809
412.5079, 4193.407
412.9900, 4184.066
413.4721, 4176.223
413.9543, 4167.803
414.4364, 4161.289
414.9185, 4163.365
415.4006, 4182.034
415.8827, 4201.343
416.3648, 4209.613
416.8470, 4209.020
417.3291, 4205.819
417.8112, 4201.866
418.2933, 4196.886
418.7754, 4189.172
419.2575, 4175.178
419.7397, 4171.871
420.2218, 4189.847
420.7039, 4210.531
421.1860, 4222.237
421.6681, 4225.438
422.1502, 4225.742
422.6324, 4226.830
423.1145, 4227.704
423.5966, 4223.593
424.0787, 4206.885
424.5608, 4197.293
425.0429, 4205.618
425.5251, 4215.330
426.0072, 4210.257
426.4893, 4189.623
426.9714, 4168.413
427.4535, 4161.839
427.9356, 4168.584
428.4178, 4173.721
428.8999, 4177.359
429.3820, 4179.104
429.8641, 4174.814
430.3462, 4169.579
430.8283, 4172.450
431.3105, 4189.471
431.7926, 4206.492
432.2747, 4209.594
432.7568, 4202.583
433.2389, 4198.811
433.7210, 4201.612
434.2032, 4209.002
434.6853, 4221.500
435.1674, 4240.368
435.6495, 4247.549
436.1316, 4230.981
436.6137, 4212.392
437.0959, 4206.366
437.5780, 4209.348
438.0601, 4209.327
438.5422, 4199.738
439.0243, 4186.266
439.5064, 4183.955
439.9886, 4202.376
440.4707, 4215.041
440.9528, 4216.041
441.4349, 4216.325
441.9170, 4225.465
442.3991, 4241.321
442.8813, 4253.433
443.3634, 4253.445
443.8455, 4243.720
444.3276, 4231.256
444.8097, 4211.875
445.2918, 4201.553
445.7740, 4216.952
446.2561, 4239.094
446.7382, 4250.055
447.2203, 4247.134
447.7024, 4236.807
448.1845, 4215.401
448.6667, 4190.838
449.1488, 4181.535
449.6309, 4190.624
450.1130, 4204.839
450.5951, 4215.078
451.0772, 4221.423
451.5594, 4226.191
452.0415, 4227.659
452.5236, 4229.673
453.0057, 4236.076
453.4878, 4242.842
453.9699, 4244.514
454.4521, 4239.488
454.9342, 4229.197
455.4163, 4214.020
455.8984, 4191.511
456.3805, 4178.092
456.8626, 4180.570
457.3448, 4185.774
457.8269, 4190.630
458.3090, 4195.462
458.7911, 4201.728
459.2732, 4210.437
459.7553, 4218.908
460.2375, 4224.699
460.7196, 4227.852
461.2017, 4223.450
461.6838, 4207.577
462.1659, 4187.743
462.6480, 4168.125
463.1302, 4149.467
463.6123, 4136.568
464.0944, 4130.398
464.5765, 4130.713
465.0586, 4142.694
465.5407, 4162.303
466.0229, 4173.243
466.5050, 4167.500
466.9871, 4152.738
467.4692, 4143.851
467.9513, 4144.333
468.4334, 4143.652
468.9156, 4139.584
469.3977, 4136.292
469.8798, 4137.893
470.3619, 4142.691
470.8440, 4144.883
471.3261, 4140.068
471.8083, 4132.200
472.2904, 4133.940
472.7725, 4149.825
473.2546, 4162.916
473.7367, 4171.607
474.2188, 4174.666
474.7010, 4167.975
475.1831, 4152.757
475.6652, 4139.258
476.1473, 4132.250
476.6294, 4131.122
477.1115, 4137.833
477.5937, 4152.479
478.0758, 4162.152
478.5579, 4158.589
479.0400, 4147.460
479.5221, 4143.407
480.0042, 4151.699
480.4864, 4153.102
480.9685, 4131.862
481.4506, 4110.298
481.9327, 4114.215
482.4148, 4140.911
482.8969, 4165.158
483.3791, 4167.913
483.8612, 4152.745
484.3433, 4138.403
484.8254, 4116.293
485.3075, 4110.168
485.7896, 4138.824
486.2718, 4171.851
486.7539, 4183.108
487.2360, 4171.135
487.7181, 4155.130
488.2002, 4147.110
488.6823, 4146.711
489.1645, 4155.137
489.6466, 4174.279
490.1287, 4191.248
490.6108, 4199.702
491.0929, 4201.522
491.5750, 4200.708
492.0572, 4195.261
492.5393, 4192.938
493.0214, 4195.867
493.5035, 4203.572
493.9856, 4218.412
494.4677, 4238.966
494.9499, 4257.309
495.4320, 4267.630
495.9141, 4270.353
496.3962, 4268.060
496.8783, 4251.507
497.3604, 4243.193
497.8426, 4245.024
498.3247, 4255.649
498.8068, 4282.710
499.2889, 4321.704
499.7710, 4347.498
500.2531, 4329.771
500.7353, 4282.621
501.2174, 4261.383
501.6995, 4271.123
502.1816, 4285.899
502.6637, 4298.912
503.1458, 4307.786
503.6280, 4307.472
504.1101, 4294.480
504.5922, 4286.767
505.0743, 4291.667
505.5564, 4305.038
506.0385, 4325.036
506.5207, 4350.018
507.0028, 4374.159
507.4849, 4394.772
507.9670, 4410.001
508.4491, 4411.155
508.9312, 4381.503
509.4134, 4362.120
509.8955, 4358.222
510.3776, 4362.439
510.8597, 4371.215
511.3418, 4383.220
511.8239, 4397.216
512.3061, 4414.062
512.7882, 4431.130
513.2703, 4440.338
513.7524, 4440.384
514.2346, 4440.112
514.7167, 4442.899
515.1988, 4446.522
515.6809, 4446.514
516.1630, 4442.104
516.6451, 4443.662
517.1273, 4462.947
517.6094, 4483.211
518.0915, 4484.888
518.5736, 4472.108
519.0557, 4466.490
519.5378, 4480.647
520.0200, 4503.585
520.5021, 4508.146
520.9842, 4479.354
521.4663, 4460.653
521.9484, 4449.966
522.4305, 4449.911
522.9127, 4469.766
523.3948, 4501.402
523.8769, 4525.288
524.3590, 4530.194
524.8411, 4524.772
525.3232, 4522.613
525.8054, 4523.687
526.2875, 4522.250
526.7696, 4514.641
527.2517, 4507.877
527.7338, 4512.136
528.2159, 4525.786
528.6981, 4534.089
529.1802, 4532.425
529.6623, 4527.412
530.1444, 4520.731
530.6265, 4513.951
531.1086, 4510.096
531.5908, 4510.129
532.0729, 4512.083
532.5550, 4513.389
533.0371, 4514.037
533.5192, 4514.185
534.0013, 4515.959
534.4835, 4514.587
534.9656, 4501.901
535.4477, 4487.851
535.9298, 4488.803
536.4119, 4511.068
536.8940, 4532.961
537.3762, 4529.953
537.8583, 4510.178
538.3404, 4500.500
538.8225, 4504.844
539.3046, 4513.759
539.7867, 4523.449
540.2689, 4532.006
540.7510, 4530.183
541.2331, 4505.811
541.7152, 4488.866
542.1973, 4491.525
542.6794, 4500.330
543.1616, 4502.568
543.6437, 4497.181
544.1258, 4490.198
544.6079, 4486.063
545.0900, 4484.553
545.5721, 4485.174
546.0543, 4489.218
546.5364, 4491.860
547.0185, 4491.963
547.5006, 4490.045
547.9827, 4484.850
548.4648, 4476.981
548.9469, 4472.203
549.4290, 4476.929
549.9111, 4483.289
550.3932, 4480.002
550.8754, 4469.854
551.3575, 4467.100
551.8396, 4478.582
552.3217, 4493.847
552.8038, 4495.352
553.2859, 4477.241
553.7681, 4465.061
554.2502, 4465.123
554.7323, 4463.433
555.2144, 4453.757
555.6965, 4438.812
556.1786, 4422.068
556.6608, 4404.580
557.1429, 4389.917
557.6250, 4382.454
558.1071, 4381.796
558.5892, 4387.466
559.0714, 4403.988
559.5535, 4412.049
560.0356, 4394.364
560.5177, 4358.578
560.9998, 4331.061
561.4819, 4315.838
561.9641, 4302.040
562.4462, 4283.379
562.9283, 4266.250
563.4104, 4258.671
563.8925, 4260.269
564.3746, 4264.848
564.8568, 4268.853
565.3389, 4270.593
565.8210, 4262.761
566.3031, 4241.732
566.7852, 4220.277
567.2673, 4192.995
567.7495, 4172.249
568.2316, 4173.743
568.7137, 4191.333
569.1958, 4196.510
569.6779, 4167.954
570.1600, 4130.107
570.6422, 4105.391
571.1243, 4091.936
571.6064, 4085.593
572.0885, 4085.838
572.5706, 4085.389
573.0527, 4075.235
573.5349, 4054.298
574.0170, 4033.357
574.4991, 4010.135
574.9812, 3989.341
575.4633, 3969.199
575.9454, 3953.655
576.4276, 3949.994
576.9097, 3958.568
577.3918, 3966.625
577.8739, 3962.171
578.3560, 3947.958
578.8381, 3932.391
579.3203, 3915.366
579.8024, 3898.845
580.2845, 3882.367
580.7666, 3868.177
581.2487, 3862.914
581.7308, 3870.235
582.2130, 3869.825
582.6951, 3852.322
583.1772, 3832.252
583.6593, 3815.993
584.1414, 3805.318
584.6235, 3802.881
585.1057, 3810.034
585.5878, 3821.565
586.0699, 3831.548
586.5520, 3840.750
587.0341, 3836.868
587.5162, 3807.990
587.9984, 3784.634
588.4805, 3796.299
588.9626, 3821.665
589.4447, 3823.662
589.9268, 3788.633
590.4089, 3753.404
590.8911, 3733.033
591.3732, 3723.820
591.8553, 3724.541
592.3374, 3732.935
592.8195, 3740.764
593.3016, 3742.364
593.7838, 3740.109
594.2659, 3741.972
594.7480, 3751.814
595.2301, 3756.556
595.7122, 3746.450
596.1943, 3738.944
596.6765, 3747.503
597.1586, 3765.557
597.6407, 3775.959
598.1228, 3771.382
598.6049, 3759.113
599.0870, 3739.368
599.5692, 3717.567
600.0513, 3710.468
600.5334, 3721.321
601.0155, 3733.984
601.4976, 3735.438
601.9797, 3726.466
602.4619, 3713.204
602.9440, 3679.943
603.4261, 3664.544
603.9082, 3682.454
604.3903, 3708.954
604.8724, 3729.455
605.3546, 3741.497
605.8367, 3745.096
606.3188, 3737.008
606.8009, 3725.006
607.2830, 3720.673
607.7651, 3723.331
608.2473, 3727.180
608.7294, 3730.305
609.2115, 3737.069
609.6936, 3756.368
610.1757, 3788.202
610.6578, 3793.518
611.1400, 3740.348
611.6221, 3703.731
612.1042, 3716.854
612.5863, 3744.799
613.0684, 3750.630
613.5505, 3732.015
614.0327, 3712.849
614.5148, 3712.200
614.9969, 3722.920
615.4790, 3726.782
615.9611, 3723.365
616.4432, 3723.284
616.9254, 3731.618
617.4075, 3740.646
617.8896, 3740.103
618.3717, 3729.746
618.8538, 3725.292
619.3359, 3734.086
619.8181, 3741.075
620.3002, 3737.059
620.7823, 3729.655
621.2644, 3729.961
621.7465, 3739.102
622.2286, 3748.118
622.7108, 3749.532
623.1929, 3744.136
623.6750, 3731.772
624.1571, 3709.288
624.6392, 3699.367
625.1213, 3715.443
625.6035, 3739.486
626.0856, 3748.926
626.5677, 3744.755
627.0498, 3743.621
627.5319, 3751.644
628.0140, 3759.031
628.4962, 3758.977
628.9783, 3755.893
629.4604, 3758.844
629.9425, 3768.526
630.4246, 3773.636
630.9067, 3760.489
631.3889, 3733.647
631.8710, 3718.028
632.3531, 3714.063
632.8352, 3720.558
633.3173, 3746.866
633.7994, 3774.213
634.2816, 3778.341
634.7637, 3760.721
635.2458, 3749.987
635.7279, 3761.154
636.2100, 3770.768
636.6921, 3758.787
637.1743, 3739.168
637.6564, 3736.137
638.1385, 3754.179
638.6206, 3776.740
639.1027, 3787.450
639.5848, 3788.287
640.0670, 3790.757
640.5491, 3794.926
641.0312, 3800.707
641.5133, 3810.013
641.9954, 3819.013
642.4775, 3822.094
642.9597, 3820.011
643.4418, 3822.574
643.9239, 3832.203
644.4060, 3846.545
644.8881, 3870.113
645.3702, 3895.280
645.8524, 3903.067
646.3345, 3893.716
646.8166, 3898.967
647.2987, 3955.991
647.7808, 4047.589
648.2629, 4084.954
648.7451, 4050.173
649.2272, 4032.805
649.7093, 4065.412
650.1914, 4112.597
650.6735, 4138.127
651.1556, 4145.897
651.6378, 4164.724
652.1199, 4207.085
652.6020, 4252.874
653.0841, 4296.007
653.5662, 4335.546
654.0483, 4370.666
654.5305, 4401.025
655.0126, 4424.438
655.4947, 4435.845
655.9768, 4443.396
656.4589, 4481.304
656.9410, 4558.701
657.4232, 4607.149
657.9053, 4595.216
658.3874, 4575.045
658.8695, 4601.502
659.3516, 4662.258
659.8337, 4701.419
660.3159, 4705.514
660.7980, 4698.045
661.2801, 4677.704
661.7622, 4655.625
662.2443, 4650.028
662.7264, 4656.443
663.2086, 4648.822
663.6907, 4607.713
664.1728, 4548.041
664.6549, 4503.326
665.1370, 4474.283
665.6191, 4435.345
666.1013, 4378.172
666.5834, 4320.584
667.0655, 4275.622
667.5476, 4241.348
668.0297, 4207.617
668.5118, 4176.420
668.9940, 4142.749
669.4761, 4098.230
669.9582, 4057.031
670.4403, 4031.511
670.9224, 4018.908
671.4045, 4009.464
671.8867, 3998.539
672.3688, 3986.793
672.8509, 3973.615
673.3330, 3959.779
673.8151, 3953.849
674.2972, 3959.206
674.7794, 3955.648
675.2615, 3925.857
675.7436, 3883.156
676.2257, 3863.727
676.7078, 3884.211
677.1899, 3891.367
677.6721, 3876.768
678.1542, 3855.765
678.6363, 3835.754
679.1184, 3815.191
679.6005, 3786.161
680.0826, 3746.248
680.5648, 3716.332
681.0469, 3729.642
681.5290, 3764.423
682.0111, 3764.037
682.4932, 3728.143
682.9753, 3693.895
683.4575, 3676.547
683.9396, 3670.866
684.4217, 3669.411
684.9038, 3673.071
685.3859, 3676.282
685.8680, 3681.008
686.3502, 3682.910
686.8323, 3674.585
687.3144, 3666.790
687.7965, 3674.430
688.2786, 3697.518
688.7607, 3715.513
689.2429, 3713.179
689.7250, 3702.585
690.2071, 3696.813
690.6892, 3694.255
691.1713, 3689.318
691.6534, 3680.550
692.1356, 3672.559
692.6177, 3671.703
693.0998, 3675.647
693.5819, 3660.819
694.0640, 3610.721
694.5461, 3578.543
695.0283, 3586.420
695.5104, 3604.356
695.9925, 3612.660
696.4746, 3613.573
696.9567, 3617.441
697.4388, 3630.524
697.9210, 3641.508
698.4031, 3643.907
698.8852, 3641.030
699.3673, 3634.453
699.8494, 3626.240
700.3315, 3623.023
700.8137, 3629.654
701.2958, 3639.397
701.7779, 3637.395
702.2600, 3623.030
702.7421, 3609.047
703.2242, 3594.395
703.7064, 3586.124
704.1885, 3593.015
704.6706, 3607.347
705.1527, 3608.793
705.6348, 3588.824
706.1169, 3581.266
706.5991, 3604.138
707.0812, 3627.251
707.5633, 3631.139
708.0454, 3623.234
708.5275, 3617.056
709.0096, 3616.844
709.4918, 3618.970
709.9739, 3619.192
710.4560, 3619.325
710.9381, 3625.549
711.4202, 3637.448
711.9023, 3647.119
712.3845, 3652.169
712.8666, 3652.114
713.3487, 3645.658
713.8308, 3632.459
714.3129, 3620.172
714.7950, 3611.537
715.2772, 3600.071
715.7593, 3584.594
716.2414, 3566.105
716.7235, 3541.390
717.2056, 3513.555
717.6877, 3495.055
718.1699, 3494.983
718.6520, 3500.046
719.1341, 3503.092
719.6162, 3502.741
720.0983, 3493.210
720.5804, 3476.036
721.0626, 3464.591
721.5447, 3468.802
722.0268, 3480.746
722.5089, 3479.357
722.9910, 3461.421
723.4731, 3453.100
723.9553, 3460.419
724.4374, 3469.509
724.9195, 3473.933
725.4016, 3474.380
725.8837, 3471.332
726.3658, 3461.865
726.8480, 3459.318
727.3301, 3476.573
727.8122, 3490.777
728.2943, 3483.050
728.7764, 3465.014
729.2585, 3458.224
729.7407, 3467.431
730.2228, 3475.702
730.7049, 3463.451
731.1870, 3441.132
731.6691, 3433.055
732.1512, 3438.034
732.6334, 3445.871
733.1155, 3454.272
733.5976, 3460.438
734.0797, 3461.153
734.5618, 3456.825
735.0439, 3452.734
735.5261, 3447.004
736.0082, 3444.706
736.4903, 3455.722
736.9724, 3461.619
737.4545, 3444.465
737.9366, 3413.192
738.4188, 3393.028
738.9009, 3392.997
739.3830, 3399.103
739.8651, 3404.491
740.3472, 3411.111
740.8293, 3425.199
741.3115, 3442.855
741.7936, 3449.548
742.2757, 3438.313
742.7578, 3422.894
743.2399, 3426.094
743.7220, 3445.831
744.2042, 3451.726
744.6863, 3441.345
745.1684, 3427.938
745.6505, 3414.096
746.1326, 3403.317
746.6147, 3401.685
747.0969, 3410.683
747.5790, 3414.848
748.0611, 3407.589
748.5432, 3404.341
749.0253, 3415.819
749.5074, 3427.553
749.9896, 3422.731
750.4717, 3404.833
750.9538, 3393.833
751.4359, 3403.039
751.9180, 3415.030
752.4001, 3410.908
752.8823, 3399.149
753.3644, 3397.293
753.8465, 3405.868
754.3286, 3413.637
754.8107, 3414.376
755.2928, 3408.041
755.7750, 3390.954
756.2571, 3360.506
756.7392, 3345.359
757.2213, 3350.927
757.7034, 3359.673
758.1855, 3366.897
758.6677, 3371.033
759.1498, 3368.408
759.6319, 3358.325
760.1140, 3350.309
760.5961, 3342.677
761.0782, 3340.150
761.5604, 3350.026
762.0425, 3362.276
762.5246, 3365.412
763.0067, 3359.530
763.4888, 3353.977
763.9709, 3356.082
764.4531, 3357.173
764.9352, 3342.115
765.4173, 3319.119
765.8994, 3310.208
766.3815, 3317.333
766.8636, 3327.415
767.3458, 3333.130
767.8279, 3333.460
768.3100, 3322.418
768.7921, 3294.931
769.2742, 3290.155
769.7563, 3324.225
770.2385, 3347.072
770.7206, 3324.918
771.2027, 3287.923
771.6848, 3282.610
772.1669, 3311.793
772.6490, 3332.237
773.1312, 3335.365
773.6133, 3333.306
774.0954, 3325.736
774.5775, 3318.622
775.0596, 3319.237
775.5417, 3326.824
776.0239, 3334.651
776.5060, 3340.590
776.9881, 3341.930
777.4702, 3329.674
777.9523, 3311.936
778.4344, 3311.671
778.9166, 3328.759
779.3987, 3338.154
779.8808, 3324.768
780.3629, 3303.333
780.8450, 3303.435
781.3271, 3328.265
781.8093, 3342.870
782.2914, 3346.425
782.7735, 3341.499
783.2556, 3324.168
783.7377, 3303.400
784.2198, 3290.646
784.7020, 3286.015
785.1841, 3282.822
785.6662, 3281.561
786.1483, 3280.755
786.6304, 3278.968
787.1125, 3278.295
787.5947, 3281.131
788.0768, 3286.771
788.5589, 3292.832
789.0410, 3299.031
789.5231, 3303.085
790.0052, 3302.332
790.4874, 3298.601
790.9695, 3294.631
791.4516, 3290.526
791.9337, 3284.796
792.4158, 3276.748
792.8979, 3269.560
793.3801, 3267.617
793.8622, 3270.543
794.3443, 3276.246
794.8264, 3286.346
795.3085, 3288.461
795.7906, 3277.025
796.2728, 3260.321
796.7549, 3243.174
797.2370, 3226.842
797.7191, 3225.399
798.2012, 3260.091
798.6833, 3279.130
799.1655, 3269.870
799.6476, 3254.708
800.1297, 3241.489
800.6118, 3233.077
801.0939, 3236.501
801.5760, 3256.486
802.0582, 3265.861
802.5403, 3233.862
803.0224, 3200.420
803.5045, 3210.054
803.9866, 3243.032
804.4688, 3257.203
804.9509, 3243.779
805.4330, 3227.699
805.9151, 3230.657
806.3972, 3243.882
806.8793, 3248.405
807.3615, 3245.416
807.8436, 3242.740
808.3257, 3241.453
808.8078, 3245.799
809.2899, 3260.414
809.7720, 3278.769
810.2542, 3282.716
810.7363, 3265.576
811.2184, 3259.361
811.7005, 3274.194
812.1826, 3283.329
812.6647, 3268.662
813.1469, 3248.274
813.6290, 3245.918
814.1111, 3261.634
814.5932, 3267.675
815.0753, 3252.233
815.5574, 3236.413
816.0396, 3226.401
816.5217, 3219.906
817.0038, 3215.053
817.4859, 3211.610
817.9680, 3210.166
818.4501, 3211.417
818.9323, 3212.546
819.4144, 3208.203
819.8965, 3203.865
820.3786, 3210.542
820.8607, 3225.335
821.3428, 3236.857
821.8250, 3241.008
822.3071, 3239.290
822.7892, 3231.797
823.2713, 3220.693
823.7534, 3216.389
824.2355, 3219.331
824.7177, 3218.769
825.1998, 3211.872
825.6819, 3202.771
826.1640, 3191.854
826.6461, 3183.171
827.1282, 3192.107
827.6104, 3234.320
828.0925, 3257.951
828.5746, 3254.693
829.0567, 3242.661
829.5388, 3221.227
830.0209, 3198.913
830.5031, 3186.592
830.9852, 3184.822
831.4673, 3183.947
831.9494, 3181.658
832.4315, 3179.836
832.9136, 3178.074
833.3958, 3178.057
833.8779, 3183.118
834.3600, 3191.520
834.8421, 3198.326
835.3242, 3201.930
835.8063, 3200.111
836.2885, 3184.541
836.7706, 3165.568
837.2527, 3165.083
837.7348, 3177.480
838.2169, 3175.235
838.6990, 3150.171
839.1812, 3127.499
839.6633, 3136.515
840.1454, 3166.905
840.6275, 3179.765
841.1096, 3174.735
841.5917, 3170.035
842.0739, 3168.056
842.5560, 3171.503
843.0381, 3184.556
843.5202, 3201.284
844.0023, 3206.284
844.4844, 3195.608
844.9666, 3186.366
845.4487, 3180.007
845.9308, 3172.929
846.4129, 3157.637
846.8950, 3145.464
847.3771, 3151.097
847.8593, 3172.875
848.3414, 3188.492
848.8235, 3195.465
849.3056, 3195.270
849.7877, 3177.693
850.2698, 3162.571
850.7520, 3168.536
851.2341, 3188.433
851.7162, 3206.669
852.1983, 3219.048
852.6804, 3221.914
853.1625, 3203.944
853.6447, 3182.860
854.1268, 3180.974
854.6089, 3189.421
855.0910, 3187.158
855.5731, 3171.691
856.0552, 3158.326
856.5374, 3158.461
857.0195, 3166.561
857.5016, 3177.568
857.9837, 3188.510
858.4658, 3181.116
858.9479, 3154.675
859.4301, 3137.777
859.9122, 3144.481
860.3943, 3160.873
860.8764, 3166.840
861.3585, 3162.918
861.8406, 3165.849
862.3228, 3178.107
862.8049, 3187.456
863.2870, 3190.577
863.7691, 3191.849
864.2512, 3196.727
864.7333, 3201.966
865.2155, 3194.873
865.6976, 3162.121
866.1797, 3144.916
866.6618, 3154.792
867.1439, 3165.665
867.6260, 3171.783
868.1082, 3172.092
868.5903, 3160.713
869.0724, 3139.274
869.5545, 3130.101
870.0366, 3149.989
870.5187, 3168.734
871.0009, 3176.460
871.4830, 3176.746
871.9651, 3168.578
872.4472, 3156.547
872.9293, 3150.139
873.4114, 3152.709
873.8936, 3155.995
874.3757, 3151.968
874.8578, 3147.238
875.3399, 3151.555
875.8220, 3160.282
876.3041, 3162.237
876.7863, 3156.488
877.2684, 3152.326
877.7505, 3156.618
878.2326, 3163.352
878.7147, 3159.001
879.1968, 3148.833
879.6790, 3157.871
880.1611, 3185.293
880.6432, 3198.757
881.1253, 3184.231
881.6074, 3166.576
882.0895, 3178.660
882.5717, 3212.566
883.0538, 3212.311
883.5359, 3170.699
884.0180, 3150.679
884.5001, 3167.630
884.9822, 3190.878
885.4644, 3203.061
885.9465, 3205.837
886.4286, 3201.688
886.9107, 3187.782
887.3928, 3179.964
887.8749, 3181.641
888.3571, 3183.955
888.8392, 3184.143
889.3213, 3184.484
889.8034, 3187.705
890.2855, 3192.926
890.7676, 3195.941
891.2498, 3193.054
891.7319, 3194.127
892.2140, 3204.641
892.6961, 3214.932
893.1782, 3221.179
893.6603, 3223.447
894.1425, 3220.857
894.6246, 3213.871
895.1067, 3208.296
895.5888, 3211.246
896.0709, 3210.378
896.5530, 3188.136
897.0352, 3167.107
897.5173, 3177.911
897.9994, 3209.775
898.4815, 3230.480
898.9636, 3228.486
899.4457, 3218.801
899.9279, 3209.575
900.4100, 3202.281
900.8921, 3200.383
901.3742, 3201.339
901.8563, 3199.062
902.3384, 3193.248
902.8206, 3189.045
903.3027, 3189.865
903.7848, 3192.609
904.2669, 3190.439
904.7490, 3186.834
905.2311, 3197.441
905.7133, 3219.664
906.1954, 3228.000
906.6775, 3214.282
907.1596, 3196.757
907.6417, 3192.856
908.1238, 3198.841
908.6060, 3202.977
909.0881, 3205.243
909.5702, 3207.532
910.0523, 3209.783
910.5344, 3214.786
911.0165, 3225.231
911.4987, 3234.762
911.9808, 3233.190
912.4629, 3220.710
912.9450, 3214.341
913.4271, 3217.369
913.9092, 3214.926
914.3914, 3198.297
914.8735, 3187.679
915.3556, 3198.981
915.8377, 3223.925
916.3198, 3245.381
916.8019, 3267.362
917.2841, 3270.399
917.7662, 3237.966
918.2483, 3209.998
918.7304, 3191.064
919.2125, 3183.858
919.6946, 3199.166
920.1768, 3228.669
920.6589, 3241.178
921.1410, 3224.571
921.6231, 3212.904
922.1052, 3214.036
922.5873, 3217.629
923.0695, 3222.553
923.5516, 3224.988
924.0337, 3217.472
924.5158, 3201.905
924.9979, 3194.230
925.4800, 3207.195
925.9622, 3215.565
926.4443, 3202.711
926.9264, 3187.215
927.4085, 3186.730
927.8906, 3193.260
928.3727, 3188.919
928.8549, 3171.120
929.3370, 3158.770
929.8191, 3168.570
930.3012, 3180.509
930.7833, 3181.611
931.2654, 3174.899
931.7476, 3159.565
932.2297, 3140.385
932.7118, 3128.304
933.1939, 3127.181
933.6760, 3131.483
934.1581, 3140.498
934.6403, 3149.001
935.1224, 3148.915
935.6045, 3143.554
936.0866, 3140.939
936.5687, 3140.806
937.0508, 3134.500
937.5330, 3116.993
938.0151, 3099.213
938.4972, 3096.155
938.9793, 3102.026
939.4614, 3104.666
939.9435, 3104.048
940.4257, 3099.150
940.9078, 3090.748
941.3899, 3088.889
941.8720, 3101.938
942.3541, 3118.663
942.8362, 3115.904
943.3184, 3098.268
943.8005, 3091.361
944.2826, 3095.189
944.7647, 3094.307
945.2468, 3083.851
945.7289, 3071.644
946.2111, 3063.894
946.6932, 3061.588
947.1753, 3072.640
947.6574, 3096.880
948.1395, 3094.361
948.6216, 3059.039
949.1038, 3040.742
949.5859, 3061.500
950.0680, 3092.434
950.5501, 3101.795
951.0322, 3092.973
951.5143, 3083.123
951.9965, 3071.875
952.4786, 3061.059
952.9607, 3048.973
953.4428, 3045.309
953.9249, 3056.647
954.4070, 3074.757
954.8892, 3090.713
955.3713, 3103.890
955.8534, 3098.990
956.3355, 3062.255
956.8176, 3052.818
957.2997, 3094.372
957.7819, 3128.850
958.2640, 3119.874
958.7461, 3091.026
959.2282, 3081.225
959.7103, 3092.235
960.1924, 3096.490
960.6746, 3089.796
961.1567, 3084.781
961.6388, 3084.393
962.1209, 3084.440
962.6030, 3080.132
963.0851, 3075.757
963.5673, 3081.896
964.0494, 3102.972
964.5315, 3110.803
965.0136, 3095.389
965.4957, 3081.263
965.9778, 3066.019
966.4600, 3059.586
966.9421, 3078.785
967.4242, 3109.110
967.9063, 3115.340
968.3884, 3088.908
968.8705, 3069.733
969.3527, 3059.353
969.8348, 3056.860
970.3169, 3068.579
970.7990, 3082.159
971.2811, 3086.448
971.7632, 3085.401
972.2454, 3092.376
972.7275, 3115.594
973.2096, 3121.644
973.6917, 3084.318
974.1738, 3056.800
974.6559, 3066.197
975.1381, 3086.247
975.6202, 3094.036
976.1023, 3092.373
976.5844, 3095.166
977.0665, 3108.043
977.5486, 3113.857
978.0308, 3103.059
978.5129, 3091.385
978.9950, 3083.028
979.4771, 3079.191
979.9592, 3081.198
980.4413, 3088.494
980.9235, 3101.244
981.4056, 3126.210
981.8877, 3135.264
982.3698, 3104.500
982.8519, 3074.020
983.3340, 3060.751
983.8162, 3060.940
984.2983, 3077.102
984.7804, 3102.288
985.2625, 3112.526
985.7446, 3093.995
986.2267, 3082.778
986.7089, 3099.333
987.1910, 3118.412
987.6731, 3126.333
988.1552, 3127.819
988.6373, 3129.512
989.1194, 3130.973
989.6016, 3125.450
990.0837, 3105.039
990.5658, 3094.994
991.0479, 3116.271
991.5300, 3139.707
992.0121, 3146.098
992.4943, 3144.090
992.9764, 3143.619
993.4585, 3146.308
993.9406, 3151.116
994.4227, 3156.517
994.9048, 3167.426
995.3870, 3194.562
995.8691, 3218.801
996.3512, 3222.604
996.8333, 3218.607
997.3154, 3219.999
997.7975, 3229.805
998.2797, 3251.144
998.7618, 3290.160
999.2439, 3325.268
999.7260, 3345.572
1000.208, 3359.718
1000.690, 3366.874
1001.172, 3375.685
1001.654, 3396.756
1002.137, 3429.802
1002.619, 3468.784
1003.101, 3516.150
1003.583, 3555.122
1004.065, 3567.065
1004.547, 3579.828
1005.029, 3615.808
1005.511, 3661.603
1005.994, 3702.980
1006.476, 3736.512
1006.958, 3758.659
1007.440, 3762.815
1007.922, 3773.313
1008.404, 3812.661
1008.886, 3849.345
1009.368, 3855.031
1009.850, 3851.585
1010.333, 3869.145
1010.815, 3904.261
1011.297, 3932.868
1011.779, 3950.455
1012.261, 3950.764
1012.743, 3918.654
1013.225, 3882.752
1013.707, 3865.817
1014.190, 3850.816
1014.672, 3815.490
1015.154, 3763.824
1015.636, 3716.104
1016.118, 3679.545
1016.600, 3640.668
1017.082, 3590.729
1017.564, 3541.315
1018.046, 3494.086
1018.529, 3454.172
1019.011, 3431.858
1019.493, 3420.827
1019.975, 3400.399
1020.457, 3362.483
1020.939, 3332.306
1021.421, 3322.934
1021.903, 3316.911
1022.385, 3305.421
1022.868, 3294.134
1023.350, 3288.307
1023.832, 3287.279
1024.314, 3289.002
1024.796, 3293.854
1025.278, 3296.508
1025.760, 3299.753
1026.242, 3295.095
1026.725, 3268.272
1027.207, 3242.494
1027.689, 3240.970
1028.171, 3253.545
1028.653, 3255.200
1029.135, 3240.689
1029.617, 3233.338
1030.099, 3245.501
1030.582, 3254.033
1031.064, 3250.529
1031.546, 3243.655
1032.028, 3235.509
1032.510, 3229.717
1032.992, 3233.219
1033.474, 3247.196
1033.956, 3260.290
1034.438, 3275.240
1034.921, 3283.492
1035.403, 3281.651
1035.885, 3274.952
1036.367, 3260.319
1036.849, 3245.710
1037.331, 3244.778
1037.813, 3258.160
1038.295, 3267.013
1038.777, 3269.522
1039.260, 3270.039
1039.742, 3262.948
1040.224, 3261.687
1040.706, 3276.867
1041.188, 3296.980
1041.670, 3310.722
1042.152, 3317.570
1042.634, 3310.775
1043.116, 3280.819
1043.599, 3257.957
1044.081, 3241.868
1044.563, 3236.001
1045.045, 3246.869
1045.527, 3261.292
1046.009, 3267.445
1046.491, 3265.393
1046.973, 3253.719
1047.456, 3224.760
1047.938, 3214.448
1048.420, 3232.893
1048.902, 3239.857
1049.384, 3220.169
1049.866, 3192.456
1050.348, 3169.075
1050.830, 3153.839
1051.313, 3160.437
1051.795, 3192.528
1052.277, 3209.620
1052.759, 3210.242
1053.241, 3202.115
1053.723, 3184.503
1054.205, 3173.472
1054.687, 3181.689
1055.169, 3196.564
1055.651, 3194.152
1056.134, 3176.057
1056.616, 3160.657
1057.098, 3147.854
1057.580, 3138.309
1058.062, 3132.144
1058.544, 3127.958
1059.026, 3125.081
1059.508, 3123.196
1059.991, 3121.913
1060.473, 3121.298
1060.955, 3124.657
1061.437, 3129.478
1061.919, 3117.207
1062.401, 3088.989
1062.883, 3071.063
1063.365, 3073.397
1063.848, 3083.401
1064.330, 3089.674
1064.812, 3094.647
1065.294, 3106.266
1065.776, 3118.780
1066.258, 3114.771
1066.740, 3098.207
1067.222, 3085.855
1067.704, 3082.334
1068.187, 3083.782
1068.669, 3088.484
1069.151, 3093.669
1069.633, 3097.988
1070.115, 3099.511
1070.597, 3092.034
1071.079, 3081.083
1071.561, 3077.156
1072.043, 3081.452
1072.526, 3090.964
1073.008, 3105.703
1073.490, 3115.721
1073.972, 3108.391
1074.454, 3099.212
1074.936, 3099.552
1075.418, 3106.789
1075.900, 3119.494
1076.383, 3135.324
1076.865, 3148.891
1077.347, 3158.589
1077.829, 3173.164
1078.311, 3210.385
1078.793, 3234.751
1079.275, 3211.210
1079.757, 3187.372
1080.240, 3203.378
1080.722, 3243.093
1081.204, 3276.736
1081.686, 3301.250
1082.168, 3331.708
1082.650, 3374.558
1083.132, 3418.048
1083.614, 3464.330
1084.096, 3506.062
1084.578, 3541.346
1085.061, 3569.192
1085.543, 3588.951
1086.025, 3600.191
1086.507, 3599.843
1086.989, 3583.358
1087.471, 3568.336
1087.953, 3564.692
1088.435, 3540.948
1088.918, 3479.392
1089.400, 3413.513
1089.882, 3367.784
1090.364, 3333.848
1090.846, 3292.109
1091.328, 3241.839
1091.810, 3207.540
1092.292, 3191.755
1092.775, 3178.469
1093.257, 3166.436
1093.739, 3146.245
1094.221, 3111.252
1094.703, 3074.584
1095.185, 3051.633
1095.667, 3041.995
1096.149, 3051.212
1096.631, 3074.962
1097.114, 3076.075
1097.596, 3054.093
1098.078, 3034.456
1098.560, 3025.640
1099.042, 3024.124
1099.524, 3028.255
1100.006, 3033.570
1100.488, 3030.428
1100.970, 3024.987
1101.453, 3030.250
1101.935, 3043.911
1102.417, 3063.015
1102.899, 3083.388
1103.381, 3091.947
1103.863, 3081.883
1104.345, 3069.858
1104.827, 3067.316
1105.310, 3071.505
1105.792, 3089.024
1106.274, 3104.863
1106.756, 3091.537
1107.238, 3064.357
1107.720, 3064.748
1108.202, 3099.280
1108.684, 3121.076
1109.167, 3104.421
1109.649, 3081.706
1110.131, 3050.571
1110.613, 3033.175
1111.095, 3054.685
1111.577, 3089.781
1112.059, 3111.536
1112.541, 3118.327
1113.023, 3111.005
1113.505, 3074.020
1113.988, 3062.162
1114.470, 3098.621
1114.952, 3125.565
1115.434, 3125.911
1115.916, 3119.221
1116.398, 3116.196
1116.880, 3117.247
1117.362, 3124.328
1117.845, 3137.501
1118.327, 3143.387
1118.809, 3140.198
1119.291, 3140.538
1119.773, 3146.846
1120.255, 3148.566
1120.737, 3139.824
1121.219, 3135.845
1121.702, 3154.678
1122.184, 3184.022
1122.666, 3189.052
1123.148, 3175.157
1123.630, 3169.434
1124.112, 3172.327
1124.594, 3180.544
1125.076, 3192.269
1125.558, 3200.997
1126.041, 3202.770
1126.523, 3204.264
1127.005, 3215.126
1127.487, 3228.244
1127.969, 3232.213
1128.451, 3232.542
1128.933, 3239.493
1129.415, 3250.664
1129.897, 3257.657
1130.380, 3258.245
1130.862, 3254.285
1131.344, 3238.584
1131.826, 3233.116
1132.308, 3260.378
1132.790, 3289.463
1133.272, 3296.616
1133.754, 3295.449
1134.237, 3306.102
1134.719, 3324.756
1135.201, 3328.983
1135.683, 3308.120
1136.165, 3300.318
1136.647, 3312.718
1137.129, 3333.015
1137.611, 3367.344
1138.094, 3397.363
1138.576, 3413.698
1139.058, 3418.456
1139.540, 3413.189
1140.022, 3399.130
1140.504, 3384.816
1140.986, 3367.178
1141.468, 3378.570
1141.950, 3424.830
1142.432, 3455.868
1142.915, 3454.802
1143.397, 3448.697
1143.879, 3458.226
1144.361, 3476.719
1144.843, 3498.500
1145.325, 3517.867
1145.807, 3509.796
1146.289, 3485.343
1146.772, 3479.747
1147.254, 3494.209
1147.736, 3511.294
1148.218, 3524.127
1148.700, 3534.988
1149.182, 3545.345
1149.664, 3554.780
1150.146, 3562.490
1150.629, 3569.364
1151.111, 3573.349
1151.593, 3578.842
1152.075, 3595.711
1152.557, 3620.715
1153.039, 3635.594
1153.521, 3630.867
1154.003, 3636.145
1154.485, 3680.330
1154.968, 3704.703
1155.450, 3667.109
1155.932, 3631.874
1156.414, 3648.370
1156.896, 3682.531
1157.378, 3681.442
1157.860, 3649.636
1158.342, 3642.544
1158.824, 3667.130
1159.307, 3684.192
1159.789, 3690.541
1160.271, 3697.963
1160.753, 3710.832
1161.235, 3717.568
1161.717, 3709.069
1162.199, 3693.289
1162.681, 3679.416
1163.164, 3670.842
1163.646, 3684.945
1164.128, 3713.099
1164.610, 3728.087
1165.092, 3728.432
1165.574, 3721.373
1166.056, 3710.525
1166.538, 3702.939
1167.021, 3702.097
1167.503, 3709.152
1167.985, 3741.827
1168.467, 3765.402
1168.949, 3728.797
1169.431, 3679.046
1169.913, 3683.516
1170.395, 3727.217
1170.877, 3749.264
1171.359, 3736.448
1171.842, 3723.558
1172.324, 3713.980
1172.806, 3708.485
1173.288, 3706.812
1173.770, 3709.927
1174.252, 3721.511
1174.734, 3734.036
1175.216, 3741.734
1175.699, 3742.396
1176.181, 3722.707
1176.663, 3678.987
1177.145, 3671.756
1177.627, 3701.876
1178.109, 3730.413
1178.591, 3749.983
1179.073, 3765.511
1179.556, 3779.521
1180.038, 3779.437
1180.520, 3744.137
1181.002, 3701.469
1181.484, 3702.902
1181.966, 3724.538
1182.448, 3726.765
1182.930, 3715.464
1183.412, 3704.452
1183.895, 3699.098
1184.377, 3710.243
1184.859, 3746.152
1185.341, 3764.669
1185.823, 3720.095
1186.305, 3690.188
1186.787, 3730.094
1187.269, 3772.074
1187.751, 3758.945
1188.234, 3725.455
1188.716, 3722.991
1189.198, 3747.191
1189.680, 3771.351
1190.162, 3803.147
1190.644, 3803.689
1191.126, 3762.520
1191.608, 3736.866
1192.091, 3740.232
1192.573, 3755.233
1193.055, 3773.372
1193.537, 3787.604
1194.019, 3787.418
1194.501, 3779.528
1194.983, 3778.948
1195.465, 3784.546
1195.948, 3798.256
1196.430, 3814.303
1196.912, 3810.402
1197.394, 3790.101
1197.876, 3791.347
1198.358, 3833.106
1198.840, 3874.064
1199.322, 3896.095
1199.804, 3899.835
1200.286, 3867.570
1200.769, 3835.936
1201.251, 3834.782
1201.733, 3851.895
1202.215, 3873.862
1202.697, 3896.587
1203.179, 3899.070
1203.661, 3869.386
1204.143, 3859.383
1204.626, 3878.574
1205.108, 3884.444
1205.590, 3864.259
1206.072, 3850.574
1206.554, 3861.877
1207.036, 3880.176
1207.518, 3883.107
1208.000, 3879.354
1208.483, 3895.764
1208.965, 3921.671
1209.447, 3923.370
1209.929, 3907.222
1210.411, 3893.565
1210.893, 3887.067
1211.375, 3888.326
1211.857, 3897.754
1212.339, 3905.011
1212.822, 3896.854
1213.304, 3894.235
1213.786, 3920.046
1214.268, 3942.201
1214.750, 3932.566
1215.232, 3910.592
1215.714, 3898.864
1216.196, 3896.946
1216.678, 3900.210
1217.161, 3910.721
1217.643, 3913.285
1218.125, 3906.530
1218.607, 3896.002
1219.089, 3880.776
1219.571, 3875.069
1220.053, 3885.456
1220.535, 3897.914
1221.018, 3899.592
1221.500, 3896.078
1221.982, 3895.010
1222.464, 3897.273
1222.946, 3911.955
1223.428, 3927.859
1223.910, 3918.105
1224.392, 3888.851
1224.875, 3862.501
1225.357, 3846.186
1225.839, 3844.656
1226.321, 3868.493
1226.803, 3890.665
1227.285, 3906.376
1227.767, 3913.084
1228.249, 3904.563
1228.731, 3891.881
##END=



