##NAMES=Petersenite-(Ce)
##RRUFFID=R120035
##IDEAL CHEMISTRY=Na_4_Ce_2_(CO_3_)_5_
##LOCALITY=Mont Saint-Hilaire, Rouville RCM, Montérégie, Québec, Canada
##OWNER=RRUFF
##SOURCE=Donald Doell
##DESCRIPTION=Pale yellow or pink (depending on light source) hexagonal prismatic crystals, associated with albite and aegirine.
##STATUS=The identification of this mineral has been confirmed only by single crystal X-ray diffraction.
##URL=rruff.info/R120035
##MEASURED CHEMISTRY=(Na_2.47_Ca_0.49_Ba_0.20_Sr_0.19_K_0.03_)_Σ=3.38_(Ce_0.91_La_0.43_Nd_0.26_Pr_0.10_)_Σ=1.70_(CO_3_)_5_
9.112140e+001, 0.000000e+000
9.160352e+001, 1.333308e+004
9.208563e+001, 1.299616e+004
9.256775e+001, 1.295643e+004
9.304987e+001, 1.337912e+004
9.353198e+001, 1.388033e+004
9.401410e+001, 1.417284e+004
9.449622e+001, 1.428350e+004
9.497833e+001, 1.431537e+004
9.546045e+001, 1.435088e+004
9.594257e+001, 1.438977e+004
9.642468e+001, 1.439395e+004
9.690680e+001, 1.436464e+004
9.738892e+001, 1.432727e+004
9.787103e+001, 1.428064e+004
9.835315e+001, 1.421473e+004
9.883527e+001, 1.413908e+004
9.931738e+001, 1.410676e+004
9.979950e+001, 1.414002e+004
1.002816e+002, 1.415859e+004
1.007637e+002, 1.414158e+004
1.012458e+002, 1.411752e+004
1.017280e+002, 1.411188e+004
1.022101e+002, 1.413083e+004
1.026922e+002, 1.416417e+004
1.031743e+002, 1.420038e+004
1.036564e+002, 1.424002e+004
1.041385e+002, 1.427129e+004
1.046207e+002, 1.427266e+004
1.051028e+002, 1.425724e+004
1.055849e+002, 1.427394e+004
1.060670e+002, 1.435127e+004
1.065491e+002, 1.445054e+004
1.070313e+002, 1.453130e+004
1.075134e+002, 1.459142e+004
1.079955e+002, 1.463491e+004
1.084776e+002, 1.465833e+004
1.089597e+002, 1.465367e+004
1.094418e+002, 1.466241e+004
1.099240e+002, 1.470362e+004
1.104061e+002, 1.475737e+004
1.108882e+002, 1.480680e+004
1.113703e+002, 1.484446e+004
1.118524e+002, 1.488088e+004
1.123345e+002, 1.494808e+004
1.128167e+002, 1.509744e+004
1.132988e+002, 1.520810e+004
1.137809e+002, 1.524749e+004
1.142630e+002, 1.524354e+004
1.147451e+002, 1.522954e+004
1.152272e+002, 1.522508e+004
1.157094e+002, 1.523030e+004
1.161915e+002, 1.525094e+004
1.166736e+002, 1.530544e+004
1.171557e+002, 1.535459e+004
1.176378e+002, 1.537734e+004
1.181199e+002, 1.538014e+004
1.186021e+002, 1.538745e+004
1.190842e+002, 1.542015e+004
1.195663e+002, 1.548105e+004
1.200484e+002, 1.554094e+004
1.205305e+002, 1.561690e+004
1.210126e+002, 1.568204e+004
1.214948e+002, 1.570187e+004
1.219769e+002, 1.566765e+004
1.224590e+002, 1.562842e+004
1.229411e+002, 1.563820e+004
1.234232e+002, 1.568518e+004
1.239053e+002, 1.574005e+004
1.243875e+002, 1.579843e+004
1.248696e+002, 1.585784e+004
1.253517e+002, 1.590914e+004
1.258338e+002, 1.594335e+004
1.263159e+002, 1.598112e+004
1.267980e+002, 1.604245e+004
1.272802e+002, 1.612239e+004
1.277623e+002, 1.619705e+004
1.282444e+002, 1.624292e+004
1.287265e+002, 1.625620e+004
1.292086e+002, 1.627926e+004
1.296907e+002, 1.632793e+004
1.301729e+002, 1.637846e+004
1.306550e+002, 1.642277e+004
1.311371e+002, 1.645868e+004
1.316192e+002, 1.648613e+004
1.321013e+002, 1.650325e+004
1.325834e+002, 1.650065e+004
1.330656e+002, 1.650678e+004
1.335477e+002, 1.651579e+004
1.340298e+002, 1.653535e+004
1.345119e+002, 1.657285e+004
1.349940e+002, 1.663031e+004
1.354761e+002, 1.670290e+004
1.359583e+002, 1.677968e+004
1.364404e+002, 1.688361e+004
1.369225e+002, 1.696222e+004
1.374046e+002, 1.698853e+004
1.378867e+002, 1.699283e+004
1.383688e+002, 1.702206e+004
1.388510e+002, 1.710243e+004
1.393331e+002, 1.721222e+004
1.398152e+002, 1.727684e+004
1.402973e+002, 1.725644e+004
1.407794e+002, 1.725734e+004
1.412615e+002, 1.733702e+004
1.417437e+002, 1.748120e+004
1.422258e+002, 1.762818e+004
1.427079e+002, 1.774733e+004
1.431900e+002, 1.784660e+004
1.436721e+002, 1.794825e+004
1.441542e+002, 1.805901e+004
1.446364e+002, 1.816533e+004
1.451185e+002, 1.825620e+004
1.456006e+002, 1.833190e+004
1.460827e+002, 1.839001e+004
1.465648e+002, 1.840094e+004
1.470469e+002, 1.840242e+004
1.475291e+002, 1.843508e+004
1.480112e+002, 1.851667e+004
1.484933e+002, 1.863404e+004
1.489754e+002, 1.876440e+004
1.494575e+002, 1.893476e+004
1.499396e+002, 1.906926e+004
1.504218e+002, 1.912218e+004
1.509039e+002, 1.913690e+004
1.513860e+002, 1.916953e+004
1.518681e+002, 1.925400e+004
1.523502e+002, 1.938575e+004
1.528323e+002, 1.951960e+004
1.533145e+002, 1.966172e+004
1.537966e+002, 1.980006e+004
1.542787e+002, 1.993019e+004
1.547608e+002, 2.005504e+004
1.552429e+002, 2.018329e+004
1.557250e+002, 2.032486e+004
1.562072e+002, 2.048230e+004
1.566893e+002, 2.060557e+004
1.571714e+002, 2.065575e+004
1.576535e+002, 2.071459e+004
1.581356e+002, 2.081986e+004
1.586177e+002, 2.096863e+004
1.590999e+002, 2.113557e+004
1.595820e+002, 2.130118e+004
1.600641e+002, 2.146710e+004
1.605462e+002, 2.160825e+004
1.610283e+002, 2.169983e+004
1.615104e+002, 2.178416e+004
1.619926e+002, 2.188788e+004
1.624747e+002, 2.201469e+004
1.629568e+002, 2.216605e+004
1.634389e+002, 2.235958e+004
1.639210e+002, 2.259228e+004
1.644031e+002, 2.278567e+004
1.648853e+002, 2.289702e+004
1.653674e+002, 2.296994e+004
1.658495e+002, 2.306414e+004
1.663316e+002, 2.318987e+004
1.668137e+002, 2.333456e+004
1.672958e+002, 2.348983e+004
1.677780e+002, 2.365412e+004
1.682601e+002, 2.382372e+004
1.687422e+002, 2.400279e+004
1.692243e+002, 2.418743e+004
1.697064e+002, 2.435721e+004
1.701885e+002, 2.450053e+004
1.706707e+002, 2.463975e+004
1.711528e+002, 2.478155e+004
1.716349e+002, 2.492930e+004
1.721170e+002, 2.509597e+004
1.725991e+002, 2.529774e+004
1.730812e+002, 2.553634e+004
1.735634e+002, 2.577255e+004
1.740455e+002, 2.599843e+004
1.745276e+002, 2.622841e+004
1.750097e+002, 2.647410e+004
1.754918e+002, 2.673224e+004
1.759739e+002, 2.698595e+004
1.764561e+002, 2.720998e+004
1.769382e+002, 2.739026e+004
1.774203e+002, 2.759471e+004
1.779024e+002, 2.784161e+004
1.783845e+002, 2.809486e+004
1.788666e+002, 2.832406e+004
1.793488e+002, 2.853033e+004
1.798309e+002, 2.874806e+004
1.803130e+002, 2.902571e+004
1.807951e+002, 2.940961e+004
1.812772e+002, 2.974775e+004
1.817593e+002, 2.999992e+004
1.822415e+002, 3.023772e+004
1.827236e+002, 3.051088e+004
1.832057e+002, 3.083162e+004
1.836878e+002, 3.118121e+004
1.841699e+002, 3.153327e+004
1.846520e+002, 3.189666e+004
1.851342e+002, 3.224294e+004
1.856163e+002, 3.253147e+004
1.860984e+002, 3.281887e+004
1.865805e+002, 3.317775e+004
1.870626e+002, 3.363282e+004
1.875447e+002, 3.412545e+004
1.880269e+002, 3.454529e+004
1.885090e+002, 3.486291e+004
1.889911e+002, 3.523857e+004
1.894732e+002, 3.575349e+004
1.899553e+002, 3.634228e+004
1.904374e+002, 3.688271e+004
1.909196e+002, 3.733734e+004
1.914017e+002, 3.774952e+004
1.918838e+002, 3.818295e+004
1.923659e+002, 3.863374e+004
1.928480e+002, 3.909999e+004
1.933301e+002, 3.958541e+004
1.938123e+002, 4.008599e+004
1.942944e+002, 4.059058e+004
1.947765e+002, 4.109359e+004
1.952586e+002, 4.160220e+004
1.957407e+002, 4.212397e+004
1.962228e+002, 4.265774e+004
1.967050e+002, 4.319462e+004
1.971871e+002, 4.372986e+004
1.976692e+002, 4.426342e+004
1.981513e+002, 4.479067e+004
1.986334e+002, 4.527167e+004
1.991155e+002, 4.578367e+004
1.995977e+002, 4.639860e+004
2.000798e+002, 4.711598e+004
2.005619e+002, 4.784160e+004
2.010440e+002, 4.847206e+004
2.015261e+002, 4.899071e+004
2.020082e+002, 4.955224e+004
2.024904e+002, 5.020818e+004
2.029725e+002, 5.089373e+004
2.034546e+002, 5.159028e+004
2.039367e+002, 5.229170e+004
2.044188e+002, 5.299401e+004
2.049009e+002, 5.368044e+004
2.053831e+002, 5.432762e+004
2.058652e+002, 5.503057e+004
2.063473e+002, 5.585710e+004
2.068294e+002, 5.668552e+004
2.073115e+002, 5.743825e+004
2.077936e+002, 5.810420e+004
2.082758e+002, 5.873055e+004
2.087579e+002, 5.937330e+004
2.092400e+002, 6.002412e+004
2.097221e+002, 6.071276e+004
2.102042e+002, 6.145527e+004
2.106863e+002, 6.221387e+004
2.111685e+002, 6.297233e+004
2.116506e+002, 6.372458e+004
2.121327e+002, 6.446697e+004
2.126148e+002, 6.519995e+004
2.130969e+002, 6.591155e+004
2.135790e+002, 6.662513e+004
2.140612e+002, 6.735623e+004
2.145433e+002, 6.807745e+004
2.150254e+002, 6.877269e+004
2.155075e+002, 6.943370e+004
2.159896e+002, 7.007889e+004
2.164717e+002, 7.072680e+004
2.169539e+002, 7.138187e+004
2.174360e+002, 7.203738e+004
2.179181e+002, 7.269077e+004
2.184002e+002, 7.334697e+004
2.188823e+002, 7.402492e+004
2.193644e+002, 7.472751e+004
2.198466e+002, 7.542452e+004
2.203287e+002, 7.606424e+004
2.208108e+002, 7.663536e+004
2.212929e+002, 7.723483e+004
2.217750e+002, 7.790489e+004
2.222571e+002, 7.859936e+004
2.227393e+002, 7.926401e+004
2.232214e+002, 7.988670e+004
2.237035e+002, 8.048001e+004
2.241856e+002, 8.104845e+004
2.246677e+002, 8.159311e+004
2.251498e+002, 8.212508e+004
2.256320e+002, 8.262215e+004
2.261141e+002, 8.311429e+004
2.265962e+002, 8.366797e+004
2.270783e+002, 8.431903e+004
2.275604e+002, 8.495942e+004
2.280425e+002, 8.546467e+004
2.285247e+002, 8.586174e+004
2.290068e+002, 8.626295e+004
2.294889e+002, 8.672764e+004
2.299710e+002, 8.722118e+004
2.304531e+002, 8.766192e+004
2.309352e+002, 8.801734e+004
2.314174e+002, 8.836687e+004
2.318995e+002, 8.878054e+004
2.323816e+002, 8.923707e+004
2.328637e+002, 8.967863e+004
2.333458e+002, 9.007757e+004
2.338279e+002, 9.044009e+004
2.343101e+002, 9.078821e+004
2.347922e+002, 9.110222e+004
2.352743e+002, 9.143208e+004
2.357564e+002, 9.181698e+004
2.362385e+002, 9.223509e+004
2.367206e+002, 9.264655e+004
2.372028e+002, 9.303286e+004
2.376849e+002, 9.339269e+004
2.381670e+002, 9.373061e+004
2.386491e+002, 9.406360e+004
2.391312e+002, 9.434173e+004
2.396133e+002, 9.452004e+004
2.400955e+002, 9.464291e+004
2.405776e+002, 9.478248e+004
2.410597e+002, 9.497042e+004
2.415418e+002, 9.521108e+004
2.420239e+002, 9.553234e+004
2.425060e+002, 9.603995e+004
2.429882e+002, 9.648290e+004
2.434703e+002, 9.674387e+004
2.439524e+002, 9.691017e+004
2.444345e+002, 9.710552e+004
2.449166e+002, 9.739802e+004
2.453987e+002, 9.777686e+004
2.458809e+002, 9.819002e+004
2.463630e+002, 9.868737e+004
2.468451e+002, 9.915360e+004
2.473272e+002, 9.955116e+004
2.478093e+002, 9.991004e+004
2.482914e+002, 1.002632e+005
2.487736e+002, 1.006279e+005
2.492557e+002, 1.010049e+005
2.497378e+002, 1.013929e+005
2.502199e+002, 1.017932e+005
2.507020e+002, 1.022077e+005
2.511841e+002, 1.026164e+005
2.516663e+002, 1.030436e+005
2.521484e+002, 1.035283e+005
2.526305e+002, 1.040938e+005
2.531126e+002, 1.046993e+005
2.535947e+002, 1.052282e+005
2.540768e+002, 1.055458e+005
2.545590e+002, 1.059432e+005
2.550411e+002, 1.064843e+005
2.555232e+002, 1.070958e+005
2.560053e+002, 1.076909e+005
2.564874e+002, 1.082314e+005
2.569695e+002, 1.087624e+005
2.574517e+002, 1.093911e+005
2.579338e+002, 1.102006e+005
2.584159e+002, 1.110235e+005
2.588980e+002, 1.118543e+005
2.593801e+002, 1.127008e+005
2.598622e+002, 1.135817e+005
2.603444e+002, 1.145023e+005
2.608265e+002, 1.154477e+005
2.613086e+002, 1.163882e+005
2.617907e+002, 1.173304e+005
2.622728e+002, 1.182651e+005
2.627549e+002, 1.191473e+005
2.632371e+002, 1.200475e+005
2.637192e+002, 1.210350e+005
2.642013e+002, 1.221302e+005
2.646834e+002, 1.232922e+005
2.651655e+002, 1.244676e+005
2.656476e+002, 1.256645e+005
2.661298e+002, 1.268463e+005
2.666119e+002, 1.280341e+005
2.670940e+002, 1.292011e+005
2.675761e+002, 1.303019e+005
2.680582e+002, 1.313358e+005
2.685403e+002, 1.323518e+005
2.690225e+002, 1.334057e+005
2.695046e+002, 1.345041e+005
2.699867e+002, 1.356292e+005
2.704688e+002, 1.368515e+005
2.709509e+002, 1.380538e+005
2.714330e+002, 1.391244e+005
2.719152e+002, 1.400515e+005
2.723973e+002, 1.409213e+005
2.728794e+002, 1.418070e+005
2.733615e+002, 1.427113e+005
2.738436e+002, 1.435734e+005
2.743257e+002, 1.443843e+005
2.748079e+002, 1.451628e+005
2.752900e+002, 1.459170e+005
2.757721e+002, 1.466494e+005
2.762542e+002, 1.473491e+005
2.767363e+002, 1.480270e+005
2.772184e+002, 1.486596e+005
2.777006e+002, 1.491912e+005
2.781827e+002, 1.495351e+005
2.786648e+002, 1.498416e+005
2.791469e+002, 1.502396e+005
2.796290e+002, 1.507124e+005
2.801111e+002, 1.511180e+005
2.805933e+002, 1.513509e+005
2.810754e+002, 1.514525e+005
2.815575e+002, 1.516011e+005
2.820396e+002, 1.518621e+005
2.825217e+002, 1.520918e+005
2.830038e+002, 1.522082e+005
2.834860e+002, 1.522189e+005
2.839681e+002, 1.521535e+005
2.844502e+002, 1.519936e+005
2.849323e+002, 1.517904e+005
2.854144e+002, 1.516493e+005
2.858965e+002, 1.515804e+005
2.863787e+002, 1.515438e+005
2.868608e+002, 1.515366e+005
2.873429e+002, 1.515484e+005
2.878250e+002, 1.515411e+005
2.883071e+002, 1.515025e+005
2.887892e+002, 1.514373e+005
2.892714e+002, 1.513529e+005
2.897535e+002, 1.512488e+005
2.902356e+002, 1.511353e+005
2.907177e+002, 1.510598e+005
2.911998e+002, 1.509799e+005
2.916819e+002, 1.507657e+005
2.921641e+002, 1.503505e+005
2.926462e+002, 1.498656e+005
2.931283e+002, 1.494260e+005
2.936104e+002, 1.490299e+005
2.940925e+002, 1.487105e+005
2.945746e+002, 1.485306e+005
2.950568e+002, 1.484297e+005
2.955389e+002, 1.482966e+005
2.960210e+002, 1.481258e+005
2.965031e+002, 1.479015e+005
2.969852e+002, 1.475981e+005
2.974673e+002, 1.472302e+005
2.979495e+002, 1.468170e+005
2.984316e+002, 1.463557e+005
2.989137e+002, 1.458576e+005
2.993958e+002, 1.453369e+005
2.998779e+002, 1.447919e+005
3.003600e+002, 1.442331e+005
3.008422e+002, 1.436622e+005
3.013243e+002, 1.430833e+005
3.018064e+002, 1.425064e+005
3.022885e+002, 1.418903e+005
3.027706e+002, 1.413118e+005
3.032527e+002, 1.408987e+005
3.037349e+002, 1.406646e+005
3.042170e+002, 1.403769e+005
3.046991e+002, 1.398747e+005
3.051812e+002, 1.392781e+005
3.056633e+002, 1.387520e+005
3.061454e+002, 1.383325e+005
3.066276e+002, 1.379486e+005
3.071097e+002, 1.375270e+005
3.075918e+002, 1.370733e+005
3.080739e+002, 1.366707e+005
3.085560e+002, 1.363644e+005
3.090381e+002, 1.361152e+005
3.095203e+002, 1.358766e+005
3.100024e+002, 1.356464e+005
3.104845e+002, 1.354238e+005
3.109666e+002, 1.351886e+005
3.114487e+002, 1.349532e+005
3.119308e+002, 1.347806e+005
3.124130e+002, 1.346810e+005
3.128951e+002, 1.346571e+005
3.133772e+002, 1.347106e+005
3.138593e+002, 1.348345e+005
3.143414e+002, 1.349954e+005
3.148235e+002, 1.351798e+005
3.153057e+002, 1.353883e+005
3.157878e+002, 1.356328e+005
3.162699e+002, 1.359282e+005
3.167520e+002, 1.362234e+005
3.172341e+002, 1.364368e+005
3.177162e+002, 1.366179e+005
3.181984e+002, 1.368877e+005
3.186805e+002, 1.373365e+005
3.191626e+002, 1.378770e+005
3.196447e+002, 1.383665e+005
3.201268e+002, 1.387916e+005
3.206089e+002, 1.392338e+005
3.210911e+002, 1.397220e+005
3.215732e+002, 1.402667e+005
3.220553e+002, 1.408948e+005
3.225374e+002, 1.416421e+005
3.230195e+002, 1.424298e+005
3.235016e+002, 1.431694e+005
3.239838e+002, 1.438647e+005
3.244659e+002, 1.445709e+005
3.249480e+002, 1.453073e+005
3.254301e+002, 1.460658e+005
3.259122e+002, 1.468188e+005
3.263943e+002, 1.475649e+005
3.268765e+002, 1.483414e+005
3.273586e+002, 1.492022e+005
3.278407e+002, 1.501312e+005
3.283228e+002, 1.510163e+005
3.288049e+002, 1.518120e+005
3.292870e+002, 1.525817e+005
3.297692e+002, 1.534043e+005
3.302513e+002, 1.542708e+005
3.307334e+002, 1.550945e+005
3.312155e+002, 1.557934e+005
3.316976e+002, 1.564199e+005
3.321797e+002, 1.570944e+005
3.326619e+002, 1.578337e+005
3.331440e+002, 1.586079e+005
3.336261e+002, 1.594210e+005
3.341082e+002, 1.602515e+005
3.345903e+002, 1.610532e+005
3.350724e+002, 1.617723e+005
3.355546e+002, 1.624684e+005
3.360367e+002, 1.632428e+005
3.365188e+002, 1.641049e+005
3.370009e+002, 1.649163e+005
3.374830e+002, 1.655802e+005
3.379651e+002, 1.661426e+005
3.384473e+002, 1.666883e+005
3.389294e+002, 1.672269e+005
3.394115e+002, 1.677496e+005
3.398936e+002, 1.682537e+005
3.403757e+002, 1.687385e+005
3.408578e+002, 1.691780e+005
3.413400e+002, 1.695483e+005
3.418221e+002, 1.698849e+005
3.423042e+002, 1.702510e+005
3.427863e+002, 1.706570e+005
3.432684e+002, 1.710416e+005
3.437505e+002, 1.713664e+005
3.442327e+002, 1.716478e+005
3.447148e+002, 1.719324e+005
3.451969e+002, 1.722404e+005
3.456790e+002, 1.725245e+005
3.461611e+002, 1.727141e+005
3.466432e+002, 1.728240e+005
3.471254e+002, 1.729224e+005
3.476075e+002, 1.730707e+005
3.480896e+002, 1.731953e+005
3.485717e+002, 1.732039e+005
3.490538e+002, 1.730878e+005
3.495359e+002, 1.728849e+005
3.500181e+002, 1.725994e+005
3.505002e+002, 1.722417e+005
3.509823e+002, 1.718776e+005
3.514644e+002, 1.715485e+005
3.519465e+002, 1.711832e+005
3.524286e+002, 1.707243e+005
3.529108e+002, 1.701836e+005
3.533929e+002, 1.696047e+005
3.538750e+002, 1.690042e+005
3.543571e+002, 1.683847e+005
3.548392e+002, 1.677505e+005
3.553214e+002, 1.670975e+005
3.558035e+002, 1.664441e+005
3.562856e+002, 1.658539e+005
3.567677e+002, 1.652599e+005
3.572498e+002, 1.645288e+005
3.577319e+002, 1.636121e+005
3.582141e+002, 1.626033e+005
3.586962e+002, 1.615975e+005
3.591783e+002, 1.605857e+005
3.596604e+002, 1.596355e+005
3.601425e+002, 1.588172e+005
3.606246e+002, 1.580208e+005
3.611068e+002, 1.571532e+005
3.615889e+002, 1.561985e+005
3.620710e+002, 1.552028e+005
3.625531e+002, 1.542040e+005
3.630352e+002, 1.531961e+005
3.635173e+002, 1.521444e+005
3.639995e+002, 1.510073e+005
3.644816e+002, 1.498671e+005
3.649637e+002, 1.487448e+005
3.654458e+002, 1.476518e+005
3.659279e+002, 1.466195e+005
3.664100e+002, 1.456723e+005
3.668922e+002, 1.447788e+005
3.673743e+002, 1.438515e+005
3.678564e+002, 1.428307e+005
3.683385e+002, 1.418596e+005
3.688206e+002, 1.410022e+005
3.693027e+002, 1.401828e+005
3.697849e+002, 1.393286e+005
3.702670e+002, 1.384203e+005
3.707491e+002, 1.374574e+005
3.712312e+002, 1.364279e+005
3.717133e+002, 1.352876e+005
3.721954e+002, 1.342417e+005
3.726776e+002, 1.333456e+005
3.731597e+002, 1.324935e+005
3.736418e+002, 1.316281e+005
3.741239e+002, 1.307439e+005
3.746060e+002, 1.298446e+005
3.750881e+002, 1.289132e+005
3.755703e+002, 1.279578e+005
3.760524e+002, 1.271220e+005
3.765345e+002, 1.265425e+005
3.770166e+002, 1.259199e+005
3.774987e+002, 1.251422e+005
3.779808e+002, 1.242890e+005
3.784630e+002, 1.234749e+005
3.789451e+002, 1.227524e+005
3.794272e+002, 1.220968e+005
3.799093e+002, 1.214539e+005
3.803914e+002, 1.208388e+005
3.808735e+002, 1.202048e+005
3.813557e+002, 1.195309e+005
3.818378e+002, 1.188533e+005
3.823199e+002, 1.181773e+005
3.828020e+002, 1.175119e+005
3.832841e+002, 1.168925e+005
3.837662e+002, 1.163686e+005
3.842484e+002, 1.159515e+005
3.847305e+002, 1.155341e+005
3.852126e+002, 1.151412e+005
3.856947e+002, 1.147199e+005
3.861768e+002, 1.142163e+005
3.866589e+002, 1.136724e+005
3.871411e+002, 1.131743e+005
3.876232e+002, 1.127805e+005
3.881053e+002, 1.124548e+005
3.885874e+002, 1.120643e+005
3.890695e+002, 1.115549e+005
3.895516e+002, 1.110844e+005
3.900338e+002, 1.107059e+005
3.905159e+002, 1.103651e+005
3.909980e+002, 1.100079e+005
3.914801e+002, 1.096190e+005
3.919622e+002, 1.092432e+005
3.924443e+002, 1.089566e+005
3.929265e+002, 1.087762e+005
3.934086e+002, 1.085236e+005
3.938907e+002, 1.080951e+005
3.943728e+002, 1.076675e+005
3.948549e+002, 1.073460e+005
3.953370e+002, 1.071176e+005
3.958192e+002, 1.069161e+005
3.963013e+002, 1.067199e+005
3.967834e+002, 1.065179e+005
3.972655e+002, 1.062655e+005
3.977476e+002, 1.059397e+005
3.982297e+002, 1.056248e+005
3.987119e+002, 1.053784e+005
3.991940e+002, 1.051644e+005
3.996761e+002, 1.049350e+005
4.001582e+002, 1.046647e+005
4.006403e+002, 1.044047e+005
4.011224e+002, 1.042124e+005
4.016046e+002, 1.040831e+005
4.020867e+002, 1.039730e+005
4.025688e+002, 1.038907e+005
4.030509e+002, 1.037961e+005
4.035330e+002, 1.036401e+005
4.040151e+002, 1.034225e+005
4.044973e+002, 1.031931e+005
4.049794e+002, 1.029721e+005
4.054615e+002, 1.027540e+005
4.059436e+002, 1.025282e+005
4.064257e+002, 1.022941e+005
4.069078e+002, 1.020583e+005
4.073900e+002, 1.018346e+005
4.078721e+002, 1.016169e+005
4.083542e+002, 1.013722e+005
4.088363e+002, 1.010348e+005
4.093184e+002, 1.007281e+005
4.098005e+002, 1.005799e+005
4.102827e+002, 1.005414e+005
4.107648e+002, 1.004406e+005
4.112469e+002, 1.001946e+005
4.117290e+002, 9.985901e+004
4.122111e+002, 9.955311e+004
4.126932e+002, 9.927641e+004
4.131754e+002, 9.902384e+004
4.136575e+002, 9.883472e+004
4.141396e+002, 9.864793e+004
4.146217e+002, 9.838699e+004
4.151038e+002, 9.804362e+004
4.155859e+002, 9.767802e+004
4.160681e+002, 9.734955e+004
4.165502e+002, 9.706264e+004
4.170323e+002, 9.676473e+004
4.175144e+002, 9.648019e+004
4.179965e+002, 9.616185e+004
4.184786e+002, 9.573915e+004
4.189608e+002, 9.527491e+004
4.194429e+002, 9.489621e+004
4.199250e+002, 9.467298e+004
4.204071e+002, 9.454196e+004
4.208892e+002, 9.432743e+004
4.213713e+002, 9.398239e+004
4.218535e+002, 9.362001e+004
4.223356e+002, 9.324270e+004
4.228177e+002, 9.285098e+004
4.232998e+002, 9.243930e+004
4.237819e+002, 9.201008e+004
4.242640e+002, 9.158400e+004
4.247462e+002, 9.118507e+004
4.252283e+002, 9.081439e+004
4.257104e+002, 9.042967e+004
4.261925e+002, 9.002662e+004
4.266746e+002, 8.961227e+004
4.271567e+002, 8.916459e+004
4.276389e+002, 8.871196e+004
4.281210e+002, 8.830801e+004
4.286031e+002, 8.798450e+004
4.290852e+002, 8.769456e+004
4.295673e+002, 8.734880e+004
4.300494e+002, 8.694101e+004
4.305316e+002, 8.649960e+004
4.310137e+002, 8.596246e+004
4.314958e+002, 8.544411e+004
4.319779e+002, 8.504948e+004
4.324600e+002, 8.477347e+004
4.329421e+002, 8.448866e+004
4.334243e+002, 8.407925e+004
4.339064e+002, 8.357677e+004
4.343885e+002, 8.312002e+004
4.348706e+002, 8.273018e+004
4.353527e+002, 8.234788e+004
4.358348e+002, 8.193316e+004
4.363170e+002, 8.149894e+004
4.367991e+002, 8.105846e+004
4.372812e+002, 8.060704e+004
4.377633e+002, 8.016355e+004
4.382454e+002, 7.974274e+004
4.387275e+002, 7.934309e+004
4.392097e+002, 7.896953e+004
4.396918e+002, 7.863243e+004
4.401739e+002, 7.831205e+004
4.406560e+002, 7.798462e+004
4.411381e+002, 7.765091e+004
4.416202e+002, 7.730000e+004
4.421024e+002, 7.692885e+004
4.425845e+002, 7.653970e+004
4.430666e+002, 7.612745e+004
4.435487e+002, 7.569401e+004
4.440308e+002, 7.527404e+004
4.445129e+002, 7.489782e+004
4.449951e+002, 7.456066e+004
4.454772e+002, 7.419889e+004
4.459593e+002, 7.377170e+004
4.464414e+002, 7.337346e+004
4.469235e+002, 7.306781e+004
4.474056e+002, 7.279909e+004
4.478878e+002, 7.247261e+004
4.483699e+002, 7.205740e+004
4.488520e+002, 7.161380e+004
4.493341e+002, 7.123165e+004
4.498162e+002, 7.093320e+004
4.502983e+002, 7.064096e+004
4.507805e+002, 7.035954e+004
4.512626e+002, 7.007989e+004
4.517447e+002, 6.979114e+004
4.522268e+002, 6.949905e+004
4.527089e+002, 6.922084e+004
4.531910e+002, 6.897315e+004
4.536732e+002, 6.874152e+004
4.541553e+002, 6.846504e+004
4.546374e+002, 6.811805e+004
4.551195e+002, 6.776702e+004
4.556016e+002, 6.741715e+004
4.560837e+002, 6.707270e+004
4.565659e+002, 6.673788e+004
4.570480e+002, 6.641138e+004
4.575301e+002, 6.609898e+004
4.580122e+002, 6.579060e+004
4.584943e+002, 6.548639e+004
4.589764e+002, 6.527195e+004
4.594586e+002, 6.523134e+004
4.599407e+002, 6.515758e+004
4.604228e+002, 6.492419e+004
4.609049e+002, 6.459198e+004
4.613870e+002, 6.426551e+004
4.618691e+002, 6.397836e+004
4.623513e+002, 6.371663e+004
4.628334e+002, 6.348075e+004
4.633155e+002, 6.326866e+004
4.637976e+002, 6.302032e+004
4.642797e+002, 6.269320e+004
4.647618e+002, 6.235085e+004
4.652440e+002, 6.207869e+004
4.657261e+002, 6.187664e+004
4.662082e+002, 6.167329e+004
4.666903e+002, 6.144542e+004
4.671724e+002, 6.120220e+004
4.676545e+002, 6.094049e+004
4.681367e+002, 6.066452e+004
4.686188e+002, 6.042169e+004
4.691009e+002, 6.026073e+004
4.695830e+002, 6.015629e+004
4.700651e+002, 5.997415e+004
4.705472e+002, 5.962247e+004
4.710294e+002, 5.932152e+004
4.715115e+002, 5.916492e+004
4.719936e+002, 5.907405e+004
4.724757e+002, 5.895368e+004
4.729578e+002, 5.877866e+004
4.734399e+002, 5.857494e+004
4.739221e+002, 5.837644e+004
4.744042e+002, 5.819286e+004
4.748863e+002, 5.795509e+004
4.753684e+002, 5.760100e+004
4.758505e+002, 5.726278e+004
4.763326e+002, 5.700647e+004
4.768148e+002, 5.679675e+004
4.772969e+002, 5.656860e+004
4.777790e+002, 5.629160e+004
4.782611e+002, 5.598915e+004
4.787432e+002, 5.571019e+004
4.792253e+002, 5.545291e+004
4.797075e+002, 5.522866e+004
4.801896e+002, 5.507850e+004
4.806717e+002, 5.493025e+004
4.811538e+002, 5.474013e+004
4.816359e+002, 5.451370e+004
4.821180e+002, 5.428749e+004
4.826002e+002, 5.409594e+004
4.830823e+002, 5.392048e+004
4.835644e+002, 5.370418e+004
4.840465e+002, 5.344392e+004
4.845286e+002, 5.315612e+004
4.850107e+002, 5.280652e+004
4.854929e+002, 5.245527e+004
4.859750e+002, 5.217895e+004
4.864571e+002, 5.199826e+004
4.869392e+002, 5.183469e+004
4.874213e+002, 5.165248e+004
4.879034e+002, 5.145129e+004
4.883856e+002, 5.121955e+004
4.888677e+002, 5.094751e+004
4.893498e+002, 5.069675e+004
4.898319e+002, 5.054175e+004
4.903140e+002, 5.046898e+004
4.907961e+002, 5.031413e+004
4.912783e+002, 4.998691e+004
4.917604e+002, 4.967258e+004
4.922425e+002, 4.948224e+004
4.927246e+002, 4.935816e+004
4.932067e+002, 4.918262e+004
4.936888e+002, 4.891500e+004
4.941710e+002, 4.861490e+004
4.946531e+002, 4.837896e+004
4.951352e+002, 4.823233e+004
4.956173e+002, 4.807345e+004
4.960994e+002, 4.790725e+004
4.965815e+002, 4.772621e+004
4.970637e+002, 4.752482e+004
4.975458e+002, 4.730637e+004
4.980279e+002, 4.707290e+004
4.985100e+002, 4.682263e+004
4.989921e+002, 4.657164e+004
4.994742e+002, 4.636197e+004
4.999564e+002, 4.621858e+004
5.004385e+002, 4.605332e+004
5.009206e+002, 4.582463e+004
5.014027e+002, 4.559183e+004
5.018848e+002, 4.538546e+004
5.023669e+002, 4.520892e+004
5.028491e+002, 4.506184e+004
5.033312e+002, 4.496977e+004
5.038133e+002, 4.490109e+004
5.042954e+002, 4.475974e+004
5.047775e+002, 4.453050e+004
5.052596e+002, 4.430276e+004
5.057418e+002, 4.410623e+004
5.062239e+002, 4.394423e+004
5.067060e+002, 4.382810e+004
5.071881e+002, 4.377389e+004
5.076702e+002, 4.370205e+004
5.081523e+002, 4.355780e+004
5.086345e+002, 4.337507e+004
5.091166e+002, 4.320791e+004
5.095987e+002, 4.306370e+004
5.100808e+002, 4.293253e+004
5.105629e+002, 4.280831e+004
5.110450e+002, 4.269071e+004
5.115272e+002, 4.256967e+004
5.120093e+002, 4.246141e+004
5.124914e+002, 4.233029e+004
5.129735e+002, 4.213475e+004
5.134556e+002, 4.192258e+004
5.139377e+002, 4.175388e+004
5.144199e+002, 4.164588e+004
5.149020e+002, 4.157642e+004
5.153841e+002, 4.152647e+004
5.158662e+002, 4.150495e+004
5.163483e+002, 4.144275e+004
5.168304e+002, 4.132124e+004
5.173126e+002, 4.117732e+004
5.177947e+002, 4.098474e+004
5.182768e+002, 4.078730e+004
5.187589e+002, 4.065056e+004
5.192410e+002, 4.060209e+004
5.197231e+002, 4.059644e+004
5.202053e+002, 4.058088e+004
5.206874e+002, 4.055736e+004
5.211695e+002, 4.049144e+004
5.216516e+002, 4.036073e+004
5.221337e+002, 4.020735e+004
5.226158e+002, 4.003847e+004
5.230980e+002, 3.986964e+004
5.235801e+002, 3.974840e+004
5.240622e+002, 3.972623e+004
5.245443e+002, 3.972508e+004
5.250264e+002, 3.964009e+004
5.255085e+002, 3.949160e+004
5.259907e+002, 3.941535e+004
5.264728e+002, 3.947881e+004
5.269549e+002, 3.958907e+004
5.274370e+002, 3.960269e+004
5.279191e+002, 3.950291e+004
5.284012e+002, 3.942363e+004
5.288834e+002, 3.939473e+004
5.293655e+002, 3.937613e+004
5.298476e+002, 3.934416e+004
5.303297e+002, 3.929865e+004
5.308118e+002, 3.924020e+004
5.312939e+002, 3.916666e+004
5.317761e+002, 3.909509e+004
5.322582e+002, 3.907177e+004
5.327403e+002, 3.913175e+004
5.332224e+002, 3.917560e+004
5.337045e+002, 3.920547e+004
5.341866e+002, 3.921694e+004
5.346688e+002, 3.919993e+004
5.351509e+002, 3.916125e+004
5.356330e+002, 3.911818e+004
5.361151e+002, 3.907861e+004
5.365972e+002, 3.904674e+004
5.370793e+002, 3.903373e+004
5.375615e+002, 3.904090e+004
5.380436e+002, 3.906351e+004
5.385257e+002, 3.912564e+004
5.390078e+002, 3.918308e+004
5.394899e+002, 3.919019e+004
5.399720e+002, 3.914870e+004
5.404542e+002, 3.911080e+004
5.409363e+002, 3.911361e+004
5.414184e+002, 3.912951e+004
5.419005e+002, 3.910863e+004
5.423826e+002, 3.905241e+004
5.428647e+002, 3.901610e+004
5.433469e+002, 3.902703e+004
5.438290e+002, 3.907759e+004
5.443111e+002, 3.915481e+004
5.447932e+002, 3.927612e+004
5.452753e+002, 3.937789e+004
5.457574e+002, 3.943403e+004
5.462396e+002, 3.947957e+004
5.467217e+002, 3.954712e+004
5.472038e+002, 3.963478e+004
5.476859e+002, 3.971948e+004
5.481680e+002, 3.978601e+004
5.486501e+002, 3.983552e+004
5.491323e+002, 3.986854e+004
5.496144e+002, 3.984145e+004
5.500965e+002, 3.987641e+004
5.505786e+002, 4.003765e+004
5.510607e+002, 4.021816e+004
5.515428e+002, 4.032621e+004
5.520250e+002, 4.036829e+004
5.525071e+002, 4.043002e+004
5.529892e+002, 4.059305e+004
5.534713e+002, 4.081565e+004
5.539534e+002, 4.097404e+004
5.544355e+002, 4.105702e+004
5.549177e+002, 4.112951e+004
5.553998e+002, 4.120658e+004
5.558819e+002, 4.129450e+004
5.563640e+002, 4.140432e+004
5.568461e+002, 4.153939e+004
5.573282e+002, 4.166928e+004
5.578104e+002, 4.176779e+004
5.582925e+002, 4.186407e+004
5.587746e+002, 4.200213e+004
5.592567e+002, 4.217898e+004
5.597388e+002, 4.233861e+004
5.602209e+002, 4.244083e+004
5.607031e+002, 4.251431e+004
5.611852e+002, 4.265099e+004
5.616673e+002, 4.293300e+004
5.621494e+002, 4.316571e+004
5.626315e+002, 4.330889e+004
5.631136e+002, 4.343166e+004
5.635958e+002, 4.357994e+004
5.640779e+002, 4.375625e+004
5.645600e+002, 4.394136e+004
5.650421e+002, 4.412397e+004
5.655242e+002, 4.430232e+004
5.660063e+002, 4.446680e+004
5.664885e+002, 4.460507e+004
5.669706e+002, 4.476236e+004
5.674527e+002, 4.495759e+004
5.679348e+002, 4.516926e+004
5.684169e+002, 4.538736e+004
5.688990e+002, 4.560892e+004
5.693812e+002, 4.583138e+004
5.698633e+002, 4.604816e+004
5.703454e+002, 4.626551e+004
5.708275e+002, 4.650353e+004
5.713096e+002, 4.675854e+004
5.717917e+002, 4.697596e+004
5.722739e+002, 4.711952e+004
5.727560e+002, 4.723879e+004
5.732381e+002, 4.742579e+004
5.737202e+002, 4.769515e+004
5.742023e+002, 4.797280e+004
5.746844e+002, 4.827527e+004
5.751666e+002, 4.856552e+004
5.756487e+002, 4.881184e+004
5.761308e+002, 4.902483e+004
5.766129e+002, 4.923587e+004
5.770950e+002, 4.946255e+004
5.775771e+002, 4.969338e+004
5.780593e+002, 4.989892e+004
5.785414e+002, 5.005780e+004
5.790235e+002, 5.024933e+004
5.795056e+002, 5.051898e+004
5.799877e+002, 5.078307e+004
5.804698e+002, 5.099358e+004
5.809520e+002, 5.116886e+004
5.814341e+002, 5.135923e+004
5.819162e+002, 5.159227e+004
5.823983e+002, 5.183880e+004
5.828804e+002, 5.205057e+004
5.833625e+002, 5.223334e+004
5.838447e+002, 5.244293e+004
5.843268e+002, 5.269688e+004
5.848089e+002, 5.297044e+004
5.852910e+002, 5.325877e+004
5.857731e+002, 5.355442e+004
5.862552e+002, 5.377094e+004
5.867374e+002, 5.383148e+004
5.872195e+002, 5.388421e+004
5.877016e+002, 5.401099e+004
5.881837e+002, 5.418057e+004
5.886658e+002, 5.433760e+004
5.891479e+002, 5.446512e+004
5.896301e+002, 5.457936e+004
5.901122e+002, 5.470324e+004
5.905943e+002, 5.484059e+004
5.910764e+002, 5.494812e+004
5.915585e+002, 5.497736e+004
5.920406e+002, 5.503361e+004
5.925228e+002, 5.517184e+004
5.930049e+002, 5.533570e+004
5.934870e+002, 5.545738e+004
5.939691e+002, 5.552019e+004
5.944512e+002, 5.555811e+004
5.949333e+002, 5.559807e+004
5.954155e+002, 5.563978e+004
5.958976e+002, 5.567590e+004
5.963797e+002, 5.569919e+004
5.968618e+002, 5.575157e+004
5.973439e+002, 5.589499e+004
5.978260e+002, 5.606882e+004
5.983082e+002, 5.612726e+004
5.987903e+002, 5.603214e+004
5.992724e+002, 5.591975e+004
5.997545e+002, 5.580390e+004
6.002366e+002, 5.571107e+004
6.007188e+002, 5.568702e+004
6.012009e+002, 5.572270e+004
6.016830e+002, 5.575716e+004
6.021651e+002, 5.575024e+004
6.026472e+002, 5.570822e+004
6.031293e+002, 5.565184e+004
6.036115e+002, 5.556168e+004
6.040936e+002, 5.549306e+004
6.045757e+002, 5.549683e+004
6.050578e+002, 5.548003e+004
6.055399e+002, 5.535628e+004
6.060220e+002, 5.515795e+004
6.065042e+002, 5.499765e+004
6.069863e+002, 5.495441e+004
6.074684e+002, 5.495891e+004
6.079505e+002, 5.490140e+004
6.084326e+002, 5.478284e+004
6.089147e+002, 5.464008e+004
6.093969e+002, 5.446699e+004
6.098790e+002, 5.430207e+004
6.103611e+002, 5.419462e+004
6.108432e+002, 5.413945e+004
6.113253e+002, 5.408257e+004
6.118074e+002, 5.403177e+004
6.122896e+002, 5.396409e+004
6.127717e+002, 5.385782e+004
6.132538e+002, 5.372909e+004
6.137359e+002, 5.360543e+004
6.142180e+002, 5.349451e+004
6.147001e+002, 5.338436e+004
6.151823e+002, 5.325624e+004
6.156644e+002, 5.310756e+004
6.161465e+002, 5.299360e+004
6.166286e+002, 5.295353e+004
6.171107e+002, 5.289445e+004
6.175928e+002, 5.277980e+004
6.180750e+002, 5.264373e+004
6.185571e+002, 5.251293e+004
6.190392e+002, 5.239452e+004
6.195213e+002, 5.230364e+004
6.200034e+002, 5.227021e+004
6.204855e+002, 5.226832e+004
6.209677e+002, 5.223582e+004
6.214498e+002, 5.216946e+004
6.219319e+002, 5.210452e+004
6.224140e+002, 5.205559e+004
6.228961e+002, 5.202217e+004
6.233782e+002, 5.200787e+004
6.238604e+002, 5.202433e+004
6.243425e+002, 5.202166e+004
6.248246e+002, 5.196668e+004
6.253067e+002, 5.191532e+004
6.257888e+002, 5.191763e+004
6.262709e+002, 5.195405e+004
6.267531e+002, 5.196542e+004
6.272352e+002, 5.192166e+004
6.277173e+002, 5.186389e+004
6.281994e+002, 5.187241e+004
6.286815e+002, 5.196071e+004
6.291636e+002, 5.204166e+004
6.296458e+002, 5.213237e+004
6.301279e+002, 5.218410e+004
6.306100e+002, 5.211945e+004
6.310921e+002, 5.201634e+004
6.315742e+002, 5.202686e+004
6.320563e+002, 5.222414e+004
6.325385e+002, 5.243152e+004
6.330206e+002, 5.249638e+004
6.335027e+002, 5.248763e+004
6.339848e+002, 5.255807e+004
6.344669e+002, 5.272779e+004
6.349490e+002, 5.288343e+004
6.354312e+002, 5.293798e+004
6.359133e+002, 5.291528e+004
6.363954e+002, 5.292824e+004
6.368775e+002, 5.298932e+004
6.373596e+002, 5.307227e+004
6.378417e+002, 5.320730e+004
6.383239e+002, 5.333851e+004
6.388060e+002, 5.340043e+004
6.392881e+002, 5.341953e+004
6.397702e+002, 5.349121e+004
6.402523e+002, 5.368468e+004
6.407344e+002, 5.393034e+004
6.412166e+002, 5.408704e+004
6.416987e+002, 5.415109e+004
6.421808e+002, 5.422000e+004
6.426629e+002, 5.431484e+004
6.431450e+002, 5.441605e+004
6.436271e+002, 5.449980e+004
6.441093e+002, 5.457407e+004
6.445914e+002, 5.466927e+004
6.450735e+002, 5.479290e+004
6.455556e+002, 5.493397e+004
6.460377e+002, 5.511002e+004
6.465198e+002, 5.529134e+004
6.470020e+002, 5.543714e+004
6.474841e+002, 5.553833e+004
6.479662e+002, 5.560206e+004
6.484483e+002, 5.562898e+004
6.489304e+002, 5.562642e+004
6.494125e+002, 5.564953e+004
6.498947e+002, 5.571624e+004
6.503768e+002, 5.577469e+004
6.508589e+002, 5.581396e+004
6.513410e+002, 5.584366e+004
6.518231e+002, 5.586740e+004
6.523052e+002, 5.588673e+004
6.527874e+002, 5.590700e+004
6.532695e+002, 5.594734e+004
6.537516e+002, 5.597394e+004
6.542337e+002, 5.593454e+004
6.547158e+002, 5.584129e+004
6.551979e+002, 5.574859e+004
6.556801e+002, 5.567098e+004
6.561622e+002, 5.560404e+004
6.566443e+002, 5.554719e+004
6.571264e+002, 5.550248e+004
6.576085e+002, 5.542968e+004
6.580906e+002, 5.528632e+004
6.585728e+002, 5.517240e+004
6.590549e+002, 5.515069e+004
6.595370e+002, 5.514597e+004
6.600191e+002, 5.508358e+004
6.605012e+002, 5.495117e+004
6.609833e+002, 5.477658e+004
6.614655e+002, 5.457132e+004
6.619476e+002, 5.434723e+004
6.624297e+002, 5.413934e+004
6.629118e+002, 5.394455e+004
6.633939e+002, 5.380168e+004
6.638760e+002, 5.376938e+004
6.643582e+002, 5.373897e+004
6.648403e+002, 5.355457e+004
6.653224e+002, 5.323084e+004
6.658045e+002, 5.295352e+004
6.662866e+002, 5.279723e+004
6.667687e+002, 5.264705e+004
6.672509e+002, 5.243238e+004
6.677330e+002, 5.218420e+004
6.682151e+002, 5.196734e+004
6.686972e+002, 5.179300e+004
6.691793e+002, 5.159932e+004
6.696614e+002, 5.130715e+004
6.701436e+002, 5.092780e+004
6.706257e+002, 5.063301e+004
6.711078e+002, 5.047927e+004
6.715899e+002, 5.029146e+004
6.720720e+002, 4.997207e+004
6.725541e+002, 4.963166e+004
6.730363e+002, 4.935462e+004
6.735184e+002, 4.914262e+004
6.740005e+002, 4.894580e+004
6.744826e+002, 4.876972e+004
6.749647e+002, 4.857488e+004
6.754468e+002, 4.830949e+004
6.759290e+002, 4.799138e+004
6.764111e+002, 4.766280e+004
6.768932e+002, 4.733640e+004
6.773753e+002, 4.704552e+004
6.778574e+002, 4.684084e+004
6.783395e+002, 4.672775e+004
6.788217e+002, 4.656381e+004
6.793038e+002, 4.631455e+004
6.797859e+002, 4.605634e+004
6.802680e+002, 4.581506e+004
6.807501e+002, 4.556406e+004
6.812322e+002, 4.526684e+004
6.817144e+002, 4.492980e+004
6.821965e+002, 4.460228e+004
6.826786e+002, 4.431693e+004
6.831607e+002, 4.406404e+004
6.836428e+002, 4.383793e+004
6.841249e+002, 4.363500e+004
6.846071e+002, 4.343407e+004
6.850892e+002, 4.322918e+004
6.855713e+002, 4.301857e+004
6.860534e+002, 4.280076e+004
6.865355e+002, 4.257707e+004
6.870176e+002, 4.232883e+004
6.874998e+002, 4.201969e+004
6.879819e+002, 4.173450e+004
6.884640e+002, 4.151500e+004
6.889461e+002, 4.131703e+004
6.894282e+002, 4.109275e+004
6.899103e+002, 4.083883e+004
6.903925e+002, 4.058341e+004
6.908746e+002, 4.034752e+004
6.913567e+002, 4.012723e+004
6.918388e+002, 3.991796e+004
6.923209e+002, 3.972057e+004
6.928030e+002, 3.951586e+004
6.932852e+002, 3.929288e+004
6.937673e+002, 3.907289e+004
6.942494e+002, 3.888602e+004
6.947315e+002, 3.872785e+004
6.952136e+002, 3.853704e+004
6.956957e+002, 3.827746e+004
6.961779e+002, 3.802493e+004
6.966600e+002, 3.780574e+004
6.971421e+002, 3.760691e+004
6.976242e+002, 3.741889e+004
6.981063e+002, 3.723718e+004
6.985884e+002, 3.705113e+004
6.990706e+002, 3.684769e+004
6.995527e+002, 3.664276e+004
7.000348e+002, 3.649432e+004
7.005169e+002, 3.641815e+004
7.009990e+002, 3.629336e+004
7.014811e+002, 3.607573e+004
7.019633e+002, 3.583195e+004
7.024454e+002, 3.560060e+004
7.029275e+002, 3.538675e+004
7.034096e+002, 3.521004e+004
7.038917e+002, 3.512589e+004
7.043738e+002, 3.500668e+004
7.048560e+002, 3.473296e+004
7.053381e+002, 3.443169e+004
7.058202e+002, 3.428082e+004
7.063023e+002, 3.427284e+004
7.067844e+002, 3.424962e+004
7.072665e+002, 3.410179e+004
7.077487e+002, 3.386894e+004
7.082308e+002, 3.365636e+004
7.087129e+002, 3.346369e+004
7.091950e+002, 3.329480e+004
7.096771e+002, 3.316666e+004
7.101592e+002, 3.304103e+004
7.106414e+002, 3.290056e+004
7.111235e+002, 3.274464e+004
7.116056e+002, 3.256692e+004
7.120877e+002, 3.235216e+004
7.125698e+002, 3.214988e+004
7.130519e+002, 3.199208e+004
7.135341e+002, 3.185702e+004
7.140162e+002, 3.172120e+004
7.144983e+002, 3.158338e+004
7.149804e+002, 3.145532e+004
7.154625e+002, 3.134519e+004
7.159446e+002, 3.123207e+004
7.164268e+002, 3.105922e+004
7.169089e+002, 3.079986e+004
7.173910e+002, 3.059999e+004
7.178731e+002, 3.049012e+004
7.183552e+002, 3.040257e+004
7.188373e+002, 3.032808e+004
7.193195e+002, 3.024573e+004
7.198016e+002, 3.012363e+004
7.202837e+002, 2.995379e+004
7.207658e+002, 2.976156e+004
7.212479e+002, 2.951994e+004
7.217300e+002, 2.928977e+004
7.222122e+002, 2.915352e+004
7.226943e+002, 2.909059e+004
7.231764e+002, 2.902049e+004
7.236585e+002, 2.890843e+004
7.241406e+002, 2.876584e+004
7.246227e+002, 2.861001e+004
7.251049e+002, 2.843985e+004
7.255870e+002, 2.825571e+004
7.260691e+002, 2.804057e+004
7.265512e+002, 2.784042e+004
7.270333e+002, 2.766822e+004
7.275154e+002, 2.751980e+004
7.279976e+002, 2.740444e+004
7.284797e+002, 2.732131e+004
7.289618e+002, 2.722367e+004
7.294439e+002, 2.707550e+004
7.299260e+002, 2.691900e+004
7.304081e+002, 2.680200e+004
7.308903e+002, 2.670651e+004
7.313724e+002, 2.658528e+004
7.318545e+002, 2.642548e+004
7.323366e+002, 2.625409e+004
7.328187e+002, 2.610003e+004
7.333008e+002, 2.596081e+004
7.337830e+002, 2.579947e+004
7.342651e+002, 2.559612e+004
7.347472e+002, 2.541403e+004
7.352293e+002, 2.529054e+004
7.357114e+002, 2.517411e+004
7.361935e+002, 2.502429e+004
7.366757e+002, 2.484845e+004
7.371578e+002, 2.468161e+004
7.376399e+002, 2.452602e+004
7.381220e+002, 2.439338e+004
7.386041e+002, 2.433094e+004
7.390862e+002, 2.428100e+004
7.395684e+002, 2.413154e+004
7.400505e+002, 2.388117e+004
7.405326e+002, 2.363638e+004
7.410147e+002, 2.347479e+004
7.414968e+002, 2.337284e+004
7.419789e+002, 2.326014e+004
7.424611e+002, 2.313566e+004
7.429432e+002, 2.300441e+004
7.434253e+002, 2.286441e+004
7.439074e+002, 2.272109e+004
7.443895e+002, 2.257232e+004
7.448716e+002, 2.242371e+004
7.453538e+002, 2.228950e+004
7.458359e+002, 2.218113e+004
7.463180e+002, 2.205647e+004
7.468001e+002, 2.186471e+004
7.472822e+002, 2.167163e+004
7.477643e+002, 2.156363e+004
7.482465e+002, 2.151787e+004
7.487286e+002, 2.144327e+004
7.492107e+002, 2.129870e+004
7.496928e+002, 2.112161e+004
7.501749e+002, 2.096522e+004
7.506570e+002, 2.083014e+004
7.511392e+002, 2.069896e+004
7.516213e+002, 2.057301e+004
7.521034e+002, 2.044686e+004
7.525855e+002, 2.032556e+004
7.530676e+002, 2.019739e+004
7.535497e+002, 2.004402e+004
7.540319e+002, 1.986429e+004
7.545140e+002, 1.969632e+004
7.549961e+002, 1.954837e+004
7.554782e+002, 1.941535e+004
7.559603e+002, 1.929879e+004
7.564424e+002, 1.919407e+004
7.569246e+002, 1.909980e+004
7.574067e+002, 1.901180e+004
7.578888e+002, 1.891304e+004
7.583709e+002, 1.878562e+004
7.588530e+002, 1.863770e+004
7.593351e+002, 1.849704e+004
7.598173e+002, 1.836502e+004
7.602994e+002, 1.823249e+004
7.607815e+002, 1.809830e+004
7.612636e+002, 1.796367e+004
7.617457e+002, 1.782388e+004
7.622278e+002, 1.768463e+004
7.627100e+002, 1.756997e+004
7.631921e+002, 1.749522e+004
7.636742e+002, 1.742308e+004
7.641563e+002, 1.735194e+004
7.646384e+002, 1.727522e+004
7.651205e+002, 1.718146e+004
7.656027e+002, 1.707741e+004
7.660848e+002, 1.698251e+004
7.665669e+002, 1.690593e+004
7.670490e+002, 1.683402e+004
7.675311e+002, 1.675465e+004
7.680132e+002, 1.666551e+004
7.684954e+002, 1.654277e+004
7.689775e+002, 1.637798e+004
7.694596e+002, 1.624192e+004
7.699417e+002, 1.617732e+004
7.704238e+002, 1.614710e+004
7.709059e+002, 1.608951e+004
7.713881e+002, 1.600222e+004
7.718702e+002, 1.589343e+004
7.723523e+002, 1.570914e+004
7.728344e+002, 1.556736e+004
7.733165e+002, 1.554464e+004
7.737986e+002, 1.556501e+004
7.742808e+002, 1.554944e+004
7.747629e+002, 1.548409e+004
7.752450e+002, 1.539099e+004
7.757271e+002, 1.527034e+004
7.762092e+002, 1.514442e+004
7.766913e+002, 1.504737e+004
7.771735e+002, 1.497469e+004
7.776556e+002, 1.490939e+004
7.781377e+002, 1.484736e+004
7.786198e+002, 1.479236e+004
7.791019e+002, 1.475022e+004
7.795840e+002, 1.471614e+004
7.800662e+002, 1.466460e+004
7.805483e+002, 1.457940e+004
7.810304e+002, 1.450745e+004
7.815125e+002, 1.447319e+004
7.819946e+002, 1.443089e+004
7.824767e+002, 1.434783e+004
7.829589e+002, 1.424307e+004
7.834410e+002, 1.415501e+004
7.839231e+002, 1.409488e+004
7.844052e+002, 1.404008e+004
7.848873e+002, 1.397899e+004
7.853694e+002, 1.391438e+004
7.858516e+002, 1.384636e+004
7.863337e+002, 1.377808e+004
7.868158e+002, 1.372002e+004
7.872979e+002, 1.367629e+004
7.877800e+002, 1.363782e+004
7.882621e+002, 1.359233e+004
7.887443e+002, 1.354037e+004
7.892264e+002, 1.348709e+004
7.897085e+002, 1.342333e+004
7.901906e+002, 1.338632e+004
7.906727e+002, 1.341845e+004
7.911548e+002, 1.345073e+004
7.916370e+002, 1.339250e+004
7.921191e+002, 1.326146e+004
7.926012e+002, 1.318616e+004
7.930833e+002, 1.325574e+004
7.935654e+002, 1.329592e+004
7.940475e+002, 1.321625e+004
7.945297e+002, 1.309262e+004
7.950118e+002, 1.299089e+004
7.954939e+002, 1.292061e+004
7.959760e+002, 1.287603e+004
7.964581e+002, 1.285664e+004
7.969402e+002, 1.284285e+004
7.974224e+002, 1.279874e+004
7.979045e+002, 1.273084e+004
7.983866e+002, 1.269135e+004
7.988687e+002, 1.268940e+004
7.993508e+002, 1.267046e+004
7.998329e+002, 1.260135e+004
8.003151e+002, 1.250710e+004
8.007972e+002, 1.243256e+004
8.012793e+002, 1.237710e+004
8.017614e+002, 1.234415e+004
8.022435e+002, 1.234944e+004
8.027256e+002, 1.235566e+004
8.032078e+002, 1.236408e+004
8.036899e+002, 1.236045e+004
8.041720e+002, 1.232148e+004
8.046541e+002, 1.225167e+004
8.051362e+002, 1.219095e+004
8.056183e+002, 1.216904e+004
8.061005e+002, 1.215640e+004
8.065826e+002, 1.212729e+004
8.070647e+002, 1.208317e+004
8.075468e+002, 1.201615e+004
8.080289e+002, 1.192974e+004
8.085110e+002, 1.186706e+004
8.089932e+002, 1.186122e+004
8.094753e+002, 1.189085e+004
8.099574e+002, 1.190164e+004
8.104395e+002, 1.189348e+004
8.109216e+002, 1.186416e+004
8.114037e+002, 1.179529e+004
8.118859e+002, 1.173575e+004
8.123680e+002, 1.171727e+004
8.128501e+002, 1.171963e+004
8.133322e+002, 1.171846e+004
8.138143e+002, 1.171490e+004
8.142964e+002, 1.169198e+004
8.147786e+002, 1.161884e+004
8.152607e+002, 1.155384e+004
8.157428e+002, 1.153953e+004
8.162249e+002, 1.155071e+004
8.167070e+002, 1.154980e+004
8.171891e+002, 1.153100e+004
8.176713e+002, 1.151480e+004
8.181534e+002, 1.152023e+004
8.186355e+002, 1.153272e+004
8.191176e+002, 1.152486e+004
8.195997e+002, 1.149788e+004
8.200818e+002, 1.145554e+004
8.205640e+002, 1.139512e+004
8.210461e+002, 1.135082e+004
8.215282e+002, 1.135116e+004
8.220103e+002, 1.138035e+004
8.224924e+002, 1.139135e+004
8.229745e+002, 1.138340e+004
8.234567e+002, 1.135865e+004
8.239388e+002, 1.129057e+004
8.244209e+002, 1.123611e+004
8.249030e+002, 1.122502e+004
8.253851e+002, 1.123399e+004
8.258672e+002, 1.123486e+004
8.263494e+002, 1.122340e+004
8.268315e+002, 1.120683e+004
8.273136e+002, 1.119313e+004
8.277957e+002, 1.117157e+004
8.282778e+002, 1.112004e+004
8.287599e+002, 1.105870e+004
8.292421e+002, 1.102977e+004
8.297242e+002, 1.103701e+004
8.302063e+002, 1.104556e+004
8.306884e+002, 1.102900e+004
8.311705e+002, 1.099514e+004
8.316526e+002, 1.095440e+004
8.321348e+002, 1.090544e+004
8.326169e+002, 1.090388e+004
8.330990e+002, 1.097650e+004
8.335811e+002, 1.102824e+004
8.340632e+002, 1.098989e+004
8.345453e+002, 1.090369e+004
8.350275e+002, 1.086469e+004
8.355096e+002, 1.089734e+004
8.359917e+002, 1.090464e+004
8.364738e+002, 1.085978e+004
8.369559e+002, 1.082037e+004
8.374380e+002, 1.080514e+004
8.379202e+002, 1.080789e+004
8.384023e+002, 1.083274e+004
8.388844e+002, 1.087232e+004
8.393665e+002, 1.088670e+004
8.398486e+002, 1.083347e+004
8.403307e+002, 1.077216e+004
8.408129e+002, 1.077121e+004
8.412950e+002, 1.080418e+004
8.417771e+002, 1.081637e+004
8.422592e+002, 1.080250e+004
8.427413e+002, 1.079176e+004
8.432234e+002, 1.080322e+004
8.437056e+002, 1.082412e+004
8.441877e+002, 1.083159e+004
8.446698e+002, 1.082630e+004
8.451519e+002, 1.079348e+004
8.456340e+002, 1.071653e+004
8.461161e+002, 1.065896e+004
8.465983e+002, 1.065567e+004
8.470804e+002, 1.067731e+004
8.475625e+002, 1.068590e+004
8.480446e+002, 1.068123e+004
8.485267e+002, 1.066715e+004
8.490089e+002, 1.063085e+004
8.494910e+002, 1.060178e+004
8.499731e+002, 1.058606e+004
8.504552e+002, 1.058254e+004
8.509373e+002, 1.059556e+004
8.514194e+002, 1.061973e+004
8.519016e+002, 1.064161e+004
8.523837e+002, 1.065726e+004
8.528658e+002, 1.066250e+004
8.533479e+002, 1.064588e+004
8.538300e+002, 1.061985e+004
8.543121e+002, 1.060447e+004
8.547943e+002, 1.060104e+004
8.552764e+002, 1.061081e+004
8.557585e+002, 1.063456e+004
8.562406e+002, 1.065307e+004
8.567227e+002, 1.063749e+004
8.572048e+002, 1.059147e+004
8.576870e+002, 1.056180e+004
8.581691e+002, 1.054993e+004
8.586512e+002, 1.055134e+004
8.591333e+002, 1.057523e+004
8.596154e+002, 1.059558e+004
8.600975e+002, 1.058614e+004
8.605797e+002, 1.055238e+004
8.610618e+002, 1.052649e+004
8.615439e+002, 1.051382e+004
8.620260e+002, 1.049997e+004
8.625081e+002, 1.048033e+004
8.629902e+002, 1.046227e+004
8.634724e+002, 1.044239e+004
8.639545e+002, 1.043016e+004
8.644366e+002, 1.044777e+004
8.649187e+002, 1.049935e+004
8.654008e+002, 1.053902e+004
8.658829e+002, 1.053209e+004
8.663651e+002, 1.050121e+004
8.668472e+002, 1.045590e+004
8.673293e+002, 1.041062e+004
8.678114e+002, 1.040481e+004
8.682935e+002, 1.044263e+004
8.687756e+002, 1.048633e+004
8.692578e+002, 1.050917e+004
8.697399e+002, 1.051141e+004
8.702220e+002, 1.048413e+004
8.707041e+002, 1.042460e+004
8.711862e+002, 1.039586e+004
8.716683e+002, 1.040732e+004
8.721505e+002, 1.043679e+004
8.726326e+002, 1.048522e+004
8.731147e+002, 1.053091e+004
8.735968e+002, 1.053220e+004
8.740789e+002, 1.047568e+004
8.745610e+002, 1.044725e+004
8.750432e+002, 1.046781e+004
8.755253e+002, 1.048769e+004
8.760074e+002, 1.050093e+004
8.764895e+002, 1.050494e+004
8.769716e+002, 1.048723e+004
8.774537e+002, 1.045781e+004
8.779359e+002, 1.045370e+004
8.784180e+002, 1.050193e+004
8.789001e+002, 1.054129e+004
8.793822e+002, 1.051469e+004
8.798643e+002, 1.047360e+004
8.803464e+002, 1.048204e+004
8.808286e+002, 1.052774e+004
8.813107e+002, 1.056509e+004
8.817928e+002, 1.057742e+004
8.822749e+002, 1.057994e+004
8.827570e+002, 1.058972e+004
8.832391e+002, 1.060205e+004
8.837213e+002, 1.059913e+004
8.842034e+002, 1.058209e+004
8.846855e+002, 1.057029e+004
8.851676e+002, 1.056861e+004
8.856497e+002, 1.056879e+004
8.861318e+002, 1.056216e+004
8.866140e+002, 1.055488e+004
8.870961e+002, 1.057327e+004
8.875782e+002, 1.064941e+004
8.880603e+002, 1.066508e+004
8.885424e+002, 1.055376e+004
8.890245e+002, 1.047302e+004
8.895067e+002, 1.052369e+004
8.899888e+002, 1.061501e+004
8.904709e+002, 1.063339e+004
8.909530e+002, 1.057530e+004
8.914351e+002, 1.054800e+004
8.919172e+002, 1.060324e+004
8.923994e+002, 1.065613e+004
8.928815e+002, 1.066609e+004
8.933636e+002, 1.066219e+004
8.938457e+002, 1.067675e+004
8.943278e+002, 1.070413e+004
8.948099e+002, 1.071404e+004
8.952921e+002, 1.069075e+004
8.957742e+002, 1.067230e+004
8.962563e+002, 1.070592e+004
8.967384e+002, 1.076250e+004
8.972205e+002, 1.078590e+004
8.977026e+002, 1.078436e+004
8.981848e+002, 1.080436e+004
8.986669e+002, 1.085922e+004
8.991490e+002, 1.091080e+004
8.996311e+002, 1.092021e+004
9.001132e+002, 1.089939e+004
9.005953e+002, 1.089401e+004
9.010775e+002, 1.090562e+004
9.015596e+002, 1.091408e+004
9.020417e+002, 1.091527e+004
9.025238e+002, 1.091626e+004
9.030059e+002, 1.091599e+004
9.034880e+002, 1.092367e+004
9.039702e+002, 1.096281e+004
9.044523e+002, 1.104808e+004
9.049344e+002, 1.110474e+004
9.054165e+002, 1.111133e+004
9.058986e+002, 1.111693e+004
9.063807e+002, 1.114018e+004
9.068629e+002, 1.116073e+004
9.073450e+002, 1.114886e+004
9.078271e+002, 1.111638e+004
9.083092e+002, 1.111473e+004
9.087913e+002, 1.117023e+004
9.092734e+002, 1.123082e+004
9.097556e+002, 1.128529e+004
9.102377e+002, 1.132474e+004
9.107198e+002, 1.133536e+004
9.112019e+002, 1.132661e+004
9.116840e+002, 1.130836e+004
9.121661e+002, 1.128739e+004
9.126483e+002, 1.129204e+004
9.131304e+002, 1.136389e+004
9.136125e+002, 1.145978e+004
9.140946e+002, 1.150432e+004
9.145767e+002, 1.151292e+004
9.150588e+002, 1.153697e+004
9.155410e+002, 1.158360e+004
9.160231e+002, 1.162409e+004
9.165052e+002, 1.163933e+004
9.169873e+002, 1.164448e+004
9.174694e+002, 1.167494e+004
9.179515e+002, 1.173267e+004
9.184337e+002, 1.175168e+004
9.189158e+002, 1.171650e+004
9.193979e+002, 1.171746e+004
9.198800e+002, 1.180198e+004
9.203621e+002, 1.189974e+004
9.208442e+002, 1.192939e+004
9.213264e+002, 1.190036e+004
9.218085e+002, 1.191178e+004
9.222906e+002, 1.200342e+004
9.227727e+002, 1.207067e+004
9.232548e+002, 1.208655e+004
9.237369e+002, 1.210277e+004
9.242191e+002, 1.215458e+004
9.247012e+002, 1.221696e+004
9.251833e+002, 1.224579e+004
9.256654e+002, 1.223442e+004
9.261475e+002, 1.223633e+004
9.266296e+002, 1.227498e+004
9.271118e+002, 1.232176e+004
9.275939e+002, 1.236328e+004
9.280760e+002, 1.240470e+004
9.285581e+002, 1.245465e+004
9.290402e+002, 1.251050e+004
9.295223e+002, 1.256030e+004
9.300045e+002, 1.259805e+004
9.304866e+002, 1.263524e+004
9.309687e+002, 1.268136e+004
9.314508e+002, 1.273450e+004
9.319329e+002, 1.279533e+004
9.324150e+002, 1.286022e+004
9.328972e+002, 1.291654e+004
9.333793e+002, 1.296190e+004
9.338614e+002, 1.301152e+004
9.343435e+002, 1.308091e+004
9.348256e+002, 1.315776e+004
9.353077e+002, 1.320992e+004
9.357899e+002, 1.323894e+004
9.362720e+002, 1.327010e+004
9.367541e+002, 1.330682e+004
9.372362e+002, 1.332909e+004
9.377183e+002, 1.331912e+004
9.382004e+002, 1.331611e+004
9.386826e+002, 1.338757e+004
9.391647e+002, 1.353640e+004
9.396468e+002, 1.362563e+004
9.401289e+002, 1.362670e+004
9.406110e+002, 1.363721e+004
9.410931e+002, 1.367635e+004
9.415753e+002, 1.372791e+004
9.420574e+002, 1.379330e+004
9.425395e+002, 1.386033e+004
9.430216e+002, 1.389290e+004
9.435037e+002, 1.387069e+004
9.439858e+002, 1.387606e+004
9.444680e+002, 1.391856e+004
9.449501e+002, 1.398595e+004
9.454322e+002, 1.410859e+004
9.459143e+002, 1.422921e+004
9.463964e+002, 1.426966e+004
9.468785e+002, 1.424799e+004
9.473607e+002, 1.427306e+004
9.478428e+002, 1.441008e+004
9.483249e+002, 1.453706e+004
9.488070e+002, 1.457744e+004
9.492891e+002, 1.458669e+004
9.497712e+002, 1.460159e+004
9.502534e+002, 1.463099e+004
9.507355e+002, 1.468811e+004
9.512176e+002, 1.477251e+004
9.516997e+002, 1.485467e+004
9.521818e+002, 1.490183e+004
9.526639e+002, 1.494759e+004
9.531461e+002, 1.505743e+004
9.536282e+002, 1.519605e+004
9.541103e+002, 1.526986e+004
9.545924e+002, 1.527882e+004
9.550745e+002, 1.529081e+004
9.555566e+002, 1.533947e+004
9.560388e+002, 1.541411e+004
9.565209e+002, 1.550778e+004
9.570030e+002, 1.561475e+004
9.574851e+002, 1.570350e+004
9.579672e+002, 1.577468e+004
9.584493e+002, 1.584906e+004
9.589315e+002, 1.593374e+004
9.594136e+002, 1.600215e+004
9.598957e+002, 1.602795e+004
9.603778e+002, 1.603787e+004
9.608599e+002, 1.610277e+004
9.613420e+002, 1.623182e+004
9.618242e+002, 1.637190e+004
9.623063e+002, 1.653785e+004
9.627884e+002, 1.667582e+004
9.632705e+002, 1.675803e+004
9.637526e+002, 1.681788e+004
9.642347e+002, 1.688683e+004
9.647169e+002, 1.696295e+004
9.651990e+002, 1.703301e+004
9.656811e+002, 1.707375e+004
9.661632e+002, 1.714441e+004
9.666453e+002, 1.727532e+004
9.671274e+002, 1.740134e+004
9.676096e+002, 1.748854e+004
9.680917e+002, 1.756010e+004
9.685738e+002, 1.764551e+004
9.690559e+002, 1.774675e+004
9.695380e+002, 1.784646e+004
9.700201e+002, 1.794665e+004
9.705023e+002, 1.803760e+004
9.709844e+002, 1.809851e+004
9.714665e+002, 1.816490e+004
9.719486e+002, 1.827923e+004
9.724307e+002, 1.841816e+004
9.729128e+002, 1.852935e+004
9.733950e+002, 1.859975e+004
9.738771e+002, 1.867199e+004
9.743592e+002, 1.877079e+004
9.748413e+002, 1.888412e+004
9.753234e+002, 1.901154e+004
9.758055e+002, 1.914140e+004
9.762877e+002, 1.924826e+004
9.767698e+002, 1.933970e+004
9.772519e+002, 1.945407e+004
9.777340e+002, 1.960999e+004
9.782161e+002, 1.977325e+004
9.786982e+002, 1.990208e+004
9.791804e+002, 2.001476e+004
9.796625e+002, 2.014818e+004
9.801446e+002, 2.029467e+004
9.806267e+002, 2.042139e+004
9.811088e+002, 2.052466e+004
9.815909e+002, 2.064669e+004
9.820731e+002, 2.082017e+004
9.825552e+002, 2.100673e+004
9.830373e+002, 2.112754e+004
9.835194e+002, 2.119471e+004
9.840015e+002, 2.129827e+004
9.844836e+002, 2.144137e+004
9.849658e+002, 2.160370e+004
9.854479e+002, 2.178193e+004
9.859300e+002, 2.194987e+004
9.864121e+002, 2.208097e+004
9.868942e+002, 2.218627e+004
9.873763e+002, 2.230015e+004
9.878585e+002, 2.242049e+004
9.883406e+002, 2.257048e+004
9.888227e+002, 2.276476e+004
9.893048e+002, 2.294246e+004
9.897869e+002, 2.307416e+004
9.902690e+002, 2.318358e+004
9.907512e+002, 2.329499e+004
9.912333e+002, 2.340872e+004
9.917154e+002, 2.352558e+004
9.921975e+002, 2.362745e+004
9.926796e+002, 2.377334e+004
9.931617e+002, 2.400407e+004
9.936439e+002, 2.422746e+004
9.941260e+002, 2.439317e+004
9.946081e+002, 2.453226e+004
9.950902e+002, 2.469832e+004
9.955723e+002, 2.489379e+004
9.960544e+002, 2.504443e+004
9.965366e+002, 2.507040e+004
9.970187e+002, 2.516316e+004
9.975008e+002, 2.541314e+004
9.979829e+002, 2.567764e+004
9.984650e+002, 2.587168e+004
9.989471e+002, 2.602128e+004
9.994293e+002, 2.617349e+004
9.999114e+002, 2.633540e+004
1.000393e+003, 2.648896e+004
1.000876e+003, 2.661319e+004
1.001358e+003, 2.674759e+004
1.001840e+003, 2.691304e+004
1.002322e+003, 2.709029e+004
1.002804e+003, 2.725806e+004
1.003286e+003, 2.742452e+004
1.003768e+003, 2.761722e+004
1.004250e+003, 2.784437e+004
1.004733e+003, 2.806996e+004
1.005215e+003, 2.828067e+004
1.005697e+003, 2.847515e+004
1.006179e+003, 2.864116e+004
1.006661e+003, 2.879630e+004
1.007143e+003, 2.896365e+004
1.007625e+003, 2.914153e+004
1.008107e+003, 2.931869e+004
1.008589e+003, 2.949014e+004
1.009072e+003, 2.965478e+004
1.009554e+003, 2.979946e+004
1.010036e+003, 2.994533e+004
1.010518e+003, 3.011466e+004
1.011000e+003, 3.030608e+004
1.011482e+003, 3.052432e+004
1.011964e+003, 3.076378e+004
1.012446e+003, 3.100511e+004
1.012929e+003, 3.124111e+004
1.013411e+003, 3.146242e+004
1.013893e+003, 3.164774e+004
1.014375e+003, 3.181621e+004
1.014857e+003, 3.200750e+004
1.015339e+003, 3.221790e+004
1.015821e+003, 3.243310e+004
1.016303e+003, 3.264954e+004
1.016785e+003, 3.287686e+004
1.017268e+003, 3.312550e+004
1.017750e+003, 3.336582e+004
1.018232e+003, 3.353396e+004
1.018714e+003, 3.365426e+004
1.019196e+003, 3.383730e+004
1.019678e+003, 3.407818e+004
1.020160e+003, 3.430334e+004
1.020642e+003, 3.449384e+004
1.021125e+003, 3.469378e+004
1.021607e+003, 3.494462e+004
1.022089e+003, 3.521313e+004
1.022571e+003, 3.540947e+004
1.023053e+003, 3.554124e+004
1.023535e+003, 3.573013e+004
1.024017e+003, 3.598140e+004
1.024499e+003, 3.627500e+004
1.024981e+003, 3.661291e+004
1.025464e+003, 3.693668e+004
1.025946e+003, 3.719070e+004
1.026428e+003, 3.739205e+004
1.026910e+003, 3.759003e+004
1.027392e+003, 3.778335e+004
1.027874e+003, 3.797936e+004
1.028356e+003, 3.816838e+004
1.028838e+003, 3.841525e+004
1.029321e+003, 3.875907e+004
1.029803e+003, 3.911802e+004
1.030285e+003, 3.940888e+004
1.030767e+003, 3.965449e+004
1.031249e+003, 3.996854e+004
1.031731e+003, 4.039520e+004
1.032213e+003, 4.071541e+004
1.032695e+003, 4.088031e+004
1.033177e+003, 4.104706e+004
1.033660e+003, 4.125621e+004
1.034142e+003, 4.151646e+004
1.034624e+003, 4.184482e+004
1.035106e+003, 4.223341e+004
1.035588e+003, 4.262148e+004
1.036070e+003, 4.303134e+004
1.036552e+003, 4.338446e+004
1.037034e+003, 4.364491e+004
1.037516e+003, 4.390980e+004
1.037999e+003, 4.423567e+004
1.038481e+003, 4.455630e+004
1.038963e+003, 4.477272e+004
1.039445e+003, 4.490916e+004
1.039927e+003, 4.515516e+004
1.040409e+003, 4.561002e+004
1.040891e+003, 4.599970e+004
1.041373e+003, 4.627963e+004
1.041855e+003, 4.654813e+004
1.042338e+003, 4.682328e+004
1.042820e+003, 4.711428e+004
1.043302e+003, 4.744004e+004
1.043784e+003, 4.779448e+004
1.044266e+003, 4.814011e+004
1.044748e+003, 4.849938e+004
1.045230e+003, 4.880851e+004
1.045712e+003, 4.901833e+004
1.046195e+003, 4.923121e+004
1.046677e+003, 4.945750e+004
1.047159e+003, 4.972973e+004
1.047641e+003, 5.010341e+004
1.048123e+003, 5.056232e+004
1.048605e+003, 5.100209e+004
1.049087e+003, 5.144210e+004
1.049569e+003, 5.181039e+004
1.050052e+003, 5.199362e+004
1.050534e+003, 5.222181e+004
1.051016e+003, 5.264882e+004
1.051498e+003, 5.314045e+004
1.051980e+003, 5.353738e+004
1.052462e+003, 5.384916e+004
1.052944e+003, 5.420324e+004
1.053426e+003, 5.465364e+004
1.053908e+003, 5.508533e+004
1.054391e+003, 5.547863e+004
1.054873e+003, 5.583768e+004
1.055355e+003, 5.613178e+004
1.055837e+003, 5.641695e+004
1.056319e+003, 5.674414e+004
1.056801e+003, 5.712207e+004
1.057283e+003, 5.757214e+004
1.057765e+003, 5.816330e+004
1.058248e+003, 5.866940e+004
1.058730e+003, 5.894703e+004
1.059212e+003, 5.921367e+004
1.059694e+003, 5.958967e+004
1.060176e+003, 6.002177e+004
1.060658e+003, 6.045941e+004
1.061140e+003, 6.089090e+004
1.061622e+003, 6.130336e+004
1.062104e+003, 6.168739e+004
1.062587e+003, 6.206502e+004
1.063069e+003, 6.242063e+004
1.063551e+003, 6.279586e+004
1.064033e+003, 6.323080e+004
1.064515e+003, 6.368751e+004
1.064997e+003, 6.412725e+004
1.065479e+003, 6.454651e+004
1.065961e+003, 6.495327e+004
1.066443e+003, 6.533843e+004
1.066926e+003, 6.574698e+004
1.067408e+003, 6.622652e+004
1.067890e+003, 6.670005e+004
1.068372e+003, 6.711188e+004
1.068854e+003, 6.750180e+004
1.069336e+003, 6.791504e+004
1.069818e+003, 6.835045e+004
1.070300e+003, 6.878848e+004
1.070782e+003, 6.922459e+004
1.071265e+003, 6.966843e+004
1.071747e+003, 7.013522e+004
1.072229e+003, 7.060222e+004
1.072711e+003, 7.104825e+004
1.073193e+003, 7.149411e+004
1.073675e+003, 7.196368e+004
1.074157e+003, 7.244787e+004
1.074639e+003, 7.291732e+004
1.075122e+003, 7.336242e+004
1.075604e+003, 7.380993e+004
1.076086e+003, 7.429413e+004
1.076568e+003, 7.475906e+004
1.077050e+003, 7.518273e+004
1.077532e+003, 7.556248e+004
1.078014e+003, 7.584453e+004
1.078496e+003, 7.609012e+004
1.078979e+003, 7.645598e+004
1.079461e+003, 7.698944e+004
1.079943e+003, 7.750279e+004
1.080425e+003, 7.785962e+004
1.080907e+003, 7.823082e+004
1.081389e+003, 7.874215e+004
1.081871e+003, 7.928202e+004
1.082353e+003, 7.972711e+004
1.082835e+003, 8.011871e+004
1.083318e+003, 8.055887e+004
1.083800e+003, 8.107002e+004
1.084282e+003, 8.160921e+004
1.084764e+003, 8.220248e+004
1.085246e+003, 8.276336e+004
1.085728e+003, 8.322917e+004
1.086210e+003, 8.366299e+004
1.086692e+003, 8.408923e+004
1.087175e+003, 8.453763e+004
1.087657e+003, 8.506622e+004
1.088139e+003, 8.567682e+004
1.088621e+003, 8.625010e+004
1.089103e+003, 8.669120e+004
1.089585e+003, 8.715165e+004
1.090067e+003, 8.771312e+004
1.090549e+003, 8.830256e+004
1.091031e+003, 8.886658e+004
1.091514e+003, 8.941598e+004
1.091996e+003, 8.995890e+004
1.092478e+003, 9.050478e+004
1.092960e+003, 9.109997e+004
1.093442e+003, 9.181966e+004
1.093924e+003, 9.247699e+004
1.094406e+003, 9.297398e+004
1.094888e+003, 9.342470e+004
1.095370e+003, 9.387170e+004
1.095853e+003, 9.433973e+004
1.096335e+003, 9.486838e+004
1.096817e+003, 9.544714e+004
1.097299e+003, 9.599823e+004
1.097781e+003, 9.648488e+004
1.098263e+003, 9.698868e+004
1.098745e+003, 9.750617e+004
1.099227e+003, 9.808389e+004
1.099709e+003, 9.883380e+004
1.100192e+003, 9.959169e+004
1.100674e+003, 1.001413e+005
1.101156e+003, 1.005424e+005
1.101638e+003, 1.010315e+005
1.102120e+003, 1.016642e+005
1.102602e+003, 1.023433e+005
1.103084e+003, 1.031064e+005
1.103566e+003, 1.038338e+005
1.104049e+003, 1.044618e+005
1.104531e+003, 1.050504e+005
1.105013e+003, 1.056206e+005
1.105495e+003, 1.062023e+005
1.105977e+003, 1.068649e+005
1.106459e+003, 1.076305e+005
1.106941e+003, 1.083907e+005
1.107423e+003, 1.091271e+005
1.107906e+003, 1.098579e+005
1.108388e+003, 1.106160e+005
1.108870e+003, 1.113386e+005
1.109352e+003, 1.119584e+005
1.109834e+003, 1.125241e+005
1.110316e+003, 1.131175e+005
1.110798e+003, 1.137505e+005
1.111280e+003, 1.143649e+005
1.111762e+003, 1.149304e+005
1.112245e+003, 1.155227e+005
1.112727e+003, 1.161533e+005
1.113209e+003, 1.168152e+005
1.113691e+003, 1.175260e+005
1.114173e+003, 1.182500e+005
1.114655e+003, 1.189366e+005
1.115137e+003, 1.195881e+005
1.115619e+003, 1.202802e+005
1.116102e+003, 1.210433e+005
1.116584e+003, 1.217860e+005
1.117066e+003, 1.224491e+005
1.117548e+003, 1.231777e+005
1.118030e+003, 1.241049e+005
1.118512e+003, 1.250301e+005
1.118994e+003, 1.257348e+005
1.119476e+003, 1.262872e+005
1.119958e+003, 1.269711e+005
1.120441e+003, 1.278564e+005
1.120923e+003, 1.286434e+005
1.121405e+003, 1.292536e+005
1.121887e+003, 1.299387e+005
1.122369e+003, 1.307959e+005
1.122851e+003, 1.316783e+005
1.123333e+003, 1.324844e+005
1.123815e+003, 1.332341e+005
1.124297e+003, 1.339672e+005
1.124780e+003, 1.346777e+005
1.125262e+003, 1.354269e+005
1.125744e+003, 1.362196e+005
1.126226e+003, 1.370251e+005
1.126708e+003, 1.378414e+005
1.127190e+003, 1.386570e+005
1.127672e+003, 1.394589e+005
1.128154e+003, 1.402730e+005
1.128636e+003, 1.411434e+005
1.129119e+003, 1.420613e+005
1.129601e+003, 1.429412e+005
1.130083e+003, 1.437866e+005
1.130565e+003, 1.445969e+005
1.131047e+003, 1.453637e+005
1.131529e+003, 1.461325e+005
1.132011e+003, 1.469114e+005
1.132493e+003, 1.477445e+005
1.132976e+003, 1.486871e+005
1.133458e+003, 1.496953e+005
1.133940e+003, 1.506534e+005
1.134422e+003, 1.515637e+005
1.134904e+003, 1.524212e+005
1.135386e+003, 1.532285e+005
1.135868e+003, 1.540580e+005
1.136350e+003, 1.549303e+005
1.136833e+003, 1.558698e+005
1.137315e+003, 1.569099e+005
1.137797e+003, 1.579518e+005
1.138279e+003, 1.587961e+005
1.138761e+003, 1.595090e+005
1.139243e+003, 1.603016e+005
1.139725e+003, 1.611673e+005
1.140207e+003, 1.620795e+005
1.140689e+003, 1.630286e+005
1.141172e+003, 1.639909e+005
1.141654e+003, 1.649576e+005
1.142136e+003, 1.658828e+005
1.142618e+003, 1.666640e+005
1.143100e+003, 1.674245e+005
1.143582e+003, 1.684030e+005
1.144064e+003, 1.695042e+005
1.144546e+003, 1.705181e+005
1.145029e+003, 1.714688e+005
1.145511e+003, 1.725189e+005
1.145993e+003, 1.737043e+005
1.146475e+003, 1.748705e+005
1.146957e+003, 1.759182e+005
1.147439e+003, 1.768932e+005
1.147921e+003, 1.778006e+005
1.148403e+003, 1.786954e+005
1.148885e+003, 1.795943e+005
1.149368e+003, 1.805427e+005
1.149850e+003, 1.816628e+005
1.150332e+003, 1.829067e+005
1.150814e+003, 1.840440e+005
1.151296e+003, 1.849478e+005
1.151778e+003, 1.858882e+005
1.152260e+003, 1.871257e+005
1.152742e+003, 1.883323e+005
1.153224e+003, 1.891770e+005
1.153707e+003, 1.899773e+005
1.154189e+003, 1.911478e+005
1.154671e+003, 1.925430e+005
1.155153e+003, 1.937326e+005
1.155635e+003, 1.946321e+005
1.156117e+003, 1.956468e+005
1.156599e+003, 1.970803e+005
1.157081e+003, 1.983986e+005
1.157563e+003, 1.992648e+005
1.158046e+003, 2.001527e+005
1.158528e+003, 2.014169e+005
1.159010e+003, 2.028335e+005
1.159492e+003, 2.040937e+005
1.159974e+003, 2.051986e+005
1.160456e+003, 2.063734e+005
1.160938e+003, 2.076762e+005
1.161420e+003, 2.089661e+005
1.161903e+003, 2.101553e+005
1.162385e+003, 2.114465e+005
1.162867e+003, 2.130369e+005
1.163349e+003, 2.145786e+005
1.163831e+003, 2.157331e+005
1.164313e+003, 2.166832e+005
1.164795e+003, 2.178759e+005
1.165277e+003, 2.193566e+005
1.165760e+003, 2.207182e+005
1.166242e+003, 2.218927e+005
1.166724e+003, 2.231798e+005
1.167206e+003, 2.246564e+005
1.167688e+003, 2.261264e+005
1.168170e+003, 2.274767e+005
1.168652e+003, 2.287910e+005
1.169134e+003, 2.301645e+005
1.169616e+003, 2.315944e+005
1.170099e+003, 2.330771e+005
1.170581e+003, 2.346172e+005
1.171063e+003, 2.360173e+005
1.171545e+003, 2.372687e+005
1.172027e+003, 2.386251e+005
1.172509e+003, 2.401756e+005
1.172991e+003, 2.418150e+005
1.173473e+003, 2.434758e+005
1.173956e+003, 2.451280e+005
1.174438e+003, 2.467334e+005
1.174920e+003, 2.482866e+005
1.175402e+003, 2.497195e+005
1.175884e+003, 2.510694e+005
1.176366e+003, 2.524505e+005
1.176848e+003, 2.538938e+005
1.177330e+003, 2.554062e+005
1.177813e+003, 2.569955e+005
1.178295e+003, 2.586703e+005
1.178777e+003, 2.604958e+005
1.179259e+003, 2.623627e+005
1.179741e+003, 2.641296e+005
1.180223e+003, 2.658513e+005
1.180705e+003, 2.676180e+005
1.181187e+003, 2.693887e+005
1.181669e+003, 2.709902e+005
1.182151e+003, 2.724368e+005
1.182634e+003, 2.739690e+005
1.183116e+003, 2.756698e+005
1.183598e+003, 2.775393e+005
1.184080e+003, 2.797680e+005
1.184562e+003, 2.819331e+005
1.185044e+003, 2.836625e+005
1.185526e+003, 2.852533e+005
1.186008e+003, 2.869862e+005
1.186490e+003, 2.888606e+005
1.186973e+003, 2.908256e+005
1.187455e+003, 2.928706e+005
1.187937e+003, 2.949008e+005
1.188419e+003, 2.967927e+005
1.188901e+003, 2.988389e+005
1.189383e+003, 3.012587e+005
1.189865e+003, 3.036684e+005
1.190347e+003, 3.058386e+005
1.190830e+003, 3.079160e+005
1.191312e+003, 3.100376e+005
1.191794e+003, 3.122021e+005
1.192276e+003, 3.144205e+005
1.192758e+003, 3.167143e+005
1.193240e+003, 3.189997e+005
1.193722e+003, 3.212300e+005
1.194204e+003, 3.235922e+005
1.194687e+003, 3.261689e+005
1.195169e+003, 3.287525e+005
1.195651e+003, 3.312125e+005
1.196133e+003, 3.336450e+005
1.196615e+003, 3.362339e+005
1.197097e+003, 3.389282e+005
1.197579e+003, 3.414367e+005
1.198061e+003, 3.437852e+005
1.198543e+003, 3.461988e+005
1.199026e+003, 3.487069e+005
1.199508e+003, 3.513258e+005
1.199990e+003, 3.540448e+005
1.200472e+003, 3.568435e+005
1.200954e+003, 3.596766e+005
1.201436e+003, 3.625885e+005
1.201918e+003, 3.656778e+005
1.202400e+003, 3.688983e+005
1.202883e+003, 3.722124e+005
1.203365e+003, 3.755420e+005
1.203847e+003, 3.786587e+005
1.204329e+003, 3.816125e+005
1.204811e+003, 3.846964e+005
1.205293e+003, 3.880115e+005
1.205775e+003, 3.914716e+005
1.206257e+003, 3.950826e+005
1.206740e+003, 3.987294e+005
1.207222e+003, 4.022723e+005
1.207704e+003, 4.058703e+005
1.208186e+003, 4.096575e+005
1.208668e+003, 4.136034e+005
1.209150e+003, 4.177303e+005
1.209632e+003, 4.219889e+005
1.210114e+003, 4.261763e+005
1.210596e+003, 4.301807e+005
1.211078e+003, 4.342910e+005
1.211561e+003, 4.386184e+005
1.212043e+003, 4.430383e+005
1.212525e+003, 4.475688e+005
1.213007e+003, 4.521215e+005
1.213489e+003, 4.566096e+005
1.213971e+003, 4.611033e+005
1.214453e+003, 4.656235e+005
1.214935e+003, 4.701877e+005
1.215417e+003, 4.752213e+005
1.215900e+003, 4.808861e+005
1.216382e+003, 4.863622e+005
1.216864e+003, 4.915300e+005
1.217346e+003, 4.966761e+005
1.217828e+003, 5.018703e+005
1.218310e+003, 5.071772e+005
1.218792e+003, 5.126958e+005
1.219274e+003, 5.184140e+005
1.219757e+003, 5.244138e+005
1.220239e+003, 5.306334e+005
1.220721e+003, 5.368301e+005
1.221203e+003, 5.430680e+005
1.221685e+003, 5.496164e+005
1.222167e+003, 5.564740e+005
1.222649e+003, 5.634500e+005
1.223131e+003, 5.704860e+005
1.223614e+003, 5.774249e+005
1.224096e+003, 5.840661e+005
1.224578e+003, 5.908410e+005
1.225060e+003, 5.981944e+005
1.225542e+003, 6.059723e+005
1.226024e+003, 6.140249e+005
1.226506e+003, 6.223055e+005
1.226988e+003, 6.307762e+005
1.227470e+003, 6.393699e+005
1.227953e+003, 6.479264e+005
1.228435e+003, 6.563333e+005
1.228917e+003, 6.650539e+005
1.229399e+003, 6.744306e+005
1.229881e+003, 6.838228e+005
1.230363e+003, 6.928448e+005
1.230845e+003, 7.021339e+005
1.231327e+003, 7.120797e+005
1.231810e+003, 7.224905e+005
1.232292e+003, 7.332549e+005
1.232774e+003, 7.443164e+005
1.233256e+003, 7.553788e+005
1.233738e+003, 7.663683e+005
1.234220e+003, 7.776746e+005
1.234702e+003, 7.892355e+005
1.235184e+003, 8.011769e+005
1.235667e+003, 8.136041e+005
1.236149e+003, 8.259314e+005
1.236631e+003, 8.377369e+005
1.237113e+003, 8.495906e+005
1.237595e+003, 8.622538e+005
1.238077e+003, 8.754711e+005
1.238559e+003, 8.887036e+005
1.239041e+003, 9.019824e+005
1.239523e+003, 9.154936e+005
1.240005e+003, 9.293460e+005
1.240488e+003, 9.434113e+005
1.240970e+003, 9.577473e+005
1.241452e+003, 9.727234e+005
1.241934e+003, 9.886494e+005
1.242416e+003, 1.005068e+006
1.242898e+003, 1.021808e+006
1.243380e+003, 1.038596e+006
1.243862e+003, 1.055024e+006
1.244344e+003, 1.071567e+006
1.244827e+003, 1.088772e+006
1.245309e+003, 1.106634e+006
1.245791e+003, 1.125338e+006
1.246273e+003, 1.144640e+006
1.246755e+003, 1.163407e+006
1.247237e+003, 1.181110e+006
1.247719e+003, 1.199179e+006
1.248201e+003, 1.218071e+006
1.248684e+003, 1.237302e+006
1.249166e+003, 1.256886e+006
1.249648e+003, 1.276494e+006
1.250130e+003, 1.295546e+006
1.250612e+003, 1.314818e+006
1.251094e+003, 1.335641e+006
1.251576e+003, 1.357726e+006
1.252058e+003, 1.378877e+006
1.252541e+003, 1.398952e+006
1.253023e+003, 1.418981e+006
1.253505e+003, 1.439024e+006
1.253987e+003, 1.460050e+006
1.254469e+003, 1.482362e+006
1.254951e+003, 1.504654e+006
1.255433e+003, 1.526168e+006
1.255915e+003, 1.547392e+006
1.256397e+003, 1.568974e+006
1.256880e+003, 1.590619e+006
1.257362e+003, 1.611526e+006
1.257844e+003, 1.632028e+006
1.258326e+003, 1.652656e+006
1.258808e+003, 1.673394e+006
1.259290e+003, 1.694554e+006
1.259772e+003, 1.715862e+006
1.260254e+003, 1.736360e+006
1.260737e+003, 1.755500e+006
1.261219e+003, 1.774605e+006
1.261701e+003, 1.795222e+006
1.262183e+003, 1.814811e+006
1.262665e+003, 1.831222e+006
1.263147e+003, 1.847249e+006
1.263629e+003, 1.865436e+006
1.264111e+003, 1.884199e+006
1.264594e+003, 1.901461e+006
1.265076e+003, 1.917145e+006
1.265558e+003, 1.931290e+006
1.266040e+003, 1.943276e+006
1.266522e+003, 1.956109e+006
1.267004e+003, 1.970330e+006
1.267486e+003, 1.983608e+006
1.267968e+003, 1.995568e+006
1.268450e+003, 2.006253e+006
1.268932e+003, 2.015649e+006
1.269415e+003, 2.024076e+006
1.269897e+003, 2.031933e+006
1.270379e+003, 2.039243e+006
1.270861e+003, 2.046161e+006
1.271343e+003, 2.052626e+006
1.271825e+003, 2.058423e+006
1.272307e+003, 2.063607e+006
1.272789e+003, 2.068575e+006
1.273271e+003, 2.073085e+006
1.273754e+003, 2.075818e+006
1.274236e+003, 2.076330e+006
1.274718e+003, 2.076206e+006
1.275200e+003, 2.076131e+006
1.275682e+003, 2.076322e+006
1.276164e+003, 2.077212e+006
1.276646e+003, 2.078057e+006
1.277128e+003, 2.078683e+006
1.277611e+003, 2.078702e+006
1.278093e+003, 2.077654e+006
1.278575e+003, 2.075665e+006
1.279057e+003, 2.073037e+006
1.279539e+003, 2.069747e+006
1.280021e+003, 2.067109e+006
1.280503e+003, 2.064694e+006
1.280985e+003, 2.063075e+006
1.281468e+003, 2.063190e+006
1.281950e+003, 2.063258e+006
1.282432e+003, 2.062593e+006
1.282914e+003, 2.061334e+006
1.283396e+003, 2.059435e+006
1.283878e+003, 2.057903e+006
1.284360e+003, 2.058789e+006
1.284842e+003, 2.060466e+006
1.285324e+003, 2.058699e+006
##END=



