##NAMES=Pezzottaite
##RRUFFID=R060583
##IDEAL CHEMISTRY=CsLiBe_2_Al_2_Si_6_O_18_
##LOCALITY=Ambatovita, Mandrosonoro area, Fianarantsoa Province, Madagascar
##OWNER=RRUFF
##SOURCE=Michael Scott
##DESCRIPTION=Pink thin tabular hexagonal plate
##STATUS=The identification of this mineral has been confirmed by X-ray diffraction.
##URL=rruff.info/R060583
##MEASURED CHEMISTRY=(Cs_0.74_Na_0.10_Rb_0.03_Ca_0.03_K_0.02_)_Î£0.92_Li_1.08_Be_2_Al_2.05_Si_5.96_O_18_.   BeO and Li_2_O were added.
9.059570e+001, 6.982568e+002
9.107782e+001, 6.869342e+002
9.155994e+001, 6.829420e+002
9.204205e+001, 6.921884e+002
9.252417e+001, 7.047314e+002
9.300629e+001, 7.168873e+002
9.348840e+001, 7.238871e+002
9.397052e+001, 7.219171e+002
9.445264e+001, 7.108324e+002
9.493475e+001, 7.011005e+002
9.541687e+001, 6.906793e+002
9.589898e+001, 6.789556e+002
9.638110e+001, 6.676760e+002
9.686321e+001, 6.584424e+002
9.734533e+001, 6.514357e+002
9.782745e+001, 6.448597e+002
9.830956e+001, 6.391152e+002
9.879168e+001, 6.338738e+002
9.927380e+001, 6.297509e+002
9.975591e+001, 6.270830e+002
1.002380e+002, 6.254892e+002
1.007201e+002, 6.241910e+002
1.012023e+002, 6.227599e+002
1.016844e+002, 6.212333e+002
1.021665e+002, 6.197936e+002
1.026486e+002, 6.176582e+002
1.031307e+002, 6.159932e+002
1.036128e+002, 6.156437e+002
1.040950e+002, 6.164645e+002
1.045771e+002, 6.190109e+002
1.050592e+002, 6.234648e+002
1.055413e+002, 6.295898e+002
1.060234e+002, 6.375190e+002
1.065055e+002, 6.471068e+002
1.069877e+002, 6.584796e+002
1.074698e+002, 6.723619e+002
1.079519e+002, 6.894142e+002
1.084340e+002, 7.085244e+002
1.089161e+002, 7.282697e+002
1.093982e+002, 7.493159e+002
1.098804e+002, 7.730694e+002
1.103625e+002, 8.011002e+002
1.108446e+002, 8.338142e+002
1.113267e+002, 8.681949e+002
1.118088e+002, 9.086771e+002
1.122909e+002, 9.472627e+002
1.127731e+002, 9.832723e+002
1.132552e+002, 1.014907e+003
1.137373e+002, 1.038214e+003
1.142194e+002, 1.047310e+003
1.147015e+002, 1.038337e+003
1.151836e+002, 1.018331e+003
1.156658e+002, 9.840938e+002
1.161479e+002, 9.409730e+002
1.166300e+002, 8.922382e+002
1.171121e+002, 8.385573e+002
1.175942e+002, 7.829977e+002
1.180763e+002, 7.333074e+002
1.185584e+002, 6.890839e+002
1.190406e+002, 6.491238e+002
1.195227e+002, 6.131251e+002
1.200048e+002, 5.811920e+002
1.204869e+002, 5.534805e+002
1.209690e+002, 5.306161e+002
1.214511e+002, 5.124622e+002
1.219333e+002, 4.969213e+002
1.224154e+002, 4.843194e+002
1.228975e+002, 4.737289e+002
1.233796e+002, 4.647738e+002
1.238617e+002, 4.575149e+002
1.243438e+002, 4.511450e+002
1.248260e+002, 4.460027e+002
1.253081e+002, 4.413592e+002
1.257902e+002, 4.364825e+002
1.262723e+002, 4.309659e+002
1.267544e+002, 4.253380e+002
1.272365e+002, 4.209114e+002
1.277187e+002, 4.182188e+002
1.282008e+002, 4.159365e+002
1.286829e+002, 4.135555e+002
1.291650e+002, 4.112626e+002
1.296471e+002, 4.093429e+002
1.301292e+002, 4.080070e+002
1.306114e+002, 4.072186e+002
1.310935e+002, 4.064294e+002
1.315756e+002, 4.054122e+002
1.320577e+002, 4.046190e+002
1.325398e+002, 4.043004e+002
1.330219e+002, 4.043296e+002
1.335041e+002, 4.044110e+002
1.339862e+002, 4.042990e+002
1.344683e+002, 4.039803e+002
1.349504e+002, 4.034912e+002
1.354325e+002, 4.030187e+002
1.359146e+002, 4.022758e+002
1.363968e+002, 4.010765e+002
1.368789e+002, 3.994156e+002
1.373610e+002, 3.974192e+002
1.378431e+002, 3.951971e+002
1.383252e+002, 3.926743e+002
1.388073e+002, 3.902278e+002
1.392895e+002, 3.875653e+002
1.397716e+002, 3.851004e+002
1.402537e+002, 3.835006e+002
1.407358e+002, 3.830743e+002
1.412179e+002, 3.829098e+002
1.417000e+002, 3.819081e+002
1.421821e+002, 3.801805e+002
1.426643e+002, 3.779637e+002
1.431464e+002, 3.749939e+002
1.436285e+002, 3.715262e+002
1.441106e+002, 3.684794e+002
1.445927e+002, 3.661919e+002
1.450748e+002, 3.642748e+002
1.455570e+002, 3.624198e+002
1.460391e+002, 3.606196e+002
1.465212e+002, 3.586871e+002
1.470033e+002, 3.563574e+002
1.474854e+002, 3.535648e+002
1.479675e+002, 3.509841e+002
1.484497e+002, 3.488771e+002
1.489318e+002, 3.469215e+002
1.494139e+002, 3.449870e+002
1.498960e+002, 3.430463e+002
1.503781e+002, 3.410720e+002
1.508602e+002, 3.389968e+002
1.513424e+002, 3.366008e+002
1.518245e+002, 3.345769e+002
1.523066e+002, 3.331458e+002
1.527887e+002, 3.319362e+002
1.532708e+002, 3.307233e+002
1.537529e+002, 3.294175e+002
1.542351e+002, 3.279590e+002
1.547172e+002, 3.261881e+002
1.551993e+002, 3.235979e+002
1.556814e+002, 3.213031e+002
1.561635e+002, 3.193635e+002
1.566456e+002, 3.177368e+002
1.571278e+002, 3.164630e+002
1.576099e+002, 3.155833e+002
1.580920e+002, 3.149555e+002
1.585741e+002, 3.139610e+002
1.590562e+002, 3.117578e+002
1.595383e+002, 3.101627e+002
1.600205e+002, 3.099105e+002
1.605026e+002, 3.106256e+002
1.609847e+002, 3.114617e+002
1.614668e+002, 3.119601e+002
1.619489e+002, 3.121895e+002
1.624310e+002, 3.124920e+002
1.629131e+002, 3.125772e+002
1.633953e+002, 3.129835e+002
1.638774e+002, 3.142140e+002
1.643595e+002, 3.161923e+002
1.648416e+002, 3.181246e+002
1.653237e+002, 3.193880e+002
1.658058e+002, 3.203018e+002
1.662880e+002, 3.216045e+002
1.667701e+002, 3.234703e+002
1.672522e+002, 3.256883e+002
1.677343e+002, 3.282202e+002
1.682164e+002, 3.312198e+002
1.686985e+002, 3.337813e+002
1.691807e+002, 3.349511e+002
1.696628e+002, 3.354525e+002
1.701449e+002, 3.361465e+002
1.706270e+002, 3.374633e+002
1.711091e+002, 3.390996e+002
1.715912e+002, 3.403590e+002
1.720734e+002, 3.411415e+002
1.725555e+002, 3.416897e+002
1.730376e+002, 3.423963e+002
1.735197e+002, 3.429406e+002
1.740018e+002, 3.428881e+002
1.744839e+002, 3.420327e+002
1.749661e+002, 3.403712e+002
1.754482e+002, 3.378294e+002
1.759303e+002, 3.336384e+002
1.764124e+002, 3.293404e+002
1.768945e+002, 3.251956e+002
1.773766e+002, 3.212550e+002
1.778588e+002, 3.175451e+002
1.783409e+002, 3.140172e+002
1.788230e+002, 3.106614e+002
1.793051e+002, 3.081307e+002
1.797872e+002, 3.072757e+002
1.802693e+002, 3.063977e+002
1.807515e+002, 3.048619e+002
1.812336e+002, 3.028485e+002
1.817157e+002, 3.009437e+002
1.821978e+002, 2.996547e+002
1.826799e+002, 2.990483e+002
1.831620e+002, 2.984469e+002
1.836441e+002, 2.977007e+002
1.841263e+002, 2.970815e+002
1.846084e+002, 2.968181e+002
1.850905e+002, 2.968589e+002
1.855726e+002, 2.968816e+002
1.860547e+002, 2.965118e+002
1.865368e+002, 2.956559e+002
1.870190e+002, 2.955165e+002
1.875011e+002, 2.966527e+002
1.879832e+002, 2.980766e+002
1.884653e+002, 2.989439e+002
1.889474e+002, 2.991864e+002
1.894296e+002, 2.995271e+002
1.899117e+002, 3.006617e+002
1.903938e+002, 3.026004e+002
1.908759e+002, 3.048819e+002
1.913580e+002, 3.078077e+002
1.918401e+002, 3.108877e+002
1.923223e+002, 3.136393e+002
1.928044e+002, 3.160227e+002
1.932865e+002, 3.180204e+002
1.937686e+002, 3.197381e+002
1.942507e+002, 3.211258e+002
1.947328e+002, 3.216537e+002
1.952150e+002, 3.211599e+002
1.956971e+002, 3.196976e+002
1.961792e+002, 3.171967e+002
1.966613e+002, 3.132856e+002
1.971434e+002, 3.091042e+002
1.976255e+002, 3.053513e+002
1.981077e+002, 3.019599e+002
1.985898e+002, 2.989060e+002
1.990719e+002, 2.959150e+002
1.995540e+002, 2.931668e+002
2.000361e+002, 2.915492e+002
2.005182e+002, 2.916469e+002
2.010004e+002, 2.921711e+002
2.014825e+002, 2.922916e+002
2.019646e+002, 2.922122e+002
2.024467e+002, 2.924659e+002
2.029288e+002, 2.936367e+002
2.034109e+002, 2.956465e+002
2.038930e+002, 2.971007e+002
2.043752e+002, 2.977033e+002
2.048573e+002, 2.979807e+002
2.053394e+002, 2.982314e+002
2.058215e+002, 2.983454e+002
2.063036e+002, 2.980175e+002
2.067857e+002, 2.968910e+002
2.072679e+002, 2.949125e+002
2.077500e+002, 2.931870e+002
2.082321e+002, 2.914288e+002
2.087142e+002, 2.902121e+002
2.091963e+002, 2.897146e+002
2.096784e+002, 2.899384e+002
2.101606e+002, 2.908299e+002
2.106427e+002, 2.923735e+002
2.111248e+002, 2.945897e+002
2.116069e+002, 2.972167e+002
2.120890e+002, 3.003841e+002
2.125711e+002, 3.037827e+002
2.130533e+002, 3.075034e+002
2.135354e+002, 3.113987e+002
2.140175e+002, 3.152025e+002
2.144996e+002, 3.187133e+002
2.149817e+002, 3.219941e+002
2.154638e+002, 3.244150e+002
2.159460e+002, 3.262507e+002
2.164281e+002, 3.272319e+002
2.169102e+002, 3.272156e+002
2.173923e+002, 3.262165e+002
2.178744e+002, 3.243255e+002
2.183565e+002, 3.215848e+002
2.188387e+002, 3.178990e+002
2.193208e+002, 3.137640e+002
2.198029e+002, 3.086906e+002
2.202850e+002, 3.036021e+002
2.207671e+002, 2.987708e+002
2.212492e+002, 2.943238e+002
2.217314e+002, 2.906587e+002
2.222135e+002, 2.881338e+002
2.226956e+002, 2.869003e+002
2.231777e+002, 2.863413e+002
2.236598e+002, 2.865965e+002
2.241419e+002, 2.874026e+002
2.246240e+002, 2.886395e+002
2.251062e+002, 2.902859e+002
2.255883e+002, 2.922052e+002
2.260704e+002, 2.942634e+002
2.265525e+002, 2.965181e+002
2.270346e+002, 2.992151e+002
2.275167e+002, 3.021067e+002
2.279989e+002, 3.056104e+002
2.284810e+002, 3.103338e+002
2.289631e+002, 3.163268e+002
2.294452e+002, 3.225318e+002
2.299273e+002, 3.284167e+002
2.304094e+002, 3.338730e+002
2.308916e+002, 3.386490e+002
2.313737e+002, 3.434666e+002
2.318558e+002, 3.471339e+002
2.323379e+002, 3.484222e+002
2.328200e+002, 3.473175e+002
2.333021e+002, 3.439206e+002
2.337843e+002, 3.366363e+002
2.342664e+002, 3.272943e+002
2.347485e+002, 3.185158e+002
2.352306e+002, 3.107604e+002
2.357127e+002, 3.040147e+002
2.361948e+002, 2.982059e+002
2.366770e+002, 2.932920e+002
2.371591e+002, 2.893865e+002
2.376412e+002, 2.869113e+002
2.381233e+002, 2.853535e+002
2.386054e+002, 2.842581e+002
2.390875e+002, 2.834896e+002
2.395697e+002, 2.831219e+002
2.400518e+002, 2.832344e+002
2.405339e+002, 2.837787e+002
2.410160e+002, 2.849990e+002
2.414981e+002, 2.869183e+002
2.419802e+002, 2.895477e+002
2.424624e+002, 2.930024e+002
2.429445e+002, 2.973344e+002
2.434266e+002, 3.024392e+002
2.439087e+002, 3.081930e+002
2.443908e+002, 3.146784e+002
2.448729e+002, 3.215996e+002
2.453550e+002, 3.299712e+002
2.458372e+002, 3.381417e+002
2.463193e+002, 3.450766e+002
2.468014e+002, 3.505100e+002
2.472835e+002, 3.536801e+002
2.477656e+002, 3.530864e+002
2.482477e+002, 3.477297e+002
2.487299e+002, 3.407133e+002
2.492120e+002, 3.313356e+002
2.496941e+002, 3.215118e+002
2.501762e+002, 3.126508e+002
2.506583e+002, 3.051758e+002
2.511404e+002, 2.986958e+002
2.516226e+002, 2.925603e+002
2.521047e+002, 2.869457e+002
2.525868e+002, 2.813672e+002
2.530689e+002, 2.751640e+002
2.535510e+002, 2.693559e+002
2.540331e+002, 2.646608e+002
2.545153e+002, 2.612630e+002
2.549974e+002, 2.587928e+002
2.554795e+002, 2.567254e+002
2.559616e+002, 2.551830e+002
2.564437e+002, 2.538378e+002
2.569258e+002, 2.523841e+002
2.574080e+002, 2.512828e+002
2.578901e+002, 2.509160e+002
2.583722e+002, 2.513118e+002
2.588543e+002, 2.521301e+002
2.593364e+002, 2.528988e+002
2.598185e+002, 2.534404e+002
2.603007e+002, 2.544222e+002
2.607828e+002, 2.556063e+002
2.612649e+002, 2.573066e+002
2.617470e+002, 2.596981e+002
2.622291e+002, 2.628116e+002
2.627112e+002, 2.665817e+002
2.631934e+002, 2.710412e+002
2.636755e+002, 2.765034e+002
2.641576e+002, 2.815122e+002
2.646397e+002, 2.865968e+002
2.651218e+002, 2.908916e+002
2.656039e+002, 2.942613e+002
2.660861e+002, 2.964782e+002
2.665682e+002, 2.969972e+002
2.670503e+002, 2.951821e+002
2.675324e+002, 2.907586e+002
2.680145e+002, 2.854527e+002
2.684966e+002, 2.784255e+002
2.689788e+002, 2.714673e+002
2.694609e+002, 2.652465e+002
2.699430e+002, 2.598700e+002
2.704251e+002, 2.553172e+002
2.709072e+002, 2.515983e+002
2.713893e+002, 2.487525e+002
2.718715e+002, 2.464233e+002
2.723536e+002, 2.446567e+002
2.728357e+002, 2.432361e+002
2.733178e+002, 2.423451e+002
2.737999e+002, 2.417675e+002
2.742820e+002, 2.409704e+002
2.747642e+002, 2.395639e+002
2.752463e+002, 2.376057e+002
2.757284e+002, 2.358397e+002
2.762105e+002, 2.345267e+002
2.766926e+002, 2.330737e+002
2.771747e+002, 2.309381e+002
2.776568e+002, 2.284940e+002
2.781389e+002, 2.266340e+002
2.786211e+002, 2.259047e+002
2.791032e+002, 2.260319e+002
2.795853e+002, 2.258473e+002
2.800674e+002, 2.249990e+002
2.805495e+002, 2.243156e+002
2.810316e+002, 2.241487e+002
2.815138e+002, 2.242694e+002
2.819959e+002, 2.242566e+002
2.824780e+002, 2.239168e+002
2.829601e+002, 2.233879e+002
2.834422e+002, 2.230306e+002
2.839243e+002, 2.228999e+002
2.844065e+002, 2.228017e+002
2.848886e+002, 2.226960e+002
2.853707e+002, 2.226006e+002
2.858528e+002, 2.225054e+002
2.863349e+002, 2.223930e+002
2.868170e+002, 2.223708e+002
2.872992e+002, 2.226434e+002
2.877813e+002, 2.232431e+002
2.882634e+002, 2.239795e+002
2.887455e+002, 2.248446e+002
2.892276e+002, 2.258220e+002
2.897097e+002, 2.269508e+002
2.901919e+002, 2.282492e+002
2.906740e+002, 2.295084e+002
2.911561e+002, 2.304569e+002
2.916382e+002, 2.310473e+002
2.921203e+002, 2.316519e+002
2.926024e+002, 2.324090e+002
2.930846e+002, 2.331378e+002
2.935667e+002, 2.337804e+002
2.940488e+002, 2.343205e+002
2.945309e+002, 2.344481e+002
2.950130e+002, 2.338200e+002
2.954951e+002, 2.323881e+002
2.959773e+002, 2.307879e+002
2.964594e+002, 2.287936e+002
2.969415e+002, 2.268143e+002
2.974236e+002, 2.250695e+002
2.979057e+002, 2.235974e+002
2.983878e+002, 2.225164e+002
2.988700e+002, 2.219557e+002
2.993521e+002, 2.219078e+002
2.998342e+002, 2.220137e+002
3.003163e+002, 2.222703e+002
3.007984e+002, 2.226749e+002
3.012805e+002, 2.232244e+002
3.017627e+002, 2.239209e+002
3.022448e+002, 2.247691e+002
3.027269e+002, 2.257580e+002
3.032090e+002, 2.269321e+002
3.036911e+002, 2.284030e+002
3.041732e+002, 2.303776e+002
3.046554e+002, 2.322953e+002
3.051375e+002, 2.338338e+002
3.056196e+002, 2.351224e+002
3.061017e+002, 2.365678e+002
3.065838e+002, 2.384298e+002
3.070659e+002, 2.403165e+002
3.075481e+002, 2.414420e+002
3.080302e+002, 2.418151e+002
3.085123e+002, 2.417595e+002
3.089944e+002, 2.410681e+002
3.094765e+002, 2.400770e+002
3.099586e+002, 2.394208e+002
3.104408e+002, 2.393106e+002
3.109229e+002, 2.393479e+002
3.114050e+002, 2.390120e+002
3.118871e+002, 2.383092e+002
3.123692e+002, 2.374901e+002
3.128513e+002, 2.363506e+002
3.133335e+002, 2.352347e+002
3.138156e+002, 2.345116e+002
3.142977e+002, 2.342351e+002
3.147798e+002, 2.343582e+002
3.152619e+002, 2.349568e+002
3.157440e+002, 2.360088e+002
3.162262e+002, 2.370005e+002
3.167083e+002, 2.374382e+002
3.171904e+002, 2.381215e+002
3.176725e+002, 2.398690e+002
3.181546e+002, 2.426466e+002
3.186367e+002, 2.455751e+002
3.191188e+002, 2.480133e+002
3.196010e+002, 2.501463e+002
3.200831e+002, 2.528510e+002
3.205652e+002, 2.560977e+002
3.210473e+002, 2.599277e+002
3.215294e+002, 2.644379e+002
3.220115e+002, 2.695600e+002
3.224937e+002, 2.751458e+002
3.229758e+002, 2.811035e+002
3.234579e+002, 2.874834e+002
3.239400e+002, 2.942212e+002
3.244221e+002, 3.011916e+002
3.249042e+002, 3.087045e+002
3.253864e+002, 3.177457e+002
3.258685e+002, 3.272984e+002
3.263506e+002, 3.359261e+002
3.268327e+002, 3.434650e+002
3.273148e+002, 3.489178e+002
3.277969e+002, 3.504816e+002
3.282791e+002, 3.482919e+002
3.287612e+002, 3.431930e+002
3.292433e+002, 3.343847e+002
3.297254e+002, 3.231697e+002
3.302075e+002, 3.103222e+002
3.306896e+002, 2.959738e+002
3.311718e+002, 2.819770e+002
3.316539e+002, 2.701366e+002
3.321360e+002, 2.606927e+002
3.326181e+002, 2.517603e+002
3.331002e+002, 2.428853e+002
3.335823e+002, 2.348643e+002
3.340645e+002, 2.282829e+002
3.345466e+002, 2.231573e+002
3.350287e+002, 2.190918e+002
3.355108e+002, 2.160004e+002
3.359929e+002, 2.137899e+002
3.364750e+002, 2.116444e+002
3.369572e+002, 2.093886e+002
3.374393e+002, 2.073421e+002
3.379214e+002, 2.056381e+002
3.384035e+002, 2.042384e+002
3.388856e+002, 2.031127e+002
3.393677e+002, 2.022855e+002
3.398499e+002, 2.016316e+002
3.403320e+002, 2.007888e+002
3.408141e+002, 1.994612e+002
3.412962e+002, 1.984967e+002
3.417783e+002, 1.982896e+002
3.422604e+002, 1.984496e+002
3.427426e+002, 1.984792e+002
3.432247e+002, 1.982367e+002
3.437068e+002, 1.978953e+002
3.441889e+002, 1.977072e+002
3.446710e+002, 1.977807e+002
3.451531e+002, 1.976800e+002
3.456353e+002, 1.972042e+002
3.461174e+002, 1.966934e+002
3.465995e+002, 1.964770e+002
3.470816e+002, 1.965435e+002
3.475637e+002, 1.965882e+002
3.480458e+002, 1.963583e+002
3.485280e+002, 1.958426e+002
3.490101e+002, 1.951012e+002
3.494922e+002, 1.937492e+002
3.499743e+002, 1.925959e+002
3.504564e+002, 1.920813e+002
3.509385e+002, 1.920493e+002
3.514207e+002, 1.920887e+002
3.519028e+002, 1.919523e+002
3.523849e+002, 1.917270e+002
3.528670e+002, 1.917951e+002
3.533491e+002, 1.924807e+002
3.538312e+002, 1.930563e+002
3.543134e+002, 1.933647e+002
3.547955e+002, 1.935455e+002
3.552776e+002, 1.937350e+002
3.557597e+002, 1.939848e+002
3.562418e+002, 1.943180e+002
3.567239e+002, 1.947779e+002
3.572061e+002, 1.953996e+002
3.576882e+002, 1.960957e+002
3.581703e+002, 1.969610e+002
3.586524e+002, 1.978226e+002
3.591345e+002, 1.986385e+002
3.596166e+002, 1.993591e+002
3.600987e+002, 1.998416e+002
3.605808e+002, 1.999162e+002
3.610630e+002, 1.995273e+002
3.615451e+002, 1.992561e+002
3.620272e+002, 1.993795e+002
3.625093e+002, 1.993273e+002
3.629914e+002, 1.988144e+002
3.634735e+002, 1.979898e+002
3.639557e+002, 1.971325e+002
3.644378e+002, 1.963981e+002
3.649199e+002, 1.957964e+002
3.654020e+002, 1.953661e+002
3.658841e+002, 1.951046e+002
3.663662e+002, 1.950514e+002
3.668484e+002, 1.953150e+002
3.673305e+002, 1.957234e+002
3.678126e+002, 1.961172e+002
3.682947e+002, 1.964429e+002
3.687768e+002, 1.967489e+002
3.692589e+002, 1.971378e+002
3.697411e+002, 1.977042e+002
3.702232e+002, 1.980858e+002
3.707053e+002, 1.981623e+002
3.711874e+002, 1.981558e+002
3.716695e+002, 1.983453e+002
3.721516e+002, 1.986171e+002
3.726338e+002, 1.985048e+002
3.731159e+002, 1.974686e+002
3.735980e+002, 1.955470e+002
3.740801e+002, 1.939747e+002
3.745622e+002, 1.928888e+002
3.750443e+002, 1.920204e+002
3.755265e+002, 1.913102e+002
3.760086e+002, 1.907321e+002
3.764907e+002, 1.903248e+002
3.769728e+002, 1.901783e+002
3.774549e+002, 1.900347e+002
3.779370e+002, 1.891641e+002
3.784192e+002, 1.871305e+002
3.789013e+002, 1.856168e+002
3.793834e+002, 1.854918e+002
3.798655e+002, 1.858115e+002
3.803476e+002, 1.858982e+002
3.808297e+002, 1.856160e+002
3.813119e+002, 1.852054e+002
3.817940e+002, 1.848709e+002
3.822761e+002, 1.846120e+002
3.827582e+002, 1.844185e+002
3.832403e+002, 1.841766e+002
3.837224e+002, 1.841607e+002
3.842046e+002, 1.845254e+002
3.846867e+002, 1.852346e+002
3.851688e+002, 1.861647e+002
3.856509e+002, 1.874220e+002
3.861330e+002, 1.888177e+002
3.866151e+002, 1.898963e+002
3.870973e+002, 1.905801e+002
3.875794e+002, 1.912118e+002
3.880615e+002, 1.919929e+002
3.885436e+002, 1.928428e+002
3.890257e+002, 1.936745e+002
3.895078e+002, 1.945403e+002
3.899900e+002, 1.952561e+002
3.904721e+002, 1.955837e+002
3.909542e+002, 1.955695e+002
3.914363e+002, 1.955563e+002
3.919184e+002, 1.956067e+002
3.924005e+002, 1.957716e+002
3.928827e+002, 1.961204e+002
3.933648e+002, 1.966539e+002
3.938469e+002, 1.972704e+002
3.943290e+002, 1.980971e+002
3.948111e+002, 1.989296e+002
3.952932e+002, 1.993687e+002
3.957754e+002, 1.993332e+002
3.962575e+002, 1.992286e+002
3.967396e+002, 1.994864e+002
3.972217e+002, 2.000453e+002
3.977038e+002, 2.002318e+002
3.981859e+002, 1.995372e+002
3.986681e+002, 1.988853e+002
3.991501e+002, 1.988098e+002
3.996323e+002, 1.992794e+002
4.001144e+002, 2.001295e+002
4.005965e+002, 2.012900e+002
4.010786e+002, 2.027568e+002
4.015607e+002, 2.045754e+002
4.020428e+002, 2.071782e+002
4.025250e+002, 2.093283e+002
4.030071e+002, 2.109136e+002
4.034892e+002, 2.118894e+002
4.039713e+002, 2.120318e+002
4.044534e+002, 2.113340e+002
4.049355e+002, 2.102875e+002
4.054177e+002, 2.094697e+002
4.058998e+002, 2.089793e+002
4.063819e+002, 2.082275e+002
4.068640e+002, 2.074963e+002
4.073461e+002, 2.062858e+002
4.078282e+002, 2.040626e+002
4.083104e+002, 2.011393e+002
4.087925e+002, 1.982674e+002
4.092746e+002, 1.958864e+002
4.097567e+002, 1.939203e+002
4.102388e+002, 1.919717e+002
4.107209e+002, 1.899679e+002
4.112031e+002, 1.880922e+002
4.116852e+002, 1.862504e+002
4.121673e+002, 1.845974e+002
4.126494e+002, 1.832265e+002
4.131315e+002, 1.821810e+002
4.136136e+002, 1.815297e+002
4.140958e+002, 1.814559e+002
4.145779e+002, 1.821568e+002
4.150600e+002, 1.826440e+002
4.155421e+002, 1.827092e+002
4.160242e+002, 1.827469e+002
4.165063e+002, 1.828648e+002
4.169885e+002, 1.830789e+002
4.174706e+002, 1.834232e+002
4.179527e+002, 1.840085e+002
4.184348e+002, 1.846613e+002
4.189169e+002, 1.847722e+002
4.193990e+002, 1.842067e+002
4.198812e+002, 1.833792e+002
4.203633e+002, 1.823178e+002
4.208454e+002, 1.811292e+002
4.213275e+002, 1.798467e+002
4.218096e+002, 1.784717e+002
4.222917e+002, 1.772089e+002
4.227739e+002, 1.762785e+002
4.232560e+002, 1.756730e+002
4.237381e+002, 1.752024e+002
4.242202e+002, 1.748323e+002
4.247023e+002, 1.746134e+002
4.251844e+002, 1.746069e+002
4.256666e+002, 1.747717e+002
4.261487e+002, 1.749652e+002
4.266308e+002, 1.751677e+002
4.271129e+002, 1.753464e+002
4.275950e+002, 1.753903e+002
4.280771e+002, 1.752839e+002
4.285593e+002, 1.753275e+002
4.290414e+002, 1.757401e+002
4.295235e+002, 1.763857e+002
4.300056e+002, 1.769326e+002
4.304877e+002, 1.773525e+002
4.309698e+002, 1.777398e+002
4.314520e+002, 1.780098e+002
4.319341e+002, 1.782983e+002
4.324162e+002, 1.789385e+002
4.328983e+002, 1.800401e+002
4.333804e+002, 1.812890e+002
4.338625e+002, 1.823487e+002
4.343447e+002, 1.831967e+002
4.348268e+002, 1.839362e+002
4.353089e+002, 1.845768e+002
4.357910e+002, 1.851038e+002
4.362731e+002, 1.854338e+002
4.367552e+002, 1.856249e+002
4.372374e+002, 1.858791e+002
4.377195e+002, 1.863327e+002
4.382016e+002, 1.868983e+002
4.386837e+002, 1.872338e+002
4.391658e+002, 1.872693e+002
4.396479e+002, 1.871565e+002
4.401301e+002, 1.866740e+002
4.406122e+002, 1.861789e+002
4.410943e+002, 1.860569e+002
4.415764e+002, 1.863588e+002
4.420585e+002, 1.867943e+002
4.425406e+002, 1.869879e+002
4.430227e+002, 1.868460e+002
4.435049e+002, 1.871612e+002
4.439870e+002, 1.882775e+002
4.444691e+002, 1.895036e+002
4.449512e+002, 1.905867e+002
4.454333e+002, 1.916411e+002
4.459154e+002, 1.929070e+002
4.463976e+002, 1.945082e+002
4.468797e+002, 1.963289e+002
4.473618e+002, 1.980943e+002
4.478439e+002, 1.997239e+002
4.483260e+002, 2.015344e+002
4.488081e+002, 2.033925e+002
4.492903e+002, 2.056082e+002
4.497724e+002, 2.086037e+002
4.502545e+002, 2.123001e+002
4.507366e+002, 2.159857e+002
4.512187e+002, 2.189102e+002
4.517008e+002, 2.213318e+002
4.521830e+002, 2.243134e+002
4.526651e+002, 2.279870e+002
4.531472e+002, 2.319013e+002
4.536293e+002, 2.359001e+002
4.541114e+002, 2.399458e+002
4.545935e+002, 2.440468e+002
4.550757e+002, 2.483485e+002
4.555578e+002, 2.523886e+002
4.560399e+002, 2.558884e+002
4.565220e+002, 2.588279e+002
4.570041e+002, 2.612342e+002
4.574862e+002, 2.632004e+002
4.579684e+002, 2.644528e+002
4.584505e+002, 2.647235e+002
4.589326e+002, 2.641305e+002
4.594147e+002, 2.619774e+002
4.598968e+002, 2.575699e+002
4.603789e+002, 2.519617e+002
4.608611e+002, 2.457618e+002
4.613432e+002, 2.391264e+002
4.618253e+002, 2.323737e+002
4.623074e+002, 2.255564e+002
4.627895e+002, 2.188645e+002
4.632716e+002, 2.129506e+002
4.637538e+002, 2.077592e+002
4.642359e+002, 2.033485e+002
4.647180e+002, 1.999051e+002
4.652001e+002, 1.971081e+002
4.656822e+002, 1.947024e+002
4.661643e+002, 1.925962e+002
4.666465e+002, 1.907782e+002
4.671286e+002, 1.892562e+002
4.676107e+002, 1.880416e+002
4.680928e+002, 1.868955e+002
4.685749e+002, 1.857314e+002
4.690570e+002, 1.847301e+002
4.695392e+002, 1.839068e+002
4.700213e+002, 1.832913e+002
4.705034e+002, 1.829444e+002
4.709855e+002, 1.828962e+002
4.714676e+002, 1.830660e+002
4.719497e+002, 1.833089e+002
4.724319e+002, 1.836043e+002
4.729140e+002, 1.840667e+002
4.733961e+002, 1.849282e+002
4.738782e+002, 1.857804e+002
4.743603e+002, 1.864351e+002
4.748424e+002, 1.868794e+002
4.753246e+002, 1.871451e+002
4.758067e+002, 1.871919e+002
4.762888e+002, 1.870907e+002
4.767709e+002, 1.869004e+002
4.772530e+002, 1.865576e+002
4.777351e+002, 1.865517e+002
4.782173e+002, 1.873492e+002
4.786994e+002, 1.885035e+002
4.791815e+002, 1.892261e+002
4.796636e+002, 1.893083e+002
4.801457e+002, 1.896082e+002
4.806278e+002, 1.906780e+002
4.811100e+002, 1.922247e+002
4.815920e+002, 1.937627e+002
4.820742e+002, 1.952105e+002
4.825563e+002, 1.965766e+002
4.830384e+002, 1.978569e+002
4.835205e+002, 1.990489e+002
4.840026e+002, 2.002741e+002
4.844847e+002, 2.018660e+002
4.849669e+002, 2.031270e+002
4.854490e+002, 2.037346e+002
4.859311e+002, 2.038294e+002
4.864132e+002, 2.035712e+002
4.868953e+002, 2.030253e+002
4.873774e+002, 2.024241e+002
4.878596e+002, 2.022065e+002
4.883417e+002, 2.027407e+002
4.888238e+002, 2.026185e+002
4.893059e+002, 2.012709e+002
4.897880e+002, 1.999263e+002
4.902701e+002, 1.991673e+002
4.907523e+002, 1.989000e+002
4.912344e+002, 1.987579e+002
4.917165e+002, 1.984964e+002
4.921986e+002, 1.982909e+002
4.926807e+002, 1.986935e+002
4.931628e+002, 1.999515e+002
4.936450e+002, 2.011315e+002
4.941271e+002, 2.020836e+002
4.946092e+002, 2.028524e+002
4.950913e+002, 2.033980e+002
4.955734e+002, 2.037456e+002
4.960555e+002, 2.040681e+002
4.965377e+002, 2.047182e+002
4.970198e+002, 2.054123e+002
4.975019e+002, 2.053571e+002
4.979840e+002, 2.044866e+002
4.984661e+002, 2.030882e+002
4.989482e+002, 2.011597e+002
4.994304e+002, 1.988150e+002
4.999125e+002, 1.962582e+002
5.003946e+002, 1.933104e+002
5.008767e+002, 1.905954e+002
5.013588e+002, 1.884971e+002
5.018409e+002, 1.868033e+002
5.023231e+002, 1.851349e+002
5.028052e+002, 1.834209e+002
5.032873e+002, 1.816826e+002
5.037694e+002, 1.798877e+002
5.042515e+002, 1.780199e+002
5.047336e+002, 1.766018e+002
5.052158e+002, 1.757417e+002
5.056979e+002, 1.751523e+002
5.061800e+002, 1.749008e+002
5.066621e+002, 1.748029e+002
5.071442e+002, 1.745373e+002
5.076263e+002, 1.740015e+002
5.081085e+002, 1.734769e+002
5.085906e+002, 1.734496e+002
5.090727e+002, 1.741365e+002
5.095548e+002, 1.745334e+002
5.100369e+002, 1.744444e+002
5.105190e+002, 1.742571e+002
5.110012e+002, 1.740388e+002
5.114833e+002, 1.738393e+002
5.119654e+002, 1.737267e+002
5.124475e+002, 1.737415e+002
5.129296e+002, 1.738372e+002
5.134117e+002, 1.739372e+002
5.138939e+002, 1.740424e+002
5.143760e+002, 1.741399e+002
5.148581e+002, 1.741398e+002
5.153402e+002, 1.742285e+002
5.158223e+002, 1.746289e+002
5.163044e+002, 1.752863e+002
5.167866e+002, 1.758339e+002
5.172687e+002, 1.758989e+002
5.177508e+002, 1.758988e+002
5.182329e+002, 1.763836e+002
5.187150e+002, 1.773398e+002
5.191971e+002, 1.785017e+002
5.196793e+002, 1.798233e+002
5.201614e+002, 1.811839e+002
5.206435e+002, 1.822547e+002
5.211256e+002, 1.829522e+002
5.216077e+002, 1.836858e+002
5.220898e+002, 1.845048e+002
5.225720e+002, 1.853962e+002
5.230541e+002, 1.864331e+002
5.235362e+002, 1.875538e+002
5.240183e+002, 1.885656e+002
5.245004e+002, 1.893508e+002
5.249825e+002, 1.898736e+002
5.254647e+002, 1.899383e+002
5.259468e+002, 1.892047e+002
5.264289e+002, 1.884722e+002
5.269110e+002, 1.878948e+002
5.273931e+002, 1.872882e+002
5.278752e+002, 1.865643e+002
5.283574e+002, 1.856767e+002
5.288395e+002, 1.845294e+002
5.293216e+002, 1.829298e+002
5.298037e+002, 1.809827e+002
5.302858e+002, 1.793157e+002
5.307679e+002, 1.780092e+002
5.312501e+002, 1.768096e+002
5.317322e+002, 1.755958e+002
5.322143e+002, 1.744438e+002
5.326964e+002, 1.733716e+002
5.331785e+002, 1.723507e+002
5.336606e+002, 1.716475e+002
5.341428e+002, 1.716923e+002
5.346249e+002, 1.721265e+002
5.351070e+002, 1.721077e+002
5.355891e+002, 1.714970e+002
5.360712e+002, 1.708603e+002
5.365533e+002, 1.705945e+002
5.370355e+002, 1.706742e+002
5.375176e+002, 1.708705e+002
5.379997e+002, 1.713806e+002
5.384818e+002, 1.717571e+002
5.389639e+002, 1.716960e+002
5.394460e+002, 1.715146e+002
5.399282e+002, 1.717389e+002
5.404103e+002, 1.724140e+002
5.408924e+002, 1.729604e+002
5.413745e+002, 1.727041e+002
5.418566e+002, 1.716102e+002
5.423387e+002, 1.709220e+002
5.428209e+002, 1.707635e+002
5.433029e+002, 1.709058e+002
5.437850e+002, 1.714816e+002
5.442672e+002, 1.722485e+002
5.447493e+002, 1.729895e+002
5.452314e+002, 1.736362e+002
5.457135e+002, 1.741389e+002
5.461956e+002, 1.743936e+002
5.466777e+002, 1.744210e+002
5.471599e+002, 1.744904e+002
5.476420e+002, 1.747303e+002
5.481241e+002, 1.747712e+002
5.486062e+002, 1.741261e+002
5.490883e+002, 1.731826e+002
5.495704e+002, 1.725958e+002
5.500526e+002, 1.726504e+002
5.505347e+002, 1.726991e+002
5.510168e+002, 1.722687e+002
5.514989e+002, 1.715511e+002
5.519810e+002, 1.709053e+002
5.524631e+002, 1.704034e+002
5.529453e+002, 1.700671e+002
5.534274e+002, 1.699223e+002
5.539095e+002, 1.699706e+002
5.543916e+002, 1.701549e+002
5.548737e+002, 1.705450e+002
5.553558e+002, 1.709642e+002
5.558380e+002, 1.712556e+002
5.563201e+002, 1.716001e+002
5.568022e+002, 1.723010e+002
5.572843e+002, 1.733980e+002
5.577664e+002, 1.745331e+002
5.582485e+002, 1.752749e+002
5.587307e+002, 1.756019e+002
5.592128e+002, 1.760445e+002
5.596949e+002, 1.767618e+002
5.601770e+002, 1.773565e+002
5.606591e+002, 1.776545e+002
5.611412e+002, 1.777921e+002
5.616234e+002, 1.779379e+002
5.621055e+002, 1.781368e+002
5.625876e+002, 1.783084e+002
5.630697e+002, 1.784120e+002
5.635518e+002, 1.784340e+002
5.640339e+002, 1.783440e+002
5.645161e+002, 1.781499e+002
5.649982e+002, 1.777747e+002
5.654803e+002, 1.771055e+002
5.659624e+002, 1.762001e+002
5.664445e+002, 1.753637e+002
5.669266e+002, 1.747933e+002
5.674088e+002, 1.740137e+002
5.678909e+002, 1.726387e+002
5.683730e+002, 1.710722e+002
5.688551e+002, 1.698239e+002
5.693372e+002, 1.689786e+002
5.698193e+002, 1.682549e+002
5.703015e+002, 1.673740e+002
5.707836e+002, 1.663604e+002
5.712657e+002, 1.657754e+002
5.717478e+002, 1.662589e+002
5.722299e+002, 1.663018e+002
5.727120e+002, 1.653440e+002
5.731942e+002, 1.640671e+002
5.736763e+002, 1.630416e+002
5.741584e+002, 1.623797e+002
5.746405e+002, 1.619513e+002
5.751226e+002, 1.616990e+002
5.756047e+002, 1.615917e+002
5.760869e+002, 1.615517e+002
5.765690e+002, 1.616396e+002
5.770511e+002, 1.615376e+002
5.775332e+002, 1.610505e+002
5.780153e+002, 1.602991e+002
5.784974e+002, 1.594134e+002
5.789796e+002, 1.582854e+002
5.794617e+002, 1.575245e+002
5.799438e+002, 1.577981e+002
5.804259e+002, 1.583004e+002
5.809080e+002, 1.580150e+002
5.813901e+002, 1.569634e+002
5.818723e+002, 1.558687e+002
5.823544e+002, 1.551899e+002
5.828365e+002, 1.547982e+002
5.833186e+002, 1.542542e+002
5.838007e+002, 1.535344e+002
5.842828e+002, 1.526811e+002
5.847650e+002, 1.514961e+002
5.852471e+002, 1.503512e+002
5.857292e+002, 1.495274e+002
5.862113e+002, 1.489709e+002
5.866934e+002, 1.484566e+002
5.871755e+002, 1.478685e+002
5.876577e+002, 1.471898e+002
5.881398e+002, 1.462938e+002
5.886219e+002, 1.450984e+002
5.891040e+002, 1.442525e+002
5.895861e+002, 1.440175e+002
5.900682e+002, 1.440764e+002
5.905504e+002, 1.442136e+002
5.910325e+002, 1.444009e+002
5.915146e+002, 1.444453e+002
5.919967e+002, 1.441813e+002
5.924788e+002, 1.438409e+002
5.929609e+002, 1.436830e+002
5.934431e+002, 1.436181e+002
5.939252e+002, 1.433088e+002
5.944073e+002, 1.426120e+002
5.948894e+002, 1.418620e+002
5.953715e+002, 1.415466e+002
5.958536e+002, 1.417944e+002
5.963358e+002, 1.418987e+002
5.968179e+002, 1.417122e+002
5.973000e+002, 1.415680e+002
5.977821e+002, 1.416615e+002
5.982642e+002, 1.418419e+002
5.987463e+002, 1.418919e+002
5.992285e+002, 1.417374e+002
5.997106e+002, 1.414625e+002
6.001927e+002, 1.411018e+002
6.006748e+002, 1.406636e+002
6.011569e+002, 1.404557e+002
6.016390e+002, 1.406082e+002
6.021212e+002, 1.407422e+002
6.026033e+002, 1.405851e+002
6.030854e+002, 1.402879e+002
6.035675e+002, 1.400710e+002
6.040496e+002, 1.399600e+002
6.045317e+002, 1.399267e+002
6.050139e+002, 1.399924e+002
6.054960e+002, 1.401108e+002
6.059781e+002, 1.402592e+002
6.064602e+002, 1.404164e+002
6.069423e+002, 1.404726e+002
6.074244e+002, 1.403611e+002
6.079066e+002, 1.400730e+002
6.083887e+002, 1.395528e+002
6.088708e+002, 1.384796e+002
6.093529e+002, 1.376379e+002
6.098350e+002, 1.372881e+002
6.103171e+002, 1.369851e+002
6.107993e+002, 1.363557e+002
6.112814e+002, 1.354698e+002
6.117635e+002, 1.346718e+002
6.122456e+002, 1.341900e+002
6.127277e+002, 1.339095e+002
6.132098e+002, 1.336362e+002
6.136920e+002, 1.333819e+002
6.141741e+002, 1.329232e+002
6.146562e+002, 1.319885e+002
6.151383e+002, 1.311156e+002
6.156204e+002, 1.310500e+002
6.161025e+002, 1.316207e+002
6.165847e+002, 1.317588e+002
6.170668e+002, 1.307666e+002
6.175489e+002, 1.297547e+002
6.180310e+002, 1.295429e+002
6.185131e+002, 1.298075e+002
6.189952e+002, 1.298555e+002
6.194774e+002, 1.294851e+002
6.199595e+002, 1.290118e+002
6.204416e+002, 1.288232e+002
6.209237e+002, 1.289476e+002
6.214058e+002, 1.289149e+002
6.218879e+002, 1.284634e+002
6.223701e+002, 1.281797e+002
6.228522e+002, 1.284364e+002
6.233343e+002, 1.287757e+002
6.238164e+002, 1.286572e+002
6.242985e+002, 1.280077e+002
6.247806e+002, 1.273115e+002
6.252628e+002, 1.269489e+002
6.257448e+002, 1.268420e+002
6.262269e+002, 1.268131e+002
6.267090e+002, 1.268654e+002
6.271912e+002, 1.269132e+002
6.276733e+002, 1.269250e+002
6.281554e+002, 1.269023e+002
6.286375e+002, 1.268403e+002
6.291196e+002, 1.267345e+002
6.296017e+002, 1.266223e+002
6.300839e+002, 1.265944e+002
6.305660e+002, 1.264851e+002
6.310481e+002, 1.260159e+002
6.315302e+002, 1.253827e+002
6.320123e+002, 1.250750e+002
6.324944e+002, 1.253192e+002
6.329766e+002, 1.258228e+002
6.334587e+002, 1.260721e+002
6.339408e+002, 1.259902e+002
6.344229e+002, 1.260664e+002
6.349050e+002, 1.264950e+002
6.353871e+002, 1.268327e+002
6.358693e+002, 1.268820e+002
6.363514e+002, 1.267297e+002
6.368335e+002, 1.264745e+002
6.373156e+002, 1.261065e+002
6.377977e+002, 1.257948e+002
6.382798e+002, 1.255816e+002
6.387620e+002, 1.255332e+002
6.392441e+002, 1.258384e+002
6.397262e+002, 1.265062e+002
6.402083e+002, 1.272727e+002
6.406904e+002, 1.280141e+002
6.411725e+002, 1.286733e+002
6.416547e+002, 1.290618e+002
6.421368e+002, 1.290144e+002
6.426189e+002, 1.289176e+002
6.431010e+002, 1.286106e+002
6.435831e+002, 1.283962e+002
6.440652e+002, 1.285435e+002
6.445474e+002, 1.289429e+002
6.450295e+002, 1.292987e+002
6.455116e+002, 1.294569e+002
6.459937e+002, 1.294902e+002
6.464758e+002, 1.294199e+002
6.469579e+002, 1.292494e+002
6.474401e+002, 1.294617e+002
6.479222e+002, 1.303113e+002
6.484043e+002, 1.311645e+002
6.488864e+002, 1.314712e+002
6.493685e+002, 1.313926e+002
6.498506e+002, 1.314224e+002
6.503328e+002, 1.316547e+002
6.508149e+002, 1.319123e+002
6.512970e+002, 1.321290e+002
6.517791e+002, 1.323326e+002
6.522612e+002, 1.325003e+002
6.527433e+002, 1.326662e+002
6.532255e+002, 1.330153e+002
6.537076e+002, 1.337255e+002
6.541897e+002, 1.346344e+002
6.546718e+002, 1.350846e+002
6.551539e+002, 1.347660e+002
6.556360e+002, 1.347359e+002
6.561182e+002, 1.353746e+002
6.566003e+002, 1.361403e+002
6.570824e+002, 1.367299e+002
6.575645e+002, 1.372004e+002
6.580466e+002, 1.377663e+002
6.585287e+002, 1.385277e+002
6.590109e+002, 1.393849e+002
6.594930e+002, 1.402488e+002
6.599751e+002, 1.411312e+002
6.604572e+002, 1.420834e+002
6.609393e+002, 1.431144e+002
6.614214e+002, 1.441811e+002
6.619036e+002, 1.452325e+002
6.623857e+002, 1.462871e+002
6.628678e+002, 1.475178e+002
6.633499e+002, 1.489909e+002
6.638320e+002, 1.505611e+002
6.643141e+002, 1.520328e+002
6.647963e+002, 1.537472e+002
6.652784e+002, 1.559301e+002
6.657605e+002, 1.586114e+002
6.662426e+002, 1.617648e+002
6.667247e+002, 1.654621e+002
6.672068e+002, 1.695123e+002
6.676890e+002, 1.736275e+002
6.681711e+002, 1.778100e+002
6.686532e+002, 1.820396e+002
6.691353e+002, 1.860828e+002
6.696174e+002, 1.906678e+002
6.700995e+002, 1.965074e+002
6.705817e+002, 2.035738e+002
6.710638e+002, 2.108770e+002
6.715459e+002, 2.182982e+002
6.720280e+002, 2.260728e+002
6.725101e+002, 2.341421e+002
6.729922e+002, 2.426029e+002
6.734744e+002, 2.515096e+002
6.739565e+002, 2.609196e+002
6.744386e+002, 2.710060e+002
6.749207e+002, 2.819203e+002
6.754028e+002, 2.936935e+002
6.758849e+002, 3.063221e+002
6.763671e+002, 3.195632e+002
6.768492e+002, 3.346943e+002
6.773313e+002, 3.520345e+002
6.778134e+002, 3.714990e+002
6.782955e+002, 3.924800e+002
6.787776e+002, 4.152494e+002
6.792598e+002, 4.408331e+002
6.797419e+002, 4.697209e+002
6.802240e+002, 5.011460e+002
6.807061e+002, 5.346127e+002
6.811882e+002, 5.703085e+002
6.816703e+002, 6.093210e+002
6.821525e+002, 6.514260e+002
6.826346e+002, 6.953899e+002
6.831167e+002, 7.407877e+002
6.835988e+002, 7.864703e+002
6.840809e+002, 8.277984e+002
6.845630e+002, 8.673215e+002
6.850452e+002, 8.967158e+002
6.855273e+002, 9.160942e+002
6.860094e+002, 9.235117e+002
6.864915e+002, 9.172413e+002
6.869736e+002, 8.977735e+002
6.874557e+002, 8.659699e+002
6.879379e+002, 8.192951e+002
6.884200e+002, 7.654848e+002
6.889021e+002, 7.084832e+002
6.893842e+002, 6.502237e+002
6.898663e+002, 5.948708e+002
6.903484e+002, 5.429572e+002
6.908306e+002, 4.958403e+002
6.913127e+002, 4.542928e+002
6.917948e+002, 4.181499e+002
6.922769e+002, 3.857987e+002
6.927590e+002, 3.577520e+002
6.932411e+002, 3.329339e+002
6.937233e+002, 3.118225e+002
6.942054e+002, 2.933172e+002
6.946875e+002, 2.768597e+002
6.951696e+002, 2.623595e+002
6.956517e+002, 2.500511e+002
6.961339e+002, 2.403216e+002
6.966160e+002, 2.318874e+002
6.970981e+002, 2.232254e+002
6.975802e+002, 2.146419e+002
6.980623e+002, 2.071751e+002
6.985444e+002, 2.010661e+002
6.990266e+002, 1.955122e+002
6.995087e+002, 1.899717e+002
6.999908e+002, 1.845458e+002
7.004729e+002, 1.797059e+002
7.009550e+002, 1.756038e+002
7.014371e+002, 1.719151e+002
7.019193e+002, 1.687866e+002
7.024014e+002, 1.659298e+002
7.028835e+002, 1.633039e+002
7.033656e+002, 1.607931e+002
7.038477e+002, 1.581008e+002
7.043298e+002, 1.550797e+002
7.048120e+002, 1.522012e+002
7.052941e+002, 1.502366e+002
7.057762e+002, 1.489947e+002
7.062583e+002, 1.474033e+002
7.067404e+002, 1.452705e+002
7.072225e+002, 1.435208e+002
7.077046e+002, 1.428681e+002
7.081867e+002, 1.428206e+002
7.086688e+002, 1.420844e+002
7.091509e+002, 1.403033e+002
7.096331e+002, 1.387819e+002
7.101152e+002, 1.376226e+002
7.105973e+002, 1.367179e+002
7.110794e+002, 1.362430e+002
7.115615e+002, 1.359131e+002
7.120436e+002, 1.351778e+002
7.125258e+002, 1.338450e+002
7.130079e+002, 1.324636e+002
7.134900e+002, 1.316857e+002
7.139721e+002, 1.314210e+002
7.144542e+002, 1.312369e+002
7.149363e+002, 1.311822e+002
7.154185e+002, 1.307843e+002
7.159006e+002, 1.296008e+002
7.163827e+002, 1.281946e+002
7.168648e+002, 1.276170e+002
7.173469e+002, 1.280436e+002
7.178290e+002, 1.281522e+002
7.183112e+002, 1.276933e+002
7.187933e+002, 1.270438e+002
7.192754e+002, 1.262953e+002
7.197575e+002, 1.255159e+002
7.202396e+002, 1.247600e+002
7.207217e+002, 1.240518e+002
7.212039e+002, 1.234132e+002
7.216860e+002, 1.228632e+002
7.221681e+002, 1.224001e+002
7.226502e+002, 1.220484e+002
7.231323e+002, 1.218232e+002
7.236144e+002, 1.215712e+002
7.240966e+002, 1.212602e+002
7.245787e+002, 1.208818e+002
7.250608e+002, 1.204077e+002
7.255429e+002, 1.198370e+002
7.260250e+002, 1.192937e+002
7.265071e+002, 1.187651e+002
7.269893e+002, 1.182862e+002
7.274714e+002, 1.178645e+002
7.279535e+002, 1.175017e+002
7.284356e+002, 1.172120e+002
7.289177e+002, 1.169911e+002
7.293998e+002, 1.168294e+002
7.298820e+002, 1.167489e+002
7.303641e+002, 1.166698e+002
7.308462e+002, 1.163437e+002
7.313283e+002, 1.157564e+002
7.318104e+002, 1.153563e+002
7.322925e+002, 1.152715e+002
7.327747e+002, 1.152903e+002
7.332568e+002, 1.152422e+002
7.337389e+002, 1.151516e+002
7.342210e+002, 1.151515e+002
7.347031e+002, 1.154252e+002
7.351852e+002, 1.155040e+002
7.356674e+002, 1.151506e+002
7.361495e+002, 1.146795e+002
7.366316e+002, 1.142531e+002
7.371137e+002, 1.139432e+002
7.375958e+002, 1.138909e+002
7.380779e+002, 1.141900e+002
7.385601e+002, 1.145385e+002
7.390422e+002, 1.144196e+002
7.395243e+002, 1.138949e+002
7.400064e+002, 1.135760e+002
7.404885e+002, 1.135529e+002
7.409706e+002, 1.135508e+002
7.414528e+002, 1.134263e+002
7.419349e+002, 1.132212e+002
7.424170e+002, 1.130137e+002
7.428991e+002, 1.127806e+002
7.433812e+002, 1.126239e+002
7.438633e+002, 1.127119e+002
7.443455e+002, 1.127128e+002
7.448276e+002, 1.123175e+002
7.453097e+002, 1.117719e+002
7.457918e+002, 1.114839e+002
7.462739e+002, 1.115557e+002
7.467560e+002, 1.117154e+002
7.472382e+002, 1.117443e+002
7.477203e+002, 1.116503e+002
7.482024e+002, 1.113880e+002
7.486845e+002, 1.109495e+002
7.491666e+002, 1.106966e+002
7.496487e+002, 1.107987e+002
7.501309e+002, 1.110148e+002
7.506130e+002, 1.110896e+002
7.510951e+002, 1.110191e+002
7.515772e+002, 1.108115e+002
7.520593e+002, 1.102868e+002
7.525414e+002, 1.098675e+002
7.530236e+002, 1.096494e+002
7.535057e+002, 1.095698e+002
7.539878e+002, 1.095934e+002
7.544699e+002, 1.096989e+002
7.549520e+002, 1.098580e+002
7.554341e+002, 1.100743e+002
7.559163e+002, 1.102941e+002
7.563984e+002, 1.104549e+002
7.568805e+002, 1.105557e+002
7.573626e+002, 1.105887e+002
7.578447e+002, 1.105522e+002
7.583268e+002, 1.104618e+002
7.588090e+002, 1.103318e+002
7.592911e+002, 1.101540e+002
7.597732e+002, 1.098931e+002
7.602553e+002, 1.094349e+002
7.607374e+002, 1.091071e+002
7.612195e+002, 1.088868e+002
7.617017e+002, 1.088157e+002
7.621838e+002, 1.090520e+002
7.626659e+002, 1.094027e+002
7.631480e+002, 1.095667e+002
7.636301e+002, 1.094582e+002
7.641122e+002, 1.092535e+002
7.645944e+002, 1.089742e+002
7.650765e+002, 1.087378e+002
7.655586e+002, 1.088440e+002
7.660407e+002, 1.092100e+002
7.665228e+002, 1.093255e+002
7.670049e+002, 1.089828e+002
7.674871e+002, 1.084520e+002
7.679692e+002, 1.080499e+002
7.684513e+002, 1.077653e+002
7.689334e+002, 1.078511e+002
7.694155e+002, 1.087953e+002
7.698976e+002, 1.093043e+002
7.703798e+002, 1.088294e+002
7.708619e+002, 1.080435e+002
7.713440e+002, 1.073392e+002
7.718261e+002, 1.067756e+002
7.723082e+002, 1.064412e+002
7.727903e+002, 1.063879e+002
7.732725e+002, 1.065445e+002
7.737546e+002, 1.070399e+002
7.742367e+002, 1.076370e+002
7.747188e+002, 1.079627e+002
7.752009e+002, 1.079823e+002
7.756830e+002, 1.078659e+002
7.761652e+002, 1.077206e+002
7.766473e+002, 1.075330e+002
7.771294e+002, 1.072637e+002
7.776115e+002, 1.069012e+002
7.780936e+002, 1.065063e+002
7.785757e+002, 1.059532e+002
7.790579e+002, 1.056106e+002
7.795400e+002, 1.058028e+002
7.800221e+002, 1.062836e+002
7.805042e+002, 1.066917e+002
7.809863e+002, 1.070630e+002
7.814684e+002, 1.071453e+002
7.819506e+002, 1.065689e+002
7.824327e+002, 1.059942e+002
7.829148e+002, 1.058371e+002
7.833969e+002, 1.059768e+002
7.838790e+002, 1.062057e+002
7.843611e+002, 1.064545e+002
7.848433e+002, 1.067283e+002
7.853254e+002, 1.070835e+002
7.858075e+002, 1.074356e+002
7.862896e+002, 1.074764e+002
7.867717e+002, 1.072007e+002
7.872538e+002, 1.069677e+002
7.877360e+002, 1.068600e+002
7.882181e+002, 1.068426e+002
7.887002e+002, 1.069213e+002
7.891823e+002, 1.070731e+002
7.896644e+002, 1.070992e+002
7.901465e+002, 1.069138e+002
7.906286e+002, 1.067329e+002
7.911107e+002, 1.065268e+002
7.915928e+002, 1.063724e+002
7.920750e+002, 1.063462e+002
7.925571e+002, 1.064050e+002
7.930392e+002, 1.064628e+002
7.935213e+002, 1.064930e+002
7.940034e+002, 1.064818e+002
7.944855e+002, 1.063545e+002
7.949677e+002, 1.062034e+002
7.954498e+002, 1.062811e+002
7.959319e+002, 1.065442e+002
7.964140e+002, 1.065706e+002
7.968961e+002, 1.061617e+002
7.973782e+002, 1.057022e+002
7.978604e+002, 1.057569e+002
7.983425e+002, 1.063562e+002
7.988246e+002, 1.067247e+002
7.993067e+002, 1.067448e+002
7.997888e+002, 1.067468e+002
8.002709e+002, 1.069054e+002
8.007531e+002, 1.069978e+002
8.012352e+002, 1.067302e+002
8.017173e+002, 1.062089e+002
8.021994e+002, 1.059697e+002
8.026815e+002, 1.063695e+002
8.031636e+002, 1.067619e+002
8.036458e+002, 1.068367e+002
8.041279e+002, 1.067044e+002
8.046100e+002, 1.063630e+002
8.050921e+002, 1.059301e+002
8.055742e+002, 1.057414e+002
8.060563e+002, 1.059906e+002
8.065385e+002, 1.064359e+002
8.070206e+002, 1.067226e+002
8.075027e+002, 1.068567e+002
8.079848e+002, 1.068846e+002
8.084669e+002, 1.067880e+002
8.089490e+002, 1.066841e+002
8.094312e+002, 1.066002e+002
8.099133e+002, 1.065679e+002
8.103954e+002, 1.066370e+002
8.108775e+002, 1.068179e+002
8.113596e+002, 1.070487e+002
8.118417e+002, 1.075197e+002
8.123239e+002, 1.077983e+002
8.128060e+002, 1.075232e+002
8.132881e+002, 1.071777e+002
8.137702e+002, 1.072765e+002
8.142523e+002, 1.077695e+002
8.147344e+002, 1.082291e+002
8.152166e+002, 1.084957e+002
8.156987e+002, 1.085343e+002
8.161808e+002, 1.080778e+002
8.166629e+002, 1.074209e+002
8.171450e+002, 1.073210e+002
8.176271e+002, 1.077998e+002
8.181093e+002, 1.082012e+002
8.185914e+002, 1.081410e+002
8.190735e+002, 1.078454e+002
8.195556e+002, 1.077532e+002
8.200377e+002, 1.078988e+002
8.205198e+002, 1.080471e+002
8.210020e+002, 1.083053e+002
8.214841e+002, 1.083568e+002
8.219662e+002, 1.078589e+002
8.224483e+002, 1.072528e+002
8.229304e+002, 1.070709e+002
8.234125e+002, 1.073015e+002
8.238947e+002, 1.074448e+002
8.243768e+002, 1.073201e+002
8.248589e+002, 1.071899e+002
8.253410e+002, 1.072082e+002
8.258231e+002, 1.072562e+002
8.263052e+002, 1.071708e+002
8.267874e+002, 1.069760e+002
8.272695e+002, 1.068477e+002
8.277516e+002, 1.069034e+002
8.282337e+002, 1.069770e+002
8.287158e+002, 1.067700e+002
8.291979e+002, 1.063713e+002
8.296801e+002, 1.061852e+002
8.301622e+002, 1.062490e+002
8.306443e+002, 1.063048e+002
8.311264e+002, 1.062444e+002
8.316085e+002, 1.060447e+002
8.320906e+002, 1.056367e+002
8.325728e+002, 1.049720e+002
8.330549e+002, 1.044566e+002
8.335370e+002, 1.040972e+002
8.340191e+002, 1.038881e+002
8.345012e+002, 1.038445e+002
8.349833e+002, 1.039271e+002
8.354655e+002, 1.041827e+002
8.359476e+002, 1.045550e+002
8.364297e+002, 1.048046e+002
8.369118e+002, 1.048519e+002
8.373939e+002, 1.047761e+002
8.378760e+002, 1.045326e+002
8.383582e+002, 1.042480e+002
8.388403e+002, 1.040501e+002
8.393224e+002, 1.039520e+002
8.398045e+002, 1.039432e+002
8.402866e+002, 1.040194e+002
8.407687e+002, 1.041347e+002
8.412509e+002, 1.042762e+002
8.417330e+002, 1.044130e+002
8.422151e+002, 1.042995e+002
8.426972e+002, 1.039094e+002
8.431793e+002, 1.036698e+002
8.436614e+002, 1.037783e+002
8.441436e+002, 1.039643e+002
8.446257e+002, 1.038815e+002
8.451078e+002, 1.035406e+002
8.455899e+002, 1.034575e+002
8.460720e+002, 1.040396e+002
8.465541e+002, 1.042754e+002
8.470363e+002, 1.037603e+002
8.475184e+002, 1.031823e+002
8.480005e+002, 1.030567e+002
8.484826e+002, 1.031854e+002
8.489647e+002, 1.030206e+002
8.494468e+002, 1.023217e+002
8.499290e+002, 1.017851e+002
8.504111e+002, 1.019245e+002
8.508932e+002, 1.022982e+002
8.513753e+002, 1.024707e+002
8.518574e+002, 1.025012e+002
8.523395e+002, 1.026489e+002
8.528217e+002, 1.029674e+002
8.533038e+002, 1.031785e+002
8.537859e+002, 1.029685e+002
8.542680e+002, 1.024750e+002
8.547501e+002, 1.021103e+002
8.552322e+002, 1.018735e+002
8.557144e+002, 1.017061e+002
8.561965e+002, 1.015865e+002
8.566786e+002, 1.016056e+002
8.571607e+002, 1.019184e+002
8.576428e+002, 1.023570e+002
8.581249e+002, 1.023608e+002
8.586071e+002, 1.016310e+002
8.590892e+002, 1.011122e+002
8.595713e+002, 1.008965e+002
8.600534e+002, 1.007765e+002
8.605355e+002, 1.007105e+002
8.610176e+002, 1.006815e+002
8.614998e+002, 1.006677e+002
8.619819e+002, 1.006682e+002
8.624640e+002, 1.007157e+002
8.629461e+002, 1.008642e+002
8.634282e+002, 1.010203e+002
8.639103e+002, 1.011836e+002
8.643925e+002, 1.012810e+002
8.648746e+002, 1.011321e+002
8.653567e+002, 1.007913e+002
8.658388e+002, 1.005825e+002
8.663209e+002, 1.007139e+002
8.668030e+002, 1.009116e+002
8.672852e+002, 1.006810e+002
8.677673e+002, 1.001263e+002
8.682494e+002, 9.984087e+001
8.687315e+002, 9.986877e+001
8.692136e+002, 9.984234e+001
8.696957e+002, 9.960300e+001
8.701779e+002, 9.925607e+001
8.706600e+002, 9.890621e+001
8.711421e+002, 9.855008e+001
8.716242e+002, 9.849971e+001
8.721063e+002, 9.901580e+001
8.725884e+002, 9.937804e+001
8.730705e+002, 9.942066e+001
8.735526e+002, 9.931688e+001
8.740347e+002, 9.910368e+001
8.745168e+002, 9.882978e+001
8.749990e+002, 9.860253e+001
8.754811e+002, 9.845322e+001
8.759632e+002, 9.831152e+001
8.764453e+002, 9.813988e+001
8.769274e+002, 9.798101e+001
8.774095e+002, 9.788557e+001
8.778917e+002, 9.781836e+001
8.783738e+002, 9.769234e+001
8.788559e+002, 9.750400e+001
8.793380e+002, 9.738199e+001
8.798201e+002, 9.747437e+001
8.803022e+002, 9.763441e+001
8.807844e+002, 9.759120e+001
8.812665e+002, 9.740528e+001
8.817486e+002, 9.729652e+001
8.822307e+002, 9.729909e+001
8.827128e+002, 9.736822e+001
8.831949e+002, 9.749283e+001
8.836771e+002, 9.759252e+001
8.841592e+002, 9.748851e+001
8.846413e+002, 9.715617e+001
8.851234e+002, 9.679073e+001
8.856055e+002, 9.635718e+001
8.860876e+002, 9.596673e+001
8.865698e+002, 9.558918e+001
8.870519e+002, 9.534019e+001
8.875340e+002, 9.542298e+001
8.880161e+002, 9.580928e+001
8.884982e+002, 9.605639e+001
8.889803e+002, 9.611250e+001
8.894625e+002, 9.608486e+001
8.899446e+002, 9.603646e+001
8.904267e+002, 9.586887e+001
8.909088e+002, 9.533138e+001
8.913909e+002, 9.467532e+001
8.918730e+002, 9.443750e+001
8.923552e+002, 9.477998e+001
8.928373e+002, 9.513087e+001
8.933194e+002, 9.515327e+001
8.938015e+002, 9.498000e+001
8.942836e+002, 9.461002e+001
8.947657e+002, 9.419435e+001
8.952479e+002, 9.413402e+001
8.957300e+002, 9.444045e+001
8.962121e+002, 9.459846e+001
8.966942e+002, 9.418673e+001
8.971763e+002, 9.352660e+001
8.976584e+002, 9.328334e+001
8.981406e+002, 9.341629e+001
8.986227e+002, 9.350549e+001
8.991048e+002, 9.350632e+001
8.995869e+002, 9.356375e+001
9.000690e+002, 9.377509e+001
9.005511e+002, 9.399621e+001
9.010333e+002, 9.401273e+001
9.015154e+002, 9.381791e+001
9.019975e+002, 9.355017e+001
9.024796e+002, 9.306484e+001
9.029617e+002, 9.277585e+001
9.034438e+002, 9.289623e+001
9.039260e+002, 9.310523e+001
9.044081e+002, 9.320173e+001
9.048902e+002, 9.321677e+001
9.053723e+002, 9.324472e+001
9.058544e+002, 9.334764e+001
9.063365e+002, 9.331400e+001
9.068187e+002, 9.285217e+001
9.073008e+002, 9.249378e+001
9.077829e+002, 9.271603e+001
9.082650e+002, 9.315809e+001
9.087471e+002, 9.330766e+001
9.092292e+002, 9.309818e+001
9.097114e+002, 9.280308e+001
9.101935e+002, 9.250658e+001
9.106756e+002, 9.231430e+001
9.111577e+002, 9.238207e+001
9.116398e+002, 9.261021e+001
9.121219e+002, 9.286266e+001
9.126041e+002, 9.309592e+001
9.130862e+002, 9.325281e+001
9.135683e+002, 9.330645e+001
9.140504e+002, 9.321324e+001
9.145325e+002, 9.281112e+001
9.150146e+002, 9.220374e+001
9.154968e+002, 9.203141e+001
9.159789e+002, 9.231079e+001
9.164610e+002, 9.256813e+001
9.169431e+002, 9.269740e+001
9.174252e+002, 9.272618e+001
9.179073e+002, 9.266394e+001
9.183895e+002, 9.253178e+001
9.188716e+002, 9.238439e+001
9.193537e+002, 9.209502e+001
9.198358e+002, 9.212575e+001
9.203179e+002, 9.274989e+001
9.208000e+002, 9.330058e+001
9.212822e+002, 9.355959e+001
9.217643e+002, 9.358242e+001
9.222464e+002, 9.333868e+001
9.227285e+002, 9.284661e+001
9.232106e+002, 9.247839e+001
9.236927e+002, 9.224111e+001
9.241749e+002, 9.219177e+001
9.246570e+002, 9.255656e+001
9.251391e+002, 9.292937e+001
9.256212e+002, 9.291894e+001
9.261033e+002, 9.268349e+001
9.265854e+002, 9.262659e+001
9.270676e+002, 9.287302e+001
9.275497e+002, 9.306564e+001
9.280318e+002, 9.288585e+001
9.285139e+002, 9.261452e+001
9.289960e+002, 9.251706e+001
9.294781e+002, 9.254931e+001
9.299603e+002, 9.264947e+001
9.304424e+002, 9.277944e+001
9.309245e+002, 9.285896e+001
9.314066e+002, 9.284345e+001
9.318887e+002, 9.271548e+001
9.323708e+002, 9.237546e+001
9.328530e+002, 9.189543e+001
9.333351e+002, 9.156737e+001
9.338172e+002, 9.140507e+001
9.342993e+002, 9.137136e+001
9.347814e+002, 9.146075e+001
9.352635e+002, 9.159818e+001
9.357457e+002, 9.171423e+001
9.362278e+002, 9.179861e+001
9.367099e+002, 9.177600e+001
9.371920e+002, 9.160830e+001
9.376741e+002, 9.150994e+001
9.381563e+002, 9.156075e+001
9.386384e+002, 9.154945e+001
9.391205e+002, 9.128563e+001
9.396026e+002, 9.095055e+001
9.400847e+002, 9.092495e+001
9.405668e+002, 9.132661e+001
9.410490e+002, 9.134184e+001
9.415311e+002, 9.058676e+001
9.420132e+002, 8.998689e+001
9.424953e+002, 8.970997e+001
9.429774e+002, 8.965164e+001
9.434595e+002, 8.982692e+001
9.439417e+002, 9.014503e+001
9.444238e+002, 9.041279e+001
9.449059e+002, 9.061567e+001
9.453880e+002, 9.068188e+001
9.458701e+002, 9.045426e+001
9.463522e+002, 9.022256e+001
9.468344e+002, 9.014926e+001
9.473165e+002, 9.020805e+001
9.477986e+002, 9.041273e+001
9.482807e+002, 9.071269e+001
9.487628e+002, 9.091621e+001
9.492449e+002, 9.089083e+001
9.497271e+002, 9.081190e+001
9.502092e+002, 9.086663e+001
9.506913e+002, 9.096489e+001
9.511734e+002, 9.097652e+001
9.516555e+002, 9.090037e+001
9.521376e+002, 9.073634e+001
9.526198e+002, 9.049979e+001
9.531019e+002, 9.034412e+001
9.535840e+002, 9.045356e+001
9.540661e+002, 9.070093e+001
9.545482e+002, 9.078094e+001
9.550303e+002, 9.071133e+001
9.555124e+002, 9.055665e+001
9.559945e+002, 9.032694e+001
9.564766e+002, 9.030352e+001
9.569587e+002, 9.067457e+001
9.574409e+002, 9.112231e+001
9.579230e+002, 9.110949e+001
9.584051e+002, 9.064589e+001
9.588872e+002, 9.031742e+001
9.593693e+002, 9.013871e+001
9.598514e+002, 9.003838e+001
9.603336e+002, 9.003745e+001
9.608157e+002, 9.002766e+001
9.612978e+002, 8.992024e+001
9.617799e+002, 8.974953e+001
9.622620e+002, 8.961086e+001
9.627441e+002, 8.951012e+001
9.632263e+002, 8.942390e+001
9.637084e+002, 8.935483e+001
9.641905e+002, 8.929794e+001
9.646726e+002, 8.920800e+001
9.651547e+002, 8.916517e+001
9.656368e+002, 8.930950e+001
9.661190e+002, 8.957565e+001
9.666011e+002, 8.965518e+001
9.670832e+002, 8.937328e+001
9.675653e+002, 8.918350e+001
9.680474e+002, 8.915440e+001
9.685295e+002, 8.927268e+001
9.690117e+002, 8.970025e+001
9.694938e+002, 9.017488e+001
9.699759e+002, 9.029064e+001
9.704580e+002, 9.005471e+001
9.709401e+002, 8.993419e+001
9.714222e+002, 9.028360e+001
9.719044e+002, 9.055648e+001
9.723865e+002, 9.021072e+001
9.728686e+002, 8.976931e+001
9.733507e+002, 8.980087e+001
9.738328e+002, 9.020855e+001
9.743149e+002, 9.069662e+001
9.747971e+002, 9.116038e+001
9.752792e+002, 9.158252e+001
9.757613e+002, 9.193440e+001
9.762434e+002, 9.224996e+001
9.767255e+002, 9.255953e+001
9.772076e+002, 9.287180e+001
9.776898e+002, 9.315257e+001
9.781719e+002, 9.344453e+001
9.786540e+002, 9.398714e+001
9.791361e+002, 9.489531e+001
9.796182e+002, 9.582700e+001
9.801003e+002, 9.635093e+001
9.805825e+002, 9.656155e+001
9.810646e+002, 9.663237e+001
9.815467e+002, 9.662022e+001
9.820288e+002, 9.703674e+001
9.825109e+002, 9.798056e+001
9.829930e+002, 9.911855e+001
9.834752e+002, 1.002496e+002
9.839573e+002, 1.013572e+002
9.844394e+002, 1.024030e+002
9.849215e+002, 1.033849e+002
9.854036e+002, 1.043511e+002
9.858857e+002, 1.052728e+002
9.863679e+002, 1.063827e+002
9.868500e+002, 1.078094e+002
9.873321e+002, 1.092283e+002
9.878142e+002, 1.103518e+002
9.882963e+002, 1.112885e+002
9.887784e+002, 1.123982e+002
9.892606e+002, 1.137703e+002
9.897427e+002, 1.149669e+002
9.902248e+002, 1.158450e+002
9.907069e+002, 1.168369e+002
9.911890e+002, 1.182561e+002
9.916711e+002, 1.196514e+002
9.921533e+002, 1.205385e+002
9.926354e+002, 1.210074e+002
9.931175e+002, 1.215876e+002
9.935996e+002, 1.224316e+002
9.940817e+002, 1.231100e+002
9.945638e+002, 1.238222e+002
9.950460e+002, 1.241266e+002
9.955281e+002, 1.236639e+002
9.960102e+002, 1.228399e+002
9.964923e+002, 1.220263e+002
9.969744e+002, 1.212492e+002
9.974565e+002, 1.205082e+002
9.979387e+002, 1.198048e+002
9.984208e+002, 1.191386e+002
9.989029e+002, 1.185766e+002
9.993850e+002, 1.179847e+002
9.998671e+002, 1.172760e+002
1.000349e+003, 1.164909e+002
1.000831e+003, 1.156364e+002
1.001313e+003, 1.147457e+002
1.001796e+003, 1.140384e+002
1.002278e+003, 1.136543e+002
1.002760e+003, 1.134037e+002
1.003242e+003, 1.133456e+002
1.003724e+003, 1.132343e+002
1.004206e+003, 1.127642e+002
1.004688e+003, 1.120829e+002
1.005170e+003, 1.114937e+002
1.005653e+003, 1.110706e+002
1.006135e+003, 1.106926e+002
1.006617e+003, 1.102456e+002
1.007099e+003, 1.098583e+002
1.007581e+003, 1.097022e+002
1.008063e+003, 1.096503e+002
1.008545e+003, 1.095622e+002
1.009027e+003, 1.094069e+002
1.009509e+003, 1.091278e+002
1.009992e+003, 1.087204e+002
1.010474e+003, 1.083473e+002
1.010956e+003, 1.081391e+002
1.011438e+003, 1.080648e+002
1.011920e+003, 1.080124e+002
1.012402e+003, 1.080784e+002
1.012884e+003, 1.086647e+002
1.013366e+003, 1.096482e+002
1.013849e+003, 1.102486e+002
1.014331e+003, 1.101352e+002
1.014813e+003, 1.098434e+002
1.015295e+003, 1.099265e+002
1.015777e+003, 1.103136e+002
1.016259e+003, 1.109011e+002
1.016741e+003, 1.116421e+002
1.017223e+003, 1.122814e+002
1.017705e+003, 1.127935e+002
1.018188e+003, 1.134006e+002
1.018670e+003, 1.142240e+002
1.019152e+003, 1.150498e+002
1.019634e+003, 1.155265e+002
1.020116e+003, 1.157664e+002
1.020598e+003, 1.163849e+002
1.021080e+003, 1.173625e+002
1.021562e+003, 1.182492e+002
1.022044e+003, 1.189704e+002
1.022527e+003, 1.195271e+002
1.023009e+003, 1.198962e+002
1.023491e+003, 1.202208e+002
1.023973e+003, 1.207504e+002
1.024455e+003, 1.214691e+002
1.024937e+003, 1.220877e+002
1.025419e+003, 1.225950e+002
1.025901e+003, 1.230824e+002
1.026384e+003, 1.235717e+002
1.026866e+003, 1.240504e+002
1.027348e+003, 1.245566e+002
1.027830e+003, 1.249419e+002
1.028312e+003, 1.248618e+002
1.028794e+003, 1.242797e+002
1.029276e+003, 1.241818e+002
1.029758e+003, 1.247152e+002
1.030240e+003, 1.252199e+002
1.030723e+003, 1.255718e+002
1.031205e+003, 1.258601e+002
1.031687e+003, 1.260527e+002
1.032169e+003, 1.263198e+002
1.032651e+003, 1.270317e+002
1.033133e+003, 1.282381e+002
1.033615e+003, 1.294410e+002
1.034097e+003, 1.305428e+002
1.034579e+003, 1.318726e+002
1.035062e+003, 1.336435e+002
1.035544e+003, 1.354182e+002
1.036026e+003, 1.367967e+002
1.036508e+003, 1.380323e+002
1.036990e+003, 1.396897e+002
1.037472e+003, 1.418751e+002
1.037954e+003, 1.438582e+002
1.038436e+003, 1.452334e+002
1.038919e+003, 1.470457e+002
1.039401e+003, 1.498800e+002
1.039883e+003, 1.527464e+002
1.040365e+003, 1.551523e+002
1.040847e+003, 1.571033e+002
1.041329e+003, 1.584963e+002
1.041811e+003, 1.591762e+002
1.042293e+003, 1.601555e+002
1.042776e+003, 1.618753e+002
1.043258e+003, 1.633123e+002
1.043740e+003, 1.641612e+002
1.044222e+003, 1.647915e+002
1.044704e+003, 1.653715e+002
1.045186e+003, 1.659221e+002
1.045668e+003, 1.664761e+002
1.046150e+003, 1.670462e+002
1.046632e+003, 1.675289e+002
1.047115e+003, 1.676637e+002
1.047597e+003, 1.680529e+002
1.048079e+003, 1.687617e+002
1.048561e+003, 1.698501e+002
1.049043e+003, 1.715737e+002
1.049525e+003, 1.736235e+002
1.050007e+003, 1.754197e+002
1.050489e+003, 1.768495e+002
1.050971e+003, 1.785020e+002
1.051454e+003, 1.804951e+002
1.051936e+003, 1.827050e+002
1.052418e+003, 1.849774e+002
1.052900e+003, 1.875716e+002
1.053382e+003, 1.909229e+002
1.053864e+003, 1.946375e+002
1.054346e+003, 1.979383e+002
1.054828e+003, 2.007144e+002
1.055311e+003, 2.037079e+002
1.055793e+003, 2.072515e+002
1.056275e+003, 2.108597e+002
1.056757e+003, 2.145899e+002
1.057239e+003, 2.181100e+002
1.057721e+003, 2.213802e+002
1.058203e+003, 2.241557e+002
1.058685e+003, 2.259763e+002
1.059167e+003, 2.267914e+002
1.059650e+003, 2.274192e+002
1.060132e+003, 2.285921e+002
1.060614e+003, 2.289936e+002
1.061096e+003, 2.280740e+002
1.061578e+003, 2.262488e+002
1.062060e+003, 2.235339e+002
1.062542e+003, 2.202682e+002
1.063024e+003, 2.169562e+002
1.063506e+003, 2.136645e+002
1.063989e+003, 2.100941e+002
1.064471e+003, 2.057682e+002
1.064953e+003, 2.016387e+002
1.065435e+003, 1.984032e+002
1.065917e+003, 1.952045e+002
1.066399e+003, 1.913356e+002
1.066881e+003, 1.870821e+002
1.067363e+003, 1.828329e+002
1.067846e+003, 1.787279e+002
1.068328e+003, 1.750550e+002
1.068810e+003, 1.721487e+002
1.069292e+003, 1.693022e+002
1.069774e+003, 1.658921e+002
1.070256e+003, 1.627375e+002
1.070738e+003, 1.607058e+002
1.071220e+003, 1.591704e+002
1.071703e+003, 1.570351e+002
1.072185e+003, 1.543272e+002
1.072667e+003, 1.521154e+002
1.073149e+003, 1.508396e+002
1.073631e+003, 1.500038e+002
1.074113e+003, 1.498040e+002
1.074595e+003, 1.495155e+002
1.075077e+003, 1.483902e+002
1.075559e+003, 1.469941e+002
1.076042e+003, 1.461734e+002
1.076524e+003, 1.458811e+002
1.077006e+003, 1.452833e+002
1.077488e+003, 1.437701e+002
1.077970e+003, 1.429715e+002
1.078452e+003, 1.444007e+002
1.078934e+003, 1.459705e+002
1.079416e+003, 1.460402e+002
1.079898e+003, 1.456074e+002
1.080380e+003, 1.458229e+002
1.080863e+003, 1.467533e+002
1.081345e+003, 1.480355e+002
1.081827e+003, 1.495765e+002
1.082309e+003, 1.513598e+002
1.082791e+003, 1.535287e+002
1.083273e+003, 1.557729e+002
1.083755e+003, 1.578049e+002
1.084237e+003, 1.598783e+002
1.084720e+003, 1.621826e+002
1.085202e+003, 1.647814e+002
1.085684e+003, 1.677325e+002
1.086166e+003, 1.710290e+002
1.086648e+003, 1.748317e+002
1.087130e+003, 1.794895e+002
1.087612e+003, 1.843136e+002
1.088094e+003, 1.886467e+002
1.088577e+003, 1.932982e+002
1.089059e+003, 1.991293e+002
1.089541e+003, 2.058484e+002
1.090023e+003, 2.126595e+002
1.090505e+003, 2.194496e+002
1.090987e+003, 2.265393e+002
1.091469e+003, 2.336079e+002
1.091951e+003, 2.416544e+002
1.092433e+003, 2.515723e+002
1.092916e+003, 2.621903e+002
1.093398e+003, 2.724189e+002
1.093880e+003, 2.826705e+002
1.094362e+003, 2.936661e+002
1.094844e+003, 3.055078e+002
1.095326e+003, 3.181588e+002
1.095808e+003, 3.317084e+002
1.096290e+003, 3.458554e+002
1.096772e+003, 3.611454e+002
1.097255e+003, 3.762926e+002
1.097737e+003, 3.909217e+002
1.098219e+003, 4.047916e+002
1.098701e+003, 4.179196e+002
1.099183e+003, 4.301246e+002
1.099665e+003, 4.407603e+002
1.100147e+003, 4.497175e+002
1.100629e+003, 4.570021e+002
1.101112e+003, 4.632164e+002
1.101594e+003, 4.669850e+002
1.102076e+003, 4.674835e+002
1.102558e+003, 4.653223e+002
1.103040e+003, 4.611642e+002
1.103522e+003, 4.549466e+002
1.104004e+003, 4.460195e+002
1.104486e+003, 4.334107e+002
1.104969e+003, 4.208416e+002
1.105451e+003, 4.090913e+002
1.105933e+003, 3.973581e+002
1.106415e+003, 3.857715e+002
1.106897e+003, 3.736879e+002
1.107379e+003, 3.600694e+002
1.107861e+003, 3.456067e+002
1.108343e+003, 3.320021e+002
1.108825e+003, 3.194268e+002
1.109307e+003, 3.072668e+002
1.109790e+003, 2.958937e+002
1.110272e+003, 2.843080e+002
1.110754e+003, 2.713775e+002
1.111236e+003, 2.592336e+002
1.111718e+003, 2.494924e+002
1.112200e+003, 2.411413e+002
1.112682e+003, 2.326146e+002
1.113164e+003, 2.238971e+002
1.113647e+003, 2.153807e+002
1.114129e+003, 2.067289e+002
1.114611e+003, 1.988874e+002
1.115093e+003, 1.919436e+002
1.115575e+003, 1.858416e+002
1.116057e+003, 1.810191e+002
1.116539e+003, 1.766041e+002
1.117021e+003, 1.715175e+002
1.117504e+003, 1.658981e+002
1.117986e+003, 1.607460e+002
1.118468e+003, 1.559644e+002
1.118950e+003, 1.519773e+002
1.119432e+003, 1.491722e+002
1.119914e+003, 1.463943e+002
1.120396e+003, 1.431573e+002
1.120878e+003, 1.400117e+002
1.121360e+003, 1.374285e+002
1.121843e+003, 1.352750e+002
1.122325e+003, 1.331920e+002
1.122807e+003, 1.311887e+002
1.123289e+003, 1.291819e+002
1.123771e+003, 1.270895e+002
1.124253e+003, 1.252575e+002
1.124735e+003, 1.237845e+002
1.125217e+003, 1.225271e+002
1.125699e+003, 1.214481e+002
1.126182e+003, 1.204072e+002
1.126664e+003, 1.191071e+002
1.127146e+003, 1.175900e+002
1.127628e+003, 1.167153e+002
1.128110e+003, 1.165825e+002
1.128592e+003, 1.161952e+002
1.129074e+003, 1.153874e+002
1.129556e+003, 1.146564e+002
1.130039e+003, 1.142558e+002
1.130521e+003, 1.138491e+002
1.131003e+003, 1.129924e+002
1.131485e+003, 1.119156e+002
1.131967e+003, 1.114921e+002
1.132449e+003, 1.116840e+002
1.132931e+003, 1.118770e+002
1.133413e+003, 1.120280e+002
1.133896e+003, 1.119020e+002
1.134378e+003, 1.114285e+002
1.134860e+003, 1.109279e+002
1.135342e+003, 1.106417e+002
1.135824e+003, 1.105168e+002
1.136306e+003, 1.105524e+002
1.136788e+003, 1.106563e+002
1.137270e+003, 1.104468e+002
1.137752e+003, 1.099668e+002
1.138234e+003, 1.093873e+002
1.138717e+003, 1.087738e+002
1.139199e+003, 1.083533e+002
1.139681e+003, 1.082413e+002
1.140163e+003, 1.080844e+002
1.140645e+003, 1.073579e+002
1.141127e+003, 1.064374e+002
1.141609e+003, 1.062065e+002
1.142091e+003, 1.062375e+002
1.142574e+003, 1.054831e+002
1.143056e+003, 1.040696e+002
1.143538e+003, 1.027757e+002
1.144020e+003, 1.018473e+002
1.144502e+003, 1.010240e+002
1.144984e+003, 1.000902e+002
1.145466e+003, 9.924983e+001
1.145948e+003, 9.879297e+001
1.146431e+003, 9.848892e+001
1.146913e+003, 9.807901e+001
1.147395e+003, 9.758305e+001
1.147877e+003, 9.701636e+001
1.148359e+003, 9.643395e+001
1.148841e+003, 9.607896e+001
1.149323e+003, 9.613687e+001
1.149805e+003, 9.590197e+001
1.150287e+003, 9.461065e+001
1.150770e+003, 9.322804e+001
1.151252e+003, 9.237569e+001
1.151734e+003, 9.186187e+001
1.152216e+003, 9.154859e+001
1.152698e+003, 9.135445e+001
1.153180e+003, 9.120591e+001
1.153662e+003, 9.108609e+001
1.154144e+003, 9.083101e+001
1.154626e+003, 9.023592e+001
1.155109e+003, 8.970911e+001
1.155591e+003, 8.941022e+001
1.156073e+003, 8.919348e+001
1.156555e+003, 8.900862e+001
1.157037e+003, 8.882452e+001
1.157519e+003, 8.862777e+001
1.158001e+003, 8.840538e+001
1.158483e+003, 8.808652e+001
1.158966e+003, 8.759441e+001
1.159448e+003, 8.715115e+001
1.159930e+003, 8.684045e+001
1.160412e+003, 8.647808e+001
1.160894e+003, 8.586697e+001
1.161376e+003, 8.535561e+001
1.161858e+003, 8.530312e+001
1.162340e+003, 8.547452e+001
1.162822e+003, 8.533788e+001
1.163305e+003, 8.485216e+001
1.163787e+003, 8.448433e+001
1.164269e+003, 8.420306e+001
1.164751e+003, 8.417014e+001
1.165233e+003, 8.452321e+001
1.165715e+003, 8.478934e+001
1.166197e+003, 8.474993e+001
1.166679e+003, 8.450060e+001
1.167161e+003, 8.410842e+001
1.167644e+003, 8.364841e+001
1.168126e+003, 8.343734e+001
1.168608e+003, 8.348174e+001
1.169090e+003, 8.362712e+001
1.169572e+003, 8.387508e+001
1.170054e+003, 8.385979e+001
1.170536e+003, 8.347636e+001
1.171018e+003, 8.304141e+001
1.171500e+003, 8.276228e+001
1.171983e+003, 8.262901e+001
1.172465e+003, 8.262891e+001
1.172947e+003, 8.275869e+001
1.173429e+003, 8.313964e+001
1.173911e+003, 8.363669e+001
1.174393e+003, 8.363905e+001
1.174875e+003, 8.318723e+001
1.175357e+003, 8.289314e+001
1.175840e+003, 8.297975e+001
1.176322e+003, 8.315942e+001
1.176804e+003, 8.318873e+001
1.177286e+003, 8.320602e+001
1.177768e+003, 8.344141e+001
1.178250e+003, 8.373153e+001
1.178732e+003, 8.386589e+001
1.179214e+003, 8.385396e+001
1.179697e+003, 8.368495e+001
1.180179e+003, 8.341897e+001
1.180661e+003, 8.329966e+001
1.181143e+003, 8.346416e+001
1.181625e+003, 8.347951e+001
1.182107e+003, 8.285917e+001
1.182589e+003, 8.227243e+001
1.183071e+003, 8.218701e+001
1.183553e+003, 8.231838e+001
1.184036e+003, 8.252288e+001
1.184518e+003, 8.267042e+001
1.185000e+003, 8.256723e+001
1.185482e+003, 8.219350e+001
1.185964e+003, 8.173489e+001
1.186446e+003, 8.102568e+001
1.186928e+003, 8.056975e+001
1.187410e+003, 8.067984e+001
1.187892e+003, 8.077417e+001
1.188375e+003, 8.063235e+001
1.188857e+003, 8.034465e+001
1.189339e+003, 7.993555e+001
1.189821e+003, 7.946983e+001
1.190303e+003, 7.915470e+001
1.190785e+003, 7.902763e+001
1.191267e+003, 7.883163e+001
1.191749e+003, 7.854475e+001
1.192232e+003, 7.822765e+001
1.192714e+003, 7.781400e+001
1.193196e+003, 7.763304e+001
1.193678e+003, 7.793569e+001
1.194160e+003, 7.828479e+001
1.194642e+003, 7.810620e+001
1.195124e+003, 7.757473e+001
1.195606e+003, 7.744163e+001
1.196089e+003, 7.768258e+001
1.196571e+003, 7.760088e+001
1.197053e+003, 7.718418e+001
1.197535e+003, 7.684253e+001
1.198017e+003, 7.668018e+001
1.198499e+003, 7.661829e+001
1.198981e+003, 7.661389e+001
1.199463e+003, 7.660750e+001
1.199945e+003, 7.652017e+001
1.200427e+003, 7.637652e+001
1.200910e+003, 7.620683e+001
1.201392e+003, 7.602566e+001
1.201874e+003, 7.584571e+001
1.202356e+003, 7.568581e+001
1.202838e+003, 7.563276e+001
1.203320e+003, 7.567793e+001
1.203802e+003, 7.560377e+001
1.204284e+003, 7.525654e+001
1.204767e+003, 7.483544e+001
1.205249e+003, 7.434506e+001
1.205731e+003, 7.400169e+001
1.206213e+003, 7.411852e+001
1.206695e+003, 7.439163e+001
1.207177e+003, 7.447370e+001
1.207659e+003, 7.438216e+001
1.208141e+003, 7.427781e+001
1.208624e+003, 7.419567e+001
1.209106e+003, 7.403855e+001
1.209588e+003, 7.372751e+001
1.210070e+003, 7.342448e+001
1.210552e+003, 7.307973e+001
1.211034e+003, 7.284654e+001
1.211516e+003, 7.288753e+001
1.211998e+003, 7.300005e+001
1.212480e+003, 7.295068e+001
1.212963e+003, 7.281139e+001
1.213445e+003, 7.289034e+001
1.213927e+003, 7.329454e+001
1.214409e+003, 7.334026e+001
1.214891e+003, 7.291557e+001
1.215373e+003, 7.252478e+001
1.215855e+003, 7.219140e+001
1.216337e+003, 7.235119e+001
1.216819e+003, 7.335786e+001
1.217302e+003, 7.428838e+001
1.217784e+003, 7.392222e+001
1.218266e+003, 7.273599e+001
1.218748e+003, 7.216389e+001
1.219230e+003, 7.211478e+001
1.219712e+003, 7.222407e+001
1.220194e+003, 7.241405e+001
1.220676e+003, 7.238984e+001
1.221159e+003, 7.212634e+001
1.221641e+003, 7.193899e+001
1.222123e+003, 7.200097e+001
1.222605e+003, 7.209578e+001
1.223087e+003, 7.200739e+001
1.223569e+003, 7.183350e+001
1.224051e+003, 7.157633e+001
1.224533e+003, 7.138442e+001
1.225016e+003, 7.160959e+001
1.225498e+003, 7.198975e+001
1.225980e+003, 7.186075e+001
1.226462e+003, 7.125182e+001
1.226944e+003, 7.107423e+001
1.227426e+003, 7.187237e+001
1.227908e+003, 7.244064e+001
1.228390e+003, 7.214133e+001
1.228872e+003, 7.182206e+001
1.229354e+003, 7.186025e+001
1.229837e+003, 7.199404e+001
1.230319e+003, 7.203848e+001
1.230801e+003, 7.202093e+001
1.231283e+003, 7.202859e+001
1.231765e+003, 7.205604e+001
1.232247e+003, 7.188137e+001
1.232729e+003, 7.137902e+001
1.233211e+003, 7.107738e+001
1.233694e+003, 7.105653e+001
1.234176e+003, 7.100602e+001
1.234658e+003, 7.079433e+001
1.235140e+003, 7.074293e+001
1.235622e+003, 7.113480e+001
1.236104e+003, 7.160915e+001
1.236586e+003, 7.148231e+001
1.237068e+003, 7.094141e+001
1.237551e+003, 7.080296e+001
1.238033e+003, 7.096839e+001
1.238515e+003, 7.096431e+001
1.238997e+003, 7.080157e+001
1.239479e+003, 7.083444e+001
1.239961e+003, 7.112669e+001
1.240443e+003, 7.131470e+001
1.240925e+003, 7.114322e+001
1.241407e+003, 7.092477e+001
1.241890e+003, 7.096232e+001
1.242372e+003, 7.109583e+001
1.242854e+003, 7.127197e+001
1.243336e+003, 7.136906e+001
1.243818e+003, 7.111926e+001
1.244300e+003, 7.072353e+001
1.244782e+003, 7.065591e+001
1.245264e+003, 7.096690e+001
1.245746e+003, 7.120856e+001
1.246229e+003, 7.128493e+001
1.246711e+003, 7.124732e+001
1.247193e+003, 7.088483e+001
1.247675e+003, 7.070974e+001
1.248157e+003, 7.100752e+001
1.248639e+003, 7.141848e+001
1.249121e+003, 7.177968e+001
1.249603e+003, 7.200066e+001
1.250085e+003, 7.186845e+001
1.250568e+003, 7.141473e+001
1.251050e+003, 7.120224e+001
1.251532e+003, 7.124760e+001
1.252014e+003, 7.136955e+001
1.252496e+003, 7.155796e+001
1.252978e+003, 7.173600e+001
1.253460e+003, 7.188027e+001
1.253942e+003, 7.194032e+001
1.254425e+003, 7.187668e+001
1.254907e+003, 7.176208e+001
1.255389e+003, 7.174753e+001
1.255871e+003, 7.171449e+001
1.256353e+003, 7.129063e+001
1.256835e+003, 7.076638e+001
1.257317e+003, 7.079835e+001
1.257799e+003, 7.118649e+001
1.258281e+003, 7.125373e+001
1.258764e+003, 7.094116e+001
1.259246e+003, 7.086024e+001
1.259728e+003, 7.133887e+001
1.260210e+003, 7.181239e+001
1.260692e+003, 7.206831e+001
1.261174e+003, 7.219199e+001
1.261656e+003, 7.206972e+001
1.262138e+003, 7.198862e+001
1.262620e+003, 7.230554e+001
1.263103e+003, 7.272520e+001
1.263585e+003, 7.274414e+001
1.264067e+003, 7.240827e+001
1.264549e+003, 7.210715e+001
1.265031e+003, 7.179836e+001
1.265513e+003, 7.168648e+001
1.265995e+003, 7.182865e+001
1.266477e+003, 7.189236e+001
1.266960e+003, 7.177943e+001
1.267442e+003, 7.177270e+001
1.267924e+003, 7.204538e+001
1.268406e+003, 7.236153e+001
1.268888e+003, 7.246076e+001
1.269370e+003, 7.236422e+001
1.269852e+003, 7.197340e+001
1.270334e+003, 7.149128e+001
1.270817e+003, 7.149294e+001
1.271299e+003, 7.184026e+001
1.271781e+003, 7.213144e+001
1.272263e+003, 7.228426e+001
1.272745e+003, 7.233515e+001
1.273227e+003, 7.229746e+001
1.273709e+003, 7.223509e+001
1.274191e+003, 7.220191e+001
1.274673e+003, 7.213258e+001
1.275156e+003, 7.186021e+001
1.275638e+003, 7.169166e+001
1.276120e+003, 7.196761e+001
1.276602e+003, 7.234945e+001
1.277084e+003, 7.242319e+001
1.277566e+003, 7.227257e+001
1.278048e+003, 7.220000e+001
1.278530e+003, 7.219353e+001
1.279012e+003, 7.244434e+001
1.279495e+003, 7.316348e+001
1.279977e+003, 7.327528e+001
1.280459e+003, 7.251950e+001
1.280941e+003, 7.195182e+001
1.281423e+003, 7.195226e+001
1.281905e+003, 7.223003e+001
1.282387e+003, 7.254624e+001
1.282869e+003, 7.306174e+001
1.283352e+003, 7.435256e+001
1.283834e+003, 7.587405e+001
1.284316e+003, 7.644943e+001
1.284798e+003, 7.608235e+001
##END=



