##NAMES=Pezzottaite
##RRUFFID=R060583
##IDEAL CHEMISTRY=CsLiBe_2_Al_2_Si_6_O_18_
##LOCALITY=Ambatovita, Mandrosonoro area, Fianarantsoa Province, Madagascar
##OWNER=RRUFF
##SOURCE=Michael Scott
##DESCRIPTION=Pink thin tabular hexagonal plate
##STATUS=The identification of this mineral has been confirmed by X-ray diffraction.
##URL=rruff.info/R060583
##MEASURED CHEMISTRY=(Cs_0.74_Na_0.10_Rb_0.03_Ca_0.03_K_0.02_)_Î£0.92_Li_1.08_Be_2_Al_2.05_Si_5.96_O_18_.   BeO and Li_2_O were added.
8.930109e+001, 0.000000e+000
8.978320e+001, 2.134494e+003
9.026532e+001, 2.121420e+003
9.074744e+001, 2.121097e+003
9.122955e+001, 2.137177e+003
9.171167e+001, 2.163524e+003
9.219379e+001, 2.195797e+003
9.267590e+001, 2.233585e+003
9.315802e+001, 2.264437e+003
9.364014e+001, 2.273910e+003
9.412225e+001, 2.268908e+003
9.460437e+001, 2.267770e+003
9.508649e+001, 2.276552e+003
9.556860e+001, 2.290426e+003
9.605072e+001, 2.300537e+003
9.653284e+001, 2.308595e+003
9.701495e+001, 2.316459e+003
9.749707e+001, 2.325114e+003
9.797919e+001, 2.334449e+003
9.846130e+001, 2.344694e+003
9.894342e+001, 2.355052e+003
9.942554e+001, 2.365808e+003
9.990765e+001, 2.382118e+003
1.003898e+002, 2.405683e+003
1.008719e+002, 2.431335e+003
1.013540e+002, 2.450783e+003
1.018361e+002, 2.462227e+003
1.023182e+002, 2.474994e+003
1.028004e+002, 2.492052e+003
1.032825e+002, 2.512594e+003
1.037646e+002, 2.539147e+003
1.042467e+002, 2.570646e+003
1.047288e+002, 2.608057e+003
1.052109e+002, 2.653102e+003
1.056931e+002, 2.702819e+003
1.061752e+002, 2.763892e+003
1.066573e+002, 2.839804e+003
1.071394e+002, 2.930249e+003
1.076215e+002, 3.033574e+003
1.081036e+002, 3.149276e+003
1.085858e+002, 3.276984e+003
1.090679e+002, 3.415702e+003
1.095500e+002, 3.556641e+003
1.100321e+002, 3.714409e+003
1.105142e+002, 3.895439e+003
1.109963e+002, 4.117445e+003
1.114785e+002, 4.342340e+003
1.119606e+002, 4.581623e+003
1.124427e+002, 4.833729e+003
1.129248e+002, 5.038519e+003
1.134069e+002, 5.210200e+003
1.138890e+002, 5.323252e+003
1.143712e+002, 5.358728e+003
1.148533e+002, 5.291311e+003
1.153354e+002, 5.167269e+003
1.158175e+002, 4.989487e+003
1.162996e+002, 4.752833e+003
1.167817e+002, 4.509554e+003
1.172639e+002, 4.259067e+003
1.177460e+002, 4.014711e+003
1.182281e+002, 3.793562e+003
1.187102e+002, 3.603006e+003
1.191923e+002, 3.435360e+003
1.196744e+002, 3.288652e+003
1.201566e+002, 3.162780e+003
1.206387e+002, 3.054420e+003
1.211208e+002, 2.964914e+003
1.216029e+002, 2.891839e+003
1.220850e+002, 2.831529e+003
1.225671e+002, 2.784571e+003
1.230493e+002, 2.748130e+003
1.235314e+002, 2.721170e+003
1.240135e+002, 2.706389e+003
1.244956e+002, 2.693482e+003
1.249777e+002, 2.672080e+003
1.254598e+002, 2.643843e+003
1.259420e+002, 2.615554e+003
1.264241e+002, 2.589702e+003
1.269062e+002, 2.566949e+003
1.273883e+002, 2.548571e+003
1.278704e+002, 2.534914e+003
1.283525e+002, 2.525575e+003
1.288347e+002, 2.521124e+003
1.293168e+002, 2.521366e+003
1.297989e+002, 2.523075e+003
1.302810e+002, 2.523369e+003
1.307631e+002, 2.522837e+003
1.312452e+002, 2.524056e+003
1.317274e+002, 2.528397e+003
1.322095e+002, 2.534597e+003
1.326916e+002, 2.538928e+003
1.331737e+002, 2.541184e+003
1.336558e+002, 2.543420e+003
1.341379e+002, 2.548544e+003
1.346201e+002, 2.556508e+003
1.351022e+002, 2.562927e+003
1.355843e+002, 2.566426e+003
1.360664e+002, 2.567239e+003
1.365485e+002, 2.566683e+003
1.370306e+002, 2.564547e+003
1.375128e+002, 2.561514e+003
1.379949e+002, 2.557298e+003
1.384770e+002, 2.550954e+003
1.389591e+002, 2.548156e+003
1.394412e+002, 2.552086e+003
1.399233e+002, 2.563417e+003
1.404055e+002, 2.571511e+003
1.408876e+002, 2.576366e+003
1.413697e+002, 2.577862e+003
1.418518e+002, 2.575473e+003
1.423339e+002, 2.568087e+003
1.428160e+002, 2.559284e+003
1.432982e+002, 2.549957e+003
1.437803e+002, 2.539602e+003
1.442624e+002, 2.530551e+003
1.447445e+002, 2.522786e+003
1.452266e+002, 2.516362e+003
1.457087e+002, 2.511911e+003
1.461909e+002, 2.511183e+003
1.466730e+002, 2.510163e+003
1.471551e+002, 2.507191e+003
1.476372e+002, 2.501003e+003
1.481193e+002, 2.495120e+003
1.486014e+002, 2.489604e+003
1.490836e+002, 2.484443e+003
1.495657e+002, 2.479307e+003
1.500478e+002, 2.474007e+003
1.505299e+002, 2.469011e+003
1.510120e+002, 2.464485e+003
1.514941e+002, 2.460993e+003
1.519763e+002, 2.457313e+003
1.524584e+002, 2.453626e+003
1.529405e+002, 2.449778e+003
1.534226e+002, 2.445002e+003
1.539047e+002, 2.436539e+003
1.543868e+002, 2.428854e+003
1.548690e+002, 2.424375e+003
1.553511e+002, 2.427758e+003
1.558332e+002, 2.429675e+003
1.563153e+002, 2.427960e+003
1.567974e+002, 2.423045e+003
1.572795e+002, 2.418497e+003
1.577617e+002, 2.414132e+003
1.582438e+002, 2.410949e+003
1.587259e+002, 2.409672e+003
1.592080e+002, 2.410787e+003
1.596901e+002, 2.413583e+003
1.601722e+002, 2.418277e+003
1.606544e+002, 2.424813e+003
1.611365e+002, 2.431887e+003
1.616186e+002, 2.438434e+003
1.621007e+002, 2.445508e+003
1.625828e+002, 2.454242e+003
1.630649e+002, 2.465543e+003
1.635471e+002, 2.478008e+003
1.640292e+002, 2.491264e+003
1.645113e+002, 2.505274e+003
1.649934e+002, 2.519344e+003
1.654755e+002, 2.532675e+003
1.659576e+002, 2.546001e+003
1.664398e+002, 2.560046e+003
1.669219e+002, 2.576958e+003
1.674040e+002, 2.593532e+003
1.678861e+002, 2.607049e+003
1.683682e+002, 2.617312e+003
1.688503e+002, 2.627166e+003
1.693325e+002, 2.638944e+003
1.698146e+002, 2.651534e+003
1.702967e+002, 2.662964e+003
1.707788e+002, 2.672148e+003
1.712609e+002, 2.680118e+003
1.717430e+002, 2.688015e+003
1.722252e+002, 2.696124e+003
1.727073e+002, 2.702801e+003
1.731894e+002, 2.708031e+003
1.736715e+002, 2.710940e+003
1.741536e+002, 2.709523e+003
1.746357e+002, 2.702243e+003
1.751179e+002, 2.690421e+003
1.756000e+002, 2.674666e+003
1.760821e+002, 2.654639e+003
1.765642e+002, 2.633686e+003
1.770463e+002, 2.614098e+003
1.775284e+002, 2.595999e+003
1.780106e+002, 2.580088e+003
1.784927e+002, 2.566941e+003
1.789748e+002, 2.556093e+003
1.794569e+002, 2.547142e+003
1.799390e+002, 2.540039e+003
1.804211e+002, 2.534603e+003
1.809033e+002, 2.530351e+003
1.813854e+002, 2.527410e+003
1.818675e+002, 2.526383e+003
1.823496e+002, 2.528994e+003
1.828317e+002, 2.533709e+003
1.833138e+002, 2.536737e+003
1.837960e+002, 2.537271e+003
1.842781e+002, 2.537119e+003
1.847602e+002, 2.538835e+003
1.852423e+002, 2.542267e+003
1.857244e+002, 2.546084e+003
1.862065e+002, 2.548590e+003
1.866887e+002, 2.550625e+003
1.871708e+002, 2.555586e+003
1.876529e+002, 2.564115e+003
1.881350e+002, 2.575001e+003
1.886171e+002, 2.585818e+003
1.890992e+002, 2.596694e+003
1.895814e+002, 2.609123e+003
1.900635e+002, 2.624470e+003
1.905456e+002, 2.642618e+003
1.910277e+002, 2.661357e+003
1.915098e+002, 2.680832e+003
1.919919e+002, 2.700400e+003
1.924741e+002, 2.719705e+003
1.929562e+002, 2.738885e+003
1.934383e+002, 2.753646e+003
1.939204e+002, 2.760688e+003
1.944025e+002, 2.760181e+003
1.948846e+002, 2.754874e+003
1.953668e+002, 2.744507e+003
1.958489e+002, 2.730128e+003
1.963310e+002, 2.713242e+003
1.968131e+002, 2.693457e+003
1.972952e+002, 2.674164e+003
1.977773e+002, 2.656738e+003
1.982595e+002, 2.641225e+003
1.987416e+002, 2.629311e+003
1.992237e+002, 2.621395e+003
1.997058e+002, 2.617182e+003
2.001879e+002, 2.616203e+003
2.006700e+002, 2.618621e+003
2.011522e+002, 2.623625e+003
2.016343e+002, 2.631221e+003
2.021164e+002, 2.641661e+003
2.025985e+002, 2.652736e+003
2.030806e+002, 2.665182e+003
2.035627e+002, 2.677465e+003
2.040449e+002, 2.684178e+003
2.045270e+002, 2.684585e+003
2.050091e+002, 2.681775e+003
2.054912e+002, 2.677358e+003
2.059733e+002, 2.671084e+003
2.064554e+002, 2.664496e+003
2.069376e+002, 2.657353e+003
2.074197e+002, 2.650153e+003
2.079018e+002, 2.644117e+003
2.083839e+002, 2.638668e+003
2.088660e+002, 2.635895e+003
2.093481e+002, 2.637449e+003
2.098303e+002, 2.643811e+003
2.103124e+002, 2.652368e+003
2.107945e+002, 2.662588e+003
2.112766e+002, 2.674849e+003
2.117587e+002, 2.691592e+003
2.122408e+002, 2.714264e+003
2.127230e+002, 2.738523e+003
2.132051e+002, 2.762311e+003
2.136872e+002, 2.786289e+003
2.141693e+002, 2.807480e+003
2.146514e+002, 2.825266e+003
2.151335e+002, 2.839914e+003
2.156157e+002, 2.852498e+003
2.160978e+002, 2.864399e+003
2.165799e+002, 2.871709e+003
2.170620e+002, 2.871929e+003
2.175441e+002, 2.864381e+003
2.180262e+002, 2.851083e+003
2.185084e+002, 2.830530e+003
2.189905e+002, 2.804013e+003
2.194726e+002, 2.778699e+003
2.199547e+002, 2.752919e+003
2.204368e+002, 2.730522e+003
2.209189e+002, 2.714507e+003
2.214011e+002, 2.706312e+003
2.218832e+002, 2.700463e+003
2.223653e+002, 2.696184e+003
2.228474e+002, 2.693931e+003
2.233295e+002, 2.695742e+003
2.238116e+002, 2.702379e+003
2.242938e+002, 2.711803e+003
2.247759e+002, 2.722769e+003
2.252580e+002, 2.734707e+003
2.257401e+002, 2.749369e+003
2.262222e+002, 2.767309e+003
2.267043e+002, 2.788015e+003
2.271865e+002, 2.810337e+003
2.276686e+002, 2.833685e+003
2.281507e+002, 2.858798e+003
2.286328e+002, 2.886058e+003
2.291149e+002, 2.916315e+003
2.295970e+002, 2.946998e+003
2.300792e+002, 2.980363e+003
2.305613e+002, 3.014046e+003
2.310434e+002, 3.038191e+003
2.315255e+002, 3.054067e+003
2.320076e+002, 3.058416e+003
2.324897e+002, 3.048328e+003
2.329719e+002, 3.018831e+003
2.334540e+002, 2.985911e+003
2.339361e+002, 2.947365e+003
2.344182e+002, 2.905888e+003
2.349003e+002, 2.870039e+003
2.353824e+002, 2.839733e+003
2.358646e+002, 2.815158e+003
2.363467e+002, 2.796623e+003
2.368288e+002, 2.785198e+003
2.373109e+002, 2.777427e+003
2.377930e+002, 2.773590e+003
2.382751e+002, 2.773211e+003
2.387573e+002, 2.774910e+003
2.392394e+002, 2.778010e+003
2.397215e+002, 2.784066e+003
2.402036e+002, 2.793563e+003
2.406857e+002, 2.805643e+003
2.411678e+002, 2.823057e+003
2.416500e+002, 2.846355e+003
2.421321e+002, 2.874664e+003
2.426142e+002, 2.906297e+003
2.430963e+002, 2.940467e+003
2.435784e+002, 2.979017e+003
2.440605e+002, 3.023402e+003
2.445427e+002, 3.078235e+003
2.450248e+002, 3.128589e+003
2.455069e+002, 3.178871e+003
2.459890e+002, 3.223079e+003
2.464711e+002, 3.247797e+003
2.469532e+002, 3.252479e+003
2.474354e+002, 3.239032e+003
2.479175e+002, 3.205724e+003
2.483996e+002, 3.145484e+003
2.488817e+002, 3.087511e+003
2.493638e+002, 3.030018e+003
2.498459e+002, 2.975852e+003
2.503281e+002, 2.930836e+003
2.508102e+002, 2.898346e+003
2.512923e+002, 2.869090e+003
2.517744e+002, 2.839393e+003
2.522565e+002, 2.808558e+003
2.527386e+002, 2.781330e+003
2.532208e+002, 2.757420e+003
2.537029e+002, 2.737354e+003
2.541850e+002, 2.721783e+003
2.546671e+002, 2.711678e+003
2.551492e+002, 2.704089e+003
2.556313e+002, 2.698359e+003
2.561135e+002, 2.694574e+003
2.565956e+002, 2.691741e+003
2.570777e+002, 2.689315e+003
2.575598e+002, 2.688288e+003
2.580419e+002, 2.690092e+003
2.585240e+002, 2.695084e+003
2.590062e+002, 2.701937e+003
2.594883e+002, 2.710414e+003
2.599704e+002, 2.720351e+003
2.604525e+002, 2.731747e+003
2.609346e+002, 2.744105e+003
2.614167e+002, 2.758365e+003
2.618989e+002, 2.775743e+003
2.623810e+002, 2.796528e+003
2.628631e+002, 2.819482e+003
2.633452e+002, 2.844746e+003
2.638273e+002, 2.872665e+003
2.643094e+002, 2.900568e+003
2.647916e+002, 2.932551e+003
2.652737e+002, 2.958928e+003
2.657558e+002, 2.970067e+003
2.662379e+002, 2.963371e+003
2.667200e+002, 2.949461e+003
2.672021e+002, 2.928978e+003
2.676843e+002, 2.902491e+003
2.681664e+002, 2.873906e+003
2.686485e+002, 2.841337e+003
2.691306e+002, 2.810618e+003
2.696127e+002, 2.787411e+003
2.700948e+002, 2.772913e+003
2.705770e+002, 2.760482e+003
2.710591e+002, 2.748648e+003
2.715412e+002, 2.738129e+003
2.720233e+002, 2.733175e+003
2.725054e+002, 2.735426e+003
2.729875e+002, 2.738875e+003
2.734697e+002, 2.739401e+003
2.739518e+002, 2.736739e+003
2.744339e+002, 2.732635e+003
2.749160e+002, 2.726871e+003
2.753981e+002, 2.720082e+003
2.758802e+002, 2.713997e+003
2.763624e+002, 2.708779e+003
2.768445e+002, 2.704074e+003
2.773266e+002, 2.699400e+003
2.778087e+002, 2.694665e+003
2.782908e+002, 2.691695e+003
2.787729e+002, 2.690912e+003
2.792551e+002, 2.691691e+003
2.797372e+002, 2.692950e+003
2.802193e+002, 2.694841e+003
2.807014e+002, 2.696328e+003
2.811835e+002, 2.696779e+003
2.816656e+002, 2.696211e+003
2.821478e+002, 2.695370e+003
2.826299e+002, 2.694144e+003
2.831120e+002, 2.692946e+003
2.835941e+002, 2.692239e+003
2.840762e+002, 2.691994e+003
2.845583e+002, 2.692857e+003
2.850405e+002, 2.695364e+003
2.855226e+002, 2.699383e+003
2.860047e+002, 2.703669e+003
2.864868e+002, 2.708165e+003
2.869689e+002, 2.713083e+003
2.874510e+002, 2.718756e+003
2.879332e+002, 2.725159e+003
2.884153e+002, 2.732030e+003
2.888974e+002, 2.739101e+003
2.893795e+002, 2.746461e+003
2.898616e+002, 2.754545e+003
2.903438e+002, 2.763488e+003
2.908259e+002, 2.772174e+003
2.913080e+002, 2.779180e+003
2.917901e+002, 2.784680e+003
2.922722e+002, 2.790315e+003
2.927543e+002, 2.797708e+003
2.932365e+002, 2.805014e+003
2.937186e+002, 2.807479e+003
2.942007e+002, 2.805042e+003
2.946828e+002, 2.800227e+003
2.951649e+002, 2.794423e+003
2.956470e+002, 2.787943e+003
2.961292e+002, 2.781460e+003
2.966113e+002, 2.774724e+003
2.970934e+002, 2.768667e+003
2.975755e+002, 2.764750e+003
2.980576e+002, 2.762906e+003
2.985397e+002, 2.762462e+003
2.990219e+002, 2.762561e+003
2.995040e+002, 2.763730e+003
2.999861e+002, 2.767206e+003
3.004682e+002, 2.773553e+003
3.009503e+002, 2.781642e+003
3.014324e+002, 2.790265e+003
3.019146e+002, 2.799500e+003
3.023967e+002, 2.809979e+003
3.028788e+002, 2.822197e+003
3.033609e+002, 2.835831e+003
3.038430e+002, 2.850717e+003
3.043251e+002, 2.867366e+003
3.048073e+002, 2.883194e+003
3.052894e+002, 2.896015e+003
3.057715e+002, 2.906177e+003
3.062536e+002, 2.914915e+003
3.067357e+002, 2.923452e+003
3.072178e+002, 2.930393e+003
3.077000e+002, 2.934103e+003
3.081821e+002, 2.934334e+003
3.086642e+002, 2.932073e+003
3.091463e+002, 2.926317e+003
3.096284e+002, 2.918792e+003
3.101105e+002, 2.912126e+003
3.105927e+002, 2.908319e+003
3.110748e+002, 2.905200e+003
3.115569e+002, 2.900765e+003
3.120390e+002, 2.895013e+003
3.125211e+002, 2.890393e+003
3.130032e+002, 2.888302e+003
3.134854e+002, 2.888044e+003
3.139675e+002, 2.888913e+003
3.144496e+002, 2.890843e+003
3.149317e+002, 2.893758e+003
3.154138e+002, 2.897505e+003
3.158959e+002, 2.902191e+003
3.163781e+002, 2.908379e+003
3.168602e+002, 2.916567e+003
3.173423e+002, 2.926184e+003
3.178244e+002, 2.936793e+003
3.183065e+002, 2.948139e+003
3.187886e+002, 2.960694e+003
3.192708e+002, 2.973453e+003
3.197529e+002, 2.987311e+003
3.202350e+002, 3.004866e+003
3.207171e+002, 3.028371e+003
3.211992e+002, 3.054397e+003
3.216813e+002, 3.080864e+003
3.221635e+002, 3.105895e+003
3.226456e+002, 3.134946e+003
3.231277e+002, 3.170459e+003
3.236098e+002, 3.210370e+003
3.240919e+002, 3.251414e+003
3.245740e+002, 3.293061e+003
3.250562e+002, 3.335230e+003
3.255383e+002, 3.380807e+003
3.260204e+002, 3.434310e+003
3.265025e+002, 3.472968e+003
3.269846e+002, 3.496803e+003
3.274667e+002, 3.504458e+003
3.279489e+002, 3.494784e+003
3.284310e+002, 3.462596e+003
3.289131e+002, 3.419060e+003
3.293952e+002, 3.361945e+003
3.298773e+002, 3.290873e+003
3.303594e+002, 3.222865e+003
3.308416e+002, 3.155709e+003
3.313237e+002, 3.094221e+003
3.318058e+002, 3.042114e+003
3.322879e+002, 3.001107e+003
3.327700e+002, 2.966486e+003
3.332521e+002, 2.938482e+003
3.337343e+002, 2.916291e+003
3.342164e+002, 2.895909e+003
3.346985e+002, 2.876704e+003
3.351806e+002, 2.860557e+003
3.356627e+002, 2.848973e+003
3.361448e+002, 2.843624e+003
3.366270e+002, 2.837874e+003
3.371091e+002, 2.831188e+003
3.375912e+002, 2.824362e+003
3.380733e+002, 2.818896e+003
3.385554e+002, 2.814929e+003
3.390375e+002, 2.812071e+003
3.395197e+002, 2.810039e+003
3.400018e+002, 2.808807e+003
3.404839e+002, 2.809645e+003
3.409660e+002, 2.812975e+003
3.414481e+002, 2.817408e+003
3.419302e+002, 2.821628e+003
3.424124e+002, 2.825771e+003
3.428945e+002, 2.828014e+003
3.433766e+002, 2.827043e+003
3.438587e+002, 2.823764e+003
3.443408e+002, 2.822562e+003
3.448229e+002, 2.823674e+003
3.453051e+002, 2.825240e+003
3.457872e+002, 2.825644e+003
3.462693e+002, 2.825005e+003
3.467514e+002, 2.824053e+003
3.472335e+002, 2.822872e+003
3.477156e+002, 2.821590e+003
3.481978e+002, 2.820318e+003
3.486799e+002, 2.819111e+003
3.491620e+002, 2.818362e+003
3.496441e+002, 2.818523e+003
3.501262e+002, 2.819365e+003
3.506083e+002, 2.820343e+003
3.510905e+002, 2.821433e+003
3.515726e+002, 2.822587e+003
3.520547e+002, 2.823028e+003
3.525368e+002, 2.823332e+003
3.530189e+002, 2.825251e+003
3.535010e+002, 2.830577e+003
3.539832e+002, 2.837556e+003
3.544653e+002, 2.844419e+003
3.549474e+002, 2.851162e+003
3.554295e+002, 2.857077e+003
3.559116e+002, 2.860365e+003
3.563937e+002, 2.862739e+003
3.568759e+002, 2.866726e+003
3.573580e+002, 2.874897e+003
3.578401e+002, 2.883646e+003
3.583222e+002, 2.890675e+003
3.588043e+002, 2.896176e+003
3.592864e+002, 2.900882e+003
3.597686e+002, 2.905308e+003
3.602507e+002, 2.909076e+003
3.607328e+002, 2.911799e+003
3.612149e+002, 2.913248e+003
3.616970e+002, 2.913913e+003
3.621791e+002, 2.913776e+003
3.626613e+002, 2.912950e+003
3.631434e+002, 2.911726e+003
3.636255e+002, 2.909197e+003
3.641076e+002, 2.907030e+003
3.645897e+002, 2.905801e+003
3.650718e+002, 2.905387e+003
3.655540e+002, 2.906637e+003
3.660361e+002, 2.911700e+003
3.665182e+002, 2.917843e+003
3.670003e+002, 2.921797e+003
3.674824e+002, 2.920465e+003
3.679645e+002, 2.919778e+003
3.684467e+002, 2.921865e+003
3.689288e+002, 2.926958e+003
3.694109e+002, 2.929560e+003
3.698930e+002, 2.927565e+003
3.703751e+002, 2.924799e+003
3.708572e+002, 2.923968e+003
3.713394e+002, 2.927392e+003
3.718215e+002, 2.928886e+003
3.723036e+002, 2.927330e+003
3.727857e+002, 2.923541e+003
3.732678e+002, 2.920447e+003
3.737499e+002, 2.918316e+003
3.742321e+002, 2.916274e+003
3.747142e+002, 2.914005e+003
3.751963e+002, 2.911557e+003
3.756784e+002, 2.908366e+003
3.761605e+002, 2.904058e+003
3.766426e+002, 2.899443e+003
3.771248e+002, 2.895807e+003
3.776069e+002, 2.893098e+003
3.780890e+002, 2.891364e+003
3.785711e+002, 2.890856e+003
3.790532e+002, 2.891418e+003
3.795353e+002, 2.891864e+003
3.800175e+002, 2.892136e+003
3.804996e+002, 2.892675e+003
3.809817e+002, 2.893784e+003
3.814638e+002, 2.895481e+003
3.819459e+002, 2.898035e+003
3.824280e+002, 2.901659e+003
3.829102e+002, 2.905905e+003
3.833923e+002, 2.909556e+003
3.838744e+002, 2.912743e+003
3.843565e+002, 2.916694e+003
3.848386e+002, 2.922367e+003
3.853207e+002, 2.929304e+003
3.858029e+002, 2.936431e+003
3.862850e+002, 2.943690e+003
3.867671e+002, 2.951201e+003
3.872492e+002, 2.959768e+003
3.877313e+002, 2.968766e+003
3.882134e+002, 2.976601e+003
3.886956e+002, 2.982235e+003
3.891777e+002, 2.986534e+003
3.896598e+002, 2.989880e+003
3.901419e+002, 2.992370e+003
3.906240e+002, 2.995149e+003
3.911061e+002, 2.998428e+003
3.915883e+002, 3.002660e+003
3.920704e+002, 3.008433e+003
3.925525e+002, 3.017086e+003
3.930346e+002, 3.025741e+003
3.935167e+002, 3.034043e+003
3.939988e+002, 3.041549e+003
3.944810e+002, 3.047103e+003
3.949631e+002, 3.049745e+003
3.954452e+002, 3.050777e+003
3.959273e+002, 3.050496e+003
3.964094e+002, 3.048291e+003
3.968915e+002, 3.046822e+003
3.973737e+002, 3.046283e+003
3.978558e+002, 3.046789e+003
3.983379e+002, 3.048485e+003
3.988200e+002, 3.051522e+003
3.993021e+002, 3.055522e+003
3.997842e+002, 3.060313e+003
4.002664e+002, 3.065863e+003
4.007485e+002, 3.072645e+003
4.012306e+002, 3.081435e+003
4.017127e+002, 3.090530e+003
4.021948e+002, 3.099024e+003
4.026769e+002, 3.107647e+003
4.031591e+002, 3.114140e+003
4.036412e+002, 3.118983e+003
4.041233e+002, 3.121312e+003
4.046054e+002, 3.118507e+003
4.050875e+002, 3.109341e+003
4.055696e+002, 3.098790e+003
4.060518e+002, 3.088772e+003
4.065339e+002, 3.079342e+003
4.070160e+002, 3.069572e+003
4.074981e+002, 3.059615e+003
4.079802e+002, 3.049325e+003
4.084623e+002, 3.038124e+003
4.089445e+002, 3.026041e+003
4.094266e+002, 3.015021e+003
4.099087e+002, 3.005254e+003
4.103908e+002, 2.997202e+003
4.108729e+002, 2.992590e+003
4.113550e+002, 2.991359e+003
4.118372e+002, 2.991227e+003
4.123193e+002, 2.990484e+003
4.128014e+002, 2.989621e+003
4.132835e+002, 2.989643e+003
4.137656e+002, 2.990578e+003
4.142477e+002, 2.992720e+003
4.147299e+002, 2.996072e+003
4.152120e+002, 3.000810e+003
4.156941e+002, 3.007301e+003
4.161762e+002, 3.018009e+003
4.166583e+002, 3.029025e+003
4.171404e+002, 3.037497e+003
4.176226e+002, 3.043317e+003
4.181047e+002, 3.045700e+003
4.185868e+002, 3.042322e+003
4.190689e+002, 3.036152e+003
4.195510e+002, 3.029876e+003
4.200331e+002, 3.023534e+003
4.205153e+002, 3.018131e+003
4.209974e+002, 3.014420e+003
4.214795e+002, 3.012041e+003
4.219616e+002, 3.010215e+003
4.224437e+002, 3.008609e+003
4.229258e+002, 3.007696e+003
4.234080e+002, 3.007890e+003
4.238901e+002, 3.009647e+003
4.243722e+002, 3.011172e+003
4.248543e+002, 3.012168e+003
4.253364e+002, 3.013047e+003
4.258185e+002, 3.014136e+003
4.263007e+002, 3.014731e+003
4.267828e+002, 3.016710e+003
4.272649e+002, 3.021103e+003
4.277470e+002, 3.027334e+003
4.282291e+002, 3.031547e+003
4.287112e+002, 3.032531e+003
4.291934e+002, 3.033491e+003
4.296755e+002, 3.036392e+003
4.301576e+002, 3.041672e+003
4.306397e+002, 3.046102e+003
4.311218e+002, 3.048864e+003
4.316039e+002, 3.051849e+003
4.320861e+002, 3.058753e+003
4.325682e+002, 3.069859e+003
4.330503e+002, 3.080656e+003
4.335324e+002, 3.089762e+003
4.340145e+002, 3.097432e+003
4.344966e+002, 3.104815e+003
4.349788e+002, 3.111980e+003
4.354609e+002, 3.117624e+003
4.359430e+002, 3.119673e+003
4.364251e+002, 3.119365e+003
4.369072e+002, 3.120220e+003
4.373893e+002, 3.123183e+003
4.378715e+002, 3.126743e+003
4.383536e+002, 3.129351e+003
4.388357e+002, 3.131174e+003
4.393178e+002, 3.132667e+003
4.397999e+002, 3.132514e+003
4.402820e+002, 3.133064e+003
4.407642e+002, 3.137498e+003
4.412463e+002, 3.145991e+003
4.417284e+002, 3.153052e+003
4.422105e+002, 3.153355e+003
4.426926e+002, 3.151830e+003
4.431747e+002, 3.153246e+003
4.436569e+002, 3.160550e+003
4.441390e+002, 3.168908e+003
4.446211e+002, 3.176789e+003
4.451032e+002, 3.184580e+003
4.455853e+002, 3.193173e+003
4.460674e+002, 3.202394e+003
4.465496e+002, 3.212875e+003
4.470317e+002, 3.224971e+003
4.475138e+002, 3.239089e+003
4.479959e+002, 3.253996e+003
4.484780e+002, 3.270156e+003
4.489601e+002, 3.287013e+003
4.494423e+002, 3.304234e+003
4.499244e+002, 3.321311e+003
4.504065e+002, 3.339615e+003
4.508886e+002, 3.359545e+003
4.513707e+002, 3.380786e+003
4.518528e+002, 3.403279e+003
4.523350e+002, 3.428035e+003
4.528171e+002, 3.451203e+003
4.532992e+002, 3.470333e+003
4.537813e+002, 3.485383e+003
4.542634e+002, 3.501750e+003
4.547455e+002, 3.519917e+003
4.552277e+002, 3.538391e+003
4.557098e+002, 3.556935e+003
4.561919e+002, 3.574838e+003
4.566740e+002, 3.588825e+003
4.571561e+002, 3.598047e+003
4.576382e+002, 3.602169e+003
4.581204e+002, 3.601355e+003
4.586025e+002, 3.595242e+003
4.590846e+002, 3.581204e+003
4.595667e+002, 3.553720e+003
4.600488e+002, 3.518648e+003
4.605309e+002, 3.482651e+003
4.610131e+002, 3.446335e+003
4.614952e+002, 3.411469e+003
4.619773e+002, 3.378154e+003
4.624594e+002, 3.347825e+003
4.629415e+002, 3.322156e+003
4.634236e+002, 3.304306e+003
4.639058e+002, 3.289306e+003
4.643879e+002, 3.274960e+003
4.648700e+002, 3.261491e+003
4.653521e+002, 3.249769e+003
4.658342e+002, 3.240087e+003
4.663163e+002, 3.232000e+003
4.667985e+002, 3.225132e+003
4.672806e+002, 3.218634e+003
4.677627e+002, 3.214955e+003
4.682448e+002, 3.215402e+003
4.687269e+002, 3.218139e+003
4.692090e+002, 3.220703e+003
4.696912e+002, 3.223393e+003
4.701733e+002, 3.225308e+003
4.706554e+002, 3.225689e+003
4.711375e+002, 3.224864e+003
4.716196e+002, 3.226341e+003
4.721017e+002, 3.230774e+003
4.725839e+002, 3.235655e+003
4.730660e+002, 3.239564e+003
4.735481e+002, 3.242484e+003
4.740302e+002, 3.244359e+003
4.745123e+002, 3.244899e+003
4.749944e+002, 3.245281e+003
4.754766e+002, 3.247396e+003
4.759587e+002, 3.251060e+003
4.764408e+002, 3.254911e+003
4.769229e+002, 3.258233e+003
4.774050e+002, 3.261562e+003
4.778871e+002, 3.266015e+003
4.783693e+002, 3.271494e+003
4.788514e+002, 3.276824e+003
4.793335e+002, 3.280067e+003
4.798156e+002, 3.283202e+003
4.802977e+002, 3.288563e+003
4.807798e+002, 3.296698e+003
4.812620e+002, 3.306426e+003
4.817441e+002, 3.318247e+003
4.822262e+002, 3.330895e+003
4.827083e+002, 3.342511e+003
4.831904e+002, 3.351083e+003
4.836725e+002, 3.359809e+003
4.841547e+002, 3.370719e+003
4.846368e+002, 3.383429e+003
4.851189e+002, 3.393436e+003
4.856010e+002, 3.400629e+003
4.860831e+002, 3.404429e+003
4.865652e+002, 3.404231e+003
4.870474e+002, 3.397312e+003
4.875295e+002, 3.392162e+003
4.880116e+002, 3.389158e+003
4.884937e+002, 3.387696e+003
4.889758e+002, 3.387063e+003
4.894579e+002, 3.387506e+003
4.899401e+002, 3.387949e+003
4.904222e+002, 3.387732e+003
4.909043e+002, 3.387366e+003
4.913864e+002, 3.389696e+003
4.918685e+002, 3.395086e+003
4.923506e+002, 3.400762e+003
4.928328e+002, 3.404703e+003
4.933149e+002, 3.407281e+003
4.937970e+002, 3.410195e+003
4.942791e+002, 3.413580e+003
4.947612e+002, 3.417430e+003
4.952433e+002, 3.422617e+003
4.957255e+002, 3.428372e+003
4.962076e+002, 3.432853e+003
4.966897e+002, 3.436367e+003
4.971718e+002, 3.437435e+003
4.976539e+002, 3.434234e+003
4.981360e+002, 3.427253e+003
4.986182e+002, 3.418200e+003
4.991003e+002, 3.405854e+003
4.995824e+002, 3.393225e+003
5.000645e+002, 3.382776e+003
5.005466e+002, 3.374946e+003
5.010287e+002, 3.367678e+003
5.015109e+002, 3.360012e+003
5.019930e+002, 3.352707e+003
5.024751e+002, 3.346622e+003
5.029572e+002, 3.342062e+003
5.034393e+002, 3.338457e+003
5.039214e+002, 3.335700e+003
5.044036e+002, 3.333854e+003
5.048857e+002, 3.333091e+003
5.053678e+002, 3.333552e+003
5.058499e+002, 3.334872e+003
5.063320e+002, 3.337073e+003
5.068141e+002, 3.340237e+003
5.072963e+002, 3.343354e+003
5.077784e+002, 3.346493e+003
5.082605e+002, 3.349536e+003
5.087426e+002, 3.352292e+003
5.092247e+002, 3.354792e+003
5.097068e+002, 3.357579e+003
5.101890e+002, 3.360758e+003
5.106711e+002, 3.364207e+003
5.111532e+002, 3.367690e+003
5.116353e+002, 3.371216e+003
5.121174e+002, 3.374783e+003
5.125995e+002, 3.378406e+003
5.130817e+002, 3.382071e+003
5.135638e+002, 3.385645e+003
5.140459e+002, 3.389144e+003
5.145280e+002, 3.393007e+003
5.150101e+002, 3.397637e+003
5.154922e+002, 3.402743e+003
5.159744e+002, 3.407896e+003
5.164565e+002, 3.412501e+003
5.169386e+002, 3.418303e+003
5.174207e+002, 3.426596e+003
5.179028e+002, 3.436346e+003
5.183849e+002, 3.445831e+003
5.188671e+002, 3.453781e+003
5.193492e+002, 3.462548e+003
5.198313e+002, 3.473113e+003
5.203134e+002, 3.485219e+003
5.207955e+002, 3.496514e+003
5.212776e+002, 3.506425e+003
5.217598e+002, 3.516351e+003
5.222419e+002, 3.527314e+003
5.227240e+002, 3.539925e+003
5.232061e+002, 3.550642e+003
5.236882e+002, 3.559652e+003
5.241703e+002, 3.566266e+003
5.246525e+002, 3.569283e+003
5.251346e+002, 3.568862e+003
5.256167e+002, 3.567046e+003
5.260988e+002, 3.564871e+003
5.265809e+002, 3.561166e+003
5.270630e+002, 3.553168e+003
5.275452e+002, 3.541394e+003
5.280273e+002, 3.528576e+003
5.285094e+002, 3.514931e+003
5.289915e+002, 3.501807e+003
5.294736e+002, 3.490267e+003
5.299557e+002, 3.480322e+003
5.304379e+002, 3.472636e+003
5.309200e+002, 3.468984e+003
5.314021e+002, 3.466957e+003
5.318842e+002, 3.464092e+003
5.323663e+002, 3.458327e+003
5.328484e+002, 3.453677e+003
5.333306e+002, 3.451668e+003
5.338127e+002, 3.451376e+003
5.342948e+002, 3.450939e+003
5.347769e+002, 3.449409e+003
5.352590e+002, 3.448645e+003
5.357411e+002, 3.449309e+003
5.362233e+002, 3.451371e+003
5.367054e+002, 3.453187e+003
5.371875e+002, 3.454758e+003
5.376696e+002, 3.456190e+003
5.381517e+002, 3.457135e+003
5.386339e+002, 3.457431e+003
5.391160e+002, 3.460381e+003
5.395981e+002, 3.466995e+003
5.400802e+002, 3.473971e+003
5.405623e+002, 3.476124e+003
5.410444e+002, 3.474395e+003
5.415266e+002, 3.474198e+003
5.420087e+002, 3.477373e+003
5.424908e+002, 3.482690e+003
5.429729e+002, 3.489378e+003
5.434550e+002, 3.496891e+003
5.439371e+002, 3.503328e+003
5.444193e+002, 3.506534e+003
5.449014e+002, 3.508938e+003
5.453835e+002, 3.513332e+003
5.458656e+002, 3.520133e+003
5.463477e+002, 3.524565e+003
5.468298e+002, 3.522527e+003
5.473120e+002, 3.518501e+003
5.477941e+002, 3.516241e+003
5.482762e+002, 3.519258e+003
5.487583e+002, 3.519975e+003
5.492404e+002, 3.516505e+003
5.497225e+002, 3.510782e+003
5.502047e+002, 3.506016e+003
5.506868e+002, 3.502423e+003
5.511689e+002, 3.499328e+003
5.516510e+002, 3.496494e+003
5.521331e+002, 3.494033e+003
5.526152e+002, 3.492842e+003
5.530974e+002, 3.493074e+003
5.535795e+002, 3.494039e+003
5.540616e+002, 3.495141e+003
5.545437e+002, 3.496593e+003
5.550258e+002, 3.499566e+003
5.555079e+002, 3.504289e+003
5.559901e+002, 3.509837e+003
5.564722e+002, 3.515432e+003
5.569543e+002, 3.521193e+003
5.574364e+002, 3.527414e+003
5.579185e+002, 3.534642e+003
5.584006e+002, 3.541591e+003
5.588828e+002, 3.546850e+003
5.593649e+002, 3.551014e+003
5.598470e+002, 3.555628e+003
5.603291e+002, 3.563067e+003
5.608112e+002, 3.569325e+003
5.612933e+002, 3.571950e+003
5.617755e+002, 3.570773e+003
5.622576e+002, 3.570229e+003
5.627397e+002, 3.572530e+003
5.632218e+002, 3.574185e+003
5.637039e+002, 3.573453e+003
5.641860e+002, 3.569659e+003
5.646682e+002, 3.565184e+003
5.651503e+002, 3.559921e+003
5.656324e+002, 3.554159e+003
5.661145e+002, 3.548239e+003
5.665966e+002, 3.542128e+003
5.670787e+002, 3.536302e+003
5.675609e+002, 3.530906e+003
5.680430e+002, 3.525956e+003
5.685251e+002, 3.521661e+003
5.690072e+002, 3.517974e+003
5.694893e+002, 3.514585e+003
5.699714e+002, 3.511475e+003
5.704536e+002, 3.508451e+003
5.709357e+002, 3.505135e+003
5.714178e+002, 3.501542e+003
5.718999e+002, 3.497993e+003
5.723820e+002, 3.494110e+003
5.728641e+002, 3.490683e+003
5.733463e+002, 3.488493e+003
5.738284e+002, 3.487815e+003
5.743105e+002, 3.487808e+003
5.747926e+002, 3.488563e+003
5.752747e+002, 3.489679e+003
5.757568e+002, 3.490663e+003
5.762390e+002, 3.492248e+003
5.767211e+002, 3.492585e+003
5.772032e+002, 3.490917e+003
5.776853e+002, 3.487890e+003
5.781674e+002, 3.485752e+003
5.786495e+002, 3.484652e+003
5.791317e+002, 3.484117e+003
5.796138e+002, 3.484557e+003
5.800959e+002, 3.485634e+003
5.805780e+002, 3.483824e+003
5.810601e+002, 3.478868e+003
5.815422e+002, 3.473935e+003
5.820244e+002, 3.472862e+003
5.825065e+002, 3.473776e+003
5.829886e+002, 3.471384e+003
5.834707e+002, 3.464325e+003
5.839528e+002, 3.457458e+003
5.844349e+002, 3.455408e+003
5.849171e+002, 3.456279e+003
5.853992e+002, 3.457290e+003
5.858813e+002, 3.459178e+003
5.863634e+002, 3.459107e+003
5.868455e+002, 3.453454e+003
5.873276e+002, 3.444683e+003
5.878098e+002, 3.439821e+003
5.882919e+002, 3.443858e+003
5.887740e+002, 3.448242e+003
5.892561e+002, 3.450459e+003
5.897382e+002, 3.450455e+003
5.902203e+002, 3.450433e+003
5.907025e+002, 3.450270e+003
5.911846e+002, 3.450284e+003
5.916667e+002, 3.450881e+003
5.921488e+002, 3.452161e+003
5.926309e+002, 3.452715e+003
5.931130e+002, 3.452476e+003
5.935952e+002, 3.451723e+003
5.940773e+002, 3.450503e+003
5.945594e+002, 3.449020e+003
5.950415e+002, 3.448044e+003
5.955236e+002, 3.447912e+003
5.960057e+002, 3.448164e+003
5.964879e+002, 3.448346e+003
5.969700e+002, 3.448525e+003
5.974521e+002, 3.448828e+003
5.979342e+002, 3.449693e+003
5.984163e+002, 3.450360e+003
5.988984e+002, 3.450406e+003
5.993806e+002, 3.449845e+003
5.998627e+002, 3.448955e+003
6.003448e+002, 3.447002e+003
6.008269e+002, 3.445376e+003
6.013090e+002, 3.444670e+003
6.017911e+002, 3.444941e+003
6.022733e+002, 3.445842e+003
6.027554e+002, 3.447458e+003
6.032375e+002, 3.449562e+003
6.037196e+002, 3.452450e+003
6.042017e+002, 3.456438e+003
6.046838e+002, 3.457808e+003
6.051660e+002, 3.455409e+003
6.056481e+002, 3.451959e+003
6.061302e+002, 3.452710e+003
6.066123e+002, 3.456624e+003
6.070944e+002, 3.458681e+003
6.075765e+002, 3.455268e+003
6.080587e+002, 3.450834e+003
6.085408e+002, 3.451926e+003
6.090229e+002, 3.456754e+003
6.095050e+002, 3.458979e+003
6.099871e+002, 3.451552e+003
6.104692e+002, 3.443482e+003
6.109514e+002, 3.440627e+003
6.114335e+002, 3.443609e+003
6.119156e+002, 3.446289e+003
6.123977e+002, 3.448071e+003
6.128798e+002, 3.448636e+003
6.133619e+002, 3.447684e+003
6.138441e+002, 3.444286e+003
6.143262e+002, 3.441559e+003
6.148083e+002, 3.439493e+003
6.152904e+002, 3.438139e+003
6.157725e+002, 3.438033e+003
6.162546e+002, 3.439335e+003
6.167368e+002, 3.439429e+003
6.172189e+002, 3.437453e+003
6.177010e+002, 3.434721e+003
6.181831e+002, 3.433200e+003
6.186652e+002, 3.432900e+003
6.191473e+002, 3.433896e+003
6.196295e+002, 3.437919e+003
6.201116e+002, 3.442106e+003
6.205937e+002, 3.443371e+003
6.210758e+002, 3.442095e+003
6.215579e+002, 3.440238e+003
6.220400e+002, 3.437210e+003
6.225222e+002, 3.435110e+003
6.230043e+002, 3.435633e+003
6.234864e+002, 3.439556e+003
6.239685e+002, 3.442391e+003
6.244506e+002, 3.443380e+003
6.249327e+002, 3.443401e+003
6.254149e+002, 3.442683e+003
6.258970e+002, 3.440263e+003
6.263791e+002, 3.440127e+003
6.268612e+002, 3.442841e+003
6.273433e+002, 3.447126e+003
6.278254e+002, 3.452248e+003
6.283076e+002, 3.458036e+003
6.287897e+002, 3.460516e+003
6.292718e+002, 3.457580e+003
6.297539e+002, 3.452698e+003
6.302360e+002, 3.451155e+003
6.307181e+002, 3.452316e+003
6.312003e+002, 3.454204e+003
6.316824e+002, 3.456340e+003
6.321645e+002, 3.458444e+003
6.326466e+002, 3.460039e+003
6.331287e+002, 3.461291e+003
6.336108e+002, 3.463136e+003
6.340930e+002, 3.466835e+003
6.345751e+002, 3.470451e+003
6.350572e+002, 3.472866e+003
6.355393e+002, 3.473786e+003
6.360214e+002, 3.474822e+003
6.365035e+002, 3.475777e+003
6.369857e+002, 3.477061e+003
6.374678e+002, 3.479080e+003
6.379499e+002, 3.481946e+003
6.384320e+002, 3.484474e+003
6.389141e+002, 3.486387e+003
6.393962e+002, 3.488417e+003
6.398784e+002, 3.491953e+003
6.403605e+002, 3.496551e+003
6.408426e+002, 3.500376e+003
6.413247e+002, 3.502625e+003
6.418068e+002, 3.504416e+003
6.422889e+002, 3.506622e+003
6.427711e+002, 3.509341e+003
6.432532e+002, 3.512839e+003
6.437353e+002, 3.518297e+003
6.442174e+002, 3.523533e+003
6.446995e+002, 3.527563e+003
6.451816e+002, 3.530439e+003
6.456638e+002, 3.532815e+003
6.461459e+002, 3.533256e+003
6.466280e+002, 3.534819e+003
6.471101e+002, 3.539193e+003
6.475922e+002, 3.546617e+003
6.480743e+002, 3.551239e+003
6.485565e+002, 3.552041e+003
6.490386e+002, 3.552460e+003
6.495207e+002, 3.554973e+003
6.500028e+002, 3.559392e+003
6.504849e+002, 3.564932e+003
6.509670e+002, 3.571703e+003
6.514492e+002, 3.577907e+003
6.519313e+002, 3.580867e+003
6.524134e+002, 3.581958e+003
6.528955e+002, 3.583664e+003
6.533776e+002, 3.586562e+003
6.538597e+002, 3.590437e+003
6.543419e+002, 3.596738e+003
6.548240e+002, 3.603613e+003
6.553061e+002, 3.608109e+003
6.557882e+002, 3.606224e+003
6.562703e+002, 3.605687e+003
6.567524e+002, 3.608993e+003
6.572346e+002, 3.614971e+003
6.577167e+002, 3.619904e+003
6.581988e+002, 3.622665e+003
6.586809e+002, 3.627128e+003
6.591630e+002, 3.635112e+003
6.596451e+002, 3.645925e+003
6.601273e+002, 3.655449e+003
6.606094e+002, 3.663708e+003
6.610915e+002, 3.671780e+003
6.615736e+002, 3.679401e+003
6.620557e+002, 3.687655e+003
6.625378e+002, 3.699382e+003
6.630200e+002, 3.714664e+003
6.635021e+002, 3.730065e+003
6.639842e+002, 3.741242e+003
6.644663e+002, 3.752494e+003
6.649484e+002, 3.767893e+003
6.654305e+002, 3.789177e+003
6.659127e+002, 3.811809e+003
6.663948e+002, 3.834452e+003
6.668769e+002, 3.858173e+003
6.673590e+002, 3.883938e+003
6.678411e+002, 3.910824e+003
6.683232e+002, 3.941320e+003
6.688054e+002, 3.975402e+003
6.692875e+002, 4.013010e+003
6.697696e+002, 4.053240e+003
6.702517e+002, 4.096034e+003
6.707338e+002, 4.144708e+003
6.712159e+002, 4.200641e+003
6.716981e+002, 4.261529e+003
6.721802e+002, 4.322477e+003
6.726623e+002, 4.384151e+003
6.731444e+002, 4.451273e+003
6.736265e+002, 4.526917e+003
6.741086e+002, 4.607390e+003
6.745908e+002, 4.688594e+003
6.750729e+002, 4.770920e+003
6.755550e+002, 4.861594e+003
6.760371e+002, 4.962422e+003
6.765192e+002, 5.072546e+003
6.770013e+002, 5.192438e+003
6.774835e+002, 5.321936e+003
6.779656e+002, 5.465116e+003
6.784477e+002, 5.622602e+003
6.789298e+002, 5.794942e+003
6.794119e+002, 5.980349e+003
6.798940e+002, 6.181194e+003
6.803762e+002, 6.397201e+003
6.808583e+002, 6.632024e+003
6.813404e+002, 6.876206e+003
6.818225e+002, 7.128202e+003
6.823046e+002, 7.382960e+003
6.827867e+002, 7.641706e+003
6.832689e+002, 7.910296e+003
6.837510e+002, 8.155051e+003
6.842331e+002, 8.370118e+003
6.847152e+002, 8.536050e+003
6.851973e+002, 8.622696e+003
6.856794e+002, 8.625639e+003
6.861616e+002, 8.545830e+003
6.866437e+002, 8.362477e+003
6.871258e+002, 8.100962e+003
6.876079e+002, 7.797181e+003
6.880900e+002, 7.437678e+003
6.885721e+002, 7.079030e+003
6.890543e+002, 6.731087e+003
6.895364e+002, 6.400153e+003
6.900185e+002, 6.096771e+003
6.905006e+002, 5.822376e+003
6.909827e+002, 5.579624e+003
6.914648e+002, 5.371462e+003
6.919470e+002, 5.192990e+003
6.924291e+002, 5.033735e+003
6.929112e+002, 4.893342e+003
6.933933e+002, 4.770236e+003
6.938754e+002, 4.665998e+003
6.943575e+002, 4.575284e+003
6.948397e+002, 4.495849e+003
6.953218e+002, 4.427586e+003
6.958039e+002, 4.365609e+003
6.962860e+002, 4.309357e+003
6.967681e+002, 4.258629e+003
6.972502e+002, 4.213210e+003
6.977324e+002, 4.173812e+003
6.982145e+002, 4.137682e+003
6.986966e+002, 4.104861e+003
6.991787e+002, 4.075250e+003
6.996608e+002, 4.049021e+003
7.001429e+002, 4.026113e+003
7.006251e+002, 4.005309e+003
7.011072e+002, 3.986569e+003
7.015893e+002, 3.969110e+003
7.020714e+002, 3.951991e+003
7.025535e+002, 3.935647e+003
7.030356e+002, 3.920683e+003
7.035178e+002, 3.907532e+003
7.039999e+002, 3.895537e+003
7.044820e+002, 3.884512e+003
7.049641e+002, 3.874495e+003
7.054462e+002, 3.865412e+003
7.059283e+002, 3.857211e+003
7.064105e+002, 3.849986e+003
7.068926e+002, 3.844099e+003
7.073747e+002, 3.839007e+003
7.078568e+002, 3.833209e+003
7.083389e+002, 3.826603e+003
7.088210e+002, 3.820625e+003
7.093032e+002, 3.816043e+003
7.097853e+002, 3.812146e+003
7.102674e+002, 3.807230e+003
7.107495e+002, 3.801629e+003
7.112316e+002, 3.796878e+003
7.117137e+002, 3.794345e+003
7.121959e+002, 3.792526e+003
7.126780e+002, 3.790829e+003
7.131601e+002, 3.789050e+003
7.136422e+002, 3.786155e+003
7.141243e+002, 3.779487e+003
7.146064e+002, 3.773910e+003
7.150886e+002, 3.771730e+003
7.155707e+002, 3.773046e+003
7.160528e+002, 3.773621e+003
7.165349e+002, 3.773517e+003
7.170170e+002, 3.772572e+003
7.174991e+002, 3.770095e+003
7.179813e+002, 3.766443e+003
7.184634e+002, 3.764554e+003
7.189455e+002, 3.764588e+003
7.194276e+002, 3.764623e+003
7.199097e+002, 3.762639e+003
7.203918e+002, 3.759806e+003
7.208740e+002, 3.757792e+003
7.213561e+002, 3.756950e+003
7.218382e+002, 3.756056e+003
7.223203e+002, 3.754126e+003
7.228024e+002, 3.752060e+003
7.232845e+002, 3.750605e+003
7.237667e+002, 3.749608e+003
7.242488e+002, 3.749562e+003
7.247309e+002, 3.750736e+003
7.252130e+002, 3.752523e+003
7.256951e+002, 3.754448e+003
7.261772e+002, 3.756562e+003
7.266594e+002, 3.757992e+003
7.271415e+002, 3.758660e+003
7.276236e+002, 3.758419e+003
7.281057e+002, 3.756832e+003
7.285878e+002, 3.754167e+003
7.290699e+002, 3.750960e+003
7.295521e+002, 3.746589e+003
7.300342e+002, 3.743054e+003
7.305163e+002, 3.742594e+003
7.309984e+002, 3.743768e+003
7.314805e+002, 3.743994e+003
7.319626e+002, 3.741040e+003
7.324448e+002, 3.739048e+003
7.329269e+002, 3.738771e+003
7.334090e+002, 3.739920e+003
7.338911e+002, 3.741941e+003
7.343732e+002, 3.745117e+003
7.348553e+002, 3.747982e+003
7.353375e+002, 3.750240e+003
7.358196e+002, 3.751750e+003
7.363017e+002, 3.751490e+003
7.367838e+002, 3.749832e+003
7.372659e+002, 3.749041e+003
7.377480e+002, 3.751634e+003
7.382302e+002, 3.754697e+003
7.387123e+002, 3.754906e+003
7.391944e+002, 3.752899e+003
7.396765e+002, 3.752010e+003
7.401586e+002, 3.754056e+003
7.406407e+002, 3.756913e+003
7.411229e+002, 3.760521e+003
7.416050e+002, 3.764753e+003
7.420871e+002, 3.765406e+003
7.425692e+002, 3.760724e+003
7.430513e+002, 3.756645e+003
7.435334e+002, 3.756761e+003
7.440156e+002, 3.760505e+003
7.444977e+002, 3.763049e+003
7.449798e+002, 3.764416e+003
7.454619e+002, 3.765273e+003
7.459440e+002, 3.765461e+003
7.464261e+002, 3.765767e+003
7.469083e+002, 3.767676e+003
7.473904e+002, 3.771336e+003
7.478725e+002, 3.774000e+003
7.483546e+002, 3.773250e+003
7.488367e+002, 3.771793e+003
7.493188e+002, 3.771179e+003
7.498010e+002, 3.771202e+003
7.502831e+002, 3.773452e+003
7.507652e+002, 3.779640e+003
7.512473e+002, 3.785335e+003
7.517294e+002, 3.786522e+003
7.522115e+002, 3.783260e+003
7.526937e+002, 3.781035e+003
7.531758e+002, 3.780311e+003
7.536579e+002, 3.779748e+003
7.541400e+002, 3.777689e+003
7.546221e+002, 3.775013e+003
7.551042e+002, 3.772962e+003
7.555864e+002, 3.771690e+003
7.560685e+002, 3.771738e+003
7.565506e+002, 3.774781e+003
7.570327e+002, 3.778673e+003
7.575148e+002, 3.781183e+003
7.579969e+002, 3.781661e+003
7.584791e+002, 3.781273e+003
7.589612e+002, 3.779240e+003
7.594433e+002, 3.777162e+003
7.599254e+002, 3.776973e+003
7.604075e+002, 3.778683e+003
7.608896e+002, 3.781636e+003
7.613718e+002, 3.786167e+003
7.618539e+002, 3.790348e+003
7.623360e+002, 3.791476e+003
7.628181e+002, 3.790350e+003
7.633002e+002, 3.788489e+003
7.637823e+002, 3.785508e+003
7.642645e+002, 3.783421e+003
7.647466e+002, 3.784232e+003
7.652287e+002, 3.786392e+003
7.657108e+002, 3.787567e+003
7.661929e+002, 3.786880e+003
7.666750e+002, 3.785844e+003
7.671572e+002, 3.783775e+003
7.676393e+002, 3.782073e+003
7.681214e+002, 3.784156e+003
7.686035e+002, 3.790405e+003
7.690856e+002, 3.794693e+003
7.695677e+002, 3.794790e+003
7.700499e+002, 3.793503e+003
7.705320e+002, 3.795711e+003
7.710141e+002, 3.800049e+003
7.714962e+002, 3.803053e+003
7.719783e+002, 3.802221e+003
7.724604e+002, 3.800692e+003
7.729426e+002, 3.800237e+003
7.734247e+002, 3.800265e+003
7.739068e+002, 3.799369e+003
7.743889e+002, 3.795850e+003
7.748710e+002, 3.793689e+003
7.753531e+002, 3.794222e+003
7.758353e+002, 3.796278e+003
7.763174e+002, 3.796081e+003
7.767995e+002, 3.793519e+003
7.772816e+002, 3.791898e+003
7.777637e+002, 3.792701e+003
7.782458e+002, 3.794909e+003
7.787280e+002, 3.797245e+003
7.792101e+002, 3.799615e+003
7.796922e+002, 3.801625e+003
7.801743e+002, 3.803049e+003
7.806564e+002, 3.804146e+003
7.811385e+002, 3.805031e+003
7.816207e+002, 3.805704e+003
7.821028e+002, 3.806085e+003
7.825849e+002, 3.805282e+003
7.830670e+002, 3.805585e+003
7.835491e+002, 3.807941e+003
7.840313e+002, 3.811712e+003
7.845134e+002, 3.814845e+003
7.849955e+002, 3.817340e+003
7.854776e+002, 3.818176e+003
7.859597e+002, 3.815300e+003
7.864418e+002, 3.811580e+003
7.869240e+002, 3.812167e+003
7.874061e+002, 3.816049e+003
7.878882e+002, 3.819552e+003
7.883703e+002, 3.820198e+003
7.888524e+002, 3.820564e+003
7.893345e+002, 3.822622e+003
7.898167e+002, 3.825918e+003
7.902988e+002, 3.826424e+003
7.907809e+002, 3.822094e+003
7.912630e+002, 3.818777e+003
7.917451e+002, 3.818643e+003
7.922272e+002, 3.821089e+003
7.927094e+002, 3.824082e+003
7.931915e+002, 3.827534e+003
7.936736e+002, 3.829429e+003
7.941557e+002, 3.826845e+003
7.946378e+002, 3.823121e+003
7.951199e+002, 3.822844e+003
7.956021e+002, 3.825383e+003
7.960842e+002, 3.827719e+003
7.965663e+002, 3.828014e+003
7.970484e+002, 3.828294e+003
7.975305e+002, 3.829365e+003
7.980126e+002, 3.831184e+003
7.984948e+002, 3.833756e+003
7.989769e+002, 3.838018e+003
7.994590e+002, 3.840538e+003
7.999411e+002, 3.838639e+003
8.004232e+002, 3.834193e+003
8.009053e+002, 3.835301e+003
8.013875e+002, 3.841468e+003
8.018696e+002, 3.847622e+003
8.023517e+002, 3.851210e+003
8.028338e+002, 3.853026e+003
8.033159e+002, 3.852679e+003
8.037980e+002, 3.850791e+003
8.042802e+002, 3.850751e+003
8.047623e+002, 3.855612e+003
8.052444e+002, 3.860410e+003
8.057265e+002, 3.863386e+003
8.062086e+002, 3.864637e+003
8.066907e+002, 3.864915e+003
8.071729e+002, 3.863676e+003
8.076550e+002, 3.863628e+003
8.081371e+002, 3.867052e+003
8.086192e+002, 3.872142e+003
8.091013e+002, 3.873501e+003
8.095834e+002, 3.871791e+003
8.100656e+002, 3.870739e+003
8.105477e+002, 3.873613e+003
8.110298e+002, 3.877074e+003
8.115119e+002, 3.878711e+003
8.119940e+002, 3.878754e+003
8.124761e+002, 3.879374e+003
8.129583e+002, 3.881157e+003
8.134404e+002, 3.883454e+003
8.139225e+002, 3.886680e+003
8.144046e+002, 3.890367e+003
8.148867e+002, 3.890810e+003
8.153688e+002, 3.887779e+003
8.158510e+002, 3.886248e+003
8.163331e+002, 3.890121e+003
8.168152e+002, 3.896280e+003
8.172973e+002, 3.899569e+003
8.177794e+002, 3.900450e+003
8.182615e+002, 3.900811e+003
8.187437e+002, 3.900852e+003
8.192258e+002, 3.901202e+003
8.197079e+002, 3.902538e+003
8.201900e+002, 3.904569e+003
8.206721e+002, 3.905323e+003
8.211542e+002, 3.903954e+003
8.216364e+002, 3.903161e+003
8.221185e+002, 3.904252e+003
8.226006e+002, 3.906358e+003
8.230827e+002, 3.906745e+003
8.235648e+002, 3.905514e+003
8.240469e+002, 3.903308e+003
8.245291e+002, 3.898877e+003
8.250112e+002, 3.894970e+003
8.254933e+002, 3.895694e+003
8.259754e+002, 3.899350e+003
8.264575e+002, 3.900459e+003
8.269396e+002, 3.893279e+003
8.274218e+002, 3.888090e+003
8.279039e+002, 3.888691e+003
8.283860e+002, 3.893122e+003
8.288681e+002, 3.894807e+003
8.293502e+002, 3.893443e+003
8.298323e+002, 3.890953e+003
8.303145e+002, 3.887283e+003
8.307966e+002, 3.883667e+003
8.312787e+002, 3.882541e+003
8.317608e+002, 3.883469e+003
8.322429e+002, 3.885175e+003
8.327250e+002, 3.888294e+003
8.332072e+002, 3.890781e+003
8.336893e+002, 3.891895e+003
8.341714e+002, 3.891563e+003
8.346535e+002, 3.889364e+003
8.351356e+002, 3.883567e+003
8.356177e+002, 3.879220e+003
8.360999e+002, 3.877172e+003
8.365820e+002, 3.877087e+003
8.370641e+002, 3.878639e+003
8.375462e+002, 3.881688e+003
8.380283e+002, 3.884729e+003
8.385104e+002, 3.887615e+003
8.389926e+002, 3.889649e+003
8.394747e+002, 3.889018e+003
8.399568e+002, 3.887176e+003
8.404389e+002, 3.886661e+003
8.409210e+002, 3.889618e+003
8.414031e+002, 3.892388e+003
8.418853e+002, 3.894069e+003
8.423674e+002, 3.895098e+003
8.428495e+002, 3.896043e+003
8.433316e+002, 3.896908e+003
8.438137e+002, 3.897383e+003
8.442958e+002, 3.897209e+003
8.447780e+002, 3.897110e+003
8.452601e+002, 3.898797e+003
8.457422e+002, 3.901348e+003
8.462243e+002, 3.902530e+003
8.467064e+002, 3.901508e+003
8.471885e+002, 3.899626e+003
8.476707e+002, 3.896749e+003
8.481528e+002, 3.893879e+003
8.486349e+002, 3.892227e+003
8.491170e+002, 3.892252e+003
8.495991e+002, 3.893150e+003
8.500812e+002, 3.895569e+003
8.505634e+002, 3.897976e+003
8.510455e+002, 3.898554e+003
8.515276e+002, 3.897532e+003
8.520097e+002, 3.896165e+003
8.524918e+002, 3.894521e+003
8.529739e+002, 3.893408e+003
8.534561e+002, 3.893765e+003
8.539382e+002, 3.894949e+003
8.544203e+002, 3.896233e+003
8.549024e+002, 3.897407e+003
8.553845e+002, 3.898896e+003
8.558666e+002, 3.901714e+003
8.563488e+002, 3.903935e+003
8.568309e+002, 3.903765e+003
8.573130e+002, 3.900558e+003
8.577951e+002, 3.899469e+003
8.582772e+002, 3.900586e+003
8.587593e+002, 3.902905e+003
8.592415e+002, 3.906894e+003
8.597236e+002, 3.910933e+003
8.602057e+002, 3.911849e+003
8.606878e+002, 3.909387e+003
8.611699e+002, 3.907124e+003
8.616520e+002, 3.907216e+003
8.621342e+002, 3.907725e+003
8.626163e+002, 3.907465e+003
8.630984e+002, 3.906431e+003
8.635805e+002, 3.905633e+003
8.640626e+002, 3.905285e+003
8.645447e+002, 3.904825e+003
8.650269e+002, 3.904029e+003
8.655090e+002, 3.902949e+003
8.659911e+002, 3.901381e+003
8.664732e+002, 3.899497e+003
8.669553e+002, 3.898188e+003
8.674374e+002, 3.898524e+003
8.679196e+002, 3.899205e+003
8.684017e+002, 3.899157e+003
8.688838e+002, 3.898486e+003
8.693659e+002, 3.898411e+003
8.698480e+002, 3.899041e+003
8.703301e+002, 3.900073e+003
8.708123e+002, 3.901504e+003
8.712944e+002, 3.903135e+003
8.717765e+002, 3.904490e+003
8.722586e+002, 3.905503e+003
8.727407e+002, 3.906113e+003
8.732228e+002, 3.906351e+003
8.737050e+002, 3.906033e+003
8.741871e+002, 3.904518e+003
8.746692e+002, 3.902372e+003
8.751513e+002, 3.900796e+003
8.756334e+002, 3.900691e+003
8.761155e+002, 3.900692e+003
8.765977e+002, 3.900558e+003
8.770798e+002, 3.900465e+003
8.775619e+002, 3.900864e+003
8.780440e+002, 3.901852e+003
8.785261e+002, 3.902141e+003
8.790082e+002, 3.901232e+003
8.794904e+002, 3.900240e+003
8.799725e+002, 3.901308e+003
8.804546e+002, 3.903132e+003
8.809367e+002, 3.903241e+003
8.814188e+002, 3.899923e+003
8.819009e+002, 3.897066e+003
8.823831e+002, 3.896408e+003
8.828652e+002, 3.896602e+003
8.833473e+002, 3.896316e+003
8.838294e+002, 3.895446e+003
8.843115e+002, 3.894539e+003
8.847936e+002, 3.893613e+003
8.852758e+002, 3.892815e+003
8.857579e+002, 3.892531e+003
8.862400e+002, 3.892488e+003
8.867221e+002, 3.891565e+003
8.872042e+002, 3.889541e+003
8.876863e+002, 3.888951e+003
8.881685e+002, 3.893381e+003
8.886506e+002, 3.898110e+003
8.891327e+002, 3.899225e+003
8.896148e+002, 3.895853e+003
8.900969e+002, 3.894346e+003
8.905790e+002, 3.894997e+003
8.910612e+002, 3.896502e+003
8.915433e+002, 3.898554e+003
8.920254e+002, 3.900711e+003
8.925075e+002, 3.900941e+003
8.929896e+002, 3.899480e+003
8.934717e+002, 3.898561e+003
8.939539e+002, 3.900813e+003
8.944360e+002, 3.902920e+003
8.949181e+002, 3.902157e+003
8.954002e+002, 3.899018e+003
8.958823e+002, 3.897116e+003
8.963644e+002, 3.897102e+003
8.968466e+002, 3.897757e+003
8.973287e+002, 3.899346e+003
8.978108e+002, 3.901046e+003
8.982929e+002, 3.899822e+003
8.987750e+002, 3.896302e+003
8.992571e+002, 3.894381e+003
8.997393e+002, 3.896994e+003
9.002214e+002, 3.899603e+003
9.007035e+002, 3.896855e+003
9.011856e+002, 3.891826e+003
9.016677e+002, 3.889737e+003
9.021498e+002, 3.894611e+003
9.026320e+002, 3.898446e+003
9.031141e+002, 3.900675e+003
9.035962e+002, 3.901658e+003
9.040783e+002, 3.901658e+003
9.045604e+002, 3.900703e+003
9.050425e+002, 3.899247e+003
9.055247e+002, 3.897185e+003
9.060068e+002, 3.895705e+003
9.064889e+002, 3.896962e+003
9.069710e+002, 3.898912e+003
9.074531e+002, 3.899047e+003
9.079352e+002, 3.896300e+003
9.084174e+002, 3.894521e+003
9.088995e+002, 3.894948e+003
9.093816e+002, 3.895733e+003
9.098637e+002, 3.895424e+003
9.103458e+002, 3.894030e+003
9.108279e+002, 3.895140e+003
9.113101e+002, 3.898790e+003
9.117922e+002, 3.902461e+003
9.122743e+002, 3.903975e+003
9.127564e+002, 3.904729e+003
9.132385e+002, 3.906609e+003
9.137206e+002, 3.909371e+003
9.142028e+002, 3.910895e+003
9.146849e+002, 3.909688e+003
9.151670e+002, 3.908001e+003
9.156491e+002, 3.905799e+003
9.161312e+002, 3.903807e+003
9.166133e+002, 3.905721e+003
9.170955e+002, 3.911677e+003
9.175776e+002, 3.915909e+003
9.180597e+002, 3.915790e+003
9.185418e+002, 3.913832e+003
9.190239e+002, 3.912082e+003
9.195060e+002, 3.910979e+003
9.199882e+002, 3.911367e+003
9.204703e+002, 3.915136e+003
9.209524e+002, 3.918219e+003
9.214345e+002, 3.919441e+003
9.219166e+002, 3.919961e+003
9.223987e+002, 3.921083e+003
9.228809e+002, 3.922772e+003
9.233630e+002, 3.924967e+003
9.238451e+002, 3.927732e+003
9.243272e+002, 3.930357e+003
9.248093e+002, 3.932100e+003
9.252914e+002, 3.933221e+003
9.257736e+002, 3.934082e+003
9.262557e+002, 3.934808e+003
9.267378e+002, 3.935063e+003
9.272199e+002, 3.934942e+003
9.277020e+002, 3.934182e+003
9.281841e+002, 3.932072e+003
9.286663e+002, 3.928661e+003
9.291484e+002, 3.928934e+003
9.296305e+002, 3.933095e+003
9.301126e+002, 3.936843e+003
9.305947e+002, 3.936695e+003
9.310768e+002, 3.935073e+003
9.315590e+002, 3.935349e+003
9.320411e+002, 3.936981e+003
9.325232e+002, 3.937575e+003
9.330053e+002, 3.935448e+003
9.334874e+002, 3.933187e+003
9.339695e+002, 3.931508e+003
9.344517e+002, 3.930120e+003
9.349338e+002, 3.928147e+003
9.354159e+002, 3.925602e+003
9.358980e+002, 3.923289e+003
9.363801e+002, 3.921182e+003
9.368622e+002, 3.920252e+003
9.373444e+002, 3.922942e+003
9.378265e+002, 3.927176e+003
9.383086e+002, 3.930021e+003
9.387907e+002, 3.931158e+003
9.392728e+002, 3.929677e+003
9.397549e+002, 3.922363e+003
9.402371e+002, 3.915486e+003
9.407192e+002, 3.914507e+003
9.412013e+002, 3.919595e+003
9.416834e+002, 3.924795e+003
9.421655e+002, 3.929940e+003
9.426476e+002, 3.933775e+003
9.431298e+002, 3.934339e+003
9.436119e+002, 3.933515e+003
9.440940e+002, 3.932696e+003
9.445761e+002, 3.932087e+003
9.450582e+002, 3.933475e+003
9.455403e+002, 3.941099e+003
9.460225e+002, 3.945864e+003
9.465046e+002, 3.943261e+003
9.469867e+002, 3.936002e+003
9.474688e+002, 3.935936e+003
9.479509e+002, 3.942642e+003
9.484330e+002, 3.949520e+003
9.489152e+002, 3.954413e+003
9.493973e+002, 3.957435e+003
9.498794e+002, 3.958150e+003
9.503615e+002, 3.957196e+003
9.508436e+002, 3.955704e+003
9.513257e+002, 3.951826e+003
9.518079e+002, 3.950761e+003
9.522900e+002, 3.953909e+003
9.527721e+002, 3.958432e+003
9.532542e+002, 3.961570e+003
9.537363e+002, 3.963210e+003
9.542184e+002, 3.961517e+003
9.547006e+002, 3.955969e+003
9.551827e+002, 3.951271e+003
9.556648e+002, 3.952466e+003
9.561469e+002, 3.955365e+003
9.566290e+002, 3.956478e+003
9.571111e+002, 3.955318e+003
9.575933e+002, 3.953131e+003
9.580754e+002, 3.948908e+003
9.585575e+002, 3.945933e+003
9.590396e+002, 3.946490e+003
9.595217e+002, 3.949247e+003
9.600038e+002, 3.948850e+003
9.604860e+002, 3.946058e+003
9.609681e+002, 3.944833e+003
9.614502e+002, 3.949100e+003
9.619323e+002, 3.953685e+003
9.624144e+002, 3.954404e+003
9.628965e+002, 3.953407e+003
9.633787e+002, 3.955792e+003
9.638608e+002, 3.964036e+003
9.643429e+002, 3.969431e+003
9.648250e+002, 3.970581e+003
9.653071e+002, 3.969483e+003
9.657892e+002, 3.967655e+003
9.662714e+002, 3.965898e+003
9.667535e+002, 3.966605e+003
9.672356e+002, 3.970503e+003
9.677177e+002, 3.974389e+003
9.681998e+002, 3.975635e+003
9.686819e+002, 3.976919e+003
9.691641e+002, 3.980688e+003
9.696462e+002, 3.987345e+003
9.701283e+002, 3.990632e+003
9.706104e+002, 3.989970e+003
9.710925e+002, 3.989378e+003
9.715746e+002, 3.991539e+003
9.720568e+002, 3.995095e+003
9.725389e+002, 3.997400e+003
9.730210e+002, 3.998932e+003
9.735031e+002, 4.001218e+003
9.739852e+002, 4.006635e+003
9.744673e+002, 4.010738e+003
9.749495e+002, 4.010689e+003
9.754316e+002, 4.009494e+003
9.759137e+002, 4.012597e+003
9.763958e+002, 4.020243e+003
9.768779e+002, 4.028136e+003
9.773600e+002, 4.035738e+003
9.778422e+002, 4.042714e+003
9.783243e+002, 4.048538e+003
9.788064e+002, 4.053774e+003
9.792885e+002, 4.058862e+003
9.797706e+002, 4.063701e+003
9.802527e+002, 4.069429e+003
9.807349e+002, 4.075788e+003
9.812170e+002, 4.083635e+003
9.816991e+002, 4.093798e+003
9.821812e+002, 4.105858e+003
9.826633e+002, 4.116110e+003
9.831454e+002, 4.124719e+003
9.836276e+002, 4.134009e+003
9.841097e+002, 4.144713e+003
9.845918e+002, 4.157162e+003
9.850739e+002, 4.172502e+003
9.855560e+002, 4.189623e+003
9.860381e+002, 4.205429e+003
9.865203e+002, 4.219098e+003
9.870024e+002, 4.232645e+003
9.874845e+002, 4.246097e+003
9.879666e+002, 4.260029e+003
9.884487e+002, 4.276537e+003
9.889308e+002, 4.294139e+003
9.894130e+002, 4.308412e+003
9.898951e+002, 4.318254e+003
9.903772e+002, 4.327882e+003
9.908593e+002, 4.340923e+003
9.913414e+002, 4.353771e+003
9.918235e+002, 4.363568e+003
9.923057e+002, 4.370258e+003
9.927878e+002, 4.377386e+003
9.932699e+002, 4.385422e+003
9.937520e+002, 4.391471e+003
9.942341e+002, 4.393833e+003
9.947162e+002, 4.393311e+003
9.951984e+002, 4.391047e+003
9.956805e+002, 4.387018e+003
9.961626e+002, 4.381267e+003
9.966447e+002, 4.371886e+003
9.971268e+002, 4.363159e+003
9.976089e+002, 4.356142e+003
9.980911e+002, 4.349986e+003
9.985732e+002, 4.343911e+003
9.990553e+002, 4.337876e+003
9.995374e+002, 4.330331e+003
1.000020e+003, 4.321018e+003
1.000502e+003, 4.311855e+003
1.000984e+003, 4.304665e+003
1.001466e+003, 4.298609e+003
1.001948e+003, 4.293398e+003
1.002430e+003, 4.289206e+003
1.002912e+003, 4.282871e+003
1.003394e+003, 4.272315e+003
1.003876e+003, 4.263539e+003
1.004359e+003, 4.259624e+003
1.004841e+003, 4.258919e+003
1.005323e+003, 4.256856e+003
1.005805e+003, 4.253652e+003
1.006287e+003, 4.250182e+003
1.006769e+003, 4.246731e+003
1.007251e+003, 4.243241e+003
1.007733e+003, 4.239531e+003
1.008216e+003, 4.235882e+003
1.008698e+003, 4.232634e+003
1.009180e+003, 4.229587e+003
1.009662e+003, 4.227527e+003
1.010144e+003, 4.226465e+003
1.010626e+003, 4.226438e+003
1.011108e+003, 4.228561e+003
1.011590e+003, 4.231194e+003
1.012072e+003, 4.231501e+003
1.012555e+003, 4.229412e+003
1.013037e+003, 4.227676e+003
1.013519e+003, 4.225520e+003
1.014001e+003, 4.226041e+003
1.014483e+003, 4.230924e+003
1.014965e+003, 4.238909e+003
1.015447e+003, 4.246201e+003
1.015929e+003, 4.252771e+003
1.016411e+003, 4.257594e+003
1.016894e+003, 4.259359e+003
1.017376e+003, 4.261602e+003
1.017858e+003, 4.268608e+003
1.018340e+003, 4.277345e+003
1.018822e+003, 4.283699e+003
1.019304e+003, 4.285083e+003
1.019786e+003, 4.289944e+003
1.020268e+003, 4.299421e+003
1.020751e+003, 4.309477e+003
1.021233e+003, 4.316679e+003
1.021715e+003, 4.322209e+003
1.022197e+003, 4.329259e+003
1.022679e+003, 4.337612e+003
1.023161e+003, 4.345449e+003
1.023643e+003, 4.352420e+003
1.024125e+003, 4.357992e+003
1.024607e+003, 4.360789e+003
1.025090e+003, 4.362435e+003
1.025572e+003, 4.366854e+003
1.026054e+003, 4.374360e+003
1.026536e+003, 4.379732e+003
1.027018e+003, 4.381971e+003
1.027500e+003, 4.382130e+003
1.027982e+003, 4.379399e+003
1.028464e+003, 4.376271e+003
1.028947e+003, 4.376282e+003
1.029429e+003, 4.381060e+003
1.029911e+003, 4.382928e+003
1.030393e+003, 4.379680e+003
1.030875e+003, 4.376894e+003
1.031357e+003, 4.376976e+003
1.031839e+003, 4.379925e+003
1.032321e+003, 4.385724e+003
1.032803e+003, 4.394348e+003
1.033286e+003, 4.405777e+003
1.033768e+003, 4.422986e+003
1.034250e+003, 4.439469e+003
1.034732e+003, 4.451919e+003
1.035214e+003, 4.462249e+003
1.035696e+003, 4.472670e+003
1.036178e+003, 4.482756e+003
1.036660e+003, 4.495710e+003
1.037143e+003, 4.512111e+003
1.037625e+003, 4.529555e+003
1.038107e+003, 4.547265e+003
1.038589e+003, 4.564281e+003
1.039071e+003, 4.578344e+003
1.039553e+003, 4.589681e+003
1.040035e+003, 4.602883e+003
1.040517e+003, 4.621284e+003
1.041000e+003, 4.638060e+003
1.041482e+003, 4.651078e+003
1.041964e+003, 4.661255e+003
1.042446e+003, 4.669857e+003
1.042928e+003, 4.677154e+003
1.043410e+003, 4.683808e+003
1.043892e+003, 4.690047e+003
1.044374e+003, 4.695758e+003
1.044856e+003, 4.701717e+003
1.045339e+003, 4.706346e+003
1.045821e+003, 4.707582e+003
1.046303e+003, 4.704479e+003
1.046785e+003, 4.705597e+003
1.047267e+003, 4.711191e+003
1.047749e+003, 4.718720e+003
1.048231e+003, 4.725724e+003
1.048713e+003, 4.734083e+003
1.049195e+003, 4.746382e+003
1.049677e+003, 4.762055e+003
1.050160e+003, 4.779179e+003
1.050642e+003, 4.797331e+003
1.051124e+003, 4.816782e+003
1.051606e+003, 4.837474e+003
1.052088e+003, 4.859569e+003
1.052570e+003, 4.883521e+003
1.053052e+003, 4.909004e+003
1.053534e+003, 4.933342e+003
1.054017e+003, 4.956161e+003
1.054499e+003, 4.979634e+003
1.054981e+003, 5.006207e+003
1.055463e+003, 5.032960e+003
1.055945e+003, 5.058331e+003
1.056427e+003, 5.082299e+003
1.056909e+003, 5.104204e+003
1.057391e+003, 5.124241e+003
1.057874e+003, 5.140635e+003
1.058356e+003, 5.153052e+003
1.058838e+003, 5.161137e+003
1.059320e+003, 5.163939e+003
1.059802e+003, 5.162338e+003
1.060284e+003, 5.157788e+003
1.060766e+003, 5.151283e+003
1.061248e+003, 5.139571e+003
1.061730e+003, 5.121877e+003
1.062213e+003, 5.100665e+003
1.062695e+003, 5.077324e+003
1.063177e+003, 5.051833e+003
1.063659e+003, 5.023092e+003
1.064141e+003, 4.991597e+003
1.064623e+003, 4.960378e+003
1.065105e+003, 4.930091e+003
1.065587e+003, 4.901243e+003
1.066070e+003, 4.874758e+003
1.066552e+003, 4.848934e+003
1.067034e+003, 4.821131e+003
1.067516e+003, 4.791307e+003
1.067998e+003, 4.762918e+003
1.068480e+003, 4.736485e+003
1.068962e+003, 4.712785e+003
1.069444e+003, 4.694257e+003
1.069927e+003, 4.677722e+003
1.070409e+003, 4.659647e+003
1.070891e+003, 4.640173e+003
1.071373e+003, 4.622600e+003
1.071855e+003, 4.606598e+003
1.072337e+003, 4.593939e+003
1.072819e+003, 4.585968e+003
1.073301e+003, 4.580168e+003
1.073783e+003, 4.571067e+003
1.074266e+003, 4.560691e+003
1.074748e+003, 4.553477e+003
1.075230e+003, 4.551843e+003
1.075712e+003, 4.549941e+003
1.076194e+003, 4.544494e+003
1.076676e+003, 4.540253e+003
1.077158e+003, 4.540494e+003
1.077640e+003, 4.544742e+003
1.078122e+003, 4.548221e+003
1.078604e+003, 4.551025e+003
1.079087e+003, 4.554051e+003
1.079569e+003, 4.556542e+003
1.080051e+003, 4.560711e+003
1.080533e+003, 4.567651e+003
1.081015e+003, 4.577294e+003
1.081497e+003, 4.589403e+003
1.081979e+003, 4.604146e+003
1.082461e+003, 4.619477e+003
1.082944e+003, 4.635004e+003
1.083426e+003, 4.652268e+003
1.083908e+003, 4.672330e+003
1.084390e+003, 4.695005e+003
1.084872e+003, 4.720454e+003
1.085354e+003, 4.748652e+003
1.085836e+003, 4.777725e+003
1.086318e+003, 4.806116e+003
1.086801e+003, 4.838600e+003
1.087283e+003, 4.876502e+003
1.087765e+003, 4.918894e+003
1.088247e+003, 4.964470e+003
1.088729e+003, 5.013292e+003
1.089211e+003, 5.064478e+003
1.089693e+003, 5.117905e+003
1.090175e+003, 5.174864e+003
1.090657e+003, 5.235655e+003
1.091140e+003, 5.300592e+003
1.091622e+003, 5.369218e+003
1.092104e+003, 5.441797e+003
1.092586e+003, 5.521099e+003
1.093068e+003, 5.607235e+003
1.093550e+003, 5.696981e+003
1.094032e+003, 5.789485e+003
1.094514e+003, 5.885580e+003
1.094997e+003, 5.986164e+003
1.095479e+003, 6.090450e+003
1.095961e+003, 6.199497e+003
1.096443e+003, 6.315972e+003
1.096925e+003, 6.428604e+003
1.097407e+003, 6.537870e+003
1.097889e+003, 6.643679e+003
1.098371e+003, 6.748422e+003
1.098854e+003, 6.846638e+003
1.099336e+003, 6.934247e+003
1.099818e+003, 7.009429e+003
1.100300e+003, 7.064438e+003
1.100782e+003, 7.096060e+003
1.101264e+003, 7.109905e+003
1.101746e+003, 7.106199e+003
1.102228e+003, 7.085364e+003
1.102710e+003, 7.046467e+003
1.103193e+003, 6.991234e+003
1.103675e+003, 6.920661e+003
1.104157e+003, 6.835205e+003
1.104639e+003, 6.743988e+003
1.105121e+003, 6.649081e+003
1.105603e+003, 6.549880e+003
1.106085e+003, 6.444118e+003
1.106567e+003, 6.334092e+003
1.107049e+003, 6.227987e+003
1.107531e+003, 6.124643e+003
1.108014e+003, 6.026313e+003
1.108496e+003, 5.932326e+003
1.108978e+003, 5.841286e+003
1.109460e+003, 5.752301e+003
1.109942e+003, 5.665339e+003
1.110424e+003, 5.581589e+003
1.110906e+003, 5.500320e+003
1.111388e+003, 5.419917e+003
1.111871e+003, 5.340013e+003
1.112353e+003, 5.266430e+003
1.112835e+003, 5.204522e+003
1.113317e+003, 5.147383e+003
1.113799e+003, 5.087909e+003
1.114281e+003, 5.029023e+003
1.114763e+003, 4.974716e+003
1.115245e+003, 4.927085e+003
1.115728e+003, 4.883230e+003
1.116210e+003, 4.843755e+003
1.116692e+003, 4.806622e+003
1.117174e+003, 4.769833e+003
1.117656e+003, 4.734948e+003
1.118138e+003, 4.705707e+003
1.118620e+003, 4.681128e+003
1.119102e+003, 4.656990e+003
1.119584e+003, 4.630110e+003
1.120067e+003, 4.606009e+003
1.120549e+003, 4.585723e+003
1.121031e+003, 4.567954e+003
1.121513e+003, 4.551759e+003
1.121995e+003, 4.536510e+003
1.122477e+003, 4.520144e+003
1.122959e+003, 4.502287e+003
1.123441e+003, 4.485557e+003
1.123924e+003, 4.470636e+003
1.124406e+003, 4.458036e+003
1.124888e+003, 4.448171e+003
1.125370e+003, 4.440442e+003
1.125852e+003, 4.433974e+003
1.126334e+003, 4.428541e+003
1.126816e+003, 4.420829e+003
1.127298e+003, 4.409540e+003
1.127781e+003, 4.399101e+003
1.128263e+003, 4.393361e+003
1.128745e+003, 4.389549e+003
1.129227e+003, 4.385646e+003
1.129709e+003, 4.381563e+003
1.130191e+003, 4.376997e+003
1.130673e+003, 4.371771e+003
1.131155e+003, 4.368448e+003
1.131637e+003, 4.368842e+003
1.132120e+003, 4.370033e+003
1.132602e+003, 4.368417e+003
1.133084e+003, 4.365810e+003
1.133566e+003, 4.364893e+003
1.134048e+003, 4.366460e+003
1.134530e+003, 4.367870e+003
1.135012e+003, 4.369204e+003
1.135494e+003, 4.369885e+003
1.135976e+003, 4.369177e+003
1.136458e+003, 4.367830e+003
1.136941e+003, 4.367151e+003
1.137423e+003, 4.366829e+003
1.137905e+003, 4.366090e+003
1.138387e+003, 4.364648e+003
1.138869e+003, 4.362922e+003
1.139351e+003, 4.361201e+003
1.139833e+003, 4.358627e+003
1.140315e+003, 4.353219e+003
1.140798e+003, 4.346668e+003
1.141280e+003, 4.343987e+003
1.141762e+003, 4.344512e+003
1.142244e+003, 4.343166e+003
1.142726e+003, 4.335894e+003
1.143208e+003, 4.329104e+003
1.143690e+003, 4.324761e+003
1.144172e+003, 4.320907e+003
1.144655e+003, 4.313828e+003
1.145137e+003, 4.304587e+003
1.145619e+003, 4.296874e+003
1.146101e+003, 4.291225e+003
1.146583e+003, 4.286668e+003
1.147065e+003, 4.284462e+003
1.147547e+003, 4.281209e+003
1.148029e+003, 4.274714e+003
1.148511e+003, 4.266490e+003
1.148994e+003, 4.260912e+003
1.149476e+003, 4.257744e+003
1.149958e+003, 4.254586e+003
1.150440e+003, 4.250640e+003
1.150922e+003, 4.247706e+003
1.151404e+003, 4.247847e+003
1.151886e+003, 4.248808e+003
1.152368e+003, 4.249167e+003
1.152851e+003, 4.248783e+003
1.153333e+003, 4.246573e+003
1.153815e+003, 4.242463e+003
1.154297e+003, 4.238590e+003
1.154779e+003, 4.235383e+003
1.155261e+003, 4.233356e+003
1.155743e+003, 4.234731e+003
1.156225e+003, 4.236589e+003
1.156708e+003, 4.234936e+003
1.157190e+003, 4.228918e+003
1.157672e+003, 4.225665e+003
1.158154e+003, 4.225542e+003
1.158636e+003, 4.225290e+003
1.159118e+003, 4.223407e+003
1.159600e+003, 4.220278e+003
1.160082e+003, 4.215116e+003
1.160564e+003, 4.209468e+003
1.161047e+003, 4.206123e+003
1.161529e+003, 4.206505e+003
1.162011e+003, 4.206974e+003
1.162493e+003, 4.207721e+003
1.162975e+003, 4.207917e+003
1.163457e+003, 4.205660e+003
1.163939e+003, 4.203308e+003
1.164421e+003, 4.205669e+003
1.164903e+003, 4.210757e+003
1.165385e+003, 4.212426e+003
1.165868e+003, 4.206622e+003
1.166350e+003, 4.201965e+003
1.166832e+003, 4.198813e+003
1.167314e+003, 4.197540e+003
1.167796e+003, 4.200099e+003
1.168278e+003, 4.204078e+003
1.168760e+003, 4.204488e+003
1.169242e+003, 4.201806e+003
1.169725e+003, 4.200787e+003
1.170207e+003, 4.203231e+003
1.170689e+003, 4.207556e+003
1.171171e+003, 4.214787e+003
1.171653e+003, 4.221493e+003
1.172135e+003, 4.221230e+003
1.172617e+003, 4.217109e+003
1.173099e+003, 4.216212e+003
1.173582e+003, 4.219299e+003
1.174064e+003, 4.222880e+003
1.174546e+003, 4.226072e+003
1.175028e+003, 4.229135e+003
1.175510e+003, 4.232368e+003
1.175992e+003, 4.235102e+003
1.176474e+003, 4.235316e+003
1.176956e+003, 4.233914e+003
1.177438e+003, 4.233401e+003
1.177921e+003, 4.234212e+003
1.178403e+003, 4.236177e+003
1.178885e+003, 4.240867e+003
1.179367e+003, 4.244893e+003
1.179849e+003, 4.246986e+003
1.180331e+003, 4.247477e+003
1.180813e+003, 4.246838e+003
1.181295e+003, 4.245382e+003
1.181778e+003, 4.244187e+003
1.182260e+003, 4.243560e+003
1.182742e+003, 4.243237e+003
1.183224e+003, 4.242865e+003
1.183706e+003, 4.243105e+003
1.184188e+003, 4.245019e+003
1.184670e+003, 4.247773e+003
1.185152e+003, 4.245813e+003
1.185635e+003, 4.240115e+003
1.186117e+003, 4.235868e+003
1.186599e+003, 4.236132e+003
1.187081e+003, 4.235835e+003
1.187563e+003, 4.231442e+003
1.188045e+003, 4.226428e+003
1.188527e+003, 4.223376e+003
1.189009e+003, 4.222189e+003
1.189491e+003, 4.221190e+003
1.189974e+003, 4.220392e+003
1.190456e+003, 4.219858e+003
1.190938e+003, 4.220842e+003
1.191420e+003, 4.220477e+003
1.191902e+003, 4.214511e+003
1.192384e+003, 4.208624e+003
1.192866e+003, 4.209466e+003
1.193348e+003, 4.217276e+003
1.193830e+003, 4.219077e+003
1.194313e+003, 4.215254e+003
1.194795e+003, 4.211015e+003
1.195277e+003, 4.208628e+003
1.195759e+003, 4.207563e+003
1.196241e+003, 4.209539e+003
1.196723e+003, 4.211466e+003
1.197205e+003, 4.208850e+003
1.197687e+003, 4.201542e+003
1.198169e+003, 4.196209e+003
1.198652e+003, 4.193187e+003
1.199134e+003, 4.191698e+003
1.199616e+003, 4.192679e+003
1.200098e+003, 4.193602e+003
1.200580e+003, 4.192516e+003
1.201062e+003, 4.190632e+003
1.201544e+003, 4.190297e+003
1.202026e+003, 4.191615e+003
1.202509e+003, 4.190435e+003
1.202991e+003, 4.186360e+003
1.203473e+003, 4.183252e+003
1.203955e+003, 4.185194e+003
1.204437e+003, 4.187663e+003
1.204919e+003, 4.187319e+003
1.205401e+003, 4.185372e+003
1.205883e+003, 4.184436e+003
1.206365e+003, 4.184458e+003
1.206848e+003, 4.185906e+003
1.207330e+003, 4.188949e+003
1.207812e+003, 4.190997e+003
1.208294e+003, 4.188788e+003
1.208776e+003, 4.186064e+003
1.209258e+003, 4.185812e+003
1.209740e+003, 4.187110e+003
1.210222e+003, 4.187689e+003
1.210705e+003, 4.187591e+003
1.211187e+003, 4.185313e+003
1.211669e+003, 4.180289e+003
1.212151e+003, 4.176365e+003
1.212633e+003, 4.178513e+003
1.213115e+003, 4.181377e+003
1.213597e+003, 4.180100e+003
1.214079e+003, 4.176271e+003
1.214562e+003, 4.176109e+003
1.215044e+003, 4.179532e+003
1.215526e+003, 4.182394e+003
1.216008e+003, 4.183736e+003
1.216490e+003, 4.184466e+003
1.216972e+003, 4.185104e+003
1.217454e+003, 4.185503e+003
1.217936e+003, 4.185178e+003
1.218418e+003, 4.184405e+003
1.218901e+003, 4.185100e+003
1.219383e+003, 4.187123e+003
1.219865e+003, 4.188265e+003
1.220347e+003, 4.187674e+003
1.220829e+003, 4.186806e+003
1.221311e+003, 4.186588e+003
1.221793e+003, 4.186650e+003
1.222275e+003, 4.186690e+003
1.222757e+003, 4.186751e+003
1.223240e+003, 4.187387e+003
1.223722e+003, 4.188547e+003
1.224204e+003, 4.189002e+003
1.224686e+003, 4.188135e+003
1.225168e+003, 4.187320e+003
1.225650e+003, 4.188726e+003
1.226132e+003, 4.189448e+003
1.226614e+003, 4.186660e+003
1.227096e+003, 4.181076e+003
1.227579e+003, 4.178820e+003
1.228061e+003, 4.179705e+003
1.228543e+003, 4.182468e+003
1.229025e+003, 4.188140e+003
1.229507e+003, 4.191844e+003
1.229989e+003, 4.188433e+003
1.230471e+003, 4.183745e+003
1.230953e+003, 4.182241e+003
1.231436e+003, 4.183583e+003
1.231918e+003, 4.185513e+003
1.232400e+003, 4.187852e+003
1.232882e+003, 4.189438e+003
1.233364e+003, 4.189024e+003
1.233846e+003, 4.189246e+003
1.234328e+003, 4.193379e+003
1.234810e+003, 4.196766e+003
1.235292e+003, 4.195004e+003
1.235775e+003, 4.189202e+003
1.236257e+003, 4.188514e+003
1.236739e+003, 4.192239e+003
1.237221e+003, 4.196601e+003
1.237703e+003, 4.201515e+003
1.238185e+003, 4.204282e+003
1.238667e+003, 4.201361e+003
1.239149e+003, 4.198384e+003
1.239632e+003, 4.200042e+003
1.240114e+003, 4.205227e+003
1.240596e+003, 4.207354e+003
1.241078e+003, 4.206981e+003
1.241560e+003, 4.206563e+003
1.242042e+003, 4.206890e+003
1.242524e+003, 4.207741e+003
1.243006e+003, 4.209000e+003
1.243489e+003, 4.210762e+003
1.243971e+003, 4.213368e+003
1.244453e+003, 4.216537e+003
1.244935e+003, 4.219489e+003
1.245417e+003, 4.221966e+003
1.245899e+003, 4.222931e+003
1.246381e+003, 4.220792e+003
1.246863e+003, 4.218656e+003
1.247345e+003, 4.216426e+003
1.247828e+003, 4.215397e+003
1.248310e+003, 4.217859e+003
1.248792e+003, 4.222066e+003
1.249274e+003, 4.222256e+003
1.249756e+003, 4.219907e+003
1.250238e+003, 4.220195e+003
1.250720e+003, 4.228971e+003
1.251202e+003, 4.234282e+003
1.251684e+003, 4.234745e+003
1.252167e+003, 4.232863e+003
1.252649e+003, 4.228966e+003
1.253131e+003, 4.225112e+003
1.253613e+003, 4.226132e+003
1.254095e+003, 4.230711e+003
1.254577e+003, 4.234478e+003
1.255059e+003, 4.235924e+003
1.255541e+003, 4.237164e+003
1.256023e+003, 4.238300e+003
1.256506e+003, 4.239100e+003
1.256988e+003, 4.238662e+003
1.257470e+003, 4.238285e+003
1.257952e+003, 4.240729e+003
1.258434e+003, 4.244817e+003
1.258916e+003, 4.246685e+003
1.259398e+003, 4.245068e+003
1.259880e+003, 4.244120e+003
1.260363e+003, 4.244196e+003
1.260845e+003, 4.244473e+003
1.261327e+003, 4.244674e+003
1.261809e+003, 4.244381e+003
1.262291e+003, 4.242498e+003
1.262773e+003, 4.239853e+003
1.263255e+003, 4.238758e+003
1.263737e+003, 4.239740e+003
1.264219e+003, 4.239715e+003
1.264702e+003, 4.238393e+003
1.265184e+003, 4.237057e+003
1.265666e+003, 4.236314e+003
1.266148e+003, 4.236325e+003
1.266630e+003, 4.237301e+003
1.267112e+003, 4.239201e+003
1.267594e+003, 4.242176e+003
1.268076e+003, 4.246469e+003
1.268559e+003, 4.248289e+003
1.269041e+003, 4.247417e+003
1.269523e+003, 4.246360e+003
1.270005e+003, 4.246309e+003
1.270487e+003, 4.247148e+003
1.270969e+003, 4.248913e+003
1.271451e+003, 4.251472e+003
1.271933e+003, 4.255245e+003
1.272416e+003, 4.259985e+003
1.272898e+003, 4.262659e+003
1.273380e+003, 4.263205e+003
1.273862e+003, 4.263602e+003
1.274344e+003, 4.265717e+003
1.274826e+003, 4.266871e+003
1.275308e+003, 4.265830e+003
1.275790e+003, 4.263848e+003
1.276272e+003, 4.261918e+003
1.276755e+003, 4.260422e+003
1.277237e+003, 4.261357e+003
1.277719e+003, 4.264439e+003
1.278201e+003, 4.266931e+003
1.278683e+003, 4.267137e+003
1.279165e+003, 4.267267e+003
1.279647e+003, 4.267648e+003
1.280129e+003, 4.268282e+003
1.280611e+003, 4.269335e+003
1.281094e+003, 4.270571e+003
1.281576e+003, 4.271110e+003
1.282058e+003, 4.271243e+003
1.282540e+003, 4.272623e+003
1.283022e+003, 4.277000e+003
1.283504e+003, 4.280022e+003
1.283986e+003, 4.281134e+003
1.284468e+003, 4.281154e+003
1.284950e+003, 4.280207e+003
1.285433e+003, 4.279144e+003
1.285915e+003, 4.279033e+003
1.286397e+003, 4.279838e+003
1.286879e+003, 4.281234e+003
1.287361e+003, 4.283163e+003
1.287843e+003, 4.285761e+003
1.288325e+003, 4.289171e+003
1.288807e+003, 4.292256e+003
1.289290e+003, 4.294594e+003
1.289772e+003, 4.295691e+003
1.290254e+003, 4.294435e+003
1.290736e+003, 4.291727e+003
1.291218e+003, 4.289439e+003
1.291700e+003, 4.287442e+003
1.292182e+003, 4.287792e+003
1.292664e+003, 4.290581e+003
1.293146e+003, 4.294009e+003
1.293629e+003, 4.297230e+003
1.294111e+003, 4.300250e+003
1.294593e+003, 4.304101e+003
1.295075e+003, 4.306921e+003
1.295557e+003, 4.305372e+003
1.296039e+003, 4.300169e+003
1.296521e+003, 4.296985e+003
1.297003e+003, 4.295974e+003
1.297486e+003, 4.296258e+003
1.297968e+003, 4.300533e+003
1.298450e+003, 4.302311e+003
1.298932e+003, 4.299290e+003
1.299414e+003, 4.294961e+003
1.299896e+003, 4.293187e+003
1.300378e+003, 4.293273e+003
1.300860e+003, 4.293019e+003
1.301343e+003, 4.292880e+003
1.301825e+003, 4.294803e+003
##END=



