##NAMES=Phenakite
##RRUFFID=R050137
##IDEAL CHEMISTRY=Be_2_SiO_4_
##LOCALITY=Mount Antero area, Chaffee County, Colorado, USA
##OWNER=RRUFF
##SOURCE=Dave Bunk Minerals
##DESCRIPTION=Colorless tabular hexagonal crystal
##STATUS=The identification of this mineral has been confirmed by X-ray diffraction and chemical analysis
##URL=rruff.info/R050137
##MEASURED CHEMISTRY=Be_2.00_Si_1.00_O_4_
93.88477, 13.71596
94.36688, 13.23555
94.84900, 13.38995
95.33112, 14.10646
95.81323, 15.04146
96.29535, 16.21298
96.77747, 17.50170
97.25958, 18.20438
97.74170, 17.91540
98.22382, 17.73966
98.70593, 20.47770
99.18805, 26.40286
99.67017, 31.75783
100.1523, 33.32263
100.6344, 30.91121
101.1165, 29.74516
101.5986, 30.76014
102.0807, 33.49930
102.5629, 35.70662
103.0450, 36.88526
103.5271, 38.63759
104.0092, 42.92315
104.4913, 51.48393
104.9734, 57.87089
105.4556, 60.42811
105.9377, 58.91613
106.4198, 58.25243
106.9019, 58.65205
107.3840, 59.75267
107.8661, 61.10683
108.3483, 62.70984
108.8304, 64.60200
109.3125, 66.85948
109.7946, 69.70886
110.2767, 72.36958
110.7588, 74.80672
111.2410, 77.07073
111.7231, 79.26516
112.2052, 80.72541
112.6873, 82.68054
113.1694, 85.59686
113.6515, 90.02718
114.1337, 94.63894
114.6158, 99.62398
115.0979, 104.7135
115.5800, 109.2011
116.0621, 112.7702
116.5442, 115.7458
117.0264, 118.2703
117.5085, 120.2443
117.9906, 121.9824
118.4727, 123.1088
118.9548, 123.8264
119.4369, 125.4786
119.9191, 130.0308
120.4012, 135.3486
120.8833, 139.2378
121.3654, 139.7792
121.8475, 139.5644
122.3296, 139.8241
122.8118, 140.5833
123.2939, 142.3741
123.7760, 147.1560
124.2581, 153.0562
124.7402, 157.0788
125.2223, 156.2049
125.7045, 153.3967
126.1866, 151.6718
126.6687, 151.1958
127.1508, 151.9062
127.6329, 154.4029
128.1150, 158.2126
128.5972, 161.8670
129.0793, 164.4670
129.5614, 166.3282
130.0435, 167.9447
130.5256, 169.2409
131.0077, 170.6274
131.4899, 172.9522
131.9720, 176.1392
132.4541, 179.0938
132.9362, 180.2609
133.4183, 179.6838
133.9004, 179.2866
134.3826, 179.2111
134.8647, 179.3955
135.3468, 179.6465
135.8289, 179.9413
136.3110, 180.4902
136.7931, 181.6182
137.2753, 183.3421
137.7574, 184.8210
138.2395, 185.8359
138.7216, 186.4775
139.2037, 187.2326
139.6858, 188.0299
140.1680, 189.0918
140.6501, 190.6180
141.1322, 192.6032
141.6143, 195.1464
142.0964, 198.7470
142.5785, 203.5171
143.0607, 206.1103
143.5428, 205.6296
144.0249, 204.0558
144.5070, 204.0444
144.9891, 206.5681
145.4712, 208.7202
145.9534, 209.3835
146.4355, 207.8715
146.9176, 207.8471
147.3997, 210.1141
147.8818, 213.4953
148.3639, 215.9499
148.8461, 216.3291
149.3282, 217.1110
149.8103, 219.1936
150.2924, 223.6037
150.7745, 227.2715
151.2566, 229.6328
151.7388, 231.2236
152.2209, 233.3856
152.7030, 235.9388
153.1851, 239.1792
153.6672, 243.2248
154.1493, 248.2939
154.6315, 253.7790
155.1136, 259.0221
155.5957, 264.4986
156.0778, 271.9871
156.5599, 278.8674
157.0420, 289.7152
157.5242, 307.0428
158.0063, 325.4376
158.4884, 356.0107
158.9705, 396.8634
159.4526, 449.5699
159.9347, 524.6296
160.4169, 672.8580
160.8990, 818.9470
161.3811, 908.6545
161.8632, 928.6611
162.3453, 890.9569
162.8274, 767.5768
163.3096, 566.8026
163.7917, 394.5656
164.2738, 298.4634
164.7559, 249.2376
165.2380, 218.0523
165.7201, 206.1644
166.2023, 200.9258
166.6844, 196.7618
167.1665, 193.4726
167.6486, 190.8690
168.1307, 188.8635
168.6128, 187.4743
169.0950, 186.7259
169.5771, 187.2425
170.0592, 188.0014
170.5413, 188.2253
171.0234, 187.8508
171.5055, 187.3197
171.9877, 186.7827
172.4698, 186.3090
172.9519, 186.0223
173.4340, 186.4071
173.9161, 186.7956
174.3982, 186.2984
174.8804, 184.7027
175.3625, 183.1786
175.8446, 182.9554
176.3267, 183.6340
176.8088, 184.2516
177.2909, 183.9228
177.7731, 183.3510
178.2552, 183.7060
178.7373, 185.3155
179.2194, 187.0287
179.7015, 187.6445
180.1836, 187.3248
180.6658, 186.6895
181.1479, 185.7154
181.6300, 184.7127
182.1121, 184.4216
182.5942, 185.0875
183.0763, 186.0543
183.5585, 186.4990
184.0406, 186.4754
184.5227, 186.3353
185.0048, 186.2180
185.4869, 186.1513
185.9690, 186.2337
186.4511, 186.5177
186.9333, 186.8884
187.4154, 187.1001
187.8975, 187.1689
188.3796, 187.3452
188.8617, 188.0503
189.3438, 189.1006
189.8260, 189.5513
190.3081, 189.0989
190.7902, 188.1772
191.2723, 187.6297
191.7544, 187.4600
192.2365, 187.5533
192.7187, 187.9369
193.2008, 188.5768
193.6829, 189.1196
194.1650, 189.4883
194.6471, 189.7462
195.1292, 190.1406
195.6114, 190.7064
196.0935, 191.1006
196.5756, 190.8427
197.0577, 189.9458
197.5398, 189.4078
198.0219, 189.3572
198.5041, 189.8104
198.9862, 190.9063
199.4683, 192.7115
199.9504, 194.8245
200.4325, 196.3877
200.9146, 197.2321
201.3968, 200.1384
201.8789, 205.8369
202.3610, 213.9987
202.8431, 223.9302
203.3252, 236.4551
203.8073, 247.7855
204.2895, 254.0283
204.7716, 254.5930
205.2537, 254.3739
205.7358, 253.9774
206.2179, 253.5528
206.7000, 254.2163
207.1822, 256.1464
207.6643, 258.7141
208.1464, 261.0621
208.6285, 262.8160
209.1106, 266.1716
209.5927, 271.8447
210.0749, 279.6652
210.5570, 287.5824
211.0391, 295.2922
211.5212, 303.5341
212.0033, 313.5770
212.4854, 326.3230
212.9676, 337.4944
213.4497, 345.4508
213.9318, 350.4467
214.4139, 357.4707
214.8960, 366.0656
215.3781, 377.4720
215.8603, 392.2390
216.3424, 408.5357
216.8245, 432.5223
217.3066, 462.3538
217.7887, 498.4456
218.2708, 557.4752
218.7530, 637.7071
219.2351, 744.4938
219.7172, 872.6349
220.1993, 1002.729
220.6814, 1217.648
221.1635, 1600.964
221.6457, 2160.737
222.1278, 2428.606
222.6099, 2336.704
223.0920, 2037.014
223.5741, 1659.141
224.0562, 1114.382
224.5384, 682.5334
225.0205, 434.0138
225.5026, 374.1612
225.9847, 336.9569
226.4668, 326.4134
226.9489, 334.5798
227.4311, 353.8476
227.9132, 385.7627
228.3953, 425.6839
228.8774, 469.5018
229.3595, 517.0383
229.8416, 595.9476
230.3238, 749.6761
230.8059, 890.5912
231.2880, 926.9071
231.7701, 815.4173
232.2522, 684.0613
232.7343, 545.0701
233.2165, 395.6055
233.6986, 290.5861
234.1807, 243.5273
234.6628, 226.9196
235.1449, 216.0873
235.6270, 213.2945
236.1092, 212.0867
236.5913, 211.7558
237.0734, 212.3367
237.5555, 212.1389
238.0376, 210.7753
238.5197, 209.0283
239.0019, 207.5676
239.4840, 206.1476
239.9661, 205.5124
240.4482, 206.0564
240.9303, 207.7655
241.4124, 208.8878
241.8946, 209.2122
242.3767, 209.1797
242.8588, 209.1344
243.3409, 208.9624
243.8230, 209.0005
244.3051, 209.3245
244.7873, 209.9286
245.2694, 210.6298
245.7515, 211.4593
246.2336, 212.3502
246.7157, 213.2077
247.1978, 213.8263
247.6800, 214.8258
248.1621, 216.2735
248.6442, 218.1814
249.1263, 220.4343
249.6084, 222.7296
250.0905, 225.7615
250.5726, 229.8710
251.0548, 234.3671
251.5369, 241.5544
252.0190, 252.3184
252.5011, 266.3484
252.9832, 279.5609
253.4653, 290.0286
253.9475, 302.4217
254.4296, 322.1885
254.9117, 358.5327
255.3938, 381.1971
255.8759, 386.1080
256.3581, 374.5271
256.8402, 351.7981
257.3223, 310.3405
257.8044, 269.2276
258.2865, 240.9573
258.7686, 229.2085
259.2508, 221.5104
259.7329, 217.6667
260.2150, 217.0702
260.6971, 217.0209
261.1792, 217.6514
261.6613, 218.5978
262.1435, 219.7273
262.6256, 221.1788
263.1077, 222.3454
263.5898, 223.0537
264.0719, 223.4887
264.5540, 224.2548
265.0362, 225.4879
265.5183, 226.7778
266.0004, 227.8285
266.4825, 228.4217
266.9646, 229.5784
267.4467, 231.4362
267.9289, 233.8273
268.4110, 236.2361
268.8931, 238.6722
269.3752, 241.1857
269.8573, 243.6794
270.3394, 246.0251
270.8216, 248.9865
271.3037, 252.3368
271.7858, 256.5519
272.2679, 262.2711
272.7500, 269.3008
273.2321, 278.4757
273.7143, 289.4274
274.1964, 301.6432
274.6785, 319.8416
275.1606, 344.9131
275.6427, 374.5884
276.1248, 407.7458
276.6070, 446.5814
277.0891, 477.5577
277.5712, 488.7940
278.0533, 479.8080
278.5354, 500.2575
279.0175, 562.2236
279.4996, 627.6589
279.9818, 640.6286
280.4639, 597.4970
280.9460, 534.6004
281.4281, 454.0565
281.9102, 359.6825
282.3923, 292.9214
282.8745, 256.5982
283.3566, 238.5321
283.8387, 228.0544
284.3208, 225.2960
284.8029, 223.7305
285.2850, 221.5868
285.7672, 219.0718
286.2493, 217.0720
286.7314, 215.5951
287.2135, 214.5926
287.6956, 214.0896
288.1777, 214.0703
288.6599, 214.3289
289.1420, 214.9599
289.6241, 215.7579
290.1062, 215.9777
290.5883, 215.5713
291.0704, 215.3255
291.5526, 216.0955
292.0347, 217.6975
292.5168, 218.9548
292.9989, 219.3498
293.4810, 219.6293
293.9631, 221.3352
294.4453, 224.4252
294.9274, 228.0630
295.4095, 231.4878
295.8916, 234.9299
296.3737, 239.8534
296.8558, 247.7668
297.3380, 254.4526
297.8201, 252.4270
298.3022, 242.7669
298.7843, 232.5301
299.2664, 225.4033
299.7485, 220.7459
300.2307, 217.5461
300.7128, 215.7795
301.1949, 214.8837
301.6770, 214.5325
302.1591, 214.5808
302.6412, 214.5371
303.1234, 214.0173
303.6055, 213.3029
304.0876, 212.7065
304.5697, 212.2364
305.0518, 212.0838
305.5339, 212.7540
306.0161, 213.8805
306.4982, 214.6852
306.9803, 214.7307
307.4624, 214.3347
307.9445, 213.5610
308.4266, 212.4056
308.9088, 211.6718
309.3909, 212.2900
309.8730, 213.6140
310.3551, 214.7129
310.8372, 215.3866
311.3193, 215.6104
311.8015, 214.9402
312.2836, 213.5225
312.7657, 212.7310
313.2478, 214.2073
313.7299, 216.3222
314.2120, 217.4337
314.6942, 216.0822
315.1763, 214.7921
315.6584, 215.3124
316.1405, 217.1507
316.6226, 218.3979
317.1047, 217.5966
317.5869, 216.2838
318.0690, 215.5577
318.5511, 215.9259
319.0332, 216.3570
319.5153, 216.2112
319.9974, 215.8432
320.4796, 216.0593
320.9617, 218.0563
321.4438, 219.9552
321.9259, 220.6891
322.4080, 219.6274
322.8901, 218.9360
323.3723, 219.6204
323.8544, 220.8413
324.3365, 221.4027
324.8186, 220.1926
325.3007, 219.1259
325.7828, 218.7822
326.2650, 219.2737
326.7471, 220.0130
327.2292, 221.0450
327.7113, 222.2596
328.1934, 223.5571
328.6755, 224.9989
329.1577, 226.4390
329.6398, 227.6436
330.1219, 228.6185
330.6040, 230.3635
331.0861, 234.0875
331.5682, 237.6311
332.0504, 239.5172
332.5325, 238.3897
333.0146, 237.7063
333.4967, 237.7433
333.9788, 238.4155
334.4609, 239.3560
334.9431, 240.7462
335.4252, 242.1617
335.9073, 243.4124
336.3894, 244.5892
336.8715, 245.2815
337.3536, 244.9973
337.8358, 244.5489
338.3179, 245.8131
338.8000, 249.2921
339.2821, 253.0865
339.7642, 256.4493
340.2463, 259.2863
340.7285, 262.2757
341.2106, 265.0446
341.6927, 268.5551
342.1748, 273.3210
342.6569, 279.0349
343.1390, 288.7091
343.6212, 303.3896
344.1033, 322.8800
344.5854, 345.4388
345.0675, 370.8383
345.5496, 398.8392
346.0317, 426.7380
346.5139, 455.4323
346.9960, 495.6105
347.4781, 559.8441
347.9602, 627.3516
348.4423, 653.6511
348.9244, 639.1891
349.4066, 596.5662
349.8887, 515.7122
350.3708, 412.2202
350.8529, 334.2139
351.3350, 290.5298
351.8171, 267.2622
352.2993, 251.9011
352.7814, 243.5784
353.2635, 238.4626
353.7456, 235.6902
354.2277, 234.4435
354.7098, 233.7390
355.1920, 233.5587
355.6741, 233.4112
356.1562, 232.7625
356.6383, 231.8610
357.1204, 231.1368
357.6025, 230.5634
358.0847, 230.3741
358.5668, 231.0838
359.0489, 232.5955
359.5310, 233.7165
360.0131, 233.3369
360.4952, 232.3887
360.9774, 231.8272
361.4595, 232.1861
361.9416, 232.6275
362.4237, 232.5542
362.9058, 232.2133
363.3879, 232.3838
363.8701, 232.9018
364.3522, 234.3414
364.8343, 237.1043
365.3164, 241.5968
365.7985, 246.5902
366.2806, 252.7566
366.7628, 259.1046
367.2449, 263.9639
367.7270, 266.4167
368.2091, 268.0376
368.6912, 269.0191
369.1733, 269.1581
369.6555, 269.8408
370.1376, 271.1968
370.6197, 273.0685
371.1018, 275.3585
371.5839, 278.3398
372.0660, 281.3559
372.5482, 284.1382
373.0303, 286.7776
373.5124, 290.0786
373.9945, 294.0101
374.4766, 298.6412
374.9587, 304.0329
375.4409, 310.1805
375.9230, 317.0717
376.4051, 324.4994
376.8872, 332.8980
377.3693, 342.2002
377.8514, 351.0478
378.3336, 365.9122
378.8157, 388.8343
379.2978, 420.0140
379.7799, 460.1622
380.2620, 510.4004
380.7441, 567.6469
381.2263, 626.1833
381.7084, 686.0564
382.1905, 759.6785
382.6726, 855.9004
383.1547, 965.5345
383.6368, 1083.846
384.1190, 1212.724
384.6011, 1274.880
385.0832, 1168.670
385.5653, 945.0351
386.0474, 739.0547
386.5295, 571.4500
387.0117, 442.4273
387.4938, 359.9246
387.9759, 317.9938
388.4580, 292.8371
388.9401, 278.2692
389.4222, 269.9170
389.9044, 263.1438
390.3865, 257.5662
390.8686, 253.0921
391.3507, 249.9217
391.8328, 247.7210
392.3149, 246.0539
392.7971, 244.9861
393.2792, 244.2186
393.7613, 243.8403
394.2434, 243.7530
394.7255, 243.2574
395.2076, 241.4106
395.6898, 239.4282
396.1719, 238.2067
396.6540, 238.2482
397.1361, 238.5545
397.6182, 239.1387
398.1003, 239.8185
398.5825, 240.1805
399.0646, 240.0423
399.5467, 239.6777
400.0288, 239.0834
400.5109, 238.0757
400.9930, 237.4635
401.4752, 237.3040
401.9573, 237.5025
402.4394, 238.0157
402.9215, 239.2785
403.4036, 240.1400
403.8857, 240.3358
404.3678, 239.9357
404.8499, 239.5174
405.3321, 238.9677
405.8142, 238.6104
406.2963, 238.7854
406.7784, 239.6746
407.2605, 239.9947
407.7426, 239.3767
408.2248, 238.5316
408.7069, 239.0489
409.1890, 241.0368
409.6711, 242.8983
410.1532, 243.7856
410.6353, 243.9143
411.1175, 244.5707
411.5996, 245.8025
412.0817, 247.1317
412.5638, 248.3647
413.0459, 249.3306
413.5280, 249.4162
414.0102, 248.1501
414.4923, 246.3158
414.9744, 244.8981
415.4565, 243.8623
415.9386, 243.0475
416.4207, 242.1555
416.9029, 241.5004
417.3850, 241.5864
417.8671, 242.6192
418.3492, 243.7453
418.8313, 244.5152
419.3134, 244.9543
419.7956, 245.1172
420.2777, 244.2845
420.7598, 243.8118
421.2419, 244.5945
421.7240, 246.5932
422.2061, 248.6007
422.6883, 250.2960
423.1704, 251.8020
423.6525, 253.1817
424.1346, 253.2949
424.6167, 254.7929
425.0988, 258.3056
425.5810, 263.4388
426.0631, 269.2799
426.5452, 274.8664
427.0273, 282.0659
427.5094, 292.2846
427.9915, 306.7016
428.4737, 318.1201
428.9558, 326.5677
429.4379, 332.0186
429.9200, 334.0119
430.4021, 331.5034
430.8842, 328.6611
431.3664, 325.7675
431.8485, 323.1841
432.3306, 322.3129
432.8127, 323.1938
433.2948, 325.5923
433.7769, 329.5299
434.2591, 334.9609
434.7412, 341.1711
435.2233, 348.0265
435.7054, 355.9201
436.1875, 365.1217
436.6696, 375.7985
437.1518, 388.5922
437.6339, 402.0945
438.1160, 418.8929
438.5981, 441.3439
439.0802, 469.8639
439.5623, 509.2461
440.0445, 564.9466
440.5266, 632.8400
441.0087, 708.4132
441.4908, 790.7294
441.9729, 880.4731
442.4550, 973.2375
442.9372, 1074.026
443.4193, 1193.176
443.9014, 1374.432
444.3835, 1541.410
444.8656, 1679.116
445.3477, 1790.702
445.8299, 1781.111
446.3120, 1528.924
446.7941, 1197.533
447.2762, 917.0834
447.7583, 702.5711
448.2404, 538.1734
448.7226, 438.9404
449.2047, 389.9456
449.6868, 352.7428
450.1689, 331.1280
450.6510, 315.8026
451.1331, 304.3516
451.6153, 297.1579
452.0974, 291.1949
452.5795, 286.5828
453.0616, 283.0215
453.5437, 280.1753
454.0258, 278.1274
454.5080, 276.3639
454.9901, 274.7065
455.4722, 273.3227
455.9543, 272.6961
456.4364, 272.8416
456.9185, 273.4274
457.4007, 274.3327
457.8828, 275.5143
458.3649, 276.5664
458.8470, 277.2838
459.3291, 278.9941
459.8112, 283.3780
460.2934, 289.8330
460.7755, 296.9804
461.2576, 304.4916
461.7397, 312.4204
462.2218, 320.1116
462.7039, 328.0428
463.1861, 338.0836
463.6682, 353.3064
464.1503, 369.9593
464.6324, 386.9253
465.1145, 407.8134
465.5966, 417.6290
466.0788, 406.2746
466.5609, 382.5157
467.0430, 357.7262
467.5251, 328.8472
468.0072, 304.6174
468.4893, 287.6093
468.9715, 277.6005
469.4536, 270.6368
469.9357, 268.2735
470.4178, 267.2816
470.8999, 266.0234
471.3820, 264.2140
471.8642, 262.8575
472.3463, 261.9227
472.8284, 261.4831
473.3105, 261.7587
473.7926, 262.8703
474.2747, 263.9829
474.7569, 264.7071
475.2390, 265.2575
475.7211, 266.6388
476.2032, 268.8983
476.6853, 271.3649
477.1674, 273.2292
477.6496, 274.8890
478.1317, 277.6264
478.6138, 281.7204
479.0959, 286.4700
479.5780, 291.7885
480.0602, 297.2048
480.5423, 301.5317
481.0244, 304.2760
481.5065, 305.7677
481.9886, 305.7218
482.4707, 304.3516
482.9529, 303.3037
483.4350, 304.6094
483.9171, 305.7622
484.3992, 304.9630
484.8813, 301.7625
485.3634, 296.9267
485.8456, 289.0653
486.3277, 280.0796
486.8098, 272.8607
487.2919, 268.5173
487.7740, 265.0300
488.2561, 262.2133
488.7383, 260.0285
489.2204, 258.3530
489.7025, 257.3918
490.1846, 256.6416
490.6667, 255.7713
491.1488, 254.7140
491.6310, 253.8819
492.1131, 253.2085
492.5952, 252.9099
493.0773, 253.6484
493.5594, 255.4150
494.0415, 256.4643
494.5237, 255.8423
495.0058, 254.3449
495.4879, 253.9800
495.9700, 254.6723
496.4521, 255.3110
496.9342, 254.6139
497.4164, 253.5104
497.8985, 253.6413
498.3806, 255.4729
498.8627, 257.2876
499.3448, 257.6800
499.8269, 257.2531
500.3091, 256.9159
500.7912, 256.9770
501.2733, 257.2192
501.7554, 257.6656
502.2375, 258.2585
502.7196, 258.6997
503.2018, 258.7680
503.6839, 258.7926
504.1660, 258.8855
504.6481, 258.9310
505.1302, 259.3709
505.6123, 260.1899
506.0945, 261.4106
506.5766, 263.0255
507.0587, 264.9694
507.5408, 267.4501
508.0229, 270.4926
508.5050, 274.1165
508.9872, 278.9013
509.4693, 285.0990
509.9514, 290.7417
510.4335, 294.7542
510.9156, 297.3031
511.3977, 298.6607
511.8799, 298.6631
512.3619, 299.0210
512.8441, 301.8804
513.3262, 306.3767
513.8083, 310.4690
514.2904, 313.2516
514.7725, 316.0600
515.2546, 320.1593
515.7368, 325.2558
516.2189, 330.6931
516.7010, 334.9844
517.1831, 340.4605
517.6652, 348.2044
518.1473, 358.2829
518.6295, 371.0484
519.1116, 385.1576
519.5937, 402.9447
520.0758, 425.8774
520.5579, 456.3897
521.0400, 489.2713
521.5222, 523.3492
522.0043, 560.3940
522.4864, 603.1749
522.9685, 650.4544
523.4506, 707.4006
523.9327, 777.7539
524.4149, 859.2825
524.8970, 940.9952
525.3791, 1030.123
525.8612, 1083.208
526.3433, 1061.286
526.8254, 973.1387
527.3076, 858.4691
527.7897, 714.8918
528.2718, 576.2304
528.7539, 478.4908
529.2360, 415.5204
529.7181, 370.7583
530.2003, 344.5805
530.6824, 327.8833
531.1645, 314.1317
531.6466, 303.3879
532.1287, 294.8984
532.6108, 289.1193
533.0930, 284.9473
533.5751, 281.8284
534.0572, 279.8421
534.5393, 278.3294
535.0214, 277.6490
535.5035, 277.1382
535.9857, 276.2224
536.4678, 274.4232
536.9499, 272.9461
537.4320, 271.9532
537.9141, 271.2846
538.3962, 270.5685
538.8784, 269.7308
539.3605, 269.0447
539.8426, 268.5912
540.3247, 268.3650
540.8068, 268.5182
541.2889, 269.0972
541.7711, 269.5447
542.2532, 269.2924
542.7353, 268.5351
543.2174, 267.7737
543.6995, 267.0210
544.1816, 266.5271
544.6638, 266.7007
545.1459, 267.2946
545.6280, 267.8532
546.1101, 268.3427
546.5922, 268.6090
547.0743, 268.5268
547.5565, 268.1346
548.0386, 267.5811
548.5207, 266.6877
549.0028, 265.8300
549.4849, 265.2107
549.9670, 264.9204
550.4492, 264.5318
550.9313, 263.8342
551.4134, 263.2071
551.8955, 262.9942
552.3776, 263.4404
552.8597, 263.5876
553.3419, 263.1809
553.8240, 262.6206
554.3061, 262.9111
554.7882, 264.1346
555.2703, 264.9329
555.7524, 264.3932
556.2346, 263.2265
556.7167, 263.6423
557.1988, 265.5115
557.6809, 267.0139
558.1630, 266.2386
558.6451, 264.5139
559.1273, 263.7638
559.6094, 264.3189
560.0915, 265.1656
560.5736, 265.8373
561.0557, 266.3665
561.5378, 266.7910
562.0200, 266.9008
562.5021, 267.1507
562.9842, 267.7746
563.4663, 268.6334
563.9484, 269.3319
564.4305, 269.7471
564.9127, 270.1223
565.3948, 270.5279
565.8769, 270.9620
566.3590, 271.3476
566.8411, 271.6782
567.3232, 271.9829
567.8054, 272.1729
568.2875, 272.2540
568.7696, 272.8004
569.2517, 273.8619
569.7338, 275.3844
570.2159, 277.2794
570.6981, 279.5691
571.1802, 282.4734
571.6623, 286.2810
572.1444, 290.4561
572.6265, 294.3844
573.1086, 298.2293
573.5908, 302.5299
574.0729, 307.4530
574.5550, 313.0490
575.0371, 319.6378
575.5192, 327.2448
576.0013, 334.5548
576.4835, 342.3907
576.9656, 348.9272
577.4477, 353.2527
577.9298, 356.6911
578.4119, 355.0982
578.8940, 346.9369
579.3762, 335.1323
579.8583, 323.1329
580.3404, 310.4095
580.8225, 299.6871
581.3046, 291.5515
581.7867, 285.7915
582.2689, 282.7035
582.7510, 282.1490
583.2331, 281.9734
583.7152, 280.8681
584.1973, 279.4013
584.6794, 278.6731
585.1616, 278.6731
585.6437, 278.5623
586.1258, 277.2780
586.6079, 275.8678
587.0900, 275.4295
587.5721, 276.5694
588.0543, 277.5708
588.5364, 277.5685
589.0185, 277.2148
589.5006, 277.3252
589.9827, 278.1404
590.4648, 279.2709
590.9470, 280.7943
591.4291, 282.5869
591.9112, 284.0749
592.3933, 284.8802
592.8754, 286.4831
593.3575, 289.5749
593.8397, 294.0179
594.3218, 298.8253
594.8039, 303.9184
595.2860, 309.3475
595.7681, 314.7931
596.2502, 320.6245
596.7324, 327.4320
597.2145, 335.1426
597.6966, 344.8496
598.1787, 357.7319
598.6608, 372.9107
599.1429, 389.3981
599.6251, 413.7598
600.1072, 430.9882
600.5893, 435.4066
601.0714, 428.5540
601.5535, 413.7140
602.0356, 380.7378
602.5178, 351.4641
602.9999, 330.6382
603.4820, 317.9243
603.9641, 308.8540
604.4462, 303.9492
604.9283, 301.3004
605.4105, 300.0468
605.8926, 300.1885
606.3747, 300.9489
606.8568, 302.2756
607.3389, 304.5133
607.8210, 308.1756
608.3032, 313.0632
608.7853, 318.5304
609.2674, 324.4113
609.7495, 331.0769
610.2316, 338.5664
610.7137, 347.1029
611.1959, 357.2135
611.6780, 369.6974
612.1601, 383.0471
612.6422, 396.3902
613.1243, 409.9540
613.6064, 425.6664
614.0886, 444.6737
614.5707, 464.6260
615.0528, 486.6190
615.5349, 511.1408
616.0170, 528.0843
616.4991, 539.0543
616.9813, 538.9631
617.4634, 520.9343
617.9455, 485.4856
618.4276, 449.0618
618.9097, 411.8257
619.3918, 378.0517
619.8740, 352.7235
620.3561, 334.4886
620.8382, 319.8347
621.3203, 307.9487
621.8024, 298.9284
622.2845, 293.6138
622.7667, 290.9978
623.2488, 288.8734
623.7309, 286.8283
624.2130, 284.7501
624.6951, 282.3300
625.1772, 279.6595
625.6594, 277.9376
626.1415, 277.9072
626.6236, 277.8426
627.1057, 276.8615
627.5878, 274.8076
628.0699, 273.7922
628.5521, 274.0475
629.0342, 274.6028
629.5163, 274.6192
629.9984, 274.1710
630.4805, 273.5181
630.9626, 272.5880
631.4448, 271.9605
631.9269, 272.5141
632.4090, 273.7874
632.8911, 274.9584
633.3732, 275.9340
633.8553, 276.4721
634.3375, 276.2361
634.8196, 275.4632
635.3017, 274.6737
635.7838, 273.7316
636.2659, 273.0693
636.7480, 272.8970
637.2302, 273.1573
637.7123, 273.4052
638.1944, 273.6530
638.6765, 273.8713
639.1586, 274.0142
639.6407, 274.0861
640.1229, 274.4356
640.6050, 275.1379
641.0871, 275.5781
641.5692, 274.7333
642.0513, 273.2348
642.5334, 272.7821
643.0156, 273.8075
643.4977, 274.9251
643.9798, 274.5593
644.4619, 273.7027
644.9440, 273.7037
645.4261, 275.7809
645.9083, 277.7663
646.3904, 279.2028
646.8725, 280.0742
647.3546, 280.2568
647.8367, 279.0253
648.3188, 278.1960
648.8010, 278.1823
649.2831, 278.8616
649.7652, 279.6844
650.2473, 280.6827
650.7294, 281.6929
651.2115, 282.6774
651.6937, 283.6162
652.1758, 284.3883
652.6579, 285.0079
653.1400, 285.6812
653.6221, 286.2769
654.1042, 287.1653
654.5864, 289.0380
655.0685, 292.1632
655.5506, 294.9565
656.0327, 296.2132
656.5148, 296.9481
656.9969, 298.0891
657.4791, 300.2057
657.9612, 302.1200
658.4433, 303.3210
658.9254, 304.5561
659.4075, 307.1232
659.8896, 311.5844
660.3718, 315.2309
660.8539, 317.2481
661.3360, 318.4516
661.8181, 320.8447
662.3002, 324.3065
662.7823, 327.6424
663.2645, 330.2505
663.7466, 332.4366
664.2287, 334.2831
664.7108, 335.9450
665.1929, 338.2854
665.6750, 341.7945
666.1572, 346.1036
666.6393, 351.2493
667.1214, 357.3199
667.6035, 362.9998
668.0856, 369.8227
668.5677, 374.6861
669.0499, 375.9376
669.5320, 373.0988
670.0141, 368.0137
670.4962, 360.0806
670.9783, 351.1994
671.4604, 343.0824
671.9426, 335.7538
672.4247, 329.4183
672.9068, 324.2708
673.3889, 319.9911
673.8710, 316.2194
674.3531, 313.0751
674.8353, 310.8636
675.3174, 310.0082
675.7995, 309.6671
676.2816, 309.3739
676.7637, 309.2605
677.2458, 309.6256
677.7280, 310.2146
678.2101, 311.6846
678.6922, 314.4112
679.1743, 318.1911
679.6564, 321.6674
680.1385, 324.5696
680.6207, 328.1104
681.1028, 332.9892
681.5849, 339.0015
682.0670, 345.4355
682.5491, 352.3204
683.0313, 359.2834
683.5134, 365.2872
683.9955, 371.5958
684.4776, 381.1266
684.9597, 394.2576
685.4418, 405.9237
685.9240, 414.1167
686.4061, 418.9861
686.8882, 420.7881
687.3703, 419.9856
687.8524, 414.7789
688.3345, 402.9565
688.8167, 388.7248
689.2988, 375.8445
689.7809, 364.3450
690.2630, 354.3927
690.7451, 345.8759
691.2272, 338.9735
691.7094, 334.0352
692.1915, 330.9961
692.6736, 329.2892
693.1557, 329.0485
693.6378, 329.6479
694.1199, 330.4107
694.6021, 331.4783
695.0842, 333.1777
695.5663, 335.3595
696.0484, 338.4662
696.5305, 342.7935
697.0126, 348.2402
697.4948, 354.3136
697.9769, 360.8244
698.4590, 368.0729
698.9411, 376.0834
699.4232, 384.9232
699.9053, 395.0188
700.3875, 406.5043
700.8696, 418.5843
701.3517, 430.8822
701.8338, 443.3606
702.3159, 456.6987
702.7980, 470.9224
703.2802, 482.9158
703.7623, 492.9118
704.2444, 498.2681
704.7265, 496.3023
705.2086, 486.1989
705.6907, 470.6127
706.1729, 445.0440
706.6550, 417.6205
707.1371, 394.6105
707.6192, 377.2950
708.1013, 362.0215
708.5834, 348.6227
709.0656, 337.3761
709.5477, 329.3716
710.0298, 324.4067
710.5119, 319.5572
710.9940, 314.0982
711.4761, 308.9373
711.9582, 305.0776
712.4403, 302.3978
712.9224, 300.7182
713.4045, 300.8200
713.8867, 300.9410
714.3688, 299.9818
714.8509, 298.4048
715.3330, 297.2197
715.8151, 296.5478
716.2972, 296.4016
716.7794, 297.0476
717.2615, 298.2002
717.7436, 298.6543
718.2257, 298.1953
718.7078, 298.1315
719.1899, 299.2925
719.6721, 301.1176
720.1542, 301.7628
720.6363, 301.4204
721.1184, 301.6150
721.6005, 304.0446
722.0826, 306.9662
722.5648, 308.2833
723.0469, 308.0654
723.5290, 308.8822
724.0111, 312.2455
724.4932, 316.3594
724.9753, 320.1457
725.4575, 323.3539
725.9396, 327.7456
726.4217, 333.5369
726.9038, 340.0616
727.3859, 347.1584
727.8680, 354.7637
728.3502, 362.4456
728.8323, 370.3297
729.3144, 377.5328
729.7965, 384.8884
730.2786, 390.4344
730.7607, 391.1030
731.2429, 385.9682
731.7250, 377.6014
732.2071, 364.5919
732.6892, 350.4189
733.1713, 338.4823
733.6534, 329.9445
734.1356, 322.6293
734.6177, 316.7845
735.0998, 312.0121
735.5819, 307.8755
736.0640, 304.3731
736.5461, 301.4979
737.0283, 299.2019
737.5104, 297.6473
737.9925, 297.6858
738.4746, 298.6884
738.9567, 298.9511
739.4388, 297.3071
739.9210, 295.5908
740.4031, 295.1105
740.8852, 295.4279
741.3673, 295.7082
741.8494, 295.8062
742.3315, 295.7646
742.8137, 295.5195
743.2958, 295.1636
743.7779, 294.9155
744.2600, 294.7525
744.7421, 294.8257
745.2242, 295.2867
745.7064, 295.9387
746.1885, 296.1570
746.6706, 296.0486
747.1527, 296.1383
747.6348, 297.0165
748.1169, 297.9777
748.5991, 298.1929
749.0812, 297.8794
749.5633, 298.0742
750.0454, 299.4966
750.5275, 301.1135
751.0096, 302.6534
751.4918, 304.0812
751.9739, 305.0734
752.4560, 305.3786
752.9381, 305.9240
753.4202, 307.3329
753.9023, 309.3784
754.3845, 311.0806
754.8666, 312.4350
755.3487, 313.7111
755.8308, 314.8297
756.3129, 316.1185
756.7950, 317.9709
757.2772, 320.4083
757.7593, 323.0216
758.2414, 325.3703
758.7235, 328.1140
759.2056, 331.6325
759.6877, 335.8589
760.1699, 341.0092
760.6520, 347.1626
761.1341, 354.0363
761.6162, 361.1911
762.0983, 368.7612
762.5804, 378.1479
763.0626, 389.5518
763.5447, 401.6240
764.0268, 413.6899
764.5089, 425.5820
764.9910, 437.4933
765.4731, 450.1459
765.9553, 458.8896
766.4374, 461.1270
766.9195, 459.2469
767.4016, 454.7833
767.8837, 446.5689
768.3658, 439.0958
768.8480, 431.7781
769.3301, 426.4447
769.8122, 424.9091
770.2943, 427.0880
770.7764, 432.0710
771.2585, 439.7197
771.7407, 450.3975
772.2228, 464.4496
772.7049, 481.7724
773.1870, 502.3891
773.6691, 526.7802
774.1512, 553.1702
774.6334, 581.3429
775.1155, 610.9637
775.5976, 642.0616
776.0797, 677.7266
776.5618, 709.2732
777.0439, 739.0491
777.5261, 760.7660
778.0082, 767.1223
778.4903, 758.3751
778.9724, 734.6561
779.4545, 693.3987
779.9366, 646.5051
780.4188, 602.4719
780.9009, 563.0980
781.3830, 532.1025
781.8651, 511.2924
782.3472, 497.1471
782.8293, 489.2852
783.3115, 487.4659
783.7936, 491.1207
784.2757, 501.8750
784.7578, 514.3326
785.2399, 528.6587
785.7220, 543.1041
786.2042, 556.4366
786.6863, 567.9764
787.1684, 573.0478
787.6505, 570.6420
788.1326, 560.9661
788.6147, 540.9084
789.0969, 514.3974
789.5790, 488.1248
790.0611, 461.9117
790.5432, 438.6971
791.0253, 418.8461
791.5074, 402.2757
791.9896, 389.6516
792.4717, 381.6364
792.9538, 374.9777
793.4359, 369.2758
793.9180, 364.4104
794.4001, 359.8089
794.8823, 355.6927
795.3644, 353.1517
795.8465, 353.0607
796.3286, 353.5417
796.8107, 352.7455
797.2928, 351.4663
797.7750, 351.0338
798.2571, 352.3607
798.7392, 353.8889
799.2213, 354.9837
799.7034, 356.3002
800.1855, 358.9466
800.6677, 362.9695
801.1498, 368.0144
801.6319, 374.1177
802.1140, 380.9291
802.5961, 387.9286
803.0782, 395.1479
803.5604, 402.7183
804.0425, 410.9796
804.5246, 419.1592
805.0067, 428.0641
805.4888, 436.2340
805.9709, 441.3130
806.4531, 443.6750
806.9352, 441.2672
807.4173, 432.7925
807.8994, 420.3349
808.3815, 406.7930
808.8636, 392.0492
809.3458, 379.6803
809.8279, 370.8600
810.3100, 363.9927
810.7921, 356.8596
811.2742, 350.0476
811.7563, 344.8863
812.2385, 342.9676
812.7206, 341.2530
813.2027, 338.0795
813.6848, 334.4359
814.1669, 332.0211
814.6490, 331.4784
815.1312, 330.9016
815.6133, 329.9849
816.0954, 329.0522
816.5775, 328.7820
817.0596, 329.0691
817.5417, 329.1104
818.0239, 328.6782
818.5060, 327.9898
818.9881, 326.8365
819.4702, 325.7062
819.9523, 325.3636
820.4344, 327.2814
820.9166, 328.3781
821.3987, 327.2484
821.8808, 325.3685
822.3629, 324.5996
822.8450, 325.1960
823.3271, 325.6407
823.8093, 325.6156
824.2914, 325.6791
824.7735, 327.0860
825.2556, 329.2253
825.7377, 330.2906
826.2198, 329.3807
826.7020, 328.5096
827.1841, 329.1718
827.6662, 330.5467
828.1483, 331.6909
828.6304, 332.4966
829.1125, 332.9095
829.5947, 332.7541
830.0768, 332.4092
830.5589, 332.3658
831.0410, 332.6176
831.5231, 332.5167
832.0052, 331.8470
832.4874, 331.5419
832.9695, 333.2033
833.4516, 335.6932
833.9337, 337.2502
834.4158, 337.1932
834.8979, 337.1470
835.3801, 337.7963
835.8622, 338.6191
836.3443, 339.1133
836.8264, 338.9964
837.3085, 339.4003
837.7906, 340.4094
838.2728, 341.6671
838.7549, 343.0469
839.2370, 344.3895
839.7191, 345.0008
840.2012, 344.7382
840.6833, 344.7321
841.1655, 346.0310
841.6476, 347.8276
842.1297, 349.3892
842.6118, 350.4632
843.0939, 352.0137
843.5760, 354.7782
844.0582, 357.1278
844.5403, 357.6672
845.0224, 356.3410
845.5045, 356.3282
845.9866, 357.6598
846.4688, 359.6572
846.9509, 362.5414
847.4330, 365.3626
847.9151, 366.4832
848.3972, 365.8497
848.8793, 365.8463
849.3615, 367.7169
849.8436, 370.1825
850.3257, 372.6322
850.8078, 375.0520
851.2899, 377.6306
851.7720, 380.4194
852.2542, 383.1533
852.7363, 385.4107
853.2184, 387.5379
853.7005, 390.5633
854.1826, 394.4030
854.6647, 398.5497
855.1469, 402.4579
855.6290, 406.7468
856.1111, 411.8641
856.5932, 417.7569
857.0753, 423.8815
857.5574, 429.7939
858.0396, 436.7022
858.5217, 444.8644
859.0038, 454.2680
859.4859, 464.7879
859.9680, 476.4041
860.4501, 489.1653
860.9323, 501.9494
861.4144, 517.2069
861.8965, 536.3072
862.3786, 559.9023
862.8607, 590.0651
863.3428, 625.0536
863.8250, 669.9691
864.3071, 724.2141
864.7892, 788.2953
865.2713, 863.8564
865.7534, 952.7602
866.2355, 1039.652
866.7177, 1122.162
867.1998, 1200.555
867.6819, 1273.637
868.1640, 1344.186
868.6461, 1418.979
869.1282, 1497.937
869.6104, 1586.493
870.0925, 1682.156
870.5746, 1792.607
871.0567, 1924.451
871.5388, 2074.460
872.0209, 2251.379
872.5031, 2449.676
872.9852, 2690.322
873.4673, 2985.864
873.9494, 3346.362
874.4315, 3801.467
874.9136, 4357.282
875.3958, 5008.984
875.8779, 5765.737
876.3600, 6623.357
876.8421, 7591.685
877.3242, 8706.437
877.8063, 9858.848
878.2885, 11178.63
878.7706, 12300.85
879.2527, 13066.98
879.7348, 13433.35
880.2169, 12978.42
880.6990, 11712.94
881.1812, 10148.72
881.6633, 8379.344
882.1454, 6685.262
882.6275, 5301.698
883.1096, 4250.194
883.5917, 3415.091
884.0739, 2847.944
884.5560, 2406.548
885.0381, 2064.739
885.5202, 1811.979
886.0023, 1606.189
886.4844, 1446.120
886.9666, 1313.437
887.4487, 1206.005
887.9308, 1116.855
888.4129, 1040.990
888.8950, 976.9160
889.3771, 921.9486
889.8593, 877.6473
890.3414, 838.6467
890.8235, 804.3976
891.3056, 774.1464
891.7877, 747.7403
892.2698, 725.2888
892.7520, 704.3283
893.2341, 684.4498
893.7162, 666.1468
894.1983, 650.4095
894.6804, 636.8736
895.1625, 624.2881
895.6447, 612.2413
896.1268, 601.2986
896.6089, 591.5260
897.0910, 582.9943
897.5731, 575.7589
898.0552, 570.2924
898.5374, 564.0428
899.0195, 556.5612
899.5016, 549.5504
899.9837, 544.6561
900.4658, 541.3586
900.9479, 538.3702
901.4301, 535.5837
901.9122, 533.8035
902.3943, 533.1595
902.8764, 533.9141
903.3585, 536.8900
903.8406, 542.0535
904.3228, 545.8497
904.8049, 547.7995
905.2870, 549.8128
905.7691, 552.4713
906.2512, 556.0873
906.7333, 561.7473
907.2155, 569.3006
907.6976, 577.8378
908.1797, 586.3842
908.6618, 596.2813
909.1439, 607.4835
909.6260, 620.6058
910.1082, 637.3297
910.5903, 657.5120
911.0724, 681.1710
911.5545, 707.6761
912.0366, 738.4161
912.5187, 775.5133
913.0009, 819.1588
913.4830, 869.0245
913.9651, 926.2338
914.4472, 988.6727
914.9293, 1058.909
915.4114, 1131.788
915.8936, 1202.203
916.3757, 1277.681
916.8578, 1335.276
917.3399, 1377.008
917.8220, 1395.556
918.3041, 1380.307
918.7863, 1335.413
919.2684, 1271.566
919.7505, 1189.808
920.2326, 1113.217
920.7147, 1050.486
921.1968, 1005.336
921.6790, 981.8809
922.1611, 981.6910
922.6432, 991.1270
923.1253, 1013.591
923.6074, 1038.285
924.0895, 1066.557
924.5717, 1091.303
925.0538, 1087.085
925.5359, 1056.105
926.0180, 1008.210
926.5001, 935.5187
926.9822, 860.3168
927.4644, 791.4102
927.9465, 730.3685
928.4286, 682.3542
928.9107, 649.2176
929.3928, 624.6399
929.8749, 608.7436
930.3571, 599.7628
930.8392, 595.1895
931.3213, 595.0627
931.8034, 599.6618
932.2855, 609.1406
932.7676, 622.6630
933.2498, 638.7844
933.7319, 659.2590
934.2140, 685.9450
934.6961, 719.8295
935.1782, 758.9860
935.6603, 805.6936
936.1425, 853.6761
936.6246, 901.2769
937.1067, 947.5477
937.5888, 992.7714
938.0709, 1035.803
938.5530, 1063.982
939.0352, 1070.803
939.5173, 1059.600
939.9994, 1027.901
940.4815, 978.5137
940.9636, 926.1290
941.4457, 867.1330
941.9279, 815.5880
942.4100, 774.9863
942.8921, 744.3289
943.3742, 721.5671
943.8563, 706.9200
944.3384, 700.0157
944.8206, 700.8298
945.3027, 709.1749
945.7848, 724.2526
946.2669, 747.2585
946.7490, 779.9130
947.2311, 822.0836
947.7133, 872.8145
948.1954, 932.6180
948.6775, 999.4508
949.1596, 1076.567
949.6417, 1158.359
950.1238, 1236.954
950.6060, 1310.621
951.0881, 1357.812
951.5702, 1373.482
952.0523, 1353.840
952.5344, 1284.781
953.0165, 1174.507
953.4987, 1062.996
953.9808, 947.1086
954.4629, 843.1799
954.9450, 757.7620
955.4271, 688.0348
955.9092, 632.3171
956.3914, 588.6848
956.8735, 552.7003
957.3556, 524.5560
957.8376, 501.0934
958.3198, 482.3439
958.8019, 467.3373
959.2840, 454.8369
959.7661, 445.1987
960.2482, 435.9445
960.7303, 426.7809
961.2125, 418.7462
961.6946, 413.3852
962.1767, 409.4179
962.6588, 404.6981
963.1409, 399.0944
963.6230, 394.3674
964.1052, 391.8167
964.5873, 389.5816
965.0694, 386.8730
965.5515, 383.8149
966.0336, 381.2430
966.5157, 379.1643
966.9979, 377.1562
967.4800, 375.0132
967.9621, 372.9249
968.4442, 371.3119
968.9263, 369.8893
969.4084, 368.1698
969.8906, 364.7399
970.3727, 362.9717
970.8548, 363.9618
971.3369, 365.5679
971.8190, 365.0605
972.3011, 362.7304
972.7833, 361.6681
973.2654, 362.2115
973.7475, 362.6710
974.2296, 361.2810
974.7117, 359.5233
975.1938, 358.6404
975.6760, 358.7775
976.1581, 359.0182
976.6402, 359.6259
977.1223, 359.5820
977.6044, 358.0624
978.0865, 355.9633
978.5687, 356.1061
979.0508, 357.9785
979.5329, 359.6637
980.0150, 360.1437
980.4971, 360.5222
980.9792, 361.4284
981.4614, 362.5726
981.9435, 363.4852
982.4256, 363.8591
982.9077, 365.1019
983.3898, 367.5244
983.8719, 369.9237
984.3541, 370.7614
984.8362, 370.8081
985.3183, 371.3011
985.8004, 372.3675
986.2825, 374.3049
986.7646, 377.8707
987.2468, 381.6855
987.7289, 385.0080
988.2110, 388.0375
988.6931, 391.7361
989.1752, 396.1178
989.6573, 401.0242
990.1395, 406.5429
990.6216, 412.3266
991.1037, 418.0597
991.5858, 423.8251
992.0679, 429.8020
992.5500, 436.6120
993.0322, 442.6175
993.5143, 447.8008
993.9964, 452.1377
994.4785, 455.6738
994.9606, 458.3756
995.4427, 459.6691
995.9249, 459.5368
996.4070, 458.4140
996.8891, 456.3588
997.3712, 453.6444
997.8533, 450.7316
998.3354, 447.4258
998.8176, 442.1351
999.2997, 433.6156
999.7818, 426.2985
1000.264, 421.4482
1000.746, 418.5234
1001.228, 416.6601
1001.710, 416.0484
1002.192, 417.5611
1002.674, 422.5592
1003.157, 426.6180
1003.639, 426.6735
1004.121, 425.7971
1004.603, 426.3299
1005.085, 428.4032
1005.567, 430.4915
1006.049, 432.4658
1006.531, 436.4026
1007.014, 444.6000
1007.496, 455.0174
1007.978, 465.9003
1008.460, 477.0740
1008.942, 488.4955
1009.424, 499.0464
1009.906, 511.4391
1010.388, 527.3113
1010.870, 544.0880
1011.353, 557.2713
1011.835, 567.3035
1012.317, 575.4620
1012.799, 581.8372
1013.281, 587.2415
1013.763, 590.7219
1014.245, 594.5228
1014.727, 600.1748
1015.210, 607.6929
1015.692, 618.8326
1016.174, 634.0254
1016.656, 651.2715
1017.138, 670.1254
1017.620, 689.9528
1018.102, 709.9213
1018.584, 729.4220
1019.066, 747.2838
1019.549, 766.0126
1020.031, 779.1276
1020.513, 786.0707
1020.995, 786.0773
1021.477, 777.3348
1021.959, 759.7111
1022.441, 737.0999
1022.923, 709.5867
1023.406, 679.3167
1023.888, 645.5948
1024.370, 611.8237
1024.852, 580.6802
1025.334, 552.4648
1025.816, 527.0159
1026.298, 504.2756
1026.780, 484.6108
1027.262, 468.5319
1027.745, 455.1245
1028.227, 442.4883
1028.709, 430.9692
1029.191, 421.2975
1029.673, 414.3150
1030.155, 407.9201
1030.637, 400.8162
1031.119, 394.2820
1031.602, 389.4075
1032.084, 386.4112
1032.566, 382.7972
1033.048, 378.5529
1033.530, 374.3903
1034.012, 370.8021
1034.494, 367.6112
1034.976, 364.5468
1035.458, 361.6805
1035.941, 359.3250
1036.423, 357.9499
1036.905, 356.3530
1037.387, 354.2324
1037.869, 352.1216
1038.351, 350.8832
1038.833, 350.3146
1039.315, 349.8267
1039.797, 349.3351
1040.280, 348.8061
1040.762, 348.4429
1041.244, 347.8124
1041.726, 346.4448
1042.208, 344.4944
1042.690, 343.1849
1043.172, 342.5668
1043.654, 341.9884
1044.137, 341.0869
1044.619, 340.2835
1045.101, 339.9659
1045.583, 340.1153
1046.065, 340.7636
1046.547, 342.8833
1047.029, 343.5459
1047.511, 342.0880
1047.994, 340.2136
1048.476, 339.1667
1048.958, 338.8442
1049.440, 339.0376
1049.922, 339.6483
1050.404, 340.0899
1050.886, 340.2461
1051.368, 339.9260
1051.850, 338.5780
1052.333, 336.8407
1052.815, 336.0160
1053.297, 336.2297
1053.779, 335.8361
1054.261, 334.4652
1054.743, 333.1195
1055.225, 332.8919
1055.707, 333.2284
1056.189, 333.5986
1056.672, 333.9507
1057.154, 334.0751
1057.636, 333.7316
1058.118, 333.7317
1058.600, 334.7498
1059.082, 335.9511
1059.564, 334.7396
1060.046, 331.9768
1060.529, 330.2006
1061.011, 330.8568
1061.493, 331.4755
1061.975, 330.5177
1062.457, 329.5532
1062.939, 330.0550
1063.421, 332.1690
1063.903, 333.2609
1064.385, 333.3272
1064.868, 332.8293
1065.350, 331.3092
1065.832, 330.0443
1066.314, 330.7141
1066.796, 332.5390
1067.278, 333.0164
1067.760, 331.1801
1068.242, 330.2173
1068.724, 330.7219
1069.207, 331.5984
1069.689, 331.4294
1070.171, 330.7008
1070.653, 330.3586
1071.135, 330.5069
1071.617, 330.6294
1072.099, 330.6881
1072.581, 330.4599
1073.064, 329.6406
1073.546, 328.5957
1074.028, 328.5912
1074.510, 329.4787
1074.992, 330.3606
1075.474, 331.0254
1075.956, 331.4103
1076.438, 331.4312
1076.921, 331.1603
1077.403, 330.4628
1077.885, 329.1386
1078.367, 329.4000
1078.849, 331.5031
1079.331, 333.0370
1079.813, 332.0332
1080.295, 330.0971
1080.777, 328.9919
1081.260, 328.6079
1081.742, 328.6835
1082.224, 329.6890
1082.706, 330.3364
1083.188, 330.4821
1083.670, 330.4268
1084.152, 330.4913
1084.634, 330.5997
1085.116, 330.5131
1085.599, 330.2292
1086.081, 329.8878
1086.563, 329.3646
1087.045, 329.0114
1087.527, 328.9014
1088.009, 329.0639
1088.491, 329.8745
1088.973, 331.2610
1089.455, 331.4106
1089.938, 329.7618
1090.420, 328.3474
1090.902, 329.6183
1091.384, 331.3063
1091.866, 331.2333
1092.348, 329.2843
1092.830, 328.0539
1093.312, 327.6071
1093.795, 327.5185
1094.277, 327.7402
1094.759, 328.0399
1095.241, 327.8310
1095.723, 327.5519
1096.205, 328.0312
1096.687, 330.2319
1097.169, 331.2494
1097.651, 330.4462
1098.134, 329.3694
1098.616, 329.0402
1099.098, 329.2643
1099.580, 329.5279
1100.062, 329.7709
1100.544, 329.7726
1101.026, 328.9922
1101.508, 328.5103
1101.990, 328.9086
1102.473, 329.5692
1102.955, 329.7519
1103.437, 329.4838
1103.919, 329.3847
1104.401, 329.4972
1104.883, 329.8516
1105.365, 330.7663
1105.847, 331.6568
1106.330, 332.1205
1106.812, 332.2198
1107.294, 332.1655
1107.776, 331.8502
1108.258, 332.1430
1108.740, 333.3472
1109.222, 334.5411
1109.704, 334.8000
1110.187, 334.4309
1110.669, 333.5953
1111.151, 332.2730
1111.633, 331.4791
1112.115, 331.2625
1112.597, 331.6028
1113.079, 332.7006
1113.561, 334.0415
1114.043, 334.7575
1114.526, 334.9666
1115.008, 334.8976
1115.490, 334.5509
1115.972, 334.1215
1116.454, 333.6631
1116.936, 333.1182
1117.418, 332.2542
1117.900, 331.2906
1118.382, 331.5272
1118.865, 332.7038
1119.347, 333.6747
1119.829, 333.8863
1120.311, 333.7878
1120.793, 333.2558
1121.275, 332.7195
1121.757, 332.6974
1122.239, 333.2286
1122.722, 333.2438
1123.204, 332.7310
1123.686, 332.3080
1124.168, 332.3041
1124.650, 332.6375
1125.132, 333.6424
1125.614, 334.8670
1126.096, 335.1251
1126.578, 334.1456
1127.061, 333.5833
1127.543, 333.7010
1128.025, 333.6518
1128.507, 331.7838
1128.989, 329.8659
1129.471, 330.4580
1129.953, 333.3457
1130.435, 334.5577
1130.917, 333.1118
1131.400, 331.9222
1131.882, 331.6573
1132.364, 331.8346
1132.846, 331.8650
1133.328, 331.7961
1133.810, 331.6868
1134.292, 331.5397
1134.774, 331.4552
1135.257, 331.5312
1135.739, 331.5406
1136.221, 331.3615
1136.703, 331.0998
1137.185, 331.0089
1137.667, 331.0518
1138.149, 331.0814
1138.631, 330.9382
1139.114, 331.1467
1139.596, 332.8430
1140.078, 333.9373
1140.560, 332.7394
1141.042, 329.8976
1141.524, 329.8192
1142.006, 331.9675
1142.488, 333.2430
1142.970, 331.3959
1143.453, 329.6933
1143.935, 330.2386
1144.417, 331.4577
1144.899, 331.6958
1145.381, 330.8191
1145.863, 331.0816
1146.345, 332.4371
1146.827, 333.4500
1147.309, 332.9686
1147.792, 332.0290
1148.274, 331.0761
1148.756, 330.2912
1149.238, 329.9727
1149.720, 330.2132
1150.202, 330.4196
1150.684, 330.5415
1151.166, 330.8034
1151.649, 331.9349
1152.131, 332.8395
1152.613, 331.8429
1153.095, 329.6439
1153.577, 329.2307
1154.059, 331.4383
1154.541, 333.0501
1155.023, 333.6509
1155.505, 333.4901
1155.988, 332.2050
1156.470, 330.7101
1156.952, 330.3394
1157.434, 331.1022
1157.916, 331.4457
1158.398, 331.0189
1158.880, 330.6361
1159.362, 330.4381
1159.844, 330.4747
1160.327, 331.0768
1160.809, 331.8602
1161.291, 332.1816
1161.773, 331.9258
1162.255, 331.3903
1162.737, 330.0902
1163.219, 329.5797
1163.701, 330.7050
1164.184, 332.4515
1164.666, 332.6413
1165.148, 331.8056
1165.630, 331.0737
1166.112, 330.6180
1166.594, 330.7133
1167.076, 332.0522
1167.558, 333.0571
1168.041, 332.8371
1168.523, 331.8860
1169.005, 331.7858
1169.487, 332.3118
1169.969, 332.7484
1170.451, 332.8912
1170.933, 332.8526
1171.415, 332.2379
1171.897, 331.9347
1172.380, 332.7257
1172.862, 334.3016
1173.344, 334.7220
1173.826, 334.2341
1174.308, 334.0533
1174.790, 335.3387
1175.272, 336.1096
1175.754, 334.8488
1176.236, 333.3464
1176.719, 333.0093
1177.201, 333.8076
1177.683, 335.2225
1178.165, 337.0991
1178.647, 338.2464
1179.129, 337.2081
1179.611, 336.1623
1180.093, 336.3220
1180.576, 336.8981
1181.058, 337.0277
1181.540, 336.7083
1182.022, 336.1548
1182.504, 335.3986
1182.986, 334.9811
1183.468, 335.4839
1183.950, 336.1897
1184.432, 336.7432
1184.915, 337.2047
1185.397, 337.7865
1185.879, 338.5096
1186.361, 338.6164
1186.843, 338.0446
1187.325, 337.3276
1187.807, 336.5162
1188.289, 336.0215
1188.771, 336.3793
1189.254, 336.2620
1189.736, 336.6528
1190.218, 337.3515
1190.700, 337.8288
1191.182, 339.2109
1191.664, 340.2352
1192.146, 339.3530
1192.628, 338.1346
1193.111, 337.7073
1193.593, 337.9593
1194.075, 338.2611
1194.557, 338.5719
1195.039, 339.8193
1195.521, 342.3886
1196.003, 344.2573
1196.485, 342.5119
1196.968, 340.1718
1197.450, 339.9353
1197.932, 341.5135
1198.414, 342.6562
1198.896, 343.3458
1199.378, 343.7150
1199.860, 343.7281
1200.342, 343.7134
1200.824, 344.1124
1201.307, 344.5248
1201.789, 344.5924
1202.271, 344.3098
1202.753, 343.6540
1203.235, 342.5405
1203.717, 342.3110
1204.199, 343.5921
1204.681, 345.0537
1205.163, 345.4251
1205.646, 345.3094
1206.128, 345.3439
1206.610, 345.5534
1207.092, 345.1689
1207.574, 344.1184
1208.056, 343.5806
1208.538, 344.1613
1209.020, 344.8790
1209.503, 344.7798
1209.985, 344.2901
1210.467, 343.5869
1210.949, 342.6648
1211.431, 343.5803
1211.913, 346.5029
1212.395, 348.5716
1212.877, 348.4617
1213.359, 347.4940
1213.842, 346.4067
1214.324, 345.4817
1214.806, 345.1042
1215.288, 345.2933
1215.770, 345.4888
1216.252, 345.7048
1216.734, 345.5302
1217.216, 344.3913
1217.698, 343.4778
1218.181, 344.2590
1218.663, 345.5789
1219.145, 346.0161
1219.627, 345.4619
1220.109, 344.9623
1220.591, 344.5172
1221.073, 344.0760
1221.555, 343.6105
1222.038, 343.1458
1222.520, 342.4118
1223.002, 341.8750
1223.484, 342.1849
1223.966, 343.4632
1224.448, 344.1686
1224.930, 344.3109
1225.412, 344.6529
1225.895, 346.2573
1226.377, 347.3815
1226.859, 346.2219
1227.341, 344.2350
1227.823, 343.1798
1228.305, 343.1164
1228.787, 343.6677
1229.269, 344.7748
1229.751, 345.2158
1230.234, 343.6227
1230.716, 341.9063
1231.198, 340.7513
1231.680, 340.4430
1232.162, 341.5529
1232.644, 344.1974
1233.126, 345.3653
1233.608, 345.1470
1234.090, 344.6375
1234.573, 344.5388
1235.055, 344.2448
1235.537, 343.0321
1236.019, 341.7821
1236.501, 341.5148
1236.983, 342.1946
1237.465, 342.3943
1237.947, 342.1516
1238.430, 341.8930
1238.912, 341.6767
1239.394, 341.7306
1239.876, 342.3634
1240.358, 343.1352
1240.840, 343.7725
1241.322, 344.2191
1241.804, 343.8627
1242.286, 342.8160
1242.769, 341.9189
1243.251, 341.4893
1243.733, 341.4564
1244.215, 341.9500
1244.697, 342.6125
1245.179, 343.1366
1245.661, 343.5358
1246.143, 343.9418
1246.625, 344.3160
1247.108, 344.4738
1247.590, 344.1978
1248.072, 343.8544
1248.554, 343.3978
1249.036, 343.0859
1249.518, 343.3237
1250.000, 343.8763
1250.482, 344.1283
1250.965, 344.0641
1251.447, 343.7065
1251.929, 342.3846
1252.411, 341.8861
1252.893, 342.6415
1253.375, 343.6649
1253.857, 344.0128
1254.339, 343.9376
1254.822, 343.7650
1255.304, 343.6064
1255.786, 343.7995
1256.268, 344.8623
1256.750, 345.5012
1257.232, 345.5877
1257.714, 345.4130
1258.196, 345.0513
1258.678, 344.7246
1259.161, 345.0287
1259.643, 344.4170
1260.125, 345.3963
1260.607, 343.7020
1261.089, 342.6580
1261.571, 342.4388
1262.053, 342.6148
1262.535, 343.1227
1263.017, 343.5975
1263.500, 343.5710
1263.982, 343.2281
1264.464, 343.0492
1264.946, 343.0718
1265.428, 343.0719
1265.910, 343.0125
1266.392, 343.3750
1266.874, 345.0834
1267.357, 346.7857
1267.839, 347.3646
1268.321, 347.2558
1268.803, 347.4948
1269.285, 348.1618
1269.767, 347.0813
1270.249, 344.2558
1270.731, 342.3141
1271.214, 344.0663
1271.696, 345.8638
1272.178, 345.4048
1272.660, 344.1855
1273.142, 343.7282
1273.624, 343.9938
1274.106, 344.9120
1274.588, 346.3014
1275.070, 346.8356
1275.552, 344.7358
1276.035, 343.1273
1276.517, 342.8651
1276.999, 343.3686
1277.481, 344.3907
1277.963, 345.6661
1278.445, 346.1270
1278.927, 345.9458
1279.409, 346.0066
1279.892, 347.3740
1280.374, 347.7855
1280.856, 346.6166
1281.338, 345.3480
1281.820, 345.5718
1282.302, 346.4503
1282.784, 346.3738
1283.266, 345.5523
1283.749, 344.6592
1284.231, 343.5109
1284.713, 343.0243
1285.195, 343.3061
1285.677, 343.8908
1286.159, 344.4752
1286.641, 345.1268
1287.123, 346.3723
1287.605, 347.6134
1288.088, 347.4979
1288.570, 345.4035
1289.052, 344.5040
1289.534, 344.8871
1290.016, 345.4140
1290.498, 345.0782
1290.980, 344.8694
1291.462, 345.9937
1291.944, 347.3606
1292.427, 347.4614
1292.909, 346.2098
1293.391, 345.4090
1293.873, 345.0501
1294.355, 344.9974
1294.837, 345.5253
1295.319, 345.8755
1295.801, 345.5001
1296.284, 345.0209
1296.766, 344.8785
1297.248, 345.0230
1297.730, 344.8402
1298.212, 344.6791
1298.694, 345.8349
1299.176, 350.2733
1299.658, 353.2639
1300.141, 354.3348
1300.623, 353.6191
1301.105, 350.1743
1301.587, 345.8592
1302.069, 344.8965
1302.551, 345.9582
1303.033, 346.3138
1303.515, 344.6244
1303.997, 343.9710
1304.479, 344.3134
1304.962, 345.9078
1305.444, 348.9420
##END=



