##NAMES=Phillipsite-Ca
##RRUFFID=R050078
##IDEAL CHEMISTRY=Ca_3_(Si_10_Al_6_)O_32_&#183;12H_2_O
##LOCALITY=Grant County, Oregon, USA
##OWNER=RRUFF
##SOURCE=Rock Currier
##DESCRIPTION=White tabular hexagonal
##STATUS=The identification of this mineral has been confirmed by X-ray diffraction and chemical analysis
##URL=rruff.info/R050078
##MEASURED CHEMISTRY=(Ca_0.90_K_0.75_[box]_0.25_Na_0.10_)_Σ=2_(Si_5.35_Al_2.65_)_Σ=8_O_16_·6H_2_O
126.0381, 1572.091
126.5202, 1703.421
127.0023, 1844.295
127.4844, 1990.772
127.9666, 2138.113
128.4487, 2286.286
128.9308, 2433.575
129.4129, 2575.681
129.8950, 2714.621
130.3772, 2853.313
130.8593, 2994.393
131.3414, 3136.731
131.8235, 3275.243
132.3056, 3407.422
132.7877, 3540.911
133.2699, 3685.089
133.7520, 3840.938
134.2341, 4000.104
134.7162, 4161.174
135.1983, 4324.870
135.6804, 4483.462
136.1626, 4635.932
136.6447, 4782.183
137.1268, 4922.894
137.6089, 5058.713
138.0910, 5182.879
138.5731, 5290.985
139.0553, 5385.975
139.5374, 5455.476
140.0195, 5489.774
140.5016, 5499.203
140.9837, 5524.536
141.4658, 5576.881
141.9480, 5628.046
142.4301, 5656.412
142.9122, 5647.850
143.3943, 5646.521
143.8764, 5659.051
144.3585, 5685.050
144.8407, 5712.211
145.3228, 5745.952
145.8049, 5776.526
146.2870, 5793.025
146.7691, 5772.693
147.2512, 5767.943
147.7334, 5794.034
148.2155, 5861.594
148.6976, 5913.218
149.1797, 5935.576
149.6618, 5945.884
150.1439, 5966.668
150.6261, 6011.134
151.1082, 6053.988
151.5903, 6087.741
152.0724, 6106.823
152.5545, 6128.756
153.0366, 6160.652
153.5188, 6195.896
154.0009, 6221.376
154.4830, 6235.757
154.9651, 6239.865
155.4472, 6234.000
155.9293, 6215.537
156.4115, 6191.145
156.8936, 6161.751
157.3757, 6127.286
157.8578, 6087.219
158.3399, 6031.911
158.8221, 5976.479
159.3042, 5930.282
159.7863, 5907.551
160.2684, 5882.688
160.7505, 5844.982
161.2326, 5795.849
161.7148, 5748.860
162.1969, 5712.744
162.6790, 5680.138
163.1611, 5644.397
163.6432, 5593.718
164.1253, 5546.585
164.6075, 5517.615
165.0896, 5507.502
165.5717, 5492.038
166.0538, 5450.852
166.5359, 5396.952
167.0180, 5348.914
167.5002, 5314.496
167.9823, 5288.335
168.4644, 5269.582
168.9465, 5259.758
169.4286, 5246.336
169.9107, 5214.614
170.3929, 5172.406
170.8750, 5135.332
171.3571, 5119.294
171.8392, 5109.445
172.3213, 5088.147
172.8034, 5050.426
173.2856, 5011.143
173.7677, 4985.127
174.2498, 4969.451
174.7319, 4954.503
175.2140, 4930.892
175.6961, 4905.098
176.1783, 4889.590
176.6604, 4892.770
177.1425, 4896.129
177.6246, 4870.414
178.1067, 4820.249
178.5888, 4773.915
179.0710, 4759.086
179.5531, 4763.700
180.0352, 4761.556
180.5173, 4745.454
180.9994, 4720.678
181.4815, 4692.835
181.9637, 4661.911
182.4458, 4635.096
182.9279, 4619.786
183.4100, 4613.915
183.8921, 4609.625
184.3742, 4606.101
184.8564, 4602.073
185.3385, 4593.144
185.8206, 4578.759
186.3027, 4565.266
186.7848, 4558.817
187.2669, 4559.002
187.7491, 4562.529
188.2312, 4571.169
188.7133, 4582.364
189.1954, 4587.124
189.6775, 4585.326
190.1596, 4577.361
190.6418, 4557.575
191.1239, 4526.609
191.6060, 4506.026
192.0881, 4514.166
192.5702, 4545.823
193.0524, 4551.388
193.5345, 4525.145
194.0166, 4487.731
194.4987, 4470.799
194.9808, 4475.316
195.4629, 4485.792
195.9451, 4501.236
196.4272, 4521.447
196.9093, 4519.328
197.3914, 4487.601
197.8735, 4443.652
198.3556, 4421.401
198.8378, 4423.607
199.3199, 4430.177
199.8020, 4433.152
200.2841, 4432.900
200.7662, 4421.714
201.2483, 4395.256
201.7305, 4361.183
202.2126, 4339.235
202.6947, 4331.868
203.1768, 4327.463
203.6589, 4319.679
204.1410, 4308.440
204.6232, 4295.296
205.1053, 4281.514
205.5874, 4265.424
206.0695, 4238.700
206.5516, 4196.314
207.0337, 4156.494
207.5159, 4134.034
207.9980, 4134.025
208.4801, 4129.037
208.9622, 4115.025
209.4443, 4093.513
209.9264, 4071.557
210.4086, 4048.794
210.8907, 4026.229
211.3728, 4006.116
211.8549, 3990.700
212.3370, 3968.649
212.8191, 3934.100
213.3013, 3890.056
213.7834, 3861.174
214.2655, 3854.214
214.7476, 3851.493
215.2297, 3837.222
215.7118, 3806.750
216.1940, 3777.067
216.6761, 3750.800
217.1582, 3727.792
217.6403, 3708.342
218.1224, 3695.975
218.6045, 3682.765
219.0867, 3659.438
219.5688, 3619.760
220.0509, 3585.241
220.5330, 3562.325
221.0151, 3551.005
221.4972, 3537.144
221.9794, 3519.736
222.4615, 3500.784
222.9436, 3481.843
223.4257, 3461.884
223.9078, 3443.966
224.3899, 3429.922
224.8721, 3420.099
225.3542, 3406.531
225.8363, 3385.563
226.3184, 3364.198
226.8005, 3351.115
227.2827, 3350.931
227.7648, 3350.563
228.2469, 3347.953
228.7290, 3343.773
229.2111, 3331.249
229.6932, 3303.715
230.1754, 3273.385
230.6575, 3257.710
231.1396, 3268.284
231.6217, 3272.948
232.1038, 3259.934
232.5859, 3223.661
233.0681, 3200.532
233.5502, 3197.045
234.0323, 3202.064
234.5144, 3198.975
234.9965, 3182.416
235.4786, 3166.793
235.9608, 3156.255
236.4429, 3151.549
236.9250, 3149.645
237.4071, 3154.597
237.8892, 3159.825
238.3713, 3153.792
238.8535, 3128.844
239.3356, 3105.420
239.8177, 3090.133
240.2998, 3084.714
240.7819, 3081.159
241.2640, 3081.545
241.7462, 3082.531
242.2283, 3077.440
242.7104, 3060.505
243.1925, 3047.104
243.6746, 3044.459
244.1567, 3059.067
244.6389, 3061.241
245.1210, 3044.862
245.6031, 3019.741
246.0852, 3003.430
246.5673, 2999.651
247.0494, 2998.349
247.5316, 2995.979
248.0137, 2991.621
248.4958, 2989.535
248.9779, 2991.166
249.4600, 2994.269
249.9421, 2994.797
250.4243, 2992.654
250.9064, 2988.085
251.3885, 2980.047
251.8706, 2965.714
252.3527, 2958.108
252.8348, 2961.562
253.3170, 2969.067
253.7991, 2966.621
254.2812, 2949.877
254.7633, 2931.534
255.2454, 2915.489
255.7275, 2901.230
256.2097, 2891.829
256.6918, 2888.207
257.1739, 2888.906
257.6560, 2892.262
258.1381, 2901.146
258.6202, 2906.753
259.1024, 2905.399
259.5845, 2895.769
260.0666, 2883.933
260.5487, 2866.986
261.0308, 2850.082
261.5129, 2842.714
261.9951, 2847.663
262.4772, 2855.704
262.9593, 2863.987
263.4414, 2873.155
263.9235, 2879.790
264.4056, 2883.701
264.8878, 2885.315
265.3699, 2885.061
265.8520, 2882.188
266.3341, 2879.611
266.8162, 2879.397
267.2983, 2882.672
267.7805, 2880.311
268.2626, 2869.889
268.7447, 2856.543
269.2268, 2849.651
269.7089, 2850.883
270.1910, 2852.568
270.6732, 2850.876
271.1553, 2845.024
271.6374, 2844.665
272.1195, 2852.176
272.6016, 2861.692
273.0837, 2862.264
273.5659, 2851.927
274.0480, 2842.719
274.5301, 2838.730
275.0122, 2840.048
275.4943, 2847.105
275.9764, 2862.917
276.4586, 2878.793
276.9407, 2879.713
277.4228, 2863.975
277.9049, 2848.123
278.3870, 2838.099
278.8691, 2833.765
279.3513, 2831.784
279.8334, 2831.884
280.3155, 2835.040
280.7976, 2846.231
281.2798, 2866.038
281.7619, 2878.014
282.2440, 2872.027
282.7261, 2851.070
283.2082, 2837.638
283.6903, 2832.150
284.1725, 2832.646
284.6546, 2839.759
285.1367, 2853.053
285.6188, 2862.455
286.1009, 2861.840
286.5830, 2854.192
287.0652, 2853.556
287.5473, 2860.958
288.0294, 2869.268
288.5115, 2870.423
288.9936, 2865.048
289.4757, 2858.234
289.9579, 2849.985
290.4400, 2841.907
290.9221, 2838.589
291.4042, 2840.211
291.8863, 2844.325
292.3684, 2850.184
292.8506, 2856.977
293.3327, 2861.103
293.8148, 2859.490
294.2969, 2855.652
294.7790, 2857.738
295.2611, 2865.770
295.7433, 2873.127
296.2254, 2873.712
296.7075, 2869.038
297.1896, 2863.396
297.6717, 2857.875
298.1538, 2852.042
298.6360, 2842.208
299.1181, 2829.117
299.6002, 2822.593
300.0823, 2836.862
300.5644, 2862.246
301.0465, 2880.619
301.5287, 2886.558
302.0108, 2884.433
302.4929, 2874.205
302.9750, 2857.732
303.4571, 2846.223
303.9392, 2849.476
304.4214, 2861.465
304.9035, 2875.477
305.3856, 2893.866
305.8677, 2906.970
306.3498, 2901.693
306.8319, 2882.467
307.3141, 2864.761
307.7962, 2856.179
308.2783, 2854.443
308.7604, 2858.078
309.2425, 2868.663
309.7246, 2880.359
310.2068, 2892.101
310.6889, 2902.399
311.1710, 2907.594
311.6531, 2901.026
312.1352, 2891.673
312.6173, 2886.740
313.0995, 2889.227
313.5816, 2890.891
314.0637, 2883.751
314.5458, 2873.346
315.0279, 2870.012
315.5100, 2887.022
315.9922, 2905.127
316.4743, 2913.139
316.9564, 2907.370
317.4385, 2901.469
317.9206, 2901.848
318.4027, 2904.354
318.8849, 2903.181
319.3670, 2893.374
319.8491, 2882.612
320.3312, 2871.191
320.8133, 2857.327
321.2954, 2854.098
321.7776, 2876.302
322.2597, 2905.618
322.7418, 2922.519
323.2239, 2913.124
323.7060, 2902.119
324.1881, 2893.854
324.6703, 2888.390
325.1524, 2887.139
325.6345, 2897.556
326.1166, 2908.352
326.5987, 2910.429
327.0808, 2891.214
327.5630, 2878.099
328.0451, 2877.767
328.5272, 2889.339
329.0093, 2893.737
329.4914, 2889.487
329.9735, 2879.382
330.4557, 2864.084
330.9378, 2834.931
331.4199, 2815.997
331.9020, 2812.483
332.3841, 2821.098
332.8662, 2825.267
333.3484, 2821.063
333.8305, 2818.308
334.3126, 2824.585
334.7947, 2846.648
335.2768, 2855.939
335.7589, 2847.127
336.2411, 2826.917
336.7232, 2811.226
337.2053, 2800.389
337.6874, 2793.454
338.1695, 2791.218
338.6516, 2794.526
339.1338, 2794.371
339.6159, 2788.655
340.0980, 2782.549
340.5801, 2788.788
341.0622, 2809.700
341.5443, 2821.724
342.0265, 2811.227
342.5086, 2781.085
342.9907, 2755.166
343.4728, 2732.525
343.9549, 2718.719
344.4370, 2728.581
344.9192, 2758.916
345.4013, 2778.904
345.8834, 2770.358
346.3655, 2745.537
346.8476, 2737.860
347.3297, 2747.721
347.8119, 2763.102
348.2940, 2778.116
348.7761, 2790.317
349.2582, 2791.391
349.7403, 2773.898
350.2225, 2749.529
350.7046, 2732.892
351.1867, 2723.693
351.6688, 2720.833
352.1509, 2727.331
352.6331, 2738.647
353.1152, 2747.675
353.5973, 2751.577
354.0794, 2755.206
354.5615, 2765.074
355.0436, 2778.702
355.5258, 2788.540
356.0079, 2788.076
356.4900, 2783.318
356.9721, 2778.782
357.4542, 2774.499
357.9363, 2772.696
358.4185, 2776.658
358.9006, 2783.733
359.3827, 2789.334
359.8648, 2790.733
360.3469, 2790.942
360.8290, 2791.380
361.3112, 2792.198
361.7933, 2793.078
362.2754, 2794.304
362.7575, 2795.403
363.2396, 2795.864
363.7217, 2789.923
364.2039, 2788.973
364.6860, 2800.375
365.1681, 2824.368
365.6502, 2838.861
366.1323, 2831.805
366.6144, 2820.375
367.0966, 2816.415
367.5787, 2828.905
368.0608, 2838.294
368.5429, 2840.217
369.0250, 2837.107
369.5071, 2841.523
369.9893, 2857.843
370.4714, 2876.521
370.9535, 2893.893
371.4356, 2912.688
371.9177, 2923.310
372.3998, 2923.777
372.8820, 2916.926
373.3641, 2907.242
373.8462, 2891.135
374.3283, 2881.626
374.8104, 2886.318
375.2925, 2906.926
375.7747, 2921.062
376.2568, 2926.462
376.7389, 2930.113
377.2210, 2942.358
377.7031, 2963.847
378.1852, 2984.609
378.6674, 3002.354
379.1495, 3016.930
379.6316, 3027.684
380.1137, 3034.232
380.5958, 3039.599
381.0779, 3046.412
381.5601, 3054.449
382.0422, 3061.758
382.5243, 3067.014
383.0064, 3072.704
383.4885, 3083.865
383.9706, 3099.975
384.4528, 3116.390
384.9349, 3130.069
385.4170, 3142.081
385.8991, 3154.590
386.3812, 3168.239
386.8633, 3181.754
387.3455, 3191.409
387.8276, 3199.866
388.3097, 3213.453
388.7918, 3241.095
389.2739, 3271.356
389.7560, 3295.051
390.2382, 3311.158
390.7203, 3324.526
391.2024, 3336.098
391.6845, 3346.885
392.1666, 3358.206
392.6487, 3370.527
393.1309, 3383.358
393.6130, 3393.934
394.0951, 3403.087
394.5772, 3419.736
395.0593, 3456.353
395.5414, 3494.753
396.0236, 3523.200
396.5057, 3527.700
396.9878, 3536.983
397.4699, 3557.672
397.9520, 3585.519
398.4341, 3606.908
398.9163, 3616.580
399.3984, 3625.217
399.8805, 3636.726
400.3626, 3652.426
400.8447, 3666.984
401.3268, 3679.520
401.8090, 3691.549
402.2911, 3705.213
402.7732, 3720.011
403.2553, 3737.595
403.7374, 3759.764
404.2195, 3786.045
404.7017, 3806.538
405.1838, 3819.016
405.6659, 3831.956
406.1480, 3853.609
406.6301, 3884.158
407.1122, 3916.142
407.5944, 3948.709
408.0765, 3981.578
408.5586, 4014.988
409.0407, 4049.004
409.5228, 4078.776
410.0049, 4095.961
410.4871, 4106.027
410.9692, 4125.000
411.4513, 4155.310
411.9334, 4191.607
412.4155, 4231.940
412.8976, 4274.543
413.3798, 4312.787
413.8619, 4342.006
414.3440, 4367.100
414.8261, 4393.106
415.3082, 4420.272
415.7903, 4447.735
416.2725, 4474.702
416.7546, 4501.958
417.2367, 4531.312
417.7188, 4570.919
418.2009, 4603.550
418.6830, 4614.215
419.1652, 4609.338
419.6473, 4612.070
420.1294, 4644.961
420.6115, 4676.641
421.0937, 4688.030
421.5758, 4662.146
422.0579, 4646.774
422.5400, 4658.916
423.0221, 4682.978
423.5042, 4693.409
423.9864, 4670.888
424.4685, 4655.458
424.9506, 4658.912
425.4327, 4683.246
425.9148, 4700.386
426.3969, 4709.618
426.8791, 4712.488
427.3612, 4707.893
427.8433, 4690.466
428.3254, 4683.360
428.8075, 4693.714
429.2896, 4715.110
429.7718, 4723.785
430.2539, 4717.209
430.7360, 4711.474
431.2181, 4715.909
431.7002, 4730.073
432.1823, 4748.695
432.6645, 4772.644
433.1466, 4797.382
433.6287, 4814.752
434.1108, 4826.401
434.5929, 4840.672
435.0750, 4859.901
435.5572, 4884.249
436.0393, 4914.667
436.5214, 4951.047
437.0035, 4991.213
437.4856, 5029.517
437.9677, 5071.315
438.4499, 5125.983
438.9320, 5205.456
439.4141, 5282.044
439.8962, 5330.873
440.3783, 5360.696
440.8604, 5395.527
441.3426, 5434.568
441.8247, 5489.719
442.3068, 5575.908
442.7889, 5704.774
443.2710, 5815.889
443.7531, 5875.107
444.2353, 5915.176
444.7174, 5973.347
445.1995, 6065.434
445.6816, 6163.471
446.1637, 6264.312
446.6458, 6367.045
447.1280, 6472.568
447.6101, 6580.255
448.0922, 6691.903
448.5743, 6807.053
449.0564, 6925.957
449.5385, 7052.443
450.0207, 7191.922
450.5028, 7333.717
450.9849, 7450.112
451.4670, 7531.645
451.9491, 7630.871
452.4312, 7776.039
452.9134, 7959.460
453.3955, 8123.661
453.8776, 8265.901
454.3597, 8404.507
454.8418, 8561.415
455.3239, 8730.773
455.8061, 8878.835
456.2882, 8990.538
456.7703, 9092.354
457.2524, 9222.502
457.7345, 9376.002
458.2166, 9536.114
458.6988, 9696.811
459.1809, 9855.575
459.6630, 10008.66
460.1451, 10157.93
460.6272, 10296.44
461.1093, 10417.77
461.5915, 10525.96
462.0736, 10623.44
462.5557, 10692.93
463.0378, 10769.80
463.5199, 10877.37
464.0020, 11009.11
464.4842, 11119.53
464.9663, 11171.19
465.4484, 11218.70
465.9305, 11293.90
466.4126, 11438.52
466.8947, 11540.19
467.3769, 11578.41
467.8590, 11582.50
468.3411, 11600.40
468.8232, 11638.65
469.3053, 11678.12
469.7874, 11716.56
470.2696, 11753.43
470.7517, 11777.19
471.2338, 11785.98
471.7159, 11787.39
472.1980, 11789.42
472.6801, 11791.76
473.1623, 11782.20
473.6444, 11757.65
474.1265, 11723.10
474.6086, 11681.78
475.0907, 11635.55
475.5728, 11596.48
476.0550, 11577.64
476.5371, 11567.60
477.0192, 11547.92
477.5013, 11517.83
477.9834, 11484.79
478.4655, 11462.11
478.9477, 11437.42
479.4298, 11394.29
479.9119, 11316.51
480.3940, 11232.80
480.8761, 11164.65
481.3582, 11103.63
481.8404, 11026.12
482.3225, 10909.42
482.8046, 10786.90
483.2867, 10674.15
483.7688, 10577.48
484.2509, 10473.30
484.7331, 10361.92
485.2152, 10241.27
485.6973, 10104.88
486.1794, 9936.215
486.6615, 9780.506
487.1436, 9649.532
487.6258, 9535.875
488.1079, 9403.725
488.5900, 9251.011
489.0721, 9087.359
489.5542, 8915.457
490.0363, 8734.486
490.5185, 8556.243
491.0006, 8381.680
491.4827, 8212.670
491.9648, 8061.967
492.4470, 7924.406
492.9291, 7772.845
493.4112, 7594.010
493.8933, 7403.105
494.3754, 7224.355
494.8575, 7056.288
495.3397, 6900.422
495.8218, 6761.092
496.3039, 6630.122
496.7860, 6500.460
497.2681, 6368.872
497.7502, 6239.138
498.2324, 6108.929
498.7145, 5982.169
499.1966, 5861.670
499.6787, 5754.331
500.1608, 5648.676
500.6429, 5540.981
501.1251, 5431.414
501.6072, 5324.383
502.0893, 5209.465
502.5714, 5105.199
503.0535, 5022.438
503.5356, 4976.246
504.0178, 4914.643
504.4999, 4828.953
504.9820, 4736.263
505.4641, 4662.382
505.9462, 4610.853
506.4283, 4560.107
506.9105, 4500.831
507.3926, 4438.782
507.8747, 4404.481
508.3568, 4399.670
508.8389, 4387.791
509.3210, 4329.562
509.8032, 4242.942
510.2853, 4178.020
510.7674, 4143.350
511.2495, 4120.568
511.7316, 4094.494
512.2137, 4066.106
512.6959, 4037.841
513.1780, 4006.772
513.6601, 3979.120
514.1422, 3965.360
514.6243, 3962.075
515.1064, 3946.189
515.5886, 3888.917
516.0707, 3829.950
516.5528, 3795.344
517.0349, 3801.201
517.5170, 3803.864
517.9991, 3797.873
518.4813, 3787.037
518.9634, 3776.067
519.4455, 3766.249
519.9276, 3753.914
520.4097, 3736.979
520.8918, 3716.751
521.3740, 3700.558
521.8561, 3689.702
522.3382, 3678.574
522.8203, 3662.527
523.3024, 3642.101
523.7845, 3625.077
524.2667, 3612.625
524.7488, 3600.341
525.2309, 3582.554
525.7130, 3559.959
526.1951, 3534.764
526.6772, 3500.973
527.1594, 3471.049
527.6415, 3465.758
528.1236, 3479.685
528.6057, 3488.904
529.0878, 3475.591
529.5699, 3455.030
530.0521, 3438.874
530.5342, 3429.590
531.0163, 3419.673
531.4984, 3407.089
531.9805, 3392.389
532.4626, 3376.120
532.9448, 3357.582
533.4269, 3338.272
533.9090, 3316.615
534.3911, 3294.117
534.8732, 3277.518
535.3553, 3267.704
535.8375, 3261.948
536.3196, 3261.182
536.8017, 3265.986
537.2838, 3262.447
537.7659, 3249.063
538.2480, 3232.152
538.7302, 3218.055
539.2123, 3206.328
539.6944, 3195.028
540.1765, 3184.226
540.6586, 3172.745
541.1407, 3157.317
541.6229, 3139.186
542.1050, 3122.583
542.5871, 3109.526
543.0692, 3099.154
543.5513, 3093.228
544.0334, 3091.760
544.5156, 3085.304
544.9977, 3065.427
545.4798, 3041.042
545.9619, 3018.952
546.4440, 2996.132
546.9261, 2982.043
547.4083, 2984.027
547.8904, 2994.435
548.3725, 2999.837
548.8546, 3000.809
549.3367, 2995.419
549.8188, 2979.422
550.3010, 2954.674
550.7831, 2945.671
551.2652, 2957.217
551.7473, 2968.481
552.2294, 2961.570
552.7115, 2938.767
553.1937, 2922.841
553.6758, 2915.722
554.1579, 2914.964
554.6400, 2920.875
555.1221, 2931.063
555.6042, 2938.556
556.0864, 2940.135
556.5685, 2938.802
557.0506, 2936.953
557.5327, 2934.518
558.0148, 2931.244
558.4969, 2931.992
558.9791, 2928.063
559.4612, 2910.475
559.9433, 2873.798
560.4254, 2847.661
560.9075, 2840.015
561.3896, 2844.071
561.8718, 2854.225
562.3539, 2880.962
562.8360, 2895.562
563.3181, 2892.528
563.8002, 2877.613
564.2823, 2862.596
564.7645, 2846.245
565.2466, 2836.198
565.7287, 2838.746
566.2108, 2850.377
566.6929, 2853.050
567.1750, 2846.456
567.6572, 2837.432
568.1393, 2828.707
568.6214, 2822.247
569.1035, 2824.172
569.5856, 2837.724
570.0677, 2850.265
570.5499, 2850.466
571.0320, 2842.998
571.5141, 2835.295
571.9962, 2832.803
572.4783, 2827.887
572.9604, 2810.914
573.4426, 2786.436
573.9247, 2777.506
574.4068, 2808.832
574.8889, 2837.233
575.3710, 2844.091
575.8531, 2823.591
576.3353, 2811.955
576.8174, 2811.522
577.2995, 2816.652
577.7816, 2824.220
578.2637, 2835.024
578.7458, 2838.951
579.2280, 2834.051
579.7101, 2822.554
580.1922, 2803.196
580.6743, 2778.511
581.1564, 2762.827
581.6385, 2770.377
582.1207, 2786.592
582.6028, 2793.005
583.0849, 2790.352
583.5670, 2784.902
584.0491, 2772.574
584.5313, 2763.886
585.0134, 2770.192
585.4955, 2800.702
585.9776, 2821.347
586.4597, 2815.969
586.9418, 2799.280
587.4240, 2788.114
587.9061, 2789.449
588.3882, 2785.648
588.8703, 2769.384
589.3524, 2748.257
589.8345, 2746.973
590.3167, 2770.492
590.7988, 2795.166
591.2809, 2812.925
591.7630, 2823.526
592.2451, 2822.257
592.7272, 2808.749
593.2094, 2792.403
593.6915, 2777.294
594.1736, 2765.669
594.6557, 2762.475
595.1378, 2769.461
595.6199, 2781.085
596.1021, 2800.327
596.5842, 2819.722
597.0663, 2828.653
597.5485, 2808.882
598.0306, 2793.485
598.5127, 2796.345
598.9948, 2813.224
599.4769, 2825.445
599.9590, 2834.339
600.4412, 2835.531
600.9233, 2824.583
601.4054, 2800.045
601.8875, 2785.880
602.3696, 2784.009
602.8517, 2788.102
603.3339, 2793.645
603.8160, 2800.643
604.2981, 2809.780
604.7802, 2822.124
605.2623, 2832.814
605.7444, 2831.822
606.2266, 2823.775
606.7087, 2821.217
607.1908, 2832.724
607.6729, 2847.303
608.1550, 2859.351
608.6371, 2867.812
609.1193, 2869.679
609.6014, 2860.936
610.0835, 2847.596
610.5656, 2828.883
611.0477, 2802.399
611.5298, 2790.690
612.0120, 2804.140
612.4941, 2822.752
612.9762, 2833.773
613.4583, 2835.983
613.9404, 2834.193
614.4225, 2826.894
614.9047, 2818.601
615.3868, 2815.409
615.8689, 2817.134
616.3510, 2822.584
616.8331, 2834.958
617.3152, 2846.225
617.7974, 2838.833
618.2795, 2818.049
618.7616, 2803.949
619.2437, 2811.794
619.7258, 2827.405
620.2079, 2843.043
620.6901, 2858.010
621.1722, 2866.997
621.6543, 2867.389
622.1364, 2861.725
622.6185, 2850.135
623.1006, 2824.290
623.5828, 2811.443
624.0649, 2815.670
624.5470, 2829.157
625.0291, 2845.648
625.5112, 2867.916
625.9933, 2876.576
626.4755, 2863.600
626.9576, 2841.216
627.4397, 2836.038
627.9218, 2846.062
628.4039, 2856.008
628.8860, 2858.210
629.3682, 2856.075
629.8503, 2853.314
630.3324, 2850.072
630.8145, 2847.272
631.2966, 2845.934
631.7787, 2844.926
632.2609, 2842.665
632.7430, 2837.587
633.2251, 2836.730
633.7072, 2847.686
634.1893, 2859.579
634.6714, 2862.797
635.1536, 2850.966
635.6357, 2844.387
636.1178, 2844.651
636.5999, 2850.710
637.0820, 2866.897
637.5641, 2894.229
638.0463, 2901.088
638.5284, 2863.758
639.0105, 2811.498
639.4926, 2809.835
639.9747, 2850.655
640.4568, 2886.764
640.9390, 2885.679
641.4211, 2869.512
641.9032, 2856.141
642.3853, 2846.924
642.8674, 2842.579
643.3495, 2850.411
643.8317, 2858.544
644.3138, 2857.573
644.7959, 2833.534
645.2780, 2826.536
645.7601, 2847.060
646.2422, 2875.395
646.7244, 2887.286
647.2065, 2878.925
647.6886, 2873.526
648.1707, 2875.938
648.6528, 2882.188
649.1349, 2883.212
649.6171, 2880.049
650.0992, 2880.058
650.5813, 2892.376
651.0634, 2906.196
651.5455, 2907.832
652.0276, 2898.683
652.5098, 2886.155
652.9919, 2871.008
653.4740, 2856.185
653.9561, 2842.228
654.4382, 2828.166
654.9203, 2821.554
655.4025, 2827.062
655.8846, 2837.192
656.3667, 2847.676
656.8488, 2859.715
657.3309, 2869.079
657.8130, 2876.755
658.2952, 2879.822
658.7773, 2868.422
659.2594, 2844.595
659.7415, 2836.122
660.2236, 2857.467
660.7057, 2885.401
661.1879, 2883.171
661.6700, 2859.758
662.1521, 2840.169
662.6342, 2840.403
663.1163, 2844.985
663.5984, 2843.045
664.0806, 2835.706
664.5627, 2834.020
665.0448, 2847.928
665.5269, 2861.487
666.0090, 2867.932
666.4911, 2866.445
666.9733, 2863.015
667.4554, 2856.229
667.9375, 2850.302
668.4196, 2850.939
668.9017, 2857.701
669.3839, 2855.967
669.8660, 2843.219
670.3481, 2827.776
670.8302, 2817.302
671.3123, 2811.621
671.7944, 2810.692
672.2766, 2816.498
672.7587, 2823.840
673.2408, 2831.534
673.7229, 2838.087
674.2050, 2840.744
674.6871, 2835.403
675.1693, 2829.646
675.6514, 2825.761
676.1335, 2823.226
676.6156, 2818.501
677.0977, 2808.653
677.5798, 2803.555
678.0620, 2811.134
678.5441, 2829.060
679.0262, 2830.381
679.5083, 2813.950
679.9904, 2799.943
680.4725, 2812.432
680.9547, 2835.975
681.4368, 2839.770
681.9189, 2817.927
682.4010, 2798.791
682.8831, 2802.388
683.3652, 2817.990
683.8474, 2835.499
684.3295, 2859.471
684.8116, 2874.450
685.2937, 2873.945
685.7758, 2865.156
686.2579, 2856.383
686.7401, 2846.642
687.2222, 2839.510
687.7043, 2835.259
688.1864, 2834.417
688.6685, 2840.923
689.1506, 2854.104
689.6328, 2862.966
690.1149, 2857.773
690.5970, 2848.604
691.0791, 2854.248
691.5612, 2871.223
692.0433, 2881.717
692.5255, 2871.799
693.0076, 2856.048
693.4897, 2842.244
693.9718, 2830.945
694.4539, 2823.137
694.9360, 2815.633
695.4182, 2814.750
695.9003, 2826.643
696.3824, 2857.069
696.8645, 2874.017
697.3466, 2874.750
697.8287, 2869.182
698.3109, 2865.898
698.7930, 2865.111
699.2751, 2869.373
699.7572, 2880.838
700.2393, 2890.956
700.7214, 2888.548
701.2036, 2879.108
701.6857, 2871.834
702.1678, 2873.158
702.6499, 2873.517
703.1320, 2865.381
703.6141, 2853.750
704.0963, 2851.555
704.5784, 2865.528
705.0605, 2879.465
705.5426, 2891.019
706.0247, 2899.856
706.5068, 2905.118
706.9890, 2907.254
707.4711, 2902.323
707.9532, 2878.769
708.4353, 2848.747
708.9174, 2847.131
709.3995, 2871.816
709.8817, 2902.918
710.3638, 2939.639
710.8459, 2968.170
711.3280, 2971.973
711.8101, 2946.607
712.2922, 2922.913
712.7744, 2906.098
713.2565, 2896.491
713.7386, 2894.160
714.2207, 2901.937
714.7028, 2910.338
715.1849, 2920.879
715.6671, 2929.542
716.1492, 2931.195
716.6313, 2926.340
717.1134, 2920.336
717.5955, 2913.127
718.0776, 2908.287
718.5598, 2911.904
719.0419, 2920.929
719.5240, 2929.548
720.0061, 2938.107
720.4882, 2942.937
720.9703, 2942.158
721.4525, 2936.475
721.9346, 2927.354
722.4167, 2905.089
722.8988, 2892.751
723.3809, 2899.385
723.8630, 2918.674
724.3452, 2923.565
724.8273, 2911.950
725.3094, 2901.088
725.7915, 2900.225
726.2736, 2905.543
726.7557, 2906.217
727.2379, 2903.084
727.7200, 2902.733
728.2021, 2916.233
728.6842, 2929.481
729.1663, 2929.423
729.6484, 2914.607
730.1306, 2899.639
730.6127, 2880.884
731.0948, 2869.939
731.5769, 2874.555
732.0590, 2900.363
732.5411, 2918.073
733.0233, 2925.997
733.5054, 2929.615
733.9875, 2933.738
734.4696, 2938.103
734.9517, 2939.984
735.4338, 2938.597
735.9160, 2937.718
736.3981, 2945.813
736.8802, 2955.438
737.3623, 2954.657
737.8444, 2934.188
738.3266, 2914.785
738.8087, 2902.719
739.2908, 2896.856
739.7729, 2895.969
740.2551, 2902.523
740.7372, 2909.334
741.2193, 2917.091
741.7014, 2923.422
742.1835, 2921.458
742.6656, 2911.092
743.1478, 2903.250
743.6299, 2901.199
744.1120, 2903.785
744.5941, 2912.491
745.0762, 2924.766
745.5583, 2932.956
746.0405, 2930.559
746.5226, 2925.463
747.0047, 2922.998
747.4868, 2922.127
747.9689, 2915.877
748.4510, 2893.545
748.9332, 2878.725
749.4153, 2881.091
749.8974, 2898.909
750.3795, 2911.735
750.8616, 2919.151
751.3438, 2924.576
751.8259, 2928.644
752.3080, 2932.570
752.7901, 2941.933
753.2722, 2956.231
753.7543, 2965.034
754.2365, 2952.625
754.7186, 2937.893
755.2007, 2939.606
755.6828, 2964.658
756.1649, 2976.722
756.6470, 2955.827
757.1292, 2932.660
757.6113, 2927.750
758.0934, 2948.420
758.5755, 2952.083
759.0576, 2934.633
759.5397, 2913.942
760.0219, 2911.012
760.5040, 2920.222
760.9861, 2922.447
761.4682, 2913.076
761.9503, 2905.617
762.4324, 2914.709
762.9146, 2930.064
763.3967, 2939.656
763.8788, 2939.328
764.3609, 2935.095
764.8430, 2924.356
765.3251, 2912.204
765.8073, 2905.027
766.2894, 2905.071
766.7715, 2900.104
767.2536, 2885.693
767.7357, 2870.863
768.2178, 2876.203
768.7000, 2895.806
769.1821, 2903.715
769.6642, 2883.817
770.1463, 2861.942
770.6284, 2865.470
771.1105, 2882.396
771.5927, 2889.510
772.0748, 2864.285
772.5569, 2846.495
773.0390, 2850.688
773.5211, 2867.692
774.0032, 2873.906
774.4854, 2866.235
774.9675, 2859.596
775.4496, 2859.537
775.9317, 2862.404
776.4138, 2856.617
776.8959, 2844.304
777.3781, 2836.722
777.8602, 2849.826
778.3423, 2862.076
778.8244, 2849.893
779.3065, 2819.546
779.7886, 2798.211
780.2708, 2797.928
780.7529, 2804.633
781.2350, 2818.182
781.7171, 2836.379
782.1992, 2835.286
782.6813, 2809.327
783.1635, 2786.376
783.6456, 2784.223
784.1277, 2795.520
784.6098, 2796.203
785.0919, 2786.942
785.5740, 2774.709
786.0562, 2756.885
786.5383, 2743.074
787.0204, 2747.556
787.5025, 2770.720
787.9846, 2779.351
788.4667, 2747.668
788.9489, 2716.930
789.4310, 2705.065
789.9131, 2713.314
790.3952, 2719.097
790.8773, 2722.250
791.3594, 2723.483
791.8416, 2723.965
792.3237, 2722.814
792.8058, 2715.673
793.2879, 2702.437
793.7700, 2692.092
794.2521, 2690.118
794.7343, 2694.143
795.2164, 2706.136
795.6985, 2731.779
796.1806, 2738.566
796.6627, 2708.078
797.1448, 2675.340
797.6270, 2664.806
798.1091, 2680.296
798.5912, 2686.543
799.0733, 2682.264
799.5554, 2674.625
800.0375, 2668.025
800.5197, 2663.738
801.0018, 2666.736
801.4839, 2679.104
801.9660, 2686.299
802.4481, 2675.397
802.9302, 2658.006
803.4124, 2643.258
803.8945, 2630.604
804.3766, 2625.729
804.8587, 2632.257
805.3408, 2641.793
805.8229, 2647.392
806.3051, 2649.061
806.7872, 2647.636
807.2693, 2643.071
807.7514, 2636.008
808.2335, 2623.795
808.7156, 2610.606
809.1978, 2603.195
809.6799, 2604.227
810.1620, 2606.802
810.6441, 2610.785
811.1262, 2613.390
811.6083, 2610.912
812.0905, 2595.446
812.5726, 2594.570
813.0547, 2613.946
813.5368, 2638.034
814.0189, 2649.472
814.5010, 2649.461
814.9832, 2643.309
815.4653, 2630.332
815.9474, 2618.928
816.4295, 2617.610
816.9116, 2622.031
817.3937, 2627.335
817.8759, 2635.047
818.3580, 2638.158
818.8401, 2634.035
819.3222, 2625.386
819.8043, 2611.681
820.2864, 2588.388
820.7686, 2583.812
821.2507, 2604.873
821.7328, 2631.797
822.2149, 2639.694
822.6970, 2633.015
823.1791, 2620.402
823.6613, 2599.726
824.1434, 2587.450
824.6255, 2606.954
825.1076, 2635.317
825.5897, 2646.742
826.0718, 2614.044
826.5540, 2597.621
827.0361, 2604.915
827.5182, 2619.906
828.0003, 2623.607
828.4824, 2616.114
828.9645, 2605.999
829.4467, 2592.711
829.9288, 2584.813
830.4109, 2601.287
830.8930, 2626.639
831.3751, 2635.625
831.8572, 2613.657
832.3394, 2593.220
832.8215, 2583.451
833.3036, 2582.159
833.7857, 2587.707
834.2678, 2606.207
834.7499, 2611.478
835.2321, 2597.244
835.7142, 2580.377
836.1963, 2586.218
836.6784, 2607.941
837.1605, 2619.521
837.6426, 2614.396
838.1248, 2605.678
838.6069, 2599.458
839.0890, 2597.139
839.5711, 2601.029
840.0532, 2619.063
840.5353, 2629.345
841.0175, 2628.196
841.4996, 2621.579
841.9817, 2614.051
842.4638, 2605.353
842.9459, 2602.558
843.4280, 2607.476
843.9102, 2612.359
844.3923, 2604.857
844.8744, 2592.855
845.3565, 2590.683
845.8386, 2604.649
846.3207, 2615.230
846.8029, 2610.540
847.2850, 2601.549
847.7671, 2597.756
848.2492, 2600.385
848.7313, 2606.363
849.2134, 2617.764
849.6956, 2627.104
850.1777, 2623.153
850.6598, 2610.697
851.1419, 2609.330
851.6240, 2622.831
852.1061, 2632.069
852.5883, 2610.145
853.0704, 2584.797
853.5525, 2585.439
854.0346, 2632.037
854.5167, 2653.988
854.9988, 2631.818
855.4810, 2604.867
855.9631, 2604.447
856.4452, 2631.179
856.9273, 2642.122
857.4094, 2635.577
857.8915, 2622.722
858.3737, 2607.063
858.8558, 2594.148
859.3379, 2592.268
859.8200, 2602.938
860.3021, 2616.429
860.7842, 2638.914
861.2664, 2653.947
861.7485, 2648.821
862.2306, 2619.838
862.7127, 2609.743
863.1948, 2621.601
863.6769, 2638.514
864.1591, 2652.821
864.6412, 2662.299
865.1233, 2657.530
865.6054, 2639.742
866.0875, 2628.125
866.5696, 2645.266
867.0518, 2662.821
867.5339, 2659.535
868.0160, 2632.769
868.4981, 2617.251
868.9802, 2616.723
869.4623, 2619.677
869.9445, 2621.073
870.4266, 2621.545
870.9087, 2624.907
871.3908, 2630.803
871.8729, 2635.051
872.3550, 2633.521
872.8372, 2630.612
873.3193, 2629.185
873.8014, 2629.450
874.2835, 2631.967
874.7656, 2643.101
875.2477, 2648.737
875.7299, 2643.580
876.2120, 2630.603
876.6941, 2621.355
877.1762, 2615.856
877.6583, 2609.572
878.1404, 2597.501
878.6226, 2586.887
879.1047, 2587.164
879.5869, 2596.656
880.0690, 2611.006
880.5511, 2641.656
881.0332, 2661.611
881.5153, 2652.854
881.9974, 2631.594
882.4796, 2634.305
882.9617, 2667.706
883.4438, 2685.297
883.9259, 2671.462
884.4080, 2646.243
884.8901, 2644.348
885.3723, 2655.768
885.8544, 2655.845
886.3365, 2623.453
886.8186, 2598.901
887.3007, 2604.762
887.7828, 2627.338
888.2650, 2648.764
888.7471, 2673.704
889.2292, 2681.083
889.7113, 2663.745
890.1934, 2640.718
890.6755, 2637.788
891.1577, 2649.550
891.6398, 2659.539
892.1219, 2664.765
892.6040, 2667.179
893.0861, 2663.601
893.5682, 2660.436
894.0504, 2664.990
894.5325, 2685.334
895.0146, 2694.010
895.4967, 2686.121
895.9788, 2675.615
896.4609, 2675.926
896.9431, 2684.670
897.4252, 2684.850
897.9073, 2675.459
898.3894, 2669.599
898.8715, 2681.568
899.3536, 2698.156
899.8358, 2709.293
900.3179, 2713.808
900.8000, 2712.537
901.2821, 2700.771
901.7642, 2690.883
902.2463, 2689.894
902.7285, 2696.076
903.2106, 2695.465
903.6927, 2688.271
904.1748, 2680.358
904.6569, 2671.797
905.1390, 2666.823
905.6212, 2673.241
906.1033, 2687.912
906.5854, 2697.455
907.0675, 2696.012
907.5496, 2690.865
908.0317, 2681.158
908.5139, 2670.015
908.9960, 2667.319
909.4781, 2673.126
909.9602, 2682.321
910.4423, 2695.071
910.9244, 2707.050
911.4066, 2713.547
911.8887, 2715.315
912.3708, 2713.782
912.8529, 2700.785
913.3350, 2695.920
913.8171, 2707.788
914.2993, 2725.501
914.7814, 2735.366
915.2635, 2737.151
915.7456, 2733.388
916.2277, 2723.657
916.7098, 2711.792
917.1920, 2694.525
917.6741, 2681.064
918.1562, 2689.819
918.6383, 2734.471
919.1204, 2764.563
919.6025, 2753.542
920.0847, 2731.646
920.5668, 2717.382
921.0489, 2711.039
921.5310, 2711.774
922.0131, 2720.371
922.4952, 2729.392
922.9774, 2730.740
923.4595, 2729.686
923.9416, 2737.264
924.4237, 2752.915
924.9058, 2760.248
925.3879, 2742.081
925.8701, 2725.162
926.3522, 2721.221
926.8343, 2728.664
927.3164, 2735.143
927.7985, 2740.773
928.2806, 2744.429
928.7628, 2742.748
929.2449, 2741.439
929.7270, 2755.627
930.2091, 2777.796
930.6912, 2787.972
931.1733, 2759.579
931.6555, 2739.423
932.1376, 2747.154
932.6197, 2769.369
933.1018, 2787.432
933.5839, 2802.937
934.0660, 2800.234
934.5482, 2771.756
935.0303, 2739.065
935.5124, 2726.182
935.9945, 2729.522
936.4766, 2745.625
936.9587, 2782.649
937.4409, 2807.499
937.9230, 2799.048
938.4051, 2782.281
938.8872, 2776.307
939.3693, 2783.260
939.8514, 2789.502
940.3336, 2795.468
940.8157, 2796.776
941.2978, 2782.132
941.7799, 2764.333
942.2620, 2764.932
942.7441, 2784.029
943.2263, 2800.512
943.7084, 2802.504
944.1905, 2803.849
944.6726, 2810.657
945.1547, 2821.723
945.6368, 2828.879
946.1190, 2831.893
946.6011, 2835.884
947.0832, 2842.952
947.5653, 2852.455
948.0474, 2870.410
948.5295, 2889.809
949.0117, 2894.353
949.4938, 2855.465
949.9759, 2830.886
950.4580, 2836.305
950.9401, 2857.208
951.4222, 2873.359
951.9044, 2884.809
952.3865, 2893.200
952.8686, 2898.668
953.3507, 2901.730
953.8328, 2902.713
954.3149, 2901.727
954.7971, 2897.412
955.2792, 2886.644
955.7613, 2884.519
956.2434, 2901.144
956.7255, 2917.298
957.2076, 2920.508
957.6898, 2911.186
958.1719, 2904.013
958.6540, 2898.927
959.1361, 2895.533
959.6182, 2893.091
960.1003, 2892.510
960.5825, 2893.766
961.0646, 2897.316
961.5467, 2905.804
962.0288, 2921.714
962.5109, 2939.835
962.9930, 2960.330
963.4752, 2980.743
963.9573, 2996.817
964.4394, 3007.571
964.9215, 3005.874
965.4036, 2981.538
965.8857, 2959.902
966.3679, 2963.675
966.8500, 2981.365
967.3321, 2998.318
967.8142, 3013.917
968.2963, 3025.502
968.7784, 3032.332
969.2606, 3036.431
969.7427, 3040.376
970.2248, 3043.246
970.7069, 3040.549
971.1890, 3032.037
971.6711, 3023.723
972.1533, 3015.645
972.6354, 3012.438
973.1175, 3020.985
973.5996, 3040.756
974.0817, 3049.589
974.5638, 3044.090
975.0460, 3039.566
975.5281, 3042.218
976.0102, 3050.006
976.4923, 3062.764
976.9744, 3077.252
977.4565, 3083.960
977.9387, 3069.683
978.4208, 3057.516
978.9029, 3059.128
979.3850, 3065.744
979.8671, 3064.681
980.3492, 3053.865
980.8314, 3047.315
981.3135, 3046.491
981.7956, 3050.393
982.2777, 3062.702
982.7598, 3076.862
983.2419, 3081.276
983.7241, 3072.451
984.2062, 3069.468
984.6883, 3081.706
985.1704, 3097.799
985.6525, 3115.496
986.1346, 3133.695
986.6168, 3137.202
987.0989, 3126.573
987.5810, 3119.257
988.0631, 3130.721
988.5452, 3145.535
989.0273, 3146.733
989.5095, 3139.729
989.9916, 3138.671
990.4737, 3154.897
990.9558, 3162.966
991.4379, 3156.738
991.9200, 3145.629
992.4022, 3144.422
992.8843, 3151.252
993.3664, 3158.309
993.8485, 3164.196
994.3306, 3169.597
994.8127, 3178.369
995.2949, 3184.536
995.7770, 3180.523
996.2591, 3163.757
996.7412, 3154.767
997.2233, 3153.607
997.7054, 3160.360
998.1876, 3184.486
998.6697, 3212.765
999.1518, 3207.410
999.6339, 3178.029
1000.116, 3162.963
1000.598, 3198.271
1001.080, 3228.850
1001.562, 3232.293
1002.044, 3220.812
1002.527, 3213.105
1003.009, 3208.709
1003.491, 3218.956
1003.973, 3249.680
1004.455, 3278.723
1004.937, 3275.352
1005.419, 3258.374
1005.901, 3252.985
1006.384, 3268.470
1006.866, 3273.713
1007.348, 3256.820
1007.830, 3242.031
1008.312, 3244.221
1008.794, 3260.417
1009.276, 3276.316
1009.758, 3291.092
1010.240, 3298.644
1010.723, 3285.754
1011.205, 3274.044
1011.687, 3281.104
1012.169, 3299.554
1012.651, 3308.146
1013.133, 3301.655
1013.615, 3299.513
1014.097, 3304.863
1014.580, 3314.781
1015.062, 3326.550
1015.544, 3339.428
1016.026, 3353.763
1016.508, 3371.083
1016.990, 3380.284
1017.472, 3368.797
1017.954, 3355.220
1018.436, 3349.620
1018.919, 3351.807
1019.401, 3359.159
1019.883, 3371.702
1020.365, 3379.636
1020.847, 3368.404
1021.329, 3357.270
1021.811, 3370.523
1022.293, 3398.616
1022.776, 3418.149
1023.258, 3419.289
1023.740, 3420.417
1024.222, 3423.401
1024.704, 3426.774
1025.186, 3429.085
1025.668, 3430.089
1026.150, 3426.814
1026.632, 3418.104
1027.115, 3415.470
1027.597, 3429.145
1028.079, 3448.657
1028.561, 3469.127
1029.043, 3490.083
1029.525, 3503.320
1030.007, 3507.842
1030.489, 3511.031
1030.972, 3515.485
1031.454, 3521.296
1031.936, 3531.533
1032.418, 3542.944
1032.900, 3548.445
1033.382, 3541.982
1033.864, 3534.283
1034.346, 3524.225
1034.828, 3516.426
1035.311, 3517.957
1035.793, 3527.184
1036.275, 3534.145
1036.757, 3538.098
1037.239, 3537.453
1037.721, 3522.885
1038.203, 3510.373
1038.685, 3516.640
1039.167, 3538.670
1039.650, 3541.684
1040.132, 3519.990
1040.614, 3504.075
1041.096, 3505.222
1041.578, 3516.070
1042.060, 3528.926
1042.542, 3541.991
1043.024, 3552.156
1043.507, 3558.893
1043.989, 3561.359
1044.471, 3557.117
1044.953, 3551.454
1045.435, 3547.508
1045.917, 3545.428
1046.399, 3546.422
1046.881, 3550.673
1047.364, 3560.930
1047.846, 3592.147
1048.328, 3617.913
1048.810, 3617.141
1049.292, 3594.144
1049.774, 3569.579
1050.256, 3535.608
1050.738, 3532.977
1051.220, 3578.452
1051.703, 3634.813
1052.185, 3645.746
1052.667, 3630.351
1053.149, 3620.465
1053.631, 3623.945
1054.113, 3625.219
1054.595, 3614.827
1055.077, 3607.415
1055.559, 3610.672
1056.042, 3623.485
1056.524, 3639.507
1057.006, 3658.490
1057.488, 3678.411
1057.970, 3706.422
1058.452, 3726.479
1058.934, 3717.559
1059.416, 3697.290
1059.899, 3701.216
1060.381, 3741.134
1060.863, 3764.370
1061.345, 3764.846
1061.827, 3756.234
1062.309, 3746.615
1062.791, 3740.055
1063.273, 3744.221
1063.755, 3759.509
1064.238, 3775.394
1064.720, 3793.748
1065.202, 3805.740
1065.684, 3806.117
1066.166, 3800.113
1066.648, 3803.842
1067.130, 3814.878
1067.612, 3820.887
1068.094, 3812.681
1068.577, 3811.360
1069.059, 3837.775
1069.541, 3871.830
1070.023, 3893.906
1070.505, 3901.702
1070.987, 3910.128
1071.469, 3919.533
1071.951, 3927.192
1072.434, 3933.047
1072.916, 3934.899
1073.398, 3925.362
1073.880, 3909.072
1074.362, 3902.205
1074.844, 3912.870
1075.326, 3925.867
1075.808, 3941.632
1076.291, 3955.285
1076.773, 3955.547
1077.255, 3948.608
1077.737, 3955.866
1078.219, 3981.327
1078.701, 3998.338
1079.183, 3980.216
1079.665, 3963.519
1080.147, 3970.137
1080.630, 3994.220
1081.112, 3996.738
1081.594, 3978.707
1082.076, 3972.501
1082.558, 3996.356
1083.040, 4024.939
1083.522, 4036.710
1084.004, 4038.945
1084.486, 4041.669
1084.969, 4049.973
1085.451, 4047.260
1085.933, 4031.898
1086.415, 4011.809
1086.897, 3984.239
1087.379, 3960.421
1087.861, 3968.584
1088.343, 4000.548
1088.826, 4020.422
1089.308, 4001.242
1089.790, 3987.167
1090.272, 3986.762
1090.754, 3994.204
1091.236, 4003.509
1091.718, 4013.155
1092.200, 4016.094
1092.682, 4011.179
1093.165, 4000.838
1093.647, 3983.364
1094.129, 3963.586
1094.611, 3938.538
1095.093, 3911.969
1095.575, 3918.867
1096.057, 3961.072
1096.539, 3990.217
1097.022, 3983.554
1097.504, 3965.373
1097.986, 3955.364
1098.468, 3951.532
1098.950, 3952.148
1099.432, 3961.193
1099.914, 3961.775
1100.396, 3951.156
1100.879, 3940.950
1101.361, 3942.794
1101.843, 3949.344
1102.325, 3945.692
1102.807, 3933.777
1103.289, 3921.513
1103.771, 3909.276
1104.253, 3900.569
1104.735, 3896.670
1105.218, 3895.112
1105.700, 3894.526
1106.182, 3893.625
1106.664, 3881.961
1107.146, 3857.989
1107.628, 3845.076
1108.110, 3879.404
1108.592, 3906.468
1109.074, 3887.177
1109.557, 3835.772
1110.039, 3809.135
1110.521, 3807.305
1111.003, 3813.600
1111.485, 3825.438
1111.967, 3836.659
1112.449, 3842.973
1112.931, 3844.375
1113.414, 3838.152
1113.896, 3820.089
1114.378, 3821.060
1114.860, 3847.713
1115.342, 3863.920
1115.824, 3839.953
1116.306, 3801.190
1116.788, 3787.069
1117.271, 3790.048
1117.753, 3793.154
1118.235, 3796.412
1118.717, 3790.224
1119.199, 3769.041
1119.681, 3748.005
1120.163, 3747.238
1120.645, 3757.917
1121.127, 3751.971
1121.609, 3729.803
1122.092, 3708.490
1122.574, 3696.405
1123.056, 3686.950
1123.538, 3675.947
1124.020, 3667.278
1124.502, 3672.497
1124.984, 3689.188
1125.466, 3696.356
1125.949, 3689.635
1126.431, 3677.739
1126.913, 3656.061
1127.395, 3640.712
1127.877, 3649.366
1128.359, 3677.435
1128.841, 3688.398
1129.323, 3681.532
1129.806, 3669.395
1130.288, 3653.583
1130.770, 3640.813
1131.252, 3644.715
1131.734, 3652.567
1132.216, 3645.684
1132.698, 3614.700
1133.180, 3598.031
1133.662, 3599.315
1134.145, 3599.930
1134.627, 3580.167
1135.109, 3557.566
1135.591, 3567.386
1136.073, 3596.647
1136.555, 3612.217
1137.037, 3594.351
1137.519, 3576.342
1138.001, 3558.371
1138.484, 3544.513
1138.966, 3537.872
1139.448, 3539.102
1139.930, 3557.737
1140.412, 3590.671
1140.894, 3606.427
1141.376, 3573.857
1141.858, 3545.825
1142.341, 3537.607
1142.823, 3539.787
1143.305, 3538.235
1143.787, 3532.067
1144.269, 3513.396
1144.751, 3478.975
1145.233, 3454.177
1145.715, 3461.956
1146.198, 3475.005
1146.680, 3478.440
1147.162, 3474.223
1147.644, 3472.457
1148.126, 3472.635
1148.608, 3467.776
1149.090, 3454.030
1149.572, 3438.842
1150.054, 3424.068
1150.536, 3413.317
1151.019, 3411.961
1151.501, 3421.204
1151.983, 3419.707
1152.465, 3407.046
1152.947, 3394.229
1153.429, 3386.595
1153.911, 3382.138
1154.393, 3381.288
1154.876, 3381.670
1155.358, 3378.537
1155.840, 3368.833
1156.322, 3365.029
1156.804, 3368.348
1157.286, 3372.106
1157.768, 3368.495
1158.250, 3363.931
1158.733, 3371.127
1159.215, 3385.074
1159.697, 3385.471
1160.179, 3361.298
1160.661, 3341.573
1161.143, 3329.765
1161.625, 3322.632
1162.107, 3319.983
1162.589, 3317.580
1163.072, 3305.856
1163.554, 3285.006
1164.036, 3270.025
1164.518, 3263.828
1165.000, 3266.894
1165.482, 3285.034
1165.964, 3303.582
1166.446, 3287.356
1166.928, 3252.781
1167.411, 3240.207
1167.893, 3261.375
1168.375, 3272.072
1168.857, 3242.395
1169.339, 3220.313
1169.821, 3231.625
1170.303, 3257.852
1170.785, 3233.445
1171.268, 3176.735
1171.750, 3150.555
1172.232, 3189.789
1172.714, 3222.598
1173.196, 3211.664
1173.678, 3193.638
1174.160, 3191.387
1174.642, 3201.255
1175.125, 3197.693
1175.607, 3183.084
1176.089, 3170.785
1176.571, 3171.490
1177.053, 3169.900
1177.535, 3153.914
1178.017, 3136.615
1178.499, 3130.896
1178.981, 3136.565
1179.464, 3139.661
1179.946, 3140.309
1180.428, 3143.260
1180.910, 3156.902
1181.392, 3167.748
1181.874, 3166.813
1182.356, 3159.377
1182.838, 3153.503
1183.320, 3149.260
1183.803, 3142.781
1184.285, 3133.678
1184.767, 3124.285
1185.249, 3116.426
1185.731, 3108.687
1186.213, 3101.687
1186.695, 3093.793
1187.177, 3077.405
1187.660, 3050.990
1188.142, 3041.621
1188.624, 3055.166
1189.106, 3074.622
1189.588, 3093.576
1190.070, 3105.145
1190.552, 3100.051
1191.034, 3080.806
1191.516, 3063.445
1191.999, 3046.631
1192.481, 3046.991
1192.963, 3072.601
1193.445, 3101.381
1193.927, 3112.407
1194.409, 3114.687
1194.891, 3115.636
1195.373, 3115.918
1195.855, 3121.606
1196.338, 3134.256
1196.820, 3138.874
1197.302, 3128.120
1197.784, 3110.081
1198.266, 3086.570
1198.748, 3064.720
1199.230, 3056.445
1199.712, 3066.938
1200.195, 3060.744
1200.677, 3034.339
1201.159, 3016.267
1201.641, 3026.611
1202.123, 3047.000
1202.605, 3056.807
1203.087, 3062.041
1203.569, 3074.634
1204.052, 3105.451
1204.534, 3109.432
1205.016, 3080.775
1205.498, 3060.229
1205.980, 3092.872
1206.462, 3134.992
1206.944, 3132.286
1207.426, 3100.533
1207.908, 3075.941
1208.391, 3063.312
1208.873, 3053.301
1209.355, 3044.729
1209.837, 3042.672
1210.319, 3056.984
1210.801, 3075.834
1211.283, 3086.819
1211.765, 3090.549
1212.247, 3090.482
1212.730, 3088.470
1213.212, 3077.066
1213.694, 3052.755
1214.176, 3032.402
1214.658, 3035.462
1215.140, 3048.829
1215.622, 3062.454
1216.104, 3073.451
1216.587, 3067.575
1217.069, 3032.283
1217.551, 3026.875
1218.033, 3067.771
1218.515, 3111.009
1218.997, 3094.594
1219.479, 3062.343
1219.961, 3072.993
1220.443, 3125.632
1220.926, 3139.426
1221.408, 3099.000
1221.890, 3071.244
1222.372, 3074.187
1222.854, 3085.960
1223.336, 3081.789
1223.818, 3070.886
1224.300, 3064.108
1224.782, 3062.822
1225.265, 3056.543
1225.747, 3042.804
1226.229, 3036.887
1226.711, 3046.451
1227.193, 3057.483
1227.675, 3043.509
1228.157, 3026.899
1228.639, 3040.132
1229.122, 3090.763
1229.604, 3116.505
1230.086, 3115.172
1230.568, 3102.597
1231.050, 3077.890
1231.532, 3059.304
1232.014, 3078.715
1232.496, 3110.488
1232.979, 3120.251
1233.461, 3102.091
1233.943, 3098.632
1234.425, 3112.052
1234.907, 3117.771
1235.389, 3097.513
1235.871, 3075.484
1236.353, 3080.055
1236.835, 3094.685
1237.318, 3096.170
1237.800, 3081.066
1238.282, 3074.731
1238.764, 3077.649
1239.246, 3080.307
1239.728, 3076.426
1240.210, 3071.447
1240.692, 3068.603
1241.175, 3068.268
1241.657, 3070.995
1242.139, 3077.138
1242.621, 3084.599
1243.103, 3093.488
1243.585, 3099.215
1244.067, 3097.793
1244.549, 3093.711
1245.031, 3088.606
1245.514, 3083.422
1245.996, 3079.293
1246.478, 3076.180
1246.960, 3073.308
1247.442, 3070.812
1247.924, 3072.223
1248.406, 3085.796
1248.888, 3097.278
1249.370, 3096.491
1249.853, 3090.173
1250.335, 3086.198
1250.817, 3084.621
1251.299, 3087.077
1251.781, 3093.424
1252.263, 3100.569
1252.745, 3109.981
1253.227, 3115.604
1253.710, 3109.745
1254.192, 3102.699
1254.674, 3112.700
1255.156, 3135.214
1255.638, 3131.580
1256.120, 3102.376
1256.602, 3082.053
1257.084, 3094.807
1257.567, 3114.157
1258.049, 3136.203
1258.531, 3153.926
1259.013, 3152.480
1259.495, 3138.435
1259.977, 3138.923
1260.459, 3154.172
1260.941, 3162.611
1261.423, 3143.405
1261.906, 3132.335
1262.388, 3142.187
1262.870, 3155.411
1263.352, 3140.847
1263.834, 3111.887
1264.316, 3100.790
1264.798, 3109.238
1265.280, 3117.700
1265.762, 3120.262
1266.245, 3123.106
1266.727, 3128.770
1267.209, 3131.753
1267.691, 3119.474
1268.173, 3101.795
1268.655, 3096.844
1269.137, 3105.231
1269.619, 3108.306
1270.102, 3099.331
1270.584, 3098.019
1271.066, 3109.707
1271.548, 3126.003
1272.030, 3140.269
1272.512, 3150.191
1272.994, 3152.300
1273.476, 3146.242
1273.958, 3135.148
1274.441, 3116.425
1274.923, 3108.386
1275.405, 3117.463
1275.887, 3127.362
1276.369, 3113.303
1276.851, 3097.942
1277.333, 3110.085
1277.815, 3143.438
1278.297, 3150.521
1278.780, 3129.779
1279.262, 3116.066
1279.744, 3118.638
1280.226, 3121.635
1280.708, 3106.840
1281.190, 3092.631
1281.672, 3091.147
1282.154, 3101.227
1282.637, 3126.208
1283.119, 3163.011
1283.601, 3177.799
1284.083, 3160.101
1284.565, 3146.651
1285.047, 3174.714
1285.529, 3194.525
1286.011, 3175.139
1286.494, 3136.011
1286.976, 3139.718
1287.458, 3171.306
1287.940, 3175.454
1288.422, 3136.067
1288.904, 3110.414
1289.386, 3136.135
1289.868, 3156.509
1290.350, 3149.653
1290.833, 3132.127
1291.315, 3141.439
1291.797, 3163.475
1292.279, 3167.529
1292.761, 3144.857
1293.243, 3134.703
1293.725, 3147.415
1294.207, 3155.975
1294.689, 3150.264
1295.172, 3139.411
1295.654, 3132.087
1296.136, 3130.411
1296.618, 3141.072
1297.100, 3166.659
1297.582, 3173.805
1298.064, 3158.986
1298.546, 3149.080
1299.029, 3153.635
1299.511, 3162.145
1299.993, 3163.888
1300.475, 3163.917
##END=



