##NAMES=Phillipsite-K
##RRUFFID=R140774
##IDEAL CHEMISTRY=K_6_(Si_10_Al_6_)O_32_&#183;12H_2_O
##LOCALITY=Mt Vesuvius, Somma-Vesuvius Complex, Naples Province, Campania, Italy
##OWNER=RRUFF
##SOURCE=Ch. and H. Sch√§fer
##DESCRIPTION=Radial aggregates of colorless prismatic crystals, associated with calcite
##STATUS=The identification of this mineral has been confirmed only by single crystal X-ray diffraction.
##URL=rruff.info/R140774
9.059570e+001, 1.449133e+003
9.107782e+001, 1.406929e+003
9.155994e+001, 1.391992e+003
9.204205e+001, 1.424308e+003
9.252417e+001, 1.470341e+003
9.300629e+001, 1.518532e+003
9.348840e+001, 1.557163e+003
9.397052e+001, 1.577025e+003
9.445264e+001, 1.575855e+003
9.493475e+001, 1.574982e+003
9.541687e+001, 1.572883e+003
9.589898e+001, 1.571072e+003
9.638110e+001, 1.569314e+003
9.686321e+001, 1.567250e+003
9.734533e+001, 1.563657e+003
9.782745e+001, 1.555968e+003
9.830956e+001, 1.550059e+003
9.879168e+001, 1.547067e+003
9.927380e+001, 1.544708e+003
9.975591e+001, 1.541879e+003
1.002380e+002, 1.538762e+003
1.007201e+002, 1.536375e+003
1.012023e+002, 1.535429e+003
1.016844e+002, 1.535609e+003
1.021665e+002, 1.535339e+003
1.026486e+002, 1.534255e+003
1.031307e+002, 1.532764e+003
1.036128e+002, 1.530839e+003
1.040950e+002, 1.528142e+003
1.045771e+002, 1.526257e+003
1.050592e+002, 1.526347e+003
1.055413e+002, 1.527447e+003
1.060234e+002, 1.528298e+003
1.065055e+002, 1.527814e+003
1.069877e+002, 1.526484e+003
1.074698e+002, 1.526707e+003
1.079519e+002, 1.530506e+003
1.084340e+002, 1.533155e+003
1.089161e+002, 1.532302e+003
1.093982e+002, 1.528687e+003
1.098804e+002, 1.524250e+003
1.103625e+002, 1.520541e+003
1.108446e+002, 1.517578e+003
1.113267e+002, 1.515229e+003
1.118088e+002, 1.513982e+003
1.122909e+002, 1.512864e+003
1.127731e+002, 1.511132e+003
1.132552e+002, 1.508831e+003
1.137373e+002, 1.506756e+003
1.142194e+002, 1.506145e+003
1.147015e+002, 1.508471e+003
1.151836e+002, 1.509619e+003
1.156658e+002, 1.509322e+003
1.161479e+002, 1.508051e+003
1.166300e+002, 1.506036e+003
1.171121e+002, 1.503309e+003
1.175942e+002, 1.500278e+003
1.180763e+002, 1.497960e+003
1.185584e+002, 1.496503e+003
1.190406e+002, 1.495208e+003
1.195227e+002, 1.493920e+003
1.200048e+002, 1.492644e+003
1.204869e+002, 1.491385e+003
1.209690e+002, 1.490132e+003
1.214511e+002, 1.488902e+003
1.219333e+002, 1.487654e+003
1.224154e+002, 1.486202e+003
1.228975e+002, 1.485014e+003
1.233796e+002, 1.484871e+003
1.238617e+002, 1.485965e+003
1.243438e+002, 1.486394e+003
1.248260e+002, 1.484495e+003
1.253081e+002, 1.481697e+003
1.257902e+002, 1.479123e+003
1.262723e+002, 1.477097e+003
1.267544e+002, 1.475609e+003
1.272365e+002, 1.474687e+003
1.277187e+002, 1.474439e+003
1.282008e+002, 1.474668e+003
1.286829e+002, 1.476227e+003
1.291650e+002, 1.477979e+003
1.296471e+002, 1.478343e+003
1.301292e+002, 1.476175e+003
1.306114e+002, 1.471667e+003
1.310935e+002, 1.467569e+003
1.315756e+002, 1.463723e+003
1.320577e+002, 1.460476e+003
1.325398e+002, 1.458161e+003
1.330219e+002, 1.456583e+003
1.335041e+002, 1.455316e+003
1.339862e+002, 1.453995e+003
1.344683e+002, 1.452597e+003
1.349504e+002, 1.451283e+003
1.354325e+002, 1.449734e+003
1.359146e+002, 1.448484e+003
1.363968e+002, 1.447994e+003
1.368789e+002, 1.448244e+003
1.373610e+002, 1.448713e+003
1.378431e+002, 1.448809e+003
1.383252e+002, 1.448433e+003
1.388073e+002, 1.448135e+003
1.392895e+002, 1.448253e+003
1.397716e+002, 1.448340e+003
1.402537e+002, 1.447784e+003
1.407358e+002, 1.446368e+003
1.412179e+002, 1.444634e+003
1.417000e+002, 1.443055e+003
1.421821e+002, 1.441591e+003
1.426643e+002, 1.440765e+003
1.431464e+002, 1.441532e+003
1.436285e+002, 1.443292e+003
1.441106e+002, 1.443783e+003
1.445927e+002, 1.441927e+003
1.450748e+002, 1.439235e+003
1.455570e+002, 1.437009e+003
1.460391e+002, 1.435278e+003
1.465212e+002, 1.433871e+003
1.470033e+002, 1.432763e+003
1.474854e+002, 1.431999e+003
1.479675e+002, 1.431080e+003
1.484497e+002, 1.430162e+003
1.489318e+002, 1.428865e+003
1.494139e+002, 1.426716e+003
1.498960e+002, 1.423674e+003
1.503781e+002, 1.420389e+003
1.508602e+002, 1.417771e+003
1.513424e+002, 1.415731e+003
1.518245e+002, 1.414645e+003
1.523066e+002, 1.415409e+003
1.527887e+002, 1.416453e+003
1.532708e+002, 1.416427e+003
1.537529e+002, 1.414848e+003
1.542351e+002, 1.412355e+003
1.547172e+002, 1.410542e+003
1.551993e+002, 1.410066e+003
1.556814e+002, 1.409575e+003
1.561635e+002, 1.409229e+003
1.566456e+002, 1.408770e+003
1.571278e+002, 1.407795e+003
1.576099e+002, 1.406067e+003
1.580920e+002, 1.403842e+003
1.585741e+002, 1.402239e+003
1.590562e+002, 1.401763e+003
1.595383e+002, 1.401230e+003
1.600205e+002, 1.400304e+003
1.605026e+002, 1.399103e+003
1.609847e+002, 1.397916e+003
1.614668e+002, 1.396923e+003
1.619489e+002, 1.396063e+003
1.624310e+002, 1.395072e+003
1.629131e+002, 1.393468e+003
1.633953e+002, 1.392187e+003
1.638774e+002, 1.392180e+003
1.643595e+002, 1.393292e+003
1.648416e+002, 1.393945e+003
1.653237e+002, 1.392845e+003
1.658058e+002, 1.390650e+003
1.662880e+002, 1.388991e+003
1.667701e+002, 1.388569e+003
1.672522e+002, 1.388323e+003
1.677343e+002, 1.386833e+003
1.682164e+002, 1.383797e+003
1.686985e+002, 1.380962e+003
1.691807e+002, 1.379350e+003
1.696628e+002, 1.378549e+003
1.701449e+002, 1.378243e+003
1.706270e+002, 1.378669e+003
1.711091e+002, 1.379316e+003
1.715912e+002, 1.378822e+003
1.720734e+002, 1.376277e+003
1.725555e+002, 1.374275e+003
1.730376e+002, 1.374243e+003
1.735197e+002, 1.375214e+003
1.740018e+002, 1.375776e+003
1.744839e+002, 1.374977e+003
1.749661e+002, 1.373114e+003
1.754482e+002, 1.372010e+003
1.759303e+002, 1.372484e+003
1.764124e+002, 1.372864e+003
1.768945e+002, 1.372657e+003
1.773766e+002, 1.372047e+003
1.778588e+002, 1.371370e+003
1.783409e+002, 1.370843e+003
1.788230e+002, 1.370464e+003
1.793051e+002, 1.370366e+003
1.797872e+002, 1.370998e+003
1.802693e+002, 1.371466e+003
1.807515e+002, 1.371280e+003
1.812336e+002, 1.370656e+003
1.817157e+002, 1.370154e+003
1.821978e+002, 1.370245e+003
1.826799e+002, 1.370964e+003
1.831620e+002, 1.371963e+003
1.836441e+002, 1.374109e+003
1.841263e+002, 1.375716e+003
1.846084e+002, 1.375843e+003
1.850905e+002, 1.374550e+003
1.855726e+002, 1.372470e+003
1.860547e+002, 1.369960e+003
1.865368e+002, 1.366894e+003
1.870190e+002, 1.365266e+003
1.875011e+002, 1.366100e+003
1.879832e+002, 1.367593e+003
1.884653e+002, 1.368664e+003
1.889474e+002, 1.369163e+003
1.894296e+002, 1.369066e+003
1.899117e+002, 1.368091e+003
1.903938e+002, 1.366276e+003
1.908759e+002, 1.364866e+003
1.913580e+002, 1.364084e+003
1.918401e+002, 1.363739e+003
1.923223e+002, 1.363670e+003
1.928044e+002, 1.363888e+003
1.932865e+002, 1.364236e+003
1.937686e+002, 1.364799e+003
1.942507e+002, 1.365445e+003
1.947328e+002, 1.365618e+003
1.952150e+002, 1.364587e+003
1.956971e+002, 1.363050e+003
1.961792e+002, 1.362530e+003
1.966613e+002, 1.363560e+003
1.971434e+002, 1.364691e+003
1.976255e+002, 1.365031e+003
1.981077e+002, 1.364672e+003
1.985898e+002, 1.363726e+003
1.990719e+002, 1.361528e+003
1.995540e+002, 1.358596e+003
2.000361e+002, 1.357316e+003
2.005182e+002, 1.358684e+003
2.010004e+002, 1.360492e+003
2.014825e+002, 1.362083e+003
2.019646e+002, 1.363203e+003
2.024467e+002, 1.363218e+003
2.029288e+002, 1.361064e+003
2.034109e+002, 1.356942e+003
2.038930e+002, 1.354409e+003
2.043752e+002, 1.355016e+003
2.048573e+002, 1.355753e+003
2.053394e+002, 1.355356e+003
2.058215e+002, 1.354142e+003
2.063036e+002, 1.353058e+003
2.067857e+002, 1.353093e+003
2.072679e+002, 1.354368e+003
2.077500e+002, 1.354426e+003
2.082321e+002, 1.351282e+003
2.087142e+002, 1.348675e+003
2.091963e+002, 1.348251e+003
2.096784e+002, 1.349495e+003
2.101606e+002, 1.350785e+003
2.106427e+002, 1.350624e+003
2.111248e+002, 1.348789e+003
2.116069e+002, 1.347449e+003
2.120890e+002, 1.346891e+003
2.125711e+002, 1.346503e+003
2.130533e+002, 1.346185e+003
2.135354e+002, 1.345851e+003
2.140175e+002, 1.345366e+003
2.144996e+002, 1.344603e+003
2.149817e+002, 1.343535e+003
2.154638e+002, 1.342331e+003
2.159460e+002, 1.340598e+003
2.164281e+002, 1.339099e+003
2.169102e+002, 1.338368e+003
2.173923e+002, 1.338303e+003
2.178744e+002, 1.338268e+003
2.183565e+002, 1.337592e+003
2.188387e+002, 1.336128e+003
2.193208e+002, 1.335727e+003
2.198029e+002, 1.337667e+003
2.202850e+002, 1.339505e+003
2.207671e+002, 1.339648e+003
2.212492e+002, 1.338113e+003
2.217314e+002, 1.335982e+003
2.222135e+002, 1.334008e+003
2.226956e+002, 1.332238e+003
2.231777e+002, 1.331089e+003
2.236598e+002, 1.330828e+003
2.241419e+002, 1.330974e+003
2.246240e+002, 1.331379e+003
2.251062e+002, 1.331992e+003
2.255883e+002, 1.332391e+003
2.260704e+002, 1.332297e+003
2.265525e+002, 1.331656e+003
2.270346e+002, 1.330470e+003
2.275167e+002, 1.327550e+003
2.279989e+002, 1.324832e+003
2.284810e+002, 1.324604e+003
2.289631e+002, 1.327044e+003
2.294452e+002, 1.329499e+003
2.299273e+002, 1.329755e+003
2.304094e+002, 1.328519e+003
2.308916e+002, 1.327779e+003
2.313737e+002, 1.328028e+003
2.318558e+002, 1.328815e+003
2.323379e+002, 1.330017e+003
2.328200e+002, 1.331818e+003
2.333021e+002, 1.332728e+003
2.337843e+002, 1.330750e+003
2.342664e+002, 1.327424e+003
2.347485e+002, 1.325100e+003
2.352306e+002, 1.324742e+003
2.357127e+002, 1.325320e+003
2.361948e+002, 1.325409e+003
2.366770e+002, 1.324861e+003
2.371591e+002, 1.324447e+003
2.376412e+002, 1.324849e+003
2.381233e+002, 1.325526e+003
2.386054e+002, 1.325903e+003
2.390875e+002, 1.325825e+003
2.395697e+002, 1.325346e+003
2.400518e+002, 1.324485e+003
2.405339e+002, 1.323125e+003
2.410160e+002, 1.321739e+003
2.414981e+002, 1.320285e+003
2.419802e+002, 1.318985e+003
2.424624e+002, 1.318079e+003
2.429445e+002, 1.317660e+003
2.434266e+002, 1.317631e+003
2.439087e+002, 1.317999e+003
2.443908e+002, 1.319135e+003
2.448729e+002, 1.319609e+003
2.453550e+002, 1.317972e+003
2.458372e+002, 1.316085e+003
2.463193e+002, 1.315844e+003
2.468014e+002, 1.317968e+003
2.472835e+002, 1.320933e+003
2.477656e+002, 1.321999e+003
2.482477e+002, 1.320250e+003
2.487299e+002, 1.318726e+003
2.492120e+002, 1.318155e+003
2.496941e+002, 1.317880e+003
2.501762e+002, 1.317414e+003
2.506583e+002, 1.316608e+003
2.511404e+002, 1.315641e+003
2.516226e+002, 1.314857e+003
2.521047e+002, 1.314523e+003
2.525868e+002, 1.313757e+003
2.530689e+002, 1.312182e+003
2.535510e+002, 1.310428e+003
2.540331e+002, 1.308818e+003
2.545153e+002, 1.307480e+003
2.549974e+002, 1.306497e+003
2.554795e+002, 1.306092e+003
2.559616e+002, 1.306783e+003
2.564437e+002, 1.306931e+003
2.569258e+002, 1.306157e+003
2.574080e+002, 1.305198e+003
2.578901e+002, 1.304458e+003
2.583722e+002, 1.304047e+003
2.588543e+002, 1.303898e+003
2.593364e+002, 1.303928e+003
2.598185e+002, 1.304134e+003
2.603007e+002, 1.304554e+003
2.607828e+002, 1.305598e+003
2.612649e+002, 1.306502e+003
2.617470e+002, 1.306791e+003
2.622291e+002, 1.306422e+003
2.627112e+002, 1.305636e+003
2.631934e+002, 1.304653e+003
2.636755e+002, 1.303329e+003
2.641576e+002, 1.302342e+003
2.646397e+002, 1.301333e+003
2.651218e+002, 1.300869e+003
2.656039e+002, 1.301726e+003
2.660861e+002, 1.303629e+003
2.665682e+002, 1.305389e+003
2.670503e+002, 1.305820e+003
2.675324e+002, 1.304706e+003
2.680145e+002, 1.303496e+003
2.684966e+002, 1.302003e+003
2.689788e+002, 1.300600e+003
2.694609e+002, 1.299512e+003
2.699430e+002, 1.298700e+003
2.704251e+002, 1.297922e+003
2.709072e+002, 1.296907e+003
2.713893e+002, 1.295624e+003
2.718715e+002, 1.295326e+003
2.723536e+002, 1.296790e+003
2.728357e+002, 1.298249e+003
2.733178e+002, 1.298958e+003
2.737999e+002, 1.299035e+003
2.742820e+002, 1.298979e+003
2.747642e+002, 1.299166e+003
2.752463e+002, 1.299528e+003
2.757284e+002, 1.299167e+003
2.762105e+002, 1.297252e+003
2.766926e+002, 1.295679e+003
2.771747e+002, 1.295306e+003
2.776568e+002, 1.295757e+003
2.781389e+002, 1.296176e+003
2.786211e+002, 1.296092e+003
2.791032e+002, 1.295630e+003
2.795853e+002, 1.295314e+003
2.800674e+002, 1.294661e+003
2.805495e+002, 1.294664e+003
2.810316e+002, 1.296611e+003
2.815138e+002, 1.299268e+003
2.819959e+002, 1.300166e+003
2.824780e+002, 1.298036e+003
2.829601e+002, 1.294234e+003
2.834422e+002, 1.292354e+003
2.839243e+002, 1.293426e+003
2.844065e+002, 1.294136e+003
2.848886e+002, 1.293644e+003
2.853707e+002, 1.292441e+003
2.858528e+002, 1.291115e+003
2.863349e+002, 1.289812e+003
2.868170e+002, 1.288725e+003
2.872992e+002, 1.288268e+003
2.877813e+002, 1.288645e+003
2.882634e+002, 1.288894e+003
2.887455e+002, 1.288362e+003
2.892276e+002, 1.287827e+003
2.897097e+002, 1.288588e+003
2.901919e+002, 1.290994e+003
2.906740e+002, 1.293508e+003
2.911561e+002, 1.294118e+003
2.916382e+002, 1.292542e+003
2.921203e+002, 1.291160e+003
2.926024e+002, 1.289926e+003
2.930846e+002, 1.289139e+003
2.935667e+002, 1.289453e+003
2.940488e+002, 1.290919e+003
2.945309e+002, 1.292177e+003
2.950130e+002, 1.291746e+003
2.954951e+002, 1.289601e+003
2.959773e+002, 1.288349e+003
2.964594e+002, 1.289004e+003
2.969415e+002, 1.289903e+003
2.974236e+002, 1.289524e+003
2.979057e+002, 1.287924e+003
2.983878e+002, 1.286497e+003
2.988700e+002, 1.286270e+003
2.993521e+002, 1.287098e+003
2.998342e+002, 1.287672e+003
3.003163e+002, 1.287917e+003
3.007984e+002, 1.287974e+003
3.012805e+002, 1.287376e+003
3.017627e+002, 1.286451e+003
3.022448e+002, 1.287017e+003
3.027269e+002, 1.290937e+003
3.032090e+002, 1.296293e+003
3.036911e+002, 1.297368e+003
3.041732e+002, 1.291853e+003
3.046554e+002, 1.286334e+003
3.051375e+002, 1.283923e+003
3.056196e+002, 1.283764e+003
3.061017e+002, 1.283625e+003
3.065838e+002, 1.282642e+003
3.070659e+002, 1.281376e+003
3.075481e+002, 1.280987e+003
3.080302e+002, 1.281617e+003
3.085123e+002, 1.282294e+003
3.089944e+002, 1.282875e+003
3.094765e+002, 1.283270e+003
3.099586e+002, 1.283214e+003
3.104408e+002, 1.282560e+003
3.109229e+002, 1.281780e+003
3.114050e+002, 1.281567e+003
3.118871e+002, 1.281930e+003
3.123692e+002, 1.282175e+003
3.128513e+002, 1.282086e+003
3.133335e+002, 1.281838e+003
3.138156e+002, 1.281603e+003
3.142977e+002, 1.281397e+003
3.147798e+002, 1.281252e+003
3.152619e+002, 1.281209e+003
3.157440e+002, 1.281261e+003
3.162262e+002, 1.281294e+003
3.167083e+002, 1.281432e+003
3.171904e+002, 1.281450e+003
3.176725e+002, 1.281050e+003
3.181546e+002, 1.280259e+003
3.186367e+002, 1.279537e+003
3.191188e+002, 1.279210e+003
3.196010e+002, 1.279213e+003
3.200831e+002, 1.279130e+003
3.205652e+002, 1.278698e+003
3.210473e+002, 1.278444e+003
3.215294e+002, 1.278661e+003
3.220115e+002, 1.279299e+003
3.224937e+002, 1.280382e+003
3.229758e+002, 1.282272e+003
3.234579e+002, 1.284176e+003
3.239400e+002, 1.283873e+003
3.244221e+002, 1.280336e+003
3.249042e+002, 1.277260e+003
3.253864e+002, 1.276452e+003
3.258685e+002, 1.276924e+003
3.263506e+002, 1.276725e+003
3.268327e+002, 1.275157e+003
3.273148e+002, 1.273090e+003
3.277969e+002, 1.271912e+003
3.282791e+002, 1.271752e+003
3.287612e+002, 1.271527e+003
3.292433e+002, 1.270941e+003
3.297254e+002, 1.270241e+003
3.302075e+002, 1.269735e+003
3.306896e+002, 1.269477e+003
3.311718e+002, 1.269274e+003
3.316539e+002, 1.268945e+003
3.321360e+002, 1.268479e+003
3.326181e+002, 1.267937e+003
3.331002e+002, 1.267072e+003
3.335823e+002, 1.266320e+003
3.340645e+002, 1.265947e+003
3.345466e+002, 1.265974e+003
3.350287e+002, 1.266395e+003
3.355108e+002, 1.267264e+003
3.359929e+002, 1.268533e+003
3.364750e+002, 1.269768e+003
3.369572e+002, 1.271490e+003
3.374393e+002, 1.272653e+003
3.379214e+002, 1.272415e+003
3.384035e+002, 1.271266e+003
3.388856e+002, 1.270523e+003
3.393677e+002, 1.270942e+003
3.398499e+002, 1.271793e+003
3.403320e+002, 1.270912e+003
3.408141e+002, 1.267002e+003
3.412962e+002, 1.263973e+003
3.417783e+002, 1.263253e+003
3.422604e+002, 1.263570e+003
3.427426e+002, 1.263284e+003
3.432247e+002, 1.261929e+003
3.437068e+002, 1.260103e+003
3.441889e+002, 1.258565e+003
3.446710e+002, 1.257289e+003
3.451531e+002, 1.256574e+003
3.456353e+002, 1.256808e+003
3.461174e+002, 1.257352e+003
3.465995e+002, 1.257900e+003
3.470816e+002, 1.258341e+003
3.475637e+002, 1.258484e+003
3.480458e+002, 1.258168e+003
3.485280e+002, 1.257379e+003
3.490101e+002, 1.256103e+003
3.494922e+002, 1.253264e+003
3.499743e+002, 1.251099e+003
3.504564e+002, 1.251164e+003
3.509385e+002, 1.252693e+003
3.514207e+002, 1.253873e+003
3.519028e+002, 1.253637e+003
3.523849e+002, 1.252274e+003
3.528670e+002, 1.250981e+003
3.533491e+002, 1.249294e+003
3.538312e+002, 1.248261e+003
3.543134e+002, 1.248552e+003
3.547955e+002, 1.249356e+003
3.552776e+002, 1.249618e+003
3.557597e+002, 1.248991e+003
3.562418e+002, 1.248112e+003
3.567239e+002, 1.248129e+003
3.572061e+002, 1.250061e+003
3.576882e+002, 1.250756e+003
3.581703e+002, 1.249035e+003
3.586524e+002, 1.247072e+003
3.591345e+002, 1.246470e+003
3.596166e+002, 1.247258e+003
3.600987e+002, 1.248352e+003
3.605808e+002, 1.248687e+003
3.610630e+002, 1.248163e+003
3.615451e+002, 1.247790e+003
3.620272e+002, 1.247958e+003
3.625093e+002, 1.247861e+003
3.629914e+002, 1.246908e+003
3.634735e+002, 1.245512e+003
3.639557e+002, 1.244504e+003
3.644378e+002, 1.244410e+003
3.649199e+002, 1.245010e+003
3.654020e+002, 1.245375e+003
3.658841e+002, 1.245542e+003
3.663662e+002, 1.245385e+003
3.668484e+002, 1.244492e+003
3.673305e+002, 1.243495e+003
3.678126e+002, 1.242945e+003
3.682947e+002, 1.243036e+003
3.687768e+002, 1.243682e+003
3.692589e+002, 1.245008e+003
3.697411e+002, 1.247772e+003
3.702232e+002, 1.249081e+003
3.707053e+002, 1.248005e+003
3.711874e+002, 1.246258e+003
3.716695e+002, 1.244510e+003
3.721516e+002, 1.242894e+003
3.726338e+002, 1.241311e+003
3.731159e+002, 1.239509e+003
3.735980e+002, 1.237524e+003
3.740801e+002, 1.236653e+003
3.745622e+002, 1.237951e+003
3.750443e+002, 1.239106e+003
3.755265e+002, 1.239051e+003
3.760086e+002, 1.238422e+003
3.764907e+002, 1.238381e+003
3.769728e+002, 1.239692e+003
3.774549e+002, 1.241420e+003
3.779370e+002, 1.241155e+003
3.784192e+002, 1.237852e+003
3.789013e+002, 1.235534e+003
3.793834e+002, 1.236175e+003
3.798655e+002, 1.237692e+003
3.803476e+002, 1.238598e+003
3.808297e+002, 1.238595e+003
3.813119e+002, 1.238167e+003
3.817940e+002, 1.237571e+003
3.822761e+002, 1.236821e+003
3.827582e+002, 1.236675e+003
3.832403e+002, 1.237690e+003
3.837224e+002, 1.238805e+003
3.842046e+002, 1.239401e+003
3.846867e+002, 1.239511e+003
3.851688e+002, 1.239302e+003
3.856509e+002, 1.238588e+003
3.861330e+002, 1.237659e+003
3.866151e+002, 1.237253e+003
3.870973e+002, 1.237515e+003
3.875794e+002, 1.237760e+003
3.880615e+002, 1.237448e+003
3.885436e+002, 1.236905e+003
3.890257e+002, 1.236630e+003
3.895078e+002, 1.236846e+003
3.899900e+002, 1.237090e+003
3.904721e+002, 1.236736e+003
3.909542e+002, 1.235906e+003
3.914363e+002, 1.235683e+003
3.919184e+002, 1.236659e+003
3.924005e+002, 1.238104e+003
3.928827e+002, 1.239116e+003
3.933648e+002, 1.239735e+003
3.938469e+002, 1.239844e+003
3.943290e+002, 1.239102e+003
3.948111e+002, 1.237926e+003
3.952932e+002, 1.237017e+003
3.957754e+002, 1.236500e+003
3.962575e+002, 1.235975e+003
3.967396e+002, 1.235027e+003
3.972217e+002, 1.233711e+003
3.977038e+002, 1.232627e+003
3.981859e+002, 1.231942e+003
3.986681e+002, 1.231370e+003
3.991501e+002, 1.230601e+003
3.996323e+002, 1.229751e+003
4.001144e+002, 1.229258e+003
4.005965e+002, 1.229357e+003
4.010786e+002, 1.229922e+003
4.015607e+002, 1.230664e+003
4.020428e+002, 1.231846e+003
4.025250e+002, 1.232705e+003
4.030071e+002, 1.232978e+003
4.034892e+002, 1.232912e+003
4.039713e+002, 1.232830e+003
4.044534e+002, 1.232792e+003
4.049355e+002, 1.232542e+003
4.054177e+002, 1.231698e+003
4.058998e+002, 1.230028e+003
4.063819e+002, 1.228988e+003
4.068640e+002, 1.228968e+003
4.073461e+002, 1.229125e+003
4.078282e+002, 1.229083e+003
4.083104e+002, 1.228873e+003
4.087925e+002, 1.228644e+003
4.092746e+002, 1.228466e+003
4.097567e+002, 1.228389e+003
4.102388e+002, 1.228658e+003
4.107209e+002, 1.229984e+003
4.112031e+002, 1.230714e+003
4.116852e+002, 1.230254e+003
4.121673e+002, 1.229398e+003
4.126494e+002, 1.228888e+003
4.131315e+002, 1.228919e+003
4.136136e+002, 1.229223e+003
4.140958e+002, 1.229498e+003
4.145779e+002, 1.229792e+003
4.150600e+002, 1.229858e+003
4.155421e+002, 1.229747e+003
4.160242e+002, 1.229356e+003
4.165063e+002, 1.228185e+003
4.169885e+002, 1.226680e+003
4.174706e+002, 1.225882e+003
4.179527e+002, 1.226592e+003
4.184348e+002, 1.228368e+003
4.189169e+002, 1.229635e+003
4.193990e+002, 1.230006e+003
4.198812e+002, 1.230737e+003
4.203633e+002, 1.233054e+003
4.208454e+002, 1.235432e+003
4.213275e+002, 1.236193e+003
4.218096e+002, 1.234891e+003
4.222917e+002, 1.233160e+003
4.227739e+002, 1.232966e+003
4.232560e+002, 1.234187e+003
4.237381e+002, 1.234203e+003
4.242202e+002, 1.231783e+003
4.247023e+002, 1.229218e+003
4.251844e+002, 1.228389e+003
4.256666e+002, 1.228905e+003
4.261487e+002, 1.229358e+003
4.266308e+002, 1.229235e+003
4.271129e+002, 1.228674e+003
4.275950e+002, 1.227749e+003
4.280771e+002, 1.226430e+003
4.285593e+002, 1.225220e+003
4.290414e+002, 1.224320e+003
4.295235e+002, 1.223775e+003
4.300056e+002, 1.223653e+003
4.304877e+002, 1.224259e+003
4.309698e+002, 1.224615e+003
4.314520e+002, 1.223951e+003
4.319341e+002, 1.222748e+003
4.324162e+002, 1.222080e+003
4.328983e+002, 1.222281e+003
4.333804e+002, 1.222580e+003
4.338625e+002, 1.221984e+003
4.343447e+002, 1.220323e+003
4.348268e+002, 1.219190e+003
4.353089e+002, 1.218889e+003
4.357910e+002, 1.218914e+003
4.362731e+002, 1.219023e+003
4.367552e+002, 1.219179e+003
4.372374e+002, 1.219393e+003
4.377195e+002, 1.219703e+003
4.382016e+002, 1.220007e+003
4.386837e+002, 1.219912e+003
4.391658e+002, 1.219055e+003
4.396479e+002, 1.218254e+003
4.401301e+002, 1.217260e+003
4.406122e+002, 1.216522e+003
4.410943e+002, 1.216683e+003
4.415764e+002, 1.217763e+003
4.420585e+002, 1.219013e+003
4.425406e+002, 1.219600e+003
4.430227e+002, 1.219481e+003
4.435049e+002, 1.219061e+003
4.439870e+002, 1.217109e+003
4.444691e+002, 1.216154e+003
4.449512e+002, 1.217964e+003
4.454333e+002, 1.221120e+003
4.459154e+002, 1.223229e+003
4.463976e+002, 1.222983e+003
4.468797e+002, 1.221386e+003
4.473618e+002, 1.220594e+003
4.478439e+002, 1.220709e+003
4.483260e+002, 1.221321e+003
4.488081e+002, 1.222998e+003
4.492903e+002, 1.224676e+003
4.497724e+002, 1.225266e+003
4.502545e+002, 1.224918e+003
4.507366e+002, 1.225245e+003
4.512187e+002, 1.228332e+003
4.517008e+002, 1.233283e+003
4.521830e+002, 1.235914e+003
4.526651e+002, 1.235289e+003
4.531472e+002, 1.234461e+003
4.536293e+002, 1.235092e+003
4.541114e+002, 1.236688e+003
4.545935e+002, 1.238780e+003
4.550757e+002, 1.241609e+003
4.555578e+002, 1.244229e+003
4.560399e+002, 1.245563e+003
4.565220e+002, 1.245929e+003
4.570041e+002, 1.246844e+003
4.574862e+002, 1.248927e+003
4.579684e+002, 1.251295e+003
4.584505e+002, 1.252693e+003
4.589326e+002, 1.253137e+003
4.594147e+002, 1.253764e+003
4.598968e+002, 1.255214e+003
4.603789e+002, 1.256619e+003
4.608611e+002, 1.256831e+003
4.613432e+002, 1.256105e+003
4.618253e+002, 1.256014e+003
4.623074e+002, 1.257614e+003
4.627895e+002, 1.260504e+003
4.632716e+002, 1.263061e+003
4.637538e+002, 1.265944e+003
4.642359e+002, 1.267680e+003
4.647180e+002, 1.267113e+003
4.652001e+002, 1.265867e+003
4.656822e+002, 1.265688e+003
4.661643e+002, 1.266858e+003
4.666465e+002, 1.268373e+003
4.671286e+002, 1.269107e+003
4.676107e+002, 1.268951e+003
4.680928e+002, 1.269071e+003
4.685749e+002, 1.269280e+003
4.690570e+002, 1.269964e+003
4.695392e+002, 1.271729e+003
4.700213e+002, 1.273898e+003
4.705034e+002, 1.275496e+003
4.709855e+002, 1.276089e+003
4.714676e+002, 1.276023e+003
4.719497e+002, 1.275906e+003
4.724319e+002, 1.275806e+003
4.729140e+002, 1.275376e+003
4.733961e+002, 1.274351e+003
4.738782e+002, 1.273166e+003
4.743603e+002, 1.272034e+003
4.748424e+002, 1.270967e+003
4.753246e+002, 1.269893e+003
4.758067e+002, 1.268636e+003
4.762888e+002, 1.267403e+003
4.767709e+002, 1.266640e+003
4.772530e+002, 1.266385e+003
4.777351e+002, 1.266444e+003
4.782173e+002, 1.267240e+003
4.786994e+002, 1.267995e+003
4.791815e+002, 1.267399e+003
4.796636e+002, 1.265028e+003
4.801457e+002, 1.262674e+003
4.806278e+002, 1.261558e+003
4.811100e+002, 1.260976e+003
4.815920e+002, 1.259608e+003
4.820742e+002, 1.257203e+003
4.825563e+002, 1.254353e+003
4.830384e+002, 1.251489e+003
4.835205e+002, 1.248618e+003
4.840026e+002, 1.245790e+003
4.844847e+002, 1.242449e+003
4.849669e+002, 1.239744e+003
4.854490e+002, 1.238676e+003
4.859311e+002, 1.238437e+003
4.864132e+002, 1.237678e+003
4.868953e+002, 1.235891e+003
4.873774e+002, 1.233367e+003
4.878596e+002, 1.230582e+003
4.883417e+002, 1.227451e+003
4.888238e+002, 1.224209e+003
4.893059e+002, 1.220965e+003
4.897880e+002, 1.217540e+003
4.902701e+002, 1.213387e+003
4.907523e+002, 1.209011e+003
4.912344e+002, 1.205528e+003
4.917165e+002, 1.203681e+003
4.921986e+002, 1.203002e+003
4.926807e+002, 1.202320e+003
4.931628e+002, 1.201823e+003
4.936450e+002, 1.200819e+003
4.941271e+002, 1.199259e+003
4.946092e+002, 1.197072e+003
4.950913e+002, 1.193713e+003
4.955734e+002, 1.189379e+003
4.960555e+002, 1.185524e+003
4.965377e+002, 1.183667e+003
4.970198e+002, 1.183034e+003
4.975019e+002, 1.181468e+003
4.979840e+002, 1.178766e+003
4.984661e+002, 1.175861e+003
4.989482e+002, 1.173193e+003
4.994304e+002, 1.170635e+003
4.999125e+002, 1.167859e+003
5.003946e+002, 1.164530e+003
5.008767e+002, 1.161746e+003
5.013588e+002, 1.160402e+003
5.018409e+002, 1.159863e+003
5.023231e+002, 1.158861e+003
5.028052e+002, 1.157136e+003
5.032873e+002, 1.155586e+003
5.037694e+002, 1.155251e+003
5.042515e+002, 1.156185e+003
5.047336e+002, 1.155954e+003
5.052158e+002, 1.153876e+003
5.056979e+002, 1.151543e+003
5.061800e+002, 1.149270e+003
5.066621e+002, 1.147175e+003
5.071442e+002, 1.145293e+003
5.076263e+002, 1.143657e+003
5.081085e+002, 1.142553e+003
5.085906e+002, 1.142613e+003
5.090727e+002, 1.144417e+003
5.095548e+002, 1.145261e+003
5.100369e+002, 1.144298e+003
5.105190e+002, 1.143206e+003
5.110012e+002, 1.142751e+003
5.114833e+002, 1.142611e+003
5.119654e+002, 1.142023e+003
5.124475e+002, 1.140512e+003
5.129296e+002, 1.138689e+003
5.134117e+002, 1.137745e+003
5.138939e+002, 1.137817e+003
5.143760e+002, 1.137720e+003
5.148581e+002, 1.137222e+003
5.153402e+002, 1.136437e+003
5.158223e+002, 1.135288e+003
5.163044e+002, 1.133877e+003
5.167866e+002, 1.132836e+003
5.172687e+002, 1.132883e+003
5.177508e+002, 1.133182e+003
5.182329e+002, 1.132524e+003
5.187150e+002, 1.130967e+003
5.191971e+002, 1.129487e+003
5.196793e+002, 1.128536e+003
5.201614e+002, 1.127945e+003
5.206435e+002, 1.127389e+003
5.211256e+002, 1.126912e+003
5.216077e+002, 1.126333e+003
5.220898e+002, 1.125980e+003
5.225720e+002, 1.125264e+003
5.230541e+002, 1.123280e+003
5.235362e+002, 1.120279e+003
5.240183e+002, 1.117504e+003
5.245004e+002, 1.115834e+003
5.249825e+002, 1.115182e+003
5.254647e+002, 1.115156e+003
5.259468e+002, 1.116875e+003
5.264289e+002, 1.117589e+003
5.269110e+002, 1.115913e+003
5.273931e+002, 1.113992e+003
5.278752e+002, 1.114015e+003
5.283574e+002, 1.115926e+003
5.288395e+002, 1.117553e+003
5.293216e+002, 1.116757e+003
5.298037e+002, 1.113985e+003
5.302858e+002, 1.111980e+003
5.307679e+002, 1.110996e+003
5.312501e+002, 1.110204e+003
5.317322e+002, 1.109129e+003
5.322143e+002, 1.108123e+003
5.326964e+002, 1.107714e+003
5.331785e+002, 1.108104e+003
5.336606e+002, 1.108215e+003
5.341428e+002, 1.107134e+003
5.346249e+002, 1.105311e+003
5.351070e+002, 1.103488e+003
5.355891e+002, 1.101705e+003
5.360712e+002, 1.100687e+003
5.365533e+002, 1.101336e+003
5.370355e+002, 1.103264e+003
5.375176e+002, 1.104016e+003
5.379997e+002, 1.102731e+003
5.384818e+002, 1.101439e+003
5.389639e+002, 1.100866e+003
5.394460e+002, 1.100528e+003
5.399282e+002, 1.099797e+003
5.404103e+002, 1.098563e+003
5.408924e+002, 1.097146e+003
5.413745e+002, 1.095891e+003
5.418566e+002, 1.094804e+003
5.423387e+002, 1.093621e+003
5.428209e+002, 1.092116e+003
5.433029e+002, 1.090798e+003
5.437850e+002, 1.089534e+003
5.442672e+002, 1.088626e+003
5.447493e+002, 1.088589e+003
5.452314e+002, 1.089513e+003
5.457135e+002, 1.090610e+003
5.461956e+002, 1.090993e+003
5.466777e+002, 1.090722e+003
5.471599e+002, 1.090519e+003
5.476420e+002, 1.090512e+003
5.481241e+002, 1.090385e+003
5.486062e+002, 1.089924e+003
5.490883e+002, 1.089219e+003
5.495704e+002, 1.088363e+003
5.500526e+002, 1.087323e+003
5.505347e+002, 1.086246e+003
5.510168e+002, 1.085117e+003
5.514989e+002, 1.084032e+003
5.519810e+002, 1.083289e+003
5.524631e+002, 1.082959e+003
5.529453e+002, 1.082526e+003
5.534274e+002, 1.081386e+003
5.539095e+002, 1.079532e+003
5.543916e+002, 1.078520e+003
5.548737e+002, 1.079291e+003
5.553558e+002, 1.079644e+003
5.558380e+002, 1.078477e+003
5.563201e+002, 1.076778e+003
5.568022e+002, 1.075900e+003
5.572843e+002, 1.076126e+003
5.577664e+002, 1.076571e+003
5.582485e+002, 1.076100e+003
5.587307e+002, 1.074658e+003
5.592128e+002, 1.073958e+003
5.596949e+002, 1.074479e+003
5.601770e+002, 1.075095e+003
5.606591e+002, 1.075884e+003
5.611412e+002, 1.076347e+003
5.616234e+002, 1.075636e+003
5.621055e+002, 1.073437e+003
5.625876e+002, 1.071234e+003
5.630697e+002, 1.070544e+003
5.635518e+002, 1.070910e+003
5.640339e+002, 1.070767e+003
5.645161e+002, 1.069869e+003
5.649982e+002, 1.068760e+003
5.654803e+002, 1.067585e+003
5.659624e+002, 1.066541e+003
5.664445e+002, 1.066334e+003
5.669266e+002, 1.067767e+003
5.674088e+002, 1.068891e+003
5.678909e+002, 1.068972e+003
5.683730e+002, 1.068409e+003
5.688551e+002, 1.067659e+003
5.693372e+002, 1.066824e+003
5.698193e+002, 1.065765e+003
5.703015e+002, 1.064290e+003
5.707836e+002, 1.062443e+003
5.712657e+002, 1.061224e+003
5.717478e+002, 1.060827e+003
5.722299e+002, 1.060845e+003
5.727120e+002, 1.061963e+003
5.731942e+002, 1.062982e+003
5.736763e+002, 1.062402e+003
5.741584e+002, 1.060198e+003
5.746405e+002, 1.058199e+003
5.751226e+002, 1.058575e+003
5.756047e+002, 1.060550e+003
5.760869e+002, 1.060560e+003
5.765690e+002, 1.058016e+003
5.770511e+002, 1.056010e+003
5.775332e+002, 1.056558e+003
5.780153e+002, 1.058198e+003
5.784974e+002, 1.058415e+003
5.789796e+002, 1.056794e+003
5.794617e+002, 1.055465e+003
5.799438e+002, 1.055633e+003
5.804259e+002, 1.056277e+003
5.809080e+002, 1.056263e+003
5.813901e+002, 1.055537e+003
5.818723e+002, 1.054489e+003
5.823544e+002, 1.053302e+003
5.828365e+002, 1.052102e+003
5.833186e+002, 1.051301e+003
5.838007e+002, 1.051203e+003
5.842828e+002, 1.051076e+003
5.847650e+002, 1.051140e+003
5.852471e+002, 1.050988e+003
5.857292e+002, 1.050213e+003
5.862113e+002, 1.048967e+003
5.866934e+002, 1.047786e+003
5.871755e+002, 1.047061e+003
5.876577e+002, 1.046504e+003
5.881398e+002, 1.045311e+003
5.886219e+002, 1.043316e+003
5.891040e+002, 1.041841e+003
5.895861e+002, 1.041424e+003
5.900682e+002, 1.041392e+003
5.905504e+002, 1.041107e+003
5.910325e+002, 1.040615e+003
5.915146e+002, 1.040227e+003
5.919967e+002, 1.040209e+003
5.924788e+002, 1.040186e+003
5.929609e+002, 1.039755e+003
5.934431e+002, 1.039048e+003
5.939252e+002, 1.038440e+003
5.944073e+002, 1.038063e+003
5.948894e+002, 1.037899e+003
5.953715e+002, 1.037948e+003
5.958536e+002, 1.038291e+003
5.963358e+002, 1.038497e+003
5.968179e+002, 1.039020e+003
5.973000e+002, 1.038937e+003
5.977821e+002, 1.037403e+003
5.982642e+002, 1.035249e+003
5.987463e+002, 1.033536e+003
5.992285e+002, 1.032639e+003
5.997106e+002, 1.032454e+003
6.001927e+002, 1.033181e+003
6.006748e+002, 1.034763e+003
6.011569e+002, 1.035459e+003
6.016390e+002, 1.034745e+003
6.021212e+002, 1.034093e+003
6.026033e+002, 1.034688e+003
6.030854e+002, 1.035771e+003
6.035675e+002, 1.036197e+003
6.040496e+002, 1.035755e+003
6.045317e+002, 1.034883e+003
6.050139e+002, 1.033798e+003
6.054960e+002, 1.032423e+003
6.059781e+002, 1.030403e+003
6.064602e+002, 1.027814e+003
6.069423e+002, 1.025520e+003
6.074244e+002, 1.024162e+003
6.079066e+002, 1.023605e+003
6.083887e+002, 1.023221e+003
6.088708e+002, 1.022970e+003
6.093529e+002, 1.022992e+003
6.098350e+002, 1.023828e+003
6.103171e+002, 1.024507e+003
6.107993e+002, 1.024055e+003
6.112814e+002, 1.022767e+003
6.117635e+002, 1.021869e+003
6.122456e+002, 1.022332e+003
6.127277e+002, 1.023331e+003
6.132098e+002, 1.023015e+003
6.136920e+002, 1.021258e+003
6.141741e+002, 1.019555e+003
6.146562e+002, 1.018094e+003
6.151383e+002, 1.017018e+003
6.156204e+002, 1.016425e+003
6.161025e+002, 1.016294e+003
6.165847e+002, 1.016693e+003
6.170668e+002, 1.018545e+003
6.175489e+002, 1.020030e+003
6.180310e+002, 1.019819e+003
6.185131e+002, 1.018425e+003
6.189952e+002, 1.016716e+003
6.194774e+002, 1.014987e+003
6.199595e+002, 1.013553e+003
6.204416e+002, 1.012845e+003
6.209237e+002, 1.012924e+003
6.214058e+002, 1.012805e+003
6.218879e+002, 1.012159e+003
6.223701e+002, 1.011736e+003
6.228522e+002, 1.012054e+003
6.233343e+002, 1.012468e+003
6.238164e+002, 1.012244e+003
6.242985e+002, 1.011275e+003
6.247806e+002, 1.010160e+003
6.252628e+002, 1.009423e+003
6.257448e+002, 1.008908e+003
6.262269e+002, 1.008124e+003
6.267090e+002, 1.007020e+003
6.271912e+002, 1.006163e+003
6.276733e+002, 1.005930e+003
6.281554e+002, 1.005977e+003
6.286375e+002, 1.005575e+003
6.291196e+002, 1.004594e+003
6.296017e+002, 1.003871e+003
6.300839e+002, 1.003642e+003
6.305660e+002, 1.003599e+003
6.310481e+002, 1.003618e+003
6.315302e+002, 1.003637e+003
6.320123e+002, 1.003553e+003
6.324944e+002, 1.003317e+003
6.329766e+002, 1.003026e+003
6.334587e+002, 1.002943e+003
6.339408e+002, 1.003221e+003
6.344229e+002, 1.002847e+003
6.349050e+002, 1.001046e+003
6.353871e+002, 9.996041e+002
6.358693e+002, 9.997250e+002
6.363514e+002, 1.000525e+003
6.368335e+002, 1.000536e+003
6.373156e+002, 9.992145e+002
6.377977e+002, 9.979936e+002
6.382798e+002, 9.982920e+002
6.387620e+002, 9.992767e+002
6.392441e+002, 9.992205e+002
6.397262e+002, 9.979649e+002
6.402083e+002, 9.967556e+002
6.406904e+002, 9.964792e+002
6.411725e+002, 9.967588e+002
6.416547e+002, 9.963180e+002
6.421368e+002, 9.942990e+002
6.426189e+002, 9.928076e+002
6.431010e+002, 9.921523e+002
6.435831e+002, 9.917436e+002
6.440652e+002, 9.914568e+002
6.445474e+002, 9.910839e+002
6.450295e+002, 9.901123e+002
6.455116e+002, 9.881487e+002
6.459937e+002, 9.860818e+002
6.464758e+002, 9.857939e+002
6.469579e+002, 9.872609e+002
6.474401e+002, 9.872093e+002
6.479222e+002, 9.844462e+002
6.484043e+002, 9.816205e+002
6.488864e+002, 9.810446e+002
6.493685e+002, 9.820383e+002
6.498506e+002, 9.824844e+002
6.503328e+002, 9.819408e+002
6.508149e+002, 9.812885e+002
6.512970e+002, 9.809735e+002
6.517791e+002, 9.806889e+002
6.522612e+002, 9.798611e+002
6.527433e+002, 9.785770e+002
6.532255e+002, 9.776578e+002
6.537076e+002, 9.777499e+002
6.541897e+002, 9.785877e+002
6.546718e+002, 9.791920e+002
6.551539e+002, 9.794532e+002
6.556360e+002, 9.797258e+002
6.561182e+002, 9.803702e+002
6.566003e+002, 9.807410e+002
6.570824e+002, 9.802976e+002
6.575645e+002, 9.792504e+002
6.580466e+002, 9.783113e+002
6.585287e+002, 9.779141e+002
6.590109e+002, 9.774366e+002
6.594930e+002, 9.759192e+002
6.599751e+002, 9.738596e+002
6.604572e+002, 9.727822e+002
6.609393e+002, 9.730385e+002
6.614214e+002, 9.735865e+002
6.619036e+002, 9.735324e+002
6.623857e+002, 9.729368e+002
6.628678e+002, 9.724333e+002
6.633499e+002, 9.727673e+002
6.638320e+002, 9.722073e+002
6.643141e+002, 9.696658e+002
6.647963e+002, 9.669050e+002
6.652784e+002, 9.651907e+002
6.657605e+002, 9.645927e+002
6.662426e+002, 9.647253e+002
6.667247e+002, 9.656650e+002
6.672068e+002, 9.666715e+002
6.676890e+002, 9.661005e+002
6.681711e+002, 9.640134e+002
6.686532e+002, 9.625710e+002
6.691353e+002, 9.624088e+002
6.696174e+002, 9.626432e+002
6.700995e+002, 9.625938e+002
6.705817e+002, 9.622352e+002
6.710638e+002, 9.615402e+002
6.715459e+002, 9.598214e+002
6.720280e+002, 9.586022e+002
6.725101e+002, 9.586190e+002
6.729922e+002, 9.592308e+002
6.734744e+002, 9.599905e+002
6.739565e+002, 9.606709e+002
6.744386e+002, 9.608998e+002
6.749207e+002, 9.603782e+002
6.754028e+002, 9.592197e+002
6.758849e+002, 9.576323e+002
6.763671e+002, 9.553863e+002
6.768492e+002, 9.537382e+002
6.773313e+002, 9.530670e+002
6.778134e+002, 9.529275e+002
6.782955e+002, 9.533134e+002
6.787776e+002, 9.539644e+002
6.792598e+002, 9.538850e+002
6.797419e+002, 9.521083e+002
6.802240e+002, 9.505032e+002
6.807061e+002, 9.504697e+002
6.811882e+002, 9.512059e+002
6.816703e+002, 9.513976e+002
6.821525e+002, 9.508599e+002
6.826346e+002, 9.503260e+002
6.831167e+002, 9.504504e+002
6.835988e+002, 9.510118e+002
6.840809e+002, 9.508569e+002
6.845630e+002, 9.495403e+002
6.850452e+002, 9.484869e+002
6.855273e+002, 9.478998e+002
6.860094e+002, 9.476216e+002
6.864915e+002, 9.476630e+002
6.869736e+002, 9.479443e+002
6.874557e+002, 9.483046e+002
6.879379e+002, 9.488581e+002
6.884200e+002, 9.491459e+002
6.889021e+002, 9.487690e+002
6.893842e+002, 9.478098e+002
6.898663e+002, 9.462794e+002
6.903484e+002, 9.441935e+002
6.908306e+002, 9.422152e+002
6.913127e+002, 9.408139e+002
6.917948e+002, 9.399741e+002
6.922769e+002, 9.396193e+002
6.927590e+002, 9.403301e+002
6.932411e+002, 9.406093e+002
6.937233e+002, 9.405228e+002
6.942054e+002, 9.399136e+002
6.946875e+002, 9.381934e+002
6.951696e+002, 9.359045e+002
6.956517e+002, 9.343625e+002
6.961339e+002, 9.342448e+002
6.966160e+002, 9.347584e+002
6.970981e+002, 9.351588e+002
6.975802e+002, 9.354618e+002
6.980623e+002, 9.356240e+002
6.985444e+002, 9.356054e+002
6.990266e+002, 9.359654e+002
6.995087e+002, 9.373298e+002
6.999908e+002, 9.392260e+002
7.004729e+002, 9.398387e+002
7.009550e+002, 9.383964e+002
7.014371e+002, 9.367794e+002
7.019193e+002, 9.347746e+002
7.024014e+002, 9.328096e+002
7.028835e+002, 9.308266e+002
7.033656e+002, 9.291436e+002
7.038477e+002, 9.284963e+002
7.043298e+002, 9.292990e+002
7.048120e+002, 9.303802e+002
7.052941e+002, 9.303157e+002
7.057762e+002, 9.292764e+002
7.062583e+002, 9.278179e+002
7.067404e+002, 9.258320e+002
7.072225e+002, 9.246785e+002
7.077046e+002, 9.255029e+002
7.081867e+002, 9.274294e+002
7.086688e+002, 9.282221e+002
7.091509e+002, 9.275648e+002
7.096331e+002, 9.266464e+002
7.101152e+002, 9.253314e+002
7.105973e+002, 9.239645e+002
7.110794e+002, 9.227089e+002
7.115615e+002, 9.215540e+002
7.120436e+002, 9.202899e+002
7.125258e+002, 9.188542e+002
7.130079e+002, 9.179167e+002
7.134900e+002, 9.187976e+002
7.139721e+002, 9.209964e+002
7.144542e+002, 9.215831e+002
7.149363e+002, 9.202579e+002
7.154185e+002, 9.186601e+002
7.159006e+002, 9.173545e+002
7.163827e+002, 9.163812e+002
7.168648e+002, 9.159237e+002
7.173469e+002, 9.161059e+002
7.178290e+002, 9.160219e+002
7.183112e+002, 9.154686e+002
7.187933e+002, 9.147733e+002
7.192754e+002, 9.139842e+002
7.197575e+002, 9.132053e+002
7.202396e+002, 9.125238e+002
7.207217e+002, 9.119814e+002
7.212039e+002, 9.116457e+002
7.216860e+002, 9.116249e+002
7.221681e+002, 9.118556e+002
7.226502e+002, 9.121230e+002
7.231323e+002, 9.124459e+002
7.236144e+002, 9.127017e+002
7.240966e+002, 9.129592e+002
7.245787e+002, 9.129861e+002
7.250608e+002, 9.126216e+002
7.255429e+002, 9.118560e+002
7.260250e+002, 9.102419e+002
7.265071e+002, 9.063864e+002
7.269893e+002, 9.033233e+002
7.274714e+002, 9.025209e+002
7.279535e+002, 9.028640e+002
7.284356e+002, 9.032982e+002
7.289177e+002, 9.035641e+002
7.293998e+002, 9.036815e+002
7.298820e+002, 9.036076e+002
7.303641e+002, 9.034927e+002
7.308462e+002, 9.038660e+002
7.313283e+002, 9.047618e+002
7.318104e+002, 9.049463e+002
7.322925e+002, 9.040087e+002
7.327747e+002, 9.026827e+002
7.332568e+002, 9.013521e+002
7.337389e+002, 9.001104e+002
7.342210e+002, 8.993992e+002
7.347031e+002, 8.998196e+002
7.351852e+002, 8.998281e+002
7.356674e+002, 8.984700e+002
7.361495e+002, 8.970867e+002
7.366316e+002, 8.970896e+002
7.371137e+002, 8.980472e+002
7.375958e+002, 8.984124e+002
7.380779e+002, 8.973658e+002
7.385601e+002, 8.959499e+002
7.390422e+002, 8.960126e+002
7.395243e+002, 8.973171e+002
7.400064e+002, 8.973666e+002
7.404885e+002, 8.957012e+002
7.409706e+002, 8.940058e+002
7.414528e+002, 8.932020e+002
7.419349e+002, 8.929826e+002
7.424170e+002, 8.926758e+002
7.428991e+002, 8.922128e+002
7.433812e+002, 8.919240e+002
7.438633e+002, 8.923503e+002
7.443455e+002, 8.924329e+002
7.448276e+002, 8.913002e+002
7.453097e+002, 8.895811e+002
7.457918e+002, 8.882549e+002
7.462739e+002, 8.875991e+002
7.467560e+002, 8.871843e+002
7.472382e+002, 8.865810e+002
7.477203e+002, 8.859062e+002
7.482024e+002, 8.855635e+002
7.486845e+002, 8.855623e+002
7.491666e+002, 8.855457e+002
7.496487e+002, 8.853707e+002
7.501309e+002, 8.851944e+002
7.506130e+002, 8.852165e+002
7.510951e+002, 8.854479e+002
7.515772e+002, 8.855983e+002
7.520593e+002, 8.861010e+002
7.525414e+002, 8.859501e+002
7.530236e+002, 8.837852e+002
7.535057e+002, 8.816765e+002
7.539878e+002, 8.819706e+002
7.544699e+002, 8.842603e+002
7.549520e+002, 8.860701e+002
7.554341e+002, 8.859202e+002
7.559163e+002, 8.847936e+002
7.563984e+002, 8.841411e+002
7.568805e+002, 8.837308e+002
7.573626e+002, 8.823496e+002
7.578447e+002, 8.797288e+002
7.583268e+002, 8.772809e+002
7.588090e+002, 8.760359e+002
7.592911e+002, 8.756959e+002
7.597732e+002, 8.752435e+002
7.602553e+002, 8.745517e+002
7.607374e+002, 8.740167e+002
7.612195e+002, 8.738124e+002
7.617017e+002, 8.736053e+002
7.621838e+002, 8.732363e+002
7.626659e+002, 8.727774e+002
7.631480e+002, 8.723815e+002
7.636301e+002, 8.721022e+002
7.641122e+002, 8.717147e+002
7.645944e+002, 8.709407e+002
7.650765e+002, 8.700111e+002
7.655586e+002, 8.692313e+002
7.660407e+002, 8.686194e+002
7.665228e+002, 8.682869e+002
7.670049e+002, 8.682924e+002
7.674871e+002, 8.682609e+002
7.679692e+002, 8.675960e+002
7.684513e+002, 8.662258e+002
7.689334e+002, 8.658153e+002
7.694155e+002, 8.673528e+002
7.698976e+002, 8.682040e+002
7.703798e+002, 8.670750e+002
7.708619e+002, 8.656301e+002
7.713440e+002, 8.652620e+002
7.718261e+002, 8.658239e+002
7.723082e+002, 8.661999e+002
7.727903e+002, 8.662806e+002
7.732725e+002, 8.656915e+002
7.737546e+002, 8.634805e+002
7.742367e+002, 8.607372e+002
7.747188e+002, 8.592881e+002
7.752009e+002, 8.592326e+002
7.756830e+002, 8.593934e+002
7.761652e+002, 8.589885e+002
7.766473e+002, 8.583401e+002
7.771294e+002, 8.583478e+002
7.776115e+002, 8.592185e+002
7.780936e+002, 8.592872e+002
7.785757e+002, 8.578948e+002
7.790579e+002, 8.567299e+002
7.795400e+002, 8.570939e+002
7.800221e+002, 8.580956e+002
7.805042e+002, 8.581951e+002
7.809863e+002, 8.571622e+002
7.814684e+002, 8.561688e+002
7.819506e+002, 8.556066e+002
7.824327e+002, 8.550596e+002
7.829148e+002, 8.541747e+002
7.833969e+002, 8.531445e+002
7.838790e+002, 8.522155e+002
7.843611e+002, 8.514976e+002
7.848433e+002, 8.512079e+002
7.853254e+002, 8.518495e+002
7.858075e+002, 8.528829e+002
7.862896e+002, 8.522313e+002
7.867717e+002, 8.498531e+002
7.872538e+002, 8.490663e+002
7.877360e+002, 8.512709e+002
7.882181e+002, 8.534884e+002
7.887002e+002, 8.527130e+002
7.891823e+002, 8.493943e+002
7.896644e+002, 8.473806e+002
7.901465e+002, 8.476879e+002
7.906286e+002, 8.477683e+002
7.911107e+002, 8.472922e+002
7.915928e+002, 8.466714e+002
7.920750e+002, 8.459247e+002
7.925571e+002, 8.452952e+002
7.930392e+002, 8.454099e+002
7.935213e+002, 8.466207e+002
7.940034e+002, 8.474833e+002
7.944855e+002, 8.459319e+002
7.949677e+002, 8.434973e+002
7.954498e+002, 8.435934e+002
7.959319e+002, 8.459276e+002
7.964140e+002, 8.472083e+002
7.968961e+002, 8.460224e+002
7.973782e+002, 8.437903e+002
7.978604e+002, 8.424385e+002
7.983425e+002, 8.419963e+002
7.988246e+002, 8.414932e+002
7.993067e+002, 8.409289e+002
7.997888e+002, 8.402887e+002
8.002709e+002, 8.393845e+002
8.007531e+002, 8.385451e+002
8.012352e+002, 8.381854e+002
8.017173e+002, 8.381633e+002
8.021994e+002, 8.377638e+002
8.026815e+002, 8.363536e+002
8.031636e+002, 8.351856e+002
8.036458e+002, 8.350831e+002
8.041279e+002, 8.354838e+002
8.046100e+002, 8.357889e+002
8.050921e+002, 8.359475e+002
8.055742e+002, 8.361862e+002
8.060563e+002, 8.366447e+002
8.065385e+002, 8.370093e+002
8.070206e+002, 8.365959e+002
8.075027e+002, 8.354955e+002
8.079848e+002, 8.350876e+002
8.084669e+002, 8.356306e+002
8.089490e+002, 8.357787e+002
8.094312e+002, 8.347650e+002
8.099133e+002, 8.332875e+002
8.103954e+002, 8.323883e+002
8.108775e+002, 8.321699e+002
8.113596e+002, 8.318996e+002
8.118417e+002, 8.317620e+002
8.123239e+002, 8.313461e+002
8.128060e+002, 8.301339e+002
8.132881e+002, 8.288887e+002
8.137702e+002, 8.283994e+002
8.142523e+002, 8.286119e+002
8.147344e+002, 8.289606e+002
8.152166e+002, 8.293302e+002
8.156987e+002, 8.293770e+002
8.161808e+002, 8.283597e+002
8.166629e+002, 8.268412e+002
8.171450e+002, 8.261722e+002
8.176271e+002, 8.264290e+002
8.181093e+002, 8.267412e+002
8.185914e+002, 8.266086e+002
8.190735e+002, 8.262438e+002
8.195556e+002, 8.261287e+002
8.200377e+002, 8.263868e+002
8.205198e+002, 8.259796e+002
8.210020e+002, 8.243399e+002
8.214841e+002, 8.230834e+002
8.219662e+002, 8.230625e+002
8.224483e+002, 8.235494e+002
8.229304e+002, 8.238766e+002
8.234125e+002, 8.240266e+002
8.238947e+002, 8.238189e+002
8.243768e+002, 8.228177e+002
8.248589e+002, 8.219455e+002
8.253410e+002, 8.216593e+002
8.258231e+002, 8.216854e+002
8.263052e+002, 8.217693e+002
8.267874e+002, 8.218629e+002
8.272695e+002, 8.220712e+002
8.277516e+002, 8.225385e+002
8.282337e+002, 8.227505e+002
8.287158e+002, 8.216603e+002
8.291979e+002, 8.196529e+002
8.296801e+002, 8.185250e+002
8.301622e+002, 8.184443e+002
8.306443e+002, 8.178894e+002
8.311264e+002, 8.159446e+002
8.316085e+002, 8.136077e+002
8.320906e+002, 8.125419e+002
8.325728e+002, 8.129276e+002
8.330549e+002, 8.132714e+002
8.335370e+002, 8.137486e+002
8.340191e+002, 8.139028e+002
8.345012e+002, 8.133152e+002
8.349833e+002, 8.126343e+002
8.354655e+002, 8.125072e+002
8.359476e+002, 8.128132e+002
8.364297e+002, 8.127996e+002
8.369118e+002, 8.119543e+002
8.373939e+002, 8.112139e+002
8.378760e+002, 8.112849e+002
8.383582e+002, 8.116094e+002
8.388403e+002, 8.115682e+002
8.393224e+002, 8.111613e+002
8.398045e+002, 8.106556e+002
8.402866e+002, 8.101796e+002
8.407687e+002, 8.096306e+002
8.412509e+002, 8.088685e+002
8.417330e+002, 8.079132e+002
8.422151e+002, 8.068116e+002
8.426972e+002, 8.055494e+002
8.431793e+002, 8.044300e+002
8.436614e+002, 8.035132e+002
8.441436e+002, 8.029427e+002
8.446257e+002, 8.029645e+002
8.451078e+002, 8.035557e+002
8.455899e+002, 8.039553e+002
8.460720e+002, 8.041532e+002
8.465541e+002, 8.041425e+002
8.470363e+002, 8.041725e+002
8.475184e+002, 8.037551e+002
8.480005e+002, 8.021020e+002
8.484826e+002, 7.998474e+002
8.489647e+002, 7.984225e+002
8.494468e+002, 7.982988e+002
8.499290e+002, 7.985316e+002
8.504111e+002, 7.987488e+002
8.508932e+002, 7.989692e+002
8.513753e+002, 7.994697e+002
8.518574e+002, 7.999519e+002
8.523395e+002, 7.996014e+002
8.528217e+002, 7.982535e+002
8.533038e+002, 7.967365e+002
8.537859e+002, 7.958605e+002
8.542680e+002, 7.954618e+002
8.547501e+002, 7.950924e+002
8.552322e+002, 7.947542e+002
8.557144e+002, 7.942621e+002
8.561965e+002, 7.935334e+002
8.566786e+002, 7.928817e+002
8.571607e+002, 7.926418e+002
8.576428e+002, 7.925817e+002
8.581249e+002, 7.919091e+002
8.586071e+002, 7.900643e+002
8.590892e+002, 7.888185e+002
8.595713e+002, 7.883193e+002
8.600534e+002, 7.882162e+002
8.605355e+002, 7.886382e+002
8.610176e+002, 7.892399e+002
8.614998e+002, 7.897034e+002
8.619819e+002, 7.899694e+002
8.624640e+002, 7.898905e+002
8.629461e+002, 7.892590e+002
8.634282e+002, 7.884218e+002
8.639103e+002, 7.875551e+002
8.643925e+002, 7.866659e+002
8.648746e+002, 7.857161e+002
8.653567e+002, 7.847418e+002
8.658388e+002, 7.839402e+002
8.663209e+002, 7.834481e+002
8.668030e+002, 7.830156e+002
8.672852e+002, 7.821204e+002
8.677673e+002, 7.809177e+002
8.682494e+002, 7.803073e+002
8.687315e+002, 7.803607e+002
8.692136e+002, 7.804523e+002
8.696957e+002, 7.803930e+002
8.701779e+002, 7.799974e+002
8.706600e+002, 7.789163e+002
8.711421e+002, 7.771368e+002
8.716242e+002, 7.759727e+002
8.721063e+002, 7.759088e+002
8.725884e+002, 7.756035e+002
8.730705e+002, 7.742169e+002
8.735526e+002, 7.731125e+002
8.740347e+002, 7.736201e+002
8.745168e+002, 7.749774e+002
8.749990e+002, 7.752341e+002
8.754811e+002, 7.737344e+002
8.759632e+002, 7.721815e+002
8.764453e+002, 7.710077e+002
8.769274e+002, 7.701520e+002
8.774095e+002, 7.696264e+002
8.778917e+002, 7.693694e+002
8.783738e+002, 7.694302e+002
8.788559e+002, 7.697351e+002
8.793380e+002, 7.698027e+002
8.798201e+002, 7.691916e+002
8.803022e+002, 7.682068e+002
8.807844e+002, 7.671351e+002
8.812665e+002, 7.661119e+002
8.817486e+002, 7.658566e+002
8.822307e+002, 7.664196e+002
8.827128e+002, 7.666536e+002
8.831949e+002, 7.657955e+002
8.836771e+002, 7.643258e+002
8.841592e+002, 7.631298e+002
8.846413e+002, 7.621241e+002
8.851234e+002, 7.621539e+002
8.856055e+002, 7.639416e+002
8.860876e+002, 7.649393e+002
8.865698e+002, 7.639324e+002
8.870519e+002, 7.620908e+002
8.875340e+002, 7.605024e+002
8.880161e+002, 7.591829e+002
8.884982e+002, 7.583074e+002
8.889803e+002, 7.581155e+002
8.894625e+002, 7.580363e+002
8.899446e+002, 7.581426e+002
8.904267e+002, 7.581730e+002
8.909088e+002, 7.577750e+002
8.913909e+002, 7.572198e+002
8.918730e+002, 7.571821e+002
8.923552e+002, 7.578838e+002
8.928373e+002, 7.582660e+002
8.933194e+002, 7.576479e+002
8.938015e+002, 7.563864e+002
8.942836e+002, 7.544924e+002
8.947657e+002, 7.523588e+002
8.952479e+002, 7.508026e+002
8.957300e+002, 7.499619e+002
8.962121e+002, 7.493311e+002
8.966942e+002, 7.484887e+002
8.971763e+002, 7.478005e+002
8.976584e+002, 7.482599e+002
8.981406e+002, 7.497047e+002
8.986227e+002, 7.506582e+002
8.991048e+002, 7.510131e+002
8.995869e+002, 7.503243e+002
9.000690e+002, 7.481037e+002
9.005511e+002, 7.454966e+002
9.010333e+002, 7.442560e+002
9.015154e+002, 7.444543e+002
9.019975e+002, 7.443646e+002
9.024796e+002, 7.438196e+002
9.029617e+002, 7.432943e+002
9.034438e+002, 7.426146e+002
9.039260e+002, 7.422501e+002
9.044081e+002, 7.427162e+002
9.048902e+002, 7.437177e+002
9.053723e+002, 7.445634e+002
9.058544e+002, 7.453738e+002
9.063365e+002, 7.454739e+002
9.068187e+002, 7.441611e+002
9.073008e+002, 7.426594e+002
9.077829e+002, 7.417919e+002
9.082650e+002, 7.411464e+002
9.087471e+002, 7.399548e+002
9.092292e+002, 7.382125e+002
9.097114e+002, 7.367233e+002
9.101935e+002, 7.358211e+002
9.106756e+002, 7.355992e+002
9.111577e+002, 7.366982e+002
9.116398e+002, 7.383174e+002
9.121219e+002, 7.389679e+002
9.126041e+002, 7.386020e+002
9.130862e+002, 7.378264e+002
9.135683e+002, 7.369286e+002
9.140504e+002, 7.361390e+002
9.145325e+002, 7.358820e+002
9.150146e+002, 7.360190e+002
9.154968e+002, 7.356806e+002
9.159789e+002, 7.348578e+002
9.164610e+002, 7.338757e+002
9.169431e+002, 7.327181e+002
9.174252e+002, 7.319028e+002
9.179073e+002, 7.319969e+002
9.183895e+002, 7.326409e+002
9.188716e+002, 7.324816e+002
9.193537e+002, 7.311105e+002
9.198358e+002, 7.299377e+002
9.203179e+002, 7.287941e+002
9.208000e+002, 7.280844e+002
9.212822e+002, 7.284297e+002
9.217643e+002, 7.289787e+002
9.222464e+002, 7.286807e+002
9.227285e+002, 7.275644e+002
9.232106e+002, 7.267748e+002
9.236927e+002, 7.267867e+002
9.241749e+002, 7.267057e+002
9.246570e+002, 7.263941e+002
9.251391e+002, 7.257995e+002
9.256212e+002, 7.244928e+002
9.261033e+002, 7.229834e+002
9.265854e+002, 7.224291e+002
9.270676e+002, 7.232008e+002
9.275497e+002, 7.238829e+002
9.280318e+002, 7.235588e+002
9.285139e+002, 7.226959e+002
9.289960e+002, 7.214797e+002
9.294781e+002, 7.201829e+002
9.299603e+002, 7.191379e+002
9.304424e+002, 7.184906e+002
9.309245e+002, 7.186593e+002
9.314066e+002, 7.200425e+002
9.318887e+002, 7.215944e+002
9.323708e+002, 7.215817e+002
9.328530e+002, 7.203001e+002
9.333351e+002, 7.186742e+002
9.338172e+002, 7.168250e+002
9.342993e+002, 7.158602e+002
9.347814e+002, 7.162294e+002
9.352635e+002, 7.173008e+002
9.357457e+002, 7.185220e+002
9.362278e+002, 7.197585e+002
9.367099e+002, 7.201413e+002
9.371920e+002, 7.194301e+002
9.376741e+002, 7.189773e+002
9.381563e+002, 7.192982e+002
9.386384e+002, 7.190352e+002
9.391205e+002, 7.170618e+002
9.396026e+002, 7.143409e+002
9.400847e+002, 7.125263e+002
9.405668e+002, 7.116849e+002
9.410490e+002, 7.113792e+002
9.415311e+002, 7.122048e+002
9.420132e+002, 7.127379e+002
9.424953e+002, 7.127707e+002
9.429774e+002, 7.123782e+002
9.434595e+002, 7.112774e+002
9.439417e+002, 7.098464e+002
9.444238e+002, 7.090818e+002
9.449059e+002, 7.093900e+002
9.453880e+002, 7.095458e+002
9.458701e+002, 7.091064e+002
9.463522e+002, 7.083862e+002
9.468344e+002, 7.072429e+002
9.473165e+002, 7.061476e+002
9.477986e+002, 7.058793e+002
9.482807e+002, 7.063653e+002
9.487628e+002, 7.067112e+002
9.492449e+002, 7.064805e+002
9.497271e+002, 7.058388e+002
9.502092e+002, 7.045496e+002
9.506913e+002, 7.031765e+002
9.511734e+002, 7.027405e+002
9.516555e+002, 7.030326e+002
9.521376e+002, 7.031309e+002
9.526198e+002, 7.027349e+002
9.531019e+002, 7.022799e+002
9.535840e+002, 7.021669e+002
9.540661e+002, 7.023104e+002
9.545482e+002, 7.026548e+002
9.550303e+002, 7.031115e+002
9.555124e+002, 7.029155e+002
9.559945e+002, 7.019622e+002
9.564766e+002, 7.014268e+002
9.569587e+002, 7.020139e+002
9.574409e+002, 7.029149e+002
9.579230e+002, 7.027070e+002
9.584051e+002, 7.014235e+002
9.588872e+002, 7.013248e+002
9.593693e+002, 7.028949e+002
9.598514e+002, 7.035016e+002
9.603336e+002, 7.023099e+002
9.608157e+002, 7.006339e+002
9.612978e+002, 6.993254e+002
9.617799e+002, 6.983395e+002
9.622620e+002, 6.974948e+002
9.627441e+002, 6.965117e+002
9.632263e+002, 6.965667e+002
9.637084e+002, 6.993350e+002
9.641905e+002, 7.008605e+002
9.646726e+002, 6.990722e+002
9.651547e+002, 6.964906e+002
9.656368e+002, 6.951090e+002
9.661190e+002, 6.948210e+002
9.666011e+002, 6.948905e+002
9.670832e+002, 6.955972e+002
9.675653e+002, 6.958995e+002
9.680474e+002, 6.952980e+002
9.685295e+002, 6.945325e+002
9.690117e+002, 6.937707e+002
9.694938e+002, 6.932469e+002
9.699759e+002, 6.935118e+002
9.704580e+002, 6.944366e+002
9.709401e+002, 6.947545e+002
9.714222e+002, 6.935577e+002
9.719044e+002, 6.921874e+002
9.723865e+002, 6.916309e+002
9.728686e+002, 6.912170e+002
9.733507e+002, 6.898907e+002
9.738328e+002, 6.881848e+002
9.743149e+002, 6.875318e+002
9.747971e+002, 6.882802e+002
9.752792e+002, 6.892289e+002
9.757613e+002, 6.895305e+002
9.762434e+002, 6.894004e+002
9.767255e+002, 6.890036e+002
9.772076e+002, 6.884346e+002
9.776898e+002, 6.877998e+002
9.781719e+002, 6.871762e+002
9.786540e+002, 6.868470e+002
9.791361e+002, 6.869426e+002
9.796182e+002, 6.871851e+002
9.801003e+002, 6.871938e+002
9.805825e+002, 6.870834e+002
9.810646e+002, 6.873122e+002
9.815467e+002, 6.878235e+002
9.820288e+002, 6.882439e+002
9.825109e+002, 6.884981e+002
9.829930e+002, 6.881584e+002
9.834752e+002, 6.868322e+002
9.839573e+002, 6.852964e+002
9.844394e+002, 6.852540e+002
9.849215e+002, 6.867230e+002
9.854036e+002, 6.870095e+002
9.858857e+002, 6.859314e+002
9.863679e+002, 6.846625e+002
9.868500e+002, 6.833838e+002
9.873321e+002, 6.823998e+002
9.878142e+002, 6.820807e+002
9.882963e+002, 6.821284e+002
9.887784e+002, 6.815354e+002
9.892606e+002, 6.799333e+002
9.897427e+002, 6.790374e+002
9.902248e+002, 6.792803e+002
9.907069e+002, 6.793754e+002
9.911890e+002, 6.787232e+002
9.916711e+002, 6.779776e+002
9.921533e+002, 6.777169e+002
9.926354e+002, 6.779066e+002
9.931175e+002, 6.783625e+002
9.935996e+002, 6.794568e+002
9.940817e+002, 6.801496e+002
9.945638e+002, 6.806653e+002
9.950460e+002, 6.804977e+002
9.955281e+002, 6.788895e+002
9.960102e+002, 6.768932e+002
9.964923e+002, 6.756060e+002
9.969744e+002, 6.750164e+002
9.974565e+002, 6.745704e+002
9.979387e+002, 6.740452e+002
9.984208e+002, 6.738606e+002
9.989029e+002, 6.743550e+002
9.993850e+002, 6.749774e+002
9.998671e+002, 6.757302e+002
1.000349e+003, 6.762039e+002
1.000831e+003, 6.755837e+002
1.001313e+003, 6.739395e+002
1.001796e+003, 6.727581e+002
1.002278e+003, 6.730165e+002
1.002760e+003, 6.733256e+002
1.003242e+003, 6.727504e+002
1.003724e+003, 6.720392e+002
1.004206e+003, 6.719603e+002
1.004688e+003, 6.722717e+002
1.005170e+003, 6.723566e+002
1.005653e+003, 6.720870e+002
1.006135e+003, 6.718832e+002
1.006617e+003, 6.721385e+002
1.007099e+003, 6.723946e+002
1.007581e+003, 6.724020e+002
1.008063e+003, 6.720287e+002
1.008545e+003, 6.706774e+002
1.009027e+003, 6.688060e+002
1.009509e+003, 6.677347e+002
1.009992e+003, 6.679029e+002
1.010474e+003, 6.685662e+002
1.010956e+003, 6.692420e+002
1.011438e+003, 6.698489e+002
1.011920e+003, 6.704059e+002
1.012402e+003, 6.707545e+002
1.012884e+003, 6.703538e+002
1.013366e+003, 6.693168e+002
1.013849e+003, 6.682626e+002
1.014331e+003, 6.674794e+002
1.014813e+003, 6.674143e+002
1.015295e+003, 6.690999e+002
1.015777e+003, 6.714530e+002
1.016259e+003, 6.715645e+002
1.016741e+003, 6.698386e+002
1.017223e+003, 6.678911e+002
1.017705e+003, 6.660598e+002
1.018188e+003, 6.650040e+002
1.018670e+003, 6.650922e+002
1.019152e+003, 6.656077e+002
1.019634e+003, 6.655647e+002
1.020116e+003, 6.650954e+002
1.020598e+003, 6.648581e+002
1.021080e+003, 6.648434e+002
1.021562e+003, 6.647667e+002
1.022044e+003, 6.645701e+002
1.022527e+003, 6.645390e+002
1.023009e+003, 6.648948e+002
1.023491e+003, 6.652225e+002
1.023973e+003, 6.647993e+002
1.024455e+003, 6.636768e+002
1.024937e+003, 6.626757e+002
1.025419e+003, 6.617744e+002
1.025901e+003, 6.612872e+002
1.026384e+003, 6.613682e+002
1.026866e+003, 6.614174e+002
1.027348e+003, 6.610068e+002
1.027830e+003, 6.604654e+002
1.028312e+003, 6.604526e+002
1.028794e+003, 6.610062e+002
1.029276e+003, 6.612239e+002
1.029758e+003, 6.611259e+002
1.030240e+003, 6.605574e+002
1.030723e+003, 6.592126e+002
1.031205e+003, 6.580467e+002
1.031687e+003, 6.577081e+002
1.032169e+003, 6.579286e+002
1.032651e+003, 6.581816e+002
1.033133e+003, 6.584603e+002
1.033615e+003, 6.587924e+002
1.034097e+003, 6.591451e+002
1.034579e+003, 6.596246e+002
1.035062e+003, 6.603973e+002
1.035544e+003, 6.610693e+002
1.036026e+003, 6.613936e+002
1.036508e+003, 6.614217e+002
1.036990e+003, 6.612597e+002
1.037472e+003, 6.609055e+002
1.037954e+003, 6.603455e+002
1.038436e+003, 6.593705e+002
1.038919e+003, 6.585303e+002
1.039401e+003, 6.580365e+002
1.039883e+003, 6.575844e+002
1.040365e+003, 6.569691e+002
1.040847e+003, 6.562673e+002
1.041329e+003, 6.556143e+002
1.041811e+003, 6.549816e+002
1.042293e+003, 6.545663e+002
1.042776e+003, 6.541605e+002
1.043258e+003, 6.542803e+002
1.043740e+003, 6.558487e+002
1.044222e+003, 6.571533e+002
1.044704e+003, 6.571198e+002
1.045186e+003, 6.560321e+002
1.045668e+003, 6.542288e+002
1.046150e+003, 6.515159e+002
1.046632e+003, 6.496932e+002
1.047115e+003, 6.491968e+002
1.047597e+003, 6.492676e+002
1.048079e+003, 6.502842e+002
1.048561e+003, 6.512584e+002
1.049043e+003, 6.516185e+002
1.049525e+003, 6.514170e+002
1.050007e+003, 6.506859e+002
1.050489e+003, 6.493640e+002
1.050971e+003, 6.483239e+002
1.051454e+003, 6.476442e+002
1.051936e+003, 6.473915e+002
1.052418e+003, 6.480641e+002
1.052900e+003, 6.487074e+002
1.053382e+003, 6.485685e+002
1.053864e+003, 6.479297e+002
1.054346e+003, 6.472217e+002
1.054828e+003, 6.464900e+002
1.055311e+003, 6.463515e+002
1.055793e+003, 6.478375e+002
1.056275e+003, 6.487667e+002
1.056757e+003, 6.479210e+002
1.057239e+003, 6.467103e+002
1.057721e+003, 6.460175e+002
1.058203e+003, 6.457969e+002
1.058685e+003, 6.460345e+002
1.059167e+003, 6.466924e+002
1.059650e+003, 6.467186e+002
1.060132e+003, 6.448704e+002
1.060614e+003, 6.435486e+002
1.061096e+003, 6.442729e+002
1.061578e+003, 6.452637e+002
1.062060e+003, 6.451223e+002
1.062542e+003, 6.443078e+002
1.063024e+003, 6.436379e+002
1.063506e+003, 6.432650e+002
1.063989e+003, 6.431545e+002
1.064471e+003, 6.438328e+002
1.064953e+003, 6.439959e+002
1.065435e+003, 6.422748e+002
1.065917e+003, 6.406560e+002
1.066399e+003, 6.410353e+002
1.066881e+003, 6.423561e+002
1.067363e+003, 6.429324e+002
1.067846e+003, 6.425261e+002
1.068328e+003, 6.417937e+002
1.068810e+003, 6.406003e+002
1.069292e+003, 6.397947e+002
1.069774e+003, 6.399400e+002
1.070256e+003, 6.404358e+002
1.070738e+003, 6.413937e+002
1.071220e+003, 6.420968e+002
1.071703e+003, 6.412828e+002
1.072185e+003, 6.391014e+002
1.072667e+003, 6.373539e+002
1.073149e+003, 6.367748e+002
1.073631e+003, 6.365481e+002
1.074113e+003, 6.363433e+002
1.074595e+003, 6.363032e+002
1.075077e+003, 6.367208e+002
1.075559e+003, 6.372455e+002
1.076042e+003, 6.374996e+002
1.076524e+003, 6.374063e+002
1.077006e+003, 6.369031e+002
1.077488e+003, 6.357863e+002
1.077970e+003, 6.348504e+002
1.078452e+003, 6.345141e+002
1.078934e+003, 6.344280e+002
1.079416e+003, 6.344683e+002
1.079898e+003, 6.345449e+002
1.080380e+003, 6.346647e+002
1.080863e+003, 6.347379e+002
1.081345e+003, 6.344402e+002
1.081827e+003, 6.335451e+002
1.082309e+003, 6.329274e+002
1.082791e+003, 6.332426e+002
1.083273e+003, 6.336406e+002
1.083755e+003, 6.337646e+002
1.084237e+003, 6.335681e+002
1.084720e+003, 6.327122e+002
1.085202e+003, 6.315635e+002
1.085684e+003, 6.310795e+002
1.086166e+003, 6.315638e+002
1.086648e+003, 6.321478e+002
1.087130e+003, 6.326820e+002
1.087612e+003, 6.329483e+002
1.088094e+003, 6.326867e+002
1.088577e+003, 6.322341e+002
1.089059e+003, 6.319492e+002
1.089541e+003, 6.317142e+002
1.090023e+003, 6.311216e+002
1.090505e+003, 6.300844e+002
1.090987e+003, 6.294133e+002
1.091469e+003, 6.299271e+002
1.091951e+003, 6.301895e+002
1.092433e+003, 6.293643e+002
1.092916e+003, 6.282764e+002
1.093398e+003, 6.276194e+002
1.093880e+003, 6.271541e+002
1.094362e+003, 6.262997e+002
1.094844e+003, 6.250281e+002
1.095326e+003, 6.240883e+002
1.095808e+003, 6.236194e+002
1.096290e+003, 6.236710e+002
1.096772e+003, 6.250867e+002
1.097255e+003, 6.261389e+002
1.097737e+003, 6.252753e+002
1.098219e+003, 6.236572e+002
1.098701e+003, 6.227626e+002
1.099183e+003, 6.227139e+002
1.099665e+003, 6.230966e+002
1.100147e+003, 6.243290e+002
1.100629e+003, 6.248967e+002
1.101112e+003, 6.238922e+002
1.101594e+003, 6.227393e+002
1.102076e+003, 6.218751e+002
1.102558e+003, 6.214088e+002
1.103040e+003, 6.216129e+002
1.103522e+003, 6.222926e+002
1.104004e+003, 6.227958e+002
1.104486e+003, 6.231507e+002
1.104969e+003, 6.229319e+002
1.105451e+003, 6.212819e+002
1.105933e+003, 6.200646e+002
1.106415e+003, 6.200438e+002
1.106897e+003, 6.205963e+002
1.107379e+003, 6.214967e+002
1.107861e+003, 6.225043e+002
1.108343e+003, 6.231809e+002
1.108825e+003, 6.235526e+002
1.109307e+003, 6.232612e+002
1.109790e+003, 6.215912e+002
1.110272e+003, 6.202289e+002
1.110754e+003, 6.195275e+002
1.111236e+003, 6.192140e+002
1.111718e+003, 6.193697e+002
1.112200e+003, 6.196924e+002
1.112682e+003, 6.197546e+002
1.113164e+003, 6.195594e+002
1.113647e+003, 6.189698e+002
1.114129e+003, 6.176459e+002
1.114611e+003, 6.165023e+002
1.115093e+003, 6.155823e+002
1.115575e+003, 6.148864e+002
1.116057e+003, 6.144797e+002
1.116539e+003, 6.142425e+002
1.117021e+003, 6.140589e+002
1.117504e+003, 6.139245e+002
1.117986e+003, 6.138021e+002
1.118468e+003, 6.136559e+002
1.118950e+003, 6.136083e+002
1.119432e+003, 6.137222e+002
1.119914e+003, 6.138064e+002
1.120396e+003, 6.138255e+002
1.120878e+003, 6.137368e+002
1.121360e+003, 6.134222e+002
1.121843e+003, 6.130308e+002
1.122325e+003, 6.130565e+002
1.122807e+003, 6.136393e+002
1.123289e+003, 6.137881e+002
1.123771e+003, 6.134335e+002
1.124253e+003, 6.128699e+002
1.124735e+003, 6.121166e+002
1.125217e+003, 6.112623e+002
1.125699e+003, 6.102684e+002
1.126182e+003, 6.094276e+002
1.126664e+003, 6.093347e+002
1.127146e+003, 6.099275e+002
1.127628e+003, 6.100031e+002
1.128110e+003, 6.094892e+002
1.128592e+003, 6.091080e+002
1.129074e+003, 6.089723e+002
1.129556e+003, 6.087803e+002
1.130039e+003, 6.083656e+002
1.130521e+003, 6.080389e+002
1.131003e+003, 6.082327e+002
1.131485e+003, 6.086789e+002
1.131967e+003, 6.083876e+002
1.132449e+003, 6.073965e+002
1.132931e+003, 6.062576e+002
1.133413e+003, 6.050175e+002
1.133896e+003, 6.043570e+002
1.134378e+003, 6.044822e+002
1.134860e+003, 6.048848e+002
1.135342e+003, 6.051954e+002
1.135824e+003, 6.054200e+002
1.136306e+003, 6.056571e+002
1.136788e+003, 6.058088e+002
1.137270e+003, 6.052534e+002
1.137752e+003, 6.042217e+002
1.138234e+003, 6.040302e+002
1.138717e+003, 6.047654e+002
1.139199e+003, 6.051164e+002
1.139681e+003, 6.044102e+002
1.140163e+003, 6.034754e+002
1.140645e+003, 6.032095e+002
1.141127e+003, 6.033560e+002
1.141609e+003, 6.035603e+002
1.142091e+003, 6.037582e+002
1.142574e+003, 6.038682e+002
1.143056e+003, 6.038306e+002
1.143538e+003, 6.033907e+002
1.144020e+003, 6.025426e+002
1.144502e+003, 6.019127e+002
1.144984e+003, 6.020668e+002
1.145466e+003, 6.023176e+002
1.145948e+003, 6.019435e+002
1.146431e+003, 6.012488e+002
1.146913e+003, 6.004512e+002
1.147395e+003, 5.997036e+002
1.147877e+003, 5.992595e+002
1.148359e+003, 5.991035e+002
1.148841e+003, 5.990031e+002
1.149323e+003, 5.988730e+002
1.149805e+003, 5.986979e+002
1.150287e+003, 5.982631e+002
1.150770e+003, 5.980121e+002
1.151252e+003, 5.984171e+002
1.151734e+003, 5.990500e+002
1.152216e+003, 5.995399e+002
1.152698e+003, 5.998358e+002
1.153180e+003, 5.999786e+002
1.153662e+003, 5.999773e+002
1.154144e+003, 5.997068e+002
1.154626e+003, 5.990230e+002
1.155109e+003, 5.982133e+002
1.155591e+003, 5.972888e+002
1.156073e+003, 5.963654e+002
1.156555e+003, 5.954478e+002
1.157037e+003, 5.946144e+002
1.157519e+003, 5.938098e+002
1.158001e+003, 5.931221e+002
1.158483e+003, 5.931511e+002
1.158966e+003, 5.946143e+002
1.159448e+003, 5.953680e+002
1.159930e+003, 5.948275e+002
1.160412e+003, 5.941760e+002
1.160894e+003, 5.935071e+002
1.161376e+003, 5.930770e+002
1.161858e+003, 5.931808e+002
1.162340e+003, 5.935985e+002
1.162822e+003, 5.938555e+002
1.163305e+003, 5.939346e+002
1.163787e+003, 5.940608e+002
1.164269e+003, 5.943668e+002
1.164751e+003, 5.942987e+002
1.165233e+003, 5.936778e+002
1.165715e+003, 5.930049e+002
1.166197e+003, 5.925410e+002
1.166679e+003, 5.920234e+002
1.167161e+003, 5.910421e+002
1.167644e+003, 5.898470e+002
1.168126e+003, 5.895876e+002
1.168608e+003, 5.903057e+002
1.169090e+003, 5.906183e+002
1.169572e+003, 5.904581e+002
1.170054e+003, 5.900735e+002
1.170536e+003, 5.895172e+002
1.171018e+003, 5.895019e+002
1.171500e+003, 5.905915e+002
1.171983e+003, 5.919910e+002
1.172465e+003, 5.924981e+002
1.172947e+003, 5.922496e+002
1.173429e+003, 5.914902e+002
1.173911e+003, 5.903891e+002
1.174393e+003, 5.895905e+002
1.174875e+003, 5.891325e+002
1.175357e+003, 5.886385e+002
1.175840e+003, 5.879961e+002
1.176322e+003, 5.877357e+002
1.176804e+003, 5.884823e+002
1.177286e+003, 5.893914e+002
1.177768e+003, 5.893668e+002
1.178250e+003, 5.888698e+002
1.178732e+003, 5.883846e+002
1.179214e+003, 5.880386e+002
1.179697e+003, 5.881541e+002
1.180179e+003, 5.885811e+002
1.180661e+003, 5.885763e+002
1.181143e+003, 5.878066e+002
1.181625e+003, 5.867905e+002
1.182107e+003, 5.852145e+002
1.182589e+003, 5.842545e+002
1.183071e+003, 5.855248e+002
1.183553e+003, 5.870266e+002
1.184036e+003, 5.865382e+002
1.184518e+003, 5.849568e+002
1.185000e+003, 5.842552e+002
1.185482e+003, 5.846713e+002
1.185964e+003, 5.848909e+002
1.186446e+003, 5.844340e+002
1.186928e+003, 5.840640e+002
1.187410e+003, 5.838500e+002
1.187892e+003, 5.838268e+002
1.188375e+003, 5.841248e+002
1.188857e+003, 5.845365e+002
1.189339e+003, 5.851389e+002
1.189821e+003, 5.856348e+002
1.190303e+003, 5.849609e+002
1.190785e+003, 5.826835e+002
1.191267e+003, 5.819382e+002
1.191749e+003, 5.835431e+002
1.192232e+003, 5.843574e+002
1.192714e+003, 5.837377e+002
1.193196e+003, 5.825719e+002
1.193678e+003, 5.809958e+002
1.194160e+003, 5.800551e+002
1.194642e+003, 5.813356e+002
1.195124e+003, 5.839572e+002
1.195606e+003, 5.841324e+002
1.196089e+003, 5.819865e+002
1.196571e+003, 5.810535e+002
1.197053e+003, 5.814398e+002
1.197535e+003, 5.819429e+002
1.198017e+003, 5.822242e+002
1.198499e+003, 5.818436e+002
1.198981e+003, 5.804844e+002
1.199463e+003, 5.789772e+002
1.199945e+003, 5.784811e+002
1.200427e+003, 5.785773e+002
1.200910e+003, 5.786357e+002
1.201392e+003, 5.785334e+002
1.201874e+003, 5.776769e+002
1.202356e+003, 5.764421e+002
1.202838e+003, 5.762172e+002
1.203320e+003, 5.771999e+002
1.203802e+003, 5.778723e+002
1.204284e+003, 5.772399e+002
1.204767e+003, 5.763798e+002
1.205249e+003, 5.756472e+002
1.205731e+003, 5.755173e+002
1.206213e+003, 5.771921e+002
1.206695e+003, 5.791007e+002
1.207177e+003, 5.792859e+002
1.207659e+003, 5.780822e+002
1.208141e+003, 5.768490e+002
1.208624e+003, 5.758646e+002
1.209106e+003, 5.746661e+002
1.209588e+003, 5.722493e+002
1.210070e+003, 5.709605e+002
1.210552e+003, 5.719274e+002
1.211034e+003, 5.733604e+002
1.211516e+003, 5.749781e+002
1.211998e+003, 5.760940e+002
1.212480e+003, 5.757399e+002
1.212963e+003, 5.743605e+002
1.213445e+003, 5.737197e+002
1.213927e+003, 5.740797e+002
1.214409e+003, 5.737213e+002
1.214891e+003, 5.723087e+002
1.215373e+003, 5.715295e+002
1.215855e+003, 5.717728e+002
1.216337e+003, 5.723757e+002
1.216819e+003, 5.730540e+002
1.217302e+003, 5.736008e+002
1.217784e+003, 5.737761e+002
1.218266e+003, 5.736017e+002
1.218748e+003, 5.730479e+002
1.219230e+003, 5.721995e+002
1.219712e+003, 5.714060e+002
1.220194e+003, 5.707043e+002
1.220676e+003, 5.700363e+002
1.221159e+003, 5.694616e+002
1.221641e+003, 5.695145e+002
1.222123e+003, 5.705125e+002
1.222605e+003, 5.714622e+002
1.223087e+003, 5.710258e+002
1.223569e+003, 5.703471e+002
1.224051e+003, 5.711141e+002
1.224533e+003, 5.721357e+002
1.225016e+003, 5.715237e+002
1.225498e+003, 5.700328e+002
1.225980e+003, 5.695143e+002
1.226462e+003, 5.700844e+002
1.226944e+003, 5.701865e+002
1.227426e+003, 5.690018e+002
1.227908e+003, 5.681293e+002
1.228390e+003, 5.687416e+002
1.228872e+003, 5.689472e+002
1.229354e+003, 5.669190e+002
1.229837e+003, 5.651913e+002
1.230319e+003, 5.664291e+002
1.230801e+003, 5.690015e+002
1.231283e+003, 5.699375e+002
1.231765e+003, 5.692890e+002
1.232247e+003, 5.686312e+002
1.232729e+003, 5.680078e+002
1.233211e+003, 5.671661e+002
1.233694e+003, 5.658115e+002
1.234176e+003, 5.654076e+002
1.234658e+003, 5.666425e+002
1.235140e+003, 5.677933e+002
1.235622e+003, 5.675689e+002
1.236104e+003, 5.667392e+002
1.236586e+003, 5.667244e+002
1.237068e+003, 5.671816e+002
1.237551e+003, 5.664637e+002
1.238033e+003, 5.648986e+002
1.238515e+003, 5.638145e+002
1.238997e+003, 5.633602e+002
1.239479e+003, 5.636095e+002
1.239961e+003, 5.644455e+002
1.240443e+003, 5.649994e+002
1.240925e+003, 5.646904e+002
1.241407e+003, 5.640814e+002
1.241890e+003, 5.634796e+002
1.242372e+003, 5.630884e+002
1.242854e+003, 5.634202e+002
1.243336e+003, 5.638322e+002
1.243818e+003, 5.632383e+002
1.244300e+003, 5.621921e+002
1.244782e+003, 5.620974e+002
1.245264e+003, 5.631089e+002
1.245746e+003, 5.639382e+002
1.246229e+003, 5.642383e+002
1.246711e+003, 5.643597e+002
1.247193e+003, 5.643364e+002
1.247675e+003, 5.641741e+002
1.248157e+003, 5.638920e+002
1.248639e+003, 5.634395e+002
1.249121e+003, 5.626661e+002
1.249603e+003, 5.617978e+002
1.250085e+003, 5.612028e+002
1.250568e+003, 5.608876e+002
1.251050e+003, 5.611182e+002
1.251532e+003, 5.620055e+002
1.252014e+003, 5.619783e+002
1.252496e+003, 5.608629e+002
1.252978e+003, 5.604869e+002
1.253460e+003, 5.613953e+002
1.253942e+003, 5.625813e+002
1.254425e+003, 5.633749e+002
1.254907e+003, 5.638136e+002
1.255389e+003, 5.637981e+002
1.255871e+003, 5.635641e+002
1.256353e+003, 5.636307e+002
1.256835e+003, 5.637670e+002
1.257317e+003, 5.634378e+002
1.257799e+003, 5.628271e+002
1.258281e+003, 5.625775e+002
1.258764e+003, 5.627152e+002
1.259246e+003, 5.625201e+002
1.259728e+003, 5.616220e+002
1.260210e+003, 5.606217e+002
1.260692e+003, 5.594042e+002
1.261174e+003, 5.586733e+002
1.261656e+003, 5.587409e+002
1.262138e+003, 5.594407e+002
1.262620e+003, 5.613463e+002
1.263103e+003, 5.633860e+002
1.263585e+003, 5.637927e+002
1.264067e+003, 5.627385e+002
1.264549e+003, 5.616296e+002
1.265031e+003, 5.602021e+002
1.265513e+003, 5.597094e+002
1.265995e+003, 5.604625e+002
1.266477e+003, 5.607020e+002
1.266960e+003, 5.599577e+002
1.267442e+003, 5.591251e+002
1.267924e+003, 5.586628e+002
1.268406e+003, 5.587794e+002
1.268888e+003, 5.600320e+002
1.269370e+003, 5.614581e+002
1.269852e+003, 5.603878e+002
1.270334e+003, 5.579153e+002
1.270817e+003, 5.566425e+002
1.271299e+003, 5.564548e+002
1.271781e+003, 5.569742e+002
1.272263e+003, 5.577462e+002
1.272745e+003, 5.574124e+002
1.273227e+003, 5.554511e+002
1.273709e+003, 5.539912e+002
1.274191e+003, 5.547728e+002
1.274673e+003, 5.557181e+002
1.275156e+003, 5.557181e+002
1.275638e+003, 5.556094e+002
1.276120e+003, 5.558838e+002
1.276602e+003, 5.564034e+002
1.277084e+003, 5.572908e+002
1.277566e+003, 5.582071e+002
1.278048e+003, 5.580125e+002
1.278530e+003, 5.565060e+002
1.279012e+003, 5.557812e+002
1.279495e+003, 5.559934e+002
1.279977e+003, 5.563718e+002
1.280459e+003, 5.569193e+002
1.280941e+003, 5.573220e+002
1.281423e+003, 5.574506e+002
1.281905e+003, 5.575691e+002
1.282387e+003, 5.579523e+002
1.282869e+003, 5.580969e+002
1.283352e+003, 5.567238e+002
1.283834e+003, 5.546425e+002
1.284316e+003, 5.535490e+002
1.284798e+003, 5.534700e+002
##END=



