##NAMES=Phosphoferrite
##RRUFFID=R130690
##IDEAL CHEMISTRY=Fe^2+^_3_(PO_4_)_2_&#183;3H_2_O
##LOCALITY=Hagendorf, Waidhaus, Vohenstrauß, Oberpfälzer Wald, Upper Palatinate, Bavaria, Germany
##OWNER=RRUFF
##SOURCE=Rob Lavinsky
##DESCRIPTION=Euhedral dark-grey zoned crystals with striations. Interior is colorless, clear, and exterior is dark brown. This sample represents the interior, the exterior is R140624.
##STATUS=The identification of this mineral is confirmed by single-crystal X-ray diffraction and chemical analysis.
##URL=rruff.info/R130690
##MEASURED CHEMISTRY=(Fe^2+^_2.04_Mn_0.84_Mg_0.03_)_Σ=2.91_(PO_4_)_2_·3.08H_2_O
227.7291, 51.27861
228.2112, 50.93579
228.6934, 50.86644
229.1755, 51.19907
229.6576, 51.69003
230.1397, 52.02387
230.6218, 52.16356
231.1039, 52.22010
231.5861, 52.19741
232.0682, 52.07430
232.5503, 52.03963
233.0324, 52.18196
233.5145, 52.34117
233.9966, 52.28700
234.4788, 51.83755
234.9609, 51.50513
235.4430, 51.45604
235.9251, 51.74301
236.4072, 51.93842
236.8893, 51.99882
237.3715, 52.00316
237.8536, 52.06012
238.3357, 52.24764
238.8178, 52.34613
239.2999, 52.25579
239.7820, 51.93073
240.2642, 51.77684
240.7463, 51.88921
241.2284, 52.09040
241.7105, 52.15169
242.1926, 51.96336
242.6747, 51.83331
243.1569, 51.84921
243.6390, 52.03050
244.1211, 52.19163
244.6032, 52.29766
245.0853, 52.41521
245.5674, 52.65361
246.0496, 53.18814
246.5317, 53.51340
247.0138, 53.43446
247.4959, 52.89347
247.9780, 52.63363
248.4601, 52.76686
248.9423, 53.06793
249.4244, 53.31242
249.9065, 53.54853
250.3886, 53.62587
250.8707, 53.41383
251.3528, 52.88599
251.8350, 52.76270
252.3171, 53.31450
252.7992, 53.97725
253.2813, 54.09403
253.7634, 53.24528
254.2455, 52.77605
254.7277, 53.12760
255.2098, 54.32268
255.6919, 54.92717
256.1740, 54.69637
256.6561, 54.18092
257.1382, 53.89084
257.6204, 53.87689
258.1025, 53.96590
258.5846, 54.17751
259.0667, 54.50037
259.5488, 54.65499
260.0309, 54.58952
260.5131, 54.42898
260.9952, 54.26188
261.4773, 54.05047
261.9594, 53.93550
262.4415, 53.94073
262.9236, 54.06421
263.4058, 54.30442
263.8879, 54.73503
264.3700, 55.16307
264.8521, 55.43327
265.3342, 55.49607
265.8163, 55.56590
266.2985, 55.69362
266.7806, 55.85481
267.2627, 55.89318
267.7448, 55.75789
268.2269, 55.60471
268.7090, 55.54630
269.1912, 55.59637
269.6733, 55.69071
270.1554, 55.86422
270.6375, 56.06622
271.1196, 56.04488
271.6017, 55.71386
272.0839, 55.39734
272.5660, 55.36210
273.0481, 55.66869
273.5302, 55.85521
274.0123, 55.87174
274.4944, 55.74681
274.9766, 55.52595
275.4587, 55.17299
275.9408, 54.86847
276.4229, 54.77386
276.9050, 54.91477
277.3871, 54.91242
277.8693, 54.67583
278.3514, 54.35629
278.8335, 54.33778
279.3156, 54.67371
279.7977, 54.99412
280.2798, 55.07243
280.7620, 54.90660
281.2441, 54.77639
281.7262, 54.69727
282.2083, 54.65315
282.6904, 54.59116
283.1725, 54.50312
283.6547, 54.50674
284.1368, 54.74776
284.6189, 55.18987
285.1010, 55.38358
285.5831, 55.26677
286.0652, 55.04860
286.5474, 55.07217
287.0295, 55.33128
287.5116, 55.52124
287.9937, 55.46437
288.4758, 55.20696
288.9579, 55.00995
289.4401, 54.86818
289.9222, 54.79847
290.4043, 54.87510
290.8864, 55.07511
291.3685, 55.21224
291.8506, 55.20250
292.3328, 55.07859
292.8149, 54.90419
293.2970, 54.67101
293.7791, 54.47417
294.2612, 54.45338
294.7433, 54.56576
295.2255, 54.63748
295.7076, 54.56659
296.1897, 54.44427
296.6718, 54.50830
297.1539, 54.75203
297.6360, 54.92702
298.1182, 54.67996
298.6003, 54.19434
299.0824, 53.94382
299.5645, 54.16553
300.0466, 54.56293
300.5287, 54.71369
301.0109, 54.64362
301.4930, 54.53773
301.9751, 54.49971
302.4572, 54.52131
302.9393, 54.60661
303.4214, 54.80328
303.9036, 54.97990
304.3857, 54.95244
304.8678, 54.77094
305.3499, 54.61681
305.8320, 54.66568
306.3141, 54.78059
306.7963, 54.77912
307.2784, 54.59472
307.7605, 54.40022
308.2426, 54.30243
308.7247, 54.30136
309.2068, 54.39752
309.6890, 54.73507
310.1711, 55.08596
310.6532, 55.20713
311.1353, 55.02419
311.6174, 54.86115
312.0995, 54.98628
312.5817, 55.25917
313.0638, 55.45488
313.5459, 55.45942
314.0280, 55.37656
314.5101, 55.24988
314.9922, 55.08050
315.4744, 54.92179
315.9565, 54.79403
316.4386, 54.69492
316.9207, 54.62320
317.4028, 54.58361
317.8849, 54.56731
318.3671, 54.57998
318.8492, 54.62042
319.3313, 54.65871
319.8134, 54.71466
320.2955, 54.74914
320.7776, 54.73049
321.2598, 54.62301
321.7419, 54.49154
322.2240, 54.26854
322.7061, 53.99908
323.1882, 53.91927
323.6703, 54.42479
324.1525, 54.89022
324.6346, 54.95085
325.1167, 54.00971
325.5988, 53.42965
326.0809, 53.63374
326.5630, 54.31252
327.0452, 54.61789
327.5273, 54.12589
328.0094, 53.57426
328.4915, 53.19940
328.9736, 53.00446
329.4557, 52.99308
329.9379, 53.32055
330.4200, 53.78322
330.9021, 54.05503
331.3842, 54.09928
331.8663, 53.99932
332.3484, 53.70407
332.8306, 53.14855
333.3127, 52.87210
333.7948, 53.04396
334.2769, 53.34283
334.7590, 53.39669
335.2411, 53.07593
335.7233, 52.80256
336.2054, 52.67170
336.6875, 52.67450
337.1696, 52.66350
337.6517, 52.60231
338.1339, 52.59866
338.6160, 52.78306
339.0981, 53.21814
339.5802, 53.54523
340.0623, 53.73357
340.5444, 53.76707
341.0266, 53.50449
341.5087, 52.86294
341.9908, 52.30230
342.4729, 52.16870
342.9550, 52.45972
343.4371, 52.67589
343.9193, 52.78479
344.4014, 52.78559
344.8835, 52.61433
345.3656, 52.27288
345.8477, 51.99288
346.3298, 51.91584
346.8120, 52.00261
347.2941, 52.10033
347.7762, 52.21284
348.2583, 52.30500
348.7404, 52.30920
349.2225, 52.24874
349.7047, 52.22297
350.1868, 52.31396
350.6689, 52.44359
351.1510, 52.44852
351.6331, 52.33104
352.1152, 52.22232
352.5974, 52.25924
353.0795, 52.37837
353.5616, 52.46178
354.0437, 52.46703
354.5258, 52.43624
355.0079, 52.42902
355.4901, 52.43046
355.9722, 52.37419
356.4543, 52.12022
356.9364, 51.83545
357.4185, 51.69275
357.9006, 51.74603
358.3828, 51.88286
358.8649, 52.08593
359.3470, 52.32121
359.8291, 52.52127
360.3112, 52.71663
360.7933, 52.82265
361.2755, 52.74304
361.7576, 52.43550
362.2397, 52.19241
362.7218, 52.13117
363.2039, 52.18997
363.6860, 52.29990
364.1682, 52.57002
364.6503, 52.76560
365.1324, 52.75733
365.6145, 52.55553
366.0966, 52.43193
366.5787, 52.54953
367.0609, 52.68548
367.5430, 52.69706
368.0251, 52.34858
368.5072, 52.14060
368.9893, 52.16712
369.4714, 52.36787
369.9536, 52.55421
370.4357, 52.77658
370.9178, 52.93162
371.3999, 52.96432
371.8820, 52.80786
372.3641, 52.70318
372.8463, 52.66862
373.3284, 52.67444
373.8105, 52.66958
374.2926, 52.63078
374.7747, 52.63618
375.2568, 52.73252
375.7390, 52.92153
376.2211, 53.00645
376.7032, 52.95709
377.1853, 52.86676
377.6674, 52.82918
378.1495, 52.85210
378.6317, 52.84353
379.1138, 52.74589
379.5959, 52.62920
380.0780, 52.82240
380.5601, 53.36930
381.0422, 53.72808
381.5244, 53.32233
382.0065, 52.32531
382.4886, 51.73614
382.9707, 51.69531
383.4528, 51.95386
383.9349, 52.25006
384.4171, 52.56718
384.8992, 52.81230
385.3813, 52.91093
385.8634, 52.92155
386.3455, 52.93182
386.8276, 52.94288
387.3098, 52.97805
387.7919, 53.15360
388.2740, 53.35428
388.7561, 53.36575
389.2382, 52.94200
389.7203, 52.47305
390.2025, 52.29854
390.6846, 52.37461
391.1667, 52.49379
391.6488, 52.58999
392.1309, 52.65135
392.6130, 52.65430
393.0952, 52.54938
393.5773, 52.48698
394.0594, 52.60077
394.5415, 52.79546
395.0236, 52.89399
395.5057, 52.69582
395.9879, 52.52125
396.4700, 52.50982
396.9521, 52.69373
397.4342, 52.89767
397.9163, 53.23477
398.3984, 53.51366
398.8806, 53.55962
399.3627, 53.05318
399.8448, 52.66520
400.3269, 52.46850
400.8090, 52.45313
401.2911, 52.55100
401.7733, 52.81752
402.2554, 53.13163
402.7375, 53.44305
403.2196, 53.78642
403.7017, 54.04620
404.1838, 54.23375
404.6660, 54.32552
405.1481, 54.23719
405.6302, 53.90851
406.1123, 53.62061
406.5944, 53.47495
407.0765, 53.46670
407.5587, 53.48931
408.0408, 53.53504
408.5229, 53.63860
409.0050, 53.88691
409.4871, 54.26329
409.9692, 54.52845
410.4514, 54.57166
410.9335, 54.54086
411.4156, 54.86267
411.8977, 55.49074
412.3798, 55.91988
412.8619, 55.57045
413.3441, 54.82681
413.8262, 54.47716
414.3083, 54.66583
414.7904, 54.96438
415.2725, 55.01045
415.7546, 54.85576
416.2368, 54.60748
416.7189, 54.03862
417.2010, 53.59355
417.6831, 53.78722
418.1652, 54.57683
418.6473, 55.20777
419.1295, 55.09895
419.6116, 54.72795
420.0937, 54.52851
420.5758, 54.77573
421.0579, 54.95568
421.5400, 54.83538
422.0222, 54.52378
422.5043, 54.28642
422.9864, 54.24446
423.4685, 54.23779
423.9506, 54.19806
424.4327, 54.09470
424.9149, 54.05340
425.3970, 54.14844
425.8791, 54.26881
426.3612, 54.30424
426.8433, 54.21353
427.3254, 54.10054
427.8076, 53.97463
428.2897, 53.83589
428.7718, 53.68370
429.2539, 53.48603
429.7360, 53.34039
430.2181, 53.31542
430.7003, 53.42476
431.1824, 53.57479
431.6645, 53.78535
432.1466, 53.99431
432.6287, 54.09004
433.1108, 54.07104
433.5930, 54.00322
434.0751, 53.87147
434.5572, 53.71635
435.0393, 53.70500
435.5214, 53.84189
436.0035, 53.97179
436.4857, 53.86397
436.9678, 53.64470
437.4499, 53.65497
437.9320, 54.07303
438.4141, 54.53587
438.8962, 54.59638
439.3784, 54.36413
439.8605, 54.16130
440.3426, 54.24154
440.8247, 54.37315
441.3068, 54.29666
441.7889, 53.96288
442.2711, 53.78109
442.7532, 54.13002
443.2353, 54.66680
443.7174, 55.03535
444.1995, 54.97441
444.6816, 54.90208
445.1638, 54.94197
445.6459, 55.07092
446.1280, 55.17916
446.6101, 55.29484
447.0922, 55.35007
447.5743, 55.27205
448.0565, 54.88231
448.5386, 54.82766
449.0207, 55.37103
449.5028, 56.08461
449.9849, 56.37970
450.4670, 56.04319
450.9492, 55.77787
451.4313, 55.76752
451.9134, 55.96753
452.3955, 56.04186
452.8776, 55.96111
453.3597, 55.85551
453.8419, 55.82793
454.3240, 55.87582
454.8061, 55.86567
455.2882, 55.77494
455.7703, 55.65371
456.2524, 55.57945
456.7346, 55.54523
457.2167, 55.51264
457.6988, 55.44904
458.1809, 55.38216
458.6630, 55.38305
459.1451, 55.44522
459.6273, 55.47248
460.1094, 55.32667
460.5915, 55.12452
461.0736, 55.01304
461.5557, 55.02122
462.0378, 55.13044
462.5200, 55.37490
463.0021, 55.70980
463.4842, 56.04281
463.9663, 56.57103
464.4484, 56.89128
464.9305, 56.65960
465.4127, 55.82195
465.8948, 55.24820
466.3769, 55.24798
466.8590, 55.49968
467.3411, 55.77346
467.8232, 56.20855
468.3054, 56.46618
468.7875, 56.46368
469.2696, 56.28868
469.7517, 56.13288
470.2338, 55.92495
470.7159, 55.87577
471.1981, 56.11312
471.6802, 56.65319
472.1623, 57.06481
472.6444, 57.34554
473.1265, 57.49324
473.6086, 57.45621
474.0908, 57.23763
474.5729, 57.02707
475.0550, 56.82860
475.5371, 56.70087
476.0192, 56.81336
476.5013, 57.13591
476.9835, 57.43011
477.4656, 57.60952
477.9477, 57.66268
478.4298, 57.50300
478.9119, 57.12041
479.3940, 56.78627
479.8762, 56.74624
480.3583, 56.87350
480.8404, 57.00673
481.3225, 57.15569
481.8046, 57.22616
482.2867, 57.06984
482.7689, 56.79134
483.2510, 56.65889
483.7331, 56.91029
484.2152, 57.20067
484.6973, 57.38951
485.1794, 57.46227
485.6616, 57.46757
486.1437, 57.38170
486.6258, 57.24638
487.1079, 57.07453
487.5900, 56.71498
488.0721, 56.60188
488.5543, 56.88954
489.0364, 57.40950
489.5185, 57.68402
490.0006, 57.68410
490.4827, 57.51270
490.9648, 57.09684
491.4470, 56.46296
491.9291, 56.30361
492.4112, 56.70155
492.8933, 57.18070
493.3754, 57.22961
493.8575, 56.93332
494.3397, 56.64644
494.8218, 56.42814
495.3039, 56.29361
495.7860, 56.32647
496.2681, 56.47882
496.7502, 56.58554
497.2324, 56.45516
497.7145, 56.30412
498.1966, 56.39872
498.6787, 56.75350
499.1608, 56.99881
499.6429, 56.82751
500.1251, 56.51825
500.6072, 56.31325
501.0893, 56.31119
501.5714, 56.35827
502.0535, 56.47695
502.5356, 56.61919
503.0178, 56.67619
503.4999, 56.51530
503.9820, 56.40836
504.4641, 56.48007
504.9462, 56.74733
505.4283, 56.74257
505.9105, 56.26793
506.3926, 55.83049
506.8747, 55.92089
507.3568, 56.67125
507.8389, 57.00071
508.3210, 56.69677
508.8032, 56.12535
509.2853, 55.92563
509.7674, 56.07844
510.2495, 56.27462
510.7316, 56.43424
511.2137, 56.53227
511.6959, 56.47313
512.1780, 56.26904
512.6601, 56.08185
513.1422, 56.01524
513.6243, 56.04093
514.1064, 56.15709
514.5886, 56.40976
515.0707, 56.58197
515.5528, 56.39087
516.0349, 56.07267
516.5170, 55.96549
516.9991, 56.48560
517.4813, 56.92207
517.9634, 56.91968
518.4455, 56.55201
518.9276, 56.44691
519.4097, 57.00071
519.8918, 57.54881
520.3740, 57.80552
520.8561, 57.65896
521.3382, 57.58278
521.8203, 57.55682
522.3024, 57.62293
522.7845, 57.89769
523.2667, 58.45595
523.7488, 58.77465
524.2309, 58.67533
524.7130, 58.33960
525.1951, 58.22343
525.6772, 58.32326
526.1594, 58.46772
526.6415, 58.59426
527.1236, 58.69128
527.6057, 58.71846
528.0878, 58.67461
528.5699, 58.61687
529.0521, 58.57976
529.5342, 58.56276
530.0163, 58.56568
530.4984, 58.58993
530.9805, 58.63230
531.4626, 58.67952
531.9448, 58.74434
532.4269, 58.85097
532.9090, 59.04404
533.3911, 59.24287
533.8732, 59.43186
534.3553, 59.60807
534.8375, 59.74577
535.3196, 59.84249
535.8017, 59.89956
536.2838, 59.90200
536.7659, 59.79321
537.2480, 59.81171
537.7302, 60.04003
538.2123, 60.28430
538.6944, 60.21687
539.1765, 59.81363
539.6586, 59.42339
540.1407, 59.09991
540.6229, 58.88883
541.1050, 58.99267
541.5871, 59.38069
542.0692, 59.73574
542.5513, 59.82137
543.0334, 59.76747
543.5156, 59.78297
543.9977, 59.88683
544.4798, 59.95784
544.9619, 59.85276
545.4440, 59.69271
545.9261, 59.61049
546.4083, 59.66998
546.8904, 59.76836
547.3725, 59.95896
547.8546, 60.15659
548.3367, 60.18524
548.8188, 59.76149
549.3010, 59.43749
549.7831, 59.39231
550.2652, 59.62026
550.7473, 59.72745
551.2294, 59.66011
551.7115, 59.56306
552.1937, 59.52087
552.6758, 59.53712
553.1579, 59.59104
553.6400, 59.69471
554.1221, 59.80401
554.6042, 59.82713
555.0864, 59.78723
555.5685, 59.84238
556.0506, 60.10660
556.5327, 60.40073
557.0148, 60.43224
557.4969, 60.25939
557.9791, 60.10246
558.4612, 60.13626
558.9433, 60.20372
559.4254, 60.16568
559.9075, 60.01062
560.3896, 59.86127
560.8718, 59.73758
561.3539, 59.65858
561.8360, 59.63771
562.3181, 59.65534
562.8002, 59.77181
563.2823, 60.08575
563.7645, 60.45787
564.2466, 60.67816
564.7287, 60.72469
565.2108, 60.65489
565.6929, 60.41658
566.1750, 60.08062
566.6572, 59.97752
567.1393, 60.12990
567.6214, 60.35522
568.1035, 60.54640
568.5856, 60.72017
569.0677, 61.03084
569.5499, 61.49989
570.0320, 61.79271
570.5141, 61.41397
570.9962, 60.68933
571.4783, 60.13591
571.9604, 59.85994
572.4426, 59.81434
572.9247, 60.15588
573.4068, 60.67726
573.8889, 61.01482
574.3710, 60.88597
574.8531, 60.71647
575.3353, 60.69226
575.8174, 60.79611
576.2995, 60.71862
576.7816, 60.30747
577.2637, 59.88763
577.7458, 59.57232
578.2280, 59.34682
578.7101, 59.30362
579.1922, 59.42186
579.6743, 59.76742
580.1564, 60.64280
580.6385, 61.98829
581.1207, 62.67307
581.6028, 62.34334
582.0849, 61.61402
582.5670, 61.34237
583.0491, 61.44357
583.5313, 61.63287
584.0134, 61.84022
584.4955, 62.02989
584.9776, 62.19137
585.4597, 62.31523
585.9418, 62.35059
586.4240, 62.05613
586.9061, 61.83299
587.3882, 61.99022
587.8703, 62.72218
588.3524, 63.19171
588.8345, 63.13493
589.3167, 62.88388
589.7988, 62.67442
590.2809, 62.47458
590.7630, 62.40911
591.2451, 62.55792
591.7272, 62.77245
592.2094, 62.70919
592.6915, 62.34273
593.1736, 62.13365
593.6557, 62.35735
594.1378, 62.76062
594.6199, 62.61856
595.1021, 62.00591
595.5842, 61.52314
596.0663, 61.76138
596.5484, 62.23885
597.0305, 62.37037
597.5126, 62.09903
597.9948, 61.79792
598.4769, 61.66467
598.9590, 61.60228
599.4411, 61.52985
599.9232, 61.44694
600.4053, 61.32887
600.8875, 61.14393
601.3696, 60.93259
601.8517, 60.74906
602.3338, 60.59197
602.8159, 60.47397
603.2980, 60.42009
603.7802, 60.39957
604.2623, 60.27927
604.7444, 60.04627
605.2265, 59.83040
605.7086, 59.72754
606.1907, 59.69504
606.6729, 59.55773
607.1550, 59.31829
607.6371, 59.10970
608.1192, 59.12434
608.6013, 59.19989
609.0834, 59.10475
609.5656, 58.76222
610.0477, 58.41094
610.5298, 58.20890
611.0119, 58.05956
611.4940, 57.85187
611.9761, 57.33867
612.4583, 57.03779
612.9404, 57.21853
613.4225, 57.63396
613.9046, 57.72086
614.3867, 57.31218
614.8688, 56.92065
615.3510, 56.67571
615.8331, 56.56832
616.3152, 56.56128
616.7973, 56.66410
617.2794, 56.76220
617.7615, 56.81777
618.2437, 56.80402
618.7258, 56.59774
619.2079, 56.18141
619.6900, 55.78870
620.1721, 55.65627
620.6542, 55.64688
621.1364, 55.58471
621.6185, 55.39844
622.1006, 55.22352
622.5827, 55.12420
623.0648, 55.07050
623.5469, 55.02034
624.0291, 55.01412
624.5112, 54.95326
624.9933, 54.77288
625.4754, 54.53261
625.9575, 54.46616
626.4396, 54.66476
626.9218, 54.76731
627.4039, 54.58010
627.8860, 54.17083
628.3681, 53.95937
628.8502, 53.95014
629.3323, 54.01312
629.8145, 54.07656
630.2966, 54.13676
630.7787, 54.19051
631.2608, 54.23776
631.7429, 54.26845
632.2250, 54.32967
632.7072, 54.34453
633.1893, 54.21661
633.6714, 53.79834
634.1535, 53.44816
634.6356, 53.28898
635.1177, 53.24747
635.5999, 53.19950
636.0820, 53.09771
636.5641, 53.06718
637.0462, 53.17495
637.5283, 53.35518
638.0104, 53.36627
638.4926, 53.18018
638.9747, 53.00567
639.4568, 52.93252
639.9389, 52.94326
640.4210, 53.00605
640.9031, 53.11730
641.3853, 53.19652
641.8674, 53.18198
642.3495, 53.10511
642.8316, 52.98882
643.3137, 52.82965
643.7958, 52.68844
644.2780, 52.52300
644.7601, 52.42713
645.2422, 52.49496
645.7243, 52.98284
646.2064, 53.25357
646.6885, 53.17213
647.1707, 52.92452
647.6528, 52.75976
648.1349, 52.70924
648.6170, 52.62775
649.0991, 52.46730
649.5812, 52.28042
650.0634, 52.18764
650.5455, 52.18462
651.0276, 52.22018
651.5097, 52.30798
651.9918, 52.39820
652.4739, 52.39282
652.9561, 52.31007
653.4382, 52.24436
653.9203, 52.22463
654.4024, 52.26138
654.8845, 52.42052
655.3666, 52.73084
655.8488, 52.86457
656.3309, 52.50426
656.8130, 52.13262
657.2951, 52.06292
657.7772, 52.47503
658.2593, 52.70117
658.7415, 52.70331
659.2236, 52.58111
659.7057, 52.40650
660.1878, 52.18283
660.6699, 52.05810
661.1520, 52.07902
661.6342, 52.16273
662.1163, 52.20082
662.5984, 52.20799
663.0805, 52.22345
663.5626, 52.27566
664.0447, 52.32811
664.5269, 52.31995
665.0090, 52.28730
665.4911, 52.33572
665.9732, 52.62050
666.4553, 52.87135
666.9374, 52.95863
667.4196, 52.89767
667.9017, 52.90937
668.3838, 53.03102
668.8659, 53.15963
669.3480, 53.29713
669.8301, 53.44033
670.3123, 53.20499
670.7944, 52.52571
671.2765, 51.96416
671.7586, 52.20798
672.2407, 52.90609
672.7228, 53.21896
673.2050, 52.97896
673.6871, 52.71855
674.1692, 52.91887
674.6513, 53.28704
675.1334, 53.47369
675.6155, 53.24004
676.0977, 53.04765
676.5798, 53.06254
677.0619, 53.15879
677.5440, 53.14304
678.0261, 52.93974
678.5082, 52.78959
678.9904, 52.75102
679.4725, 52.77964
679.9546, 52.71813
680.4367, 52.56583
680.9188, 52.55278
681.4009, 52.89771
681.8831, 53.36439
682.3652, 53.48006
682.8473, 53.30023
683.3294, 53.09417
683.8115, 53.08984
684.2936, 53.06382
684.7758, 52.70234
685.2579, 51.99918
685.7400, 51.72057
686.2221, 52.55215
686.7042, 53.45373
687.1863, 53.87531
687.6685, 53.68243
688.1506, 53.58738
688.6327, 53.63773
689.1148, 53.68469
689.5969, 53.57793
690.0790, 53.32649
690.5612, 53.08016
691.0433, 52.84526
691.5254, 52.65844
692.0075, 52.56324
692.4896, 52.55031
692.9717, 52.61428
693.4539, 52.79295
693.9360, 52.96789
694.4181, 53.09534
694.9002, 53.16805
695.3823, 53.17481
695.8644, 52.95197
696.3466, 52.87123
696.8287, 53.08789
697.3108, 53.45451
697.7929, 53.54398
698.2750, 53.26116
698.7571, 53.07567
699.2393, 53.20184
699.7214, 53.49630
700.2035, 53.45100
700.6856, 53.11077
701.1677, 52.86707
701.6498, 53.00959
702.1320, 53.33287
702.6141, 53.71094
703.0962, 54.10532
703.5783, 54.25334
704.0604, 53.77221
704.5425, 53.22286
705.0247, 52.92478
705.5068, 52.94088
705.9889, 53.00838
706.4710, 53.17528
706.9531, 53.32713
707.4352, 53.36364
707.9174, 53.26532
708.3995, 53.30146
708.8816, 53.50579
709.3637, 53.70549
709.8458, 53.71892
710.3279, 53.58814
710.8101, 53.38990
711.2922, 53.11143
711.7743, 52.89439
712.2564, 52.88115
712.7385, 52.97596
713.2206, 53.06264
713.7028, 53.04037
714.1849, 53.10625
714.6670, 53.48417
715.1491, 53.89310
715.6312, 53.89184
716.1133, 53.23059
716.5955, 52.88654
717.0776, 53.13023
717.5597, 53.65617
718.0418, 53.75052
718.5239, 53.46417
719.0060, 53.30737
719.4882, 53.60316
719.9703, 53.99186
720.4524, 53.99769
720.9345, 53.72097
721.4166, 53.46022
721.8987, 53.26255
722.3809, 53.20108
722.8630, 53.42450
723.3451, 53.87801
723.8272, 54.09593
724.3093, 53.93830
724.7914, 53.72299
725.2736, 53.52410
725.7557, 53.35344
726.2378, 53.39434
726.7199, 53.67327
727.2020, 53.95047
727.6841, 54.08906
728.1663, 54.10962
728.6484, 54.03344
729.1305, 53.86470
729.6126, 53.66572
730.0947, 53.37804
730.5768, 53.14522
731.0590, 53.12394
731.5411, 53.38990
732.0232, 53.56136
732.5053, 53.45958
732.9874, 53.33077
733.4695, 53.33350
733.9517, 53.52698
734.4338, 53.63216
734.9159, 53.62761
735.3980, 53.59577
735.8801, 53.66783
736.3622, 53.79741
736.8444, 53.72958
737.3265, 53.36905
737.8086, 53.10155
738.2907, 53.45203
738.7728, 54.05562
739.2549, 54.42744
739.7371, 54.31151
740.2192, 54.17407
740.7013, 54.17873
741.1834, 54.21714
741.6655, 54.13557
742.1476, 53.85595
742.6298, 53.63922
743.1119, 53.50764
743.5940, 53.46196
744.0761, 53.51578
744.5582, 53.66331
745.0403, 53.87148
745.5225, 54.17577
746.0046, 54.45589
746.4867, 54.54034
746.9688, 54.48974
747.4509, 54.43394
747.9330, 54.43984
748.4152, 54.43660
748.8973, 54.37932
749.3794, 54.28991
749.8615, 54.23886
750.3436, 54.21675
750.8257, 54.26500
751.3079, 54.45440
751.7900, 54.70012
752.2721, 54.64053
752.7542, 54.27681
753.2363, 53.93325
753.7184, 53.78562
754.2006, 53.74464
754.6827, 53.63872
755.1648, 53.50330
755.6469, 53.48978
756.1290, 53.83010
756.6111, 54.17239
757.0933, 54.29991
757.5754, 54.21618
758.0575, 54.20408
758.5396, 54.29315
759.0217, 54.43653
759.5038, 54.67578
759.9860, 54.98034
760.4681, 54.94950
760.9502, 54.55230
761.4323, 54.18406
761.9144, 54.12959
762.3965, 54.27335
762.8787, 54.46248
763.3608, 54.67759
763.8429, 54.78853
764.3250, 54.65540
764.8071, 54.43578
765.2892, 54.21136
765.7714, 53.97631
766.2535, 53.83707
766.7356, 53.80779
767.2177, 53.85978
767.6998, 54.01298
768.1819, 54.28237
768.6641, 54.39616
769.1462, 54.33775
769.6283, 54.24516
770.1104, 54.20857
770.5925, 54.22672
771.0746, 54.32466
771.5568, 54.50838
772.0389, 54.65162
772.5210, 54.64619
773.0031, 54.58753
773.4852, 54.52696
773.9673, 54.42034
774.4495, 54.50212
774.9316, 54.95986
775.4137, 55.38413
775.8958, 55.42175
776.3779, 55.03328
776.8600, 54.76239
777.3422, 54.62815
777.8243, 54.60298
778.3064, 54.77532
778.7885, 55.00841
779.2706, 54.99721
779.7527, 54.64966
780.2349, 54.34478
780.7170, 54.30469
781.1991, 54.41320
781.6812, 54.59040
782.1633, 54.99419
782.6454, 55.09595
783.1276, 54.68590
783.6097, 54.22528
784.0918, 54.27095
784.5739, 54.83668
785.0560, 55.01306
785.5381, 54.65519
786.0203, 54.20525
786.5024, 54.18540
786.9845, 54.40413
787.4666, 54.51792
787.9487, 54.41143
788.4308, 54.32674
788.9130, 54.44012
789.3951, 54.60392
789.8772, 54.66259
790.3593, 54.51332
790.8414, 54.41683
791.3235, 54.36115
791.8057, 54.37835
792.2878, 54.55565
792.7699, 54.87867
793.2520, 55.08377
793.7341, 55.12490
794.2162, 55.08619
794.6984, 55.06099
795.1805, 55.01653
795.6626, 54.88013
796.1447, 54.53802
796.6268, 54.32453
797.1089, 54.43654
797.5911, 54.70031
798.0732, 54.92229
798.5553, 55.10514
799.0374, 55.24493
799.5195, 55.35643
800.0016, 55.39938
800.4838, 55.28008
800.9659, 55.03172
801.4480, 54.83506
801.9301, 54.72084
802.4122, 54.67915
802.8943, 54.74527
803.3765, 54.86259
803.8586, 54.95569
804.3407, 54.98088
804.8228, 55.02519
805.3049, 55.18420
805.7870, 55.32302
806.2692, 55.28087
806.7513, 54.98319
807.2334, 54.80766
807.7155, 54.80993
808.1976, 54.87676
808.6797, 54.86016
809.1619, 54.78852
809.6440, 54.73286
810.1261, 54.69250
810.6082, 54.73136
811.0903, 54.98782
811.5724, 55.30551
812.0546, 55.51227
812.5367, 55.52541
813.0188, 55.49447
813.5009, 55.33948
813.9830, 55.23428
814.4651, 55.47064
814.9473, 56.09416
815.4294, 56.26196
815.9115, 55.82180
816.3936, 55.24366
816.8757, 55.01111
817.3578, 55.03568
817.8400, 55.21139
818.3221, 55.60480
818.8042, 55.82932
819.2863, 55.53023
819.7684, 55.07070
820.2505, 54.78807
820.7327, 54.66981
821.2148, 54.83001
821.6969, 55.43296
822.1790, 56.01354
822.6611, 55.92346
823.1432, 55.30077
823.6254, 55.08390
824.1075, 55.40704
824.5896, 55.81756
825.0717, 55.97124
825.5538, 55.94481
826.0359, 55.77853
826.5181, 55.39950
827.0002, 55.17812
827.4823, 55.36441
827.9644, 55.60596
828.4465, 55.67416
828.9286, 55.53286
829.4108, 55.38660
829.8929, 55.22755
830.3750, 55.11005
830.8571, 55.09369
831.3392, 55.15453
831.8214, 55.25769
832.3035, 55.40074
832.7856, 55.52536
833.2677, 55.60748
833.7498, 55.64523
834.2319, 55.60530
834.7141, 55.42778
835.1962, 55.44377
835.6783, 55.77266
836.1604, 56.09002
836.6425, 56.16825
837.1246, 56.02180
837.6068, 55.84051
838.0889, 55.62457
838.5710, 55.49139
839.0531, 55.62120
839.5352, 55.82620
840.0173, 55.89638
840.4995, 55.81952
840.9816, 55.73444
841.4637, 55.65456
841.9458, 55.61118
842.4279, 55.63503
842.9100, 55.72352
843.3922, 55.71937
843.8743, 55.59835
844.3564, 55.51457
844.8385, 55.61568
845.3206, 55.80408
845.8027, 55.80767
846.2849, 55.66555
846.7670, 55.59849
847.2491, 55.93324
847.7312, 56.19226
848.2133, 55.98854
848.6954, 55.38538
849.1776, 55.08784
849.6597, 55.24453
850.1418, 55.44427
850.6239, 55.57195
851.1060, 55.63360
851.5881, 55.59824
852.0703, 55.48554
852.5524, 55.46117
853.0345, 55.70756
853.5166, 55.98506
853.9987, 56.02452
854.4808, 55.92158
854.9630, 55.92005
855.4451, 56.27251
855.9272, 56.50330
856.4093, 56.45694
856.8914, 56.26036
857.3735, 56.23975
857.8557, 56.42020
858.3378, 56.43387
858.8199, 56.10856
859.3020, 55.72604
859.7841, 55.76990
860.2662, 56.06633
860.7484, 56.25136
861.2305, 56.09220
861.7126, 55.96391
862.1947, 56.00999
862.6768, 56.16903
863.1589, 56.36309
863.6411, 56.65674
864.1232, 56.79543
864.6053, 56.73148
865.0874, 56.56775
865.5695, 56.39606
866.0516, 56.23463
866.5338, 56.16460
867.0159, 56.22774
867.4980, 56.23964
867.9801, 55.96450
868.4622, 55.63407
868.9443, 55.47488
869.4265, 55.58578
869.9086, 55.72818
870.3907, 55.93808
870.8728, 56.12037
871.3549, 56.20331
871.8370, 56.18810
872.3192, 56.03311
872.8013, 55.73019
873.2834, 55.52293
873.7655, 55.73322
874.2476, 56.05795
874.7297, 56.18844
875.2119, 56.09240
875.6940, 55.97058
876.1761, 55.83567
876.6582, 55.72186
877.1403, 55.63548
877.6224, 55.57891
878.1046, 55.61227
878.5867, 55.74125
879.0688, 55.83877
879.5509, 55.78185
880.0330, 55.67510
880.5151, 55.69226
880.9973, 55.79805
881.4794, 55.85348
881.9615, 55.73807
882.4436, 55.63102
882.9257, 55.63656
883.4078, 55.69760
883.8900, 55.62008
884.3721, 55.35991
884.8542, 55.20318
885.3363, 55.26519
885.8184, 55.41803
886.3005, 55.36654
886.7827, 55.22547
887.2648, 55.30462
887.7469, 55.93500
888.2290, 56.47373
888.7111, 56.55170
889.1932, 56.40051
889.6754, 56.37584
890.1575, 56.59617
890.6396, 56.62737
891.1217, 56.38073
891.6038, 56.06987
892.0859, 55.93109
892.5681, 55.94553
893.0502, 56.12852
893.5323, 56.52742
894.0144, 56.74248
894.4965, 56.16788
894.9786, 55.50342
895.4608, 55.40977
895.9429, 56.19217
896.4250, 56.65226
896.9071, 56.68962
897.3892, 56.59736
897.8713, 56.58729
898.3535, 56.62555
898.8356, 56.45209
899.3177, 56.08479
899.7998, 55.80851
900.2819, 55.91063
900.7640, 56.09687
901.2462, 56.13873
901.7283, 56.04176
902.2104, 55.97414
902.6925, 55.90067
903.1746, 55.96147
903.6567, 56.28196
904.1389, 56.72023
904.6210, 56.78668
905.1031, 56.51662
905.5852, 56.21907
906.0673, 55.92149
906.5494, 55.78540
907.0316, 56.09775
907.5137, 56.64317
907.9958, 57.04652
908.4779, 57.14242
908.9600, 57.16942
909.4421, 57.11424
909.9243, 57.03854
910.4064, 57.04674
910.8885, 57.13059
911.3706, 57.11759
911.8527, 56.96369
912.3348, 56.83340
912.8170, 56.98093
913.2991, 57.18945
913.7812, 57.18591
914.2633, 56.85744
914.7454, 56.60798
915.2275, 56.47845
915.7097, 56.46659
916.1918, 56.62121
916.6739, 56.93769
917.1560, 57.07214
917.6381, 57.02202
918.1202, 56.96972
918.6024, 57.06601
919.0845, 57.20892
919.5666, 57.27773
920.0487, 57.28523
920.5308, 57.32892
921.0129, 57.59267
921.4951, 57.68809
921.9772, 57.40223
922.4593, 56.93056
922.9414, 56.93831
923.4235, 57.41402
923.9056, 57.76787
924.3878, 57.75859
924.8699, 57.64428
925.3520, 57.65742
925.8341, 57.78565
926.3162, 58.01588
926.7983, 58.56089
927.2805, 58.86915
927.7626, 58.79338
928.2447, 58.56633
928.7268, 58.36011
929.2089, 58.17381
929.6910, 58.31743
930.1732, 58.84052
930.6553, 59.36977
931.1374, 59.51207
931.6195, 59.50511
932.1016, 59.65310
932.5837, 59.99768
933.0659, 60.20025
933.5480, 59.98280
934.0301, 59.84563
934.5122, 60.01993
934.9943, 60.44761
935.4764, 60.72444
935.9586, 60.85524
936.4407, 60.95280
936.9228, 61.01332
937.4049, 61.12872
937.8870, 61.43731
938.3691, 61.87322
938.8513, 62.27668
939.3334, 62.58783
939.8155, 62.89314
940.2976, 63.19957
940.7797, 63.50975
941.2618, 63.81367
941.7440, 64.11485
942.2261, 64.45687
942.7082, 64.86033
943.1903, 65.25465
943.6724, 65.46716
944.1545, 65.69055
944.6367, 66.18016
945.1188, 67.09153
945.6009, 67.75487
946.0830, 67.95954
946.5651, 68.15591
947.0472, 68.56001
947.5294, 69.18050
948.0115, 70.16208
948.4936, 71.46696
948.9757, 72.62427
949.4578, 73.20992
949.9399, 73.64506
950.4221, 74.38191
950.9042, 75.27305
951.3863, 75.64827
951.8684, 74.89470
952.3505, 74.73702
952.8326, 75.67025
953.3148, 77.10532
953.7969, 77.87732
954.2790, 78.15638
954.7611, 78.68838
955.2432, 79.69678
955.7253, 80.82610
956.2075, 81.78913
956.6896, 82.76144
957.1717, 83.94668
957.6538, 85.42974
958.1359, 86.91087
958.6180, 88.41923
959.1002, 89.85893
959.5823, 91.12171
960.0644, 92.26629
960.5465, 93.44273
961.0286, 94.65876
961.5107, 95.90800
961.9929, 97.30478
962.4750, 98.63311
962.9571, 99.78672
963.4392, 100.7793
963.9213, 101.7352
964.4034, 102.6933
964.8856, 103.4408
965.3677, 103.9497
965.8498, 104.1742
966.3319, 103.8188
966.8140, 103.1689
967.2961, 102.9023
967.7783, 103.4723
968.2604, 103.6853
968.7425, 102.8356
969.2246, 101.6317
969.7067, 100.6246
970.1888, 99.87843
970.6710, 98.99635
971.1531, 97.98695
971.6352, 96.81983
972.1173, 95.43434
972.5994, 93.91839
973.0815, 92.30528
973.5637, 90.63401
974.0458, 89.06504
974.5279, 87.63884
975.0100, 86.35522
975.4921, 85.23170
975.9742, 84.22334
976.4564, 83.25634
976.9385, 82.31557
977.4206, 81.20805
977.9027, 79.83069
978.3848, 78.48263
978.8669, 77.40419
979.3491, 76.53582
979.8312, 75.81843
980.3133, 75.32404
980.7954, 74.77632
981.2775, 74.15772
981.7596, 73.48759
982.2418, 72.67690
982.7239, 71.80039
983.2060, 71.28050
983.6881, 71.09827
984.1702, 71.07401
984.6523, 71.30750
985.1345, 71.45957
985.6166, 71.17719
986.0987, 70.63593
986.5808, 70.54062
987.0629, 71.16184
987.5450, 71.30872
988.0272, 70.61004
988.5093, 69.68309
988.9914, 69.56025
989.4735, 69.89584
989.9556, 69.93035
990.4377, 69.38535
990.9199, 69.03444
991.4020, 69.42302
991.8841, 69.92977
992.3662, 70.15996
992.8483, 70.10650
993.3304, 69.87358
993.8126, 69.44440
994.2947, 69.12572
994.7768, 69.20063
995.2589, 69.42522
995.7410, 69.54041
996.2231, 69.56102
996.7053, 69.54097
997.1874, 69.38378
997.6695, 69.34922
998.1516, 69.53130
998.6337, 69.77962
999.1158, 69.88008
999.5980, 69.84099
1000.080, 69.67863
1000.562, 69.37040
1001.044, 69.16273
1001.526, 69.34887
1002.009, 69.63889
1002.491, 69.80439
1002.973, 69.81942
1003.455, 69.74844
1003.937, 69.55943
1004.419, 69.38882
1004.901, 69.30199
1005.383, 69.27041
1005.865, 69.24680
1006.348, 69.22469
1006.830, 69.18471
1007.312, 69.07607
1007.794, 69.00020
1008.276, 69.10575
1008.758, 69.18068
1009.240, 68.92448
1009.722, 68.27714
1010.205, 67.98112
1010.687, 68.11310
1011.169, 68.27319
1011.651, 68.08792
1012.133, 67.75388
1012.615, 67.40880
1013.097, 67.07992
1013.579, 66.97815
1014.061, 67.39979
1014.544, 67.60507
1015.026, 67.34089
1015.508, 66.76389
1015.990, 66.13875
1016.472, 65.51714
1016.954, 65.13765
1017.436, 65.15874
1017.918, 65.20862
1018.401, 65.05354
1018.883, 64.81246
1019.365, 64.59898
1019.847, 64.41827
1020.329, 64.25974
1020.811, 64.12319
1021.293, 64.01203
1021.775, 63.92413
1022.257, 63.86610
1022.740, 63.87779
1023.222, 63.93297
1023.704, 63.93321
1024.186, 63.82690
1024.668, 63.66778
1025.150, 63.38835
1025.632, 63.13747
1026.114, 63.25950
1026.596, 63.69241
1027.079, 63.83988
1027.561, 63.56963
1028.043, 63.32261
1028.525, 63.52947
1029.007, 63.86448
1029.489, 64.07137
1029.971, 64.12291
1030.453, 64.03912
1030.936, 63.76760
1031.418, 63.53483
1031.900, 63.43314
1032.382, 63.43079
1032.864, 63.49829
1033.346, 63.61257
1033.828, 63.71967
1034.310, 63.83885
1034.792, 63.88619
1035.275, 63.75247
1035.757, 63.61814
1036.239, 63.68495
1036.721, 63.95272
1037.203, 64.00611
1037.685, 63.83345
1038.167, 63.66093
1038.649, 63.63210
1039.132, 63.69149
1039.614, 63.84867
1040.096, 64.06679
1040.578, 64.17105
1041.060, 64.09681
1041.542, 64.05419
1042.024, 64.06744
1042.506, 64.16182
1042.989, 64.45656
1043.471, 64.84213
1043.953, 65.05939
1044.435, 65.02027
1044.917, 65.06111
1045.399, 65.52583
1045.881, 65.87422
1046.363, 65.73934
1046.845, 65.22262
1047.328, 65.20595
1047.810, 65.65972
1048.292, 66.05932
1048.774, 66.09773
1049.256, 66.08362
1049.738, 66.41756
1050.220, 66.81334
1050.702, 66.75529
1051.184, 65.79115
1051.667, 65.47948
1052.149, 66.04553
1052.631, 66.62521
1053.113, 66.23370
1053.595, 65.41277
1054.077, 65.34614
1054.559, 65.95096
1055.041, 66.33289
1055.523, 65.81699
1056.006, 65.41451
1056.488, 65.45831
1056.970, 65.73052
1057.452, 65.76405
1057.934, 65.59350
1058.416, 65.53911
1058.898, 65.67083
1059.380, 65.87254
1059.863, 66.27220
1060.345, 66.53384
1060.827, 66.21736
1061.309, 65.28516
1061.791, 64.89817
1062.273, 65.17236
1062.755, 65.43035
1063.237, 65.30872
1063.719, 65.09425
1064.202, 65.34306
1064.684, 65.80705
1065.166, 66.00438
1065.648, 65.57960
1066.130, 65.25548
1066.612, 65.19575
1067.094, 65.12379
1067.576, 64.73842
1068.059, 64.12283
1068.541, 63.76515
1069.023, 63.65953
1069.505, 63.70810
1069.987, 64.04814
1070.469, 64.32272
1070.951, 64.30939
1071.433, 64.10841
1071.916, 63.86847
1072.398, 63.57322
1072.880, 63.41760
1073.362, 63.44338
1073.844, 63.51717
1074.326, 63.49935
1074.808, 63.46285
1075.290, 63.54433
1075.772, 63.75199
1076.255, 63.69196
1076.737, 63.24205
1077.219, 62.75102
1077.701, 62.25026
1078.183, 61.89772
1078.665, 62.17384
1079.147, 62.81885
1079.629, 63.21810
1080.111, 63.14452
1080.594, 63.01550
1081.076, 62.87208
1081.558, 62.81818
1082.040, 62.96206
1082.522, 63.27202
1083.004, 63.38477
1083.486, 63.32311
1083.968, 63.29924
1084.450, 63.38775
1084.933, 63.59603
1085.415, 64.22308
1085.897, 64.84261
1086.379, 64.70538
1086.861, 63.43951
1087.343, 62.98800
1087.825, 63.54129
1088.307, 64.21169
1088.790, 64.21986
1089.272, 63.90734
1089.754, 63.59680
1090.236, 63.32952
1090.718, 63.21651
1091.200, 63.32655
1091.682, 63.51115
1092.164, 63.78294
1092.646, 64.04964
1093.129, 64.18387
1093.611, 64.19772
1094.093, 64.08802
1094.575, 63.84286
1095.057, 63.65712
1095.539, 63.66362
1096.021, 63.70350
1096.503, 63.70890
1096.986, 63.69207
1097.468, 63.68642
1097.950, 63.69703
1098.432, 63.76735
1098.914, 63.92127
1099.396, 64.11242
1099.878, 64.46939
1100.360, 64.73436
1100.843, 64.57037
1101.325, 63.89706
1101.807, 63.70903
1102.289, 64.06001
1102.771, 64.30843
1103.253, 64.00101
1103.735, 63.48866
1104.217, 63.04710
1104.699, 62.74101
1105.182, 62.70659
1105.664, 63.28075
1106.146, 63.50766
1106.628, 63.24852
1107.110, 62.95197
1107.592, 63.11691
1108.074, 63.49431
1108.556, 63.53917
1109.038, 63.29038
1109.521, 63.06935
1110.003, 63.12804
1110.485, 63.03027
1110.967, 62.56588
1111.449, 62.05019
1111.931, 62.00456
1112.413, 62.33420
1112.895, 62.64969
1113.377, 62.90894
1113.860, 63.03581
1114.342, 62.85463
1114.824, 62.66171
1115.306, 62.66665
1115.788, 62.78040
1116.270, 62.67141
1116.752, 62.34425
1117.234, 62.08962
1117.717, 61.98848
1118.199, 61.94569
1118.681, 61.85505
1119.163, 61.79714
1119.645, 61.84406
1120.127, 61.99772
1120.609, 62.33666
1121.091, 62.93592
1121.573, 63.22295
1122.056, 62.84471
1122.538, 62.21320
1123.020, 61.71388
1123.502, 61.36903
1123.984, 61.23592
1124.466, 61.52190
1124.948, 61.51683
1125.430, 61.07980
1125.913, 60.69949
1126.395, 60.78034
1126.877, 61.11163
1127.359, 61.27651
1127.841, 61.28695
1128.323, 61.17059
1128.805, 60.79729
1129.287, 60.49263
1129.770, 60.27808
1130.252, 60.16805
1130.734, 60.23472
1131.216, 60.41677
1131.698, 60.42840
1132.180, 60.28768
1132.662, 60.21704
1133.144, 60.41031
1133.626, 60.60485
1134.109, 60.72286
1134.591, 60.77562
1135.073, 60.78239
1135.555, 60.74094
1136.037, 60.59602
1136.519, 60.33757
1137.001, 60.12391
1137.483, 60.17839
1137.965, 60.21200
1138.448, 59.93966
1138.930, 59.50465
1139.412, 59.39932
1139.894, 59.64572
1140.376, 59.76329
1140.858, 59.63126
1141.340, 59.46627
1141.822, 59.46751
1142.304, 59.53222
1142.787, 59.58211
1143.269, 59.60773
1143.751, 59.56895
1144.233, 59.45256
1144.715, 59.34152
1145.197, 59.26903
1145.679, 59.20380
1146.161, 59.07533
1146.644, 58.94576
1147.126, 58.89809
1147.608, 58.96458
1148.090, 59.05960
1148.572, 59.18544
1149.054, 59.33565
1149.536, 59.57841
1150.018, 59.76239
1150.500, 59.44428
1150.983, 58.90625
1151.465, 58.73909
1151.947, 59.47886
1152.429, 59.77797
1152.911, 59.40956
1153.393, 58.89782
1153.875, 58.53542
1154.357, 58.32718
1154.840, 58.41855
1155.322, 58.68629
1155.804, 58.73482
1156.286, 57.96592
1156.768, 57.62526
1157.250, 58.03088
1157.732, 58.65873
1158.214, 59.09441
1158.697, 59.34007
1159.179, 59.32132
1159.661, 59.08644
1160.143, 58.91244
1160.625, 59.03255
1161.107, 59.11298
1161.589, 59.04867
1162.071, 58.90163
1162.553, 58.70617
1163.036, 58.48413
1163.518, 58.40635
1164.000, 58.47743
1164.482, 58.56977
1164.964, 58.67655
1165.446, 58.70507
1165.928, 58.53719
1166.410, 58.30713
1166.892, 58.31666
1167.375, 58.53890
1167.857, 58.52548
1168.339, 58.20616
1168.821, 57.93760
1169.303, 58.02329
1169.785, 58.20072
1170.267, 58.32597
1170.749, 58.40180
1171.231, 58.42797
1171.714, 58.40465
1172.196, 58.45605
1172.678, 58.63042
1173.160, 58.72714
1173.642, 58.43824
1174.124, 58.11310
1174.606, 58.10006
1175.088, 58.33163
1175.571, 58.38058
1176.053, 58.24006
1176.535, 58.02214
1177.017, 57.68011
1177.499, 57.54194
1177.981, 58.24696
1178.463, 59.08186
1178.945, 59.26883
1179.427, 58.77794
1179.910, 58.46443
1180.392, 58.32381
1180.874, 58.42916
1181.356, 58.96116
1181.838, 59.39129
1182.320, 58.95477
1182.802, 58.21387
1183.284, 57.83777
1183.767, 57.92900
1184.249, 58.07988
1184.731, 58.31493
1185.213, 58.44610
1185.695, 58.33732
1186.177, 58.15549
1186.659, 58.03192
1187.141, 57.98891
1187.624, 58.09252
1188.106, 58.43320
1188.588, 58.56974
1189.070, 58.47109
1189.552, 58.34159
1190.034, 58.24609
1190.516, 58.23983
1190.998, 58.54190
1191.480, 58.93335
1191.963, 58.99923
1192.445, 58.37622
1192.927, 58.29452
1193.409, 58.89122
1193.891, 59.39571
1194.373, 59.04343
1194.855, 58.47181
1195.337, 58.67839
1195.819, 59.28961
1196.302, 59.44704
1196.784, 58.64363
1197.266, 58.27004
1197.748, 58.39760
1198.230, 58.75861
1198.712, 59.39734
1199.194, 59.95853
1199.676, 59.85522
1200.158, 59.27675
1200.641, 58.73089
1201.123, 58.20882
1201.605, 57.98647
1202.087, 58.14111
1202.569, 58.34519
1203.051, 58.22046
1203.533, 58.02417
1204.015, 58.15776
1204.498, 58.52547
1204.980, 58.75361
1205.462, 58.75240
1205.944, 58.68553
1206.426, 58.53730
1206.908, 58.43814
1207.390, 58.59234
1207.872, 58.81928
1208.354, 58.85701
1208.837, 58.74443
1209.319, 58.71996
1209.801, 58.87278
1210.283, 58.95414
1210.765, 58.93779
1211.247, 58.83117
1211.729, 58.49342
1212.211, 58.16949
1212.694, 58.29718
1213.176, 58.78361
1213.658, 58.93156
1214.140, 58.51261
1214.622, 58.30513
1215.104, 58.45390
1215.586, 58.69899
1216.068, 58.80529
1216.551, 58.81837
1217.033, 58.75922
1217.515, 58.64772
1217.997, 58.59526
1218.479, 58.59665
1218.961, 58.72205
1219.443, 59.02820
1219.925, 59.27057
1220.407, 59.05193
1220.890, 58.70266
1221.372, 58.60059
1221.854, 58.75600
1222.336, 58.93684
1222.818, 59.18598
1223.300, 59.19637
1223.782, 58.85281
1224.264, 58.51087
1224.746, 58.65705
1225.229, 58.94279
1225.711, 58.99994
1226.193, 58.81448
1226.675, 58.64674
1227.157, 58.49158
1227.639, 58.39679
1228.121, 58.37482
1228.603, 58.40567
1229.085, 58.43495
1229.568, 58.53150
1230.050, 58.87204
1230.532, 59.39465
1231.014, 59.48541
1231.496, 59.08411
1231.978, 58.79938
1232.460, 58.79066
1232.942, 58.82462
1233.425, 58.65629
1233.907, 58.44422
1234.389, 58.31777
1234.871, 58.27705
1235.353, 58.28222
1235.835, 58.33271
1236.317, 58.46308
1236.799, 58.69917
1237.281, 58.91842
1237.764, 58.99890
1238.246, 59.03874
1238.728, 59.14205
1239.210, 59.27531
1239.692, 59.26954
1240.174, 59.12862
1240.656, 58.92372
1241.138, 58.65080
1241.621, 58.45226
1242.103, 58.40882
1242.585, 58.51565
1243.067, 58.86543
1243.549, 59.32971
1244.031, 59.36389
1244.513, 59.03595
1244.995, 58.92640
1245.478, 59.21394
1245.960, 59.44515
1246.442, 59.23170
1246.924, 59.00606
1247.406, 59.03120
1247.888, 59.20515
1248.370, 59.19384
1248.852, 59.04728
1249.334, 58.97544
1249.817, 59.02993
1250.299, 59.13765
1250.781, 59.47866
1251.263, 59.57836
1251.745, 59.12422
1252.227, 58.43480
1252.709, 58.31696
1253.191, 58.61630
1253.673, 58.92570
1254.156, 59.18499
1254.638, 59.26391
1255.120, 58.92113
1255.602, 58.70857
1256.084, 58.86887
1256.566, 59.17705
1257.048, 59.11715
1257.530, 58.88219
1258.012, 58.91587
1258.495, 59.33358
1258.977, 59.56027
1259.459, 59.40085
1259.941, 59.32204
1260.423, 59.51825
1260.905, 59.76679
1261.387, 59.67780
1261.869, 59.42639
1262.352, 59.22905
1262.834, 59.11683
1263.316, 59.27741
1263.798, 59.87210
1264.280, 60.12629
1264.762, 59.72664
1265.244, 59.16813
1265.726, 58.99018
1266.208, 59.02644
1266.691, 59.12302
1267.173, 59.26299
1267.655, 59.37366
1268.137, 59.44251
1268.619, 59.61920
1269.101, 59.98446
1269.583, 60.27526
1270.065, 60.15752
1270.548, 59.92389
1271.030, 59.84265
1271.512, 59.88124
1271.994, 59.87147
1272.476, 59.81429
1272.958, 59.73052
1273.440, 59.61419
1273.922, 59.55675
1274.405, 59.71629
1274.887, 59.86210
1275.369, 59.86766
1275.851, 59.75688
1276.333, 59.53497
1276.815, 59.24420
1277.297, 59.11176
1277.779, 59.18777
1278.261, 59.30774
1278.744, 59.42450
1279.226, 59.52118
1279.708, 59.59463
1280.190, 59.64133
1280.672, 59.59813
1281.154, 59.53670
1281.636, 59.68787
1282.118, 60.08333
1282.600, 60.38459
1283.083, 60.50927
1283.565, 60.49105
1284.047, 60.31538
1284.529, 60.04824
1285.011, 59.71359
1285.493, 59.38751
1285.975, 59.18633
1286.457, 59.12182
1286.939, 59.16523
1287.422, 59.32498
1287.904, 59.54032
1288.386, 59.82195
1288.868, 60.05117
1289.350, 60.08516
1289.832, 60.01326
1290.314, 59.86500
1290.796, 59.68825
1291.279, 59.63960
1291.761, 59.71463
1292.243, 60.03319
1292.725, 60.63771
1293.207, 61.07053
1293.689, 60.74947
1294.171, 60.34531
1294.653, 60.35373
1295.135, 60.56702
1295.618, 60.64875
1296.100, 60.60895
1296.582, 60.53976
1297.064, 60.45663
1297.546, 60.36318
1298.028, 60.23487
1298.510, 60.10316
1298.992, 59.96195
1299.475, 59.85760
1299.957, 59.86322
1300.439, 59.95466
1300.921, 60.02423
1301.403, 60.09287
1301.885, 60.29975
##END=



