##NAMES=Phosphuranylite
##RRUFFID=R130108
##IDEAL CHEMISTRY=KCa(H_3_O)_3_(U^6+^O_2_)_7_(PO_4_)_4_O_4_&#183;8H_2_O
##LOCALITY=Shinkolobwe mine, Katanga, Zaire
##OWNER=RRUFF
##SOURCE=Don Doell
##DESCRIPTION=Associated with metatorbernite R130109
##STATUS=The identification of this mineral has been confirmed by single-crystal X-ray diffraction.
##URL=rruff.info/R130108
8.936163e+001, 0.000000e+000
8.984375e+001, 1.825023e+002
9.032587e+001, 1.843201e+002
9.080798e+001, 1.846880e+002
9.129010e+001, 1.830980e+002
9.177222e+001, 1.806454e+002
9.225433e+001, 1.785189e+002
9.273645e+001, 1.766977e+002
9.321857e+001, 1.750646e+002
9.370068e+001, 1.735998e+002
9.418280e+001, 1.722687e+002
9.466492e+001, 1.709813e+002
9.514703e+001, 1.696879e+002
9.562915e+001, 1.684260e+002
9.611127e+001, 1.673040e+002
9.659338e+001, 1.663560e+002
9.707550e+001, 1.654109e+002
9.755762e+001, 1.642264e+002
9.803973e+001, 1.627926e+002
9.852185e+001, 1.613475e+002
9.900397e+001, 1.599117e+002
9.948608e+001, 1.584753e+002
9.996820e+001, 1.573738e+002
1.004503e+002, 1.567709e+002
1.009324e+002, 1.562998e+002
1.014146e+002, 1.550894e+002
1.018967e+002, 1.528687e+002
1.023788e+002, 1.506529e+002
1.028609e+002, 1.489617e+002
1.033430e+002, 1.479413e+002
1.038251e+002, 1.470499e+002
1.043073e+002, 1.463735e+002
1.047894e+002, 1.458214e+002
1.052715e+002, 1.448946e+002
1.057536e+002, 1.433394e+002
1.062357e+002, 1.416800e+002
1.067178e+002, 1.402351e+002
1.072000e+002, 1.389145e+002
1.076821e+002, 1.379693e+002
1.081642e+002, 1.376699e+002
1.086463e+002, 1.381042e+002
1.091284e+002, 1.379604e+002
1.096105e+002, 1.368296e+002
1.100927e+002, 1.352947e+002
1.105748e+002, 1.339107e+002
1.110569e+002, 1.325500e+002
1.115390e+002, 1.314684e+002
1.120211e+002, 1.308909e+002
1.125032e+002, 1.310803e+002
1.129854e+002, 1.308092e+002
1.134675e+002, 1.296944e+002
1.139496e+002, 1.280679e+002
1.144317e+002, 1.263917e+002
1.149138e+002, 1.241864e+002
1.153959e+002, 1.224016e+002
1.158781e+002, 1.216265e+002
1.163602e+002, 1.225554e+002
1.168423e+002, 1.232000e+002
1.173244e+002, 1.226788e+002
1.178065e+002, 1.213245e+002
1.182886e+002, 1.199836e+002
1.187708e+002, 1.189115e+002
1.192529e+002, 1.180436e+002
1.197350e+002, 1.173505e+002
1.202171e+002, 1.168812e+002
1.206992e+002, 1.165130e+002
1.211813e+002, 1.162862e+002
1.216635e+002, 1.161528e+002
1.221456e+002, 1.158496e+002
1.226277e+002, 1.151124e+002
1.231098e+002, 1.141300e+002
1.235919e+002, 1.131438e+002
1.240740e+002, 1.119752e+002
1.245562e+002, 1.109979e+002
1.250383e+002, 1.108764e+002
1.255204e+002, 1.116035e+002
1.260025e+002, 1.121777e+002
1.264846e+002, 1.112928e+002
1.269667e+002, 1.095243e+002
1.274489e+002, 1.083108e+002
1.279310e+002, 1.089552e+002
1.284131e+002, 1.104645e+002
1.288952e+002, 1.107642e+002
1.293773e+002, 1.096444e+002
1.298594e+002, 1.080597e+002
1.303416e+002, 1.071412e+002
1.308237e+002, 1.068231e+002
1.313058e+002, 1.065668e+002
1.317879e+002, 1.060533e+002
1.322700e+002, 1.053480e+002
1.327521e+002, 1.047643e+002
1.332343e+002, 1.043221e+002
1.337164e+002, 1.040145e+002
1.341985e+002, 1.038440e+002
1.346806e+002, 1.038188e+002
1.351627e+002, 1.038220e+002
1.356448e+002, 1.038988e+002
1.361270e+002, 1.040579e+002
1.366091e+002, 1.037377e+002
1.370912e+002, 1.026660e+002
1.375733e+002, 1.011684e+002
1.380554e+002, 1.003427e+002
1.385375e+002, 1.003506e+002
1.390197e+002, 1.005565e+002
1.395018e+002, 1.004559e+002
1.399839e+002, 9.997032e+001
1.404660e+002, 9.952744e+001
1.409481e+002, 9.920802e+001
1.414302e+002, 9.900302e+001
1.419124e+002, 9.876608e+001
1.423945e+002, 9.846656e+001
1.428766e+002, 9.817839e+001
1.433587e+002, 9.800626e+001
1.438408e+002, 9.808568e+001
1.443229e+002, 9.799695e+001
1.448051e+002, 9.756438e+001
1.452872e+002, 9.669241e+001
1.457693e+002, 9.618307e+001
1.462514e+002, 9.623704e+001
1.467335e+002, 9.651995e+001
1.472156e+002, 9.659897e+001
1.476978e+002, 9.628295e+001
1.481799e+002, 9.599952e+001
1.486620e+002, 9.589903e+001
1.491441e+002, 9.615440e+001
1.496262e+002, 9.611845e+001
1.501083e+002, 9.548315e+001
1.505905e+002, 9.460703e+001
1.510726e+002, 9.411868e+001
1.515547e+002, 9.421037e+001
1.520368e+002, 9.452447e+001
1.525189e+002, 9.501830e+001
1.530010e+002, 9.606494e+001
1.534832e+002, 9.662415e+001
1.539653e+002, 9.631743e+001
1.544474e+002, 9.546033e+001
1.549295e+002, 9.481055e+001
1.554116e+002, 9.451571e+001
1.558937e+002, 9.440847e+001
1.563759e+002, 9.443720e+001
1.568580e+002, 9.485014e+001
1.573401e+002, 9.505329e+001
1.578222e+002, 9.471429e+001
1.583043e+002, 9.401277e+001
1.587864e+002, 9.361092e+001
1.592686e+002, 9.380308e+001
1.597507e+002, 9.428403e+001
1.602328e+002, 9.486306e+001
1.607149e+002, 9.578744e+001
1.611970e+002, 9.650984e+001
1.616791e+002, 9.664114e+001
1.621613e+002, 9.629463e+001
1.626434e+002, 9.623448e+001
1.631255e+002, 9.665292e+001
1.636076e+002, 9.754587e+001
1.640897e+002, 9.890970e+001
1.645718e+002, 1.012793e+002
1.650540e+002, 1.036768e+002
1.655361e+002, 1.053424e+002
1.660182e+002, 1.063316e+002
1.665003e+002, 1.078465e+002
1.669824e+002, 1.105284e+002
1.674645e+002, 1.141346e+002
1.679467e+002, 1.183187e+002
1.684288e+002, 1.228000e+002
1.689109e+002, 1.279471e+002
1.693930e+002, 1.339044e+002
1.698751e+002, 1.406973e+002
1.703572e+002, 1.485777e+002
1.708394e+002, 1.576847e+002
1.713215e+002, 1.681040e+002
1.718036e+002, 1.798136e+002
1.722857e+002, 1.913039e+002
1.727678e+002, 2.049503e+002
1.732499e+002, 2.240010e+002
1.737321e+002, 2.493624e+002
1.742142e+002, 2.759949e+002
1.746963e+002, 2.983841e+002
1.751784e+002, 3.190270e+002
1.756605e+002, 3.439530e+002
1.761426e+002, 3.781887e+002
1.766248e+002, 4.176215e+002
1.771069e+002, 4.567188e+002
1.775890e+002, 4.951124e+002
1.780711e+002, 5.333775e+002
1.785532e+002, 5.714845e+002
1.790353e+002, 6.100922e+002
1.795175e+002, 6.500524e+002
1.799996e+002, 6.935449e+002
1.804817e+002, 7.386768e+002
1.809638e+002, 7.827435e+002
1.814459e+002, 8.255710e+002
1.819280e+002, 8.671439e+002
1.824102e+002, 9.087138e+002
1.828923e+002, 9.494280e+002
1.833744e+002, 9.888911e+002
1.838565e+002, 1.025643e+003
1.843386e+002, 1.060623e+003
1.848207e+002, 1.095198e+003
1.853029e+002, 1.129743e+003
1.857850e+002, 1.164246e+003
1.862671e+002, 1.199404e+003
1.867492e+002, 1.235071e+003
1.872313e+002, 1.271256e+003
1.877134e+002, 1.307165e+003
1.881956e+002, 1.343525e+003
1.886777e+002, 1.382104e+003
1.891598e+002, 1.423838e+003
1.896419e+002, 1.467819e+003
1.901240e+002, 1.511987e+003
1.906061e+002, 1.556854e+003
1.910883e+002, 1.603452e+003
1.915704e+002, 1.653234e+003
1.920525e+002, 1.706452e+003
1.925346e+002, 1.761353e+003
1.930167e+002, 1.818024e+003
1.934988e+002, 1.874620e+003
1.939810e+002, 1.921551e+003
1.944631e+002, 1.956476e+003
1.949452e+002, 1.990592e+003
1.954273e+002, 2.025484e+003
1.959094e+002, 2.061107e+003
1.963915e+002, 2.096142e+003
1.968737e+002, 2.130701e+003
1.973558e+002, 2.164305e+003
1.978379e+002, 2.195243e+003
1.983200e+002, 2.222859e+003
1.988021e+002, 2.250550e+003
1.992842e+002, 2.282819e+003
1.997664e+002, 2.320425e+003
2.002485e+002, 2.352106e+003
2.007306e+002, 2.374722e+003
2.012127e+002, 2.389913e+003
2.016948e+002, 2.406806e+003
2.021769e+002, 2.425760e+003
2.026591e+002, 2.445523e+003
2.031412e+002, 2.464750e+003
2.036233e+002, 2.483522e+003
2.041054e+002, 2.502204e+003
2.045875e+002, 2.520958e+003
2.050696e+002, 2.539735e+003
2.055518e+002, 2.558156e+003
2.060339e+002, 2.576372e+003
2.065160e+002, 2.593888e+003
2.069981e+002, 2.609980e+003
2.074802e+002, 2.624117e+003
2.079623e+002, 2.638520e+003
2.084445e+002, 2.653837e+003
2.089266e+002, 2.670053e+003
2.094087e+002, 2.685220e+003
2.098908e+002, 2.698711e+003
2.103729e+002, 2.712394e+003
2.108550e+002, 2.729415e+003
2.113372e+002, 2.751613e+003
2.118193e+002, 2.769958e+003
2.123014e+002, 2.780997e+003
2.127835e+002, 2.784635e+003
2.132656e+002, 2.791742e+003
2.137477e+002, 2.803380e+003
2.142299e+002, 2.816961e+003
2.147120e+002, 2.829318e+003
2.151941e+002, 2.840164e+003
2.156762e+002, 2.850818e+003
2.161583e+002, 2.861722e+003
2.166404e+002, 2.872785e+003
2.171226e+002, 2.883598e+003
2.176047e+002, 2.894213e+003
2.180868e+002, 2.904498e+003
2.185689e+002, 2.914444e+003
2.190510e+002, 2.924100e+003
2.195331e+002, 2.933448e+003
2.200153e+002, 2.942605e+003
2.204974e+002, 2.951632e+003
2.209795e+002, 2.960646e+003
2.214616e+002, 2.970069e+003
2.219437e+002, 2.979243e+003
2.224258e+002, 2.987408e+003
2.229080e+002, 2.994046e+003
2.233901e+002, 3.000839e+003
2.238722e+002, 3.008582e+003
2.243543e+002, 3.017788e+003
2.248364e+002, 3.023854e+003
2.253185e+002, 3.024727e+003
2.258007e+002, 3.024219e+003
2.262828e+002, 3.027396e+003
2.267649e+002, 3.035976e+003
2.272470e+002, 3.044635e+003
2.277291e+002, 3.052170e+003
2.282112e+002, 3.058821e+003
2.286934e+002, 3.062794e+003
2.291755e+002, 3.063007e+003
2.296576e+002, 3.061464e+003
2.301397e+002, 3.060775e+003
2.306218e+002, 3.061477e+003
2.311039e+002, 3.062044e+003
2.315861e+002, 3.061632e+003
2.320682e+002, 3.059729e+003
2.325503e+002, 3.061110e+003
2.330324e+002, 3.068094e+003
2.335145e+002, 3.076535e+003
2.339966e+002, 3.080966e+003
2.344788e+002, 3.078841e+003
2.349609e+002, 3.077357e+003
2.354430e+002, 3.078551e+003
2.359251e+002, 3.082870e+003
2.364072e+002, 3.086777e+003
2.368893e+002, 3.089837e+003
2.373715e+002, 3.092801e+003
2.378536e+002, 3.096703e+003
2.383357e+002, 3.102378e+003
2.388178e+002, 3.107413e+003
2.392999e+002, 3.110621e+003
2.397820e+002, 3.111350e+003
2.402642e+002, 3.114854e+003
2.407463e+002, 3.122987e+003
2.412284e+002, 3.132205e+003
2.417105e+002, 3.138108e+003
2.421926e+002, 3.139269e+003
2.426747e+002, 3.139547e+003
2.431569e+002, 3.139636e+003
2.436390e+002, 3.139461e+003
2.441211e+002, 3.139579e+003
2.446032e+002, 3.140265e+003
2.450853e+002, 3.140991e+003
2.455674e+002, 3.141123e+003
2.460496e+002, 3.140390e+003
2.465317e+002, 3.139652e+003
2.470138e+002, 3.139231e+003
2.474959e+002, 3.139239e+003
2.479780e+002, 3.138725e+003
2.484601e+002, 3.137429e+003
2.489423e+002, 3.136000e+003
2.494244e+002, 3.135166e+003
2.499065e+002, 3.135184e+003
2.503886e+002, 3.135469e+003
2.508707e+002, 3.135971e+003
2.513528e+002, 3.136719e+003
2.518350e+002, 3.137449e+003
2.523171e+002, 3.137769e+003
2.527992e+002, 3.138467e+003
2.532813e+002, 3.140569e+003
2.537634e+002, 3.145015e+003
2.542455e+002, 3.148653e+003
2.547277e+002, 3.150676e+003
2.552098e+002, 3.151025e+003
2.556919e+002, 3.151114e+003
2.561740e+002, 3.150462e+003
2.566561e+002, 3.150021e+003
2.571382e+002, 3.150801e+003
2.576204e+002, 3.153290e+003
2.581025e+002, 3.155793e+003
2.585846e+002, 3.158338e+003
2.590667e+002, 3.160855e+003
2.595488e+002, 3.161276e+003
2.600309e+002, 3.158551e+003
2.605131e+002, 3.155304e+003
2.609952e+002, 3.153915e+003
2.614773e+002, 3.154909e+003
2.619594e+002, 3.156405e+003
2.624415e+002, 3.158212e+003
2.629236e+002, 3.160351e+003
2.634058e+002, 3.162807e+003
2.638879e+002, 3.166223e+003
2.643700e+002, 3.168990e+003
2.648521e+002, 3.169520e+003
2.653342e+002, 3.166868e+003
2.658163e+002, 3.165181e+003
2.662985e+002, 3.165132e+003
2.667806e+002, 3.166525e+003
2.672627e+002, 3.168633e+003
2.677448e+002, 3.172031e+003
2.682269e+002, 3.174843e+003
2.687090e+002, 3.175266e+003
2.691912e+002, 3.172471e+003
2.696733e+002, 3.170792e+003
2.701554e+002, 3.171114e+003
2.706375e+002, 3.172792e+003
2.711196e+002, 3.173185e+003
2.716017e+002, 3.171885e+003
2.720839e+002, 3.170349e+003
2.725660e+002, 3.169642e+003
2.730481e+002, 3.169914e+003
2.735302e+002, 3.170012e+003
2.740123e+002, 3.169825e+003
2.744944e+002, 3.169438e+003
2.749766e+002, 3.168993e+003
2.754587e+002, 3.168451e+003
2.759408e+002, 3.168146e+003
2.764229e+002, 3.168377e+003
2.769050e+002, 3.169208e+003
2.773871e+002, 3.170068e+003
2.778693e+002, 3.170993e+003
2.783514e+002, 3.171889e+003
2.788335e+002, 3.172399e+003
2.793156e+002, 3.172439e+003
2.797977e+002, 3.172676e+003
2.802798e+002, 3.173929e+003
2.807620e+002, 3.176194e+003
2.812441e+002, 3.176745e+003
2.817262e+002, 3.175043e+003
2.822083e+002, 3.172250e+003
2.826904e+002, 3.170267e+003
2.831725e+002, 3.169083e+003
2.836547e+002, 3.168470e+003
2.841368e+002, 3.168413e+003
2.846189e+002, 3.168875e+003
2.851010e+002, 3.169452e+003
2.855831e+002, 3.170069e+003
2.860652e+002, 3.170954e+003
2.865474e+002, 3.172655e+003
2.870295e+002, 3.175153e+003
2.875116e+002, 3.177468e+003
2.879937e+002, 3.179362e+003
2.884758e+002, 3.180789e+003
2.889579e+002, 3.181308e+003
2.894401e+002, 3.180876e+003
2.899222e+002, 3.179909e+003
2.904043e+002, 3.178509e+003
2.908864e+002, 3.176808e+003
2.913685e+002, 3.175865e+003
2.918506e+002, 3.176789e+003
2.923328e+002, 3.178694e+003
2.928149e+002, 3.178875e+003
2.932970e+002, 3.177264e+003
2.937791e+002, 3.174753e+003
2.942612e+002, 3.171292e+003
2.947433e+002, 3.167421e+003
2.952255e+002, 3.165520e+003
2.957076e+002, 3.167640e+003
2.961897e+002, 3.171520e+003
2.966718e+002, 3.172249e+003
2.971539e+002, 3.169905e+003
2.976360e+002, 3.167464e+003
2.981182e+002, 3.167990e+003
2.986003e+002, 3.170393e+003
2.990824e+002, 3.171880e+003
2.995645e+002, 3.171239e+003
3.000466e+002, 3.169833e+003
3.005287e+002, 3.169635e+003
3.010109e+002, 3.170517e+003
3.014930e+002, 3.171578e+003
3.019751e+002, 3.172348e+003
3.024572e+002, 3.172840e+003
3.029393e+002, 3.172990e+003
3.034214e+002, 3.172635e+003
3.039036e+002, 3.172269e+003
3.043857e+002, 3.172708e+003
3.048678e+002, 3.173706e+003
3.053499e+002, 3.174324e+003
3.058320e+002, 3.173346e+003
3.063141e+002, 3.171935e+003
3.067963e+002, 3.171567e+003
3.072784e+002, 3.172675e+003
3.077605e+002, 3.174258e+003
3.082426e+002, 3.175524e+003
3.087247e+002, 3.176589e+003
3.092068e+002, 3.177761e+003
3.096890e+002, 3.179320e+003
3.101711e+002, 3.180889e+003
3.106532e+002, 3.181844e+003
3.111353e+002, 3.181829e+003
3.116174e+002, 3.182427e+003
3.120995e+002, 3.185730e+003
3.125817e+002, 3.190102e+003
3.130638e+002, 3.192979e+003
3.135459e+002, 3.192201e+003
3.140280e+002, 3.190455e+003
3.145101e+002, 3.188970e+003
3.149922e+002, 3.187809e+003
3.154744e+002, 3.187923e+003
3.159565e+002, 3.191712e+003
3.164386e+002, 3.196492e+003
3.169207e+002, 3.199169e+003
3.174028e+002, 3.197579e+003
3.178849e+002, 3.194962e+003
3.183671e+002, 3.192265e+003
3.188492e+002, 3.189563e+003
3.193313e+002, 3.187398e+003
3.198134e+002, 3.186183e+003
3.202955e+002, 3.185448e+003
3.207776e+002, 3.184823e+003
3.212598e+002, 3.183151e+003
3.217419e+002, 3.182628e+003
3.222240e+002, 3.184540e+003
3.227061e+002, 3.188305e+003
3.231882e+002, 3.191029e+003
3.236703e+002, 3.191055e+003
3.241525e+002, 3.190589e+003
3.246346e+002, 3.190851e+003
3.251167e+002, 3.192789e+003
3.255988e+002, 3.194334e+003
3.260809e+002, 3.195337e+003
3.265630e+002, 3.195851e+003
3.270452e+002, 3.196001e+003
3.275273e+002, 3.195148e+003
3.280094e+002, 3.194547e+003
3.284915e+002, 3.194699e+003
3.289736e+002, 3.196017e+003
3.294557e+002, 3.197224e+003
3.299379e+002, 3.198677e+003
3.304200e+002, 3.199899e+003
3.309021e+002, 3.199985e+003
3.313842e+002, 3.197146e+003
3.318663e+002, 3.195489e+003
3.323484e+002, 3.196567e+003
3.328306e+002, 3.200977e+003
3.333127e+002, 3.203747e+003
3.337948e+002, 3.203879e+003
3.342769e+002, 3.203226e+003
3.347590e+002, 3.204032e+003
3.352411e+002, 3.207457e+003
3.357233e+002, 3.209781e+003
3.362054e+002, 3.209952e+003
3.366875e+002, 3.208160e+003
3.371696e+002, 3.206977e+003
3.376517e+002, 3.206328e+003
3.381339e+002, 3.206551e+003
3.386160e+002, 3.208495e+003
3.390981e+002, 3.212907e+003
3.395802e+002, 3.215286e+003
3.400623e+002, 3.214280e+003
3.405444e+002, 3.211083e+003
3.410266e+002, 3.209860e+003
3.415087e+002, 3.210819e+003
3.419908e+002, 3.212386e+003
3.424729e+002, 3.213836e+003
3.429550e+002, 3.215109e+003
3.434371e+002, 3.215465e+003
3.439193e+002, 3.214609e+003
3.444014e+002, 3.213143e+003
3.448835e+002, 3.211770e+003
3.453656e+002, 3.210504e+003
3.458477e+002, 3.210392e+003
3.463298e+002, 3.213312e+003
3.468120e+002, 3.218190e+003
3.472941e+002, 3.219577e+003
3.477762e+002, 3.216925e+003
3.482583e+002, 3.213419e+003
3.487404e+002, 3.213524e+003
3.492225e+002, 3.216328e+003
3.497047e+002, 3.217818e+003
3.501868e+002, 3.215430e+003
3.506689e+002, 3.211247e+003
3.511510e+002, 3.208752e+003
3.516331e+002, 3.207930e+003
3.521152e+002, 3.208056e+003
3.525974e+002, 3.209118e+003
3.530795e+002, 3.210599e+003
3.535616e+002, 3.211531e+003
3.540437e+002, 3.211406e+003
3.545258e+002, 3.210907e+003
3.550079e+002, 3.210887e+003
3.554901e+002, 3.211182e+003
3.559722e+002, 3.211033e+003
3.564543e+002, 3.209046e+003
3.569364e+002, 3.206854e+003
3.574185e+002, 3.206259e+003
3.579006e+002, 3.208025e+003
3.583828e+002, 3.210278e+003
3.588649e+002, 3.212357e+003
3.593470e+002, 3.214082e+003
3.598291e+002, 3.215097e+003
3.603112e+002, 3.214708e+003
3.607933e+002, 3.213953e+003
3.612755e+002, 3.213168e+003
3.617576e+002, 3.212238e+003
3.622397e+002, 3.212205e+003
3.627218e+002, 3.214256e+003
3.632039e+002, 3.217092e+003
3.636860e+002, 3.219269e+003
3.641682e+002, 3.220658e+003
3.646503e+002, 3.221074e+003
3.651324e+002, 3.219798e+003
3.656145e+002, 3.216935e+003
3.660966e+002, 3.215126e+003
3.665787e+002, 3.215696e+003
3.670609e+002, 3.216913e+003
3.675430e+002, 3.217669e+003
3.680251e+002, 3.218039e+003
3.685072e+002, 3.217770e+003
3.689893e+002, 3.216323e+003
3.694714e+002, 3.214163e+003
3.699536e+002, 3.212845e+003
3.704357e+002, 3.212778e+003
3.709178e+002, 3.213146e+003
3.713999e+002, 3.213677e+003
3.718820e+002, 3.214469e+003
3.723641e+002, 3.215182e+003
3.728463e+002, 3.215751e+003
3.733284e+002, 3.216262e+003
3.738105e+002, 3.216970e+003
3.742926e+002, 3.218271e+003
3.747747e+002, 3.218788e+003
3.752568e+002, 3.217740e+003
3.757390e+002, 3.215076e+003
3.762211e+002, 3.213726e+003
3.767032e+002, 3.213897e+003
3.771853e+002, 3.214837e+003
3.776674e+002, 3.215926e+003
3.781495e+002, 3.217173e+003
3.786317e+002, 3.218466e+003
3.791138e+002, 3.220000e+003
3.795959e+002, 3.221458e+003
3.800780e+002, 3.221574e+003
3.805601e+002, 3.220237e+003
3.810422e+002, 3.219055e+003
3.815244e+002, 3.219774e+003
3.820065e+002, 3.221902e+003
3.824886e+002, 3.222453e+003
3.829707e+002, 3.221019e+003
3.834528e+002, 3.218431e+003
3.839349e+002, 3.214671e+003
3.844171e+002, 3.210290e+003
3.848992e+002, 3.208109e+003
3.853813e+002, 3.211628e+003
3.858634e+002, 3.217547e+003
3.863455e+002, 3.219720e+003
3.868276e+002, 3.217805e+003
3.873098e+002, 3.215495e+003
3.877919e+002, 3.215959e+003
3.882740e+002, 3.218190e+003
3.887561e+002, 3.220431e+003
3.892382e+002, 3.222410e+003
3.897203e+002, 3.223793e+003
3.902025e+002, 3.223667e+003
3.906846e+002, 3.222386e+003
3.911667e+002, 3.221756e+003
3.916488e+002, 3.223612e+003
3.921309e+002, 3.226075e+003
3.926130e+002, 3.227585e+003
3.930952e+002, 3.227662e+003
3.935773e+002, 3.227135e+003
3.940594e+002, 3.225921e+003
3.945415e+002, 3.224407e+003
3.950236e+002, 3.223302e+003
3.955057e+002, 3.223887e+003
3.959879e+002, 3.224057e+003
3.964700e+002, 3.222833e+003
3.969521e+002, 3.219965e+003
3.974342e+002, 3.217117e+003
3.979163e+002, 3.214279e+003
3.983984e+002, 3.211733e+003
3.988806e+002, 3.209738e+003
3.993627e+002, 3.208581e+003
3.998448e+002, 3.207669e+003
4.003269e+002, 3.206918e+003
4.008090e+002, 3.206333e+003
4.012911e+002, 3.206074e+003
4.017733e+002, 3.206453e+003
4.022554e+002, 3.206766e+003
4.027375e+002, 3.206515e+003
4.032196e+002, 3.205052e+003
4.037017e+002, 3.204846e+003
4.041838e+002, 3.206746e+003
4.046660e+002, 3.209300e+003
4.051481e+002, 3.209332e+003
4.056302e+002, 3.206000e+003
4.061123e+002, 3.203319e+003
4.065944e+002, 3.203095e+003
4.070765e+002, 3.205169e+003
4.075587e+002, 3.205854e+003
4.080408e+002, 3.204857e+003
4.085229e+002, 3.203543e+003
4.090050e+002, 3.203125e+003
4.094871e+002, 3.203577e+003
4.099692e+002, 3.204906e+003
4.104514e+002, 3.207563e+003
4.109335e+002, 3.210524e+003
4.114156e+002, 3.211448e+003
4.118977e+002, 3.210456e+003
4.123798e+002, 3.209250e+003
4.128619e+002, 3.209159e+003
4.133441e+002, 3.209637e+003
4.138262e+002, 3.209698e+003
4.143083e+002, 3.209281e+003
4.147904e+002, 3.208328e+003
4.152725e+002, 3.205987e+003
4.157546e+002, 3.203111e+003
4.162368e+002, 3.201396e+003
4.167189e+002, 3.203241e+003
4.172010e+002, 3.205436e+003
4.176831e+002, 3.204950e+003
4.181652e+002, 3.201927e+003
4.186473e+002, 3.199391e+003
4.191295e+002, 3.199030e+003
4.196116e+002, 3.199875e+003
4.200937e+002, 3.201188e+003
4.205758e+002, 3.203903e+003
4.210579e+002, 3.205448e+003
4.215400e+002, 3.203956e+003
4.220222e+002, 3.200676e+003
4.225043e+002, 3.198651e+003
4.229864e+002, 3.200348e+003
4.234685e+002, 3.201960e+003
4.239506e+002, 3.201829e+003
4.244327e+002, 3.199097e+003
4.249149e+002, 3.197327e+003
4.253970e+002, 3.197035e+003
4.258791e+002, 3.197552e+003
4.263612e+002, 3.198206e+003
4.268433e+002, 3.198725e+003
4.273254e+002, 3.199782e+003
4.278076e+002, 3.201694e+003
4.282897e+002, 3.204265e+003
4.287718e+002, 3.206175e+003
4.292539e+002, 3.207228e+003
4.297360e+002, 3.207834e+003
4.302181e+002, 3.208179e+003
4.307003e+002, 3.208233e+003
4.311824e+002, 3.208053e+003
4.316645e+002, 3.207682e+003
4.321466e+002, 3.207012e+003
4.326287e+002, 3.205466e+003
4.331108e+002, 3.203049e+003
4.335930e+002, 3.201667e+003
4.340751e+002, 3.202889e+003
4.345572e+002, 3.205665e+003
4.350393e+002, 3.206102e+003
4.355214e+002, 3.204186e+003
4.360035e+002, 3.201988e+003
4.364857e+002, 3.201521e+003
4.369678e+002, 3.202206e+003
4.374499e+002, 3.202615e+003
4.379320e+002, 3.202438e+003
4.384141e+002, 3.201857e+003
4.388962e+002, 3.200720e+003
4.393784e+002, 3.199250e+003
4.398605e+002, 3.198130e+003
4.403426e+002, 3.197788e+003
4.408247e+002, 3.197863e+003
4.413068e+002, 3.198138e+003
4.417889e+002, 3.198597e+003
4.422711e+002, 3.198933e+003
4.427532e+002, 3.199660e+003
4.432353e+002, 3.199891e+003
4.437174e+002, 3.198705e+003
4.441995e+002, 3.193842e+003
4.446816e+002, 3.189617e+003
4.451638e+002, 3.187289e+003
4.456459e+002, 3.186626e+003
4.461280e+002, 3.186410e+003
4.466101e+002, 3.187720e+003
4.470922e+002, 3.188410e+003
4.475743e+002, 3.187385e+003
4.480565e+002, 3.183797e+003
4.485386e+002, 3.180683e+003
4.490207e+002, 3.178529e+003
4.495028e+002, 3.176564e+003
4.499849e+002, 3.173714e+003
4.504670e+002, 3.169289e+003
4.509492e+002, 3.165574e+003
4.514313e+002, 3.163411e+003
4.519134e+002, 3.162523e+003
4.523955e+002, 3.160810e+003
4.528776e+002, 3.158281e+003
4.533597e+002, 3.155189e+003
4.538419e+002, 3.151198e+003
4.543240e+002, 3.146408e+003
4.548061e+002, 3.143317e+003
4.552882e+002, 3.142520e+003
4.557703e+002, 3.142523e+003
4.562524e+002, 3.140617e+003
4.567346e+002, 3.137168e+003
4.572167e+002, 3.134856e+003
4.576988e+002, 3.135764e+003
4.581809e+002, 3.138016e+003
4.586630e+002, 3.138304e+003
4.591451e+002, 3.136684e+003
4.596273e+002, 3.134543e+003
4.601094e+002, 3.132792e+003
4.605915e+002, 3.131184e+003
4.610736e+002, 3.129439e+003
4.615557e+002, 3.127513e+003
4.620378e+002, 3.125376e+003
4.625200e+002, 3.122442e+003
4.630021e+002, 3.119340e+003
4.634842e+002, 3.117339e+003
4.639663e+002, 3.118151e+003
4.644484e+002, 3.119176e+003
4.649305e+002, 3.119086e+003
4.654127e+002, 3.117757e+003
4.658948e+002, 3.116711e+003
4.663769e+002, 3.116317e+003
4.668590e+002, 3.116320e+003
4.673411e+002, 3.116547e+003
4.678232e+002, 3.117668e+003
4.683054e+002, 3.118110e+003
4.687875e+002, 3.117405e+003
4.692696e+002, 3.116042e+003
4.697517e+002, 3.115389e+003
4.702338e+002, 3.116268e+003
4.707159e+002, 3.116210e+003
4.711981e+002, 3.113707e+003
4.716802e+002, 3.108557e+003
4.721623e+002, 3.106180e+003
4.726444e+002, 3.107142e+003
4.731265e+002, 3.109357e+003
4.736086e+002, 3.110906e+003
4.740908e+002, 3.111789e+003
4.745729e+002, 3.112617e+003
4.750550e+002, 3.113509e+003
4.755371e+002, 3.114328e+003
4.760192e+002, 3.114701e+003
4.765013e+002, 3.114669e+003
4.769835e+002, 3.114727e+003
4.774656e+002, 3.115787e+003
4.779477e+002, 3.116864e+003
4.784298e+002, 3.115941e+003
4.789119e+002, 3.112870e+003
4.793940e+002, 3.109864e+003
4.798762e+002, 3.108864e+003
4.803583e+002, 3.108917e+003
4.808404e+002, 3.108813e+003
4.813225e+002, 3.108551e+003
4.818046e+002, 3.107648e+003
4.822867e+002, 3.105433e+003
4.827689e+002, 3.102419e+003
4.832510e+002, 3.099870e+003
4.837331e+002, 3.098760e+003
4.842152e+002, 3.097827e+003
4.846973e+002, 3.096577e+003
4.851794e+002, 3.094966e+003
4.856616e+002, 3.093228e+003
4.861437e+002, 3.090586e+003
4.866258e+002, 3.088325e+003
4.871079e+002, 3.087492e+003
4.875900e+002, 3.089146e+003
4.880721e+002, 3.090259e+003
4.885543e+002, 3.090264e+003
4.890364e+002, 3.089580e+003
4.895185e+002, 3.089595e+003
4.900006e+002, 3.090591e+003
4.904827e+002, 3.091188e+003
4.909648e+002, 3.090828e+003
4.914470e+002, 3.089502e+003
4.919291e+002, 3.087006e+003
4.924112e+002, 3.083106e+003
4.928933e+002, 3.079241e+003
4.933754e+002, 3.076961e+003
4.938575e+002, 3.076040e+003
4.943397e+002, 3.075575e+003
4.948218e+002, 3.075670e+003
4.953039e+002, 3.075699e+003
4.957860e+002, 3.074813e+003
4.962681e+002, 3.073153e+003
4.967502e+002, 3.071138e+003
4.972324e+002, 3.067813e+003
4.977145e+002, 3.064969e+003
4.981966e+002, 3.064822e+003
4.986787e+002, 3.067470e+003
4.991608e+002, 3.069733e+003
4.996429e+002, 3.069832e+003
5.001251e+002, 3.068789e+003
5.006072e+002, 3.067451e+003
5.010893e+002, 3.065282e+003
5.015714e+002, 3.063761e+003
5.020535e+002, 3.063904e+003
5.025356e+002, 3.064846e+003
5.030178e+002, 3.064643e+003
5.034999e+002, 3.061477e+003
5.039820e+002, 3.059018e+003
5.044641e+002, 3.058728e+003
5.049462e+002, 3.060792e+003
5.054283e+002, 3.060908e+003
5.059105e+002, 3.058203e+003
5.063926e+002, 3.055023e+003
5.068747e+002, 3.053416e+003
5.073568e+002, 3.053817e+003
5.078389e+002, 3.052799e+003
5.083210e+002, 3.049480e+003
5.088032e+002, 3.045683e+003
5.092853e+002, 3.044881e+003
5.097674e+002, 3.046900e+003
5.102495e+002, 3.049139e+003
5.107316e+002, 3.050852e+003
5.112137e+002, 3.051883e+003
5.116959e+002, 3.051574e+003
5.121780e+002, 3.049989e+003
5.126601e+002, 3.048415e+003
5.131422e+002, 3.047645e+003
5.136243e+002, 3.047465e+003
5.141064e+002, 3.048051e+003
5.145886e+002, 3.050035e+003
5.150707e+002, 3.050601e+003
5.155528e+002, 3.046059e+003
5.160349e+002, 3.039548e+003
5.165170e+002, 3.035526e+003
5.169991e+002, 3.039102e+003
5.174813e+002, 3.041740e+003
5.179634e+002, 3.039327e+003
5.184455e+002, 3.032715e+003
5.189276e+002, 3.028997e+003
5.194097e+002, 3.033011e+003
5.198918e+002, 3.036595e+003
5.203740e+002, 3.035913e+003
5.208561e+002, 3.028531e+003
5.213382e+002, 3.024939e+003
5.218203e+002, 3.026446e+003
5.223024e+002, 3.030132e+003
5.227845e+002, 3.032968e+003
5.232667e+002, 3.034964e+003
5.237488e+002, 3.035559e+003
5.242309e+002, 3.034048e+003
5.247130e+002, 3.031547e+003
5.251951e+002, 3.031176e+003
5.256772e+002, 3.032891e+003
5.261594e+002, 3.034579e+003
5.266415e+002, 3.035688e+003
5.271236e+002, 3.035844e+003
5.276057e+002, 3.033506e+003
5.280878e+002, 3.028636e+003
5.285699e+002, 3.024121e+003
5.290521e+002, 3.022895e+003
5.295342e+002, 3.023370e+003
5.300163e+002, 3.023444e+003
5.304984e+002, 3.022357e+003
5.309805e+002, 3.021209e+003
5.314626e+002, 3.020318e+003
5.319448e+002, 3.019818e+003
5.324269e+002, 3.019971e+003
5.329090e+002, 3.021889e+003
5.333911e+002, 3.023392e+003
5.338732e+002, 3.023382e+003
5.343553e+002, 3.021720e+003
5.348375e+002, 3.020839e+003
5.353196e+002, 3.021735e+003
5.358017e+002, 3.022375e+003
5.362838e+002, 3.021438e+003
5.367659e+002, 3.017883e+003
5.372480e+002, 3.015520e+003
5.377302e+002, 3.014602e+003
5.382123e+002, 3.014521e+003
5.386944e+002, 3.014787e+003
5.391765e+002, 3.015518e+003
5.396586e+002, 3.015106e+003
5.401407e+002, 3.012853e+003
5.406229e+002, 3.009512e+003
5.411050e+002, 3.007067e+003
5.415871e+002, 3.005441e+003
5.420692e+002, 3.003468e+003
5.425513e+002, 2.999987e+003
5.430334e+002, 2.995917e+003
5.435156e+002, 2.992741e+003
5.439977e+002, 2.990616e+003
5.444798e+002, 2.988667e+003
5.449619e+002, 2.985293e+003
5.454440e+002, 2.982204e+003
5.459261e+002, 2.981393e+003
5.464083e+002, 2.985322e+003
5.468904e+002, 2.988703e+003
5.473725e+002, 2.989089e+003
5.478546e+002, 2.987618e+003
5.483367e+002, 2.986791e+003
5.488188e+002, 2.987007e+003
5.493010e+002, 2.987782e+003
5.497831e+002, 2.989486e+003
5.502652e+002, 2.992059e+003
5.507473e+002, 2.992716e+003
5.512294e+002, 2.990869e+003
5.517115e+002, 2.988105e+003
5.521937e+002, 2.985112e+003
5.526758e+002, 2.981798e+003
5.531579e+002, 2.979877e+003
5.536400e+002, 2.979963e+003
5.541221e+002, 2.980137e+003
5.546042e+002, 2.976964e+003
5.550864e+002, 2.971149e+003
5.555685e+002, 2.967018e+003
5.560506e+002, 2.966234e+003
5.565327e+002, 2.967326e+003
5.570148e+002, 2.968932e+003
5.574969e+002, 2.970784e+003
5.579791e+002, 2.971952e+003
5.584612e+002, 2.971601e+003
5.589433e+002, 2.970479e+003
5.594254e+002, 2.969113e+003
5.599075e+002, 2.967519e+003
5.603896e+002, 2.965717e+003
5.608718e+002, 2.963313e+003
5.613539e+002, 2.960972e+003
5.618360e+002, 2.959262e+003
5.623181e+002, 2.959630e+003
5.628002e+002, 2.958583e+003
5.632823e+002, 2.954978e+003
5.637645e+002, 2.950390e+003
5.642466e+002, 2.947268e+003
5.647287e+002, 2.946349e+003
5.652108e+002, 2.945430e+003
5.656929e+002, 2.943972e+003
5.661750e+002, 2.942159e+003
5.666572e+002, 2.940503e+003
5.671393e+002, 2.938887e+003
5.676214e+002, 2.938223e+003
5.681035e+002, 2.940005e+003
5.685856e+002, 2.943253e+003
5.690677e+002, 2.943876e+003
5.695499e+002, 2.941562e+003
5.700320e+002, 2.938855e+003
5.705141e+002, 2.938243e+003
5.709962e+002, 2.938796e+003
5.714783e+002, 2.939046e+003
5.719604e+002, 2.938613e+003
5.724426e+002, 2.937823e+003
5.729247e+002, 2.936677e+003
5.734068e+002, 2.935368e+003
5.738889e+002, 2.934219e+003
5.743710e+002, 2.934565e+003
5.748531e+002, 2.933933e+003
5.753353e+002, 2.930687e+003
5.758174e+002, 2.925140e+003
5.762995e+002, 2.921479e+003
5.767816e+002, 2.921038e+003
5.772637e+002, 2.921095e+003
5.777458e+002, 2.920318e+003
5.782280e+002, 2.918319e+003
5.787101e+002, 2.917755e+003
5.791922e+002, 2.919124e+003
5.796743e+002, 2.920824e+003
5.801564e+002, 2.921187e+003
5.806385e+002, 2.920259e+003
5.811207e+002, 2.918799e+003
5.816028e+002, 2.916692e+003
5.820849e+002, 2.914656e+003
5.825670e+002, 2.914121e+003
5.830491e+002, 2.914639e+003
5.835313e+002, 2.914751e+003
5.840134e+002, 2.912691e+003
5.844955e+002, 2.910683e+003
5.849776e+002, 2.911370e+003
5.854597e+002, 2.914241e+003
5.859418e+002, 2.916361e+003
5.864240e+002, 2.916458e+003
5.869061e+002, 2.915302e+003
5.873882e+002, 2.912968e+003
5.878703e+002, 2.908907e+003
5.883524e+002, 2.905868e+003
5.888345e+002, 2.904131e+003
5.893167e+002, 2.903563e+003
5.897988e+002, 2.904300e+003
5.902809e+002, 2.907411e+003
5.907630e+002, 2.909481e+003
5.912451e+002, 2.910575e+003
5.917272e+002, 2.910232e+003
5.922094e+002, 2.906505e+003
5.926915e+002, 2.899092e+003
5.931736e+002, 2.893818e+003
5.936557e+002, 2.893411e+003
5.941378e+002, 2.895946e+003
5.946199e+002, 2.897052e+003
5.951021e+002, 2.896842e+003
5.955842e+002, 2.896252e+003
5.960663e+002, 2.896130e+003
5.965484e+002, 2.895839e+003
5.970305e+002, 2.894181e+003
5.975126e+002, 2.890992e+003
5.979948e+002, 2.888611e+003
5.984769e+002, 2.889503e+003
5.989590e+002, 2.891156e+003
5.994411e+002, 2.891392e+003
5.999232e+002, 2.889011e+003
6.004053e+002, 2.886505e+003
6.008875e+002, 2.883781e+003
6.013696e+002, 2.881323e+003
6.018517e+002, 2.879944e+003
6.023338e+002, 2.880472e+003
6.028159e+002, 2.880464e+003
6.032980e+002, 2.879289e+003
6.037802e+002, 2.877318e+003
6.042623e+002, 2.875828e+003
6.047444e+002, 2.874854e+003
6.052265e+002, 2.874070e+003
6.057086e+002, 2.872975e+003
6.061907e+002, 2.871902e+003
6.066729e+002, 2.872491e+003
6.071550e+002, 2.874673e+003
6.076371e+002, 2.876470e+003
6.081192e+002, 2.875825e+003
6.086013e+002, 2.874003e+003
6.090834e+002, 2.872792e+003
6.095656e+002, 2.872716e+003
6.100477e+002, 2.872262e+003
6.105298e+002, 2.869675e+003
6.110119e+002, 2.866701e+003
6.114940e+002, 2.865282e+003
6.119761e+002, 2.868399e+003
6.124583e+002, 2.870225e+003
6.129404e+002, 2.869495e+003
6.134225e+002, 2.867082e+003
6.139046e+002, 2.864623e+003
6.143867e+002, 2.861828e+003
6.148688e+002, 2.859790e+003
6.153510e+002, 2.858920e+003
6.158331e+002, 2.859058e+003
6.163152e+002, 2.859103e+003
6.167973e+002, 2.858939e+003
6.172794e+002, 2.859292e+003
6.177615e+002, 2.861183e+003
6.182437e+002, 2.863833e+003
6.187258e+002, 2.865245e+003
6.192079e+002, 2.865263e+003
6.196900e+002, 2.864210e+003
6.201721e+002, 2.861477e+003
6.206542e+002, 2.858147e+003
6.211364e+002, 2.855596e+003
6.216185e+002, 2.854176e+003
6.221006e+002, 2.853437e+003
6.225827e+002, 2.854600e+003
6.230648e+002, 2.855946e+003
6.235469e+002, 2.855064e+003
6.240291e+002, 2.848523e+003
6.245112e+002, 2.843582e+003
6.249933e+002, 2.842340e+003
6.254754e+002, 2.843450e+003
6.259575e+002, 2.841948e+003
6.264396e+002, 2.836718e+003
6.269218e+002, 2.832270e+003
6.274039e+002, 2.830436e+003
6.278860e+002, 2.830880e+003
6.283681e+002, 2.831918e+003
6.288502e+002, 2.833585e+003
6.293323e+002, 2.834768e+003
6.298145e+002, 2.834243e+003
6.302966e+002, 2.832720e+003
6.307787e+002, 2.831619e+003
6.312608e+002, 2.831091e+003
6.317429e+002, 2.830414e+003
6.322250e+002, 2.828669e+003
6.327072e+002, 2.826625e+003
6.331893e+002, 2.825124e+003
6.336714e+002, 2.824838e+003
6.341535e+002, 2.824290e+003
6.346356e+002, 2.822551e+003
6.351177e+002, 2.820453e+003
6.355999e+002, 2.819368e+003
6.360820e+002, 2.820507e+003
6.365641e+002, 2.820704e+003
6.370462e+002, 2.819192e+003
6.375283e+002, 2.816466e+003
6.380104e+002, 2.814101e+003
6.384926e+002, 2.812115e+003
6.389747e+002, 2.810366e+003
6.394568e+002, 2.808830e+003
6.399389e+002, 2.807500e+003
6.404210e+002, 2.806262e+003
6.409031e+002, 2.805151e+003
6.413853e+002, 2.804461e+003
6.418674e+002, 2.804923e+003
6.423495e+002, 2.805700e+003
6.428316e+002, 2.805798e+003
6.433137e+002, 2.805090e+003
6.437958e+002, 2.803938e+003
6.442780e+002, 2.801552e+003
6.447601e+002, 2.799302e+003
6.452422e+002, 2.798446e+003
6.457243e+002, 2.800459e+003
6.462064e+002, 2.801846e+003
6.466885e+002, 2.802055e+003
6.471707e+002, 2.801721e+003
6.476528e+002, 2.801798e+003
6.481349e+002, 2.802634e+003
6.486170e+002, 2.802523e+003
6.490991e+002, 2.800758e+003
6.495812e+002, 2.798227e+003
6.500634e+002, 2.797233e+003
6.505455e+002, 2.797647e+003
6.510276e+002, 2.797742e+003
6.515097e+002, 2.796060e+003
6.519918e+002, 2.793993e+003
6.524739e+002, 2.793996e+003
6.529561e+002, 2.795739e+003
6.534382e+002, 2.797465e+003
6.539203e+002, 2.798689e+003
6.544024e+002, 2.799109e+003
6.548845e+002, 2.798371e+003
6.553666e+002, 2.796369e+003
6.558488e+002, 2.794073e+003
6.563309e+002, 2.790838e+003
6.568130e+002, 2.788060e+003
6.572951e+002, 2.786670e+003
6.577772e+002, 2.787367e+003
6.582593e+002, 2.787558e+003
6.587415e+002, 2.787031e+003
6.592236e+002, 2.786352e+003
6.597057e+002, 2.786190e+003
6.601878e+002, 2.786533e+003
6.606699e+002, 2.786953e+003
6.611520e+002, 2.787397e+003
6.616342e+002, 2.787808e+003
6.621163e+002, 2.788297e+003
6.625984e+002, 2.788688e+003
6.630805e+002, 2.788518e+003
6.635626e+002, 2.787479e+003
6.640447e+002, 2.785910e+003
6.645269e+002, 2.783505e+003
6.650090e+002, 2.780698e+003
6.654911e+002, 2.778707e+003
6.659732e+002, 2.778970e+003
6.664553e+002, 2.779089e+003
6.669374e+002, 2.777732e+003
6.674196e+002, 2.775093e+003
6.679017e+002, 2.774247e+003
6.683838e+002, 2.776320e+003
6.688659e+002, 2.778165e+003
6.693480e+002, 2.778094e+003
6.698301e+002, 2.776154e+003
6.703123e+002, 2.774272e+003
6.707944e+002, 2.772418e+003
6.712765e+002, 2.770866e+003
6.717586e+002, 2.769714e+003
6.722407e+002, 2.769022e+003
6.727228e+002, 2.769164e+003
6.732050e+002, 2.770323e+003
6.736871e+002, 2.771211e+003
6.741692e+002, 2.770329e+003
6.746513e+002, 2.768800e+003
6.751334e+002, 2.767950e+003
6.756155e+002, 2.768328e+003
6.760977e+002, 2.768981e+003
6.765798e+002, 2.770752e+003
6.770619e+002, 2.772282e+003
6.775440e+002, 2.771274e+003
6.780261e+002, 2.765684e+003
6.785082e+002, 2.762055e+003
6.789904e+002, 2.761973e+003
6.794725e+002, 2.764267e+003
6.799546e+002, 2.766126e+003
6.804367e+002, 2.767553e+003
6.809188e+002, 2.768609e+003
6.814009e+002, 2.769906e+003
6.818831e+002, 2.770493e+003
6.823652e+002, 2.767554e+003
6.828473e+002, 2.761848e+003
6.833294e+002, 2.757211e+003
6.838115e+002, 2.756492e+003
6.842936e+002, 2.757183e+003
6.847758e+002, 2.757554e+003
6.852579e+002, 2.757479e+003
6.857400e+002, 2.757525e+003
6.862221e+002, 2.757713e+003
6.867042e+002, 2.758143e+003
6.871863e+002, 2.758825e+003
6.876685e+002, 2.759708e+003
6.881506e+002, 2.761084e+003
6.886327e+002, 2.763218e+003
6.891148e+002, 2.765274e+003
6.895969e+002, 2.766574e+003
6.900790e+002, 2.767102e+003
6.905612e+002, 2.766684e+003
6.910433e+002, 2.765064e+003
6.915254e+002, 2.763473e+003
6.920075e+002, 2.764048e+003
6.924896e+002, 2.765540e+003
6.929717e+002, 2.765562e+003
6.934539e+002, 2.762831e+003
6.939360e+002, 2.759724e+003
6.944181e+002, 2.757768e+003
6.949002e+002, 2.756310e+003
6.953823e+002, 2.754332e+003
6.958644e+002, 2.750646e+003
6.963466e+002, 2.747772e+003
6.968287e+002, 2.746409e+003
6.973108e+002, 2.746083e+003
6.977929e+002, 2.745513e+003
6.982750e+002, 2.744622e+003
6.987571e+002, 2.744167e+003
6.992393e+002, 2.744901e+003
6.997214e+002, 2.746019e+003
7.002035e+002, 2.744414e+003
7.006856e+002, 2.740423e+003
7.011677e+002, 2.736954e+003
7.016498e+002, 2.735888e+003
7.021320e+002, 2.736110e+003
7.026141e+002, 2.736364e+003
7.030962e+002, 2.736647e+003
7.035783e+002, 2.737468e+003
7.040604e+002, 2.740055e+003
7.045425e+002, 2.742345e+003
7.050247e+002, 2.742902e+003
7.055068e+002, 2.741163e+003
7.059889e+002, 2.739942e+003
7.064710e+002, 2.739357e+003
7.069531e+002, 2.739085e+003
7.074352e+002, 2.739114e+003
7.079174e+002, 2.739539e+003
7.083995e+002, 2.739085e+003
7.088816e+002, 2.737618e+003
7.093637e+002, 2.735915e+003
7.098458e+002, 2.734786e+003
7.103279e+002, 2.734086e+003
7.108101e+002, 2.733437e+003
7.112922e+002, 2.732861e+003
7.117743e+002, 2.732157e+003
7.122564e+002, 2.731161e+003
7.127385e+002, 2.730007e+003
7.132206e+002, 2.728851e+003
7.137028e+002, 2.728042e+003
7.141849e+002, 2.726880e+003
7.146670e+002, 2.724292e+003
7.151491e+002, 2.721702e+003
7.156312e+002, 2.721358e+003
7.161133e+002, 2.724579e+003
7.165955e+002, 2.726143e+003
7.170776e+002, 2.724502e+003
7.175597e+002, 2.721456e+003
7.180418e+002, 2.721307e+003
7.185239e+002, 2.723696e+003
7.190060e+002, 2.725285e+003
7.194882e+002, 2.724195e+003
7.199703e+002, 2.722185e+003
7.204524e+002, 2.721158e+003
7.209345e+002, 2.720965e+003
7.214166e+002, 2.721191e+003
7.218987e+002, 2.722286e+003
7.223809e+002, 2.723120e+003
7.228630e+002, 2.722960e+003
7.233451e+002, 2.721924e+003
7.238272e+002, 2.721169e+003
7.243093e+002, 2.721117e+003
7.247914e+002, 2.720867e+003
7.252736e+002, 2.720056e+003
7.257557e+002, 2.718766e+003
7.262378e+002, 2.717788e+003
7.267199e+002, 2.717203e+003
7.272020e+002, 2.716474e+003
7.276841e+002, 2.714561e+003
7.281663e+002, 2.712436e+003
7.286484e+002, 2.713024e+003
7.291305e+002, 2.716284e+003
7.296126e+002, 2.718579e+003
7.300947e+002, 2.716592e+003
7.305768e+002, 2.713171e+003
7.310590e+002, 2.710422e+003
7.315411e+002, 2.708594e+003
7.320232e+002, 2.707423e+003
7.325053e+002, 2.707274e+003
7.329874e+002, 2.707367e+003
7.334695e+002, 2.707216e+003
7.339517e+002, 2.706687e+003
7.344338e+002, 2.706241e+003
7.349159e+002, 2.705867e+003
7.353980e+002, 2.705528e+003
7.358801e+002, 2.705348e+003
7.363622e+002, 2.705212e+003
7.368444e+002, 2.704587e+003
7.373265e+002, 2.703371e+003
7.378086e+002, 2.701913e+003
7.382907e+002, 2.700374e+003
7.387728e+002, 2.698930e+003
7.392549e+002, 2.697846e+003
7.397371e+002, 2.697528e+003
7.402192e+002, 2.697089e+003
7.407013e+002, 2.695447e+003
7.411834e+002, 2.693959e+003
7.416655e+002, 2.694614e+003
7.421476e+002, 2.699137e+003
7.426298e+002, 2.701339e+003
7.431119e+002, 2.699480e+003
7.435940e+002, 2.696217e+003
7.440761e+002, 2.696911e+003
7.445582e+002, 2.701089e+003
7.450403e+002, 2.704405e+003
7.455225e+002, 2.705516e+003
7.460046e+002, 2.705155e+003
7.464867e+002, 2.703426e+003
7.469688e+002, 2.700958e+003
7.474509e+002, 2.699159e+003
7.479330e+002, 2.699336e+003
7.484152e+002, 2.699526e+003
7.488973e+002, 2.699692e+003
7.493794e+002, 2.699319e+003
7.498615e+002, 2.696650e+003
7.503436e+002, 2.689260e+003
7.508257e+002, 2.684151e+003
7.513079e+002, 2.683941e+003
7.517900e+002, 2.687012e+003
7.522721e+002, 2.687300e+003
7.527542e+002, 2.684844e+003
7.532363e+002, 2.682429e+003
7.537184e+002, 2.681662e+003
7.542006e+002, 2.681637e+003
7.546827e+002, 2.680800e+003
7.551648e+002, 2.679384e+003
7.556469e+002, 2.678365e+003
7.561290e+002, 2.678528e+003
7.566111e+002, 2.678948e+003
7.570933e+002, 2.679506e+003
7.575754e+002, 2.680075e+003
7.580575e+002, 2.679237e+003
7.585396e+002, 2.675650e+003
7.590217e+002, 2.672569e+003
7.595038e+002, 2.671500e+003
7.599860e+002, 2.672185e+003
7.604681e+002, 2.671147e+003
7.609502e+002, 2.668136e+003
7.614323e+002, 2.666286e+003
7.619144e+002, 2.668772e+003
7.623965e+002, 2.673416e+003
7.628787e+002, 2.676553e+003
7.633608e+002, 2.678061e+003
7.638429e+002, 2.678313e+003
7.643250e+002, 2.676570e+003
7.648071e+002, 2.674355e+003
7.652892e+002, 2.672751e+003
7.657714e+002, 2.671936e+003
7.662535e+002, 2.670897e+003
7.667356e+002, 2.668884e+003
7.672177e+002, 2.667565e+003
7.676998e+002, 2.668270e+003
7.681819e+002, 2.671219e+003
7.686641e+002, 2.672520e+003
7.691462e+002, 2.672031e+003
7.696283e+002, 2.670983e+003
7.701104e+002, 2.669717e+003
7.705925e+002, 2.668811e+003
7.710746e+002, 2.670065e+003
7.715568e+002, 2.673749e+003
7.720389e+002, 2.676243e+003
7.725210e+002, 2.673795e+003
7.730031e+002, 2.670218e+003
7.734852e+002, 2.668604e+003
7.739673e+002, 2.670166e+003
7.744495e+002, 2.670977e+003
7.749316e+002, 2.670711e+003
7.754137e+002, 2.669825e+003
7.758958e+002, 2.668459e+003
7.763779e+002, 2.666526e+003
7.768600e+002, 2.665332e+003
7.773422e+002, 2.665046e+003
7.778243e+002, 2.664769e+003
7.783064e+002, 2.663399e+003
7.787885e+002, 2.661479e+003
7.792706e+002, 2.660102e+003
7.797527e+002, 2.659580e+003
7.802349e+002, 2.658988e+003
7.807170e+002, 2.657266e+003
7.811991e+002, 2.655588e+003
7.816812e+002, 2.655167e+003
7.821633e+002, 2.658082e+003
7.826454e+002, 2.658343e+003
7.831276e+002, 2.654272e+003
7.836097e+002, 2.649571e+003
7.840918e+002, 2.648107e+003
7.845739e+002, 2.649929e+003
7.850560e+002, 2.652105e+003
7.855381e+002, 2.654649e+003
7.860203e+002, 2.655824e+003
7.865024e+002, 2.651499e+003
7.869845e+002, 2.645056e+003
7.874666e+002, 2.642683e+003
7.879487e+002, 2.646864e+003
7.884308e+002, 2.651484e+003
7.889130e+002, 2.653888e+003
7.893951e+002, 2.655048e+003
7.898772e+002, 2.655964e+003
7.903593e+002, 2.656812e+003
7.908414e+002, 2.657009e+003
7.913235e+002, 2.655771e+003
7.918057e+002, 2.654909e+003
7.922878e+002, 2.657344e+003
7.927699e+002, 2.662783e+003
7.932520e+002, 2.666272e+003
7.937341e+002, 2.666962e+003
7.942162e+002, 2.666261e+003
7.946984e+002, 2.664946e+003
7.951805e+002, 2.663498e+003
7.956626e+002, 2.662710e+003
7.961447e+002, 2.662913e+003
7.966268e+002, 2.663481e+003
7.971089e+002, 2.664673e+003
7.975911e+002, 2.665914e+003
7.980732e+002, 2.666611e+003
7.985553e+002, 2.666810e+003
7.990374e+002, 2.666314e+003
7.995195e+002, 2.664743e+003
8.000016e+002, 2.663253e+003
8.004838e+002, 2.663842e+003
8.009659e+002, 2.666043e+003
8.014480e+002, 2.666999e+003
8.019301e+002, 2.666071e+003
8.024122e+002, 2.664372e+003
8.028943e+002, 2.661692e+003
8.033765e+002, 2.659417e+003
8.038586e+002, 2.659524e+003
8.043407e+002, 2.664428e+003
8.048228e+002, 2.668200e+003
8.053049e+002, 2.668829e+003
8.057870e+002, 2.668185e+003
8.062692e+002, 2.667887e+003
8.067513e+002, 2.667745e+003
8.072334e+002, 2.668843e+003
8.077155e+002, 2.671659e+003
8.081976e+002, 2.674469e+003
8.086797e+002, 2.674995e+003
8.091619e+002, 2.673656e+003
8.096440e+002, 2.671309e+003
8.101261e+002, 2.667574e+003
8.106082e+002, 2.665007e+003
8.110903e+002, 2.666887e+003
8.115724e+002, 2.670340e+003
8.120546e+002, 2.672202e+003
8.125367e+002, 2.670665e+003
8.130188e+002, 2.669603e+003
8.135009e+002, 2.669921e+003
8.139830e+002, 2.670165e+003
8.144651e+002, 2.668293e+003
8.149473e+002, 2.664101e+003
8.154294e+002, 2.661751e+003
8.159115e+002, 2.661848e+003
8.163936e+002, 2.663060e+003
8.168757e+002, 2.664708e+003
8.173578e+002, 2.666164e+003
8.178400e+002, 2.666111e+003
8.183221e+002, 2.663781e+003
8.188042e+002, 2.661546e+003
8.192863e+002, 2.659731e+003
8.197684e+002, 2.658931e+003
8.202505e+002, 2.659945e+003
8.207327e+002, 2.664089e+003
8.212148e+002, 2.666792e+003
8.216969e+002, 2.667785e+003
8.221790e+002, 2.667671e+003
8.226611e+002, 2.666617e+003
8.231432e+002, 2.664824e+003
8.236254e+002, 2.663864e+003
8.241075e+002, 2.663929e+003
8.245896e+002, 2.664397e+003
8.250717e+002, 2.664950e+003
8.255538e+002, 2.665482e+003
8.260359e+002, 2.666092e+003
8.265181e+002, 2.667257e+003
8.270002e+002, 2.667024e+003
8.274823e+002, 2.662761e+003
8.279644e+002, 2.658845e+003
8.284465e+002, 2.658490e+003
8.289286e+002, 2.662792e+003
8.294108e+002, 2.665589e+003
8.298929e+002, 2.666708e+003
8.303750e+002, 2.667246e+003
8.308571e+002, 2.667885e+003
8.313392e+002, 2.668800e+003
8.318214e+002, 2.670355e+003
8.323035e+002, 2.672583e+003
8.327856e+002, 2.675328e+003
8.332677e+002, 2.677883e+003
8.337498e+002, 2.681274e+003
8.342319e+002, 2.686633e+003
8.347141e+002, 2.694843e+003
8.351962e+002, 2.701382e+003
8.356783e+002, 2.705322e+003
8.361604e+002, 2.708980e+003
8.366425e+002, 2.713922e+003
8.371246e+002, 2.720016e+003
8.376068e+002, 2.725147e+003
8.380889e+002, 2.729285e+003
8.385710e+002, 2.734433e+003
8.390531e+002, 2.744046e+003
8.395352e+002, 2.754312e+003
8.400173e+002, 2.760857e+003
8.404995e+002, 2.763489e+003
8.409816e+002, 2.765433e+003
8.414637e+002, 2.769208e+003
8.419458e+002, 2.771034e+003
8.424279e+002, 2.769153e+003
8.429100e+002, 2.763604e+003
8.433922e+002, 2.757147e+003
8.438743e+002, 2.749842e+003
8.443564e+002, 2.741151e+003
8.448385e+002, 2.730208e+003
8.453206e+002, 2.717720e+003
8.458027e+002, 2.705712e+003
8.462849e+002, 2.693936e+003
8.467670e+002, 2.681291e+003
8.472491e+002, 2.665292e+003
8.477312e+002, 2.650002e+003
8.482133e+002, 2.637934e+003
8.486954e+002, 2.628966e+003
8.491776e+002, 2.620695e+003
8.496597e+002, 2.613480e+003
8.501418e+002, 2.605997e+003
8.506239e+002, 2.597451e+003
8.511060e+002, 2.588635e+003
8.515881e+002, 2.582609e+003
8.520703e+002, 2.579126e+003
8.525524e+002, 2.575958e+003
8.530345e+002, 2.571328e+003
8.535166e+002, 2.567175e+003
8.539987e+002, 2.565850e+003
8.544808e+002, 2.566342e+003
8.549630e+002, 2.566117e+003
8.554451e+002, 2.563372e+003
8.559272e+002, 2.561028e+003
8.564093e+002, 2.559634e+003
8.568914e+002, 2.558943e+003
8.573735e+002, 2.558503e+003
8.578557e+002, 2.558336e+003
8.583378e+002, 2.557885e+003
8.588199e+002, 2.556991e+003
8.593020e+002, 2.555773e+003
8.597841e+002, 2.554858e+003
8.602662e+002, 2.553720e+003
8.607484e+002, 2.551139e+003
8.612305e+002, 2.544781e+003
8.617126e+002, 2.539859e+003
8.621947e+002, 2.539115e+003
8.626768e+002, 2.540728e+003
8.631589e+002, 2.542243e+003
8.636411e+002, 2.544331e+003
8.641232e+002, 2.544102e+003
8.646053e+002, 2.540559e+003
8.650874e+002, 2.536423e+003
8.655695e+002, 2.536280e+003
8.660516e+002, 2.538516e+003
8.665338e+002, 2.537472e+003
8.670159e+002, 2.531352e+003
8.674980e+002, 2.525659e+003
8.679801e+002, 2.524349e+003
8.684622e+002, 2.525296e+003
8.689443e+002, 2.526573e+003
8.694265e+002, 2.528581e+003
8.699086e+002, 2.529250e+003
8.703907e+002, 2.528394e+003
8.708728e+002, 2.526521e+003
8.713549e+002, 2.523250e+003
8.718370e+002, 2.518884e+003
8.723192e+002, 2.517610e+003
8.728013e+002, 2.519615e+003
8.732834e+002, 2.521976e+003
8.737655e+002, 2.523294e+003
8.742476e+002, 2.523101e+003
8.747297e+002, 2.519880e+003
8.752119e+002, 2.513365e+003
8.756940e+002, 2.509176e+003
8.761761e+002, 2.510893e+003
8.766582e+002, 2.512941e+003
8.771403e+002, 2.513328e+003
8.776224e+002, 2.512113e+003
8.781046e+002, 2.509701e+003
8.785867e+002, 2.506015e+003
8.790688e+002, 2.503163e+003
8.795509e+002, 2.503083e+003
8.800330e+002, 2.504297e+003
8.805151e+002, 2.505188e+003
8.809973e+002, 2.505652e+003
8.814794e+002, 2.505249e+003
8.819615e+002, 2.503067e+003
8.824436e+002, 2.500823e+003
8.829257e+002, 2.499275e+003
8.834078e+002, 2.498167e+003
8.838900e+002, 2.496548e+003
8.843721e+002, 2.494256e+003
8.848542e+002, 2.492225e+003
8.853363e+002, 2.490525e+003
8.858184e+002, 2.489510e+003
8.863005e+002, 2.490172e+003
8.867827e+002, 2.492000e+003
8.872648e+002, 2.493739e+003
8.877469e+002, 2.495174e+003
8.882290e+002, 2.495999e+003
8.887111e+002, 2.496078e+003
8.891932e+002, 2.495417e+003
8.896754e+002, 2.493917e+003
8.901575e+002, 2.490828e+003
8.906396e+002, 2.489241e+003
8.911217e+002, 2.490054e+003
8.916038e+002, 2.490898e+003
8.920859e+002, 2.487844e+003
8.925681e+002, 2.482399e+003
8.930502e+002, 2.479252e+003
8.935323e+002, 2.479335e+003
8.940144e+002, 2.480631e+003
8.944965e+002, 2.482976e+003
8.949786e+002, 2.485115e+003
8.954608e+002, 2.485893e+003
8.959429e+002, 2.484812e+003
8.964250e+002, 2.483539e+003
8.969071e+002, 2.481744e+003
8.973892e+002, 2.480400e+003
8.978713e+002, 2.480711e+003
8.983535e+002, 2.482200e+003
8.988356e+002, 2.481594e+003
8.993177e+002, 2.479045e+003
8.997998e+002, 2.477135e+003
9.002819e+002, 2.478904e+003
9.007640e+002, 2.480907e+003
9.012462e+002, 2.480026e+003
9.017283e+002, 2.476530e+003
9.022104e+002, 2.474391e+003
9.026925e+002, 2.475604e+003
9.031746e+002, 2.475508e+003
9.036567e+002, 2.471958e+003
9.041389e+002, 2.466591e+003
9.046210e+002, 2.465033e+003
9.051031e+002, 2.466878e+003
9.055852e+002, 2.468351e+003
9.060673e+002, 2.467647e+003
9.065494e+002, 2.466285e+003
9.070316e+002, 2.465626e+003
9.075137e+002, 2.465271e+003
9.079958e+002, 2.464507e+003
9.084779e+002, 2.462080e+003
9.089600e+002, 2.460788e+003
9.094421e+002, 2.461436e+003
9.099243e+002, 2.462673e+003
9.104064e+002, 2.462640e+003
9.108885e+002, 2.461399e+003
9.113706e+002, 2.460106e+003
9.118527e+002, 2.458979e+003
9.123348e+002, 2.457585e+003
9.128170e+002, 2.454768e+003
9.132991e+002, 2.451865e+003
9.137812e+002, 2.450672e+003
9.142633e+002, 2.452113e+003
9.147454e+002, 2.452597e+003
9.152275e+002, 2.450714e+003
9.157097e+002, 2.448833e+003
9.161918e+002, 2.448577e+003
9.166739e+002, 2.449906e+003
9.171560e+002, 2.449925e+003
9.176381e+002, 2.448622e+003
9.181202e+002, 2.447109e+003
9.186024e+002, 2.445892e+003
9.190845e+002, 2.445039e+003
9.195666e+002, 2.444950e+003
9.200487e+002, 2.445406e+003
9.205308e+002, 2.445244e+003
9.210129e+002, 2.443603e+003
9.214951e+002, 2.441832e+003
9.219772e+002, 2.440060e+003
9.224593e+002, 2.438440e+003
9.229414e+002, 2.437656e+003
9.234235e+002, 2.437675e+003
9.239056e+002, 2.437339e+003
9.243878e+002, 2.436078e+003
9.248699e+002, 2.434649e+003
9.253520e+002, 2.434165e+003
9.258341e+002, 2.434016e+003
9.263162e+002, 2.433215e+003
9.267983e+002, 2.430958e+003
9.272805e+002, 2.428860e+003
9.277626e+002, 2.427035e+003
9.282447e+002, 2.425558e+003
9.287268e+002, 2.424782e+003
9.292089e+002, 2.424762e+003
9.296910e+002, 2.423622e+003
9.301732e+002, 2.421138e+003
9.306553e+002, 2.419186e+003
9.311374e+002, 2.420215e+003
9.316195e+002, 2.422304e+003
9.321016e+002, 2.423150e+003
9.325837e+002, 2.422417e+003
9.330659e+002, 2.422160e+003
9.335480e+002, 2.423858e+003
9.340301e+002, 2.424786e+003
9.345122e+002, 2.423538e+003
9.349943e+002, 2.420461e+003
9.354764e+002, 2.417928e+003
9.359586e+002, 2.415889e+003
9.364407e+002, 2.415147e+003
9.369228e+002, 2.417137e+003
9.374049e+002, 2.419547e+003
9.378870e+002, 2.420013e+003
9.383691e+002, 2.419043e+003
9.388513e+002, 2.417803e+003
9.393334e+002, 2.416257e+003
9.398155e+002, 2.415081e+003
9.402976e+002, 2.414874e+003
9.407797e+002, 2.414688e+003
9.412618e+002, 2.412734e+003
9.417440e+002, 2.409211e+003
9.422261e+002, 2.406222e+003
9.427082e+002, 2.404063e+003
9.431903e+002, 2.402828e+003
9.436724e+002, 2.402956e+003
9.441545e+002, 2.403831e+003
9.446367e+002, 2.404957e+003
9.451188e+002, 2.406428e+003
9.456009e+002, 2.407118e+003
9.460830e+002, 2.406807e+003
9.465651e+002, 2.405779e+003
9.470472e+002, 2.403891e+003
9.475294e+002, 2.401250e+003
9.480115e+002, 2.399527e+003
9.484936e+002, 2.398588e+003
9.489757e+002, 2.397209e+003
9.494578e+002, 2.393688e+003
9.499399e+002, 2.390288e+003
9.504221e+002, 2.389373e+003
9.509042e+002, 2.390243e+003
9.513863e+002, 2.389946e+003
9.518684e+002, 2.387983e+003
9.523505e+002, 2.385475e+003
9.528326e+002, 2.382469e+003
9.533148e+002, 2.379419e+003
9.537969e+002, 2.377276e+003
9.542790e+002, 2.375870e+003
9.547611e+002, 2.374260e+003
9.552432e+002, 2.372118e+003
9.557253e+002, 2.370164e+003
9.562075e+002, 2.368564e+003
9.566896e+002, 2.367571e+003
9.571717e+002, 2.367531e+003
9.576538e+002, 2.368800e+003
9.581359e+002, 2.369486e+003
9.586180e+002, 2.369009e+003
9.591002e+002, 2.369217e+003
9.595823e+002, 2.372652e+003
9.600644e+002, 2.377648e+003
9.605465e+002, 2.378357e+003
9.610286e+002, 2.375231e+003
9.615107e+002, 2.372645e+003
9.619929e+002, 2.373959e+003
9.624750e+002, 2.375579e+003
9.629571e+002, 2.374405e+003
9.634392e+002, 2.371930e+003
9.639213e+002, 2.374558e+003
9.644034e+002, 2.384666e+003
9.648856e+002, 2.389882e+003
9.653677e+002, 2.386001e+003
9.658498e+002, 2.378385e+003
9.663319e+002, 2.374590e+003
9.668140e+002, 2.373719e+003
9.672961e+002, 2.374298e+003
9.677783e+002, 2.376787e+003
9.682604e+002, 2.378337e+003
9.687425e+002, 2.377345e+003
9.692246e+002, 2.375364e+003
9.697067e+002, 2.373445e+003
9.701888e+002, 2.371525e+003
9.706710e+002, 2.370393e+003
9.711531e+002, 2.370094e+003
9.716352e+002, 2.370090e+003
9.721173e+002, 2.370341e+003
9.725994e+002, 2.370386e+003
9.730815e+002, 2.369167e+003
9.735637e+002, 2.366972e+003
9.740458e+002, 2.365625e+003
9.745279e+002, 2.367260e+003
9.750100e+002, 2.367843e+003
9.754921e+002, 2.365806e+003
9.759742e+002, 2.362472e+003
9.764564e+002, 2.361488e+003
9.769385e+002, 2.362702e+003
9.774206e+002, 2.362897e+003
9.779027e+002, 2.361108e+003
9.783848e+002, 2.358647e+003
9.788669e+002, 2.356211e+003
9.793491e+002, 2.354140e+003
9.798312e+002, 2.352976e+003
9.803133e+002, 2.353616e+003
9.807954e+002, 2.352986e+003
9.812775e+002, 2.350107e+003
9.817596e+002, 2.347481e+003
9.822418e+002, 2.347379e+003
9.827239e+002, 2.349106e+003
9.832060e+002, 2.348599e+003
9.836881e+002, 2.346101e+003
9.841702e+002, 2.344232e+003
9.846523e+002, 2.344928e+003
9.851345e+002, 2.346347e+003
9.856166e+002, 2.347880e+003
9.860987e+002, 2.349189e+003
9.865808e+002, 2.349301e+003
9.870629e+002, 2.347677e+003
9.875450e+002, 2.346631e+003
9.880272e+002, 2.346804e+003
9.885093e+002, 2.347321e+003
9.889914e+002, 2.347057e+003
9.894735e+002, 2.346130e+003
9.899556e+002, 2.344593e+003
9.904377e+002, 2.342248e+003
9.909199e+002, 2.340329e+003
9.914020e+002, 2.339718e+003
9.918841e+002, 2.339446e+003
9.923662e+002, 2.338752e+003
9.928483e+002, 2.337621e+003
9.933304e+002, 2.337605e+003
9.938126e+002, 2.338801e+003
9.942947e+002, 2.339392e+003
9.947768e+002, 2.337273e+003
9.952589e+002, 2.334599e+003
9.957410e+002, 2.334251e+003
9.962231e+002, 2.335488e+003
9.967053e+002, 2.336144e+003
9.971874e+002, 2.334762e+003
9.976695e+002, 2.333855e+003
9.981516e+002, 2.333966e+003
9.986337e+002, 2.334413e+003
9.991158e+002, 2.334292e+003
9.995980e+002, 2.333588e+003
1.000080e+003, 2.332101e+003
1.000562e+003, 2.329673e+003
1.001044e+003, 2.327533e+003
1.001526e+003, 2.327465e+003
1.002009e+003, 2.327478e+003
1.002491e+003, 2.325325e+003
1.002973e+003, 2.320462e+003
1.003455e+003, 2.318712e+003
1.003937e+003, 2.321103e+003
1.004419e+003, 2.323476e+003
1.004901e+003, 2.323950e+003
1.005383e+003, 2.323187e+003
1.005865e+003, 2.321858e+003
1.006348e+003, 2.320477e+003
1.006830e+003, 2.320478e+003
1.007312e+003, 2.324784e+003
1.007794e+003, 2.327688e+003
1.008276e+003, 2.326068e+003
1.008758e+003, 2.322990e+003
1.009240e+003, 2.321886e+003
1.009722e+003, 2.323077e+003
1.010205e+003, 2.322385e+003
1.010687e+003, 2.319318e+003
1.011169e+003, 2.316384e+003
1.011651e+003, 2.315968e+003
1.012133e+003, 2.316729e+003
1.012615e+003, 2.317600e+003
1.013097e+003, 2.318438e+003
1.013579e+003, 2.318435e+003
1.014061e+003, 2.317307e+003
1.014544e+003, 2.315643e+003
1.015026e+003, 2.313452e+003
1.015508e+003, 2.311000e+003
1.015990e+003, 2.308778e+003
1.016472e+003, 2.306809e+003
1.016954e+003, 2.305190e+003
1.017436e+003, 2.303953e+003
1.017918e+003, 2.303017e+003
1.018401e+003, 2.302934e+003
1.018883e+003, 2.302730e+003
1.019365e+003, 2.301150e+003
1.019847e+003, 2.297511e+003
1.020329e+003, 2.296300e+003
1.020811e+003, 2.298057e+003
1.021293e+003, 2.299379e+003
1.021775e+003, 2.296948e+003
1.022257e+003, 2.293035e+003
1.022740e+003, 2.291332e+003
1.023222e+003, 2.291349e+003
1.023704e+003, 2.291011e+003
1.024186e+003, 2.288748e+003
1.024668e+003, 2.287096e+003
1.025150e+003, 2.286565e+003
1.025632e+003, 2.286848e+003
1.026114e+003, 2.287877e+003
1.026596e+003, 2.289438e+003
1.027079e+003, 2.289811e+003
1.027561e+003, 2.288652e+003
1.028043e+003, 2.286769e+003
1.028525e+003, 2.284325e+003
1.029007e+003, 2.281798e+003
1.029489e+003, 2.279365e+003
1.029971e+003, 2.277039e+003
1.030453e+003, 2.276458e+003
1.030936e+003, 2.278346e+003
1.031418e+003, 2.279609e+003
1.031900e+003, 2.278771e+003
1.032382e+003, 2.276702e+003
1.032864e+003, 2.274384e+003
1.033346e+003, 2.272273e+003
1.033828e+003, 2.271570e+003
1.034310e+003, 2.274119e+003
1.034792e+003, 2.275927e+003
1.035275e+003, 2.276012e+003
1.035757e+003, 2.274996e+003
1.036239e+003, 2.273015e+003
1.036721e+003, 2.270099e+003
1.037203e+003, 2.268422e+003
1.037685e+003, 2.268083e+003
1.038167e+003, 2.267376e+003
1.038649e+003, 2.263954e+003
1.039132e+003, 2.260628e+003
1.039614e+003, 2.259574e+003
1.040096e+003, 2.260692e+003
1.040578e+003, 2.262896e+003
1.041060e+003, 2.267128e+003
1.041542e+003, 2.269520e+003
1.042024e+003, 2.268894e+003
1.042506e+003, 2.267122e+003
1.042989e+003, 2.266958e+003
1.043471e+003, 2.267756e+003
1.043953e+003, 2.268078e+003
1.044435e+003, 2.267464e+003
1.044917e+003, 2.267334e+003
1.045399e+003, 2.269235e+003
1.045881e+003, 2.270687e+003
1.046363e+003, 2.270245e+003
1.046845e+003, 2.268211e+003
1.047328e+003, 2.266972e+003
1.047810e+003, 2.266492e+003
1.048292e+003, 2.266100e+003
1.048774e+003, 2.265658e+003
1.049256e+003, 2.265006e+003
1.049738e+003, 2.264602e+003
1.050220e+003, 2.263726e+003
1.050702e+003, 2.260890e+003
1.051184e+003, 2.253838e+003
1.051667e+003, 2.250593e+003
1.052149e+003, 2.252336e+003
1.052631e+003, 2.254472e+003
1.053113e+003, 2.252346e+003
1.053595e+003, 2.247972e+003
1.054077e+003, 2.245252e+003
1.054559e+003, 2.244152e+003
1.055041e+003, 2.243188e+003
1.055523e+003, 2.242218e+003
1.056006e+003, 2.240700e+003
1.056488e+003, 2.238305e+003
1.056970e+003, 2.235506e+003
1.057452e+003, 2.233554e+003
1.057934e+003, 2.232273e+003
1.058416e+003, 2.229422e+003
1.058898e+003, 2.224204e+003
1.059380e+003, 2.219896e+003
1.059863e+003, 2.220104e+003
1.060345e+003, 2.221741e+003
1.060827e+003, 2.222336e+003
1.061309e+003, 2.221705e+003
1.061791e+003, 2.220858e+003
1.062273e+003, 2.219652e+003
1.062755e+003, 2.218835e+003
1.063237e+003, 2.219001e+003
1.063719e+003, 2.219337e+003
1.064202e+003, 2.218487e+003
1.064684e+003, 2.216883e+003
1.065166e+003, 2.215365e+003
1.065648e+003, 2.214370e+003
1.066130e+003, 2.213208e+003
1.066612e+003, 2.212100e+003
1.067094e+003, 2.210416e+003
1.067576e+003, 2.206752e+003
1.068059e+003, 2.201850e+003
1.068541e+003, 2.200737e+003
1.069023e+003, 2.203063e+003
1.069505e+003, 2.205496e+003
1.069987e+003, 2.206934e+003
1.070469e+003, 2.207032e+003
1.070951e+003, 2.204432e+003
1.071433e+003, 2.200728e+003
1.071916e+003, 2.199076e+003
1.072398e+003, 2.199797e+003
1.072880e+003, 2.199394e+003
1.073362e+003, 2.197098e+003
1.073844e+003, 2.195699e+003
1.074326e+003, 2.200757e+003
1.074808e+003, 2.206427e+003
1.075290e+003, 2.205442e+003
1.075772e+003, 2.197175e+003
1.076255e+003, 2.191524e+003
1.076737e+003, 2.190057e+003
1.077219e+003, 2.189237e+003
1.077701e+003, 2.188023e+003
1.078183e+003, 2.186714e+003
1.078665e+003, 2.185892e+003
1.079147e+003, 2.185435e+003
1.079629e+003, 2.185091e+003
1.080111e+003, 2.184852e+003
1.080594e+003, 2.184476e+003
1.081076e+003, 2.183380e+003
1.081558e+003, 2.182576e+003
1.082040e+003, 2.182846e+003
1.082522e+003, 2.184012e+003
1.083004e+003, 2.184194e+003
1.083486e+003, 2.183509e+003
1.083968e+003, 2.183190e+003
1.084450e+003, 2.185077e+003
1.084933e+003, 2.186257e+003
1.085415e+003, 2.184032e+003
1.085897e+003, 2.180245e+003
1.086379e+003, 2.177831e+003
1.086861e+003, 2.177162e+003
1.087343e+003, 2.176779e+003
1.087825e+003, 2.176676e+003
1.088307e+003, 2.176594e+003
1.088790e+003, 2.176940e+003
1.089272e+003, 2.176784e+003
1.089754e+003, 2.174361e+003
1.090236e+003, 2.170167e+003
1.090718e+003, 2.167147e+003
1.091200e+003, 2.166064e+003
1.091682e+003, 2.165842e+003
1.092164e+003, 2.166561e+003
1.092646e+003, 2.167574e+003
1.093129e+003, 2.168206e+003
1.093611e+003, 2.168273e+003
1.094093e+003, 2.167002e+003
1.094575e+003, 2.164143e+003
1.095057e+003, 2.161871e+003
1.095539e+003, 2.161744e+003
1.096021e+003, 2.161819e+003
1.096503e+003, 2.161453e+003
1.096986e+003, 2.160563e+003
1.097468e+003, 2.158239e+003
1.097950e+003, 2.154774e+003
1.098432e+003, 2.152899e+003
1.098914e+003, 2.154084e+003
1.099396e+003, 2.155425e+003
1.099878e+003, 2.155072e+003
1.100360e+003, 2.153659e+003
1.100843e+003, 2.151561e+003
1.101325e+003, 2.148626e+003
1.101807e+003, 2.146983e+003
1.102289e+003, 2.146700e+003
1.102771e+003, 2.146911e+003
1.103253e+003, 2.147811e+003
1.103735e+003, 2.148281e+003
1.104217e+003, 2.145975e+003
1.104699e+003, 2.142511e+003
1.105182e+003, 2.141041e+003
1.105664e+003, 2.144766e+003
1.106146e+003, 2.145485e+003
1.106628e+003, 2.142333e+003
1.107110e+003, 2.137966e+003
1.107592e+003, 2.133580e+003
1.108074e+003, 2.130137e+003
1.108556e+003, 2.130393e+003
1.109038e+003, 2.133677e+003
1.109521e+003, 2.136046e+003
1.110003e+003, 2.135255e+003
1.110485e+003, 2.134376e+003
1.110967e+003, 2.134499e+003
1.111449e+003, 2.134337e+003
1.111931e+003, 2.131032e+003
1.112413e+003, 2.125587e+003
1.112895e+003, 2.122933e+003
1.113377e+003, 2.123667e+003
1.113860e+003, 2.124693e+003
1.114342e+003, 2.123999e+003
1.114824e+003, 2.123239e+003
1.115306e+003, 2.123665e+003
1.115788e+003, 2.124694e+003
1.116270e+003, 2.124006e+003
1.116752e+003, 2.121651e+003
1.117234e+003, 2.120135e+003
1.117717e+003, 2.120068e+003
1.118199e+003, 2.121097e+003
1.118681e+003, 2.124200e+003
1.119163e+003, 2.127339e+003
1.119645e+003, 2.128433e+003
1.120127e+003, 2.127318e+003
1.120609e+003, 2.125575e+003
1.121091e+003, 2.122963e+003
1.121573e+003, 2.121247e+003
1.122056e+003, 2.121918e+003
1.122538e+003, 2.122621e+003
1.123020e+003, 2.119630e+003
1.123502e+003, 2.114841e+003
1.123984e+003, 2.111177e+003
1.124466e+003, 2.109533e+003
1.124948e+003, 2.108695e+003
1.125430e+003, 2.108932e+003
1.125913e+003, 2.109302e+003
1.126395e+003, 2.109441e+003
1.126877e+003, 2.109185e+003
1.127359e+003, 2.107803e+003
1.127841e+003, 2.105706e+003
1.128323e+003, 2.104006e+003
1.128805e+003, 2.103019e+003
1.129287e+003, 2.102735e+003
1.129770e+003, 2.103551e+003
1.130252e+003, 2.104369e+003
1.130734e+003, 2.103943e+003
1.131216e+003, 2.102573e+003
1.131698e+003, 2.101648e+003
1.132180e+003, 2.101081e+003
1.132662e+003, 2.099987e+003
1.133144e+003, 2.096302e+003
1.133626e+003, 2.093909e+003
1.134109e+003, 2.095129e+003
1.134591e+003, 2.097553e+003
1.135073e+003, 2.097306e+003
1.135555e+003, 2.094626e+003
1.136037e+003, 2.092491e+003
1.136519e+003, 2.091245e+003
1.137001e+003, 2.090161e+003
1.137483e+003, 2.089061e+003
1.137965e+003, 2.087685e+003
1.138448e+003, 2.085750e+003
1.138930e+003, 2.083451e+003
1.139412e+003, 2.081177e+003
1.139894e+003, 2.078910e+003
1.140376e+003, 2.077611e+003
1.140858e+003, 2.077658e+003
1.141340e+003, 2.077899e+003
1.141822e+003, 2.077806e+003
1.142304e+003, 2.077008e+003
1.142787e+003, 2.074675e+003
1.143269e+003, 2.070830e+003
1.143751e+003, 2.068161e+003
1.144233e+003, 2.066609e+003
1.144715e+003, 2.066711e+003
1.145197e+003, 2.069256e+003
1.145679e+003, 2.072007e+003
1.146161e+003, 2.071984e+003
1.146644e+003, 2.070387e+003
1.147126e+003, 2.068462e+003
1.147608e+003, 2.065895e+003
1.148090e+003, 2.065928e+003
1.148572e+003, 2.069945e+003
1.149054e+003, 2.072199e+003
1.149536e+003, 2.069017e+003
1.150018e+003, 2.063430e+003
1.150500e+003, 2.060183e+003
1.150983e+003, 2.058690e+003
1.151465e+003, 2.057810e+003
1.151947e+003, 2.057801e+003
1.152429e+003, 2.057218e+003
1.152911e+003, 2.055787e+003
1.153393e+003, 2.054237e+003
1.153875e+003, 2.053260e+003
1.154357e+003, 2.052478e+003
1.154840e+003, 2.050596e+003
1.155322e+003, 2.047970e+003
1.155804e+003, 2.045825e+003
1.156286e+003, 2.044864e+003
1.156768e+003, 2.044141e+003
1.157250e+003, 2.043803e+003
1.157732e+003, 2.043186e+003
1.158214e+003, 2.041170e+003
1.158697e+003, 2.038317e+003
1.159179e+003, 2.037279e+003
1.159661e+003, 2.037872e+003
1.160143e+003, 2.038693e+003
1.160625e+003, 2.039277e+003
1.161107e+003, 2.039660e+003
1.161589e+003, 2.039815e+003
1.162071e+003, 2.039802e+003
1.162553e+003, 2.039837e+003
1.163036e+003, 2.039809e+003
1.163518e+003, 2.038810e+003
1.164000e+003, 2.036828e+003
1.164482e+003, 2.034854e+003
1.164964e+003, 2.033025e+003
1.165446e+003, 2.031928e+003
1.165928e+003, 2.032413e+003
1.166410e+003, 2.033520e+003
1.166892e+003, 2.033601e+003
1.167375e+003, 2.032690e+003
1.167857e+003, 2.030826e+003
1.168339e+003, 2.027961e+003
1.168821e+003, 2.025388e+003
1.169303e+003, 2.023586e+003
1.169785e+003, 2.022808e+003
1.170267e+003, 2.023630e+003
1.170749e+003, 2.025497e+003
1.171231e+003, 2.027473e+003
1.171714e+003, 2.029537e+003
1.172196e+003, 2.029254e+003
1.172678e+003, 2.025767e+003
1.173160e+003, 2.022137e+003
1.173642e+003, 2.021070e+003
1.174124e+003, 2.020863e+003
1.174606e+003, 2.020036e+003
1.175088e+003, 2.018760e+003
1.175571e+003, 2.018867e+003
1.176053e+003, 2.020516e+003
1.176535e+003, 2.020215e+003
1.177017e+003, 2.016252e+003
1.177499e+003, 2.012600e+003
1.177981e+003, 2.013806e+003
1.178463e+003, 2.016683e+003
1.178945e+003, 2.018230e+003
1.179427e+003, 2.018262e+003
1.179910e+003, 2.018226e+003
1.180392e+003, 2.018232e+003
1.180874e+003, 2.016593e+003
1.181356e+003, 2.011662e+003
1.181838e+003, 2.007167e+003
1.182320e+003, 2.008634e+003
1.182802e+003, 2.011899e+003
1.183284e+003, 2.011622e+003
1.183767e+003, 2.006708e+003
1.184249e+003, 2.003856e+003
1.184731e+003, 2.003406e+003
1.185213e+003, 2.002560e+003
1.185695e+003, 1.999631e+003
1.186177e+003, 1.996294e+003
1.186659e+003, 1.994513e+003
1.187141e+003, 1.993605e+003
1.187624e+003, 1.992492e+003
1.188106e+003, 1.990558e+003
1.188588e+003, 1.990917e+003
1.189070e+003, 1.994198e+003
1.189552e+003, 1.996240e+003
1.190034e+003, 1.993609e+003
1.190516e+003, 1.989591e+003
1.190998e+003, 1.988081e+003
1.191480e+003, 1.988184e+003
1.191963e+003, 1.988466e+003
1.192445e+003, 1.989279e+003
1.192927e+003, 1.988472e+003
1.193409e+003, 1.985675e+003
1.193891e+003, 1.982802e+003
1.194373e+003, 1.980579e+003
1.194855e+003, 1.979394e+003
1.195337e+003, 1.980390e+003
1.195819e+003, 1.982688e+003
1.196302e+003, 1.984408e+003
1.196784e+003, 1.985365e+003
1.197266e+003, 1.985279e+003
1.197748e+003, 1.983901e+003
1.198230e+003, 1.982476e+003
1.198712e+003, 1.982142e+003
1.199194e+003, 1.982274e+003
1.199676e+003, 1.982209e+003
1.200158e+003, 1.981924e+003
1.200641e+003, 1.981419e+003
1.201123e+003, 1.981231e+003
1.201605e+003, 1.979303e+003
1.202087e+003, 1.974945e+003
1.202569e+003, 1.971307e+003
1.203051e+003, 1.972568e+003
1.203533e+003, 1.975374e+003
1.204015e+003, 1.974748e+003
1.204498e+003, 1.971689e+003
1.204980e+003, 1.970357e+003
1.205462e+003, 1.972724e+003
1.205944e+003, 1.973267e+003
1.206426e+003, 1.971219e+003
1.206908e+003, 1.968449e+003
1.207390e+003, 1.966256e+003
1.207872e+003, 1.964795e+003
1.208354e+003, 1.964750e+003
1.208837e+003, 1.965704e+003
1.209319e+003, 1.965681e+003
1.209801e+003, 1.963795e+003
1.210283e+003, 1.962667e+003
1.210765e+003, 1.962657e+003
1.211247e+003, 1.963175e+003
1.211729e+003, 1.964287e+003
1.212211e+003, 1.965098e+003
1.212694e+003, 1.964318e+003
1.213176e+003, 1.962082e+003
1.213658e+003, 1.959466e+003
1.214140e+003, 1.956110e+003
1.214622e+003, 1.954127e+003
1.215104e+003, 1.954143e+003
1.215586e+003, 1.954353e+003
1.216068e+003, 1.952952e+003
1.216551e+003, 1.950563e+003
1.217033e+003, 1.947260e+003
1.217515e+003, 1.943439e+003
1.217997e+003, 1.941778e+003
1.218479e+003, 1.942984e+003
1.218961e+003, 1.944182e+003
1.219443e+003, 1.944911e+003
1.219925e+003, 1.945395e+003
1.220407e+003, 1.946178e+003
1.220890e+003, 1.946621e+003
1.221372e+003, 1.945698e+003
1.221854e+003, 1.943502e+003
1.222336e+003, 1.941775e+003
1.222818e+003, 1.940625e+003
1.223300e+003, 1.939560e+003
1.223782e+003, 1.938347e+003
1.224264e+003, 1.937784e+003
1.224746e+003, 1.940193e+003
1.225229e+003, 1.942681e+003
1.225711e+003, 1.941795e+003
1.226193e+003, 1.937579e+003
1.226675e+003, 1.934178e+003
1.227157e+003, 1.931584e+003
1.227639e+003, 1.930383e+003
1.228121e+003, 1.931043e+003
1.228603e+003, 1.931464e+003
1.229085e+003, 1.928119e+003
1.229568e+003, 1.924449e+003
1.230050e+003, 1.924335e+003
1.230532e+003, 1.927519e+003
1.231014e+003, 1.929160e+003
1.231496e+003, 1.929139e+003
1.231978e+003, 1.928585e+003
1.232460e+003, 1.927715e+003
1.232942e+003, 1.926549e+003
1.233425e+003, 1.925280e+003
1.233907e+003, 1.923579e+003
1.234389e+003, 1.920556e+003
1.234871e+003, 1.916664e+003
1.235353e+003, 1.914535e+003
1.235835e+003, 1.914206e+003
1.236317e+003, 1.915954e+003
1.236799e+003, 1.920479e+003
1.237281e+003, 1.923650e+003
1.237764e+003, 1.920582e+003
1.238246e+003, 1.915948e+003
1.238728e+003, 1.913560e+003
1.239210e+003, 1.912921e+003
1.239692e+003, 1.911490e+003
1.240174e+003, 1.909351e+003
1.240656e+003, 1.908348e+003
1.241138e+003, 1.909091e+003
1.241621e+003, 1.910028e+003
1.242103e+003, 1.910023e+003
1.242585e+003, 1.909785e+003
1.243067e+003, 1.909901e+003
1.243549e+003, 1.910132e+003
1.244031e+003, 1.909449e+003
1.244513e+003, 1.907956e+003
1.244995e+003, 1.906550e+003
1.245478e+003, 1.905343e+003
1.245960e+003, 1.904715e+003
1.246442e+003, 1.905621e+003
1.246924e+003, 1.906361e+003
1.247406e+003, 1.905905e+003
1.247888e+003, 1.904696e+003
1.248370e+003, 1.904142e+003
1.248852e+003, 1.904087e+003
1.249334e+003, 1.903920e+003
1.249817e+003, 1.903588e+003
1.250299e+003, 1.902663e+003
1.250781e+003, 1.900798e+003
1.251263e+003, 1.898354e+003
1.251745e+003, 1.894945e+003
1.252227e+003, 1.891641e+003
1.252709e+003, 1.892031e+003
1.253191e+003, 1.894616e+003
1.253673e+003, 1.894809e+003
1.254156e+003, 1.891385e+003
1.254638e+003, 1.887962e+003
1.255120e+003, 1.885054e+003
1.255602e+003, 1.883234e+003
1.256084e+003, 1.882700e+003
1.256566e+003, 1.883402e+003
1.257048e+003, 1.886060e+003
1.257530e+003, 1.889627e+003
1.258012e+003, 1.892013e+003
1.258495e+003, 1.892832e+003
1.258977e+003, 1.892551e+003
1.259459e+003, 1.890724e+003
1.259941e+003, 1.889121e+003
1.260423e+003, 1.888276e+003
1.260905e+003, 1.887952e+003
1.261387e+003, 1.888382e+003
1.261869e+003, 1.888795e+003
1.262352e+003, 1.887748e+003
1.262834e+003, 1.884925e+003
1.263316e+003, 1.883266e+003
1.263798e+003, 1.883428e+003
1.264280e+003, 1.882836e+003
1.264762e+003, 1.880525e+003
1.265244e+003, 1.877909e+003
1.265726e+003, 1.876329e+003
1.266208e+003, 1.875633e+003
1.266691e+003, 1.875781e+003
1.267173e+003, 1.876782e+003
1.267655e+003, 1.878379e+003
1.268137e+003, 1.880891e+003
1.268619e+003, 1.881143e+003
1.269101e+003, 1.877857e+003
1.269583e+003, 1.874040e+003
1.270065e+003, 1.872149e+003
1.270548e+003, 1.871275e+003
1.271030e+003, 1.871074e+003
1.271512e+003, 1.871215e+003
1.271994e+003, 1.870439e+003
1.272476e+003, 1.868771e+003
1.272958e+003, 1.866652e+003
1.273440e+003, 1.864016e+003
1.273922e+003, 1.862361e+003
1.274405e+003, 1.864561e+003
1.274887e+003, 1.866222e+003
1.275369e+003, 1.864164e+003
1.275851e+003, 1.860013e+003
1.276333e+003, 1.858304e+003
1.276815e+003, 1.858651e+003
1.277297e+003, 1.859309e+003
1.277779e+003, 1.860017e+003
1.278261e+003, 1.859882e+003
1.278744e+003, 1.857285e+003
1.279226e+003, 1.855087e+003
1.279708e+003, 1.854131e+003
1.280190e+003, 1.854289e+003
1.280672e+003, 1.856373e+003
1.281154e+003, 1.859114e+003
1.281636e+003, 1.858789e+003
1.282118e+003, 1.854876e+003
1.282600e+003, 1.851699e+003
1.283083e+003, 1.850818e+003
1.283565e+003, 1.850393e+003
1.284047e+003, 1.850285e+003
1.284529e+003, 1.849897e+003
1.285011e+003, 1.848249e+003
1.285493e+003, 1.845849e+003
1.285975e+003, 1.843122e+003
1.286457e+003, 1.840257e+003
1.286939e+003, 1.838797e+003
1.287422e+003, 1.839227e+003
1.287904e+003, 1.839798e+003
1.288386e+003, 1.840279e+003
1.288868e+003, 1.840473e+003
1.289350e+003, 1.840248e+003
1.289832e+003, 1.839560e+003
1.290314e+003, 1.837886e+003
1.290796e+003, 1.835641e+003
1.291279e+003, 1.834680e+003
1.291761e+003, 1.835070e+003
1.292243e+003, 1.835928e+003
1.292725e+003, 1.837197e+003
1.293207e+003, 1.837584e+003
1.293689e+003, 1.835160e+003
1.294171e+003, 1.832334e+003
1.294653e+003, 1.830516e+003
1.295135e+003, 1.829511e+003
1.295618e+003, 1.829330e+003
1.296100e+003, 1.829840e+003
1.296582e+003, 1.829759e+003
1.297064e+003, 1.829167e+003
1.297546e+003, 1.828560e+003
1.298028e+003, 1.827389e+003
1.298510e+003, 1.826672e+003
1.298992e+003, 1.827370e+003
1.299475e+003, 1.828081e+003
1.299957e+003, 1.826275e+003
1.300439e+003, 1.823188e+003
1.300921e+003, 1.822167e+003
1.301403e+003, 1.823307e+003
1.301885e+003, 1.825190e+003
##END=



