##NAMES=Phosphuranylite
##RRUFFID=R110155
##IDEAL CHEMISTRY=KCa(H_3_O)_3_(U^6+^O_2_)_7_(PO_4_)_4_O_4_&#183;8H_2_O
##LOCALITY=Folgosinho, Portugal
##OWNER=RRUFF
##SOURCE=Luiz Menezes
##DESCRIPTION=Light yellow bladed crystals.
##STATUS=The identification of this mineral has been confirmed by single-crystal X-ray diffraction.
##URL=rruff.info/R110155
226.4491, 182478.4
226.9312, 182536.3
227.4133, 182645.4
227.8954, 182695.4
228.3775, 182652.6
228.8597, 182600.9
229.3418, 182593.5
229.8239, 182652.6
230.3060, 182696.2
230.7881, 182694.9
231.2702, 182666.4
231.7524, 182709.5
232.2345, 182856.4
232.7166, 183018.5
233.1987, 183140.8
233.6808, 183201.8
234.1629, 183259.6
234.6451, 183318.8
235.1272, 183374.4
235.6093, 183415.8
236.0914, 183458.1
236.5735, 183466.4
237.0556, 183417.0
237.5378, 183279.8
238.0199, 183158.7
238.5020, 183069.5
238.9841, 183005.8
239.4662, 182938.2
239.9483, 182880.5
240.4305, 182812.2
240.9126, 182720.6
241.3947, 182591.5
241.8768, 182480.2
242.3589, 182390.7
242.8410, 182322.8
243.3232, 182272.4
243.8053, 182238.6
244.2874, 182221.8
244.7695, 182220.5
245.2516, 182232.0
245.7337, 182254.2
246.2159, 182280.5
246.6980, 182312.3
247.1801, 182365.3
247.6622, 182468.6
248.1443, 182542.9
248.6264, 182538.1
249.1086, 182392.2
249.5907, 182317.1
250.0728, 182349.9
250.5549, 182447.6
251.0370, 182492.7
251.5191, 182463.5
252.0013, 182423.2
252.4834, 182400.4
252.9655, 182402.8
253.4476, 182412.1
253.9297, 182432.5
254.4118, 182461.1
254.8940, 182490.0
255.3761, 182516.0
255.8582, 182546.9
256.3403, 182584.0
256.8224, 182625.1
257.3046, 182669.1
257.7867, 182713.9
258.2688, 182756.7
258.7509, 182797.0
259.2330, 182838.7
259.7151, 182861.8
260.1973, 182858.1
260.6794, 182827.0
261.1615, 182765.6
261.6436, 182657.2
262.1257, 182535.8
262.6078, 182464.6
263.0900, 182468.8
263.5721, 182475.1
264.0542, 182457.9
264.5363, 182413.4
265.0184, 182398.3
265.5005, 182428.9
265.9827, 182476.9
266.4648, 182491.4
266.9469, 182449.2
267.4290, 182446.1
267.9111, 182535.9
268.3932, 182728.2
268.8754, 182804.9
269.3575, 182717.5
269.8396, 182581.3
270.3217, 182546.6
270.8038, 182631.8
271.2859, 182729.4
271.7681, 182807.0
272.2502, 182863.1
272.7323, 182932.3
273.2144, 183021.3
273.6965, 183104.8
274.1786, 183153.3
274.6608, 183162.3
275.1429, 183165.6
275.6250, 183174.8
276.1071, 183187.2
276.5892, 183171.7
277.0714, 183120.0
277.5535, 183066.1
278.0356, 183049.9
278.5177, 183076.2
278.9998, 183078.6
279.4819, 183042.5
279.9641, 182971.0
280.4462, 182882.8
280.9283, 182780.3
281.4104, 182647.0
281.8925, 182453.2
282.3746, 182198.7
282.8568, 181967.9
283.3389, 181783.4
283.8210, 181631.4
284.3031, 181469.1
284.7852, 181298.4
285.2673, 181138.5
285.7495, 180997.1
286.2316, 180878.3
286.7137, 180801.4
287.1958, 180778.5
287.6779, 180789.6
288.1600, 180789.5
288.6422, 180777.5
289.1243, 180775.7
289.6064, 180784.2
290.0885, 180806.5
290.5706, 180882.6
291.0527, 181026.8
291.5349, 181186.5
292.0170, 181278.0
292.4991, 181301.5
292.9812, 181300.3
293.4633, 181282.4
293.9454, 181255.3
294.4276, 181250.8
294.9097, 181274.0
295.3918, 181305.6
295.8739, 181322.2
296.3560, 181326.6
296.8381, 181330.2
297.3203, 181333.7
297.8024, 181342.2
298.2845, 181378.4
298.7666, 181448.2
299.2487, 181499.3
299.7308, 181450.4
300.2130, 181336.1
300.6951, 181257.8
301.1772, 181279.9
301.6593, 181348.3
302.1414, 181389.8
302.6235, 181403.8
303.1057, 181403.0
303.5878, 181397.6
304.0699, 181384.5
304.5520, 181358.6
305.0341, 181313.3
305.5162, 181260.5
305.9984, 181206.9
306.4805, 181154.6
306.9626, 181111.8
307.4447, 181095.0
307.9268, 181088.6
308.4089, 181071.5
308.8911, 181033.7
309.3732, 180991.8
309.8553, 180950.9
310.3374, 180915.0
310.8195, 180896.2
311.3016, 180916.7
311.7838, 180949.0
312.2659, 180967.3
312.7480, 180959.4
313.2301, 180950.5
313.7122, 180950.3
314.1943, 180958.9
314.6765, 180977.2
315.1586, 181021.4
315.6407, 181064.6
316.1228, 181091.2
316.6049, 181098.4
317.0870, 181093.9
317.5692, 181094.0
318.0513, 181082.5
318.5334, 181036.8
319.0155, 180920.6
319.4976, 180794.0
319.9797, 180670.7
320.4619, 180548.7
320.9440, 180470.2
321.4261, 180487.3
321.9082, 180535.2
322.3903, 180553.1
322.8724, 180511.6
323.3546, 180450.7
323.8367, 180366.3
324.3188, 180259.8
324.8009, 180175.6
325.2830, 180132.1
325.7651, 180109.4
326.2473, 180095.8
326.7294, 180149.5
327.2115, 180152.0
327.6936, 180053.7
328.1757, 179886.7
328.6578, 179792.7
329.1400, 179849.2
329.6221, 179922.4
330.1042, 179957.7
330.5863, 179937.0
331.0684, 179907.2
331.5505, 179829.7
332.0327, 179746.6
332.5148, 179757.3
332.9969, 179913.3
333.4790, 180081.5
333.9611, 180210.4
334.4432, 180275.8
334.9254, 180378.7
335.4075, 180548.3
335.8896, 180720.4
336.3717, 180799.3
336.8538, 180744.9
337.3359, 180685.7
337.8180, 180658.8
338.3001, 180664.4
338.7823, 180658.2
339.2644, 180647.0
339.7465, 180620.5
340.2286, 180570.3
340.7107, 180500.2
341.1928, 180408.0
341.6750, 180289.5
342.1571, 180156.0
342.6392, 180065.3
343.1213, 180029.2
343.6034, 179977.9
344.0855, 179836.3
344.5677, 179611.8
345.0498, 179441.5
345.5319, 179345.9
346.0140, 179307.5
346.4961, 179310.2
346.9782, 179352.2
347.4604, 179385.7
347.9425, 179361.9
348.4246, 179304.1
348.9067, 179305.9
349.3888, 179379.5
349.8709, 179475.6
350.3531, 179536.2
350.8352, 179568.2
351.3173, 179597.5
351.7994, 179624.8
352.2815, 179658.2
352.7636, 179712.5
353.2458, 179786.1
353.7279, 179868.5
354.2100, 179948.2
354.6921, 180028.7
355.1742, 180121.7
355.6563, 180271.5
356.1385, 180390.0
356.6206, 180354.8
357.1027, 180196.0
357.5848, 180066.5
358.0669, 180106.4
358.5490, 180194.5
359.0312, 180209.3
359.5133, 180098.4
359.9954, 179981.9
360.4775, 179940.4
360.9596, 179946.3
361.4417, 179939.5
361.9239, 179878.8
362.4060, 179815.0
362.8881, 179785.1
363.3702, 179804.1
363.8523, 179801.2
364.3344, 179723.0
364.8166, 179621.9
365.2987, 179557.1
365.7808, 179573.4
366.2629, 179599.0
366.7450, 179608.8
367.2271, 179602.1
367.7093, 179621.8
368.1914, 179733.4
368.6735, 179831.9
369.1556, 179846.9
369.6377, 179643.7
370.1198, 179519.1
370.6020, 179518.2
371.0841, 179606.0
371.5662, 179660.5
372.0483, 179662.5
372.5304, 179650.3
373.0125, 179639.8
373.4947, 179637.3
373.9768, 179614.9
374.4589, 179567.8
374.9410, 179503.9
375.4231, 179431.8
375.9052, 179341.8
376.3874, 179279.3
376.8695, 179274.4
377.3516, 179327.6
377.8337, 179336.0
378.3158, 179294.0
378.7979, 179236.7
379.2801, 179196.1
379.7622, 179173.7
380.2443, 179165.0
380.7264, 179169.0
381.2085, 179186.9
381.6906, 179228.7
382.1728, 179293.3
382.6549, 179351.3
383.1370, 179369.8
383.6191, 179357.9
384.1012, 179357.8
384.5833, 179371.3
385.0655, 179389.8
385.5476, 179401.3
386.0297, 179406.6
386.5118, 179414.6
386.9939, 179434.8
387.4760, 179459.1
387.9582, 179485.4
388.4403, 179515.3
388.9224, 179520.1
389.4045, 179466.3
389.8866, 179379.1
390.3687, 179292.1
390.8509, 179215.3
391.3330, 179150.2
391.8151, 179102.7
392.2972, 179071.0
392.7793, 179041.5
393.2614, 179009.8
393.7436, 178976.7
394.2257, 178938.2
394.7078, 178883.2
395.1899, 178844.7
395.6720, 178830.8
396.1541, 178838.6
396.6363, 178863.8
397.1184, 178933.4
397.6005, 178992.0
398.0826, 179015.1
398.5647, 178996.4
399.0468, 178984.0
399.5290, 179004.3
400.0111, 179020.1
400.4932, 179001.2
400.9753, 178898.5
401.4574, 178828.5
401.9395, 178814.1
402.4217, 178844.5
402.9038, 178865.2
403.3859, 178867.6
403.8680, 178874.6
404.3501, 178903.2
404.8322, 178969.4
405.3144, 178997.3
405.7965, 178971.5
406.2786, 178924.8
406.7607, 178918.2
407.2428, 178963.3
407.7249, 178978.4
408.2071, 178912.5
408.6892, 178787.5
409.1713, 178760.5
409.6534, 178843.7
410.1355, 178950.2
410.6176, 179002.8
411.0998, 179007.8
411.5819, 178999.4
412.0640, 178973.3
412.5461, 178953.1
413.0282, 179000.4
413.5103, 179100.0
413.9925, 179166.4
414.4746, 179113.3
414.9567, 179006.7
415.4388, 178959.3
415.9209, 178986.3
416.4030, 179012.5
416.8852, 178982.8
417.3673, 178909.6
417.8494, 178813.3
418.3315, 178665.4
418.8136, 178530.2
419.2957, 178457.6
419.7779, 178442.3
420.2600, 178432.1
420.7421, 178404.9
421.2242, 178377.0
421.7063, 178363.7
422.1884, 178381.6
422.6706, 178391.5
423.1527, 178381.1
423.6348, 178357.4
424.1169, 178333.8
424.5990, 178277.7
425.0811, 178251.8
425.5633, 178283.5
426.0454, 178380.4
426.5275, 178458.7
427.0096, 178491.8
427.4917, 178521.7
427.9738, 178585.7
428.4560, 178707.3
428.9381, 178807.5
429.4202, 178884.6
429.9023, 178929.8
430.3844, 178909.1
430.8665, 178807.2
431.3487, 178682.8
431.8308, 178554.0
432.3129, 178419.8
432.7950, 178332.1
433.2771, 178301.1
433.7592, 178296.5
434.2414, 178288.7
434.7235, 178277.4
435.2056, 178245.1
435.6877, 178184.0
436.1698, 178103.3
436.6519, 178003.6
437.1341, 177888.9
437.6162, 177808.2
438.0983, 177836.0
438.5804, 177913.3
439.0625, 177928.2
439.5446, 177845.7
440.0268, 177756.8
440.5089, 177735.3
440.9910, 177766.7
441.4731, 177822.2
441.9552, 177951.8
442.4373, 178049.8
442.9195, 178022.1
443.4016, 177868.8
443.8837, 177731.4
444.3658, 177656.7
444.8479, 177623.1
445.3300, 177615.3
445.8122, 177660.4
446.2943, 177686.0
446.7764, 177664.9
447.2585, 177613.3
447.7406, 177575.3
448.2227, 177601.4
448.7049, 177593.8
449.1870, 177513.5
449.6691, 177345.6
450.1512, 177211.0
450.6333, 177134.8
451.1154, 177071.6
451.5976, 176977.9
452.0797, 176849.0
452.5618, 176719.5
453.0439, 176592.4
453.5260, 176473.9
454.0081, 176372.7
454.4903, 176290.2
454.9724, 176219.3
455.4545, 176142.9
455.9366, 176068.0
456.4187, 176055.5
456.9008, 176114.2
457.3830, 176187.1
457.8651, 176193.7
458.3472, 176154.0
458.8293, 176139.6
459.3114, 176199.2
459.7935, 176263.4
460.2757, 176223.2
460.7578, 176097.5
461.2399, 175989.0
461.7220, 175992.7
462.2041, 176026.2
462.6862, 176010.2
463.1684, 175927.2
463.6505, 175832.3
464.1326, 175761.5
464.6147, 175698.0
465.0968, 175617.7
465.5789, 175495.2
466.0611, 175382.3
466.5432, 175315.1
467.0253, 175288.2
467.5074, 175216.0
467.9895, 175005.4
468.4716, 174817.8
468.9538, 174735.7
469.4359, 174818.3
469.9180, 174876.0
470.4001, 174902.0
470.8822, 174904.9
471.3643, 174894.6
471.8465, 174860.5
472.3286, 174836.5
472.8107, 174833.5
473.2928, 174845.8
473.7749, 174847.2
474.2570, 174836.8
474.7392, 174813.0
475.2213, 174767.2
475.7034, 174703.5
476.1855, 174650.6
476.6676, 174613.3
477.1497, 174585.7
477.6319, 174562.5
478.1140, 174544.5
478.5961, 174532.2
479.0782, 174534.8
479.5603, 174539.0
480.0424, 174522.4
480.5246, 174488.2
481.0067, 174464.0
481.4888, 174472.4
481.9709, 174493.8
482.4530, 174511.1
482.9352, 174521.1
483.4173, 174523.6
483.8994, 174507.7
484.3815, 174484.2
484.8636, 174469.9
485.3457, 174497.8
485.8279, 174503.8
486.3100, 174459.0
486.7921, 174363.7
487.2742, 174293.4
487.7563, 174259.3
488.2384, 174243.5
488.7206, 174241.5
489.2027, 174272.3
489.6848, 174275.0
490.1669, 174247.1
490.6490, 174197.1
491.1311, 174126.3
491.6133, 174028.5
492.0954, 173958.2
492.5775, 173932.2
493.0596, 173944.8
493.5417, 173983.7
494.0238, 174047.0
494.5060, 174109.8
494.9881, 174155.7
495.4702, 174182.3
495.9523, 174180.7
496.4344, 174140.3
496.9165, 174102.2
497.3987, 174123.8
497.8808, 174175.1
498.3629, 174199.1
498.8450, 174162.2
499.3271, 174101.1
499.8092, 174041.4
500.2914, 173981.1
500.7735, 173907.9
501.2556, 173803.0
501.7377, 173697.4
502.2198, 173612.8
502.7019, 173563.3
503.1841, 173509.3
503.6662, 173444.1
504.1483, 173375.2
504.6304, 173311.1
505.1125, 173254.1
505.5946, 173199.1
506.0768, 173137.1
506.5589, 173074.1
507.0410, 173045.7
507.5231, 173058.9
508.0052, 173081.1
508.4873, 173089.6
508.9695, 173082.8
509.4516, 173110.0
509.9337, 173179.2
510.4158, 173242.0
510.8979, 173230.2
511.3800, 173158.7
511.8622, 173101.2
512.3443, 173091.2
512.8264, 173083.2
513.3085, 172997.8
513.7906, 172857.6
514.2728, 172742.2
514.7549, 172744.7
515.2370, 172762.5
515.7191, 172694.4
516.2012, 172529.0
516.6833, 172381.0
517.1655, 172320.0
517.6476, 172292.4
518.1297, 172252.0
518.6118, 172160.7
519.0939, 172094.2
519.5760, 172081.6
520.0582, 172101.7
520.5403, 172100.2
521.0224, 172034.7
521.5045, 172005.9
521.9866, 172051.0
522.4688, 172169.0
522.9509, 172259.6
523.4330, 172317.8
523.9151, 172355.7
524.3972, 172372.1
524.8793, 172364.6
525.3615, 172378.5
525.8436, 172418.6
526.3257, 172473.3
526.8078, 172543.6
527.2899, 172618.8
527.7720, 172650.2
528.2542, 172608.8
528.7363, 172519.5
529.2184, 172390.9
529.7005, 172234.0
530.1826, 172103.2
530.6647, 172065.1
531.1469, 172049.9
531.6290, 171994.7
532.1111, 171885.7
532.5932, 171774.6
533.0753, 171685.6
533.5574, 171606.9
534.0396, 171527.8
534.5217, 171460.2
535.0038, 171379.1
535.4859, 171265.7
535.9680, 171136.7
536.4501, 171043.3
536.9323, 171006.1
537.4144, 170969.7
537.8965, 170907.5
538.3786, 170817.2
538.8607, 170767.0
539.3428, 170763.3
539.8250, 170774.1
540.3071, 170766.3
540.7892, 170742.0
541.2713, 170738.8
541.7534, 170770.5
542.2355, 170798.5
542.7177, 170755.1
543.1998, 170660.0
543.6819, 170577.5
544.1640, 170561.7
544.6461, 170556.5
545.1282, 170495.6
545.6104, 170390.9
546.0925, 170313.0
546.5746, 170330.5
547.0567, 170366.4
547.5388, 170362.5
548.0209, 170290.4
548.5031, 170249.8
548.9852, 170293.8
549.4673, 170363.0
549.9494, 170395.2
550.4315, 170381.2
550.9136, 170337.3
551.3958, 170240.8
551.8779, 170118.9
552.3600, 170066.9
552.8421, 170108.3
553.3242, 170132.8
553.8063, 170093.0
554.2885, 169995.0
554.7706, 169875.7
555.2527, 169732.6
555.7348, 169602.5
556.2169, 169530.7
556.6990, 169497.8
557.1812, 169450.0
557.6633, 169377.6
558.1454, 169299.4
558.6275, 169241.8
559.1096, 169191.6
559.5917, 169122.7
560.0739, 168987.4
560.5560, 168868.7
561.0381, 168823.5
561.5202, 168835.1
562.0023, 168828.0
562.4844, 168757.8
562.9666, 168683.4
563.4487, 168631.8
563.9308, 168607.2
564.4129, 168579.6
564.8950, 168557.3
565.3771, 168519.7
565.8593, 168440.0
566.3414, 168299.0
566.8235, 168195.8
567.3056, 168150.4
567.7877, 168129.3
568.2698, 168067.7
568.7520, 167968.6
569.2341, 167879.8
569.7162, 167827.8
570.1983, 167794.9
570.6804, 167759.2
571.1625, 167719.6
571.6447, 167654.7
572.1268, 167511.1
572.6089, 167361.5
573.0910, 167290.4
573.5731, 167317.7
574.0552, 167341.5
574.5374, 167293.9
575.0195, 167231.0
575.5016, 167204.6
575.9837, 167238.6
576.4658, 167287.0
576.9479, 167371.8
577.4301, 167456.2
577.9122, 167459.1
578.3943, 167309.6
578.8764, 167210.1
579.3585, 167231.0
579.8406, 167348.4
580.3228, 167416.8
580.8049, 167436.0
581.2870, 167403.5
581.7691, 167287.3
582.2512, 167115.3
582.7333, 167010.8
583.2155, 166990.4
583.6975, 166968.4
584.1796, 166835.8
584.6617, 166656.0
585.1439, 166530.5
585.6260, 166493.4
586.1081, 166511.5
586.5902, 166637.5
587.0723, 166798.0
587.5544, 166849.8
588.0366, 166618.6
588.5187, 166405.5
589.0008, 166315.3
589.4829, 166341.6
589.9650, 166346.5
590.4471, 166302.9
590.9293, 166263.2
591.4114, 166256.6
591.8935, 166289.7
592.3756, 166289.5
592.8577, 166248.8
593.3398, 166191.1
593.8220, 166144.3
594.3041, 166105.8
594.7862, 166051.3
595.2683, 165978.3
595.7504, 165888.7
596.2325, 165777.3
596.7147, 165651.3
597.1968, 165527.6
597.6789, 165385.8
598.1610, 165274.6
598.6431, 165259.5
599.1252, 165317.3
599.6074, 165336.6
600.0895, 165252.0
600.5716, 165140.9
601.0537, 165038.7
601.5358, 164952.8
602.0179, 164854.3
602.5001, 164722.3
602.9822, 164597.5
603.4643, 164514.8
603.9464, 164487.8
604.4285, 164445.4
604.9106, 164377.3
605.3928, 164303.9
605.8749, 164249.9
606.3570, 164215.2
606.8391, 164206.4
607.3212, 164238.0
607.8033, 164278.7
608.2855, 164269.5
608.7676, 164223.7
609.2497, 164192.9
609.7318, 164237.9
610.2139, 164282.6
610.6960, 164251.1
611.1782, 164142.8
611.6603, 164057.1
612.1424, 164070.9
612.6245, 164087.4
613.1066, 164041.4
613.5887, 163883.2
614.0709, 163773.5
614.5530, 163744.6
615.0351, 163739.2
615.5172, 163691.7
615.9993, 163588.6
616.4814, 163511.2
616.9636, 163478.1
617.4457, 163466.4
617.9278, 163426.3
618.4099, 163360.6
618.8920, 163304.9
619.3741, 163280.7
619.8563, 163266.0
620.3384, 163224.5
620.8205, 163160.5
621.3026, 163099.9
621.7847, 163085.1
622.2668, 163058.3
622.7490, 162966.7
623.2311, 162799.3
623.7132, 162647.5
624.1953, 162552.1
624.6774, 162474.0
625.1595, 162387.8
625.6417, 162294.4
626.1238, 162199.3
626.6059, 162104.7
627.0880, 162013.8
627.5701, 161925.2
628.0522, 161837.1
628.5344, 161780.7
629.0165, 161767.5
629.4986, 161781.5
629.9807, 161797.1
630.4628, 161812.7
630.9449, 161824.2
631.4271, 161810.5
631.9092, 161800.0
632.3913, 161829.2
632.8734, 161890.7
633.3555, 161948.7
633.8376, 161999.9
634.3198, 162026.9
634.8019, 162007.5
635.2840, 161923.9
635.7661, 161873.0
636.2482, 161909.5
636.7303, 161944.8
637.2125, 161914.9
637.6946, 161790.6
638.1767, 161692.0
638.6588, 161633.4
639.1409, 161589.1
639.6230, 161520.6
640.1052, 161431.0
640.5873, 161353.7
641.0694, 161299.5
641.5515, 161261.9
642.0336, 161241.7
642.5157, 161232.1
642.9979, 161212.9
643.4800, 161163.7
643.9621, 161108.8
644.4442, 161059.1
644.9263, 161016.0
645.4084, 160990.8
645.8906, 161023.7
646.3727, 161044.0
646.8548, 161011.1
647.3369, 160916.6
647.8190, 160843.5
648.3011, 160809.0
648.7833, 160772.0
649.2654, 160687.1
649.7475, 160544.3
650.2296, 160477.5
650.7117, 160504.1
651.1938, 160565.9
651.6760, 160592.4
652.1581, 160594.6
652.6402, 160606.9
653.1223, 160642.8
653.6044, 160679.3
654.0865, 160706.9
654.5687, 160718.0
655.0508, 160699.0
655.5329, 160608.3
656.0150, 160523.5
656.4971, 160473.0
656.9792, 160453.2
657.4614, 160441.8
657.9435, 160439.2
658.4256, 160442.2
658.9077, 160453.9
659.3898, 160473.0
659.8719, 160472.8
660.3541, 160455.4
660.8362, 160408.0
661.3183, 160296.9
661.8004, 160145.5
662.2825, 160050.0
662.7646, 160018.7
663.2468, 159994.2
663.7289, 159924.1
664.2110, 159832.5
664.6931, 159752.6
665.1752, 159701.5
665.6573, 159640.8
666.1395, 159537.1
666.6216, 159422.8
667.1037, 159337.5
667.5858, 159294.7
668.0679, 159275.0
668.5500, 159285.3
669.0322, 159314.5
669.5143, 159349.6
669.9964, 159403.3
670.4785, 159393.7
670.9606, 159268.8
671.4427, 159080.2
671.9249, 158968.0
672.4070, 158926.9
672.8891, 158924.6
673.3712, 158977.8
673.8533, 159038.6
674.3354, 159046.1
674.8176, 159003.2
675.2997, 158953.3
675.7818, 158908.9
676.2639, 158873.3
676.7460, 158853.9
677.2281, 158861.8
677.7103, 158846.2
678.1924, 158774.1
678.6745, 158710.1
679.1566, 158704.8
679.6387, 158770.7
680.1208, 158836.4
680.6030, 158900.0
681.0851, 158957.8
681.5672, 159016.2
682.0493, 159067.5
682.5314, 159081.5
683.0135, 159041.5
683.4957, 158980.2
683.9778, 158930.9
684.4599, 158884.6
684.9420, 158825.9
685.4241, 158722.0
685.9063, 158632.9
686.3884, 158588.4
686.8705, 158578.5
687.3526, 158564.6
687.8347, 158538.0
688.3168, 158521.0
688.7990, 158525.4
689.2811, 158547.7
689.7632, 158562.8
690.2453, 158574.3
690.7274, 158560.2
691.2095, 158480.0
691.6917, 158366.0
692.1738, 158335.1
692.6559, 158383.0
693.1380, 158404.5
693.6201, 158272.0
694.1022, 158102.7
694.5844, 158017.4
695.0665, 158043.6
695.5486, 158061.5
696.0307, 158006.5
696.5128, 157939.6
696.9949, 157913.9
697.4771, 157983.6
697.9592, 157980.2
698.4413, 157880.3
698.9234, 157741.2
699.4055, 157638.4
699.8876, 157575.3
700.3698, 157481.3
700.8519, 157340.9
701.3340, 157187.2
701.8161, 157060.3
702.2982, 156958.8
702.7803, 156877.1
703.2625, 156817.4
703.7446, 156773.5
704.2267, 156740.1
704.7088, 156719.1
705.1909, 156715.0
705.6730, 156729.8
706.1552, 156757.4
706.6373, 156803.5
707.1194, 156858.2
707.6015, 156875.9
708.0836, 156838.3
708.5657, 156808.0
709.0479, 156812.8
709.5300, 156842.0
710.0121, 156863.5
710.4942, 156875.3
710.9763, 156855.3
711.4584, 156767.1
711.9406, 156649.8
712.4227, 156555.3
712.9048, 156486.2
713.3869, 156409.2
713.8690, 156313.6
714.3511, 156204.5
714.8333, 156079.1
715.3154, 155925.9
715.7975, 155813.0
716.2796, 155771.3
716.7617, 155738.2
717.2438, 155659.1
717.7260, 155530.8
718.2081, 155421.3
718.6902, 155335.4
719.1723, 155275.5
719.6544, 155252.7
720.1365, 155258.2
720.6187, 155270.2
721.1008, 155283.0
721.5829, 155299.3
722.0650, 155312.0
722.5471, 155330.1
723.0292, 155366.6
723.5114, 155457.6
723.9935, 155521.0
724.4756, 155513.4
724.9577, 155478.6
725.4398, 155497.1
725.9219, 155592.1
726.4041, 155661.6
726.8862, 155674.6
727.3683, 155656.9
727.8504, 155682.1
728.3325, 155740.7
728.8146, 155767.7
729.2968, 155723.9
729.7789, 155641.3
730.2610, 155529.8
730.7431, 155405.5
731.2252, 155322.0
731.7073, 155355.2
732.1895, 155383.0
732.6716, 155349.7
733.1537, 155257.2
733.6358, 155165.5
734.1179, 155069.8
734.6000, 154986.2
735.0822, 154935.2
735.5643, 154910.3
736.0464, 154819.8
736.5285, 154660.3
737.0106, 154518.2
737.4927, 154471.9
737.9749, 154478.5
738.4570, 154466.5
738.9391, 154433.0
739.4212, 154395.1
739.9033, 154390.7
740.3854, 154365.1
740.8676, 154258.0
741.3497, 154019.2
741.8318, 153876.2
742.3139, 153905.6
742.7960, 153957.6
743.2781, 153921.3
743.7603, 153777.3
744.2424, 153690.4
744.7245, 153673.2
745.2066, 153682.2
745.6887, 153693.2
746.1708, 153695.0
746.6530, 153641.3
747.1351, 153511.2
747.6172, 153404.8
748.0993, 153420.6
748.5814, 153491.9
749.0635, 153543.6
749.5457, 153542.1
750.0278, 153545.9
750.5099, 153535.2
750.9920, 153546.8
751.4741, 153645.4
751.9562, 153870.3
752.4384, 153985.7
752.9205, 153932.3
753.4026, 153805.4
753.8847, 153742.5
754.3668, 153733.8
754.8489, 153749.7
755.3311, 153798.8
755.8132, 153834.5
756.2953, 153806.1
756.7774, 153737.6
757.2595, 153671.6
757.7416, 153653.7
758.2238, 153604.2
758.7059, 153472.8
759.1880, 153309.3
759.6701, 153227.3
760.1522, 153268.9
760.6343, 153258.0
761.1165, 153129.0
761.5986, 152945.3
762.0807, 152861.0
762.5628, 152864.7
763.0449, 152883.9
763.5270, 152901.8
764.0092, 152905.2
764.4913, 152872.4
764.9734, 152812.5
765.4555, 152753.7
765.9376, 152682.4
766.4197, 152637.7
766.9019, 152649.6
767.3840, 152701.4
767.8661, 152720.3
768.3482, 152699.8
768.8303, 152661.3
769.3124, 152610.0
769.7946, 152547.8
770.2767, 152468.0
770.7588, 152374.5
771.2409, 152303.4
771.7230, 152286.0
772.2051, 152295.7
772.6873, 152321.6
773.1694, 152357.8
773.6515, 152364.8
774.1336, 152313.5
774.6157, 152246.4
775.0978, 152179.1
775.5800, 152112.6
776.0621, 152052.5
776.5442, 152001.1
777.0263, 151950.6
777.5084, 151882.5
777.9905, 151809.8
778.4727, 151810.3
778.9548, 151879.3
779.4369, 151951.5
779.9190, 151996.5
780.4011, 152008.8
780.8832, 151972.3
781.3654, 151886.4
781.8475, 151801.6
782.3296, 151718.8
782.8117, 151655.3
783.2938, 151627.4
783.7759, 151642.0
784.2581, 151611.0
784.7402, 151518.1
785.2223, 151437.6
785.7044, 151457.6
786.1865, 151538.3
786.6686, 151494.4
787.1508, 151323.5
787.6329, 151159.8
788.1150, 151097.2
788.5971, 151091.9
789.0792, 151108.0
789.5613, 151141.0
790.0435, 151184.9
790.5256, 151241.0
791.0077, 151300.3
791.4898, 151354.3
791.9719, 151421.8
792.4540, 151461.6
792.9362, 151553.1
793.4183, 151637.4
793.9004, 151696.2
794.3825, 151723.0
794.8646, 151685.3
795.3467, 151579.8
795.8289, 151477.9
796.3110, 151448.6
796.7931, 151438.2
797.2752, 151398.1
797.7573, 151310.4
798.2394, 151257.1
798.7216, 151272.7
799.2037, 151301.5
799.6858, 151305.1
800.1679, 151277.0
800.6500, 151295.5
801.1321, 151368.9
801.6143, 151442.9
802.0964, 151465.3
802.5785, 151453.7
803.0606, 151432.0
803.5427, 151400.5
804.0248, 151392.0
804.5070, 151418.5
804.9891, 151478.5
805.4712, 151581.1
805.9533, 151758.5
806.4354, 151866.5
806.9175, 151859.6
807.3997, 151846.2
807.8818, 151926.6
808.3639, 152095.9
808.8460, 152182.6
809.3281, 152178.2
809.8102, 152124.6
810.2924, 152024.3
810.7745, 151915.0
811.2566, 151849.7
811.7387, 151839.2
812.2208, 151848.6
812.7029, 151869.5
813.1851, 151903.7
813.6672, 151959.8
814.1493, 152052.7
814.6314, 152101.6
815.1135, 152094.9
815.5956, 152072.5
816.0778, 152064.7
816.5599, 152067.4
817.0420, 152058.6
817.5241, 152035.1
818.0062, 152026.5
818.4883, 152069.7
818.9705, 152127.0
819.4526, 152158.1
819.9347, 152151.8
820.4168, 152155.5
820.8989, 152219.6
821.3810, 152256.1
821.8632, 152209.0
822.3453, 152066.2
822.8274, 151972.3
823.3095, 151937.8
823.7916, 151912.4
824.2737, 151848.1
824.7559, 151770.7
825.2380, 151725.9
825.7201, 151718.4
826.2022, 151750.5
826.6843, 151856.8
827.1664, 151978.2
827.6486, 152070.1
828.1307, 152122.2
828.6128, 152193.4
829.0949, 152267.9
829.5770, 152387.8
830.0591, 152599.0
830.5413, 152887.5
831.0234, 153110.6
831.5055, 153267.9
831.9876, 153419.2
832.4697, 153633.3
832.9518, 153848.1
833.4340, 153972.7
833.9161, 154011.7
834.3982, 154106.7
834.8803, 154387.2
835.3624, 154655.5
835.8445, 154818.2
836.3267, 154880.4
836.8088, 154970.1
837.2909, 155092.6
837.7730, 155220.3
838.2551, 155325.2
838.7372, 155429.9
839.2194, 155618.0
839.7015, 155871.2
840.1836, 156079.6
840.6657, 156195.5
841.1478, 156232.6
841.6299, 156191.8
842.1121, 156073.0
842.5942, 155891.2
843.0763, 155644.7
843.5584, 155343.5
844.0405, 154991.6
844.5226, 154585.0
845.0048, 154106.8
845.4869, 153557.1
845.9690, 152954.9
846.4511, 152281.0
846.9332, 151591.3
847.4153, 150930.0
847.8975, 150305.0
848.3796, 149737.1
848.8617, 149253.9
849.3438, 148810.0
849.8259, 148396.7
850.3080, 148016.2
850.7902, 147673.7
851.2723, 147369.0
851.7544, 147133.5
852.2365, 146999.7
852.7186, 146905.0
853.2007, 146716.9
853.6829, 146475.1
854.1650, 146286.7
854.6471, 146218.8
855.1292, 146176.1
855.6113, 146122.3
856.0934, 146058.8
856.5756, 145988.9
857.0577, 145914.7
857.5398, 145822.3
858.0219, 145695.5
858.5040, 145568.0
858.9861, 145506.8
859.4683, 145498.5
859.9504, 145475.6
860.4325, 145422.3
860.9146, 145349.8
861.3967, 145256.5
861.8788, 145155.8
862.3610, 145063.1
862.8431, 144992.1
863.3252, 144914.9
863.8073, 144838.1
864.2894, 144748.7
864.7715, 144628.5
865.2537, 144477.2
865.7358, 144354.3
866.2179, 144269.5
866.7000, 144187.7
867.1821, 144068.7
867.6642, 143934.0
868.1464, 143804.2
868.6285, 143674.5
869.1106, 143607.4
869.5927, 143686.5
870.0748, 143786.8
870.5569, 143822.1
871.0391, 143778.1
871.5212, 143735.2
872.0033, 143681.1
872.4854, 143657.9
872.9675, 143734.3
873.4496, 143851.6
873.9318, 143853.3
874.4139, 143741.6
874.8960, 143631.1
875.3781, 143610.6
875.8602, 143593.3
876.3423, 143523.4
876.8245, 143399.9
877.3066, 143288.5
877.7887, 143200.3
878.2708, 143114.6
878.7529, 143032.6
879.2350, 142952.0
879.7172, 142836.7
880.1993, 142700.4
880.6814, 142599.9
881.1635, 142615.5
881.6456, 142636.4
882.1277, 142542.2
882.6099, 142382.0
883.0920, 142305.9
883.5741, 142404.3
884.0562, 142493.6
884.5383, 142546.2
885.0204, 142563.7
885.5026, 142532.7
885.9847, 142456.1
886.4668, 142425.1
886.9489, 142484.5
887.4310, 142550.4
887.9131, 142511.0
888.3953, 142424.5
888.8774, 142381.7
889.3595, 142502.0
889.8416, 142527.0
890.3237, 142368.5
890.8058, 142152.3
891.2880, 142005.9
891.7701, 141936.4
892.2522, 141870.7
892.7343, 141804.3
893.2164, 141729.6
893.6985, 141616.4
894.1807, 141498.6
894.6628, 141437.2
895.1449, 141453.3
895.6270, 141436.8
896.1091, 141314.7
896.5912, 141176.1
897.0734, 141072.1
897.5555, 141006.5
898.0376, 140955.7
898.5197, 140923.8
899.0018, 140895.0
899.4839, 140852.8
899.9661, 140810.8
900.4482, 140808.0
900.9303, 140835.9
901.4124, 140836.7
901.8945, 140730.6
902.3766, 140639.6
902.8588, 140637.8
903.3409, 140702.1
903.8230, 140727.9
904.3051, 140699.1
904.7872, 140687.6
905.2693, 140729.7
905.7515, 140782.8
906.2336, 140747.6
906.7157, 140649.6
907.1978, 140565.3
907.6799, 140519.6
908.1620, 140502.9
908.6442, 140551.7
909.1263, 140614.5
909.6084, 140604.1
910.0905, 140494.8
910.5726, 140381.5
911.0547, 140265.2
911.5369, 140165.8
912.0190, 140117.0
912.5011, 140105.8
912.9832, 140101.0
913.4653, 140102.0
913.9474, 140077.8
914.4296, 139963.7
914.9117, 139844.2
915.3938, 139799.7
915.8759, 139856.8
916.3580, 139882.5
916.8401, 139872.9
917.3223, 139835.5
917.8044, 139760.8
918.2865, 139662.4
918.7686, 139602.6
919.2507, 139576.2
919.7328, 139525.8
920.2150, 139395.2
920.6971, 139250.3
921.1792, 139124.5
921.6613, 139021.9
922.1434, 138947.3
922.6255, 138912.3
923.1077, 138879.8
923.5898, 138837.1
924.0719, 138792.6
924.5540, 138766.2
925.0361, 138753.5
925.5182, 138741.2
926.0004, 138722.0
926.4825, 138698.4
926.9646, 138661.9
927.4467, 138621.7
927.9288, 138596.0
928.4109, 138606.2
928.8931, 138584.1
929.3752, 138524.2
929.8573, 138436.3
930.3394, 138316.8
930.8215, 138179.1
931.3036, 138073.7
931.7858, 138010.9
932.2679, 137936.5
932.7500, 137770.0
933.2321, 137612.9
933.7142, 137568.3
934.1964, 137672.7
934.6785, 137649.9
935.1606, 137447.0
935.6427, 137252.4
936.1248, 137169.4
936.6069, 137169.8
937.0891, 137168.4
937.5712, 137165.9
938.0533, 137168.8
938.5354, 137176.6
939.0175, 137190.7
939.4996, 137223.1
939.9818, 137258.4
940.4639, 137250.5
940.9460, 137165.3
941.4281, 137119.3
941.9102, 137143.8
942.3923, 137191.0
942.8745, 137185.7
943.3566, 137140.2
943.8387, 137084.2
944.3208, 137016.7
944.8029, 136976.1
945.2850, 137023.0
945.7672, 137085.2
946.2493, 137094.9
946.7314, 137044.5
947.2135, 136972.3
947.6956, 136873.3
948.1777, 136775.3
948.6599, 136698.9
949.1420, 136642.2
949.6241, 136614.2
950.1062, 136608.2
950.5883, 136577.9
951.0704, 136445.9
951.5526, 136332.2
952.0347, 136322.8
952.5168, 136384.5
952.9989, 136399.6
953.4810, 136362.0
953.9631, 136301.7
954.4453, 136224.7
954.9274, 136134.2
955.4095, 136020.5
955.8916, 135900.4
956.3737, 135809.0
956.8558, 135773.3
957.3380, 135740.4
957.8201, 135707.8
958.3022, 135660.9
958.7843, 135572.0
959.2664, 135419.2
959.7485, 135373.6
960.2307, 135454.9
960.7128, 135536.3
961.1949, 135466.8
961.6770, 135346.7
962.1591, 135336.7
962.6412, 135439.3
963.1234, 135508.5
963.6055, 135442.2
964.0876, 135388.5
964.5697, 135410.3
965.0518, 135482.7
965.5339, 135499.8
966.0161, 135460.0
966.4982, 135391.8
966.9803, 135271.4
967.4624, 135181.4
967.9445, 135288.6
968.4266, 135472.0
968.9088, 135530.2
969.3909, 135284.5
969.8730, 135089.6
970.3551, 134989.1
970.8372, 134921.7
971.3193, 134814.5
971.8015, 134677.3
972.2836, 134586.8
972.7657, 134552.0
973.2478, 134530.4
973.7299, 134506.5
974.2120, 134469.2
974.6942, 134391.3
975.1763, 134272.5
975.6584, 134221.0
976.1405, 134270.9
976.6226, 134320.4
977.1047, 134331.9
977.5869, 134315.4
978.0690, 134285.7
978.5511, 134249.4
979.0332, 134237.3
979.5153, 134293.7
979.9974, 134327.2
980.4796, 134271.3
980.9617, 134169.2
981.4438, 134082.7
981.9259, 134014.1
982.4080, 133962.4
982.8901, 133933.7
983.3723, 133902.0
983.8544, 133837.0
984.3365, 133753.7
984.8186, 133666.2
985.3007, 133578.5
985.7828, 133541.5
986.2650, 133641.7
986.7471, 133729.7
987.2292, 133727.5
987.7113, 133656.5
988.1934, 133630.9
988.6755, 133651.1
989.1577, 133680.2
989.6398, 133704.8
990.1219, 133725.6
990.6040, 133743.7
991.0861, 133756.5
991.5682, 133761.2
992.0504, 133775.1
992.5325, 133746.4
993.0146, 133646.0
993.4967, 133538.6
993.9788, 133498.5
994.4609, 133514.4
994.9431, 133464.6
995.4252, 133344.2
995.9073, 133237.1
996.3894, 133237.7
996.8715, 133248.4
997.3536, 133181.9
997.8358, 133044.3
998.3179, 132955.4
998.8000, 132930.8
999.2821, 132921.8
999.7642, 132917.4
1000.246, 132915.6
1000.728, 132922.7
1001.211, 132928.3
1001.693, 132903.6
1002.175, 132827.8
1002.657, 132748.4
1003.139, 132668.4
1003.621, 132608.6
1004.103, 132592.0
1004.585, 132630.2
1005.068, 132637.6
1005.550, 132609.2
1006.032, 132588.4
1006.514, 132615.0
1006.996, 132660.3
1007.478, 132698.9
1007.960, 132724.6
1008.442, 132720.5
1008.924, 132655.0
1009.407, 132589.5
1009.889, 132536.4
1010.371, 132487.7
1010.853, 132436.0
1011.335, 132377.4
1011.817, 132281.7
1012.299, 132135.4
1012.781, 131989.3
1013.263, 131878.1
1013.746, 131791.5
1014.228, 131724.2
1014.710, 131682.6
1015.192, 131638.8
1015.674, 131594.3
1016.156, 131548.6
1016.638, 131497.5
1017.120, 131444.8
1017.603, 131380.0
1018.085, 131315.9
1018.567, 131304.4
1019.049, 131417.4
1019.531, 131519.5
1020.013, 131563.0
1020.495, 131603.8
1020.977, 131612.8
1021.459, 131586.5
1021.942, 131553.5
1022.424, 131470.6
1022.906, 131376.7
1023.388, 131316.5
1023.870, 131259.6
1024.352, 131172.6
1024.834, 131051.9
1025.316, 130943.6
1025.799, 130853.3
1026.281, 130779.8
1026.763, 130723.2
1027.245, 130687.1
1027.727, 130692.0
1028.209, 130722.9
1028.691, 130724.8
1029.173, 130654.4
1029.656, 130584.7
1030.138, 130546.7
1030.620, 130526.3
1031.102, 130507.0
1031.584, 130485.8
1032.066, 130469.5
1032.548, 130456.1
1033.030, 130450.4
1033.512, 130432.2
1033.995, 130438.4
1034.477, 130558.1
1034.959, 130762.2
1035.441, 130860.7
1035.923, 130738.0
1036.405, 130611.8
1036.887, 130519.5
1037.369, 130453.0
1037.851, 130413.2
1038.334, 130387.6
1038.816, 130316.8
1039.298, 130177.4
1039.780, 130042.5
1040.262, 129950.1
1040.744, 129887.2
1041.226, 129851.3
1041.708, 129844.6
1042.191, 129804.9
1042.673, 129726.7
1043.155, 129661.8
1043.637, 129643.6
1044.119, 129649.2
1044.601, 129650.1
1045.083, 129648.9
1045.565, 129651.5
1046.047, 129703.7
1046.530, 129685.9
1047.012, 129551.5
1047.494, 129399.7
1047.976, 129344.4
1048.458, 129369.2
1048.940, 129413.0
1049.422, 129469.1
1049.904, 129495.3
1050.386, 129446.0
1050.869, 129376.2
1051.351, 129303.9
1051.833, 129237.2
1052.315, 129217.3
1052.797, 129252.1
1053.279, 129264.5
1053.761, 129231.9
1054.243, 129172.9
1054.726, 129093.5
1055.208, 129011.0
1055.690, 128951.0
1056.172, 128925.2
1056.654, 128905.5
1057.136, 128909.8
1057.618, 128882.2
1058.100, 128770.3
1058.583, 128603.5
1059.065, 128502.2
1059.547, 128454.2
1060.029, 128401.8
1060.511, 128295.4
1060.993, 128204.3
1061.475, 128175.1
1061.957, 128170.5
1062.439, 128138.5
1062.922, 128075.5
1063.404, 128030.2
1063.886, 128011.2
1064.368, 127971.8
1064.850, 127843.9
1065.332, 127693.3
1065.814, 127584.9
1066.296, 127521.6
1066.778, 127464.3
1067.261, 127421.2
1067.743, 127345.8
1068.225, 127203.6
1068.707, 127058.4
1069.189, 127059.6
1069.671, 127147.8
1070.153, 127186.0
1070.635, 127133.2
1071.118, 127053.6
1071.600, 126966.3
1072.082, 126867.5
1072.564, 126753.9
1073.046, 126629.1
1073.528, 126498.5
1074.010, 126367.2
1074.492, 126270.1
1074.974, 126258.1
1075.457, 126254.9
1075.939, 126182.7
1076.421, 126088.4
1076.903, 126059.3
1077.385, 126143.3
1077.867, 126142.5
1078.349, 126030.7
1078.831, 125903.5
1079.313, 125840.8
1079.796, 125821.8
1080.278, 125834.1
1080.760, 125867.2
1081.242, 125867.4
1081.724, 125787.9
1082.206, 125710.3
1082.688, 125652.5
1083.170, 125605.2
1083.652, 125554.0
1084.135, 125499.7
1084.617, 125443.2
1085.099, 125385.1
1085.581, 125331.3
1086.063, 125302.5
1086.545, 125264.6
1087.027, 125182.8
1087.509, 125066.8
1087.992, 125021.4
1088.474, 125047.8
1088.956, 125058.5
1089.438, 125014.3
1089.920, 124945.3
1090.402, 124856.2
1090.884, 124770.9
1091.366, 124726.6
1091.849, 124753.1
1092.331, 124748.9
1092.813, 124702.7
1093.295, 124664.0
1093.777, 124690.4
1094.259, 124737.7
1094.741, 124710.1
1095.223, 124626.8
1095.705, 124560.8
1096.188, 124539.9
1096.670, 124536.4
1097.152, 124549.2
1097.634, 124567.1
1098.116, 124578.3
1098.598, 124581.8
1099.080, 124571.1
1099.562, 124546.0
1100.044, 124530.6
1100.527, 124587.5
1101.009, 124611.4
1101.491, 124531.6
1101.973, 124380.5
1102.455, 124249.1
1102.937, 124138.5
1103.419, 124038.5
1103.901, 123949.2
1104.384, 123869.7
1104.866, 123778.1
1105.348, 123711.7
1105.830, 123735.8
1106.312, 123878.0
1106.794, 123869.3
1107.276, 123662.4
1107.758, 123490.6
1108.240, 123477.1
1108.723, 123535.0
1109.205, 123528.1
1109.687, 123485.5
1110.169, 123464.4
1110.651, 123483.0
1111.133, 123523.5
1111.615, 123613.8
1112.097, 123669.1
1112.579, 123591.4
1113.062, 123427.9
1113.544, 123354.5
1114.026, 123355.4
1114.508, 123351.6
1114.990, 123297.7
1115.472, 123242.7
1115.954, 123208.9
1116.436, 123178.9
1116.919, 123126.0
1117.401, 123053.6
1117.883, 123002.7
1118.365, 122978.0
1118.847, 122946.9
1119.329, 122866.4
1119.811, 122791.3
1120.293, 122777.8
1120.776, 122799.5
1121.258, 122752.8
1121.740, 122625.1
1122.222, 122553.8
1122.704, 122579.9
1123.186, 122605.8
1123.668, 122503.4
1124.150, 122362.5
1124.632, 122283.4
1125.115, 122284.4
1125.597, 122254.3
1126.079, 122182.4
1126.561, 122111.9
1127.043, 122064.7
1127.525, 122022.0
1128.007, 121958.4
1128.489, 121877.4
1128.971, 121780.4
1129.454, 121654.1
1129.936, 121563.5
1130.418, 121538.6
1130.900, 121507.5
1131.382, 121408.3
1131.864, 121277.4
1132.346, 121227.9
1132.828, 121240.0
1133.311, 121249.2
1133.793, 121202.6
1134.275, 121179.2
1134.757, 121207.5
1135.239, 121246.2
1135.721, 121260.3
1136.203, 121248.0
1136.685, 121193.9
1137.167, 121103.2
1137.650, 121054.9
1138.132, 121171.4
1138.614, 121258.8
1139.096, 121204.7
1139.578, 121068.7
1140.060, 120931.9
1140.542, 120794.1
1141.024, 120689.1
1141.506, 120623.2
1141.989, 120575.1
1142.471, 120547.4
1142.953, 120516.5
1143.435, 120456.8
1143.917, 120378.2
1144.399, 120324.8
1144.881, 120300.8
1145.363, 120276.9
1145.846, 120244.7
1146.328, 120217.0
1146.810, 120214.9
1147.292, 120218.6
1147.774, 120201.0
1148.256, 120200.0
1148.738, 120141.4
1149.220, 120174.9
1149.703, 120185.7
1150.185, 120152.6
1150.667, 120077.9
1151.149, 119910.3
1151.631, 119724.0
1152.113, 119654.0
1152.595, 119788.3
1153.077, 119818.4
1153.559, 119692.8
1154.042, 119544.2
1154.524, 119433.9
1155.006, 119356.0
1155.488, 119316.5
1155.970, 119296.9
1156.452, 119253.1
1156.934, 119151.0
1157.416, 119062.7
1157.898, 119006.8
1158.381, 118952.9
1158.863, 118866.1
1159.345, 118762.9
1159.827, 118716.6
1160.309, 118715.2
1160.791, 118711.5
1161.273, 118666.1
1161.755, 118638.0
1162.238, 118656.8
1162.720, 118678.4
1163.202, 118644.8
1163.684, 118567.4
1164.166, 118534.8
1164.648, 118544.0
1165.130, 118533.8
1165.612, 118437.1
1166.094, 118350.8
1166.577, 118334.5
1167.059, 118343.1
1167.541, 118308.1
1168.023, 118232.9
1168.505, 118149.7
1168.987, 118062.6
1169.469, 117972.8
1169.951, 117846.6
1170.433, 117753.7
1170.916, 117765.0
1171.398, 117833.4
1171.880, 117845.1
1172.362, 117800.4
1172.844, 117733.4
1173.326, 117642.9
1173.808, 117585.9
1174.290, 117667.5
1174.773, 117752.2
1175.255, 117698.2
1175.737, 117720.0
1176.219, 117708.4
1176.701, 117599.4
1177.183, 117607.7
1177.665, 117448.7
1178.147, 117275.8
1178.630, 117258.7
1179.112, 117285.2
1179.594, 117231.8
1180.076, 117094.1
1180.558, 117033.8
1181.040, 117060.7
1181.522, 117073.6
1182.004, 117031.0
1182.486, 116964.9
1182.969, 116883.4
1183.451, 116812.4
1183.933, 116789.2
1184.415, 116824.4
1184.897, 116848.2
1185.379, 116860.7
1185.861, 116850.7
1186.343, 116798.3
1186.825, 116738.5
1187.308, 116722.0
1187.790, 116722.8
1188.272, 116702.4
1188.754, 116664.7
1189.236, 116563.3
1189.718, 116381.1
1190.200, 116232.8
1190.682, 116220.4
1191.165, 116262.6
1191.647, 116277.0
1192.129, 116262.0
1192.611, 116210.0
1193.093, 116096.4
1193.575, 116007.4
1194.057, 115950.5
1194.539, 115893.2
1195.021, 115781.0
1195.504, 115672.0
1195.986, 115663.8
1196.468, 115724.4
1196.950, 115758.3
1197.432, 115733.7
1197.914, 115715.6
1198.396, 115713.8
1198.878, 115693.0
1199.360, 115594.7
1199.843, 115473.3
1200.325, 115425.2
1200.807, 115430.7
1201.289, 115390.8
1201.771, 115257.7
1202.253, 115157.3
1202.735, 115106.3
1203.217, 115088.7
1203.700, 115097.2
1204.182, 115122.4
1204.664, 115157.7
1205.146, 115198.2
1205.628, 115218.2
1206.110, 115197.4
1206.592, 115186.6
1207.074, 115191.6
1207.557, 115204.1
1208.039, 115225.1
1208.521, 115238.0
1209.003, 115207.9
1209.485, 115135.0
1209.967, 115092.3
1210.449, 115108.0
1210.931, 115104.6
1211.413, 115064.0
1211.896, 115005.7
1212.378, 114950.3
1212.860, 114898.3
1213.342, 114865.8
1213.824, 114854.9
1214.306, 114778.6
1214.788, 114606.2
1215.270, 114441.6
1215.752, 114310.8
1216.235, 114206.3
1216.717, 114135.1
1217.199, 114073.8
1217.681, 113979.2
1218.163, 113841.1
1218.645, 113744.4
1219.127, 113707.3
1219.609, 113671.1
1220.092, 113616.2
1220.574, 113554.9
1221.056, 113492.4
1221.538, 113440.9
1222.020, 113428.7
1222.502, 113468.7
1222.984, 113451.8
1223.466, 113343.4
1223.948, 113281.6
1224.431, 113337.1
1224.913, 113418.8
1225.395, 113387.3
1225.877, 113299.9
1226.359, 113236.6
1226.841, 113217.9
1227.323, 113186.6
1227.805, 113143.5
1228.287, 113081.4
1228.770, 112990.8
1229.252, 112891.6
1229.734, 112797.8
1230.216, 112720.7
1230.698, 112687.7
1231.180, 112720.9
1231.662, 112690.7
1232.144, 112587.8
1232.627, 112478.5
1233.109, 112394.9
1233.591, 112318.8
1234.073, 112234.1
1234.555, 112141.0
1235.037, 112032.7
1235.519, 111902.7
1236.001, 111809.7
1236.484, 111756.4
1236.966, 111741.7
1237.448, 111793.3
1237.930, 111841.3
1238.412, 111792.5
1238.894, 111706.2
1239.376, 111663.9
1239.858, 111671.1
1240.340, 111682.0
1240.823, 111694.0
1241.305, 111711.1
1241.787, 111742.2
1242.269, 111763.5
1242.751, 111745.0
1243.233, 111707.1
1243.715, 111680.5
1244.197, 111669.6
1244.679, 111615.5
1245.162, 111519.4
1245.644, 111437.0
1246.126, 111413.2
1246.608, 111395.9
1247.090, 111350.3
1247.572, 111295.2
1248.054, 111258.2
1248.536, 111243.2
1249.019, 111182.8
1249.501, 111084.4
1249.983, 111009.9
1250.465, 111006.9
1250.947, 111021.6
1251.429, 111055.1
1251.911, 111067.7
1252.393, 111006.1
1252.875, 110875.1
1253.358, 110798.5
1253.840, 110770.3
1254.322, 110759.8
1254.804, 110779.0
1255.286, 110771.4
1255.768, 110691.0
1256.250, 110601.8
1256.732, 110554.7
1257.214, 110547.5
1257.697, 110586.5
1258.179, 110656.8
1258.661, 110684.6
1259.143, 110608.8
1259.625, 110530.5
1260.107, 110464.1
1260.589, 110413.7
1261.071, 110385.4
1261.554, 110375.3
1262.036, 110390.5
1262.518, 110413.2
1263.000, 110386.6
1263.482, 110218.0
1263.964, 110109.0
1264.446, 110096.6
1264.928, 110091.6
1265.411, 110000.0
1265.893, 109874.9
1266.375, 109826.9
1266.857, 109831.9
1267.339, 109821.2
1267.821, 109745.4
1268.303, 109732.1
1268.785, 109810.9
1269.267, 109860.0
1269.750, 109742.9
1270.232, 109572.9
1270.714, 109486.9
1271.196, 109464.5
1271.678, 109459.9
1272.160, 109475.2
1272.642, 109472.2
1273.124, 109446.6
1273.606, 109418.4
1274.089, 109397.6
1274.571, 109381.2
1275.053, 109376.1
1275.535, 109367.9
1276.017, 109333.8
1276.499, 109271.4
1276.981, 109185.5
1277.463, 109077.8
1277.946, 108999.0
1278.428, 109034.0
1278.910, 109055.5
1279.392, 108958.3
1279.874, 108824.8
1280.356, 108756.0
1280.838, 108751.7
1281.320, 108707.3
1281.802, 108626.1
1282.285, 108547.9
1282.767, 108486.3
1283.249, 108439.7
1283.731, 108409.8
1284.213, 108389.3
1284.695, 108373.9
1285.177, 108361.2
1285.659, 108337.8
1286.141, 108307.5
1286.624, 108290.1
1287.106, 108309.0
1287.588, 108318.7
1288.070, 108319.5
1288.552, 108299.0
1289.034, 108231.3
1289.516, 108142.8
1289.998, 108096.8
1290.481, 108079.3
1290.963, 108053.6
1291.445, 108011.4
1291.927, 107956.5
1292.409, 107885.1
1292.891, 107817.1
1293.373, 107756.0
1293.855, 107715.8
1294.338, 107739.8
1294.820, 107789.6
1295.302, 107789.4
1295.784, 107729.1
1296.266, 107636.1
1296.748, 107506.7
1297.230, 107411.0
1297.712, 107410.6
1298.194, 107436.5
1298.677, 107455.7
1299.159, 107450.8
1299.641, 107394.9
1300.123, 107284.6
1300.605, 107180.7
1301.087, 107080.9
1301.569, 106969.9
1302.051, 106827.6
1302.533, 106670.4
1303.016, 106500.3
##END=



