##NAMES=Pigeonite
##RRUFFID=R200002
##IDEAL CHEMISTRY=(Mg,Fe^2+^,Ca)SiO_3_
##LOCALITY=Belmont Quarry, near Leesburg, Loudoun County, Virginia, USA
##OWNER=RRUFF
##SOURCE=James Shigley
##DESCRIPTION=Grey to yellow prismatic crystals associated with white anorthite and dark biotite
##STATUS=The identification of this mineral has been confirmed by single-crystal X-ray diffraction.
##URL=rruff.info/R200002
8.758203e+001, 2.490964e+003
8.806415e+001, 2.455410e+003
8.854626e+001, 2.449223e+003
8.902838e+001, 2.483566e+003
8.951050e+001, 2.528640e+003
8.999261e+001, 2.575249e+003
9.047473e+001, 2.622295e+003
9.095685e+001, 2.669628e+003
9.143896e+001, 2.717536e+003
9.192108e+001, 2.766040e+003
9.240320e+001, 2.812484e+003
9.288531e+001, 2.822483e+003
9.336743e+001, 2.779427e+003
9.384955e+001, 2.698943e+003
9.433167e+001, 2.622623e+003
9.481378e+001, 2.544762e+003
9.529590e+001, 2.478947e+003
9.577802e+001, 2.423955e+003
9.626013e+001, 2.377047e+003
9.674225e+001, 2.337315e+003
9.722437e+001, 2.303528e+003
9.770648e+001, 2.271408e+003
9.818860e+001, 2.238905e+003
9.867072e+001, 2.208124e+003
9.915283e+001, 2.179634e+003
9.963495e+001, 2.153284e+003
1.001171e+002, 2.129189e+003
1.005992e+002, 2.107917e+003
1.010813e+002, 2.089585e+003
1.015634e+002, 2.072625e+003
1.020455e+002, 2.055188e+003
1.025277e+002, 2.038343e+003
1.030098e+002, 2.022745e+003
1.034919e+002, 2.008554e+003
1.039740e+002, 1.995669e+003
1.044561e+002, 1.984263e+003
1.049382e+002, 1.975883e+003
1.054204e+002, 1.966809e+003
1.059025e+002, 1.956790e+003
1.063846e+002, 1.945654e+003
1.068667e+002, 1.932837e+003
1.073488e+002, 1.917445e+003
1.078309e+002, 1.900177e+003
1.083131e+002, 1.886749e+003
1.087952e+002, 1.878412e+003
1.092773e+002, 1.871953e+003
1.097594e+002, 1.866170e+003
1.102415e+002, 1.860918e+003
1.107236e+002, 1.855532e+003
1.112058e+002, 1.848723e+003
1.116879e+002, 1.841296e+003
1.121700e+002, 1.835936e+003
1.126521e+002, 1.835342e+003
1.131342e+002, 1.836605e+003
1.136163e+002, 1.834744e+003
1.140985e+002, 1.828663e+003
1.145806e+002, 1.821207e+003
1.150627e+002, 1.813116e+003
1.155448e+002, 1.805089e+003
1.160269e+002, 1.798874e+003
1.165090e+002, 1.796688e+003
1.169912e+002, 1.798425e+003
1.174733e+002, 1.798495e+003
1.179554e+002, 1.794530e+003
1.184375e+002, 1.790640e+003
1.189196e+002, 1.789229e+003
1.194017e+002, 1.789848e+003
1.198839e+002, 1.790022e+003
1.203660e+002, 1.786052e+003
1.208481e+002, 1.774090e+003
1.213302e+002, 1.767740e+003
1.218123e+002, 1.772082e+003
1.222944e+002, 1.777284e+003
1.227766e+002, 1.775994e+003
1.232587e+002, 1.766521e+003
1.237408e+002, 1.753440e+003
1.242229e+002, 1.745463e+003
1.247050e+002, 1.747665e+003
1.251871e+002, 1.748725e+003
1.256693e+002, 1.748673e+003
1.261514e+002, 1.747341e+003
1.266335e+002, 1.744237e+003
1.271156e+002, 1.738950e+003
1.275977e+002, 1.732272e+003
1.280798e+002, 1.726552e+003
1.285620e+002, 1.722043e+003
1.290441e+002, 1.717773e+003
1.295262e+002, 1.713567e+003
1.300083e+002, 1.709364e+003
1.304904e+002, 1.704856e+003
1.309725e+002, 1.699527e+003
1.314547e+002, 1.694044e+003
1.319368e+002, 1.689763e+003
1.324189e+002, 1.687328e+003
1.329010e+002, 1.685445e+003
1.333831e+002, 1.682550e+003
1.338652e+002, 1.678321e+003
1.343474e+002, 1.674895e+003
1.348295e+002, 1.674771e+003
1.353116e+002, 1.675679e+003
1.357937e+002, 1.674902e+003
1.362758e+002, 1.670558e+003
1.367579e+002, 1.664479e+003
1.372401e+002, 1.661905e+003
1.377222e+002, 1.666087e+003
1.382043e+002, 1.668774e+003
1.386864e+002, 1.666681e+003
1.391685e+002, 1.661625e+003
1.396507e+002, 1.656216e+003
1.401328e+002, 1.652084e+003
1.406149e+002, 1.649191e+003
1.410970e+002, 1.647017e+003
1.415791e+002, 1.646409e+003
1.420612e+002, 1.645761e+003
1.425434e+002, 1.645356e+003
1.430255e+002, 1.644666e+003
1.435076e+002, 1.642576e+003
1.439897e+002, 1.637896e+003
1.444718e+002, 1.630023e+003
1.449539e+002, 1.622874e+003
1.454361e+002, 1.616533e+003
1.459182e+002, 1.610636e+003
1.464003e+002, 1.605249e+003
1.468824e+002, 1.600262e+003
1.473645e+002, 1.595115e+003
1.478466e+002, 1.589030e+003
1.483288e+002, 1.581419e+003
1.488109e+002, 1.575026e+003
1.492930e+002, 1.570041e+003
1.497751e+002, 1.566186e+003
1.502572e+002, 1.563599e+003
1.507393e+002, 1.562461e+003
1.512215e+002, 1.561521e+003
1.517036e+002, 1.558683e+003
1.521857e+002, 1.554055e+003
1.526678e+002, 1.549655e+003
1.531499e+002, 1.546513e+003
1.536320e+002, 1.544102e+003
1.541142e+002, 1.541228e+003
1.545963e+002, 1.537853e+003
1.550784e+002, 1.533509e+003
1.555605e+002, 1.526818e+003
1.560426e+002, 1.517797e+003
1.565247e+002, 1.510543e+003
1.570069e+002, 1.509129e+003
1.574890e+002, 1.513427e+003
1.579711e+002, 1.516630e+003
1.584532e+002, 1.517345e+003
1.589353e+002, 1.516315e+003
1.594174e+002, 1.513095e+003
1.598996e+002, 1.507741e+003
1.603817e+002, 1.502654e+003
1.608638e+002, 1.501296e+003
1.613459e+002, 1.505336e+003
1.618280e+002, 1.507422e+003
1.623102e+002, 1.505586e+003
1.627923e+002, 1.502205e+003
1.632744e+002, 1.498783e+003
1.637565e+002, 1.495740e+003
1.642386e+002, 1.492485e+003
1.647207e+002, 1.487518e+003
1.652029e+002, 1.477961e+003
1.656850e+002, 1.471634e+003
1.661671e+002, 1.470778e+003
1.666492e+002, 1.472180e+003
1.671313e+002, 1.472805e+003
1.676134e+002, 1.471358e+003
1.680956e+002, 1.468882e+003
1.685777e+002, 1.468431e+003
1.690598e+002, 1.473137e+003
1.695419e+002, 1.476367e+003
1.700240e+002, 1.477308e+003
1.705061e+002, 1.476571e+003
1.709883e+002, 1.474681e+003
1.714704e+002, 1.471720e+003
1.719525e+002, 1.468257e+003
1.724346e+002, 1.466861e+003
1.729167e+002, 1.469328e+003
1.733988e+002, 1.471379e+003
1.738810e+002, 1.471417e+003
1.743631e+002, 1.470012e+003
1.748452e+002, 1.468654e+003
1.753273e+002, 1.468208e+003
1.758094e+002, 1.468373e+003
1.762915e+002, 1.468025e+003
1.767737e+002, 1.466909e+003
1.772558e+002, 1.465618e+003
1.777379e+002, 1.464282e+003
1.782200e+002, 1.462948e+003
1.787021e+002, 1.462141e+003
1.791842e+002, 1.462617e+003
1.796664e+002, 1.463659e+003
1.801485e+002, 1.463894e+003
1.806306e+002, 1.462996e+003
1.811127e+002, 1.461423e+003
1.815948e+002, 1.459546e+003
1.820769e+002, 1.457303e+003
1.825591e+002, 1.455043e+003
1.830412e+002, 1.452812e+003
1.835233e+002, 1.450693e+003
1.840054e+002, 1.448650e+003
1.844875e+002, 1.446313e+003
1.849696e+002, 1.444476e+003
1.854518e+002, 1.445131e+003
1.859339e+002, 1.449920e+003
1.864160e+002, 1.453427e+003
1.868981e+002, 1.453804e+003
1.873802e+002, 1.451968e+003
1.878623e+002, 1.448550e+003
1.883445e+002, 1.443479e+003
1.888266e+002, 1.437509e+003
1.893087e+002, 1.433238e+003
1.897908e+002, 1.431144e+003
1.902729e+002, 1.430328e+003
1.907550e+002, 1.431382e+003
1.912372e+002, 1.433248e+003
1.917193e+002, 1.434622e+003
1.922014e+002, 1.434754e+003
1.926835e+002, 1.433741e+003
1.931656e+002, 1.432176e+003
1.936477e+002, 1.429435e+003
1.941299e+002, 1.426749e+003
1.946120e+002, 1.424182e+003
1.950941e+002, 1.421825e+003
1.955762e+002, 1.419987e+003
1.960583e+002, 1.419006e+003
1.965404e+002, 1.418740e+003
1.970226e+002, 1.416507e+003
1.975047e+002, 1.409010e+003
1.979868e+002, 1.403112e+003
1.984689e+002, 1.401095e+003
1.989510e+002, 1.402250e+003
1.994331e+002, 1.405047e+003
1.999153e+002, 1.408811e+003
2.003974e+002, 1.413394e+003
2.008795e+002, 1.414294e+003
2.013616e+002, 1.408173e+003
2.018437e+002, 1.402422e+003
2.023258e+002, 1.400673e+003
2.028080e+002, 1.402270e+003
2.032901e+002, 1.404100e+003
2.037722e+002, 1.403846e+003
2.042543e+002, 1.401721e+003
2.047364e+002, 1.401015e+003
2.052185e+002, 1.403067e+003
2.057007e+002, 1.405302e+003
2.061828e+002, 1.405867e+003
2.066649e+002, 1.404890e+003
2.071470e+002, 1.404049e+003
2.076291e+002, 1.404607e+003
2.081112e+002, 1.406345e+003
2.085934e+002, 1.407812e+003
2.090755e+002, 1.409071e+003
2.095576e+002, 1.409969e+003
2.100397e+002, 1.410176e+003
2.105218e+002, 1.409666e+003
2.110039e+002, 1.409230e+003
2.114861e+002, 1.409480e+003
2.119682e+002, 1.410172e+003
2.124503e+002, 1.410787e+003
2.129324e+002, 1.410935e+003
2.134145e+002, 1.411164e+003
2.138967e+002, 1.412171e+003
2.143788e+002, 1.414036e+003
2.148609e+002, 1.416282e+003
2.153430e+002, 1.419411e+003
2.158251e+002, 1.422575e+003
2.163072e+002, 1.424727e+003
2.167894e+002, 1.425884e+003
2.172715e+002, 1.425554e+003
2.177536e+002, 1.421965e+003
2.182357e+002, 1.413177e+003
2.187178e+002, 1.406598e+003
2.191999e+002, 1.406926e+003
2.196821e+002, 1.410560e+003
2.201642e+002, 1.413654e+003
2.206463e+002, 1.414626e+003
2.211284e+002, 1.414208e+003
2.216105e+002, 1.414189e+003
2.220926e+002, 1.415337e+003
2.225748e+002, 1.415281e+003
2.230569e+002, 1.411777e+003
2.235390e+002, 1.407438e+003
2.240211e+002, 1.405496e+003
2.245032e+002, 1.407794e+003
2.249853e+002, 1.412500e+003
2.254675e+002, 1.414469e+003
2.259496e+002, 1.412183e+003
2.264317e+002, 1.409320e+003
2.269138e+002, 1.406186e+003
2.273959e+002, 1.403166e+003
2.278780e+002, 1.400599e+003
2.283602e+002, 1.398633e+003
2.288423e+002, 1.397289e+003
2.293244e+002, 1.396763e+003
2.298065e+002, 1.398827e+003
2.302886e+002, 1.399129e+003
2.307707e+002, 1.396063e+003
2.312529e+002, 1.391420e+003
2.317350e+002, 1.386976e+003
2.322171e+002, 1.383560e+003
2.326992e+002, 1.381179e+003
2.331813e+002, 1.379931e+003
2.336634e+002, 1.382382e+003
2.341456e+002, 1.382804e+003
2.346277e+002, 1.379117e+003
2.351098e+002, 1.373784e+003
2.355919e+002, 1.369779e+003
2.360740e+002, 1.368472e+003
2.365561e+002, 1.368837e+003
2.370383e+002, 1.367834e+003
2.375204e+002, 1.363148e+003
2.380025e+002, 1.359811e+003
2.384846e+002, 1.359326e+003
2.389667e+002, 1.359965e+003
2.394488e+002, 1.359677e+003
2.399310e+002, 1.357600e+003
2.404131e+002, 1.354228e+003
2.408952e+002, 1.350705e+003
2.413773e+002, 1.344583e+003
2.418594e+002, 1.341698e+003
2.423415e+002, 1.345980e+003
2.428237e+002, 1.352783e+003
2.433058e+002, 1.355765e+003
2.437879e+002, 1.352408e+003
2.442700e+002, 1.345642e+003
2.447521e+002, 1.341691e+003
2.452342e+002, 1.341937e+003
2.457164e+002, 1.341967e+003
2.461985e+002, 1.341044e+003
2.466806e+002, 1.339540e+003
2.471627e+002, 1.337884e+003
2.476448e+002, 1.336165e+003
2.481269e+002, 1.334505e+003
2.486091e+002, 1.333103e+003
2.490912e+002, 1.331932e+003
2.495733e+002, 1.331010e+003
2.500554e+002, 1.330625e+003
2.505375e+002, 1.330411e+003
2.510196e+002, 1.329723e+003
2.515018e+002, 1.328319e+003
2.519839e+002, 1.326790e+003
2.524660e+002, 1.326236e+003
2.529481e+002, 1.326774e+003
2.534302e+002, 1.326720e+003
2.539123e+002, 1.325041e+003
2.543945e+002, 1.322710e+003
2.548766e+002, 1.321100e+003
2.553587e+002, 1.320452e+003
2.558408e+002, 1.320699e+003
2.563229e+002, 1.322360e+003
2.568051e+002, 1.325223e+003
2.572872e+002, 1.327518e+003
2.577693e+002, 1.328715e+003
2.582514e+002, 1.329044e+003
2.587335e+002, 1.328401e+003
2.592156e+002, 1.326311e+003
2.596978e+002, 1.324881e+003
2.601799e+002, 1.327265e+003
2.606620e+002, 1.332310e+003
2.611441e+002, 1.336260e+003
2.616262e+002, 1.337202e+003
2.621083e+002, 1.336573e+003
2.625905e+002, 1.336914e+003
2.630726e+002, 1.338754e+003
2.635547e+002, 1.340156e+003
2.640368e+002, 1.339695e+003
2.645189e+002, 1.337713e+003
2.650010e+002, 1.334456e+003
2.654832e+002, 1.329049e+003
2.659653e+002, 1.322802e+003
2.664474e+002, 1.317319e+003
2.669295e+002, 1.312264e+003
2.674116e+002, 1.309366e+003
2.678937e+002, 1.312623e+003
2.683759e+002, 1.318220e+003
2.688580e+002, 1.320642e+003
2.693401e+002, 1.316987e+003
2.698222e+002, 1.310484e+003
2.703043e+002, 1.305582e+003
2.707864e+002, 1.302409e+003
2.712686e+002, 1.300301e+003
2.717507e+002, 1.299875e+003
2.722328e+002, 1.300025e+003
2.727149e+002, 1.299639e+003
2.731970e+002, 1.298396e+003
2.736791e+002, 1.296548e+003
2.741613e+002, 1.294246e+003
2.746434e+002, 1.291314e+003
2.751255e+002, 1.288702e+003
2.756076e+002, 1.287000e+003
2.760897e+002, 1.285656e+003
2.765718e+002, 1.284471e+003
2.770540e+002, 1.283499e+003
2.775361e+002, 1.282047e+003
2.780182e+002, 1.278635e+003
2.785003e+002, 1.272750e+003
2.789824e+002, 1.268574e+003
2.794645e+002, 1.268082e+003
2.799467e+002, 1.269237e+003
2.804288e+002, 1.271351e+003
2.809109e+002, 1.274266e+003
2.813930e+002, 1.276818e+003
2.818751e+002, 1.277174e+003
2.823572e+002, 1.275017e+003
2.828394e+002, 1.274685e+003
2.833215e+002, 1.279752e+003
2.838036e+002, 1.284476e+003
2.842857e+002, 1.285022e+003
2.847678e+002, 1.281591e+003
2.852499e+002, 1.277521e+003
2.857321e+002, 1.276181e+003
2.862142e+002, 1.277669e+003
2.866963e+002, 1.277391e+003
2.871784e+002, 1.272045e+003
2.876605e+002, 1.268029e+003
2.881426e+002, 1.269576e+003
2.886248e+002, 1.275320e+003
2.891069e+002, 1.280629e+003
2.895890e+002, 1.281521e+003
2.900711e+002, 1.278426e+003
2.905532e+002, 1.277018e+003
2.910353e+002, 1.278534e+003
2.915175e+002, 1.280309e+003
2.919996e+002, 1.281559e+003
2.924817e+002, 1.282274e+003
2.929638e+002, 1.282364e+003
2.934459e+002, 1.281399e+003
2.939280e+002, 1.279913e+003
2.944102e+002, 1.280607e+003
2.948923e+002, 1.285910e+003
2.953744e+002, 1.289563e+003
2.958565e+002, 1.288705e+003
2.963386e+002, 1.285648e+003
2.968207e+002, 1.283301e+003
2.973029e+002, 1.283084e+003
2.977850e+002, 1.284333e+003
2.982671e+002, 1.285591e+003
2.987492e+002, 1.287392e+003
2.992313e+002, 1.288081e+003
2.997134e+002, 1.286458e+003
3.001956e+002, 1.284164e+003
3.006777e+002, 1.282627e+003
3.011598e+002, 1.282326e+003
3.016419e+002, 1.282918e+003
3.021240e+002, 1.283986e+003
3.026061e+002, 1.285846e+003
3.030883e+002, 1.287247e+003
3.035704e+002, 1.287424e+003
3.040525e+002, 1.287484e+003
3.045346e+002, 1.288243e+003
3.050167e+002, 1.289813e+003
3.054988e+002, 1.291598e+003
3.059810e+002, 1.292810e+003
3.064631e+002, 1.293251e+003
3.069452e+002, 1.293968e+003
3.074273e+002, 1.294625e+003
3.079094e+002, 1.295887e+003
3.083915e+002, 1.298687e+003
3.088737e+002, 1.302636e+003
3.093558e+002, 1.306166e+003
3.098379e+002, 1.307093e+003
3.103200e+002, 1.305152e+003
3.108021e+002, 1.306207e+003
3.112842e+002, 1.313192e+003
3.117664e+002, 1.320427e+003
3.122485e+002, 1.325977e+003
3.127306e+002, 1.330187e+003
3.132127e+002, 1.334115e+003
3.136948e+002, 1.338303e+003
3.141769e+002, 1.342808e+003
3.146591e+002, 1.348117e+003
3.151412e+002, 1.354978e+003
3.156233e+002, 1.361660e+003
3.161054e+002, 1.367780e+003
3.165875e+002, 1.373421e+003
3.170696e+002, 1.378368e+003
3.175518e+002, 1.382262e+003
3.180339e+002, 1.386228e+003
3.185160e+002, 1.393638e+003
3.189981e+002, 1.407460e+003
3.194802e+002, 1.418598e+003
3.199623e+002, 1.424614e+003
3.204445e+002, 1.427867e+003
3.209266e+002, 1.429765e+003
3.214087e+002, 1.430797e+003
3.218908e+002, 1.431806e+003
3.223729e+002, 1.434662e+003
3.228550e+002, 1.440709e+003
3.233372e+002, 1.443816e+003
3.238193e+002, 1.441743e+003
3.243014e+002, 1.437563e+003
3.247835e+002, 1.432892e+003
3.252656e+002, 1.427901e+003
3.257477e+002, 1.421735e+003
3.262299e+002, 1.412673e+003
3.267120e+002, 1.400234e+003
3.271941e+002, 1.390066e+003
3.276762e+002, 1.383808e+003
3.281583e+002, 1.378534e+003
3.286404e+002, 1.373335e+003
3.291226e+002, 1.368068e+003
3.296047e+002, 1.362643e+003
3.300868e+002, 1.357011e+003
3.305689e+002, 1.351166e+003
3.310510e+002, 1.344947e+003
3.315331e+002, 1.337444e+003
3.320153e+002, 1.331031e+003
3.324974e+002, 1.327325e+003
3.329795e+002, 1.324937e+003
3.334616e+002, 1.321774e+003
3.339437e+002, 1.316679e+003
3.344258e+002, 1.310608e+003
3.349080e+002, 1.305703e+003
3.353901e+002, 1.302186e+003
3.358722e+002, 1.299331e+003
3.363543e+002, 1.297128e+003
3.368365e+002, 1.295356e+003
3.373186e+002, 1.293965e+003
3.378007e+002, 1.292975e+003
3.382828e+002, 1.292020e+003
3.387649e+002, 1.290469e+003
3.392470e+002, 1.288173e+003
3.397292e+002, 1.286439e+003
3.402113e+002, 1.286368e+003
3.406934e+002, 1.286255e+003
3.411755e+002, 1.284527e+003
3.416576e+002, 1.281320e+003
3.421397e+002, 1.278652e+003
3.426219e+002, 1.278391e+003
3.431040e+002, 1.280319e+003
3.435861e+002, 1.282399e+003
3.440682e+002, 1.285182e+003
3.445503e+002, 1.287028e+003
3.450324e+002, 1.286633e+003
3.455146e+002, 1.284664e+003
3.459967e+002, 1.282801e+003
3.464788e+002, 1.281956e+003
3.469609e+002, 1.281801e+003
3.474430e+002, 1.281536e+003
3.479251e+002, 1.281051e+003
3.484073e+002, 1.280782e+003
3.488894e+002, 1.281678e+003
3.493715e+002, 1.282700e+003
3.498536e+002, 1.282362e+003
3.503357e+002, 1.279805e+003
3.508178e+002, 1.276739e+003
3.513000e+002, 1.275123e+003
3.517821e+002, 1.275005e+003
3.522642e+002, 1.275638e+003
3.527463e+002, 1.277709e+003
3.532284e+002, 1.279740e+003
3.537105e+002, 1.280186e+003
3.541927e+002, 1.278869e+003
3.546748e+002, 1.276916e+003
3.551569e+002, 1.274408e+003
3.556390e+002, 1.271720e+003
3.561211e+002, 1.270817e+003
3.566032e+002, 1.273044e+003
3.570854e+002, 1.275420e+003
3.575675e+002, 1.274877e+003
3.580496e+002, 1.271957e+003
3.585317e+002, 1.269132e+003
3.590138e+002, 1.267668e+003
3.594959e+002, 1.266758e+003
3.599781e+002, 1.264705e+003
3.604602e+002, 1.261137e+003
3.609423e+002, 1.258391e+003
3.614244e+002, 1.259059e+003
3.619065e+002, 1.261726e+003
3.623886e+002, 1.262789e+003
3.628708e+002, 1.260492e+003
3.633529e+002, 1.257763e+003
3.638350e+002, 1.257151e+003
3.643171e+002, 1.258368e+003
3.647992e+002, 1.259501e+003
3.652813e+002, 1.259697e+003
3.657635e+002, 1.259331e+003
3.662456e+002, 1.259156e+003
3.667277e+002, 1.259188e+003
3.672098e+002, 1.259314e+003
3.676919e+002, 1.259531e+003
3.681740e+002, 1.259799e+003
3.686562e+002, 1.260265e+003
3.691383e+002, 1.261109e+003
3.696204e+002, 1.261388e+003
3.701025e+002, 1.259289e+003
3.705846e+002, 1.254558e+003
3.710667e+002, 1.251784e+003
3.715489e+002, 1.253242e+003
3.720310e+002, 1.255763e+003
3.725131e+002, 1.256341e+003
3.729952e+002, 1.254908e+003
3.734773e+002, 1.253576e+003
3.739594e+002, 1.254359e+003
3.744416e+002, 1.256746e+003
3.749237e+002, 1.255690e+003
3.754058e+002, 1.247727e+003
3.758879e+002, 1.240430e+003
3.763700e+002, 1.237678e+003
3.768521e+002, 1.237747e+003
3.773343e+002, 1.237024e+003
3.778164e+002, 1.233877e+003
3.782985e+002, 1.229104e+003
3.787806e+002, 1.224486e+003
3.792627e+002, 1.219625e+003
3.797448e+002, 1.215607e+003
3.802270e+002, 1.213374e+003
3.807091e+002, 1.211546e+003
3.811912e+002, 1.208244e+003
3.816733e+002, 1.203340e+003
3.821554e+002, 1.199088e+003
3.826375e+002, 1.198368e+003
3.831197e+002, 1.202556e+003
3.836018e+002, 1.203113e+003
3.840839e+002, 1.196786e+003
3.845660e+002, 1.190665e+003
3.850481e+002, 1.188102e+003
3.855302e+002, 1.188430e+003
3.860124e+002, 1.189525e+003
3.864945e+002, 1.190104e+003
3.869766e+002, 1.190127e+003
3.874587e+002, 1.189341e+003
3.879408e+002, 1.186252e+003
3.884229e+002, 1.184167e+003
3.889051e+002, 1.184131e+003
3.893872e+002, 1.184916e+003
3.898693e+002, 1.185508e+003
3.903514e+002, 1.185502e+003
3.908335e+002, 1.184702e+003
3.913156e+002, 1.182463e+003
3.917978e+002, 1.177621e+003
3.922799e+002, 1.174559e+003
3.927620e+002, 1.174840e+003
3.932441e+002, 1.175469e+003
3.937262e+002, 1.175036e+003
3.942083e+002, 1.173536e+003
3.946905e+002, 1.171629e+003
3.951726e+002, 1.169759e+003
3.956547e+002, 1.167932e+003
3.961368e+002, 1.166357e+003
3.966189e+002, 1.166164e+003
3.971010e+002, 1.164477e+003
3.975832e+002, 1.158895e+003
3.980653e+002, 1.151985e+003
3.985474e+002, 1.147387e+003
3.990295e+002, 1.146790e+003
3.995116e+002, 1.147719e+003
3.999937e+002, 1.146219e+003
4.004759e+002, 1.141988e+003
4.009580e+002, 1.136892e+003
4.014401e+002, 1.129436e+003
4.019222e+002, 1.122733e+003
4.024043e+002, 1.119582e+003
4.028864e+002, 1.119938e+003
4.033686e+002, 1.120547e+003
4.038507e+002, 1.118987e+003
4.043328e+002, 1.115677e+003
4.048149e+002, 1.112300e+003
4.052970e+002, 1.108685e+003
4.057791e+002, 1.105666e+003
4.062613e+002, 1.104338e+003
4.067434e+002, 1.103966e+003
4.072255e+002, 1.103023e+003
4.077076e+002, 1.100596e+003
4.081897e+002, 1.097832e+003
4.086718e+002, 1.095993e+003
4.091540e+002, 1.095051e+003
4.096361e+002, 1.094535e+003
4.101182e+002, 1.094570e+003
4.106003e+002, 1.094643e+003
4.110824e+002, 1.093713e+003
4.115645e+002, 1.091368e+003
4.120467e+002, 1.089639e+003
4.125288e+002, 1.089973e+003
4.130109e+002, 1.091369e+003
4.134930e+002, 1.092116e+003
4.139751e+002, 1.091870e+003
4.144572e+002, 1.091015e+003
4.149394e+002, 1.089884e+003
4.154215e+002, 1.088453e+003
4.159036e+002, 1.086749e+003
4.163857e+002, 1.083850e+003
4.168678e+002, 1.081483e+003
4.173499e+002, 1.081703e+003
4.178321e+002, 1.083658e+003
4.183142e+002, 1.084088e+003
4.187963e+002, 1.080887e+003
4.192784e+002, 1.075418e+003
4.197605e+002, 1.072401e+003
4.202426e+002, 1.073484e+003
4.207248e+002, 1.074637e+003
4.212069e+002, 1.076144e+003
4.216890e+002, 1.077159e+003
4.221711e+002, 1.076137e+003
4.226532e+002, 1.073010e+003
4.231353e+002, 1.070071e+003
4.236175e+002, 1.070311e+003
4.240996e+002, 1.074761e+003
4.245817e+002, 1.077109e+003
4.250638e+002, 1.076077e+003
4.255459e+002, 1.074545e+003
4.260280e+002, 1.073623e+003
4.265102e+002, 1.073072e+003
4.269923e+002, 1.071980e+003
4.274744e+002, 1.069698e+003
4.279565e+002, 1.066976e+003
4.284386e+002, 1.066691e+003
4.289207e+002, 1.071542e+003
4.294029e+002, 1.073858e+003
4.298850e+002, 1.070945e+003
4.303671e+002, 1.066625e+003
4.308492e+002, 1.063695e+003
4.313313e+002, 1.062711e+003
4.318134e+002, 1.062804e+003
4.322956e+002, 1.063349e+003
4.327777e+002, 1.064368e+003
4.332598e+002, 1.065005e+003
4.337419e+002, 1.065447e+003
4.342241e+002, 1.065160e+003
4.347062e+002, 1.063718e+003
4.351883e+002, 1.061482e+003
4.356704e+002, 1.059036e+003
4.361525e+002, 1.056291e+003
4.366346e+002, 1.053939e+003
4.371168e+002, 1.053699e+003
4.375989e+002, 1.055901e+003
4.380810e+002, 1.056550e+003
4.385631e+002, 1.052135e+003
4.390452e+002, 1.047217e+003
4.395273e+002, 1.047724e+003
4.400095e+002, 1.054365e+003
4.404916e+002, 1.059985e+003
4.409737e+002, 1.059936e+003
4.414558e+002, 1.056354e+003
4.419379e+002, 1.053641e+003
4.424200e+002, 1.052458e+003
4.429022e+002, 1.051419e+003
4.433843e+002, 1.049180e+003
4.438664e+002, 1.046025e+003
4.443485e+002, 1.043701e+003
4.448306e+002, 1.042015e+003
4.453127e+002, 1.041437e+003
4.457949e+002, 1.043245e+003
4.462770e+002, 1.046422e+003
4.467591e+002, 1.048260e+003
4.472412e+002, 1.047590e+003
4.477233e+002, 1.045349e+003
4.482054e+002, 1.043193e+003
4.486876e+002, 1.040849e+003
4.491697e+002, 1.039269e+003
4.496518e+002, 1.038734e+003
4.501339e+002, 1.038819e+003
4.506160e+002, 1.039476e+003
4.510981e+002, 1.040524e+003
4.515803e+002, 1.041598e+003
4.520624e+002, 1.042571e+003
4.525445e+002, 1.043307e+003
4.530266e+002, 1.041911e+003
4.535087e+002, 1.034446e+003
4.539908e+002, 1.029356e+003
4.544730e+002, 1.029673e+003
4.549551e+002, 1.032156e+003
4.554372e+002, 1.033091e+003
4.559193e+002, 1.031354e+003
4.564014e+002, 1.028663e+003
4.568835e+002, 1.027543e+003
4.573657e+002, 1.028462e+003
4.578478e+002, 1.028793e+003
4.583299e+002, 1.027549e+003
4.588120e+002, 1.026565e+003
4.592941e+002, 1.026987e+003
4.597762e+002, 1.028272e+003
4.602584e+002, 1.029068e+003
4.607405e+002, 1.028538e+003
4.612226e+002, 1.027177e+003
4.617047e+002, 1.026063e+003
4.621868e+002, 1.025311e+003
4.626689e+002, 1.024191e+003
4.631511e+002, 1.021388e+003
4.636332e+002, 1.018862e+003
4.641153e+002, 1.018976e+003
4.645974e+002, 1.022068e+003
4.650795e+002, 1.024919e+003
4.655616e+002, 1.025670e+003
4.660438e+002, 1.024792e+003
4.665259e+002, 1.023067e+003
4.670080e+002, 1.020440e+003
4.674901e+002, 1.017913e+003
4.679722e+002, 1.016132e+003
4.684543e+002, 1.015145e+003
4.689365e+002, 1.014852e+003
4.694186e+002, 1.015843e+003
4.699007e+002, 1.016925e+003
4.703828e+002, 1.018077e+003
4.708649e+002, 1.018817e+003
4.713470e+002, 1.017784e+003
4.718292e+002, 1.014382e+003
4.723113e+002, 1.010036e+003
4.727934e+002, 1.006826e+003
4.732755e+002, 1.005036e+003
4.737576e+002, 1.003839e+003
4.742397e+002, 1.003308e+003
4.747219e+002, 1.003267e+003
4.752040e+002, 1.003925e+003
4.756861e+002, 1.005002e+003
4.761682e+002, 1.005980e+003
4.766503e+002, 1.006607e+003
4.771324e+002, 1.006648e+003
4.776146e+002, 1.004969e+003
4.780967e+002, 9.988483e+002
4.785788e+002, 9.954808e+002
4.790609e+002, 9.973346e+002
4.795430e+002, 1.000646e+003
4.800251e+002, 1.003109e+003
4.805073e+002, 1.004094e+003
4.809894e+002, 1.003442e+003
4.814715e+002, 1.000204e+003
4.819536e+002, 9.946978e+002
4.824357e+002, 9.913566e+002
4.829178e+002, 9.911202e+002
4.834000e+002, 9.914771e+002
4.838821e+002, 9.916420e+002
4.843642e+002, 9.915776e+002
4.848463e+002, 9.911400e+002
4.853284e+002, 9.901732e+002
4.858105e+002, 9.892132e+002
4.862927e+002, 9.887070e+002
4.867748e+002, 9.886378e+002
4.872569e+002, 9.890122e+002
4.877390e+002, 9.900273e+002
4.882211e+002, 9.910768e+002
4.887032e+002, 9.917311e+002
4.891854e+002, 9.919771e+002
4.896675e+002, 9.912466e+002
4.901496e+002, 9.881431e+002
4.906317e+002, 9.850768e+002
4.911138e+002, 9.840008e+002
4.915959e+002, 9.846868e+002
4.920781e+002, 9.862296e+002
4.925602e+002, 9.883723e+002
4.930423e+002, 9.906638e+002
4.935244e+002, 9.921550e+002
4.940065e+002, 9.930277e+002
4.944886e+002, 9.926174e+002
4.949708e+002, 9.889645e+002
4.954529e+002, 9.854754e+002
4.959350e+002, 9.854514e+002
4.964171e+002, 9.883062e+002
4.968992e+002, 9.904866e+002
4.973813e+002, 9.890560e+002
4.978635e+002, 9.848420e+002
4.983456e+002, 9.830974e+002
4.988277e+002, 9.852308e+002
4.993098e+002, 9.878628e+002
4.997919e+002, 9.915353e+002
5.002740e+002, 9.947733e+002
5.007562e+002, 9.958099e+002
5.012383e+002, 9.945729e+002
5.017204e+002, 9.932375e+002
5.022025e+002, 9.948088e+002
5.026846e+002, 9.988353e+002
5.031667e+002, 9.992606e+002
5.036489e+002, 9.932697e+002
5.041310e+002, 9.890047e+002
5.046131e+002, 9.931021e+002
5.050952e+002, 1.000971e+003
5.055773e+002, 1.005959e+003
5.060594e+002, 1.006063e+003
5.065416e+002, 1.004345e+003
5.070237e+002, 1.002555e+003
5.075058e+002, 1.000895e+003
5.079879e+002, 1.000043e+003
5.084700e+002, 1.000142e+003
5.089521e+002, 1.001165e+003
5.094343e+002, 1.003765e+003
5.099164e+002, 1.007886e+003
5.103985e+002, 1.009796e+003
5.108806e+002, 1.007345e+003
5.113627e+002, 1.004497e+003
5.118448e+002, 1.003801e+003
5.123270e+002, 1.004418e+003
5.128091e+002, 1.003993e+003
5.132912e+002, 1.001467e+003
5.137733e+002, 9.983550e+002
5.142554e+002, 9.976162e+002
5.147375e+002, 1.001237e+003
5.152197e+002, 1.002525e+003
5.157018e+002, 9.980712e+002
5.161839e+002, 9.947980e+002
5.166660e+002, 9.980257e+002
5.171481e+002, 1.005400e+003
5.176302e+002, 1.010683e+003
5.181124e+002, 1.009942e+003
5.185945e+002, 1.005387e+003
5.190766e+002, 1.002608e+003
5.195587e+002, 1.001917e+003
5.200408e+002, 1.001888e+003
5.205229e+002, 1.002711e+003
5.210051e+002, 1.003732e+003
5.214872e+002, 1.004772e+003
5.219693e+002, 1.005703e+003
5.224514e+002, 1.006023e+003
5.229335e+002, 1.005192e+003
5.234156e+002, 1.003639e+003
5.238978e+002, 1.001907e+003
5.243799e+002, 9.999636e+002
5.248620e+002, 9.988351e+002
5.253441e+002, 9.995236e+002
5.258262e+002, 1.001006e+003
5.263083e+002, 1.001065e+003
5.267905e+002, 9.993359e+002
5.272726e+002, 9.976488e+002
5.277547e+002, 9.960946e+002
5.282368e+002, 9.951346e+002
5.287189e+002, 9.957443e+002
5.292010e+002, 9.977573e+002
5.296832e+002, 9.995169e+002
5.301653e+002, 9.997171e+002
5.306474e+002, 9.986185e+002
5.311295e+002, 9.980427e+002
5.316116e+002, 9.992554e+002
5.320938e+002, 9.993473e+002
5.325759e+002, 9.976976e+002
5.330580e+002, 9.950314e+002
5.335401e+002, 9.912482e+002
5.340222e+002, 9.867959e+002
5.345043e+002, 9.834105e+002
5.349865e+002, 9.831603e+002
5.354686e+002, 9.856898e+002
5.359507e+002, 9.870008e+002
5.364328e+002, 9.870560e+002
5.369149e+002, 9.859165e+002
5.373970e+002, 9.825468e+002
5.378792e+002, 9.786102e+002
5.383613e+002, 9.763093e+002
5.388434e+002, 9.762750e+002
5.393255e+002, 9.755483e+002
5.398076e+002, 9.708912e+002
5.402897e+002, 9.639297e+002
5.407719e+002, 9.587410e+002
5.412540e+002, 9.557876e+002
5.417361e+002, 9.549800e+002
5.422182e+002, 9.572072e+002
5.427003e+002, 9.616100e+002
5.431824e+002, 9.639507e+002
5.436646e+002, 9.645830e+002
5.441467e+002, 9.627440e+002
5.446288e+002, 9.553958e+002
5.451109e+002, 9.465863e+002
5.455930e+002, 9.421823e+002
5.460751e+002, 9.432062e+002
5.465573e+002, 9.459198e+002
5.470394e+002, 9.465208e+002
5.475215e+002, 9.449283e+002
5.480036e+002, 9.440204e+002
5.484857e+002, 9.440861e+002
5.489678e+002, 9.445384e+002
5.494500e+002, 9.456128e+002
5.499321e+002, 9.468483e+002
5.504142e+002, 9.478703e+002
5.508963e+002, 9.485459e+002
5.513784e+002, 9.487419e+002
5.518605e+002, 9.479798e+002
5.523427e+002, 9.463694e+002
5.528248e+002, 9.455934e+002
5.533069e+002, 9.458241e+002
5.537890e+002, 9.466447e+002
5.542711e+002, 9.484359e+002
5.547532e+002, 9.504908e+002
5.552354e+002, 9.518209e+002
5.557175e+002, 9.523397e+002
5.561996e+002, 9.519212e+002
5.566817e+002, 9.495202e+002
5.571638e+002, 9.463246e+002
5.576459e+002, 9.452462e+002
5.581281e+002, 9.468661e+002
5.586102e+002, 9.482108e+002
5.590923e+002, 9.464799e+002
5.595744e+002, 9.418656e+002
5.600565e+002, 9.385736e+002
5.605386e+002, 9.381549e+002
5.610208e+002, 9.369347e+002
5.615029e+002, 9.335895e+002
5.619850e+002, 9.292159e+002
5.624671e+002, 9.247293e+002
5.629492e+002, 9.205024e+002
5.634313e+002, 9.169706e+002
5.639135e+002, 9.146667e+002
5.643956e+002, 9.135641e+002
5.648777e+002, 9.127925e+002
5.653598e+002, 9.131216e+002
5.658419e+002, 9.125158e+002
5.663240e+002, 9.099431e+002
5.668062e+002, 9.064533e+002
5.672883e+002, 9.028774e+002
5.677704e+002, 8.993889e+002
5.682525e+002, 8.966354e+002
5.687346e+002, 8.960344e+002
5.692167e+002, 8.965045e+002
5.696989e+002, 8.947227e+002
5.701810e+002, 8.901407e+002
5.706631e+002, 8.853312e+002
5.711452e+002, 8.815743e+002
5.716273e+002, 8.789523e+002
5.721094e+002, 8.777052e+002
5.725916e+002, 8.787671e+002
5.730737e+002, 8.794174e+002
5.735558e+002, 8.788002e+002
5.740379e+002, 8.774807e+002
5.745200e+002, 8.757064e+002
5.750021e+002, 8.737195e+002
5.754843e+002, 8.722555e+002
5.759664e+002, 8.719375e+002
5.764485e+002, 8.726183e+002
5.769306e+002, 8.734927e+002
5.774127e+002, 8.751847e+002
5.778948e+002, 8.759959e+002
5.783770e+002, 8.755524e+002
5.788591e+002, 8.743512e+002
5.793412e+002, 8.723846e+002
5.798233e+002, 8.698905e+002
5.803054e+002, 8.677189e+002
5.807875e+002, 8.665614e+002
5.812697e+002, 8.661401e+002
5.817518e+002, 8.660516e+002
5.822339e+002, 8.664219e+002
5.827161e+002, 8.658475e+002
5.831982e+002, 8.630702e+002
5.836803e+002, 8.597164e+002
5.841624e+002, 8.584003e+002
5.846445e+002, 8.593112e+002
5.851266e+002, 8.600207e+002
5.856088e+002, 8.602830e+002
5.860909e+002, 8.597986e+002
5.865730e+002, 8.580086e+002
5.870551e+002, 8.551990e+002
5.875372e+002, 8.522609e+002
5.880193e+002, 8.496678e+002
5.885015e+002, 8.473141e+002
5.889836e+002, 8.448528e+002
5.894657e+002, 8.413981e+002
5.899478e+002, 8.398636e+002
5.904299e+002, 8.421535e+002
5.909120e+002, 8.442955e+002
5.913942e+002, 8.438793e+002
5.918763e+002, 8.418735e+002
5.923584e+002, 8.405990e+002
5.928405e+002, 8.412619e+002
5.933226e+002, 8.427089e+002
5.938047e+002, 8.432805e+002
5.942869e+002, 8.429818e+002
5.947690e+002, 8.423912e+002
5.952511e+002, 8.415482e+002
5.957332e+002, 8.405122e+002
5.962153e+002, 8.390596e+002
5.966974e+002, 8.373913e+002
5.971796e+002, 8.362943e+002
5.976617e+002, 8.363995e+002
5.981438e+002, 8.365292e+002
5.986259e+002, 8.361569e+002
5.991080e+002, 8.353475e+002
5.995901e+002, 8.340174e+002
6.000723e+002, 8.321985e+002
6.005544e+002, 8.304675e+002
6.010365e+002, 8.293253e+002
6.015186e+002, 8.287618e+002
6.020007e+002, 8.296356e+002
6.024828e+002, 8.349082e+002
6.029650e+002, 8.379974e+002
6.034471e+002, 8.360252e+002
6.039292e+002, 8.324243e+002
6.044113e+002, 8.305477e+002
6.048934e+002, 8.310110e+002
6.053755e+002, 8.322767e+002
6.058577e+002, 8.335109e+002
6.063398e+002, 8.344914e+002
6.068219e+002, 8.341144e+002
6.073040e+002, 8.320782e+002
6.077861e+002, 8.304266e+002
6.082682e+002, 8.303777e+002
6.087504e+002, 8.310098e+002
6.092325e+002, 8.305283e+002
6.097146e+002, 8.285770e+002
6.101967e+002, 8.274344e+002
6.106788e+002, 8.287565e+002
6.111609e+002, 8.303197e+002
6.116431e+002, 8.298278e+002
6.121252e+002, 8.277200e+002
6.126073e+002, 8.258011e+002
6.130894e+002, 8.249841e+002
6.135715e+002, 8.251655e+002
6.140536e+002, 8.263644e+002
6.145358e+002, 8.296725e+002
6.150179e+002, 8.312867e+002
6.155000e+002, 8.299261e+002
6.159821e+002, 8.281531e+002
6.164642e+002, 8.268174e+002
6.169464e+002, 8.258890e+002
6.174285e+002, 8.250903e+002
6.179106e+002, 8.242396e+002
6.183927e+002, 8.237788e+002
6.188748e+002, 8.243958e+002
6.193569e+002, 8.259061e+002
6.198391e+002, 8.275755e+002
6.203212e+002, 8.295490e+002
6.208033e+002, 8.305039e+002
6.212854e+002, 8.288105e+002
6.217675e+002, 8.250571e+002
6.222496e+002, 8.229032e+002
6.227318e+002, 8.235477e+002
6.232139e+002, 8.241567e+002
6.236960e+002, 8.239967e+002
6.241781e+002, 8.233936e+002
6.246602e+002, 8.224714e+002
6.251423e+002, 8.213919e+002
6.256245e+002, 8.206056e+002
6.261066e+002, 8.204728e+002
6.265887e+002, 8.209236e+002
6.270708e+002, 8.218592e+002
6.275529e+002, 8.240210e+002
6.280350e+002, 8.248514e+002
6.285172e+002, 8.218083e+002
6.289993e+002, 8.188257e+002
6.294814e+002, 8.188151e+002
6.299635e+002, 8.213893e+002
6.304456e+002, 8.238616e+002
6.309277e+002, 8.248373e+002
6.314099e+002, 8.253345e+002
6.318920e+002, 8.264644e+002
6.323741e+002, 8.281075e+002
6.328562e+002, 8.297512e+002
6.333383e+002, 8.312303e+002
6.338204e+002, 8.327482e+002
6.343026e+002, 8.346159e+002
6.347847e+002, 8.369282e+002
6.352668e+002, 8.386945e+002
6.357489e+002, 8.386931e+002
6.362310e+002, 8.396737e+002
6.367131e+002, 8.435330e+002
6.371953e+002, 8.482213e+002
6.376774e+002, 8.511677e+002
6.381595e+002, 8.519282e+002
6.386416e+002, 8.521766e+002
6.391237e+002, 8.533888e+002
6.396058e+002, 8.554440e+002
6.400880e+002, 8.575598e+002
6.405701e+002, 8.593926e+002
6.410522e+002, 8.627343e+002
6.415343e+002, 8.693712e+002
6.420164e+002, 8.770807e+002
6.424985e+002, 8.826639e+002
6.429807e+002, 8.859432e+002
6.434628e+002, 8.898175e+002
6.439449e+002, 8.950046e+002
6.444270e+002, 9.012136e+002
6.449091e+002, 9.091494e+002
6.453912e+002, 9.179201e+002
6.458734e+002, 9.249881e+002
6.463555e+002, 9.292823e+002
6.468376e+002, 9.328940e+002
6.473197e+002, 9.392586e+002
6.478018e+002, 9.492946e+002
6.482839e+002, 9.569799e+002
6.487661e+002, 9.611708e+002
6.492482e+002, 9.643016e+002
6.497303e+002, 9.666522e+002
6.502124e+002, 9.686025e+002
6.506945e+002, 9.705534e+002
6.511766e+002, 9.725848e+002
6.516588e+002, 9.746737e+002
6.521409e+002, 9.766603e+002
6.526230e+002, 9.787120e+002
6.531051e+002, 9.816785e+002
6.535872e+002, 9.855305e+002
6.540693e+002, 9.876465e+002
6.545515e+002, 9.858652e+002
6.550336e+002, 9.828257e+002
6.555157e+002, 9.842487e+002
6.559978e+002, 9.928179e+002
6.564799e+002, 9.997161e+002
6.569620e+002, 1.003108e+003
6.574442e+002, 1.006558e+003
6.579263e+002, 1.011647e+003
6.584084e+002, 1.018219e+003
6.588905e+002, 1.025770e+003
6.593726e+002, 1.034044e+003
6.598547e+002, 1.043317e+003
6.603369e+002, 1.054304e+003
6.608190e+002, 1.066836e+003
6.613011e+002, 1.078658e+003
6.617832e+002, 1.089284e+003
6.622653e+002, 1.100306e+003
6.627474e+002, 1.112864e+003
6.632296e+002, 1.126318e+003
6.637117e+002, 1.139599e+003
6.641938e+002, 1.153455e+003
6.646759e+002, 1.164756e+003
6.651580e+002, 1.170672e+003
6.656401e+002, 1.175042e+003
6.661223e+002, 1.181862e+003
6.666044e+002, 1.190405e+003
6.670865e+002, 1.197728e+003
6.675686e+002, 1.202403e+003
6.680507e+002, 1.204094e+003
6.685328e+002, 1.201926e+003
6.690150e+002, 1.195311e+003
6.694971e+002, 1.187398e+003
6.699792e+002, 1.178727e+003
6.704613e+002, 1.167988e+003
6.709434e+002, 1.153983e+003
6.714255e+002, 1.137985e+003
6.719077e+002, 1.122025e+003
6.723898e+002, 1.106788e+003
6.728719e+002, 1.090102e+003
6.733540e+002, 1.069363e+003
6.738361e+002, 1.046859e+003
6.743182e+002, 1.025840e+003
6.748004e+002, 1.006561e+003
6.752825e+002, 9.886271e+002
6.757646e+002, 9.718919e+002
6.762467e+002, 9.562748e+002
6.767288e+002, 9.414022e+002
6.772109e+002, 9.268361e+002
6.776931e+002, 9.139618e+002
6.781752e+002, 9.040944e+002
6.786573e+002, 8.943416e+002
6.791394e+002, 8.826823e+002
6.796215e+002, 8.705598e+002
6.801036e+002, 8.607360e+002
6.805858e+002, 8.542687e+002
6.810679e+002, 8.486432e+002
6.815500e+002, 8.413972e+002
6.820321e+002, 8.331504e+002
6.825142e+002, 8.254170e+002
6.829963e+002, 8.183367e+002
6.834785e+002, 8.121929e+002
6.839606e+002, 8.073822e+002
6.844427e+002, 8.032926e+002
6.849248e+002, 7.983981e+002
6.854069e+002, 7.921466e+002
6.858890e+002, 7.864196e+002
6.863712e+002, 7.805468e+002
6.868533e+002, 7.759357e+002
6.873354e+002, 7.744948e+002
6.878175e+002, 7.745546e+002
6.882996e+002, 7.730980e+002
6.887817e+002, 7.690071e+002
6.892639e+002, 7.638853e+002
6.897460e+002, 7.592785e+002
6.902281e+002, 7.552393e+002
6.907102e+002, 7.524689e+002
6.911923e+002, 7.512479e+002
6.916744e+002, 7.501925e+002
6.921566e+002, 7.485140e+002
6.926387e+002, 7.466663e+002
6.931208e+002, 7.455895e+002
6.936029e+002, 7.453776e+002
6.940850e+002, 7.453310e+002
6.945671e+002, 7.460474e+002
6.950493e+002, 7.462103e+002
6.955314e+002, 7.445919e+002
6.960135e+002, 7.418541e+002
6.964956e+002, 7.391927e+002
6.969777e+002, 7.370789e+002
6.974598e+002, 7.354952e+002
6.979420e+002, 7.347025e+002
6.984241e+002, 7.346387e+002
6.989062e+002, 7.336125e+002
6.993883e+002, 7.311965e+002
6.998704e+002, 7.290160e+002
7.003525e+002, 7.278588e+002
7.008347e+002, 7.272560e+002
7.013168e+002, 7.265934e+002
7.017989e+002, 7.258690e+002
7.022810e+002, 7.251300e+002
7.027631e+002, 7.245579e+002
7.032452e+002, 7.238286e+002
7.037274e+002, 7.224530e+002
7.042095e+002, 7.208056e+002
7.046916e+002, 7.196329e+002
7.051737e+002, 7.191713e+002
7.056558e+002, 7.191452e+002
7.061379e+002, 7.194624e+002
7.066201e+002, 7.200342e+002
7.071022e+002, 7.191296e+002
7.075843e+002, 7.161641e+002
7.080664e+002, 7.130552e+002
7.085485e+002, 7.095488e+002
7.090306e+002, 7.068140e+002
7.095128e+002, 7.066564e+002
7.099949e+002, 7.088297e+002
7.104770e+002, 7.097062e+002
7.109591e+002, 7.068961e+002
7.114412e+002, 7.035934e+002
7.119233e+002, 7.020895e+002
7.124055e+002, 7.017948e+002
7.128876e+002, 7.013661e+002
7.133697e+002, 7.005485e+002
7.138518e+002, 7.005514e+002
7.143339e+002, 7.029069e+002
7.148160e+002, 7.070140e+002
7.152982e+002, 7.081545e+002
7.157803e+002, 7.049547e+002
7.162624e+002, 7.019905e+002
7.167445e+002, 6.999146e+002
7.172266e+002, 6.986320e+002
7.177087e+002, 6.988073e+002
7.181909e+002, 6.998639e+002
7.186730e+002, 6.994347e+002
7.191551e+002, 6.949041e+002
7.196372e+002, 6.911912e+002
7.201193e+002, 6.933041e+002
7.206014e+002, 6.978726e+002
7.210836e+002, 6.985612e+002
7.215657e+002, 6.947686e+002
7.220478e+002, 6.909475e+002
7.225299e+002, 6.904299e+002
7.230120e+002, 6.924990e+002
7.234941e+002, 6.949758e+002
7.239763e+002, 6.990272e+002
7.244584e+002, 7.001927e+002
7.249405e+002, 6.955905e+002
7.254226e+002, 6.905829e+002
7.259047e+002, 6.876453e+002
7.263868e+002, 6.864778e+002
7.268690e+002, 6.864845e+002
7.273511e+002, 6.880045e+002
7.278332e+002, 6.893136e+002
7.283153e+002, 6.892570e+002
7.287974e+002, 6.884561e+002
7.292795e+002, 6.875543e+002
7.297617e+002, 6.867003e+002
7.302438e+002, 6.858925e+002
7.307259e+002, 6.850430e+002
7.312080e+002, 6.848746e+002
7.316901e+002, 6.875137e+002
7.321722e+002, 6.945383e+002
7.326544e+002, 6.975871e+002
7.331365e+002, 6.947181e+002
7.336186e+002, 6.904492e+002
7.341007e+002, 6.850826e+002
7.345828e+002, 6.802286e+002
7.350649e+002, 6.783870e+002
7.355471e+002, 6.801124e+002
7.360292e+002, 6.818494e+002
7.365113e+002, 6.820380e+002
7.369934e+002, 6.814027e+002
7.374755e+002, 6.803048e+002
7.379576e+002, 6.790087e+002
7.384398e+002, 6.779279e+002
7.389219e+002, 6.772296e+002
7.394040e+002, 6.774620e+002
7.398861e+002, 6.797240e+002
7.403682e+002, 6.839462e+002
7.408503e+002, 6.853385e+002
7.413325e+002, 6.826729e+002
7.418146e+002, 6.797319e+002
7.422967e+002, 6.771530e+002
7.427788e+002, 6.750375e+002
7.432609e+002, 6.732032e+002
7.437430e+002, 6.717844e+002
7.442252e+002, 6.717916e+002
7.447073e+002, 6.756620e+002
7.451894e+002, 6.787952e+002
7.456715e+002, 6.774623e+002
7.461536e+002, 6.737499e+002
7.466357e+002, 6.707108e+002
7.471179e+002, 6.689630e+002
7.476000e+002, 6.679642e+002
7.480821e+002, 6.673568e+002
7.485642e+002, 6.670111e+002
7.490463e+002, 6.665758e+002
7.495284e+002, 6.661783e+002
7.500106e+002, 6.651152e+002
7.504927e+002, 6.630212e+002
7.509748e+002, 6.606176e+002
7.514569e+002, 6.575475e+002
7.519390e+002, 6.546394e+002
7.524211e+002, 6.540236e+002
7.529033e+002, 6.571330e+002
7.533854e+002, 6.596492e+002
7.538675e+002, 6.593375e+002
7.543496e+002, 6.582321e+002
7.548317e+002, 6.585875e+002
7.553138e+002, 6.598367e+002
7.557960e+002, 6.595519e+002
7.562781e+002, 6.566171e+002
7.567602e+002, 6.534550e+002
7.572423e+002, 6.541678e+002
7.577244e+002, 6.585851e+002
7.582065e+002, 6.611639e+002
7.586887e+002, 6.616028e+002
7.591708e+002, 6.608785e+002
7.596529e+002, 6.589636e+002
7.601350e+002, 6.564730e+002
7.606171e+002, 6.537870e+002
7.610992e+002, 6.506743e+002
7.615814e+002, 6.499807e+002
7.620635e+002, 6.547141e+002
7.625456e+002, 6.589442e+002
7.630277e+002, 6.598407e+002
7.635098e+002, 6.587108e+002
7.639919e+002, 6.571339e+002
7.644741e+002, 6.555182e+002
7.649562e+002, 6.536611e+002
7.654383e+002, 6.511913e+002
7.659204e+002, 6.486693e+002
7.664025e+002, 6.475938e+002
7.668846e+002, 6.479154e+002
7.673668e+002, 6.479933e+002
7.678489e+002, 6.473795e+002
7.683310e+002, 6.468503e+002
7.688131e+002, 6.471597e+002
7.692952e+002, 6.481030e+002
7.697773e+002, 6.485223e+002
7.702595e+002, 6.476288e+002
7.707416e+002, 6.473802e+002
7.712237e+002, 6.486548e+002
7.717058e+002, 6.498861e+002
7.721879e+002, 6.499883e+002
7.726700e+002, 6.492902e+002
7.731522e+002, 6.487169e+002
7.736343e+002, 6.486544e+002
7.741164e+002, 6.482030e+002
7.745985e+002, 6.460564e+002
7.750806e+002, 6.430197e+002
7.755627e+002, 6.409684e+002
7.760449e+002, 6.399435e+002
7.765270e+002, 6.390449e+002
7.770091e+002, 6.378745e+002
7.774912e+002, 6.366984e+002
7.779733e+002, 6.358871e+002
7.784554e+002, 6.354267e+002
7.789376e+002, 6.354785e+002
7.794197e+002, 6.370024e+002
7.799019e+002, 6.377162e+002
7.803840e+002, 6.366495e+002
7.808661e+002, 6.349749e+002
7.813482e+002, 6.332794e+002
7.818303e+002, 6.318348e+002
7.823124e+002, 6.315806e+002
7.827946e+002, 6.339363e+002
7.832767e+002, 6.363459e+002
7.837588e+002, 6.366658e+002
7.842409e+002, 6.356108e+002
7.847230e+002, 6.342050e+002
7.852051e+002, 6.327310e+002
7.856873e+002, 6.313878e+002
7.861694e+002, 6.302383e+002
7.866515e+002, 6.296388e+002
7.871336e+002, 6.311430e+002
7.876157e+002, 6.356965e+002
7.880978e+002, 6.368312e+002
7.885800e+002, 6.320935e+002
7.890621e+002, 6.273869e+002
7.895442e+002, 6.259969e+002
7.900263e+002, 6.265985e+002
7.905084e+002, 6.272458e+002
7.909905e+002, 6.279615e+002
7.914727e+002, 6.282437e+002
7.919548e+002, 6.271117e+002
7.924369e+002, 6.263721e+002
7.929190e+002, 6.276051e+002
7.934011e+002, 6.298535e+002
7.938832e+002, 6.318083e+002
7.943654e+002, 6.329825e+002
7.948475e+002, 6.329415e+002
7.953296e+002, 6.307535e+002
7.958117e+002, 6.274819e+002
7.962938e+002, 6.263951e+002
7.967759e+002, 6.274252e+002
7.972581e+002, 6.271265e+002
7.977402e+002, 6.242201e+002
7.982223e+002, 6.217512e+002
7.987044e+002, 6.228591e+002
7.991865e+002, 6.266754e+002
7.996686e+002, 6.280514e+002
8.001508e+002, 6.248825e+002
8.006329e+002, 6.222489e+002
8.011150e+002, 6.199171e+002
8.015971e+002, 6.184549e+002
8.020792e+002, 6.190992e+002
8.025613e+002, 6.205785e+002
8.030435e+002, 6.203656e+002
8.035256e+002, 6.175919e+002
8.040077e+002, 6.149674e+002
8.044898e+002, 6.144145e+002
8.049719e+002, 6.152816e+002
8.054540e+002, 6.176082e+002
8.059362e+002, 6.206427e+002
8.064183e+002, 6.213093e+002
8.069004e+002, 6.185316e+002
8.073825e+002, 6.149129e+002
8.078646e+002, 6.136110e+002
8.083467e+002, 6.143531e+002
8.088289e+002, 6.132391e+002
8.093110e+002, 6.086444e+002
8.097931e+002, 6.067430e+002
8.102752e+002, 6.111471e+002
8.107573e+002, 6.161346e+002
8.112394e+002, 6.166729e+002
8.117216e+002, 6.140387e+002
8.122037e+002, 6.124205e+002
8.126858e+002, 6.130242e+002
8.131679e+002, 6.134351e+002
8.136500e+002, 6.121659e+002
8.141321e+002, 6.109273e+002
8.146143e+002, 6.114568e+002
8.150964e+002, 6.132452e+002
8.155785e+002, 6.150486e+002
8.160606e+002, 6.163401e+002
8.165427e+002, 6.167292e+002
8.170248e+002, 6.152705e+002
8.175070e+002, 6.125599e+002
8.179891e+002, 6.106027e+002
8.184712e+002, 6.094251e+002
8.189533e+002, 6.091671e+002
8.194354e+002, 6.101866e+002
8.199175e+002, 6.108808e+002
8.203997e+002, 6.089321e+002
8.208818e+002, 6.044323e+002
8.213639e+002, 6.029922e+002
8.218460e+002, 6.081003e+002
8.223281e+002, 6.110852e+002
8.228102e+002, 6.091259e+002
8.232924e+002, 6.066226e+002
8.237745e+002, 6.069141e+002
8.242566e+002, 6.089548e+002
8.247387e+002, 6.095742e+002
8.252208e+002, 6.074309e+002
8.257029e+002, 6.052587e+002
8.261851e+002, 6.048510e+002
8.266672e+002, 6.052209e+002
8.271493e+002, 6.057288e+002
8.276314e+002, 6.059594e+002
8.281135e+002, 6.049070e+002
8.285956e+002, 6.022159e+002
8.290778e+002, 5.987358e+002
8.295599e+002, 5.948657e+002
8.300420e+002, 5.910826e+002
8.305241e+002, 5.914641e+002
8.310062e+002, 5.969244e+002
8.314883e+002, 6.002982e+002
8.319705e+002, 5.988985e+002
8.324526e+002, 5.962627e+002
8.329347e+002, 5.955778e+002
8.334168e+002, 5.966700e+002
8.338989e+002, 5.978785e+002
8.343810e+002, 6.011066e+002
8.348632e+002, 6.016798e+002
8.353453e+002, 5.962657e+002
8.358274e+002, 5.908929e+002
8.363095e+002, 5.897155e+002
8.367916e+002, 5.912688e+002
8.372737e+002, 5.922526e+002
8.377559e+002, 5.916578e+002
8.382380e+002, 5.911073e+002
8.387201e+002, 5.927794e+002
8.392022e+002, 5.945309e+002
8.396843e+002, 5.926275e+002
8.401664e+002, 5.882202e+002
8.406486e+002, 5.851646e+002
8.411307e+002, 5.846227e+002
8.416128e+002, 5.853077e+002
8.420949e+002, 5.861334e+002
8.425770e+002, 5.869241e+002
8.430591e+002, 5.864971e+002
8.435413e+002, 5.842703e+002
8.440234e+002, 5.841452e+002
8.445055e+002, 5.883588e+002
8.449876e+002, 5.916589e+002
8.454697e+002, 5.894205e+002
8.459518e+002, 5.838127e+002
8.464340e+002, 5.813307e+002
8.469161e+002, 5.835819e+002
8.473982e+002, 5.845223e+002
8.478803e+002, 5.825192e+002
8.483624e+002, 5.801509e+002
8.488445e+002, 5.780253e+002
8.493267e+002, 5.766855e+002
8.498088e+002, 5.771549e+002
8.502909e+002, 5.793595e+002
8.507730e+002, 5.813540e+002
8.512551e+002, 5.821407e+002
8.517372e+002, 5.818130e+002
8.522194e+002, 5.796957e+002
8.527015e+002, 5.766927e+002
8.531836e+002, 5.750853e+002
8.536657e+002, 5.752057e+002
8.541478e+002, 5.760775e+002
8.546299e+002, 5.771140e+002
8.551121e+002, 5.781544e+002
8.555942e+002, 5.789976e+002
8.560763e+002, 5.797405e+002
8.565584e+002, 5.792296e+002
8.570405e+002, 5.768994e+002
8.575226e+002, 5.747249e+002
8.580048e+002, 5.737808e+002
8.584869e+002, 5.732130e+002
8.589690e+002, 5.713535e+002
8.594511e+002, 5.680045e+002
8.599332e+002, 5.667384e+002
8.604153e+002, 5.696254e+002
8.608975e+002, 5.721024e+002
8.613796e+002, 5.727448e+002
8.618617e+002, 5.726067e+002
8.623438e+002, 5.725629e+002
8.628259e+002, 5.726006e+002
8.633080e+002, 5.722893e+002
8.637902e+002, 5.713790e+002
8.642723e+002, 5.703860e+002
8.647544e+002, 5.695459e+002
8.652365e+002, 5.690003e+002
8.657186e+002, 5.691891e+002
8.662007e+002, 5.699112e+002
8.666829e+002, 5.705868e+002
8.671650e+002, 5.709628e+002
8.676471e+002, 5.703687e+002
8.681292e+002, 5.675942e+002
8.686113e+002, 5.632595e+002
8.690934e+002, 5.614254e+002
8.695756e+002, 5.625511e+002
8.700577e+002, 5.626979e+002
8.705398e+002, 5.605131e+002
8.710219e+002, 5.584066e+002
8.715040e+002, 5.583533e+002
8.719861e+002, 5.598548e+002
8.724683e+002, 5.610766e+002
8.729504e+002, 5.618763e+002
8.734325e+002, 5.626518e+002
8.739146e+002, 5.636498e+002
8.743967e+002, 5.643448e+002
8.748788e+002, 5.642852e+002
8.753610e+002, 5.639199e+002
8.758431e+002, 5.639680e+002
8.763252e+002, 5.644638e+002
8.768073e+002, 5.644797e+002
8.772894e+002, 5.635985e+002
8.777715e+002, 5.620499e+002
8.782537e+002, 5.586036e+002
8.787358e+002, 5.553065e+002
8.792179e+002, 5.560494e+002
8.797000e+002, 5.603978e+002
8.801821e+002, 5.643469e+002
8.806642e+002, 5.656205e+002
8.811464e+002, 5.654755e+002
8.816285e+002, 5.659866e+002
8.821106e+002, 5.668341e+002
8.825927e+002, 5.658261e+002
8.830748e+002, 5.628080e+002
8.835569e+002, 5.602055e+002
8.840391e+002, 5.588558e+002
8.845212e+002, 5.586208e+002
8.850033e+002, 5.596049e+002
8.854854e+002, 5.616835e+002
8.859675e+002, 5.624654e+002
8.864496e+002, 5.616712e+002
8.869318e+002, 5.601032e+002
8.874139e+002, 5.562374e+002
8.878960e+002, 5.533443e+002
8.883781e+002, 5.541100e+002
8.888602e+002, 5.568802e+002
8.893423e+002, 5.583236e+002
8.898245e+002, 5.578065e+002
8.903066e+002, 5.572869e+002
8.907887e+002, 5.579418e+002
8.912708e+002, 5.580681e+002
8.917529e+002, 5.559294e+002
8.922350e+002, 5.530385e+002
8.927172e+002, 5.516440e+002
8.931993e+002, 5.518671e+002
8.936814e+002, 5.520053e+002
8.941635e+002, 5.510349e+002
8.946456e+002, 5.495147e+002
8.951277e+002, 5.478392e+002
8.956099e+002, 5.462065e+002
8.960920e+002, 5.445122e+002
8.965741e+002, 5.431037e+002
8.970562e+002, 5.447826e+002
8.975383e+002, 5.510477e+002
8.980204e+002, 5.571522e+002
8.985026e+002, 5.553002e+002
8.989847e+002, 5.463593e+002
8.994668e+002, 5.418383e+002
8.999489e+002, 5.422728e+002
9.004310e+002, 5.442526e+002
9.009131e+002, 5.477065e+002
9.013953e+002, 5.506688e+002
9.018774e+002, 5.512203e+002
9.023595e+002, 5.499235e+002
9.028416e+002, 5.493359e+002
9.033237e+002, 5.502593e+002
9.038058e+002, 5.504498e+002
9.042880e+002, 5.495792e+002
9.047701e+002, 5.484045e+002
9.052522e+002, 5.466323e+002
9.057343e+002, 5.450706e+002
9.062164e+002, 5.449326e+002
9.066985e+002, 5.462388e+002
9.071807e+002, 5.473494e+002
9.076628e+002, 5.481224e+002
9.081449e+002, 5.480277e+002
9.086270e+002, 5.456370e+002
9.091091e+002, 5.430057e+002
9.095912e+002, 5.422594e+002
9.100734e+002, 5.434754e+002
9.105555e+002, 5.464437e+002
9.110376e+002, 5.511741e+002
9.115197e+002, 5.550367e+002
9.120018e+002, 5.542795e+002
9.124839e+002, 5.510392e+002
9.129661e+002, 5.496588e+002
9.134482e+002, 5.499816e+002
9.139303e+002, 5.506270e+002
9.144124e+002, 5.512109e+002
9.148945e+002, 5.521982e+002
9.153766e+002, 5.542344e+002
9.158588e+002, 5.564925e+002
9.163409e+002, 5.557262e+002
9.168230e+002, 5.513528e+002
9.173051e+002, 5.500602e+002
9.177872e+002, 5.536493e+002
9.182693e+002, 5.560992e+002
9.187515e+002, 5.538552e+002
9.192336e+002, 5.496705e+002
9.197157e+002, 5.477817e+002
9.201978e+002, 5.484139e+002
9.206799e+002, 5.490344e+002
9.211620e+002, 5.496224e+002
9.216442e+002, 5.502214e+002
9.221263e+002, 5.514385e+002
9.226084e+002, 5.521025e+002
9.230905e+002, 5.507454e+002
9.235726e+002, 5.483517e+002
9.240547e+002, 5.474244e+002
9.245369e+002, 5.489307e+002
9.250190e+002, 5.497891e+002
9.255011e+002, 5.487692e+002
9.259832e+002, 5.468997e+002
9.264653e+002, 5.438358e+002
9.269474e+002, 5.408871e+002
9.274296e+002, 5.405302e+002
9.279117e+002, 5.424596e+002
9.283938e+002, 5.430576e+002
9.288759e+002, 5.394122e+002
9.293580e+002, 5.355365e+002
9.298401e+002, 5.368815e+002
9.303223e+002, 5.407231e+002
9.308044e+002, 5.416065e+002
9.312865e+002, 5.397769e+002
9.317686e+002, 5.387267e+002
9.322507e+002, 5.398262e+002
9.327328e+002, 5.409791e+002
9.332150e+002, 5.394110e+002
9.336971e+002, 5.361645e+002
9.341792e+002, 5.357069e+002
9.346613e+002, 5.380309e+002
9.351434e+002, 5.391790e+002
9.356255e+002, 5.383009e+002
9.361077e+002, 5.370406e+002
9.365898e+002, 5.364258e+002
9.370719e+002, 5.362010e+002
9.375540e+002, 5.357103e+002
9.380361e+002, 5.347413e+002
9.385182e+002, 5.347982e+002
9.390004e+002, 5.368384e+002
9.394825e+002, 5.380176e+002
9.399646e+002, 5.370216e+002
9.404467e+002, 5.353790e+002
9.409288e+002, 5.339969e+002
9.414109e+002, 5.330703e+002
9.418931e+002, 5.336781e+002
9.423752e+002, 5.375992e+002
9.428573e+002, 5.398340e+002
9.433394e+002, 5.384415e+002
9.438215e+002, 5.367303e+002
9.443036e+002, 5.358265e+002
9.447858e+002, 5.359174e+002
9.452679e+002, 5.378436e+002
9.457500e+002, 5.413186e+002
9.462321e+002, 5.431967e+002
9.467142e+002, 5.403542e+002
9.471964e+002, 5.378868e+002
9.476785e+002, 5.400126e+002
9.481606e+002, 5.432991e+002
9.486427e+002, 5.437927e+002
9.491248e+002, 5.420157e+002
9.496069e+002, 5.402254e+002
9.500891e+002, 5.392896e+002
9.505712e+002, 5.390942e+002
9.510533e+002, 5.403907e+002
9.515354e+002, 5.418189e+002
9.520175e+002, 5.405047e+002
9.524996e+002, 5.375110e+002
9.529818e+002, 5.363488e+002
9.534639e+002, 5.373145e+002
9.539460e+002, 5.371071e+002
9.544281e+002, 5.334725e+002
9.549102e+002, 5.291223e+002
9.553923e+002, 5.294889e+002
9.558745e+002, 5.338851e+002
9.563566e+002, 5.357151e+002
9.568387e+002, 5.348095e+002
9.573208e+002, 5.328309e+002
9.578029e+002, 5.300455e+002
9.582850e+002, 5.275764e+002
9.587672e+002, 5.265036e+002
9.592493e+002, 5.265446e+002
9.597314e+002, 5.265822e+002
9.602135e+002, 5.266277e+002
9.606956e+002, 5.266221e+002
9.611777e+002, 5.265753e+002
9.616599e+002, 5.264359e+002
9.621420e+002, 5.261267e+002
9.626241e+002, 5.257685e+002
9.631062e+002, 5.256264e+002
9.635883e+002, 5.256956e+002
9.640704e+002, 5.251376e+002
9.645526e+002, 5.230480e+002
9.650347e+002, 5.216948e+002
9.655168e+002, 5.209986e+002
9.659989e+002, 5.213704e+002
9.664810e+002, 5.237663e+002
9.669631e+002, 5.270446e+002
9.674453e+002, 5.294894e+002
9.679274e+002, 5.308937e+002
9.684095e+002, 5.320653e+002
9.688916e+002, 5.336716e+002
9.693737e+002, 5.345683e+002
9.698558e+002, 5.330151e+002
9.703380e+002, 5.315318e+002
9.708201e+002, 5.332579e+002
9.713022e+002, 5.370090e+002
9.717843e+002, 5.391448e+002
9.722664e+002, 5.383484e+002
9.727485e+002, 5.379167e+002
9.732307e+002, 5.406286e+002
9.737128e+002, 5.442195e+002
9.741949e+002, 5.466649e+002
9.746770e+002, 5.483038e+002
9.751591e+002, 5.491442e+002
9.756412e+002, 5.497733e+002
9.761234e+002, 5.523039e+002
9.766055e+002, 5.580421e+002
9.770876e+002, 5.649510e+002
9.775698e+002, 5.708351e+002
9.780519e+002, 5.759728e+002
9.785340e+002, 5.808433e+002
9.790161e+002, 5.855184e+002
9.794982e+002, 5.897291e+002
9.799803e+002, 5.935988e+002
9.804625e+002, 5.992716e+002
9.809446e+002, 6.087322e+002
9.814267e+002, 6.201863e+002
9.819088e+002, 6.291125e+002
9.823909e+002, 6.360228e+002
9.828730e+002, 6.471647e+002
9.833552e+002, 6.630299e+002
9.838373e+002, 6.759409e+002
9.843194e+002, 6.825027e+002
9.848015e+002, 6.890629e+002
9.852836e+002, 7.026315e+002
9.857657e+002, 7.217712e+002
9.862479e+002, 7.391330e+002
9.867300e+002, 7.539642e+002
9.872121e+002, 7.714740e+002
9.876942e+002, 7.931874e+002
9.881763e+002, 8.148077e+002
9.886584e+002, 8.345477e+002
9.891406e+002, 8.527720e+002
9.896227e+002, 8.694128e+002
9.901048e+002, 8.846133e+002
9.905869e+002, 9.014406e+002
9.910690e+002, 9.229088e+002
9.915511e+002, 9.400952e+002
9.920333e+002, 9.521179e+002
9.925154e+002, 9.598822e+002
9.929975e+002, 9.632927e+002
9.934796e+002, 9.629974e+002
9.939617e+002, 9.601115e+002
9.944438e+002, 9.547166e+002
9.949260e+002, 9.457562e+002
9.954081e+002, 9.303837e+002
9.958902e+002, 9.152969e+002
9.963723e+002, 9.038465e+002
9.968544e+002, 8.912064e+002
9.973365e+002, 8.724657e+002
9.978187e+002, 8.506427e+002
9.983008e+002, 8.320309e+002
9.987829e+002, 8.178112e+002
9.992650e+002, 8.036945e+002
9.997471e+002, 7.873434e+002
1.000229e+003, 7.721049e+002
1.000711e+003, 7.588824e+002
1.001193e+003, 7.479442e+002
1.001676e+003, 7.407126e+002
1.002158e+003, 7.356627e+002
1.002640e+003, 7.289601e+002
1.003122e+003, 7.192460e+002
1.003604e+003, 7.101324e+002
1.004086e+003, 7.043605e+002
1.004568e+003, 6.992128e+002
1.005050e+003, 6.920160e+002
1.005533e+003, 6.843497e+002
1.006015e+003, 6.780613e+002
1.006497e+003, 6.735508e+002
1.006979e+003, 6.712552e+002
1.007461e+003, 6.716010e+002
1.007943e+003, 6.717372e+002
1.008425e+003, 6.684764e+002
1.008907e+003, 6.641111e+002
1.009389e+003, 6.617816e+002
1.009872e+003, 6.606670e+002
1.010354e+003, 6.592076e+002
1.010836e+003, 6.569271e+002
1.011318e+003, 6.532577e+002
1.011800e+003, 6.477161e+002
1.012282e+003, 6.420753e+002
1.012764e+003, 6.395900e+002
1.013246e+003, 6.381404e+002
1.013729e+003, 6.326730e+002
1.014211e+003, 6.239561e+002
1.014693e+003, 6.154630e+002
1.015175e+003, 6.079576e+002
1.015657e+003, 5.999850e+002
1.016139e+003, 5.904006e+002
1.016621e+003, 5.805929e+002
1.017103e+003, 5.729548e+002
1.017585e+003, 5.671793e+002
1.018068e+003, 5.622437e+002
1.018550e+003, 5.580048e+002
1.019032e+003, 5.530703e+002
1.019514e+003, 5.470869e+002
1.019996e+003, 5.409962e+002
1.020478e+003, 5.354897e+002
1.020960e+003, 5.307725e+002
1.021442e+003, 5.277096e+002
1.021924e+003, 5.262187e+002
1.022407e+003, 5.236676e+002
1.022889e+003, 5.199003e+002
1.023371e+003, 5.165306e+002
1.023853e+003, 5.141434e+002
1.024335e+003, 5.116156e+002
1.024817e+003, 5.078386e+002
1.025299e+003, 5.033315e+002
1.025781e+003, 4.995441e+002
1.026264e+003, 4.963687e+002
1.026746e+003, 4.949757e+002
1.027228e+003, 4.958758e+002
1.027710e+003, 4.964413e+002
1.028192e+003, 4.958818e+002
1.028674e+003, 4.944293e+002
1.029156e+003, 4.921942e+002
1.029638e+003, 4.893289e+002
1.030120e+003, 4.860861e+002
1.030603e+003, 4.815352e+002
1.031085e+003, 4.805312e+002
1.031567e+003, 4.851444e+002
1.032049e+003, 4.882833e+002
1.032531e+003, 4.869129e+002
1.033013e+003, 4.841383e+002
1.033495e+003, 4.829782e+002
1.033977e+003, 4.830839e+002
1.034459e+003, 4.826882e+002
1.034942e+003, 4.815184e+002
1.035424e+003, 4.804959e+002
1.035906e+003, 4.797403e+002
1.036388e+003, 4.789419e+002
1.036870e+003, 4.781559e+002
1.037352e+003, 4.770982e+002
1.037834e+003, 4.750365e+002
1.038316e+003, 4.723445e+002
1.038799e+003, 4.712689e+002
1.039281e+003, 4.727057e+002
1.039763e+003, 4.740165e+002
1.040245e+003, 4.762649e+002
1.040727e+003, 4.770294e+002
1.041209e+003, 4.741302e+002
1.041691e+003, 4.705115e+002
1.042173e+003, 4.687791e+002
1.042656e+003, 4.687440e+002
1.043138e+003, 4.695323e+002
1.043620e+003, 4.724569e+002
1.044102e+003, 4.734914e+002
1.044584e+003, 4.705394e+002
1.045066e+003, 4.679704e+002
1.045548e+003, 4.682467e+002
1.046030e+003, 4.689629e+002
1.046512e+003, 4.678568e+002
1.046995e+003, 4.650655e+002
1.047477e+003, 4.614272e+002
1.047959e+003, 4.553558e+002
1.048441e+003, 4.523367e+002
1.048923e+003, 4.561155e+002
1.049405e+003, 4.595334e+002
1.049887e+003, 4.598493e+002
1.050369e+003, 4.582655e+002
1.050851e+003, 4.547677e+002
1.051334e+003, 4.504529e+002
1.051816e+003, 4.493526e+002
1.052298e+003, 4.537849e+002
1.052780e+003, 4.568310e+002
1.053262e+003, 4.561036e+002
1.053744e+003, 4.546537e+002
1.054226e+003, 4.536139e+002
1.054708e+003, 4.527420e+002
1.055191e+003, 4.517005e+002
1.055673e+003, 4.505443e+002
1.056155e+003, 4.494650e+002
1.056637e+003, 4.482661e+002
1.057119e+003, 4.479603e+002
1.057601e+003, 4.494715e+002
1.058083e+003, 4.511991e+002
1.058565e+003, 4.530774e+002
1.059047e+003, 4.542075e+002
1.059530e+003, 4.535195e+002
1.060012e+003, 4.513456e+002
1.060494e+003, 4.485321e+002
1.060976e+003, 4.447538e+002
1.061458e+003, 4.429279e+002
1.061940e+003, 4.460014e+002
1.062422e+003, 4.489642e+002
1.062904e+003, 4.490503e+002
1.063386e+003, 4.478412e+002
1.063869e+003, 4.468613e+002
1.064351e+003, 4.460718e+002
1.064833e+003, 4.446533e+002
1.065315e+003, 4.422047e+002
1.065797e+003, 4.406813e+002
1.066279e+003, 4.416618e+002
1.066761e+003, 4.428247e+002
1.067243e+003, 4.428811e+002
1.067726e+003, 4.425775e+002
1.068208e+003, 4.426804e+002
1.068690e+003, 4.430752e+002
1.069172e+003, 4.434514e+002
1.069654e+003, 4.437709e+002
1.070136e+003, 4.433335e+002
1.070618e+003, 4.412005e+002
1.071100e+003, 4.390251e+002
1.071583e+003, 4.376353e+002
1.072065e+003, 4.366430e+002
1.072547e+003, 4.353008e+002
1.073029e+003, 4.341472e+002
1.073511e+003, 4.347883e+002
1.073993e+003, 4.375396e+002
1.074475e+003, 4.391861e+002
1.074957e+003, 4.373187e+002
1.075439e+003, 4.352699e+002
1.075922e+003, 4.351537e+002
1.076404e+003, 4.351964e+002
1.076886e+003, 4.328461e+002
1.077368e+003, 4.298354e+002
1.077850e+003, 4.303488e+002
1.078332e+003, 4.347592e+002
1.078814e+003, 4.371592e+002
1.079296e+003, 4.327641e+002
1.079779e+003, 4.289460e+002
1.080261e+003, 4.299365e+002
1.080743e+003, 4.322524e+002
1.081225e+003, 4.337224e+002
1.081707e+003, 4.342158e+002
1.082189e+003, 4.336131e+002
1.082671e+003, 4.321025e+002
1.083153e+003, 4.309368e+002
1.083635e+003, 4.309721e+002
1.084118e+003, 4.307338e+002
1.084600e+003, 4.287452e+002
1.085082e+003, 4.270837e+002
1.085564e+003, 4.279171e+002
1.086046e+003, 4.296471e+002
1.086528e+003, 4.299503e+002
1.087010e+003, 4.287847e+002
1.087492e+003, 4.276413e+002
1.087974e+003, 4.268245e+002
1.088457e+003, 4.265491e+002
1.088939e+003, 4.277360e+002
1.089421e+003, 4.285566e+002
1.089903e+003, 4.275062e+002
1.090385e+003, 4.257111e+002
1.090867e+003, 4.243813e+002
1.091349e+003, 4.235925e+002
1.091831e+003, 4.229533e+002
1.092314e+003, 4.223150e+002
1.092796e+003, 4.220149e+002
1.093278e+003, 4.226608e+002
1.093760e+003, 4.230829e+002
1.094242e+003, 4.224804e+002
1.094724e+003, 4.215273e+002
1.095206e+003, 4.204904e+002
1.095688e+003, 4.197407e+002
1.096171e+003, 4.200959e+002
1.096653e+003, 4.218356e+002
1.097135e+003, 4.236915e+002
1.097617e+003, 4.259554e+002
1.098099e+003, 4.273963e+002
1.098581e+003, 4.274857e+002
1.099063e+003, 4.266217e+002
1.099545e+003, 4.247121e+002
1.100027e+003, 4.222532e+002
1.100510e+003, 4.199201e+002
1.100992e+003, 4.177909e+002
1.101474e+003, 4.165607e+002
1.101956e+003, 4.171920e+002
1.102438e+003, 4.175969e+002
1.102920e+003, 4.163361e+002
1.103402e+003, 4.156530e+002
1.103884e+003, 4.179835e+002
1.104366e+003, 4.211566e+002
1.104849e+003, 4.218984e+002
1.105331e+003, 4.201441e+002
1.105813e+003, 4.186572e+002
1.106295e+003, 4.182262e+002
1.106777e+003, 4.174749e+002
1.107259e+003, 4.159241e+002
1.107741e+003, 4.143597e+002
1.108223e+003, 4.125943e+002
1.108706e+003, 4.113869e+002
1.109188e+003, 4.121227e+002
1.109670e+003, 4.142672e+002
1.110152e+003, 4.148907e+002
1.110634e+003, 4.127904e+002
1.111116e+003, 4.115029e+002
1.111598e+003, 4.125396e+002
1.112080e+003, 4.126344e+002
1.112563e+003, 4.095150e+002
1.113045e+003, 4.063535e+002
1.113527e+003, 4.060031e+002
1.114009e+003, 4.074534e+002
1.114491e+003, 4.080070e+002
1.114973e+003, 4.074289e+002
1.115455e+003, 4.069487e+002
1.115937e+003, 4.059254e+002
1.116419e+003, 4.062235e+002
1.116901e+003, 4.098118e+002
1.117384e+003, 4.124151e+002
1.117866e+003, 4.105555e+002
1.118348e+003, 4.069214e+002
1.118830e+003, 4.062841e+002
1.119312e+003, 4.087610e+002
1.119794e+003, 4.095049e+002
1.120276e+003, 4.075446e+002
1.120758e+003, 4.063566e+002
1.121241e+003, 4.064579e+002
1.121723e+003, 4.070414e+002
1.122205e+003, 4.081801e+002
1.122687e+003, 4.087836e+002
1.123169e+003, 4.071509e+002
1.123651e+003, 4.039535e+002
1.124133e+003, 4.035230e+002
1.124615e+003, 4.070202e+002
1.125098e+003, 4.073399e+002
1.125580e+003, 4.032794e+002
1.126062e+003, 4.000761e+002
1.126544e+003, 3.994512e+002
1.127026e+003, 4.001830e+002
1.127508e+003, 4.015224e+002
1.127990e+003, 4.029132e+002
1.128472e+003, 4.025760e+002
1.128954e+003, 4.004145e+002
1.129437e+003, 4.010188e+002
1.129919e+003, 4.047091e+002
1.130401e+003, 4.057422e+002
1.130883e+003, 4.027065e+002
1.131365e+003, 3.996026e+002
1.131847e+003, 3.988198e+002
1.132329e+003, 3.992278e+002
1.132811e+003, 3.992722e+002
1.133293e+003, 3.989846e+002
1.133776e+003, 3.984920e+002
1.134258e+003, 3.978083e+002
1.134740e+003, 3.967620e+002
1.135222e+003, 3.954685e+002
1.135704e+003, 3.958149e+002
1.136186e+003, 3.985480e+002
1.136668e+003, 4.017829e+002
1.137150e+003, 4.040209e+002
1.137633e+003, 4.046878e+002
1.138115e+003, 4.012086e+002
1.138597e+003, 3.954904e+002
1.139079e+003, 3.938053e+002
1.139561e+003, 3.955564e+002
1.140043e+003, 3.968529e+002
1.140525e+003, 3.967117e+002
1.141007e+003, 3.959628e+002
1.141490e+003, 3.950091e+002
1.141972e+003, 3.946486e+002
1.142454e+003, 3.967819e+002
1.142936e+003, 3.994681e+002
1.143418e+003, 3.991265e+002
1.143900e+003, 3.970318e+002
1.144382e+003, 3.958936e+002
1.144864e+003, 3.958524e+002
1.145346e+003, 3.955495e+002
1.145828e+003, 3.944808e+002
1.146311e+003, 3.939833e+002
1.146793e+003, 3.961599e+002
1.147275e+003, 3.981428e+002
1.147757e+003, 3.962992e+002
1.148239e+003, 3.935487e+002
1.148721e+003, 3.936349e+002
1.149203e+003, 3.954769e+002
1.149685e+003, 3.964054e+002
1.150168e+003, 3.959449e+002
1.150650e+003, 3.953719e+002
1.151132e+003, 3.952296e+002
1.151614e+003, 3.951086e+002
1.152096e+003, 3.950358e+002
1.152578e+003, 3.946392e+002
1.153060e+003, 3.929904e+002
1.153542e+003, 3.913641e+002
1.154025e+003, 3.915198e+002
1.154507e+003, 3.930300e+002
1.154989e+003, 3.940374e+002
1.155471e+003, 3.940844e+002
1.155953e+003, 3.940644e+002
1.156435e+003, 3.947669e+002
1.156917e+003, 3.946458e+002
1.157399e+003, 3.915564e+002
1.157881e+003, 3.891763e+002
1.158364e+003, 3.912381e+002
1.158846e+003, 3.951076e+002
1.159328e+003, 3.963274e+002
1.159810e+003, 3.946928e+002
1.160292e+003, 3.926246e+002
1.160774e+003, 3.891014e+002
1.161256e+003, 3.870873e+002
1.161738e+003, 3.873137e+002
1.162220e+003, 3.881216e+002
1.162703e+003, 3.893487e+002
1.163185e+003, 3.903017e+002
1.163667e+003, 3.902312e+002
1.164149e+003, 3.894173e+002
1.164631e+003, 3.887302e+002
1.165113e+003, 3.880936e+002
1.165595e+003, 3.882635e+002
1.166077e+003, 3.896994e+002
1.166560e+003, 3.897144e+002
1.167042e+003, 3.874151e+002
1.167524e+003, 3.851457e+002
1.168006e+003, 3.842682e+002
1.168488e+003, 3.843211e+002
1.168970e+003, 3.848570e+002
1.169452e+003, 3.855837e+002
1.169934e+003, 3.846390e+002
1.170417e+003, 3.822036e+002
1.170899e+003, 3.810577e+002
1.171381e+003, 3.814008e+002
1.171863e+003, 3.820654e+002
1.172345e+003, 3.826381e+002
1.172827e+003, 3.831341e+002
1.173309e+003, 3.836281e+002
1.173791e+003, 3.837679e+002
1.174273e+003, 3.822263e+002
1.174755e+003, 3.802242e+002
1.175238e+003, 3.814459e+002
1.175720e+003, 3.845688e+002
1.176202e+003, 3.852640e+002
1.176684e+003, 3.834735e+002
1.177166e+003, 3.827000e+002
1.177648e+003, 3.844336e+002
1.178130e+003, 3.859542e+002
1.178612e+003, 3.847795e+002
1.179095e+003, 3.825091e+002
1.179577e+003, 3.795900e+002
1.180059e+003, 3.774174e+002
1.180541e+003, 3.783183e+002
1.181023e+003, 3.810688e+002
1.181505e+003, 3.835906e+002
1.181987e+003, 3.852274e+002
1.182469e+003, 3.851443e+002
1.182952e+003, 3.819388e+002
1.183434e+003, 3.799986e+002
1.183916e+003, 3.832831e+002
1.184398e+003, 3.859229e+002
1.184880e+003, 3.830123e+002
1.185362e+003, 3.793178e+002
1.185844e+003, 3.802917e+002
1.186326e+003, 3.840683e+002
1.186808e+003, 3.853631e+002
1.187291e+003, 3.833478e+002
1.187773e+003, 3.816327e+002
1.188255e+003, 3.797119e+002
1.188737e+003, 3.794809e+002
1.189219e+003, 3.830181e+002
1.189701e+003, 3.855945e+002
1.190183e+003, 3.847906e+002
1.190665e+003, 3.825327e+002
1.191147e+003, 3.804515e+002
1.191630e+003, 3.788183e+002
1.192112e+003, 3.790690e+002
1.192594e+003, 3.819169e+002
1.193076e+003, 3.828420e+002
1.193558e+003, 3.813408e+002
1.194040e+003, 3.807526e+002
1.194522e+003, 3.821369e+002
1.195004e+003, 3.825035e+002
1.195487e+003, 3.799005e+002
1.195969e+003, 3.761403e+002
1.196451e+003, 3.734998e+002
1.196933e+003, 3.720389e+002
1.197415e+003, 3.726685e+002
1.197897e+003, 3.747901e+002
1.198379e+003, 3.746754e+002
1.198861e+003, 3.724044e+002
1.199344e+003, 3.703412e+002
1.199826e+003, 3.692655e+002
1.200308e+003, 3.693868e+002
1.200790e+003, 3.710152e+002
1.201272e+003, 3.727933e+002
1.201754e+003, 3.726036e+002
1.202236e+003, 3.719539e+002
1.202718e+003, 3.734931e+002
1.203200e+003, 3.758339e+002
1.203682e+003, 3.764444e+002
1.204165e+003, 3.755745e+002
1.204647e+003, 3.748318e+002
1.205129e+003, 3.746675e+002
1.205611e+003, 3.744126e+002
1.206093e+003, 3.735296e+002
1.206575e+003, 3.727881e+002
1.207057e+003, 3.726190e+002
1.207539e+003, 3.726883e+002
1.208022e+003, 3.727928e+002
1.208504e+003, 3.729853e+002
1.208986e+003, 3.733898e+002
1.209468e+003, 3.739532e+002
1.209950e+003, 3.745156e+002
1.210432e+003, 3.751557e+002
1.210914e+003, 3.753973e+002
1.211396e+003, 3.751482e+002
1.211879e+003, 3.745372e+002
1.212361e+003, 3.728044e+002
1.212843e+003, 3.719955e+002
1.213325e+003, 3.737834e+002
1.213807e+003, 3.760704e+002
1.214289e+003, 3.761054e+002
1.214771e+003, 3.745394e+002
1.215253e+003, 3.749412e+002
1.215735e+003, 3.778265e+002
1.216218e+003, 3.773853e+002
1.216700e+003, 3.731571e+002
1.217182e+003, 3.700200e+002
1.217664e+003, 3.690901e+002
1.218146e+003, 3.697671e+002
1.218628e+003, 3.717928e+002
1.219110e+003, 3.740520e+002
1.219592e+003, 3.751238e+002
1.220074e+003, 3.753261e+002
1.220557e+003, 3.753414e+002
1.221039e+003, 3.751163e+002
1.221521e+003, 3.742772e+002
1.222003e+003, 3.730916e+002
1.222485e+003, 3.724967e+002
1.222967e+003, 3.726231e+002
1.223449e+003, 3.729233e+002
1.223931e+003, 3.732662e+002
1.224414e+003, 3.726969e+002
1.224896e+003, 3.693919e+002
1.225378e+003, 3.660887e+002
1.225860e+003, 3.650438e+002
1.226342e+003, 3.651523e+002
1.226824e+003, 3.658988e+002
1.227306e+003, 3.665410e+002
1.227788e+003, 3.655284e+002
1.228271e+003, 3.628576e+002
1.228753e+003, 3.614163e+002
1.229235e+003, 3.628519e+002
1.229717e+003, 3.636523e+002
1.230199e+003, 3.622170e+002
1.230681e+003, 3.616808e+002
1.231163e+003, 3.638560e+002
1.231645e+003, 3.662248e+002
1.232127e+003, 3.672079e+002
1.232609e+003, 3.668576e+002
1.233092e+003, 3.648314e+002
1.233574e+003, 3.612181e+002
1.234056e+003, 3.610361e+002
1.234538e+003, 3.649549e+002
1.235020e+003, 3.662926e+002
1.235502e+003, 3.642398e+002
1.235984e+003, 3.625909e+002
1.236466e+003, 3.626556e+002
1.236949e+003, 3.629661e+002
1.237431e+003, 3.622878e+002
1.237913e+003, 3.618055e+002
1.238395e+003, 3.641835e+002
1.238877e+003, 3.678249e+002
1.239359e+003, 3.686412e+002
1.239841e+003, 3.677157e+002
1.240323e+003, 3.680448e+002
1.240806e+003, 3.692013e+002
1.241288e+003, 3.681312e+002
1.241770e+003, 3.643846e+002
1.242252e+003, 3.618140e+002
1.242734e+003, 3.629278e+002
1.243216e+003, 3.647485e+002
1.243698e+003, 3.657556e+002
1.244180e+003, 3.663192e+002
1.244662e+003, 3.669268e+002
1.245145e+003, 3.670177e+002
1.245627e+003, 3.651581e+002
1.246109e+003, 3.625931e+002
1.246591e+003, 3.626103e+002
1.247073e+003, 3.657480e+002
1.247555e+003, 3.666969e+002
1.248037e+003, 3.634935e+002
1.248519e+003, 3.613054e+002
1.249001e+003, 3.608246e+002
1.249484e+003, 3.603707e+002
1.249966e+003, 3.593250e+002
1.250448e+003, 3.582809e+002
1.250930e+003, 3.575964e+002
1.251412e+003, 3.574724e+002
1.251894e+003, 3.584511e+002
1.252376e+003, 3.603391e+002
1.252858e+003, 3.618829e+002
1.253341e+003, 3.629958e+002
1.253823e+003, 3.626347e+002
1.254305e+003, 3.609393e+002
1.254787e+003, 3.594817e+002
1.255269e+003, 3.587862e+002
1.255751e+003, 3.587213e+002
1.256233e+003, 3.592242e+002
1.256715e+003, 3.601477e+002
1.257198e+003, 3.622894e+002
1.257680e+003, 3.638228e+002
1.258162e+003, 3.618492e+002
1.258644e+003, 3.586750e+002
1.259126e+003, 3.569284e+002
1.259608e+003, 3.565579e+002
1.260090e+003, 3.570024e+002
1.260572e+003, 3.580173e+002
1.261054e+003, 3.586919e+002
1.261536e+003, 3.582833e+002
1.262019e+003, 3.586409e+002
1.262501e+003, 3.615562e+002
1.262983e+003, 3.632542e+002
1.263465e+003, 3.618536e+002
1.263947e+003, 3.598159e+002
1.264429e+003, 3.584333e+002
1.264911e+003, 3.575264e+002
1.265393e+003, 3.567486e+002
1.265876e+003, 3.562049e+002
1.266358e+003, 3.568815e+002
1.266840e+003, 3.588954e+002
1.267322e+003, 3.597148e+002
1.267804e+003, 3.592486e+002
1.268286e+003, 3.590437e+002
1.268768e+003, 3.594486e+002
1.269250e+003, 3.597653e+002
1.269733e+003, 3.596126e+002
1.270215e+003, 3.591023e+002
1.270697e+003, 3.583060e+002
1.271179e+003, 3.572901e+002
1.271661e+003, 3.558297e+002
1.272143e+003, 3.544490e+002
1.272625e+003, 3.538049e+002
1.273107e+003, 3.538660e+002
1.273589e+003, 3.548984e+002
1.274072e+003, 3.564635e+002
1.274554e+003, 3.569770e+002
1.275036e+003, 3.558144e+002
1.275518e+003, 3.551297e+002
1.276000e+003, 3.559201e+002
1.276482e+003, 3.567620e+002
1.276964e+003, 3.571351e+002
1.277446e+003, 3.577500e+002
1.277929e+003, 3.592844e+002
1.278411e+003, 3.606868e+002
1.278893e+003, 3.612824e+002
1.279375e+003, 3.606923e+002
1.279857e+003, 3.571858e+002
1.280339e+003, 3.506628e+002
1.280821e+003, 3.494936e+002
1.281303e+003, 3.538338e+002
1.281786e+003, 3.565585e+002
1.282268e+003, 3.567027e+002
##END=



