##NAMES=Pitiglianoite
##RRUFFID=R130097
##IDEAL CHEMISTRY=K_2_Na_6_(Si_6_Al_6_)O_24_(S^6+^O_4_)&#183;2H_2_O
##LOCALITY=Mt Cavalluccio, Campagnano di Roma, Sacrofano Caldera, Rome Province, Latium, Italy
##OWNER=RRUFF
##SOURCE=Donald Doell
##DESCRIPTION=Colorless hexagonal prisms. NOTE THIS IS NOT REALLY PITIGLIANOITE, NEEDS CHEMISTRY
##STATUS=The identification of this mineral has been confirmed only by single crystal X-ray diffraction.
##URL=rruff.info/R130097
8.975323e+001, 0.000000e+000
9.023535e+001, 2.945218e+002
9.071747e+001, 2.944598e+002
9.119958e+001, 2.933133e+002
9.168170e+001, 2.962047e+002
9.216382e+001, 2.969152e+002
9.264594e+001, 2.945489e+002
9.312805e+001, 2.901728e+002
9.361017e+001, 2.849388e+002
9.409229e+001, 2.788369e+002
9.457440e+001, 2.708567e+002
9.505651e+001, 2.637253e+002
9.553863e+001, 2.577052e+002
9.602074e+001, 2.524858e+002
9.650286e+001, 2.478745e+002
9.698498e+001, 2.436231e+002
9.746709e+001, 2.391833e+002
9.794921e+001, 2.348516e+002
9.843133e+001, 2.305520e+002
9.891344e+001, 2.264388e+002
9.939556e+001, 2.223741e+002
9.987768e+001, 2.184097e+002
1.003598e+002, 2.148242e+002
1.008419e+002, 2.117934e+002
1.013240e+002, 2.092830e+002
1.018061e+002, 2.069190e+002
1.022883e+002, 2.046465e+002
1.027704e+002, 2.025052e+002
1.032525e+002, 2.004972e+002
1.037346e+002, 1.985697e+002
1.042167e+002, 1.969255e+002
1.046988e+002, 1.958904e+002
1.051810e+002, 1.951502e+002
1.056631e+002, 1.942632e+002
1.061452e+002, 1.931176e+002
1.066273e+002, 1.916805e+002
1.071094e+002, 1.897542e+002
1.075915e+002, 1.867963e+002
1.080737e+002, 1.839844e+002
1.085558e+002, 1.817030e+002
1.090379e+002, 1.799265e+002
1.095200e+002, 1.785730e+002
1.100021e+002, 1.776558e+002
1.104842e+002, 1.772982e+002
1.109664e+002, 1.767488e+002
1.114485e+002, 1.757257e+002
1.119306e+002, 1.747522e+002
1.124127e+002, 1.741510e+002
1.128948e+002, 1.739275e+002
1.133769e+002, 1.738044e+002
1.138591e+002, 1.733925e+002
1.143412e+002, 1.725514e+002
1.148233e+002, 1.716018e+002
1.153054e+002, 1.705110e+002
1.157875e+002, 1.693280e+002
1.162696e+002, 1.680534e+002
1.167517e+002, 1.666732e+002
1.172339e+002, 1.652833e+002
1.177160e+002, 1.641215e+002
1.181981e+002, 1.631057e+002
1.186802e+002, 1.623718e+002
1.191623e+002, 1.621292e+002
1.196444e+002, 1.622271e+002
1.201266e+002, 1.622691e+002
1.206087e+002, 1.621313e+002
1.210908e+002, 1.617616e+002
1.215729e+002, 1.611806e+002
1.220550e+002, 1.604081e+002
1.225371e+002, 1.593928e+002
1.230193e+002, 1.579006e+002
1.235014e+002, 1.558323e+002
1.239835e+002, 1.540993e+002
1.244656e+002, 1.533845e+002
1.249477e+002, 1.531612e+002
1.254298e+002, 1.530510e+002
1.259120e+002, 1.529829e+002
1.263941e+002, 1.528913e+002
1.268762e+002, 1.526133e+002
1.273583e+002, 1.520397e+002
1.278404e+002, 1.514512e+002
1.283225e+002, 1.508988e+002
1.288047e+002, 1.503916e+002
1.292868e+002, 1.499853e+002
1.297689e+002, 1.497695e+002
1.302510e+002, 1.497016e+002
1.307331e+002, 1.491399e+002
1.312152e+002, 1.471035e+002
1.316974e+002, 1.454915e+002
1.321795e+002, 1.449741e+002
1.326616e+002, 1.453177e+002
1.331437e+002, 1.458827e+002
1.336258e+002, 1.461211e+002
1.341079e+002, 1.459756e+002
1.345901e+002, 1.458479e+002
1.350722e+002, 1.456167e+002
1.355543e+002, 1.454904e+002
1.360364e+002, 1.457531e+002
1.365185e+002, 1.463677e+002
1.370006e+002, 1.468668e+002
1.374828e+002, 1.466316e+002
1.379649e+002, 1.454459e+002
1.384470e+002, 1.446255e+002
1.389291e+002, 1.444893e+002
1.394112e+002, 1.446555e+002
1.398933e+002, 1.446863e+002
1.403755e+002, 1.444773e+002
1.408576e+002, 1.441686e+002
1.413397e+002, 1.438833e+002
1.418218e+002, 1.436126e+002
1.423039e+002, 1.434839e+002
1.427860e+002, 1.435963e+002
1.432681e+002, 1.439039e+002
1.437503e+002, 1.442382e+002
1.442324e+002, 1.445420e+002
1.447145e+002, 1.448946e+002
1.451966e+002, 1.454540e+002
1.456787e+002, 1.462135e+002
1.461608e+002, 1.468215e+002
1.466430e+002, 1.467998e+002
1.471251e+002, 1.460427e+002
1.476072e+002, 1.456912e+002
1.480893e+002, 1.464059e+002
1.485714e+002, 1.473261e+002
1.490535e+002, 1.479532e+002
1.495357e+002, 1.481918e+002
1.500178e+002, 1.483676e+002
1.504999e+002, 1.490151e+002
1.509820e+002, 1.504873e+002
1.514641e+002, 1.516742e+002
1.519462e+002, 1.522943e+002
1.524284e+002, 1.527489e+002
1.529105e+002, 1.533804e+002
1.533926e+002, 1.543094e+002
1.538747e+002, 1.553891e+002
1.543568e+002, 1.562505e+002
1.548389e+002, 1.567256e+002
1.553211e+002, 1.571467e+002
1.558032e+002, 1.573881e+002
1.562853e+002, 1.576259e+002
1.567674e+002, 1.581058e+002
1.572495e+002, 1.589645e+002
1.577316e+002, 1.600840e+002
1.582138e+002, 1.609562e+002
1.586959e+002, 1.612792e+002
1.591780e+002, 1.617289e+002
1.596601e+002, 1.623643e+002
1.601422e+002, 1.632366e+002
1.606243e+002, 1.645263e+002
1.611065e+002, 1.664451e+002
1.615886e+002, 1.687955e+002
1.620707e+002, 1.706456e+002
1.625528e+002, 1.715955e+002
1.630349e+002, 1.724675e+002
1.635170e+002, 1.737725e+002
1.639991e+002, 1.754700e+002
1.644813e+002, 1.771271e+002
1.649634e+002, 1.784244e+002
1.654455e+002, 1.795056e+002
1.659276e+002, 1.807202e+002
1.664097e+002, 1.821974e+002
1.668918e+002, 1.837560e+002
1.673740e+002, 1.851325e+002
1.678561e+002, 1.862586e+002
1.683382e+002, 1.875157e+002
1.688203e+002, 1.892193e+002
1.693024e+002, 1.911562e+002
1.697845e+002, 1.930945e+002
1.702667e+002, 1.949025e+002
1.707488e+002, 1.966769e+002
1.712309e+002, 1.987396e+002
1.717130e+002, 2.014980e+002
1.721951e+002, 2.037510e+002
1.726772e+002, 2.049265e+002
1.731594e+002, 2.054371e+002
1.736415e+002, 2.058472e+002
1.741236e+002, 2.064562e+002
1.746057e+002, 2.072375e+002
1.750878e+002, 2.080204e+002
1.755699e+002, 2.087591e+002
1.760521e+002, 2.095622e+002
1.765342e+002, 2.104578e+002
1.770163e+002, 2.114357e+002
1.774984e+002, 2.124872e+002
1.779805e+002, 2.136394e+002
1.784626e+002, 2.148970e+002
1.789448e+002, 2.158881e+002
1.794269e+002, 2.165105e+002
1.799090e+002, 2.169733e+002
1.803911e+002, 2.171765e+002
1.808732e+002, 2.172425e+002
1.813553e+002, 2.174423e+002
1.818375e+002, 2.180365e+002
1.823196e+002, 2.190903e+002
1.828017e+002, 2.198757e+002
1.832838e+002, 2.203008e+002
1.837659e+002, 2.206054e+002
1.842480e+002, 2.209014e+002
1.847301e+002, 2.211888e+002
1.852123e+002, 2.213994e+002
1.856944e+002, 2.214584e+002
1.861765e+002, 2.213389e+002
1.866586e+002, 2.212411e+002
1.871407e+002, 2.211325e+002
1.876228e+002, 2.210666e+002
1.881050e+002, 2.210957e+002
1.885871e+002, 2.212229e+002
1.890692e+002, 2.214057e+002
1.895513e+002, 2.217139e+002
1.900334e+002, 2.221190e+002
1.905155e+002, 2.220688e+002
1.909977e+002, 2.210964e+002
1.914798e+002, 2.198269e+002
1.919619e+002, 2.190373e+002
1.924440e+002, 2.188946e+002
1.929261e+002, 2.188069e+002
1.934082e+002, 2.181743e+002
1.938904e+002, 2.171306e+002
1.943725e+002, 2.159803e+002
1.948546e+002, 2.148054e+002
1.953367e+002, 2.135843e+002
1.958188e+002, 2.122563e+002
1.963009e+002, 2.107828e+002
1.967831e+002, 2.092732e+002
1.972652e+002, 2.077074e+002
1.977473e+002, 2.061432e+002
1.982294e+002, 2.047919e+002
1.987115e+002, 2.039983e+002
1.991936e+002, 2.035613e+002
1.996758e+002, 2.026008e+002
2.001579e+002, 2.008470e+002
2.006400e+002, 1.988657e+002
2.011221e+002, 1.968795e+002
2.016042e+002, 1.949300e+002
2.020863e+002, 1.931310e+002
2.025685e+002, 1.915975e+002
2.030506e+002, 1.903117e+002
2.035327e+002, 1.890369e+002
2.040148e+002, 1.879711e+002
2.044969e+002, 1.866933e+002
2.049790e+002, 1.849316e+002
2.054612e+002, 1.828279e+002
2.059433e+002, 1.807032e+002
2.064254e+002, 1.788102e+002
2.069075e+002, 1.771541e+002
2.073896e+002, 1.756337e+002
2.078717e+002, 1.743466e+002
2.083539e+002, 1.731138e+002
2.088360e+002, 1.720118e+002
2.093181e+002, 1.709432e+002
2.098002e+002, 1.696651e+002
2.102823e+002, 1.678771e+002
2.107644e+002, 1.654616e+002
2.112466e+002, 1.637035e+002
2.117287e+002, 1.629704e+002
2.122108e+002, 1.624816e+002
2.126929e+002, 1.621174e+002
2.131750e+002, 1.617614e+002
2.136571e+002, 1.612328e+002
2.141393e+002, 1.603713e+002
2.146214e+002, 1.591605e+002
2.151035e+002, 1.576522e+002
2.155856e+002, 1.554752e+002
2.160677e+002, 1.533925e+002
2.165498e+002, 1.517159e+002
2.170320e+002, 1.504769e+002
2.175141e+002, 1.496097e+002
2.179962e+002, 1.491468e+002
2.184783e+002, 1.491754e+002
2.189604e+002, 1.486586e+002
2.194425e+002, 1.469582e+002
2.199247e+002, 1.452923e+002
2.204068e+002, 1.446013e+002
2.208889e+002, 1.448155e+002
2.213710e+002, 1.449822e+002
2.218531e+002, 1.442387e+002
2.223352e+002, 1.425044e+002
2.228174e+002, 1.410494e+002
2.232995e+002, 1.399819e+002
2.237816e+002, 1.391054e+002
2.242637e+002, 1.383465e+002
2.247458e+002, 1.376853e+002
2.252279e+002, 1.369885e+002
2.257100e+002, 1.360894e+002
2.261922e+002, 1.350389e+002
2.266743e+002, 1.341941e+002
2.271564e+002, 1.336068e+002
2.276385e+002, 1.332179e+002
2.281206e+002, 1.330804e+002
2.286027e+002, 1.332070e+002
2.290849e+002, 1.332572e+002
2.295670e+002, 1.328675e+002
2.300491e+002, 1.322092e+002
2.305312e+002, 1.317612e+002
2.310133e+002, 1.318421e+002
2.314954e+002, 1.320362e+002
2.319776e+002, 1.317854e+002
2.324597e+002, 1.310133e+002
2.329418e+002, 1.303343e+002
2.334239e+002, 1.302413e+002
2.339060e+002, 1.304805e+002
2.343881e+002, 1.306889e+002
2.348703e+002, 1.307586e+002
2.353524e+002, 1.307734e+002
2.358345e+002, 1.308555e+002
2.363166e+002, 1.310248e+002
2.367987e+002, 1.311804e+002
2.372808e+002, 1.313132e+002
2.377630e+002, 1.313902e+002
2.382451e+002, 1.313831e+002
2.387272e+002, 1.313304e+002
2.392093e+002, 1.311205e+002
2.396914e+002, 1.305142e+002
2.401735e+002, 1.293803e+002
2.406557e+002, 1.282594e+002
2.411378e+002, 1.273085e+002
2.416199e+002, 1.264926e+002
2.421020e+002, 1.258439e+002
2.425841e+002, 1.254222e+002
2.430662e+002, 1.250276e+002
2.435484e+002, 1.242796e+002
2.440305e+002, 1.230391e+002
2.445126e+002, 1.218239e+002
2.449947e+002, 1.208092e+002
2.454768e+002, 1.198654e+002
2.459589e+002, 1.188973e+002
2.464410e+002, 1.178724e+002
2.469232e+002, 1.167972e+002
2.474053e+002, 1.156733e+002
2.478874e+002, 1.145251e+002
2.483695e+002, 1.132630e+002
2.488516e+002, 1.117989e+002
2.493337e+002, 1.102773e+002
2.498159e+002, 1.088254e+002
2.502980e+002, 1.074762e+002
2.507801e+002, 1.061491e+002
2.512622e+002, 1.046827e+002
2.517443e+002, 1.030027e+002
2.522264e+002, 1.013646e+002
2.527086e+002, 9.970093e+001
2.531907e+002, 9.813558e+001
2.536728e+002, 9.680016e+001
2.541549e+002, 9.571191e+001
2.546370e+002, 9.471133e+001
2.551191e+002, 9.353753e+001
2.556013e+002, 9.208480e+001
2.560834e+002, 9.069104e+001
2.565655e+002, 8.913393e+001
2.570476e+002, 8.778267e+001
2.575297e+002, 8.695500e+001
2.580118e+002, 8.666957e+001
2.584940e+002, 8.662693e+001
2.589761e+002, 8.644753e+001
2.594582e+002, 8.614510e+001
2.599403e+002, 8.564317e+001
2.604224e+002, 8.456156e+001
2.609045e+002, 8.360524e+001
2.613867e+002, 8.329353e+001
2.618688e+002, 8.362633e+001
2.623509e+002, 8.417825e+001
2.628330e+002, 8.444675e+001
2.633151e+002, 8.427890e+001
2.637972e+002, 8.439802e+001
2.642794e+002, 8.503410e+001
2.647615e+002, 8.570480e+001
2.652436e+002, 8.616063e+001
2.657257e+002, 8.638681e+001
2.662078e+002, 8.648196e+001
2.666899e+002, 8.651080e+001
2.671721e+002, 8.642347e+001
2.676542e+002, 8.662760e+001
2.681363e+002, 8.727469e+001
2.686184e+002, 8.800906e+001
2.691005e+002, 8.862037e+001
2.695826e+002, 8.914530e+001
2.700648e+002, 8.977540e+001
2.705469e+002, 9.068359e+001
2.710290e+002, 9.187593e+001
2.715111e+002, 9.300854e+001
2.719932e+002, 9.405759e+001
2.724753e+002, 9.508205e+001
2.729575e+002, 9.595374e+001
2.734396e+002, 9.679650e+001
2.739217e+002, 9.792712e+001
2.744038e+002, 9.958268e+001
2.748859e+002, 1.017252e+002
2.753680e+002, 1.038655e+002
2.758501e+002, 1.060606e+002
2.763322e+002, 1.082010e+002
2.768144e+002, 1.100939e+002
2.772965e+002, 1.119101e+002
2.777786e+002, 1.140487e+002
2.782607e+002, 1.167722e+002
2.787428e+002, 1.199150e+002
2.792249e+002, 1.227914e+002
2.797071e+002, 1.255204e+002
2.801892e+002, 1.279270e+002
2.806713e+002, 1.301694e+002
2.811534e+002, 1.320390e+002
2.816355e+002, 1.331928e+002
2.821176e+002, 1.334974e+002
2.825998e+002, 1.329641e+002
2.830819e+002, 1.315052e+002
2.835640e+002, 1.289886e+002
2.840461e+002, 1.260023e+002
2.845282e+002, 1.224649e+002
2.850103e+002, 1.185774e+002
2.854925e+002, 1.145690e+002
2.859746e+002, 1.104830e+002
2.864567e+002, 1.064505e+002
2.869388e+002, 1.026438e+002
2.874209e+002, 9.904144e+001
2.879030e+002, 9.574317e+001
2.883852e+002, 9.289583e+001
2.888673e+002, 9.033048e+001
2.893494e+002, 8.786762e+001
2.898315e+002, 8.546452e+001
2.903136e+002, 8.318396e+001
2.907957e+002, 8.107175e+001
2.912779e+002, 7.913511e+001
2.917600e+002, 7.741464e+001
2.922421e+002, 7.597202e+001
2.927242e+002, 7.471608e+001
2.932063e+002, 7.356616e+001
2.936884e+002, 7.250668e+001
2.941706e+002, 7.156898e+001
2.946527e+002, 7.081968e+001
2.951348e+002, 7.026200e+001
2.956169e+002, 6.962768e+001
2.960990e+002, 6.887552e+001
2.965811e+002, 6.806700e+001
2.970633e+002, 6.718347e+001
2.975454e+002, 6.624876e+001
2.980275e+002, 6.543318e+001
2.985096e+002, 6.487389e+001
2.989917e+002, 6.455514e+001
2.994738e+002, 6.425079e+001
2.999560e+002, 6.401974e+001
3.004381e+002, 6.375253e+001
3.009202e+002, 6.334759e+001
3.014023e+002, 6.283527e+001
3.018844e+002, 6.233543e+001
3.023665e+002, 6.187460e+001
3.028487e+002, 6.149989e+001
3.033308e+002, 6.134075e+001
3.038129e+002, 6.157269e+001
3.042950e+002, 6.171536e+001
3.047771e+002, 6.143112e+001
3.052592e+002, 6.088525e+001
3.057414e+002, 6.053217e+001
3.062235e+002, 6.058694e+001
3.067056e+002, 6.083170e+001
3.071877e+002, 6.080034e+001
3.076698e+002, 6.038943e+001
3.081519e+002, 6.015054e+001
3.086341e+002, 6.039843e+001
3.091162e+002, 6.090586e+001
3.095983e+002, 6.129200e+001
3.100804e+002, 6.145845e+001
3.105625e+002, 6.149227e+001
3.110446e+002, 6.145945e+001
3.115268e+002, 6.135266e+001
3.120089e+002, 6.132391e+001
3.124910e+002, 6.145312e+001
3.129731e+002, 6.165265e+001
3.134552e+002, 6.176735e+001
3.139373e+002, 6.176665e+001
3.144195e+002, 6.189064e+001
3.149016e+002, 6.245031e+001
3.153837e+002, 6.341110e+001
3.158658e+002, 6.416356e+001
3.163479e+002, 6.448587e+001
3.168300e+002, 6.470454e+001
3.173121e+002, 6.510177e+001
3.177943e+002, 6.567697e+001
3.182764e+002, 6.623720e+001
3.187585e+002, 6.663244e+001
3.192406e+002, 6.691000e+001
3.197227e+002, 6.731115e+001
3.202048e+002, 6.795509e+001
3.206870e+002, 6.860245e+001
3.211691e+002, 6.919267e+001
3.216512e+002, 6.969463e+001
3.221333e+002, 6.996033e+001
3.226154e+002, 6.983308e+001
3.230975e+002, 6.952898e+001
3.235797e+002, 6.963371e+001
3.240618e+002, 7.036528e+001
3.245439e+002, 7.096096e+001
3.250260e+002, 7.124379e+001
3.255081e+002, 7.119767e+001
3.259902e+002, 7.063802e+001
3.264724e+002, 6.938457e+001
3.269545e+002, 6.805306e+001
3.274366e+002, 6.773027e+001
3.279187e+002, 6.857255e+001
3.284008e+002, 6.925585e+001
3.288829e+002, 6.956997e+001
3.293651e+002, 6.958458e+001
3.298472e+002, 6.928842e+001
3.303293e+002, 6.867915e+001
3.308114e+002, 6.802890e+001
3.312935e+002, 6.759524e+001
3.317756e+002, 6.740128e+001
3.322578e+002, 6.727341e+001
3.327399e+002, 6.717715e+001
3.332220e+002, 6.716792e+001
3.337041e+002, 6.743095e+001
3.341862e+002, 6.789877e+001
3.346683e+002, 6.811726e+001
3.351505e+002, 6.770140e+001
3.356326e+002, 6.675428e+001
3.361147e+002, 6.610515e+001
3.365968e+002, 6.613783e+001
3.370789e+002, 6.602544e+001
3.375610e+002, 6.535085e+001
3.380432e+002, 6.426286e+001
3.385253e+002, 6.308475e+001
3.390074e+002, 6.193114e+001
3.394895e+002, 6.086092e+001
3.399716e+002, 6.006792e+001
3.404537e+002, 5.964355e+001
3.409359e+002, 5.927936e+001
3.414180e+002, 5.895655e+001
3.419001e+002, 5.864798e+001
3.423822e+002, 5.831034e+001
3.428643e+002, 5.793243e+001
3.433464e+002, 5.755622e+001
3.438286e+002, 5.724323e+001
3.443107e+002, 5.702121e+001
3.447928e+002, 5.678987e+001
3.452749e+002, 5.649616e+001
3.457570e+002, 5.623125e+001
3.462391e+002, 5.611473e+001
3.467213e+002, 5.613018e+001
3.472034e+002, 5.611182e+001
3.476855e+002, 5.591142e+001
3.481676e+002, 5.551835e+001
3.486497e+002, 5.509407e+001
3.491318e+002, 5.451245e+001
3.496140e+002, 5.402991e+001
3.500961e+002, 5.378336e+001
3.505782e+002, 5.372685e+001
3.510603e+002, 5.377345e+001
3.515424e+002, 5.389355e+001
3.520245e+002, 5.403358e+001
3.525067e+002, 5.395428e+001
3.529888e+002, 5.340342e+001
3.534709e+002, 5.294718e+001
3.539530e+002, 5.261263e+001
3.544351e+002, 5.242392e+001
3.549172e+002, 5.249122e+001
3.553994e+002, 5.283976e+001
3.558815e+002, 5.322727e+001
3.563636e+002, 5.322505e+001
3.568457e+002, 5.252288e+001
3.573278e+002, 5.205190e+001
3.578099e+002, 5.186195e+001
3.582920e+002, 5.183992e+001
3.587741e+002, 5.199274e+001
3.592563e+002, 5.226959e+001
3.597384e+002, 5.251803e+001
3.602205e+002, 5.259585e+001
3.607026e+002, 5.249781e+001
3.611847e+002, 5.226830e+001
3.616668e+002, 5.171561e+001
3.621490e+002, 5.123944e+001
3.626311e+002, 5.098804e+001
3.631132e+002, 5.091016e+001
3.635953e+002, 5.088961e+001
3.640774e+002, 5.085172e+001
3.645595e+002, 5.082698e+001
3.650417e+002, 5.095657e+001
3.655238e+002, 5.146205e+001
3.660059e+002, 5.181487e+001
3.664880e+002, 5.185585e+001
3.669701e+002, 5.177250e+001
3.674522e+002, 5.173874e+001
3.679344e+002, 5.181247e+001
3.684165e+002, 5.194893e+001
3.688986e+002, 5.207128e+001
3.693807e+002, 5.214117e+001
3.698628e+002, 5.230642e+001
3.703449e+002, 5.260903e+001
3.708271e+002, 5.297013e+001
3.713092e+002, 5.342768e+001
3.717913e+002, 5.392957e+001
3.722734e+002, 5.432177e+001
3.727555e+002, 5.441331e+001
3.732376e+002, 5.421858e+001
3.737198e+002, 5.422316e+001
3.742019e+002, 5.452779e+001
3.746840e+002, 5.492893e+001
3.751661e+002, 5.545298e+001
3.756482e+002, 5.600253e+001
3.761303e+002, 5.641681e+001
3.766125e+002, 5.659923e+001
3.770946e+002, 5.665394e+001
3.775767e+002, 5.680525e+001
3.780588e+002, 5.706314e+001
3.785409e+002, 5.739188e+001
3.790230e+002, 5.788959e+001
3.795052e+002, 5.838816e+001
3.799873e+002, 5.873352e+001
3.804694e+002, 5.889677e+001
3.809515e+002, 5.901982e+001
3.814336e+002, 5.929927e+001
3.819157e+002, 5.972884e+001
3.823979e+002, 5.993603e+001
3.828800e+002, 5.970774e+001
3.833621e+002, 5.943666e+001
3.838442e+002, 5.940490e+001
3.843263e+002, 5.956163e+001
3.848084e+002, 5.971418e+001
3.852906e+002, 5.973828e+001
3.857727e+002, 5.968952e+001
3.862548e+002, 5.969717e+001
3.867369e+002, 5.977293e+001
3.872190e+002, 5.986387e+001
3.877011e+002, 6.000452e+001
3.881833e+002, 6.012296e+001
3.886654e+002, 6.007741e+001
3.891475e+002, 5.972904e+001
3.896296e+002, 5.941746e+001
3.901117e+002, 5.955397e+001
3.905938e+002, 6.006617e+001
3.910760e+002, 6.035014e+001
3.915581e+002, 6.009487e+001
3.920402e+002, 5.966857e+001
3.925223e+002, 5.960278e+001
3.930044e+002, 5.991645e+001
3.934865e+002, 6.023346e+001
3.939687e+002, 6.041492e+001
3.944508e+002, 6.050656e+001
3.949329e+002, 6.051115e+001
3.954150e+002, 6.040765e+001
3.958971e+002, 6.045931e+001
3.963792e+002, 6.100976e+001
3.968614e+002, 6.199859e+001
3.973435e+002, 6.267654e+001
3.978256e+002, 6.274152e+001
3.983077e+002, 6.272920e+001
3.987898e+002, 6.299167e+001
3.992719e+002, 6.347926e+001
3.997540e+002, 6.397171e+001
4.002361e+002, 6.434486e+001
4.007183e+002, 6.467326e+001
4.012004e+002, 6.518004e+001
4.016825e+002, 6.594027e+001
4.021646e+002, 6.671440e+001
4.026467e+002, 6.748856e+001
4.031288e+002, 6.824374e+001
4.036110e+002, 6.891896e+001
4.040931e+002, 6.950771e+001
4.045752e+002, 7.013383e+001
4.050573e+002, 7.096778e+001
4.055394e+002, 7.208611e+001
4.060215e+002, 7.299088e+001
4.065037e+002, 7.350349e+001
4.069858e+002, 7.399861e+001
4.074679e+002, 7.460091e+001
4.079500e+002, 7.533938e+001
4.084321e+002, 7.626517e+001
4.089142e+002, 7.744234e+001
4.093964e+002, 7.878193e+001
4.098785e+002, 7.988584e+001
4.103606e+002, 8.031626e+001
4.108427e+002, 8.108210e+001
4.113248e+002, 8.243403e+001
4.118069e+002, 8.405775e+001
4.122891e+002, 8.572286e+001
4.127712e+002, 8.734148e+001
4.132533e+002, 8.885420e+001
4.137354e+002, 9.010574e+001
4.142175e+002, 9.094144e+001
4.146996e+002, 9.216481e+001
4.151818e+002, 9.413361e+001
4.156639e+002, 9.616270e+001
4.161460e+002, 9.800310e+001
4.166281e+002, 9.969601e+001
4.171102e+002, 1.013755e+002
4.175923e+002, 1.031689e+002
4.180745e+002, 1.049904e+002
4.185566e+002, 1.065613e+002
4.190387e+002, 1.077972e+002
4.195208e+002, 1.089463e+002
4.200029e+002, 1.099771e+002
4.204850e+002, 1.110117e+002
4.209672e+002, 1.122144e+002
4.214493e+002, 1.136305e+002
4.219314e+002, 1.149914e+002
4.224135e+002, 1.160360e+002
4.228956e+002, 1.167682e+002
4.233777e+002, 1.172981e+002
4.238599e+002, 1.175326e+002
4.243420e+002, 1.177114e+002
4.248241e+002, 1.180751e+002
4.253062e+002, 1.185571e+002
4.257883e+002, 1.189121e+002
4.262704e+002, 1.191312e+002
4.267526e+002, 1.191228e+002
4.272347e+002, 1.186317e+002
4.277168e+002, 1.176235e+002
4.281989e+002, 1.166834e+002
4.286810e+002, 1.161135e+002
4.291631e+002, 1.158296e+002
4.296453e+002, 1.156029e+002
4.301274e+002, 1.154687e+002
4.306095e+002, 1.153096e+002
4.310916e+002, 1.150980e+002
4.315737e+002, 1.148166e+002
4.320558e+002, 1.143454e+002
4.325380e+002, 1.136175e+002
4.330201e+002, 1.129769e+002
4.335022e+002, 1.128608e+002
4.339843e+002, 1.133497e+002
4.344664e+002, 1.138127e+002
4.349485e+002, 1.140364e+002
4.354307e+002, 1.143912e+002
4.359128e+002, 1.153203e+002
4.363949e+002, 1.166341e+002
4.368770e+002, 1.176208e+002
4.373591e+002, 1.177999e+002
4.378412e+002, 1.174746e+002
4.383234e+002, 1.178039e+002
4.388055e+002, 1.193346e+002
4.392876e+002, 1.208373e+002
4.397697e+002, 1.220295e+002
4.402518e+002, 1.232706e+002
4.407339e+002, 1.249898e+002
4.412160e+002, 1.272155e+002
4.416982e+002, 1.295444e+002
4.421803e+002, 1.314654e+002
4.426624e+002, 1.328855e+002
4.431445e+002, 1.346161e+002
4.436266e+002, 1.367795e+002
4.441087e+002, 1.391301e+002
4.445909e+002, 1.418180e+002
4.450730e+002, 1.445868e+002
4.455551e+002, 1.470679e+002
4.460372e+002, 1.490400e+002
4.465193e+002, 1.506741e+002
4.470014e+002, 1.523199e+002
4.474836e+002, 1.539585e+002
4.479657e+002, 1.556628e+002
4.484478e+002, 1.575472e+002
4.489299e+002, 1.594382e+002
4.494120e+002, 1.612564e+002
4.498941e+002, 1.629849e+002
4.503763e+002, 1.646079e+002
4.508584e+002, 1.662186e+002
4.513405e+002, 1.677348e+002
4.518226e+002, 1.687214e+002
4.523047e+002, 1.690535e+002
4.527868e+002, 1.691361e+002
4.532690e+002, 1.693754e+002
4.537511e+002, 1.694700e+002
4.542332e+002, 1.689329e+002
4.547153e+002, 1.676393e+002
4.551974e+002, 1.657395e+002
4.556795e+002, 1.631375e+002
4.561617e+002, 1.599749e+002
4.566438e+002, 1.567749e+002
4.571259e+002, 1.536078e+002
4.576080e+002, 1.506103e+002
4.580901e+002, 1.480300e+002
4.585722e+002, 1.458570e+002
4.590544e+002, 1.437077e+002
4.595365e+002, 1.412852e+002
4.600186e+002, 1.390354e+002
4.605007e+002, 1.374668e+002
4.609828e+002, 1.364990e+002
4.614649e+002, 1.356044e+002
4.619471e+002, 1.344767e+002
4.624292e+002, 1.331502e+002
4.629113e+002, 1.317288e+002
4.633934e+002, 1.299959e+002
4.638755e+002, 1.284566e+002
4.643576e+002, 1.273162e+002
4.648398e+002, 1.263012e+002
4.653219e+002, 1.250592e+002
4.658040e+002, 1.235562e+002
4.662861e+002, 1.221446e+002
4.667682e+002, 1.212479e+002
4.672503e+002, 1.209326e+002
4.677325e+002, 1.204145e+002
4.682146e+002, 1.195117e+002
4.686967e+002, 1.185938e+002
4.691788e+002, 1.176481e+002
4.696609e+002, 1.167806e+002
4.701430e+002, 1.161375e+002
4.706252e+002, 1.157833e+002
4.711073e+002, 1.156601e+002
4.715894e+002, 1.156820e+002
4.720715e+002, 1.158611e+002
4.725536e+002, 1.161319e+002
4.730357e+002, 1.164854e+002
4.735179e+002, 1.169390e+002
4.740000e+002, 1.175019e+002
4.744821e+002, 1.181721e+002
4.749642e+002, 1.189532e+002
4.754463e+002, 1.198518e+002
4.759284e+002, 1.208571e+002
4.764106e+002, 1.219577e+002
4.768927e+002, 1.231493e+002
4.773748e+002, 1.244306e+002
4.778569e+002, 1.257568e+002
4.783390e+002, 1.272121e+002
4.788211e+002, 1.289566e+002
4.793033e+002, 1.311045e+002
4.797854e+002, 1.331321e+002
4.802675e+002, 1.345814e+002
4.807496e+002, 1.357808e+002
4.812317e+002, 1.373820e+002
4.817138e+002, 1.395108e+002
4.821959e+002, 1.417562e+002
4.826780e+002, 1.437831e+002
4.831602e+002, 1.455821e+002
4.836423e+002, 1.473585e+002
4.841244e+002, 1.492896e+002
4.846065e+002, 1.510053e+002
4.850886e+002, 1.522528e+002
4.855707e+002, 1.532112e+002
4.860529e+002, 1.541900e+002
4.865350e+002, 1.553083e+002
4.870171e+002, 1.564765e+002
4.874992e+002, 1.575864e+002
4.879813e+002, 1.588689e+002
4.884634e+002, 1.594366e+002
4.889456e+002, 1.588940e+002
4.894277e+002, 1.581431e+002
4.899098e+002, 1.577467e+002
4.903919e+002, 1.574956e+002
4.908740e+002, 1.568254e+002
4.913561e+002, 1.553711e+002
4.918383e+002, 1.533567e+002
4.923204e+002, 1.513969e+002
4.928025e+002, 1.495755e+002
4.932846e+002, 1.475908e+002
4.937667e+002, 1.452300e+002
4.942488e+002, 1.428063e+002
4.947310e+002, 1.406636e+002
4.952131e+002, 1.387559e+002
4.956952e+002, 1.365214e+002
4.961773e+002, 1.333606e+002
4.966594e+002, 1.296122e+002
4.971415e+002, 1.262378e+002
4.976237e+002, 1.233133e+002
4.981058e+002, 1.204789e+002
4.985879e+002, 1.175509e+002
4.990700e+002, 1.145492e+002
4.995521e+002, 1.115258e+002
5.000342e+002, 1.084496e+002
5.005164e+002, 1.054109e+002
5.009985e+002, 1.023962e+002
5.014806e+002, 9.944495e+001
5.019627e+002, 9.655984e+001
5.024448e+002, 9.374815e+001
5.029269e+002, 9.110498e+001
5.034091e+002, 8.877323e+001
5.038912e+002, 8.675053e+001
5.043733e+002, 8.456165e+001
5.048554e+002, 8.195637e+001
5.053375e+002, 7.948473e+001
5.058196e+002, 7.740410e+001
5.063018e+002, 7.556121e+001
5.067839e+002, 7.370499e+001
5.072660e+002, 7.174944e+001
5.077481e+002, 6.985306e+001
5.082302e+002, 6.830663e+001
5.087123e+002, 6.725163e+001
5.091945e+002, 6.602874e+001
5.096766e+002, 6.443482e+001
5.101587e+002, 6.287881e+001
5.106408e+002, 6.151377e+001
5.111229e+002, 6.029653e+001
5.116050e+002, 5.912555e+001
5.120872e+002, 5.794864e+001
5.125693e+002, 5.679282e+001
5.130514e+002, 5.567580e+001
5.135335e+002, 5.457572e+001
5.140156e+002, 5.366862e+001
5.144977e+002, 5.317638e+001
5.149799e+002, 5.269966e+001
5.154620e+002, 5.187207e+001
5.159441e+002, 5.074152e+001
5.164262e+002, 4.964932e+001
5.169083e+002, 4.867762e+001
5.173904e+002, 4.785169e+001
5.178726e+002, 4.728347e+001
5.183547e+002, 4.694845e+001
5.188368e+002, 4.651353e+001
5.193189e+002, 4.577907e+001
5.198010e+002, 4.490009e+001
5.202831e+002, 4.424718e+001
5.207653e+002, 4.385620e+001
5.212474e+002, 4.351760e+001
5.217295e+002, 4.322836e+001
5.222116e+002, 4.295712e+001
5.226937e+002, 4.275393e+001
5.231758e+002, 4.256942e+001
5.236580e+002, 4.216284e+001
5.241401e+002, 4.130928e+001
5.246222e+002, 4.016599e+001
5.251043e+002, 3.954938e+001
5.255864e+002, 3.996705e+001
5.260685e+002, 4.021154e+001
5.265507e+002, 4.006627e+001
5.270328e+002, 3.979367e+001
5.275149e+002, 3.964689e+001
5.279970e+002, 3.962781e+001
5.284791e+002, 3.950855e+001
5.289612e+002, 3.900154e+001
5.294434e+002, 3.820685e+001
5.299255e+002, 3.776670e+001
5.304076e+002, 3.783149e+001
5.308897e+002, 3.790534e+001
5.313718e+002, 3.776440e+001
5.318539e+002, 3.752945e+001
5.323361e+002, 3.732207e+001
5.328182e+002, 3.716764e+001
5.333003e+002, 3.698817e+001
5.337824e+002, 3.670162e+001
5.342645e+002, 3.635922e+001
5.347466e+002, 3.606736e+001
5.352288e+002, 3.584083e+001
5.357109e+002, 3.564614e+001
5.361930e+002, 3.545530e+001
5.366751e+002, 3.527645e+001
5.371572e+002, 3.515422e+001
5.376393e+002, 3.511441e+001
5.381215e+002, 3.509329e+001
5.386036e+002, 3.514161e+001
5.390857e+002, 3.516702e+001
5.395678e+002, 3.503172e+001
5.400499e+002, 3.471914e+001
5.405320e+002, 3.433781e+001
5.410142e+002, 3.398367e+001
5.414963e+002, 3.365286e+001
5.419784e+002, 3.348161e+001
5.424604e+002, 3.365781e+001
5.429426e+002, 3.377546e+001
5.434247e+002, 3.370077e+001
5.439068e+002, 3.355118e+001
5.443889e+002, 3.345738e+001
5.448710e+002, 3.345473e+001
5.453531e+002, 3.349694e+001
5.458353e+002, 3.355431e+001
5.463174e+002, 3.362215e+001
5.467995e+002, 3.363617e+001
5.472816e+002, 3.357202e+001
5.477637e+002, 3.349860e+001
5.482458e+002, 3.348377e+001
5.487280e+002, 3.348261e+001
5.492101e+002, 3.341902e+001
5.496922e+002, 3.327553e+001
5.501743e+002, 3.307953e+001
5.506564e+002, 3.273355e+001
5.511385e+002, 3.236713e+001
5.516207e+002, 3.231837e+001
5.521028e+002, 3.266545e+001
5.525849e+002, 3.303151e+001
5.530670e+002, 3.303385e+001
5.535491e+002, 3.267056e+001
5.540313e+002, 3.253938e+001
5.545134e+002, 3.295109e+001
5.549955e+002, 3.318809e+001
5.554776e+002, 3.291115e+001
5.559597e+002, 3.241591e+001
5.564418e+002, 3.205520e+001
5.569240e+002, 3.192427e+001
5.574061e+002, 3.191712e+001
5.578882e+002, 3.192588e+001
5.583703e+002, 3.195166e+001
5.588524e+002, 3.195009e+001
5.593345e+002, 3.183480e+001
5.598167e+002, 3.182198e+001
5.602988e+002, 3.212913e+001
5.607809e+002, 3.250146e+001
5.612630e+002, 3.262477e+001
5.617451e+002, 3.241079e+001
5.622272e+002, 3.204049e+001
5.627094e+002, 3.158628e+001
5.631915e+002, 3.109741e+001
5.636736e+002, 3.073406e+001
5.641557e+002, 3.051266e+001
5.646378e+002, 3.042782e+001
5.651199e+002, 3.053306e+001
5.656021e+002, 3.077555e+001
5.660842e+002, 3.091266e+001
5.665663e+002, 3.093280e+001
5.670484e+002, 3.086689e+001
5.675305e+002, 3.065683e+001
5.680126e+002, 3.039948e+001
5.684948e+002, 3.018017e+001
5.689769e+002, 3.003129e+001
5.694590e+002, 3.002689e+001
5.699411e+002, 3.028066e+001
5.704232e+002, 3.076420e+001
5.709053e+002, 3.090674e+001
5.713875e+002, 3.038724e+001
5.718696e+002, 2.994732e+001
5.723517e+002, 2.963264e+001
5.728338e+002, 2.948480e+001
5.733159e+002, 2.963783e+001
5.737980e+002, 3.006186e+001
5.742802e+002, 3.042631e+001
5.747623e+002, 3.039070e+001
5.752444e+002, 3.004990e+001
5.757265e+002, 2.977276e+001
5.762086e+002, 2.954340e+001
5.766907e+002, 2.945022e+001
5.771729e+002, 2.960463e+001
5.776550e+002, 2.988698e+001
5.781371e+002, 3.010503e+001
5.786192e+002, 3.025091e+001
5.791013e+002, 3.035379e+001
5.795834e+002, 3.040614e+001
5.800656e+002, 3.043201e+001
5.805477e+002, 3.047480e+001
5.810298e+002, 3.052698e+001
5.815119e+002, 3.052113e+001
5.819940e+002, 3.040606e+001
5.824761e+002, 3.021724e+001
5.829583e+002, 3.007572e+001
5.834404e+002, 3.002182e+001
5.839225e+002, 2.995467e+001
5.844046e+002, 2.983933e+001
5.848867e+002, 2.973807e+001
5.853688e+002, 2.970146e+001
5.858510e+002, 2.971731e+001
5.863331e+002, 2.972214e+001
5.868152e+002, 2.964919e+001
5.872973e+002, 2.959097e+001
5.877794e+002, 2.982995e+001
5.882615e+002, 3.043751e+001
5.887437e+002, 3.085238e+001
5.892258e+002, 3.090306e+001
5.897079e+002, 3.075000e+001
5.901900e+002, 3.043210e+001
5.906721e+002, 3.000317e+001
5.911542e+002, 2.983396e+001
5.916364e+002, 3.023522e+001
5.921185e+002, 3.077332e+001
5.926006e+002, 3.110714e+001
5.930827e+002, 3.127229e+001
5.935648e+002, 3.138819e+001
5.940469e+002, 3.149596e+001
5.945291e+002, 3.157861e+001
5.950112e+002, 3.159734e+001
5.954933e+002, 3.150738e+001
5.959754e+002, 3.156533e+001
5.964575e+002, 3.187291e+001
5.969396e+002, 3.219233e+001
5.974218e+002, 3.240924e+001
5.979039e+002, 3.259807e+001
5.983860e+002, 3.290873e+001
5.988681e+002, 3.338580e+001
5.993502e+002, 3.384647e+001
5.998323e+002, 3.399627e+001
6.003145e+002, 3.385422e+001
6.007966e+002, 3.395767e+001
6.012787e+002, 3.440490e+001
6.017608e+002, 3.493521e+001
6.022429e+002, 3.546628e+001
6.027250e+002, 3.596544e+001
6.032072e+002, 3.633455e+001
6.036893e+002, 3.648188e+001
6.041714e+002, 3.674285e+001
6.046535e+002, 3.732821e+001
6.051356e+002, 3.811521e+001
6.056177e+002, 3.895003e+001
6.060999e+002, 3.980361e+001
6.065820e+002, 4.065975e+001
6.070641e+002, 4.149860e+001
6.075462e+002, 4.233047e+001
6.080283e+002, 4.321277e+001
6.085104e+002, 4.416185e+001
6.089926e+002, 4.513863e+001
6.094747e+002, 4.614020e+001
6.099568e+002, 4.716858e+001
6.104389e+002, 4.825340e+001
6.109210e+002, 4.937041e+001
6.114031e+002, 5.045185e+001
6.118853e+002, 5.146272e+001
6.123674e+002, 5.240045e+001
6.128495e+002, 5.321685e+001
6.133316e+002, 5.389395e+001
6.138137e+002, 5.472961e+001
6.142958e+002, 5.585583e+001
6.147780e+002, 5.709296e+001
6.152601e+002, 5.835231e+001
6.157422e+002, 5.960918e+001
6.162243e+002, 6.064625e+001
6.167064e+002, 6.121866e+001
6.171885e+002, 6.175619e+001
6.176707e+002, 6.250257e+001
6.181528e+002, 6.341864e+001
6.186349e+002, 6.442342e+001
6.191170e+002, 6.549163e+001
6.195991e+002, 6.662701e+001
6.200812e+002, 6.781472e+001
6.205634e+002, 6.904679e+001
6.210455e+002, 7.053155e+001
6.215276e+002, 7.281850e+001
6.220097e+002, 7.467252e+001
6.224918e+002, 7.577499e+001
6.229739e+002, 7.636030e+001
6.234561e+002, 7.663719e+001
6.239382e+002, 7.665398e+001
6.244203e+002, 7.639127e+001
6.249023e+002, 7.565585e+001
6.253845e+002, 7.465382e+001
6.258666e+002, 7.400248e+001
6.263487e+002, 7.374876e+001
6.268308e+002, 7.341246e+001
6.273129e+002, 7.275505e+001
6.277950e+002, 7.190520e+001
6.282772e+002, 7.112935e+001
6.287593e+002, 7.050794e+001
6.292414e+002, 6.961121e+001
6.297235e+002, 6.846812e+001
6.302056e+002, 6.694650e+001
6.306877e+002, 6.479936e+001
6.311699e+002, 6.220466e+001
6.316520e+002, 5.950781e+001
6.321341e+002, 5.687841e+001
6.326162e+002, 5.434951e+001
6.330983e+002, 5.199249e+001
6.335804e+002, 4.980941e+001
6.340626e+002, 4.773151e+001
6.345447e+002, 4.570150e+001
6.350268e+002, 4.387870e+001
6.355089e+002, 4.233647e+001
6.359910e+002, 4.102222e+001
6.364731e+002, 3.986951e+001
6.369553e+002, 3.888296e+001
6.374374e+002, 3.798699e+001
6.379195e+002, 3.717486e+001
6.384016e+002, 3.641001e+001
6.388837e+002, 3.558449e+001
6.393658e+002, 3.469532e+001
6.398480e+002, 3.388623e+001
6.403301e+002, 3.326679e+001
6.408122e+002, 3.277896e+001
6.412943e+002, 3.222183e+001
6.417764e+002, 3.148569e+001
6.422585e+002, 3.084583e+001
6.427407e+002, 3.026529e+001
6.432228e+002, 2.981369e+001
6.437049e+002, 2.959101e+001
6.441870e+002, 2.953131e+001
6.446691e+002, 2.945981e+001
6.451512e+002, 2.927409e+001
6.456334e+002, 2.909002e+001
6.461155e+002, 2.917597e+001
6.465976e+002, 2.952791e+001
6.470797e+002, 2.959371e+001
6.475618e+002, 2.917478e+001
6.480439e+002, 2.870642e+001
6.485261e+002, 2.852684e+001
6.490082e+002, 2.856436e+001
6.494903e+002, 2.859849e+001
6.499724e+002, 2.856224e+001
6.504545e+002, 2.859928e+001
6.509366e+002, 2.889171e+001
6.514188e+002, 2.921893e+001
6.519009e+002, 2.926080e+001
6.523830e+002, 2.902472e+001
6.528651e+002, 2.880103e+001
6.533472e+002, 2.880925e+001
6.538293e+002, 2.898602e+001
6.543115e+002, 2.907859e+001
6.547936e+002, 2.898785e+001
6.552757e+002, 2.905310e+001
6.557578e+002, 2.952033e+001
6.562399e+002, 2.998508e+001
6.567220e+002, 3.022739e+001
6.572042e+002, 3.028134e+001
6.576863e+002, 3.027457e+001
6.581684e+002, 3.021009e+001
6.586505e+002, 3.017553e+001
6.591326e+002, 3.022142e+001
6.596147e+002, 3.036416e+001
6.600969e+002, 3.070190e+001
6.605790e+002, 3.126160e+001
6.610611e+002, 3.180973e+001
6.615432e+002, 3.213983e+001
6.620253e+002, 3.227123e+001
6.625074e+002, 3.240667e+001
6.629896e+002, 3.254945e+001
6.634717e+002, 3.269228e+001
6.639538e+002, 3.275455e+001
6.644359e+002, 3.287876e+001
6.649180e+002, 3.326205e+001
6.654001e+002, 3.383147e+001
6.658823e+002, 3.427423e+001
6.663644e+002, 3.434002e+001
6.668465e+002, 3.427067e+001
6.673286e+002, 3.457698e+001
6.678107e+002, 3.524342e+001
6.682928e+002, 3.569250e+001
6.687750e+002, 3.571898e+001
6.692571e+002, 3.567860e+001
6.697392e+002, 3.589266e+001
6.702213e+002, 3.634790e+001
6.707034e+002, 3.682244e+001
6.711855e+002, 3.751210e+001
6.716677e+002, 3.797477e+001
6.721498e+002, 3.789463e+001
6.726319e+002, 3.761615e+001
6.731140e+002, 3.753576e+001
6.735961e+002, 3.767550e+001
6.740782e+002, 3.778335e+001
6.745604e+002, 3.766310e+001
6.750425e+002, 3.737544e+001
6.755246e+002, 3.712937e+001
6.760067e+002, 3.695579e+001
6.764888e+002, 3.668539e+001
6.769709e+002, 3.625060e+001
6.774531e+002, 3.574303e+001
6.779352e+002, 3.517149e+001
6.784173e+002, 3.458144e+001
6.788994e+002, 3.415252e+001
6.793815e+002, 3.411319e+001
6.798636e+002, 3.400396e+001
6.803458e+002, 3.340776e+001
6.808279e+002, 3.262394e+001
6.813100e+002, 3.216527e+001
6.817921e+002, 3.209248e+001
6.822742e+002, 3.205335e+001
6.827563e+002, 3.175441e+001
6.832385e+002, 3.125676e+001
6.837206e+002, 3.086521e+001
6.842027e+002, 3.064525e+001
6.846848e+002, 3.038920e+001
6.851669e+002, 2.996057e+001
6.856490e+002, 2.958722e+001
6.861312e+002, 2.946860e+001
6.866133e+002, 2.952003e+001
6.870954e+002, 2.946973e+001
6.875775e+002, 2.915930e+001
6.880596e+002, 2.881727e+001
6.885417e+002, 2.868268e+001
6.890239e+002, 2.866635e+001
6.895060e+002, 2.853494e+001
6.899881e+002, 2.824934e+001
6.904702e+002, 2.799908e+001
6.909523e+002, 2.794755e+001
6.914344e+002, 2.804215e+001
6.919166e+002, 2.801211e+001
6.923987e+002, 2.773563e+001
6.928808e+002, 2.752771e+001
6.933629e+002, 2.747586e+001
6.938450e+002, 2.742687e+001
6.943271e+002, 2.723026e+001
6.948093e+002, 2.696150e+001
6.952914e+002, 2.684218e+001
6.957735e+002, 2.701296e+001
6.962556e+002, 2.722766e+001
6.967377e+002, 2.718778e+001
6.972198e+002, 2.696097e+001
6.977020e+002, 2.679066e+001
6.981841e+002, 2.671741e+001
6.986662e+002, 2.664011e+001
6.991483e+002, 2.646562e+001
6.996304e+002, 2.624613e+001
7.001125e+002, 2.618261e+001
7.005947e+002, 2.629867e+001
7.010768e+002, 2.654503e+001
7.015589e+002, 2.726714e+001
7.020410e+002, 2.779929e+001
7.025231e+002, 2.758348e+001
7.030052e+002, 2.688026e+001
7.034874e+002, 2.627863e+001
7.039695e+002, 2.603465e+001
7.044516e+002, 2.595392e+001
7.049337e+002, 2.579286e+001
7.054158e+002, 2.558788e+001
7.058979e+002, 2.553613e+001
7.063801e+002, 2.567326e+001
7.068622e+002, 2.584771e+001
7.073442e+002, 2.599194e+001
7.078264e+002, 2.610010e+001
7.083085e+002, 2.615835e+001
7.087906e+002, 2.617409e+001
7.092727e+002, 2.612415e+001
7.097548e+002, 2.587515e+001
7.102369e+002, 2.568773e+001
7.107191e+002, 2.580313e+001
7.112012e+002, 2.606684e+001
7.116833e+002, 2.617209e+001
7.121654e+002, 2.601149e+001
7.126475e+002, 2.579608e+001
7.131296e+002, 2.582199e+001
7.136118e+002, 2.602235e+001
7.140939e+002, 2.597838e+001
7.145760e+002, 2.562910e+001
7.150581e+002, 2.534793e+001
7.155402e+002, 2.529364e+001
7.160223e+002, 2.541413e+001
7.165045e+002, 2.568031e+001
7.169866e+002, 2.614551e+001
7.174687e+002, 2.642369e+001
7.179508e+002, 2.636857e+001
7.184329e+002, 2.623995e+001
7.189150e+002, 2.609310e+001
7.193972e+002, 2.598503e+001
7.198793e+002, 2.601960e+001
7.203614e+002, 2.620414e+001
7.208435e+002, 2.638054e+001
7.213256e+002, 2.638178e+001
7.218077e+002, 2.625234e+001
7.222899e+002, 2.618946e+001
7.227720e+002, 2.621262e+001
7.232541e+002, 2.612108e+001
7.237362e+002, 2.578749e+001
7.242183e+002, 2.540829e+001
7.247004e+002, 2.518736e+001
7.251826e+002, 2.512352e+001
7.256647e+002, 2.522096e+001
7.261468e+002, 2.577328e+001
7.266289e+002, 2.613600e+001
7.271110e+002, 2.588221e+001
7.275931e+002, 2.543224e+001
7.280753e+002, 2.521337e+001
7.285574e+002, 2.530421e+001
7.290395e+002, 2.565482e+001
7.295216e+002, 2.633667e+001
7.300037e+002, 2.705682e+001
7.304858e+002, 2.701075e+001
7.309680e+002, 2.616361e+001
7.314501e+002, 2.557541e+001
7.319322e+002, 2.550734e+001
7.324143e+002, 2.560236e+001
7.328964e+002, 2.559414e+001
7.333785e+002, 2.550534e+001
7.338607e+002, 2.545924e+001
7.343428e+002, 2.540073e+001
7.348249e+002, 2.546861e+001
7.353070e+002, 2.585879e+001
7.357891e+002, 2.625174e+001
7.362712e+002, 2.629208e+001
7.367534e+002, 2.610248e+001
7.372355e+002, 2.610709e+001
7.377176e+002, 2.653291e+001
7.381997e+002, 2.708090e+001
7.386818e+002, 2.726970e+001
7.391639e+002, 2.714495e+001
7.396461e+002, 2.716935e+001
7.401282e+002, 2.741035e+001
7.406103e+002, 2.765263e+001
7.410924e+002, 2.775808e+001
7.415745e+002, 2.780128e+001
7.420566e+002, 2.795543e+001
7.425388e+002, 2.825543e+001
7.430209e+002, 2.853490e+001
7.435030e+002, 2.881651e+001
7.439851e+002, 2.903737e+001
7.444672e+002, 2.914861e+001
7.449493e+002, 2.918327e+001
7.454315e+002, 2.915652e+001
7.459136e+002, 2.908739e+001
7.463957e+002, 2.908596e+001
7.468778e+002, 2.928151e+001
7.473599e+002, 2.962353e+001
7.478420e+002, 2.994867e+001
7.483242e+002, 3.025560e+001
7.488063e+002, 3.067110e+001
7.492884e+002, 3.131539e+001
7.497705e+002, 3.188733e+001
7.502526e+002, 3.198136e+001
7.507347e+002, 3.155955e+001
7.512169e+002, 3.135900e+001
7.516990e+002, 3.156746e+001
7.521811e+002, 3.173388e+001
7.526632e+002, 3.170042e+001
7.531453e+002, 3.162647e+001
7.536274e+002, 3.168916e+001
7.541096e+002, 3.186318e+001
7.545917e+002, 3.198815e+001
7.550738e+002, 3.199831e+001
7.555559e+002, 3.186362e+001
7.560380e+002, 3.145364e+001
7.565201e+002, 3.084588e+001
7.570023e+002, 3.038777e+001
7.574844e+002, 3.013717e+001
7.579665e+002, 3.000329e+001
7.584486e+002, 2.995506e+001
7.589307e+002, 2.994325e+001
7.594128e+002, 2.978899e+001
7.598950e+002, 2.922528e+001
7.603771e+002, 2.901196e+001
7.608592e+002, 2.949669e+001
7.613413e+002, 2.994140e+001
7.618234e+002, 2.995243e+001
7.623055e+002, 2.970831e+001
7.627877e+002, 2.951069e+001
7.632698e+002, 2.944302e+001
7.637519e+002, 2.940404e+001
7.642340e+002, 2.930215e+001
7.647161e+002, 2.919036e+001
7.651982e+002, 2.919959e+001
7.656804e+002, 2.929555e+001
7.661625e+002, 2.925070e+001
7.666446e+002, 2.896829e+001
7.671267e+002, 2.863230e+001
7.676088e+002, 2.849171e+001
7.680909e+002, 2.855485e+001
7.685731e+002, 2.857942e+001
7.690552e+002, 2.859796e+001
7.695373e+002, 2.852192e+001
7.700194e+002, 2.825490e+001
7.705015e+002, 2.795109e+001
7.709836e+002, 2.775105e+001
7.714658e+002, 2.763378e+001
7.719479e+002, 2.745529e+001
7.724300e+002, 2.709250e+001
7.729121e+002, 2.675241e+001
7.733942e+002, 2.658406e+001
7.738763e+002, 2.653083e+001
7.743585e+002, 2.649389e+001
7.748406e+002, 2.647052e+001
7.753227e+002, 2.657598e+001
7.758048e+002, 2.691460e+001
7.762869e+002, 2.729575e+001
7.767690e+002, 2.719712e+001
7.772512e+002, 2.651098e+001
7.777333e+002, 2.607434e+001
7.782154e+002, 2.601378e+001
7.786975e+002, 2.607146e+001
7.791796e+002, 2.617819e+001
7.796617e+002, 2.628803e+001
7.801439e+002, 2.631784e+001
7.806260e+002, 2.625051e+001
7.811081e+002, 2.617816e+001
7.815902e+002, 2.619090e+001
7.820723e+002, 2.613743e+001
7.825544e+002, 2.579566e+001
7.830366e+002, 2.536413e+001
7.835187e+002, 2.521974e+001
7.840008e+002, 2.543071e+001
7.844829e+002, 2.567603e+001
7.849650e+002, 2.563052e+001
7.854471e+002, 2.541206e+001
7.859293e+002, 2.538233e+001
7.864114e+002, 2.554379e+001
7.868935e+002, 2.576248e+001
7.873756e+002, 2.606227e+001
7.878577e+002, 2.622301e+001
7.883398e+002, 2.593805e+001
7.888220e+002, 2.529979e+001
7.893040e+002, 2.510503e+001
7.897861e+002, 2.577343e+001
7.902682e+002, 2.625960e+001
7.907504e+002, 2.649076e+001
7.912325e+002, 2.651406e+001
7.917146e+002, 2.621802e+001
7.921967e+002, 2.576870e+001
7.926788e+002, 2.548664e+001
7.931609e+002, 2.549554e+001
7.936431e+002, 2.561674e+001
7.941252e+002, 2.569866e+001
7.946073e+002, 2.578414e+001
7.950894e+002, 2.601477e+001
7.955715e+002, 2.635684e+001
7.960536e+002, 2.652639e+001
7.965358e+002, 2.639776e+001
7.970179e+002, 2.614247e+001
7.975000e+002, 2.598809e+001
7.979821e+002, 2.593646e+001
7.984642e+002, 2.594089e+001
7.989464e+002, 2.612158e+001
7.994285e+002, 2.614050e+001
7.999106e+002, 2.567152e+001
8.003927e+002, 2.520254e+001
8.008748e+002, 2.516363e+001
8.013569e+002, 2.547383e+001
8.018391e+002, 2.568652e+001
8.023212e+002, 2.559724e+001
8.028033e+002, 2.551625e+001
8.032854e+002, 2.562168e+001
8.037675e+002, 2.581215e+001
8.042496e+002, 2.603540e+001
8.047318e+002, 2.623245e+001
8.052139e+002, 2.622169e+001
8.056960e+002, 2.588865e+001
8.061781e+002, 2.551847e+001
8.066602e+002, 2.568395e+001
8.071423e+002, 2.632287e+001
8.076245e+002, 2.649028e+001
8.081066e+002, 2.604187e+001
8.085887e+002, 2.567572e+001
8.090708e+002, 2.572683e+001
8.095529e+002, 2.598328e+001
8.100350e+002, 2.614107e+001
8.105172e+002, 2.618405e+001
8.109993e+002, 2.622602e+001
8.114814e+002, 2.625888e+001
8.119635e+002, 2.630081e+001
8.124456e+002, 2.645243e+001
8.129277e+002, 2.654663e+001
8.134099e+002, 2.629656e+001
8.138920e+002, 2.580856e+001
8.143741e+002, 2.559161e+001
8.148562e+002, 2.601676e+001
8.153383e+002, 2.655772e+001
8.158204e+002, 2.666074e+001
8.163026e+002, 2.646458e+001
8.167847e+002, 2.622241e+001
8.172668e+002, 2.598520e+001
8.177489e+002, 2.583854e+001
8.182310e+002, 2.583340e+001
8.187131e+002, 2.593377e+001
8.191953e+002, 2.607718e+001
8.196774e+002, 2.626883e+001
8.201595e+002, 2.649621e+001
8.206416e+002, 2.690681e+001
8.211237e+002, 2.707062e+001
8.216058e+002, 2.657585e+001
8.220880e+002, 2.592978e+001
8.225701e+002, 2.569395e+001
8.230522e+002, 2.586371e+001
8.235343e+002, 2.610481e+001
8.240164e+002, 2.655446e+001
8.244985e+002, 2.681929e+001
8.249807e+002, 2.652754e+001
8.254628e+002, 2.609278e+001
8.259449e+002, 2.601467e+001
8.264270e+002, 2.626659e+001
8.269091e+002, 2.648944e+001
8.273912e+002, 2.648265e+001
8.278734e+002, 2.636062e+001
8.283555e+002, 2.624257e+001
8.288376e+002, 2.614522e+001
8.293197e+002, 2.615506e+001
8.298018e+002, 2.627986e+001
8.302839e+002, 2.643248e+001
8.307661e+002, 2.658692e+001
8.312482e+002, 2.669074e+001
8.317303e+002, 2.663278e+001
8.322124e+002, 2.636620e+001
8.326945e+002, 2.628862e+001
8.331766e+002, 2.665898e+001
8.336588e+002, 2.684238e+001
8.341409e+002, 2.648422e+001
8.346230e+002, 2.606499e+001
8.351051e+002, 2.603432e+001
8.355872e+002, 2.632349e+001
8.360693e+002, 2.647631e+001
8.365515e+002, 2.619480e+001
8.370336e+002, 2.600697e+001
8.375157e+002, 2.634710e+001
8.379978e+002, 2.683799e+001
8.384799e+002, 2.703801e+001
8.389620e+002, 2.696763e+001
8.394442e+002, 2.685306e+001
8.399263e+002, 2.680066e+001
8.404084e+002, 2.678518e+001
8.408905e+002, 2.677534e+001
8.413726e+002, 2.677290e+001
8.418547e+002, 2.680478e+001
8.423369e+002, 2.687694e+001
8.428190e+002, 2.688222e+001
8.433011e+002, 2.676654e+001
8.437832e+002, 2.661037e+001
8.442653e+002, 2.649127e+001
8.447474e+002, 2.641026e+001
8.452296e+002, 2.643293e+001
8.457117e+002, 2.673264e+001
8.461938e+002, 2.687890e+001
8.466759e+002, 2.666733e+001
8.471580e+002, 2.645415e+001
8.476401e+002, 2.649224e+001
8.481223e+002, 2.669576e+001
8.486044e+002, 2.685025e+001
8.490865e+002, 2.689858e+001
8.495686e+002, 2.690836e+001
8.500507e+002, 2.688668e+001
8.505328e+002, 2.686808e+001
8.510150e+002, 2.690542e+001
8.514971e+002, 2.697190e+001
8.519792e+002, 2.699626e+001
8.524613e+002, 2.696030e+001
8.529434e+002, 2.691385e+001
8.534255e+002, 2.690351e+001
8.539077e+002, 2.692248e+001
8.543898e+002, 2.696970e+001
8.548719e+002, 2.704523e+001
8.553540e+002, 2.703460e+001
8.558361e+002, 2.689896e+001
8.563182e+002, 2.673908e+001
8.568004e+002, 2.661182e+001
8.572825e+002, 2.653161e+001
8.577646e+002, 2.655656e+001
8.582467e+002, 2.681154e+001
8.587288e+002, 2.689810e+001
8.592109e+002, 2.655349e+001
8.596931e+002, 2.635171e+001
8.601752e+002, 2.664332e+001
8.606573e+002, 2.710315e+001
8.611394e+002, 2.734243e+001
8.616215e+002, 2.732030e+001
8.621036e+002, 2.723250e+001
8.625858e+002, 2.709713e+001
8.630679e+002, 2.698709e+001
8.635500e+002, 2.706729e+001
8.640321e+002, 2.714299e+001
8.645142e+002, 2.679568e+001
8.649963e+002, 2.612118e+001
8.654785e+002, 2.574508e+001
8.659606e+002, 2.605549e+001
8.664427e+002, 2.663654e+001
8.669248e+002, 2.687780e+001
8.674069e+002, 2.682498e+001
8.678890e+002, 2.667019e+001
8.683712e+002, 2.641834e+001
8.688533e+002, 2.630226e+001
8.693354e+002, 2.644622e+001
8.698175e+002, 2.667425e+001
8.702996e+002, 2.676680e+001
8.707817e+002, 2.672413e+001
8.712639e+002, 2.653170e+001
8.717459e+002, 2.595708e+001
8.722280e+002, 2.564236e+001
8.727101e+002, 2.589103e+001
8.731923e+002, 2.624877e+001
8.736744e+002, 2.652346e+001
8.741565e+002, 2.668880e+001
8.746386e+002, 2.669675e+001
8.751207e+002, 2.650906e+001
8.756028e+002, 2.625526e+001
8.760850e+002, 2.586540e+001
8.765671e+002, 2.553713e+001
8.770492e+002, 2.538905e+001
8.775313e+002, 2.541803e+001
8.780134e+002, 2.571647e+001
8.784955e+002, 2.623460e+001
8.789777e+002, 2.654528e+001
8.794598e+002, 2.619881e+001
8.799419e+002, 2.559154e+001
8.804240e+002, 2.539500e+001
8.809061e+002, 2.550258e+001
8.813882e+002, 2.548701e+001
8.818704e+002, 2.529254e+001
8.823525e+002, 2.523838e+001
8.828346e+002, 2.554972e+001
8.833167e+002, 2.602339e+001
8.837988e+002, 2.621937e+001
8.842809e+002, 2.609318e+001
8.847631e+002, 2.604135e+001
8.852452e+002, 2.613350e+001
8.857273e+002, 2.611821e+001
8.862094e+002, 2.581417e+001
8.866915e+002, 2.546248e+001
8.871736e+002, 2.536341e+001
8.876558e+002, 2.549658e+001
8.881379e+002, 2.553311e+001
8.886200e+002, 2.537718e+001
8.891021e+002, 2.524670e+001
8.895842e+002, 2.513932e+001
8.900663e+002, 2.510576e+001
8.905485e+002, 2.525708e+001
8.910306e+002, 2.548741e+001
8.915127e+002, 2.558025e+001
8.919948e+002, 2.547212e+001
8.924769e+002, 2.534624e+001
8.929590e+002, 2.528887e+001
8.934412e+002, 2.529780e+001
8.939233e+002, 2.540153e+001
8.944054e+002, 2.556137e+001
8.948875e+002, 2.570467e+001
8.953696e+002, 2.581316e+001
8.958517e+002, 2.590611e+001
8.963339e+002, 2.600546e+001
8.968160e+002, 2.606893e+001
8.972981e+002, 2.596819e+001
8.977802e+002, 2.572820e+001
8.982623e+002, 2.561285e+001
8.987444e+002, 2.565573e+001
8.992266e+002, 2.570669e+001
8.997087e+002, 2.570243e+001
9.001908e+002, 2.564292e+001
9.006729e+002, 2.549712e+001
9.011550e+002, 2.525037e+001
9.016371e+002, 2.526815e+001
9.021193e+002, 2.578943e+001
9.026014e+002, 2.613104e+001
9.030835e+002, 2.608770e+001
9.035656e+002, 2.590146e+001
9.040477e+002, 2.566170e+001
9.045298e+002, 2.541597e+001
9.050120e+002, 2.530207e+001
9.054941e+002, 2.540268e+001
9.059762e+002, 2.544090e+001
9.064583e+002, 2.522811e+001
9.069404e+002, 2.506360e+001
9.074225e+002, 2.522827e+001
9.079047e+002, 2.550006e+001
9.083868e+002, 2.551658e+001
9.088689e+002, 2.526417e+001
9.093510e+002, 2.510091e+001
9.098331e+002, 2.531764e+001
9.103152e+002, 2.558420e+001
9.107974e+002, 2.552951e+001
9.112795e+002, 2.529856e+001
9.117616e+002, 2.510480e+001
9.122437e+002, 2.499944e+001
9.127258e+002, 2.506044e+001
9.132079e+002, 2.532518e+001
9.136901e+002, 2.567915e+001
9.141722e+002, 2.605230e+001
9.146543e+002, 2.638441e+001
9.151364e+002, 2.620505e+001
9.156185e+002, 2.548462e+001
9.161006e+002, 2.517725e+001
9.165828e+002, 2.560801e+001
9.170649e+002, 2.609332e+001
9.175470e+002, 2.604864e+001
9.180291e+002, 2.563006e+001
9.185112e+002, 2.541350e+001
9.189933e+002, 2.549545e+001
9.194755e+002, 2.553355e+001
9.199576e+002, 2.555610e+001
9.204397e+002, 2.549218e+001
9.209218e+002, 2.516486e+001
9.214039e+002, 2.483400e+001
9.218860e+002, 2.483375e+001
9.223682e+002, 2.515132e+001
9.228503e+002, 2.538312e+001
9.233324e+002, 2.543615e+001
9.238145e+002, 2.544828e+001
9.242966e+002, 2.538435e+001
9.247787e+002, 2.535883e+001
9.252609e+002, 2.559872e+001
9.257430e+002, 2.591175e+001
9.262251e+002, 2.579697e+001
9.267072e+002, 2.509032e+001
9.271893e+002, 2.459331e+001
9.276714e+002, 2.507857e+001
9.281536e+002, 2.581171e+001
9.286357e+002, 2.609702e+001
9.291178e+002, 2.605322e+001
9.295999e+002, 2.585535e+001
9.300820e+002, 2.559972e+001
9.305641e+002, 2.550910e+001
9.310463e+002, 2.574122e+001
9.315284e+002, 2.611482e+001
9.320105e+002, 2.641380e+001
9.324926e+002, 2.660995e+001
9.329747e+002, 2.649446e+001
9.334568e+002, 2.608465e+001
9.339390e+002, 2.586227e+001
9.344211e+002, 2.601882e+001
9.349032e+002, 2.629241e+001
9.353853e+002, 2.639473e+001
9.358674e+002, 2.636667e+001
9.363495e+002, 2.647953e+001
9.368317e+002, 2.680961e+001
9.373138e+002, 2.692030e+001
9.377959e+002, 2.664280e+001
9.382780e+002, 2.640884e+001
9.387601e+002, 2.647158e+001
9.392422e+002, 2.670802e+001
9.397244e+002, 2.688848e+001
9.402065e+002, 2.697837e+001
9.406886e+002, 2.721346e+001
9.411707e+002, 2.781552e+001
9.416528e+002, 2.825478e+001
9.421349e+002, 2.824991e+001
9.426171e+002, 2.821246e+001
9.430992e+002, 2.844358e+001
9.435813e+002, 2.888642e+001
9.440634e+002, 2.937190e+001
9.445455e+002, 2.990112e+001
9.450276e+002, 3.034507e+001
9.455098e+002, 3.061960e+001
9.459919e+002, 3.083865e+001
9.464740e+002, 3.104838e+001
9.469561e+002, 3.126270e+001
9.474382e+002, 3.146764e+001
9.479203e+002, 3.168184e+001
9.484025e+002, 3.198268e+001
9.488846e+002, 3.241006e+001
9.493667e+002, 3.294309e+001
9.498488e+002, 3.365824e+001
9.503309e+002, 3.441314e+001
9.508130e+002, 3.495667e+001
9.512952e+002, 3.533706e+001
9.517773e+002, 3.578608e+001
9.522594e+002, 3.637496e+001
9.527415e+002, 3.694800e+001
9.532236e+002, 3.733679e+001
9.537057e+002, 3.763227e+001
9.541878e+002, 3.801658e+001
9.546699e+002, 3.850195e+001
9.551520e+002, 3.923521e+001
9.556342e+002, 4.023910e+001
9.561163e+002, 4.115199e+001
9.565984e+002, 4.178485e+001
9.570805e+002, 4.221647e+001
9.575626e+002, 4.253659e+001
9.580447e+002, 4.275188e+001
9.585269e+002, 4.310647e+001
9.590090e+002, 4.362705e+001
9.594911e+002, 4.419484e+001
9.599732e+002, 4.482915e+001
9.604553e+002, 4.539567e+001
9.609374e+002, 4.574910e+001
9.614196e+002, 4.598122e+001
9.619017e+002, 4.636983e+001
9.623838e+002, 4.704218e+001
9.628659e+002, 4.747060e+001
9.633480e+002, 4.733040e+001
9.638301e+002, 4.738480e+001
9.643123e+002, 4.796955e+001
9.647944e+002, 4.871498e+001
9.652765e+002, 4.934035e+001
9.657586e+002, 4.985289e+001
9.662407e+002, 5.032705e+001
9.667228e+002, 5.075539e+001
9.672050e+002, 5.118258e+001
9.676871e+002, 5.156475e+001
9.681692e+002, 5.200694e+001
9.686513e+002, 5.263395e+001
9.691334e+002, 5.332011e+001
9.696155e+002, 5.382631e+001
9.700977e+002, 5.417516e+001
9.705798e+002, 5.473198e+001
9.710619e+002, 5.574366e+001
9.715440e+002, 5.686044e+001
9.720261e+002, 5.785340e+001
9.725082e+002, 5.884785e+001
9.729904e+002, 5.986200e+001
9.734725e+002, 6.101202e+001
9.739546e+002, 6.246568e+001
9.744367e+002, 6.428649e+001
9.749188e+002, 6.656393e+001
9.754009e+002, 6.945168e+001
9.758831e+002, 7.272828e+001
9.763652e+002, 7.618019e+001
9.768473e+002, 7.976308e+001
9.773294e+002, 8.316752e+001
9.778115e+002, 8.658035e+001
9.782936e+002, 9.090715e+001
9.787758e+002, 9.660033e+001
9.792579e+002, 1.030227e+002
9.797400e+002, 1.092262e+002
9.802221e+002, 1.156002e+002
9.807042e+002, 1.233777e+002
9.811863e+002, 1.324391e+002
9.816685e+002, 1.420313e+002
9.821506e+002, 1.519662e+002
9.826327e+002, 1.622350e+002
9.831148e+002, 1.728037e+002
9.835969e+002, 1.836260e+002
9.840790e+002, 1.946077e+002
9.845612e+002, 2.057302e+002
9.850433e+002, 2.169489e+002
9.855254e+002, 2.280672e+002
9.860075e+002, 2.404590e+002
9.864896e+002, 2.545546e+002
9.869717e+002, 2.699708e+002
9.874539e+002, 2.866504e+002
9.879360e+002, 3.041777e+002
9.884181e+002, 3.212134e+002
9.889002e+002, 3.373297e+002
9.893823e+002, 3.542401e+002
9.898644e+002, 3.722086e+002
9.903466e+002, 3.905038e+002
9.908287e+002, 4.091772e+002
9.913108e+002, 4.279334e+002
9.917929e+002, 4.470455e+002
9.922750e+002, 4.661626e+002
9.927571e+002, 4.831021e+002
9.932393e+002, 5.003181e+002
9.937214e+002, 5.109013e+002
9.942035e+002, 5.170897e+002
9.946856e+002, 5.138981e+002
9.951677e+002, 4.991317e+002
9.956498e+002, 4.742537e+002
9.961320e+002, 4.384464e+002
9.966141e+002, 3.930229e+002
9.970962e+002, 3.467545e+002
9.975783e+002, 2.983659e+002
9.980604e+002, 2.543327e+002
9.985425e+002, 2.159792e+002
9.990247e+002, 1.830032e+002
9.995068e+002, 1.562297e+002
9.999889e+002, 1.345824e+002
1.000471e+003, 1.173104e+002
1.000953e+003, 1.040101e+002
1.001435e+003, 9.340672e+001
1.001917e+003, 8.558874e+001
1.002399e+003, 7.950040e+001
1.002882e+003, 7.509187e+001
1.003364e+003, 7.171090e+001
1.003846e+003, 6.883720e+001
1.004328e+003, 6.644992e+001
1.004810e+003, 6.467867e+001
1.005292e+003, 6.351030e+001
1.005774e+003, 6.254310e+001
1.006256e+003, 6.144771e+001
1.006739e+003, 6.054199e+001
1.007221e+003, 6.032989e+001
1.007703e+003, 6.036829e+001
1.008185e+003, 6.001070e+001
1.008667e+003, 5.932023e+001
1.009149e+003, 5.859973e+001
1.009631e+003, 5.798588e+001
1.010113e+003, 5.766561e+001
1.010595e+003, 5.790124e+001
1.011078e+003, 5.842068e+001
1.011560e+003, 5.886335e+001
1.012042e+003, 5.925434e+001
1.012524e+003, 5.959916e+001
1.013006e+003, 5.994251e+001
1.013488e+003, 6.046271e+001
1.013970e+003, 6.123797e+001
1.014452e+003, 6.214614e+001
1.014935e+003, 6.309317e+001
1.015417e+003, 6.403928e+001
1.015899e+003, 6.489426e+001
1.016381e+003, 6.566076e+001
1.016863e+003, 6.629898e+001
1.017345e+003, 6.681780e+001
1.017827e+003, 6.738612e+001
1.018309e+003, 6.809026e+001
1.018791e+003, 6.889538e+001
1.019274e+003, 6.983525e+001
1.019756e+003, 7.081048e+001
1.020238e+003, 7.122820e+001
1.020720e+003, 7.111754e+001
1.021202e+003, 7.137550e+001
1.021684e+003, 7.218484e+001
1.022166e+003, 7.285526e+001
1.022648e+003, 7.299425e+001
1.023130e+003, 7.275148e+001
1.023613e+003, 7.232925e+001
1.024095e+003, 7.173792e+001
1.024577e+003, 7.117293e+001
1.025059e+003, 7.064223e+001
1.025541e+003, 7.010831e+001
1.026023e+003, 6.959525e+001
1.026505e+003, 6.889507e+001
1.026987e+003, 6.780791e+001
1.027469e+003, 6.660974e+001
1.027952e+003, 6.587166e+001
1.028434e+003, 6.562288e+001
1.028916e+003, 6.494581e+001
1.029398e+003, 6.372642e+001
1.029880e+003, 6.246302e+001
1.030362e+003, 6.122557e+001
1.030844e+003, 5.999913e+001
1.031326e+003, 5.873318e+001
1.031809e+003, 5.752108e+001
1.032291e+003, 5.659884e+001
1.032773e+003, 5.604828e+001
1.033255e+003, 5.509098e+001
1.033737e+003, 5.347436e+001
1.034219e+003, 5.199450e+001
1.034701e+003, 5.076968e+001
1.035183e+003, 4.976621e+001
1.035666e+003, 4.907714e+001
1.036148e+003, 4.853773e+001
1.036630e+003, 4.778670e+001
1.037112e+003, 4.676415e+001
1.037594e+003, 4.586937e+001
1.038076e+003, 4.516630e+001
1.038558e+003, 4.449742e+001
1.039040e+003, 4.388394e+001
1.039522e+003, 4.324761e+001
1.040005e+003, 4.247897e+001
1.040487e+003, 4.166936e+001
1.040969e+003, 4.103655e+001
1.041451e+003, 4.062374e+001
1.041933e+003, 4.014580e+001
1.042415e+003, 3.946283e+001
1.042897e+003, 3.890030e+001
1.043379e+003, 3.870930e+001
1.043861e+003, 3.846642e+001
1.044344e+003, 3.774644e+001
1.044826e+003, 3.683370e+001
1.045308e+003, 3.632055e+001
1.045790e+003, 3.630715e+001
1.046272e+003, 3.625265e+001
1.046754e+003, 3.624285e+001
1.047236e+003, 3.598923e+001
1.047718e+003, 3.513646e+001
1.048201e+003, 3.429655e+001
1.048683e+003, 3.397141e+001
1.049165e+003, 3.392827e+001
1.049647e+003, 3.365212e+001
1.050129e+003, 3.305163e+001
1.050611e+003, 3.266954e+001
1.051093e+003, 3.282086e+001
1.051575e+003, 3.291810e+001
1.052057e+003, 3.270805e+001
1.052540e+003, 3.245953e+001
1.053022e+003, 3.240097e+001
1.053504e+003, 3.243359e+001
1.053986e+003, 3.236632e+001
1.054468e+003, 3.217096e+001
1.054950e+003, 3.191124e+001
1.055432e+003, 3.151071e+001
1.055914e+003, 3.117485e+001
1.056396e+003, 3.093917e+001
1.056879e+003, 3.082725e+001
1.057361e+003, 3.092799e+001
1.057843e+003, 3.113552e+001
1.058325e+003, 3.130095e+001
1.058807e+003, 3.139725e+001
1.059289e+003, 3.137646e+001
1.059771e+003, 3.122324e+001
1.060253e+003, 3.095010e+001
1.060736e+003, 3.033332e+001
1.061218e+003, 2.982051e+001
1.061700e+003, 2.990637e+001
1.062182e+003, 3.026074e+001
1.062664e+003, 3.025663e+001
1.063146e+003, 2.983066e+001
1.063628e+003, 2.957360e+001
1.064110e+003, 2.988595e+001
1.064593e+003, 3.013959e+001
1.065075e+003, 3.003605e+001
1.065557e+003, 2.981640e+001
1.066039e+003, 2.963664e+001
1.066521e+003, 2.948004e+001
1.067003e+003, 2.923980e+001
1.067485e+003, 2.893838e+001
1.067967e+003, 2.885993e+001
1.068449e+003, 2.929885e+001
1.068932e+003, 2.964908e+001
1.069414e+003, 2.958078e+001
1.069896e+003, 2.938165e+001
1.070378e+003, 2.919177e+001
1.070860e+003, 2.905392e+001
1.071342e+003, 2.902474e+001
1.071824e+003, 2.909109e+001
1.072306e+003, 2.913032e+001
1.072788e+003, 2.903031e+001
1.073271e+003, 2.905127e+001
1.073753e+003, 2.951172e+001
1.074235e+003, 2.993041e+001
1.074717e+003, 2.986350e+001
1.075199e+003, 2.960102e+001
1.075681e+003, 2.953421e+001
1.076163e+003, 2.968251e+001
1.076645e+003, 2.985447e+001
1.077127e+003, 3.000342e+001
1.077610e+003, 3.011017e+001
1.078092e+003, 3.010270e+001
1.078574e+003, 3.012011e+001
1.079056e+003, 3.033276e+001
1.079538e+003, 3.057135e+001
1.080020e+003, 3.057018e+001
1.080502e+003, 3.039996e+001
1.080984e+003, 3.038049e+001
1.081467e+003, 3.062711e+001
1.081949e+003, 3.094119e+001
1.082431e+003, 3.136508e+001
1.082913e+003, 3.167829e+001
1.083395e+003, 3.166379e+001
1.083877e+003, 3.153057e+001
1.084359e+003, 3.144231e+001
1.084841e+003, 3.144604e+001
1.085323e+003, 3.161951e+001
1.085806e+003, 3.200611e+001
1.086288e+003, 3.232271e+001
1.086770e+003, 3.238678e+001
1.087252e+003, 3.242866e+001
1.087734e+003, 3.260542e+001
1.088216e+003, 3.278417e+001
1.088698e+003, 3.279111e+001
1.089180e+003, 3.271336e+001
1.089662e+003, 3.275865e+001
1.090145e+003, 3.297058e+001
1.090627e+003, 3.318722e+001
1.091109e+003, 3.335759e+001
1.091591e+003, 3.350905e+001
1.092073e+003, 3.359544e+001
1.092555e+003, 3.372372e+001
1.093037e+003, 3.407571e+001
1.093519e+003, 3.448238e+001
1.094002e+003, 3.466788e+001
1.094484e+003, 3.459589e+001
1.094966e+003, 3.439766e+001
1.095448e+003, 3.392021e+001
1.095930e+003, 3.361030e+001
1.096412e+003, 3.372016e+001
1.096894e+003, 3.392861e+001
1.097376e+003, 3.397228e+001
1.097859e+003, 3.402600e+001
1.098341e+003, 3.445927e+001
1.098823e+003, 3.519800e+001
1.099305e+003, 3.558720e+001
1.099787e+003, 3.532081e+001
1.100269e+003, 3.502366e+001
1.100751e+003, 3.478633e+001
1.101233e+003, 3.463776e+001
1.101715e+003, 3.456908e+001
1.102198e+003, 3.461309e+001
1.102680e+003, 3.490189e+001
1.103162e+003, 3.533755e+001
1.103644e+003, 3.553513e+001
1.104126e+003, 3.530725e+001
1.104608e+003, 3.526744e+001
1.105090e+003, 3.567037e+001
1.105572e+003, 3.608654e+001
1.106054e+003, 3.649764e+001
1.106537e+003, 3.674577e+001
1.107019e+003, 3.645270e+001
1.107501e+003, 3.595888e+001
1.107983e+003, 3.619802e+001
1.108465e+003, 3.745520e+001
1.108947e+003, 3.817962e+001
1.109429e+003, 3.788774e+001
1.109911e+003, 3.754867e+001
1.110394e+003, 3.721578e+001
1.110876e+003, 3.703480e+001
1.111358e+003, 3.718037e+001
1.111840e+003, 3.749031e+001
1.112322e+003, 3.771199e+001
1.112804e+003, 3.783944e+001
1.113286e+003, 3.792664e+001
1.113768e+003, 3.790924e+001
1.114250e+003, 3.796220e+001
1.114733e+003, 3.825933e+001
1.115215e+003, 3.840604e+001
1.115697e+003, 3.818732e+001
1.116179e+003, 3.777915e+001
1.116661e+003, 3.736491e+001
1.117143e+003, 3.694171e+001
1.117625e+003, 3.647224e+001
1.118107e+003, 3.582488e+001
1.118589e+003, 3.546993e+001
1.119072e+003, 3.560024e+001
1.119554e+003, 3.564283e+001
1.120036e+003, 3.538684e+001
1.120518e+003, 3.502972e+001
1.121000e+003, 3.469994e+001
1.121482e+003, 3.442585e+001
1.121964e+003, 3.430862e+001
1.122446e+003, 3.438694e+001
1.122929e+003, 3.437007e+001
1.123411e+003, 3.419685e+001
1.123893e+003, 3.414653e+001
1.124375e+003, 3.431049e+001
1.124857e+003, 3.451378e+001
1.125339e+003, 3.465577e+001
1.125821e+003, 3.474683e+001
1.126303e+003, 3.479384e+001
1.126786e+003, 3.480157e+001
1.127268e+003, 3.489496e+001
1.127750e+003, 3.510508e+001
1.128232e+003, 3.505342e+001
1.128714e+003, 3.463246e+001
1.129196e+003, 3.443218e+001
1.129678e+003, 3.475462e+001
1.130160e+003, 3.520654e+001
1.130642e+003, 3.534744e+001
1.131125e+003, 3.524512e+001
1.131607e+003, 3.508658e+001
1.132089e+003, 3.488364e+001
1.132571e+003, 3.487828e+001
1.133053e+003, 3.507805e+001
1.133535e+003, 3.523608e+001
1.134017e+003, 3.527704e+001
1.134499e+003, 3.528028e+001
1.134981e+003, 3.529909e+001
1.135464e+003, 3.536005e+001
1.135946e+003, 3.557298e+001
1.136428e+003, 3.586231e+001
1.136910e+003, 3.588326e+001
1.137392e+003, 3.569783e+001
1.137874e+003, 3.561621e+001
1.138356e+003, 3.569304e+001
1.138838e+003, 3.584699e+001
1.139321e+003, 3.603691e+001
1.139803e+003, 3.627515e+001
1.140285e+003, 3.664319e+001
1.140767e+003, 3.700878e+001
1.141249e+003, 3.705101e+001
1.141731e+003, 3.693593e+001
1.142213e+003, 3.706337e+001
1.142695e+003, 3.739113e+001
1.143177e+003, 3.760830e+001
1.143660e+003, 3.763375e+001
1.144142e+003, 3.768659e+001
1.144624e+003, 3.792947e+001
1.145106e+003, 3.824722e+001
1.145588e+003, 3.865032e+001
1.146070e+003, 3.895342e+001
1.146552e+003, 3.884008e+001
1.147034e+003, 3.848500e+001
1.147516e+003, 3.812986e+001
1.147999e+003, 3.788252e+001
1.148481e+003, 3.792021e+001
1.148963e+003, 3.834674e+001
1.149445e+003, 3.887771e+001
1.149927e+003, 3.964130e+001
1.150409e+003, 4.009523e+001
1.150891e+003, 3.955840e+001
1.151373e+003, 3.873989e+001
1.151856e+003, 3.841940e+001
1.152338e+003, 3.846402e+001
1.152820e+003, 3.837416e+001
1.153302e+003, 3.804562e+001
1.153784e+003, 3.779563e+001
1.154266e+003, 3.783006e+001
1.154748e+003, 3.781677e+001
1.155230e+003, 3.763975e+001
1.155713e+003, 3.738964e+001
1.156195e+003, 3.707241e+001
1.156677e+003, 3.674805e+001
1.157159e+003, 3.650770e+001
1.157641e+003, 3.633574e+001
1.158123e+003, 3.609616e+001
1.158605e+003, 3.573905e+001
1.159087e+003, 3.539075e+001
1.159569e+003, 3.494476e+001
1.160052e+003, 3.466916e+001
1.160534e+003, 3.483049e+001
1.161016e+003, 3.496613e+001
1.161498e+003, 3.476848e+001
1.161980e+003, 3.428285e+001
1.162462e+003, 3.353898e+001
1.162944e+003, 3.247215e+001
1.163426e+003, 3.184450e+001
1.163908e+003, 3.179057e+001
1.164391e+003, 3.181436e+001
1.164873e+003, 3.192568e+001
1.165355e+003, 3.187443e+001
1.165837e+003, 3.148597e+001
1.166319e+003, 3.102790e+001
1.166801e+003, 3.081959e+001
1.167283e+003, 3.080241e+001
1.167765e+003, 3.074170e+001
1.168247e+003, 3.063696e+001
1.168730e+003, 3.052384e+001
1.169212e+003, 3.040782e+001
1.169694e+003, 3.008055e+001
1.170176e+003, 2.947764e+001
1.170658e+003, 2.909955e+001
1.171140e+003, 2.933287e+001
1.171622e+003, 2.967894e+001
1.172104e+003, 2.915939e+001
1.172587e+003, 2.816431e+001
1.173069e+003, 2.818125e+001
1.173551e+003, 2.888166e+001
1.174033e+003, 2.891233e+001
1.174515e+003, 2.826427e+001
1.174997e+003, 2.792895e+001
1.175479e+003, 2.824825e+001
1.175961e+003, 2.852341e+001
1.176443e+003, 2.811728e+001
1.176926e+003, 2.751977e+001
1.177408e+003, 2.729536e+001
1.177890e+003, 2.730065e+001
1.178372e+003, 2.740929e+001
1.178854e+003, 2.754698e+001
1.179336e+003, 2.762709e+001
1.179818e+003, 2.762251e+001
1.180300e+003, 2.749049e+001
1.180782e+003, 2.719492e+001
1.181265e+003, 2.692790e+001
1.181747e+003, 2.679794e+001
1.182229e+003, 2.674649e+001
1.182711e+003, 2.680198e+001
1.183193e+003, 2.685940e+001
1.183675e+003, 2.670587e+001
1.184157e+003, 2.652859e+001
1.184639e+003, 2.676767e+001
1.185122e+003, 2.745011e+001
1.185604e+003, 2.790012e+001
1.186086e+003, 2.783488e+001
1.186568e+003, 2.774050e+001
1.187050e+003, 2.774895e+001
1.187532e+003, 2.767924e+001
1.188014e+003, 2.731228e+001
1.188496e+003, 2.696077e+001
1.188979e+003, 2.698570e+001
1.189461e+003, 2.723180e+001
1.189943e+003, 2.722288e+001
1.190425e+003, 2.687299e+001
1.190907e+003, 2.678955e+001
1.191389e+003, 2.708172e+001
1.191871e+003, 2.733326e+001
1.192353e+003, 2.746669e+001
1.192835e+003, 2.760679e+001
1.193318e+003, 2.785744e+001
1.193800e+003, 2.800206e+001
1.194282e+003, 2.770945e+001
1.194764e+003, 2.716887e+001
1.195246e+003, 2.720815e+001
1.195728e+003, 2.779669e+001
1.196210e+003, 2.812178e+001
1.196692e+003, 2.815129e+001
1.197174e+003, 2.800073e+001
1.197657e+003, 2.771757e+001
1.198139e+003, 2.762636e+001
1.198621e+003, 2.794462e+001
1.199103e+003, 2.831557e+001
1.199585e+003, 2.818098e+001
1.200067e+003, 2.783092e+001
1.200549e+003, 2.787148e+001
1.201031e+003, 2.814240e+001
1.201514e+003, 2.832473e+001
1.201996e+003, 2.839387e+001
1.202478e+003, 2.838466e+001
1.202960e+003, 2.832446e+001
1.203442e+003, 2.831167e+001
1.203924e+003, 2.843699e+001
1.204406e+003, 2.852440e+001
1.204888e+003, 2.834933e+001
1.205370e+003, 2.817940e+001
1.205853e+003, 2.826476e+001
1.206335e+003, 2.846549e+001
1.206817e+003, 2.864791e+001
1.207299e+003, 2.877831e+001
1.207781e+003, 2.880635e+001
1.208263e+003, 2.871246e+001
1.208745e+003, 2.868902e+001
1.209227e+003, 2.884174e+001
1.209709e+003, 2.897911e+001
1.210192e+003, 2.906787e+001
1.210674e+003, 2.912509e+001
1.211156e+003, 2.914665e+001
1.211638e+003, 2.914890e+001
1.212120e+003, 2.910722e+001
1.212602e+003, 2.906680e+001
1.213084e+003, 2.921074e+001
1.213566e+003, 2.957931e+001
1.214049e+003, 2.995981e+001
1.214531e+003, 3.042264e+001
1.215013e+003, 3.057142e+001
1.215495e+003, 3.025776e+001
1.215977e+003, 2.999433e+001
1.216459e+003, 3.006618e+001
1.216941e+003, 3.023700e+001
1.217423e+003, 3.020107e+001
1.217906e+003, 3.006317e+001
1.218388e+003, 3.020969e+001
1.218870e+003, 3.055384e+001
1.219352e+003, 3.060072e+001
1.219834e+003, 3.039964e+001
1.220316e+003, 3.038154e+001
1.220798e+003, 3.060710e+001
1.221280e+003, 3.073595e+001
1.221762e+003, 3.057843e+001
1.222245e+003, 3.043253e+001
1.222727e+003, 3.069143e+001
1.223209e+003, 3.102557e+001
1.223691e+003, 3.100204e+001
1.224173e+003, 3.086687e+001
1.224655e+003, 3.094805e+001
1.225137e+003, 3.117502e+001
1.225619e+003, 3.140921e+001
1.226101e+003, 3.158869e+001
1.226584e+003, 3.156119e+001
1.227066e+003, 3.115532e+001
1.227548e+003, 3.089260e+001
1.228030e+003, 3.103757e+001
1.228512e+003, 3.124897e+001
1.228994e+003, 3.143782e+001
1.229476e+003, 3.158576e+001
1.229958e+003, 3.168376e+001
1.230441e+003, 3.173214e+001
1.230923e+003, 3.172247e+001
1.231405e+003, 3.165705e+001
1.231887e+003, 3.161692e+001
1.232369e+003, 3.160383e+001
1.232851e+003, 3.160286e+001
1.233333e+003, 3.159305e+001
1.233815e+003, 3.166015e+001
1.234297e+003, 3.182054e+001
1.234780e+003, 3.215350e+001
1.235262e+003, 3.277965e+001
1.235744e+003, 3.334841e+001
1.236226e+003, 3.316706e+001
1.236708e+003, 3.245933e+001
1.237190e+003, 3.213584e+001
1.237672e+003, 3.214435e+001
1.238154e+003, 3.230925e+001
1.238636e+003, 3.257017e+001
1.239119e+003, 3.278815e+001
1.239601e+003, 3.291660e+001
1.240083e+003, 3.294354e+001
1.240565e+003, 3.283599e+001
1.241047e+003, 3.275945e+001
1.241529e+003, 3.288363e+001
1.242011e+003, 3.310443e+001
1.242493e+003, 3.343203e+001
1.242975e+003, 3.370883e+001
1.243458e+003, 3.366095e+001
1.243940e+003, 3.344345e+001
1.244422e+003, 3.341526e+001
1.244904e+003, 3.362535e+001
1.245386e+003, 3.384658e+001
1.245868e+003, 3.410201e+001
1.246350e+003, 3.421294e+001
1.246832e+003, 3.404738e+001
1.247315e+003, 3.386998e+001
1.247797e+003, 3.374871e+001
1.248279e+003, 3.366554e+001
1.248761e+003, 3.356508e+001
1.249243e+003, 3.354411e+001
1.249725e+003, 3.384938e+001
1.250207e+003, 3.443630e+001
1.250689e+003, 3.446087e+001
1.251172e+003, 3.384194e+001
1.251654e+003, 3.355489e+001
1.252136e+003, 3.368085e+001
1.252618e+003, 3.396778e+001
1.253100e+003, 3.433758e+001
1.253582e+003, 3.441218e+001
1.254064e+003, 3.389639e+001
1.254546e+003, 3.333440e+001
1.255028e+003, 3.356155e+001
1.255510e+003, 3.420707e+001
1.255993e+003, 3.467686e+001
1.256475e+003, 3.498840e+001
1.256957e+003, 3.511257e+001
1.257439e+003, 3.511664e+001
1.257921e+003, 3.516243e+001
1.258403e+003, 3.526411e+001
1.258885e+003, 3.527573e+001
1.259367e+003, 3.511678e+001
1.259850e+003, 3.493380e+001
1.260332e+003, 3.468604e+001
1.260814e+003, 3.457378e+001
1.261296e+003, 3.475793e+001
1.261778e+003, 3.504629e+001
1.262260e+003, 3.532437e+001
1.262742e+003, 3.559167e+001
1.263224e+003, 3.590160e+001
1.263707e+003, 3.622667e+001
1.264189e+003, 3.629482e+001
1.264671e+003, 3.597647e+001
1.265153e+003, 3.584951e+001
1.265635e+003, 3.595301e+001
1.266117e+003, 3.609705e+001
1.266599e+003, 3.624829e+001
1.267081e+003, 3.638483e+001
1.267563e+003, 3.650012e+001
1.268046e+003, 3.653741e+001
1.268528e+003, 3.639930e+001
1.269010e+003, 3.619115e+001
1.269492e+003, 3.619323e+001
1.269974e+003, 3.630430e+001
1.270456e+003, 3.621982e+001
1.270938e+003, 3.602996e+001
1.271420e+003, 3.604441e+001
1.271902e+003, 3.625788e+001
1.272385e+003, 3.641508e+001
1.272867e+003, 3.641832e+001
1.273349e+003, 3.643650e+001
1.273831e+003, 3.658349e+001
1.274313e+003, 3.675298e+001
1.274795e+003, 3.691294e+001
1.275277e+003, 3.705524e+001
1.275759e+003, 3.719142e+001
1.276242e+003, 3.729543e+001
1.276724e+003, 3.736752e+001
1.277206e+003, 3.737659e+001
1.277688e+003, 3.720168e+001
1.278170e+003, 3.679927e+001
1.278652e+003, 3.662651e+001
1.279134e+003, 3.674137e+001
1.279616e+003, 3.686357e+001
1.280099e+003, 3.694079e+001
1.280581e+003, 3.720892e+001
1.281063e+003, 3.779533e+001
1.281545e+003, 3.817963e+001
1.282027e+003, 3.791952e+001
1.282509e+003, 3.740249e+001
1.282991e+003, 3.722460e+001
1.283473e+003, 3.731787e+001
1.283955e+003, 3.754641e+001
##END=



