##NAMES=Piypite
##RRUFFID=R130048
##IDEAL CHEMISTRY=K_4_Cu^2+^_4_O_2_(S^6+^O_4_)_4_&#183;(Na,Cu^1+^)Cl
##LOCALITY=Second scoria cone, Northern Breakthrough (North Breach), Great Fissure (Main Fracture) eruption, Tolbachik volcano, Kamchatka Oblast', Far-Eastern Region, Russia
##OWNER=RRUFF
##SOURCE=Don Doell
##DESCRIPTION=Sprays of bright green acicular crystals
##STATUS=The identification of this mineral has been confirmed by single-crystal X-ray diffraction.
##URL=rruff.info/R130048
8.975323e+001, 0.000000e+000
9.023535e+001, 1.175284e+002
9.071747e+001, 1.190959e+002
9.119958e+001, 1.192068e+002
9.168170e+001, 1.187348e+002
9.216382e+001, 1.171934e+002
9.264594e+001, 1.151783e+002
9.312805e+001, 1.132434e+002
9.361017e+001, 1.113555e+002
9.409229e+001, 1.087521e+002
9.457440e+001, 1.046805e+002
9.505651e+001, 1.011955e+002
9.553863e+001, 9.847138e+001
9.602074e+001, 9.623634e+001
9.650286e+001, 9.432307e+001
9.698498e+001, 9.260106e+001
9.746709e+001, 9.080943e+001
9.794921e+001, 8.885738e+001
9.843133e+001, 8.647843e+001
9.891344e+001, 8.428926e+001
9.939556e+001, 8.239200e+001
9.987768e+001, 8.075684e+001
1.003598e+002, 7.937346e+001
1.008419e+002, 7.826721e+001
1.013240e+002, 7.741283e+001
1.018061e+002, 7.659826e+001
1.022883e+002, 7.586770e+001
1.027704e+002, 7.513266e+001
1.032525e+002, 7.424810e+001
1.037346e+002, 7.314950e+001
1.042167e+002, 7.218885e+001
1.046988e+002, 7.170534e+001
1.051810e+002, 7.148233e+001
1.056631e+002, 7.122310e+001
1.061452e+002, 7.080540e+001
1.066273e+002, 7.024815e+001
1.071094e+002, 6.962944e+001
1.075915e+002, 6.894226e+001
1.080737e+002, 6.818338e+001
1.085558e+002, 6.728948e+001
1.090379e+002, 6.631573e+001
1.095200e+002, 6.539733e+001
1.100021e+002, 6.465684e+001
1.104842e+002, 6.412263e+001
1.109664e+002, 6.363861e+001
1.114485e+002, 6.324963e+001
1.119306e+002, 6.286926e+001
1.124127e+002, 6.242216e+001
1.128948e+002, 6.191729e+001
1.133769e+002, 6.144389e+001
1.138591e+002, 6.114754e+001
1.143412e+002, 6.123824e+001
1.148233e+002, 6.111542e+001
1.153054e+002, 6.068294e+001
1.157875e+002, 6.009267e+001
1.162696e+002, 5.947407e+001
1.167517e+002, 5.886876e+001
1.172339e+002, 5.827389e+001
1.177160e+002, 5.767200e+001
1.181981e+002, 5.696850e+001
1.186802e+002, 5.642760e+001
1.191623e+002, 5.623814e+001
1.196444e+002, 5.628918e+001
1.201266e+002, 5.626611e+001
1.206087e+002, 5.599585e+001
1.210908e+002, 5.559013e+001
1.215729e+002, 5.531020e+001
1.220550e+002, 5.523847e+001
1.225371e+002, 5.515120e+001
1.230193e+002, 5.483160e+001
1.235014e+002, 5.425433e+001
1.239835e+002, 5.365557e+001
1.244656e+002, 5.307280e+001
1.249477e+002, 5.255610e+001
1.254298e+002, 5.218644e+001
1.259120e+002, 5.204153e+001
1.263941e+002, 5.200348e+001
1.268762e+002, 5.181447e+001
1.273583e+002, 5.144067e+001
1.278404e+002, 5.094800e+001
1.283225e+002, 5.024657e+001
1.288047e+002, 4.948074e+001
1.292868e+002, 4.884701e+001
1.297689e+002, 4.847960e+001
1.302510e+002, 4.836094e+001
1.307331e+002, 4.823615e+001
1.312152e+002, 4.822469e+001
1.316974e+002, 4.808791e+001
1.321795e+002, 4.760237e+001
1.326616e+002, 4.691364e+001
1.331437e+002, 4.637920e+001
1.336258e+002, 4.634590e+001
1.341079e+002, 4.694257e+001
1.345901e+002, 4.717544e+001
1.350722e+002, 4.678337e+001
1.355543e+002, 4.631293e+001
1.360364e+002, 4.612628e+001
1.365185e+002, 4.623768e+001
1.370006e+002, 4.635952e+001
1.374828e+002, 4.614491e+001
1.379649e+002, 4.550402e+001
1.384470e+002, 4.494921e+001
1.389291e+002, 4.455193e+001
1.394112e+002, 4.423573e+001
1.398933e+002, 4.389075e+001
1.403755e+002, 4.347655e+001
1.408576e+002, 4.310584e+001
1.413397e+002, 4.300895e+001
1.418218e+002, 4.316353e+001
1.423039e+002, 4.320531e+001
1.427860e+002, 4.285901e+001
1.432681e+002, 4.224978e+001
1.437503e+002, 4.185961e+001
1.442324e+002, 4.196521e+001
1.447145e+002, 4.212415e+001
1.451966e+002, 4.189606e+001
1.456787e+002, 4.127976e+001
1.461608e+002, 4.064300e+001
1.466430e+002, 4.033114e+001
1.471251e+002, 4.038180e+001
1.476072e+002, 4.038616e+001
1.480893e+002, 4.016362e+001
1.485714e+002, 3.993726e+001
1.490535e+002, 3.981215e+001
1.495357e+002, 3.981448e+001
1.500178e+002, 3.993050e+001
1.504999e+002, 4.022600e+001
1.509820e+002, 4.103592e+001
1.514641e+002, 4.124844e+001
1.519462e+002, 4.036934e+001
1.524284e+002, 3.919963e+001
1.529105e+002, 3.833110e+001
1.533926e+002, 3.799437e+001
1.538747e+002, 3.804729e+001
1.543568e+002, 3.814881e+001
1.548389e+002, 3.852248e+001
1.553211e+002, 3.865788e+001
1.558032e+002, 3.833534e+001
1.562853e+002, 3.782241e+001
1.567674e+002, 3.744588e+001
1.572495e+002, 3.737318e+001
1.577316e+002, 3.752782e+001
1.582138e+002, 3.758895e+001
1.586959e+002, 3.756411e+001
1.591780e+002, 3.745620e+001
1.596601e+002, 3.715796e+001
1.601422e+002, 3.676643e+001
1.606243e+002, 3.653101e+001
1.611065e+002, 3.664859e+001
1.615886e+002, 3.700117e+001
1.620707e+002, 3.705843e+001
1.625528e+002, 3.646996e+001
1.630349e+002, 3.594175e+001
1.635170e+002, 3.606054e+001
1.639991e+002, 3.674723e+001
1.644813e+002, 3.719489e+001
1.649634e+002, 3.672117e+001
1.654455e+002, 3.568779e+001
1.659276e+002, 3.496096e+001
1.664097e+002, 3.469109e+001
1.668918e+002, 3.471223e+001
1.673740e+002, 3.493483e+001
1.678561e+002, 3.542480e+001
1.683382e+002, 3.580006e+001
1.688203e+002, 3.581342e+001
1.693024e+002, 3.558595e+001
1.697845e+002, 3.520398e+001
1.702667e+002, 3.459423e+001
1.707488e+002, 3.391194e+001
1.712309e+002, 3.355218e+001
1.717130e+002, 3.371067e+001
1.721951e+002, 3.384206e+001
1.726772e+002, 3.370076e+001
1.731594e+002, 3.340776e+001
1.736415e+002, 3.312647e+001
1.741236e+002, 3.294439e+001
1.746057e+002, 3.285401e+001
1.750878e+002, 3.281692e+001
1.755699e+002, 3.290119e+001
1.760521e+002, 3.296502e+001
1.765342e+002, 3.296975e+001
1.770163e+002, 3.292787e+001
1.774984e+002, 3.285020e+001
1.779805e+002, 3.272451e+001
1.784626e+002, 3.254905e+001
1.789448e+002, 3.257697e+001
1.794269e+002, 3.313930e+001
1.799090e+002, 3.357997e+001
1.803911e+002, 3.372323e+001
1.808732e+002, 3.357721e+001
1.813553e+002, 3.318441e+001
1.818375e+002, 3.253151e+001
1.823196e+002, 3.155011e+001
1.828017e+002, 3.103482e+001
1.832838e+002, 3.123269e+001
1.837659e+002, 3.155998e+001
1.842480e+002, 3.183671e+001
1.847301e+002, 3.200732e+001
1.852123e+002, 3.198129e+001
1.856944e+002, 3.161980e+001
1.861765e+002, 3.085339e+001
1.866586e+002, 3.041315e+001
1.871407e+002, 3.054224e+001
1.876228e+002, 3.081243e+001
1.881050e+002, 3.090659e+001
1.885871e+002, 3.079258e+001
1.890692e+002, 3.064232e+001
1.895513e+002, 3.061569e+001
1.900334e+002, 3.071324e+001
1.905155e+002, 3.083632e+001
1.909977e+002, 3.101783e+001
1.914798e+002, 3.120024e+001
1.919619e+002, 3.131638e+001
1.924440e+002, 3.135398e+001
1.929261e+002, 3.135108e+001
1.934082e+002, 3.133638e+001
1.938904e+002, 3.131004e+001
1.943725e+002, 3.126278e+001
1.948546e+002, 3.126160e+001
1.953367e+002, 3.122659e+001
1.958188e+002, 3.095320e+001
1.963009e+002, 3.031428e+001
1.967831e+002, 2.968073e+001
1.972652e+002, 2.933401e+001
1.977473e+002, 2.920220e+001
1.982294e+002, 2.912978e+001
1.987115e+002, 2.908855e+001
1.991936e+002, 2.905360e+001
1.996758e+002, 2.890449e+001
2.001579e+002, 2.854827e+001
2.006400e+002, 2.820014e+001
2.011221e+002, 2.789444e+001
2.016042e+002, 2.767424e+001
2.020863e+002, 2.765226e+001
2.025685e+002, 2.804095e+001
2.030506e+002, 2.879883e+001
2.035327e+002, 2.918969e+001
2.040148e+002, 2.898452e+001
2.044969e+002, 2.860296e+001
2.049790e+002, 2.804104e+001
2.054612e+002, 2.741963e+001
2.059433e+002, 2.698884e+001
2.064254e+002, 2.704904e+001
2.069075e+002, 2.764661e+001
2.073896e+002, 2.782570e+001
2.078717e+002, 2.706439e+001
2.083539e+002, 2.633732e+001
2.088360e+002, 2.590081e+001
2.093181e+002, 2.576037e+001
2.098002e+002, 2.584886e+001
2.102823e+002, 2.616694e+001
2.107644e+002, 2.678540e+001
2.112466e+002, 2.697217e+001
2.117287e+002, 2.645726e+001
2.122108e+002, 2.581165e+001
2.126929e+002, 2.508027e+001
2.131750e+002, 2.438062e+001
2.136571e+002, 2.396437e+001
2.141393e+002, 2.413113e+001
2.146214e+002, 2.504526e+001
2.151035e+002, 2.534363e+001
2.155856e+002, 2.444408e+001
2.160677e+002, 2.358850e+001
2.165498e+002, 2.347644e+001
2.170320e+002, 2.404254e+001
2.175141e+002, 2.472529e+001
2.179962e+002, 2.500813e+001
2.184783e+002, 2.482632e+001
2.189604e+002, 2.478420e+001
2.194425e+002, 2.519704e+001
2.199247e+002, 2.548121e+001
2.204068e+002, 2.510511e+001
2.208889e+002, 2.413543e+001
2.213710e+002, 2.323995e+001
2.218531e+002, 2.303421e+001
2.223352e+002, 2.357856e+001
2.228174e+002, 2.389156e+001
2.232995e+002, 2.377149e+001
2.237816e+002, 2.357145e+001
2.242637e+002, 2.360142e+001
2.247458e+002, 2.386522e+001
2.252279e+002, 2.407224e+001
2.257100e+002, 2.393947e+001
2.261922e+002, 2.351186e+001
2.266743e+002, 2.321321e+001
2.271564e+002, 2.314630e+001
2.276385e+002, 2.317096e+001
2.281206e+002, 2.317485e+001
2.286027e+002, 2.315272e+001
2.290849e+002, 2.311807e+001
2.295670e+002, 2.309952e+001
2.300491e+002, 2.307401e+001
2.305312e+002, 2.297647e+001
2.310133e+002, 2.265276e+001
2.314954e+002, 2.233181e+001
2.319776e+002, 2.233482e+001
2.324597e+002, 2.271148e+001
2.329418e+002, 2.306167e+001
2.334239e+002, 2.303362e+001
2.339060e+002, 2.283119e+001
2.343881e+002, 2.277017e+001
2.348703e+002, 2.300189e+001
2.353524e+002, 2.334750e+001
2.358345e+002, 2.356552e+001
2.363166e+002, 2.363491e+001
2.367987e+002, 2.366727e+001
2.372808e+002, 2.367377e+001
2.377630e+002, 2.368979e+001
2.382451e+002, 2.378428e+001
2.387272e+002, 2.404205e+001
2.392093e+002, 2.429449e+001
2.396914e+002, 2.421784e+001
2.401735e+002, 2.368690e+001
2.406557e+002, 2.322762e+001
2.411378e+002, 2.310009e+001
2.416199e+002, 2.311594e+001
2.421020e+002, 2.312054e+001
2.425841e+002, 2.306968e+001
2.430662e+002, 2.296218e+001
2.435484e+002, 2.276937e+001
2.440305e+002, 2.243058e+001
2.445126e+002, 2.217672e+001
2.449947e+002, 2.216155e+001
2.454768e+002, 2.220567e+001
2.459589e+002, 2.211235e+001
2.464410e+002, 2.180369e+001
2.469232e+002, 2.147614e+001
2.474053e+002, 2.152398e+001
2.478874e+002, 2.219185e+001
2.483695e+002, 2.264560e+001
2.488516e+002, 2.262042e+001
2.493337e+002, 2.242345e+001
2.498159e+002, 2.228537e+001
2.502980e+002, 2.227591e+001
2.507801e+002, 2.230320e+001
2.512622e+002, 2.222395e+001
2.517443e+002, 2.204683e+001
2.522264e+002, 2.172772e+001
2.527086e+002, 2.107346e+001
2.531907e+002, 2.042198e+001
2.536728e+002, 2.003397e+001
2.541549e+002, 1.996652e+001
2.546370e+002, 2.005900e+001
2.551191e+002, 2.004082e+001
2.556013e+002, 1.973015e+001
2.560834e+002, 1.972349e+001
2.565655e+002, 2.028333e+001
2.570476e+002, 2.090896e+001
2.575297e+002, 2.128553e+001
2.580118e+002, 2.135152e+001
2.584940e+002, 2.124307e+001
2.589761e+002, 2.113696e+001
2.594582e+002, 2.104643e+001
2.599403e+002, 2.092157e+001
2.604224e+002, 2.073342e+001
2.609045e+002, 2.053962e+001
2.613867e+002, 2.032529e+001
2.618688e+002, 2.011691e+001
2.623509e+002, 2.002872e+001
2.628330e+002, 2.024771e+001
2.633151e+002, 2.100891e+001
2.637972e+002, 2.117423e+001
2.642794e+002, 2.018949e+001
2.647615e+002, 1.919335e+001
2.652436e+002, 1.888254e+001
2.657257e+002, 1.922430e+001
2.662078e+002, 1.970911e+001
2.666899e+002, 1.983692e+001
2.671721e+002, 1.953496e+001
2.676542e+002, 1.932453e+001
2.681363e+002, 1.921601e+001
2.686184e+002, 1.916749e+001
2.691005e+002, 1.913114e+001
2.695826e+002, 1.912838e+001
2.700648e+002, 1.926126e+001
2.705469e+002, 1.965621e+001
2.710290e+002, 2.033126e+001
2.715111e+002, 2.061806e+001
2.719932e+002, 2.029407e+001
2.724753e+002, 1.989153e+001
2.729575e+002, 1.955594e+001
2.734396e+002, 1.931868e+001
2.739217e+002, 1.921773e+001
2.744038e+002, 1.929148e+001
2.748859e+002, 1.952587e+001
2.753680e+002, 1.975053e+001
2.758501e+002, 1.999704e+001
2.763322e+002, 2.020456e+001
2.768144e+002, 2.046008e+001
2.772965e+002, 2.066507e+001
2.777786e+002, 2.052219e+001
2.782607e+002, 1.978773e+001
2.787428e+002, 1.870179e+001
2.792249e+002, 1.833978e+001
2.797071e+002, 1.933559e+001
2.801892e+002, 2.015325e+001
2.806713e+002, 2.037047e+001
2.811534e+002, 2.015809e+001
2.816355e+002, 1.973891e+001
2.821176e+002, 1.916022e+001
2.825998e+002, 1.858293e+001
2.830819e+002, 1.849367e+001
2.835640e+002, 1.924701e+001
2.840461e+002, 1.974310e+001
2.845282e+002, 1.960359e+001
2.850103e+002, 1.911428e+001
2.854925e+002, 1.865704e+001
2.859746e+002, 1.834536e+001
2.864567e+002, 1.816595e+001
2.869388e+002, 1.810800e+001
2.874209e+002, 1.817153e+001
2.879030e+002, 1.833570e+001
2.883852e+002, 1.874242e+001
2.888673e+002, 1.919082e+001
2.893494e+002, 1.944199e+001
2.898315e+002, 1.944145e+001
2.903136e+002, 1.925194e+001
2.907957e+002, 1.884036e+001
2.912779e+002, 1.813416e+001
2.917600e+002, 1.784352e+001
2.922421e+002, 1.852576e+001
2.927242e+002, 1.938020e+001
2.932063e+002, 1.949691e+001
2.936884e+002, 1.877320e+001
2.941706e+002, 1.800416e+001
2.946527e+002, 1.800533e+001
2.951348e+002, 1.878501e+001
2.956169e+002, 1.914019e+001
2.960990e+002, 1.866432e+001
2.965811e+002, 1.801455e+001
2.970633e+002, 1.769220e+001
2.975454e+002, 1.770547e+001
2.980275e+002, 1.780909e+001
2.985096e+002, 1.785854e+001
2.989917e+002, 1.785321e+001
2.994738e+002, 1.782528e+001
2.999560e+002, 1.767612e+001
3.004381e+002, 1.759344e+001
3.009202e+002, 1.778698e+001
3.014023e+002, 1.818132e+001
3.018844e+002, 1.841751e+001
3.023665e+002, 1.826027e+001
3.028487e+002, 1.784777e+001
3.033308e+002, 1.760343e+001
3.038129e+002, 1.753937e+001
3.042950e+002, 1.759401e+001
3.047771e+002, 1.785308e+001
3.052592e+002, 1.821823e+001
3.057414e+002, 1.841808e+001
3.062235e+002, 1.832297e+001
3.067056e+002, 1.806558e+001
3.071877e+002, 1.787498e+001
3.076698e+002, 1.772113e+001
3.081519e+002, 1.769580e+001
3.086341e+002, 1.804290e+001
3.091162e+002, 1.849526e+001
3.095983e+002, 1.850260e+001
3.100804e+002, 1.785479e+001
3.105625e+002, 1.704944e+001
3.110446e+002, 1.677781e+001
3.115268e+002, 1.703872e+001
3.120089e+002, 1.733609e+001
3.124910e+002, 1.770962e+001
3.129731e+002, 1.800716e+001
3.134552e+002, 1.797225e+001
3.139373e+002, 1.755541e+001
3.144195e+002, 1.711548e+001
3.149016e+002, 1.700050e+001
3.153837e+002, 1.719347e+001
3.158658e+002, 1.733810e+001
3.163479e+002, 1.734136e+001
3.168300e+002, 1.733202e+001
3.173121e+002, 1.744610e+001
3.177943e+002, 1.767641e+001
3.182764e+002, 1.787801e+001
3.187585e+002, 1.797647e+001
3.192406e+002, 1.795498e+001
3.197227e+002, 1.780923e+001
3.202048e+002, 1.724891e+001
3.206870e+002, 1.685276e+001
3.211691e+002, 1.715187e+001
3.216512e+002, 1.793429e+001
3.221333e+002, 1.840156e+001
3.226154e+002, 1.807618e+001
3.230975e+002, 1.733332e+001
3.235797e+002, 1.717302e+001
3.240618e+002, 1.786985e+001
3.245439e+002, 1.844135e+001
3.250260e+002, 1.842470e+001
3.255081e+002, 1.806394e+001
3.259902e+002, 1.785003e+001
3.264724e+002, 1.796610e+001
3.269545e+002, 1.815798e+001
3.274366e+002, 1.798802e+001
3.279187e+002, 1.739832e+001
3.284008e+002, 1.687476e+001
3.288829e+002, 1.646102e+001
3.293651e+002, 1.618131e+001
3.298472e+002, 1.612000e+001
3.303293e+002, 1.629172e+001
3.308114e+002, 1.649367e+001
3.312935e+002, 1.650515e+001
3.317756e+002, 1.630757e+001
3.322578e+002, 1.622043e+001
3.327399e+002, 1.630349e+001
3.332220e+002, 1.646225e+001
3.337041e+002, 1.672651e+001
3.341862e+002, 1.705093e+001
3.346683e+002, 1.717106e+001
3.351505e+002, 1.683165e+001
3.356326e+002, 1.612483e+001
3.361147e+002, 1.574997e+001
3.365968e+002, 1.595177e+001
3.370789e+002, 1.618139e+001
3.375610e+002, 1.618459e+001
3.380432e+002, 1.603869e+001
3.385253e+002, 1.594291e+001
3.390074e+002, 1.599925e+001
3.394895e+002, 1.613829e+001
3.399716e+002, 1.616221e+001
3.404537e+002, 1.597221e+001
3.409359e+002, 1.586310e+001
3.414180e+002, 1.599113e+001
3.419001e+002, 1.619457e+001
3.423822e+002, 1.622183e+001
3.428643e+002, 1.600056e+001
3.433464e+002, 1.573836e+001
3.438286e+002, 1.573573e+001
3.443107e+002, 1.612543e+001
3.447928e+002, 1.640641e+001
3.452749e+002, 1.658368e+001
3.457570e+002, 1.664425e+001
3.462391e+002, 1.651246e+001
3.467213e+002, 1.621688e+001
3.472034e+002, 1.593343e+001
3.476855e+002, 1.583019e+001
3.481676e+002, 1.591904e+001
3.486497e+002, 1.594110e+001
3.491318e+002, 1.581820e+001
3.496140e+002, 1.571872e+001
3.500961e+002, 1.571855e+001
3.505782e+002, 1.579911e+001
3.510603e+002, 1.592696e+001
3.515424e+002, 1.609446e+001
3.520245e+002, 1.626758e+001
3.525067e+002, 1.629494e+001
3.529888e+002, 1.599291e+001
3.534709e+002, 1.577332e+001
3.539530e+002, 1.566489e+001
3.544351e+002, 1.567260e+001
3.549172e+002, 1.584648e+001
3.553994e+002, 1.619700e+001
3.558815e+002, 1.660027e+001
3.563636e+002, 1.685642e+001
3.568457e+002, 1.696589e+001
3.573278e+002, 1.689175e+001
3.578099e+002, 1.644473e+001
3.582920e+002, 1.597256e+001
3.587741e+002, 1.573256e+001
3.592563e+002, 1.572939e+001
3.597384e+002, 1.579565e+001
3.602205e+002, 1.577334e+001
3.607026e+002, 1.565671e+001
3.611847e+002, 1.550277e+001
3.616668e+002, 1.509963e+001
3.621490e+002, 1.487903e+001
3.626311e+002, 1.513526e+001
3.631132e+002, 1.567089e+001
3.635953e+002, 1.612402e+001
3.640774e+002, 1.628114e+001
3.645595e+002, 1.617310e+001
3.650417e+002, 1.591329e+001
3.655238e+002, 1.522181e+001
3.660059e+002, 1.477397e+001
3.664880e+002, 1.475507e+001
3.669701e+002, 1.494853e+001
3.674522e+002, 1.519532e+001
3.679344e+002, 1.542922e+001
3.684165e+002, 1.559065e+001
3.688986e+002, 1.553881e+001
3.693807e+002, 1.510860e+001
3.698628e+002, 1.492377e+001
3.703449e+002, 1.520194e+001
3.708271e+002, 1.554744e+001
3.713092e+002, 1.581102e+001
3.717913e+002, 1.595611e+001
3.722734e+002, 1.597200e+001
3.727555e+002, 1.579789e+001
3.732376e+002, 1.544449e+001
3.737198e+002, 1.528508e+001
3.742019e+002, 1.566140e+001
3.746840e+002, 1.579836e+001
3.751661e+002, 1.513265e+001
3.756482e+002, 1.414355e+001
3.761303e+002, 1.360300e+001
3.766125e+002, 1.394009e+001
3.770946e+002, 1.479788e+001
3.775767e+002, 1.541837e+001
3.780588e+002, 1.578411e+001
3.785409e+002, 1.595332e+001
3.790230e+002, 1.582328e+001
3.795052e+002, 1.557815e+001
3.799873e+002, 1.536115e+001
3.804694e+002, 1.520000e+001
3.809515e+002, 1.500250e+001
3.814336e+002, 1.456400e+001
3.819157e+002, 1.389462e+001
3.823979e+002, 1.360222e+001
3.828800e+002, 1.398677e+001
3.833621e+002, 1.452011e+001
3.838442e+002, 1.492159e+001
3.843263e+002, 1.517576e+001
3.848084e+002, 1.525244e+001
3.852906e+002, 1.496125e+001
3.857727e+002, 1.450914e+001
3.862548e+002, 1.441419e+001
3.867369e+002, 1.477180e+001
3.872190e+002, 1.514511e+001
3.877011e+002, 1.533419e+001
3.881833e+002, 1.536829e+001
3.886654e+002, 1.524136e+001
3.891475e+002, 1.485309e+001
3.896296e+002, 1.448487e+001
3.901117e+002, 1.440517e+001
3.905938e+002, 1.458516e+001
3.910760e+002, 1.481318e+001
3.915581e+002, 1.505462e+001
3.920402e+002, 1.527224e+001
3.925223e+002, 1.545726e+001
3.930044e+002, 1.562914e+001
3.934865e+002, 1.561569e+001
3.939687e+002, 1.513843e+001
3.944508e+002, 1.450124e+001
3.949329e+002, 1.425171e+001
3.954150e+002, 1.449578e+001
3.958971e+002, 1.478810e+001
3.963792e+002, 1.463499e+001
3.968614e+002, 1.411518e+001
3.973435e+002, 1.407444e+001
3.978256e+002, 1.501474e+001
3.983077e+002, 1.603671e+001
3.987898e+002, 1.662093e+001
3.992719e+002, 1.679728e+001
3.997540e+002, 1.671077e+001
4.002361e+002, 1.640331e+001
4.007183e+002, 1.592842e+001
4.012004e+002, 1.541652e+001
4.016825e+002, 1.467171e+001
4.021646e+002, 1.422749e+001
4.026467e+002, 1.441342e+001
4.031288e+002, 1.483967e+001
4.036110e+002, 1.509123e+001
4.040931e+002, 1.506589e+001
4.045752e+002, 1.484177e+001
4.050573e+002, 1.446769e+001
4.055394e+002, 1.386384e+001
4.060215e+002, 1.355418e+001
4.065037e+002, 1.365320e+001
4.069858e+002, 1.389557e+001
4.074679e+002, 1.427839e+001
4.079500e+002, 1.470113e+001
4.084321e+002, 1.494995e+001
4.089142e+002, 1.487673e+001
4.093964e+002, 1.456492e+001
4.098785e+002, 1.440081e+001
4.103606e+002, 1.453009e+001
4.108427e+002, 1.462734e+001
4.113248e+002, 1.465814e+001
4.118069e+002, 1.464979e+001
4.122891e+002, 1.461995e+001
4.127712e+002, 1.457723e+001
4.132533e+002, 1.453637e+001
4.137354e+002, 1.451780e+001
4.142175e+002, 1.452607e+001
4.146996e+002, 1.453817e+001
4.151818e+002, 1.447353e+001
4.156639e+002, 1.448967e+001
4.161460e+002, 1.479644e+001
4.166281e+002, 1.524128e+001
4.171102e+002, 1.545197e+001
4.175923e+002, 1.513770e+001
4.180745e+002, 1.446795e+001
4.185566e+002, 1.401650e+001
4.190387e+002, 1.384176e+001
4.195208e+002, 1.376766e+001
4.200029e+002, 1.378819e+001
4.204850e+002, 1.385226e+001
4.209672e+002, 1.391978e+001
4.214493e+002, 1.398148e+001
4.219314e+002, 1.403836e+001
4.224135e+002, 1.407404e+001
4.228956e+002, 1.409210e+001
4.233777e+002, 1.417431e+001
4.238599e+002, 1.437165e+001
4.243420e+002, 1.458289e+001
4.248241e+002, 1.476858e+001
4.253062e+002, 1.491377e+001
4.257883e+002, 1.495861e+001
4.262704e+002, 1.487068e+001
4.267526e+002, 1.467124e+001
4.272347e+002, 1.431078e+001
4.277168e+002, 1.376840e+001
4.281989e+002, 1.340377e+001
4.286810e+002, 1.345978e+001
4.291631e+002, 1.380567e+001
4.296453e+002, 1.412750e+001
4.301274e+002, 1.447247e+001
4.306095e+002, 1.468441e+001
4.310916e+002, 1.457900e+001
4.315737e+002, 1.430116e+001
4.320558e+002, 1.415532e+001
4.325380e+002, 1.422770e+001
4.330201e+002, 1.436693e+001
4.335022e+002, 1.440728e+001
4.339843e+002, 1.433592e+001
4.344664e+002, 1.423101e+001
4.349485e+002, 1.398585e+001
4.354307e+002, 1.380036e+001
4.359128e+002, 1.389367e+001
4.363949e+002, 1.418097e+001
4.368770e+002, 1.434458e+001
4.373591e+002, 1.417608e+001
4.378412e+002, 1.379315e+001
4.383234e+002, 1.364878e+001
4.388055e+002, 1.404793e+001
4.392876e+002, 1.429722e+001
4.397697e+002, 1.420114e+001
4.402518e+002, 1.401992e+001
4.407339e+002, 1.407214e+001
4.412160e+002, 1.438210e+001
4.416982e+002, 1.462658e+001
4.421803e+002, 1.436891e+001
4.426624e+002, 1.347296e+001
4.431445e+002, 1.306914e+001
4.436266e+002, 1.363379e+001
4.441087e+002, 1.420495e+001
4.445909e+002, 1.457124e+001
4.450730e+002, 1.472859e+001
4.455551e+002, 1.470289e+001
4.460372e+002, 1.449756e+001
4.465193e+002, 1.415653e+001
4.470014e+002, 1.370898e+001
4.474836e+002, 1.300342e+001
4.479657e+002, 1.264849e+001
4.484478e+002, 1.311883e+001
4.489299e+002, 1.371122e+001
4.494120e+002, 1.394718e+001
4.498941e+002, 1.382521e+001
4.503763e+002, 1.372108e+001
4.508584e+002, 1.406200e+001
4.513405e+002, 1.468675e+001
4.518226e+002, 1.482835e+001
4.523047e+002, 1.427997e+001
4.527868e+002, 1.373139e+001
4.532690e+002, 1.362499e+001
4.537511e+002, 1.376736e+001
4.542332e+002, 1.390611e+001
4.547153e+002, 1.397744e+001
4.551974e+002, 1.405601e+001
4.556795e+002, 1.427883e+001
4.561617e+002, 1.458359e+001
4.566438e+002, 1.467155e+001
4.571259e+002, 1.440114e+001
4.576080e+002, 1.400683e+001
4.580901e+002, 1.378800e+001
4.585722e+002, 1.373835e+001
4.590544e+002, 1.371776e+001
4.595365e+002, 1.373060e+001
4.600186e+002, 1.374231e+001
4.605007e+002, 1.371312e+001
4.609828e+002, 1.364958e+001
4.614649e+002, 1.358709e+001
4.619471e+002, 1.353567e+001
4.624292e+002, 1.351354e+001
4.629113e+002, 1.360024e+001
4.633934e+002, 1.399222e+001
4.638755e+002, 1.422932e+001
4.643576e+002, 1.419313e+001
4.648398e+002, 1.401511e+001
4.653219e+002, 1.374718e+001
4.658040e+002, 1.343935e+001
4.662861e+002, 1.327984e+001
4.667682e+002, 1.353594e+001
4.672503e+002, 1.429980e+001
4.677325e+002, 1.459869e+001
4.682146e+002, 1.391164e+001
4.686967e+002, 1.330909e+001
4.691788e+002, 1.309686e+001
4.696609e+002, 1.314496e+001
4.701430e+002, 1.325349e+001
4.706252e+002, 1.333702e+001
4.711073e+002, 1.340804e+001
4.715894e+002, 1.349832e+001
4.720715e+002, 1.362441e+001
4.725536e+002, 1.369711e+001
4.730357e+002, 1.369394e+001
4.735179e+002, 1.363736e+001
4.740000e+002, 1.354895e+001
4.744821e+002, 1.342153e+001
4.749642e+002, 1.321566e+001
4.754463e+002, 1.275232e+001
4.759284e+002, 1.225076e+001
4.764106e+002, 1.229165e+001
4.768927e+002, 1.297762e+001
4.773748e+002, 1.355670e+001
4.778569e+002, 1.363440e+001
4.783390e+002, 1.341150e+001
4.788211e+002, 1.318284e+001
4.793033e+002, 1.291684e+001
4.797854e+002, 1.280346e+001
4.802675e+002, 1.304616e+001
4.807496e+002, 1.347920e+001
4.812317e+002, 1.381737e+001
4.817138e+002, 1.401139e+001
4.821959e+002, 1.410190e+001
4.826780e+002, 1.409911e+001
4.831602e+002, 1.400557e+001
4.836423e+002, 1.397493e+001
4.841244e+002, 1.410584e+001
4.846065e+002, 1.418908e+001
4.850886e+002, 1.408800e+001
4.855707e+002, 1.389226e+001
4.860529e+002, 1.376891e+001
4.865350e+002, 1.377936e+001
4.870171e+002, 1.384560e+001
4.874992e+002, 1.383917e+001
4.879813e+002, 1.373152e+001
4.884634e+002, 1.362662e+001
4.889456e+002, 1.357495e+001
4.894277e+002, 1.347847e+001
4.899098e+002, 1.322166e+001
4.903919e+002, 1.288386e+001
4.908740e+002, 1.265399e+001
4.913561e+002, 1.266133e+001
4.918383e+002, 1.280869e+001
4.923204e+002, 1.280230e+001
4.928025e+002, 1.253611e+001
4.932846e+002, 1.241003e+001
4.937667e+002, 1.265514e+001
4.942488e+002, 1.296317e+001
4.947310e+002, 1.312314e+001
4.952131e+002, 1.313020e+001
4.956952e+002, 1.313008e+001
4.961773e+002, 1.325359e+001
4.966594e+002, 1.344330e+001
4.971415e+002, 1.355061e+001
4.976237e+002, 1.357457e+001
4.981058e+002, 1.349687e+001
4.985879e+002, 1.318836e+001
4.990700e+002, 1.281709e+001
4.995521e+002, 1.272872e+001
5.000342e+002, 1.307601e+001
5.005164e+002, 1.337253e+001
5.009985e+002, 1.324685e+001
5.014806e+002, 1.294293e+001
5.019627e+002, 1.295422e+001
5.024448e+002, 1.338531e+001
5.029269e+002, 1.385227e+001
5.034091e+002, 1.398983e+001
5.038912e+002, 1.378392e+001
5.043733e+002, 1.357805e+001
5.048554e+002, 1.334036e+001
5.053375e+002, 1.313795e+001
5.058196e+002, 1.299760e+001
5.063018e+002, 1.290672e+001
5.067839e+002, 1.286224e+001
5.072660e+002, 1.285961e+001
5.077481e+002, 1.285670e+001
5.082302e+002, 1.277932e+001
5.087123e+002, 1.258953e+001
5.091945e+002, 1.246252e+001
5.096766e+002, 1.240754e+001
5.101587e+002, 1.240698e+001
5.106408e+002, 1.247647e+001
5.111229e+002, 1.259326e+001
5.116050e+002, 1.271932e+001
5.120872e+002, 1.283682e+001
5.125693e+002, 1.295192e+001
5.130514e+002, 1.311928e+001
5.135335e+002, 1.337116e+001
5.140156e+002, 1.341336e+001
5.144977e+002, 1.298264e+001
5.149799e+002, 1.252146e+001
5.154620e+002, 1.248025e+001
5.159441e+002, 1.278586e+001
5.164262e+002, 1.293375e+001
5.169083e+002, 1.249654e+001
5.173904e+002, 1.191053e+001
5.178726e+002, 1.178305e+001
5.183547e+002, 1.209048e+001
5.188368e+002, 1.241046e+001
5.193189e+002, 1.257359e+001
5.198010e+002, 1.259541e+001
5.202831e+002, 1.246669e+001
5.207653e+002, 1.209972e+001
5.212474e+002, 1.186494e+001
5.217295e+002, 1.190031e+001
5.222116e+002, 1.204006e+001
5.226937e+002, 1.217057e+001
5.231758e+002, 1.226866e+001
5.236580e+002, 1.233379e+001
5.241401e+002, 1.236880e+001
5.246222e+002, 1.236545e+001
5.251043e+002, 1.226853e+001
5.255864e+002, 1.185225e+001
5.260685e+002, 1.167805e+001
5.265507e+002, 1.199437e+001
5.270328e+002, 1.241849e+001
5.275149e+002, 1.265602e+001
5.279970e+002, 1.266696e+001
5.284791e+002, 1.256629e+001
5.289612e+002, 1.240219e+001
5.294434e+002, 1.220574e+001
5.299255e+002, 1.218450e+001
5.304076e+002, 1.240430e+001
5.308897e+002, 1.264725e+001
5.313718e+002, 1.284267e+001
5.318539e+002, 1.300241e+001
5.323361e+002, 1.317675e+001
5.328182e+002, 1.339880e+001
5.333003e+002, 1.344776e+001
5.337824e+002, 1.298739e+001
5.342645e+002, 1.228841e+001
5.347466e+002, 1.198514e+001
5.352288e+002, 1.218305e+001
5.357109e+002, 1.244006e+001
5.361930e+002, 1.243308e+001
5.366751e+002, 1.219791e+001
5.371572e+002, 1.199189e+001
5.376393e+002, 1.173333e+001
5.381215e+002, 1.159855e+001
5.386036e+002, 1.174612e+001
5.390857e+002, 1.199451e+001
5.395678e+002, 1.209943e+001
5.400499e+002, 1.202023e+001
5.405320e+002, 1.191927e+001
5.410142e+002, 1.199120e+001
5.414963e+002, 1.224792e+001
5.419784e+002, 1.226207e+001
5.424604e+002, 1.170255e+001
5.429426e+002, 1.129090e+001
5.434247e+002, 1.125257e+001
5.439068e+002, 1.139734e+001
5.443889e+002, 1.151900e+001
5.448710e+002, 1.155982e+001
5.453531e+002, 1.157554e+001
5.458353e+002, 1.163026e+001
5.463174e+002, 1.171917e+001
5.467995e+002, 1.178836e+001
5.472816e+002, 1.184845e+001
5.477637e+002, 1.186018e+001
5.482458e+002, 1.171183e+001
5.487280e+002, 1.151712e+001
5.492101e+002, 1.148730e+001
5.496922e+002, 1.175057e+001
5.501743e+002, 1.198263e+001
5.506564e+002, 1.189286e+001
5.511385e+002, 1.164136e+001
5.516207e+002, 1.160758e+001
5.521028e+002, 1.187614e+001
5.525849e+002, 1.214442e+001
5.530670e+002, 1.210863e+001
5.535491e+002, 1.176677e+001
5.540313e+002, 1.156615e+001
5.545134e+002, 1.154313e+001
5.549955e+002, 1.159405e+001
5.554776e+002, 1.176780e+001
5.559597e+002, 1.196484e+001
5.564418e+002, 1.207703e+001
5.569240e+002, 1.207248e+001
5.574061e+002, 1.196305e+001
5.578882e+002, 1.172067e+001
5.583703e+002, 1.133507e+001
5.588524e+002, 1.113489e+001
5.593345e+002, 1.115336e+001
5.598167e+002, 1.132833e+001
5.602988e+002, 1.174878e+001
5.607809e+002, 1.224331e+001
5.612630e+002, 1.265801e+001
5.617451e+002, 1.296797e+001
5.622272e+002, 1.302632e+001
5.627094e+002, 1.250756e+001
5.631915e+002, 1.162089e+001
5.636736e+002, 1.109687e+001
5.641557e+002, 1.106039e+001
5.646378e+002, 1.116704e+001
5.651199e+002, 1.116806e+001
5.656021e+002, 1.111602e+001
5.660842e+002, 1.123407e+001
5.665663e+002, 1.176350e+001
5.670484e+002, 1.211931e+001
5.675305e+002, 1.194453e+001
5.680126e+002, 1.156134e+001
5.684948e+002, 1.141500e+001
5.689769e+002, 1.155891e+001
5.694590e+002, 1.167721e+001
5.699411e+002, 1.144753e+001
5.704232e+002, 1.089912e+001
5.709053e+002, 1.060587e+001
5.713875e+002, 1.062348e+001
5.718696e+002, 1.084490e+001
5.723517e+002, 1.162111e+001
5.728338e+002, 1.235635e+001
5.733159e+002, 1.236361e+001
5.737980e+002, 1.161213e+001
5.742802e+002, 1.082771e+001
5.747623e+002, 1.067833e+001
5.752444e+002, 1.102538e+001
5.757265e+002, 1.133054e+001
5.762086e+002, 1.161746e+001
5.766907e+002, 1.175706e+001
5.771729e+002, 1.161668e+001
5.776550e+002, 1.132583e+001
5.781371e+002, 1.108807e+001
5.786192e+002, 1.090358e+001
5.791013e+002, 1.078682e+001
5.795834e+002, 1.072269e+001
5.800656e+002, 1.074144e+001
5.805477e+002, 1.092468e+001
5.810298e+002, 1.124772e+001
5.815119e+002, 1.156446e+001
5.819940e+002, 1.179468e+001
5.824761e+002, 1.192634e+001
5.829583e+002, 1.191851e+001
5.834404e+002, 1.169119e+001
5.839225e+002, 1.143608e+001
5.844046e+002, 1.105193e+001
5.848867e+002, 1.072891e+001
5.853688e+002, 1.057549e+001
5.858510e+002, 1.059609e+001
5.863331e+002, 1.079581e+001
5.868152e+002, 1.125258e+001
5.872973e+002, 1.174905e+001
5.877794e+002, 1.166163e+001
5.882615e+002, 1.085870e+001
5.887437e+002, 1.038949e+001
5.892258e+002, 1.066799e+001
5.897079e+002, 1.119079e+001
5.901900e+002, 1.152367e+001
5.906721e+002, 1.168309e+001
5.911542e+002, 1.176029e+001
5.916364e+002, 1.176431e+001
5.921185e+002, 1.171224e+001
5.926006e+002, 1.153011e+001
5.930827e+002, 1.129794e+001
5.935648e+002, 1.127934e+001
5.940469e+002, 1.158112e+001
5.945291e+002, 1.201132e+001
5.950112e+002, 1.231176e+001
5.954933e+002, 1.246781e+001
5.959754e+002, 1.255501e+001
5.964575e+002, 1.254031e+001
5.969396e+002, 1.250477e+001
5.974218e+002, 1.250025e+001
5.979039e+002, 1.248421e+001
5.983860e+002, 1.238793e+001
5.988681e+002, 1.218914e+001
5.993502e+002, 1.194039e+001
5.998323e+002, 1.167138e+001
6.003145e+002, 1.138561e+001
6.007966e+002, 1.118601e+001
6.012787e+002, 1.100528e+001
6.017608e+002, 1.106715e+001
6.022429e+002, 1.187647e+001
6.027250e+002, 1.289733e+001
6.032072e+002, 1.321888e+001
6.036893e+002, 1.250687e+001
6.041714e+002, 1.177869e+001
6.046535e+002, 1.151368e+001
6.051356e+002, 1.156158e+001
6.056177e+002, 1.181334e+001
6.060999e+002, 1.221120e+001
6.065820e+002, 1.245298e+001
6.070641e+002, 1.227416e+001
6.075462e+002, 1.181354e+001
6.080283e+002, 1.171052e+001
6.085104e+002, 1.252237e+001
6.089926e+002, 1.288984e+001
6.094747e+002, 1.230038e+001
6.099568e+002, 1.164082e+001
6.104389e+002, 1.153460e+001
6.109210e+002, 1.194610e+001
6.114031e+002, 1.253039e+001
6.118853e+002, 1.314673e+001
6.123674e+002, 1.367585e+001
6.128495e+002, 1.383237e+001
6.133316e+002, 1.358950e+001
6.138137e+002, 1.327918e+001
6.142958e+002, 1.291355e+001
6.147780e+002, 1.259503e+001
6.152601e+002, 1.248518e+001
6.157422e+002, 1.253941e+001
6.162243e+002, 1.247893e+001
6.167064e+002, 1.203120e+001
6.171885e+002, 1.166573e+001
6.176707e+002, 1.182053e+001
6.181528e+002, 1.225128e+001
6.186349e+002, 1.246618e+001
6.191170e+002, 1.231839e+001
6.195991e+002, 1.195288e+001
6.200812e+002, 1.149014e+001
6.205634e+002, 1.089851e+001
6.210455e+002, 1.067576e+001
6.215276e+002, 1.133769e+001
6.220097e+002, 1.173662e+001
6.224918e+002, 1.139197e+001
6.229739e+002, 1.081202e+001
6.234561e+002, 1.050834e+001
6.239382e+002, 1.058155e+001
6.244203e+002, 1.081542e+001
6.249023e+002, 1.109624e+001
6.253845e+002, 1.139579e+001
6.258666e+002, 1.167169e+001
6.263487e+002, 1.193504e+001
6.268308e+002, 1.200482e+001
6.273129e+002, 1.170589e+001
6.277950e+002, 1.125456e+001
6.282772e+002, 1.109037e+001
6.287593e+002, 1.127781e+001
6.292414e+002, 1.138061e+001
6.297235e+002, 1.127741e+001
6.302056e+002, 1.112129e+001
6.306877e+002, 1.096124e+001
6.311699e+002, 1.083971e+001
6.316520e+002, 1.086255e+001
6.321341e+002, 1.107872e+001
6.326162e+002, 1.133641e+001
6.330983e+002, 1.135483e+001
6.335804e+002, 1.107360e+001
6.340626e+002, 1.084702e+001
6.345447e+002, 1.051836e+001
6.350268e+002, 1.047468e+001
6.355089e+002, 1.114867e+001
6.359910e+002, 1.209657e+001
6.364731e+002, 1.262549e+001
6.369553e+002, 1.252260e+001
6.374374e+002, 1.221167e+001
6.379195e+002, 1.198185e+001
6.384016e+002, 1.175610e+001
6.388837e+002, 1.127426e+001
6.393658e+002, 1.053034e+001
6.398480e+002, 1.003880e+001
6.403301e+002, 1.018878e+001
6.408122e+002, 1.077604e+001
6.412943e+002, 1.111827e+001
6.417764e+002, 1.101019e+001
6.422585e+002, 1.094552e+001
6.427407e+002, 1.091154e+001
6.432228e+002, 1.093166e+001
6.437049e+002, 1.110840e+001
6.441870e+002, 1.134827e+001
6.446691e+002, 1.140636e+001
6.451512e+002, 1.112659e+001
6.456334e+002, 1.073901e+001
6.461155e+002, 1.061113e+001
6.465976e+002, 1.074149e+001
6.470797e+002, 1.097936e+001
6.475618e+002, 1.138799e+001
6.480439e+002, 1.171773e+001
6.485261e+002, 1.170059e+001
6.490082e+002, 1.144853e+001
6.494903e+002, 1.131599e+001
6.499724e+002, 1.142513e+001
6.504545e+002, 1.150839e+001
6.509366e+002, 1.144733e+001
6.514188e+002, 1.131140e+001
6.519009e+002, 1.118379e+001
6.523830e+002, 1.107195e+001
6.528651e+002, 1.090947e+001
6.533472e+002, 1.062046e+001
6.538293e+002, 1.030075e+001
6.543115e+002, 1.037315e+001
6.547936e+002, 1.114784e+001
6.552757e+002, 1.155967e+001
6.557578e+002, 1.105301e+001
6.562399e+002, 1.049478e+001
6.567220e+002, 1.034329e+001
6.572042e+002, 1.053633e+001
6.576863e+002, 1.083138e+001
6.581684e+002, 1.124846e+001
6.586505e+002, 1.155643e+001
6.591326e+002, 1.141291e+001
6.596147e+002, 1.098903e+001
6.600969e+002, 1.076845e+001
6.605790e+002, 1.085761e+001
6.610611e+002, 1.109256e+001
6.615432e+002, 1.137666e+001
6.620253e+002, 1.168495e+001
6.625074e+002, 1.174406e+001
6.629896e+002, 1.127853e+001
6.634717e+002, 1.092602e+001
6.639538e+002, 1.079324e+001
6.644359e+002, 1.075164e+001
6.649180e+002, 1.071515e+001
6.654001e+002, 1.067208e+001
6.658823e+002, 1.064844e+001
6.663644e+002, 1.068660e+001
6.668465e+002, 1.070824e+001
6.673286e+002, 1.053586e+001
6.678107e+002, 1.017624e+001
6.682928e+002, 9.831334e+000
6.687750e+002, 9.473377e+000
6.692571e+002, 9.323588e+000
6.697392e+002, 9.706066e+000
6.702213e+002, 1.055621e+001
6.707034e+002, 1.114598e+001
6.711855e+002, 1.126460e+001
6.716677e+002, 1.136729e+001
6.721498e+002, 1.167888e+001
6.726319e+002, 1.199554e+001
6.731140e+002, 1.210590e+001
6.735961e+002, 1.198164e+001
6.740782e+002, 1.168105e+001
6.745604e+002, 1.120953e+001
6.750425e+002, 1.065744e+001
6.755246e+002, 1.030339e+001
6.760067e+002, 1.014731e+001
6.764888e+002, 1.020846e+001
6.769709e+002, 1.068477e+001
6.774531e+002, 1.116297e+001
6.779352e+002, 1.131237e+001
6.784173e+002, 1.119464e+001
6.788994e+002, 1.101810e+001
6.793815e+002, 1.077741e+001
6.798636e+002, 1.055670e+001
6.803458e+002, 1.040911e+001
6.808279e+002, 1.031223e+001
6.813100e+002, 1.020889e+001
6.817921e+002, 1.010064e+001
6.822742e+002, 1.007552e+001
6.827563e+002, 1.021505e+001
6.832385e+002, 1.048694e+001
6.837206e+002, 1.075008e+001
6.842027e+002, 1.107926e+001
6.846848e+002, 1.123442e+001
6.851669e+002, 1.113817e+001
6.856490e+002, 1.089514e+001
6.861312e+002, 1.042014e+001
6.866133e+002, 9.839318e+000
6.870954e+002, 9.500014e+000
6.875775e+002, 9.599795e+000
6.880596e+002, 9.864623e+000
6.885417e+002, 1.015751e+001
6.890239e+002, 1.041328e+001
6.895060e+002, 1.043538e+001
6.899881e+002, 1.019398e+001
6.904702e+002, 9.896976e+000
6.909523e+002, 9.675058e+000
6.914344e+002, 9.555373e+000
6.919166e+002, 9.690170e+000
6.923987e+002, 1.047087e+001
6.928808e+002, 1.087271e+001
6.933629e+002, 1.052219e+001
6.938450e+002, 1.010189e+001
6.943271e+002, 1.000421e+001
6.948093e+002, 1.018198e+001
6.952914e+002, 1.043763e+001
6.957735e+002, 1.070654e+001
6.962556e+002, 1.095398e+001
6.967377e+002, 1.116045e+001
6.972198e+002, 1.131488e+001
6.977020e+002, 1.144794e+001
6.981841e+002, 1.158327e+001
6.986662e+002, 1.133857e+001
6.991483e+002, 1.025651e+001
6.996304e+002, 8.702487e+000
7.001125e+002, 8.091501e+000
7.005947e+002, 9.234908e+000
7.010768e+002, 1.010197e+001
7.015589e+002, 1.062866e+001
7.020410e+002, 1.090998e+001
7.025231e+002, 1.087210e+001
7.030052e+002, 1.065561e+001
7.034874e+002, 1.052147e+001
7.039695e+002, 1.058436e+001
7.044516e+002, 1.073767e+001
7.049337e+002, 1.091420e+001
7.054158e+002, 1.108101e+001
7.058979e+002, 1.103944e+001
7.063801e+002, 1.074165e+001
7.068622e+002, 1.044296e+001
7.073442e+002, 1.029862e+001
7.078264e+002, 1.024590e+001
7.083085e+002, 1.010835e+001
7.087906e+002, 9.780482e+000
7.092727e+002, 9.640192e+000
7.097548e+002, 9.886699e+000
7.102369e+002, 1.015686e+001
7.107191e+002, 1.025975e+001
7.112012e+002, 1.022542e+001
7.116833e+002, 1.011455e+001
7.121654e+002, 9.951763e+000
7.126475e+002, 9.796924e+000
7.131296e+002, 9.693923e+000
7.136118e+002, 9.652839e+000
7.140939e+002, 9.784681e+000
7.145760e+002, 1.014183e+001
7.150581e+002, 1.033703e+001
7.155402e+002, 1.010128e+001
7.160223e+002, 9.700305e+000
7.165045e+002, 9.601412e+000
7.169866e+002, 9.854869e+000
7.174687e+002, 1.006743e+001
7.179508e+002, 1.027125e+001
7.184329e+002, 1.035797e+001
7.189150e+002, 1.024116e+001
7.193972e+002, 9.987034e+000
7.198793e+002, 9.565611e+000
7.203614e+002, 9.032238e+000
7.208435e+002, 8.782973e+000
7.213256e+002, 9.411051e+000
7.218077e+002, 1.059298e+001
7.222899e+002, 1.094130e+001
7.227720e+002, 1.034380e+001
7.232541e+002, 9.859124e+000
7.237362e+002, 9.834781e+000
7.242183e+002, 1.003879e+001
7.247004e+002, 1.027609e+001
7.251826e+002, 1.054413e+001
7.256647e+002, 1.062162e+001
7.261468e+002, 1.035735e+001
7.266289e+002, 1.006856e+001
7.271110e+002, 9.720144e+000
7.275931e+002, 9.494907e+000
7.280753e+002, 9.738948e+000
7.285574e+002, 1.037889e+001
7.290395e+002, 1.088230e+001
7.295216e+002, 1.083340e+001
7.300037e+002, 1.044318e+001
7.304858e+002, 1.016679e+001
7.309680e+002, 1.000675e+001
7.314501e+002, 9.907771e+000
7.319322e+002, 9.858274e+000
7.324143e+002, 9.871129e+000
7.328964e+002, 9.968301e+000
7.333785e+002, 1.014114e+001
7.338607e+002, 1.033603e+001
7.343428e+002, 1.069477e+001
7.348249e+002, 1.085566e+001
7.353070e+002, 1.057741e+001
7.357891e+002, 1.020862e+001
7.362712e+002, 1.001487e+001
7.367534e+002, 9.988620e+000
7.372355e+002, 1.001552e+001
7.377176e+002, 1.004026e+001
7.381997e+002, 1.008207e+001
7.386818e+002, 1.023561e+001
7.391639e+002, 1.046810e+001
7.396461e+002, 1.041090e+001
7.401282e+002, 9.967199e+000
7.406103e+002, 9.539135e+000
7.410924e+002, 9.322979e+000
7.415745e+002, 9.285048e+000
7.420566e+002, 9.385057e+000
7.425388e+002, 9.688887e+000
7.430209e+002, 9.892320e+000
7.435030e+002, 9.888464e+000
7.439851e+002, 9.864391e+000
7.444672e+002, 9.975293e+000
7.449493e+002, 1.010948e+001
7.454315e+002, 1.003110e+001
7.459136e+002, 9.699746e+000
7.463957e+002, 9.412673e+000
7.468778e+002, 9.567541e+000
7.473599e+002, 9.972558e+000
7.478420e+002, 9.956049e+000
7.483242e+002, 9.503917e+000
7.488063e+002, 9.225945e+000
7.492884e+002, 9.348903e+000
7.497705e+002, 9.670332e+000
7.502526e+002, 1.001608e+001
7.507347e+002, 1.039657e+001
7.512169e+002, 1.051145e+001
7.516990e+002, 1.015963e+001
7.521811e+002, 9.827132e+000
7.526632e+002, 9.501662e+000
7.531453e+002, 9.325171e+000
7.536274e+002, 9.538341e+000
7.541096e+002, 1.004361e+001
7.545917e+002, 1.044110e+001
7.550738e+002, 1.050589e+001
7.555559e+002, 1.035639e+001
7.560380e+002, 1.005331e+001
7.565201e+002, 9.661938e+000
7.570023e+002, 9.501273e+000
7.574844e+002, 9.632558e+000
7.579665e+002, 9.831778e+000
7.584486e+002, 9.941138e+000
7.589307e+002, 9.999551e+000
7.594128e+002, 1.014248e+001
7.598950e+002, 1.047286e+001
7.603771e+002, 1.070023e+001
7.608592e+002, 1.101877e+001
7.613413e+002, 1.103857e+001
7.618234e+002, 1.019980e+001
7.623055e+002, 9.074955e+000
7.627877e+002, 8.654272e+000
7.632698e+002, 9.237690e+000
7.637519e+002, 9.865232e+000
7.642340e+002, 9.760334e+000
7.647161e+002, 9.285050e+000
7.651982e+002, 8.960644e+000
7.656804e+002, 8.799928e+000
7.661625e+002, 8.726591e+000
7.666446e+002, 8.710840e+000
7.671267e+002, 8.768804e+000
7.676088e+002, 8.927166e+000
7.680909e+002, 9.190557e+000
7.685731e+002, 9.483760e+000
7.690552e+002, 9.986948e+000
7.695373e+002, 1.022110e+001
7.700194e+002, 9.798870e+000
7.705015e+002, 9.304459e+000
7.709836e+002, 9.187171e+000
7.714658e+002, 9.424124e+000
7.719479e+002, 9.762336e+000
7.724300e+002, 1.032559e+001
7.729121e+002, 1.067979e+001
7.733942e+002, 1.030354e+001
7.738763e+002, 9.616750e+000
7.743585e+002, 9.268901e+000
7.748406e+002, 9.328024e+000
7.753227e+002, 9.546890e+000
7.758048e+002, 9.784208e+000
7.762869e+002, 9.976131e+000
7.767690e+002, 9.926525e+000
7.772512e+002, 9.575768e+000
7.777333e+002, 9.393932e+000
7.782154e+002, 9.488023e+000
7.786975e+002, 9.611724e+000
7.791796e+002, 9.678026e+000
7.796617e+002, 9.669882e+000
7.801439e+002, 9.549198e+000
7.806260e+002, 9.294663e+000
7.811081e+002, 9.024716e+000
7.815902e+002, 8.536611e+000
7.820723e+002, 8.272475e+000
7.825544e+002, 8.802874e+000
7.830366e+002, 9.651179e+000
7.835187e+002, 9.937856e+000
7.840008e+002, 9.489468e+000
7.844829e+002, 8.973932e+000
7.849650e+002, 9.059526e+000
7.854471e+002, 9.514284e+000
7.859293e+002, 9.617001e+000
7.864114e+002, 9.361852e+000
7.868935e+002, 9.100493e+000
7.873756e+002, 8.868476e+000
7.878577e+002, 8.819132e+000
7.883398e+002, 9.174856e+000
7.888220e+002, 9.865477e+000
7.893040e+002, 1.028107e+001
7.897861e+002, 1.031275e+001
7.902682e+002, 1.024201e+001
7.907504e+002, 9.997952e+000
7.912325e+002, 9.741793e+000
7.917146e+002, 9.600433e+000
7.921967e+002, 9.523752e+000
7.926788e+002, 9.358578e+000
7.931609e+002, 9.031591e+000
7.936431e+002, 8.779104e+000
7.941252e+002, 8.864015e+000
7.946073e+002, 9.141401e+000
7.950894e+002, 9.389567e+000
7.955715e+002, 9.580700e+000
7.960536e+002, 9.621771e+000
7.965358e+002, 9.465648e+000
7.970179e+002, 9.235749e+000
7.975000e+002, 9.082763e+000
7.979821e+002, 9.002401e+000
7.984642e+002, 9.130708e+000
7.989464e+002, 9.739954e+000
7.994285e+002, 1.006528e+001
7.999106e+002, 9.641902e+000
8.003927e+002, 9.082012e+000
8.008748e+002, 8.783422e+000
8.013569e+002, 8.743699e+000
8.018391e+002, 8.874575e+000
8.023212e+002, 9.316885e+000
8.028033e+002, 9.684926e+000
8.032854e+002, 9.735623e+000
8.037675e+002, 9.627125e+000
8.042496e+002, 9.477757e+000
8.047318e+002, 9.347064e+000
8.052139e+002, 9.352418e+000
8.056960e+002, 9.564350e+000
8.061781e+002, 9.852612e+000
8.066602e+002, 1.008005e+001
8.071423e+002, 1.023046e+001
8.076245e+002, 9.995654e+000
8.081066e+002, 9.278178e+000
8.085887e+002, 8.589494e+000
8.090708e+002, 8.095724e+000
8.095529e+002, 7.830937e+000
8.100350e+002, 7.886265e+000
8.105172e+002, 8.318055e+000
8.109993e+002, 8.721938e+000
8.114814e+002, 9.230369e+000
8.119635e+002, 9.542428e+000
8.124456e+002, 9.480133e+000
8.129277e+002, 9.252941e+000
8.134099e+002, 8.976804e+000
8.138920e+002, 8.717037e+000
8.143741e+002, 8.606387e+000
8.148562e+002, 8.746234e+000
8.153383e+002, 8.984443e+000
8.158204e+002, 9.236520e+000
8.163026e+002, 9.447701e+000
8.167847e+002, 9.424315e+000
8.172668e+002, 9.183084e+000
8.177489e+002, 9.057524e+000
8.182310e+002, 9.249258e+000
8.187131e+002, 9.597760e+000
8.191953e+002, 9.781071e+000
8.196774e+002, 9.758646e+000
8.201595e+002, 9.852550e+000
8.206416e+002, 1.023112e+001
8.211237e+002, 1.040510e+001
8.216058e+002, 1.002146e+001
8.220880e+002, 9.460328e+000
8.225701e+002, 9.125194e+000
8.230522e+002, 9.015940e+000
8.235343e+002, 8.975383e+000
8.240164e+002, 8.985224e+000
8.244985e+002, 9.043647e+000
8.249807e+002, 9.180341e+000
8.254628e+002, 9.345673e+000
8.259449e+002, 9.548015e+000
8.264270e+002, 9.731960e+000
8.269091e+002, 9.684415e+000
8.273912e+002, 9.222859e+000
8.278734e+002, 8.779943e+000
8.283555e+002, 9.211824e+000
8.288376e+002, 1.021642e+001
8.293197e+002, 1.037296e+001
8.298018e+002, 9.552245e+000
8.302839e+002, 8.905602e+000
8.307661e+002, 9.037037e+000
8.312482e+002, 9.545922e+000
8.317303e+002, 9.773878e+000
8.322124e+002, 9.668040e+000
8.326945e+002, 9.665887e+000
8.331766e+002, 9.966799e+000
8.336588e+002, 1.007928e+001
8.341409e+002, 9.710746e+000
8.346230e+002, 9.269119e+000
8.351051e+002, 9.101148e+000
8.355872e+002, 9.174323e+000
8.360693e+002, 9.217203e+000
8.365515e+002, 9.043685e+000
8.370336e+002, 8.990553e+000
8.375157e+002, 9.439675e+000
8.379978e+002, 9.976228e+000
8.384799e+002, 1.005313e+001
8.389620e+002, 9.752162e+000
8.394442e+002, 9.521909e+000
8.399263e+002, 9.574751e+000
8.404084e+002, 9.697417e+000
8.408905e+002, 9.570021e+000
8.413726e+002, 9.246302e+000
8.418547e+002, 9.040589e+000
8.423369e+002, 8.963727e+000
8.428190e+002, 8.934564e+000
8.433011e+002, 8.948462e+000
8.437832e+002, 8.931728e+000
8.442653e+002, 8.788539e+000
8.447474e+002, 8.522258e+000
8.452296e+002, 8.285167e+000
8.457117e+002, 7.950855e+000
8.461938e+002, 7.839866e+000
8.466759e+002, 8.109084e+000
8.471580e+002, 8.479696e+000
8.476401e+002, 8.840010e+000
8.481223e+002, 9.156111e+000
8.486044e+002, 9.393063e+000
8.490865e+002, 9.551619e+000
8.495686e+002, 9.587191e+000
8.500507e+002, 9.395741e+000
8.505328e+002, 9.133670e+000
8.510150e+002, 8.871817e+000
8.514971e+002, 8.686689e+000
8.519792e+002, 8.800469e+000
8.524613e+002, 9.240864e+000
8.529434e+002, 9.645450e+000
8.534255e+002, 9.629207e+000
8.539077e+002, 9.325351e+000
8.543898e+002, 9.112981e+000
8.548719e+002, 8.991483e+000
8.553540e+002, 9.064839e+000
8.558361e+002, 9.416669e+000
8.563182e+002, 9.671424e+000
8.568004e+002, 9.477524e+000
8.572825e+002, 9.024994e+000
8.577646e+002, 8.939763e+000
8.582467e+002, 9.465610e+000
8.587288e+002, 9.831070e+000
8.592109e+002, 1.008766e+001
8.596931e+002, 1.012938e+001
8.601752e+002, 9.749700e+000
8.606573e+002, 9.230239e+000
8.611394e+002, 8.884274e+000
8.616215e+002, 8.749771e+000
8.621036e+002, 8.734486e+000
8.625858e+002, 8.932268e+000
8.630679e+002, 9.095312e+000
8.635500e+002, 8.969313e+000
8.640321e+002, 8.748430e+000
8.645142e+002, 8.710882e+000
8.649963e+002, 8.869140e+000
8.654785e+002, 9.105321e+000
8.659606e+002, 9.367883e+000
8.664427e+002, 9.542150e+000
8.669248e+002, 9.392813e+000
8.674069e+002, 8.984539e+000
8.678890e+002, 8.624967e+000
8.683712e+002, 8.329469e+000
8.688533e+002, 8.205161e+000
8.693354e+002, 8.316474e+000
8.698175e+002, 8.560322e+000
8.702996e+002, 8.848813e+000
8.707817e+002, 9.186283e+000
8.712639e+002, 9.107905e+000
8.717459e+002, 8.119425e+000
8.722280e+002, 7.586165e+000
8.727101e+002, 8.131265e+000
8.731923e+002, 8.827552e+000
8.736744e+002, 9.135488e+000
8.741565e+002, 9.166596e+000
8.746386e+002, 9.227345e+000
8.751207e+002, 9.368334e+000
8.756028e+002, 9.531036e+000
8.760850e+002, 9.854982e+000
8.765671e+002, 1.003897e+001
8.770492e+002, 9.712415e+000
8.775313e+002, 9.143127e+000
8.780134e+002, 8.781338e+000
8.784955e+002, 8.731607e+000
8.789777e+002, 8.817385e+000
8.794598e+002, 8.958157e+000
8.799419e+002, 9.089057e+000
8.804240e+002, 9.090498e+000
8.809061e+002, 8.989368e+000
8.813882e+002, 8.852842e+000
8.818704e+002, 8.699721e+000
8.823525e+002, 8.643582e+000
8.828346e+002, 8.766247e+000
8.833167e+002, 8.989422e+000
8.837988e+002, 9.179923e+000
8.842809e+002, 9.363363e+000
8.847631e+002, 9.286700e+000
8.852452e+002, 8.788279e+000
8.857273e+002, 8.430271e+000
8.862094e+002, 8.439511e+000
8.866915e+002, 8.639352e+000
8.871736e+002, 8.903528e+000
8.876558e+002, 9.217338e+000
8.881379e+002, 9.367174e+000
8.886200e+002, 9.263731e+000
8.891021e+002, 9.113744e+000
8.895842e+002, 8.830751e+000
8.900663e+002, 8.626280e+000
8.905485e+002, 8.816882e+000
8.910306e+002, 9.148482e+000
8.915127e+002, 9.021813e+000
8.919948e+002, 8.245721e+000
8.924769e+002, 7.653787e+000
8.929590e+002, 7.906820e+000
8.934412e+002, 8.500499e+000
8.939233e+002, 9.014520e+000
8.944054e+002, 9.416870e+000
8.948875e+002, 9.666038e+000
8.953696e+002, 9.761600e+000
8.958517e+002, 9.752514e+000
8.963339e+002, 9.664555e+000
8.968160e+002, 9.529211e+000
8.972981e+002, 9.386298e+000
8.977802e+002, 9.244335e+000
8.982623e+002, 9.215266e+000
8.987444e+002, 9.323553e+000
8.992266e+002, 9.344562e+000
8.997087e+002, 9.135757e+000
9.001908e+002, 8.894886e+000
9.006729e+002, 8.947440e+000
9.011550e+002, 9.316749e+000
9.016371e+002, 9.436986e+000
9.021193e+002, 9.120204e+000
9.026014e+002, 8.904956e+000
9.030835e+002, 8.982367e+000
9.035656e+002, 9.101608e+000
9.040477e+002, 9.131849e+000
9.045298e+002, 9.068894e+000
9.050120e+002, 8.869834e+000
9.054941e+002, 8.411423e+000
9.059762e+002, 8.159975e+000
9.064583e+002, 8.341895e+000
9.069404e+002, 8.643086e+000
9.074225e+002, 8.961366e+000
9.079047e+002, 9.236962e+000
9.083868e+002, 9.410436e+000
9.088689e+002, 9.473600e+000
9.093510e+002, 9.458248e+000
9.098331e+002, 9.364155e+000
9.103152e+002, 9.228941e+000
9.107974e+002, 8.965319e+000
9.112795e+002, 8.739196e+000
9.117616e+002, 9.044710e+000
9.122437e+002, 9.751347e+000
9.127258e+002, 1.001891e+001
9.132079e+002, 9.448025e+000
9.136901e+002, 8.681870e+000
9.141722e+002, 8.661773e+000
9.146543e+002, 9.216567e+000
9.151364e+002, 9.229362e+000
9.156185e+002, 8.668097e+000
9.161006e+002, 8.610531e+000
9.165828e+002, 9.458186e+000
9.170649e+002, 1.025153e+001
9.175470e+002, 1.015882e+001
9.180291e+002, 9.422177e+000
9.185112e+002, 8.915490e+000
9.189933e+002, 8.664547e+000
9.194755e+002, 8.582754e+000
9.199576e+002, 8.869618e+000
9.204397e+002, 9.036402e+000
9.209218e+002, 8.642391e+000
9.214039e+002, 8.194139e+000
9.218860e+002, 8.337032e+000
9.223682e+002, 9.046779e+000
9.228503e+002, 9.553894e+000
9.233324e+002, 9.678177e+000
9.238145e+002, 9.689231e+000
9.242966e+002, 9.597682e+000
9.247787e+002, 9.476676e+000
9.252609e+002, 9.370230e+000
9.257430e+002, 9.282587e+000
9.262251e+002, 9.217052e+000
9.267072e+002, 9.175513e+000
9.271893e+002, 9.121094e+000
9.276714e+002, 8.936268e+000
9.281536e+002, 8.809664e+000
9.286357e+002, 9.016391e+000
9.291178e+002, 9.395986e+000
9.295999e+002, 9.609771e+000
9.300820e+002, 9.632666e+000
9.305641e+002, 9.727378e+000
9.310463e+002, 1.008621e+001
9.315284e+002, 1.045685e+001
9.320105e+002, 1.043193e+001
9.324926e+002, 1.007326e+001
9.329747e+002, 9.551305e+000
9.334568e+002, 8.897564e+000
9.339390e+002, 8.442722e+000
9.344211e+002, 8.319671e+000
9.349032e+002, 8.355464e+000
9.353853e+002, 8.357000e+000
9.358674e+002, 8.356533e+000
9.363495e+002, 8.616361e+000
9.368317e+002, 9.292418e+000
9.373138e+002, 9.479222e+000
9.377959e+002, 8.779500e+000
9.382780e+002, 8.256145e+000
9.387601e+002, 8.651644e+000
9.392422e+002, 9.449158e+000
9.397244e+002, 9.693673e+000
9.402065e+002, 9.253756e+000
9.406886e+002, 9.034419e+000
9.411707e+002, 9.345300e+000
9.416528e+002, 9.444640e+000
9.421349e+002, 8.979148e+000
9.426171e+002, 8.448196e+000
9.430992e+002, 8.247274e+000
9.435813e+002, 8.273180e+000
9.440634e+002, 8.159863e+000
9.445455e+002, 7.701769e+000
9.450276e+002, 7.624611e+000
9.455098e+002, 8.677663e+000
9.459919e+002, 9.673223e+000
9.464740e+002, 9.670530e+000
9.469561e+002, 9.205112e+000
9.474382e+002, 9.087966e+000
9.479203e+002, 9.355488e+000
9.484025e+002, 9.413340e+000
9.488846e+002, 8.841172e+000
9.493667e+002, 8.219571e+000
9.498488e+002, 8.175245e+000
9.503309e+002, 8.396396e+000
9.508130e+002, 8.322780e+000
9.512952e+002, 8.060169e+000
9.517773e+002, 8.183287e+000
9.522594e+002, 8.842926e+000
9.527415e+002, 9.401401e+000
9.532236e+002, 9.157060e+000
9.537057e+002, 8.493107e+000
9.541878e+002, 8.312604e+000
9.546699e+002, 8.572774e+000
9.551520e+002, 9.135835e+000
9.556342e+002, 9.980289e+000
9.561163e+002, 1.039148e+001
9.565984e+002, 9.934095e+000
9.570805e+002, 9.136419e+000
9.575626e+002, 8.843836e+000
9.580447e+002, 9.045654e+000
9.585269e+002, 9.239621e+000
9.590090e+002, 9.421072e+000
9.594911e+002, 9.629929e+000
9.599732e+002, 9.913586e+000
9.604553e+002, 1.013911e+001
9.609374e+002, 1.021207e+001
9.614196e+002, 1.014734e+001
9.619017e+002, 9.979587e+000
9.623838e+002, 9.678350e+000
9.628659e+002, 9.364079e+000
9.633480e+002, 8.820436e+000
9.638301e+002, 8.562845e+000
9.643123e+002, 8.948162e+000
9.647944e+002, 9.486710e+000
9.652765e+002, 9.786580e+000
9.657586e+002, 9.871944e+000
9.662407e+002, 9.906174e+000
9.667228e+002, 9.881093e+000
9.672050e+002, 9.864261e+000
9.676871e+002, 9.822041e+000
9.681692e+002, 9.843811e+000
9.686513e+002, 1.010760e+001
9.691334e+002, 1.039466e+001
9.696155e+002, 1.034553e+001
9.700977e+002, 9.974336e+000
9.705798e+002, 9.724352e+000
9.710619e+002, 9.793754e+000
9.715440e+002, 1.002794e+001
9.720261e+002, 1.043795e+001
9.725082e+002, 1.087884e+001
9.729904e+002, 1.126108e+001
9.734725e+002, 1.152560e+001
9.739546e+002, 1.149946e+001
9.744367e+002, 1.117125e+001
9.749188e+002, 1.094628e+001
9.754009e+002, 1.119865e+001
9.758831e+002, 1.167093e+001
9.763652e+002, 1.210919e+001
9.768473e+002, 1.247389e+001
9.773294e+002, 1.258973e+001
9.778115e+002, 1.252009e+001
9.782936e+002, 1.266839e+001
9.787758e+002, 1.322602e+001
9.792579e+002, 1.386342e+001
9.797400e+002, 1.411384e+001
9.802221e+002, 1.413592e+001
9.807042e+002, 1.447771e+001
9.811863e+002, 1.510195e+001
9.816685e+002, 1.573631e+001
9.821506e+002, 1.632432e+001
9.826327e+002, 1.685710e+001
9.831148e+002, 1.733611e+001
9.835969e+002, 1.770803e+001
9.840790e+002, 1.782329e+001
9.845612e+002, 1.767894e+001
9.850433e+002, 1.778416e+001
9.855254e+002, 1.823784e+001
9.860075e+002, 1.830018e+001
9.864896e+002, 1.767241e+001
9.869717e+002, 1.695710e+001
9.874539e+002, 1.668669e+001
9.879360e+002, 1.666159e+001
9.884181e+002, 1.621602e+001
9.889002e+002, 1.514760e+001
9.893823e+002, 1.439520e+001
9.898644e+002, 1.411840e+001
9.903466e+002, 1.385295e+001
9.908287e+002, 1.348316e+001
9.913108e+002, 1.303020e+001
9.917929e+002, 1.242113e+001
9.922750e+002, 1.172259e+001
9.927571e+002, 1.134767e+001
9.932393e+002, 1.155226e+001
9.937214e+002, 1.161958e+001
9.942035e+002, 1.144652e+001
9.946856e+002, 1.124624e+001
9.951677e+002, 1.105903e+001
9.956498e+002, 1.091458e+001
9.961320e+002, 1.089047e+001
9.966141e+002, 1.095740e+001
9.970962e+002, 1.089929e+001
9.975783e+002, 1.054702e+001
9.980604e+002, 1.028212e+001
9.985425e+002, 1.027446e+001
9.990247e+002, 1.030591e+001
9.995068e+002, 1.029135e+001
9.999889e+002, 1.020270e+001
1.000471e+003, 9.983518e+000
1.000953e+003, 9.645654e+000
1.001435e+003, 9.333548e+000
1.001917e+003, 9.037159e+000
1.002399e+003, 8.887808e+000
1.002882e+003, 9.037120e+000
1.003364e+003, 9.295884e+000
1.003846e+003, 9.570425e+000
1.004328e+003, 9.787746e+000
1.004810e+003, 9.831289e+000
1.005292e+003, 9.685864e+000
1.005774e+003, 9.494040e+000
1.006256e+003, 9.297269e+000
1.006739e+003, 9.155494e+000
1.007221e+003, 9.132931e+000
1.007703e+003, 9.195704e+000
1.008185e+003, 9.334836e+000
1.008667e+003, 9.511376e+000
1.009149e+003, 9.641205e+000
1.009631e+003, 9.694355e+000
1.010113e+003, 9.704731e+000
1.010595e+003, 9.749317e+000
1.011078e+003, 9.715749e+000
1.011560e+003, 9.276498e+000
1.012042e+003, 8.671933e+000
1.012524e+003, 8.517390e+000
1.013006e+003, 8.799685e+000
1.013488e+003, 9.074466e+000
1.013970e+003, 9.148568e+000
1.014452e+003, 9.204205e+000
1.014935e+003, 9.498206e+000
1.015417e+003, 9.884492e+000
1.015899e+003, 9.936740e+000
1.016381e+003, 9.738527e+000
1.016863e+003, 9.654359e+000
1.017345e+003, 9.744199e+000
1.017827e+003, 1.008795e+001
1.018309e+003, 1.075190e+001
1.018791e+003, 1.122710e+001
1.019274e+003, 1.064194e+001
1.019756e+003, 9.311277e+000
1.020238e+003, 8.875768e+000
1.020720e+003, 9.296400e+000
1.021202e+003, 9.467060e+000
1.021684e+003, 9.186132e+000
1.022166e+003, 8.815756e+000
1.022648e+003, 8.533290e+000
1.023130e+003, 8.435622e+000
1.023613e+003, 8.752514e+000
1.024095e+003, 9.440125e+000
1.024577e+003, 9.722567e+000
1.025059e+003, 9.553089e+000
1.025541e+003, 9.353106e+000
1.026023e+003, 9.188732e+000
1.026505e+003, 9.053282e+000
1.026987e+003, 8.955233e+000
1.027469e+003, 8.850953e+000
1.027952e+003, 8.631539e+000
1.028434e+003, 8.280950e+000
1.028916e+003, 8.204439e+000
1.029398e+003, 8.480737e+000
1.029880e+003, 8.784080e+000
1.030362e+003, 9.157063e+000
1.030844e+003, 9.276118e+000
1.031326e+003, 8.782256e+000
1.031809e+003, 8.060331e+000
1.032291e+003, 7.927360e+000
1.032773e+003, 8.478243e+000
1.033255e+003, 8.802661e+000
1.033737e+003, 8.756017e+000
1.034219e+003, 8.814594e+000
1.034701e+003, 9.213758e+000
1.035183e+003, 9.512018e+000
1.035666e+003, 9.359107e+000
1.036148e+003, 8.941289e+000
1.036630e+003, 8.640722e+000
1.037112e+003, 8.474346e+000
1.037594e+003, 8.328015e+000
1.038076e+003, 8.116072e+000
1.038558e+003, 8.062819e+000
1.039040e+003, 8.184916e+000
1.039522e+003, 8.502157e+000
1.040005e+003, 9.415966e+000
1.040487e+003, 1.041499e+001
1.040969e+003, 1.025049e+001
1.041451e+003, 8.569343e+000
1.041933e+003, 7.598067e+000
1.042415e+003, 7.914209e+000
1.042897e+003, 8.185707e+000
1.043379e+003, 8.143674e+000
1.043861e+003, 8.008527e+000
1.044344e+003, 7.824239e+000
1.044826e+003, 7.681563e+000
1.045308e+003, 7.798787e+000
1.045790e+003, 8.249310e+000
1.046272e+003, 8.524116e+000
1.046754e+003, 8.426360e+000
1.047236e+003, 8.345056e+000
1.047718e+003, 8.479702e+000
1.048201e+003, 8.558255e+000
1.048683e+003, 8.149990e+000
1.049165e+003, 7.639628e+000
1.049647e+003, 7.955012e+000
1.050129e+003, 9.328794e+000
1.050611e+003, 9.896016e+000
1.051093e+003, 8.451917e+000
1.051575e+003, 7.306541e+000
1.052057e+003, 7.120913e+000
1.052540e+003, 7.493944e+000
1.053022e+003, 8.631877e+000
1.053504e+003, 9.911036e+000
1.053986e+003, 1.014701e+001
1.054468e+003, 9.148116e+000
1.054950e+003, 8.317345e+000
1.055432e+003, 8.082328e+000
1.055914e+003, 7.994613e+000
1.056396e+003, 7.926520e+000
1.056879e+003, 7.925386e+000
1.057361e+003, 8.033442e+000
1.057843e+003, 8.233739e+000
1.058325e+003, 8.608074e+000
1.058807e+003, 9.149845e+000
1.059289e+003, 9.274900e+000
1.059771e+003, 8.299435e+000
1.060253e+003, 7.542105e+000
1.060736e+003, 7.642352e+000
1.061218e+003, 8.008444e+000
1.061700e+003, 8.268729e+000
1.062182e+003, 8.438772e+000
1.062664e+003, 8.646698e+000
1.063146e+003, 8.894756e+000
1.063628e+003, 8.950906e+000
1.064110e+003, 8.574254e+000
1.064593e+003, 8.213804e+000
1.065075e+003, 7.925916e+000
1.065557e+003, 7.850296e+000
1.066039e+003, 8.299420e+000
1.066521e+003, 8.929498e+000
1.067003e+003, 9.220059e+000
1.067485e+003, 9.108111e+000
1.067967e+003, 8.864614e+000
1.068449e+003, 8.472314e+000
1.068932e+003, 8.172627e+000
1.069414e+003, 8.097986e+000
1.069896e+003, 8.131776e+000
1.070378e+003, 8.217942e+000
1.070860e+003, 8.337174e+000
1.071342e+003, 8.525648e+000
1.071824e+003, 8.747921e+000
1.072306e+003, 8.809981e+000
1.072788e+003, 8.579557e+000
1.073271e+003, 8.320874e+000
1.073753e+003, 8.099627e+000
1.074235e+003, 7.954103e+000
1.074717e+003, 7.919147e+000
1.075199e+003, 7.971920e+000
1.075681e+003, 8.109321e+000
1.076163e+003, 8.307384e+000
1.076645e+003, 8.505277e+000
1.077127e+003, 8.733747e+000
1.077610e+003, 8.795712e+000
1.078092e+003, 8.432873e+000
1.078574e+003, 8.055539e+000
1.079056e+003, 7.903421e+000
1.079538e+003, 7.920249e+000
1.080020e+003, 8.115685e+000
1.080502e+003, 8.396660e+000
1.080984e+003, 8.476719e+000
1.081467e+003, 8.204784e+000
1.081949e+003, 8.049478e+000
1.082431e+003, 8.380260e+000
1.082913e+003, 8.706142e+000
1.083395e+003, 8.663411e+000
1.083877e+003, 8.508457e+000
1.084359e+003, 8.591863e+000
1.084841e+003, 8.804571e+000
1.085323e+003, 8.715423e+000
1.085806e+003, 8.160168e+000
1.086288e+003, 7.839880e+000
1.086770e+003, 8.331713e+000
1.087252e+003, 8.783670e+000
1.087734e+003, 8.666167e+000
1.088216e+003, 8.382508e+000
1.088698e+003, 8.271824e+000
1.089180e+003, 8.319467e+000
1.089662e+003, 8.435966e+000
1.090145e+003, 8.603456e+000
1.090627e+003, 8.744655e+000
1.091109e+003, 8.911265e+000
1.091591e+003, 8.939641e+000
1.092073e+003, 8.495522e+000
1.092555e+003, 8.141605e+000
1.093037e+003, 8.537837e+000
1.093519e+003, 9.240144e+000
1.094002e+003, 9.449169e+000
1.094484e+003, 9.076590e+000
1.094966e+003, 8.683770e+000
1.095448e+003, 8.300472e+000
1.095930e+003, 8.140528e+000
1.096412e+003, 8.359731e+000
1.096894e+003, 8.731459e+000
1.097376e+003, 9.371976e+000
1.097859e+003, 9.918917e+000
1.098341e+003, 9.773249e+000
1.098823e+003, 9.016194e+000
1.099305e+003, 8.505475e+000
1.099787e+003, 8.513871e+000
1.100269e+003, 8.619639e+000
1.100751e+003, 8.896537e+000
1.101233e+003, 9.030623e+000
1.101715e+003, 8.730070e+000
1.102198e+003, 8.314318e+000
1.102680e+003, 8.072323e+000
1.103162e+003, 8.020490e+000
1.103644e+003, 8.121737e+000
1.104126e+003, 8.396556e+000
1.104608e+003, 8.740808e+000
1.105090e+003, 9.410799e+000
1.105572e+003, 9.788286e+000
1.106054e+003, 9.375927e+000
1.106537e+003, 8.848739e+000
1.107019e+003, 8.810457e+000
1.107501e+003, 9.069858e+000
1.107983e+003, 9.099624e+000
1.108465e+003, 8.811397e+000
1.108947e+003, 8.583008e+000
1.109429e+003, 8.653411e+000
1.109911e+003, 8.491666e+000
1.110394e+003, 7.565292e+000
1.110876e+003, 6.828516e+000
1.111358e+003, 7.026278e+000
1.111840e+003, 7.699030e+000
1.112322e+003, 8.079505e+000
1.112804e+003, 8.138364e+000
1.113286e+003, 8.332383e+000
1.113768e+003, 9.027244e+000
1.114250e+003, 9.240037e+000
1.114733e+003, 8.548270e+000
1.115215e+003, 7.845462e+000
1.115697e+003, 7.407433e+000
1.116179e+003, 7.239884e+000
1.116661e+003, 7.398402e+000
1.117143e+003, 7.846876e+000
1.117625e+003, 8.342516e+000
1.118107e+003, 9.092422e+000
1.118589e+003, 9.366068e+000
1.119072e+003, 8.899462e+000
1.119554e+003, 8.473451e+000
1.120036e+003, 8.351645e+000
1.120518e+003, 8.315880e+000
1.121000e+003, 8.178634e+000
1.121482e+003, 7.983028e+000
1.121964e+003, 7.854388e+000
1.122446e+003, 7.795344e+000
1.122929e+003, 7.792987e+000
1.123411e+003, 7.863984e+000
1.123893e+003, 7.932526e+000
1.124375e+003, 7.975113e+000
1.124857e+003, 8.056243e+000
1.125339e+003, 8.270687e+000
1.125821e+003, 8.416316e+000
1.126303e+003, 8.050794e+000
1.126786e+003, 7.235602e+000
1.127268e+003, 7.215301e+000
1.127750e+003, 8.114016e+000
1.128232e+003, 8.662231e+000
1.128714e+003, 8.657681e+000
1.129196e+003, 8.572267e+000
1.129678e+003, 8.614321e+000
1.130160e+003, 8.698222e+000
1.130642e+003, 8.755297e+000
1.131125e+003, 8.730987e+000
1.131607e+003, 8.338115e+000
1.132089e+003, 7.613332e+000
1.132571e+003, 7.214393e+000
1.133053e+003, 7.173678e+000
1.133535e+003, 7.348317e+000
1.134017e+003, 7.693399e+000
1.134499e+003, 7.941783e+000
1.134981e+003, 7.871906e+000
1.135464e+003, 7.657504e+000
1.135946e+003, 7.601445e+000
1.136428e+003, 7.672017e+000
1.136910e+003, 7.710132e+000
1.137392e+003, 7.754167e+000
1.137874e+003, 8.124513e+000
1.138356e+003, 8.792021e+000
1.138838e+003, 9.069490e+000
1.139321e+003, 8.603658e+000
1.139803e+003, 8.036092e+000
1.140285e+003, 8.189027e+000
1.140767e+003, 8.618266e+000
1.141249e+003, 8.477287e+000
1.141731e+003, 7.989537e+000
1.142213e+003, 7.604342e+000
1.142695e+003, 7.355575e+000
1.143177e+003, 7.120493e+000
1.143660e+003, 6.873601e+000
1.144142e+003, 6.749971e+000
1.144624e+003, 6.860945e+000
1.145106e+003, 7.095328e+000
1.145588e+003, 7.383090e+000
1.146070e+003, 7.689358e+000
1.146552e+003, 8.072786e+000
1.147034e+003, 8.393836e+000
1.147516e+003, 8.294064e+000
1.147999e+003, 7.853876e+000
1.148481e+003, 7.658580e+000
1.148963e+003, 8.005486e+000
1.149445e+003, 8.301450e+000
1.149927e+003, 8.137597e+000
1.150409e+003, 7.828248e+000
1.150891e+003, 7.380148e+000
1.151373e+003, 7.085225e+000
1.151856e+003, 7.489458e+000
1.152338e+003, 8.232872e+000
1.152820e+003, 8.375775e+000
1.153302e+003, 7.725695e+000
1.153784e+003, 7.300928e+000
1.154266e+003, 7.790824e+000
1.154748e+003, 8.063035e+000
1.155230e+003, 7.359977e+000
1.155713e+003, 6.748695e+000
1.156195e+003, 7.103221e+000
1.156677e+003, 7.803892e+000
1.157159e+003, 8.030412e+000
1.157641e+003, 7.789770e+000
1.158123e+003, 7.513727e+000
1.158605e+003, 7.056682e+000
1.159087e+003, 6.962400e+000
1.159569e+003, 7.566920e+000
1.160052e+003, 8.126455e+000
1.160534e+003, 8.570532e+000
1.161016e+003, 8.759003e+000
1.161498e+003, 8.428307e+000
1.161980e+003, 7.858444e+000
1.162462e+003, 7.687596e+000
1.162944e+003, 7.967628e+000
1.163426e+003, 8.045702e+000
1.163908e+003, 7.715098e+000
1.164391e+003, 7.874682e+000
1.164873e+003, 8.940556e+000
1.165355e+003, 9.588424e+000
1.165837e+003, 9.082006e+000
1.166319e+003, 8.162869e+000
1.166801e+003, 7.676056e+000
1.167283e+003, 7.542784e+000
1.167765e+003, 7.418190e+000
1.168247e+003, 7.295360e+000
1.168730e+003, 7.452857e+000
1.169212e+003, 7.912018e+000
1.169694e+003, 8.251901e+000
1.170176e+003, 8.354556e+000
1.170658e+003, 8.443072e+000
1.171140e+003, 8.681320e+000
1.171622e+003, 8.914847e+000
1.172104e+003, 8.869644e+000
1.172587e+003, 8.627671e+000
1.173069e+003, 8.417857e+000
1.173551e+003, 8.257465e+000
1.174033e+003, 8.238129e+000
1.174515e+003, 8.343210e+000
1.174997e+003, 8.457679e+000
1.175479e+003, 8.531455e+000
1.175961e+003, 8.512720e+000
1.176443e+003, 8.306268e+000
1.176926e+003, 8.106981e+000
1.177408e+003, 8.198304e+000
1.177890e+003, 8.420861e+000
1.178372e+003, 8.622599e+000
1.178854e+003, 8.737159e+000
1.179336e+003, 8.589391e+000
1.179818e+003, 8.245835e+000
1.180300e+003, 8.059046e+000
1.180782e+003, 8.181321e+000
1.181265e+003, 8.411974e+000
1.181747e+003, 8.915975e+000
1.182229e+003, 9.141860e+000
1.182711e+003, 8.336403e+000
1.183193e+003, 7.431231e+000
1.183675e+003, 7.549310e+000
1.184157e+003, 8.147016e+000
1.184639e+003, 7.885053e+000
1.185122e+003, 6.662817e+000
1.185604e+003, 6.248885e+000
1.186086e+003, 7.810615e+000
1.186568e+003, 8.960967e+000
1.187050e+003, 9.237888e+000
1.187532e+003, 9.111177e+000
1.188014e+003, 8.417725e+000
1.188496e+003, 7.717283e+000
1.188979e+003, 7.430280e+000
1.189461e+003, 7.561717e+000
1.189943e+003, 8.269098e+000
1.190425e+003, 9.829617e+000
1.190907e+003, 1.023941e+001
1.191389e+003, 8.933410e+000
1.191871e+003, 8.066953e+000
1.192353e+003, 8.043948e+000
1.192835e+003, 8.362024e+000
1.193318e+003, 8.902430e+000
1.193800e+003, 9.262159e+000
1.194282e+003, 8.873881e+000
1.194764e+003, 7.980341e+000
1.195246e+003, 7.526960e+000
1.195728e+003, 7.502318e+000
1.196210e+003, 7.716245e+000
1.196692e+003, 8.138490e+000
1.197174e+003, 8.372088e+000
1.197657e+003, 8.321540e+000
1.198139e+003, 8.138287e+000
1.198621e+003, 7.906742e+000
1.199103e+003, 7.721138e+000
1.199585e+003, 7.734961e+000
1.200067e+003, 7.861387e+000
1.200549e+003, 7.972857e+000
1.201031e+003, 8.041158e+000
1.201514e+003, 7.979115e+000
1.201996e+003, 7.819174e+000
1.202478e+003, 7.603666e+000
1.202960e+003, 7.391155e+000
1.203442e+003, 7.485203e+000
1.203924e+003, 8.217765e+000
1.204406e+003, 8.831811e+000
1.204888e+003, 8.553332e+000
1.205370e+003, 8.133497e+000
1.205853e+003, 8.329152e+000
1.206335e+003, 8.647887e+000
1.206817e+003, 8.272977e+000
1.207299e+003, 7.517403e+000
1.207781e+003, 7.429346e+000
1.208263e+003, 8.263617e+000
1.208745e+003, 8.850824e+000
1.209227e+003, 8.778678e+000
1.209709e+003, 8.630874e+000
1.210192e+003, 8.376077e+000
1.210674e+003, 8.254896e+000
1.211156e+003, 8.460886e+000
1.211638e+003, 8.800410e+000
1.212120e+003, 9.194966e+000
1.212602e+003, 9.540559e+000
1.213084e+003, 9.379263e+000
1.213566e+003, 8.523149e+000
1.214049e+003, 8.131841e+000
1.214531e+003, 8.318180e+000
1.215013e+003, 8.537374e+000
1.215495e+003, 8.705289e+000
1.215977e+003, 8.802867e+000
1.216459e+003, 8.805948e+000
1.216941e+003, 8.811090e+000
1.217423e+003, 8.954176e+000
1.217906e+003, 9.163329e+000
1.218388e+003, 9.214061e+000
1.218870e+003, 9.127306e+000
1.219352e+003, 8.972424e+000
1.219834e+003, 8.777785e+000
1.220316e+003, 8.729326e+000
1.220798e+003, 8.812086e+000
1.221280e+003, 8.541243e+000
1.221762e+003, 7.627007e+000
1.222245e+003, 6.989774e+000
1.222727e+003, 8.074578e+000
1.223209e+003, 9.398864e+000
1.223691e+003, 9.074381e+000
1.224173e+003, 8.102919e+000
1.224655e+003, 7.680570e+000
1.225137e+003, 7.723899e+000
1.225619e+003, 7.865798e+000
1.226101e+003, 8.016420e+000
1.226584e+003, 8.178705e+000
1.227066e+003, 8.366369e+000
1.227548e+003, 8.524364e+000
1.228030e+003, 8.693166e+000
1.228512e+003, 8.749709e+000
1.228994e+003, 8.689976e+000
1.229476e+003, 8.450575e+000
1.229958e+003, 7.778280e+000
1.230441e+003, 6.995417e+000
1.230923e+003, 6.680565e+000
1.231405e+003, 6.820468e+000
1.231887e+003, 6.976695e+000
1.232369e+003, 7.097793e+000
1.232851e+003, 7.427741e+000
1.233333e+003, 8.085364e+000
1.233815e+003, 8.577301e+000
1.234297e+003, 8.761871e+000
1.234780e+003, 8.685102e+000
1.235262e+003, 8.335371e+000
1.235744e+003, 7.931778e+000
1.236226e+003, 7.863879e+000
1.236708e+003, 8.057432e+000
1.237190e+003, 8.279802e+000
1.237672e+003, 8.478662e+000
1.238154e+003, 8.388746e+000
1.238636e+003, 8.030901e+000
1.239119e+003, 7.529953e+000
1.239601e+003, 6.990797e+000
1.240083e+003, 6.846699e+000
1.240565e+003, 7.457838e+000
1.241047e+003, 8.101393e+000
1.241529e+003, 8.004926e+000
1.242011e+003, 7.687222e+000
1.242493e+003, 7.625201e+000
1.242975e+003, 7.671402e+000
1.243458e+003, 7.589335e+000
1.243940e+003, 7.463006e+000
1.244422e+003, 7.505449e+000
1.244904e+003, 7.748650e+000
1.245386e+003, 8.099379e+000
1.245868e+003, 8.816982e+000
1.246350e+003, 9.113680e+000
1.246832e+003, 8.596051e+000
1.247315e+003, 7.982766e+000
1.247797e+003, 7.190351e+000
1.248279e+003, 6.797962e+000
1.248761e+003, 7.473337e+000
1.249243e+003, 8.556258e+000
1.249725e+003, 8.820748e+000
1.250207e+003, 8.320412e+000
1.250689e+003, 8.035935e+000
1.251172e+003, 8.002916e+000
1.251654e+003, 7.719859e+000
1.252136e+003, 7.128801e+000
1.252618e+003, 6.892237e+000
1.253100e+003, 7.207284e+000
1.253582e+003, 7.658120e+000
1.254064e+003, 7.972030e+000
1.254546e+003, 8.120703e+000
1.255028e+003, 7.945658e+000
1.255510e+003, 7.663254e+000
1.255993e+003, 7.670573e+000
1.256475e+003, 7.879483e+000
1.256957e+003, 8.234908e+000
1.257439e+003, 8.612766e+000
1.257921e+003, 8.756870e+000
1.258403e+003, 8.641345e+000
1.258885e+003, 8.466114e+000
1.259367e+003, 8.296439e+000
1.259850e+003, 8.151086e+000
1.260332e+003, 8.099968e+000
1.260814e+003, 7.994874e+000
1.261296e+003, 7.596236e+000
1.261778e+003, 7.288208e+000
1.262260e+003, 7.471957e+000
1.262742e+003, 7.878551e+000
1.263224e+003, 8.065228e+000
1.263707e+003, 8.057198e+000
1.264189e+003, 8.081299e+000
1.264671e+003, 8.147105e+000
1.265153e+003, 8.227174e+000
1.265635e+003, 8.350763e+000
1.266117e+003, 8.326173e+000
1.266599e+003, 8.080184e+000
1.267081e+003, 7.900721e+000
1.267563e+003, 7.953664e+000
1.268046e+003, 8.096879e+000
1.268528e+003, 8.165978e+000
1.269010e+003, 8.194316e+000
1.269492e+003, 8.265489e+000
1.269974e+003, 8.355884e+000
1.270456e+003, 8.438204e+000
1.270938e+003, 8.478175e+000
1.271420e+003, 8.387216e+000
1.271902e+003, 8.170127e+000
1.272385e+003, 7.863906e+000
1.272867e+003, 7.482543e+000
1.273349e+003, 7.247218e+000
1.273831e+003, 7.207518e+000
1.274313e+003, 7.458815e+000
1.274795e+003, 8.483250e+000
1.275277e+003, 9.323071e+000
1.275759e+003, 9.164320e+000
1.276242e+003, 8.618529e+000
1.276724e+003, 8.301015e+000
1.277206e+003, 8.226923e+000
1.277688e+003, 8.369879e+000
1.278170e+003, 8.783456e+000
1.278652e+003, 8.903002e+000
1.279134e+003, 8.672782e+000
1.279616e+003, 8.303356e+000
1.280099e+003, 7.746459e+000
1.280581e+003, 7.451523e+000
1.281063e+003, 7.601068e+000
1.281545e+003, 7.867397e+000
1.282027e+003, 7.989727e+000
1.282509e+003, 8.090289e+000
1.282991e+003, 8.533861e+000
1.283473e+003, 9.027111e+000
1.283955e+003, 8.941733e+000
##END=



