##NAMES=Piypite
##RRUFFID=R130048
##IDEAL CHEMISTRY=K_4_Cu^2+^_4_O_2_(S^6+^O_4_)_4_&#183;(Na,Cu^1+^)Cl
##LOCALITY=Second scoria cone, Northern Breakthrough (North Breach), Great Fissure (Main Fracture) eruption, Tolbachik volcano, Kamchatka Oblast', Far-Eastern Region, Russia
##OWNER=RRUFF
##SOURCE=Don Doell
##DESCRIPTION=Sprays of bright green acicular crystals
##STATUS=The identification of this mineral has been confirmed by single-crystal X-ray diffraction.
##URL=rruff.info/R130048
8.936163e+001, 0.000000e+000
8.984375e+001, 1.518566e+002
9.032587e+001, 1.528289e+002
9.080798e+001, 1.530639e+002
9.129010e+001, 1.524269e+002
9.177222e+001, 1.512036e+002
9.225433e+001, 1.495972e+002
9.273645e+001, 1.476284e+002
9.321857e+001, 1.455798e+002
9.370068e+001, 1.437433e+002
9.418280e+001, 1.420411e+002
9.466492e+001, 1.402190e+002
9.514703e+001, 1.379016e+002
9.562915e+001, 1.354643e+002
9.611127e+001, 1.341259e+002
9.659338e+001, 1.340661e+002
9.707550e+001, 1.342469e+002
9.755762e+001, 1.333195e+002
9.803973e+001, 1.312578e+002
9.852185e+001, 1.291724e+002
9.900397e+001, 1.274158e+002
9.948608e+001, 1.259826e+002
9.996820e+001, 1.250277e+002
1.004503e+002, 1.247743e+002
1.009324e+002, 1.247281e+002
1.014146e+002, 1.237537e+002
1.018967e+002, 1.215506e+002
1.023788e+002, 1.192535e+002
1.028609e+002, 1.173930e+002
1.033430e+002, 1.160196e+002
1.038251e+002, 1.150084e+002
1.043073e+002, 1.145326e+002
1.047894e+002, 1.144462e+002
1.052715e+002, 1.139756e+002
1.057536e+002, 1.129256e+002
1.062357e+002, 1.117025e+002
1.067178e+002, 1.105724e+002
1.072000e+002, 1.096474e+002
1.076821e+002, 1.086680e+002
1.081642e+002, 1.076273e+002
1.086463e+002, 1.065305e+002
1.091284e+002, 1.053010e+002
1.096105e+002, 1.037519e+002
1.100927e+002, 1.021483e+002
1.105748e+002, 1.007532e+002
1.110569e+002, 9.962406e+001
1.115390e+002, 9.865260e+001
1.120211e+002, 9.786507e+001
1.125032e+002, 9.732150e+001
1.129854e+002, 9.673534e+001
1.134675e+002, 9.609830e+001
1.139496e+002, 9.539408e+001
1.144317e+002, 9.458846e+001
1.149138e+002, 9.348073e+001
1.153959e+002, 9.241917e+001
1.158781e+002, 9.162313e+001
1.163602e+002, 9.134354e+001
1.168423e+002, 9.084837e+001
1.173244e+002, 8.962818e+001
1.178065e+002, 8.796103e+001
1.182886e+002, 8.655446e+001
1.187708e+002, 8.599807e+001
1.192529e+002, 8.567146e+001
1.197350e+002, 8.507469e+001
1.202171e+002, 8.380794e+001
1.206992e+002, 8.256341e+001
1.211813e+002, 8.192155e+001
1.216635e+002, 8.177005e+001
1.221456e+002, 8.150579e+001
1.226277e+002, 8.056145e+001
1.231098e+002, 7.932368e+001
1.235919e+002, 7.830772e+001
1.240740e+002, 7.795219e+001
1.245562e+002, 7.774196e+001
1.250383e+002, 7.708765e+001
1.255204e+002, 7.598975e+001
1.260025e+002, 7.483934e+001
1.264846e+002, 7.388999e+001
1.269667e+002, 7.314034e+001
1.274489e+002, 7.258705e+001
1.279310e+002, 7.240532e+001
1.284131e+002, 7.239061e+001
1.288952e+002, 7.215305e+001
1.293773e+002, 7.167250e+001
1.298594e+002, 7.100729e+001
1.303416e+002, 7.013160e+001
1.308237e+002, 6.908263e+001
1.313058e+002, 6.807256e+001
1.317879e+002, 6.710428e+001
1.322700e+002, 6.623377e+001
1.327521e+002, 6.582233e+001
1.332343e+002, 6.603600e+001
1.337164e+002, 6.647218e+001
1.341985e+002, 6.630570e+001
1.346806e+002, 6.549129e+001
1.351627e+002, 6.467012e+001
1.356448e+002, 6.439261e+001
1.361270e+002, 6.467057e+001
1.366091e+002, 6.454081e+001
1.370912e+002, 6.372837e+001
1.375733e+002, 6.250713e+001
1.380554e+002, 6.183758e+001
1.385375e+002, 6.189672e+001
1.390197e+002, 6.198735e+001
1.395018e+002, 6.146752e+001
1.399839e+002, 6.014441e+001
1.404660e+002, 5.908739e+001
1.409481e+002, 5.854200e+001
1.414302e+002, 5.846692e+001
1.419124e+002, 5.826191e+001
1.423945e+002, 5.784666e+001
1.428766e+002, 5.741364e+001
1.433587e+002, 5.720481e+001
1.438408e+002, 5.745829e+001
1.443229e+002, 5.744596e+001
1.448051e+002, 5.695136e+001
1.452872e+002, 5.588776e+001
1.457693e+002, 5.492688e+001
1.462514e+002, 5.398582e+001
1.467335e+002, 5.318501e+001
1.472156e+002, 5.268466e+001
1.476978e+002, 5.277730e+001
1.481799e+002, 5.281539e+001
1.486620e+002, 5.260430e+001
1.491441e+002, 5.199763e+001
1.496262e+002, 5.154589e+001
1.501083e+002, 5.142892e+001
1.505905e+002, 5.144429e+001
1.510726e+002, 5.123368e+001
1.515547e+002, 5.040521e+001
1.520368e+002, 4.969175e+001
1.525189e+002, 4.933493e+001
1.530010e+002, 4.961896e+001
1.534832e+002, 4.977919e+001
1.539653e+002, 4.974207e+001
1.544474e+002, 4.954723e+001
1.549295e+002, 4.928987e+001
1.554116e+002, 4.906140e+001
1.558937e+002, 4.871544e+001
1.563759e+002, 4.816747e+001
1.568580e+002, 4.710339e+001
1.573401e+002, 4.624495e+001
1.578222e+002, 4.575792e+001
1.583043e+002, 4.559296e+001
1.587864e+002, 4.556801e+001
1.592686e+002, 4.570030e+001
1.597507e+002, 4.591848e+001
1.602328e+002, 4.618197e+001
1.607149e+002, 4.689441e+001
1.611970e+002, 4.723476e+001
1.616791e+002, 4.665425e+001
1.621613e+002, 4.531578e+001
1.626434e+002, 4.424094e+001
1.631255e+002, 4.402348e+001
1.636076e+002, 4.418561e+001
1.640897e+002, 4.430171e+001
1.645718e+002, 4.419716e+001
1.650540e+002, 4.404597e+001
1.655361e+002, 4.385727e+001
1.660182e+002, 4.364118e+001
1.665003e+002, 4.361068e+001
1.669824e+002, 4.409694e+001
1.674645e+002, 4.477838e+001
1.679467e+002, 4.525184e+001
1.684288e+002, 4.505509e+001
1.689109e+002, 4.481251e+001
1.693930e+002, 4.499375e+001
1.698751e+002, 4.562830e+001
1.703572e+002, 4.638659e+001
1.708394e+002, 4.690318e+001
1.713215e+002, 4.740989e+001
1.718036e+002, 4.828582e+001
1.722857e+002, 4.984447e+001
1.727678e+002, 5.178080e+001
1.732499e+002, 5.375372e+001
1.737321e+002, 5.573183e+001
1.742142e+002, 5.796104e+001
1.746963e+002, 6.066713e+001
1.751784e+002, 6.382026e+001
1.756605e+002, 6.736553e+001
1.761426e+002, 7.103872e+001
1.766248e+002, 7.513305e+001
1.771069e+002, 8.010759e+001
1.775890e+002, 8.610652e+001
1.780711e+002, 9.265196e+001
1.785532e+002, 9.939699e+001
1.790353e+002, 1.063545e+002
1.795175e+002, 1.133048e+002
1.799996e+002, 1.201405e+002
1.804817e+002, 1.269172e+002
1.809638e+002, 1.339157e+002
1.814459e+002, 1.412411e+002
1.819280e+002, 1.486403e+002
1.824102e+002, 1.559971e+002
1.828923e+002, 1.631867e+002
1.833744e+002, 1.703059e+002
1.838565e+002, 1.772276e+002
1.843386e+002, 1.840728e+002
1.848207e+002, 1.909495e+002
1.853029e+002, 1.979272e+002
1.857850e+002, 2.049673e+002
1.862671e+002, 2.120444e+002
1.867492e+002, 2.191476e+002
1.872313e+002, 2.266431e+002
1.877134e+002, 2.348052e+002
1.881956e+002, 2.436323e+002
1.886777e+002, 2.526885e+002
1.891598e+002, 2.619437e+002
1.896419e+002, 2.714973e+002
1.901240e+002, 2.816335e+002
1.906061e+002, 2.924969e+002
1.910883e+002, 3.037122e+002
1.915704e+002, 3.148817e+002
1.920525e+002, 3.261916e+002
1.925346e+002, 3.386137e+002
1.930167e+002, 3.526405e+002
1.934988e+002, 3.674110e+002
1.939810e+002, 3.795723e+002
1.944631e+002, 3.885970e+002
1.949452e+002, 3.970750e+002
1.954273e+002, 4.053942e+002
1.959094e+002, 4.135593e+002
1.963915e+002, 4.222067e+002
1.968737e+002, 4.317468e+002
1.973558e+002, 4.417067e+002
1.978379e+002, 4.508950e+002
1.983200e+002, 4.594731e+002
1.988021e+002, 4.665958e+002
1.992842e+002, 4.713690e+002
1.997664e+002, 4.738338e+002
2.002485e+002, 4.749434e+002
2.007306e+002, 4.748589e+002
2.012127e+002, 4.736451e+002
2.016948e+002, 4.716682e+002
2.021769e+002, 4.691323e+002
2.026591e+002, 4.653448e+002
2.031412e+002, 4.595806e+002
2.036233e+002, 4.517160e+002
2.041054e+002, 4.428677e+002
2.045875e+002, 4.330644e+002
2.050696e+002, 4.224163e+002
2.055518e+002, 4.119120e+002
2.060339e+002, 4.015347e+002
2.065160e+002, 3.912883e+002
2.069981e+002, 3.812066e+002
2.074802e+002, 3.714517e+002
2.079623e+002, 3.614667e+002
2.084445e+002, 3.509666e+002
2.089266e+002, 3.399428e+002
2.094087e+002, 3.295316e+002
2.098908e+002, 3.196349e+002
2.103729e+002, 3.103419e+002
2.108550e+002, 3.017814e+002
2.113372e+002, 2.941369e+002
2.118193e+002, 2.868097e+002
2.123014e+002, 2.795673e+002
2.127835e+002, 2.724627e+002
2.132656e+002, 2.660420e+002
2.137477e+002, 2.604572e+002
2.142299e+002, 2.552971e+002
2.147120e+002, 2.500410e+002
2.151941e+002, 2.443196e+002
2.156762e+002, 2.394136e+002
2.161583e+002, 2.358746e+002
2.166404e+002, 2.338410e+002
2.171226e+002, 2.309346e+002
2.176047e+002, 2.267264e+002
2.180868e+002, 2.221542e+002
2.185689e+002, 2.183158e+002
2.190510e+002, 2.154315e+002
2.195331e+002, 2.127097e+002
2.200153e+002, 2.098475e+002
2.204974e+002, 2.067751e+002
2.209795e+002, 2.042918e+002
2.214616e+002, 2.026643e+002
2.219437e+002, 2.013247e+002
2.224258e+002, 1.994548e+002
2.229080e+002, 1.966766e+002
2.233901e+002, 1.942236e+002
2.238722e+002, 1.926063e+002
2.243543e+002, 1.919595e+002
2.248364e+002, 1.907606e+002
2.253185e+002, 1.887327e+002
2.258007e+002, 1.864225e+002
2.262828e+002, 1.845017e+002
2.267649e+002, 1.831517e+002
2.272470e+002, 1.818406e+002
2.277291e+002, 1.804276e+002
2.282112e+002, 1.788515e+002
2.286934e+002, 1.775114e+002
2.291755e+002, 1.766416e+002
2.296576e+002, 1.758008e+002
2.301397e+002, 1.743427e+002
2.306218e+002, 1.716821e+002
2.311039e+002, 1.694607e+002
2.315861e+002, 1.682670e+002
2.320682e+002, 1.682956e+002
2.325503e+002, 1.678634e+002
2.330324e+002, 1.667693e+002
2.335145e+002, 1.653999e+002
2.339966e+002, 1.642013e+002
2.344788e+002, 1.631674e+002
2.349609e+002, 1.623416e+002
2.354430e+002, 1.617957e+002
2.359251e+002, 1.615915e+002
2.364072e+002, 1.612305e+002
2.368893e+002, 1.606492e+002
2.373715e+002, 1.599614e+002
2.378536e+002, 1.592817e+002
2.383357e+002, 1.584783e+002
2.388178e+002, 1.578983e+002
2.392999e+002, 1.576875e+002
2.397820e+002, 1.579113e+002
2.402642e+002, 1.580124e+002
2.407463e+002, 1.580248e+002
2.412284e+002, 1.578804e+002
2.417105e+002, 1.574751e+002
2.421926e+002, 1.566870e+002
2.426747e+002, 1.558447e+002
2.431569e+002, 1.549259e+002
2.436390e+002, 1.538521e+002
2.441211e+002, 1.533922e+002
2.446032e+002, 1.539538e+002
2.450853e+002, 1.547609e+002
2.455674e+002, 1.548679e+002
2.460496e+002, 1.538513e+002
2.465317e+002, 1.529226e+002
2.470138e+002, 1.523838e+002
2.474959e+002, 1.522778e+002
2.479780e+002, 1.520767e+002
2.484601e+002, 1.517659e+002
2.489423e+002, 1.513810e+002
2.494244e+002, 1.509485e+002
2.499065e+002, 1.504224e+002
2.503886e+002, 1.499507e+002
2.508707e+002, 1.495925e+002
2.513528e+002, 1.493610e+002
2.518350e+002, 1.490085e+002
2.523171e+002, 1.483857e+002
2.527992e+002, 1.478071e+002
2.532813e+002, 1.476389e+002
2.537634e+002, 1.481081e+002
2.542455e+002, 1.484948e+002
2.547277e+002, 1.486617e+002
2.552098e+002, 1.486049e+002
2.556919e+002, 1.484210e+002
2.561740e+002, 1.480721e+002
2.566561e+002, 1.476387e+002
2.571382e+002, 1.471416e+002
2.576204e+002, 1.463976e+002
2.581025e+002, 1.460452e+002
2.585846e+002, 1.463718e+002
2.590667e+002, 1.473277e+002
2.595488e+002, 1.477465e+002
2.600309e+002, 1.473353e+002
2.605131e+002, 1.468059e+002
2.609952e+002, 1.469087e+002
2.614773e+002, 1.480757e+002
2.619594e+002, 1.486463e+002
2.624415e+002, 1.481721e+002
2.629236e+002, 1.467738e+002
2.634058e+002, 1.457095e+002
2.638879e+002, 1.449938e+002
2.643700e+002, 1.445704e+002
2.648521e+002, 1.444594e+002
2.653342e+002, 1.448101e+002
2.658163e+002, 1.449475e+002
2.662985e+002, 1.446467e+002
2.667806e+002, 1.440380e+002
2.672627e+002, 1.439176e+002
2.677448e+002, 1.444450e+002
2.682269e+002, 1.451255e+002
2.687090e+002, 1.456481e+002
2.691912e+002, 1.460416e+002
2.696733e+002, 1.461410e+002
2.701554e+002, 1.458338e+002
2.706375e+002, 1.452370e+002
2.711196e+002, 1.448034e+002
2.716017e+002, 1.445162e+002
2.720839e+002, 1.444335e+002
2.725660e+002, 1.447389e+002
2.730481e+002, 1.455620e+002
2.735302e+002, 1.458571e+002
2.740123e+002, 1.452840e+002
2.744944e+002, 1.442774e+002
2.749766e+002, 1.442269e+002
2.754587e+002, 1.453608e+002
2.759408e+002, 1.465633e+002
2.764229e+002, 1.471548e+002
2.769050e+002, 1.471080e+002
2.773871e+002, 1.468064e+002
2.778693e+002, 1.461307e+002
2.783514e+002, 1.453830e+002
2.788335e+002, 1.453410e+002
2.793156e+002, 1.461197e+002
2.797977e+002, 1.469233e+002
2.802798e+002, 1.473155e+002
2.807620e+002, 1.472915e+002
2.812441e+002, 1.471688e+002
2.817262e+002, 1.469019e+002
2.822083e+002, 1.466474e+002
2.826904e+002, 1.467474e+002
2.831725e+002, 1.472270e+002
2.836547e+002, 1.476852e+002
2.841368e+002, 1.478350e+002
2.846189e+002, 1.477196e+002
2.851010e+002, 1.479595e+002
2.855831e+002, 1.486705e+002
2.860652e+002, 1.494479e+002
2.865474e+002, 1.495747e+002
2.870295e+002, 1.490670e+002
2.875116e+002, 1.487125e+002
2.879937e+002, 1.490090e+002
2.884758e+002, 1.498130e+002
2.889579e+002, 1.502516e+002
2.894401e+002, 1.502990e+002
2.899222e+002, 1.501566e+002
2.904043e+002, 1.499146e+002
2.908864e+002, 1.496180e+002
2.913685e+002, 1.496409e+002
2.918506e+002, 1.503356e+002
2.923328e+002, 1.514325e+002
2.928149e+002, 1.520668e+002
2.932970e+002, 1.522135e+002
2.937791e+002, 1.522533e+002
2.942612e+002, 1.525759e+002
2.947433e+002, 1.531242e+002
2.952255e+002, 1.536573e+002
2.957076e+002, 1.539789e+002
2.961897e+002, 1.542988e+002
2.966718e+002, 1.551211e+002
2.971539e+002, 1.564293e+002
2.976360e+002, 1.577635e+002
2.981182e+002, 1.587699e+002
2.986003e+002, 1.594944e+002
2.990824e+002, 1.600516e+002
2.995645e+002, 1.603620e+002
3.000466e+002, 1.606413e+002
3.005287e+002, 1.612554e+002
3.010109e+002, 1.621597e+002
3.014930e+002, 1.630647e+002
3.019751e+002, 1.636290e+002
3.024572e+002, 1.640727e+002
3.029393e+002, 1.647591e+002
3.034214e+002, 1.658038e+002
3.039036e+002, 1.670631e+002
3.043857e+002, 1.685170e+002
3.048678e+002, 1.700930e+002
3.053499e+002, 1.715548e+002
3.058320e+002, 1.725787e+002
3.063141e+002, 1.734660e+002
3.067963e+002, 1.745453e+002
3.072784e+002, 1.758812e+002
3.077605e+002, 1.774192e+002
3.082426e+002, 1.792445e+002
3.087247e+002, 1.812496e+002
3.092068e+002, 1.831781e+002
3.096890e+002, 1.847343e+002
3.101711e+002, 1.862490e+002
3.106532e+002, 1.879529e+002
3.111353e+002, 1.898494e+002
3.116174e+002, 1.920067e+002
3.120995e+002, 1.947785e+002
3.125817e+002, 1.977674e+002
3.130638e+002, 2.003726e+002
3.135459e+002, 2.020303e+002
3.140280e+002, 2.034917e+002
3.145101e+002, 2.052026e+002
3.149922e+002, 2.071953e+002
3.154744e+002, 2.092980e+002
3.159565e+002, 2.114746e+002
3.164386e+002, 2.137000e+002
3.169207e+002, 2.159165e+002
3.174028e+002, 2.182677e+002
3.178849e+002, 2.204920e+002
3.183671e+002, 2.224107e+002
3.188492e+002, 2.240569e+002
3.193313e+002, 2.257464e+002
3.198134e+002, 2.275488e+002
3.202955e+002, 2.294667e+002
3.207776e+002, 2.314792e+002
3.212598e+002, 2.342870e+002
3.217419e+002, 2.364576e+002
3.222240e+002, 2.373788e+002
3.227061e+002, 2.372609e+002
3.231882e+002, 2.372180e+002
3.236703e+002, 2.377879e+002
3.241525e+002, 2.382623e+002
3.246346e+002, 2.382501e+002
3.251167e+002, 2.375483e+002
3.255988e+002, 2.365854e+002
3.260809e+002, 2.353427e+002
3.265630e+002, 2.338623e+002
3.270452e+002, 2.322506e+002
3.275273e+002, 2.307873e+002
3.280094e+002, 2.289790e+002
3.284915e+002, 2.266042e+002
3.289736e+002, 2.234267e+002
3.294557e+002, 2.202713e+002
3.299379e+002, 2.171828e+002
3.304200e+002, 2.140880e+002
3.309021e+002, 2.109019e+002
3.313842e+002, 2.073948e+002
3.318663e+002, 2.040686e+002
3.323484e+002, 2.011206e+002
3.328306e+002, 1.987104e+002
3.333127e+002, 1.959503e+002
3.337948e+002, 1.926583e+002
3.342769e+002, 1.891640e+002
3.347590e+002, 1.858496e+002
3.352411e+002, 1.826813e+002
3.357233e+002, 1.797144e+002
3.362054e+002, 1.770033e+002
3.366875e+002, 1.745210e+002
3.371696e+002, 1.721982e+002
3.376517e+002, 1.700891e+002
3.381339e+002, 1.680498e+002
3.386160e+002, 1.659962e+002
3.390981e+002, 1.639102e+002
3.395802e+002, 1.618453e+002
3.400623e+002, 1.598318e+002
3.405444e+002, 1.578331e+002
3.410266e+002, 1.558147e+002
3.415087e+002, 1.537178e+002
3.419908e+002, 1.517368e+002
3.424729e+002, 1.499236e+002
3.429550e+002, 1.482917e+002
3.434371e+002, 1.470050e+002
3.439193e+002, 1.461798e+002
3.444014e+002, 1.455302e+002
3.448835e+002, 1.445211e+002
3.453656e+002, 1.431559e+002
3.458477e+002, 1.418200e+002
3.463298e+002, 1.407586e+002
3.468120e+002, 1.398954e+002
3.472941e+002, 1.388920e+002
3.477762e+002, 1.376957e+002
3.482583e+002, 1.365638e+002
3.487404e+002, 1.358800e+002
3.492225e+002, 1.355510e+002
3.497047e+002, 1.351759e+002
3.501868e+002, 1.345610e+002
3.506689e+002, 1.338248e+002
3.511510e+002, 1.331609e+002
3.516331e+002, 1.325704e+002
3.521152e+002, 1.320020e+002
3.525974e+002, 1.314207e+002
3.530795e+002, 1.308290e+002
3.535616e+002, 1.302257e+002
3.540437e+002, 1.295746e+002
3.545258e+002, 1.289592e+002
3.550079e+002, 1.285120e+002
3.554901e+002, 1.281932e+002
3.559722e+002, 1.278155e+002
3.564543e+002, 1.271929e+002
3.569364e+002, 1.264885e+002
3.574185e+002, 1.258220e+002
3.579006e+002, 1.251492e+002
3.583828e+002, 1.247040e+002
3.588649e+002, 1.249133e+002
3.593470e+002, 1.254477e+002
3.598291e+002, 1.256415e+002
3.603112e+002, 1.248379e+002
3.607933e+002, 1.238811e+002
3.612755e+002, 1.232255e+002
3.617576e+002, 1.229221e+002
3.622397e+002, 1.228581e+002
3.627218e+002, 1.233295e+002
3.632039e+002, 1.238961e+002
3.636860e+002, 1.240675e+002
3.641682e+002, 1.234419e+002
3.646503e+002, 1.226637e+002
3.651324e+002, 1.218056e+002
3.656145e+002, 1.208820e+002
3.660966e+002, 1.202849e+002
3.665787e+002, 1.202806e+002
3.670609e+002, 1.204969e+002
3.675430e+002, 1.206957e+002
3.680251e+002, 1.208091e+002
3.685072e+002, 1.209646e+002
3.689893e+002, 1.213121e+002
3.694714e+002, 1.217305e+002
3.699536e+002, 1.217919e+002
3.704357e+002, 1.211932e+002
3.709178e+002, 1.205563e+002
3.713999e+002, 1.201342e+002
3.718820e+002, 1.200103e+002
3.723641e+002, 1.198759e+002
3.728463e+002, 1.197076e+002
3.733284e+002, 1.195448e+002
3.738105e+002, 1.194715e+002
3.742926e+002, 1.195752e+002
3.747747e+002, 1.195612e+002
3.752568e+002, 1.192859e+002
3.757390e+002, 1.187428e+002
3.762211e+002, 1.184041e+002
3.767032e+002, 1.182822e+002
3.771853e+002, 1.183291e+002
3.776674e+002, 1.185896e+002
3.781495e+002, 1.191150e+002
3.786317e+002, 1.193723e+002
3.791138e+002, 1.191852e+002
3.795959e+002, 1.187112e+002
3.800780e+002, 1.184473e+002
3.805601e+002, 1.184134e+002
3.810422e+002, 1.183932e+002
3.815244e+002, 1.181727e+002
3.820065e+002, 1.178116e+002
3.824886e+002, 1.176787e+002
3.829707e+002, 1.178572e+002
3.834528e+002, 1.181384e+002
3.839349e+002, 1.182546e+002
3.844171e+002, 1.182189e+002
3.848992e+002, 1.181049e+002
3.853813e+002, 1.178412e+002
3.858634e+002, 1.175553e+002
3.863455e+002, 1.174579e+002
3.868276e+002, 1.175578e+002
3.873098e+002, 1.177974e+002
3.877919e+002, 1.183444e+002
3.882740e+002, 1.189698e+002
3.887561e+002, 1.192557e+002
3.892382e+002, 1.188702e+002
3.897203e+002, 1.182844e+002
3.902025e+002, 1.178184e+002
3.906846e+002, 1.174717e+002
3.911667e+002, 1.172355e+002
3.916488e+002, 1.171379e+002
3.921309e+002, 1.171339e+002
3.926130e+002, 1.172047e+002
3.930952e+002, 1.174001e+002
3.935773e+002, 1.175476e+002
3.940594e+002, 1.175452e+002
3.945415e+002, 1.174474e+002
3.950236e+002, 1.173543e+002
3.955057e+002, 1.172573e+002
3.959879e+002, 1.172076e+002
3.964700e+002, 1.172361e+002
3.969521e+002, 1.173557e+002
3.974342e+002, 1.174895e+002
3.979163e+002, 1.176200e+002
3.983984e+002, 1.177632e+002
3.988806e+002, 1.179336e+002
3.993627e+002, 1.182806e+002
3.998448e+002, 1.184817e+002
4.003269e+002, 1.184191e+002
4.008090e+002, 1.181394e+002
4.012911e+002, 1.180147e+002
4.017733e+002, 1.182325e+002
4.022554e+002, 1.183820e+002
4.027375e+002, 1.181819e+002
4.032196e+002, 1.172903e+002
4.037017e+002, 1.169508e+002
4.041838e+002, 1.174053e+002
4.046660e+002, 1.182455e+002
4.051481e+002, 1.186674e+002
4.056302e+002, 1.185716e+002
4.061123e+002, 1.184298e+002
4.065944e+002, 1.183544e+002
4.070765e+002, 1.183534e+002
4.075587e+002, 1.186910e+002
4.080408e+002, 1.194787e+002
4.085229e+002, 1.201861e+002
4.090050e+002, 1.200642e+002
4.094871e+002, 1.191900e+002
4.099692e+002, 1.187177e+002
4.104514e+002, 1.190171e+002
4.109335e+002, 1.197215e+002
4.114156e+002, 1.201108e+002
4.118977e+002, 1.201985e+002
4.123798e+002, 1.201885e+002
4.128619e+002, 1.201311e+002
4.133441e+002, 1.200863e+002
4.138262e+002, 1.202369e+002
4.143083e+002, 1.206605e+002
4.147904e+002, 1.210006e+002
4.152725e+002, 1.207406e+002
4.157546e+002, 1.201472e+002
4.162368e+002, 1.197669e+002
4.167189e+002, 1.202345e+002
4.172010e+002, 1.207405e+002
4.176831e+002, 1.205229e+002
4.181652e+002, 1.196177e+002
4.186473e+002, 1.187791e+002
4.191295e+002, 1.184416e+002
4.196116e+002, 1.183476e+002
4.200937e+002, 1.182711e+002
4.205758e+002, 1.180847e+002
4.210579e+002, 1.180115e+002
4.215400e+002, 1.183075e+002
4.220222e+002, 1.187759e+002
4.225043e+002, 1.189394e+002
4.229864e+002, 1.182044e+002
4.234685e+002, 1.175682e+002
4.239506e+002, 1.174563e+002
4.244327e+002, 1.180773e+002
4.249149e+002, 1.186134e+002
4.253970e+002, 1.190714e+002
4.258791e+002, 1.194120e+002
4.263612e+002, 1.195908e+002
4.268433e+002, 1.195147e+002
4.273254e+002, 1.194054e+002
4.278076e+002, 1.191855e+002
4.282897e+002, 1.189202e+002
4.287718e+002, 1.191475e+002
4.292539e+002, 1.200590e+002
4.297360e+002, 1.210600e+002
4.302181e+002, 1.217846e+002
4.307003e+002, 1.221936e+002
4.311824e+002, 1.225284e+002
4.316645e+002, 1.227075e+002
4.321466e+002, 1.229699e+002
4.326287e+002, 1.238723e+002
4.331108e+002, 1.254243e+002
4.335930e+002, 1.267643e+002
4.340751e+002, 1.273951e+002
4.345572e+002, 1.275860e+002
4.350393e+002, 1.283421e+002
4.355214e+002, 1.296774e+002
4.360035e+002, 1.309637e+002
4.364857e+002, 1.315259e+002
4.369678e+002, 1.316002e+002
4.374499e+002, 1.317558e+002
4.379320e+002, 1.321008e+002
4.384141e+002, 1.326006e+002
4.388962e+002, 1.335484e+002
4.393784e+002, 1.346776e+002
4.398605e+002, 1.352074e+002
4.403426e+002, 1.344546e+002
4.408247e+002, 1.330870e+002
4.413068e+002, 1.316384e+002
4.417889e+002, 1.301782e+002
4.422711e+002, 1.284801e+002
4.427532e+002, 1.260682e+002
4.432353e+002, 1.235093e+002
4.437174e+002, 1.213923e+002
4.441995e+002, 1.201716e+002
4.446816e+002, 1.191088e+002
4.451638e+002, 1.179905e+002
4.456459e+002, 1.168547e+002
4.461280e+002, 1.158374e+002
4.466101e+002, 1.151555e+002
4.470922e+002, 1.144346e+002
4.475743e+002, 1.134459e+002
4.480565e+002, 1.119049e+002
4.485386e+002, 1.108434e+002
4.490207e+002, 1.105096e+002
4.495028e+002, 1.105060e+002
4.499849e+002, 1.103063e+002
4.504670e+002, 1.097403e+002
4.509492e+002, 1.093785e+002
4.514313e+002, 1.094632e+002
4.519134e+002, 1.098913e+002
4.523955e+002, 1.098436e+002
4.528776e+002, 1.092135e+002
4.533597e+002, 1.084900e+002
4.538419e+002, 1.080417e+002
4.543240e+002, 1.078634e+002
4.548061e+002, 1.075093e+002
4.552882e+002, 1.068715e+002
4.557703e+002, 1.062425e+002
4.562524e+002, 1.062207e+002
4.567346e+002, 1.067008e+002
4.572167e+002, 1.069831e+002
4.576988e+002, 1.065656e+002
4.581809e+002, 1.058555e+002
4.586630e+002, 1.055829e+002
4.591451e+002, 1.057270e+002
4.596273e+002, 1.059330e+002
4.601094e+002, 1.060752e+002
4.605915e+002, 1.060667e+002
4.610736e+002, 1.057240e+002
4.615557e+002, 1.047865e+002
4.620378e+002, 1.039934e+002
4.625200e+002, 1.039596e+002
4.630021e+002, 1.044030e+002
4.634842e+002, 1.047760e+002
4.639663e+002, 1.048894e+002
4.644484e+002, 1.048675e+002
4.649305e+002, 1.046956e+002
4.654127e+002, 1.043620e+002
4.658948e+002, 1.041726e+002
4.663769e+002, 1.043338e+002
4.668590e+002, 1.045781e+002
4.673411e+002, 1.047127e+002
4.678232e+002, 1.046746e+002
4.683054e+002, 1.045909e+002
4.687875e+002, 1.043868e+002
4.692696e+002, 1.041534e+002
4.697517e+002, 1.041535e+002
4.702338e+002, 1.045838e+002
4.707159e+002, 1.048733e+002
4.711981e+002, 1.047412e+002
4.716802e+002, 1.041597e+002
4.721623e+002, 1.038816e+002
4.726444e+002, 1.039476e+002
4.731265e+002, 1.042095e+002
4.736086e+002, 1.046043e+002
4.740908e+002, 1.051269e+002
4.745729e+002, 1.054725e+002
4.750550e+002, 1.055458e+002
4.755371e+002, 1.054765e+002
4.760192e+002, 1.055099e+002
4.765013e+002, 1.056307e+002
4.769835e+002, 1.057236e+002
4.774656e+002, 1.057551e+002
4.779477e+002, 1.057076e+002
4.784298e+002, 1.055042e+002
4.789119e+002, 1.051366e+002
4.793940e+002, 1.048049e+002
4.798762e+002, 1.045550e+002
4.803583e+002, 1.044722e+002
4.808404e+002, 1.046968e+002
4.813225e+002, 1.055968e+002
4.818046e+002, 1.063689e+002
4.822867e+002, 1.063765e+002
4.827689e+002, 1.059229e+002
4.832510e+002, 1.057858e+002
4.837331e+002, 1.065814e+002
4.842152e+002, 1.074444e+002
4.846973e+002, 1.080022e+002
4.851794e+002, 1.081945e+002
4.856616e+002, 1.082854e+002
4.861437e+002, 1.081539e+002
4.866258e+002, 1.080167e+002
4.871079e+002, 1.080461e+002
4.875900e+002, 1.083554e+002
4.880721e+002, 1.086311e+002
4.885543e+002, 1.088381e+002
4.890364e+002, 1.089935e+002
4.895185e+002, 1.091516e+002
4.900006e+002, 1.093218e+002
4.904827e+002, 1.094528e+002
4.909648e+002, 1.095129e+002
4.914470e+002, 1.095044e+002
4.919291e+002, 1.094706e+002
4.924112e+002, 1.093997e+002
4.928933e+002, 1.093614e+002
4.933754e+002, 1.095149e+002
4.938575e+002, 1.097898e+002
4.943397e+002, 1.098372e+002
4.948218e+002, 1.095063e+002
4.953039e+002, 1.090620e+002
4.957860e+002, 1.089482e+002
4.962681e+002, 1.090536e+002
4.967502e+002, 1.089958e+002
4.972324e+002, 1.083318e+002
4.977145e+002, 1.075584e+002
4.981966e+002, 1.072131e+002
4.986787e+002, 1.073217e+002
4.991608e+002, 1.073462e+002
4.996429e+002, 1.068583e+002
5.001251e+002, 1.062311e+002
5.006072e+002, 1.057858e+002
5.010893e+002, 1.057223e+002
5.015714e+002, 1.056734e+002
5.020535e+002, 1.055574e+002
5.025356e+002, 1.053991e+002
5.030178e+002, 1.052560e+002
5.034999e+002, 1.050765e+002
5.039820e+002, 1.049762e+002
5.044641e+002, 1.050461e+002
5.049462e+002, 1.053030e+002
5.054283e+002, 1.053261e+002
5.059105e+002, 1.050489e+002
5.063926e+002, 1.046438e+002
5.068747e+002, 1.041996e+002
5.073568e+002, 1.036929e+002
5.078389e+002, 1.033197e+002
5.083210e+002, 1.031054e+002
5.088032e+002, 1.030313e+002
5.092853e+002, 1.031599e+002
5.097674e+002, 1.034706e+002
5.102495e+002, 1.036231e+002
5.107316e+002, 1.033716e+002
5.112137e+002, 1.029127e+002
5.116959e+002, 1.026522e+002
5.121780e+002, 1.025842e+002
5.126601e+002, 1.026169e+002
5.131422e+002, 1.027495e+002
5.136243e+002, 1.029165e+002
5.141064e+002, 1.030696e+002
5.145886e+002, 1.032461e+002
5.150707e+002, 1.032415e+002
5.155528e+002, 1.027519e+002
5.160349e+002, 1.020482e+002
5.165170e+002, 1.015143e+002
5.169991e+002, 1.013199e+002
5.174813e+002, 1.012687e+002
5.179634e+002, 1.013826e+002
5.184455e+002, 1.016296e+002
5.189276e+002, 1.017606e+002
5.194097e+002, 1.015591e+002
5.198918e+002, 1.014035e+002
5.203740e+002, 1.015047e+002
5.208561e+002, 1.020712e+002
5.213382e+002, 1.021715e+002
5.218203e+002, 1.015711e+002
5.223024e+002, 1.007722e+002
5.227845e+002, 1.003874e+002
5.232667e+002, 1.005056e+002
5.237488e+002, 1.004992e+002
5.242309e+002, 1.001491e+002
5.247130e+002, 9.968703e+001
5.251951e+002, 9.983004e+001
5.256772e+002, 1.005634e+002
5.261594e+002, 1.011551e+002
5.266415e+002, 1.010519e+002
5.271236e+002, 1.005414e+002
5.276057e+002, 1.002766e+002
5.280878e+002, 1.002829e+002
5.285699e+002, 1.003341e+002
5.290521e+002, 1.002133e+002
5.295342e+002, 1.000374e+002
5.300163e+002, 9.997964e+001
5.304984e+002, 1.001836e+002
5.309805e+002, 1.003339e+002
5.314626e+002, 1.001810e+002
5.319448e+002, 9.985705e+001
5.324269e+002, 9.961880e+001
5.329090e+002, 9.957581e+001
5.333911e+002, 9.959146e+001
5.338732e+002, 9.965203e+001
5.343553e+002, 9.975746e+001
5.348375e+002, 9.977759e+001
5.353196e+002, 9.965231e+001
5.358017e+002, 9.949502e+001
5.362838e+002, 9.934493e+001
5.367659e+002, 9.913182e+001
5.372480e+002, 9.913990e+001
5.377302e+002, 9.945007e+001
5.382123e+002, 9.987138e+001
5.386944e+002, 1.001317e+002
5.391765e+002, 1.002283e+002
5.396586e+002, 1.002409e+002
5.401407e+002, 1.002066e+002
5.406229e+002, 1.000921e+002
5.411050e+002, 9.968546e+001
5.415871e+002, 9.903432e+001
5.420692e+002, 9.860435e+001
5.425513e+002, 9.902296e+001
5.430334e+002, 9.972058e+001
5.435156e+002, 9.968669e+001
5.439977e+002, 9.882543e+001
5.444798e+002, 9.806534e+001
5.449619e+002, 9.817874e+001
5.454440e+002, 9.870016e+001
5.459261e+002, 9.912641e+001
5.464083e+002, 9.931142e+001
5.468904e+002, 9.939759e+001
5.473725e+002, 9.934129e+001
5.478546e+002, 9.921999e+001
5.483367e+002, 9.919990e+001
5.488188e+002, 9.938250e+001
5.493010e+002, 9.958594e+001
5.497831e+002, 9.979585e+001
5.502652e+002, 1.000099e+002
5.507473e+002, 1.001122e+002
5.512294e+002, 1.001237e+002
5.517115e+002, 9.998765e+001
5.521937e+002, 9.958669e+001
5.526758e+002, 9.886653e+001
5.531579e+002, 9.843736e+001
5.536400e+002, 9.836898e+001
5.541221e+002, 9.847620e+001
5.546042e+002, 9.853232e+001
5.550864e+002, 9.854782e+001
5.555685e+002, 9.858603e+001
5.560506e+002, 9.867376e+001
5.565327e+002, 9.878185e+001
5.570148e+002, 9.891859e+001
5.574969e+002, 9.905266e+001
5.579791e+002, 9.906839e+001
5.584612e+002, 9.873972e+001
5.589433e+002, 9.837285e+001
5.594254e+002, 9.824404e+001
5.599075e+002, 9.837370e+001
5.603896e+002, 9.851347e+001
5.608718e+002, 9.861686e+001
5.613539e+002, 9.865686e+001
5.618360e+002, 9.860640e+001
5.623181e+002, 9.832842e+001
5.628002e+002, 9.816881e+001
5.632823e+002, 9.826244e+001
5.637645e+002, 9.843567e+001
5.642466e+002, 9.840968e+001
5.647287e+002, 9.808780e+001
5.652108e+002, 9.778746e+001
5.656929e+002, 9.757031e+001
5.661750e+002, 9.743282e+001
5.666572e+002, 9.732126e+001
5.671393e+002, 9.721815e+001
5.676214e+002, 9.727085e+001
5.681035e+002, 9.774279e+001
5.685856e+002, 9.846185e+001
5.690677e+002, 9.874143e+001
5.695499e+002, 9.853885e+001
5.700320e+002, 9.816126e+001
5.705141e+002, 9.774406e+001
5.709962e+002, 9.738118e+001
5.714783e+002, 9.726688e+001
5.719604e+002, 9.759568e+001
5.724426e+002, 9.787077e+001
5.729247e+002, 9.757961e+001
5.734068e+002, 9.704285e+001
5.738889e+002, 9.682841e+001
5.743710e+002, 9.770155e+001
5.748531e+002, 9.834901e+001
5.753353e+002, 9.813193e+001
5.758174e+002, 9.712521e+001
5.762995e+002, 9.654433e+001
5.767816e+002, 9.668838e+001
5.772637e+002, 9.694896e+001
5.777458e+002, 9.709432e+001
5.782280e+002, 9.713177e+001
5.787101e+002, 9.696676e+001
5.791922e+002, 9.651478e+001
5.796743e+002, 9.604539e+001
5.801564e+002, 9.586287e+001
5.806385e+002, 9.595313e+001
5.811207e+002, 9.605337e+001
5.816028e+002, 9.610226e+001
5.820849e+002, 9.617722e+001
5.825670e+002, 9.643302e+001
5.830491e+002, 9.681848e+001
5.835313e+002, 9.718185e+001
5.840134e+002, 9.759872e+001
5.844955e+002, 9.785049e+001
5.849776e+002, 9.755017e+001
5.854597e+002, 9.681898e+001
5.859418e+002, 9.633681e+001
5.864240e+002, 9.672459e+001
5.869061e+002, 9.722429e+001
5.873882e+002, 9.736388e+001
5.878703e+002, 9.697678e+001
5.883524e+002, 9.667741e+001
5.888345e+002, 9.662835e+001
5.893167e+002, 9.663536e+001
5.897988e+002, 9.651437e+001
5.902809e+002, 9.604969e+001
5.907630e+002, 9.598582e+001
5.912451e+002, 9.651247e+001
5.917272e+002, 9.732504e+001
5.922094e+002, 9.784517e+001
5.926915e+002, 9.805247e+001
5.931736e+002, 9.822951e+001
5.936557e+002, 9.847488e+001
5.941378e+002, 9.875005e+001
5.946199e+002, 9.896727e+001
5.951021e+002, 9.912773e+001
5.955842e+002, 9.925394e+001
5.960663e+002, 9.921366e+001
5.965484e+002, 9.922365e+001
5.970305e+002, 9.964856e+001
5.975126e+002, 1.005350e+002
5.979948e+002, 1.012670e+002
5.984769e+002, 1.013465e+002
5.989590e+002, 1.011989e+002
5.994411e+002, 1.011775e+002
5.999232e+002, 1.013006e+002
6.004053e+002, 1.016344e+002
6.008875e+002, 1.023643e+002
6.013696e+002, 1.032489e+002
6.018517e+002, 1.039448e+002
6.023338e+002, 1.043394e+002
6.028159e+002, 1.047376e+002
6.032980e+002, 1.051107e+002
6.037802e+002, 1.055540e+002
6.042623e+002, 1.065190e+002
6.047444e+002, 1.080545e+002
6.052265e+002, 1.096172e+002
6.057086e+002, 1.109282e+002
6.061907e+002, 1.120399e+002
6.066729e+002, 1.130744e+002
6.071550e+002, 1.140306e+002
6.076371e+002, 1.151646e+002
6.081192e+002, 1.168380e+002
6.086013e+002, 1.187370e+002
6.090834e+002, 1.204276e+002
6.095656e+002, 1.218367e+002
6.100477e+002, 1.231160e+002
6.105298e+002, 1.244580e+002
6.110119e+002, 1.256723e+002
6.114940e+002, 1.265602e+002
6.119761e+002, 1.267330e+002
6.124583e+002, 1.269760e+002
6.129404e+002, 1.275686e+002
6.134225e+002, 1.282894e+002
6.139046e+002, 1.287027e+002
6.143867e+002, 1.289493e+002
6.148688e+002, 1.285609e+002
6.153510e+002, 1.272386e+002
6.158331e+002, 1.251423e+002
6.163152e+002, 1.231723e+002
6.167973e+002, 1.213150e+002
6.172794e+002, 1.197482e+002
6.177615e+002, 1.188055e+002
6.182437e+002, 1.182508e+002
6.187258e+002, 1.173739e+002
6.192079e+002, 1.161201e+002
6.196900e+002, 1.147905e+002
6.201721e+002, 1.136336e+002
6.206542e+002, 1.125494e+002
6.211364e+002, 1.114093e+002
6.216185e+002, 1.101276e+002
6.221006e+002, 1.088823e+002
6.225827e+002, 1.077985e+002
6.230648e+002, 1.067751e+002
6.235469e+002, 1.056702e+002
6.240291e+002, 1.042893e+002
6.245112e+002, 1.030399e+002
6.249933e+002, 1.020072e+002
6.254754e+002, 1.011439e+002
6.259575e+002, 1.002807e+002
6.264396e+002, 9.934441e+001
6.269218e+002, 9.860935e+001
6.274039e+002, 9.818882e+001
6.278860e+002, 9.805993e+001
6.283681e+002, 9.821353e+001
6.288502e+002, 9.866737e+001
6.293323e+002, 9.892777e+001
6.298145e+002, 9.842798e+001
6.302966e+002, 9.752380e+001
6.307787e+002, 9.685531e+001
6.312608e+002, 9.648228e+001
6.317429e+002, 9.634234e+001
6.322250e+002, 9.648968e+001
6.327072e+002, 9.679866e+001
6.331893e+002, 9.715144e+001
6.336714e+002, 9.761857e+001
6.341535e+002, 9.794918e+001
6.346356e+002, 9.805302e+001
6.351177e+002, 9.798351e+001
6.355999e+002, 9.782168e+001
6.360820e+002, 9.744372e+001
6.365641e+002, 9.718349e+001
6.370462e+002, 9.711726e+001
6.375283e+002, 9.720020e+001
6.380104e+002, 9.724905e+001
6.384926e+002, 9.723341e+001
6.389747e+002, 9.739014e+001
6.394568e+002, 9.794103e+001
6.399389e+002, 9.873232e+001
6.404210e+002, 9.922006e+001
6.409031e+002, 9.942117e+001
6.413853e+002, 9.953749e+001
6.418674e+002, 9.953695e+001
6.423495e+002, 9.962617e+001
6.428316e+002, 1.001149e+002
6.433137e+002, 1.010764e+002
6.437958e+002, 1.020498e+002
6.442780e+002, 1.027714e+002
6.447601e+002, 1.034292e+002
6.452422e+002, 1.041813e+002
6.457243e+002, 1.050913e+002
6.462064e+002, 1.060433e+002
6.466885e+002, 1.070768e+002
6.471707e+002, 1.081177e+002
6.476528e+002, 1.090676e+002
6.481349e+002, 1.099637e+002
6.486170e+002, 1.106743e+002
6.490991e+002, 1.111994e+002
6.495812e+002, 1.115075e+002
6.500634e+002, 1.115549e+002
6.505455e+002, 1.113407e+002
6.510276e+002, 1.108488e+002
6.515097e+002, 1.099545e+002
6.519918e+002, 1.088438e+002
6.524739e+002, 1.077279e+002
6.529561e+002, 1.066384e+002
6.534382e+002, 1.056565e+002
6.539203e+002, 1.050771e+002
6.544024e+002, 1.044549e+002
6.548845e+002, 1.034039e+002
6.553666e+002, 1.018489e+002
6.558488e+002, 1.004033e+002
6.563309e+002, 9.902434e+001
6.568130e+002, 9.794408e+001
6.572951e+002, 9.735527e+001
6.577772e+002, 9.758129e+001
6.582593e+002, 9.738503e+001
6.587415e+002, 9.658587e+001
6.592236e+002, 9.565617e+001
6.597057e+002, 9.510579e+001
6.601878e+002, 9.493204e+001
6.606699e+002, 9.507436e+001
6.611520e+002, 9.565335e+001
6.616342e+002, 9.620361e+001
6.621163e+002, 9.591312e+001
6.625984e+002, 9.505260e+001
6.630805e+002, 9.433503e+001
6.635626e+002, 9.408212e+001
6.640447e+002, 9.403694e+001
6.645269e+002, 9.412460e+001
6.650090e+002, 9.428581e+001
6.654911e+002, 9.435018e+001
6.659732e+002, 9.411882e+001
6.664553e+002, 9.392635e+001
6.669374e+002, 9.398411e+001
6.674196e+002, 9.426181e+001
6.679017e+002, 9.421449e+001
6.683838e+002, 9.359551e+001
6.688659e+002, 9.311991e+001
6.693480e+002, 9.328112e+001
6.698301e+002, 9.406490e+001
6.703123e+002, 9.428978e+001
6.707944e+002, 9.390011e+001
6.712765e+002, 9.337586e+001
6.717586e+002, 9.296763e+001
6.722407e+002, 9.276248e+001
6.727228e+002, 9.311545e+001
6.732050e+002, 9.419225e+001
6.736871e+002, 9.505761e+001
6.741692e+002, 9.476271e+001
6.746513e+002, 9.397250e+001
6.751334e+002, 9.346121e+001
6.756155e+002, 9.350602e+001
6.760977e+002, 9.371034e+001
6.765798e+002, 9.419082e+001
6.770619e+002, 9.470980e+001
6.775440e+002, 9.488876e+001
6.780261e+002, 9.452317e+001
6.785082e+002, 9.424373e+001
6.789904e+002, 9.414339e+001
6.794725e+002, 9.420689e+001
6.799546e+002, 9.447289e+001
6.804367e+002, 9.494138e+001
6.809188e+002, 9.527781e+001
6.814009e+002, 9.531413e+001
6.818831e+002, 9.514474e+001
6.823652e+002, 9.488097e+001
6.828473e+002, 9.454439e+001
6.833294e+002, 9.425221e+001
6.838115e+002, 9.395174e+001
6.842936e+002, 9.381187e+001
6.847758e+002, 9.403230e+001
6.852579e+002, 9.461841e+001
6.857400e+002, 9.512729e+001
6.862221e+002, 9.542796e+001
6.867042e+002, 9.562657e+001
6.871863e+002, 9.577938e+001
6.876685e+002, 9.588465e+001
6.881506e+002, 9.594002e+001
6.886327e+002, 9.593305e+001
6.891148e+002, 9.590048e+001
6.895969e+002, 9.582366e+001
6.900790e+002, 9.571516e+001
6.905612e+002, 9.582764e+001
6.910433e+002, 9.621659e+001
6.915254e+002, 9.666391e+001
6.920075e+002, 9.694328e+001
6.924896e+002, 9.708809e+001
6.929717e+002, 9.713129e+001
6.934539e+002, 9.697698e+001
6.939360e+002, 9.693353e+001
6.944181e+002, 9.727102e+001
6.949002e+002, 9.781160e+001
6.953823e+002, 9.828102e+001
6.958644e+002, 9.849112e+001
6.963466e+002, 9.878443e+001
6.968287e+002, 9.924950e+001
6.973108e+002, 9.982201e+001
6.977929e+002, 1.003250e+002
6.982750e+002, 1.007542e+002
6.987571e+002, 1.011356e+002
6.992393e+002, 1.014507e+002
6.997214e+002, 1.017437e+002
7.002035e+002, 1.021070e+002
7.006856e+002, 1.025489e+002
7.011677e+002, 1.031349e+002
7.016498e+002, 1.041981e+002
7.021320e+002, 1.052434e+002
7.026141e+002, 1.054747e+002
7.030962e+002, 1.050018e+002
7.035783e+002, 1.048945e+002
7.040604e+002, 1.060173e+002
7.045425e+002, 1.073458e+002
7.050247e+002, 1.083224e+002
7.055068e+002, 1.088673e+002
7.059889e+002, 1.092161e+002
7.064710e+002, 1.092454e+002
7.069531e+002, 1.092393e+002
7.074352e+002, 1.093365e+002
7.079174e+002, 1.095222e+002
7.083995e+002, 1.100390e+002
7.088816e+002, 1.109606e+002
7.093637e+002, 1.118807e+002
7.098458e+002, 1.123877e+002
7.103279e+002, 1.125622e+002
7.108101e+002, 1.125966e+002
7.112922e+002, 1.125079e+002
7.117743e+002, 1.123600e+002
7.122564e+002, 1.121985e+002
7.127385e+002, 1.120082e+002
7.132206e+002, 1.117684e+002
7.137028e+002, 1.114398e+002
7.141849e+002, 1.111134e+002
7.146670e+002, 1.109077e+002
7.151491e+002, 1.106748e+002
7.156312e+002, 1.101708e+002
7.161133e+002, 1.092559e+002
7.165955e+002, 1.084849e+002
7.170776e+002, 1.080120e+002
7.175597e+002, 1.076670e+002
7.180418e+002, 1.071231e+002
7.185239e+002, 1.063816e+002
7.190060e+002, 1.054900e+002
7.194882e+002, 1.043017e+002
7.199703e+002, 1.031521e+002
7.204524e+002, 1.025339e+002
7.209345e+002, 1.023065e+002
7.214166e+002, 1.020370e+002
7.218987e+002, 1.016297e+002
7.223809e+002, 1.010344e+002
7.228630e+002, 1.001181e+002
7.233451e+002, 9.893804e+001
7.238272e+002, 9.794661e+001
7.243093e+002, 9.708138e+001
7.247914e+002, 9.654855e+001
7.252736e+002, 9.657483e+001
7.257557e+002, 9.708504e+001
7.262378e+002, 9.705698e+001
7.267199e+002, 9.643278e+001
7.272020e+002, 9.576610e+001
7.276841e+002, 9.546985e+001
7.281663e+002, 9.538147e+001
7.286484e+002, 9.513047e+001
7.291305e+002, 9.471091e+001
7.296126e+002, 9.430705e+001
7.300947e+002, 9.412062e+001
7.305768e+002, 9.394925e+001
7.310590e+002, 9.354524e+001
7.315411e+002, 9.276768e+001
7.320232e+002, 9.234870e+001
7.325053e+002, 9.282094e+001
7.329874e+002, 9.336337e+001
7.334695e+002, 9.345545e+001
7.339517e+002, 9.291996e+001
7.344338e+002, 9.255800e+001
7.349159e+002, 9.240535e+001
7.353980e+002, 9.231651e+001
7.358801e+002, 9.209737e+001
7.363622e+002, 9.180039e+001
7.368444e+002, 9.164815e+001
7.373265e+002, 9.168288e+001
7.378086e+002, 9.183128e+001
7.382907e+002, 9.218214e+001
7.387728e+002, 9.254698e+001
7.392549e+002, 9.266512e+001
7.397371e+002, 9.233537e+001
7.402192e+002, 9.198448e+001
7.407013e+002, 9.164973e+001
7.411834e+002, 9.139640e+001
7.416655e+002, 9.132310e+001
7.421476e+002, 9.157520e+001
7.426298e+002, 9.165147e+001
7.431119e+002, 9.145582e+001
7.435940e+002, 9.110393e+001
7.440761e+002, 9.072527e+001
7.445582e+002, 9.034221e+001
7.450403e+002, 9.018372e+001
7.455225e+002, 9.038641e+001
7.460046e+002, 9.072317e+001
7.464867e+002, 9.097102e+001
7.469688e+002, 9.113451e+001
7.474509e+002, 9.122160e+001
7.479330e+002, 9.123583e+001
7.484152e+002, 9.117356e+001
7.488973e+002, 9.099548e+001
7.493794e+002, 9.073545e+001
7.498615e+002, 9.050674e+001
7.503436e+002, 9.028696e+001
7.508257e+002, 9.015403e+001
7.513079e+002, 9.018818e+001
7.517900e+002, 9.030325e+001
7.522721e+002, 9.009473e+001
7.527542e+002, 8.956304e+001
7.532363e+002, 8.922182e+001
7.537184e+002, 8.944482e+001
7.542006e+002, 8.993211e+001
7.546827e+002, 9.030251e+001
7.551648e+002, 9.054308e+001
7.556469e+002, 9.058280e+001
7.561290e+002, 9.015639e+001
7.566111e+002, 8.972966e+001
7.570933e+002, 8.955798e+001
7.575754e+002, 8.964452e+001
7.580575e+002, 8.975558e+001
7.585396e+002, 8.990827e+001
7.590217e+002, 9.003432e+001
7.595038e+002, 9.011439e+001
7.599860e+002, 9.014623e+001
7.604681e+002, 9.006486e+001
7.609502e+002, 8.985160e+001
7.614323e+002, 8.975082e+001
7.619144e+002, 9.015681e+001
7.623965e+002, 9.070036e+001
7.628787e+002, 9.058264e+001
7.633608e+002, 8.984068e+001
7.638429e+002, 8.916534e+001
7.643250e+002, 8.890730e+001
7.648071e+002, 8.891312e+001
7.652892e+002, 8.917968e+001
7.657714e+002, 8.976881e+001
7.662535e+002, 9.006997e+001
7.667356e+002, 8.988119e+001
7.672177e+002, 8.962838e+001
7.676998e+002, 8.956181e+001
7.681819e+002, 8.969820e+001
7.686641e+002, 8.972950e+001
7.691462e+002, 8.965189e+001
7.696283e+002, 8.949972e+001
7.701104e+002, 8.924268e+001
7.705925e+002, 8.894776e+001
7.710746e+002, 8.870068e+001
7.715568e+002, 8.850476e+001
7.720389e+002, 8.850944e+001
7.725210e+002, 8.906236e+001
7.730031e+002, 8.968101e+001
7.734852e+002, 8.996809e+001
7.739673e+002, 8.974404e+001
7.744495e+002, 8.960066e+001
7.749316e+002, 8.969352e+001
7.754137e+002, 8.971001e+001
7.758958e+002, 8.928374e+001
7.763779e+002, 8.833717e+001
7.768600e+002, 8.805156e+001
7.773422e+002, 8.854221e+001
7.778243e+002, 8.921565e+001
7.783064e+002, 8.955356e+001
7.787885e+002, 8.962977e+001
7.792706e+002, 8.953173e+001
7.797527e+002, 8.923965e+001
7.802349e+002, 8.900524e+001
7.807170e+002, 8.906335e+001
7.811991e+002, 8.920000e+001
7.816812e+002, 8.922083e+001
7.821633e+002, 8.899657e+001
7.826454e+002, 8.886623e+001
7.831276e+002, 8.891841e+001
7.836097e+002, 8.895876e+001
7.840918e+002, 8.873780e+001
7.845739e+002, 8.824876e+001
7.850560e+002, 8.794986e+001
7.855381e+002, 8.790235e+001
7.860203e+002, 8.796617e+001
7.865024e+002, 8.799580e+001
7.869845e+002, 8.802782e+001
7.874666e+002, 8.814183e+001
7.879487e+002, 8.839079e+001
7.884308e+002, 8.860686e+001
7.889130e+002, 8.867874e+001
7.893951e+002, 8.869422e+001
7.898772e+002, 8.874525e+001
7.903593e+002, 8.886678e+001
7.908414e+002, 8.897034e+001
7.913235e+002, 8.904934e+001
7.918057e+002, 8.911521e+001
7.922878e+002, 8.916615e+001
7.927699e+002, 8.920552e+001
7.932520e+002, 8.932552e+001
7.937341e+002, 8.957637e+001
7.942162e+002, 8.973740e+001
7.946984e+002, 8.943696e+001
7.951805e+002, 8.892809e+001
7.956626e+002, 8.862534e+001
7.961447e+002, 8.871310e+001
7.966268e+002, 8.881103e+001
7.971089e+002, 8.877784e+001
7.975911e+002, 8.868932e+001
7.980732e+002, 8.863447e+001
7.985553e+002, 8.864608e+001
7.990374e+002, 8.859649e+001
7.995195e+002, 8.841843e+001
8.000016e+002, 8.829351e+001
8.004838e+002, 8.857343e+001
8.009659e+002, 8.915944e+001
8.014480e+002, 8.946274e+001
8.019301e+002, 8.933841e+001
8.024122e+002, 8.907043e+001
8.028943e+002, 8.882585e+001
8.033765e+002, 8.864715e+001
8.038586e+002, 8.859946e+001
8.043407e+002, 8.881443e+001
8.048228e+002, 8.894930e+001
8.053049e+002, 8.889060e+001
8.057870e+002, 8.874154e+001
8.062692e+002, 8.856857e+001
8.067513e+002, 8.831429e+001
8.072334e+002, 8.827942e+001
8.077155e+002, 8.852380e+001
8.081976e+002, 8.889249e+001
8.086797e+002, 8.929237e+001
8.091619e+002, 8.965306e+001
8.096440e+002, 8.972273e+001
8.101261e+002, 8.937318e+001
8.106082e+002, 8.901652e+001
8.110903e+002, 8.902676e+001
8.115724e+002, 8.916467e+001
8.120546e+002, 8.916324e+001
8.125367e+002, 8.879585e+001
8.130188e+002, 8.858257e+001
8.135009e+002, 8.859605e+001
8.139830e+002, 8.872280e+001
8.144651e+002, 8.883134e+001
8.149473e+002, 8.891672e+001
8.154294e+002, 8.916377e+001
8.159115e+002, 8.965001e+001
8.163936e+002, 9.003269e+001
8.168757e+002, 8.976688e+001
8.173578e+002, 8.916240e+001
8.178400e+002, 8.876717e+001
8.183221e+002, 8.874529e+001
8.188042e+002, 8.876685e+001
8.192863e+002, 8.856900e+001
8.197684e+002, 8.839615e+001
8.202505e+002, 8.850813e+001
8.207327e+002, 8.909514e+001
8.212148e+002, 8.954635e+001
8.216969e+002, 8.986292e+001
8.221790e+002, 9.003623e+001
8.226611e+002, 9.002486e+001
8.231432e+002, 8.984745e+001
8.236254e+002, 8.955843e+001
8.241075e+002, 8.913033e+001
8.245896e+002, 8.887617e+001
8.250717e+002, 8.927488e+001
8.255538e+002, 8.991224e+001
8.260359e+002, 9.031528e+001
8.265181e+002, 9.035798e+001
8.270002e+002, 9.031844e+001
8.274823e+002, 9.027829e+001
8.279644e+002, 9.016362e+001
8.284465e+002, 8.987395e+001
8.289286e+002, 8.931959e+001
8.294108e+002, 8.910059e+001
8.298929e+002, 8.928370e+001
8.303750e+002, 8.952812e+001
8.308571e+002, 8.952197e+001
8.313392e+002, 8.934306e+001
8.318214e+002, 8.911368e+001
8.323035e+002, 8.884377e+001
8.327856e+002, 8.866709e+001
8.332677e+002, 8.861736e+001
8.337498e+002, 8.873071e+001
8.342319e+002, 8.913997e+001
8.347141e+002, 9.004877e+001
8.351962e+002, 9.032859e+001
8.356783e+002, 8.960973e+001
8.361604e+002, 8.888145e+001
8.366425e+002, 8.889281e+001
8.371246e+002, 8.957740e+001
8.376068e+002, 8.989842e+001
8.380889e+002, 8.984817e+001
8.385710e+002, 8.974549e+001
8.390531e+002, 8.990282e+001
8.395352e+002, 9.009617e+001
8.400173e+002, 9.002269e+001
8.404995e+002, 8.967009e+001
8.409816e+002, 8.944011e+001
8.414637e+002, 8.970152e+001
8.419458e+002, 8.987926e+001
8.424279e+002, 8.965137e+001
8.429100e+002, 8.902952e+001
8.433922e+002, 8.870240e+001
8.438743e+002, 8.869749e+001
8.443564e+002, 8.883245e+001
8.448385e+002, 8.904568e+001
8.453206e+002, 8.930729e+001
8.458027e+002, 8.958112e+001
8.462849e+002, 8.985168e+001
8.467670e+002, 9.002576e+001
8.472491e+002, 8.996275e+001
8.477312e+002, 8.987063e+001
8.482133e+002, 8.992835e+001
8.486954e+002, 9.010197e+001
8.491776e+002, 9.003005e+001
8.496597e+002, 8.953425e+001
8.501418e+002, 8.914661e+001
8.506239e+002, 8.907961e+001
8.511060e+002, 8.923506e+001
8.515881e+002, 8.924368e+001
8.520703e+002, 8.913636e+001
8.525524e+002, 8.917094e+001
8.530345e+002, 8.954854e+001
8.535166e+002, 9.005508e+001
8.539987e+002, 9.067102e+001
8.544808e+002, 9.126236e+001
8.549630e+002, 9.149051e+001
8.554451e+002, 9.072336e+001
8.559272e+002, 9.023387e+001
8.564093e+002, 9.038571e+001
8.568914e+002, 9.091056e+001
8.573735e+002, 9.119865e+001
8.578557e+002, 9.122918e+001
8.583378e+002, 9.128712e+001
8.588199e+002, 9.148531e+001
8.593020e+002, 9.167130e+001
8.597841e+002, 9.163745e+001
8.602662e+002, 9.141778e+001
8.607484e+002, 9.105673e+001
8.612305e+002, 9.024098e+001
8.617126e+002, 8.978336e+001
8.621947e+002, 9.039824e+001
8.626768e+002, 9.138037e+001
8.631589e+002, 9.169785e+001
8.636411e+002, 9.104815e+001
8.641232e+002, 9.059689e+001
8.646053e+002, 9.045866e+001
8.650874e+002, 9.051848e+001
8.655695e+002, 9.071449e+001
8.660516e+002, 9.098546e+001
8.665338e+002, 9.114114e+001
8.670159e+002, 9.114230e+001
8.674980e+002, 9.105180e+001
8.679801e+002, 9.076628e+001
8.684622e+002, 9.049619e+001
8.689443e+002, 9.046303e+001
8.694265e+002, 9.085445e+001
8.699086e+002, 9.111118e+001
8.703907e+002, 9.118955e+001
8.708728e+002, 9.119884e+001
8.713549e+002, 9.125087e+001
8.718370e+002, 9.133089e+001
8.723192e+002, 9.122068e+001
8.728013e+002, 9.090664e+001
8.732834e+002, 9.061234e+001
8.737655e+002, 9.054237e+001
8.742476e+002, 9.056802e+001
8.747297e+002, 9.054688e+001
8.752119e+002, 9.046218e+001
8.756940e+002, 9.045780e+001
8.761761e+002, 9.068734e+001
8.766582e+002, 9.088139e+001
8.771403e+002, 9.097001e+001
8.776224e+002, 9.094374e+001
8.781046e+002, 9.057175e+001
8.785867e+002, 8.983311e+001
8.790688e+002, 8.923768e+001
8.795509e+002, 8.914998e+001
8.800330e+002, 8.936562e+001
8.805151e+002, 8.968166e+001
8.809973e+002, 9.006595e+001
8.814794e+002, 9.039826e+001
8.819615e+002, 9.075138e+001
8.824436e+002, 9.091109e+001
8.829257e+002, 9.072659e+001
8.834078e+002, 9.029996e+001
8.838900e+002, 8.985947e+001
8.843721e+002, 8.938216e+001
8.848542e+002, 8.901955e+001
8.853363e+002, 8.884304e+001
8.858184e+002, 8.875634e+001
8.863005e+002, 8.857235e+001
8.867827e+002, 8.834072e+001
8.872648e+002, 8.819119e+001
8.877469e+002, 8.817546e+001
8.882290e+002, 8.824183e+001
8.887111e+002, 8.850282e+001
8.891932e+002, 8.877706e+001
8.896754e+002, 8.877876e+001
8.901575e+002, 8.832537e+001
8.906396e+002, 8.810812e+001
8.911217e+002, 8.826028e+001
8.916038e+002, 8.847316e+001
8.920859e+002, 8.829037e+001
8.925681e+002, 8.785262e+001
8.930502e+002, 8.760535e+001
8.935323e+002, 8.764031e+001
8.940144e+002, 8.773156e+001
8.944965e+002, 8.778865e+001
8.949786e+002, 8.779075e+001
8.954608e+002, 8.771646e+001
8.959429e+002, 8.755333e+001
8.964250e+002, 8.731175e+001
8.969071e+002, 8.687251e+001
8.973892e+002, 8.659692e+001
8.978713e+002, 8.692738e+001
8.983535e+002, 8.769273e+001
8.988356e+002, 8.773476e+001
8.993177e+002, 8.709829e+001
8.997998e+002, 8.655294e+001
9.002819e+002, 8.672975e+001
9.007640e+002, 8.710149e+001
9.012462e+002, 8.727354e+001
9.017283e+002, 8.724902e+001
9.022104e+002, 8.728663e+001
9.026925e+002, 8.748627e+001
9.031746e+002, 8.762832e+001
9.036567e+002, 8.764307e+001
9.041389e+002, 8.755922e+001
9.046210e+002, 8.741734e+001
9.051031e+002, 8.723608e+001
9.055852e+002, 8.718504e+001
9.060673e+002, 8.743301e+001
9.065494e+002, 8.770070e+001
9.070316e+002, 8.767227e+001
9.075137e+002, 8.749698e+001
9.079958e+002, 8.743848e+001
9.084779e+002, 8.763450e+001
9.089600e+002, 8.786654e+001
9.094421e+002, 8.816637e+001
9.099243e+002, 8.843620e+001
9.104064e+002, 8.853752e+001
9.108885e+002, 8.847652e+001
9.113706e+002, 8.836345e+001
9.118527e+002, 8.820479e+001
9.123348e+002, 8.806240e+001
9.128170e+002, 8.798628e+001
9.132991e+002, 8.796542e+001
9.137812e+002, 8.799660e+001
9.142633e+002, 8.809409e+001
9.147454e+002, 8.818179e+001
9.152275e+002, 8.823652e+001
9.157097e+002, 8.829511e+001
9.161918e+002, 8.841438e+001
9.166739e+002, 8.859072e+001
9.171560e+002, 8.849787e+001
9.176381e+002, 8.813338e+001
9.181202e+002, 8.787486e+001
9.186024e+002, 8.809197e+001
9.190845e+002, 8.847729e+001
9.195666e+002, 8.876118e+001
9.200487e+002, 8.892375e+001
9.205308e+002, 8.894314e+001
9.210129e+002, 8.872083e+001
9.214951e+002, 8.844895e+001
9.219772e+002, 8.813262e+001
9.224593e+002, 8.781728e+001
9.229414e+002, 8.761252e+001
9.234235e+002, 8.752068e+001
9.239056e+002, 8.765378e+001
9.243878e+002, 8.815865e+001
9.248699e+002, 8.868363e+001
9.253520e+002, 8.884809e+001
9.258341e+002, 8.875761e+001
9.263162e+002, 8.857703e+001
9.267983e+002, 8.815794e+001
9.272805e+002, 8.796372e+001
9.277626e+002, 8.819231e+001
9.282447e+002, 8.850422e+001
9.287268e+002, 8.852779e+001
9.292089e+002, 8.826267e+001
9.296910e+002, 8.808730e+001
9.301732e+002, 8.803877e+001
9.306553e+002, 8.798792e+001
9.311374e+002, 8.778150e+001
9.316195e+002, 8.753123e+001
9.321016e+002, 8.730301e+001
9.325837e+002, 8.710107e+001
9.330659e+002, 8.716068e+001
9.335480e+002, 8.791445e+001
9.340301e+002, 8.848289e+001
9.345122e+002, 8.843364e+001
9.349943e+002, 8.788342e+001
9.354764e+002, 8.761918e+001
9.359586e+002, 8.763442e+001
9.364407e+002, 8.781801e+001
9.369228e+002, 8.820326e+001
9.374049e+002, 8.864394e+001
9.378870e+002, 8.910982e+001
9.383691e+002, 8.950771e+001
9.388513e+002, 8.961130e+001
9.393334e+002, 8.897167e+001
9.398155e+002, 8.857582e+001
9.402976e+002, 8.871622e+001
9.407797e+002, 8.899742e+001
9.412618e+002, 8.864937e+001
9.417440e+002, 8.774863e+001
9.422261e+002, 8.737666e+001
9.427082e+002, 8.777614e+001
9.431903e+002, 8.837348e+001
9.436724e+002, 8.871446e+001
9.441545e+002, 8.890087e+001
9.446367e+002, 8.904370e+001
9.451188e+002, 8.917654e+001
9.456009e+002, 8.915947e+001
9.460830e+002, 8.886562e+001
9.465651e+002, 8.860723e+001
9.470472e+002, 8.863378e+001
9.475294e+002, 8.888210e+001
9.480115e+002, 8.874987e+001
9.484936e+002, 8.827464e+001
9.489757e+002, 8.790263e+001
9.494578e+002, 8.795814e+001
9.499399e+002, 8.818970e+001
9.504221e+002, 8.847578e+001
9.509042e+002, 8.878643e+001
9.513863e+002, 8.901541e+001
9.518684e+002, 8.913944e+001
9.523505e+002, 8.921469e+001
9.528326e+002, 8.921205e+001
9.533148e+002, 8.922575e+001
9.537969e+002, 8.948933e+001
9.542790e+002, 8.993851e+001
9.547611e+002, 9.029050e+001
9.552432e+002, 9.046370e+001
9.557253e+002, 9.056050e+001
9.562075e+002, 9.059313e+001
9.566896e+002, 9.061829e+001
9.571717e+002, 9.068774e+001
9.576538e+002, 9.079111e+001
9.581359e+002, 9.099666e+001
9.586180e+002, 9.135237e+001
9.591002e+002, 9.168391e+001
9.595823e+002, 9.178763e+001
9.600644e+002, 9.177339e+001
9.605465e+002, 9.198727e+001
9.610286e+002, 9.241847e+001
9.615107e+002, 9.292464e+001
9.619929e+002, 9.343154e+001
9.624750e+002, 9.399052e+001
9.629571e+002, 9.458146e+001
9.634392e+002, 9.525011e+001
9.639213e+002, 9.624121e+001
9.644034e+002, 9.770937e+001
9.648856e+002, 9.879631e+001
9.653677e+002, 9.916367e+001
9.658498e+002, 9.933213e+001
9.663319e+002, 1.000787e+002
9.668140e+002, 1.012716e+002
9.672961e+002, 1.026416e+002
9.677783e+002, 1.041869e+002
9.682604e+002, 1.057431e+002
9.687425e+002, 1.071100e+002
9.692246e+002, 1.085903e+002
9.697067e+002, 1.104407e+002
9.701888e+002, 1.126538e+002
9.706710e+002, 1.150582e+002
9.711531e+002, 1.176280e+002
9.716352e+002, 1.204483e+002
9.721173e+002, 1.234665e+002
9.725994e+002, 1.267950e+002
9.730815e+002, 1.306202e+002
9.735637e+002, 1.349240e+002
9.740458e+002, 1.396428e+002
9.745279e+002, 1.448177e+002
9.750100e+002, 1.503222e+002
9.754921e+002, 1.560844e+002
9.759742e+002, 1.622085e+002
9.764564e+002, 1.690325e+002
9.769385e+002, 1.765904e+002
9.774206e+002, 1.844866e+002
9.779027e+002, 1.925263e+002
9.783848e+002, 2.009125e+002
9.788669e+002, 2.098548e+002
9.793491e+002, 2.193257e+002
9.798312e+002, 2.292557e+002
9.803133e+002, 2.393251e+002
9.807954e+002, 2.507218e+002
9.812775e+002, 2.634841e+002
9.817596e+002, 2.777554e+002
9.822418e+002, 2.939276e+002
9.827239e+002, 3.118621e+002
9.832060e+002, 3.312558e+002
9.836881e+002, 3.519428e+002
9.841702e+002, 3.725487e+002
9.846523e+002, 3.936229e+002
9.851345e+002, 4.129877e+002
9.856166e+002, 4.313876e+002
9.860987e+002, 4.469717e+002
9.865808e+002, 4.551320e+002
9.870629e+002, 4.560664e+002
9.875450e+002, 4.485553e+002
9.880272e+002, 4.315941e+002
9.885093e+002, 4.078609e+002
9.889914e+002, 3.791837e+002
9.894735e+002, 3.475383e+002
9.899556e+002, 3.167143e+002
9.904377e+002, 2.870438e+002
9.909199e+002, 2.603964e+002
9.914020e+002, 2.378983e+002
9.918841e+002, 2.185926e+002
9.923662e+002, 2.016853e+002
9.928483e+002, 1.874475e+002
9.933304e+002, 1.751348e+002
9.938126e+002, 1.647645e+002
9.942947e+002, 1.559846e+002
9.947768e+002, 1.489698e+002
9.952589e+002, 1.431484e+002
9.957410e+002, 1.377737e+002
9.962231e+002, 1.329570e+002
9.967053e+002, 1.288749e+002
9.971874e+002, 1.260906e+002
9.976695e+002, 1.234613e+002
9.981516e+002, 1.207489e+002
9.986337e+002, 1.182199e+002
9.991158e+002, 1.162257e+002
9.995980e+002, 1.147367e+002
1.000080e+003, 1.137233e+002
1.000562e+003, 1.132039e+002
1.001044e+003, 1.127702e+002
1.001526e+003, 1.120157e+002
1.002009e+003, 1.112704e+002
1.002491e+003, 1.108229e+002
1.002973e+003, 1.107171e+002
1.003455e+003, 1.107033e+002
1.003937e+003, 1.107512e+002
1.004419e+003, 1.109802e+002
1.004901e+003, 1.113874e+002
1.005383e+003, 1.120630e+002
1.005865e+003, 1.133485e+002
1.006348e+003, 1.150776e+002
1.006830e+003, 1.168139e+002
1.007312e+003, 1.181760e+002
1.007794e+003, 1.197296e+002
1.008276e+003, 1.216749e+002
1.008758e+003, 1.239116e+002
1.009240e+003, 1.263824e+002
1.009722e+003, 1.290750e+002
1.010205e+003, 1.320386e+002
1.010687e+003, 1.353271e+002
1.011169e+003, 1.387428e+002
1.011651e+003, 1.419390e+002
1.012133e+003, 1.453290e+002
1.012615e+003, 1.496129e+002
1.013097e+003, 1.547510e+002
1.013579e+003, 1.594676e+002
1.014061e+003, 1.631505e+002
1.014544e+003, 1.670939e+002
1.015026e+003, 1.717744e+002
1.015508e+003, 1.768027e+002
1.015990e+003, 1.813225e+002
1.016472e+003, 1.854306e+002
1.016954e+003, 1.895708e+002
1.017436e+003, 1.941317e+002
1.017918e+003, 1.982199e+002
1.018401e+003, 2.014707e+002
1.018883e+003, 2.038342e+002
1.019365e+003, 2.053719e+002
1.019847e+003, 2.062177e+002
1.020329e+003, 2.058217e+002
1.020811e+003, 2.041796e+002
1.021293e+003, 2.013281e+002
1.021775e+003, 1.969162e+002
1.022257e+003, 1.915278e+002
1.022740e+003, 1.859341e+002
1.023222e+003, 1.801105e+002
1.023704e+003, 1.739026e+002
1.024186e+003, 1.665888e+002
1.024668e+003, 1.597482e+002
1.025150e+003, 1.537214e+002
1.025632e+003, 1.482932e+002
1.026114e+003, 1.430506e+002
1.026596e+003, 1.381009e+002
1.027079e+003, 1.337017e+002
1.027561e+003, 1.299332e+002
1.028043e+003, 1.264404e+002
1.028525e+003, 1.228887e+002
1.029007e+003, 1.195089e+002
1.029489e+003, 1.165351e+002
1.029971e+003, 1.140105e+002
1.030453e+003, 1.117659e+002
1.030936e+003, 1.098455e+002
1.031418e+003, 1.080377e+002
1.031900e+003, 1.061993e+002
1.032382e+003, 1.044441e+002
1.032864e+003, 1.030078e+002
1.033346e+003, 1.018472e+002
1.033828e+003, 1.008992e+002
1.034310e+003, 1.002616e+002
1.034792e+003, 9.965187e+001
1.035275e+003, 9.902956e+001
1.035757e+003, 9.838407e+001
1.036239e+003, 9.770641e+001
1.036721e+003, 9.700243e+001
1.037203e+003, 9.617597e+001
1.037685e+003, 9.523872e+001
1.038167e+003, 9.431983e+001
1.038649e+003, 9.336944e+001
1.039132e+003, 9.260795e+001
1.039614e+003, 9.224636e+001
1.040096e+003, 9.224582e+001
1.040578e+003, 9.237246e+001
1.041060e+003, 9.279418e+001
1.041542e+003, 9.280903e+001
1.042024e+003, 9.216431e+001
1.042506e+003, 9.132838e+001
1.042989e+003, 9.106718e+001
1.043471e+003, 9.112395e+001
1.043953e+003, 9.092331e+001
1.044435e+003, 9.029506e+001
1.044917e+003, 8.975478e+001
1.045399e+003, 8.946416e+001
1.045881e+003, 8.935995e+001
1.046363e+003, 8.948842e+001
1.046845e+003, 8.979485e+001
1.047328e+003, 8.984568e+001
1.047810e+003, 8.964611e+001
1.048292e+003, 8.925854e+001
1.048774e+003, 8.845692e+001
1.049256e+003, 8.783176e+001
1.049738e+003, 8.805842e+001
1.050220e+003, 8.870499e+001
1.050702e+003, 8.907951e+001
1.051184e+003, 8.909454e+001
1.051667e+003, 8.889719e+001
1.052149e+003, 8.845296e+001
1.052631e+003, 8.791523e+001
1.053113e+003, 8.724024e+001
1.053595e+003, 8.662682e+001
1.054077e+003, 8.660298e+001
1.054559e+003, 8.708406e+001
1.055041e+003, 8.738875e+001
1.055523e+003, 8.703706e+001
1.056006e+003, 8.671183e+001
1.056488e+003, 8.657529e+001
1.056970e+003, 8.659691e+001
1.057452e+003, 8.682365e+001
1.057934e+003, 8.720705e+001
1.058416e+003, 8.722791e+001
1.058898e+003, 8.673111e+001
1.059380e+003, 8.623239e+001
1.059863e+003, 8.612788e+001
1.060345e+003, 8.622366e+001
1.060827e+003, 8.645560e+001
1.061309e+003, 8.682369e+001
1.061791e+003, 8.677805e+001
1.062273e+003, 8.619474e+001
1.062755e+003, 8.579272e+001
1.063237e+003, 8.597634e+001
1.063719e+003, 8.639628e+001
1.064202e+003, 8.659753e+001
1.064684e+003, 8.661269e+001
1.065166e+003, 8.648971e+001
1.065648e+003, 8.601998e+001
1.066130e+003, 8.583105e+001
1.066612e+003, 8.611002e+001
1.067094e+003, 8.647962e+001
1.067576e+003, 8.666253e+001
1.068059e+003, 8.667151e+001
1.068541e+003, 8.647291e+001
1.069023e+003, 8.611019e+001
1.069505e+003, 8.592664e+001
1.069987e+003, 8.642321e+001
1.070469e+003, 8.683963e+001
1.070951e+003, 8.659577e+001
1.071433e+003, 8.605721e+001
1.071916e+003, 8.595017e+001
1.072398e+003, 8.634293e+001
1.072880e+003, 8.649751e+001
1.073362e+003, 8.625967e+001
1.073844e+003, 8.613608e+001
1.074326e+003, 8.693666e+001
1.074808e+003, 8.792557e+001
1.075290e+003, 8.827513e+001
1.075772e+003, 8.790476e+001
1.076255e+003, 8.755688e+001
1.076737e+003, 8.723290e+001
1.077219e+003, 8.707542e+001
1.077701e+003, 8.715151e+001
1.078183e+003, 8.739321e+001
1.078665e+003, 8.776711e+001
1.079147e+003, 8.818617e+001
1.079629e+003, 8.841691e+001
1.080111e+003, 8.830012e+001
1.080594e+003, 8.829140e+001
1.081076e+003, 8.858037e+001
1.081558e+003, 8.900419e+001
1.082040e+003, 8.952299e+001
1.082522e+003, 9.011272e+001
1.083004e+003, 9.049310e+001
1.083486e+003, 9.067883e+001
1.083968e+003, 9.078633e+001
1.084450e+003, 9.086346e+001
1.084933e+003, 9.090059e+001
1.085415e+003, 9.073234e+001
1.085897e+003, 9.059115e+001
1.086379e+003, 9.086454e+001
1.086861e+003, 9.169135e+001
1.087343e+003, 9.237364e+001
1.087825e+003, 9.286339e+001
1.088307e+003, 9.333010e+001
1.088790e+003, 9.402415e+001
1.089272e+003, 9.471080e+001
1.089754e+003, 9.499574e+001
1.090236e+003, 9.497250e+001
1.090718e+003, 9.522353e+001
1.091200e+003, 9.590266e+001
1.091682e+003, 9.679734e+001
1.092164e+003, 9.795463e+001
1.092646e+003, 9.916108e+001
1.093129e+003, 1.001821e+002
1.093611e+003, 1.009732e+002
1.094093e+003, 1.013634e+002
1.094575e+003, 1.012973e+002
1.095057e+003, 1.012993e+002
1.095539e+003, 1.016936e+002
1.096021e+003, 1.021115e+002
1.096503e+003, 1.024162e+002
1.096986e+003, 1.026116e+002
1.097468e+003, 1.026823e+002
1.097950e+003, 1.026469e+002
1.098432e+003, 1.027161e+002
1.098914e+003, 1.031166e+002
1.099396e+003, 1.032085e+002
1.099878e+003, 1.022245e+002
1.100360e+003, 1.009025e+002
1.100843e+003, 1.000267e+002
1.101325e+003, 9.968938e+001
1.101807e+003, 9.888876e+001
1.102289e+003, 9.755919e+001
1.102771e+003, 9.643279e+001
1.103253e+003, 9.608601e+001
1.103735e+003, 9.601070e+001
1.104217e+003, 9.563630e+001
1.104699e+003, 9.509425e+001
1.105182e+003, 9.463298e+001
1.105664e+003, 9.446404e+001
1.106146e+003, 9.404391e+001
1.106628e+003, 9.326281e+001
1.107110e+003, 9.248486e+001
1.107592e+003, 9.202103e+001
1.108074e+003, 9.179492e+001
1.108556e+003, 9.167946e+001
1.109038e+003, 9.164787e+001
1.109521e+003, 9.159486e+001
1.110003e+003, 9.140952e+001
1.110485e+003, 9.130553e+001
1.110967e+003, 9.140944e+001
1.111449e+003, 9.151197e+001
1.111931e+003, 9.122930e+001
1.112413e+003, 9.065585e+001
1.112895e+003, 9.021886e+001
1.113377e+003, 8.996645e+001
1.113860e+003, 8.978628e+001
1.114342e+003, 8.957993e+001
1.114824e+003, 8.946214e+001
1.115306e+003, 8.954287e+001
1.115788e+003, 8.975046e+001
1.116270e+003, 8.982467e+001
1.116752e+003, 8.977089e+001
1.117234e+003, 8.986168e+001
1.117717e+003, 9.020737e+001
1.118199e+003, 9.054206e+001
1.118681e+003, 9.055103e+001
1.119163e+003, 9.049053e+001
1.119645e+003, 9.060528e+001
1.120127e+003, 9.091227e+001
1.120609e+003, 9.128118e+001
1.121091e+003, 9.173243e+001
1.121573e+003, 9.211320e+001
1.122056e+003, 9.236858e+001
1.122538e+003, 9.250393e+001
1.123020e+003, 9.236414e+001
1.123502e+003, 9.217436e+001
1.123984e+003, 9.229199e+001
1.124466e+003, 9.291157e+001
1.124948e+003, 9.361929e+001
1.125430e+003, 9.446532e+001
1.125913e+003, 9.525333e+001
1.126395e+003, 9.581065e+001
1.126877e+003, 9.624067e+001
1.127359e+003, 9.675080e+001
1.127841e+003, 9.733657e+001
1.128323e+003, 9.797896e+001
1.128805e+003, 9.875514e+001
1.129287e+003, 9.945486e+001
1.129770e+003, 9.996169e+001
1.130252e+003, 1.005195e+002
1.130734e+003, 1.015807e+002
1.131216e+003, 1.029031e+002
1.131698e+003, 1.035152e+002
1.132180e+003, 1.034260e+002
1.132662e+003, 1.030146e+002
1.133144e+003, 1.022027e+002
1.133626e+003, 1.014342e+002
1.134109e+003, 1.009512e+002
1.134591e+003, 1.005231e+002
1.135073e+003, 9.979887e+001
1.135555e+003, 9.879627e+001
1.136037e+003, 9.759498e+001
1.136519e+003, 9.619311e+001
1.137001e+003, 9.488745e+001
1.137483e+003, 9.387684e+001
1.137965e+003, 9.304692e+001
1.138448e+003, 9.244052e+001
1.138930e+003, 9.194046e+001
1.139412e+003, 9.115836e+001
1.139894e+003, 9.006546e+001
1.140376e+003, 8.921447e+001
1.140858e+003, 8.875973e+001
1.141340e+003, 8.836331e+001
1.141822e+003, 8.756621e+001
1.142304e+003, 8.677964e+001
1.142787e+003, 8.647144e+001
1.143269e+003, 8.666109e+001
1.143751e+003, 8.652982e+001
1.144233e+003, 8.602201e+001
1.144715e+003, 8.548083e+001
1.145197e+003, 8.499493e+001
1.145679e+003, 8.460941e+001
1.146161e+003, 8.444719e+001
1.146644e+003, 8.439982e+001
1.147126e+003, 8.433058e+001
1.147608e+003, 8.421458e+001
1.148090e+003, 8.406035e+001
1.148572e+003, 8.384142e+001
1.149054e+003, 8.367451e+001
1.149536e+003, 8.366296e+001
1.150018e+003, 8.368603e+001
1.150500e+003, 8.340685e+001
1.150983e+003, 8.302898e+001
1.151465e+003, 8.298174e+001
1.151947e+003, 8.369675e+001
1.152429e+003, 8.407578e+001
1.152911e+003, 8.398013e+001
1.153393e+003, 8.369482e+001
1.153875e+003, 8.333112e+001
1.154357e+003, 8.295756e+001
1.154840e+003, 8.277094e+001
1.155322e+003, 8.273666e+001
1.155804e+003, 8.275220e+001
1.156286e+003, 8.290983e+001
1.156768e+003, 8.290611e+001
1.157250e+003, 8.261562e+001
1.157732e+003, 8.229179e+001
1.158214e+003, 8.218771e+001
1.158697e+003, 8.225149e+001
1.159179e+003, 8.222398e+001
1.159661e+003, 8.213284e+001
1.160143e+003, 8.217991e+001
1.160625e+003, 8.275701e+001
1.161107e+003, 8.310413e+001
1.161589e+003, 8.286720e+001
1.162071e+003, 8.242540e+001
1.162553e+003, 8.224069e+001
1.163036e+003, 8.228597e+001
1.163518e+003, 8.241525e+001
1.164000e+003, 8.260632e+001
1.164482e+003, 8.267845e+001
1.164964e+003, 8.228925e+001
1.165446e+003, 8.202046e+001
1.165928e+003, 8.230925e+001
1.166410e+003, 8.280797e+001
1.166892e+003, 8.282557e+001
1.167375e+003, 8.240124e+001
1.167857e+003, 8.209209e+001
1.168339e+003, 8.197128e+001
1.168821e+003, 8.193684e+001
1.169303e+003, 8.190527e+001
1.169785e+003, 8.194602e+001
1.170267e+003, 8.218310e+001
1.170749e+003, 8.251418e+001
1.171231e+003, 8.261218e+001
1.171714e+003, 8.247926e+001
1.172196e+003, 8.247803e+001
1.172678e+003, 8.268810e+001
1.173160e+003, 8.300088e+001
1.173642e+003, 8.349755e+001
1.174124e+003, 8.391527e+001
1.174606e+003, 8.398891e+001
1.175088e+003, 8.377422e+001
1.175571e+003, 8.351339e+001
1.176053e+003, 8.319368e+001
1.176535e+003, 8.307273e+001
1.177017e+003, 8.325445e+001
1.177499e+003, 8.354476e+001
1.177981e+003, 8.377837e+001
1.178463e+003, 8.401199e+001
1.178945e+003, 8.435081e+001
1.179427e+003, 8.479501e+001
1.179910e+003, 8.498869e+001
1.180392e+003, 8.490675e+001
1.180874e+003, 8.482389e+001
1.181356e+003, 8.481238e+001
1.181838e+003, 8.490995e+001
1.182320e+003, 8.527605e+001
1.182802e+003, 8.570441e+001
1.183284e+003, 8.589697e+001
1.183767e+003, 8.576331e+001
1.184249e+003, 8.599116e+001
1.184731e+003, 8.664001e+001
1.185213e+003, 8.726653e+001
1.185695e+003, 8.766983e+001
1.186177e+003, 8.793037e+001
1.186659e+003, 8.799911e+001
1.187141e+003, 8.804701e+001
1.187624e+003, 8.834157e+001
1.188106e+003, 8.898698e+001
1.188588e+003, 8.961552e+001
1.189070e+003, 9.023342e+001
1.189552e+003, 9.077779e+001
1.190034e+003, 9.122826e+001
1.190516e+003, 9.156785e+001
1.190998e+003, 9.161179e+001
1.191480e+003, 9.158166e+001
1.191963e+003, 9.188902e+001
1.192445e+003, 9.277749e+001
1.192927e+003, 9.349781e+001
1.193409e+003, 9.401306e+001
1.193891e+003, 9.453284e+001
1.194373e+003, 9.522764e+001
1.194855e+003, 9.599574e+001
1.195337e+003, 9.659550e+001
1.195819e+003, 9.718557e+001
1.196302e+003, 9.816106e+001
1.196784e+003, 1.001596e+002
1.197266e+003, 1.010812e+002
1.197748e+003, 1.006628e+002
1.198230e+003, 1.001245e+002
1.198712e+003, 1.005594e+002
1.199194e+003, 1.013710e+002
1.199676e+003, 1.017859e+002
1.200158e+003, 1.019041e+002
1.200641e+003, 1.020393e+002
1.201123e+003, 1.024047e+002
1.201605e+003, 1.024007e+002
1.202087e+003, 1.019608e+002
1.202569e+003, 1.012952e+002
1.203051e+003, 1.004568e+002
1.203533e+003, 9.960893e+001
1.204015e+003, 9.887866e+001
1.204498e+003, 9.832069e+001
1.204980e+003, 9.813361e+001
1.205462e+003, 9.872079e+001
1.205944e+003, 9.865092e+001
1.206426e+003, 9.764232e+001
1.206908e+003, 9.659277e+001
1.207390e+003, 9.635060e+001
1.207872e+003, 9.661638e+001
1.208354e+003, 9.716926e+001
1.208837e+003, 9.790650e+001
1.209319e+003, 9.842038e+001
1.209801e+003, 9.850982e+001
1.210283e+003, 9.881336e+001
1.210765e+003, 9.943665e+001
1.211247e+003, 1.001872e+002
1.211729e+003, 1.008968e+002
1.212211e+003, 1.016039e+002
1.212694e+003, 1.023306e+002
1.213176e+003, 1.030906e+002
1.213658e+003, 1.039216e+002
1.214140e+003, 1.048467e+002
1.214622e+003, 1.057713e+002
1.215104e+003, 1.066829e+002
1.215586e+003, 1.075906e+002
1.216068e+003, 1.085653e+002
1.216551e+003, 1.095159e+002
1.217033e+003, 1.103937e+002
1.217515e+003, 1.111701e+002
1.217997e+003, 1.116674e+002
1.218479e+003, 1.119681e+002
1.218961e+003, 1.117054e+002
1.219443e+003, 1.107357e+002
1.219925e+003, 1.095242e+002
1.220407e+003, 1.086549e+002
1.220890e+003, 1.077858e+002
1.221372e+003, 1.064843e+002
1.221854e+003, 1.047670e+002
1.222336e+003, 1.030184e+002
1.222818e+003, 1.012208e+002
1.223300e+003, 9.953989e+001
1.223782e+003, 9.798172e+001
1.224264e+003, 9.666496e+001
1.224746e+003, 9.595579e+001
1.225229e+003, 9.538819e+001
1.225711e+003, 9.434837e+001
1.226193e+003, 9.287774e+001
1.226675e+003, 9.191043e+001
1.227157e+003, 9.155748e+001
1.227639e+003, 9.114158e+001
1.228121e+003, 9.051141e+001
1.228603e+003, 8.981689e+001
1.229085e+003, 8.919473e+001
1.229568e+003, 8.861101e+001
1.230050e+003, 8.799399e+001
1.230532e+003, 8.736825e+001
1.231014e+003, 8.697247e+001
1.231496e+003, 8.682607e+001
1.231978e+003, 8.675317e+001
1.232460e+003, 8.675183e+001
1.232942e+003, 8.661584e+001
1.233425e+003, 8.602340e+001
1.233907e+003, 8.530481e+001
1.234389e+003, 8.474989e+001
1.234871e+003, 8.434117e+001
1.235353e+003, 8.385151e+001
1.235835e+003, 8.327341e+001
1.236317e+003, 8.288725e+001
1.236799e+003, 8.277345e+001
1.237281e+003, 8.281007e+001
1.237764e+003, 8.311147e+001
1.238246e+003, 8.333346e+001
1.238728e+003, 8.309419e+001
1.239210e+003, 8.253107e+001
1.239692e+003, 8.220579e+001
1.240174e+003, 8.211448e+001
1.240656e+003, 8.205490e+001
1.241138e+003, 8.199988e+001
1.241621e+003, 8.184903e+001
1.242103e+003, 8.130968e+001
1.242585e+003, 8.086755e+001
1.243067e+003, 8.090882e+001
1.243549e+003, 8.128776e+001
1.244031e+003, 8.155804e+001
1.244513e+003, 8.170280e+001
1.244995e+003, 8.149977e+001
1.245478e+003, 8.082040e+001
1.245960e+003, 8.027269e+001
1.246442e+003, 8.041987e+001
1.246924e+003, 8.058868e+001
1.247406e+003, 8.037112e+001
1.247888e+003, 7.992517e+001
1.248370e+003, 7.972988e+001
1.248852e+003, 7.974731e+001
1.249334e+003, 7.984123e+001
1.249817e+003, 8.000140e+001
1.250299e+003, 8.009602e+001
1.250781e+003, 8.005614e+001
1.251263e+003, 7.993455e+001
1.251745e+003, 7.973313e+001
1.252227e+003, 7.948908e+001
1.252709e+003, 7.927631e+001
1.253191e+003, 7.909616e+001
1.253673e+003, 7.898558e+001
1.254156e+003, 7.897964e+001
1.254638e+003, 7.880193e+001
1.255120e+003, 7.816717e+001
1.255602e+003, 7.763882e+001
1.256084e+003, 7.739842e+001
1.256566e+003, 7.738188e+001
1.257048e+003, 7.751174e+001
1.257530e+003, 7.775301e+001
1.258012e+003, 7.809338e+001
1.258495e+003, 7.856490e+001
1.258977e+003, 7.871888e+001
1.259459e+003, 7.829801e+001
1.259941e+003, 7.805122e+001
1.260423e+003, 7.829056e+001
1.260905e+003, 7.865915e+001
1.261387e+003, 7.848392e+001
1.261869e+003, 7.811789e+001
1.262352e+003, 7.815140e+001
1.262834e+003, 7.870165e+001
1.263316e+003, 7.898605e+001
1.263798e+003, 7.896772e+001
1.264280e+003, 7.862346e+001
1.264762e+003, 7.780929e+001
1.265244e+003, 7.710256e+001
1.265726e+003, 7.739837e+001
1.266208e+003, 7.805717e+001
1.266691e+003, 7.834004e+001
1.267173e+003, 7.818734e+001
1.267655e+003, 7.825488e+001
1.268137e+003, 7.859814e+001
1.268619e+003, 7.866551e+001
1.269101e+003, 7.825036e+001
1.269583e+003, 7.779606e+001
1.270065e+003, 7.773235e+001
1.270548e+003, 7.780668e+001
1.271030e+003, 7.778364e+001
1.271512e+003, 7.769545e+001
1.271994e+003, 7.777927e+001
1.272476e+003, 7.802757e+001
1.272958e+003, 7.807008e+001
1.273440e+003, 7.780094e+001
1.273922e+003, 7.750847e+001
1.274405e+003, 7.740771e+001
1.274887e+003, 7.734195e+001
1.275369e+003, 7.719911e+001
1.275851e+003, 7.702660e+001
1.276333e+003, 7.697194e+001
1.276815e+003, 7.701346e+001
1.277297e+003, 7.705370e+001
1.277779e+003, 7.707813e+001
1.278261e+003, 7.703719e+001
1.278744e+003, 7.666805e+001
1.279226e+003, 7.655460e+001
1.279708e+003, 7.702599e+001
1.280190e+003, 7.770472e+001
1.280672e+003, 7.788303e+001
1.281154e+003, 7.768619e+001
1.281636e+003, 7.737014e+001
1.282118e+003, 7.696884e+001
1.282600e+003, 7.674796e+001
1.283083e+003, 7.685635e+001
1.283565e+003, 7.705706e+001
1.284047e+003, 7.736145e+001
1.284529e+003, 7.758955e+001
1.285011e+003, 7.731296e+001
1.285493e+003, 7.688242e+001
1.285975e+003, 7.691427e+001
1.286457e+003, 7.742422e+001
1.286939e+003, 7.773973e+001
1.287422e+003, 7.779947e+001
1.287904e+003, 7.765476e+001
1.288386e+003, 7.726157e+001
1.288868e+003, 7.692068e+001
1.289350e+003, 7.707917e+001
1.289832e+003, 7.735777e+001
1.290314e+003, 7.731627e+001
1.290796e+003, 7.702920e+001
1.291279e+003, 7.698841e+001
1.291761e+003, 7.721805e+001
1.292243e+003, 7.746557e+001
1.292725e+003, 7.770630e+001
1.293207e+003, 7.778654e+001
1.293689e+003, 7.741026e+001
1.294171e+003, 7.700188e+001
1.294653e+003, 7.684910e+001
1.295135e+003, 7.686195e+001
1.295618e+003, 7.693701e+001
1.296100e+003, 7.706107e+001
1.296582e+003, 7.713154e+001
1.297064e+003, 7.714168e+001
1.297546e+003, 7.701903e+001
1.298028e+003, 7.644671e+001
1.298510e+003, 7.607580e+001
1.298992e+003, 7.615115e+001
1.299475e+003, 7.644357e+001
1.299957e+003, 7.671886e+001
1.300439e+003, 7.695910e+001
1.300921e+003, 7.710700e+001
1.301403e+003, 7.716060e+001
1.301885e+003, 7.712512e+001
##END=



