##NAMES=Plumbonacrite
##RRUFFID=R130567
##IDEAL CHEMISTRY=Pb^2+^_5_(CO_3_)_3_O(OH)_2_
##LOCALITY=Merehead Quarry, Cranmore, Somerset, England, UK
##OWNER=RRUFF
##SOURCE=Rick Turner
##DESCRIPTION=Colorless hexagonal bipyramidal crystal on cerussite
##STATUS=The identification of this mineral has been confirmed by single-crystal X-ray diffraction.
##URL=rruff.info/R130567
8.930109e+001, 0.000000e+000
8.978320e+001, 5.320603e+003
9.026532e+001, 5.271261e+003
9.074744e+001, 5.268380e+003
9.122955e+001, 5.327374e+003
9.171167e+001, 5.417229e+003
9.219379e+001, 5.500605e+003
9.267590e+001, 5.580865e+003
9.315802e+001, 5.656954e+003
9.364014e+001, 5.724727e+003
9.412225e+001, 5.787706e+003
9.460437e+001, 5.852946e+003
9.508649e+001, 5.924338e+003
9.556860e+001, 5.995890e+003
9.605072e+001, 6.062385e+003
9.653284e+001, 6.128923e+003
9.701495e+001, 6.191339e+003
9.749707e+001, 6.243009e+003
9.797919e+001, 6.284198e+003
9.846130e+001, 6.323685e+003
9.894342e+001, 6.364119e+003
9.942554e+001, 6.405585e+003
9.990765e+001, 6.446200e+003
1.003898e+002, 6.485509e+003
1.008719e+002, 6.525551e+003
1.013540e+002, 6.569579e+003
1.018361e+002, 6.618518e+003
1.023182e+002, 6.668497e+003
1.028004e+002, 6.718358e+003
1.032825e+002, 6.766794e+003
1.037646e+002, 6.820350e+003
1.042467e+002, 6.881521e+003
1.047288e+002, 6.946641e+003
1.052109e+002, 7.006050e+003
1.056931e+002, 7.056790e+003
1.061752e+002, 7.108156e+003
1.066573e+002, 7.165487e+003
1.071394e+002, 7.234732e+003
1.076215e+002, 7.300095e+003
1.081036e+002, 7.360505e+003
1.085858e+002, 7.416971e+003
1.090679e+002, 7.473112e+003
1.095500e+002, 7.526071e+003
1.100321e+002, 7.581375e+003
1.105142e+002, 7.641568e+003
1.109963e+002, 7.703850e+003
1.114785e+002, 7.774106e+003
1.119606e+002, 7.853414e+003
1.124427e+002, 7.941607e+003
1.129248e+002, 8.034966e+003
1.134069e+002, 8.134903e+003
1.138890e+002, 8.238469e+003
1.143712e+002, 8.344539e+003
1.148533e+002, 8.455824e+003
1.153354e+002, 8.566109e+003
1.158175e+002, 8.672470e+003
1.162996e+002, 8.775999e+003
1.167817e+002, 8.879596e+003
1.172639e+002, 8.985124e+003
1.177460e+002, 9.092228e+003
1.182281e+002, 9.200419e+003
1.187102e+002, 9.309331e+003
1.191923e+002, 9.419635e+003
1.196744e+002, 9.530763e+003
1.201566e+002, 9.642739e+003
1.206387e+002, 9.755662e+003
1.211208e+002, 9.871457e+003
1.216029e+002, 9.987520e+003
1.220850e+002, 1.009760e+004
1.225671e+002, 1.019902e+004
1.230493e+002, 1.029237e+004
1.235314e+002, 1.038039e+004
1.240135e+002, 1.046714e+004
1.244956e+002, 1.053907e+004
1.249777e+002, 1.058191e+004
1.254598e+002, 1.059786e+004
1.259420e+002, 1.059466e+004
1.264241e+002, 1.058018e+004
1.269062e+002, 1.054941e+004
1.273883e+002, 1.049302e+004
1.278704e+002, 1.040765e+004
1.283525e+002, 1.029749e+004
1.288347e+002, 1.016612e+004
1.293168e+002, 1.001314e+004
1.297989e+002, 9.845451e+003
1.302810e+002, 9.662579e+003
1.307631e+002, 9.467854e+003
1.312452e+002, 9.266936e+003
1.317274e+002, 9.058455e+003
1.322095e+002, 8.846403e+003
1.326916e+002, 8.638384e+003
1.331737e+002, 8.431791e+003
1.336558e+002, 8.238342e+003
1.341379e+002, 8.062997e+003
1.346201e+002, 7.905803e+003
1.351022e+002, 7.767080e+003
1.355843e+002, 7.651575e+003
1.360664e+002, 7.556561e+003
1.365485e+002, 7.466426e+003
1.370306e+002, 7.380844e+003
1.375128e+002, 7.299909e+003
1.379949e+002, 7.220076e+003
1.384770e+002, 7.139770e+003
1.389591e+002, 7.067186e+003
1.394412e+002, 7.006863e+003
1.399233e+002, 6.960627e+003
1.404055e+002, 6.907387e+003
1.408876e+002, 6.844802e+003
1.413697e+002, 6.777048e+003
1.418518e+002, 6.710766e+003
1.423339e+002, 6.647422e+003
1.428160e+002, 6.582729e+003
1.432982e+002, 6.515442e+003
1.437803e+002, 6.447054e+003
1.442624e+002, 6.373132e+003
1.447445e+002, 6.294118e+003
1.452266e+002, 6.209268e+003
1.457087e+002, 6.120526e+003
1.461909e+002, 6.024828e+003
1.466730e+002, 5.927479e+003
1.471551e+002, 5.829290e+003
1.476372e+002, 5.730081e+003
1.481193e+002, 5.632112e+003
1.486014e+002, 5.535528e+003
1.490836e+002, 5.440397e+003
1.495657e+002, 5.342640e+003
1.500478e+002, 5.239805e+003
1.505299e+002, 5.138535e+003
1.510120e+002, 5.040999e+003
1.514941e+002, 4.945953e+003
1.519763e+002, 4.857130e+003
1.524584e+002, 4.775626e+003
1.529405e+002, 4.700677e+003
1.534226e+002, 4.626658e+003
1.539047e+002, 4.550084e+003
1.543868e+002, 4.476274e+003
1.548690e+002, 4.408117e+003
1.553511e+002, 4.350347e+003
1.558332e+002, 4.293538e+003
1.563153e+002, 4.235724e+003
1.567974e+002, 4.177396e+003
1.572795e+002, 4.122558e+003
1.577617e+002, 4.072962e+003
1.582438e+002, 4.026766e+003
1.587259e+002, 3.982646e+003
1.592080e+002, 3.941000e+003
1.596901e+002, 3.900828e+003
1.601722e+002, 3.861130e+003
1.606544e+002, 3.822074e+003
1.611365e+002, 3.786472e+003
1.616186e+002, 3.756848e+003
1.621007e+002, 3.730702e+003
1.625828e+002, 3.704994e+003
1.630649e+002, 3.679115e+003
1.635471e+002, 3.653446e+003
1.640292e+002, 3.628379e+003
1.645113e+002, 3.603897e+003
1.649934e+002, 3.578965e+003
1.654755e+002, 3.552474e+003
1.659576e+002, 3.525223e+003
1.664398e+002, 3.498582e+003
1.669219e+002, 3.471590e+003
1.674040e+002, 3.445976e+003
1.678861e+002, 3.423537e+003
1.683682e+002, 3.404341e+003
1.688503e+002, 3.386290e+003
1.693325e+002, 3.367743e+003
1.698146e+002, 3.349437e+003
1.702967e+002, 3.332828e+003
1.707788e+002, 3.320479e+003
1.712609e+002, 3.308839e+003
1.717430e+002, 3.294350e+003
1.722252e+002, 3.276422e+003
1.727073e+002, 3.258526e+003
1.731894e+002, 3.242688e+003
1.736715e+002, 3.228812e+003
1.741536e+002, 3.217162e+003
1.746357e+002, 3.210294e+003
1.751179e+002, 3.204449e+003
1.756000e+002, 3.194280e+003
1.760821e+002, 3.178794e+003
1.765642e+002, 3.162681e+003
1.770463e+002, 3.150048e+003
1.775284e+002, 3.140427e+003
1.780106e+002, 3.132560e+003
1.784927e+002, 3.126870e+003
1.789748e+002, 3.122219e+003
1.794569e+002, 3.116633e+003
1.799390e+002, 3.109655e+003
1.804211e+002, 3.102673e+003
1.809033e+002, 3.096794e+003
1.813854e+002, 3.092087e+003
1.818675e+002, 3.088926e+003
1.823496e+002, 3.088521e+003
1.828317e+002, 3.089778e+003
1.833138e+002, 3.090042e+003
1.837960e+002, 3.088969e+003
1.842781e+002, 3.087026e+003
1.847602e+002, 3.084825e+003
1.852423e+002, 3.082319e+003
1.857244e+002, 3.079393e+003
1.862065e+002, 3.075581e+003
1.866887e+002, 3.071163e+003
1.871708e+002, 3.067651e+003
1.876529e+002, 3.065882e+003
1.881350e+002, 3.063595e+003
1.886171e+002, 3.056689e+003
1.890992e+002, 3.045169e+003
1.895814e+002, 3.031922e+003
1.900635e+002, 3.019015e+003
1.905456e+002, 3.005997e+003
1.910277e+002, 2.991499e+003
1.915098e+002, 2.975958e+003
1.919919e+002, 2.957862e+003
1.924741e+002, 2.933347e+003
1.929562e+002, 2.902309e+003
1.934383e+002, 2.869760e+003
1.939204e+002, 2.839771e+003
1.944025e+002, 2.812092e+003
1.948846e+002, 2.782378e+003
1.953668e+002, 2.749777e+003
1.958489e+002, 2.715239e+003
1.963310e+002, 2.680939e+003
1.968131e+002, 2.646914e+003
1.972952e+002, 2.612946e+003
1.977773e+002, 2.579020e+003
1.982595e+002, 2.545336e+003
1.987416e+002, 2.508983e+003
1.992237e+002, 2.468867e+003
1.997058e+002, 2.426938e+003
2.001879e+002, 2.389742e+003
2.006700e+002, 2.357807e+003
2.011522e+002, 2.326746e+003
2.016343e+002, 2.292596e+003
2.021164e+002, 2.254729e+003
2.025985e+002, 2.220634e+003
2.030806e+002, 2.192780e+003
2.035627e+002, 2.168739e+003
2.040449e+002, 2.140787e+003
2.045270e+002, 2.107958e+003
2.050091e+002, 2.074337e+003
2.054912e+002, 2.042287e+003
2.059733e+002, 2.011695e+003
2.064554e+002, 1.983419e+003
2.069376e+002, 1.957871e+003
2.074197e+002, 1.934702e+003
2.079018e+002, 1.911684e+003
2.083839e+002, 1.888717e+003
2.088660e+002, 1.866097e+003
2.093481e+002, 1.844245e+003
2.098303e+002, 1.823058e+003
2.103124e+002, 1.802589e+003
2.107945e+002, 1.782481e+003
2.112766e+002, 1.763254e+003
2.117587e+002, 1.746568e+003
2.122408e+002, 1.733277e+003
2.127230e+002, 1.720675e+003
2.132051e+002, 1.706623e+003
2.136872e+002, 1.690382e+003
2.141693e+002, 1.675097e+003
2.146514e+002, 1.661253e+003
2.151335e+002, 1.648586e+003
2.156157e+002, 1.636771e+003
2.160978e+002, 1.626111e+003
2.165799e+002, 1.615468e+003
2.170620e+002, 1.603717e+003
2.175441e+002, 1.589949e+003
2.180262e+002, 1.577666e+003
2.185084e+002, 1.567612e+003
2.189905e+002, 1.559186e+003
2.194726e+002, 1.549805e+003
2.199547e+002, 1.538636e+003
2.204368e+002, 1.527714e+003
2.209189e+002, 1.518694e+003
2.214011e+002, 1.512539e+003
2.218832e+002, 1.505517e+003
2.223653e+002, 1.496623e+003
2.228474e+002, 1.486641e+003
2.233295e+002, 1.478898e+003
2.238116e+002, 1.474831e+003
2.242938e+002, 1.471025e+003
2.247759e+002, 1.465339e+003
2.252580e+002, 1.456930e+003
2.257401e+002, 1.448642e+003
2.262222e+002, 1.440031e+003
2.267043e+002, 1.431657e+003
2.271865e+002, 1.425809e+003
2.276686e+002, 1.423983e+003
2.281507e+002, 1.422600e+003
2.286328e+002, 1.419804e+003
2.291149e+002, 1.415667e+003
2.295970e+002, 1.409839e+003
2.300792e+002, 1.401506e+003
2.305613e+002, 1.391473e+003
2.310434e+002, 1.383259e+003
2.315255e+002, 1.377906e+003
2.320076e+002, 1.373030e+003
2.324897e+002, 1.367336e+003
2.329719e+002, 1.360063e+003
2.334540e+002, 1.353808e+003
2.339361e+002, 1.348979e+003
2.344182e+002, 1.345207e+003
2.349003e+002, 1.341083e+003
2.353824e+002, 1.336360e+003
2.358646e+002, 1.331637e+003
2.363467e+002, 1.327323e+003
2.368288e+002, 1.324070e+003
2.373109e+002, 1.319646e+003
2.377930e+002, 1.313397e+003
2.382751e+002, 1.305982e+003
2.387573e+002, 1.299746e+003
2.392394e+002, 1.295697e+003
2.397215e+002, 1.291305e+003
2.402036e+002, 1.285164e+003
2.406857e+002, 1.275831e+003
2.411678e+002, 1.268017e+003
2.416500e+002, 1.262307e+003
2.421321e+002, 1.257967e+003
2.426142e+002, 1.252978e+003
2.430963e+002, 1.246817e+003
2.435784e+002, 1.240821e+003
2.440605e+002, 1.235828e+003
2.445427e+002, 1.232809e+003
2.450248e+002, 1.228060e+003
2.455069e+002, 1.220299e+003
2.459890e+002, 1.211313e+003
2.464711e+002, 1.205475e+003
2.469532e+002, 1.205058e+003
2.474354e+002, 1.203971e+003
2.479175e+002, 1.199511e+003
2.483996e+002, 1.189958e+003
2.488817e+002, 1.182660e+003
2.493638e+002, 1.178306e+003
2.498459e+002, 1.175841e+003
2.503281e+002, 1.173147e+003
2.508102e+002, 1.169184e+003
2.512923e+002, 1.166869e+003
2.517744e+002, 1.167706e+003
2.522565e+002, 1.172862e+003
2.527386e+002, 1.176179e+003
2.532208e+002, 1.176980e+003
2.537029e+002, 1.176442e+003
2.541850e+002, 1.176224e+003
2.546671e+002, 1.175860e+003
2.551492e+002, 1.176708e+003
2.556313e+002, 1.179282e+003
2.561135e+002, 1.183719e+003
2.565956e+002, 1.188850e+003
2.570777e+002, 1.195102e+003
2.575598e+002, 1.201526e+003
2.580419e+002, 1.206548e+003
2.585240e+002, 1.208999e+003
2.590062e+002, 1.212559e+003
2.594883e+002, 1.218611e+003
2.599704e+002, 1.227250e+003
2.604525e+002, 1.234979e+003
2.609346e+002, 1.240825e+003
2.614167e+002, 1.246852e+003
2.618989e+002, 1.255854e+003
2.623810e+002, 1.269156e+003
2.628631e+002, 1.281666e+003
2.633452e+002, 1.291600e+003
2.638273e+002, 1.299127e+003
2.643094e+002, 1.308833e+003
2.647916e+002, 1.321697e+003
2.652737e+002, 1.335465e+003
2.657558e+002, 1.348097e+003
2.662379e+002, 1.359116e+003
2.667200e+002, 1.370395e+003
2.672021e+002, 1.382680e+003
2.676843e+002, 1.395726e+003
2.681664e+002, 1.407400e+003
2.686485e+002, 1.417083e+003
2.691306e+002, 1.426605e+003
2.696127e+002, 1.437427e+003
2.700948e+002, 1.449718e+003
2.705770e+002, 1.462289e+003
2.710591e+002, 1.474862e+003
2.715412e+002, 1.487413e+003
2.720233e+002, 1.500217e+003
2.725054e+002, 1.512938e+003
2.729875e+002, 1.526204e+003
2.734697e+002, 1.541158e+003
2.739518e+002, 1.558620e+003
2.744339e+002, 1.572809e+003
2.749160e+002, 1.581999e+003
2.753981e+002, 1.588065e+003
2.758802e+002, 1.596958e+003
2.763624e+002, 1.608972e+003
2.768445e+002, 1.622212e+003
2.773266e+002, 1.635824e+003
2.778087e+002, 1.649880e+003
2.782908e+002, 1.663274e+003
2.787729e+002, 1.675674e+003
2.792551e+002, 1.687667e+003
2.797372e+002, 1.700263e+003
2.802193e+002, 1.713572e+003
2.807014e+002, 1.727129e+003
2.811835e+002, 1.740393e+003
2.816656e+002, 1.753400e+003
2.821478e+002, 1.768368e+003
2.826299e+002, 1.785674e+003
2.831120e+002, 1.804398e+003
2.835941e+002, 1.823152e+003
2.840762e+002, 1.842013e+003
2.845583e+002, 1.860907e+003
2.850405e+002, 1.879802e+003
2.855226e+002, 1.898762e+003
2.860047e+002, 1.918548e+003
2.864868e+002, 1.939362e+003
2.869689e+002, 1.960339e+003
2.874510e+002, 1.979841e+003
2.879332e+002, 1.997979e+003
2.884153e+002, 2.017327e+003
2.888974e+002, 2.039658e+003
2.893795e+002, 2.063839e+003
2.898616e+002, 2.084592e+003
2.903438e+002, 2.101632e+003
2.908259e+002, 2.117157e+003
2.913080e+002, 2.134014e+003
2.917901e+002, 2.151628e+003
2.922722e+002, 2.167492e+003
2.927543e+002, 2.180074e+003
2.932365e+002, 2.190528e+003
2.937186e+002, 2.202086e+003
2.942007e+002, 2.214696e+003
2.946828e+002, 2.225562e+003
2.951649e+002, 2.232095e+003
2.956470e+002, 2.234765e+003
2.961292e+002, 2.235268e+003
2.966113e+002, 2.233831e+003
2.970934e+002, 2.230665e+003
2.975755e+002, 2.226275e+003
2.980576e+002, 2.220567e+003
2.985397e+002, 2.212887e+003
2.990219e+002, 2.202383e+003
2.995040e+002, 2.189491e+003
2.999861e+002, 2.175131e+003
3.004682e+002, 2.159176e+003
3.009503e+002, 2.142546e+003
3.014324e+002, 2.126068e+003
3.019146e+002, 2.109812e+003
3.023967e+002, 2.093301e+003
3.028788e+002, 2.077219e+003
3.033609e+002, 2.060530e+003
3.038430e+002, 2.042045e+003
3.043251e+002, 2.021592e+003
3.048073e+002, 1.999407e+003
3.052894e+002, 1.974115e+003
3.057715e+002, 1.947054e+003
3.062536e+002, 1.920775e+003
3.067357e+002, 1.898407e+003
3.072178e+002, 1.876711e+003
3.077000e+002, 1.852637e+003
3.081821e+002, 1.825806e+003
3.086642e+002, 1.797656e+003
3.091463e+002, 1.769669e+003
3.096284e+002, 1.741097e+003
3.101105e+002, 1.710346e+003
3.105927e+002, 1.674949e+003
3.110748e+002, 1.638885e+003
3.115569e+002, 1.604822e+003
3.120390e+002, 1.572825e+003
3.125211e+002, 1.540815e+003
3.130032e+002, 1.507008e+003
3.134854e+002, 1.472422e+003
3.139675e+002, 1.438583e+003
3.144496e+002, 1.405321e+003
3.149317e+002, 1.373662e+003
3.154138e+002, 1.344096e+003
3.158959e+002, 1.316567e+003
3.163781e+002, 1.289729e+003
3.168602e+002, 1.262910e+003
3.173423e+002, 1.236920e+003
3.178244e+002, 1.212363e+003
3.183065e+002, 1.188874e+003
3.187886e+002, 1.167577e+003
3.192708e+002, 1.149834e+003
3.197529e+002, 1.134828e+003
3.202350e+002, 1.120199e+003
3.207171e+002, 1.105458e+003
3.211992e+002, 1.090923e+003
3.216813e+002, 1.076550e+003
3.221635e+002, 1.061568e+003
3.226456e+002, 1.048476e+003
3.231277e+002, 1.039047e+003
3.236098e+002, 1.031589e+003
3.240919e+002, 1.023245e+003
3.245740e+002, 1.012179e+003
3.250562e+002, 1.001533e+003
3.255383e+002, 9.925621e+002
3.260204e+002, 9.859250e+002
3.265025e+002, 9.784988e+002
3.269846e+002, 9.683507e+002
3.274667e+002, 9.580646e+002
3.279489e+002, 9.502763e+002
3.284310e+002, 9.479056e+002
3.289131e+002, 9.447936e+002
3.293952e+002, 9.397234e+002
3.298773e+002, 9.326459e+002
3.303594e+002, 9.260049e+002
3.308416e+002, 9.203053e+002
3.313237e+002, 9.146946e+002
3.318058e+002, 9.084864e+002
3.322879e+002, 9.005482e+002
3.327700e+002, 8.939686e+002
3.332521e+002, 8.896019e+002
3.337343e+002, 8.868251e+002
3.342164e+002, 8.824924e+002
3.346985e+002, 8.757717e+002
3.351806e+002, 8.688489e+002
3.356627e+002, 8.630571e+002
3.361448e+002, 8.592090e+002
3.366270e+002, 8.540452e+002
3.371091e+002, 8.471282e+002
3.375912e+002, 8.391865e+002
3.380733e+002, 8.314743e+002
3.385554e+002, 8.240027e+002
3.390375e+002, 8.169787e+002
3.395197e+002, 8.105305e+002
3.400018e+002, 8.047368e+002
3.404839e+002, 7.990216e+002
3.409660e+002, 7.933668e+002
3.414481e+002, 7.880616e+002
3.419302e+002, 7.842911e+002
3.424124e+002, 7.822634e+002
3.428945e+002, 7.782850e+002
3.433766e+002, 7.703323e+002
3.438587e+002, 7.595767e+002
3.443408e+002, 7.512389e+002
3.448229e+002, 7.456052e+002
3.453051e+002, 7.407303e+002
3.457872e+002, 7.346342e+002
3.462693e+002, 7.276136e+002
3.467514e+002, 7.215828e+002
3.472335e+002, 7.173755e+002
3.477156e+002, 7.138792e+002
3.481978e+002, 7.086502e+002
3.486799e+002, 7.018596e+002
3.491620e+002, 6.955918e+002
3.496441e+002, 6.915339e+002
3.501262e+002, 6.890248e+002
3.506083e+002, 6.865586e+002
3.510905e+002, 6.839469e+002
3.515726e+002, 6.813008e+002
3.520547e+002, 6.788284e+002
3.525368e+002, 6.764338e+002
3.530189e+002, 6.738289e+002
3.535010e+002, 6.704107e+002
3.539832e+002, 6.669120e+002
3.544653e+002, 6.642359e+002
3.549474e+002, 6.624059e+002
3.554295e+002, 6.610816e+002
3.559116e+002, 6.600831e+002
3.563937e+002, 6.593868e+002
3.568759e+002, 6.589711e+002
3.573580e+002, 6.590651e+002
3.578401e+002, 6.592295e+002
3.583222e+002, 6.591223e+002
3.588043e+002, 6.587916e+002
3.592864e+002, 6.585293e+002
3.597686e+002, 6.581351e+002
3.602507e+002, 6.580640e+002
3.607328e+002, 6.587742e+002
3.612149e+002, 6.608417e+002
3.616970e+002, 6.628940e+002
3.621791e+002, 6.640678e+002
3.626613e+002, 6.648054e+002
3.631434e+002, 6.661317e+002
3.636255e+002, 6.691088e+002
3.641076e+002, 6.721464e+002
3.645897e+002, 6.744482e+002
3.650718e+002, 6.756349e+002
3.655540e+002, 6.769346e+002
3.660361e+002, 6.783036e+002
3.665182e+002, 6.799834e+002
3.670003e+002, 6.822654e+002
3.674824e+002, 6.862133e+002
3.679645e+002, 6.897184e+002
3.684467e+002, 6.916186e+002
3.689288e+002, 6.917283e+002
3.694109e+002, 6.942670e+002
3.698930e+002, 7.007966e+002
3.703751e+002, 7.085740e+002
3.708572e+002, 7.158402e+002
3.713394e+002, 7.223431e+002
3.718215e+002, 7.286200e+002
3.723036e+002, 7.344701e+002
3.727857e+002, 7.401272e+002
3.732678e+002, 7.464215e+002
3.737499e+002, 7.532420e+002
3.742321e+002, 7.609834e+002
3.747142e+002, 7.700375e+002
3.751963e+002, 7.809933e+002
3.756784e+002, 7.908524e+002
3.761605e+002, 7.991423e+002
3.766426e+002, 8.068505e+002
3.771248e+002, 8.150660e+002
3.776069e+002, 8.238315e+002
3.780890e+002, 8.333001e+002
3.785711e+002, 8.433748e+002
3.790532e+002, 8.541754e+002
3.795353e+002, 8.659621e+002
3.800175e+002, 8.789260e+002
3.804996e+002, 8.924855e+002
3.809817e+002, 9.062167e+002
3.814638e+002, 9.200648e+002
3.819459e+002, 9.341385e+002
3.824280e+002, 9.482515e+002
3.829102e+002, 9.626743e+002
3.833923e+002, 9.776277e+002
3.838744e+002, 9.932010e+002
3.843565e+002, 1.009096e+003
3.848386e+002, 1.024649e+003
3.853207e+002, 1.040416e+003
3.858029e+002, 1.057030e+003
3.862850e+002, 1.074739e+003
3.867671e+002, 1.093164e+003
3.872492e+002, 1.112451e+003
3.877313e+002, 1.132308e+003
3.882134e+002, 1.151700e+003
3.886956e+002, 1.169892e+003
3.891777e+002, 1.187334e+003
3.896598e+002, 1.204377e+003
3.901419e+002, 1.220996e+003
3.906240e+002, 1.237645e+003
3.911061e+002, 1.255273e+003
3.915883e+002, 1.272988e+003
3.920704e+002, 1.289820e+003
3.925525e+002, 1.304351e+003
3.930346e+002, 1.319545e+003
3.935167e+002, 1.337961e+003
3.939988e+002, 1.358428e+003
3.944810e+002, 1.377853e+003
3.949631e+002, 1.395177e+003
3.954452e+002, 1.411188e+003
3.959273e+002, 1.426251e+003
3.964094e+002, 1.440407e+003
3.968915e+002, 1.453613e+003
3.973737e+002, 1.465771e+003
3.978558e+002, 1.476986e+003
3.983379e+002, 1.487388e+003
3.988200e+002, 1.497020e+003
3.993021e+002, 1.505751e+003
3.997842e+002, 1.513811e+003
4.002664e+002, 1.521178e+003
4.007485e+002, 1.526606e+003
4.012306e+002, 1.528992e+003
4.017127e+002, 1.530413e+003
4.021948e+002, 1.532354e+003
4.026769e+002, 1.536144e+003
4.031591e+002, 1.537520e+003
4.036412e+002, 1.536030e+003
4.041233e+002, 1.532073e+003
4.046054e+002, 1.526255e+003
4.050875e+002, 1.518087e+003
4.055696e+002, 1.509708e+003
4.060518e+002, 1.502323e+003
4.065339e+002, 1.496019e+003
4.070160e+002, 1.487813e+003
4.074981e+002, 1.477396e+003
4.079802e+002, 1.466263e+003
4.084623e+002, 1.456143e+003
4.089445e+002, 1.446998e+003
4.094266e+002, 1.438018e+003
4.099087e+002, 1.428872e+003
4.103908e+002, 1.419903e+003
4.108729e+002, 1.412518e+003
4.113550e+002, 1.406627e+003
4.118372e+002, 1.400191e+003
4.123193e+002, 1.390209e+003
4.128014e+002, 1.378643e+003
4.132835e+002, 1.370550e+003
4.137656e+002, 1.367180e+003
4.142477e+002, 1.364671e+003
4.147299e+002, 1.358261e+003
4.152120e+002, 1.349411e+003
4.156941e+002, 1.341836e+003
4.161762e+002, 1.338275e+003
4.166583e+002, 1.335975e+003
4.171404e+002, 1.332694e+003
4.176226e+002, 1.328329e+003
4.181047e+002, 1.323236e+003
4.185868e+002, 1.317106e+003
4.190689e+002, 1.310528e+003
4.195510e+002, 1.303995e+003
4.200331e+002, 1.298094e+003
4.205153e+002, 1.291699e+003
4.209974e+002, 1.283531e+003
4.214795e+002, 1.274533e+003
4.219616e+002, 1.267428e+003
4.224437e+002, 1.266477e+003
4.229258e+002, 1.264469e+003
4.234080e+002, 1.257622e+003
4.238901e+002, 1.243631e+003
4.243722e+002, 1.232211e+003
4.248543e+002, 1.226235e+003
4.253364e+002, 1.222185e+003
4.258185e+002, 1.216714e+003
4.263007e+002, 1.209371e+003
4.267828e+002, 1.201144e+003
4.272649e+002, 1.191793e+003
4.277470e+002, 1.181586e+003
4.282291e+002, 1.171929e+003
4.287112e+002, 1.162849e+003
4.291934e+002, 1.154370e+003
4.296755e+002, 1.146597e+003
4.301576e+002, 1.139897e+003
4.306397e+002, 1.132009e+003
4.311218e+002, 1.122516e+003
4.316039e+002, 1.112412e+003
4.320861e+002, 1.103029e+003
4.325682e+002, 1.094387e+003
4.330503e+002, 1.086354e+003
4.335324e+002, 1.079169e+003
4.340145e+002, 1.072448e+003
4.344966e+002, 1.064539e+003
4.349788e+002, 1.055405e+003
4.354609e+002, 1.046548e+003
4.359430e+002, 1.039331e+003
4.364251e+002, 1.033317e+003
4.369072e+002, 1.027197e+003
4.373893e+002, 1.020460e+003
4.378715e+002, 1.014142e+003
4.383536e+002, 1.009877e+003
4.388357e+002, 1.007060e+003
4.393178e+002, 1.004002e+003
4.397999e+002, 9.992568e+002
4.402820e+002, 9.942045e+002
4.407642e+002, 9.900179e+002
4.412463e+002, 9.867157e+002
4.417284e+002, 9.842048e+002
4.422105e+002, 9.826088e+002
4.426926e+002, 9.816383e+002
4.431747e+002, 9.810290e+002
4.436569e+002, 9.810169e+002
4.441390e+002, 9.809629e+002
4.446211e+002, 9.802033e+002
4.451032e+002, 9.791876e+002
4.455853e+002, 9.792480e+002
4.460674e+002, 9.801644e+002
4.465496e+002, 9.826174e+002
4.470317e+002, 9.872885e+002
4.475138e+002, 9.952426e+002
4.479959e+002, 1.001996e+003
4.484780e+002, 1.005935e+003
4.489601e+002, 1.009874e+003
4.494423e+002, 1.016870e+003
4.499244e+002, 1.028596e+003
4.504065e+002, 1.039649e+003
4.508886e+002, 1.048470e+003
4.513707e+002, 1.056031e+003
4.518528e+002, 1.067232e+003
4.523350e+002, 1.083164e+003
4.528171e+002, 1.099629e+003
4.532992e+002, 1.113946e+003
4.537813e+002, 1.126106e+003
4.542634e+002, 1.141573e+003
4.547455e+002, 1.161177e+003
4.552277e+002, 1.182127e+003
4.557098e+002, 1.200995e+003
4.561919e+002, 1.217972e+003
4.566740e+002, 1.235831e+003
4.571561e+002, 1.255591e+003
4.576382e+002, 1.276219e+003
4.581204e+002, 1.295578e+003
4.586025e+002, 1.313864e+003
4.590846e+002, 1.331135e+003
4.595667e+002, 1.349383e+003
4.600488e+002, 1.366118e+003
4.605309e+002, 1.377916e+003
4.610131e+002, 1.383846e+003
4.614952e+002, 1.386913e+003
4.619773e+002, 1.389053e+003
4.624594e+002, 1.389631e+003
4.629415e+002, 1.387714e+003
4.634236e+002, 1.383265e+003
4.639058e+002, 1.375963e+003
4.643879e+002, 1.365439e+003
4.648700e+002, 1.351841e+003
4.653521e+002, 1.335694e+003
4.658342e+002, 1.316809e+003
4.663163e+002, 1.295456e+003
4.667985e+002, 1.271524e+003
4.672806e+002, 1.243340e+003
4.677627e+002, 1.215736e+003
4.682448e+002, 1.189527e+003
4.687269e+002, 1.163877e+003
4.692090e+002, 1.137058e+003
4.696912e+002, 1.107061e+003
4.701733e+002, 1.079113e+003
4.706554e+002, 1.054894e+003
4.711375e+002, 1.033983e+003
4.716196e+002, 1.011998e+003
4.721017e+002, 9.881725e+002
4.725839e+002, 9.653510e+002
4.730660e+002, 9.453739e+002
4.735481e+002, 9.283605e+002
4.740302e+002, 9.109108e+002
4.745123e+002, 8.923867e+002
4.749944e+002, 8.744242e+002
4.754766e+002, 8.598439e+002
4.759587e+002, 8.482536e+002
4.764408e+002, 8.370356e+002
4.769229e+002, 8.248688e+002
4.774050e+002, 8.127560e+002
4.778871e+002, 8.025818e+002
4.783693e+002, 7.942267e+002
4.788514e+002, 7.865675e+002
4.793335e+002, 7.789760e+002
4.798156e+002, 7.715346e+002
4.802977e+002, 7.643466e+002
4.807798e+002, 7.573618e+002
4.812620e+002, 7.509190e+002
4.817441e+002, 7.452006e+002
4.822262e+002, 7.401541e+002
4.827083e+002, 7.357055e+002
4.831904e+002, 7.322602e+002
4.836725e+002, 7.289562e+002
4.841547e+002, 7.256039e+002
4.846368e+002, 7.221868e+002
4.851189e+002, 7.185097e+002
4.856010e+002, 7.142374e+002
4.860831e+002, 7.099158e+002
4.865652e+002, 7.059288e+002
4.870474e+002, 7.028202e+002
4.875295e+002, 6.987256e+002
4.880116e+002, 6.929543e+002
4.884937e+002, 6.867542e+002
4.889758e+002, 6.820675e+002
4.894579e+002, 6.796567e+002
4.899401e+002, 6.762651e+002
4.904222e+002, 6.704334e+002
4.909043e+002, 6.630921e+002
4.913864e+002, 6.590032e+002
4.918685e+002, 6.586836e+002
4.923506e+002, 6.579384e+002
4.928328e+002, 6.533725e+002
4.933149e+002, 6.458209e+002
4.937970e+002, 6.390374e+002
4.942791e+002, 6.333910e+002
4.947612e+002, 6.279927e+002
4.952433e+002, 6.215995e+002
4.957255e+002, 6.145847e+002
4.962076e+002, 6.078392e+002
4.966897e+002, 6.019359e+002
4.971718e+002, 5.962067e+002
4.976539e+002, 5.899841e+002
4.981360e+002, 5.834464e+002
4.986182e+002, 5.771295e+002
4.991003e+002, 5.713133e+002
4.995824e+002, 5.658608e+002
5.000645e+002, 5.609197e+002
5.005466e+002, 5.565486e+002
5.010287e+002, 5.520762e+002
5.015109e+002, 5.471661e+002
5.019930e+002, 5.421005e+002
5.024751e+002, 5.372222e+002
5.029572e+002, 5.327602e+002
5.034393e+002, 5.282459e+002
5.039214e+002, 5.232850e+002
5.044036e+002, 5.182499e+002
5.048857e+002, 5.143741e+002
5.053678e+002, 5.121409e+002
5.058499e+002, 5.101829e+002
5.063320e+002, 5.081129e+002
5.068141e+002, 5.059766e+002
5.072963e+002, 5.028364e+002
5.077784e+002, 4.982250e+002
5.082605e+002, 4.937598e+002
5.087426e+002, 4.911959e+002
5.092247e+002, 4.904227e+002
5.097068e+002, 4.898657e+002
5.101890e+002, 4.894270e+002
5.106711e+002, 4.887130e+002
5.111532e+002, 4.867554e+002
5.116353e+002, 4.837999e+002
5.121174e+002, 4.810946e+002
5.125995e+002, 4.795405e+002
5.130817e+002, 4.784248e+002
5.135638e+002, 4.766311e+002
5.140459e+002, 4.741999e+002
5.145280e+002, 4.724189e+002
5.150101e+002, 4.729530e+002
5.154922e+002, 4.740851e+002
5.159744e+002, 4.741461e+002
5.164565e+002, 4.722613e+002
5.169386e+002, 4.703433e+002
5.174207e+002, 4.690664e+002
5.179028e+002, 4.681470e+002
5.183849e+002, 4.671181e+002
5.188671e+002, 4.658501e+002
5.193492e+002, 4.645182e+002
5.198313e+002, 4.629116e+002
5.203134e+002, 4.611105e+002
5.207955e+002, 4.602507e+002
5.212776e+002, 4.610135e+002
5.217598e+002, 4.617009e+002
5.222419e+002, 4.611563e+002
5.227240e+002, 4.589751e+002
5.232061e+002, 4.578387e+002
5.236882e+002, 4.581159e+002
5.241703e+002, 4.587248e+002
5.246525e+002, 4.581303e+002
5.251346e+002, 4.564105e+002
5.256167e+002, 4.547722e+002
5.260988e+002, 4.535143e+002
5.265809e+002, 4.525875e+002
5.270630e+002, 4.518814e+002
5.275452e+002, 4.514254e+002
5.280273e+002, 4.513417e+002
5.285094e+002, 4.524771e+002
5.289915e+002, 4.536154e+002
5.294736e+002, 4.530636e+002
5.299557e+002, 4.506357e+002
5.304379e+002, 4.483384e+002
5.309200e+002, 4.475288e+002
5.314021e+002, 4.473404e+002
5.318842e+002, 4.469005e+002
5.323663e+002, 4.456507e+002
5.328484e+002, 4.446186e+002
5.333306e+002, 4.447718e+002
5.338127e+002, 4.452621e+002
5.342948e+002, 4.442699e+002
5.347769e+002, 4.394370e+002
5.352590e+002, 4.356791e+002
5.357411e+002, 4.345628e+002
5.362233e+002, 4.359858e+002
5.367054e+002, 4.361250e+002
5.371875e+002, 4.344695e+002
5.376696e+002, 4.325342e+002
5.381517e+002, 4.314120e+002
5.386339e+002, 4.312210e+002
5.391160e+002, 4.302641e+002
5.395981e+002, 4.281991e+002
5.400802e+002, 4.260990e+002
5.405623e+002, 4.258339e+002
5.410444e+002, 4.269859e+002
5.415266e+002, 4.270704e+002
5.420087e+002, 4.246748e+002
5.424908e+002, 4.215626e+002
5.429729e+002, 4.204888e+002
5.434550e+002, 4.210168e+002
5.439371e+002, 4.213670e+002
5.444193e+002, 4.203274e+002
5.449014e+002, 4.188168e+002
5.453835e+002, 4.175499e+002
5.458656e+002, 4.165931e+002
5.463477e+002, 4.157459e+002
5.468298e+002, 4.149521e+002
5.473120e+002, 4.142027e+002
5.477941e+002, 4.134995e+002
5.482762e+002, 4.129550e+002
5.487583e+002, 4.122834e+002
5.492404e+002, 4.111568e+002
5.497225e+002, 4.099773e+002
5.502047e+002, 4.095669e+002
5.506868e+002, 4.107739e+002
5.511689e+002, 4.110412e+002
5.516510e+002, 4.093217e+002
5.521331e+002, 4.060557e+002
5.526152e+002, 4.043624e+002
5.530974e+002, 4.045368e+002
5.535795e+002, 4.048462e+002
5.540616e+002, 4.041801e+002
5.545437e+002, 4.026656e+002
5.550258e+002, 4.009504e+002
5.555079e+002, 3.990431e+002
5.559901e+002, 3.971048e+002
5.564722e+002, 3.948438e+002
5.569543e+002, 3.926996e+002
5.574364e+002, 3.917519e+002
5.579185e+002, 3.931557e+002
5.584006e+002, 3.944667e+002
5.588828e+002, 3.931520e+002
5.593649e+002, 3.902511e+002
5.598470e+002, 3.881488e+002
5.603291e+002, 3.880367e+002
5.608112e+002, 3.887086e+002
5.612933e+002, 3.902009e+002
5.617755e+002, 3.924938e+002
5.622576e+002, 3.933368e+002
5.627397e+002, 3.907872e+002
5.632218e+002, 3.880148e+002
5.637039e+002, 3.866426e+002
5.641860e+002, 3.875174e+002
5.646682e+002, 3.875567e+002
5.651503e+002, 3.864984e+002
5.656324e+002, 3.849446e+002
5.661145e+002, 3.836364e+002
5.665966e+002, 3.825821e+002
5.670787e+002, 3.816408e+002
5.675609e+002, 3.807437e+002
5.680430e+002, 3.800065e+002
5.685251e+002, 3.799850e+002
5.690072e+002, 3.805483e+002
5.694893e+002, 3.806284e+002
5.699714e+002, 3.790665e+002
5.704536e+002, 3.769364e+002
5.709357e+002, 3.758402e+002
5.714178e+002, 3.757594e+002
5.718999e+002, 3.758379e+002
5.723820e+002, 3.753951e+002
5.728641e+002, 3.749357e+002
5.733463e+002, 3.750926e+002
5.738284e+002, 3.765216e+002
5.743105e+002, 3.770585e+002
5.747926e+002, 3.752057e+002
5.752747e+002, 3.724064e+002
5.757568e+002, 3.704886e+002
5.762390e+002, 3.702129e+002
5.767211e+002, 3.699839e+002
5.772032e+002, 3.697344e+002
5.776853e+002, 3.693936e+002
5.781674e+002, 3.686018e+002
5.786495e+002, 3.670669e+002
5.791317e+002, 3.659617e+002
5.796138e+002, 3.659997e+002
5.800959e+002, 3.669890e+002
5.805780e+002, 3.672744e+002
5.810601e+002, 3.668168e+002
5.815422e+002, 3.661323e+002
5.820244e+002, 3.657522e+002
5.825065e+002, 3.654711e+002
5.829886e+002, 3.646563e+002
5.834707e+002, 3.630972e+002
5.839528e+002, 3.616490e+002
5.844349e+002, 3.611140e+002
5.849171e+002, 3.611722e+002
5.853992e+002, 3.613534e+002
5.858813e+002, 3.617757e+002
5.863634e+002, 3.619778e+002
5.868455e+002, 3.615711e+002
5.873276e+002, 3.607765e+002
5.878098e+002, 3.602170e+002
5.882919e+002, 3.606446e+002
5.887740e+002, 3.606544e+002
5.892561e+002, 3.595877e+002
5.897382e+002, 3.574123e+002
5.902203e+002, 3.561222e+002
5.907025e+002, 3.562427e+002
5.911846e+002, 3.563268e+002
5.916667e+002, 3.551825e+002
5.921488e+002, 3.526562e+002
5.926309e+002, 3.511695e+002
5.931130e+002, 3.509118e+002
5.935952e+002, 3.512683e+002
5.940773e+002, 3.518159e+002
5.945594e+002, 3.524136e+002
5.950415e+002, 3.524077e+002
5.955236e+002, 3.513472e+002
5.960057e+002, 3.501849e+002
5.964879e+002, 3.502108e+002
5.969700e+002, 3.509724e+002
5.974521e+002, 3.514069e+002
5.979342e+002, 3.507765e+002
5.984163e+002, 3.498988e+002
5.988984e+002, 3.491832e+002
5.993806e+002, 3.486249e+002
5.998627e+002, 3.480744e+002
6.003448e+002, 3.476957e+002
6.008269e+002, 3.471394e+002
6.013090e+002, 3.461640e+002
6.017911e+002, 3.445689e+002
6.022733e+002, 3.433031e+002
6.027554e+002, 3.423270e+002
6.032375e+002, 3.417340e+002
6.037196e+002, 3.417603e+002
6.042017e+002, 3.424904e+002
6.046838e+002, 3.429684e+002
6.051660e+002, 3.430552e+002
6.056481e+002, 3.429243e+002
6.061302e+002, 3.428055e+002
6.066123e+002, 3.427017e+002
6.070944e+002, 3.426250e+002
6.075765e+002, 3.426070e+002
6.080587e+002, 3.425880e+002
6.085408e+002, 3.424790e+002
6.090229e+002, 3.423026e+002
6.095050e+002, 3.421398e+002
6.099871e+002, 3.422082e+002
6.104692e+002, 3.421574e+002
6.109514e+002, 3.417107e+002
6.114335e+002, 3.408235e+002
6.119156e+002, 3.399799e+002
6.123977e+002, 3.392402e+002
6.128798e+002, 3.385987e+002
6.133619e+002, 3.380439e+002
6.138441e+002, 3.374956e+002
6.143262e+002, 3.372577e+002
6.148083e+002, 3.374794e+002
6.152904e+002, 3.378115e+002
6.157725e+002, 3.377737e+002
6.162546e+002, 3.373430e+002
6.167368e+002, 3.369794e+002
6.172189e+002, 3.367416e+002
6.177010e+002, 3.366654e+002
6.181831e+002, 3.371630e+002
6.186652e+002, 3.379829e+002
6.191473e+002, 3.380919e+002
6.196295e+002, 3.365464e+002
6.201116e+002, 3.343432e+002
6.205937e+002, 3.322650e+002
6.210758e+002, 3.303588e+002
6.215579e+002, 3.287895e+002
6.220400e+002, 3.277614e+002
6.225222e+002, 3.270368e+002
6.230043e+002, 3.265343e+002
6.234864e+002, 3.262839e+002
6.239685e+002, 3.260324e+002
6.244506e+002, 3.258963e+002
6.249327e+002, 3.256311e+002
6.254149e+002, 3.250357e+002
6.258970e+002, 3.239603e+002
6.263791e+002, 3.230317e+002
6.268612e+002, 3.223116e+002
6.273433e+002, 3.216730e+002
6.278254e+002, 3.210528e+002
6.283076e+002, 3.204323e+002
6.287897e+002, 3.193088e+002
6.292718e+002, 3.172690e+002
6.297539e+002, 3.151348e+002
6.302360e+002, 3.144252e+002
6.307181e+002, 3.147768e+002
6.312003e+002, 3.150519e+002
6.316824e+002, 3.145415e+002
6.321645e+002, 3.138423e+002
6.326466e+002, 3.136079e+002
6.331287e+002, 3.137051e+002
6.336108e+002, 3.132382e+002
6.340930e+002, 3.112906e+002
6.345751e+002, 3.092047e+002
6.350572e+002, 3.076918e+002
6.355393e+002, 3.068889e+002
6.360214e+002, 3.060095e+002
6.365035e+002, 3.047743e+002
6.369857e+002, 3.037990e+002
6.374678e+002, 3.037816e+002
6.379499e+002, 3.049691e+002
6.384320e+002, 3.052368e+002
6.389141e+002, 3.042978e+002
6.393962e+002, 3.028618e+002
6.398784e+002, 3.016534e+002
6.403605e+002, 3.007219e+002
6.408426e+002, 3.003468e+002
6.413247e+002, 3.009843e+002
6.418068e+002, 3.015255e+002
6.422889e+002, 3.005615e+002
6.427711e+002, 2.985822e+002
6.432532e+002, 2.966731e+002
6.437353e+002, 2.951732e+002
6.442174e+002, 2.940136e+002
6.446995e+002, 2.930600e+002
6.451816e+002, 2.923765e+002
6.456638e+002, 2.923430e+002
6.461459e+002, 2.939988e+002
6.466280e+002, 2.952979e+002
6.471101e+002, 2.953993e+002
6.475922e+002, 2.942056e+002
6.480743e+002, 2.936359e+002
6.485565e+002, 2.939817e+002
6.490386e+002, 2.941956e+002
6.495207e+002, 2.933119e+002
6.500028e+002, 2.914706e+002
6.504849e+002, 2.897074e+002
6.509670e+002, 2.880242e+002
6.514492e+002, 2.869856e+002
6.519313e+002, 2.876414e+002
6.524134e+002, 2.893134e+002
6.528955e+002, 2.908178e+002
6.533776e+002, 2.921531e+002
6.538597e+002, 2.926531e+002
6.543419e+002, 2.910176e+002
6.548240e+002, 2.884959e+002
6.553061e+002, 2.870287e+002
6.557882e+002, 2.884377e+002
6.562703e+002, 2.894664e+002
6.567524e+002, 2.890630e+002
6.572346e+002, 2.877642e+002
6.577167e+002, 2.871969e+002
6.581988e+002, 2.877342e+002
6.586809e+002, 2.881568e+002
6.591630e+002, 2.879836e+002
6.596451e+002, 2.873465e+002
6.601273e+002, 2.870996e+002
6.606094e+002, 2.872630e+002
6.610915e+002, 2.873063e+002
6.615736e+002, 2.864980e+002
6.620557e+002, 2.854181e+002
6.625378e+002, 2.854395e+002
6.630200e+002, 2.866198e+002
6.635021e+002, 2.876542e+002
6.639842e+002, 2.876146e+002
6.644663e+002, 2.869954e+002
6.649484e+002, 2.862471e+002
6.654305e+002, 2.854576e+002
6.659127e+002, 2.845079e+002
6.663948e+002, 2.824444e+002
6.668769e+002, 2.807271e+002
6.673590e+002, 2.809280e+002
6.678411e+002, 2.845075e+002
6.683232e+002, 2.869009e+002
6.688054e+002, 2.874098e+002
6.692875e+002, 2.869666e+002
6.697696e+002, 2.870740e+002
6.702517e+002, 2.877353e+002
6.707338e+002, 2.888279e+002
6.712159e+002, 2.905667e+002
6.716981e+002, 2.923642e+002
6.721802e+002, 2.929904e+002
6.726623e+002, 2.927241e+002
6.731444e+002, 2.925912e+002
6.736265e+002, 2.924533e+002
6.741086e+002, 2.931920e+002
6.745908e+002, 2.958415e+002
6.750729e+002, 3.001421e+002
6.755550e+002, 3.044717e+002
6.760371e+002, 3.090802e+002
6.765192e+002, 3.129101e+002
6.770013e+002, 3.151905e+002
6.774835e+002, 3.156960e+002
6.779656e+002, 3.173040e+002
6.784477e+002, 3.200617e+002
6.789298e+002, 3.238636e+002
6.794119e+002, 3.289533e+002
6.798940e+002, 3.354063e+002
6.803762e+002, 3.414844e+002
6.808583e+002, 3.473825e+002
6.813404e+002, 3.518164e+002
6.818225e+002, 3.534590e+002
6.823046e+002, 3.527083e+002
6.827867e+002, 3.502843e+002
6.832689e+002, 3.461636e+002
6.837510e+002, 3.410141e+002
6.842331e+002, 3.343078e+002
6.847152e+002, 3.272835e+002
6.851973e+002, 3.216783e+002
6.856794e+002, 3.188800e+002
6.861616e+002, 3.163445e+002
6.866437e+002, 3.134018e+002
6.871258e+002, 3.104928e+002
6.876079e+002, 3.084723e+002
6.880900e+002, 3.074707e+002
6.885721e+002, 3.070615e+002
6.890543e+002, 3.071349e+002
6.895364e+002, 3.077447e+002
6.900185e+002, 3.091255e+002
6.905006e+002, 3.112633e+002
6.909827e+002, 3.138717e+002
6.914648e+002, 3.175278e+002
6.919470e+002, 3.212123e+002
6.924291e+002, 3.230139e+002
6.929112e+002, 3.232719e+002
6.933933e+002, 3.238690e+002
6.938754e+002, 3.257834e+002
6.943575e+002, 3.284511e+002
6.948397e+002, 3.319707e+002
6.953218e+002, 3.364964e+002
6.958039e+002, 3.396961e+002
6.962860e+002, 3.407502e+002
6.967681e+002, 3.409238e+002
6.972502e+002, 3.405287e+002
6.977324e+002, 3.391425e+002
6.982145e+002, 3.395840e+002
6.986966e+002, 3.423497e+002
6.991787e+002, 3.455507e+002
6.996608e+002, 3.470341e+002
7.001429e+002, 3.472325e+002
7.006251e+002, 3.485430e+002
7.011072e+002, 3.514478e+002
7.015893e+002, 3.544796e+002
7.020714e+002, 3.559365e+002
7.025535e+002, 3.566538e+002
7.030356e+002, 3.578974e+002
7.035178e+002, 3.603748e+002
7.039999e+002, 3.627814e+002
7.044820e+002, 3.646095e+002
7.049641e+002, 3.660520e+002
7.054462e+002, 3.674514e+002
7.059283e+002, 3.691548e+002
7.064105e+002, 3.703632e+002
7.068926e+002, 3.712179e+002
7.073747e+002, 3.713741e+002
7.078568e+002, 3.697142e+002
7.083389e+002, 3.660917e+002
7.088210e+002, 3.626489e+002
7.093032e+002, 3.604967e+002
7.097853e+002, 3.585913e+002
7.102674e+002, 3.544793e+002
7.107495e+002, 3.486092e+002
7.112316e+002, 3.430189e+002
7.117137e+002, 3.383507e+002
7.121959e+002, 3.347584e+002
7.126780e+002, 3.329621e+002
7.131601e+002, 3.326527e+002
7.136422e+002, 3.317299e+002
7.141243e+002, 3.292400e+002
7.146064e+002, 3.263227e+002
7.150886e+002, 3.231931e+002
7.155707e+002, 3.197950e+002
7.160528e+002, 3.174102e+002
7.165349e+002, 3.159435e+002
7.170170e+002, 3.156884e+002
7.174991e+002, 3.176729e+002
7.179813e+002, 3.214045e+002
7.184634e+002, 3.225586e+002
7.189455e+002, 3.209158e+002
7.194276e+002, 3.193561e+002
7.199097e+002, 3.207601e+002
7.203918e+002, 3.235742e+002
7.208740e+002, 3.258701e+002
7.213561e+002, 3.274308e+002
7.218382e+002, 3.281409e+002
7.223203e+002, 3.268143e+002
7.228024e+002, 3.252784e+002
7.232845e+002, 3.251812e+002
7.237667e+002, 3.278491e+002
7.242488e+002, 3.299035e+002
7.247309e+002, 3.312642e+002
7.252130e+002, 3.321139e+002
7.256951e+002, 3.324972e+002
7.261772e+002, 3.323537e+002
7.266594e+002, 3.327195e+002
7.271415e+002, 3.338790e+002
7.276236e+002, 3.352070e+002
7.281057e+002, 3.356039e+002
7.285878e+002, 3.354834e+002
7.290699e+002, 3.359969e+002
7.295521e+002, 3.380710e+002
7.300342e+002, 3.400099e+002
7.305163e+002, 3.403453e+002
7.309984e+002, 3.398148e+002
7.314805e+002, 3.397316e+002
7.319626e+002, 3.407152e+002
7.324448e+002, 3.418351e+002
7.329269e+002, 3.429845e+002
7.334090e+002, 3.441394e+002
7.338911e+002, 3.451795e+002
7.343732e+002, 3.460438e+002
7.348553e+002, 3.469845e+002
7.353375e+002, 3.479904e+002
7.358196e+002, 3.491948e+002
7.363017e+002, 3.510849e+002
7.367838e+002, 3.535650e+002
7.372659e+002, 3.560497e+002
7.377480e+002, 3.582926e+002
7.382302e+002, 3.603364e+002
7.387123e+002, 3.623048e+002
7.391944e+002, 3.641542e+002
7.396765e+002, 3.656732e+002
7.401586e+002, 3.656728e+002
7.406407e+002, 3.663849e+002
7.411229e+002, 3.693866e+002
7.416050e+002, 3.745347e+002
7.420871e+002, 3.780602e+002
7.425692e+002, 3.795871e+002
7.430513e+002, 3.804438e+002
7.435334e+002, 3.815631e+002
7.440156e+002, 3.827370e+002
7.444977e+002, 3.821002e+002
7.449798e+002, 3.796574e+002
7.454619e+002, 3.762348e+002
7.459440e+002, 3.716880e+002
7.464261e+002, 3.669767e+002
7.469083e+002, 3.634938e+002
7.473904e+002, 3.613808e+002
7.478725e+002, 3.590191e+002
7.483546e+002, 3.540773e+002
7.488367e+002, 3.498022e+002
7.493188e+002, 3.489091e+002
7.498010e+002, 3.530279e+002
7.502831e+002, 3.549677e+002
7.507652e+002, 3.538991e+002
7.512473e+002, 3.519133e+002
7.517294e+002, 3.504749e+002
7.522115e+002, 3.495932e+002
7.526937e+002, 3.491679e+002
7.531758e+002, 3.492166e+002
7.536579e+002, 3.495861e+002
7.541400e+002, 3.505982e+002
7.546221e+002, 3.516786e+002
7.551042e+002, 3.517776e+002
7.555864e+002, 3.504961e+002
7.560685e+002, 3.490622e+002
7.565506e+002, 3.479274e+002
7.570327e+002, 3.470734e+002
7.575148e+002, 3.465026e+002
7.579969e+002, 3.456388e+002
7.584791e+002, 3.460921e+002
7.589612e+002, 3.487473e+002
7.594433e+002, 3.517381e+002
7.599254e+002, 3.526268e+002
7.604075e+002, 3.513308e+002
7.608896e+002, 3.498772e+002
7.613718e+002, 3.485414e+002
7.618539e+002, 3.472301e+002
7.623360e+002, 3.453112e+002
7.628181e+002, 3.433867e+002
7.633002e+002, 3.429082e+002
7.637823e+002, 3.453896e+002
7.642645e+002, 3.474012e+002
7.647466e+002, 3.463896e+002
7.652287e+002, 3.439200e+002
7.657108e+002, 3.423330e+002
7.661929e+002, 3.425824e+002
7.666750e+002, 3.429424e+002
7.671572e+002, 3.433476e+002
7.676393e+002, 3.437381e+002
7.681214e+002, 3.440920e+002
7.686035e+002, 3.444348e+002
7.690856e+002, 3.443083e+002
7.695677e+002, 3.435533e+002
7.700499e+002, 3.423554e+002
7.705320e+002, 3.406413e+002
7.710141e+002, 3.387053e+002
7.714962e+002, 3.373129e+002
7.719783e+002, 3.376844e+002
7.724604e+002, 3.377315e+002
7.729426e+002, 3.356304e+002
7.734247e+002, 3.324481e+002
7.739068e+002, 3.307415e+002
7.743889e+002, 3.323644e+002
7.748710e+002, 3.332233e+002
7.753531e+002, 3.323855e+002
7.758353e+002, 3.304455e+002
7.763174e+002, 3.290465e+002
7.767995e+002, 3.282168e+002
7.772816e+002, 3.276100e+002
7.777637e+002, 3.270781e+002
7.782458e+002, 3.267296e+002
7.787280e+002, 3.269030e+002
7.792101e+002, 3.274423e+002
7.796922e+002, 3.278395e+002
7.801743e+002, 3.281093e+002
7.806564e+002, 3.279262e+002
7.811385e+002, 3.266331e+002
7.816207e+002, 3.246187e+002
7.821028e+002, 3.236420e+002
7.825849e+002, 3.243207e+002
7.830670e+002, 3.251971e+002
7.835491e+002, 3.260765e+002
7.840313e+002, 3.268173e+002
7.845134e+002, 3.267711e+002
7.849955e+002, 3.259234e+002
7.854776e+002, 3.249590e+002
7.859597e+002, 3.239276e+002
7.864418e+002, 3.231511e+002
7.869240e+002, 3.234843e+002
7.874061e+002, 3.246060e+002
7.878882e+002, 3.253354e+002
7.883703e+002, 3.249751e+002
7.888524e+002, 3.241640e+002
7.893345e+002, 3.229082e+002
7.898167e+002, 3.213470e+002
7.902988e+002, 3.205148e+002
7.907809e+002, 3.210245e+002
7.912630e+002, 3.211270e+002
7.917451e+002, 3.200016e+002
7.922272e+002, 3.180502e+002
7.927094e+002, 3.169205e+002
7.931915e+002, 3.166084e+002
7.936736e+002, 3.167625e+002
7.941557e+002, 3.177484e+002
7.946378e+002, 3.187461e+002
7.951199e+002, 3.185406e+002
7.956021e+002, 3.173437e+002
7.960842e+002, 3.161321e+002
7.965663e+002, 3.151554e+002
7.970484e+002, 3.144292e+002
7.975305e+002, 3.140366e+002
7.980126e+002, 3.139415e+002
7.984948e+002, 3.139380e+002
7.989769e+002, 3.141672e+002
7.994590e+002, 3.141250e+002
7.999411e+002, 3.134971e+002
8.004232e+002, 3.124611e+002
8.009053e+002, 3.117369e+002
8.013875e+002, 3.113016e+002
8.018696e+002, 3.109203e+002
8.023517e+002, 3.104482e+002
8.028338e+002, 3.099571e+002
8.033159e+002, 3.094445e+002
8.037980e+002, 3.089473e+002
8.042802e+002, 3.086781e+002
8.047623e+002, 3.090697e+002
8.052444e+002, 3.093035e+002
8.057265e+002, 3.088759e+002
8.062086e+002, 3.079317e+002
8.066907e+002, 3.079555e+002
8.071729e+002, 3.092443e+002
8.076550e+002, 3.102036e+002
8.081371e+002, 3.099729e+002
8.086192e+002, 3.089140e+002
8.091013e+002, 3.077974e+002
8.095834e+002, 3.066725e+002
8.100656e+002, 3.058163e+002
8.105477e+002, 3.053996e+002
8.110298e+002, 3.053099e+002
8.115119e+002, 3.057821e+002
8.119940e+002, 3.066650e+002
8.124761e+002, 3.068333e+002
8.129583e+002, 3.055484e+002
8.134404e+002, 3.042470e+002
8.139225e+002, 3.032365e+002
8.144046e+002, 3.025621e+002
8.148867e+002, 3.025580e+002
8.153688e+002, 3.032541e+002
8.158510e+002, 3.040298e+002
8.163331e+002, 3.047421e+002
8.168152e+002, 3.052273e+002
8.172973e+002, 3.049863e+002
8.177794e+002, 3.042067e+002
8.182615e+002, 3.036495e+002
8.187437e+002, 3.038390e+002
8.192258e+002, 3.041966e+002
8.197079e+002, 3.046198e+002
8.201900e+002, 3.050216e+002
8.206721e+002, 3.048919e+002
8.211542e+002, 3.038188e+002
8.216364e+002, 3.031425e+002
8.221185e+002, 3.034928e+002
8.226006e+002, 3.044668e+002
8.230827e+002, 3.046438e+002
8.235648e+002, 3.041237e+002
8.240469e+002, 3.037204e+002
8.245291e+002, 3.043078e+002
8.250112e+002, 3.048611e+002
8.254933e+002, 3.038820e+002
8.259754e+002, 3.019903e+002
8.264575e+002, 3.011332e+002
8.269396e+002, 3.036977e+002
8.274218e+002, 3.052904e+002
8.279039e+002, 3.040186e+002
8.283860e+002, 3.010351e+002
8.288681e+002, 3.003586e+002
8.293502e+002, 3.023079e+002
8.298323e+002, 3.047224e+002
8.303145e+002, 3.070679e+002
8.307966e+002, 3.092222e+002
8.312787e+002, 3.111335e+002
8.317608e+002, 3.126861e+002
8.322429e+002, 3.134644e+002
8.327250e+002, 3.123067e+002
8.332072e+002, 3.113195e+002
8.336893e+002, 3.114189e+002
8.341714e+002, 3.125417e+002
8.346535e+002, 3.146144e+002
8.351356e+002, 3.182801e+002
8.356177e+002, 3.216131e+002
8.360999e+002, 3.243094e+002
8.365820e+002, 3.264991e+002
8.370641e+002, 3.281642e+002
8.375462e+002, 3.294134e+002
8.380283e+002, 3.315967e+002
8.385104e+002, 3.355835e+002
8.389926e+002, 3.398706e+002
8.394747e+002, 3.420750e+002
8.399568e+002, 3.435349e+002
8.404389e+002, 3.466282e+002
8.409210e+002, 3.537577e+002
8.414031e+002, 3.606624e+002
8.418853e+002, 3.668178e+002
8.423674e+002, 3.719890e+002
8.428495e+002, 3.753757e+002
8.433316e+002, 3.764074e+002
8.438137e+002, 3.786016e+002
8.442958e+002, 3.827404e+002
8.447780e+002, 3.876470e+002
8.452601e+002, 3.924327e+002
8.457422e+002, 3.965407e+002
8.462243e+002, 3.985953e+002
8.467064e+002, 3.977350e+002
8.471885e+002, 3.960026e+002
8.476707e+002, 3.946242e+002
8.481528e+002, 3.929976e+002
8.486349e+002, 3.903422e+002
8.491170e+002, 3.857951e+002
8.495991e+002, 3.818335e+002
8.500812e+002, 3.788051e+002
8.505634e+002, 3.758873e+002
8.510455e+002, 3.720384e+002
8.515276e+002, 3.673713e+002
8.520097e+002, 3.625349e+002
8.524918e+002, 3.574899e+002
8.529739e+002, 3.530729e+002
8.534561e+002, 3.501389e+002
8.539382e+002, 3.481912e+002
8.544203e+002, 3.469260e+002
8.549024e+002, 3.467392e+002
8.553845e+002, 3.456220e+002
8.558666e+002, 3.424818e+002
8.563488e+002, 3.388759e+002
8.568309e+002, 3.355654e+002
8.573130e+002, 3.323078e+002
8.577951e+002, 3.310851e+002
8.582772e+002, 3.320744e+002
8.587593e+002, 3.339375e+002
8.592415e+002, 3.352668e+002
8.597236e+002, 3.367720e+002
8.602057e+002, 3.396427e+002
8.606878e+002, 3.439748e+002
8.611699e+002, 3.494311e+002
8.616520e+002, 3.553723e+002
8.621342e+002, 3.628187e+002
8.626163e+002, 3.725603e+002
8.630984e+002, 3.844342e+002
8.635805e+002, 3.983193e+002
8.640626e+002, 4.143019e+002
8.645447e+002, 4.319318e+002
8.650269e+002, 4.529166e+002
8.655090e+002, 4.752030e+002
8.659911e+002, 4.920766e+002
8.664732e+002, 5.033379e+002
8.669553e+002, 5.078278e+002
8.674374e+002, 5.045223e+002
8.679196e+002, 4.942684e+002
8.684017e+002, 4.755757e+002
8.688838e+002, 4.496080e+002
8.693659e+002, 4.236749e+002
8.698480e+002, 3.970206e+002
8.703301e+002, 3.730911e+002
8.708123e+002, 3.526461e+002
8.712944e+002, 3.355375e+002
8.717765e+002, 3.210107e+002
8.722586e+002, 3.092017e+002
8.727407e+002, 2.998166e+002
8.732228e+002, 2.934682e+002
8.737050e+002, 2.888528e+002
8.741871e+002, 2.849091e+002
8.746692e+002, 2.816612e+002
8.751513e+002, 2.791064e+002
8.756334e+002, 2.776648e+002
8.761155e+002, 2.764689e+002
8.765977e+002, 2.753409e+002
8.770798e+002, 2.743487e+002
8.775619e+002, 2.736450e+002
8.780440e+002, 2.732483e+002
8.785261e+002, 2.729407e+002
8.790082e+002, 2.727316e+002
8.794904e+002, 2.724308e+002
8.799725e+002, 2.714682e+002
8.804546e+002, 2.703135e+002
8.809367e+002, 2.699128e+002
8.814188e+002, 2.711435e+002
8.819009e+002, 2.717744e+002
8.823831e+002, 2.704062e+002
8.828652e+002, 2.684249e+002
8.833473e+002, 2.672511e+002
8.838294e+002, 2.670459e+002
8.843115e+002, 2.670437e+002
8.847936e+002, 2.673057e+002
8.852758e+002, 2.674600e+002
8.857579e+002, 2.668112e+002
8.862400e+002, 2.658317e+002
8.867221e+002, 2.656519e+002
8.872042e+002, 2.664383e+002
8.876863e+002, 2.674750e+002
8.881685e+002, 2.689540e+002
8.886506e+002, 2.700815e+002
8.891327e+002, 2.700329e+002
8.896148e+002, 2.685406e+002
8.900969e+002, 2.679446e+002
8.905790e+002, 2.685665e+002
8.910612e+002, 2.692253e+002
8.915433e+002, 2.690639e+002
8.920254e+002, 2.683723e+002
8.925075e+002, 2.683937e+002
8.929896e+002, 2.690182e+002
8.934717e+002, 2.693886e+002
8.939539e+002, 2.686308e+002
8.944360e+002, 2.677515e+002
8.949181e+002, 2.672819e+002
8.954002e+002, 2.672628e+002
8.958823e+002, 2.678543e+002
8.963644e+002, 2.697635e+002
8.968466e+002, 2.708420e+002
8.973287e+002, 2.700920e+002
8.978108e+002, 2.685064e+002
8.982929e+002, 2.691019e+002
8.987750e+002, 2.714959e+002
8.992571e+002, 2.731544e+002
8.997393e+002, 2.724898e+002
9.002214e+002, 2.716757e+002
9.007035e+002, 2.726172e+002
9.011856e+002, 2.746349e+002
9.016677e+002, 2.765679e+002
9.021498e+002, 2.779382e+002
9.026320e+002, 2.795185e+002
9.031141e+002, 2.812064e+002
9.035962e+002, 2.832978e+002
9.040783e+002, 2.863276e+002
9.045604e+002, 2.902419e+002
9.050425e+002, 2.937273e+002
9.055247e+002, 2.963777e+002
9.060068e+002, 2.999632e+002
9.064889e+002, 3.059601e+002
9.069710e+002, 3.139307e+002
9.074531e+002, 3.238536e+002
9.079352e+002, 3.367513e+002
9.084174e+002, 3.478217e+002
9.088995e+002, 3.544888e+002
9.093816e+002, 3.615562e+002
9.098637e+002, 3.731245e+002
9.103458e+002, 3.893078e+002
9.108279e+002, 3.994238e+002
9.113101e+002, 4.034716e+002
9.117922e+002, 4.015243e+002
9.122743e+002, 3.919280e+002
9.127564e+002, 3.775118e+002
9.132385e+002, 3.592421e+002
9.137206e+002, 3.381212e+002
9.142028e+002, 3.201329e+002
9.146849e+002, 3.080680e+002
9.151670e+002, 2.984337e+002
9.156491e+002, 2.903765e+002
9.161312e+002, 2.838822e+002
9.166133e+002, 2.792642e+002
9.170955e+002, 2.765390e+002
9.175776e+002, 2.738598e+002
9.180597e+002, 2.702823e+002
9.185418e+002, 2.667719e+002
9.190239e+002, 2.644453e+002
9.195060e+002, 2.630811e+002
9.199882e+002, 2.622746e+002
9.204703e+002, 2.629905e+002
9.209524e+002, 2.627437e+002
9.214345e+002, 2.604446e+002
9.219166e+002, 2.575807e+002
9.223987e+002, 2.559904e+002
9.228809e+002, 2.557330e+002
9.233630e+002, 2.557091e+002
9.238451e+002, 2.557820e+002
9.243272e+002, 2.561169e+002
9.248093e+002, 2.574386e+002
9.252914e+002, 2.588675e+002
9.257736e+002, 2.591031e+002
9.262557e+002, 2.577905e+002
9.267378e+002, 2.563987e+002
9.272199e+002, 2.550802e+002
9.277020e+002, 2.540719e+002
9.281841e+002, 2.534904e+002
9.286663e+002, 2.533417e+002
9.291484e+002, 2.537954e+002
9.296305e+002, 2.548966e+002
9.301126e+002, 2.557070e+002
9.305947e+002, 2.552471e+002
9.310768e+002, 2.544109e+002
9.315590e+002, 2.545811e+002
9.320411e+002, 2.554608e+002
9.325232e+002, 2.557560e+002
9.330053e+002, 2.520301e+002
9.334874e+002, 2.516321e+002
9.339695e+002, 2.589641e+002
9.344517e+002, 2.694452e+002
9.349338e+002, 2.710758e+002
9.354159e+002, 2.636663e+002
9.358980e+002, 2.563032e+002
9.363801e+002, 2.511101e+002
9.368622e+002, 2.480364e+002
9.373444e+002, 2.485989e+002
9.378265e+002, 2.508122e+002
9.383086e+002, 2.516387e+002
9.387907e+002, 2.490598e+002
9.392728e+002, 2.475034e+002
9.397549e+002, 2.482187e+002
9.402371e+002, 2.496535e+002
9.407192e+002, 2.507928e+002
9.412013e+002, 2.516426e+002
9.416834e+002, 2.513565e+002
9.421655e+002, 2.498418e+002
9.426476e+002, 2.484973e+002
9.431298e+002, 2.482862e+002
9.436119e+002, 2.490184e+002
9.440940e+002, 2.513136e+002
9.445761e+002, 2.550371e+002
9.450582e+002, 2.565392e+002
9.455403e+002, 2.527163e+002
9.460225e+002, 2.492690e+002
9.465046e+002, 2.480090e+002
9.469867e+002, 2.484876e+002
9.474688e+002, 2.491733e+002
9.479509e+002, 2.500110e+002
9.484330e+002, 2.502357e+002
9.489152e+002, 2.490295e+002
9.493973e+002, 2.477490e+002
9.498794e+002, 2.479350e+002
9.503615e+002, 2.489239e+002
9.508436e+002, 2.495404e+002
9.513257e+002, 2.491618e+002
9.518079e+002, 2.488561e+002
9.522900e+002, 2.487138e+002
9.527721e+002, 2.486190e+002
9.532542e+002, 2.484411e+002
9.537363e+002, 2.481857e+002
9.542184e+002, 2.478170e+002
9.547006e+002, 2.473053e+002
9.551827e+002, 2.470153e+002
9.556648e+002, 2.477349e+002
9.561469e+002, 2.484637e+002
9.566290e+002, 2.480519e+002
9.571111e+002, 2.461689e+002
9.575933e+002, 2.454328e+002
9.580754e+002, 2.464839e+002
9.585575e+002, 2.475655e+002
9.590396e+002, 2.477584e+002
9.595217e+002, 2.473697e+002
9.600038e+002, 2.476148e+002
9.604860e+002, 2.483336e+002
9.609681e+002, 2.486940e+002
9.614502e+002, 2.474962e+002
9.619323e+002, 2.465759e+002
9.624144e+002, 2.473870e+002
9.628965e+002, 2.491986e+002
9.633787e+002, 2.503725e+002
9.638608e+002, 2.507369e+002
9.643429e+002, 2.506898e+002
9.648250e+002, 2.501106e+002
9.653071e+002, 2.495322e+002
9.657892e+002, 2.498535e+002
9.662714e+002, 2.507308e+002
9.667535e+002, 2.513047e+002
9.672356e+002, 2.513942e+002
9.677177e+002, 2.514009e+002
9.681998e+002, 2.509891e+002
9.686819e+002, 2.510340e+002
9.691641e+002, 2.525309e+002
9.696462e+002, 2.556903e+002
9.701283e+002, 2.568569e+002
9.706104e+002, 2.556466e+002
9.710925e+002, 2.546709e+002
9.715746e+002, 2.555476e+002
9.720568e+002, 2.575948e+002
9.725389e+002, 2.598214e+002
9.730210e+002, 2.621805e+002
9.735031e+002, 2.644522e+002
9.739852e+002, 2.665532e+002
9.744673e+002, 2.685250e+002
9.749495e+002, 2.699544e+002
9.754316e+002, 2.715041e+002
9.759137e+002, 2.746625e+002
9.763958e+002, 2.795689e+002
9.768779e+002, 2.832413e+002
9.773600e+002, 2.849886e+002
9.778422e+002, 2.861763e+002
9.783243e+002, 2.875410e+002
9.788064e+002, 2.896285e+002
9.792885e+002, 2.934370e+002
9.797706e+002, 2.996217e+002
9.802527e+002, 3.049831e+002
9.807349e+002, 3.086051e+002
9.812170e+002, 3.119161e+002
9.816991e+002, 3.158918e+002
9.821812e+002, 3.202497e+002
9.826633e+002, 3.229233e+002
9.831454e+002, 3.238845e+002
9.836276e+002, 3.228631e+002
9.841097e+002, 3.188893e+002
9.845918e+002, 3.135894e+002
9.850739e+002, 3.079294e+002
9.855560e+002, 3.019499e+002
9.860381e+002, 2.957455e+002
9.865203e+002, 2.892083e+002
9.870024e+002, 2.826035e+002
9.874845e+002, 2.756748e+002
9.879666e+002, 2.692601e+002
9.884487e+002, 2.645789e+002
9.889308e+002, 2.614316e+002
9.894130e+002, 2.591749e+002
9.898951e+002, 2.577383e+002
9.903772e+002, 2.569234e+002
9.908593e+002, 2.576881e+002
9.913414e+002, 2.581742e+002
9.918235e+002, 2.566220e+002
9.923057e+002, 2.528754e+002
9.927878e+002, 2.507544e+002
9.932699e+002, 2.504478e+002
9.937520e+002, 2.504423e+002
9.942341e+002, 2.498909e+002
9.947162e+002, 2.491536e+002
9.951984e+002, 2.489237e+002
9.956805e+002, 2.490271e+002
9.961626e+002, 2.489967e+002
9.966447e+002, 2.487174e+002
9.971268e+002, 2.481773e+002
9.976089e+002, 2.471262e+002
9.980911e+002, 2.460236e+002
9.985732e+002, 2.455662e+002
9.990553e+002, 2.457449e+002
9.995374e+002, 2.459560e+002
1.000020e+003, 2.461181e+002
1.000502e+003, 2.463426e+002
1.000984e+003, 2.467183e+002
1.001466e+003, 2.472093e+002
1.001948e+003, 2.480194e+002
1.002430e+003, 2.492512e+002
1.002912e+003, 2.492441e+002
1.003394e+003, 2.469722e+002
1.003876e+003, 2.453435e+002
1.004359e+003, 2.457234e+002
1.004841e+003, 2.475092e+002
1.005323e+003, 2.487656e+002
1.005805e+003, 2.497472e+002
1.006287e+003, 2.515173e+002
1.006769e+003, 2.566570e+002
1.007251e+003, 2.599640e+002
1.007733e+003, 2.569259e+002
1.008216e+003, 2.512538e+002
1.008698e+003, 2.481725e+002
1.009180e+003, 2.482628e+002
1.009662e+003, 2.489759e+002
1.010144e+003, 2.503438e+002
1.010626e+003, 2.515162e+002
1.011108e+003, 2.516171e+002
1.011590e+003, 2.509713e+002
1.012072e+003, 2.496276e+002
1.012555e+003, 2.476937e+002
1.013037e+003, 2.468159e+002
1.013519e+003, 2.485485e+002
1.014001e+003, 2.503113e+002
1.014483e+003, 2.512141e+002
1.014965e+003, 2.515642e+002
1.015447e+003, 2.526635e+002
1.015929e+003, 2.543780e+002
1.016411e+003, 2.551101e+002
1.016894e+003, 2.539864e+002
1.017376e+003, 2.525522e+002
1.017858e+003, 2.519835e+002
1.018340e+003, 2.519877e+002
1.018822e+003, 2.522216e+002
1.019304e+003, 2.526211e+002
1.019786e+003, 2.533721e+002
1.020268e+003, 2.546736e+002
1.020751e+003, 2.558067e+002
1.021233e+003, 2.559203e+002
1.021715e+003, 2.555107e+002
1.022197e+003, 2.559048e+002
1.022679e+003, 2.570411e+002
1.023161e+003, 2.583941e+002
1.023643e+003, 2.598660e+002
1.024125e+003, 2.613144e+002
1.024607e+003, 2.623772e+002
1.025090e+003, 2.634873e+002
1.025572e+003, 2.656411e+002
1.026054e+003, 2.689125e+002
1.026536e+003, 2.724128e+002
1.027018e+003, 2.759912e+002
1.027500e+003, 2.798459e+002
1.027982e+003, 2.850088e+002
1.028464e+003, 2.901141e+002
1.028947e+003, 2.936488e+002
1.029429e+003, 2.952790e+002
1.029911e+003, 2.953541e+002
1.030393e+003, 2.933380e+002
1.030875e+003, 2.910464e+002
1.031357e+003, 2.892022e+002
1.031839e+003, 2.878748e+002
1.032321e+003, 2.872122e+002
1.032803e+003, 2.872853e+002
1.033286e+003, 2.883647e+002
1.033768e+003, 2.899624e+002
1.034250e+003, 2.932984e+002
1.034732e+003, 2.993055e+002
1.035214e+003, 3.073303e+002
1.035696e+003, 3.157904e+002
1.036178e+003, 3.240958e+002
1.036660e+003, 3.361521e+002
1.037143e+003, 3.522372e+002
1.037625e+003, 3.730538e+002
1.038107e+003, 3.986885e+002
1.038589e+003, 4.303643e+002
1.039071e+003, 4.689162e+002
1.039553e+003, 5.147584e+002
1.040035e+003, 5.685068e+002
1.040517e+003, 6.324860e+002
1.041000e+003, 7.010136e+002
1.041482e+003, 7.707998e+002
1.041964e+003, 8.443602e+002
1.042446e+003, 9.237682e+002
1.042928e+003, 1.010362e+003
1.043410e+003, 1.105484e+003
1.043892e+003, 1.206093e+003
1.044374e+003, 1.325376e+003
1.044856e+003, 1.458834e+003
1.045339e+003, 1.621274e+003
1.045821e+003, 1.825671e+003
1.046303e+003, 2.071066e+003
1.046785e+003, 2.354236e+003
1.047267e+003, 2.674844e+003
1.047749e+003, 3.027546e+003
1.048231e+003, 3.383202e+003
1.048713e+003, 3.778215e+003
1.049195e+003, 4.285080e+003
1.049677e+003, 4.871955e+003
1.050160e+003, 5.434221e+003
1.050642e+003, 6.092917e+003
1.051124e+003, 6.500514e+003
1.051606e+003, 6.610900e+003
1.052088e+003, 6.471430e+003
1.052570e+003, 6.047557e+003
1.053052e+003, 5.419956e+003
1.053534e+003, 4.918292e+003
1.054017e+003, 4.582252e+003
1.054499e+003, 4.334112e+003
1.054981e+003, 4.182794e+003
1.055463e+003, 4.051594e+003
1.055945e+003, 3.875245e+003
1.056427e+003, 3.671391e+003
1.056909e+003, 3.587925e+003
1.057391e+003, 3.642871e+003
1.057874e+003, 3.613723e+003
1.058356e+003, 3.427779e+003
1.058838e+003, 3.118127e+003
1.059320e+003, 2.637280e+003
1.059802e+003, 2.095779e+003
1.060284e+003, 1.635537e+003
1.060766e+003, 1.295699e+003
1.061248e+003, 1.031499e+003
1.061730e+003, 8.530383e+002
1.062213e+003, 7.209385e+002
1.062695e+003, 6.141082e+002
1.063177e+003, 5.306258e+002
1.063659e+003, 4.637628e+002
1.064141e+003, 4.125288e+002
1.064623e+003, 3.739886e+002
1.065105e+003, 3.521442e+002
1.065587e+003, 3.365451e+002
1.066070e+003, 3.245323e+002
1.066552e+003, 3.154041e+002
1.067034e+003, 3.091730e+002
1.067516e+003, 3.059597e+002
1.067998e+003, 3.021581e+002
1.068480e+003, 2.972727e+002
1.068962e+003, 2.929558e+002
1.069444e+003, 2.909985e+002
1.069927e+003, 2.901150e+002
1.070409e+003, 2.894894e+002
1.070891e+003, 2.889956e+002
1.071373e+003, 2.872646e+002
1.071855e+003, 2.838116e+002
1.072337e+003, 2.804079e+002
1.072819e+003, 2.775670e+002
1.073301e+003, 2.750898e+002
1.073783e+003, 2.723481e+002
1.074266e+003, 2.696948e+002
1.074748e+003, 2.679278e+002
1.075230e+003, 2.675962e+002
1.075712e+003, 2.672188e+002
1.076194e+003, 2.663189e+002
1.076676e+003, 2.653575e+002
1.077158e+003, 2.646100e+002
1.077640e+003, 2.640510e+002
1.078122e+003, 2.634681e+002
1.078604e+003, 2.628344e+002
1.079087e+003, 2.619261e+002
1.079569e+003, 2.598273e+002
1.080051e+003, 2.582498e+002
1.080533e+003, 2.586230e+002
1.081015e+003, 2.600940e+002
1.081497e+003, 2.610376e+002
1.081979e+003, 2.612823e+002
1.082461e+003, 2.617909e+002
1.082944e+003, 2.627026e+002
1.083426e+003, 2.634035e+002
1.083908e+003, 2.627710e+002
1.084390e+003, 2.619306e+002
1.084872e+003, 2.621404e+002
1.085354e+003, 2.634678e+002
1.085836e+003, 2.656122e+002
1.086318e+003, 2.694313e+002
1.086801e+003, 2.724339e+002
1.087283e+003, 2.742441e+002
1.087765e+003, 2.746134e+002
1.088247e+003, 2.725205e+002
1.088729e+003, 2.686644e+002
1.089211e+003, 2.646739e+002
1.089693e+003, 2.606534e+002
1.090175e+003, 2.576674e+002
1.090657e+003, 2.571049e+002
1.091140e+003, 2.568072e+002
1.091622e+003, 2.555729e+002
1.092104e+003, 2.535422e+002
1.092586e+003, 2.517948e+002
1.093068e+003, 2.503211e+002
1.093550e+003, 2.490847e+002
1.094032e+003, 2.480213e+002
1.094514e+003, 2.472366e+002
1.094997e+003, 2.468416e+002
1.095479e+003, 2.467657e+002
1.095961e+003, 2.469489e+002
1.096443e+003, 2.475562e+002
1.096925e+003, 2.477297e+002
1.097407e+003, 2.473905e+002
1.097889e+003, 2.471141e+002
1.098371e+003, 2.477133e+002
1.098854e+003, 2.483859e+002
1.099336e+003, 2.479747e+002
1.099818e+003, 2.467020e+002
1.100300e+003, 2.455005e+002
1.100782e+003, 2.439321e+002
1.101264e+003, 2.437337e+002
1.101746e+003, 2.456325e+002
1.102228e+003, 2.479469e+002
1.102710e+003, 2.483774e+002
1.103193e+003, 2.474612e+002
1.103675e+003, 2.462766e+002
1.104157e+003, 2.449622e+002
1.104639e+003, 2.442370e+002
1.105121e+003, 2.452861e+002
1.105603e+003, 2.459677e+002
1.106085e+003, 2.453485e+002
1.106567e+003, 2.438540e+002
1.107049e+003, 2.426081e+002
1.107531e+003, 2.416381e+002
1.108014e+003, 2.413342e+002
1.108496e+003, 2.419306e+002
1.108978e+003, 2.427090e+002
1.109460e+003, 2.433397e+002
1.109942e+003, 2.437898e+002
1.110424e+003, 2.440760e+002
1.110906e+003, 2.442221e+002
1.111388e+003, 2.437306e+002
1.111871e+003, 2.425556e+002
1.112353e+003, 2.413748e+002
1.112835e+003, 2.403672e+002
1.113317e+003, 2.397228e+002
1.113799e+003, 2.399980e+002
1.114281e+003, 2.406843e+002
1.114763e+003, 2.409222e+002
1.115245e+003, 2.402613e+002
1.115728e+003, 2.398134e+002
1.116210e+003, 2.396238e+002
1.116692e+003, 2.395170e+002
1.117174e+003, 2.394509e+002
1.117656e+003, 2.393237e+002
1.118138e+003, 2.388450e+002
1.118620e+003, 2.381109e+002
1.119102e+003, 2.375277e+002
1.119584e+003, 2.368972e+002
1.120067e+003, 2.370495e+002
1.120549e+003, 2.386348e+002
1.121031e+003, 2.402177e+002
1.121513e+003, 2.393115e+002
1.121995e+003, 2.367878e+002
1.122477e+003, 2.357993e+002
1.122959e+003, 2.366097e+002
1.123441e+003, 2.375438e+002
1.123924e+003, 2.381479e+002
1.124406e+003, 2.381536e+002
1.124888e+003, 2.372227e+002
1.125370e+003, 2.357870e+002
1.125852e+003, 2.350730e+002
1.126334e+003, 2.350212e+002
1.126816e+003, 2.348821e+002
1.127298e+003, 2.343998e+002
1.127781e+003, 2.342341e+002
1.128263e+003, 2.352317e+002
1.128745e+003, 2.364806e+002
1.129227e+003, 2.373104e+002
1.129709e+003, 2.377170e+002
1.130191e+003, 2.376135e+002
1.130673e+003, 2.369745e+002
1.131155e+003, 2.361321e+002
1.131637e+003, 2.348774e+002
1.132120e+003, 2.340867e+002
1.132602e+003, 2.352716e+002
1.133084e+003, 2.372530e+002
1.133566e+003, 2.382984e+002
1.134048e+003, 2.378821e+002
1.134530e+003, 2.377139e+002
1.135012e+003, 2.378817e+002
1.135494e+003, 2.379294e+002
1.135976e+003, 2.373130e+002
1.136458e+003, 2.365545e+002
1.136941e+003, 2.365117e+002
1.137423e+003, 2.370116e+002
1.137905e+003, 2.376292e+002
1.138387e+003, 2.385213e+002
1.138869e+003, 2.391274e+002
1.139351e+003, 2.394566e+002
1.139833e+003, 2.394090e+002
1.140315e+003, 2.386440e+002
1.140798e+003, 2.374953e+002
1.141280e+003, 2.366184e+002
1.141762e+003, 2.360769e+002
1.142244e+003, 2.360765e+002
1.142726e+003, 2.373793e+002
1.143208e+003, 2.383575e+002
1.143690e+003, 2.387630e+002
1.144172e+003, 2.385656e+002
1.144655e+003, 2.371943e+002
1.145137e+003, 2.351495e+002
1.145619e+003, 2.346108e+002
1.146101e+003, 2.358692e+002
1.146583e+003, 2.370329e+002
1.147065e+003, 2.366533e+002
1.147547e+003, 2.364191e+002
1.148029e+003, 2.373481e+002
1.148511e+003, 2.388754e+002
1.148994e+003, 2.393653e+002
1.149476e+003, 2.388964e+002
1.149958e+003, 2.379168e+002
1.150440e+003, 2.362436e+002
1.150922e+003, 2.355163e+002
1.151404e+003, 2.380198e+002
1.151886e+003, 2.409951e+002
1.152368e+003, 2.422961e+002
1.152851e+003, 2.420744e+002
1.153333e+003, 2.418931e+002
1.153815e+003, 2.417495e+002
1.154297e+003, 2.415285e+002
1.154779e+003, 2.410836e+002
1.155261e+003, 2.407701e+002
1.155743e+003, 2.411198e+002
1.156225e+003, 2.416690e+002
1.156708e+003, 2.418776e+002
1.157190e+003, 2.417078e+002
1.157672e+003, 2.413219e+002
1.158154e+003, 2.406760e+002
1.158636e+003, 2.402171e+002
1.159118e+003, 2.403964e+002
1.159600e+003, 2.406771e+002
1.160082e+003, 2.401868e+002
1.160564e+003, 2.394641e+002
1.161047e+003, 2.395212e+002
1.161529e+003, 2.411615e+002
1.162011e+003, 2.418369e+002
1.162493e+003, 2.412869e+002
1.162975e+003, 2.408484e+002
1.163457e+003, 2.421254e+002
1.163939e+003, 2.437456e+002
1.164421e+003, 2.434695e+002
1.164903e+003, 2.418830e+002
1.165385e+003, 2.408279e+002
1.165868e+003, 2.409561e+002
1.166350e+003, 2.412001e+002
1.166832e+003, 2.415004e+002
1.167314e+003, 2.418390e+002
1.167796e+003, 2.421575e+002
1.168278e+003, 2.425135e+002
1.168760e+003, 2.431841e+002
1.169242e+003, 2.440694e+002
1.169725e+003, 2.444649e+002
1.170207e+003, 2.438109e+002
1.170689e+003, 2.430925e+002
1.171171e+003, 2.422966e+002
1.171653e+003, 2.418066e+002
1.172135e+003, 2.425823e+002
1.172617e+003, 2.439734e+002
1.173099e+003, 2.442974e+002
1.173582e+003, 2.433992e+002
1.174064e+003, 2.430401e+002
1.174546e+003, 2.446909e+002
1.175028e+003, 2.459059e+002
1.175510e+003, 2.460631e+002
1.175992e+003, 2.454279e+002
1.176474e+003, 2.438788e+002
1.176956e+003, 2.420222e+002
1.177438e+003, 2.419220e+002
1.177921e+003, 2.441755e+002
1.178403e+003, 2.462140e+002
1.178885e+003, 2.468964e+002
1.179367e+003, 2.472434e+002
1.179849e+003, 2.476837e+002
1.180331e+003, 2.480732e+002
1.180813e+003, 2.476721e+002
1.181295e+003, 2.467871e+002
1.181778e+003, 2.466876e+002
1.182260e+003, 2.480012e+002
1.182742e+003, 2.490950e+002
1.183224e+003, 2.488000e+002
1.183706e+003, 2.485413e+002
1.184188e+003, 2.493371e+002
1.184670e+003, 2.508235e+002
1.185152e+003, 2.506962e+002
1.185635e+003, 2.492835e+002
1.186117e+003, 2.482440e+002
1.186599e+003, 2.481159e+002
1.187081e+003, 2.486605e+002
1.187563e+003, 2.506689e+002
1.188045e+003, 2.525110e+002
1.188527e+003, 2.528454e+002
1.189009e+003, 2.518039e+002
1.189491e+003, 2.509633e+002
1.189974e+003, 2.503581e+002
1.190456e+003, 2.502554e+002
1.190938e+003, 2.513958e+002
1.191420e+003, 2.522466e+002
1.191902e+003, 2.515823e+002
1.192384e+003, 2.506032e+002
1.192866e+003, 2.504779e+002
1.193348e+003, 2.512218e+002
1.193830e+003, 2.523338e+002
1.194313e+003, 2.537581e+002
1.194795e+003, 2.548349e+002
1.195277e+003, 2.553645e+002
1.195759e+003, 2.552200e+002
1.196241e+003, 2.533302e+002
1.196723e+003, 2.513303e+002
1.197205e+003, 2.516406e+002
1.197687e+003, 2.543573e+002
1.198169e+003, 2.554648e+002
1.198652e+003, 2.548392e+002
1.199134e+003, 2.541619e+002
1.199616e+003, 2.542766e+002
1.200098e+003, 2.549932e+002
1.200580e+003, 2.568724e+002
1.201062e+003, 2.589792e+002
1.201544e+003, 2.596294e+002
1.202026e+003, 2.587703e+002
1.202509e+003, 2.585572e+002
1.202991e+003, 2.591786e+002
1.203473e+003, 2.599814e+002
1.203955e+003, 2.601452e+002
1.204437e+003, 2.606769e+002
1.204919e+003, 2.629326e+002
1.205401e+003, 2.658359e+002
1.205883e+003, 2.667081e+002
1.206365e+003, 2.654925e+002
1.206848e+003, 2.653487e+002
1.207330e+003, 2.667330e+002
1.207812e+003, 2.684269e+002
1.208294e+003, 2.697244e+002
1.208776e+003, 2.707987e+002
1.209258e+003, 2.713795e+002
1.209740e+003, 2.718923e+002
1.210222e+003, 2.736275e+002
1.210705e+003, 2.766227e+002
1.211187e+003, 2.794921e+002
1.211669e+003, 2.819689e+002
1.212151e+003, 2.845658e+002
1.212633e+003, 2.876946e+002
1.213115e+003, 2.910635e+002
1.213597e+003, 2.944911e+002
1.214079e+003, 2.979549e+002
1.214562e+003, 3.012546e+002
1.215044e+003, 3.044114e+002
1.215526e+003, 3.084885e+002
1.216008e+003, 3.139738e+002
1.216490e+003, 3.192591e+002
1.216972e+003, 3.227323e+002
1.217454e+003, 3.258327e+002
1.217936e+003, 3.295519e+002
1.218418e+003, 3.338068e+002
1.218901e+003, 3.381459e+002
1.219383e+003, 3.425842e+002
1.219865e+003, 3.469242e+002
1.220347e+003, 3.513116e+002
1.220829e+003, 3.547739e+002
1.221311e+003, 3.561803e+002
1.221793e+003, 3.566826e+002
1.222275e+003, 3.572350e+002
1.222757e+003, 3.577713e+002
1.223240e+003, 3.577027e+002
1.223722e+003, 3.570180e+002
1.224204e+003, 3.554196e+002
1.224686e+003, 3.525331e+002
1.225168e+003, 3.495371e+002
1.225650e+003, 3.460073e+002
1.226132e+003, 3.439223e+002
1.226614e+003, 3.461273e+002
1.227096e+003, 3.514500e+002
1.227579e+003, 3.478073e+002
1.228061e+003, 3.362574e+002
1.228543e+003, 3.260342e+002
1.229025e+003, 3.210788e+002
1.229507e+003, 3.174257e+002
1.229989e+003, 3.134984e+002
1.230471e+003, 3.093164e+002
1.230953e+003, 3.048257e+002
1.231436e+003, 3.000970e+002
1.231918e+003, 2.957787e+002
1.232400e+003, 2.919426e+002
1.232882e+003, 2.892704e+002
1.233364e+003, 2.885870e+002
1.233846e+003, 2.880196e+002
1.234328e+003, 2.865789e+002
1.234810e+003, 2.849661e+002
1.235292e+003, 2.836975e+002
1.235775e+003, 2.827308e+002
1.236257e+003, 2.815746e+002
1.236739e+003, 2.802906e+002
1.237221e+003, 2.791861e+002
1.237703e+003, 2.785377e+002
1.238185e+003, 2.778454e+002
1.238667e+003, 2.768596e+002
1.239149e+003, 2.758272e+002
1.239632e+003, 2.748065e+002
1.240114e+003, 2.738860e+002
1.240596e+003, 2.737980e+002
1.241078e+003, 2.742780e+002
1.241560e+003, 2.742010e+002
1.242042e+003, 2.725832e+002
1.242524e+003, 2.710030e+002
1.243006e+003, 2.694947e+002
1.243489e+003, 2.686054e+002
1.243971e+003, 2.690819e+002
1.244453e+003, 2.705414e+002
1.244935e+003, 2.715407e+002
1.245417e+003, 2.720960e+002
1.245899e+003, 2.722445e+002
1.246381e+003, 2.714709e+002
1.246863e+003, 2.711045e+002
1.247345e+003, 2.714781e+002
1.247828e+003, 2.719965e+002
1.248310e+003, 2.720966e+002
1.248792e+003, 2.719687e+002
1.249274e+003, 2.720865e+002
1.249756e+003, 2.724327e+002
1.250238e+003, 2.729204e+002
1.250720e+003, 2.740740e+002
1.251202e+003, 2.743212e+002
1.251684e+003, 2.730300e+002
1.252167e+003, 2.720843e+002
1.252649e+003, 2.737246e+002
1.253131e+003, 2.765529e+002
1.253613e+003, 2.779879e+002
1.254095e+003, 2.782217e+002
1.254577e+003, 2.780100e+002
1.255059e+003, 2.767798e+002
1.255541e+003, 2.766316e+002
1.256023e+003, 2.778606e+002
1.256506e+003, 2.795322e+002
1.256988e+003, 2.806799e+002
1.257470e+003, 2.818810e+002
1.257952e+003, 2.844735e+002
1.258434e+003, 2.877871e+002
1.258916e+003, 2.896053e+002
1.259398e+003, 2.890073e+002
1.259880e+003, 2.891082e+002
1.260363e+003, 2.901867e+002
1.260845e+003, 2.913688e+002
1.261327e+003, 2.917631e+002
1.261809e+003, 2.920182e+002
1.262291e+003, 2.928830e+002
1.262773e+003, 2.941480e+002
1.263255e+003, 2.952899e+002
1.263737e+003, 2.964294e+002
1.264219e+003, 2.966461e+002
1.264702e+003, 2.958252e+002
1.265184e+003, 2.948296e+002
1.265666e+003, 2.941672e+002
1.266148e+003, 2.937441e+002
1.266630e+003, 2.934994e+002
1.267112e+003, 2.934569e+002
1.267594e+003, 2.937859e+002
1.268076e+003, 2.945659e+002
1.268559e+003, 2.944362e+002
1.269041e+003, 2.933150e+002
1.269523e+003, 2.919473e+002
1.270005e+003, 2.904281e+002
1.270487e+003, 2.892461e+002
1.270969e+003, 2.890511e+002
1.271451e+003, 2.891690e+002
1.271933e+003, 2.886248e+002
1.272416e+003, 2.874888e+002
1.272898e+003, 2.866871e+002
1.273380e+003, 2.862600e+002
1.273862e+003, 2.859302e+002
1.274344e+003, 2.860109e+002
1.274826e+003, 2.855110e+002
1.275308e+003, 2.837418e+002
1.275790e+003, 2.816636e+002
1.276272e+003, 2.805431e+002
1.276755e+003, 2.801379e+002
1.277237e+003, 2.794549e+002
1.277719e+003, 2.785138e+002
1.278201e+003, 2.778358e+002
1.278683e+003, 2.769845e+002
1.279165e+003, 2.776546e+002
1.279647e+003, 2.808503e+002
1.280129e+003, 2.842031e+002
1.280611e+003, 2.848875e+002
1.281094e+003, 2.839000e+002
1.281576e+003, 2.830971e+002
1.282058e+003, 2.825949e+002
1.282540e+003, 2.824334e+002
1.283022e+003, 2.829932e+002
1.283504e+003, 2.831494e+002
1.283986e+003, 2.827229e+002
1.284468e+003, 2.821088e+002
1.284950e+003, 2.816500e+002
1.285433e+003, 2.812751e+002
1.285915e+003, 2.805811e+002
1.286397e+003, 2.798761e+002
1.286879e+003, 2.804914e+002
1.287361e+003, 2.830161e+002
1.287843e+003, 2.846152e+002
1.288325e+003, 2.849591e+002
1.288807e+003, 2.850100e+002
1.289290e+003, 2.858037e+002
1.289772e+003, 2.864748e+002
1.290254e+003, 2.857452e+002
1.290736e+003, 2.844724e+002
1.291218e+003, 2.847333e+002
1.291700e+003, 2.866613e+002
1.292182e+003, 2.884428e+002
1.292664e+003, 2.899499e+002
1.293146e+003, 2.909871e+002
1.293629e+003, 2.908251e+002
1.294111e+003, 2.908065e+002
1.294593e+003, 2.920802e+002
1.295075e+003, 2.936782e+002
1.295557e+003, 2.943706e+002
1.296039e+003, 2.942619e+002
1.296521e+003, 2.940495e+002
1.297003e+003, 2.938183e+002
1.297486e+003, 2.939594e+002
1.297968e+003, 2.951100e+002
1.298450e+003, 2.961279e+002
1.298932e+003, 2.966673e+002
1.299414e+003, 2.970745e+002
1.299896e+003, 2.977076e+002
1.300378e+003, 2.985233e+002
1.300860e+003, 2.994707e+002
1.301343e+003, 3.005038e+002
1.301825e+003, 3.014841e+002
##END=



