##NAMES=Plumbonacrite
##RRUFFID=R160063
##IDEAL CHEMISTRY=Pb^2+^_5_(CO_3_)_3_O(OH)_2_
##LOCALITY=Mammoth mine, Tiger, Pinal County, Arizona, USA
##OWNER=University of Arizona Mineral Museum
##SOURCE=University of Arizona Mineral Museum
##DESCRIPTION=White massive crystals, associated with deep blue boleite, blue diaboleite, and pale bluish leadhillite
##STATUS=The identification of this mineral has been confirmed only by single crystal X-ray diffraction.
##URL=rruff.info/R160063
9.059570e+001, 1.464422e+003
9.107782e+001, 1.416321e+003
9.155994e+001, 1.399288e+003
9.204205e+001, 1.433755e+003
9.252417e+001, 1.485557e+003
9.300629e+001, 1.543029e+003
9.348840e+001, 1.594192e+003
9.397052e+001, 1.629553e+003
9.445264e+001, 1.646280e+003
9.493475e+001, 1.664100e+003
9.541687e+001, 1.686687e+003
9.589898e+001, 1.715504e+003
9.638110e+001, 1.748782e+003
9.686321e+001, 1.784900e+003
9.734533e+001, 1.821874e+003
9.782745e+001, 1.856494e+003
9.830956e+001, 1.896141e+003
9.879168e+001, 1.940092e+003
9.927380e+001, 1.989292e+003
9.975591e+001, 2.044436e+003
1.002380e+002, 2.104630e+003
1.007201e+002, 2.168525e+003
1.012023e+002, 2.238192e+003
1.016844e+002, 2.310319e+003
1.021665e+002, 2.372747e+003
1.026486e+002, 2.429208e+003
1.031307e+002, 2.474375e+003
1.036128e+002, 2.504130e+003
1.040950e+002, 2.519299e+003
1.045771e+002, 2.516633e+003
1.050592e+002, 2.490142e+003
1.055413e+002, 2.445194e+003
1.060234e+002, 2.385752e+003
1.065055e+002, 2.308628e+003
1.069877e+002, 2.217345e+003
1.074698e+002, 2.125650e+003
1.079519e+002, 2.031278e+003
1.084340e+002, 1.939030e+003
1.089161e+002, 1.848466e+003
1.093982e+002, 1.760677e+003
1.098804e+002, 1.678914e+003
1.103625e+002, 1.605336e+003
1.108446e+002, 1.539962e+003
1.113267e+002, 1.484729e+003
1.118088e+002, 1.441634e+003
1.122909e+002, 1.405655e+003
1.127731e+002, 1.375422e+003
1.132552e+002, 1.350464e+003
1.137373e+002, 1.330204e+003
1.142194e+002, 1.314130e+003
1.147015e+002, 1.303170e+003
1.151836e+002, 1.295597e+003
1.156658e+002, 1.293089e+003
1.161479e+002, 1.292963e+003
1.166300e+002, 1.293003e+003
1.171121e+002, 1.292479e+003
1.175942e+002, 1.291239e+003
1.180763e+002, 1.288893e+003
1.185584e+002, 1.286086e+003
1.190406e+002, 1.281406e+003
1.195227e+002, 1.274502e+003
1.200048e+002, 1.265433e+003
1.204869e+002, 1.254194e+003
1.209690e+002, 1.240604e+003
1.214511e+002, 1.224673e+003
1.219333e+002, 1.207199e+003
1.224154e+002, 1.187691e+003
1.228975e+002, 1.167473e+003
1.233796e+002, 1.147728e+003
1.238617e+002, 1.128413e+003
1.243438e+002, 1.109458e+003
1.248260e+002, 1.090348e+003
1.253081e+002, 1.071868e+003
1.257902e+002, 1.054627e+003
1.262723e+002, 1.038718e+003
1.267544e+002, 1.024543e+003
1.272365e+002, 1.013409e+003
1.277187e+002, 1.006571e+003
1.282008e+002, 1.000948e+003
1.286829e+002, 9.954013e+002
1.291650e+002, 9.902555e+002
1.296471e+002, 9.860811e+002
1.301292e+002, 9.833719e+002
1.306114e+002, 9.820020e+002
1.310935e+002, 9.800766e+002
1.315756e+002, 9.770228e+002
1.320577e+002, 9.739276e+002
1.325398e+002, 9.711991e+002
1.330219e+002, 9.686777e+002
1.335041e+002, 9.660025e+002
1.339862e+002, 9.629059e+002
1.344683e+002, 9.594290e+002
1.349504e+002, 9.548762e+002
1.354325e+002, 9.484377e+002
1.359146e+002, 9.417847e+002
1.363968e+002, 9.359833e+002
1.368789e+002, 9.310956e+002
1.373610e+002, 9.263083e+002
1.378431e+002, 9.204690e+002
1.383252e+002, 9.130297e+002
1.388073e+002, 9.078201e+002
1.392895e+002, 9.061365e+002
1.397716e+002, 9.063451e+002
1.402537e+002, 9.063341e+002
1.407358e+002, 9.054226e+002
1.412179e+002, 9.051762e+002
1.417000e+002, 9.080076e+002
1.421821e+002, 9.135627e+002
1.426643e+002, 9.197998e+002
1.431464e+002, 9.256971e+002
1.436285e+002, 9.315614e+002
1.441106e+002, 9.386352e+002
1.445927e+002, 9.477249e+002
1.450748e+002, 9.575820e+002
1.455570e+002, 9.672172e+002
1.460391e+002, 9.765859e+002
1.465212e+002, 9.856006e+002
1.470033e+002, 9.943622e+002
1.474854e+002, 1.002962e+003
1.479675e+002, 1.010516e+003
1.484497e+002, 1.016822e+003
1.489318e+002, 1.022033e+003
1.494139e+002, 1.026167e+003
1.498960e+002, 1.029203e+003
1.503781e+002, 1.031092e+003
1.508602e+002, 1.031799e+003
1.513424e+002, 1.031548e+003
1.518245e+002, 1.029362e+003
1.523066e+002, 1.026301e+003
1.527887e+002, 1.021161e+003
1.532708e+002, 1.012850e+003
1.537529e+002, 1.001022e+003
1.542351e+002, 9.861857e+002
1.547172e+002, 9.695721e+002
1.551993e+002, 9.499371e+002
1.556814e+002, 9.298253e+002
1.561635e+002, 9.097454e+002
1.566456e+002, 8.891456e+002
1.571278e+002, 8.671777e+002
1.576099e+002, 8.433017e+002
1.580920e+002, 8.182030e+002
1.585741e+002, 7.948848e+002
1.590562e+002, 7.738000e+002
1.595383e+002, 7.536237e+002
1.600205e+002, 7.337109e+002
1.605026e+002, 7.144996e+002
1.609847e+002, 6.970416e+002
1.614668e+002, 6.821885e+002
1.619489e+002, 6.696388e+002
1.624310e+002, 6.577034e+002
1.629131e+002, 6.461552e+002
1.633953e+002, 6.353845e+002
1.638774e+002, 6.254382e+002
1.643595e+002, 6.163510e+002
1.648416e+002, 6.087442e+002
1.653237e+002, 6.033956e+002
1.658058e+002, 5.998672e+002
1.662880e+002, 5.968682e+002
1.667701e+002, 5.941516e+002
1.672522e+002, 5.919925e+002
1.677343e+002, 5.907158e+002
1.682164e+002, 5.903525e+002
1.686985e+002, 5.907382e+002
1.691807e+002, 5.917460e+002
1.696628e+002, 5.934353e+002
1.701449e+002, 5.961006e+002
1.706270e+002, 6.000954e+002
1.711091e+002, 6.049825e+002
1.715912e+002, 6.098368e+002
1.720734e+002, 6.148065e+002
1.725555e+002, 6.194304e+002
1.730376e+002, 6.238760e+002
1.735197e+002, 6.279159e+002
1.740018e+002, 6.312059e+002
1.744839e+002, 6.334499e+002
1.749661e+002, 6.347830e+002
1.754482e+002, 6.359950e+002
1.759303e+002, 6.374189e+002
1.764124e+002, 6.382830e+002
1.768945e+002, 6.387937e+002
1.773766e+002, 6.386097e+002
1.778588e+002, 6.371320e+002
1.783409e+002, 6.338209e+002
1.788230e+002, 6.286530e+002
1.793051e+002, 6.233481e+002
1.797872e+002, 6.191519e+002
1.802693e+002, 6.136086e+002
1.807515e+002, 6.054385e+002
1.812336e+002, 5.951679e+002
1.817157e+002, 5.843345e+002
1.821978e+002, 5.742905e+002
1.826799e+002, 5.652429e+002
1.831620e+002, 5.548000e+002
1.836441e+002, 5.418536e+002
1.841263e+002, 5.288280e+002
1.846084e+002, 5.168107e+002
1.850905e+002, 5.058731e+002
1.855726e+002, 4.956332e+002
1.860547e+002, 4.858731e+002
1.865368e+002, 4.766752e+002
1.870190e+002, 4.674555e+002
1.875011e+002, 4.577284e+002
1.879832e+002, 4.483888e+002
1.884653e+002, 4.402930e+002
1.889474e+002, 4.335280e+002
1.894296e+002, 4.271445e+002
1.899117e+002, 4.201635e+002
1.903938e+002, 4.126463e+002
1.908759e+002, 4.056915e+002
1.913580e+002, 3.994899e+002
1.918401e+002, 3.939108e+002
1.923223e+002, 3.887228e+002
1.928044e+002, 3.838491e+002
1.932865e+002, 3.796047e+002
1.937686e+002, 3.766152e+002
1.942507e+002, 3.745660e+002
1.947328e+002, 3.727371e+002
1.952150e+002, 3.709358e+002
1.956971e+002, 3.691964e+002
1.961792e+002, 3.675234e+002
1.966613e+002, 3.658035e+002
1.971434e+002, 3.644242e+002
1.976255e+002, 3.638248e+002
1.981077e+002, 3.637709e+002
1.985898e+002, 3.637074e+002
1.990719e+002, 3.630375e+002
1.995540e+002, 3.620401e+002
2.000361e+002, 3.619880e+002
2.005182e+002, 3.634156e+002
2.010004e+002, 3.651534e+002
2.014825e+002, 3.664272e+002
2.019646e+002, 3.674476e+002
2.024467e+002, 3.687460e+002
2.029288e+002, 3.708755e+002
2.034109e+002, 3.737684e+002
2.038930e+002, 3.761617e+002
2.043752e+002, 3.775555e+002
2.048573e+002, 3.789250e+002
2.053394e+002, 3.804239e+002
2.058215e+002, 3.821661e+002
2.063036e+002, 3.843750e+002
2.067857e+002, 3.873692e+002
2.072679e+002, 3.912144e+002
2.077500e+002, 3.945647e+002
2.082321e+002, 3.966060e+002
2.087142e+002, 3.988765e+002
2.091963e+002, 4.020586e+002
2.096784e+002, 4.059281e+002
2.101606e+002, 4.097713e+002
2.106427e+002, 4.128935e+002
2.111248e+002, 4.151253e+002
2.116069e+002, 4.179871e+002
2.120890e+002, 4.217888e+002
2.125711e+002, 4.258480e+002
2.130533e+002, 4.303335e+002
2.135354e+002, 4.349406e+002
2.140175e+002, 4.390180e+002
2.144996e+002, 4.419509e+002
2.149817e+002, 4.436343e+002
2.154638e+002, 4.447523e+002
2.159460e+002, 4.450173e+002
2.164281e+002, 4.451163e+002
2.169102e+002, 4.455404e+002
2.173923e+002, 4.461922e+002
2.178744e+002, 4.465181e+002
2.183565e+002, 4.459601e+002
2.188387e+002, 4.443820e+002
2.193208e+002, 4.429985e+002
2.198029e+002, 4.420024e+002
2.202850e+002, 4.410138e+002
2.207671e+002, 4.398249e+002
2.212492e+002, 4.384207e+002
2.217314e+002, 4.368779e+002
2.222135e+002, 4.352803e+002
2.226956e+002, 4.336089e+002
2.231777e+002, 4.316636e+002
2.236598e+002, 4.287516e+002
2.241419e+002, 4.260643e+002
2.246240e+002, 4.247591e+002
2.251062e+002, 4.248279e+002
2.255883e+002, 4.250421e+002
2.260704e+002, 4.245721e+002
2.265525e+002, 4.233600e+002
2.270346e+002, 4.215107e+002
2.275167e+002, 4.186301e+002
2.279989e+002, 4.153626e+002
2.284810e+002, 4.124905e+002
2.289631e+002, 4.100822e+002
2.294452e+002, 4.072149e+002
2.299273e+002, 4.029564e+002
2.304094e+002, 3.977112e+002
2.308916e+002, 3.925926e+002
2.313737e+002, 3.881379e+002
2.318558e+002, 3.837036e+002
2.323379e+002, 3.784752e+002
2.328200e+002, 3.723613e+002
2.333021e+002, 3.660973e+002
2.337843e+002, 3.598800e+002
2.342664e+002, 3.538407e+002
2.347485e+002, 3.482233e+002
2.352306e+002, 3.431227e+002
2.357127e+002, 3.384442e+002
2.361948e+002, 3.341679e+002
2.366770e+002, 3.304025e+002
2.371591e+002, 3.264824e+002
2.376412e+002, 3.215795e+002
2.381233e+002, 3.164597e+002
2.386054e+002, 3.119932e+002
2.390875e+002, 3.085779e+002
2.395697e+002, 3.057380e+002
2.400518e+002, 3.027588e+002
2.405339e+002, 2.995678e+002
2.410160e+002, 2.964295e+002
2.414981e+002, 2.933643e+002
2.419802e+002, 2.904291e+002
2.424624e+002, 2.877308e+002
2.429445e+002, 2.853486e+002
2.434266e+002, 2.831102e+002
2.439087e+002, 2.807368e+002
2.443908e+002, 2.782232e+002
2.448729e+002, 2.755846e+002
2.453550e+002, 2.727812e+002
2.458372e+002, 2.698962e+002
2.463193e+002, 2.670035e+002
2.468014e+002, 2.641244e+002
2.472835e+002, 2.612264e+002
2.477656e+002, 2.582232e+002
2.482477e+002, 2.551536e+002
2.487299e+002, 2.518791e+002
2.492120e+002, 2.481741e+002
2.496941e+002, 2.444123e+002
2.501762e+002, 2.409428e+002
2.506583e+002, 2.378560e+002
2.511404e+002, 2.348967e+002
2.516226e+002, 2.315674e+002
2.521047e+002, 2.276402e+002
2.525868e+002, 2.239000e+002
2.530689e+002, 2.206213e+002
2.535510e+002, 2.173951e+002
2.540331e+002, 2.138159e+002
2.545153e+002, 2.098286e+002
2.549974e+002, 2.057893e+002
2.554795e+002, 2.021901e+002
2.559616e+002, 1.990540e+002
2.564437e+002, 1.964043e+002
2.569258e+002, 1.945501e+002
2.574080e+002, 1.928583e+002
2.578901e+002, 1.909005e+002
2.583722e+002, 1.886087e+002
2.588543e+002, 1.861990e+002
2.593364e+002, 1.839929e+002
2.598185e+002, 1.822056e+002
2.603007e+002, 1.800526e+002
2.607828e+002, 1.769237e+002
2.612649e+002, 1.739486e+002
2.617470e+002, 1.719771e+002
2.622291e+002, 1.709978e+002
2.627112e+002, 1.703261e+002
2.631934e+002, 1.691891e+002
2.636755e+002, 1.675051e+002
2.641576e+002, 1.655892e+002
2.646397e+002, 1.630414e+002
2.651218e+002, 1.606428e+002
2.656039e+002, 1.589138e+002
2.660861e+002, 1.578137e+002
2.665682e+002, 1.569233e+002
2.670503e+002, 1.558513e+002
2.675324e+002, 1.545811e+002
2.680145e+002, 1.532247e+002
2.684966e+002, 1.515567e+002
2.689788e+002, 1.500211e+002
2.694609e+002, 1.490273e+002
2.699430e+002, 1.484264e+002
2.704251e+002, 1.476313e+002
2.709072e+002, 1.460849e+002
2.713893e+002, 1.437491e+002
2.718715e+002, 1.421296e+002
2.723536e+002, 1.416803e+002
2.728357e+002, 1.413370e+002
2.733178e+002, 1.406219e+002
2.737999e+002, 1.396333e+002
2.742820e+002, 1.387486e+002
2.747642e+002, 1.382538e+002
2.752463e+002, 1.380960e+002
2.757284e+002, 1.376187e+002
2.762105e+002, 1.365330e+002
2.766926e+002, 1.355187e+002
2.771747e+002, 1.348766e+002
2.776568e+002, 1.344768e+002
2.781389e+002, 1.340290e+002
2.786211e+002, 1.333785e+002
2.791032e+002, 1.325574e+002
2.795853e+002, 1.316829e+002
2.800674e+002, 1.302812e+002
2.805495e+002, 1.293716e+002
2.810316e+002, 1.294319e+002
2.815138e+002, 1.301294e+002
2.819959e+002, 1.310814e+002
2.824780e+002, 1.322506e+002
2.829601e+002, 1.331786e+002
2.834422e+002, 1.324522e+002
2.839243e+002, 1.289766e+002
2.844065e+002, 1.261799e+002
2.848886e+002, 1.251878e+002
2.853707e+002, 1.251770e+002
2.858528e+002, 1.249420e+002
2.863349e+002, 1.240745e+002
2.868170e+002, 1.229596e+002
2.872992e+002, 1.222405e+002
2.877813e+002, 1.219894e+002
2.882634e+002, 1.218434e+002
2.887455e+002, 1.219049e+002
2.892276e+002, 1.219827e+002
2.897097e+002, 1.218010e+002
2.901919e+002, 1.212894e+002
2.906740e+002, 1.206862e+002
2.911561e+002, 1.202908e+002
2.916382e+002, 1.201412e+002
2.921203e+002, 1.199110e+002
2.926024e+002, 1.196146e+002
2.930846e+002, 1.191970e+002
2.935667e+002, 1.185235e+002
2.940488e+002, 1.175819e+002
2.945309e+002, 1.166567e+002
2.950130e+002, 1.159824e+002
2.954951e+002, 1.155831e+002
2.959773e+002, 1.153754e+002
2.964594e+002, 1.157128e+002
2.969415e+002, 1.159836e+002
2.974236e+002, 1.155098e+002
2.979057e+002, 1.143509e+002
2.983878e+002, 1.133975e+002
2.988700e+002, 1.133896e+002
2.993521e+002, 1.141533e+002
2.998342e+002, 1.144161e+002
3.003163e+002, 1.139017e+002
3.007984e+002, 1.131513e+002
3.012805e+002, 1.123598e+002
3.017627e+002, 1.115614e+002
3.022448e+002, 1.108936e+002
3.027269e+002, 1.104587e+002
3.032090e+002, 1.101827e+002
3.036911e+002, 1.098144e+002
3.041732e+002, 1.092208e+002
3.046554e+002, 1.087513e+002
3.051375e+002, 1.087269e+002
3.056196e+002, 1.089578e+002
3.061017e+002, 1.088846e+002
3.065838e+002, 1.081957e+002
3.070659e+002, 1.072973e+002
3.075481e+002, 1.070831e+002
3.080302e+002, 1.077531e+002
3.085123e+002, 1.081720e+002
3.089944e+002, 1.077612e+002
3.094765e+002, 1.069062e+002
3.099586e+002, 1.062872e+002
3.104408e+002, 1.061043e+002
3.109229e+002, 1.060719e+002
3.114050e+002, 1.058673e+002
3.118871e+002, 1.055092e+002
3.123692e+002, 1.049188e+002
3.128513e+002, 1.036173e+002
3.133335e+002, 1.022880e+002
3.138156e+002, 1.018904e+002
3.142977e+002, 1.025921e+002
3.147798e+002, 1.034945e+002
3.152619e+002, 1.038030e+002
3.157440e+002, 1.035342e+002
3.162262e+002, 1.032026e+002
3.167083e+002, 1.028925e+002
3.171904e+002, 1.025019e+002
3.176725e+002, 1.018017e+002
3.181546e+002, 1.008288e+002
3.186367e+002, 1.001087e+002
3.191188e+002, 1.000755e+002
3.196010e+002, 1.005930e+002
3.200831e+002, 1.008793e+002
3.205652e+002, 1.009306e+002
3.210473e+002, 1.007686e+002
3.215294e+002, 1.002942e+002
3.220115e+002, 9.958918e+001
3.224937e+002, 9.891794e+001
3.229758e+002, 9.837853e+001
3.234579e+002, 9.798598e+001
3.239400e+002, 9.780262e+001
3.244221e+002, 9.791106e+001
3.249042e+002, 9.800586e+001
3.253864e+002, 9.796851e+001
3.258685e+002, 9.784627e+001
3.263506e+002, 9.776086e+001
3.268327e+002, 9.777673e+001
3.273148e+002, 9.773755e+001
3.277969e+002, 9.729473e+001
3.282791e+002, 9.633333e+001
3.287612e+002, 9.569006e+001
3.292433e+002, 9.587820e+001
3.297254e+002, 9.630016e+001
3.302075e+002, 9.615388e+001
3.306896e+002, 9.530089e+001
3.311718e+002, 9.440002e+001
3.316539e+002, 9.414014e+001
3.321360e+002, 9.458584e+001
3.326181e+002, 9.488636e+001
3.331002e+002, 9.499064e+001
3.335823e+002, 9.495956e+001
3.340645e+002, 9.478447e+001
3.345466e+002, 9.448927e+001
3.350287e+002, 9.419994e+001
3.355108e+002, 9.401916e+001
3.359929e+002, 9.391919e+001
3.364750e+002, 9.370847e+001
3.369572e+002, 9.332494e+001
3.374393e+002, 9.290761e+001
3.379214e+002, 9.242551e+001
3.384035e+002, 9.194908e+001
3.388856e+002, 9.167470e+001
3.393677e+002, 9.171973e+001
3.398499e+002, 9.195854e+001
3.403320e+002, 9.205640e+001
3.408141e+002, 9.199261e+001
3.412962e+002, 9.185403e+001
3.417783e+002, 9.157314e+001
3.422604e+002, 9.125573e+001
3.427426e+002, 9.106843e+001
3.432247e+002, 9.105986e+001
3.437068e+002, 9.109538e+001
3.441889e+002, 9.099950e+001
3.446710e+002, 9.075415e+001
3.451531e+002, 9.037749e+001
3.456353e+002, 8.959293e+001
3.461174e+002, 8.887200e+001
3.465995e+002, 8.864244e+001
3.470816e+002, 8.889956e+001
3.475637e+002, 8.930739e+001
3.480458e+002, 8.960793e+001
3.485280e+002, 8.980344e+001
3.490101e+002, 8.968509e+001
3.494922e+002, 8.894667e+001
3.499743e+002, 8.825878e+001
3.504564e+002, 8.794524e+001
3.509385e+002, 8.791312e+001
3.514207e+002, 8.792434e+001
3.519028e+002, 8.784898e+001
3.523849e+002, 8.769498e+001
3.528670e+002, 8.749041e+001
3.533491e+002, 8.706447e+001
3.538312e+002, 8.680009e+001
3.543134e+002, 8.680270e+001
3.547955e+002, 8.696794e+001
3.552776e+002, 8.723286e+001
3.557597e+002, 8.756637e+001
3.562418e+002, 8.785132e+001
3.567239e+002, 8.788105e+001
3.572061e+002, 8.749486e+001
3.576882e+002, 8.716299e+001
3.581703e+002, 8.688177e+001
3.586524e+002, 8.665044e+001
3.591345e+002, 8.647954e+001
3.596166e+002, 8.636263e+001
3.600987e+002, 8.627459e+001
3.605808e+002, 8.618591e+001
3.610630e+002, 8.608884e+001
3.615451e+002, 8.606692e+001
3.620272e+002, 8.647290e+001
3.625093e+002, 8.658723e+001
3.629914e+002, 8.592673e+001
3.634735e+002, 8.481193e+001
3.639557e+002, 8.385632e+001
3.644378e+002, 8.343273e+001
3.649199e+002, 8.344398e+001
3.654020e+002, 8.348477e+001
3.658841e+002, 8.362045e+001
3.663662e+002, 8.369305e+001
3.668484e+002, 8.361063e+001
3.673305e+002, 8.349733e+001
3.678126e+002, 8.349749e+001
3.682947e+002, 8.365025e+001
3.687768e+002, 8.384554e+001
3.692589e+002, 8.390419e+001
3.697411e+002, 8.376695e+001
3.702232e+002, 8.365173e+001
3.707053e+002, 8.365134e+001
3.711874e+002, 8.360234e+001
3.716695e+002, 8.336176e+001
3.721516e+002, 8.296801e+001
3.726338e+002, 8.259697e+001
3.731159e+002, 8.240849e+001
3.735980e+002, 8.239767e+001
3.740801e+002, 8.239918e+001
3.745622e+002, 8.237196e+001
3.750443e+002, 8.241463e+001
3.755265e+002, 8.267345e+001
3.760086e+002, 8.299413e+001
3.764907e+002, 8.313203e+001
3.769728e+002, 8.295162e+001
3.774549e+002, 8.256371e+001
3.779370e+002, 8.221287e+001
3.784192e+002, 8.192599e+001
3.789013e+002, 8.159925e+001
3.793834e+002, 8.101172e+001
3.798655e+002, 8.048907e+001
3.803476e+002, 8.040868e+001
3.808297e+002, 8.083611e+001
3.813119e+002, 8.123694e+001
3.817940e+002, 8.092105e+001
3.822761e+002, 7.990926e+001
3.827582e+002, 7.929937e+001
3.832403e+002, 7.944056e+001
3.837224e+002, 7.978735e+001
3.842046e+002, 8.001161e+001
3.846867e+002, 8.011964e+001
3.851688e+002, 8.015525e+001
3.856509e+002, 8.020210e+001
3.861330e+002, 8.018120e+001
3.866151e+002, 7.981783e+001
3.870973e+002, 7.897783e+001
3.875794e+002, 7.828317e+001
3.880615e+002, 7.822655e+001
3.885436e+002, 7.850426e+001
3.890257e+002, 7.870505e+001
3.895078e+002, 7.872646e+001
3.899900e+002, 7.870195e+001
3.904721e+002, 7.875143e+001
3.909542e+002, 7.886450e+001
3.914363e+002, 7.897334e+001
3.919184e+002, 7.909806e+001
3.924005e+002, 7.915125e+001
3.928827e+002, 7.895247e+001
3.933648e+002, 7.847169e+001
3.938469e+002, 7.813968e+001
3.943290e+002, 7.824818e+001
3.948111e+002, 7.857128e+001
3.952932e+002, 7.874857e+001
3.957754e+002, 7.872341e+001
3.962575e+002, 7.863509e+001
3.967396e+002, 7.861234e+001
3.972217e+002, 7.864219e+001
3.977038e+002, 7.858776e+001
3.981859e+002, 7.844109e+001
3.986681e+002, 7.821015e+001
3.991501e+002, 7.781492e+001
3.996323e+002, 7.731957e+001
4.001144e+002, 7.693493e+001
4.005965e+002, 7.675731e+001
4.010786e+002, 7.677238e+001
4.015607e+002, 7.698289e+001
4.020428e+002, 7.762976e+001
4.025250e+002, 7.802304e+001
4.030071e+002, 7.778379e+001
4.034892e+002, 7.734708e+001
4.039713e+002, 7.729478e+001
4.044534e+002, 7.773516e+001
4.049355e+002, 7.821456e+001
4.054177e+002, 7.817257e+001
4.058998e+002, 7.745680e+001
4.063819e+002, 7.697026e+001
4.068640e+002, 7.691976e+001
4.073461e+002, 7.687290e+001
4.078282e+002, 7.655974e+001
4.083104e+002, 7.606953e+001
4.087925e+002, 7.565102e+001
4.092746e+002, 7.545422e+001
4.097567e+002, 7.545476e+001
4.102388e+002, 7.554019e+001
4.107209e+002, 7.593633e+001
4.112031e+002, 7.611469e+001
4.116852e+002, 7.576294e+001
4.121673e+002, 7.532487e+001
4.126494e+002, 7.530794e+001
4.131315e+002, 7.580567e+001
4.136136e+002, 7.640528e+001
4.140958e+002, 7.651772e+001
4.145779e+002, 7.597913e+001
4.150600e+002, 7.561256e+001
4.155421e+002, 7.554467e+001
4.160242e+002, 7.553850e+001
4.165063e+002, 7.558302e+001
4.169885e+002, 7.561885e+001
4.174706e+002, 7.550011e+001
4.179527e+002, 7.504585e+001
4.184348e+002, 7.444961e+001
4.189169e+002, 7.445015e+001
4.193990e+002, 7.539443e+001
4.198812e+002, 7.616605e+001
4.203633e+002, 7.629786e+001
4.208454e+002, 7.617719e+001
4.213275e+002, 7.619432e+001
4.218096e+002, 7.645051e+001
4.222917e+002, 7.660963e+001
4.227739e+002, 7.614757e+001
4.232560e+002, 7.511356e+001
4.237381e+002, 7.456017e+001
4.242202e+002, 7.487230e+001
4.247023e+002, 7.539529e+001
4.251844e+002, 7.567778e+001
4.256666e+002, 7.574854e+001
4.261487e+002, 7.570461e+001
4.266308e+002, 7.548949e+001
4.271129e+002, 7.522635e+001
4.275950e+002, 7.508430e+001
4.280771e+002, 7.506379e+001
4.285593e+002, 7.517286e+001
4.290414e+002, 7.552309e+001
4.295235e+002, 7.595175e+001
4.300056e+002, 7.608717e+001
4.304877e+002, 7.577361e+001
4.309698e+002, 7.552050e+001
4.314520e+002, 7.577190e+001
4.319341e+002, 7.623337e+001
4.324162e+002, 7.623988e+001
4.328983e+002, 7.558533e+001
4.333804e+002, 7.475813e+001
4.338625e+002, 7.430322e+001
4.343447e+002, 7.427104e+001
4.348268e+002, 7.432758e+001
4.353089e+002, 7.452622e+001
4.357910e+002, 7.475568e+001
4.362731e+002, 7.503826e+001
4.367552e+002, 7.530429e+001
4.372374e+002, 7.531286e+001
4.377195e+002, 7.488290e+001
4.382016e+002, 7.417338e+001
4.386837e+002, 7.380013e+001
4.391658e+002, 7.400959e+001
4.396479e+002, 7.424746e+001
4.401301e+002, 7.460154e+001
4.406122e+002, 7.489855e+001
4.410943e+002, 7.493948e+001
4.415764e+002, 7.470372e+001
4.420585e+002, 7.435927e+001
4.425406e+002, 7.410744e+001
4.430227e+002, 7.397885e+001
4.435049e+002, 7.371602e+001
4.439870e+002, 7.304695e+001
4.444691e+002, 7.252732e+001
4.449512e+002, 7.234554e+001
4.454333e+002, 7.242918e+001
4.459154e+002, 7.269674e+001
4.463976e+002, 7.313544e+001
4.468797e+002, 7.358507e+001
4.473618e+002, 7.361980e+001
4.478439e+002, 7.302163e+001
4.483260e+002, 7.265946e+001
4.488081e+002, 7.289004e+001
4.492903e+002, 7.326343e+001
4.497724e+002, 7.360925e+001
4.502545e+002, 7.386842e+001
4.507366e+002, 7.389299e+001
4.512187e+002, 7.340510e+001
4.517008e+002, 7.255561e+001
4.521830e+002, 7.201123e+001
4.526651e+002, 7.184739e+001
4.531472e+002, 7.183564e+001
4.536293e+002, 7.197584e+001
4.541114e+002, 7.215163e+001
4.545935e+002, 7.216560e+001
4.550757e+002, 7.188340e+001
4.555578e+002, 7.161275e+001
4.560399e+002, 7.168802e+001
4.565220e+002, 7.201639e+001
4.570041e+002, 7.216963e+001
4.574862e+002, 7.197924e+001
4.579684e+002, 7.167416e+001
4.584505e+002, 7.151843e+001
4.589326e+002, 7.149928e+001
4.594147e+002, 7.163533e+001
4.598968e+002, 7.217217e+001
4.603789e+002, 7.269227e+001
4.608611e+002, 7.278489e+001
4.613432e+002, 7.248803e+001
4.618253e+002, 7.212211e+001
4.623074e+002, 7.186811e+001
4.627895e+002, 7.170869e+001
4.632716e+002, 7.156760e+001
4.637538e+002, 7.147679e+001
4.642359e+002, 7.136162e+001
4.647180e+002, 7.125424e+001
4.652001e+002, 7.109524e+001
4.656822e+002, 7.070198e+001
4.661643e+002, 7.009935e+001
4.666465e+002, 6.967506e+001
4.671286e+002, 6.992165e+001
4.676107e+002, 7.095705e+001
4.680928e+002, 7.153481e+001
4.685749e+002, 7.114749e+001
4.690570e+002, 7.083693e+001
4.695392e+002, 7.098140e+001
4.700213e+002, 7.135027e+001
4.705034e+002, 7.156715e+001
4.709855e+002, 7.146217e+001
4.714676e+002, 7.121168e+001
4.719497e+002, 7.116751e+001
4.724319e+002, 7.142345e+001
4.729140e+002, 7.147020e+001
4.733961e+002, 7.095707e+001
4.738782e+002, 7.045251e+001
4.743603e+002, 7.034760e+001
4.748424e+002, 7.056627e+001
4.753246e+002, 7.072822e+001
4.758067e+002, 7.059218e+001
4.762888e+002, 7.025414e+001
4.767709e+002, 6.983191e+001
4.772530e+002, 6.926942e+001
4.777351e+002, 6.900629e+001
4.782173e+002, 6.947935e+001
4.786994e+002, 7.025736e+001
4.791815e+002, 7.065627e+001
4.796636e+002, 7.058755e+001
4.801457e+002, 7.036651e+001
4.806278e+002, 6.999905e+001
4.811100e+002, 6.962273e+001
4.815920e+002, 6.954368e+001
4.820742e+002, 6.982659e+001
4.825563e+002, 7.014996e+001
4.830384e+002, 7.021179e+001
4.835205e+002, 7.001601e+001
4.840026e+002, 6.995014e+001
4.844847e+002, 7.023905e+001
4.849669e+002, 7.040660e+001
4.854490e+002, 7.017135e+001
4.859311e+002, 6.970089e+001
4.864132e+002, 6.925084e+001
4.868953e+002, 6.891752e+001
4.873774e+002, 6.874079e+001
4.878596e+002, 6.881208e+001
4.883417e+002, 6.928455e+001
4.888238e+002, 6.958632e+001
4.893059e+002, 6.961620e+001
4.897880e+002, 6.960235e+001
4.902701e+002, 6.965395e+001
4.907523e+002, 6.975184e+001
4.912344e+002, 6.982414e+001
4.917165e+002, 6.982312e+001
4.921986e+002, 6.978087e+001
4.926807e+002, 6.981094e+001
4.931628e+002, 6.999475e+001
4.936450e+002, 7.002560e+001
4.941271e+002, 6.971555e+001
4.946092e+002, 6.931905e+001
4.950913e+002, 6.891811e+001
4.955734e+002, 6.855506e+001
4.960555e+002, 6.838765e+001
4.965377e+002, 6.875216e+001
4.970198e+002, 6.937862e+001
4.975019e+002, 6.941407e+001
4.979840e+002, 6.869369e+001
4.984661e+002, 6.809119e+001
4.989482e+002, 6.819911e+001
4.994304e+002, 6.869157e+001
4.999125e+002, 6.892194e+001
5.003946e+002, 6.876608e+001
5.008767e+002, 6.857520e+001
5.013588e+002, 6.850352e+001
5.018409e+002, 6.851907e+001
5.023231e+002, 6.861879e+001
5.028052e+002, 6.880491e+001
5.032873e+002, 6.888072e+001
5.037694e+002, 6.861983e+001
5.042515e+002, 6.800462e+001
5.047336e+002, 6.757927e+001
5.052158e+002, 6.750064e+001
5.056979e+002, 6.741393e+001
5.061800e+002, 6.714056e+001
5.066621e+002, 6.679335e+001
5.071442e+002, 6.652045e+001
5.076263e+002, 6.638070e+001
5.081085e+002, 6.640262e+001
5.085906e+002, 6.666586e+001
5.090727e+002, 6.728132e+001
5.095548e+002, 6.773663e+001
5.100369e+002, 6.803343e+001
5.105190e+002, 6.816499e+001
5.110012e+002, 6.805219e+001
5.114833e+002, 6.778037e+001
5.119654e+002, 6.750053e+001
5.124475e+002, 6.728818e+001
5.129296e+002, 6.710049e+001
5.134117e+002, 6.679268e+001
5.138939e+002, 6.631078e+001
5.143760e+002, 6.614595e+001
5.148581e+002, 6.672843e+001
5.153402e+002, 6.733471e+001
5.158223e+002, 6.727753e+001
5.163044e+002, 6.665374e+001
5.167866e+002, 6.614110e+001
5.172687e+002, 6.611736e+001
5.177508e+002, 6.630360e+001
5.182329e+002, 6.637996e+001
5.187150e+002, 6.634139e+001
5.191971e+002, 6.618169e+001
5.196793e+002, 6.582529e+001
5.201614e+002, 6.543158e+001
5.206435e+002, 6.542164e+001
5.211256e+002, 6.594991e+001
5.216077e+002, 6.632441e+001
5.220898e+002, 6.634309e+001
5.225720e+002, 6.622138e+001
5.230541e+002, 6.617111e+001
5.235362e+002, 6.617965e+001
5.240183e+002, 6.606133e+001
5.245004e+002, 6.566128e+001
5.249825e+002, 6.505511e+001
5.254647e+002, 6.462383e+001
5.259468e+002, 6.442792e+001
5.264289e+002, 6.434396e+001
5.269110e+002, 6.450594e+001
5.273931e+002, 6.466837e+001
5.278752e+002, 6.450569e+001
5.283574e+002, 6.406509e+001
5.288395e+002, 6.382068e+001
5.293216e+002, 6.437597e+001
5.298037e+002, 6.552001e+001
5.302858e+002, 6.586315e+001
5.307679e+002, 6.501585e+001
5.312501e+002, 6.426888e+001
5.317322e+002, 6.436855e+001
5.322143e+002, 6.476151e+001
5.326964e+002, 6.490254e+001
5.331785e+002, 6.469779e+001
5.336606e+002, 6.433395e+001
5.341428e+002, 6.372860e+001
5.346249e+002, 6.308960e+001
5.351070e+002, 6.292968e+001
5.355891e+002, 6.334152e+001
5.360712e+002, 6.387442e+001
5.365533e+002, 6.424612e+001
5.370355e+002, 6.444799e+001
5.375176e+002, 6.447407e+001
5.379997e+002, 6.408465e+001
5.384818e+002, 6.382839e+001
5.389639e+002, 6.404452e+001
5.394460e+002, 6.439390e+001
5.399282e+002, 6.437902e+001
5.404103e+002, 6.393518e+001
5.408924e+002, 6.347694e+001
5.413745e+002, 6.346745e+001
5.418566e+002, 6.392545e+001
5.423387e+002, 6.418257e+001
5.428209e+002, 6.414335e+001
5.433029e+002, 6.399894e+001
5.437850e+002, 6.366838e+001
5.442672e+002, 6.331008e+001
5.447493e+002, 6.307851e+001
5.452314e+002, 6.301803e+001
5.457135e+002, 6.311534e+001
5.461956e+002, 6.345500e+001
5.466777e+002, 6.400185e+001
5.471599e+002, 6.432191e+001
5.476420e+002, 6.437157e+001
5.481241e+002, 6.423902e+001
5.486062e+002, 6.373812e+001
5.490883e+002, 6.314122e+001
5.495704e+002, 6.294453e+001
5.500526e+002, 6.341718e+001
5.505347e+002, 6.389964e+001
5.510168e+002, 6.391826e+001
5.514989e+002, 6.366035e+001
5.519810e+002, 6.352473e+001
5.524631e+002, 6.359643e+001
5.529453e+002, 6.371098e+001
5.534274e+002, 6.371868e+001
5.539095e+002, 6.361850e+001
5.543916e+002, 6.351276e+001
5.548737e+002, 6.344897e+001
5.553558e+002, 6.332418e+001
5.558380e+002, 6.301546e+001
5.563201e+002, 6.267189e+001
5.568022e+002, 6.251257e+001
5.572843e+002, 6.257587e+001
5.577664e+002, 6.267607e+001
5.582485e+002, 6.257033e+001
5.587307e+002, 6.224572e+001
5.592128e+002, 6.210906e+001
5.596949e+002, 6.234592e+001
5.601770e+002, 6.250624e+001
5.606591e+002, 6.245580e+001
5.611412e+002, 6.224836e+001
5.616234e+002, 6.187923e+001
5.621055e+002, 6.132275e+001
5.625876e+002, 6.088725e+001
5.630697e+002, 6.092515e+001
5.635518e+002, 6.130646e+001
5.640339e+002, 6.157904e+001
5.645161e+002, 6.166701e+001
5.649982e+002, 6.178254e+001
5.654803e+002, 6.213770e+001
5.659624e+002, 6.264363e+001
5.664445e+002, 6.291594e+001
5.669266e+002, 6.282839e+001
5.674088e+002, 6.268983e+001
5.678909e+002, 6.256301e+001
5.683730e+002, 6.246318e+001
5.688551e+002, 6.245214e+001
5.693372e+002, 6.251859e+001
5.698193e+002, 6.250735e+001
5.703015e+002, 6.224277e+001
5.707836e+002, 6.174886e+001
5.712657e+002, 6.151222e+001
5.717478e+002, 6.171090e+001
5.722299e+002, 6.194127e+001
5.727120e+002, 6.230808e+001
5.731942e+002, 6.257458e+001
5.736763e+002, 6.242798e+001
5.741584e+002, 6.187033e+001
5.746405e+002, 6.131950e+001
5.751226e+002, 6.112338e+001
5.756047e+002, 6.123391e+001
5.760869e+002, 6.150409e+001
5.765690e+002, 6.199249e+001
5.770511e+002, 6.238867e+001
5.775332e+002, 6.248375e+001
5.780153e+002, 6.242912e+001
5.784974e+002, 6.250579e+001
5.789796e+002, 6.277787e+001
5.794617e+002, 6.291029e+001
5.799438e+002, 6.264063e+001
5.804259e+002, 6.224645e+001
5.809080e+002, 6.204082e+001
5.813901e+002, 6.203666e+001
5.818723e+002, 6.212149e+001
5.823544e+002, 6.225401e+001
5.828365e+002, 6.236594e+001
5.833186e+002, 6.220957e+001
5.838007e+002, 6.128426e+001
5.842828e+002, 6.086868e+001
5.847650e+002, 6.144035e+001
5.852471e+002, 6.211151e+001
5.857292e+002, 6.230219e+001
5.862113e+002, 6.205637e+001
5.866934e+002, 6.171009e+001
5.871755e+002, 6.145533e+001
5.876577e+002, 6.126581e+001
5.881398e+002, 6.106025e+001
5.886219e+002, 6.081501e+001
5.891040e+002, 6.073148e+001
5.895861e+002, 6.099283e+001
5.900682e+002, 6.128326e+001
5.905504e+002, 6.120373e+001
5.910325e+002, 6.083683e+001
5.915146e+002, 6.073534e+001
5.919967e+002, 6.147556e+001
5.924788e+002, 6.220235e+001
5.929609e+002, 6.201859e+001
5.934431e+002, 6.120343e+001
5.939252e+002, 6.061224e+001
5.944073e+002, 6.056066e+001
5.948894e+002, 6.077854e+001
5.953715e+002, 6.089143e+001
5.958536e+002, 6.085402e+001
5.963358e+002, 6.092089e+001
5.968179e+002, 6.113899e+001
5.973000e+002, 6.139265e+001
5.977821e+002, 6.175219e+001
5.982642e+002, 6.208239e+001
5.987463e+002, 6.217492e+001
5.992285e+002, 6.196423e+001
5.997106e+002, 6.163000e+001
6.001927e+002, 6.135990e+001
6.006748e+002, 6.115316e+001
6.011569e+002, 6.102190e+001
6.016390e+002, 6.097387e+001
6.021212e+002, 6.098708e+001
6.026033e+002, 6.112580e+001
6.030854e+002, 6.129494e+001
6.035675e+002, 6.132214e+001
6.040496e+002, 6.112291e+001
6.045317e+002, 6.097414e+001
6.050139e+002, 6.114146e+001
6.054960e+002, 6.138961e+001
6.059781e+002, 6.135618e+001
6.064602e+002, 6.101313e+001
6.069423e+002, 6.052615e+001
6.074244e+002, 5.995621e+001
6.079066e+002, 5.940223e+001
6.083887e+002, 5.932228e+001
6.088708e+002, 6.027269e+001
6.093529e+002, 6.091105e+001
6.098350e+002, 6.099272e+001
6.103171e+002, 6.091589e+001
6.107993e+002, 6.085907e+001
6.112814e+002, 6.089462e+001
6.117635e+002, 6.116039e+001
6.122456e+002, 6.186973e+001
6.127277e+002, 6.265290e+001
6.132098e+002, 6.261040e+001
6.136920e+002, 6.165521e+001
6.141741e+002, 6.088083e+001
6.146562e+002, 6.052654e+001
6.151383e+002, 6.047225e+001
6.156204e+002, 6.073408e+001
6.161025e+002, 6.124299e+001
6.165847e+002, 6.155835e+001
6.170668e+002, 6.134747e+001
6.175489e+002, 6.115736e+001
6.180310e+002, 6.147997e+001
6.185131e+002, 6.205148e+001
6.189952e+002, 6.229974e+001
6.194774e+002, 6.206142e+001
6.199595e+002, 6.165063e+001
6.204416e+002, 6.143233e+001
6.209237e+002, 6.141905e+001
6.214058e+002, 6.139450e+001
6.218879e+002, 6.120927e+001
6.223701e+002, 6.120665e+001
6.228522e+002, 6.164230e+001
6.233343e+002, 6.218700e+001
6.238164e+002, 6.245560e+001
6.242985e+002, 6.239341e+001
6.247806e+002, 6.233696e+001
6.252628e+002, 6.270329e+001
6.257448e+002, 6.326295e+001
6.262269e+002, 6.328819e+001
6.267090e+002, 6.270873e+001
6.271912e+002, 6.228489e+001
6.276733e+002, 6.241828e+001
6.281554e+002, 6.285335e+001
6.286375e+002, 6.317957e+001
6.291196e+002, 6.347448e+001
6.296017e+002, 6.337889e+001
6.300839e+002, 6.234079e+001
6.305660e+002, 6.133996e+001
6.310481e+002, 6.114286e+001
6.315302e+002, 6.153150e+001
6.320123e+002, 6.191053e+001
6.324944e+002, 6.200591e+001
6.329766e+002, 6.193023e+001
6.334587e+002, 6.184948e+001
6.339408e+002, 6.174849e+001
6.344229e+002, 6.171960e+001
6.349050e+002, 6.178095e+001
6.353871e+002, 6.189686e+001
6.358693e+002, 6.208994e+001
6.363514e+002, 6.230888e+001
6.368335e+002, 6.250673e+001
6.373156e+002, 6.270432e+001
6.377977e+002, 6.272979e+001
6.382798e+002, 6.228389e+001
6.387620e+002, 6.163613e+001
6.392441e+002, 6.134123e+001
6.397262e+002, 6.145190e+001
6.402083e+002, 6.154756e+001
6.406904e+002, 6.130354e+001
6.411725e+002, 6.090136e+001
6.416547e+002, 6.096019e+001
6.421368e+002, 6.231297e+001
6.426189e+002, 6.287790e+001
6.431010e+002, 6.203050e+001
6.435831e+002, 6.095534e+001
6.440652e+002, 6.027660e+001
6.445474e+002, 6.001233e+001
6.450295e+002, 6.002027e+001
6.455116e+002, 6.026072e+001
6.459937e+002, 6.057585e+001
6.464758e+002, 6.067419e+001
6.469579e+002, 6.055841e+001
6.474401e+002, 6.058276e+001
6.479222e+002, 6.088554e+001
6.484043e+002, 6.115078e+001
6.488864e+002, 6.104667e+001
6.493685e+002, 6.071032e+001
6.498506e+002, 6.058585e+001
6.503328e+002, 6.092048e+001
6.508149e+002, 6.113972e+001
6.512970e+002, 6.085760e+001
6.517791e+002, 6.042703e+001
6.522612e+002, 6.029682e+001
6.527433e+002, 6.049013e+001
6.532255e+002, 6.072791e+001
6.537076e+002, 6.080142e+001
6.541897e+002, 6.076365e+001
6.546718e+002, 6.085125e+001
6.551539e+002, 6.124230e+001
6.556360e+002, 6.132332e+001
6.561182e+002, 6.044053e+001
6.566003e+002, 5.971856e+001
6.570824e+002, 5.994442e+001
6.575645e+002, 6.086696e+001
6.580466e+002, 6.166195e+001
6.585287e+002, 6.204879e+001
6.590109e+002, 6.215063e+001
6.594930e+002, 6.183661e+001
6.599751e+002, 6.133648e+001
6.604572e+002, 6.136449e+001
6.609393e+002, 6.208529e+001
6.614214e+002, 6.297875e+001
6.619036e+002, 6.359004e+001
6.623857e+002, 6.395725e+001
6.628678e+002, 6.447853e+001
6.633499e+002, 6.527483e+001
6.638320e+002, 6.606943e+001
6.643141e+002, 6.659145e+001
6.647963e+002, 6.729716e+001
6.652784e+002, 6.851902e+001
6.657605e+002, 7.027042e+001
6.662426e+002, 7.242844e+001
6.667247e+002, 7.499776e+001
6.672068e+002, 7.782045e+001
6.676890e+002, 8.044573e+001
6.681711e+002, 8.290332e+001
6.686532e+002, 8.627788e+001
6.691353e+002, 9.088687e+001
6.696174e+002, 9.627731e+001
6.700995e+002, 1.025288e+002
6.705817e+002, 1.093982e+002
6.710638e+002, 1.145159e+002
6.715459e+002, 1.172348e+002
6.720280e+002, 1.189505e+002
6.725101e+002, 1.190214e+002
6.729922e+002, 1.189175e+002
6.734744e+002, 1.200522e+002
6.739565e+002, 1.226869e+002
6.744386e+002, 1.267607e+002
6.749207e+002, 1.326297e+002
6.754028e+002, 1.392696e+002
6.758849e+002, 1.437397e+002
6.763671e+002, 1.463725e+002
6.768492e+002, 1.451637e+002
6.773313e+002, 1.375730e+002
6.778134e+002, 1.283266e+002
6.782955e+002, 1.201975e+002
6.787776e+002, 1.134433e+002
6.792598e+002, 1.091755e+002
6.797419e+002, 1.080457e+002
6.802240e+002, 1.089475e+002
6.807061e+002, 1.110357e+002
6.811882e+002, 1.148088e+002
6.816703e+002, 1.215402e+002
6.821525e+002, 1.311753e+002
6.826346e+002, 1.424662e+002
6.831167e+002, 1.551538e+002
6.835988e+002, 1.677126e+002
6.840809e+002, 1.726129e+002
6.845630e+002, 1.681573e+002
6.850452e+002, 1.597353e+002
6.855273e+002, 1.443448e+002
6.860094e+002, 1.284442e+002
6.864915e+002, 1.151688e+002
6.869736e+002, 1.044866e+002
6.874557e+002, 9.552471e+001
6.879379e+002, 8.812733e+001
6.884200e+002, 8.212994e+001
6.889021e+002, 7.762243e+001
6.893842e+002, 7.438847e+001
6.898663e+002, 7.206194e+001
6.903484e+002, 7.055200e+001
6.908306e+002, 6.961581e+001
6.913127e+002, 6.905530e+001
6.917948e+002, 6.889885e+001
6.922769e+002, 6.929642e+001
6.927590e+002, 7.056799e+001
6.932411e+002, 7.190720e+001
6.937233e+002, 7.269860e+001
6.942054e+002, 7.405449e+001
6.946875e+002, 7.705225e+001
6.951696e+002, 8.116282e+001
6.956517e+002, 8.518440e+001
6.961339e+002, 8.890676e+001
6.966160e+002, 9.137926e+001
6.970981e+002, 9.128881e+001
6.975802e+002, 8.905305e+001
6.980623e+002, 8.590163e+001
6.985444e+002, 8.197551e+001
6.990266e+002, 7.791322e+001
6.995087e+002, 7.403150e+001
6.999908e+002, 7.043970e+001
7.004729e+002, 6.761832e+001
7.009550e+002, 6.589539e+001
7.014371e+002, 6.449370e+001
7.019193e+002, 6.360685e+001
7.024014e+002, 6.285077e+001
7.028835e+002, 6.190676e+001
7.033656e+002, 6.092242e+001
7.038477e+002, 6.027164e+001
7.043298e+002, 6.014053e+001
7.048120e+002, 6.018811e+001
7.052941e+002, 5.992576e+001
7.057762e+002, 5.946212e+001
7.062583e+002, 5.938473e+001
7.067404e+002, 5.979883e+001
7.072225e+002, 6.025837e+001
7.077046e+002, 6.055271e+001
7.081867e+002, 6.068463e+001
7.086688e+002, 6.063219e+001
7.091509e+002, 6.027283e+001
7.096331e+002, 6.005164e+001
7.101152e+002, 6.004661e+001
7.105973e+002, 6.013824e+001
7.110794e+002, 6.038149e+001
7.115615e+002, 6.063574e+001
7.120436e+002, 6.064085e+001
7.125258e+002, 6.030714e+001
7.130079e+002, 5.987233e+001
7.134900e+002, 5.963671e+001
7.139721e+002, 5.954921e+001
7.144542e+002, 5.926435e+001
7.149363e+002, 5.871870e+001
7.154185e+002, 5.831730e+001
7.159006e+002, 5.821551e+001
7.163827e+002, 5.839399e+001
7.168648e+002, 5.896809e+001
7.173469e+002, 6.009127e+001
7.178290e+002, 6.065935e+001
7.183112e+002, 5.994190e+001
7.187933e+002, 5.932886e+001
7.192754e+002, 5.965263e+001
7.197575e+002, 6.045755e+001
7.202396e+002, 6.111812e+001
7.207217e+002, 6.144189e+001
7.212039e+002, 6.149650e+001
7.216860e+002, 6.121676e+001
7.221681e+002, 6.074950e+001
7.226502e+002, 6.072717e+001
7.231323e+002, 6.120424e+001
7.236144e+002, 6.169270e+001
7.240966e+002, 6.211062e+001
7.245787e+002, 6.236783e+001
7.250608e+002, 6.223996e+001
7.255429e+002, 6.173957e+001
7.260250e+002, 6.155892e+001
7.265071e+002, 6.215670e+001
7.269893e+002, 6.257352e+001
7.274714e+002, 6.224585e+001
7.279535e+002, 6.168481e+001
7.284356e+002, 6.149040e+001
7.289177e+002, 6.170796e+001
7.293998e+002, 6.198556e+001
7.298820e+002, 6.206406e+001
7.303641e+002, 6.203772e+001
7.308462e+002, 6.214388e+001
7.313283e+002, 6.238908e+001
7.318104e+002, 6.258436e+001
7.322925e+002, 6.273797e+001
7.327747e+002, 6.271664e+001
7.332568e+002, 6.223859e+001
7.337389e+002, 6.146728e+001
7.342210e+002, 6.125056e+001
7.347031e+002, 6.216968e+001
7.351852e+002, 6.274132e+001
7.356674e+002, 6.238712e+001
7.361495e+002, 6.179578e+001
7.366316e+002, 6.140773e+001
7.371137e+002, 6.129574e+001
7.375958e+002, 6.152362e+001
7.380779e+002, 6.215944e+001
7.385601e+002, 6.280703e+001
7.390422e+002, 6.278766e+001
7.395243e+002, 6.218268e+001
7.400064e+002, 6.180089e+001
7.404885e+002, 6.175645e+001
7.409706e+002, 6.169193e+001
7.414528e+002, 6.133067e+001
7.419349e+002, 6.088087e+001
7.424170e+002, 6.087605e+001
7.428991e+002, 6.153898e+001
7.433812e+002, 6.184318e+001
7.438633e+002, 6.140767e+001
7.443455e+002, 6.090620e+001
7.448276e+002, 6.066048e+001
7.453097e+002, 6.059618e+001
7.457918e+002, 6.056973e+001
7.462739e+002, 6.053856e+001
7.467560e+002, 6.054108e+001
7.472382e+002, 6.065797e+001
7.477203e+002, 6.083037e+001
7.482024e+002, 6.085994e+001
7.486845e+002, 6.074345e+001
7.491666e+002, 6.060296e+001
7.496487e+002, 6.044598e+001
7.501309e+002, 6.036930e+001
7.506130e+002, 6.055997e+001
7.510951e+002, 6.104860e+001
7.515772e+002, 6.114481e+001
7.520593e+002, 6.042598e+001
7.525414e+002, 5.989545e+001
7.530236e+002, 5.978223e+001
7.535057e+002, 5.994100e+001
7.539878e+002, 6.039599e+001
7.544699e+002, 6.101190e+001
7.549520e+002, 6.139439e+001
7.554341e+002, 6.126596e+001
7.559163e+002, 6.091540e+001
7.563984e+002, 6.066078e+001
7.568805e+002, 6.052235e+001
7.573626e+002, 6.069012e+001
7.578447e+002, 6.122331e+001
7.583268e+002, 6.159676e+001
7.588090e+002, 6.139229e+001
7.592911e+002, 6.079450e+001
7.597732e+002, 6.041601e+001
7.602553e+002, 6.029744e+001
7.607374e+002, 6.033607e+001
7.612195e+002, 6.073877e+001
7.617017e+002, 6.107148e+001
7.621838e+002, 6.106820e+001
7.626659e+002, 6.088250e+001
7.631480e+002, 6.074787e+001
7.636301e+002, 6.072641e+001
7.641122e+002, 6.080917e+001
7.645944e+002, 6.106437e+001
7.650765e+002, 6.138068e+001
7.655586e+002, 6.164884e+001
7.660407e+002, 6.183094e+001
7.665228e+002, 6.169508e+001
7.670049e+002, 6.112752e+001
7.674871e+002, 6.052145e+001
7.679692e+002, 6.041922e+001
7.684513e+002, 6.084457e+001
7.689334e+002, 6.115040e+001
7.694155e+002, 6.137539e+001
7.698976e+002, 6.141148e+001
7.703798e+002, 6.104738e+001
7.708619e+002, 6.064122e+001
7.713440e+002, 6.048522e+001
7.718261e+002, 6.055432e+001
7.723082e+002, 6.063504e+001
7.727903e+002, 6.067440e+001
7.732725e+002, 6.067538e+001
7.737546e+002, 6.057572e+001
7.742367e+002, 6.046711e+001
7.747188e+002, 6.052810e+001
7.752009e+002, 6.075291e+001
7.756830e+002, 6.096278e+001
7.761652e+002, 6.103989e+001
7.766473e+002, 6.103180e+001
7.771294e+002, 6.108192e+001
7.776115e+002, 6.123158e+001
7.780936e+002, 6.112825e+001
7.785757e+002, 6.054472e+001
7.790579e+002, 6.008870e+001
7.795400e+002, 6.025249e+001
7.800221e+002, 6.068203e+001
7.805042e+002, 6.072868e+001
7.809863e+002, 6.025044e+001
7.814684e+002, 6.001233e+001
7.819506e+002, 6.046272e+001
7.824327e+002, 6.094500e+001
7.829148e+002, 6.100388e+001
7.833969e+002, 6.081500e+001
7.838790e+002, 6.069104e+001
7.843611e+002, 6.071780e+001
7.848433e+002, 6.079607e+001
7.853254e+002, 6.082663e+001
7.858075e+002, 6.084385e+001
7.862896e+002, 6.098260e+001
7.867717e+002, 6.124526e+001
7.872538e+002, 6.141611e+001
7.877360e+002, 6.142248e+001
7.882181e+002, 6.138375e+001
7.887002e+002, 6.142137e+001
7.891823e+002, 6.151625e+001
7.896644e+002, 6.150404e+001
7.901465e+002, 6.122222e+001
7.906286e+002, 6.107224e+001
7.911107e+002, 6.126189e+001
7.915928e+002, 6.142732e+001
7.920750e+002, 6.124607e+001
7.925571e+002, 6.087286e+001
7.930392e+002, 6.068296e+001
7.935213e+002, 6.082978e+001
7.940034e+002, 6.101390e+001
7.944855e+002, 6.089624e+001
7.949677e+002, 6.066848e+001
7.954498e+002, 6.077177e+001
7.959319e+002, 6.116192e+001
7.964140e+002, 6.136016e+001
7.968961e+002, 6.115683e+001
7.973782e+002, 6.081372e+001
7.978604e+002, 6.070715e+001
7.983425e+002, 6.085299e+001
7.988246e+002, 6.081565e+001
7.993067e+002, 6.047126e+001
7.997888e+002, 6.016660e+001
8.002709e+002, 5.984547e+001
8.007531e+002, 5.970991e+001
8.012352e+002, 6.005239e+001
8.017173e+002, 6.076176e+001
8.021994e+002, 6.129482e+001
8.026815e+002, 6.150106e+001
8.031636e+002, 6.151646e+001
8.036458e+002, 6.124807e+001
8.041279e+002, 6.092729e+001
8.046100e+002, 6.083204e+001
8.050921e+002, 6.095691e+001
8.055742e+002, 6.119534e+001
8.060563e+002, 6.150150e+001
8.065385e+002, 6.172481e+001
8.070206e+002, 6.150815e+001
8.075027e+002, 6.090426e+001
8.079848e+002, 6.071883e+001
8.084669e+002, 6.108035e+001
8.089490e+002, 6.134047e+001
8.094312e+002, 6.111872e+001
8.099133e+002, 6.077995e+001
8.103954e+002, 6.094144e+001
8.108775e+002, 6.174305e+001
8.113596e+002, 6.210273e+001
8.118417e+002, 6.179235e+001
8.123239e+002, 6.133891e+001
8.128060e+002, 6.059112e+001
8.132881e+002, 5.997488e+001
8.137702e+002, 6.002118e+001
8.142523e+002, 6.061917e+001
8.147344e+002, 6.114711e+001
8.152166e+002, 6.131575e+001
8.156987e+002, 6.125316e+001
8.161808e+002, 6.093998e+001
8.166629e+002, 6.053175e+001
8.171450e+002, 6.037112e+001
8.176271e+002, 6.049200e+001
8.181093e+002, 6.081123e+001
8.185914e+002, 6.130633e+001
8.190735e+002, 6.182273e+001
8.195556e+002, 6.204484e+001
8.200377e+002, 6.192449e+001
8.205198e+002, 6.177149e+001
8.210020e+002, 6.137524e+001
8.214841e+002, 6.135280e+001
8.219662e+002, 6.237260e+001
8.224483e+002, 6.357119e+001
8.229304e+002, 6.389811e+001
8.234125e+002, 6.337861e+001
8.238947e+002, 6.303835e+001
8.243768e+002, 6.316716e+001
8.248589e+002, 6.340934e+001
8.253410e+002, 6.366973e+001
8.258231e+002, 6.392513e+001
8.263052e+002, 6.420657e+001
8.267874e+002, 6.446828e+001
8.272695e+002, 6.452141e+001
8.277516e+002, 6.421016e+001
8.282337e+002, 6.388645e+001
8.287158e+002, 6.411801e+001
8.291979e+002, 6.477431e+001
8.296801e+002, 6.527653e+001
8.301622e+002, 6.556979e+001
8.306443e+002, 6.599851e+001
8.311264e+002, 6.675939e+001
8.316085e+002, 6.765627e+001
8.320906e+002, 6.833524e+001
8.325728e+002, 6.870742e+001
8.330549e+002, 6.948142e+001
8.335370e+002, 7.085896e+001
8.340191e+002, 7.234884e+001
8.345012e+002, 7.357378e+001
8.349833e+002, 7.505733e+001
8.354655e+002, 7.713183e+001
8.359476e+002, 7.984814e+001
8.364297e+002, 8.330777e+001
8.369118e+002, 8.759582e+001
8.373939e+002, 9.253773e+001
8.378760e+002, 9.880879e+001
8.383582e+002, 1.051977e+002
8.388403e+002, 1.109191e+002
8.393224e+002, 1.154433e+002
8.398045e+002, 1.178137e+002
8.402866e+002, 1.175809e+002
8.407687e+002, 1.151111e+002
8.412509e+002, 1.102092e+002
8.417330e+002, 1.033504e+002
8.422151e+002, 9.723599e+001
8.426972e+002, 9.194713e+001
8.431793e+002, 8.725821e+001
8.436614e+002, 8.314717e+001
8.441436e+002, 7.956838e+001
8.446257e+002, 7.649635e+001
8.451078e+002, 7.392513e+001
8.455899e+002, 7.189347e+001
8.460720e+002, 7.073318e+001
8.465541e+002, 6.965194e+001
8.470363e+002, 6.854568e+001
8.475184e+002, 6.752383e+001
8.480005e+002, 6.667426e+001
8.484826e+002, 6.595440e+001
8.489647e+002, 6.525052e+001
8.494468e+002, 6.451710e+001
8.499290e+002, 6.387569e+001
8.504111e+002, 6.329742e+001
8.508932e+002, 6.291644e+001
8.513753e+002, 6.292834e+001
8.518574e+002, 6.323573e+001
8.523395e+002, 6.372782e+001
8.528217e+002, 6.431314e+001
8.533038e+002, 6.460644e+001
8.537859e+002, 6.409378e+001
8.542680e+002, 6.311158e+001
8.547501e+002, 6.280940e+001
8.552322e+002, 6.318576e+001
8.557144e+002, 6.334449e+001
8.561965e+002, 6.309465e+001
8.566786e+002, 6.263192e+001
8.571607e+002, 6.198864e+001
8.576428e+002, 6.132744e+001
8.581249e+002, 6.119888e+001
8.586071e+002, 6.197630e+001
8.590892e+002, 6.247662e+001
8.595713e+002, 6.250165e+001
8.600534e+002, 6.248854e+001
8.605355e+002, 6.258119e+001
8.610176e+002, 6.272453e+001
8.614998e+002, 6.284882e+001
8.619819e+002, 6.294619e+001
8.624640e+002, 6.304395e+001
8.629461e+002, 6.333278e+001
8.634282e+002, 6.343380e+001
8.639103e+002, 6.279476e+001
8.643925e+002, 6.196288e+001
8.648746e+002, 6.178902e+001
8.653567e+002, 6.225508e+001
8.658388e+002, 6.272306e+001
8.663209e+002, 6.281345e+001
8.668030e+002, 6.279223e+001
8.672852e+002, 6.323028e+001
8.677673e+002, 6.395494e+001
8.682494e+002, 6.387619e+001
8.687315e+002, 6.290131e+001
8.692136e+002, 6.218311e+001
8.696957e+002, 6.221364e+001
8.701779e+002, 6.267010e+001
8.706600e+002, 6.321701e+001
8.711421e+002, 6.386153e+001
8.716242e+002, 6.387013e+001
8.721063e+002, 6.266216e+001
8.725884e+002, 6.184074e+001
8.730705e+002, 6.190358e+001
8.735526e+002, 6.221448e+001
8.740347e+002, 6.248003e+001
8.745168e+002, 6.269294e+001
8.749990e+002, 6.287170e+001
8.754811e+002, 6.302806e+001
8.759632e+002, 6.311765e+001
8.764453e+002, 6.309801e+001
8.769274e+002, 6.303140e+001
8.774095e+002, 6.298196e+001
8.778917e+002, 6.291103e+001
8.783738e+002, 6.266076e+001
8.788559e+002, 6.224953e+001
8.793380e+002, 6.205308e+001
8.798201e+002, 6.252819e+001
8.803022e+002, 6.319213e+001
8.807844e+002, 6.317665e+001
8.812665e+002, 6.265950e+001
8.817486e+002, 6.228175e+001
8.822307e+002, 6.214475e+001
8.827128e+002, 6.207734e+001
8.831949e+002, 6.197209e+001
8.836771e+002, 6.187245e+001
8.841592e+002, 6.187355e+001
8.846413e+002, 6.198615e+001
8.851234e+002, 6.212653e+001
8.856055e+002, 6.232964e+001
8.860876e+002, 6.246221e+001
8.865698e+002, 6.237244e+001
8.870519e+002, 6.230201e+001
8.875340e+002, 6.261399e+001
8.880161e+002, 6.326828e+001
8.884982e+002, 6.365073e+001
8.889803e+002, 6.376030e+001
8.894625e+002, 6.357513e+001
8.899446e+002, 6.273537e+001
8.904267e+002, 6.193445e+001
8.909088e+002, 6.168677e+001
8.913909e+002, 6.183121e+001
8.918730e+002, 6.198035e+001
8.923552e+002, 6.202441e+001
8.928373e+002, 6.216969e+001
8.933194e+002, 6.279676e+001
8.938015e+002, 6.338300e+001
8.942836e+002, 6.316794e+001
8.947657e+002, 6.253210e+001
8.952479e+002, 6.236161e+001
8.957300e+002, 6.278084e+001
8.962121e+002, 6.319307e+001
8.966942e+002, 6.315143e+001
8.971763e+002, 6.284192e+001
8.976584e+002, 6.255113e+001
8.981406e+002, 6.230244e+001
8.986227e+002, 6.241055e+001
8.991048e+002, 6.294333e+001
8.995869e+002, 6.332597e+001
9.000690e+002, 6.326817e+001
9.005511e+002, 6.297132e+001
9.010333e+002, 6.269768e+001
9.015154e+002, 6.243804e+001
9.019975e+002, 6.243160e+001
9.024796e+002, 6.292849e+001
9.029617e+002, 6.321048e+001
9.034438e+002, 6.288485e+001
9.039260e+002, 6.256015e+001
9.044081e+002, 6.269503e+001
9.048902e+002, 6.314254e+001
9.053723e+002, 6.354424e+001
9.058544e+002, 6.391568e+001
9.063365e+002, 6.408569e+001
9.068187e+002, 6.372715e+001
9.073008e+002, 6.345641e+001
9.077829e+002, 6.380835e+001
9.082650e+002, 6.439073e+001
9.087471e+002, 6.465685e+001
9.092292e+002, 6.452750e+001
9.097114e+002, 6.426280e+001
9.101935e+002, 6.395256e+001
9.106756e+002, 6.367169e+001
9.111577e+002, 6.336235e+001
9.116398e+002, 6.319099e+001
9.121219e+002, 6.369977e+001
9.126041e+002, 6.472218e+001
9.130862e+002, 6.528015e+001
9.135683e+002, 6.490976e+001
9.140504e+002, 6.423673e+001
9.145325e+002, 6.410188e+001
9.150146e+002, 6.440810e+001
9.154968e+002, 6.461677e+001
9.159789e+002, 6.472956e+001
9.164610e+002, 6.465179e+001
9.169431e+002, 6.428989e+001
9.174252e+002, 6.407765e+001
9.179073e+002, 6.444388e+001
9.183895e+002, 6.518139e+001
9.188716e+002, 6.552829e+001
9.193537e+002, 6.535403e+001
9.198358e+002, 6.511761e+001
9.203179e+002, 6.473559e+001
9.208000e+002, 6.441282e+001
9.212822e+002, 6.430843e+001
9.217643e+002, 6.425159e+001
9.222464e+002, 6.395078e+001
9.227285e+002, 6.343104e+001
9.232106e+002, 6.331576e+001
9.236927e+002, 6.406702e+001
9.241749e+002, 6.472201e+001
9.246570e+002, 6.496209e+001
9.251391e+002, 6.504984e+001
9.256212e+002, 6.521912e+001
9.261033e+002, 6.539457e+001
9.265854e+002, 6.536277e+001
9.270676e+002, 6.505772e+001
9.275497e+002, 6.469610e+001
9.280318e+002, 6.431282e+001
9.285139e+002, 6.403992e+001
9.289960e+002, 6.399094e+001
9.294781e+002, 6.415934e+001
9.299603e+002, 6.466654e+001
9.304424e+002, 6.542193e+001
9.309245e+002, 6.592348e+001
9.314066e+002, 6.583108e+001
9.318887e+002, 6.544711e+001
9.323708e+002, 6.516161e+001
9.328530e+002, 6.499158e+001
9.333351e+002, 6.509447e+001
9.338172e+002, 6.545229e+001
9.342993e+002, 6.556393e+001
9.347814e+002, 6.520605e+001
9.352635e+002, 6.495557e+001
9.357457e+002, 6.552230e+001
9.362278e+002, 6.669777e+001
9.367099e+002, 6.719113e+001
9.371920e+002, 6.680418e+001
9.376741e+002, 6.662151e+001
9.381563e+002, 6.688419e+001
9.386384e+002, 6.709755e+001
9.391205e+002, 6.698639e+001
9.396026e+002, 6.666190e+001
9.400847e+002, 6.629908e+001
9.405668e+002, 6.587985e+001
9.410490e+002, 6.553419e+001
9.415311e+002, 6.514803e+001
9.420132e+002, 6.498698e+001
9.424953e+002, 6.532616e+001
9.429774e+002, 6.570474e+001
9.434595e+002, 6.578154e+001
9.439417e+002, 6.562691e+001
9.444238e+002, 6.543665e+001
9.449059e+002, 6.520084e+001
9.453880e+002, 6.511490e+001
9.458701e+002, 6.544627e+001
9.463522e+002, 6.573949e+001
9.468344e+002, 6.555248e+001
9.473165e+002, 6.521812e+001
9.477986e+002, 6.525800e+001
9.482807e+002, 6.566995e+001
9.487628e+002, 6.598780e+001
9.492449e+002, 6.590333e+001
9.497271e+002, 6.579485e+001
9.502092e+002, 6.611167e+001
9.506913e+002, 6.658797e+001
9.511734e+002, 6.689555e+001
9.516555e+002, 6.697660e+001
9.521376e+002, 6.664828e+001
9.526198e+002, 6.590197e+001
9.531019e+002, 6.533572e+001
9.535840e+002, 6.565858e+001
9.540661e+002, 6.639555e+001
9.545482e+002, 6.619386e+001
9.550303e+002, 6.526003e+001
9.555124e+002, 6.507174e+001
9.559945e+002, 6.583412e+001
9.564766e+002, 6.662466e+001
9.569587e+002, 6.697517e+001
9.574409e+002, 6.692986e+001
9.579230e+002, 6.642812e+001
9.584051e+002, 6.548842e+001
9.588872e+002, 6.551491e+001
9.593693e+002, 6.688345e+001
9.598514e+002, 6.751606e+001
9.603336e+002, 6.662552e+001
9.608157e+002, 6.570895e+001
9.612978e+002, 6.603508e+001
9.617799e+002, 6.707236e+001
9.622620e+002, 6.727690e+001
9.627441e+002, 6.622677e+001
9.632263e+002, 6.565092e+001
9.637084e+002, 6.586929e+001
9.641905e+002, 6.613481e+001
9.646726e+002, 6.626497e+001
9.651547e+002, 6.634704e+001
9.656368e+002, 6.647739e+001
9.661190e+002, 6.663070e+001
9.666011e+002, 6.667072e+001
9.670832e+002, 6.643548e+001
9.675653e+002, 6.638284e+001
9.680474e+002, 6.675919e+001
9.685295e+002, 6.718280e+001
9.690117e+002, 6.755251e+001
9.694938e+002, 6.776997e+001
9.699759e+002, 6.765855e+001
9.704580e+002, 6.724599e+001
9.709401e+002, 6.685233e+001
9.714222e+002, 6.657618e+001
9.719044e+002, 6.642381e+001
9.723865e+002, 6.631761e+001
9.728686e+002, 6.640089e+001
9.733507e+002, 6.710841e+001
9.738328e+002, 6.806960e+001
9.743149e+002, 6.839513e+001
9.747971e+002, 6.786352e+001
9.752792e+002, 6.717390e+001
9.757613e+002, 6.679172e+001
9.762434e+002, 6.665112e+001
9.767255e+002, 6.682655e+001
9.772076e+002, 6.712286e+001
9.776898e+002, 6.704666e+001
9.781719e+002, 6.662581e+001
9.786540e+002, 6.627339e+001
9.791361e+002, 6.618492e+001
9.796182e+002, 6.636820e+001
9.801003e+002, 6.702305e+001
9.805825e+002, 6.789060e+001
9.810646e+002, 6.794172e+001
9.815467e+002, 6.729563e+001
9.820288e+002, 6.694544e+001
9.825109e+002, 6.708785e+001
9.829930e+002, 6.730094e+001
9.834752e+002, 6.730344e+001
9.839573e+002, 6.725145e+001
9.844394e+002, 6.751383e+001
9.849215e+002, 6.809542e+001
9.854036e+002, 6.817973e+001
9.858857e+002, 6.764642e+001
9.863679e+002, 6.732180e+001
9.868500e+002, 6.741911e+001
9.873321e+002, 6.780938e+001
9.878142e+002, 6.849577e+001
9.882963e+002, 6.929635e+001
9.887784e+002, 6.962242e+001
9.892606e+002, 6.935218e+001
9.897427e+002, 6.901486e+001
9.902248e+002, 6.849979e+001
9.907069e+002, 6.813184e+001
9.911890e+002, 6.804164e+001
9.916711e+002, 6.810458e+001
9.921533e+002, 6.821303e+001
9.926354e+002, 6.837136e+001
9.931175e+002, 6.861124e+001
9.935996e+002, 6.906931e+001
9.940817e+002, 6.936213e+001
9.945638e+002, 6.931919e+001
9.950460e+002, 6.931013e+001
9.955281e+002, 6.960799e+001
9.960102e+002, 6.991948e+001
9.964923e+002, 6.984203e+001
9.969744e+002, 6.943343e+001
9.974565e+002, 6.923231e+001
9.979387e+002, 6.947282e+001
9.984208e+002, 6.970512e+001
9.989029e+002, 6.988158e+001
9.993850e+002, 6.994751e+001
9.998671e+002, 6.977277e+001
1.000349e+003, 6.951434e+001
1.000831e+003, 6.937974e+001
1.001313e+003, 6.939723e+001
1.001796e+003, 6.949837e+001
1.002278e+003, 6.978506e+001
1.002760e+003, 6.995058e+001
1.003242e+003, 6.964761e+001
1.003724e+003, 6.930435e+001
1.004206e+003, 6.942548e+001
1.004688e+003, 6.978602e+001
1.005170e+003, 6.983537e+001
1.005653e+003, 6.947572e+001
1.006135e+003, 6.919904e+001
1.006617e+003, 6.935258e+001
1.007099e+003, 6.966740e+001
1.007581e+003, 7.000008e+001
1.008063e+003, 7.026669e+001
1.008545e+003, 7.027395e+001
1.009027e+003, 7.010963e+001
1.009509e+003, 7.009974e+001
1.009992e+003, 7.033656e+001
1.010474e+003, 7.046305e+001
1.010956e+003, 6.999664e+001
1.011438e+003, 6.942532e+001
1.011920e+003, 6.960853e+001
1.012402e+003, 7.022871e+001
1.012884e+003, 7.052025e+001
1.013366e+003, 7.046281e+001
1.013849e+003, 7.049146e+001
1.014331e+003, 7.079327e+001
1.014813e+003, 7.110326e+001
1.015295e+003, 7.113948e+001
1.015777e+003, 7.095235e+001
1.016259e+003, 7.055116e+001
1.016741e+003, 7.002359e+001
1.017223e+003, 6.981301e+001
1.017705e+003, 6.996868e+001
1.018188e+003, 7.030973e+001
1.018670e+003, 7.076133e+001
1.019152e+003, 7.102029e+001
1.019634e+003, 7.049316e+001
1.020116e+003, 6.946298e+001
1.020598e+003, 6.950013e+001
1.021080e+003, 7.054933e+001
1.021562e+003, 7.104433e+001
1.022044e+003, 7.068462e+001
1.022527e+003, 7.036025e+001
1.023009e+003, 7.060711e+001
1.023491e+003, 7.105390e+001
1.023973e+003, 7.108494e+001
1.024455e+003, 7.073103e+001
1.024937e+003, 7.049330e+001
1.025419e+003, 7.037222e+001
1.025901e+003, 7.034705e+001
1.026384e+003, 7.038010e+001
1.026866e+003, 7.069353e+001
1.027348e+003, 7.149411e+001
1.027830e+003, 7.251158e+001
1.028312e+003, 7.322445e+001
1.028794e+003, 7.362000e+001
1.029276e+003, 7.417101e+001
1.029758e+003, 7.493763e+001
1.030240e+003, 7.560455e+001
1.030723e+003, 7.592263e+001
1.031205e+003, 7.663882e+001
1.031687e+003, 7.852401e+001
1.032169e+003, 8.082333e+001
1.032651e+003, 8.200823e+001
1.033133e+003, 8.198788e+001
1.033615e+003, 8.156799e+001
1.034097e+003, 8.046776e+001
1.034579e+003, 7.958755e+001
1.035062e+003, 7.922726e+001
1.035544e+003, 7.891854e+001
1.036026e+003, 7.830629e+001
1.036508e+003, 7.756702e+001
1.036990e+003, 7.705319e+001
1.037472e+003, 7.675773e+001
1.037954e+003, 7.672625e+001
1.038436e+003, 7.697714e+001
1.038919e+003, 7.746537e+001
1.039401e+003, 7.825457e+001
1.039883e+003, 7.919793e+001
1.040365e+003, 8.017596e+001
1.040847e+003, 8.125314e+001
1.041329e+003, 8.243043e+001
1.041811e+003, 8.353585e+001
1.042293e+003, 8.567110e+001
1.042776e+003, 8.925417e+001
1.043258e+003, 9.332343e+001
1.043740e+003, 9.779012e+001
1.044222e+003, 1.026041e+002
1.044704e+003, 1.079268e+002
1.045186e+003, 1.134986e+002
1.045668e+003, 1.185022e+002
1.046150e+003, 1.225540e+002
1.046632e+003, 1.283183e+002
1.047115e+003, 1.353349e+002
1.047597e+003, 1.451106e+002
1.048079e+003, 1.567827e+002
1.048561e+003, 1.725166e+002
1.049043e+003, 1.930267e+002
1.049525e+003, 2.189172e+002
1.050007e+003, 2.510754e+002
1.050489e+003, 2.892716e+002
1.050971e+003, 3.358922e+002
1.051454e+003, 3.886898e+002
1.051936e+003, 4.533339e+002
1.052418e+003, 5.186465e+002
1.052900e+003, 6.089954e+002
1.053382e+003, 7.257842e+002
1.053864e+003, 8.865582e+002
1.054346e+003, 1.142986e+003
1.054828e+003, 1.506266e+003
1.055311e+003, 1.817402e+003
1.055793e+003, 2.117476e+003
1.056275e+003, 2.246730e+003
1.056757e+003, 2.071984e+003
1.057239e+003, 1.783041e+003
1.057721e+003, 1.462928e+003
1.058203e+003, 1.155699e+003
1.058685e+003, 9.130774e+002
1.059167e+003, 7.425808e+002
1.059650e+003, 6.038489e+002
1.060132e+003, 4.945945e+002
1.060614e+003, 4.002165e+002
1.061096e+003, 3.132939e+002
1.061578e+003, 2.403991e+002
1.062060e+003, 1.877999e+002
1.062542e+003, 1.516295e+002
1.063024e+003, 1.274334e+002
1.063506e+003, 1.137310e+002
1.063989e+003, 1.044906e+002
1.064471e+003, 9.937127e+001
1.064953e+003, 9.561147e+001
1.065435e+003, 9.261124e+001
1.065917e+003, 9.000462e+001
1.066399e+003, 8.740194e+001
1.066881e+003, 8.505589e+001
1.067363e+003, 8.348085e+001
1.067846e+003, 8.269047e+001
1.068328e+003, 8.208701e+001
1.068810e+003, 8.157938e+001
1.069292e+003, 8.099254e+001
1.069774e+003, 8.020902e+001
1.070256e+003, 7.935778e+001
1.070738e+003, 7.845274e+001
1.071220e+003, 7.758752e+001
1.071703e+003, 7.683027e+001
1.072185e+003, 7.621729e+001
1.072667e+003, 7.583516e+001
1.073149e+003, 7.577139e+001
1.073631e+003, 7.581357e+001
1.074113e+003, 7.604776e+001
1.074595e+003, 7.615882e+001
1.075077e+003, 7.590478e+001
1.075559e+003, 7.539746e+001
1.076042e+003, 7.461095e+001
1.076524e+003, 7.370382e+001
1.077006e+003, 7.327862e+001
1.077488e+003, 7.370581e+001
1.077970e+003, 7.409071e+001
1.078452e+003, 7.389994e+001
1.078934e+003, 7.365582e+001
1.079416e+003, 7.369405e+001
1.079898e+003, 7.389358e+001
1.080380e+003, 7.412870e+001
1.080863e+003, 7.436518e+001
1.081345e+003, 7.461438e+001
1.081827e+003, 7.493558e+001
1.082309e+003, 7.498070e+001
1.082791e+003, 7.429066e+001
1.083273e+003, 7.362824e+001
1.083755e+003, 7.349957e+001
1.084237e+003, 7.361105e+001
1.084720e+003, 7.369736e+001
1.085202e+003, 7.371842e+001
1.085684e+003, 7.365639e+001
1.086166e+003, 7.348891e+001
1.086648e+003, 7.341759e+001
1.087130e+003, 7.364083e+001
1.087612e+003, 7.384019e+001
1.088094e+003, 7.378586e+001
1.088577e+003, 7.368845e+001
1.089059e+003, 7.370913e+001
1.089541e+003, 7.385902e+001
1.090023e+003, 7.420658e+001
1.090505e+003, 7.476907e+001
1.090987e+003, 7.502967e+001
1.091469e+003, 7.438106e+001
1.091951e+003, 7.394663e+001
1.092433e+003, 7.443562e+001
1.092916e+003, 7.510342e+001
1.093398e+003, 7.538161e+001
1.093880e+003, 7.541000e+001
1.094362e+003, 7.554947e+001
1.094844e+003, 7.582455e+001
1.095326e+003, 7.581608e+001
1.095808e+003, 7.511018e+001
1.096290e+003, 7.451964e+001
1.096772e+003, 7.434028e+001
1.097255e+003, 7.432626e+001
1.097737e+003, 7.432097e+001
1.098219e+003, 7.438274e+001
1.098701e+003, 7.471075e+001
1.099183e+003, 7.523656e+001
1.099665e+003, 7.545557e+001
1.100147e+003, 7.508234e+001
1.100629e+003, 7.474981e+001
1.101112e+003, 7.451081e+001
1.101594e+003, 7.447966e+001
1.102076e+003, 7.498495e+001
1.102558e+003, 7.551823e+001
1.103040e+003, 7.545397e+001
1.103522e+003, 7.493299e+001
1.104004e+003, 7.458640e+001
1.104486e+003, 7.447002e+001
1.104969e+003, 7.464100e+001
1.105451e+003, 7.558941e+001
1.105933e+003, 7.620181e+001
1.106415e+003, 7.565728e+001
1.106897e+003, 7.502568e+001
1.107379e+003, 7.532716e+001
1.107861e+003, 7.618410e+001
1.108343e+003, 7.658244e+001
1.108825e+003, 7.635583e+001
1.109307e+003, 7.621145e+001
1.109790e+003, 7.632153e+001
1.110272e+003, 7.636033e+001
1.110754e+003, 7.631621e+001
1.111236e+003, 7.612746e+001
1.111718e+003, 7.550734e+001
1.112200e+003, 7.483558e+001
1.112682e+003, 7.481587e+001
1.113164e+003, 7.549488e+001
1.113647e+003, 7.597836e+001
1.114129e+003, 7.624523e+001
1.114611e+003, 7.634608e+001
1.115093e+003, 7.615258e+001
1.115575e+003, 7.597266e+001
1.116057e+003, 7.595767e+001
1.116539e+003, 7.600117e+001
1.117021e+003, 7.597701e+001
1.117504e+003, 7.589806e+001
1.117986e+003, 7.585435e+001
1.118468e+003, 7.580396e+001
1.118950e+003, 7.592235e+001
1.119432e+003, 7.650385e+001
1.119914e+003, 7.661537e+001
1.120396e+003, 7.562193e+001
1.120878e+003, 7.463390e+001
1.121360e+003, 7.468472e+001
1.121843e+003, 7.540702e+001
1.122325e+003, 7.568703e+001
1.122807e+003, 7.539526e+001
1.123289e+003, 7.551218e+001
1.123771e+003, 7.626612e+001
1.124253e+003, 7.660738e+001
1.124735e+003, 7.617917e+001
1.125217e+003, 7.571424e+001
1.125699e+003, 7.569382e+001
1.126182e+003, 7.587085e+001
1.126664e+003, 7.578832e+001
1.127146e+003, 7.547729e+001
1.127628e+003, 7.557001e+001
1.128110e+003, 7.613227e+001
1.128592e+003, 7.652164e+001
1.129074e+003, 7.666499e+001
1.129556e+003, 7.644707e+001
1.130039e+003, 7.572421e+001
1.130521e+003, 7.520816e+001
1.131003e+003, 7.586304e+001
1.131485e+003, 7.714733e+001
1.131967e+003, 7.685750e+001
1.132449e+003, 7.513538e+001
1.132931e+003, 7.460619e+001
1.133413e+003, 7.539549e+001
1.133896e+003, 7.648233e+001
1.134378e+003, 7.755223e+001
1.134860e+003, 7.818661e+001
1.135342e+003, 7.801314e+001
1.135824e+003, 7.746156e+001
1.136306e+003, 7.725364e+001
1.136788e+003, 7.734151e+001
1.137270e+003, 7.761729e+001
1.137752e+003, 7.802509e+001
1.138234e+003, 7.830003e+001
1.138717e+003, 7.841146e+001
1.139199e+003, 7.857979e+001
1.139681e+003, 7.892036e+001
1.140163e+003, 7.907619e+001
1.140645e+003, 7.841234e+001
1.141127e+003, 7.752028e+001
1.141609e+003, 7.762214e+001
1.142091e+003, 7.828264e+001
1.142574e+003, 7.857847e+001
1.143056e+003, 7.849297e+001
1.143538e+003, 7.830097e+001
1.144020e+003, 7.813008e+001
1.144502e+003, 7.820116e+001
1.144984e+003, 7.878768e+001
1.145466e+003, 7.939827e+001
1.145948e+003, 7.947393e+001
1.146431e+003, 7.931287e+001
1.146913e+003, 7.927791e+001
1.147395e+003, 7.930146e+001
1.147877e+003, 7.919917e+001
1.148359e+003, 7.896831e+001
1.148841e+003, 7.874247e+001
1.149323e+003, 7.857127e+001
1.149805e+003, 7.844830e+001
1.150287e+003, 7.839999e+001
1.150770e+003, 7.836352e+001
1.151252e+003, 7.814820e+001
1.151734e+003, 7.803767e+001
1.152216e+003, 7.857445e+001
1.152698e+003, 7.940458e+001
1.153180e+003, 7.956079e+001
1.153662e+003, 7.884715e+001
1.154144e+003, 7.851339e+001
1.154626e+003, 7.943925e+001
1.155109e+003, 8.015468e+001
1.155591e+003, 8.003008e+001
1.156073e+003, 7.970918e+001
1.156555e+003, 7.939501e+001
1.157037e+003, 7.925075e+001
1.157519e+003, 7.938129e+001
1.158001e+003, 7.982734e+001
1.158483e+003, 8.086182e+001
1.158966e+003, 8.360250e+001
1.159448e+003, 8.459919e+001
1.159930e+003, 8.184363e+001
1.160412e+003, 7.979250e+001
1.160894e+003, 8.008028e+001
1.161376e+003, 8.094870e+001
1.161858e+003, 8.124868e+001
1.162340e+003, 8.113892e+001
1.162822e+003, 8.093734e+001
1.163305e+003, 8.063046e+001
1.163787e+003, 8.036620e+001
1.164269e+003, 8.012863e+001
1.164751e+003, 7.999834e+001
1.165233e+003, 8.003897e+001
1.165715e+003, 7.999226e+001
1.166197e+003, 7.962691e+001
1.166679e+003, 7.943813e+001
1.167161e+003, 8.012269e+001
1.167644e+003, 8.135818e+001
1.168126e+003, 8.174910e+001
1.168608e+003, 8.126162e+001
1.169090e+003, 8.092593e+001
1.169572e+003, 8.078248e+001
1.170054e+003, 8.098423e+001
1.170536e+003, 8.158064e+001
1.171018e+003, 8.219506e+001
1.171500e+003, 8.259161e+001
1.171983e+003, 8.268465e+001
1.172465e+003, 8.204932e+001
1.172947e+003, 8.110661e+001
1.173429e+003, 8.152335e+001
1.173911e+003, 8.288198e+001
1.174393e+003, 8.353537e+001
1.174875e+003, 8.342033e+001
1.175357e+003, 8.351145e+001
1.175840e+003, 8.414513e+001
1.176322e+003, 8.458611e+001
1.176804e+003, 8.406081e+001
1.177286e+003, 8.342915e+001
1.177768e+003, 8.399482e+001
1.178250e+003, 8.496254e+001
1.178732e+003, 8.517229e+001
1.179214e+003, 8.486494e+001
1.179697e+003, 8.461909e+001
1.180179e+003, 8.453005e+001
1.180661e+003, 8.444096e+001
1.181143e+003, 8.427937e+001
1.181625e+003, 8.417152e+001
1.182107e+003, 8.418710e+001
1.182589e+003, 8.429062e+001
1.183071e+003, 8.452335e+001
1.183553e+003, 8.477528e+001
1.184036e+003, 8.499046e+001
1.184518e+003, 8.512562e+001
1.185000e+003, 8.511422e+001
1.185482e+003, 8.495067e+001
1.185964e+003, 8.471676e+001
1.186446e+003, 8.414234e+001
1.186928e+003, 8.396581e+001
1.187410e+003, 8.462978e+001
1.187892e+003, 8.531731e+001
1.188375e+003, 8.577062e+001
1.188857e+003, 8.601791e+001
1.189339e+003, 8.601637e+001
1.189821e+003, 8.585733e+001
1.190303e+003, 8.578928e+001
1.190785e+003, 8.580245e+001
1.191267e+003, 8.599960e+001
1.191749e+003, 8.656130e+001
1.192232e+003, 8.672892e+001
1.192714e+003, 8.614977e+001
1.193196e+003, 8.590869e+001
1.193678e+003, 8.668504e+001
1.194160e+003, 8.764259e+001
1.194642e+003, 8.771906e+001
1.195124e+003, 8.716807e+001
1.195606e+003, 8.701369e+001
1.196089e+003, 8.723576e+001
1.196571e+003, 8.728773e+001
1.197053e+003, 8.715488e+001
1.197535e+003, 8.707864e+001
1.198017e+003, 8.711906e+001
1.198499e+003, 8.720450e+001
1.198981e+003, 8.728985e+001
1.199463e+003, 8.741378e+001
1.199945e+003, 8.765659e+001
1.200427e+003, 8.795056e+001
1.200910e+003, 8.815257e+001
1.201392e+003, 8.830530e+001
1.201874e+003, 8.861118e+001
1.202356e+003, 8.894576e+001
1.202838e+003, 8.873244e+001
1.203320e+003, 8.795193e+001
1.203802e+003, 8.764960e+001
1.204284e+003, 8.865450e+001
1.204767e+003, 8.963795e+001
1.205249e+003, 8.940152e+001
1.205731e+003, 8.893161e+001
1.206213e+003, 8.914668e+001
1.206695e+003, 8.953177e+001
1.207177e+003, 8.934972e+001
1.207659e+003, 8.877334e+001
1.208141e+003, 8.840960e+001
1.208624e+003, 8.838148e+001
1.209106e+003, 8.849638e+001
1.209588e+003, 8.885410e+001
1.210070e+003, 8.913193e+001
1.210552e+003, 8.911194e+001
1.211034e+003, 8.917895e+001
1.211516e+003, 8.966557e+001
1.211998e+003, 9.020409e+001
1.212480e+003, 9.032744e+001
1.212963e+003, 9.021571e+001
1.213445e+003, 9.061379e+001
1.213927e+003, 9.173385e+001
1.214409e+003, 9.224938e+001
1.214891e+003, 9.200535e+001
1.215373e+003, 9.176222e+001
1.215855e+003, 9.165868e+001
1.216337e+003, 9.156966e+001
1.216819e+003, 9.141777e+001
1.217302e+003, 9.133089e+001
1.217784e+003, 9.151421e+001
1.218266e+003, 9.180663e+001
1.218748e+003, 9.157607e+001
1.219230e+003, 9.099098e+001
1.219712e+003, 9.100863e+001
1.220194e+003, 9.153147e+001
1.220676e+003, 9.172266e+001
1.221159e+003, 9.145760e+001
1.221641e+003, 9.131784e+001
1.222123e+003, 9.162122e+001
1.222605e+003, 9.203696e+001
1.223087e+003, 9.228395e+001
1.223569e+003, 9.241395e+001
1.224051e+003, 9.221743e+001
1.224533e+003, 9.214500e+001
1.225016e+003, 9.317953e+001
1.225498e+003, 9.464238e+001
1.225980e+003, 9.507926e+001
1.226462e+003, 9.437693e+001
1.226944e+003, 9.359917e+001
1.227426e+003, 9.302852e+001
1.227908e+003, 9.266231e+001
1.228390e+003, 9.251074e+001
1.228872e+003, 9.255138e+001
1.229354e+003, 9.291082e+001
1.229837e+003, 9.332655e+001
1.230319e+003, 9.356750e+001
1.230801e+003, 9.374249e+001
1.231283e+003, 9.410715e+001
1.231765e+003, 9.464931e+001
1.232247e+003, 9.487540e+001
1.232729e+003, 9.467220e+001
1.233211e+003, 9.449336e+001
1.233694e+003, 9.434319e+001
1.234176e+003, 9.424118e+001
1.234658e+003, 9.414722e+001
1.235140e+003, 9.436750e+001
1.235622e+003, 9.519966e+001
1.236104e+003, 9.616132e+001
1.236586e+003, 9.637901e+001
1.237068e+003, 9.604140e+001
1.237551e+003, 9.591348e+001
1.238033e+003, 9.595704e+001
1.238515e+003, 9.605761e+001
1.238997e+003, 9.616109e+001
1.239479e+003, 9.603118e+001
1.239961e+003, 9.565445e+001
1.240443e+003, 9.545996e+001
1.240925e+003, 9.575361e+001
1.241407e+003, 9.613927e+001
1.241890e+003, 9.604846e+001
1.242372e+003, 9.606149e+001
1.242854e+003, 9.713131e+001
1.243336e+003, 9.834534e+001
1.243818e+003, 9.846117e+001
1.244300e+003, 9.783724e+001
1.244782e+003, 9.734007e+001
1.245264e+003, 9.714560e+001
1.245746e+003, 9.732808e+001
1.246229e+003, 9.815054e+001
1.246711e+003, 9.889928e+001
1.247193e+003, 9.966469e+001
1.247675e+003, 1.000458e+002
1.248157e+003, 9.957422e+001
1.248639e+003, 9.908300e+001
1.249121e+003, 9.917945e+001
1.249603e+003, 9.961012e+001
1.250085e+003, 9.994154e+001
1.250568e+003, 1.001742e+002
1.251050e+003, 1.002954e+002
1.251532e+003, 1.002736e+002
1.252014e+003, 1.005410e+002
1.252496e+003, 1.011467e+002
1.252978e+003, 1.015423e+002
1.253460e+003, 1.015651e+002
1.253942e+003, 1.016373e+002
1.254425e+003, 1.020642e+002
1.254907e+003, 1.025191e+002
1.255389e+003, 1.024608e+002
1.255871e+003, 1.021797e+002
1.256353e+003, 1.022051e+002
1.256835e+003, 1.024231e+002
1.257317e+003, 1.026353e+002
1.257799e+003, 1.028460e+002
1.258281e+003, 1.031292e+002
1.258764e+003, 1.034948e+002
1.259246e+003, 1.039256e+002
1.259728e+003, 1.044797e+002
1.260210e+003, 1.048423e+002
1.260692e+003, 1.048119e+002
1.261174e+003, 1.046285e+002
1.261656e+003, 1.040206e+002
1.262138e+003, 1.036945e+002
1.262620e+003, 1.044423e+002
1.263103e+003, 1.056791e+002
1.263585e+003, 1.065274e+002
1.264067e+003, 1.069919e+002
1.264549e+003, 1.070889e+002
1.265031e+003, 1.066205e+002
1.265513e+003, 1.064835e+002
1.265995e+003, 1.067756e+002
1.266477e+003, 1.069450e+002
1.266960e+003, 1.068324e+002
1.267442e+003, 1.068848e+002
1.267924e+003, 1.073820e+002
1.268406e+003, 1.078595e+002
1.268888e+003, 1.076845e+002
1.269370e+003, 1.072476e+002
1.269852e+003, 1.075488e+002
1.270334e+003, 1.082680e+002
1.270817e+003, 1.086164e+002
1.271299e+003, 1.086614e+002
1.271781e+003, 1.087076e+002
1.272263e+003, 1.087956e+002
1.272745e+003, 1.087928e+002
1.273227e+003, 1.086482e+002
1.273709e+003, 1.085692e+002
1.274191e+003, 1.085510e+002
1.274673e+003, 1.088081e+002
1.275156e+003, 1.097809e+002
1.275638e+003, 1.106886e+002
1.276120e+003, 1.109020e+002
1.276602e+003, 1.108580e+002
1.277084e+003, 1.110835e+002
1.277566e+003, 1.114927e+002
1.278048e+003, 1.117449e+002
1.278530e+003, 1.118395e+002
1.279012e+003, 1.117443e+002
1.279495e+003, 1.113203e+002
1.279977e+003, 1.112081e+002
1.280459e+003, 1.115190e+002
1.280941e+003, 1.119625e+002
1.281423e+003, 1.124501e+002
1.281905e+003, 1.129013e+002
1.282387e+003, 1.132644e+002
1.282869e+003, 1.135102e+002
1.283352e+003, 1.134979e+002
1.283834e+003, 1.133680e+002
1.284316e+003, 1.134121e+002
1.284798e+003, 1.136358e+002
##END=



