##NAMES=Plumbonacrite
##RRUFFID=R130567
##IDEAL CHEMISTRY=Pb^2+^_5_(CO_3_)_3_O(OH)_2_
##LOCALITY=Merehead Quarry, Cranmore, Somerset, England, UK
##OWNER=RRUFF
##SOURCE=Rick Turner
##DESCRIPTION=Colorless hexagonal bipyramidal crystal on cerussite
##STATUS=The identification of this mineral has been confirmed by single-crystal X-ray diffraction.
##URL=rruff.info/R130567
9.059570e+001, 5.620876e+003
9.107782e+001, 5.407955e+003
9.155994e+001, 5.332515e+003
9.204205e+001, 5.484855e+003
9.252417e+001, 5.713993e+003
9.300629e+001, 5.972327e+003
9.348840e+001, 6.210211e+003
9.397052e+001, 6.382960e+003
9.445264e+001, 6.467945e+003
9.493475e+001, 6.549071e+003
9.541687e+001, 6.621809e+003
9.589898e+001, 6.689836e+003
9.638110e+001, 6.756682e+003
9.686321e+001, 6.827688e+003
9.734533e+001, 6.900861e+003
9.782745e+001, 6.958250e+003
9.830956e+001, 7.002476e+003
9.879168e+001, 7.028744e+003
9.927380e+001, 7.056462e+003
9.975591e+001, 7.089486e+003
1.002380e+002, 7.126072e+003
1.007201e+002, 7.162541e+003
1.012023e+002, 7.195701e+003
1.016844e+002, 7.227434e+003
1.021665e+002, 7.263508e+003
1.026486e+002, 7.304941e+003
1.031307e+002, 7.349110e+003
1.036128e+002, 7.393937e+003
1.040950e+002, 7.439597e+003
1.045771e+002, 7.484228e+003
1.050592e+002, 7.524105e+003
1.055413e+002, 7.560235e+003
1.060234e+002, 7.593937e+003
1.065055e+002, 7.625374e+003
1.069877e+002, 7.654516e+003
1.074698e+002, 7.682659e+003
1.079519e+002, 7.713396e+003
1.084340e+002, 7.736955e+003
1.089161e+002, 7.745991e+003
1.093982e+002, 7.744450e+003
1.098804e+002, 7.741660e+003
1.103625e+002, 7.745144e+003
1.108446e+002, 7.754940e+003
1.113267e+002, 7.770519e+003
1.118088e+002, 7.791126e+003
1.122909e+002, 7.817228e+003
1.127731e+002, 7.850439e+003
1.132552e+002, 7.890218e+003
1.137373e+002, 7.934208e+003
1.142194e+002, 7.978544e+003
1.147015e+002, 8.022086e+003
1.151836e+002, 8.069354e+003
1.156658e+002, 8.123709e+003
1.161479e+002, 8.180205e+003
1.166300e+002, 8.233595e+003
1.171121e+002, 8.282018e+003
1.175942e+002, 8.328100e+003
1.180763e+002, 8.377929e+003
1.185584e+002, 8.432982e+003
1.190406e+002, 8.487742e+003
1.195227e+002, 8.538934e+003
1.200048e+002, 8.588194e+003
1.204869e+002, 8.641192e+003
1.209690e+002, 8.702375e+003
1.214511e+002, 8.766865e+003
1.219333e+002, 8.825229e+003
1.224154e+002, 8.876061e+003
1.228975e+002, 8.923034e+003
1.233796e+002, 8.971635e+003
1.238617e+002, 9.023479e+003
1.243438e+002, 9.063842e+003
1.248260e+002, 9.084401e+003
1.253081e+002, 9.089551e+003
1.257902e+002, 9.080473e+003
1.262723e+002, 9.057325e+003
1.267544e+002, 9.020329e+003
1.272365e+002, 8.970778e+003
1.277187e+002, 8.910313e+003
1.282008e+002, 8.831063e+003
1.286829e+002, 8.729704e+003
1.291650e+002, 8.611900e+003
1.296471e+002, 8.485658e+003
1.301292e+002, 8.356223e+003
1.306114e+002, 8.223058e+003
1.310935e+002, 8.077700e+003
1.315756e+002, 7.904455e+003
1.320577e+002, 7.732405e+003
1.325398e+002, 7.564473e+003
1.330219e+002, 7.403197e+003
1.335041e+002, 7.253046e+003
1.339862e+002, 7.117678e+003
1.344683e+002, 6.998302e+003
1.349504e+002, 6.885911e+003
1.354325e+002, 6.773019e+003
1.359146e+002, 6.670870e+003
1.363968e+002, 6.588196e+003
1.368789e+002, 6.524958e+003
1.373610e+002, 6.473190e+003
1.378431e+002, 6.425789e+003
1.383252e+002, 6.383094e+003
1.388073e+002, 6.343849e+003
1.392895e+002, 6.308046e+003
1.397716e+002, 6.275493e+003
1.402537e+002, 6.246899e+003
1.407358e+002, 6.223268e+003
1.412179e+002, 6.200807e+003
1.417000e+002, 6.176250e+003
1.421821e+002, 6.150118e+003
1.426643e+002, 6.118754e+003
1.431464e+002, 6.079760e+003
1.436285e+002, 6.034132e+003
1.441106e+002, 5.985620e+003
1.445927e+002, 5.936898e+003
1.450748e+002, 5.882486e+003
1.455570e+002, 5.818488e+003
1.460391e+002, 5.744991e+003
1.465212e+002, 5.665715e+003
1.470033e+002, 5.583032e+003
1.474854e+002, 5.496629e+003
1.479675e+002, 5.408553e+003
1.484497e+002, 5.315897e+003
1.489318e+002, 5.222792e+003
1.494139e+002, 5.131781e+003
1.498960e+002, 5.043646e+003
1.503781e+002, 4.955549e+003
1.508602e+002, 4.863269e+003
1.513424e+002, 4.760911e+003
1.518245e+002, 4.665962e+003
1.523066e+002, 4.580388e+003
1.527887e+002, 4.500665e+003
1.532708e+002, 4.423726e+003
1.537529e+002, 4.348804e+003
1.542351e+002, 4.276121e+003
1.547172e+002, 4.206457e+003
1.551993e+002, 4.139731e+003
1.556814e+002, 4.077267e+003
1.561635e+002, 4.020829e+003
1.566456e+002, 3.968022e+003
1.571278e+002, 3.916152e+003
1.576099e+002, 3.863720e+003
1.580920e+002, 3.811684e+003
1.585741e+002, 3.764554e+003
1.590562e+002, 3.724664e+003
1.595383e+002, 3.686115e+003
1.600205e+002, 3.648074e+003
1.605026e+002, 3.610484e+003
1.609847e+002, 3.573094e+003
1.614668e+002, 3.535802e+003
1.619489e+002, 3.498868e+003
1.624310e+002, 3.463852e+003
1.629131e+002, 3.430759e+003
1.633953e+002, 3.399448e+003
1.638774e+002, 3.370348e+003
1.643595e+002, 3.343305e+003
1.648416e+002, 3.317524e+003
1.653237e+002, 3.293339e+003
1.658058e+002, 3.269911e+003
1.662880e+002, 3.245315e+003
1.667701e+002, 3.218991e+003
1.672522e+002, 3.191562e+003
1.677343e+002, 3.163057e+003
1.682164e+002, 3.132922e+003
1.686985e+002, 3.104595e+003
1.691807e+002, 3.080920e+003
1.696628e+002, 3.060179e+003
1.701449e+002, 3.040630e+003
1.706270e+002, 3.022156e+003
1.711091e+002, 3.004275e+003
1.715912e+002, 2.985569e+003
1.720734e+002, 2.964665e+003
1.725555e+002, 2.945644e+003
1.730376e+002, 2.930691e+003
1.735197e+002, 2.918033e+003
1.740018e+002, 2.905005e+003
1.744839e+002, 2.889862e+003
1.749661e+002, 2.873153e+003
1.754482e+002, 2.858389e+003
1.759303e+002, 2.846696e+003
1.764124e+002, 2.835966e+003
1.768945e+002, 2.825759e+003
1.773766e+002, 2.816079e+003
1.778588e+002, 2.807247e+003
1.783409e+002, 2.799609e+003
1.788230e+002, 2.793168e+003
1.793051e+002, 2.785619e+003
1.797872e+002, 2.773360e+003
1.802693e+002, 2.763478e+003
1.807515e+002, 2.758855e+003
1.812336e+002, 2.758594e+003
1.817157e+002, 2.760223e+003
1.821978e+002, 2.761811e+003
1.826799e+002, 2.763416e+003
1.831620e+002, 2.764144e+003
1.836441e+002, 2.764220e+003
1.841263e+002, 2.763444e+003
1.846084e+002, 2.761137e+003
1.850905e+002, 2.757608e+003
1.855726e+002, 2.754191e+003
1.860547e+002, 2.752129e+003
1.865368e+002, 2.751644e+003
1.870190e+002, 2.751360e+003
1.875011e+002, 2.752520e+003
1.879832e+002, 2.753040e+003
1.884653e+002, 2.751934e+003
1.889474e+002, 2.749020e+003
1.894296e+002, 2.743500e+003
1.899117e+002, 2.734258e+003
1.903938e+002, 2.721239e+003
1.908759e+002, 2.706091e+003
1.913580e+002, 2.688252e+003
1.918401e+002, 2.668760e+003
1.923223e+002, 2.648836e+003
1.928044e+002, 2.628708e+003
1.932865e+002, 2.607445e+003
1.937686e+002, 2.583722e+003
1.942507e+002, 2.558032e+003
1.947328e+002, 2.531305e+003
1.952150e+002, 2.503794e+003
1.956971e+002, 2.475340e+003
1.961792e+002, 2.445382e+003
1.966613e+002, 2.413520e+003
1.971434e+002, 2.380843e+003
1.976255e+002, 2.347604e+003
1.981077e+002, 2.313991e+003
1.985898e+002, 2.281269e+003
1.990719e+002, 2.250393e+003
1.995540e+002, 2.220854e+003
2.000361e+002, 2.190956e+003
2.005182e+002, 2.161087e+003
2.010004e+002, 2.129933e+003
2.014825e+002, 2.096425e+003
2.019646e+002, 2.061319e+003
2.024467e+002, 2.026814e+003
2.029288e+002, 1.994240e+003
2.034109e+002, 1.963512e+003
2.038930e+002, 1.934301e+003
2.043752e+002, 1.907481e+003
2.048573e+002, 1.881635e+003
2.053394e+002, 1.856673e+003
2.058215e+002, 1.832407e+003
2.063036e+002, 1.808309e+003
2.067857e+002, 1.784085e+003
2.072679e+002, 1.759722e+003
2.077500e+002, 1.735517e+003
2.082321e+002, 1.709812e+003
2.087142e+002, 1.685803e+003
2.091963e+002, 1.665307e+003
2.096784e+002, 1.647642e+003
2.101606e+002, 1.630893e+003
2.106427e+002, 1.613377e+003
2.111248e+002, 1.595090e+003
2.116069e+002, 1.576932e+003
2.120890e+002, 1.558033e+003
2.125711e+002, 1.540066e+003
2.130533e+002, 1.523560e+003
2.135354e+002, 1.508572e+003
2.140175e+002, 1.494865e+003
2.144996e+002, 1.482396e+003
2.149817e+002, 1.471412e+003
2.154638e+002, 1.459836e+003
2.159460e+002, 1.447248e+003
2.164281e+002, 1.434561e+003
2.169102e+002, 1.421785e+003
2.173923e+002, 1.409185e+003
2.178744e+002, 1.397329e+003
2.183565e+002, 1.386928e+003
2.188387e+002, 1.378224e+003
2.193208e+002, 1.368987e+003
2.198029e+002, 1.358368e+003
2.202850e+002, 1.347921e+003
2.207671e+002, 1.338687e+003
2.212492e+002, 1.330635e+003
2.217314e+002, 1.322885e+003
2.222135e+002, 1.314467e+003
2.226956e+002, 1.305402e+003
2.231777e+002, 1.298129e+003
2.236598e+002, 1.294740e+003
2.241419e+002, 1.291584e+003
2.246240e+002, 1.285666e+003
2.251062e+002, 1.276908e+003
2.255883e+002, 1.267628e+003
2.260704e+002, 1.259264e+003
2.265525e+002, 1.252018e+003
2.270346e+002, 1.246185e+003
2.275167e+002, 1.243580e+003
2.279989e+002, 1.241299e+003
2.284810e+002, 1.236062e+003
2.289631e+002, 1.227627e+003
2.294452e+002, 1.219715e+003
2.299273e+002, 1.215907e+003
2.304094e+002, 1.214775e+003
2.308916e+002, 1.212278e+003
2.313737e+002, 1.206778e+003
2.318558e+002, 1.200179e+003
2.323379e+002, 1.194414e+003
2.328200e+002, 1.189489e+003
2.333021e+002, 1.185370e+003
2.337843e+002, 1.183290e+003
2.342664e+002, 1.181768e+003
2.347485e+002, 1.178368e+003
2.352306e+002, 1.171778e+003
2.357127e+002, 1.163636e+003
2.361948e+002, 1.155887e+003
2.366770e+002, 1.148422e+003
2.371591e+002, 1.141643e+003
2.376412e+002, 1.135911e+003
2.381233e+002, 1.130909e+003
2.386054e+002, 1.126519e+003
2.390875e+002, 1.123114e+003
2.395697e+002, 1.119711e+003
2.400518e+002, 1.114565e+003
2.405339e+002, 1.107103e+003
2.410160e+002, 1.099643e+003
2.414981e+002, 1.093043e+003
2.419802e+002, 1.086894e+003
2.424624e+002, 1.080980e+003
2.429445e+002, 1.075358e+003
2.434266e+002, 1.069587e+003
2.439087e+002, 1.062517e+003
2.443908e+002, 1.053137e+003
2.448729e+002, 1.045304e+003
2.453550e+002, 1.042178e+003
2.458372e+002, 1.039877e+003
2.463193e+002, 1.034720e+003
2.468014e+002, 1.025338e+003
2.472835e+002, 1.014133e+003
2.477656e+002, 1.005151e+003
2.482477e+002, 9.992955e+002
2.487299e+002, 9.936417e+002
2.492120e+002, 9.867394e+002
2.496941e+002, 9.803408e+002
2.501762e+002, 9.761847e+002
2.506583e+002, 9.747354e+002
2.511404e+002, 9.745161e+002
2.516226e+002, 9.731123e+002
2.521047e+002, 9.702780e+002
2.525868e+002, 9.667349e+002
2.530689e+002, 9.614349e+002
2.535510e+002, 9.562960e+002
2.540331e+002, 9.529481e+002
2.545153e+002, 9.516981e+002
2.549974e+002, 9.512648e+002
2.554795e+002, 9.495334e+002
2.559616e+002, 9.453052e+002
2.564437e+002, 9.424392e+002
2.569258e+002, 9.402507e+002
2.574080e+002, 9.396567e+002
2.578901e+002, 9.421539e+002
2.583722e+002, 9.475655e+002
2.588543e+002, 9.535546e+002
2.593364e+002, 9.567178e+002
2.598185e+002, 9.550414e+002
2.603007e+002, 9.556765e+002
2.607828e+002, 9.593324e+002
2.612649e+002, 9.642172e+002
2.617470e+002, 9.695782e+002
2.622291e+002, 9.751569e+002
2.627112e+002, 9.807165e+002
2.631934e+002, 9.860274e+002
2.636755e+002, 9.910621e+002
2.641576e+002, 9.959026e+002
2.646397e+002, 9.999639e+002
2.651218e+002, 1.004325e+003
2.656039e+002, 1.009231e+003
2.660861e+002, 1.014876e+003
2.665682e+002, 1.021779e+003
2.670503e+002, 1.030698e+003
2.675324e+002, 1.042172e+003
2.680145e+002, 1.051963e+003
2.684966e+002, 1.059187e+003
2.689788e+002, 1.065910e+003
2.694609e+002, 1.072924e+003
2.699430e+002, 1.080297e+003
2.704251e+002, 1.087824e+003
2.709072e+002, 1.095349e+003
2.713893e+002, 1.102818e+003
2.718715e+002, 1.110527e+003
2.723536e+002, 1.119238e+003
2.728357e+002, 1.127384e+003
2.733178e+002, 1.133578e+003
2.737999e+002, 1.138528e+003
2.742820e+002, 1.144194e+003
2.747642e+002, 1.152010e+003
2.752463e+002, 1.161766e+003
2.757284e+002, 1.170721e+003
2.762105e+002, 1.178645e+003
2.766926e+002, 1.186258e+003
2.771747e+002, 1.193581e+003
2.776568e+002, 1.200806e+003
2.781389e+002, 1.208237e+003
2.786211e+002, 1.216019e+003
2.791032e+002, 1.224157e+003
2.795853e+002, 1.232813e+003
2.800674e+002, 1.241686e+003
2.805495e+002, 1.251317e+003
2.810316e+002, 1.262344e+003
2.815138e+002, 1.274171e+003
2.819959e+002, 1.285607e+003
2.824780e+002, 1.296024e+003
2.829601e+002, 1.306129e+003
2.834422e+002, 1.317605e+003
2.839243e+002, 1.330916e+003
2.844065e+002, 1.344532e+003
2.848886e+002, 1.358749e+003
2.853707e+002, 1.372940e+003
2.858528e+002, 1.385625e+003
2.863349e+002, 1.396097e+003
2.868170e+002, 1.406446e+003
2.872992e+002, 1.420753e+003
2.877813e+002, 1.440109e+003
2.882634e+002, 1.459058e+003
2.887455e+002, 1.476040e+003
2.892276e+002, 1.492378e+003
2.897097e+002, 1.510021e+003
2.901919e+002, 1.529494e+003
2.906740e+002, 1.548596e+003
2.911561e+002, 1.564510e+003
2.916382e+002, 1.576701e+003
2.921203e+002, 1.589307e+003
2.926024e+002, 1.604541e+003
2.930846e+002, 1.619340e+003
2.935667e+002, 1.630496e+003
2.940488e+002, 1.637666e+003
2.945309e+002, 1.642848e+003
2.950130e+002, 1.647733e+003
2.954951e+002, 1.652237e+003
2.959773e+002, 1.655646e+003
2.964594e+002, 1.657265e+003
2.969415e+002, 1.658251e+003
2.974236e+002, 1.660278e+003
2.979057e+002, 1.663102e+003
2.983878e+002, 1.664022e+003
2.988700e+002, 1.661481e+003
2.993521e+002, 1.655016e+003
2.998342e+002, 1.645061e+003
3.003163e+002, 1.627984e+003
3.007984e+002, 1.610872e+003
3.012805e+002, 1.598727e+003
3.017627e+002, 1.590472e+003
3.022448e+002, 1.580785e+003
3.027269e+002, 1.566583e+003
3.032090e+002, 1.549130e+003
3.036911e+002, 1.532537e+003
3.041732e+002, 1.517758e+003
3.046554e+002, 1.502152e+003
3.051375e+002, 1.484089e+003
3.056196e+002, 1.464271e+003
3.061017e+002, 1.444444e+003
3.065838e+002, 1.425234e+003
3.070659e+002, 1.406419e+003
3.075481e+002, 1.388164e+003
3.080302e+002, 1.371235e+003
3.085123e+002, 1.352247e+003
3.089944e+002, 1.328660e+003
3.094765e+002, 1.302634e+003
3.099586e+002, 1.278355e+003
3.104408e+002, 1.257235e+003
3.109229e+002, 1.236871e+003
3.114050e+002, 1.214106e+003
3.118871e+002, 1.188842e+003
3.123692e+002, 1.163745e+003
3.128513e+002, 1.139262e+003
3.133335e+002, 1.115263e+003
3.138156e+002, 1.091210e+003
3.142977e+002, 1.067060e+003
3.147798e+002, 1.043604e+003
3.152619e+002, 1.021657e+003
3.157440e+002, 1.001120e+003
3.162262e+002, 9.807741e+002
3.167083e+002, 9.602443e+002
3.171904e+002, 9.400652e+002
3.176725e+002, 9.204193e+002
3.181546e+002, 9.013152e+002
3.186367e+002, 8.835346e+002
3.191188e+002, 8.677493e+002
3.196010e+002, 8.538430e+002
3.200831e+002, 8.401879e+002
3.205652e+002, 8.255168e+002
3.210473e+002, 8.122536e+002
3.215294e+002, 8.025648e+002
3.220115e+002, 7.956262e+002
3.224937e+002, 7.884223e+002
3.229758e+002, 7.797216e+002
3.234579e+002, 7.697640e+002
3.239400e+002, 7.590865e+002
3.244221e+002, 7.463958e+002
3.249042e+002, 7.356741e+002
3.253864e+002, 7.293919e+002
3.258685e+002, 7.258659e+002
3.263506e+002, 7.218576e+002
3.268327e+002, 7.163047e+002
3.273148e+002, 7.101818e+002
3.277969e+002, 7.051441e+002
3.282791e+002, 7.014682e+002
3.287612e+002, 6.971234e+002
3.292433e+002, 6.910085e+002
3.297254e+002, 6.843856e+002
3.302075e+002, 6.787355e+002
3.306896e+002, 6.743131e+002
3.311718e+002, 6.704752e+002
3.316539e+002, 6.666472e+002
3.321360e+002, 6.628355e+002
3.326181e+002, 6.590168e+002
3.331002e+002, 6.554119e+002
3.335823e+002, 6.516572e+002
3.340645e+002, 6.473977e+002
3.345466e+002, 6.426888e+002
3.350287e+002, 6.377886e+002
3.355108e+002, 6.327831e+002
3.359929e+002, 6.277614e+002
3.364750e+002, 6.233962e+002
3.369572e+002, 6.198059e+002
3.374393e+002, 6.166013e+002
3.379214e+002, 6.141715e+002
3.384035e+002, 6.120107e+002
3.388856e+002, 6.088804e+002
3.393677e+002, 6.041195e+002
3.398499e+002, 5.982576e+002
3.403320e+002, 5.926824e+002
3.408141e+002, 5.874259e+002
3.412962e+002, 5.823513e+002
3.417783e+002, 5.777040e+002
3.422604e+002, 5.731222e+002
3.427426e+002, 5.681747e+002
3.432247e+002, 5.627591e+002
3.437068e+002, 5.569533e+002
3.441889e+002, 5.507267e+002
3.446710e+002, 5.435488e+002
3.451531e+002, 5.377629e+002
3.456353e+002, 5.349849e+002
3.461174e+002, 5.325428e+002
3.465995e+002, 5.277865e+002
3.470816e+002, 5.208758e+002
3.475637e+002, 5.145244e+002
3.480458e+002, 5.115034e+002
3.485280e+002, 5.120515e+002
3.490101e+002, 5.103766e+002
3.494922e+002, 5.053501e+002
3.499743e+002, 4.996649e+002
3.504564e+002, 4.936147e+002
3.509385e+002, 4.878241e+002
3.514207e+002, 4.836550e+002
3.519028e+002, 4.821040e+002
3.523849e+002, 4.823970e+002
3.528670e+002, 4.811696e+002
3.533491e+002, 4.770578e+002
3.538312e+002, 4.731356e+002
3.543134e+002, 4.692508e+002
3.547955e+002, 4.659537e+002
3.552776e+002, 4.641617e+002
3.557597e+002, 4.641510e+002
3.562418e+002, 4.648679e+002
3.567239e+002, 4.645047e+002
3.572061e+002, 4.623568e+002
3.576882e+002, 4.604952e+002
3.581703e+002, 4.589723e+002
3.586524e+002, 4.576591e+002
3.591345e+002, 4.564726e+002
3.596166e+002, 4.554020e+002
3.600987e+002, 4.544821e+002
3.605808e+002, 4.537057e+002
3.610630e+002, 4.530285e+002
3.615451e+002, 4.529424e+002
3.620272e+002, 4.540990e+002
3.625093e+002, 4.551275e+002
3.629914e+002, 4.555219e+002
3.634735e+002, 4.554559e+002
3.639557e+002, 4.552680e+002
3.644378e+002, 4.551424e+002
3.649199e+002, 4.551208e+002
3.654020e+002, 4.553900e+002
3.658841e+002, 4.561715e+002
3.663662e+002, 4.569650e+002
3.668484e+002, 4.576229e+002
3.673305e+002, 4.583067e+002
3.678126e+002, 4.591319e+002
3.682947e+002, 4.601441e+002
3.687768e+002, 4.614023e+002
3.692589e+002, 4.630883e+002
3.697411e+002, 4.654770e+002
3.702232e+002, 4.675316e+002
3.707053e+002, 4.693407e+002
3.711874e+002, 4.707378e+002
3.716695e+002, 4.708645e+002
3.721516e+002, 4.702420e+002
3.726338e+002, 4.707971e+002
3.731159e+002, 4.747924e+002
3.735980e+002, 4.820613e+002
3.740801e+002, 4.871346e+002
3.745622e+002, 4.877820e+002
3.750443e+002, 4.889064e+002
3.755265e+002, 4.922245e+002
3.760086e+002, 4.970231e+002
3.764907e+002, 5.021558e+002
3.769728e+002, 5.071317e+002
3.774549e+002, 5.120480e+002
3.779370e+002, 5.171762e+002
3.784192e+002, 5.226243e+002
3.789013e+002, 5.279749e+002
3.793834e+002, 5.324111e+002
3.798655e+002, 5.371334e+002
3.803476e+002, 5.434156e+002
3.808297e+002, 5.514861e+002
3.813119e+002, 5.598157e+002
3.817940e+002, 5.665150e+002
3.822761e+002, 5.716476e+002
3.827582e+002, 5.777319e+002
3.832403e+002, 5.852452e+002
3.837224e+002, 5.937036e+002
3.842046e+002, 6.030245e+002
3.846867e+002, 6.129503e+002
3.851688e+002, 6.228359e+002
3.856509e+002, 6.318957e+002
3.861330e+002, 6.406561e+002
3.866151e+002, 6.505466e+002
3.870973e+002, 6.618318e+002
3.875794e+002, 6.731756e+002
3.880615e+002, 6.834573e+002
3.885436e+002, 6.934675e+002
3.890257e+002, 7.043983e+002
3.895078e+002, 7.166400e+002
3.899900e+002, 7.295319e+002
3.904721e+002, 7.426695e+002
3.909542e+002, 7.560553e+002
3.914363e+002, 7.693317e+002
3.919184e+002, 7.824372e+002
3.924005e+002, 7.953050e+002
3.928827e+002, 8.077721e+002
3.933648e+002, 8.197911e+002
3.938469e+002, 8.320280e+002
3.943290e+002, 8.450677e+002
3.948111e+002, 8.583646e+002
3.952932e+002, 8.710035e+002
3.957754e+002, 8.829801e+002
3.962575e+002, 8.941586e+002
3.967396e+002, 9.043972e+002
3.972217e+002, 9.136910e+002
3.977038e+002, 9.226386e+002
3.981859e+002, 9.310847e+002
3.986681e+002, 9.394517e+002
3.991501e+002, 9.485018e+002
3.996323e+002, 9.578397e+002
4.001144e+002, 9.659830e+002
4.005965e+002, 9.720559e+002
4.010786e+002, 9.766677e+002
4.015607e+002, 9.815956e+002
4.020428e+002, 9.886702e+002
4.025250e+002, 9.929005e+002
4.030071e+002, 9.915570e+002
4.034892e+002, 9.877654e+002
4.039713e+002, 9.849606e+002
4.044534e+002, 9.839601e+002
4.049355e+002, 9.837705e+002
4.054177e+002, 9.834305e+002
4.058998e+002, 9.832055e+002
4.063819e+002, 9.812145e+002
4.068640e+002, 9.769602e+002
4.073461e+002, 9.716888e+002
4.078282e+002, 9.653443e+002
4.083104e+002, 9.584555e+002
4.087925e+002, 9.521569e+002
4.092746e+002, 9.471738e+002
4.097567e+002, 9.431173e+002
4.102388e+002, 9.381002e+002
4.107209e+002, 9.316428e+002
4.112031e+002, 9.247573e+002
4.116852e+002, 9.163948e+002
4.121673e+002, 9.082606e+002
4.126494e+002, 9.022898e+002
4.131315e+002, 8.988310e+002
4.136136e+002, 8.962712e+002
4.140958e+002, 8.924258e+002
4.145779e+002, 8.868566e+002
4.150600e+002, 8.816897e+002
4.155421e+002, 8.775527e+002
4.160242e+002, 8.732665e+002
4.165063e+002, 8.680776e+002
4.169885e+002, 8.623388e+002
4.174706e+002, 8.570475e+002
4.179527e+002, 8.528844e+002
4.184348e+002, 8.495455e+002
4.189169e+002, 8.458846e+002
4.193990e+002, 8.416984e+002
4.198812e+002, 8.376902e+002
4.203633e+002, 8.343811e+002
4.208454e+002, 8.311964e+002
4.213275e+002, 8.276383e+002
4.218096e+002, 8.235912e+002
4.222917e+002, 8.192274e+002
4.227739e+002, 8.150380e+002
4.232560e+002, 8.109534e+002
4.237381e+002, 8.051009e+002
4.242202e+002, 7.953011e+002
4.247023e+002, 7.863636e+002
4.251844e+002, 7.829844e+002
4.256666e+002, 7.836717e+002
4.261487e+002, 7.829633e+002
4.266308e+002, 7.782297e+002
4.271129e+002, 7.709340e+002
4.275950e+002, 7.625999e+002
4.280771e+002, 7.530735e+002
4.285593e+002, 7.446215e+002
4.290414e+002, 7.388359e+002
4.295235e+002, 7.348194e+002
4.300056e+002, 7.305255e+002
4.304877e+002, 7.263102e+002
4.309698e+002, 7.209975e+002
4.314520e+002, 7.130375e+002
4.319341e+002, 7.037475e+002
4.324162e+002, 6.956213e+002
4.328983e+002, 6.893053e+002
4.333804e+002, 6.843447e+002
4.338625e+002, 6.807563e+002
4.343447e+002, 6.788892e+002
4.348268e+002, 6.750120e+002
4.353089e+002, 6.676179e+002
4.357910e+002, 6.593533e+002
4.362731e+002, 6.513431e+002
4.367552e+002, 6.439089e+002
4.372374e+002, 6.377640e+002
4.377195e+002, 6.334914e+002
4.382016e+002, 6.304865e+002
4.386837e+002, 6.265182e+002
4.391658e+002, 6.200238e+002
4.396479e+002, 6.145556e+002
4.401301e+002, 6.110755e+002
4.406122e+002, 6.083304e+002
4.410943e+002, 6.049811e+002
4.415764e+002, 6.008752e+002
4.420585e+002, 5.970135e+002
4.425406e+002, 5.945710e+002
4.430227e+002, 5.936647e+002
4.435049e+002, 5.933009e+002
4.439870e+002, 5.946431e+002
4.444691e+002, 5.953248e+002
4.449512e+002, 5.942170e+002
4.454333e+002, 5.920302e+002
4.459154e+002, 5.898356e+002
4.463976e+002, 5.881400e+002
4.468797e+002, 5.870138e+002
4.473618e+002, 5.866155e+002
4.478439e+002, 5.869694e+002
4.483260e+002, 5.879879e+002
4.488081e+002, 5.894561e+002
4.492903e+002, 5.917542e+002
4.497724e+002, 5.955493e+002
4.502545e+002, 6.006890e+002
4.507366e+002, 6.059173e+002
4.512187e+002, 6.097086e+002
4.517008e+002, 6.126790e+002
4.521830e+002, 6.174481e+002
4.526651e+002, 6.243395e+002
4.531472e+002, 6.322771e+002
4.536293e+002, 6.403757e+002
4.541114e+002, 6.491931e+002
4.545935e+002, 6.599844e+002
4.550757e+002, 6.738560e+002
4.555578e+002, 6.880135e+002
4.560399e+002, 6.994719e+002
4.565220e+002, 7.090315e+002
4.570041e+002, 7.205241e+002
4.574862e+002, 7.353174e+002
4.579684e+002, 7.518528e+002
4.584505e+002, 7.689728e+002
4.589326e+002, 7.867701e+002
4.594147e+002, 8.024008e+002
4.598968e+002, 8.145333e+002
4.603789e+002, 8.248243e+002
4.608611e+002, 8.345585e+002
4.613432e+002, 8.437927e+002
4.618253e+002, 8.524441e+002
4.623074e+002, 8.608708e+002
4.627895e+002, 8.683267e+002
4.632716e+002, 8.717241e+002
4.637538e+002, 8.688475e+002
4.642359e+002, 8.651436e+002
4.647180e+002, 8.622844e+002
4.652001e+002, 8.582758e+002
4.656822e+002, 8.510910e+002
4.661643e+002, 8.403250e+002
4.666465e+002, 8.268220e+002
4.671286e+002, 8.111799e+002
4.676107e+002, 7.929004e+002
4.680928e+002, 7.760710e+002
4.685749e+002, 7.628918e+002
4.690570e+002, 7.487907e+002
4.695392e+002, 7.323224e+002
4.700213e+002, 7.142326e+002
4.705034e+002, 6.956260e+002
4.709855e+002, 6.769371e+002
4.714676e+002, 6.584799e+002
4.719497e+002, 6.407120e+002
4.724319e+002, 6.235867e+002
4.729140e+002, 6.074742e+002
4.733961e+002, 5.927917e+002
4.738782e+002, 5.789928e+002
4.743603e+002, 5.659652e+002
4.748424e+002, 5.536666e+002
4.753246e+002, 5.416650e+002
4.758067e+002, 5.296758e+002
4.762888e+002, 5.179164e+002
4.767709e+002, 5.064680e+002
4.772530e+002, 4.952022e+002
4.777351e+002, 4.853844e+002
4.782173e+002, 4.781335e+002
4.786994e+002, 4.724940e+002
4.791815e+002, 4.668345e+002
4.796636e+002, 4.609317e+002
4.801457e+002, 4.556325e+002
4.806278e+002, 4.520180e+002
4.811100e+002, 4.491304e+002
4.815920e+002, 4.451040e+002
4.820742e+002, 4.395806e+002
4.825563e+002, 4.336097e+002
4.830384e+002, 4.279299e+002
4.835205e+002, 4.225954e+002
4.840026e+002, 4.178882e+002
4.844847e+002, 4.135963e+002
4.849669e+002, 4.101163e+002
4.854490e+002, 4.084338e+002
4.859311e+002, 4.074823e+002
4.864132e+002, 4.051435e+002
4.868953e+002, 4.006373e+002
4.873774e+002, 3.955199e+002
4.878596e+002, 3.925202e+002
4.883417e+002, 3.929244e+002
4.888238e+002, 3.918560e+002
4.893059e+002, 3.882389e+002
4.897880e+002, 3.844424e+002
4.902701e+002, 3.817402e+002
4.907523e+002, 3.798001e+002
4.912344e+002, 3.776156e+002
4.917165e+002, 3.745433e+002
4.921986e+002, 3.709679e+002
4.926807e+002, 3.681031e+002
4.931628e+002, 3.665269e+002
4.936450e+002, 3.640843e+002
4.941271e+002, 3.588635e+002
4.946092e+002, 3.537047e+002
4.950913e+002, 3.507477e+002
4.955734e+002, 3.499730e+002
4.960555e+002, 3.495207e+002
4.965377e+002, 3.488040e+002
4.970198e+002, 3.473930e+002
4.975019e+002, 3.436495e+002
4.979840e+002, 3.370159e+002
4.984661e+002, 3.305104e+002
4.989482e+002, 3.257045e+002
4.994304e+002, 3.220912e+002
4.999125e+002, 3.186405e+002
5.003946e+002, 3.152418e+002
5.008767e+002, 3.121219e+002
5.013588e+002, 3.097036e+002
5.018409e+002, 3.075390e+002
5.023231e+002, 3.045921e+002
5.028052e+002, 3.006471e+002
5.032873e+002, 2.967891e+002
5.037694e+002, 2.941333e+002
5.042515e+002, 2.927166e+002
5.047336e+002, 2.909013e+002
5.052158e+002, 2.879996e+002
5.056979e+002, 2.855121e+002
5.061800e+002, 2.844059e+002
5.066621e+002, 2.839243e+002
5.071442e+002, 2.829231e+002
5.076263e+002, 2.809920e+002
5.081085e+002, 2.785267e+002
5.085906e+002, 2.760506e+002
5.090727e+002, 2.733726e+002
5.095548e+002, 2.713672e+002
5.100369e+002, 2.703585e+002
5.105190e+002, 2.697060e+002
5.110012e+002, 2.693897e+002
5.114833e+002, 2.692219e+002
5.119654e+002, 2.689498e+002
5.124475e+002, 2.684804e+002
5.129296e+002, 2.677327e+002
5.134117e+002, 2.664183e+002
5.138939e+002, 2.644204e+002
5.143760e+002, 2.627243e+002
5.148581e+002, 2.616160e+002
5.153402e+002, 2.608155e+002
5.158223e+002, 2.601580e+002
5.163044e+002, 2.596125e+002
5.167866e+002, 2.590031e+002
5.172687e+002, 2.583979e+002
5.177508e+002, 2.576052e+002
5.182329e+002, 2.561890e+002
5.187150e+002, 2.542087e+002
5.191971e+002, 2.524522e+002
5.196793e+002, 2.512546e+002
5.201614e+002, 2.505431e+002
5.206435e+002, 2.502945e+002
5.211256e+002, 2.507329e+002
5.216077e+002, 2.508787e+002
5.220898e+002, 2.504789e+002
5.225720e+002, 2.497837e+002
5.230541e+002, 2.489112e+002
5.235362e+002, 2.479342e+002
5.240183e+002, 2.470196e+002
5.245004e+002, 2.463137e+002
5.249825e+002, 2.457471e+002
5.254647e+002, 2.449050e+002
5.259468e+002, 2.430280e+002
5.264289e+002, 2.420171e+002
5.269110e+002, 2.424451e+002
5.273931e+002, 2.434620e+002
5.278752e+002, 2.448519e+002
5.283574e+002, 2.462953e+002
5.288395e+002, 2.468228e+002
5.293216e+002, 2.451617e+002
5.298037e+002, 2.417785e+002
5.302858e+002, 2.395931e+002
5.307679e+002, 2.390791e+002
5.312501e+002, 2.386825e+002
5.317322e+002, 2.373345e+002
5.322143e+002, 2.359625e+002
5.326964e+002, 2.358481e+002
5.331785e+002, 2.374287e+002
5.336606e+002, 2.385113e+002
5.341428e+002, 2.368578e+002
5.346249e+002, 2.338398e+002
5.351070e+002, 2.327564e+002
5.355891e+002, 2.341765e+002
5.360712e+002, 2.354750e+002
5.365533e+002, 2.345449e+002
5.370355e+002, 2.317644e+002
5.375176e+002, 2.297114e+002
5.379997e+002, 2.284163e+002
5.384818e+002, 2.277252e+002
5.389639e+002, 2.280175e+002
5.394460e+002, 2.286923e+002
5.399282e+002, 2.291297e+002
5.404103e+002, 2.291477e+002
5.408924e+002, 2.286714e+002
5.413745e+002, 2.275534e+002
5.418566e+002, 2.257691e+002
5.423387e+002, 2.241801e+002
5.428209e+002, 2.223882e+002
5.433029e+002, 2.213301e+002
5.437850e+002, 2.219605e+002
5.442672e+002, 2.230518e+002
5.447493e+002, 2.232097e+002
5.452314e+002, 2.220760e+002
5.457135e+002, 2.203638e+002
5.461956e+002, 2.186391e+002
5.466777e+002, 2.169343e+002
5.471599e+002, 2.157771e+002
5.476420e+002, 2.154104e+002
5.481241e+002, 2.151372e+002
5.486062e+002, 2.144659e+002
5.490883e+002, 2.136161e+002
5.495704e+002, 2.129425e+002
5.500526e+002, 2.125632e+002
5.505347e+002, 2.122446e+002
5.510168e+002, 2.117633e+002
5.514989e+002, 2.112495e+002
5.519810e+002, 2.110981e+002
5.524631e+002, 2.114046e+002
5.529453e+002, 2.115373e+002
5.534274e+002, 2.107650e+002
5.539095e+002, 2.090805e+002
5.543916e+002, 2.083142e+002
5.548737e+002, 2.096621e+002
5.553558e+002, 2.103559e+002
5.558380e+002, 2.090196e+002
5.563201e+002, 2.068884e+002
5.568022e+002, 2.056781e+002
5.572843e+002, 2.057380e+002
5.577664e+002, 2.058777e+002
5.582485e+002, 2.045505e+002
5.587307e+002, 2.016817e+002
5.592128e+002, 1.996587e+002
5.596949e+002, 1.986019e+002
5.601770e+002, 1.983203e+002
5.606591e+002, 1.992013e+002
5.611412e+002, 2.005106e+002
5.616234e+002, 2.014292e+002
5.621055e+002, 2.017567e+002
5.625876e+002, 2.016054e+002
5.630697e+002, 2.008189e+002
5.635518e+002, 1.996164e+002
5.640339e+002, 1.988239e+002
5.645161e+002, 1.986322e+002
5.649982e+002, 1.983182e+002
5.654803e+002, 1.971718e+002
5.659624e+002, 1.954791e+002
5.664445e+002, 1.945211e+002
5.669266e+002, 1.951380e+002
5.674088e+002, 1.952917e+002
5.678909e+002, 1.934421e+002
5.683730e+002, 1.911472e+002
5.688551e+002, 1.906451e+002
5.693372e+002, 1.921618e+002
5.698193e+002, 1.940166e+002
5.703015e+002, 1.946856e+002
5.707836e+002, 1.942079e+002
5.712657e+002, 1.932792e+002
5.717478e+002, 1.911456e+002
5.722299e+002, 1.895804e+002
5.727120e+002, 1.890403e+002
5.731942e+002, 1.890398e+002
5.736763e+002, 1.893093e+002
5.741584e+002, 1.897161e+002
5.746405e+002, 1.899143e+002
5.751226e+002, 1.894640e+002
5.756047e+002, 1.885370e+002
5.760869e+002, 1.879191e+002
5.765690e+002, 1.877318e+002
5.770511e+002, 1.873284e+002
5.775332e+002, 1.862035e+002
5.780153e+002, 1.848009e+002
5.784974e+002, 1.838239e+002
5.789796e+002, 1.833284e+002
5.794617e+002, 1.830597e+002
5.799438e+002, 1.829976e+002
5.804259e+002, 1.830687e+002
5.809080e+002, 1.833072e+002
5.813901e+002, 1.836462e+002
5.818723e+002, 1.837298e+002
5.823544e+002, 1.832917e+002
5.828365e+002, 1.825123e+002
5.833186e+002, 1.820070e+002
5.838007e+002, 1.820577e+002
5.842828e+002, 1.819588e+002
5.847650e+002, 1.818579e+002
5.852471e+002, 1.814823e+002
5.857292e+002, 1.803838e+002
5.862113e+002, 1.788209e+002
5.866934e+002, 1.776271e+002
5.871755e+002, 1.774642e+002
5.876577e+002, 1.777298e+002
5.881398e+002, 1.768204e+002
5.886219e+002, 1.744625e+002
5.891040e+002, 1.728227e+002
5.895861e+002, 1.727128e+002
5.900682e+002, 1.731836e+002
5.905504e+002, 1.734092e+002
5.910325e+002, 1.734166e+002
5.915146e+002, 1.733700e+002
5.919967e+002, 1.733132e+002
5.924788e+002, 1.732263e+002
5.929609e+002, 1.731028e+002
5.934431e+002, 1.729367e+002
5.939252e+002, 1.726675e+002
5.944073e+002, 1.722609e+002
5.948894e+002, 1.719103e+002
5.953715e+002, 1.720005e+002
5.958536e+002, 1.728836e+002
5.963358e+002, 1.725523e+002
5.968179e+002, 1.693340e+002
5.973000e+002, 1.669386e+002
5.977821e+002, 1.673491e+002
5.982642e+002, 1.691490e+002
5.987463e+002, 1.702398e+002
5.992285e+002, 1.699136e+002
5.997106e+002, 1.690771e+002
6.001927e+002, 1.688806e+002
6.006748e+002, 1.692886e+002
6.011569e+002, 1.693298e+002
6.016390e+002, 1.688838e+002
6.021212e+002, 1.682393e+002
6.026033e+002, 1.674596e+002
6.030854e+002, 1.666130e+002
6.035675e+002, 1.658389e+002
6.040496e+002, 1.652125e+002
6.045317e+002, 1.644733e+002
6.050139e+002, 1.629795e+002
6.054960e+002, 1.615116e+002
6.059781e+002, 1.616726e+002
6.064602e+002, 1.634302e+002
6.069423e+002, 1.646310e+002
6.074244e+002, 1.635253e+002
6.079066e+002, 1.608360e+002
6.083887e+002, 1.598562e+002
6.088708e+002, 1.623885e+002
6.093529e+002, 1.641076e+002
6.098350e+002, 1.645300e+002
6.103171e+002, 1.643794e+002
6.107993e+002, 1.639926e+002
6.112814e+002, 1.634919e+002
6.117635e+002, 1.629710e+002
6.122456e+002, 1.624208e+002
6.127277e+002, 1.619993e+002
6.132098e+002, 1.622316e+002
6.136920e+002, 1.632195e+002
6.141741e+002, 1.636284e+002
6.146562e+002, 1.629369e+002
6.151383e+002, 1.618161e+002
6.156204e+002, 1.607598e+002
6.161025e+002, 1.597955e+002
6.165847e+002, 1.592018e+002
6.170668e+002, 1.590931e+002
6.175489e+002, 1.593120e+002
6.180310e+002, 1.601264e+002
6.185131e+002, 1.611297e+002
6.189952e+002, 1.614356e+002
6.194774e+002, 1.607971e+002
6.199595e+002, 1.598098e+002
6.204416e+002, 1.591817e+002
6.209237e+002, 1.589473e+002
6.214058e+002, 1.585107e+002
6.218879e+002, 1.576517e+002
6.223701e+002, 1.568561e+002
6.228522e+002, 1.565038e+002
6.233343e+002, 1.561086e+002
6.238164e+002, 1.549373e+002
6.242985e+002, 1.529465e+002
6.247806e+002, 1.512169e+002
6.252628e+002, 1.508140e+002
6.257448e+002, 1.513199e+002
6.262269e+002, 1.518135e+002
6.267090e+002, 1.523273e+002
6.271912e+002, 1.520605e+002
6.276733e+002, 1.501505e+002
6.281554e+002, 1.477210e+002
6.286375e+002, 1.471730e+002
6.291196e+002, 1.489772e+002
6.296017e+002, 1.500235e+002
6.300839e+002, 1.493221e+002
6.305660e+002, 1.482003e+002
6.310481e+002, 1.474353e+002
6.315302e+002, 1.470158e+002
6.320123e+002, 1.467218e+002
6.324944e+002, 1.464542e+002
6.329766e+002, 1.462532e+002
6.334587e+002, 1.463054e+002
6.339408e+002, 1.467868e+002
6.344229e+002, 1.465651e+002
6.349050e+002, 1.449460e+002
6.353871e+002, 1.435134e+002
6.358693e+002, 1.430476e+002
6.363514e+002, 1.431586e+002
6.368335e+002, 1.434148e+002
6.373156e+002, 1.438824e+002
6.377977e+002, 1.437138e+002
6.382798e+002, 1.413436e+002
6.387620e+002, 1.382188e+002
6.392441e+002, 1.375038e+002
6.397262e+002, 1.394658e+002
6.402083e+002, 1.413160e+002
6.406904e+002, 1.412652e+002
6.411725e+002, 1.397431e+002
6.416547e+002, 1.381570e+002
6.421368e+002, 1.357419e+002
6.426189e+002, 1.344626e+002
6.431010e+002, 1.353500e+002
6.435831e+002, 1.364506e+002
6.440652e+002, 1.364899e+002
6.445474e+002, 1.356909e+002
6.450295e+002, 1.348942e+002
6.455116e+002, 1.345282e+002
6.459937e+002, 1.344331e+002
6.464758e+002, 1.344057e+002
6.469579e+002, 1.344448e+002
6.474401e+002, 1.344677e+002
6.479222e+002, 1.345755e+002
6.484043e+002, 1.344151e+002
6.488864e+002, 1.333507e+002
6.493685e+002, 1.317955e+002
6.498506e+002, 1.311097e+002
6.503328e+002, 1.320312e+002
6.508149e+002, 1.328486e+002
6.512970e+002, 1.330272e+002
6.517791e+002, 1.326674e+002
6.522612e+002, 1.314390e+002
6.527433e+002, 1.296075e+002
6.532255e+002, 1.285596e+002
6.537076e+002, 1.294627e+002
6.541897e+002, 1.316379e+002
6.546718e+002, 1.324478e+002
6.551539e+002, 1.311336e+002
6.556360e+002, 1.302872e+002
6.561182e+002, 1.307593e+002
6.566003e+002, 1.313618e+002
6.570824e+002, 1.315810e+002
6.575645e+002, 1.313957e+002
6.580466e+002, 1.308048e+002
6.585287e+002, 1.294632e+002
6.590109e+002, 1.282646e+002
6.594930e+002, 1.285886e+002
6.599751e+002, 1.297169e+002
6.604572e+002, 1.291998e+002
6.609393e+002, 1.264516e+002
6.614214e+002, 1.240525e+002
6.619036e+002, 1.244192e+002
6.623857e+002, 1.272505e+002
6.628678e+002, 1.292594e+002
6.633499e+002, 1.307832e+002
6.638320e+002, 1.309889e+002
6.643141e+002, 1.286204e+002
6.647963e+002, 1.258133e+002
6.652784e+002, 1.240506e+002
6.657605e+002, 1.234514e+002
6.662426e+002, 1.235887e+002
6.667247e+002, 1.243636e+002
6.672068e+002, 1.254467e+002
6.676890e+002, 1.262852e+002
6.681711e+002, 1.268827e+002
6.686532e+002, 1.272977e+002
6.691353e+002, 1.274392e+002
6.696174e+002, 1.276683e+002
6.700995e+002, 1.286469e+002
6.705817e+002, 1.301709e+002
6.710638e+002, 1.303891e+002
6.715459e+002, 1.273780e+002
6.720280e+002, 1.253912e+002
6.725101e+002, 1.267482e+002
6.729922e+002, 1.292381e+002
6.734744e+002, 1.305085e+002
6.739565e+002, 1.302922e+002
6.744386e+002, 1.295565e+002
6.749207e+002, 1.289035e+002
6.754028e+002, 1.285028e+002
6.758849e+002, 1.288972e+002
6.763671e+002, 1.301196e+002
6.768492e+002, 1.320129e+002
6.773313e+002, 1.348169e+002
6.778134e+002, 1.380214e+002
6.782955e+002, 1.409828e+002
6.787776e+002, 1.439359e+002
6.792598e+002, 1.477476e+002
6.797419e+002, 1.528109e+002
6.802240e+002, 1.585269e+002
6.807061e+002, 1.653316e+002
6.811882e+002, 1.722544e+002
6.816703e+002, 1.779119e+002
6.821525e+002, 1.820166e+002
6.826346e+002, 1.850625e+002
6.831167e+002, 1.876209e+002
6.835988e+002, 1.892291e+002
6.840809e+002, 1.873300e+002
6.845630e+002, 1.799578e+002
6.850452e+002, 1.733918e+002
6.855273e+002, 1.696051e+002
6.860094e+002, 1.658713e+002
6.864915e+002, 1.599648e+002
6.869736e+002, 1.527713e+002
6.874557e+002, 1.470774e+002
6.879379e+002, 1.443746e+002
6.884200e+002, 1.427369e+002
6.889021e+002, 1.404452e+002
6.893842e+002, 1.379261e+002
6.898663e+002, 1.361888e+002
6.903484e+002, 1.354063e+002
6.908306e+002, 1.352326e+002
6.913127e+002, 1.354072e+002
6.917948e+002, 1.359471e+002
6.922769e+002, 1.369895e+002
6.927590e+002, 1.394296e+002
6.932411e+002, 1.409186e+002
6.937233e+002, 1.408154e+002
6.942054e+002, 1.402833e+002
6.946875e+002, 1.397154e+002
6.951696e+002, 1.393241e+002
6.956517e+002, 1.394810e+002
6.961339e+002, 1.404596e+002
6.966160e+002, 1.416909e+002
6.970981e+002, 1.424118e+002
6.975802e+002, 1.428474e+002
6.980623e+002, 1.442746e+002
6.985444e+002, 1.470235e+002
6.990266e+002, 1.483512e+002
6.995087e+002, 1.456405e+002
6.999908e+002, 1.404427e+002
7.004729e+002, 1.387419e+002
7.009550e+002, 1.437729e+002
7.014371e+002, 1.474207e+002
7.019193e+002, 1.487331e+002
7.024014e+002, 1.494263e+002
7.028835e+002, 1.502886e+002
7.033656e+002, 1.514017e+002
7.038477e+002, 1.528123e+002
7.043298e+002, 1.545840e+002
7.048120e+002, 1.561803e+002
7.052941e+002, 1.566135e+002
7.057762e+002, 1.562050e+002
7.062583e+002, 1.565271e+002
7.067404e+002, 1.577496e+002
7.072225e+002, 1.597631e+002
7.077046e+002, 1.634341e+002
7.081867e+002, 1.671750e+002
7.086688e+002, 1.664793e+002
7.091509e+002, 1.587522e+002
7.096331e+002, 1.534685e+002
7.101152e+002, 1.531396e+002
7.105973e+002, 1.535462e+002
7.110794e+002, 1.524488e+002
7.115615e+002, 1.502286e+002
7.120436e+002, 1.478919e+002
7.125258e+002, 1.457951e+002
7.130079e+002, 1.436965e+002
7.134900e+002, 1.407597e+002
7.139721e+002, 1.374213e+002
7.144542e+002, 1.367118e+002
7.149363e+002, 1.393482e+002
7.154185e+002, 1.404184e+002
7.159006e+002, 1.366840e+002
7.163827e+002, 1.311900e+002
7.168648e+002, 1.293913e+002
7.173469e+002, 1.319834e+002
7.178290e+002, 1.336327e+002
7.183112e+002, 1.334952e+002
7.187933e+002, 1.327515e+002
7.192754e+002, 1.316107e+002
7.197575e+002, 1.303938e+002
7.202396e+002, 1.293572e+002
7.207217e+002, 1.286293e+002
7.212039e+002, 1.284900e+002
7.216860e+002, 1.295985e+002
7.221681e+002, 1.314343e+002
7.226502e+002, 1.316960e+002
7.231323e+002, 1.301534e+002
7.236144e+002, 1.289923e+002
7.240966e+002, 1.290295e+002
7.245787e+002, 1.295348e+002
7.250608e+002, 1.296641e+002
7.255429e+002, 1.294295e+002
7.260250e+002, 1.293835e+002
7.265071e+002, 1.298797e+002
7.269893e+002, 1.301819e+002
7.274714e+002, 1.295653e+002
7.279535e+002, 1.288868e+002
7.284356e+002, 1.293497e+002
7.289177e+002, 1.308946e+002
7.293998e+002, 1.323214e+002
7.298820e+002, 1.327205e+002
7.303641e+002, 1.324877e+002
7.308462e+002, 1.325569e+002
7.313283e+002, 1.329451e+002
7.318104e+002, 1.330558e+002
7.322925e+002, 1.325938e+002
7.327747e+002, 1.322523e+002
7.332568e+002, 1.326476e+002
7.337389e+002, 1.336664e+002
7.342210e+002, 1.346107e+002
7.347031e+002, 1.350152e+002
7.351852e+002, 1.360481e+002
7.356674e+002, 1.392019e+002
7.361495e+002, 1.420696e+002
7.366316e+002, 1.421804e+002
7.371137e+002, 1.402476e+002
7.375958e+002, 1.385896e+002
7.380779e+002, 1.383158e+002
7.385601e+002, 1.390791e+002
7.390422e+002, 1.407651e+002
7.395243e+002, 1.432112e+002
7.400064e+002, 1.446659e+002
7.404885e+002, 1.447052e+002
7.409706e+002, 1.450337e+002
7.414528e+002, 1.465513e+002
7.419349e+002, 1.489893e+002
7.424170e+002, 1.519781e+002
7.428991e+002, 1.559944e+002
7.433812e+002, 1.589124e+002
7.438633e+002, 1.603524e+002
7.443455e+002, 1.608758e+002
7.448276e+002, 1.605832e+002
7.453097e+002, 1.596455e+002
7.457918e+002, 1.582339e+002
7.462739e+002, 1.564170e+002
7.467560e+002, 1.542282e+002
7.472382e+002, 1.514582e+002
7.477203e+002, 1.483931e+002
7.482024e+002, 1.458745e+002
7.486845e+002, 1.439000e+002
7.491666e+002, 1.425344e+002
7.496487e+002, 1.419355e+002
7.501309e+002, 1.416048e+002
7.506130e+002, 1.408281e+002
7.510951e+002, 1.395424e+002
7.515772e+002, 1.392346e+002
7.520593e+002, 1.412985e+002
7.525414e+002, 1.424472e+002
7.530236e+002, 1.412360e+002
7.535057e+002, 1.393269e+002
7.539878e+002, 1.379863e+002
7.544699e+002, 1.374202e+002
7.549520e+002, 1.375037e+002
7.554341e+002, 1.383449e+002
7.559163e+002, 1.394247e+002
7.563984e+002, 1.400306e+002
7.568805e+002, 1.402414e+002
7.573626e+002, 1.404806e+002
7.578447e+002, 1.408460e+002
7.583268e+002, 1.407472e+002
7.588090e+002, 1.396312e+002
7.592911e+002, 1.378670e+002
7.597732e+002, 1.366694e+002
7.602553e+002, 1.360368e+002
7.607374e+002, 1.360088e+002
7.612195e+002, 1.373221e+002
7.617017e+002, 1.384252e+002
7.621838e+002, 1.385239e+002
7.626659e+002, 1.379532e+002
7.631480e+002, 1.371655e+002
7.636301e+002, 1.362644e+002
7.641122e+002, 1.356698e+002
7.645944e+002, 1.360926e+002
7.650765e+002, 1.368094e+002
7.655586e+002, 1.365552e+002
7.660407e+002, 1.354484e+002
7.665228e+002, 1.343392e+002
7.670049e+002, 1.335291e+002
7.674871e+002, 1.331074e+002
7.679692e+002, 1.332338e+002
7.684513e+002, 1.339302e+002
7.689334e+002, 1.346131e+002
7.694155e+002, 1.351361e+002
7.698976e+002, 1.358911e+002
7.703798e+002, 1.377990e+002
7.708619e+002, 1.393058e+002
7.713440e+002, 1.388007e+002
7.718261e+002, 1.366242e+002
7.723082e+002, 1.348068e+002
7.727903e+002, 1.344402e+002
7.732725e+002, 1.341213e+002
7.737546e+002, 1.325284e+002
7.742367e+002, 1.305096e+002
7.747188e+002, 1.295240e+002
7.752009e+002, 1.296261e+002
7.756830e+002, 1.298161e+002
7.761652e+002, 1.294541e+002
7.766473e+002, 1.286627e+002
7.771294e+002, 1.276140e+002
7.776115e+002, 1.261920e+002
7.780936e+002, 1.253123e+002
7.785757e+002, 1.252593e+002
7.790579e+002, 1.253285e+002
7.795400e+002, 1.249176e+002
7.800221e+002, 1.244959e+002
7.805042e+002, 1.250941e+002
7.809863e+002, 1.271582e+002
7.814684e+002, 1.281683e+002
7.819506e+002, 1.262699e+002
7.824327e+002, 1.243804e+002
7.829148e+002, 1.249610e+002
7.833969e+002, 1.266356e+002
7.838790e+002, 1.266219e+002
7.843611e+002, 1.244247e+002
7.848433e+002, 1.225071e+002
7.853254e+002, 1.236164e+002
7.858075e+002, 1.264376e+002
7.862896e+002, 1.267139e+002
7.867717e+002, 1.244010e+002
7.872538e+002, 1.224834e+002
7.877360e+002, 1.216327e+002
7.882181e+002, 1.215863e+002
7.887002e+002, 1.222874e+002
7.891823e+002, 1.236341e+002
7.896644e+002, 1.247338e+002
7.901465e+002, 1.262784e+002
7.906286e+002, 1.266010e+002
7.911107e+002, 1.244029e+002
7.915928e+002, 1.220332e+002
7.920750e+002, 1.209333e+002
7.925571e+002, 1.208705e+002
7.930392e+002, 1.211697e+002
7.935213e+002, 1.216427e+002
7.940034e+002, 1.219811e+002
7.944855e+002, 1.217164e+002
7.949677e+002, 1.212146e+002
7.954498e+002, 1.213269e+002
7.959319e+002, 1.219637e+002
7.964140e+002, 1.222127e+002
7.968961e+002, 1.216855e+002
7.973782e+002, 1.207163e+002
7.978604e+002, 1.196613e+002
7.983425e+002, 1.184819e+002
7.988246e+002, 1.181036e+002
7.993067e+002, 1.189408e+002
7.997888e+002, 1.198258e+002
8.002709e+002, 1.210046e+002
8.007531e+002, 1.216988e+002
8.012352e+002, 1.208213e+002
8.017173e+002, 1.187780e+002
8.021994e+002, 1.175853e+002
8.026815e+002, 1.183107e+002
8.031636e+002, 1.191992e+002
8.036458e+002, 1.193519e+002
8.041279e+002, 1.191654e+002
8.046100e+002, 1.190503e+002
8.050921e+002, 1.190562e+002
8.055742e+002, 1.191870e+002
8.060563e+002, 1.194672e+002
8.065385e+002, 1.195620e+002
8.070206e+002, 1.187491e+002
8.075027e+002, 1.171201e+002
8.079848e+002, 1.159967e+002
8.084669e+002, 1.154990e+002
8.089490e+002, 1.151613e+002
8.094312e+002, 1.148452e+002
8.099133e+002, 1.144931e+002
8.103954e+002, 1.139709e+002
8.108775e+002, 1.132126e+002
8.113596e+002, 1.127453e+002
8.118417e+002, 1.127998e+002
8.123239e+002, 1.128485e+002
8.128060e+002, 1.128364e+002
8.132881e+002, 1.126930e+002
8.137702e+002, 1.121049e+002
8.142523e+002, 1.112789e+002
8.147344e+002, 1.110392e+002
8.152166e+002, 1.119393e+002
8.156987e+002, 1.132729e+002
8.161808e+002, 1.145226e+002
8.166629e+002, 1.155877e+002
8.171450e+002, 1.161929e+002
8.176271e+002, 1.163366e+002
8.181093e+002, 1.162586e+002
8.185914e+002, 1.160727e+002
8.190735e+002, 1.158789e+002
8.195556e+002, 1.159306e+002
8.200377e+002, 1.163276e+002
8.205198e+002, 1.163167e+002
8.210020e+002, 1.157603e+002
8.214841e+002, 1.150499e+002
8.219662e+002, 1.142829e+002
8.224483e+002, 1.134642e+002
8.229304e+002, 1.123179e+002
8.234125e+002, 1.108925e+002
8.238947e+002, 1.105517e+002
8.243768e+002, 1.126226e+002
8.248589e+002, 1.145635e+002
8.253410e+002, 1.151965e+002
8.258231e+002, 1.151757e+002
8.263052e+002, 1.152032e+002
8.267874e+002, 1.153296e+002
8.272695e+002, 1.152873e+002
8.277516e+002, 1.149364e+002
8.282337e+002, 1.143040e+002
8.287158e+002, 1.131557e+002
8.291979e+002, 1.117309e+002
8.296801e+002, 1.110459e+002
8.301622e+002, 1.111923e+002
8.306443e+002, 1.119627e+002
8.311264e+002, 1.134741e+002
8.316085e+002, 1.148807e+002
8.320906e+002, 1.146037e+002
8.325728e+002, 1.122284e+002
8.330549e+002, 1.112254e+002
8.335370e+002, 1.129184e+002
8.340191e+002, 1.140881e+002
8.345012e+002, 1.130830e+002
8.349833e+002, 1.120420e+002
8.354655e+002, 1.130483e+002
8.359476e+002, 1.157390e+002
8.364297e+002, 1.179063e+002
8.369118e+002, 1.189501e+002
8.373939e+002, 1.192434e+002
8.378760e+002, 1.182039e+002
8.383582e+002, 1.170484e+002
8.388403e+002, 1.173753e+002
8.393224e+002, 1.189516e+002
8.398045e+002, 1.204821e+002
8.402866e+002, 1.213518e+002
8.407687e+002, 1.221784e+002
8.412509e+002, 1.237989e+002
8.417330e+002, 1.261179e+002
8.422151e+002, 1.286893e+002
8.426972e+002, 1.315221e+002
8.431793e+002, 1.341012e+002
8.436614e+002, 1.361823e+002
8.441436e+002, 1.380290e+002
8.446257e+002, 1.398529e+002
8.451078e+002, 1.416656e+002
8.455899e+002, 1.438979e+002
8.460720e+002, 1.474641e+002
8.465541e+002, 1.500722e+002
8.470363e+002, 1.513645e+002
8.475184e+002, 1.518270e+002
8.480005e+002, 1.513685e+002
8.484826e+002, 1.503927e+002
8.489647e+002, 1.497448e+002
8.494468e+002, 1.497224e+002
8.499290e+002, 1.496613e+002
8.504111e+002, 1.495634e+002
8.508932e+002, 1.489622e+002
8.513753e+002, 1.470199e+002
8.518574e+002, 1.442470e+002
8.523395e+002, 1.419417e+002
8.528217e+002, 1.404551e+002
8.533038e+002, 1.388369e+002
8.537859e+002, 1.359099e+002
8.542680e+002, 1.323866e+002
8.547501e+002, 1.308421e+002
8.552322e+002, 1.312705e+002
8.557144e+002, 1.311051e+002
8.561965e+002, 1.297652e+002
8.566786e+002, 1.280753e+002
8.571607e+002, 1.265848e+002
8.576428e+002, 1.252640e+002
8.581249e+002, 1.239809e+002
8.586071e+002, 1.224500e+002
8.590892e+002, 1.215946e+002
8.595713e+002, 1.214149e+002
8.600534e+002, 1.218855e+002
8.605355e+002, 1.231848e+002
8.610176e+002, 1.250277e+002
8.614998e+002, 1.270724e+002
8.619819e+002, 1.292899e+002
8.624640e+002, 1.318792e+002
8.629461e+002, 1.348118e+002
8.634282e+002, 1.382939e+002
8.639103e+002, 1.414326e+002
8.643925e+002, 1.457507e+002
8.648746e+002, 1.539824e+002
8.653567e+002, 1.657917e+002
8.658388e+002, 1.785473e+002
8.663209e+002, 1.909631e+002
8.668030e+002, 2.017314e+002
8.672852e+002, 2.091693e+002
8.677673e+002, 2.131731e+002
8.682494e+002, 2.130695e+002
8.687315e+002, 2.087863e+002
8.692136e+002, 2.007718e+002
8.696957e+002, 1.885861e+002
8.701779e+002, 1.747342e+002
8.706600e+002, 1.625240e+002
8.711421e+002, 1.519391e+002
8.716242e+002, 1.420158e+002
8.721063e+002, 1.317815e+002
8.725884e+002, 1.239251e+002
8.730705e+002, 1.205955e+002
8.735526e+002, 1.182765e+002
8.740347e+002, 1.151647e+002
8.745168e+002, 1.114357e+002
8.749990e+002, 1.074255e+002
8.754811e+002, 1.027543e+002
8.759632e+002, 9.922855e+001
8.764453e+002, 9.766650e+001
8.769274e+002, 9.731583e+001
8.774095e+002, 9.815896e+001
8.778917e+002, 9.962043e+001
8.783738e+002, 1.012045e+002
8.788559e+002, 1.025935e+002
8.793380e+002, 1.028516e+002
8.798201e+002, 1.007035e+002
8.803022e+002, 9.764635e+001
8.807844e+002, 9.580024e+001
8.812665e+002, 9.515630e+001
8.817486e+002, 9.626356e+001
8.822307e+002, 9.904736e+001
8.827128e+002, 1.008755e+002
8.831949e+002, 9.992708e+001
8.836771e+002, 9.766822e+001
8.841592e+002, 9.741129e+001
8.846413e+002, 9.964645e+001
8.851234e+002, 1.000144e+002
8.856055e+002, 9.763074e+001
8.860876e+002, 9.553425e+001
8.865698e+002, 9.465073e+001
8.870519e+002, 9.463282e+001
8.875340e+002, 9.536826e+001
8.880161e+002, 9.678671e+001
8.884982e+002, 9.780949e+001
8.889803e+002, 9.812962e+001
8.894625e+002, 9.844320e+001
8.899446e+002, 9.933702e+001
8.904267e+002, 9.982491e+001
8.909088e+002, 9.839799e+001
8.913909e+002, 9.628234e+001
8.918730e+002, 9.623463e+001
8.923552e+002, 9.910739e+001
8.928373e+002, 1.016266e+002
8.933194e+002, 1.012786e+002
8.938015e+002, 9.989675e+001
8.942836e+002, 9.928601e+001
8.947657e+002, 9.920835e+001
8.952479e+002, 9.907757e+001
8.957300e+002, 9.875550e+001
8.962121e+002, 9.829125e+001
8.966942e+002, 9.763564e+001
8.971763e+002, 9.716365e+001
8.976584e+002, 9.817390e+001
8.981406e+002, 1.003668e+002
8.986227e+002, 1.002785e+002
8.991048e+002, 9.735647e+001
8.995869e+002, 9.524203e+001
9.000690e+002, 9.581448e+001
9.005511e+002, 9.757780e+001
9.010333e+002, 9.824924e+001
9.015154e+002, 9.773820e+001
9.019975e+002, 9.821397e+001
9.024796e+002, 1.002876e+002
9.029617e+002, 1.022263e+002
9.034438e+002, 1.038531e+002
9.039260e+002, 1.051063e+002
9.044081e+002, 1.057522e+002
9.048902e+002, 1.060187e+002
9.053723e+002, 1.063093e+002
9.058544e+002, 1.061285e+002
9.063365e+002, 1.075170e+002
9.068187e+002, 1.120004e+002
9.073008e+002, 1.170962e+002
9.077829e+002, 1.208740e+002
9.082650e+002, 1.245343e+002
9.087471e+002, 1.297033e+002
9.092292e+002, 1.366707e+002
9.097114e+002, 1.451469e+002
9.101935e+002, 1.558544e+002
9.106756e+002, 1.664970e+002
9.111577e+002, 1.758825e+002
9.116398e+002, 1.831093e+002
9.121219e+002, 1.867631e+002
9.126041e+002, 1.865603e+002
9.130862e+002, 1.817886e+002
9.135683e+002, 1.721016e+002
9.140504e+002, 1.600317e+002
9.145325e+002, 1.483278e+002
9.150146e+002, 1.371905e+002
9.154968e+002, 1.271381e+002
9.159789e+002, 1.181173e+002
9.164610e+002, 1.116651e+002
9.169431e+002, 1.084095e+002
9.174252e+002, 1.064746e+002
9.179073e+002, 1.043898e+002
9.183895e+002, 1.022883e+002
9.188716e+002, 1.006581e+002
9.193537e+002, 9.961094e+001
9.198358e+002, 9.873150e+001
9.203179e+002, 9.821107e+001
9.208000e+002, 9.757693e+001
9.212822e+002, 9.636498e+001
9.217643e+002, 9.512487e+001
9.222464e+002, 9.464871e+001
9.227285e+002, 9.489026e+001
9.232106e+002, 9.460151e+001
9.236927e+002, 9.285771e+001
9.241749e+002, 9.158293e+001
9.246570e+002, 9.153220e+001
9.251391e+002, 9.195985e+001
9.256212e+002, 9.259396e+001
9.261033e+002, 9.315627e+001
9.265854e+002, 9.306174e+001
9.270676e+002, 9.211369e+001
9.275497e+002, 9.148305e+001
9.280318e+002, 9.270232e+001
9.285139e+002, 9.393759e+001
9.289960e+002, 9.268324e+001
9.294781e+002, 9.027441e+001
9.299603e+002, 8.955233e+001
9.304424e+002, 9.072336e+001
9.309245e+002, 9.178382e+001
9.314066e+002, 9.142989e+001
9.318887e+002, 9.048082e+001
9.323708e+002, 9.012216e+001
9.328530e+002, 9.027848e+001
9.333351e+002, 9.076284e+001
9.338172e+002, 9.153174e+001
9.342993e+002, 9.208924e+001
9.347814e+002, 9.224004e+001
9.352635e+002, 9.218494e+001
9.357457e+002, 9.210402e+001
9.362278e+002, 9.203089e+001
9.367099e+002, 9.227817e+001
9.371920e+002, 9.308102e+001
9.376741e+002, 9.303482e+001
9.381563e+002, 9.139409e+001
9.386384e+002, 9.023791e+001
9.391205e+002, 9.109738e+001
9.396026e+002, 9.282065e+001
9.400847e+002, 9.333961e+001
9.405668e+002, 9.245302e+001
9.410490e+002, 9.155177e+001
9.415311e+002, 8.989249e+001
9.420132e+002, 8.922935e+001
9.424953e+002, 9.092442e+001
9.429774e+002, 9.279511e+001
9.434595e+002, 9.307018e+001
9.439417e+002, 9.225528e+001
9.444238e+002, 9.191347e+001
9.449059e+002, 9.258535e+001
9.453880e+002, 9.281166e+001
9.458701e+002, 9.140907e+001
9.463522e+002, 9.009992e+001
9.468344e+002, 9.046416e+001
9.473165e+002, 9.138835e+001
9.477986e+002, 9.115202e+001
9.482807e+002, 8.973686e+001
9.487628e+002, 8.852952e+001
9.492449e+002, 8.828622e+001
9.497271e+002, 8.846243e+001
9.502092e+002, 8.863953e+001
9.506913e+002, 8.883798e+001
9.511734e+002, 8.921522e+001
9.516555e+002, 8.964416e+001
9.521376e+002, 8.962297e+001
9.526198e+002, 8.902615e+001
9.531019e+002, 8.843787e+001
9.535840e+002, 8.836727e+001
9.540661e+002, 8.876572e+001
9.545482e+002, 9.005069e+001
9.550303e+002, 9.187580e+001
9.555124e+002, 9.147445e+001
9.559945e+002, 8.846642e+001
9.564766e+002, 8.590376e+001
9.569587e+002, 8.541343e+001
9.574409e+002, 8.628856e+001
9.579230e+002, 8.758585e+001
9.584051e+002, 8.929353e+001
9.588872e+002, 9.027750e+001
9.593693e+002, 9.053719e+001
9.598514e+002, 8.995063e+001
9.603336e+002, 8.804823e+001
9.608157e+002, 8.630363e+001
9.612978e+002, 8.581255e+001
9.617799e+002, 8.631899e+001
9.622620e+002, 8.721231e+001
9.627441e+002, 8.895188e+001
9.632263e+002, 8.964526e+001
9.637084e+002, 8.840022e+001
9.641905e+002, 8.731258e+001
9.646726e+002, 8.689807e+001
9.651547e+002, 8.689539e+001
9.656368e+002, 8.715888e+001
9.661190e+002, 8.765019e+001
9.666011e+002, 8.823180e+001
9.670832e+002, 8.890935e+001
9.675653e+002, 8.963297e+001
9.680474e+002, 9.091792e+001
9.685295e+002, 9.167852e+001
9.690117e+002, 9.067576e+001
9.694938e+002, 8.911870e+001
9.699759e+002, 8.876823e+001
9.704580e+002, 8.968616e+001
9.709401e+002, 9.032116e+001
9.714222e+002, 8.933227e+001
9.719044e+002, 8.896484e+001
9.723865e+002, 9.190958e+001
9.728686e+002, 9.519355e+001
9.733507e+002, 9.508119e+001
9.738328e+002, 9.273882e+001
9.743149e+002, 9.133553e+001
9.747971e+002, 9.180282e+001
9.752792e+002, 9.279457e+001
9.757613e+002, 9.313004e+001
9.762434e+002, 9.354227e+001
9.767255e+002, 9.509572e+001
9.772076e+002, 9.744665e+001
9.776898e+002, 1.000386e+002
9.781719e+002, 1.027148e+002
9.786540e+002, 1.052386e+002
9.791361e+002, 1.075115e+002
9.796182e+002, 1.093608e+002
9.801003e+002, 1.100043e+002
9.805825e+002, 1.102598e+002
9.810646e+002, 1.133915e+002
9.815467e+002, 1.189734e+002
9.820288e+002, 1.236278e+002
9.825109e+002, 1.266702e+002
9.829930e+002, 1.291313e+002
9.834752e+002, 1.317685e+002
9.839573e+002, 1.337305e+002
9.844394e+002, 1.332893e+002
9.849215e+002, 1.304375e+002
9.854036e+002, 1.267272e+002
9.858857e+002, 1.219664e+002
9.863679e+002, 1.174874e+002
9.868500e+002, 1.136335e+002
9.873321e+002, 1.100995e+002
9.878142e+002, 1.066155e+002
9.882963e+002, 1.032803e+002
9.887784e+002, 1.003644e+002
9.892606e+002, 9.776699e+001
9.897427e+002, 9.606034e+001
9.902248e+002, 9.585717e+001
9.907069e+002, 9.531723e+001
9.911890e+002, 9.325440e+001
9.916711e+002, 9.130603e+001
9.921533e+002, 9.131894e+001
9.926354e+002, 9.290620e+001
9.931175e+002, 9.377562e+001
9.935996e+002, 9.385304e+001
9.940817e+002, 9.334958e+001
9.945638e+002, 9.168021e+001
9.950460e+002, 9.013035e+001
9.955281e+002, 8.909287e+001
9.960102e+002, 8.849465e+001
9.964923e+002, 8.833374e+001
9.969744e+002, 8.855892e+001
9.974565e+002, 8.887894e+001
9.979387e+002, 8.937968e+001
9.984208e+002, 8.973677e+001
9.989029e+002, 8.961951e+001
9.993850e+002, 8.959332e+001
9.998671e+002, 9.056319e+001
1.000349e+003, 9.155611e+001
1.000831e+003, 9.070290e+001
1.001313e+003, 8.807459e+001
1.001796e+003, 8.650681e+001
1.002278e+003, 8.786088e+001
1.002760e+003, 8.949102e+001
1.003242e+003, 9.012835e+001
1.003724e+003, 9.023837e+001
1.004206e+003, 9.021812e+001
1.004688e+003, 9.002935e+001
1.005170e+003, 8.933638e+001
1.005653e+003, 8.815054e+001
1.006135e+003, 8.730595e+001
1.006617e+003, 8.739320e+001
1.007099e+003, 8.794925e+001
1.007581e+003, 8.912428e+001
1.008063e+003, 9.012918e+001
1.008545e+003, 8.926270e+001
1.009027e+003, 8.722946e+001
1.009509e+003, 8.644905e+001
1.009992e+003, 8.769057e+001
1.010474e+003, 8.926805e+001
1.010956e+003, 8.991319e+001
1.011438e+003, 8.979923e+001
1.011920e+003, 8.857311e+001
1.012402e+003, 8.696764e+001
1.012884e+003, 8.697282e+001
1.013366e+003, 8.846099e+001
1.013849e+003, 8.968867e+001
1.014331e+003, 8.989680e+001
1.014813e+003, 8.971223e+001
1.015295e+003, 8.978376e+001
1.015777e+003, 9.002853e+001
1.016259e+003, 9.042085e+001
1.016741e+003, 9.082487e+001
1.017223e+003, 9.032704e+001
1.017705e+003, 8.891927e+001
1.018188e+003, 8.811179e+001
1.018670e+003, 8.871362e+001
1.019152e+003, 8.968475e+001
1.019634e+003, 8.949050e+001
1.020116e+003, 8.845552e+001
1.020598e+003, 8.810482e+001
1.021080e+003, 8.843299e+001
1.021562e+003, 8.952705e+001
1.022044e+003, 9.147311e+001
1.022527e+003, 9.280882e+001
1.023009e+003, 9.264685e+001
1.023491e+003, 9.159428e+001
1.023973e+003, 9.029611e+001
1.024455e+003, 8.889267e+001
1.024937e+003, 9.031387e+001
1.025419e+003, 9.510982e+001
1.025901e+003, 9.772375e+001
1.026384e+003, 9.662988e+001
1.026866e+003, 9.553972e+001
1.027348e+003, 9.673006e+001
1.027830e+003, 9.942966e+001
1.028312e+003, 1.023457e+002
1.028794e+003, 1.055340e+002
1.029276e+003, 1.080173e+002
1.029758e+003, 1.096803e+002
1.030240e+003, 1.111859e+002
1.030723e+003, 1.130719e+002
1.031205e+003, 1.137925e+002
1.031687e+003, 1.119622e+002
1.032169e+003, 1.086824e+002
1.032651e+003, 1.059790e+002
1.033133e+003, 1.037034e+002
1.033615e+003, 1.034165e+002
1.034097e+003, 1.064136e+002
1.034579e+003, 1.085303e+002
1.035062e+003, 1.084495e+002
1.035544e+003, 1.080873e+002
1.036026e+003, 1.081783e+002
1.036508e+003, 1.091550e+002
1.036990e+003, 1.121706e+002
1.037472e+003, 1.177250e+002
1.037954e+003, 1.224610e+002
1.038436e+003, 1.253298e+002
1.038919e+003, 1.290020e+002
1.039401e+003, 1.334402e+002
1.039883e+003, 1.393179e+002
1.040365e+003, 1.475663e+002
1.040847e+003, 1.574245e+002
1.041329e+003, 1.667425e+002
1.041811e+003, 1.747249e+002
1.042293e+003, 1.865420e+002
1.042776e+003, 2.025544e+002
1.043258e+003, 2.221116e+002
1.043740e+003, 2.420008e+002
1.044222e+003, 2.684701e+002
1.044704e+003, 3.025857e+002
1.045186e+003, 3.470478e+002
1.045668e+003, 4.059286e+002
1.046150e+003, 4.788456e+002
1.046632e+003, 5.693672e+002
1.047115e+003, 6.763882e+002
1.047597e+003, 8.029957e+002
1.048079e+003, 9.424935e+002
1.048561e+003, 1.108738e+003
1.049043e+003, 1.303128e+003
1.049525e+003, 1.534007e+003
1.050007e+003, 1.831370e+003
1.050489e+003, 2.203866e+003
1.050971e+003, 2.557071e+003
1.051454e+003, 2.947223e+003
1.051936e+003, 3.211935e+003
1.052418e+003, 3.296346e+003
1.052900e+003, 3.244639e+003
1.053382e+003, 3.024333e+003
1.053864e+003, 2.717415e+003
1.054346e+003, 2.451647e+003
1.054828e+003, 2.244082e+003
1.055311e+003, 2.084751e+003
1.055793e+003, 1.985886e+003
1.056275e+003, 1.914505e+003
1.056757e+003, 1.862165e+003
1.057239e+003, 1.830448e+003
1.057721e+003, 1.851727e+003
1.058203e+003, 1.881799e+003
1.058685e+003, 1.854123e+003
1.059167e+003, 1.757546e+003
1.059650e+003, 1.598572e+003
1.060132e+003, 1.329020e+003
1.060614e+003, 1.065109e+003
1.061096e+003, 8.309544e+002
1.061578e+003, 6.371698e+002
1.062060e+003, 4.982756e+002
1.062542e+003, 4.005267e+002
1.063024e+003, 3.263311e+002
1.063506e+003, 2.714059e+002
1.063989e+003, 2.274865e+002
1.064471e+003, 1.930050e+002
1.064953e+003, 1.666071e+002
1.065435e+003, 1.501124e+002
1.065917e+003, 1.391002e+002
1.066399e+003, 1.315695e+002
1.066881e+003, 1.265196e+002
1.067363e+003, 1.238926e+002
1.067846e+003, 1.231596e+002
1.068328e+003, 1.209372e+002
1.068810e+003, 1.143770e+002
1.069292e+003, 1.089002e+002
1.069774e+003, 1.075015e+002
1.070256e+003, 1.075153e+002
1.070738e+003, 1.076099e+002
1.071220e+003, 1.074346e+002
1.071703e+003, 1.068019e+002
1.072185e+003, 1.056481e+002
1.072667e+003, 1.037176e+002
1.073149e+003, 1.000856e+002
1.073631e+003, 9.758875e+001
1.074113e+003, 9.853092e+001
1.074595e+003, 1.000567e+002
1.075077e+003, 1.003784e+002
1.075559e+003, 9.984053e+001
1.076042e+003, 9.879580e+001
1.076524e+003, 9.748806e+001
1.077006e+003, 9.647535e+001
1.077488e+003, 9.588097e+001
1.077970e+003, 9.580218e+001
1.078452e+003, 9.698161e+001
1.078934e+003, 9.792598e+001
1.079416e+003, 9.726125e+001
1.079898e+003, 9.604343e+001
1.080380e+003, 9.568137e+001
1.080863e+003, 9.601738e+001
1.081345e+003, 9.590434e+001
1.081827e+003, 9.488935e+001
1.082309e+003, 9.392854e+001
1.082791e+003, 9.352703e+001
1.083273e+003, 9.321617e+001
1.083755e+003, 9.257535e+001
1.084237e+003, 9.198158e+001
1.084720e+003, 9.189466e+001
1.085202e+003, 9.221038e+001
1.085684e+003, 9.238703e+001
1.086166e+003, 9.218099e+001
1.086648e+003, 9.289856e+001
1.087130e+003, 9.607774e+001
1.087612e+003, 9.909036e+001
1.088094e+003, 1.011804e+002
1.088577e+003, 1.019758e+002
1.089059e+003, 1.005705e+002
1.089541e+003, 9.781775e+001
1.090023e+003, 9.544772e+001
1.090505e+003, 9.380315e+001
1.090987e+003, 9.208447e+001
1.091469e+003, 8.943189e+001
1.091951e+003, 8.737473e+001
1.092433e+003, 8.647630e+001
1.092916e+003, 8.650872e+001
1.093398e+003, 8.822990e+001
1.093880e+003, 9.032710e+001
1.094362e+003, 9.050450e+001
1.094844e+003, 8.857241e+001
1.095326e+003, 8.679174e+001
1.095808e+003, 8.536990e+001
1.096290e+003, 8.495396e+001
1.096772e+003, 8.674371e+001
1.097255e+003, 8.854264e+001
1.097737e+003, 8.902641e+001
1.098219e+003, 8.862981e+001
1.098701e+003, 8.774447e+001
1.099183e+003, 8.658388e+001
1.099665e+003, 8.595887e+001
1.100147e+003, 8.632694e+001
1.100629e+003, 8.667068e+001
1.101112e+003, 8.677203e+001
1.101594e+003, 8.673733e+001
1.102076e+003, 8.652184e+001
1.102558e+003, 8.627020e+001
1.103040e+003, 8.608273e+001
1.103522e+003, 8.599068e+001
1.104004e+003, 8.605823e+001
1.104486e+003, 8.629626e+001
1.104969e+003, 8.668799e+001
1.105451e+003, 8.766592e+001
1.105933e+003, 8.822813e+001
1.106415e+003, 8.771866e+001
1.106897e+003, 8.694341e+001
1.107379e+003, 8.628777e+001
1.107861e+003, 8.593607e+001
1.108343e+003, 8.654771e+001
1.108825e+003, 8.861299e+001
1.109307e+003, 8.905832e+001
1.109790e+003, 8.497724e+001
1.110272e+003, 8.301849e+001
1.110754e+003, 8.683387e+001
1.111236e+003, 9.068235e+001
1.111718e+003, 9.095216e+001
1.112200e+003, 8.912702e+001
1.112682e+003, 8.729705e+001
1.113164e+003, 8.543420e+001
1.113647e+003, 8.489333e+001
1.114129e+003, 8.722523e+001
1.114611e+003, 8.828505e+001
1.115093e+003, 8.681807e+001
1.115575e+003, 8.537794e+001
1.116057e+003, 8.510633e+001
1.116539e+003, 8.534386e+001
1.117021e+003, 8.545928e+001
1.117504e+003, 8.542373e+001
1.117986e+003, 8.498935e+001
1.118468e+003, 8.382507e+001
1.118950e+003, 8.307890e+001
1.119432e+003, 8.302326e+001
1.119914e+003, 8.281753e+001
1.120396e+003, 8.190598e+001
1.120878e+003, 8.126303e+001
1.121360e+003, 8.191421e+001
1.121843e+003, 8.334135e+001
1.122325e+003, 8.404266e+001
1.122807e+003, 8.398142e+001
1.123289e+003, 8.323251e+001
1.123771e+003, 8.123958e+001
1.124253e+003, 8.059969e+001
1.124735e+003, 8.229741e+001
1.125217e+003, 8.419002e+001
1.125699e+003, 8.506970e+001
1.126182e+003, 8.497798e+001
1.126664e+003, 8.374812e+001
1.127146e+003, 8.150332e+001
1.127628e+003, 8.073315e+001
1.128110e+003, 8.168913e+001
1.128592e+003, 8.165805e+001
1.129074e+003, 8.006951e+001
1.129556e+003, 7.933920e+001
1.130039e+003, 8.071793e+001
1.130521e+003, 8.247588e+001
1.131003e+003, 8.261612e+001
1.131485e+003, 8.158157e+001
1.131967e+003, 8.070188e+001
1.132449e+003, 8.001958e+001
1.132931e+003, 8.069484e+001
1.133413e+003, 8.272811e+001
1.133896e+003, 8.327368e+001
1.134378e+003, 8.146853e+001
1.134860e+003, 8.052052e+001
1.135342e+003, 8.313129e+001
1.135824e+003, 8.695809e+001
1.136306e+003, 8.760517e+001
1.136788e+003, 8.584753e+001
1.137270e+003, 8.420759e+001
1.137752e+003, 8.292094e+001
1.138234e+003, 8.304697e+001
1.138717e+003, 8.462133e+001
1.139199e+003, 8.672524e+001
1.139681e+003, 8.890324e+001
1.140163e+003, 8.999978e+001
1.140645e+003, 8.800600e+001
1.141127e+003, 8.475826e+001
1.141609e+003, 8.322842e+001
1.142091e+003, 8.321971e+001
1.142574e+003, 8.537657e+001
1.143056e+003, 8.861714e+001
1.143538e+003, 8.926441e+001
1.144020e+003, 8.644508e+001
1.144502e+003, 8.325000e+001
1.144984e+003, 8.153748e+001
1.145466e+003, 8.112053e+001
1.145948e+003, 8.257646e+001
1.146431e+003, 8.458173e+001
1.146913e+003, 8.551900e+001
1.147395e+003, 8.569725e+001
1.147877e+003, 8.573536e+001
1.148359e+003, 8.582488e+001
1.148841e+003, 8.614848e+001
1.149323e+003, 8.686012e+001
1.149805e+003, 8.733366e+001
1.150287e+003, 8.717545e+001
1.150770e+003, 8.663542e+001
1.151252e+003, 8.554874e+001
1.151734e+003, 8.445731e+001
1.152216e+003, 8.380915e+001
1.152698e+003, 8.367355e+001
1.153180e+003, 8.434183e+001
1.153662e+003, 8.586177e+001
1.154144e+003, 8.647887e+001
1.154626e+003, 8.449926e+001
1.155109e+003, 8.310275e+001
1.155591e+003, 8.383208e+001
1.156073e+003, 8.491694e+001
1.156555e+003, 8.547812e+001
1.157037e+003, 8.559953e+001
1.157519e+003, 8.531014e+001
1.158001e+003, 8.471387e+001
1.158483e+003, 8.442509e+001
1.158966e+003, 8.479154e+001
1.159448e+003, 8.483778e+001
1.159930e+003, 8.413299e+001
1.160412e+003, 8.361502e+001
1.160894e+003, 8.381110e+001
1.161376e+003, 8.395875e+001
1.161858e+003, 8.344772e+001
1.162340e+003, 8.250394e+001
1.162822e+003, 8.140745e+001
1.163305e+003, 7.997035e+001
1.163787e+003, 8.062076e+001
1.164269e+003, 8.467543e+001
1.164751e+003, 8.683890e+001
1.165233e+003, 8.589343e+001
1.165715e+003, 8.441560e+001
1.166197e+003, 8.329108e+001
1.166679e+003, 8.313270e+001
1.167161e+003, 8.507437e+001
1.167644e+003, 8.816206e+001
1.168126e+003, 8.784185e+001
1.168608e+003, 8.391359e+001
1.169090e+003, 8.331883e+001
1.169572e+003, 8.646376e+001
1.170054e+003, 8.861317e+001
1.170536e+003, 8.846953e+001
1.171018e+003, 8.732028e+001
1.171500e+003, 8.595712e+001
1.171983e+003, 8.472746e+001
1.172465e+003, 8.401598e+001
1.172947e+003, 8.395113e+001
1.173429e+003, 8.545619e+001
1.173911e+003, 8.797716e+001
1.174393e+003, 8.936880e+001
1.174875e+003, 8.952361e+001
1.175357e+003, 8.943479e+001
1.175840e+003, 8.950300e+001
1.176322e+003, 8.972884e+001
1.176804e+003, 9.035136e+001
1.177286e+003, 9.058940e+001
1.177768e+003, 8.873901e+001
1.178250e+003, 8.642471e+001
1.178732e+003, 8.599063e+001
1.179214e+003, 8.698198e+001
1.179697e+003, 8.865343e+001
1.180179e+003, 9.050225e+001
1.180661e+003, 9.137486e+001
1.181143e+003, 9.068516e+001
1.181625e+003, 8.990609e+001
1.182107e+003, 9.006164e+001
1.182589e+003, 9.026638e+001
1.183071e+003, 8.994014e+001
1.183553e+003, 8.939001e+001
1.184036e+003, 8.845921e+001
1.184518e+003, 8.773701e+001
1.185000e+003, 8.851891e+001
1.185482e+003, 9.087180e+001
1.185964e+003, 9.260641e+001
1.186446e+003, 9.294005e+001
1.186928e+003, 9.309961e+001
1.187410e+003, 9.357055e+001
1.187892e+003, 9.355571e+001
1.188375e+003, 9.202215e+001
1.188857e+003, 9.047041e+001
1.189339e+003, 9.042411e+001
1.189821e+003, 9.140562e+001
1.190303e+003, 9.207557e+001
1.190785e+003, 9.241738e+001
1.191267e+003, 9.259300e+001
1.191749e+003, 9.283940e+001
1.192232e+003, 9.203487e+001
1.192714e+003, 8.929179e+001
1.193196e+003, 8.770197e+001
1.193678e+003, 8.911257e+001
1.194160e+003, 9.153654e+001
1.194642e+003, 9.257710e+001
1.195124e+003, 9.256226e+001
1.195606e+003, 9.276460e+001
1.196089e+003, 9.316973e+001
1.196571e+003, 9.337163e+001
1.197053e+003, 9.336192e+001
1.197535e+003, 9.351070e+001
1.198017e+003, 9.387554e+001
1.198499e+003, 9.363958e+001
1.198981e+003, 9.224526e+001
1.199463e+003, 9.074557e+001
1.199945e+003, 9.052844e+001
1.200427e+003, 9.119833e+001
1.200910e+003, 9.229272e+001
1.201392e+003, 9.351749e+001
1.201874e+003, 9.418677e+001
1.202356e+003, 9.437971e+001
1.202838e+003, 9.454796e+001
1.203320e+003, 9.481296e+001
1.203802e+003, 9.494509e+001
1.204284e+003, 9.462462e+001
1.204767e+003, 9.470300e+001
1.205249e+003, 9.655018e+001
1.205731e+003, 9.828371e+001
1.206213e+003, 9.776870e+001
1.206695e+003, 9.664332e+001
1.207177e+003, 9.720374e+001
1.207659e+003, 9.888563e+001
1.208141e+003, 9.944764e+001
1.208624e+003, 9.833350e+001
1.209106e+003, 9.824057e+001
1.209588e+003, 1.012045e+002
1.210070e+003, 1.031577e+002
1.210552e+003, 1.020605e+002
1.211034e+003, 1.011951e+002
1.211516e+003, 1.023071e+002
1.211998e+003, 1.043649e+002
1.212480e+003, 1.067913e+002
1.212963e+003, 1.092220e+002
1.213445e+003, 1.101547e+002
1.213927e+003, 1.092504e+002
1.214409e+003, 1.084009e+002
1.214891e+003, 1.073035e+002
1.215373e+003, 1.075573e+002
1.215855e+003, 1.096259e+002
1.216337e+003, 1.123884e+002
1.216819e+003, 1.153689e+002
1.217302e+003, 1.180707e+002
1.217784e+003, 1.197528e+002
1.218266e+003, 1.208875e+002
1.218748e+003, 1.231060e+002
1.219230e+003, 1.261051e+002
1.219712e+003, 1.285635e+002
1.220194e+003, 1.303388e+002
1.220676e+003, 1.307415e+002
1.221159e+003, 1.299414e+002
1.221641e+003, 1.300288e+002
1.222123e+003, 1.321690e+002
1.222605e+003, 1.346124e+002
1.223087e+003, 1.358358e+002
1.223569e+003, 1.361944e+002
1.224051e+003, 1.356379e+002
1.224533e+003, 1.348115e+002
1.225016e+003, 1.345681e+002
1.225498e+003, 1.347298e+002
1.225980e+003, 1.352061e+002
1.226462e+003, 1.356681e+002
1.226944e+003, 1.345539e+002
1.227426e+003, 1.305665e+002
1.227908e+003, 1.272218e+002
1.228390e+003, 1.261405e+002
1.228872e+003, 1.254108e+002
1.229354e+003, 1.245405e+002
1.229837e+003, 1.234099e+002
1.230319e+003, 1.218544e+002
1.230801e+003, 1.200312e+002
1.231283e+003, 1.182159e+002
1.231765e+003, 1.164014e+002
1.232247e+003, 1.144829e+002
1.232729e+003, 1.122365e+002
1.233211e+003, 1.106110e+002
1.233694e+003, 1.097602e+002
1.234176e+003, 1.091892e+002
1.234658e+003, 1.088704e+002
1.235140e+003, 1.081888e+002
1.235622e+003, 1.066074e+002
1.236104e+003, 1.047674e+002
1.236586e+003, 1.037593e+002
1.237068e+003, 1.034384e+002
1.237551e+003, 1.033131e+002
1.238033e+003, 1.033088e+002
1.238515e+003, 1.029379e+002
1.238997e+003, 1.023149e+002
1.239479e+003, 1.022232e+002
1.239961e+003, 1.028427e+002
1.240443e+003, 1.037279e+002
1.240925e+003, 1.047039e+002
1.241407e+003, 1.052862e+002
1.241890e+003, 1.047118e+002
1.242372e+003, 1.038332e+002
1.242854e+003, 1.033588e+002
1.243336e+003, 1.031767e+002
1.243818e+003, 1.031921e+002
1.244300e+003, 1.033274e+002
1.244782e+003, 1.035301e+002
1.245264e+003, 1.037691e+002
1.245746e+003, 1.038000e+002
1.246229e+003, 1.032704e+002
1.246711e+003, 1.030646e+002
1.247193e+003, 1.035595e+002
1.247675e+003, 1.040959e+002
1.248157e+003, 1.046445e+002
1.248639e+003, 1.049108e+002
1.249121e+003, 1.044906e+002
1.249603e+003, 1.038418e+002
1.250085e+003, 1.037894e+002
1.250568e+003, 1.043096e+002
1.251050e+003, 1.051117e+002
1.251532e+003, 1.062852e+002
1.252014e+003, 1.066338e+002
1.252496e+003, 1.060359e+002
1.252978e+003, 1.055213e+002
1.253460e+003, 1.053996e+002
1.253942e+003, 1.053934e+002
1.254425e+003, 1.052888e+002
1.254907e+003, 1.054473e+002
1.255389e+003, 1.066027e+002
1.255871e+003, 1.081901e+002
1.256353e+003, 1.091844e+002
1.256835e+003, 1.097896e+002
1.257317e+003, 1.104807e+002
1.257799e+003, 1.110728e+002
1.258281e+003, 1.108572e+002
1.258764e+003, 1.098649e+002
1.259246e+003, 1.091379e+002
1.259728e+003, 1.092018e+002
1.260210e+003, 1.092610e+002
1.260692e+003, 1.088400e+002
1.261174e+003, 1.084676e+002
1.261656e+003, 1.081722e+002
1.262138e+003, 1.082466e+002
1.262620e+003, 1.091884e+002
1.263103e+003, 1.104857e+002
1.263585e+003, 1.113970e+002
1.264067e+003, 1.119222e+002
1.264549e+003, 1.119514e+002
1.265031e+003, 1.109768e+002
1.265513e+003, 1.114654e+002
1.265995e+003, 1.140087e+002
1.266477e+003, 1.152435e+002
1.266960e+003, 1.142378e+002
1.267442e+003, 1.131937e+002
1.267924e+003, 1.133850e+002
1.268406e+003, 1.136101e+002
1.268888e+003, 1.122024e+002
1.269370e+003, 1.102345e+002
1.269852e+003, 1.106506e+002
1.270334e+003, 1.122836e+002
1.270817e+003, 1.119917e+002
1.271299e+003, 1.103503e+002
1.271781e+003, 1.093575e+002
1.272263e+003, 1.092009e+002
1.272745e+003, 1.088257e+002
1.273227e+003, 1.078301e+002
1.273709e+003, 1.074368e+002
1.274191e+003, 1.092384e+002
1.274673e+003, 1.106213e+002
1.275156e+003, 1.096792e+002
1.275638e+003, 1.085678e+002
1.276120e+003, 1.090051e+002
1.276602e+003, 1.098322e+002
1.277084e+003, 1.096993e+002
1.277566e+003, 1.087620e+002
1.278048e+003, 1.075771e+002
1.278530e+003, 1.059710e+002
1.279012e+003, 1.058904e+002
1.279495e+003, 1.079170e+002
1.279977e+003, 1.093317e+002
1.280459e+003, 1.097926e+002
1.280941e+003, 1.099836e+002
1.281423e+003, 1.101596e+002
1.281905e+003, 1.099646e+002
1.282387e+003, 1.090389e+002
1.282869e+003, 1.080132e+002
1.283352e+003, 1.082548e+002
1.283834e+003, 1.090326e+002
1.284316e+003, 1.087729e+002
1.284798e+003, 1.074803e+002
##END=



