##NAMES=Polybasite
##RRUFFID=R061052
##IDEAL CHEMISTRY=Cu(Ag,Cu)_6_Ag_9_Sb_2_S_11_
##LOCALITY=Elsa, Yukon Territory, Canada
##OWNER=RRUFF
##SOURCE=Royal Ontario Museum
##DESCRIPTION=Metallic, iron-black with reddish hints; pseudohexagonal tabular crystals associated with hexagonal prisms of stephanite
##STATUS=The identification of this mineral is confirmed by single-crystal X-ray diffraction and chemical analysis.
##URL=rruff.info/R061052
##MEASURED CHEMISTRY=Cu_1.00_Ag_15.00_Sb_2.00_S_11.00_
8.806445e+001, 1.525432e+002
8.854657e+001, 1.514644e+002
8.902869e+001, 1.510970e+002
8.951080e+001, 1.522995e+002
8.999292e+001, 1.538412e+002
9.047504e+001, 1.544963e+002
9.095715e+001, 1.539545e+002
9.143927e+001, 1.524919e+002
9.192139e+001, 1.500916e+002
9.240350e+001, 1.467441e+002
9.288562e+001, 1.437879e+002
9.336774e+001, 1.410223e+002
9.384985e+001, 1.375003e+002
9.433197e+001, 1.327768e+002
9.481409e+001, 1.292303e+002
9.529620e+001, 1.253855e+002
9.577832e+001, 1.208553e+002
9.626044e+001, 1.156181e+002
9.674255e+001, 1.102077e+002
9.722467e+001, 1.051824e+002
9.770679e+001, 1.005072e+002
9.818890e+001, 9.616648e+001
9.867102e+001, 9.193504e+001
9.915314e+001, 8.798060e+001
9.963525e+001, 8.444123e+001
1.001174e+002, 8.136848e+001
1.005995e+002, 7.866904e+001
1.010816e+002, 7.601163e+001
1.015637e+002, 7.334190e+001
1.020458e+002, 7.073510e+001
1.025280e+002, 6.806370e+001
1.030101e+002, 6.545084e+001
1.034922e+002, 6.308239e+001
1.039743e+002, 6.110963e+001
1.044564e+002, 5.952523e+001
1.049385e+002, 5.806940e+001
1.054207e+002, 5.657715e+001
1.059028e+002, 5.529250e+001
1.063849e+002, 5.446355e+001
1.068670e+002, 5.405670e+001
1.073491e+002, 5.367540e+001
1.078312e+002, 5.294537e+001
1.083134e+002, 5.187484e+001
1.087955e+002, 5.076662e+001
1.092776e+002, 4.961382e+001
1.097597e+002, 4.845442e+001
1.102418e+002, 4.734686e+001
1.107239e+002, 4.630791e+001
1.112061e+002, 4.529840e+001
1.116882e+002, 4.435540e+001
1.121703e+002, 4.344165e+001
1.126524e+002, 4.239485e+001
1.131345e+002, 4.095307e+001
1.136166e+002, 3.915404e+001
1.140988e+002, 3.770563e+001
1.145809e+002, 3.694259e+001
1.150630e+002, 3.637688e+001
1.155451e+002, 3.579167e+001
1.160272e+002, 3.515859e+001
1.165093e+002, 3.452876e+001
1.169915e+002, 3.395955e+001
1.174736e+002, 3.345693e+001
1.179557e+002, 3.300906e+001
1.184378e+002, 3.261527e+001
1.189199e+002, 3.226485e+001
1.194020e+002, 3.194199e+001
1.198842e+002, 3.164353e+001
1.203663e+002, 3.138952e+001
1.208484e+002, 3.122396e+001
1.213305e+002, 3.109649e+001
1.218126e+002, 3.114353e+001
1.222947e+002, 3.156503e+001
1.227769e+002, 3.211660e+001
1.232590e+002, 3.248903e+001
1.237411e+002, 3.252155e+001
1.242232e+002, 3.226689e+001
1.247053e+002, 3.195617e+001
1.251874e+002, 3.142560e+001
1.256696e+002, 3.101880e+001
1.261517e+002, 3.092947e+001
1.266338e+002, 3.109767e+001
1.271159e+002, 3.127372e+001
1.275980e+002, 3.132137e+001
1.280801e+002, 3.124746e+001
1.285623e+002, 3.112762e+001
1.290444e+002, 3.090156e+001
1.295265e+002, 3.067396e+001
1.300086e+002, 3.057627e+001
1.304907e+002, 3.064042e+001
1.309728e+002, 3.067505e+001
1.314550e+002, 3.062905e+001
1.319371e+002, 3.046892e+001
1.324192e+002, 3.009940e+001
1.329013e+002, 2.937189e+001
1.333834e+002, 2.842549e+001
1.338655e+002, 2.766632e+001
1.343477e+002, 2.712685e+001
1.348298e+002, 2.676032e+001
1.353119e+002, 2.662175e+001
1.357940e+002, 2.661722e+001
1.362761e+002, 2.657628e+001
1.367582e+002, 2.635021e+001
1.372404e+002, 2.593262e+001
1.377225e+002, 2.562728e+001
1.382046e+002, 2.562233e+001
1.386867e+002, 2.557006e+001
1.391688e+002, 2.535749e+001
1.396509e+002, 2.499076e+001
1.401331e+002, 2.452867e+001
1.406152e+002, 2.399868e+001
1.410973e+002, 2.331582e+001
1.415794e+002, 2.292233e+001
1.420615e+002, 2.291604e+001
1.425436e+002, 2.305829e+001
1.430258e+002, 2.326537e+001
1.435079e+002, 2.349938e+001
1.439900e+002, 2.369332e+001
1.444721e+002, 2.376220e+001
1.449542e+002, 2.369618e+001
1.454363e+002, 2.347832e+001
1.459185e+002, 2.300306e+001
1.464006e+002, 2.241304e+001
1.468827e+002, 2.184309e+001
1.473648e+002, 2.131952e+001
1.478469e+002, 2.087824e+001
1.483290e+002, 2.061718e+001
1.488112e+002, 2.053635e+001
1.492933e+002, 2.048412e+001
1.497754e+002, 2.038880e+001
1.502575e+002, 2.027756e+001
1.507396e+002, 2.024948e+001
1.512217e+002, 2.040640e+001
1.517039e+002, 2.056904e+001
1.521860e+002, 2.051064e+001
1.526681e+002, 2.020889e+001
1.531502e+002, 1.986573e+001
1.536323e+002, 1.961010e+001
1.541144e+002, 1.944321e+001
1.545966e+002, 1.936023e+001
1.550787e+002, 1.948330e+001
1.555608e+002, 1.961758e+001
1.560429e+002, 1.960016e+001
1.565250e+002, 1.939350e+001
1.570071e+002, 1.914533e+001
1.574893e+002, 1.907072e+001
1.579714e+002, 1.923434e+001
1.584535e+002, 1.940404e+001
1.589356e+002, 1.951690e+001
1.594177e+002, 1.962930e+001
1.598998e+002, 1.981368e+001
1.603820e+002, 2.009506e+001
1.608641e+002, 2.039482e+001
1.613462e+002, 2.050974e+001
1.618283e+002, 2.019794e+001
1.623104e+002, 2.003926e+001
1.627925e+002, 2.019173e+001
1.632747e+002, 2.047585e+001
1.637568e+002, 2.067165e+001
1.642389e+002, 2.066448e+001
1.647210e+002, 2.054033e+001
1.652031e+002, 2.066561e+001
1.656852e+002, 2.140524e+001
1.661674e+002, 2.198258e+001
1.666495e+002, 2.219926e+001
1.671316e+002, 2.217580e+001
1.676137e+002, 2.211041e+001
1.680958e+002, 2.210674e+001
1.685779e+002, 2.216448e+001
1.690601e+002, 2.227862e+001
1.695422e+002, 2.250099e+001
1.700243e+002, 2.271398e+001
1.705064e+002, 2.287230e+001
1.709885e+002, 2.298142e+001
1.714706e+002, 2.305918e+001
1.719528e+002, 2.308803e+001
1.724349e+002, 2.310417e+001
1.729170e+002, 2.323267e+001
1.733991e+002, 2.360556e+001
1.738812e+002, 2.398585e+001
1.743633e+002, 2.418023e+001
1.748455e+002, 2.418534e+001
1.753276e+002, 2.415168e+001
1.758097e+002, 2.417387e+001
1.762918e+002, 2.421829e+001
1.767739e+002, 2.422425e+001
1.772560e+002, 2.416811e+001
1.777382e+002, 2.407585e+001
1.782203e+002, 2.395580e+001
1.787024e+002, 2.377300e+001
1.791845e+002, 2.368310e+001
1.796666e+002, 2.386087e+001
1.801487e+002, 2.415515e+001
1.806309e+002, 2.437898e+001
1.811130e+002, 2.445355e+001
1.815951e+002, 2.440773e+001
1.820772e+002, 2.429953e+001
1.825593e+002, 2.404158e+001
1.830414e+002, 2.387404e+001
1.835236e+002, 2.396758e+001
1.840057e+002, 2.417210e+001
1.844878e+002, 2.425757e+001
1.849699e+002, 2.405061e+001
1.854520e+002, 2.362177e+001
1.859341e+002, 2.343165e+001
1.864163e+002, 2.375997e+001
1.868984e+002, 2.403130e+001
1.873805e+002, 2.405325e+001
1.878626e+002, 2.393011e+001
1.883447e+002, 2.385969e+001
1.888268e+002, 2.399541e+001
1.893090e+002, 2.432676e+001
1.897911e+002, 2.450095e+001
1.902732e+002, 2.437603e+001
1.907553e+002, 2.423907e+001
1.912374e+002, 2.414209e+001
1.917195e+002, 2.409321e+001
1.922017e+002, 2.408808e+001
1.926838e+002, 2.412418e+001
1.931659e+002, 2.420245e+001
1.936480e+002, 2.431462e+001
1.941301e+002, 2.451019e+001
1.946122e+002, 2.468517e+001
1.950944e+002, 2.478066e+001
1.955765e+002, 2.481037e+001
1.960586e+002, 2.483472e+001
1.965407e+002, 2.490477e+001
1.970228e+002, 2.502259e+001
1.975049e+002, 2.510730e+001
1.979871e+002, 2.513712e+001
1.984692e+002, 2.515557e+001
1.989513e+002, 2.517524e+001
1.994334e+002, 2.520092e+001
1.999155e+002, 2.525904e+001
2.003976e+002, 2.539028e+001
2.008798e+002, 2.558500e+001
2.013619e+002, 2.571520e+001
2.018440e+002, 2.569974e+001
2.023261e+002, 2.566590e+001
2.028082e+002, 2.578040e+001
2.032903e+002, 2.606076e+001
2.037725e+002, 2.625605e+001
2.042546e+002, 2.607376e+001
2.047367e+002, 2.564132e+001
2.052188e+002, 2.532404e+001
2.057009e+002, 2.526138e+001
2.061830e+002, 2.531842e+001
2.066652e+002, 2.533237e+001
2.071473e+002, 2.530326e+001
2.076294e+002, 2.522247e+001
2.081115e+002, 2.504615e+001
2.085936e+002, 2.481883e+001
2.090757e+002, 2.460542e+001
2.095579e+002, 2.444052e+001
2.100400e+002, 2.430043e+001
2.105221e+002, 2.412435e+001
2.110042e+002, 2.387918e+001
2.114863e+002, 2.367587e+001
2.119685e+002, 2.361860e+001
2.124506e+002, 2.362488e+001
2.129327e+002, 2.356711e+001
2.134148e+002, 2.334901e+001
2.138969e+002, 2.304174e+001
2.143790e+002, 2.288229e+001
2.148612e+002, 2.298242e+001
2.153433e+002, 2.304828e+001
2.158254e+002, 2.289042e+001
2.163075e+002, 2.265729e+001
2.167896e+002, 2.256665e+001
2.172717e+002, 2.276701e+001
2.177539e+002, 2.318189e+001
2.182360e+002, 2.346718e+001
2.187181e+002, 2.356941e+001
2.192002e+002, 2.359381e+001
2.196823e+002, 2.351132e+001
2.201644e+002, 2.338541e+001
2.206466e+002, 2.330017e+001
2.211287e+002, 2.330766e+001
2.216108e+002, 2.339366e+001
2.220929e+002, 2.347754e+001
2.225750e+002, 2.352414e+001
2.230571e+002, 2.361086e+001
2.235393e+002, 2.380499e+001
2.240214e+002, 2.403631e+001
2.245035e+002, 2.419274e+001
2.249856e+002, 2.419975e+001
2.254677e+002, 2.409224e+001
2.259498e+002, 2.409122e+001
2.264320e+002, 2.443283e+001
2.269141e+002, 2.462347e+001
2.273962e+002, 2.447179e+001
2.278783e+002, 2.413278e+001
2.283604e+002, 2.385141e+001
2.288425e+002, 2.377229e+001
2.293247e+002, 2.385530e+001
2.298068e+002, 2.386890e+001
2.302889e+002, 2.375948e+001
2.307710e+002, 2.364757e+001
2.312531e+002, 2.352194e+001
2.317352e+002, 2.341341e+001
2.322174e+002, 2.339236e+001
2.326995e+002, 2.351084e+001
2.331816e+002, 2.371652e+001
2.336637e+002, 2.376935e+001
2.341458e+002, 2.356989e+001
2.346279e+002, 2.336448e+001
2.351101e+002, 2.323650e+001
2.355922e+002, 2.314478e+001
2.360743e+002, 2.300626e+001
2.365564e+002, 2.278021e+001
2.370385e+002, 2.248366e+001
2.375206e+002, 2.217129e+001
2.380028e+002, 2.180534e+001
2.384849e+002, 2.148070e+001
2.389670e+002, 2.126233e+001
2.394491e+002, 2.111134e+001
2.399312e+002, 2.093274e+001
2.404133e+002, 2.068117e+001
2.408955e+002, 2.039175e+001
2.413776e+002, 2.015078e+001
2.418597e+002, 1.999684e+001
2.423418e+002, 1.979437e+001
2.428239e+002, 1.944860e+001
2.433060e+002, 1.900741e+001
2.437882e+002, 1.858355e+001
2.442703e+002, 1.818637e+001
2.447524e+002, 1.787713e+001
2.452345e+002, 1.777767e+001
2.457166e+002, 1.792854e+001
2.461987e+002, 1.805317e+001
2.466809e+002, 1.803402e+001
2.471630e+002, 1.788428e+001
2.476451e+002, 1.763332e+001
2.481272e+002, 1.725735e+001
2.486093e+002, 1.682501e+001
2.490914e+002, 1.640166e+001
2.495736e+002, 1.598670e+001
2.500557e+002, 1.562557e+001
2.505378e+002, 1.536025e+001
2.510199e+002, 1.517587e+001
2.515020e+002, 1.501130e+001
2.519841e+002, 1.486016e+001
2.524663e+002, 1.472005e+001
2.529484e+002, 1.458960e+001
2.534305e+002, 1.446789e+001
2.539126e+002, 1.434158e+001
2.543947e+002, 1.418473e+001
2.548768e+002, 1.401047e+001
2.553590e+002, 1.389312e+001
2.558411e+002, 1.388596e+001
2.563232e+002, 1.387261e+001
2.568053e+002, 1.374491e+001
2.572874e+002, 1.353603e+001
2.577695e+002, 1.336521e+001
2.582516e+002, 1.334599e+001
2.587338e+002, 1.344147e+001
2.592159e+002, 1.345398e+001
2.596980e+002, 1.336373e+001
2.601801e+002, 1.320204e+001
2.606622e+002, 1.294872e+001
2.611443e+002, 1.264678e+001
2.616265e+002, 1.238931e+001
2.621086e+002, 1.222711e+001
2.625907e+002, 1.215433e+001
2.630728e+002, 1.216298e+001
2.635549e+002, 1.233689e+001
2.640370e+002, 1.246181e+001
2.645192e+002, 1.242281e+001
2.650013e+002, 1.228855e+001
2.654834e+002, 1.217443e+001
2.659655e+002, 1.215456e+001
2.664476e+002, 1.219220e+001
2.669297e+002, 1.215129e+001
2.674119e+002, 1.198385e+001
2.678940e+002, 1.181154e+001
2.683761e+002, 1.164720e+001
2.688582e+002, 1.150804e+001
2.693403e+002, 1.141694e+001
2.698224e+002, 1.138844e+001
2.703046e+002, 1.140762e+001
2.707867e+002, 1.143427e+001
2.712688e+002, 1.146537e+001
2.717509e+002, 1.151123e+001
2.722330e+002, 1.160451e+001
2.727151e+002, 1.169762e+001
2.731973e+002, 1.173707e+001
2.736794e+002, 1.170033e+001
2.741615e+002, 1.162178e+001
2.746436e+002, 1.157162e+001
2.751257e+002, 1.155574e+001
2.756078e+002, 1.156003e+001
2.760900e+002, 1.160889e+001
2.765721e+002, 1.165781e+001
2.770542e+002, 1.166327e+001
2.775363e+002, 1.161450e+001
2.780184e+002, 1.154343e+001
2.785005e+002, 1.149658e+001
2.789827e+002, 1.145627e+001
2.794648e+002, 1.148648e+001
2.799469e+002, 1.161680e+001
2.804290e+002, 1.178638e+001
2.809111e+002, 1.198029e+001
2.813932e+002, 1.218346e+001
2.818754e+002, 1.235576e+001
2.823575e+002, 1.242538e+001
2.828396e+002, 1.231686e+001
2.833217e+002, 1.232774e+001
2.838038e+002, 1.255243e+001
2.842859e+002, 1.280170e+001
2.847681e+002, 1.297403e+001
2.852502e+002, 1.306664e+001
2.857323e+002, 1.313689e+001
2.862144e+002, 1.324641e+001
2.866965e+002, 1.340820e+001
2.871786e+002, 1.353430e+001
2.876608e+002, 1.354646e+001
2.881429e+002, 1.359927e+001
2.886250e+002, 1.377919e+001
2.891071e+002, 1.405985e+001
2.895892e+002, 1.434664e+001
2.900714e+002, 1.455177e+001
2.905535e+002, 1.467096e+001
2.910356e+002, 1.494535e+001
2.915177e+002, 1.555919e+001
2.919998e+002, 1.613255e+001
2.924819e+002, 1.653924e+001
2.929641e+002, 1.683178e+001
2.934462e+002, 1.711883e+001
2.939283e+002, 1.747035e+001
2.944104e+002, 1.787838e+001
2.948925e+002, 1.830265e+001
2.953746e+002, 1.879401e+001
2.958568e+002, 1.924408e+001
2.963389e+002, 1.964356e+001
2.968210e+002, 1.999292e+001
2.973031e+002, 2.027871e+001
2.977852e+002, 2.049410e+001
2.982673e+002, 2.067294e+001
2.987495e+002, 2.091741e+001
2.992316e+002, 2.148261e+001
2.997137e+002, 2.178034e+001
3.001958e+002, 2.162472e+001
3.006779e+002, 2.127309e+001
3.011600e+002, 2.096197e+001
3.016422e+002, 2.077344e+001
3.021243e+002, 2.066898e+001
3.026064e+002, 2.058849e+001
3.030885e+002, 2.060906e+001
3.035706e+002, 2.050654e+001
3.040527e+002, 2.017318e+001
3.045349e+002, 1.980034e+001
3.050170e+002, 1.952044e+001
3.054991e+002, 1.936136e+001
3.059812e+002, 1.928411e+001
3.064633e+002, 1.924534e+001
3.069454e+002, 1.925383e+001
3.074276e+002, 1.927490e+001
3.079097e+002, 1.931443e+001
3.083918e+002, 1.935907e+001
3.088739e+002, 1.934405e+001
3.093560e+002, 1.930896e+001
3.098381e+002, 1.939085e+001
3.103203e+002, 1.972321e+001
3.108024e+002, 2.032088e+001
3.112845e+002, 2.091392e+001
3.117666e+002, 2.141457e+001
3.122487e+002, 2.200000e+001
3.127308e+002, 2.275378e+001
3.132130e+002, 2.364493e+001
3.136951e+002, 2.457968e+001
3.141772e+002, 2.548703e+001
3.146593e+002, 2.640200e+001
3.151414e+002, 2.754494e+001
3.156235e+002, 2.912816e+001
3.161057e+002, 3.070492e+001
3.165878e+002, 3.227711e+001
3.170699e+002, 3.378092e+001
3.175520e+002, 3.511859e+001
3.180341e+002, 3.624272e+001
3.185162e+002, 3.722934e+001
3.189984e+002, 3.825736e+001
3.194805e+002, 3.930059e+001
3.199626e+002, 4.043103e+001
3.204447e+002, 4.164610e+001
3.209268e+002, 4.294679e+001
3.214089e+002, 4.432394e+001
3.218911e+002, 4.578168e+001
3.223732e+002, 4.733559e+001
3.228553e+002, 4.900717e+001
3.233374e+002, 5.070424e+001
3.238195e+002, 5.277599e+001
3.243016e+002, 5.526114e+001
3.247838e+002, 5.801785e+001
3.252659e+002, 6.087687e+001
3.257480e+002, 6.388254e+001
3.262301e+002, 6.723569e+001
3.267122e+002, 7.118538e+001
3.271943e+002, 7.577752e+001
3.276765e+002, 8.047466e+001
3.281586e+002, 8.489783e+001
3.286407e+002, 8.975668e+001
3.291228e+002, 9.540471e+001
3.296049e+002, 1.017199e+002
3.300870e+002, 1.084503e+002
3.305692e+002, 1.154563e+002
3.310513e+002, 1.227120e+002
3.315334e+002, 1.298730e+002
3.320155e+002, 1.376535e+002
3.324976e+002, 1.445779e+002
3.329797e+002, 1.509863e+002
3.334619e+002, 1.562411e+002
3.339440e+002, 1.598250e+002
3.344261e+002, 1.615071e+002
3.349082e+002, 1.608982e+002
3.353904e+002, 1.569407e+002
3.358725e+002, 1.477255e+002
3.363546e+002, 1.378591e+002
3.368367e+002, 1.271178e+002
3.373188e+002, 1.161048e+002
3.378009e+002, 1.050844e+002
3.382831e+002, 9.424577e+001
3.387652e+002, 8.392944e+001
3.392473e+002, 7.467200e+001
3.397294e+002, 6.650723e+001
3.402115e+002, 5.926746e+001
3.406936e+002, 5.300850e+001
3.411758e+002, 4.746693e+001
3.416579e+002, 4.261939e+001
3.421400e+002, 3.838581e+001
3.426221e+002, 3.467511e+001
3.431042e+002, 3.142252e+001
3.435863e+002, 2.862746e+001
3.440685e+002, 2.613447e+001
3.445506e+002, 2.407766e+001
3.450327e+002, 2.223615e+001
3.455148e+002, 2.060380e+001
3.459969e+002, 1.915846e+001
3.464790e+002, 1.789256e+001
3.469612e+002, 1.679824e+001
3.474433e+002, 1.586136e+001
3.479254e+002, 1.501595e+001
3.484075e+002, 1.429715e+001
3.488896e+002, 1.363391e+001
3.493717e+002, 1.297684e+001
3.498539e+002, 1.238728e+001
3.503360e+002, 1.194468e+001
3.508181e+002, 1.166784e+001
3.513002e+002, 1.144865e+001
3.517823e+002, 1.111457e+001
3.522644e+002, 1.061076e+001
3.527466e+002, 1.017316e+001
3.532287e+002, 9.819085e+000
3.537108e+002, 9.526919e+000
3.541929e+002, 9.292451e+000
3.546750e+002, 9.112729e+000
3.551571e+002, 8.986222e+000
3.556393e+002, 8.945094e+000
3.561214e+002, 8.987829e+000
3.566035e+002, 8.896815e+000
3.570856e+002, 8.556210e+000
3.575677e+002, 8.213646e+000
3.580498e+002, 7.917364e+000
3.585320e+002, 7.685849e+000
3.590141e+002, 7.552020e+000
3.594962e+002, 7.551196e+000
3.599783e+002, 7.634346e+000
3.604604e+002, 7.682695e+000
3.609425e+002, 7.713861e+000
3.614247e+002, 7.664629e+000
3.619068e+002, 7.463798e+000
3.623889e+002, 7.209006e+000
3.628710e+002, 6.977371e+000
3.633531e+002, 6.788836e+000
3.638352e+002, 6.640773e+000
3.643174e+002, 6.535852e+000
3.647995e+002, 6.476952e+000
3.652816e+002, 6.431412e+000
3.657637e+002, 6.407870e+000
3.662458e+002, 6.383936e+000
3.667279e+002, 6.354277e+000
3.672101e+002, 6.314915e+000
3.676922e+002, 6.249240e+000
3.681743e+002, 6.128306e+000
3.686564e+002, 5.966762e+000
3.691385e+002, 5.844181e+000
3.696206e+002, 5.800960e+000
3.701028e+002, 5.719925e+000
3.705849e+002, 5.448915e+000
3.710670e+002, 5.103216e+000
3.715491e+002, 4.904215e+000
3.720312e+002, 4.989774e+000
3.725133e+002, 5.195893e+000
3.729955e+002, 5.292638e+000
3.734776e+002, 5.270088e+000
3.739597e+002, 5.231946e+000
3.744418e+002, 5.231995e+000
3.749239e+002, 5.230766e+000
3.754060e+002, 5.175193e+000
3.758882e+002, 5.051382e+000
3.763703e+002, 4.914140e+000
3.768524e+002, 4.768486e+000
3.773345e+002, 4.632660e+000
3.778166e+002, 4.598158e+000
3.782987e+002, 4.728485e+000
3.787809e+002, 4.886604e+000
3.792630e+002, 4.893822e+000
3.797451e+002, 4.771782e+000
3.802272e+002, 4.699678e+000
3.807093e+002, 4.796418e+000
3.811914e+002, 4.947538e+000
3.816736e+002, 5.001104e+000
3.821557e+002, 4.943541e+000
3.826378e+002, 4.837346e+000
3.831199e+002, 4.705519e+000
3.836020e+002, 4.560098e+000
3.840841e+002, 4.450135e+000
3.845663e+002, 4.398302e+000
3.850484e+002, 4.359876e+000
3.855305e+002, 4.299020e+000
3.860126e+002, 4.228786e+000
3.864947e+002, 4.188468e+000
3.869768e+002, 4.192948e+000
3.874590e+002, 4.238711e+000
3.879411e+002, 4.351523e+000
3.884232e+002, 4.613208e+000
3.889053e+002, 4.701604e+000
3.893874e+002, 4.373843e+000
3.898695e+002, 3.924992e+000
3.903517e+002, 3.712045e+000
3.908338e+002, 3.795643e+000
3.913159e+002, 3.974501e+000
3.917980e+002, 4.052535e+000
3.922801e+002, 4.016599e+000
3.927622e+002, 3.960723e+000
3.932444e+002, 3.841456e+000
3.937265e+002, 3.744992e+000
3.942086e+002, 3.697222e+000
3.946907e+002, 3.707508e+000
3.951728e+002, 3.814896e+000
3.956549e+002, 4.057895e+000
3.961371e+002, 4.373503e+000
3.966192e+002, 4.499960e+000
3.971013e+002, 4.297392e+000
3.975834e+002, 4.071273e+000
3.980655e+002, 3.758538e+000
3.985476e+002, 3.475060e+000
3.990298e+002, 3.357235e+000
3.995119e+002, 3.432641e+000
3.999940e+002, 3.598277e+000
4.004761e+002, 3.721251e+000
4.009582e+002, 3.796046e+000
4.014403e+002, 3.844188e+000
4.019225e+002, 3.865832e+000
4.024046e+002, 3.864754e+000
4.028867e+002, 3.828347e+000
4.033688e+002, 3.769741e+000
4.038509e+002, 3.714004e+000
4.043330e+002, 3.675033e+000
4.048152e+002, 3.656242e+000
4.052973e+002, 3.683284e+000
4.057794e+002, 3.833810e+000
4.062615e+002, 3.910250e+000
4.067436e+002, 3.841604e+000
4.072257e+002, 3.706872e+000
4.077079e+002, 3.570348e+000
4.081900e+002, 3.453562e+000
4.086721e+002, 3.371962e+000
4.091542e+002, 3.370607e+000
4.096363e+002, 3.477415e+000
4.101184e+002, 3.503617e+000
4.106006e+002, 3.312944e+000
4.110827e+002, 3.143135e+000
4.115648e+002, 3.153390e+000
4.120469e+002, 3.299504e+000
4.125290e+002, 3.410267e+000
4.130111e+002, 3.335448e+000
4.134933e+002, 3.148158e+000
4.139754e+002, 3.103109e+000
4.144575e+002, 3.260161e+000
4.149396e+002, 3.400114e+000
4.154217e+002, 3.378371e+000
4.159038e+002, 3.295403e+000
4.163860e+002, 3.278061e+000
4.168681e+002, 3.379838e+000
4.173502e+002, 3.469334e+000
4.178323e+002, 3.362434e+000
4.183144e+002, 3.093337e+000
4.187965e+002, 2.975045e+000
4.192787e+002, 3.146919e+000
4.197608e+002, 3.406841e+000
4.202429e+002, 3.534578e+000
4.207250e+002, 3.540925e+000
4.212071e+002, 3.530985e+000
4.216892e+002, 3.556532e+000
4.221714e+002, 3.579166e+000
4.226535e+002, 3.540887e+000
4.231356e+002, 3.437406e+000
4.236177e+002, 3.310398e+000
4.240998e+002, 3.162133e+000
4.245819e+002, 3.018264e+000
4.250641e+002, 2.972057e+000
4.255462e+002, 3.085248e+000
4.260283e+002, 3.215163e+000
4.265104e+002, 3.335784e+000
4.269925e+002, 3.425585e+000
4.274746e+002, 3.415738e+000
4.279568e+002, 3.272884e+000
4.284389e+002, 3.109140e+000
4.289210e+002, 3.108510e+000
4.294031e+002, 3.383510e+000
4.298852e+002, 3.494801e+000
4.303673e+002, 3.301983e+000
4.308495e+002, 3.057176e+000
4.313316e+002, 2.914393e+000
4.318137e+002, 2.881873e+000
4.322958e+002, 2.911563e+000
4.327779e+002, 2.973891e+000
4.332600e+002, 3.065043e+000
4.337422e+002, 3.152751e+000
4.342243e+002, 3.281259e+000
4.347064e+002, 3.351454e+000
4.351885e+002, 3.335415e+000
4.356706e+002, 3.261776e+000
4.361527e+002, 3.127383e+000
4.366349e+002, 2.943398e+000
4.371170e+002, 2.792116e+000
4.375991e+002, 2.816815e+000
4.380812e+002, 3.096692e+000
4.385633e+002, 3.260195e+000
4.390454e+002, 3.241117e+000
4.395276e+002, 3.164116e+000
4.400097e+002, 3.019337e+000
4.404918e+002, 2.855275e+000
4.409739e+002, 2.765969e+000
4.414560e+002, 2.824859e+000
4.419381e+002, 2.979307e+000
4.424203e+002, 3.077415e+000
4.429024e+002, 3.103115e+000
4.433845e+002, 3.113648e+000
4.438666e+002, 3.136692e+000
4.443487e+002, 3.145611e+000
4.448308e+002, 3.104910e+000
4.453130e+002, 3.008992e+000
4.457951e+002, 2.917869e+000
4.462772e+002, 2.873871e+000
4.467593e+002, 2.875413e+000
4.472414e+002, 2.930019e+000
4.477235e+002, 3.074315e+000
4.482057e+002, 3.196631e+000
4.486878e+002, 3.175324e+000
4.491699e+002, 3.066087e+000
4.496520e+002, 2.998118e+000
4.501341e+002, 3.019386e+000
4.506162e+002, 3.079909e+000
4.510984e+002, 3.151696e+000
4.515805e+002, 3.229272e+000
4.520626e+002, 3.279500e+000
4.525447e+002, 3.291043e+000
4.530268e+002, 3.265224e+000
4.535089e+002, 3.172810e+000
4.539911e+002, 2.971878e+000
4.544732e+002, 2.892462e+000
4.549553e+002, 3.169431e+000
4.554374e+002, 3.486731e+000
4.559195e+002, 3.437923e+000
4.564016e+002, 3.018741e+000
4.568838e+002, 2.622229e+000
4.573659e+002, 2.581788e+000
4.578480e+002, 2.870704e+000
4.583301e+002, 2.988508e+000
4.588122e+002, 2.742409e+000
4.592943e+002, 2.582528e+000
4.597765e+002, 2.707309e+000
4.602586e+002, 2.949029e+000
4.607407e+002, 3.064597e+000
4.612228e+002, 2.978507e+000
4.617049e+002, 2.831539e+000
4.621870e+002, 2.851495e+000
4.626692e+002, 3.140408e+000
4.631513e+002, 3.266561e+000
4.636334e+002, 3.073949e+000
4.641155e+002, 2.881221e+000
4.645976e+002, 2.856406e+000
4.650797e+002, 2.938240e+000
4.655619e+002, 2.955447e+000
4.660440e+002, 2.787708e+000
4.665261e+002, 2.526654e+000
4.670082e+002, 2.433418e+000
4.674903e+002, 2.552601e+000
4.679724e+002, 2.718723e+000
4.684546e+002, 2.984462e+000
4.689367e+002, 3.219270e+000
4.694188e+002, 3.308936e+000
4.699009e+002, 3.248595e+000
4.703830e+002, 3.147255e+000
4.708651e+002, 3.064011e+000
4.713473e+002, 3.004437e+000
4.718294e+002, 2.999439e+000
4.723115e+002, 3.068738e+000
4.727936e+002, 3.137325e+000
4.732757e+002, 3.158600e+000
4.737578e+002, 3.144240e+000
4.742400e+002, 3.111726e+000
4.747221e+002, 3.055023e+000
4.752042e+002, 2.994275e+000
4.756863e+002, 2.937122e+000
4.761684e+002, 2.886387e+000
4.766505e+002, 2.850984e+000
4.771327e+002, 2.833743e+000
4.776148e+002, 2.831191e+000
4.780969e+002, 2.845483e+000
4.785790e+002, 2.881780e+000
4.790611e+002, 2.891695e+000
4.795432e+002, 2.850948e+000
4.800254e+002, 2.802358e+000
4.805075e+002, 2.753073e+000
4.809896e+002, 2.717378e+000
4.814717e+002, 2.736907e+000
4.819538e+002, 2.839686e+000
4.824359e+002, 2.990119e+000
4.829181e+002, 3.083666e+000
4.834002e+002, 3.019340e+000
4.838823e+002, 3.049224e+000
4.843644e+002, 3.287269e+000
4.848465e+002, 3.532192e+000
4.853286e+002, 3.633646e+000
4.858108e+002, 3.589340e+000
4.862929e+002, 3.487052e+000
4.867750e+002, 3.388478e+000
4.872571e+002, 3.298664e+000
4.877392e+002, 3.262147e+000
4.882213e+002, 3.305509e+000
4.887035e+002, 3.361137e+000
4.891856e+002, 3.456285e+000
4.896677e+002, 3.529328e+000
4.901498e+002, 3.492934e+000
4.906319e+002, 3.326114e+000
4.911140e+002, 3.152487e+000
4.915962e+002, 3.100430e+000
4.920783e+002, 3.157144e+000
4.925604e+002, 3.230969e+000
4.930425e+002, 3.341986e+000
4.935246e+002, 3.409990e+000
4.940067e+002, 3.325705e+000
4.944889e+002, 3.155363e+000
4.949710e+002, 3.046328e+000
4.954531e+002, 3.034444e+000
4.959352e+002, 3.090746e+000
4.964173e+002, 3.271097e+000
4.968994e+002, 3.516341e+000
4.973816e+002, 3.580663e+000
4.978637e+002, 3.348842e+000
4.983458e+002, 3.015396e+000
4.988279e+002, 2.867168e+000
4.993100e+002, 2.951646e+000
4.997921e+002, 2.985295e+000
5.002743e+002, 2.917298e+000
5.007564e+002, 2.823533e+000
5.012385e+002, 2.737083e+000
5.017206e+002, 2.666926e+000
5.022027e+002, 2.629427e+000
5.026848e+002, 2.635568e+000
5.031670e+002, 2.671005e+000
5.036491e+002, 2.691327e+000
5.041312e+002, 2.658325e+000
5.046133e+002, 2.675077e+000
5.050954e+002, 2.801927e+000
5.055775e+002, 2.929169e+000
5.060597e+002, 2.979653e+000
5.065418e+002, 2.955892e+000
5.070239e+002, 2.906453e+000
5.075060e+002, 2.864212e+000
5.079881e+002, 2.829464e+000
5.084702e+002, 2.804366e+000
5.089524e+002, 2.791532e+000
5.094345e+002, 2.782590e+000
5.099166e+002, 2.743582e+000
5.103987e+002, 2.725189e+000
5.108808e+002, 2.806896e+000
5.113629e+002, 3.001832e+000
5.118451e+002, 3.153151e+000
5.123271e+002, 3.102001e+000
5.128093e+002, 2.918221e+000
5.132914e+002, 2.800966e+000
5.137735e+002, 2.774920e+000
5.142556e+002, 2.780842e+000
5.147377e+002, 2.780350e+000
5.152198e+002, 2.781472e+000
5.157020e+002, 2.809377e+000
5.161841e+002, 2.886946e+000
5.166662e+002, 2.959053e+000
5.171483e+002, 3.011446e+000
5.176304e+002, 3.039640e+000
5.181125e+002, 3.024020e+000
5.185947e+002, 2.961267e+000
5.190768e+002, 2.898888e+000
5.195589e+002, 2.894659e+000
5.200410e+002, 2.960400e+000
5.205231e+002, 2.968446e+000
5.210052e+002, 2.871294e+000
5.214874e+002, 2.779409e+000
5.219695e+002, 2.729589e+000
5.224516e+002, 2.705525e+000
5.229337e+002, 2.678046e+000
5.234158e+002, 2.637019e+000
5.238979e+002, 2.603833e+000
5.243801e+002, 2.622103e+000
5.248622e+002, 2.710746e+000
5.253443e+002, 2.751239e+000
5.258264e+002, 2.728124e+000
5.263085e+002, 2.665914e+000
5.267906e+002, 2.513894e+000
5.272728e+002, 2.341103e+000
5.277549e+002, 2.284404e+000
5.282370e+002, 2.426262e+000
5.287191e+002, 2.645047e+000
5.292012e+002, 2.808812e+000
5.296833e+002, 2.916908e+000
5.301655e+002, 2.942479e+000
5.306476e+002, 2.830242e+000
5.311297e+002, 2.713728e+000
5.316118e+002, 2.797477e+000
5.320939e+002, 3.046062e+000
5.325760e+002, 3.173355e+000
5.330582e+002, 3.008438e+000
5.335403e+002, 2.800017e+000
5.340224e+002, 2.767389e+000
5.345045e+002, 2.854972e+000
5.349866e+002, 2.860698e+000
5.354688e+002, 2.687176e+000
5.359509e+002, 2.447743e+000
5.364330e+002, 2.359491e+000
5.369151e+002, 2.519054e+000
5.373972e+002, 2.603571e+000
5.378793e+002, 2.546118e+000
5.383615e+002, 2.482867e+000
5.388436e+002, 2.488761e+000
5.393257e+002, 2.550505e+000
5.398078e+002, 2.626106e+000
5.402899e+002, 2.694380e+000
5.407720e+002, 2.750262e+000
5.412542e+002, 2.785118e+000
5.417363e+002, 2.803391e+000
5.422184e+002, 2.784142e+000
5.427005e+002, 2.673440e+000
5.431826e+002, 2.567345e+000
5.436647e+002, 2.539372e+000
5.441469e+002, 2.570268e+000
5.446290e+002, 2.572065e+000
5.451111e+002, 2.447723e+000
5.455932e+002, 2.308161e+000
5.460753e+002, 2.365990e+000
5.465574e+002, 2.611999e+000
5.470396e+002, 2.780036e+000
5.475217e+002, 2.761816e+000
5.480038e+002, 2.630865e+000
5.484859e+002, 2.472324e+000
5.489680e+002, 2.277367e+000
5.494501e+002, 2.137741e+000
5.499323e+002, 2.033215e+000
5.504144e+002, 2.019151e+000
5.508965e+002, 2.215561e+000
5.513786e+002, 2.553538e+000
5.518607e+002, 2.809447e+000
5.523428e+002, 2.860259e+000
5.528250e+002, 2.771134e+000
5.533071e+002, 2.699309e+000
5.537892e+002, 2.637310e+000
5.542713e+002, 2.608313e+000
5.547534e+002, 2.654742e+000
5.552355e+002, 2.691243e+000
5.557177e+002, 2.661265e+000
5.561998e+002, 2.579322e+000
5.566819e+002, 2.487587e+000
5.571640e+002, 2.401442e+000
5.576461e+002, 2.342081e+000
5.581282e+002, 2.382351e+000
5.586104e+002, 2.548385e+000
5.590925e+002, 2.641283e+000
5.595746e+002, 2.559994e+000
5.600567e+002, 2.440881e+000
5.605388e+002, 2.414217e+000
5.610209e+002, 2.467268e+000
5.615031e+002, 2.504153e+000
5.619852e+002, 2.465215e+000
5.624673e+002, 2.411117e+000
5.629494e+002, 2.415918e+000
5.634315e+002, 2.466504e+000
5.639136e+002, 2.487852e+000
5.643958e+002, 2.441126e+000
5.648779e+002, 2.376777e+000
5.653600e+002, 2.385160e+000
5.658421e+002, 2.504777e+000
5.663242e+002, 2.588755e+000
5.668063e+002, 2.645755e+000
5.672885e+002, 2.660162e+000
5.677706e+002, 2.587666e+000
5.682527e+002, 2.469742e+000
5.687348e+002, 2.383314e+000
5.692169e+002, 2.365071e+000
5.696990e+002, 2.407947e+000
5.701812e+002, 2.518531e+000
5.706633e+002, 2.731613e+000
5.711454e+002, 2.869946e+000
5.716275e+002, 2.894417e+000
5.721096e+002, 2.863861e+000
5.725917e+002, 2.784778e+000
5.730739e+002, 2.676118e+000
5.735560e+002, 2.576073e+000
5.740381e+002, 2.496970e+000
5.745202e+002, 2.435379e+000
5.750023e+002, 2.394614e+000
5.754844e+002, 2.370666e+000
5.759666e+002, 2.339320e+000
5.764487e+002, 2.291179e+000
5.769308e+002, 2.245713e+000
5.774129e+002, 2.229361e+000
5.778950e+002, 2.242594e+000
5.783771e+002, 2.230890e+000
5.788593e+002, 2.152182e+000
5.793414e+002, 2.092310e+000
5.798235e+002, 2.088747e+000
5.803056e+002, 2.129890e+000
5.807877e+002, 2.208142e+000
5.812698e+002, 2.317406e+000
5.817520e+002, 2.423127e+000
5.822341e+002, 2.478111e+000
5.827162e+002, 2.475917e+000
5.831984e+002, 2.490153e+000
5.836805e+002, 2.565642e+000
5.841626e+002, 2.599830e+000
5.846447e+002, 2.557388e+000
5.851268e+002, 2.463233e+000
5.856089e+002, 2.321008e+000
5.860911e+002, 2.130225e+000
5.865732e+002, 1.993265e+000
5.870553e+002, 2.041839e+000
5.875374e+002, 2.227026e+000
5.880195e+002, 2.377793e+000
5.885016e+002, 2.491846e+000
5.889838e+002, 2.505979e+000
5.894659e+002, 2.313843e+000
5.899480e+002, 2.009648e+000
5.904301e+002, 1.878902e+000
5.909122e+002, 2.001860e+000
5.913943e+002, 2.133409e+000
5.918765e+002, 2.222342e+000
5.923586e+002, 2.269172e+000
5.928407e+002, 2.268250e+000
5.933228e+002, 2.223023e+000
5.938049e+002, 2.142756e+000
5.942870e+002, 2.025470e+000
5.947692e+002, 1.891866e+000
5.952513e+002, 1.847289e+000
5.957334e+002, 2.002623e+000
5.962155e+002, 2.047754e+000
5.966976e+002, 1.818323e+000
5.971797e+002, 1.589870e+000
5.976619e+002, 1.570592e+000
5.981440e+002, 1.735797e+000
5.986261e+002, 1.909985e+000
5.991082e+002, 1.994552e+000
5.995903e+002, 2.016701e+000
6.000724e+002, 2.020112e+000
6.005546e+002, 2.004747e+000
6.010367e+002, 1.971833e+000
6.015188e+002, 1.905776e+000
6.020009e+002, 1.846113e+000
6.024830e+002, 1.860816e+000
6.029651e+002, 1.947623e+000
6.034473e+002, 1.995437e+000
6.039294e+002, 1.943030e+000
6.044115e+002, 1.891420e+000
6.048936e+002, 1.902674e+000
6.053757e+002, 1.961145e+000
6.058578e+002, 2.041127e+000
6.063400e+002, 2.131575e+000
6.068221e+002, 2.209734e+000
6.073042e+002, 2.243561e+000
6.077863e+002, 2.230430e+000
6.082684e+002, 2.188496e+000
6.087505e+002, 2.030300e+000
6.092327e+002, 1.949958e+000
6.097148e+002, 2.062306e+000
6.101969e+002, 2.256318e+000
6.106790e+002, 2.403944e+000
6.111611e+002, 2.470975e+000
6.116432e+002, 2.473108e+000
6.121254e+002, 2.386428e+000
6.126075e+002, 2.246453e+000
6.130896e+002, 2.170123e+000
6.135717e+002, 2.171200e+000
6.140538e+002, 2.199330e+000
6.145359e+002, 2.253038e+000
6.150181e+002, 2.298060e+000
6.155002e+002, 2.221845e+000
6.159823e+002, 1.941564e+000
6.164644e+002, 1.740011e+000
6.169465e+002, 1.672060e+000
6.174286e+002, 1.707509e+000
6.179108e+002, 1.890879e+000
6.183929e+002, 2.163429e+000
6.188750e+002, 2.355371e+000
6.193571e+002, 2.356961e+000
6.198392e+002, 2.224146e+000
6.203214e+002, 2.088336e+000
6.208035e+002, 1.921853e+000
6.212856e+002, 1.839023e+000
6.217677e+002, 1.944450e+000
6.222498e+002, 2.049129e+000
6.227319e+002, 2.038910e+000
6.232141e+002, 1.949920e+000
6.236962e+002, 1.883440e+000
6.241783e+002, 1.885573e+000
6.246604e+002, 1.908126e+000
6.251425e+002, 1.887710e+000
6.256246e+002, 1.847032e+000
6.261068e+002, 1.873857e+000
6.265889e+002, 1.993330e+000
6.270710e+002, 2.128961e+000
6.275531e+002, 2.211801e+000
6.280352e+002, 2.243478e+000
6.285173e+002, 2.265515e+000
6.289995e+002, 2.274542e+000
6.294816e+002, 2.279557e+000
6.299637e+002, 2.282983e+000
6.304458e+002, 2.282864e+000
6.309279e+002, 2.272116e+000
6.314100e+002, 2.253543e+000
6.318922e+002, 2.246178e+000
6.323743e+002, 2.276885e+000
6.328564e+002, 2.322575e+000
6.333385e+002, 2.280366e+000
6.338206e+002, 2.117482e+000
6.343027e+002, 2.002936e+000
6.347849e+002, 2.017362e+000
6.352670e+002, 2.068851e+000
6.357491e+002, 2.060002e+000
6.362312e+002, 1.998021e+000
6.367133e+002, 1.960116e+000
6.371954e+002, 1.984609e+000
6.376776e+002, 2.028942e+000
6.381597e+002, 2.071169e+000
6.386418e+002, 2.105359e+000
6.391239e+002, 2.107712e+000
6.396060e+002, 2.070571e+000
6.400881e+002, 2.044554e+000
6.405703e+002, 2.109938e+000
6.410524e+002, 2.286879e+000
6.415345e+002, 2.319231e+000
6.420166e+002, 1.997457e+000
6.424987e+002, 1.778238e+000
6.429808e+002, 1.812477e+000
6.434630e+002, 1.957336e+000
6.439451e+002, 2.085445e+000
6.444272e+002, 2.165560e+000
6.449093e+002, 2.201983e+000
6.453914e+002, 2.171889e+000
6.458735e+002, 2.106020e+000
6.463557e+002, 2.094511e+000
6.468378e+002, 2.141190e+000
6.473199e+002, 2.138570e+000
6.478020e+002, 2.008749e+000
6.482841e+002, 1.854514e+000
6.487662e+002, 1.862021e+000
6.492484e+002, 2.071232e+000
6.497305e+002, 2.209368e+000
6.502126e+002, 2.224447e+000
6.506947e+002, 2.194006e+000
6.511768e+002, 2.130296e+000
6.516589e+002, 2.059293e+000
6.521411e+002, 2.030580e+000
6.526232e+002, 2.058273e+000
6.531053e+002, 2.088802e+000
6.535874e+002, 2.040810e+000
6.540695e+002, 1.913105e+000
6.545516e+002, 1.840283e+000
6.550338e+002, 1.853408e+000
6.555159e+002, 1.860258e+000
6.559980e+002, 1.778797e+000
6.564801e+002, 1.691570e+000
6.569622e+002, 1.713730e+000
6.574443e+002, 1.869768e+000
6.579265e+002, 1.979868e+000
6.584086e+002, 1.895201e+000
6.588907e+002, 1.771361e+000
6.593728e+002, 1.821355e+000
6.598549e+002, 2.002016e+000
6.603370e+002, 2.081932e+000
6.608192e+002, 1.948093e+000
6.613013e+002, 1.726308e+000
6.617834e+002, 1.636706e+000
6.622655e+002, 1.709514e+000
6.627476e+002, 1.800638e+000
6.632297e+002, 1.960909e+000
6.637119e+002, 2.083629e+000
6.641940e+002, 2.117946e+000
6.646761e+002, 2.103268e+000
6.651582e+002, 2.085287e+000
6.656403e+002, 2.076109e+000
6.661224e+002, 2.081983e+000
6.666046e+002, 2.131006e+000
6.670867e+002, 2.193977e+000
6.675688e+002, 2.189274e+000
6.680509e+002, 2.112020e+000
6.685330e+002, 2.040829e+000
6.690151e+002, 2.013242e+000
6.694973e+002, 2.016900e+000
6.699794e+002, 2.031169e+000
6.704615e+002, 2.068708e+000
6.709436e+002, 2.080549e+000
6.714257e+002, 2.034163e+000
6.719078e+002, 1.994141e+000
6.723900e+002, 1.983200e+000
6.728721e+002, 2.004938e+000
6.733542e+002, 2.095355e+000
6.738363e+002, 2.260642e+000
6.743184e+002, 2.370039e+000
6.748005e+002, 2.188917e+000
6.752827e+002, 1.763772e+000
6.757648e+002, 1.594380e+000
6.762469e+002, 1.762434e+000
6.767290e+002, 1.935696e+000
6.772111e+002, 1.936458e+000
6.776932e+002, 1.861382e+000
6.781754e+002, 1.894157e+000
6.786575e+002, 2.063913e+000
6.791396e+002, 2.179545e+000
6.796217e+002, 2.161295e+000
6.801038e+002, 2.105407e+000
6.805859e+002, 2.081836e+000
6.810681e+002, 2.079799e+000
6.815502e+002, 2.061816e+000
6.820323e+002, 2.013473e+000
6.825144e+002, 1.951697e+000
6.829965e+002, 1.888602e+000
6.834786e+002, 1.819478e+000
6.839608e+002, 1.840645e+000
6.844429e+002, 2.031920e+000
6.849250e+002, 2.169093e+000
6.854071e+002, 2.113735e+000
6.858892e+002, 1.983350e+000
6.863713e+002, 1.896003e+000
6.868535e+002, 1.864342e+000
6.873356e+002, 1.847691e+000
6.878177e+002, 1.824317e+000
6.882998e+002, 1.810931e+000
6.887819e+002, 1.849109e+000
6.892640e+002, 1.914375e+000
6.897462e+002, 1.910217e+000
6.902283e+002, 1.797284e+000
6.907104e+002, 1.673483e+000
6.911925e+002, 1.695181e+000
6.916746e+002, 1.892373e+000
6.921567e+002, 1.957364e+000
6.926389e+002, 1.719242e+000
6.931210e+002, 1.583755e+000
6.936031e+002, 1.758212e+000
6.940852e+002, 2.015597e+000
6.945673e+002, 2.123284e+000
6.950494e+002, 2.055654e+000
6.955316e+002, 1.947361e+000
6.960137e+002, 1.831724e+000
6.964958e+002, 1.748724e+000
6.969779e+002, 1.783455e+000
6.974600e+002, 1.907644e+000
6.979421e+002, 1.989005e+000
6.984243e+002, 1.979615e+000
6.989064e+002, 1.923307e+000
6.993885e+002, 1.863453e+000
6.998706e+002, 1.793831e+000
7.003527e+002, 1.802169e+000
7.008348e+002, 2.008367e+000
7.013170e+002, 2.145161e+000
7.017991e+002, 2.108014e+000
7.022812e+002, 2.019248e+000
7.027633e+002, 1.998360e+000
7.032454e+002, 2.050231e+000
7.037275e+002, 2.091793e+000
7.042097e+002, 2.072464e+000
7.046918e+002, 2.010858e+000
7.051739e+002, 1.896717e+000
7.056560e+002, 1.750100e+000
7.061381e+002, 1.731676e+000
7.066202e+002, 1.907044e+000
7.071024e+002, 2.099934e+000
7.075845e+002, 2.121397e+000
7.080666e+002, 1.975300e+000
7.085487e+002, 1.889196e+000
7.090308e+002, 1.944254e+000
7.095129e+002, 1.948207e+000
7.099951e+002, 1.805600e+000
7.104772e+002, 1.651504e+000
7.109593e+002, 1.592500e+000
7.114414e+002, 1.632264e+000
7.119235e+002, 1.731123e+000
7.124056e+002, 1.892108e+000
7.128878e+002, 2.050871e+000
7.133699e+002, 2.084810e+000
7.138520e+002, 2.014254e+000
7.143341e+002, 1.997102e+000
7.148162e+002, 2.078001e+000
7.152983e+002, 2.135319e+000
7.157805e+002, 2.056172e+000
7.162626e+002, 1.869796e+000
7.167447e+002, 1.744102e+000
7.172268e+002, 1.702603e+000
7.177089e+002, 1.683366e+000
7.181910e+002, 1.681607e+000
7.186732e+002, 1.700714e+000
7.191553e+002, 1.759601e+000
7.196374e+002, 1.840017e+000
7.201195e+002, 1.899737e+000
7.206016e+002, 1.917025e+000
7.210837e+002, 1.915247e+000
7.215659e+002, 1.928571e+000
7.220480e+002, 1.951440e+000
7.225301e+002, 1.945657e+000
7.230122e+002, 1.901116e+000
7.234943e+002, 1.870207e+000
7.239764e+002, 1.893783e+000
7.244586e+002, 1.944431e+000
7.249407e+002, 1.949335e+000
7.254228e+002, 1.882307e+000
7.259049e+002, 1.835240e+000
7.263870e+002, 1.821517e+000
7.268691e+002, 1.820311e+000
7.273513e+002, 1.838539e+000
7.278334e+002, 1.855679e+000
7.283155e+002, 1.833077e+000
7.287976e+002, 1.759823e+000
7.292797e+002, 1.679661e+000
7.297618e+002, 1.642024e+000
7.302440e+002, 1.635513e+000
7.307261e+002, 1.614334e+000
7.312082e+002, 1.575561e+000
7.316903e+002, 1.549535e+000
7.321724e+002, 1.542827e+000
7.326545e+002, 1.565780e+000
7.331367e+002, 1.646785e+000
7.336188e+002, 1.806260e+000
7.341009e+002, 1.902247e+000
7.345830e+002, 1.882966e+000
7.350651e+002, 1.863357e+000
7.355472e+002, 1.923230e+000
7.360294e+002, 1.980549e+000
7.365115e+002, 1.903115e+000
7.369936e+002, 1.698969e+000
7.374757e+002, 1.538132e+000
7.379578e+002, 1.568236e+000
7.384399e+002, 1.703940e+000
7.389221e+002, 1.769689e+000
7.394042e+002, 1.770993e+000
7.398863e+002, 1.811033e+000
7.403684e+002, 1.935356e+000
7.408505e+002, 2.017406e+000
7.413326e+002, 1.893443e+000
7.418148e+002, 1.597864e+000
7.422969e+002, 1.533060e+000
7.427790e+002, 1.984066e+000
7.432611e+002, 2.251987e+000
7.437432e+002, 2.097987e+000
7.442253e+002, 1.866510e+000
7.447075e+002, 1.815607e+000
7.451896e+002, 1.913236e+000
7.456717e+002, 1.996084e+000
7.461538e+002, 1.982862e+000
7.466359e+002, 1.946710e+000
7.471180e+002, 1.987394e+000
7.476002e+002, 2.079552e+000
7.480823e+002, 2.118341e+000
7.485644e+002, 2.088983e+000
7.490465e+002, 2.095842e+000
7.495286e+002, 2.224748e+000
7.500107e+002, 2.393427e+000
7.504929e+002, 2.401115e+000
7.509750e+002, 2.160095e+000
7.514571e+002, 1.972238e+000
7.519392e+002, 1.803392e+000
7.524213e+002, 1.720950e+000
7.529034e+002, 1.836307e+000
7.533856e+002, 2.015337e+000
7.538677e+002, 2.065688e+000
7.543498e+002, 1.947944e+000
7.548319e+002, 1.808862e+000
7.553140e+002, 1.740705e+000
7.557961e+002, 1.728729e+000
7.562783e+002, 1.767504e+000
7.567604e+002, 1.846248e+000
7.572425e+002, 1.909085e+000
7.577246e+002, 1.937046e+000
7.582067e+002, 1.945204e+000
7.586888e+002, 1.951279e+000
7.591710e+002, 1.955120e+000
7.596531e+002, 1.935728e+000
7.601352e+002, 1.854152e+000
7.606173e+002, 1.809584e+000
7.610994e+002, 1.856289e+000
7.615815e+002, 1.909103e+000
7.620637e+002, 1.889607e+000
7.625458e+002, 1.818222e+000
7.630279e+002, 1.785102e+000
7.635100e+002, 1.851932e+000
7.639921e+002, 1.918086e+000
7.644742e+002, 1.859846e+000
7.649564e+002, 1.757666e+000
7.654385e+002, 1.786535e+000
7.659206e+002, 1.948980e+000
7.664027e+002, 2.086445e+000
7.668848e+002, 2.096601e+000
7.673669e+002, 2.024730e+000
7.678491e+002, 1.976276e+000
7.683312e+002, 1.960009e+000
7.688133e+002, 1.932222e+000
7.692954e+002, 1.866311e+000
7.697775e+002, 1.826000e+000
7.702596e+002, 1.893867e+000
7.707418e+002, 1.976608e+000
7.712239e+002, 1.932300e+000
7.717060e+002, 1.732332e+000
7.721881e+002, 1.558719e+000
7.726702e+002, 1.448562e+000
7.731523e+002, 1.420254e+000
7.736345e+002, 1.568364e+000
7.741166e+002, 1.791367e+000
7.745987e+002, 1.853058e+000
7.750808e+002, 1.706008e+000
7.755629e+002, 1.571467e+000
7.760450e+002, 1.694297e+000
7.765272e+002, 2.002482e+000
7.770093e+002, 2.134007e+000
7.774914e+002, 2.049029e+000
7.779735e+002, 2.008895e+000
7.784556e+002, 2.108467e+000
7.789377e+002, 2.215231e+000
7.794199e+002, 2.201688e+000
7.799020e+002, 2.091598e+000
7.803841e+002, 2.004655e+000
7.808662e+002, 1.940273e+000
7.813483e+002, 1.906683e+000
7.818304e+002, 1.967242e+000
7.823126e+002, 2.008555e+000
7.827947e+002, 1.887300e+000
7.832768e+002, 1.669863e+000
7.837589e+002, 1.542183e+000
7.842410e+002, 1.589284e+000
7.847231e+002, 1.707203e+000
7.852053e+002, 1.786774e+000
7.856874e+002, 1.831009e+000
7.861695e+002, 1.840783e+000
7.866516e+002, 1.813948e+000
7.871337e+002, 1.807086e+000
7.876158e+002, 1.846119e+000
7.880980e+002, 1.915636e+000
7.885801e+002, 2.000320e+000
7.890622e+002, 2.109097e+000
7.895443e+002, 2.171000e+000
7.900264e+002, 2.166849e+000
7.905085e+002, 2.141973e+000
7.909907e+002, 2.104217e+000
7.914728e+002, 2.050979e+000
7.919549e+002, 1.961656e+000
7.924370e+002, 1.849813e+000
7.929191e+002, 1.774423e+000
7.934012e+002, 1.782871e+000
7.938834e+002, 1.811678e+000
7.943655e+002, 1.784507e+000
7.948476e+002, 1.734985e+000
7.953297e+002, 1.748949e+000
7.958118e+002, 1.830551e+000
7.962939e+002, 1.898774e+000
7.967761e+002, 1.900627e+000
7.972582e+002, 1.857164e+000
7.977403e+002, 1.814123e+000
7.982224e+002, 1.765695e+000
7.987045e+002, 1.742789e+000
7.991866e+002, 1.761481e+000
7.996688e+002, 1.781549e+000
8.001509e+002, 1.806771e+000
8.006330e+002, 1.811909e+000
8.011151e+002, 1.740260e+000
8.015972e+002, 1.578732e+000
8.020793e+002, 1.489137e+000
8.025615e+002, 1.560307e+000
8.030436e+002, 1.670735e+000
8.035257e+002, 1.761423e+000
8.040078e+002, 1.835493e+000
8.044899e+002, 1.914806e+000
8.049720e+002, 1.994159e+000
8.054542e+002, 2.020622e+000
8.059363e+002, 1.933733e+000
8.064184e+002, 1.800953e+000
8.069005e+002, 1.795634e+000
8.073826e+002, 1.909866e+000
8.078647e+002, 1.943213e+000
8.083469e+002, 1.838841e+000
8.088290e+002, 1.767317e+000
8.093111e+002, 1.873573e+000
8.097932e+002, 2.082960e+000
8.102753e+002, 2.163682e+000
8.107574e+002, 2.038609e+000
8.112396e+002, 1.939701e+000
8.117217e+002, 1.849378e+000
8.122038e+002, 1.803420e+000
8.126859e+002, 1.839569e+000
8.131680e+002, 1.917983e+000
8.136501e+002, 1.994021e+000
8.141323e+002, 2.057088e+000
8.146144e+002, 2.097917e+000
8.150965e+002, 2.102493e+000
8.155786e+002, 2.088532e+000
8.160607e+002, 2.083626e+000
8.165428e+002, 2.076107e+000
8.170250e+002, 2.005138e+000
8.175071e+002, 1.867958e+000
8.179892e+002, 1.809008e+000
8.184713e+002, 1.976838e+000
8.189534e+002, 2.266464e+000
8.194355e+002, 2.256992e+000
8.199177e+002, 1.847784e+000
8.203998e+002, 1.610993e+000
8.208819e+002, 1.664930e+000
8.213640e+002, 1.802471e+000
8.218461e+002, 1.949002e+000
8.223282e+002, 2.078397e+000
8.228104e+002, 2.134274e+000
8.232925e+002, 2.094985e+000
8.237746e+002, 2.061994e+000
8.242567e+002, 2.070091e+000
8.247388e+002, 2.073640e+000
8.252209e+002, 2.035514e+000
8.257031e+002, 1.981232e+000
8.261852e+002, 1.951828e+000
8.266673e+002, 1.953113e+000
8.271494e+002, 1.954291e+000
8.276315e+002, 1.922003e+000
8.281136e+002, 1.886810e+000
8.285958e+002, 1.924506e+000
8.290779e+002, 2.011710e+000
8.295600e+002, 2.018999e+000
8.300421e+002, 1.919073e+000
8.305242e+002, 1.822476e+000
8.310063e+002, 1.811924e+000
8.314885e+002, 1.861197e+000
8.319706e+002, 1.888549e+000
8.324527e+002, 1.879480e+000
8.329348e+002, 1.888419e+000
8.334169e+002, 1.952906e+000
8.338990e+002, 1.987332e+000
8.343812e+002, 1.914902e+000
8.348633e+002, 1.819023e+000
8.353454e+002, 1.830650e+000
8.358275e+002, 1.965587e+000
8.363096e+002, 2.019839e+000
8.367917e+002, 1.824404e+000
8.372739e+002, 1.638175e+000
8.377560e+002, 1.623302e+000
8.382381e+002, 1.717985e+000
8.387202e+002, 1.869354e+000
8.392023e+002, 2.040031e+000
8.396844e+002, 2.143621e+000
8.401666e+002, 2.112791e+000
8.406487e+002, 2.015026e+000
8.411308e+002, 1.966277e+000
8.416129e+002, 1.958284e+000
8.420950e+002, 1.920650e+000
8.425771e+002, 1.840071e+000
8.430593e+002, 1.815642e+000
8.435414e+002, 1.921813e+000
8.440235e+002, 2.070694e+000
8.445056e+002, 2.088214e+000
8.449877e+002, 1.927573e+000
8.454698e+002, 1.873722e+000
8.459520e+002, 2.058795e+000
8.464341e+002, 2.176076e+000
8.469162e+002, 2.108407e+000
8.473983e+002, 1.982768e+000
8.478804e+002, 1.900538e+000
8.483625e+002, 1.864214e+000
8.488447e+002, 1.836350e+000
8.493268e+002, 1.780390e+000
8.498089e+002, 1.769070e+000
8.502910e+002, 1.913975e+000
8.507731e+002, 2.078436e+000
8.512552e+002, 2.069702e+000
8.517374e+002, 1.926894e+000
8.522195e+002, 1.832504e+000
8.527016e+002, 1.870519e+000
8.531837e+002, 1.948719e+000
8.536658e+002, 1.928846e+000
8.541479e+002, 1.842998e+000
8.546301e+002, 1.867775e+000
8.551122e+002, 2.008371e+000
8.555943e+002, 2.092922e+000
8.560764e+002, 2.053240e+000
8.565585e+002, 1.975769e+000
8.570406e+002, 1.953621e+000
8.575228e+002, 1.980564e+000
8.580049e+002, 1.982687e+000
8.584870e+002, 1.967705e+000
8.589691e+002, 1.913719e+000
8.594512e+002, 1.754161e+000
8.599333e+002, 1.622202e+000
8.604155e+002, 1.600269e+000
8.608976e+002, 1.651675e+000
8.613797e+002, 1.705797e+000
8.618618e+002, 1.750396e+000
8.623439e+002, 1.797118e+000
8.628260e+002, 1.878252e+000
8.633082e+002, 1.937281e+000
8.637903e+002, 1.916311e+000
8.642724e+002, 1.846171e+000
8.647545e+002, 1.763556e+000
8.652366e+002, 1.687822e+000
8.657188e+002, 1.665421e+000
8.662009e+002, 1.756259e+000
8.666830e+002, 1.878738e+000
8.671651e+002, 1.845837e+000
8.676472e+002, 1.689537e+000
8.681293e+002, 1.612579e+000
8.686115e+002, 1.646417e+000
8.690936e+002, 1.720576e+000
8.695757e+002, 1.794965e+000
8.700578e+002, 1.879697e+000
8.705399e+002, 2.006412e+000
8.710220e+002, 2.201211e+000
8.715042e+002, 2.302055e+000
8.719863e+002, 2.261297e+000
8.724684e+002, 2.202670e+000
8.729505e+002, 2.170700e+000
8.734326e+002, 2.130811e+000
8.739147e+002, 2.028953e+000
8.743969e+002, 1.881675e+000
8.748790e+002, 1.799406e+000
8.753611e+002, 1.861729e+000
8.758432e+002, 1.908579e+000
8.763253e+002, 1.860987e+000
8.768074e+002, 1.794041e+000
8.772896e+002, 1.783866e+000
8.777717e+002, 1.807748e+000
8.782538e+002, 1.788926e+000
8.787359e+002, 1.700230e+000
8.792180e+002, 1.624647e+000
8.797001e+002, 1.670512e+000
8.801823e+002, 1.765270e+000
8.806644e+002, 1.746542e+000
8.811465e+002, 1.648549e+000
8.816286e+002, 1.645776e+000
8.821107e+002, 1.780954e+000
8.825928e+002, 1.920947e+000
8.830750e+002, 1.950611e+000
8.835571e+002, 1.891154e+000
8.840392e+002, 1.795179e+000
8.845213e+002, 1.641528e+000
8.850034e+002, 1.587000e+000
8.854855e+002, 1.690496e+000
8.859677e+002, 1.789549e+000
8.864498e+002, 1.797756e+000
8.869319e+002, 1.754993e+000
8.874140e+002, 1.722922e+000
8.878961e+002, 1.700495e+000
8.883782e+002, 1.696668e+000
8.888604e+002, 1.739349e+000
8.893425e+002, 1.765015e+000
8.898246e+002, 1.748244e+000
8.903067e+002, 1.713830e+000
8.907888e+002, 1.663989e+000
8.912709e+002, 1.616383e+000
8.917531e+002, 1.621720e+000
8.922352e+002, 1.716396e+000
8.927173e+002, 1.805372e+000
8.931994e+002, 1.799661e+000
8.936815e+002, 1.770756e+000
8.941636e+002, 1.823140e+000
8.946458e+002, 1.923000e+000
8.951279e+002, 1.971081e+000
8.956100e+002, 1.935451e+000
8.960921e+002, 1.844864e+000
8.965742e+002, 1.710242e+000
8.970563e+002, 1.558009e+000
8.975385e+002, 1.452640e+000
8.980206e+002, 1.393606e+000
8.985027e+002, 1.375314e+000
8.989848e+002, 1.397027e+000
8.994669e+002, 1.463545e+000
8.999490e+002, 1.591309e+000
9.004312e+002, 1.740849e+000
9.009133e+002, 1.818905e+000
9.013954e+002, 1.806675e+000
9.018775e+002, 1.812853e+000
9.023596e+002, 1.879299e+000
9.028417e+002, 1.891735e+000
9.033239e+002, 1.759354e+000
9.038060e+002, 1.602876e+000
9.042881e+002, 1.552241e+000
9.047702e+002, 1.587416e+000
9.052523e+002, 1.575226e+000
9.057344e+002, 1.441583e+000
9.062166e+002, 1.345610e+000
9.066987e+002, 1.298995e+000
9.071808e+002, 1.327247e+000
9.076629e+002, 1.526758e+000
9.081450e+002, 1.788466e+000
9.086271e+002, 1.908317e+000
9.091093e+002, 1.837125e+000
9.095914e+002, 1.738523e+000
9.100735e+002, 1.719732e+000
9.105556e+002, 1.734389e+000
9.110377e+002, 1.721411e+000
9.115198e+002, 1.705620e+000
9.120020e+002, 1.762276e+000
9.124841e+002, 1.885191e+000
9.129662e+002, 1.964100e+000
9.134483e+002, 1.924860e+000
9.139304e+002, 1.837924e+000
9.144125e+002, 1.845724e+000
9.148947e+002, 1.926176e+000
9.153768e+002, 1.872804e+000
9.158589e+002, 1.669200e+000
9.163410e+002, 1.518035e+000
9.168231e+002, 1.490468e+000
9.173052e+002, 1.560789e+000
9.177874e+002, 1.728384e+000
9.182695e+002, 1.969795e+000
9.187516e+002, 2.041277e+000
9.192337e+002, 1.855355e+000
9.197158e+002, 1.705754e+000
9.201979e+002, 1.575297e+000
9.206801e+002, 1.544558e+000
9.211622e+002, 1.787589e+000
9.216443e+002, 2.105370e+000
9.221264e+002, 2.137372e+000
9.226085e+002, 1.817284e+000
9.230906e+002, 1.625372e+000
9.235728e+002, 1.742337e+000
9.240549e+002, 1.855333e+000
9.245370e+002, 1.858870e+000
9.250191e+002, 1.797912e+000
9.255012e+002, 1.698063e+000
9.259833e+002, 1.577040e+000
9.264655e+002, 1.452894e+000
9.269476e+002, 1.315225e+000
9.274297e+002, 1.249615e+000
9.279118e+002, 1.377464e+000
9.283939e+002, 1.558964e+000
9.288760e+002, 1.624273e+000
9.293582e+002, 1.616774e+000
9.298403e+002, 1.680554e+000
9.303224e+002, 1.835286e+000
9.308045e+002, 1.925029e+000
9.312866e+002, 1.799779e+000
9.317687e+002, 1.585654e+000
9.322509e+002, 1.544118e+000
9.327330e+002, 1.627593e+000
9.332151e+002, 1.589175e+000
9.336972e+002, 1.410200e+000
9.341793e+002, 1.319414e+000
9.346614e+002, 1.440195e+000
9.351436e+002, 1.627406e+000
9.356257e+002, 1.663945e+000
9.361078e+002, 1.559241e+000
9.365899e+002, 1.500007e+000
9.370720e+002, 1.493213e+000
9.375541e+002, 1.507345e+000
9.380363e+002, 1.543889e+000
9.385184e+002, 1.584830e+000
9.390005e+002, 1.623486e+000
9.394826e+002, 1.653766e+000
9.399647e+002, 1.655363e+000
9.404468e+002, 1.606166e+000
9.409290e+002, 1.588896e+000
9.414111e+002, 1.618951e+000
9.418932e+002, 1.660060e+000
9.423753e+002, 1.718134e+000
9.428574e+002, 1.770538e+000
9.433395e+002, 1.786536e+000
9.438217e+002, 1.775393e+000
9.443038e+002, 1.787514e+000
9.447859e+002, 1.858938e+000
9.452680e+002, 1.906343e+000
9.457501e+002, 1.912854e+000
9.462322e+002, 1.872022e+000
9.467144e+002, 1.719480e+000
9.471965e+002, 1.541119e+000
9.476786e+002, 1.483480e+000
9.481607e+002, 1.569100e+000
9.486428e+002, 1.685336e+000
9.491249e+002, 1.805094e+000
9.496071e+002, 1.865914e+000
9.500892e+002, 1.731048e+000
9.505713e+002, 1.528070e+000
9.510534e+002, 1.499347e+000
9.515355e+002, 1.625664e+000
9.520176e+002, 1.707214e+000
9.524998e+002, 1.655745e+000
9.529819e+002, 1.589572e+000
9.534640e+002, 1.685274e+000
9.539461e+002, 1.863093e+000
9.544282e+002, 1.831053e+000
9.549103e+002, 1.627618e+000
9.553925e+002, 1.593593e+000
9.558746e+002, 1.801294e+000
9.563567e+002, 1.943978e+000
9.568388e+002, 1.793176e+000
9.573209e+002, 1.494883e+000
9.578030e+002, 1.368962e+000
9.582852e+002, 1.431129e+000
9.587673e+002, 1.493465e+000
9.592494e+002, 1.568574e+000
9.597315e+002, 1.586520e+000
9.602136e+002, 1.503100e+000
9.606957e+002, 1.401274e+000
9.611779e+002, 1.355146e+000
9.616600e+002, 1.359387e+000
9.621421e+002, 1.386558e+000
9.626242e+002, 1.439518e+000
9.631063e+002, 1.510521e+000
9.635884e+002, 1.643942e+000
9.640706e+002, 1.738778e+000
9.645527e+002, 1.713284e+000
9.650348e+002, 1.660624e+000
9.655169e+002, 1.711034e+000
9.659990e+002, 1.854387e+000
9.664811e+002, 1.906294e+000
9.669633e+002, 1.777160e+000
9.674454e+002, 1.645550e+000
9.679275e+002, 1.533637e+000
9.684096e+002, 1.448561e+000
9.688917e+002, 1.391280e+000
9.693738e+002, 1.364864e+000
9.698560e+002, 1.384587e+000
9.703381e+002, 1.451027e+000
9.708202e+002, 1.506157e+000
9.713023e+002, 1.509869e+000
9.717844e+002, 1.507630e+000
9.722665e+002, 1.519458e+000
9.727487e+002, 1.548927e+000
9.732308e+002, 1.615238e+000
9.737129e+002, 1.701404e+000
9.741950e+002, 1.769229e+000
9.746771e+002, 1.803779e+000
9.751592e+002, 1.792391e+000
9.756414e+002, 1.693248e+000
9.761235e+002, 1.563376e+000
9.766056e+002, 1.460338e+000
9.770877e+002, 1.397138e+000
9.775698e+002, 1.436514e+000
9.780519e+002, 1.561751e+000
9.785341e+002, 1.622278e+000
9.790162e+002, 1.523386e+000
9.794983e+002, 1.381388e+000
9.799804e+002, 1.382403e+000
9.804625e+002, 1.483159e+000
9.809446e+002, 1.505190e+000
9.814268e+002, 1.455364e+000
9.819089e+002, 1.439808e+000
9.823910e+002, 1.486643e+000
9.828731e+002, 1.561171e+000
9.833552e+002, 1.641833e+000
9.838373e+002, 1.711026e+000
9.843195e+002, 1.720133e+000
9.848016e+002, 1.666900e+000
9.852837e+002, 1.606630e+000
9.857658e+002, 1.543841e+000
9.862479e+002, 1.441782e+000
9.867300e+002, 1.253898e+000
9.872122e+002, 1.126745e+000
9.876943e+002, 1.237125e+000
9.881764e+002, 1.525422e+000
9.886585e+002, 1.656206e+000
9.891406e+002, 1.555917e+000
9.896227e+002, 1.510299e+000
9.901049e+002, 1.531490e+000
9.905870e+002, 1.610271e+000
9.910691e+002, 1.799757e+000
9.915512e+002, 1.990236e+000
9.920333e+002, 2.028701e+000
9.925154e+002, 1.921273e+000
9.929976e+002, 1.878988e+000
9.934797e+002, 2.046594e+000
9.939618e+002, 2.058625e+000
9.944439e+002, 1.733330e+000
9.949260e+002, 1.431217e+000
9.954081e+002, 1.319737e+000
9.958903e+002, 1.334772e+000
9.963724e+002, 1.413095e+000
9.968545e+002, 1.546338e+000
9.973366e+002, 1.634957e+000
9.978187e+002, 1.640306e+000
9.983008e+002, 1.625973e+000
9.987830e+002, 1.605038e+000
9.992651e+002, 1.575458e+000
9.997472e+002, 1.501300e+000
1.000229e+003, 1.431038e+000
1.000711e+003, 1.469044e+000
1.001194e+003, 1.631168e+000
1.001676e+003, 1.749029e+000
1.002158e+003, 1.702441e+000
1.002640e+003, 1.647818e+000
1.003122e+003, 1.699383e+000
1.003604e+003, 1.769530e+000
1.004086e+003, 1.774893e+000
1.004568e+003, 1.717656e+000
1.005050e+003, 1.607975e+000
1.005533e+003, 1.451694e+000
1.006015e+003, 1.343072e+000
1.006497e+003, 1.385116e+000
1.006979e+003, 1.468446e+000
1.007461e+003, 1.489873e+000
1.007943e+003, 1.479781e+000
1.008425e+003, 1.480550e+000
1.008907e+003, 1.498160e+000
1.009390e+003, 1.533186e+000
1.009872e+003, 1.585665e+000
1.010354e+003, 1.623335e+000
1.010836e+003, 1.627311e+000
1.011318e+003, 1.588055e+000
1.011800e+003, 1.411963e+000
1.012282e+003, 1.198346e+000
1.012764e+003, 1.254829e+000
1.013246e+003, 1.568430e+000
1.013729e+003, 1.794384e+000
1.014211e+003, 1.749552e+000
1.014693e+003, 1.606982e+000
1.015175e+003, 1.600676e+000
1.015657e+003, 1.674000e+000
1.016139e+003, 1.634605e+000
1.016621e+003, 1.514848e+000
1.017103e+003, 1.493122e+000
1.017586e+003, 1.598117e+000
1.018068e+003, 1.719162e+000
1.018550e+003, 1.789112e+000
1.019032e+003, 1.823766e+000
1.019514e+003, 1.854778e+000
1.019996e+003, 1.875161e+000
1.020478e+003, 1.813560e+000
1.020960e+003, 1.673143e+000
1.021442e+003, 1.589138e+000
1.021925e+003, 1.595993e+000
1.022407e+003, 1.593470e+000
1.022889e+003, 1.503610e+000
1.023371e+003, 1.394573e+000
1.023853e+003, 1.419632e+000
1.024335e+003, 1.580545e+000
1.024817e+003, 1.660140e+000
1.025299e+003, 1.643635e+000
1.025781e+003, 1.664957e+000
1.026264e+003, 1.767691e+000
1.026746e+003, 1.876797e+000
1.027228e+003, 1.955925e+000
1.027710e+003, 1.966452e+000
1.028192e+003, 1.776821e+000
1.028674e+003, 1.332604e+000
1.029156e+003, 1.146019e+000
1.029638e+003, 1.282767e+000
1.030120e+003, 1.472046e+000
1.030603e+003, 1.693095e+000
1.031085e+003, 1.840132e+000
1.031567e+003, 1.799638e+000
1.032049e+003, 1.650799e+000
1.032531e+003, 1.607661e+000
1.033013e+003, 1.699470e+000
1.033495e+003, 1.774868e+000
1.033977e+003, 1.892699e+000
1.034460e+003, 1.856172e+000
1.034942e+003, 1.491990e+000
1.035424e+003, 1.138011e+000
1.035906e+003, 1.078559e+000
1.036388e+003, 1.224717e+000
1.036870e+003, 1.325565e+000
1.037352e+003, 1.367875e+000
1.037834e+003, 1.409700e+000
1.038317e+003, 1.459115e+000
1.038799e+003, 1.495240e+000
1.039281e+003, 1.502595e+000
1.039763e+003, 1.505862e+000
1.040245e+003, 1.512314e+000
1.040727e+003, 1.530638e+000
1.041209e+003, 1.600776e+000
1.041691e+003, 1.779027e+000
1.042173e+003, 1.828704e+000
1.042656e+003, 1.615972e+000
1.043138e+003, 1.450109e+000
1.043620e+003, 1.390913e+000
1.044102e+003, 1.418547e+000
1.044584e+003, 1.616130e+000
1.045066e+003, 1.872372e+000
1.045548e+003, 1.868489e+000
1.046030e+003, 1.470880e+000
1.046512e+003, 1.266939e+000
1.046995e+003, 1.517600e+000
1.047477e+003, 1.707271e+000
1.047959e+003, 1.615601e+000
1.048441e+003, 1.468750e+000
1.048923e+003, 1.441137e+000
1.049405e+003, 1.501377e+000
1.049887e+003, 1.560075e+000
1.050369e+003, 1.611073e+000
1.050852e+003, 1.636083e+000
1.051334e+003, 1.605165e+000
1.051816e+003, 1.582659e+000
1.052298e+003, 1.610683e+000
1.052780e+003, 1.637728e+000
1.053262e+003, 1.587001e+000
1.053744e+003, 1.511113e+000
1.054226e+003, 1.560904e+000
1.054708e+003, 1.790028e+000
1.055191e+003, 1.893087e+000
1.055673e+003, 1.652241e+000
1.056155e+003, 1.448352e+000
1.056637e+003, 1.430362e+000
1.057119e+003, 1.507986e+000
1.057601e+003, 1.677119e+000
1.058083e+003, 1.858339e+000
1.058565e+003, 1.887133e+000
1.059047e+003, 1.723154e+000
1.059530e+003, 1.597463e+000
1.060012e+003, 1.601416e+000
1.060494e+003, 1.639640e+000
1.060976e+003, 1.709755e+000
1.061458e+003, 1.762809e+000
1.061940e+003, 1.754958e+000
1.062422e+003, 1.701886e+000
1.062904e+003, 1.622118e+000
1.063387e+003, 1.520505e+000
1.063869e+003, 1.474938e+000
1.064351e+003, 1.551363e+000
1.064833e+003, 1.641888e+000
1.065315e+003, 1.695731e+000
1.065797e+003, 1.746397e+000
1.066279e+003, 1.886470e+000
1.066761e+003, 2.017375e+000
1.067244e+003, 1.909883e+000
1.067726e+003, 1.546396e+000
1.068208e+003, 1.296799e+000
1.068690e+003, 1.398571e+000
1.069172e+003, 1.526997e+000
1.069654e+003, 1.501520e+000
1.070136e+003, 1.475929e+000
1.070618e+003, 1.625310e+000
1.071100e+003, 1.837826e+000
1.071583e+003, 1.924839e+000
1.072065e+003, 1.859788e+000
1.072547e+003, 1.727432e+000
1.073029e+003, 1.486260e+000
1.073511e+003, 1.313050e+000
1.073993e+003, 1.362676e+000
1.074475e+003, 1.442098e+000
1.074957e+003, 1.311022e+000
1.075439e+003, 1.161805e+000
1.075922e+003, 1.390408e+000
1.076404e+003, 1.948774e+000
1.076886e+003, 2.246791e+000
1.077368e+003, 1.959284e+000
1.077850e+003, 1.621852e+000
1.078332e+003, 1.323799e+000
1.078814e+003, 1.234314e+000
1.079297e+003, 1.740804e+000
1.079779e+003, 2.364640e+000
1.080261e+003, 2.406697e+000
1.080743e+003, 1.925072e+000
1.081225e+003, 1.537693e+000
1.081707e+003, 1.457502e+000
1.082189e+003, 1.467366e+000
1.082671e+003, 1.509625e+000
1.083153e+003, 1.564985e+000
1.083635e+003, 1.668100e+000
1.084118e+003, 1.743294e+000
1.084600e+003, 1.661004e+000
1.085082e+003, 1.473275e+000
1.085564e+003, 1.380851e+000
1.086046e+003, 1.462424e+000
1.086528e+003, 1.518408e+000
1.087010e+003, 1.382716e+000
1.087492e+003, 1.296288e+000
1.087975e+003, 1.467839e+000
1.088457e+003, 1.694465e+000
1.088939e+003, 1.773591e+000
1.089421e+003, 1.730016e+000
1.089903e+003, 1.660299e+000
1.090385e+003, 1.580604e+000
1.090867e+003, 1.556362e+000
1.091349e+003, 1.652156e+000
1.091832e+003, 1.758046e+000
1.092314e+003, 1.866354e+000
1.092796e+003, 1.923959e+000
1.093278e+003, 1.854467e+000
1.093760e+003, 1.712987e+000
1.094242e+003, 1.585505e+000
1.094724e+003, 1.489065e+000
1.095206e+003, 1.474744e+000
1.095688e+003, 1.655024e+000
1.096171e+003, 1.787342e+000
1.096653e+003, 1.745812e+000
1.097135e+003, 1.670758e+000
1.097617e+003, 1.678210e+000
1.098099e+003, 1.705004e+000
1.098581e+003, 1.617653e+000
1.099063e+003, 1.422442e+000
1.099545e+003, 1.328080e+000
1.100027e+003, 1.454862e+000
1.100510e+003, 1.567225e+000
1.100992e+003, 1.622264e+000
1.101474e+003, 1.628899e+000
1.101956e+003, 1.551861e+000
1.102438e+003, 1.457569e+000
1.102920e+003, 1.429632e+000
1.103402e+003, 1.457559e+000
1.103884e+003, 1.456717e+000
1.104367e+003, 1.381914e+000
1.104849e+003, 1.358131e+000
1.105331e+003, 1.476734e+000
1.105813e+003, 1.561791e+000
1.106295e+003, 1.512111e+000
1.106777e+003, 1.428547e+000
1.107259e+003, 1.387269e+000
1.107741e+003, 1.389446e+000
1.108224e+003, 1.432982e+000
1.108706e+003, 1.534695e+000
1.109188e+003, 1.607823e+000
1.109670e+003, 1.646160e+000
1.110152e+003, 1.653120e+000
1.110634e+003, 1.586602e+000
1.111116e+003, 1.532423e+000
1.111598e+003, 1.611178e+000
1.112080e+003, 1.717021e+000
1.112563e+003, 1.598673e+000
1.113045e+003, 1.204705e+000
1.113527e+003, 1.045501e+000
1.114009e+003, 1.288447e+000
1.114491e+003, 1.495226e+000
1.114973e+003, 1.661173e+000
1.115455e+003, 1.733278e+000
1.115937e+003, 1.639645e+000
1.116419e+003, 1.477261e+000
1.116902e+003, 1.348882e+000
1.117384e+003, 1.259597e+000
1.117866e+003, 1.275401e+000
1.118348e+003, 1.484452e+000
1.118830e+003, 1.590972e+000
1.119312e+003, 1.550613e+000
1.119794e+003, 1.469518e+000
1.120276e+003, 1.337680e+000
1.120759e+003, 1.261004e+000
1.121241e+003, 1.386018e+000
1.121723e+003, 1.620786e+000
1.122205e+003, 1.615249e+000
1.122687e+003, 1.275358e+000
1.123169e+003, 1.145709e+000
1.123651e+003, 1.298113e+000
1.124133e+003, 1.424296e+000
1.124615e+003, 1.452793e+000
1.125098e+003, 1.425725e+000
1.125580e+003, 1.361423e+000
1.126062e+003, 1.280493e+000
1.126544e+003, 1.219915e+000
1.127026e+003, 1.180145e+000
1.127508e+003, 1.168776e+000
1.127990e+003, 1.181899e+000
1.128472e+003, 1.283651e+000
1.128954e+003, 1.507631e+000
1.129437e+003, 1.632981e+000
1.129919e+003, 1.537384e+000
1.130401e+003, 1.367616e+000
1.130883e+003, 1.291307e+000
1.131365e+003, 1.307337e+000
1.131847e+003, 1.464053e+000
1.132329e+003, 1.745020e+000
1.132811e+003, 1.770226e+000
1.133294e+003, 1.520653e+000
1.133776e+003, 1.389068e+000
1.134258e+003, 1.506767e+000
1.134740e+003, 1.617454e+000
1.135222e+003, 1.498158e+000
1.135704e+003, 1.274231e+000
1.136186e+003, 1.191720e+000
1.136668e+003, 1.217311e+000
1.137151e+003, 1.214427e+000
1.137633e+003, 1.192020e+000
1.138115e+003, 1.216164e+000
1.138597e+003, 1.297571e+000
1.139079e+003, 1.425485e+000
1.139561e+003, 1.596919e+000
1.140043e+003, 1.700375e+000
1.140525e+003, 1.515735e+000
1.141007e+003, 1.233381e+000
1.141490e+003, 1.274178e+000
1.141972e+003, 1.483142e+000
1.142454e+003, 1.490464e+000
1.142936e+003, 1.316136e+000
1.143418e+003, 1.188961e+000
1.143900e+003, 1.189636e+000
1.144382e+003, 1.267671e+000
1.144864e+003, 1.413603e+000
1.145346e+003, 1.563348e+000
1.145829e+003, 1.657458e+000
1.146311e+003, 1.706987e+000
1.146793e+003, 1.707767e+000
1.147275e+003, 1.682681e+000
1.147757e+003, 1.688673e+000
1.148239e+003, 1.717055e+000
1.148721e+003, 1.672836e+000
1.149203e+003, 1.491817e+000
1.149686e+003, 1.335142e+000
1.150168e+003, 1.292590e+000
1.150650e+003, 1.327959e+000
1.151132e+003, 1.492959e+000
1.151614e+003, 1.660355e+000
1.152096e+003, 1.668934e+000
1.152578e+003, 1.563201e+000
1.153060e+003, 1.491407e+000
1.153542e+003, 1.488966e+000
1.154025e+003, 1.440446e+000
1.154507e+003, 1.158884e+000
1.154989e+003, 1.031100e+000
1.155471e+003, 1.379952e+000
1.155953e+003, 1.724179e+000
1.156435e+003, 1.715770e+000
1.156917e+003, 1.532114e+000
1.157399e+003, 1.423445e+000
1.157881e+003, 1.399749e+000
1.158364e+003, 1.366806e+000
1.158846e+003, 1.302970e+000
1.159328e+003, 1.253561e+000
1.159810e+003, 1.164074e+000
1.160292e+003, 1.169860e+000
1.160774e+003, 1.401369e+000
1.161256e+003, 1.640486e+000
1.161738e+003, 1.716662e+000
1.162221e+003, 1.674670e+000
1.162703e+003, 1.610949e+000
1.163185e+003, 1.514881e+000
1.163667e+003, 1.493384e+000
1.164149e+003, 1.591017e+000
1.164631e+003, 1.633993e+000
1.165113e+003, 1.595127e+000
1.165595e+003, 1.490150e+000
1.166078e+003, 1.287514e+000
1.166560e+003, 1.126089e+000
1.167042e+003, 1.200167e+000
1.167524e+003, 1.444223e+000
1.168006e+003, 1.550215e+000
1.168488e+003, 1.515191e+000
1.168970e+003, 1.418888e+000
1.169452e+003, 1.260917e+000
1.169934e+003, 1.208032e+000
1.170417e+003, 1.311377e+000
1.170899e+003, 1.404922e+000
1.171381e+003, 1.363436e+000
1.171863e+003, 1.268237e+000
1.172345e+003, 1.256310e+000
1.172827e+003, 1.304544e+000
1.173309e+003, 1.318803e+000
1.173791e+003, 1.319847e+000
1.174273e+003, 1.415738e+000
1.174756e+003, 1.592937e+000
1.175238e+003, 1.731380e+000
1.175720e+003, 1.777816e+000
1.176202e+003, 1.677113e+000
1.176684e+003, 1.292133e+000
1.177166e+003, 9.150722e-001
1.177648e+003, 9.773538e-001
1.178130e+003, 1.233612e+000
1.178613e+003, 1.336998e+000
1.179095e+003, 1.336743e+000
1.179577e+003, 1.381528e+000
1.180059e+003, 1.491842e+000
1.180541e+003, 1.622291e+000
1.181023e+003, 1.767531e+000
1.181505e+003, 1.838100e+000
1.181987e+003, 1.714138e+000
1.182469e+003, 1.575655e+000
1.182952e+003, 1.562293e+000
1.183434e+003, 1.575197e+000
1.183916e+003, 1.512511e+000
1.184398e+003, 1.399041e+000
1.184880e+003, 1.267205e+000
1.185362e+003, 1.129077e+000
1.185844e+003, 1.129680e+000
1.186326e+003, 1.513962e+000
1.186808e+003, 1.711417e+000
1.187291e+003, 1.407267e+000
1.187773e+003, 1.163963e+000
1.188255e+003, 1.308157e+000
1.188737e+003, 1.555027e+000
1.189219e+003, 1.638376e+000
1.189701e+003, 1.602579e+000
1.190183e+003, 1.581878e+000
1.190665e+003, 1.575440e+000
1.191148e+003, 1.590842e+000
1.191630e+003, 1.642089e+000
1.192112e+003, 1.677709e+000
1.192594e+003, 1.692664e+000
1.193076e+003, 1.680967e+000
1.193558e+003, 1.639760e+000
1.194040e+003, 1.565627e+000
1.194522e+003, 1.441147e+000
1.195005e+003, 1.295054e+000
1.195487e+003, 1.244832e+000
1.195969e+003, 1.289338e+000
1.196451e+003, 1.439956e+000
1.196933e+003, 1.686202e+000
1.197415e+003, 1.773174e+000
1.197897e+003, 1.644289e+000
1.198379e+003, 1.542447e+000
1.198861e+003, 1.626289e+000
1.199344e+003, 1.759959e+000
1.199826e+003, 1.799175e+000
1.200308e+003, 1.731404e+000
1.200790e+003, 1.440643e+000
1.201272e+003, 1.060222e+000
1.201754e+003, 8.790848e-001
1.202236e+003, 8.917478e-001
1.202718e+003, 1.000904e+000
1.203200e+003, 1.159518e+000
1.203683e+003, 1.273721e+000
1.204165e+003, 1.263280e+000
1.204647e+003, 1.260098e+000
1.205129e+003, 1.390189e+000
1.205611e+003, 1.541411e+000
1.206093e+003, 1.643888e+000
1.206575e+003, 1.690988e+000
1.207057e+003, 1.656992e+000
1.207540e+003, 1.571027e+000
1.208022e+003, 1.510853e+000
1.208504e+003, 1.496219e+000
1.208986e+003, 1.452561e+000
1.209468e+003, 1.274163e+000
1.209950e+003, 1.196152e+000
1.210432e+003, 1.370880e+000
1.210914e+003, 1.538359e+000
1.211396e+003, 1.558804e+000
1.211879e+003, 1.513651e+000
1.212361e+003, 1.465514e+000
1.212843e+003, 1.426226e+000
1.213325e+003, 1.450655e+000
1.213807e+003, 1.561527e+000
1.214289e+003, 1.622107e+000
1.214771e+003, 1.616691e+000
1.215253e+003, 1.630451e+000
1.215735e+003, 1.690666e+000
1.216218e+003, 1.716323e+000
1.216700e+003, 1.660374e+000
1.217182e+003, 1.563837e+000
1.217664e+003, 1.469599e+000
1.218146e+003, 1.386767e+000
1.218628e+003, 1.350906e+000
1.219110e+003, 1.351921e+000
1.219592e+003, 1.325000e+000
1.220075e+003, 1.280377e+000
1.220557e+003, 1.300648e+000
1.221039e+003, 1.393717e+000
1.221521e+003, 1.486754e+000
1.222003e+003, 1.541684e+000
1.222485e+003, 1.531073e+000
1.222967e+003, 1.314654e+000
1.223449e+003, 1.130945e+000
1.223932e+003, 1.387973e+000
1.224414e+003, 1.742884e+000
1.224896e+003, 1.676370e+000
1.225378e+003, 1.372851e+000
1.225860e+003, 1.295440e+000
1.226342e+003, 1.485427e+000
1.226824e+003, 1.612934e+000
1.227306e+003, 1.549999e+000
1.227788e+003, 1.457807e+000
1.228271e+003, 1.321734e+000
1.228753e+003, 1.257823e+000
1.229235e+003, 1.412068e+000
1.229717e+003, 1.563969e+000
1.230199e+003, 1.494595e+000
1.230681e+003, 1.323545e+000
1.231163e+003, 1.259730e+000
1.231645e+003, 1.303087e+000
1.232127e+003, 1.456846e+000
1.232610e+003, 1.828913e+000
1.233092e+003, 1.958816e+000
1.233574e+003, 1.747725e+000
1.234056e+003, 1.575781e+000
1.234538e+003, 1.567199e+000
1.235020e+003, 1.566524e+000
1.235502e+003, 1.446908e+000
1.235984e+003, 1.325035e+000
1.236467e+003, 1.448457e+000
1.236949e+003, 1.722372e+000
1.237431e+003, 1.697237e+000
1.237913e+003, 1.452563e+000
1.238395e+003, 1.337203e+000
1.238877e+003, 1.369261e+000
1.239359e+003, 1.453370e+000
1.239841e+003, 1.547316e+000
1.240323e+003, 1.591591e+000
1.240806e+003, 1.540904e+000
1.241288e+003, 1.463705e+000
1.241770e+003, 1.412755e+000
1.242252e+003, 1.380148e+000
1.242734e+003, 1.354429e+000
1.243216e+003, 1.345066e+000
1.243698e+003, 1.374154e+000
1.244180e+003, 1.425458e+000
1.244662e+003, 1.460037e+000
1.245145e+003, 1.473760e+000
1.245627e+003, 1.508889e+000
1.246109e+003, 1.622619e+000
1.246591e+003, 1.673084e+000
1.247073e+003, 1.518977e+000
1.247555e+003, 1.460222e+000
1.248037e+003, 1.729463e+000
1.248519e+003, 1.960619e+000
1.249002e+003, 1.842479e+000
1.249484e+003, 1.574776e+000
1.249966e+003, 1.547098e+000
1.250448e+003, 1.734607e+000
1.250930e+003, 1.658781e+000
1.251412e+003, 1.274751e+000
1.251894e+003, 1.143585e+000
1.252376e+003, 1.316044e+000
1.252859e+003, 1.500413e+000
1.253341e+003, 1.607526e+000
1.253823e+003, 1.651085e+000
1.254305e+003, 1.635871e+000
1.254787e+003, 1.606723e+000
1.255269e+003, 1.635691e+000
1.255751e+003, 1.685338e+000
1.256233e+003, 1.675520e+000
1.256715e+003, 1.640627e+000
1.257198e+003, 1.674158e+000
1.257680e+003, 1.731277e+000
1.258162e+003, 1.641264e+000
1.258644e+003, 1.416248e+000
1.259126e+003, 1.354982e+000
1.259608e+003, 1.672998e+000
1.260090e+003, 1.815594e+000
1.260572e+003, 1.226113e+000
1.261054e+003, 7.943570e-001
1.261537e+003, 1.121743e+000
1.262019e+003, 1.589466e+000
1.262501e+003, 1.763156e+000
1.262983e+003, 1.737692e+000
1.263465e+003, 1.676856e+000
1.263947e+003, 1.585071e+000
1.264429e+003, 1.460709e+000
1.264911e+003, 1.236115e+000
1.265394e+003, 1.253472e+000
1.265876e+003, 1.612001e+000
1.266358e+003, 1.735126e+000
1.266840e+003, 1.454589e+000
1.267322e+003, 1.219335e+000
1.267804e+003, 1.281952e+000
1.268286e+003, 1.450687e+000
1.268768e+003, 1.499153e+000
1.269250e+003, 1.477183e+000
1.269733e+003, 1.497138e+000
1.270215e+003, 1.536888e+000
1.270697e+003, 1.544478e+000
1.271179e+003, 1.522184e+000
1.271661e+003, 1.463155e+000
1.272143e+003, 1.389203e+000
1.272625e+003, 1.389180e+000
1.273107e+003, 1.496032e+000
1.273589e+003, 1.570758e+000
1.274072e+003, 1.504126e+000
1.274554e+003, 1.421156e+000
1.275036e+003, 1.387558e+000
1.275518e+003, 1.354193e+000
1.276000e+003, 1.231014e+000
1.276482e+003, 1.136189e+000
1.276964e+003, 1.243834e+000
1.277446e+003, 1.487170e+000
1.277929e+003, 1.643841e+000
1.278411e+003, 1.711106e+000
1.278893e+003, 1.710398e+000
1.279375e+003, 1.613092e+000
1.279857e+003, 1.552796e+000
1.280339e+003, 1.543463e+000
1.280821e+003, 1.580034e+000
1.281303e+003, 1.668436e+000
1.281786e+003, 1.735324e+000
1.282268e+003, 1.726195e+000
##END=



