##NAMES=Potassic-fluoro-richterite
##RRUFFID=R060034
##IDEAL CHEMISTRY=K(NaCa)Mg_5_Si_8_O_22_F_2_
##LOCALITY=Walgidee, Western Australia, Australia
##OWNER=RRUFF
##SOURCE=University of Arizona Mineral Museum
##DESCRIPTION=Transparent brown water worn crystal fragment
##STATUS=The identification of this mineral has been confirmed by X-ray diffraction and chemical analysis
##URL=rruff.info/R060034
##MEASURED CHEMISTRY=(K_0.98_Na_0.02_)_Σ=1_(Ca_1.10_Na_0.90_)_Σ=2_(Mg_4.69_Fe^2+^_0.30_Mn_0.01_)_Σ=5_(Si_7.50_Ti_0.40_Al_0.10_)_Σ=8_O_22_((F_0.74_(OH)_0.26_)_2_
9.059570e+001, 4.356775e+003
9.107782e+001, 4.222624e+003
9.155994e+001, 4.175131e+003
9.204205e+001, 4.274115e+003
9.252417e+001, 4.419394e+003
9.300629e+001, 4.579822e+003
9.348840e+001, 4.719214e+003
9.397052e+001, 4.803327e+003
9.445264e+001, 4.814643e+003
9.493475e+001, 4.812623e+003
9.541687e+001, 4.807048e+003
9.589898e+001, 4.803038e+003
9.638110e+001, 4.799361e+003
9.686321e+001, 4.795003e+003
9.734533e+001, 4.786359e+003
9.782745e+001, 4.764654e+003
9.830956e+001, 4.744224e+003
9.879168e+001, 4.723243e+003
9.927380e+001, 4.707252e+003
9.975591e+001, 4.698248e+003
1.002380e+002, 4.694153e+003
1.007201e+002, 4.690768e+003
1.012023e+002, 4.685396e+003
1.016844e+002, 4.678651e+003
1.021665e+002, 4.673229e+003
1.026486e+002, 4.668807e+003
1.031307e+002, 4.665165e+003
1.036128e+002, 4.662130e+003
1.040950e+002, 4.659487e+003
1.045771e+002, 4.657095e+003
1.050592e+002, 4.652466e+003
1.055413e+002, 4.646792e+003
1.060234e+002, 4.642369e+003
1.065055e+002, 4.639682e+003
1.069877e+002, 4.638677e+003
1.074698e+002, 4.639965e+003
1.079519e+002, 4.646338e+003
1.084340e+002, 4.650964e+003
1.089161e+002, 4.650745e+003
1.093982e+002, 4.646439e+003
1.098804e+002, 4.640196e+003
1.103625e+002, 4.633577e+003
1.108446e+002, 4.626381e+003
1.113267e+002, 4.619646e+003
1.118088e+002, 4.612015e+003
1.122909e+002, 4.605740e+003
1.127731e+002, 4.602617e+003
1.132552e+002, 4.602511e+003
1.137373e+002, 4.603416e+003
1.142194e+002, 4.602422e+003
1.147015e+002, 4.597544e+003
1.151836e+002, 4.594214e+003
1.156658e+002, 4.594069e+003
1.161479e+002, 4.594629e+003
1.166300e+002, 4.593340e+003
1.171121e+002, 4.589235e+003
1.175942e+002, 4.583409e+003
1.180763e+002, 4.578514e+003
1.185584e+002, 4.575425e+003
1.190406e+002, 4.571279e+003
1.195227e+002, 4.564384e+003
1.200048e+002, 4.555639e+003
1.204869e+002, 4.547318e+003
1.209690e+002, 4.539995e+003
1.214511e+002, 4.534257e+003
1.219333e+002, 4.530529e+003
1.224154e+002, 4.529228e+003
1.228975e+002, 4.529107e+003
1.233796e+002, 4.529599e+003
1.238617e+002, 4.530844e+003
1.243438e+002, 4.531294e+003
1.248260e+002, 4.528580e+003
1.253081e+002, 4.525205e+003
1.257902e+002, 4.523999e+003
1.262723e+002, 4.527055e+003
1.267544e+002, 4.531413e+003
1.272365e+002, 4.529517e+003
1.277187e+002, 4.515650e+003
1.282008e+002, 4.505134e+003
1.286829e+002, 4.504095e+003
1.291650e+002, 4.508293e+003
1.296471e+002, 4.512256e+003
1.301292e+002, 4.512619e+003
1.306114e+002, 4.509599e+003
1.310935e+002, 4.506092e+003
1.315756e+002, 4.500962e+003
1.320577e+002, 4.496467e+003
1.325398e+002, 4.492899e+003
1.330219e+002, 4.490438e+003
1.335041e+002, 4.489413e+003
1.339862e+002, 4.490283e+003
1.344683e+002, 4.493524e+003
1.349504e+002, 4.495565e+003
1.354325e+002, 4.495485e+003
1.359146e+002, 4.495188e+003
1.363968e+002, 4.495800e+003
1.368789e+002, 4.497401e+003
1.373610e+002, 4.499280e+003
1.378431e+002, 4.500486e+003
1.383252e+002, 4.500735e+003
1.388073e+002, 4.501984e+003
1.392895e+002, 4.504106e+003
1.397716e+002, 4.507356e+003
1.402537e+002, 4.512987e+003
1.407358e+002, 4.521970e+003
1.412179e+002, 4.530510e+003
1.417000e+002, 4.532644e+003
1.421821e+002, 4.529025e+003
1.426643e+002, 4.525345e+003
1.431464e+002, 4.523378e+003
1.436285e+002, 4.523088e+003
1.441106e+002, 4.524470e+003
1.445927e+002, 4.528368e+003
1.450748e+002, 4.533121e+003
1.455570e+002, 4.537625e+003
1.460391e+002, 4.541825e+003
1.465212e+002, 4.544960e+003
1.470033e+002, 4.546142e+003
1.474854e+002, 4.545206e+003
1.479675e+002, 4.543878e+003
1.484497e+002, 4.541245e+003
1.489318e+002, 4.539084e+003
1.494139e+002, 4.538826e+003
1.498960e+002, 4.540675e+003
1.503781e+002, 4.543157e+003
1.508602e+002, 4.544018e+003
1.513424e+002, 4.542465e+003
1.518245e+002, 4.540945e+003
1.523066e+002, 4.540029e+003
1.527887e+002, 4.539078e+003
1.532708e+002, 4.537320e+003
1.537529e+002, 4.534525e+003
1.542351e+002, 4.531385e+003
1.547172e+002, 4.529632e+003
1.551993e+002, 4.530339e+003
1.556814e+002, 4.531371e+003
1.561635e+002, 4.535141e+003
1.566456e+002, 4.538462e+003
1.571278e+002, 4.536967e+003
1.576099e+002, 4.528271e+003
1.580920e+002, 4.514220e+003
1.585741e+002, 4.502615e+003
1.590562e+002, 4.494217e+003
1.595383e+002, 4.486913e+003
1.600205e+002, 4.480657e+003
1.605026e+002, 4.475182e+003
1.609847e+002, 4.469906e+003
1.614668e+002, 4.464507e+003
1.619489e+002, 4.459093e+003
1.624310e+002, 4.454197e+003
1.629131e+002, 4.450025e+003
1.633953e+002, 4.446130e+003
1.638774e+002, 4.443195e+003
1.643595e+002, 4.440961e+003
1.648416e+002, 4.436663e+003
1.653237e+002, 4.427000e+003
1.658058e+002, 4.414373e+003
1.662880e+002, 4.404345e+003
1.667701e+002, 4.397736e+003
1.672522e+002, 4.393731e+003
1.677343e+002, 4.391907e+003
1.682164e+002, 4.392587e+003
1.686985e+002, 4.393941e+003
1.691807e+002, 4.395382e+003
1.696628e+002, 4.396745e+003
1.701449e+002, 4.397929e+003
1.706270e+002, 4.399455e+003
1.711091e+002, 4.400439e+003
1.715912e+002, 4.398356e+003
1.720734e+002, 4.391050e+003
1.725555e+002, 4.384621e+003
1.730376e+002, 4.381156e+003
1.735197e+002, 4.379920e+003
1.740018e+002, 4.380284e+003
1.744839e+002, 4.382764e+003
1.749661e+002, 4.386470e+003
1.754482e+002, 4.385559e+003
1.759303e+002, 4.373752e+003
1.764124e+002, 4.364275e+003
1.768945e+002, 4.362557e+003
1.773766e+002, 4.365558e+003
1.778588e+002, 4.367519e+003
1.783409e+002, 4.363792e+003
1.788230e+002, 4.354292e+003
1.793051e+002, 4.349234e+003
1.797872e+002, 4.353772e+003
1.802693e+002, 4.357634e+003
1.807515e+002, 4.356851e+003
1.812336e+002, 4.352592e+003
1.817157e+002, 4.348536e+003
1.821978e+002, 4.347917e+003
1.826799e+002, 4.351194e+003
1.831620e+002, 4.353328e+003
1.836441e+002, 4.353790e+003
1.841263e+002, 4.353826e+003
1.846084e+002, 4.354053e+003
1.850905e+002, 4.354452e+003
1.855726e+002, 4.354663e+003
1.860547e+002, 4.354448e+003
1.865368e+002, 4.353780e+003
1.870190e+002, 4.352007e+003
1.875011e+002, 4.348334e+003
1.879832e+002, 4.344215e+003
1.884653e+002, 4.340087e+003
1.889474e+002, 4.336129e+003
1.894296e+002, 4.333692e+003
1.899117e+002, 4.334864e+003
1.903938e+002, 4.339550e+003
1.908759e+002, 4.342993e+003
1.913580e+002, 4.344160e+003
1.918401e+002, 4.344090e+003
1.923223e+002, 4.343781e+003
1.928044e+002, 4.343289e+003
1.932865e+002, 4.342853e+003
1.937686e+002, 4.342653e+003
1.942507e+002, 4.342662e+003
1.947328e+002, 4.342957e+003
1.952150e+002, 4.344028e+003
1.956971e+002, 4.345311e+003
1.961792e+002, 4.345457e+003
1.966613e+002, 4.343752e+003
1.971434e+002, 4.342208e+003
1.976255e+002, 4.342461e+003
1.981077e+002, 4.344009e+003
1.985898e+002, 4.345701e+003
1.990719e+002, 4.347397e+003
1.995540e+002, 4.348865e+003
2.000361e+002, 4.348810e+003
2.005182e+002, 4.345506e+003
2.010004e+002, 4.343119e+003
2.014825e+002, 4.344878e+003
2.019646e+002, 4.349331e+003
2.024467e+002, 4.352822e+003
2.029288e+002, 4.352317e+003
2.034109e+002, 4.348111e+003
2.038930e+002, 4.344964e+003
2.043752e+002, 4.342670e+003
2.048573e+002, 4.341958e+003
2.053394e+002, 4.344074e+003
2.058215e+002, 4.348083e+003
2.063036e+002, 4.351912e+003
2.067857e+002, 4.353942e+003
2.072679e+002, 4.354131e+003
2.077500e+002, 4.353434e+003
2.082321e+002, 4.349327e+003
2.087142e+002, 4.346612e+003
2.091963e+002, 4.348004e+003
2.096784e+002, 4.352357e+003
2.101606e+002, 4.356316e+003
2.106427e+002, 4.356474e+003
2.111248e+002, 4.351966e+003
2.116069e+002, 4.351353e+003
2.120890e+002, 4.358186e+003
2.125711e+002, 4.365186e+003
2.130533e+002, 4.369532e+003
2.135354e+002, 4.371384e+003
2.140175e+002, 4.372501e+003
2.144996e+002, 4.374561e+003
2.149817e+002, 4.377918e+003
2.154638e+002, 4.379557e+003
2.159460e+002, 4.376846e+003
2.164281e+002, 4.375124e+003
2.169102e+002, 4.378107e+003
2.173923e+002, 4.385087e+003
2.178744e+002, 4.392004e+003
2.183565e+002, 4.394875e+003
2.188387e+002, 4.392985e+003
2.193208e+002, 4.393688e+003
2.198029e+002, 4.398927e+003
2.202850e+002, 4.404840e+003
2.207671e+002, 4.408649e+003
2.212492e+002, 4.410484e+003
2.217314e+002, 4.412893e+003
2.222135e+002, 4.418382e+003
2.226956e+002, 4.427173e+003
2.231777e+002, 4.434222e+003
2.236598e+002, 4.438109e+003
2.241419e+002, 4.441327e+003
2.246240e+002, 4.445996e+003
2.251062e+002, 4.452165e+003
2.255883e+002, 4.457917e+003
2.260704e+002, 4.461340e+003
2.265525e+002, 4.462770e+003
2.270346e+002, 4.465294e+003
2.275167e+002, 4.470189e+003
2.279989e+002, 4.475584e+003
2.284810e+002, 4.480003e+003
2.289631e+002, 4.483390e+003
2.294452e+002, 4.485585e+003
2.299273e+002, 4.485961e+003
2.304094e+002, 4.484985e+003
2.308916e+002, 4.483979e+003
2.313737e+002, 4.483713e+003
2.318558e+002, 4.483191e+003
2.323379e+002, 4.480877e+003
2.328200e+002, 4.476477e+003
2.333021e+002, 4.472384e+003
2.337843e+002, 4.472580e+003
2.342664e+002, 4.473569e+003
2.347485e+002, 4.469442e+003
2.352306e+002, 4.456616e+003
2.357127e+002, 4.439802e+003
2.361948e+002, 4.425143e+003
2.366770e+002, 4.412932e+003
2.371591e+002, 4.401344e+003
2.376412e+002, 4.389719e+003
2.381233e+002, 4.378058e+003
2.386054e+002, 4.366360e+003
2.390875e+002, 4.354845e+003
2.395697e+002, 4.342959e+003
2.400518e+002, 4.329080e+003
2.405339e+002, 4.311695e+003
2.410160e+002, 4.297088e+003
2.414981e+002, 4.290110e+003
2.419802e+002, 4.285934e+003
2.424624e+002, 4.280060e+003
2.429445e+002, 4.270780e+003
2.434266e+002, 4.259818e+003
2.439087e+002, 4.249923e+003
2.443908e+002, 4.241084e+003
2.448729e+002, 4.233422e+003
2.453550e+002, 4.227209e+003
2.458372e+002, 4.221934e+003
2.463193e+002, 4.217387e+003
2.468014e+002, 4.213520e+003
2.472835e+002, 4.209929e+003
2.477656e+002, 4.206093e+003
2.482477e+002, 4.202604e+003
2.487299e+002, 4.197275e+003
2.492120e+002, 4.187880e+003
2.496941e+002, 4.177847e+003
2.501762e+002, 4.170096e+003
2.506583e+002, 4.165458e+003
2.511404e+002, 4.162165e+003
2.516226e+002, 4.156939e+003
2.521047e+002, 4.148147e+003
2.525868e+002, 4.141311e+003
2.530689e+002, 4.138358e+003
2.535510e+002, 4.136297e+003
2.540331e+002, 4.132796e+003
2.545153e+002, 4.127369e+003
2.549974e+002, 4.121417e+003
2.554795e+002, 4.117158e+003
2.559616e+002, 4.115733e+003
2.564437e+002, 4.113645e+003
2.569258e+002, 4.110244e+003
2.574080e+002, 4.106725e+003
2.578901e+002, 4.104000e+003
2.583722e+002, 4.102168e+003
2.588543e+002, 4.100521e+003
2.593364e+002, 4.098010e+003
2.598185e+002, 4.093978e+003
2.603007e+002, 4.090768e+003
2.607828e+002, 4.089304e+003
2.612649e+002, 4.087738e+003
2.617470e+002, 4.084203e+003
2.622291e+002, 4.078921e+003
2.627112e+002, 4.074280e+003
2.631934e+002, 4.073391e+003
2.636755e+002, 4.078252e+003
2.641576e+002, 4.079390e+003
2.646397e+002, 4.073646e+003
2.651218e+002, 4.067562e+003
2.656039e+002, 4.065282e+003
2.660861e+002, 4.066533e+003
2.665682e+002, 4.067940e+003
2.670503e+002, 4.065955e+003
2.675324e+002, 4.059623e+003
2.680145e+002, 4.056166e+003
2.684966e+002, 4.057274e+003
2.689788e+002, 4.059073e+003
2.694609e+002, 4.060377e+003
2.699430e+002, 4.060808e+003
2.704251e+002, 4.059854e+003
2.709072e+002, 4.056878e+003
2.713893e+002, 4.051794e+003
2.718715e+002, 4.047845e+003
2.723536e+002, 4.044871e+003
2.728357e+002, 4.042898e+003
2.733178e+002, 4.042312e+003
2.737999e+002, 4.042791e+003
2.742820e+002, 4.043706e+003
2.747642e+002, 4.044800e+003
2.752463e+002, 4.045945e+003
2.757284e+002, 4.045452e+003
2.762105e+002, 4.042447e+003
2.766926e+002, 4.039168e+003
2.771747e+002, 4.035719e+003
2.776568e+002, 4.032531e+003
2.781389e+002, 4.030769e+003
2.786211e+002, 4.031355e+003
2.791032e+002, 4.033429e+003
2.795853e+002, 4.033153e+003
2.800674e+002, 4.028113e+003
2.805495e+002, 4.024059e+003
2.810316e+002, 4.023408e+003
2.815138e+002, 4.024604e+003
2.819959e+002, 4.024893e+003
2.824780e+002, 4.023078e+003
2.829601e+002, 4.019794e+003
2.834422e+002, 4.016581e+003
2.839243e+002, 4.013322e+003
2.844065e+002, 4.010341e+003
2.848886e+002, 4.007412e+003
2.853707e+002, 4.004888e+003
2.858528e+002, 4.003483e+003
2.863349e+002, 4.003515e+003
2.868170e+002, 4.004180e+003
2.872992e+002, 4.003860e+003
2.877813e+002, 4.001714e+003
2.882634e+002, 4.001450e+003
2.887455e+002, 4.006010e+003
2.892276e+002, 4.011816e+003
2.897097e+002, 4.014207e+003
2.901919e+002, 4.012055e+003
2.906740e+002, 4.008038e+003
2.911561e+002, 4.005128e+003
2.916382e+002, 4.003436e+003
2.921203e+002, 4.002208e+003
2.926024e+002, 4.000898e+003
2.930846e+002, 4.000288e+003
2.935667e+002, 4.002141e+003
2.940488e+002, 4.006589e+003
2.945309e+002, 4.009849e+003
2.950130e+002, 4.007258e+003
2.954951e+002, 3.998840e+003
2.959773e+002, 3.995161e+003
2.964594e+002, 4.001075e+003
2.969415e+002, 4.008582e+003
2.974236e+002, 4.011317e+003
2.979057e+002, 4.009250e+003
2.983878e+002, 4.006078e+003
2.988700e+002, 4.003948e+003
2.993521e+002, 4.002924e+003
2.998342e+002, 4.002635e+003
3.003163e+002, 4.003993e+003
3.007984e+002, 4.005222e+003
3.012805e+002, 4.005051e+003
3.017627e+002, 4.003750e+003
3.022448e+002, 4.002564e+003
3.027269e+002, 4.002075e+003
3.032090e+002, 4.002227e+003
3.036911e+002, 4.002849e+003
3.041732e+002, 4.004798e+003
3.046554e+002, 4.005884e+003
3.051375e+002, 4.004352e+003
3.056196e+002, 4.001185e+003
3.061017e+002, 3.998958e+003
3.065838e+002, 3.998787e+003
3.070659e+002, 3.999786e+003
3.075481e+002, 4.000552e+003
3.080302e+002, 4.001519e+003
3.085123e+002, 4.001089e+003
3.089944e+002, 3.997743e+003
3.094765e+002, 3.992879e+003
3.099586e+002, 3.988753e+003
3.104408e+002, 3.985879e+003
3.109229e+002, 3.984108e+003
3.114050e+002, 3.983922e+003
3.118871e+002, 3.985431e+003
3.123692e+002, 3.985588e+003
3.128513e+002, 3.982474e+003
3.133335e+002, 3.978275e+003
3.138156e+002, 3.975837e+003
3.142977e+002, 3.975618e+003
3.147798e+002, 3.975545e+003
3.152619e+002, 3.973690e+003
3.157440e+002, 3.970083e+003
3.162262e+002, 3.966265e+003
3.167083e+002, 3.962090e+003
3.171904e+002, 3.957916e+003
3.176725e+002, 3.953894e+003
3.181546e+002, 3.950048e+003
3.186367e+002, 3.946799e+003
3.191188e+002, 3.944774e+003
3.196010e+002, 3.943546e+003
3.200831e+002, 3.941105e+003
3.205652e+002, 3.936697e+003
3.210473e+002, 3.931869e+003
3.215294e+002, 3.927283e+003
3.220115e+002, 3.922953e+003
3.224937e+002, 3.918982e+003
3.229758e+002, 3.915709e+003
3.234579e+002, 3.912517e+003
3.239400e+002, 3.907562e+003
3.244221e+002, 3.899122e+003
3.249042e+002, 3.892819e+003
3.253864e+002, 3.891901e+003
3.258685e+002, 3.894292e+003
3.263506e+002, 3.896415e+003
3.268327e+002, 3.897375e+003
3.273148e+002, 3.896950e+003
3.277969e+002, 3.894154e+003
3.282791e+002, 3.888477e+003
3.287612e+002, 3.883915e+003
3.292433e+002, 3.882360e+003
3.297254e+002, 3.881784e+003
3.302075e+002, 3.879234e+003
3.306896e+002, 3.874202e+003
3.311718e+002, 3.869761e+003
3.316539e+002, 3.869559e+003
3.321360e+002, 3.874009e+003
3.326181e+002, 3.876111e+003
3.331002e+002, 3.873481e+003
3.335823e+002, 3.870067e+003
3.340645e+002, 3.868943e+003
3.345466e+002, 3.869991e+003
3.350287e+002, 3.871045e+003
3.355108e+002, 3.870615e+003
3.359929e+002, 3.868852e+003
3.364750e+002, 3.867230e+003
3.369572e+002, 3.865894e+003
3.374393e+002, 3.864479e+003
3.379214e+002, 3.862110e+003
3.384035e+002, 3.859493e+003
3.388856e+002, 3.858809e+003
3.393677e+002, 3.861501e+003
3.398499e+002, 3.865689e+003
3.403320e+002, 3.865902e+003
3.408141e+002, 3.859390e+003
3.412962e+002, 3.854496e+003
3.417783e+002, 3.854114e+003
3.422604e+002, 3.855733e+003
3.427426e+002, 3.856073e+003
3.432247e+002, 3.854200e+003
3.437068e+002, 3.851449e+003
3.441889e+002, 3.849726e+003
3.446710e+002, 3.849723e+003
3.451531e+002, 3.848712e+003
3.456353e+002, 3.845782e+003
3.461174e+002, 3.842496e+003
3.465995e+002, 3.840099e+003
3.470816e+002, 3.838667e+003
3.475637e+002, 3.837422e+003
3.480458e+002, 3.835658e+003
3.485280e+002, 3.833333e+003
3.490101e+002, 3.831549e+003
3.494922e+002, 3.831081e+003
3.499743e+002, 3.830307e+003
3.504564e+002, 3.827903e+003
3.509385e+002, 3.824654e+003
3.514207e+002, 3.822651e+003
3.519028e+002, 3.823328e+003
3.523849e+002, 3.825735e+003
3.528670e+002, 3.825715e+003
3.533491e+002, 3.819212e+003
3.538312e+002, 3.815329e+003
3.543134e+002, 3.816652e+003
3.547955e+002, 3.820584e+003
3.552776e+002, 3.824394e+003
3.557597e+002, 3.827087e+003
3.562418e+002, 3.828911e+003
3.567239e+002, 3.830332e+003
3.572061e+002, 3.831671e+003
3.576882e+002, 3.831754e+003
3.581703e+002, 3.828425e+003
3.586524e+002, 3.825529e+003
3.591345e+002, 3.826713e+003
3.596166e+002, 3.831580e+003
3.600987e+002, 3.836153e+003
3.605808e+002, 3.836242e+003
3.610630e+002, 3.831110e+003
3.615451e+002, 3.828555e+003
3.620272e+002, 3.831354e+003
3.625093e+002, 3.833655e+003
3.629914e+002, 3.833157e+003
3.634735e+002, 3.830747e+003
3.639557e+002, 3.828564e+003
3.644378e+002, 3.828028e+003
3.649199e+002, 3.828356e+003
3.654020e+002, 3.826004e+003
3.658841e+002, 3.816897e+003
3.663662e+002, 3.810814e+003
3.668484e+002, 3.810630e+003
3.673305e+002, 3.812981e+003
3.678126e+002, 3.814894e+003
3.682947e+002, 3.815333e+003
3.687768e+002, 3.814711e+003
3.692589e+002, 3.813661e+003
3.697411e+002, 3.812331e+003
3.702232e+002, 3.810119e+003
3.707053e+002, 3.806094e+003
3.711874e+002, 3.801995e+003
3.716695e+002, 3.798711e+003
3.721516e+002, 3.796236e+003
3.726338e+002, 3.793938e+003
3.731159e+002, 3.791147e+003
3.735980e+002, 3.787898e+003
3.740801e+002, 3.785619e+003
3.745622e+002, 3.785521e+003
3.750443e+002, 3.784870e+003
3.755265e+002, 3.782103e+003
3.760086e+002, 3.778363e+003
3.764907e+002, 3.775598e+003
3.769728e+002, 3.774953e+003
3.774549e+002, 3.775284e+003
3.779370e+002, 3.773772e+003
3.784192e+002, 3.769476e+003
3.789013e+002, 3.766026e+003
3.793834e+002, 3.764938e+003
3.798655e+002, 3.764765e+003
3.803476e+002, 3.764808e+003
3.808297e+002, 3.764909e+003
3.813119e+002, 3.764305e+003
3.817940e+002, 3.762000e+003
3.822761e+002, 3.758032e+003
3.827582e+002, 3.753984e+003
3.832403e+002, 3.749777e+003
3.837224e+002, 3.745908e+003
3.842046e+002, 3.742751e+003
3.846867e+002, 3.740193e+003
3.851688e+002, 3.737714e+003
3.856509e+002, 3.733970e+003
3.861330e+002, 3.730317e+003
3.866151e+002, 3.730711e+003
3.870973e+002, 3.736490e+003
3.875794e+002, 3.741434e+003
3.880615e+002, 3.741519e+003
3.885436e+002, 3.738593e+003
3.890257e+002, 3.734813e+003
3.895078e+002, 3.729927e+003
3.899900e+002, 3.725407e+003
3.904721e+002, 3.723132e+003
3.909542e+002, 3.722724e+003
3.914363e+002, 3.721126e+003
3.919184e+002, 3.716476e+003
3.924005e+002, 3.711297e+003
3.928827e+002, 3.709420e+003
3.933648e+002, 3.711066e+003
3.938469e+002, 3.712380e+003
3.943290e+002, 3.711903e+003
3.948111e+002, 3.710179e+003
3.952932e+002, 3.707765e+003
3.957754e+002, 3.704648e+003
3.962575e+002, 3.701870e+003
3.967396e+002, 3.700820e+003
3.972217e+002, 3.701227e+003
3.977038e+002, 3.699947e+003
3.981859e+002, 3.695992e+003
3.986681e+002, 3.691063e+003
3.991501e+002, 3.685496e+003
3.996323e+002, 3.679721e+003
4.001144e+002, 3.675108e+003
4.005965e+002, 3.672377e+003
4.010786e+002, 3.671173e+003
4.015607e+002, 3.670712e+003
4.020428e+002, 3.671682e+003
4.025250e+002, 3.672025e+003
4.030071e+002, 3.670606e+003
4.034892e+002, 3.668706e+003
4.039713e+002, 3.668227e+003
4.044534e+002, 3.669476e+003
4.049355e+002, 3.670595e+003
4.054177e+002, 3.669392e+003
4.058998e+002, 3.665456e+003
4.063819e+002, 3.660960e+003
4.068640e+002, 3.654616e+003
4.073461e+002, 3.649029e+003
4.078282e+002, 3.645631e+003
4.083104e+002, 3.644060e+003
4.087925e+002, 3.643294e+003
4.092746e+002, 3.642756e+003
4.097567e+002, 3.642334e+003
4.102388e+002, 3.641505e+003
4.107209e+002, 3.641192e+003
4.112031e+002, 3.639121e+003
4.116852e+002, 3.633519e+003
4.121673e+002, 3.626976e+003
4.126494e+002, 3.622129e+003
4.131315e+002, 3.619571e+003
4.136136e+002, 3.617748e+003
4.140958e+002, 3.614484e+003
4.145779e+002, 3.609216e+003
4.150600e+002, 3.604717e+003
4.155421e+002, 3.601605e+003
4.160242e+002, 3.598744e+003
4.165063e+002, 3.595649e+003
4.169885e+002, 3.592454e+003
4.174706e+002, 3.589578e+003
4.179527e+002, 3.587232e+003
4.184348e+002, 3.585438e+003
4.189169e+002, 3.584181e+003
4.193990e+002, 3.583307e+003
4.198812e+002, 3.583387e+003
4.203633e+002, 3.585909e+003
4.208454e+002, 3.588696e+003
4.213275e+002, 3.589748e+003
4.218096e+002, 3.588575e+003
4.222917e+002, 3.585980e+003
4.227739e+002, 3.582083e+003
4.232560e+002, 3.576993e+003
4.237381e+002, 3.573247e+003
4.242202e+002, 3.572178e+003
4.247023e+002, 3.571172e+003
4.251844e+002, 3.567284e+003
4.256666e+002, 3.561521e+003
4.261487e+002, 3.557630e+003
4.266308e+002, 3.558603e+003
4.271129e+002, 3.561697e+003
4.275950e+002, 3.562772e+003
4.280771e+002, 3.561710e+003
4.285593e+002, 3.560610e+003
4.290414e+002, 3.561329e+003
4.295235e+002, 3.562280e+003
4.300056e+002, 3.559987e+003
4.304877e+002, 3.552877e+003
4.309698e+002, 3.546144e+003
4.314520e+002, 3.542460e+003
4.319341e+002, 3.540987e+003
4.324162e+002, 3.540344e+003
4.328983e+002, 3.540335e+003
4.333804e+002, 3.540183e+003
4.338625e+002, 3.538979e+003
4.343447e+002, 3.536591e+003
4.348268e+002, 3.533812e+003
4.353089e+002, 3.530531e+003
4.357910e+002, 3.526962e+003
4.362731e+002, 3.523077e+003
4.367552e+002, 3.519000e+003
4.372374e+002, 3.515174e+003
4.377195e+002, 3.511940e+003
4.382016e+002, 3.508976e+003
4.386837e+002, 3.505121e+003
4.391658e+002, 3.497425e+003
4.396479e+002, 3.492652e+003
4.401301e+002, 3.492743e+003
4.406122e+002, 3.495136e+003
4.410943e+002, 3.498607e+003
4.415764e+002, 3.502326e+003
4.420585e+002, 3.504224e+003
4.425406e+002, 3.501485e+003
4.430227e+002, 3.493230e+003
4.435049e+002, 3.486833e+003
4.439870e+002, 3.482898e+003
4.444691e+002, 3.480285e+003
4.449512e+002, 3.479597e+003
4.454333e+002, 3.479859e+003
4.459154e+002, 3.479670e+003
4.463976e+002, 3.478341e+003
4.468797e+002, 3.476040e+003
4.473618e+002, 3.472925e+003
4.478439e+002, 3.468512e+003
4.483260e+002, 3.464713e+003
4.488081e+002, 3.461660e+003
4.492903e+002, 3.459469e+003
4.497724e+002, 3.458488e+003
4.502545e+002, 3.458614e+003
4.507366e+002, 3.459098e+003
4.512187e+002, 3.459683e+003
4.517008e+002, 3.460203e+003
4.521830e+002, 3.459688e+003
4.526651e+002, 3.457479e+003
4.531472e+002, 3.455816e+003
4.536293e+002, 3.457298e+003
4.541114e+002, 3.459841e+003
4.545935e+002, 3.460203e+003
4.550757e+002, 3.456737e+003
4.555578e+002, 3.452829e+003
4.560399e+002, 3.451441e+003
4.565220e+002, 3.452065e+003
4.570041e+002, 3.452561e+003
4.574862e+002, 3.452469e+003
4.579684e+002, 3.451743e+003
4.584505e+002, 3.450043e+003
4.589326e+002, 3.447392e+003
4.594147e+002, 3.444976e+003
4.598968e+002, 3.443299e+003
4.603789e+002, 3.441767e+003
4.608611e+002, 3.439801e+003
4.613432e+002, 3.437467e+003
4.618253e+002, 3.435242e+003
4.623074e+002, 3.433389e+003
4.627895e+002, 3.431896e+003
4.632716e+002, 3.430646e+003
4.637538e+002, 3.430948e+003
4.642359e+002, 3.429793e+003
4.647180e+002, 3.425294e+003
4.652001e+002, 3.419990e+003
4.656822e+002, 3.416077e+003
4.661643e+002, 3.414146e+003
4.666465e+002, 3.414314e+003
4.671286e+002, 3.417236e+003
4.676107e+002, 3.423575e+003
4.680928e+002, 3.426235e+003
4.685749e+002, 3.422545e+003
4.690570e+002, 3.417886e+003
4.695392e+002, 3.411913e+003
4.700213e+002, 3.406324e+003
4.705034e+002, 3.404090e+003
4.709855e+002, 3.406658e+003
4.714676e+002, 3.410808e+003
4.719497e+002, 3.410392e+003
4.724319e+002, 3.404115e+003
4.729140e+002, 3.398999e+003
4.733961e+002, 3.395562e+003
4.738782e+002, 3.394144e+003
4.743603e+002, 3.396820e+003
4.748424e+002, 3.402251e+003
4.753246e+002, 3.405367e+003
4.758067e+002, 3.402109e+003
4.762888e+002, 3.394888e+003
4.767709e+002, 3.388302e+003
4.772530e+002, 3.382171e+003
4.777351e+002, 3.378128e+003
4.782173e+002, 3.378190e+003
4.786994e+002, 3.380215e+003
4.791815e+002, 3.380574e+003
4.796636e+002, 3.378550e+003
4.801457e+002, 3.376968e+003
4.806278e+002, 3.377805e+003
4.811100e+002, 3.379882e+003
4.815920e+002, 3.381453e+003
4.820742e+002, 3.382258e+003
4.825563e+002, 3.381348e+003
4.830384e+002, 3.377168e+003
4.835205e+002, 3.369827e+003
4.840026e+002, 3.365055e+003
4.844847e+002, 3.364788e+003
4.849669e+002, 3.364802e+003
4.854490e+002, 3.363135e+003
4.859311e+002, 3.360615e+003
4.864132e+002, 3.358819e+003
4.868953e+002, 3.358324e+003
4.873774e+002, 3.358529e+003
4.878596e+002, 3.358609e+003
4.883417e+002, 3.359183e+003
4.888238e+002, 3.357806e+003
4.893059e+002, 3.352219e+003
4.897880e+002, 3.347188e+003
4.902701e+002, 3.345728e+003
4.907523e+002, 3.346710e+003
4.912344e+002, 3.347230e+003
4.917165e+002, 3.345505e+003
4.921986e+002, 3.342313e+003
4.926807e+002, 3.340022e+003
4.931628e+002, 3.339569e+003
4.936450e+002, 3.337468e+003
4.941271e+002, 3.330319e+003
4.946092e+002, 3.323239e+003
4.950913e+002, 3.320175e+003
4.955734e+002, 3.321049e+003
4.960555e+002, 3.322228e+003
4.965377e+002, 3.321281e+003
4.970198e+002, 3.318733e+003
4.975019e+002, 3.315809e+003
4.979840e+002, 3.312372e+003
4.984661e+002, 3.309271e+003
4.989482e+002, 3.306824e+003
4.994304e+002, 3.305077e+003
4.999125e+002, 3.304139e+003
5.003946e+002, 3.304359e+003
5.008767e+002, 3.304549e+003
5.013588e+002, 3.303970e+003
5.018409e+002, 3.303014e+003
5.023231e+002, 3.302365e+003
5.028052e+002, 3.302169e+003
5.032873e+002, 3.302213e+003
5.037694e+002, 3.302358e+003
5.042515e+002, 3.302615e+003
5.047336e+002, 3.302613e+003
5.052158e+002, 3.302891e+003
5.056979e+002, 3.302358e+003
5.061800e+002, 3.299465e+003
5.066621e+002, 3.295854e+003
5.071442e+002, 3.294418e+003
5.076263e+002, 3.296096e+003
5.081085e+002, 3.298699e+003
5.085906e+002, 3.298691e+003
5.090727e+002, 3.295058e+003
5.095548e+002, 3.292428e+003
5.100369e+002, 3.291296e+003
5.105190e+002, 3.290662e+003
5.110012e+002, 3.290743e+003
5.114833e+002, 3.290958e+003
5.119654e+002, 3.290036e+003
5.124475e+002, 3.287014e+003
5.129296e+002, 3.283653e+003
5.134117e+002, 3.283829e+003
5.138939e+002, 3.288245e+003
5.143760e+002, 3.290767e+003
5.148581e+002, 3.289407e+003
5.153402e+002, 3.286303e+003
5.158223e+002, 3.282763e+003
5.163044e+002, 3.278988e+003
5.167866e+002, 3.276069e+003
5.172687e+002, 3.275063e+003
5.177508e+002, 3.274811e+003
5.182329e+002, 3.273544e+003
5.187150e+002, 3.271374e+003
5.191971e+002, 3.270210e+003
5.196793e+002, 3.271454e+003
5.201614e+002, 3.273656e+003
5.206435e+002, 3.273227e+003
5.211256e+002, 3.269178e+003
5.216077e+002, 3.265966e+003
5.220898e+002, 3.265087e+003
5.225720e+002, 3.264815e+003
5.230541e+002, 3.264062e+003
5.235362e+002, 3.262531e+003
5.240183e+002, 3.259609e+003
5.245004e+002, 3.254574e+003
5.249825e+002, 3.248209e+003
5.254647e+002, 3.244566e+003
5.259468e+002, 3.246250e+003
5.264289e+002, 3.247088e+003
5.269110e+002, 3.246302e+003
5.273931e+002, 3.244683e+003
5.278752e+002, 3.242474e+003
5.283574e+002, 3.239968e+003
5.288395e+002, 3.238013e+003
5.293216e+002, 3.237929e+003
5.298037e+002, 3.239147e+003
5.302858e+002, 3.237550e+003
5.307679e+002, 3.231145e+003
5.312501e+002, 3.226578e+003
5.317322e+002, 3.229818e+003
5.322143e+002, 3.234878e+003
5.326964e+002, 3.234847e+003
5.331785e+002, 3.227948e+003
5.336606e+002, 3.221264e+003
5.341428e+002, 3.220420e+003
5.346249e+002, 3.222882e+003
5.351070e+002, 3.222995e+003
5.355891e+002, 3.219907e+003
5.360712e+002, 3.216295e+003
5.365533e+002, 3.214153e+003
5.370355e+002, 3.213220e+003
5.375176e+002, 3.211797e+003
5.379997e+002, 3.210303e+003
5.384818e+002, 3.207866e+003
5.389639e+002, 3.202730e+003
5.394460e+002, 3.197199e+003
5.399282e+002, 3.194907e+003
5.404103e+002, 3.196231e+003
5.408924e+002, 3.197506e+003
5.413745e+002, 3.194528e+003
5.418566e+002, 3.187094e+003
5.423387e+002, 3.182578e+003
5.428209e+002, 3.184056e+003
5.433029e+002, 3.184928e+003
5.437850e+002, 3.183353e+003
5.442672e+002, 3.180754e+003
5.447493e+002, 3.179122e+003
5.452314e+002, 3.178906e+003
5.457135e+002, 3.178221e+003
5.461956e+002, 3.173973e+003
5.466777e+002, 3.166663e+003
5.471599e+002, 3.162977e+003
5.476420e+002, 3.165098e+003
5.481241e+002, 3.166969e+003
5.486062e+002, 3.163455e+003
5.490883e+002, 3.157488e+003
5.495704e+002, 3.153915e+003
5.500526e+002, 3.154532e+003
5.505347e+002, 3.155524e+003
5.510168e+002, 3.154087e+003
5.514989e+002, 3.151373e+003
5.519810e+002, 3.150250e+003
5.524631e+002, 3.151369e+003
5.529453e+002, 3.151952e+003
5.534274e+002, 3.149055e+003
5.539095e+002, 3.142644e+003
5.543916e+002, 3.138223e+003
5.548737e+002, 3.137219e+003
5.553558e+002, 3.136161e+003
5.558380e+002, 3.134014e+003
5.563201e+002, 3.131303e+003
5.568022e+002, 3.128573e+003
5.572843e+002, 3.126027e+003
5.577664e+002, 3.123903e+003
5.582485e+002, 3.122596e+003
5.587307e+002, 3.122158e+003
5.592128e+002, 3.121266e+003
5.596949e+002, 3.119942e+003
5.601770e+002, 3.118100e+003
5.606591e+002, 3.114422e+003
5.611412e+002, 3.110850e+003
5.616234e+002, 3.110633e+003
5.621055e+002, 3.114984e+003
5.625876e+002, 3.118332e+003
5.630697e+002, 3.114138e+003
5.635518e+002, 3.104914e+003
5.640339e+002, 3.099401e+003
5.645161e+002, 3.099085e+003
5.649982e+002, 3.099914e+003
5.654803e+002, 3.098986e+003
5.659624e+002, 3.096837e+003
5.664445e+002, 3.095924e+003
5.669266e+002, 3.097413e+003
5.674088e+002, 3.098463e+003
5.678909e+002, 3.098149e+003
5.683730e+002, 3.096843e+003
5.688551e+002, 3.094331e+003
5.693372e+002, 3.090925e+003
5.698193e+002, 3.088656e+003
5.703015e+002, 3.089913e+003
5.707836e+002, 3.094332e+003
5.712657e+002, 3.094778e+003
5.717478e+002, 3.087101e+003
5.722299e+002, 3.080901e+003
5.727120e+002, 3.078223e+003
5.731942e+002, 3.077227e+003
5.736763e+002, 3.076251e+003
5.741584e+002, 3.074997e+003
5.746405e+002, 3.074096e+003
5.751226e+002, 3.074458e+003
5.756047e+002, 3.075668e+003
5.760869e+002, 3.075983e+003
5.765690e+002, 3.075269e+003
5.770511e+002, 3.074168e+003
5.775332e+002, 3.072893e+003
5.780153e+002, 3.071434e+003
5.784974e+002, 3.069987e+003
5.789796e+002, 3.068776e+003
5.794617e+002, 3.066578e+003
5.799438e+002, 3.061462e+003
5.804259e+002, 3.056004e+003
5.809080e+002, 3.053832e+003
5.813901e+002, 3.054675e+003
5.818723e+002, 3.054767e+003
5.823544e+002, 3.051489e+003
5.828365e+002, 3.046194e+003
5.833186e+002, 3.043513e+003
5.838007e+002, 3.046473e+003
5.842828e+002, 3.047496e+003
5.847650e+002, 3.045918e+003
5.852471e+002, 3.042976e+003
5.857292e+002, 3.038749e+003
5.862113e+002, 3.033846e+003
5.866934e+002, 3.029462e+003
5.871755e+002, 3.026207e+003
5.876577e+002, 3.024198e+003
5.881398e+002, 3.024442e+003
5.886219e+002, 3.027544e+003
5.891040e+002, 3.028504e+003
5.895861e+002, 3.024241e+003
5.900682e+002, 3.019504e+003
5.905504e+002, 3.019863e+003
5.910325e+002, 3.024290e+003
5.915146e+002, 3.026007e+003
5.919967e+002, 3.020793e+003
5.924788e+002, 3.013878e+003
5.929609e+002, 3.008896e+003
5.934431e+002, 3.005871e+003
5.939252e+002, 3.005153e+003
5.944073e+002, 3.007048e+003
5.948894e+002, 3.009438e+003
5.953715e+002, 3.009048e+003
5.958536e+002, 3.004600e+003
5.963358e+002, 3.003273e+003
5.968179e+002, 3.009644e+003
5.973000e+002, 3.013602e+003
5.977821e+002, 3.009287e+003
5.982642e+002, 3.001170e+003
5.987463e+002, 2.995845e+003
5.992285e+002, 2.995526e+003
5.997106e+002, 2.997207e+003
6.001927e+002, 2.997390e+003
6.006748e+002, 2.996125e+003
6.011569e+002, 2.995033e+003
6.016390e+002, 2.994421e+003
6.021212e+002, 2.993440e+003
6.026033e+002, 2.990774e+003
6.030854e+002, 2.987675e+003
6.035675e+002, 2.986256e+003
6.040496e+002, 2.987193e+003
6.045317e+002, 2.988501e+003
6.050139e+002, 2.990246e+003
6.054960e+002, 2.991284e+003
6.059781e+002, 2.989426e+003
6.064602e+002, 2.984683e+003
6.069423e+002, 2.979315e+003
6.074244e+002, 2.974718e+003
6.079066e+002, 2.971094e+003
6.083887e+002, 2.969344e+003
6.088708e+002, 2.970974e+003
6.093529e+002, 2.972464e+003
6.098350e+002, 2.974261e+003
6.103171e+002, 2.975435e+003
6.107993e+002, 2.975031e+003
6.112814e+002, 2.973358e+003
6.117635e+002, 2.971535e+003
6.122456e+002, 2.970180e+003
6.127277e+002, 2.969255e+003
6.132098e+002, 2.968937e+003
6.136920e+002, 2.969333e+003
6.141741e+002, 2.968974e+003
6.146562e+002, 2.967704e+003
6.151383e+002, 2.965254e+003
6.156204e+002, 2.959715e+003
6.161025e+002, 2.951967e+003
6.165847e+002, 2.948157e+003
6.170668e+002, 2.953371e+003
6.175489e+002, 2.959069e+003
6.180310e+002, 2.959536e+003
6.185131e+002, 2.956566e+003
6.189952e+002, 2.953763e+003
6.194774e+002, 2.952233e+003
6.199595e+002, 2.951262e+003
6.204416e+002, 2.949907e+003
6.209237e+002, 2.948051e+003
6.214058e+002, 2.947663e+003
6.218879e+002, 2.951343e+003
6.223701e+002, 2.953292e+003
6.228522e+002, 2.950895e+003
6.233343e+002, 2.947036e+003
6.238164e+002, 2.944877e+003
6.242985e+002, 2.944944e+003
6.247806e+002, 2.945081e+003
6.252628e+002, 2.943074e+003
6.257448e+002, 2.939878e+003
6.262269e+002, 2.938227e+003
6.267090e+002, 2.938296e+003
6.271912e+002, 2.938507e+003
6.276733e+002, 2.938356e+003
6.281554e+002, 2.937727e+003
6.286375e+002, 2.936220e+003
6.291196e+002, 2.933695e+003
6.296017e+002, 2.931214e+003
6.300839e+002, 2.928097e+003
6.305660e+002, 2.925790e+003
6.310481e+002, 2.925870e+003
6.315302e+002, 2.927519e+003
6.320123e+002, 2.928826e+003
6.324944e+002, 2.928909e+003
6.329766e+002, 2.928150e+003
6.334587e+002, 2.927254e+003
6.339408e+002, 2.926359e+003
6.344229e+002, 2.924440e+003
6.349050e+002, 2.919851e+003
6.353871e+002, 2.916438e+003
6.358693e+002, 2.916812e+003
6.363514e+002, 2.919000e+003
6.368335e+002, 2.920002e+003
6.373156e+002, 2.919006e+003
6.377977e+002, 2.917296e+003
6.382798e+002, 2.915081e+003
6.387620e+002, 2.913011e+003
6.392441e+002, 2.912734e+003
6.397262e+002, 2.914358e+003
6.402083e+002, 2.915659e+003
6.406904e+002, 2.915112e+003
6.411725e+002, 2.913272e+003
6.416547e+002, 2.912005e+003
6.421368e+002, 2.912329e+003
6.426189e+002, 2.911678e+003
6.431010e+002, 2.908954e+003
6.435831e+002, 2.906226e+003
6.440652e+002, 2.904728e+003
6.445474e+002, 2.904336e+003
6.450295e+002, 2.904436e+003
6.455116e+002, 2.904753e+003
6.459937e+002, 2.905199e+003
6.464758e+002, 2.905965e+003
6.469579e+002, 2.907040e+003
6.474401e+002, 2.906605e+003
6.479222e+002, 2.903766e+003
6.484043e+002, 2.900730e+003
6.488864e+002, 2.899166e+003
6.493685e+002, 2.898774e+003
6.498506e+002, 2.898629e+003
6.503328e+002, 2.898328e+003
6.508149e+002, 2.898822e+003
6.512970e+002, 2.902118e+003
6.517791e+002, 2.905544e+003
6.522612e+002, 2.904730e+003
6.527433e+002, 2.900048e+003
6.532255e+002, 2.896519e+003
6.537076e+002, 2.897985e+003
6.541897e+002, 2.903179e+003
6.546718e+002, 2.907512e+003
6.551539e+002, 2.910815e+003
6.556360e+002, 2.913581e+003
6.561182e+002, 2.915431e+003
6.566003e+002, 2.917077e+003
6.570824e+002, 2.918516e+003
6.575645e+002, 2.920020e+003
6.580466e+002, 2.922443e+003
6.585287e+002, 2.926868e+003
6.590109e+002, 2.931082e+003
6.594930e+002, 2.931845e+003
6.599751e+002, 2.930738e+003
6.604572e+002, 2.932884e+003
6.609393e+002, 2.939471e+003
6.614214e+002, 2.946085e+003
6.619036e+002, 2.948408e+003
6.623857e+002, 2.947127e+003
6.628678e+002, 2.949554e+003
6.633499e+002, 2.958899e+003
6.638320e+002, 2.967834e+003
6.643141e+002, 2.975631e+003
6.647963e+002, 2.982963e+003
6.652784e+002, 2.990277e+003
6.657605e+002, 2.997672e+003
6.662426e+002, 3.005030e+003
6.667247e+002, 3.012029e+003
6.672068e+002, 3.019477e+003
6.676890e+002, 3.029117e+003
6.681711e+002, 3.040905e+003
6.686532e+002, 3.053026e+003
6.691353e+002, 3.064776e+003
6.696174e+002, 3.077381e+003
6.700995e+002, 3.092525e+003
6.705817e+002, 3.109843e+003
6.710638e+002, 3.125062e+003
6.715459e+002, 3.135130e+003
6.720280e+002, 3.146723e+003
6.725101e+002, 3.161860e+003
6.729922e+002, 3.179482e+003
6.734744e+002, 3.199029e+003
6.739565e+002, 3.220031e+003
6.744386e+002, 3.241591e+003
6.749207e+002, 3.263196e+003
6.754028e+002, 3.284802e+003
6.758849e+002, 3.306043e+003
6.763671e+002, 3.326365e+003
6.768492e+002, 3.348853e+003
6.773313e+002, 3.375698e+003
6.778134e+002, 3.403308e+003
6.782955e+002, 3.429081e+003
6.787776e+002, 3.453260e+003
6.792598e+002, 3.476591e+003
6.797419e+002, 3.500933e+003
6.802240e+002, 3.522309e+003
6.807061e+002, 3.538190e+003
6.811882e+002, 3.549655e+003
6.816703e+002, 3.559495e+003
6.821525e+002, 3.567645e+003
6.826346e+002, 3.570164e+003
6.831167e+002, 3.563606e+003
6.835988e+002, 3.548939e+003
6.840809e+002, 3.530980e+003
6.845630e+002, 3.510743e+003
6.850452e+002, 3.485089e+003
6.855273e+002, 3.450534e+003
6.860094e+002, 3.413232e+003
6.864915e+002, 3.375492e+003
6.869736e+002, 3.337899e+003
6.874557e+002, 3.301176e+003
6.879379e+002, 3.266105e+003
6.884200e+002, 3.231260e+003
6.889021e+002, 3.193932e+003
6.893842e+002, 3.156205e+003
6.898663e+002, 3.123150e+003
6.903484e+002, 3.095500e+003
6.908306e+002, 3.072029e+003
6.913127e+002, 3.052098e+003
6.917948e+002, 3.035047e+003
6.922769e+002, 3.017068e+003
6.927590e+002, 2.996062e+003
6.932411e+002, 2.977587e+003
6.937233e+002, 2.962737e+003
6.942054e+002, 2.949689e+003
6.946875e+002, 2.937910e+003
6.951696e+002, 2.926948e+003
6.956517e+002, 2.915992e+003
6.961339e+002, 2.904500e+003
6.966160e+002, 2.893520e+003
6.970981e+002, 2.884383e+003
6.975802e+002, 2.876728e+003
6.980623e+002, 2.868870e+003
6.985444e+002, 2.860522e+003
6.990266e+002, 2.853278e+003
6.995087e+002, 2.848566e+003
6.999908e+002, 2.845609e+003
7.004729e+002, 2.841544e+003
7.009550e+002, 2.834897e+003
7.014371e+002, 2.829365e+003
7.019193e+002, 2.825177e+003
7.024014e+002, 2.821918e+003
7.028835e+002, 2.819826e+003
7.033656e+002, 2.818392e+003
7.038477e+002, 2.816657e+003
7.043298e+002, 2.814217e+003
7.048120e+002, 2.811479e+003
7.052941e+002, 2.808797e+003
7.057762e+002, 2.806261e+003
7.062583e+002, 2.804385e+003
7.067404e+002, 2.803355e+003
7.072225e+002, 2.802102e+003
7.077046e+002, 2.799771e+003
7.081867e+002, 2.796970e+003
7.086688e+002, 2.795360e+003
7.091509e+002, 2.795777e+003
7.096331e+002, 2.795155e+003
7.101152e+002, 2.791995e+003
7.105973e+002, 2.788961e+003
7.110794e+002, 2.788265e+003
7.115615e+002, 2.788634e+003
7.120436e+002, 2.787385e+003
7.125258e+002, 2.783572e+003
7.130079e+002, 2.779426e+003
7.134900e+002, 2.777496e+003
7.139721e+002, 2.777493e+003
7.144542e+002, 2.778328e+003
7.149363e+002, 2.780382e+003
7.154185e+002, 2.780413e+003
7.159006e+002, 2.775722e+003
7.163827e+002, 2.769471e+003
7.168648e+002, 2.767578e+003
7.173469e+002, 2.771065e+003
7.178290e+002, 2.772337e+003
7.183112e+002, 2.768642e+003
7.187933e+002, 2.764870e+003
7.192754e+002, 2.763676e+003
7.197575e+002, 2.763847e+003
7.202396e+002, 2.763528e+003
7.207217e+002, 2.762224e+003
7.212039e+002, 2.760570e+003
7.216860e+002, 2.758984e+003
7.221681e+002, 2.757592e+003
7.226502e+002, 2.757336e+003
7.231323e+002, 2.758535e+003
7.236144e+002, 2.758019e+003
7.240966e+002, 2.753897e+003
7.245787e+002, 2.749026e+003
7.250608e+002, 2.747202e+003
7.255429e+002, 2.748332e+003
7.260250e+002, 2.747861e+003
7.265071e+002, 2.743293e+003
7.269893e+002, 2.739823e+003
7.274714e+002, 2.740660e+003
7.279535e+002, 2.742802e+003
7.284356e+002, 2.742588e+003
7.289177e+002, 2.739850e+003
7.293998e+002, 2.736982e+003
7.298820e+002, 2.735551e+003
7.303641e+002, 2.735448e+003
7.308462e+002, 2.737075e+003
7.313283e+002, 2.740535e+003
7.318104e+002, 2.742146e+003
7.322925e+002, 2.740687e+003
7.327747e+002, 2.738366e+003
7.332568e+002, 2.736684e+003
7.337389e+002, 2.735620e+003
7.342210e+002, 2.734991e+003
7.347031e+002, 2.735691e+003
7.351852e+002, 2.735401e+003
7.356674e+002, 2.733388e+003
7.361495e+002, 2.730387e+003
7.366316e+002, 2.726024e+003
7.371137e+002, 2.721234e+003
7.375958e+002, 2.718370e+003
7.380779e+002, 2.718710e+003
7.385601e+002, 2.720165e+003
7.390422e+002, 2.719727e+003
7.395243e+002, 2.717554e+003
7.400064e+002, 2.715099e+003
7.404885e+002, 2.712561e+003
7.409706e+002, 2.709238e+003
7.414528e+002, 2.703779e+003
7.419349e+002, 2.698006e+003
7.424170e+002, 2.696707e+003
7.428991e+002, 2.702114e+003
7.433812e+002, 2.703980e+003
7.438633e+002, 2.697828e+003
7.443455e+002, 2.691781e+003
7.448276e+002, 2.690862e+003
7.453097e+002, 2.692607e+003
7.457918e+002, 2.692952e+003
7.462739e+002, 2.690764e+003
7.467560e+002, 2.687681e+003
7.472382e+002, 2.684722e+003
7.477203e+002, 2.682210e+003
7.482024e+002, 2.681659e+003
7.486845e+002, 2.683138e+003
7.491666e+002, 2.683630e+003
7.496487e+002, 2.681858e+003
7.501309e+002, 2.679381e+003
7.506130e+002, 2.678011e+003
7.510951e+002, 2.677826e+003
7.515772e+002, 2.677257e+003
7.520593e+002, 2.675523e+003
7.525414e+002, 2.674386e+003
7.530236e+002, 2.674944e+003
7.535057e+002, 2.675687e+003
7.539878e+002, 2.674785e+003
7.544699e+002, 2.672597e+003
7.549520e+002, 2.671351e+003
7.554341e+002, 2.672795e+003
7.559163e+002, 2.674675e+003
7.563984e+002, 2.673210e+003
7.568805e+002, 2.669301e+003
7.573626e+002, 2.667370e+003
7.578447e+002, 2.668282e+003
7.583268e+002, 2.668619e+003
7.588090e+002, 2.665563e+003
7.592911e+002, 2.660549e+003
7.597732e+002, 2.658425e+003
7.602553e+002, 2.662052e+003
7.607374e+002, 2.663467e+003
7.612195e+002, 2.661874e+003
7.617017e+002, 2.659177e+003
7.621838e+002, 2.655469e+003
7.626659e+002, 2.651593e+003
7.631480e+002, 2.648762e+003
7.636301e+002, 2.647352e+003
7.641122e+002, 2.646419e+003
7.645944e+002, 2.645136e+003
7.650765e+002, 2.643957e+003
7.655586e+002, 2.644411e+003
7.660407e+002, 2.645916e+003
7.665228e+002, 2.644653e+003
7.670049e+002, 2.638927e+003
7.674871e+002, 2.632609e+003
7.679692e+002, 2.631090e+003
7.684513e+002, 2.634599e+003
7.689334e+002, 2.636136e+003
7.694155e+002, 2.634732e+003
7.698976e+002, 2.632837e+003
7.703798e+002, 2.629933e+003
7.708619e+002, 2.627548e+003
7.713440e+002, 2.627208e+003
7.718261e+002, 2.628624e+003
7.723082e+002, 2.630099e+003
7.727903e+002, 2.631612e+003
7.732725e+002, 2.632251e+003
7.737546e+002, 2.631275e+003
7.742367e+002, 2.629065e+003
7.747188e+002, 2.625645e+003
7.752009e+002, 2.621405e+003
7.756830e+002, 2.617958e+003
7.761652e+002, 2.616387e+003
7.766473e+002, 2.616141e+003
7.771294e+002, 2.616465e+003
7.776115e+002, 2.617896e+003
7.780936e+002, 2.615929e+003
7.785757e+002, 2.607813e+003
7.790579e+002, 2.600862e+003
7.795400e+002, 2.600071e+003
7.800221e+002, 2.602525e+003
7.805042e+002, 2.603643e+003
7.809863e+002, 2.603342e+003
7.814684e+002, 2.601504e+003
7.819506e+002, 2.595947e+003
7.824327e+002, 2.590995e+003
7.829148e+002, 2.589831e+003
7.833969e+002, 2.591029e+003
7.838790e+002, 2.592480e+003
7.843611e+002, 2.593409e+003
7.848433e+002, 2.593358e+003
7.853254e+002, 2.591809e+003
7.858075e+002, 2.589015e+003
7.862896e+002, 2.585124e+003
7.867717e+002, 2.580104e+003
7.872538e+002, 2.577407e+003
7.877360e+002, 2.578582e+003
7.882181e+002, 2.580170e+003
7.887002e+002, 2.578743e+003
7.891823e+002, 2.574785e+003
7.896644e+002, 2.572467e+003
7.901465e+002, 2.573979e+003
7.906286e+002, 2.573896e+003
7.911107e+002, 2.570595e+003
7.915928e+002, 2.566727e+003
7.920750e+002, 2.563943e+003
7.925571e+002, 2.561956e+003
7.930392e+002, 2.559568e+003
7.935213e+002, 2.556218e+003
7.940034e+002, 2.553706e+003
7.944855e+002, 2.554421e+003
7.949677e+002, 2.556718e+003
7.954498e+002, 2.557940e+003
7.959319e+002, 2.557841e+003
7.964140e+002, 2.555721e+003
7.968961e+002, 2.551121e+003
7.973782e+002, 2.546121e+003
7.978604e+002, 2.543734e+003
7.983425e+002, 2.544077e+003
7.988246e+002, 2.543487e+003
7.993067e+002, 2.540821e+003
7.997888e+002, 2.539245e+003
8.002709e+002, 2.541459e+003
8.007531e+002, 2.543508e+003
8.012352e+002, 2.541962e+003
8.017173e+002, 2.537433e+003
8.021994e+002, 2.533281e+003
8.026815e+002, 2.529573e+003
8.031636e+002, 2.527613e+003
8.036458e+002, 2.529470e+003
8.041279e+002, 2.532625e+003
8.046100e+002, 2.534150e+003
8.050921e+002, 2.534027e+003
8.055742e+002, 2.533639e+003
8.060563e+002, 2.533734e+003
8.065385e+002, 2.533985e+003
8.070206e+002, 2.534111e+003
8.075027e+002, 2.534058e+003
8.079848e+002, 2.532657e+003
8.084669e+002, 2.529552e+003
8.089490e+002, 2.526747e+003
8.094312e+002, 2.525363e+003
8.099133e+002, 2.524403e+003
8.103954e+002, 2.522024e+003
8.108775e+002, 2.517665e+003
8.113596e+002, 2.515835e+003
8.118417e+002, 2.519702e+003
8.123239e+002, 2.522050e+003
8.128060e+002, 2.519827e+003
8.132881e+002, 2.516002e+003
8.137702e+002, 2.512743e+003
8.142523e+002, 2.510595e+003
8.147344e+002, 2.510060e+003
8.152166e+002, 2.511981e+003
8.156987e+002, 2.514342e+003
8.161808e+002, 2.514817e+003
8.166629e+002, 2.514184e+003
8.171450e+002, 2.514442e+003
8.176271e+002, 2.515640e+003
8.181093e+002, 2.515798e+003
8.185914e+002, 2.513618e+003
8.190735e+002, 2.510693e+003
8.195556e+002, 2.510461e+003
8.200377e+002, 2.513646e+003
8.205198e+002, 2.514631e+003
8.210020e+002, 2.512023e+003
8.214841e+002, 2.509796e+003
8.219662e+002, 2.509722e+003
8.224483e+002, 2.510544e+003
8.229304e+002, 2.510882e+003
8.234125e+002, 2.510746e+003
8.238947e+002, 2.510884e+003
8.243768e+002, 2.513007e+003
8.248589e+002, 2.513598e+003
8.253410e+002, 2.509596e+003
8.258231e+002, 2.504301e+003
8.263052e+002, 2.501337e+003
8.267874e+002, 2.500826e+003
8.272695e+002, 2.501109e+003
8.277516e+002, 2.501394e+003
8.282337e+002, 2.501443e+003
8.287158e+002, 2.500493e+003
8.291979e+002, 2.498969e+003
8.296801e+002, 2.499077e+003
8.301622e+002, 2.501017e+003
8.306443e+002, 2.501940e+003
8.311264e+002, 2.500159e+003
8.316085e+002, 2.497398e+003
8.320906e+002, 2.496572e+003
8.325728e+002, 2.498016e+003
8.330549e+002, 2.498836e+003
8.335370e+002, 2.498723e+003
8.340191e+002, 2.498362e+003
8.345012e+002, 2.497621e+003
8.349833e+002, 2.496923e+003
8.354655e+002, 2.496792e+003
8.359476e+002, 2.497075e+003
8.364297e+002, 2.496935e+003
8.369118e+002, 2.495781e+003
8.373939e+002, 2.494724e+003
8.378760e+002, 2.494667e+003
8.383582e+002, 2.494850e+003
8.388403e+002, 2.494310e+003
8.393224e+002, 2.493163e+003
8.398045e+002, 2.492026e+003
8.402866e+002, 2.491193e+003
8.407687e+002, 2.490738e+003
8.412509e+002, 2.491086e+003
8.417330e+002, 2.491989e+003
8.422151e+002, 2.491906e+003
8.426972e+002, 2.490771e+003
8.431793e+002, 2.489240e+003
8.436614e+002, 2.487345e+003
8.441436e+002, 2.485735e+003
8.446257e+002, 2.485380e+003
8.451078e+002, 2.486211e+003
8.455899e+002, 2.485818e+003
8.460720e+002, 2.482356e+003
8.465541e+002, 2.480336e+003
8.470363e+002, 2.481750e+003
8.475184e+002, 2.483126e+003
8.480005e+002, 2.481769e+003
8.484826e+002, 2.478776e+003
8.489647e+002, 2.476938e+003
8.494468e+002, 2.477220e+003
8.499290e+002, 2.477532e+003
8.504111e+002, 2.476939e+003
8.508932e+002, 2.475692e+003
8.513753e+002, 2.473442e+003
8.518574e+002, 2.470878e+003
8.523395e+002, 2.469728e+003
8.528217e+002, 2.470395e+003
8.533038e+002, 2.471311e+003
8.537859e+002, 2.471087e+003
8.542680e+002, 2.469828e+003
8.547501e+002, 2.467598e+003
8.552322e+002, 2.464401e+003
8.557144e+002, 2.461415e+003
8.561965e+002, 2.458812e+003
8.566786e+002, 2.456785e+003
8.571607e+002, 2.455547e+003
8.576428e+002, 2.454955e+003
8.581249e+002, 2.454613e+003
8.586071e+002, 2.454939e+003
8.590892e+002, 2.454557e+003
8.595713e+002, 2.452883e+003
8.600534e+002, 2.451171e+003
8.605355e+002, 2.449653e+003
8.610176e+002, 2.448425e+003
8.614998e+002, 2.447760e+003
8.619819e+002, 2.447625e+003
8.624640e+002, 2.447164e+003
8.629461e+002, 2.446536e+003
8.634282e+002, 2.444911e+003
8.639103e+002, 2.440898e+003
8.643925e+002, 2.435979e+003
8.648746e+002, 2.431996e+003
8.653567e+002, 2.429260e+003
8.658388e+002, 2.427849e+003
8.663209e+002, 2.427959e+003
8.668030e+002, 2.428236e+003
8.672852e+002, 2.426066e+003
8.677673e+002, 2.422105e+003
8.682494e+002, 2.420015e+003
8.687315e+002, 2.420065e+003
8.692136e+002, 2.420178e+003
8.696957e+002, 2.419444e+003
8.701779e+002, 2.418660e+003
8.706600e+002, 2.419221e+003
8.711421e+002, 2.421164e+003
8.716242e+002, 2.420091e+003
8.721063e+002, 2.412845e+003
8.725884e+002, 2.408137e+003
8.730705e+002, 2.409505e+003
8.735526e+002, 2.411874e+003
8.740347e+002, 2.412650e+003
8.745168e+002, 2.412037e+003
8.749990e+002, 2.410547e+003
8.754811e+002, 2.407707e+003
8.759632e+002, 2.405713e+003
8.764453e+002, 2.406157e+003
8.769274e+002, 2.406941e+003
8.774095e+002, 2.406677e+003
8.778917e+002, 2.405594e+003
8.783738e+002, 2.404125e+003
8.788559e+002, 2.402459e+003
8.793380e+002, 2.400773e+003
8.798201e+002, 2.398643e+003
8.803022e+002, 2.397256e+003
8.807844e+002, 2.399354e+003
8.812665e+002, 2.403919e+003
8.817486e+002, 2.407563e+003
8.822307e+002, 2.409671e+003
8.827128e+002, 2.409572e+003
8.831949e+002, 2.406501e+003
8.836771e+002, 2.402361e+003
8.841592e+002, 2.401230e+003
8.846413e+002, 2.403474e+003
8.851234e+002, 2.406070e+003
8.856055e+002, 2.409620e+003
8.860876e+002, 2.411855e+003
8.865698e+002, 2.410681e+003
8.870519e+002, 2.409204e+003
8.875340e+002, 2.412080e+003
8.880161e+002, 2.418789e+003
8.884982e+002, 2.421399e+003
8.889803e+002, 2.415760e+003
8.894625e+002, 2.411562e+003
8.899446e+002, 2.412157e+003
8.904267e+002, 2.413114e+003
8.909088e+002, 2.410803e+003
8.913909e+002, 2.406710e+003
8.918730e+002, 2.404388e+003
8.923552e+002, 2.404885e+003
8.928373e+002, 2.405215e+003
8.933194e+002, 2.402409e+003
8.938015e+002, 2.399403e+003
8.942836e+002, 2.400351e+003
8.947657e+002, 2.403273e+003
8.952479e+002, 2.403364e+003
8.957300e+002, 2.400048e+003
8.962121e+002, 2.397026e+003
8.966942e+002, 2.397102e+003
8.971763e+002, 2.398974e+003
8.976584e+002, 2.400700e+003
8.981406e+002, 2.402078e+003
8.986227e+002, 2.400699e+003
8.991048e+002, 2.396096e+003
8.995869e+002, 2.391644e+003
9.000690e+002, 2.388801e+003
9.005511e+002, 2.387263e+003
9.010333e+002, 2.386878e+003
9.015154e+002, 2.387774e+003
9.019975e+002, 2.386711e+003
9.024796e+002, 2.381950e+003
9.029617e+002, 2.378482e+003
9.034438e+002, 2.378570e+003
9.039260e+002, 2.378936e+003
9.044081e+002, 2.377375e+003
9.048902e+002, 2.374394e+003
9.053723e+002, 2.371109e+003
9.058544e+002, 2.366986e+003
9.063365e+002, 2.364479e+003
9.068187e+002, 2.365946e+003
9.073008e+002, 2.367338e+003
9.077829e+002, 2.365759e+003
9.082650e+002, 2.362833e+003
9.087471e+002, 2.360823e+003
9.092292e+002, 2.360108e+003
9.097114e+002, 2.359865e+003
9.101935e+002, 2.359938e+003
9.106756e+002, 2.359740e+003
9.111577e+002, 2.358255e+003
9.116398e+002, 2.356231e+003
9.121219e+002, 2.355140e+003
9.126041e+002, 2.354981e+003
9.130862e+002, 2.354966e+003
9.135683e+002, 2.354729e+003
9.140504e+002, 2.354238e+003
9.145325e+002, 2.353578e+003
9.150146e+002, 2.352650e+003
9.154968e+002, 2.350414e+003
9.159789e+002, 2.346802e+003
9.164610e+002, 2.344333e+003
9.169431e+002, 2.343724e+003
9.174252e+002, 2.344028e+003
9.179073e+002, 2.344660e+003
9.183895e+002, 2.345400e+003
9.188716e+002, 2.345417e+003
9.193537e+002, 2.344383e+003
9.198358e+002, 2.343419e+003
9.203179e+002, 2.342816e+003
9.208000e+002, 2.341809e+003
9.212822e+002, 2.339240e+003
9.217643e+002, 2.336626e+003
9.222464e+002, 2.335760e+003
9.227285e+002, 2.336588e+003
9.232106e+002, 2.337554e+003
9.236927e+002, 2.338963e+003
9.241749e+002, 2.339758e+003
9.246570e+002, 2.339301e+003
9.251391e+002, 2.338423e+003
9.256212e+002, 2.337847e+003
9.261033e+002, 2.337371e+003
9.265854e+002, 2.336237e+003
9.270676e+002, 2.334207e+003
9.275497e+002, 2.332749e+003
9.280318e+002, 2.334508e+003
9.285139e+002, 2.335863e+003
9.289960e+002, 2.331356e+003
9.294781e+002, 2.324316e+003
9.299603e+002, 2.321254e+003
9.304424e+002, 2.322975e+003
9.309245e+002, 2.326721e+003
9.314066e+002, 2.331110e+003
9.318887e+002, 2.334451e+003
9.323708e+002, 2.333401e+003
9.328530e+002, 2.328936e+003
9.333351e+002, 2.324717e+003
9.338172e+002, 2.321000e+003
9.342993e+002, 2.318376e+003
9.347814e+002, 2.317072e+003
9.352635e+002, 2.317086e+003
9.357457e+002, 2.318741e+003
9.362278e+002, 2.321512e+003
9.367099e+002, 2.322215e+003
9.371920e+002, 2.320362e+003
9.376741e+002, 2.318499e+003
9.381563e+002, 2.316977e+003
9.386384e+002, 2.315216e+003
9.391205e+002, 2.312230e+003
9.396026e+002, 2.309354e+003
9.400847e+002, 2.309528e+003
9.405668e+002, 2.313846e+003
9.410490e+002, 2.314775e+003
9.415311e+002, 2.310048e+003
9.420132e+002, 2.305205e+003
9.424953e+002, 2.299954e+003
9.429774e+002, 2.296154e+003
9.434595e+002, 2.296538e+003
9.439417e+002, 2.299286e+003
9.444238e+002, 2.299472e+003
9.449059e+002, 2.295344e+003
9.453880e+002, 2.291763e+003
9.458701e+002, 2.290835e+003
9.463522e+002, 2.290594e+003
9.468344e+002, 2.290035e+003
9.473165e+002, 2.289211e+003
9.477986e+002, 2.288231e+003
9.482807e+002, 2.287166e+003
9.487628e+002, 2.286102e+003
9.492449e+002, 2.284966e+003
9.497271e+002, 2.284165e+003
9.502092e+002, 2.284552e+003
9.506913e+002, 2.285245e+003
9.511734e+002, 2.285177e+003
9.516555e+002, 2.284122e+003
9.521376e+002, 2.281228e+003
9.526198e+002, 2.276441e+003
9.531019e+002, 2.272347e+003
9.535840e+002, 2.271790e+003
9.540661e+002, 2.273202e+003
9.545482e+002, 2.273001e+003
9.550303e+002, 2.271277e+003
9.555124e+002, 2.268053e+003
9.559945e+002, 2.263330e+003
9.564766e+002, 2.259980e+003
9.569587e+002, 2.259638e+003
9.574409e+002, 2.260893e+003
9.579230e+002, 2.261646e+003
9.584051e+002, 2.261896e+003
9.588872e+002, 2.261525e+003
9.593693e+002, 2.260541e+003
9.598514e+002, 2.258727e+003
9.603336e+002, 2.255545e+003
9.608157e+002, 2.252709e+003
9.612978e+002, 2.251934e+003
9.617799e+002, 2.252222e+003
9.622620e+002, 2.250705e+003
9.627441e+002, 2.246758e+003
9.632263e+002, 2.242929e+003
9.637084e+002, 2.237981e+003
9.641905e+002, 2.234893e+003
9.646726e+002, 2.236179e+003
9.651547e+002, 2.238201e+003
9.656368e+002, 2.237525e+003
9.661190e+002, 2.234752e+003
9.666011e+002, 2.233043e+003
9.670832e+002, 2.233790e+003
9.675653e+002, 2.233563e+003
9.680474e+002, 2.230045e+003
9.685295e+002, 2.227074e+003
9.690117e+002, 2.227320e+003
9.694938e+002, 2.229183e+003
9.699759e+002, 2.230810e+003
9.704580e+002, 2.231790e+003
9.709401e+002, 2.231859e+003
9.714222e+002, 2.230517e+003
9.719044e+002, 2.228861e+003
9.723865e+002, 2.227849e+003
9.728686e+002, 2.226665e+003
9.733507e+002, 2.224258e+003
9.738328e+002, 2.220988e+003
9.743149e+002, 2.217382e+003
9.747971e+002, 2.213785e+003
9.752792e+002, 2.211589e+003
9.757613e+002, 2.212778e+003
9.762434e+002, 2.215013e+003
9.767255e+002, 2.215012e+003
9.772076e+002, 2.213708e+003
9.776898e+002, 2.212812e+003
9.781719e+002, 2.212655e+003
9.786540e+002, 2.213889e+003
9.791361e+002, 2.216812e+003
9.796182e+002, 2.218965e+003
9.801003e+002, 2.216432e+003
9.805825e+002, 2.210974e+003
9.810646e+002, 2.208830e+003
9.815467e+002, 2.209593e+003
9.820288e+002, 2.210116e+003
9.825109e+002, 2.209780e+003
9.829930e+002, 2.208384e+003
9.834752e+002, 2.205612e+003
9.839573e+002, 2.202611e+003
9.844394e+002, 2.201826e+003
9.849215e+002, 2.203283e+003
9.854036e+002, 2.203615e+003
9.858857e+002, 2.202650e+003
9.863679e+002, 2.201495e+003
9.868500e+002, 2.200319e+003
9.873321e+002, 2.199376e+003
9.878142e+002, 2.198897e+003
9.882963e+002, 2.198778e+003
9.887784e+002, 2.198719e+003
9.892606e+002, 2.198759e+003
9.897427e+002, 2.198740e+003
9.902248e+002, 2.198990e+003
9.907069e+002, 2.198474e+003
9.911890e+002, 2.196183e+003
9.916711e+002, 2.193727e+003
9.921533e+002, 2.192412e+003
9.926354e+002, 2.192239e+003
9.931175e+002, 2.193327e+003
9.935996e+002, 2.197962e+003
9.940817e+002, 2.199750e+003
9.945638e+002, 2.196381e+003
9.950460e+002, 2.192828e+003
9.955281e+002, 2.190810e+003
9.960102e+002, 2.189703e+003
9.964923e+002, 2.188508e+003
9.969744e+002, 2.187401e+003
9.974565e+002, 2.188038e+003
9.979387e+002, 2.192979e+003
9.984208e+002, 2.195918e+003
9.989029e+002, 2.193349e+003
9.993850e+002, 2.190298e+003
9.998671e+002, 2.190004e+003
1.000349e+003, 2.191182e+003
1.000831e+003, 2.192182e+003
1.001313e+003, 2.192583e+003
1.001796e+003, 2.191672e+003
1.002278e+003, 2.187511e+003
1.002760e+003, 2.184473e+003
1.003242e+003, 2.186886e+003
1.003724e+003, 2.189819e+003
1.004206e+003, 2.187871e+003
1.004688e+003, 2.183073e+003
1.005170e+003, 2.179784e+003
1.005653e+003, 2.179146e+003
1.006135e+003, 2.180083e+003
1.006617e+003, 2.182566e+003
1.007099e+003, 2.185470e+003
1.007581e+003, 2.189042e+003
1.008063e+003, 2.191552e+003
1.008545e+003, 2.189309e+003
1.009027e+003, 2.183812e+003
1.009509e+003, 2.179872e+003
1.009992e+003, 2.179156e+003
1.010474e+003, 2.179612e+003
1.010956e+003, 2.179834e+003
1.011438e+003, 2.179772e+003
1.011920e+003, 2.179250e+003
1.012402e+003, 2.178413e+003
1.012884e+003, 2.177442e+003
1.013366e+003, 2.176474e+003
1.013849e+003, 2.175903e+003
1.014331e+003, 2.175902e+003
1.014813e+003, 2.176409e+003
1.015295e+003, 2.177870e+003
1.015777e+003, 2.179383e+003
1.016259e+003, 2.178066e+003
1.016741e+003, 2.174642e+003
1.017223e+003, 2.172677e+003
1.017705e+003, 2.172591e+003
1.018188e+003, 2.172468e+003
1.018670e+003, 2.171304e+003
1.019152e+003, 2.170015e+003
1.019634e+003, 2.169942e+003
1.020116e+003, 2.170816e+003
1.020598e+003, 2.171550e+003
1.021080e+003, 2.172111e+003
1.021562e+003, 2.171469e+003
1.022044e+003, 2.169380e+003
1.022527e+003, 2.167124e+003
1.023009e+003, 2.165298e+003
1.023491e+003, 2.164427e+003
1.023973e+003, 2.165749e+003
1.024455e+003, 2.169028e+003
1.024937e+003, 2.169950e+003
1.025419e+003, 2.168155e+003
1.025901e+003, 2.167282e+003
1.026384e+003, 2.168368e+003
1.026866e+003, 2.168621e+003
1.027348e+003, 2.165907e+003
1.027830e+003, 2.162184e+003
1.028312e+003, 2.161202e+003
1.028794e+003, 2.163096e+003
1.029276e+003, 2.164451e+003
1.029758e+003, 2.165302e+003
1.030240e+003, 2.165438e+003
1.030723e+003, 2.164464e+003
1.031205e+003, 2.163618e+003
1.031687e+003, 2.163738e+003
1.032169e+003, 2.164497e+003
1.032651e+003, 2.165401e+003
1.033133e+003, 2.166621e+003
1.033615e+003, 2.166185e+003
1.034097e+003, 2.162059e+003
1.034579e+003, 2.160853e+003
1.035062e+003, 2.165708e+003
1.035544e+003, 2.170846e+003
1.036026e+003, 2.172503e+003
1.036508e+003, 2.171778e+003
1.036990e+003, 2.170751e+003
1.037472e+003, 2.169187e+003
1.037954e+003, 2.168620e+003
1.038436e+003, 2.170719e+003
1.038919e+003, 2.171078e+003
1.039401e+003, 2.166490e+003
1.039883e+003, 2.162654e+003
1.040365e+003, 2.164227e+003
1.040847e+003, 2.168833e+003
1.041329e+003, 2.171579e+003
1.041811e+003, 2.172329e+003
1.042293e+003, 2.172128e+003
1.042776e+003, 2.170241e+003
1.043258e+003, 2.168513e+003
1.043740e+003, 2.167044e+003
1.044222e+003, 2.166096e+003
1.044704e+003, 2.166408e+003
1.045186e+003, 2.167184e+003
1.045668e+003, 2.166647e+003
1.046150e+003, 2.164366e+003
1.046632e+003, 2.163102e+003
1.047115e+003, 2.164846e+003
1.047597e+003, 2.165279e+003
1.048079e+003, 2.160961e+003
1.048561e+003, 2.157316e+003
1.049043e+003, 2.159274e+003
1.049525e+003, 2.164116e+003
1.050007e+003, 2.166450e+003
1.050489e+003, 2.165451e+003
1.050971e+003, 2.164571e+003
1.051454e+003, 2.165229e+003
1.051936e+003, 2.165050e+003
1.052418e+003, 2.161241e+003
1.052900e+003, 2.158370e+003
1.053382e+003, 2.161245e+003
1.053864e+003, 2.166851e+003
1.054346e+003, 2.169377e+003
1.054828e+003, 2.167951e+003
1.055311e+003, 2.166323e+003
1.055793e+003, 2.164585e+003
1.056275e+003, 2.164022e+003
1.056757e+003, 2.166108e+003
1.057239e+003, 2.168538e+003
1.057721e+003, 2.169672e+003
1.058203e+003, 2.169883e+003
1.058685e+003, 2.169879e+003
1.059167e+003, 2.169797e+003
1.059650e+003, 2.170071e+003
1.060132e+003, 2.170569e+003
1.060614e+003, 2.171819e+003
1.061096e+003, 2.175997e+003
1.061578e+003, 2.179072e+003
1.062060e+003, 2.175817e+003
1.062542e+003, 2.170304e+003
1.063024e+003, 2.170468e+003
1.063506e+003, 2.176974e+003
1.063989e+003, 2.180968e+003
1.064471e+003, 2.176639e+003
1.064953e+003, 2.172913e+003
1.065435e+003, 2.174355e+003
1.065917e+003, 2.176888e+003
1.066399e+003, 2.177861e+003
1.066881e+003, 2.177575e+003
1.067363e+003, 2.176530e+003
1.067846e+003, 2.174993e+003
1.068328e+003, 2.174000e+003
1.068810e+003, 2.174792e+003
1.069292e+003, 2.174717e+003
1.069774e+003, 2.171694e+003
1.070256e+003, 2.168289e+003
1.070738e+003, 2.166704e+003
1.071220e+003, 2.165833e+003
1.071703e+003, 2.163393e+003
1.072185e+003, 2.159601e+003
1.072667e+003, 2.157530e+003
1.073149e+003, 2.159052e+003
1.073631e+003, 2.160724e+003
1.074113e+003, 2.161717e+003
1.074595e+003, 2.161469e+003
1.075077e+003, 2.159375e+003
1.075559e+003, 2.155922e+003
1.076042e+003, 2.150907e+003
1.076524e+003, 2.145042e+003
1.077006e+003, 2.140988e+003
1.077488e+003, 2.140080e+003
1.077970e+003, 2.139627e+003
1.078452e+003, 2.138420e+003
1.078934e+003, 2.137195e+003
1.079416e+003, 2.136621e+003
1.079898e+003, 2.136196e+003
1.080380e+003, 2.135493e+003
1.080863e+003, 2.134343e+003
1.081345e+003, 2.132353e+003
1.081827e+003, 2.129179e+003
1.082309e+003, 2.126311e+003
1.082791e+003, 2.123828e+003
1.083273e+003, 2.122500e+003
1.083755e+003, 2.124330e+003
1.084237e+003, 2.126359e+003
1.084720e+003, 2.125014e+003
1.085202e+003, 2.121146e+003
1.085684e+003, 2.117632e+003
1.086166e+003, 2.115149e+003
1.086648e+003, 2.113736e+003
1.087130e+003, 2.113990e+003
1.087612e+003, 2.114580e+003
1.088094e+003, 2.116249e+003
1.088577e+003, 2.116681e+003
1.089059e+003, 2.112421e+003
1.089541e+003, 2.105649e+003
1.090023e+003, 2.101329e+003
1.090505e+003, 2.100467e+003
1.090987e+003, 2.099492e+003
1.091469e+003, 2.096531e+003
1.091951e+003, 2.093927e+003
1.092433e+003, 2.094211e+003
1.092916e+003, 2.093800e+003
1.093398e+003, 2.088481e+003
1.093880e+003, 2.081137e+003
1.094362e+003, 2.076867e+003
1.094844e+003, 2.076271e+003
1.095326e+003, 2.076062e+003
1.095808e+003, 2.075401e+003
1.096290e+003, 2.074716e+003
1.096772e+003, 2.073792e+003
1.097255e+003, 2.073271e+003
1.097737e+003, 2.074372e+003
1.098219e+003, 2.075615e+003
1.098701e+003, 2.074573e+003
1.099183e+003, 2.071491e+003
1.099665e+003, 2.069443e+003
1.100147e+003, 2.069498e+003
1.100629e+003, 2.069819e+003
1.101112e+003, 2.070986e+003
1.101594e+003, 2.071039e+003
1.102076e+003, 2.067842e+003
1.102558e+003, 2.063919e+003
1.103040e+003, 2.062073e+003
1.103522e+003, 2.061923e+003
1.104004e+003, 2.061286e+003
1.104486e+003, 2.059534e+003
1.104969e+003, 2.058267e+003
1.105451e+003, 2.057826e+003
1.105933e+003, 2.057836e+003
1.106415e+003, 2.059016e+003
1.106897e+003, 2.059819e+003
1.107379e+003, 2.058372e+003
1.107861e+003, 2.055722e+003
1.108343e+003, 2.054503e+003
1.108825e+003, 2.055114e+003
1.109307e+003, 2.055935e+003
1.109790e+003, 2.057795e+003
1.110272e+003, 2.058468e+003
1.110754e+003, 2.057015e+003
1.111236e+003, 2.054776e+003
1.111718e+003, 2.051463e+003
1.112200e+003, 2.048399e+003
1.112682e+003, 2.048405e+003
1.113164e+003, 2.051765e+003
1.113647e+003, 2.052766e+003
1.114129e+003, 2.049705e+003
1.114611e+003, 2.047146e+003
1.115093e+003, 2.045927e+003
1.115575e+003, 2.044532e+003
1.116057e+003, 2.042056e+003
1.116539e+003, 2.039323e+003
1.117021e+003, 2.036999e+003
1.117504e+003, 2.035208e+003
1.117986e+003, 2.034997e+003
1.118468e+003, 2.037708e+003
1.118950e+003, 2.038671e+003
1.119432e+003, 2.036714e+003
1.119914e+003, 2.035317e+003
1.120396e+003, 2.036014e+003
1.120878e+003, 2.036852e+003
1.121360e+003, 2.036016e+003
1.121843e+003, 2.034137e+003
1.122325e+003, 2.033112e+003
1.122807e+003, 2.033135e+003
1.123289e+003, 2.032795e+003
1.123771e+003, 2.031821e+003
1.124253e+003, 2.031513e+003
1.124735e+003, 2.032395e+003
1.125217e+003, 2.033330e+003
1.125699e+003, 2.033776e+003
1.126182e+003, 2.033443e+003
1.126664e+003, 2.031619e+003
1.127146e+003, 2.028433e+003
1.127628e+003, 2.026178e+003
1.128110e+003, 2.024875e+003
1.128592e+003, 2.024508e+003
1.129074e+003, 2.025220e+003
1.129556e+003, 2.025627e+003
1.130039e+003, 2.024995e+003
1.130521e+003, 2.024456e+003
1.131003e+003, 2.025487e+003
1.131485e+003, 2.027375e+003
1.131967e+003, 2.027319e+003
1.132449e+003, 2.025475e+003
1.132931e+003, 2.024859e+003
1.133413e+003, 2.025600e+003
1.133896e+003, 2.025986e+003
1.134378e+003, 2.025492e+003
1.134860e+003, 2.024876e+003
1.135342e+003, 2.024795e+003
1.135824e+003, 2.024606e+003
1.136306e+003, 2.022475e+003
1.136788e+003, 2.019318e+003
1.137270e+003, 2.019202e+003
1.137752e+003, 2.021460e+003
1.138234e+003, 2.022756e+003
1.138717e+003, 2.022477e+003
1.139199e+003, 2.021016e+003
1.139681e+003, 2.018564e+003
1.140163e+003, 2.016682e+003
1.140645e+003, 2.017864e+003
1.141127e+003, 2.020056e+003
1.141609e+003, 2.019019e+003
1.142091e+003, 2.016252e+003
1.142574e+003, 2.015179e+003
1.143056e+003, 2.015617e+003
1.143538e+003, 2.015522e+003
1.144020e+003, 2.014308e+003
1.144502e+003, 2.013034e+003
1.144984e+003, 2.012401e+003
1.145466e+003, 2.012109e+003
1.145948e+003, 2.011537e+003
1.146431e+003, 2.011365e+003
1.146913e+003, 2.013508e+003
1.147395e+003, 2.016222e+003
1.147877e+003, 2.015726e+003
1.148359e+003, 2.012263e+003
1.148841e+003, 2.009749e+003
1.149323e+003, 2.009980e+003
1.149805e+003, 2.010367e+003
1.150287e+003, 2.007714e+003
1.150770e+003, 2.006410e+003
1.151252e+003, 2.011920e+003
1.151734e+003, 2.018588e+003
1.152216e+003, 2.020159e+003
1.152698e+003, 2.017727e+003
1.153180e+003, 2.014453e+003
1.153662e+003, 2.011035e+003
1.154144e+003, 2.010136e+003
1.154626e+003, 2.016502e+003
1.155109e+003, 2.020052e+003
1.155591e+003, 2.014930e+003
1.156073e+003, 2.008795e+003
1.156555e+003, 2.005777e+003
1.157037e+003, 2.004969e+003
1.157519e+003, 2.005601e+003
1.158001e+003, 2.007203e+003
1.158483e+003, 2.007393e+003
1.158966e+003, 2.005217e+003
1.159448e+003, 2.003194e+003
1.159930e+003, 2.001611e+003
1.160412e+003, 1.999966e+003
1.160894e+003, 1.996570e+003
1.161376e+003, 1.994867e+003
1.161858e+003, 1.999089e+003
1.162340e+003, 2.005823e+003
1.162822e+003, 2.007193e+003
1.163305e+003, 2.002469e+003
1.163787e+003, 2.000461e+003
1.164269e+003, 2.002591e+003
1.164751e+003, 2.003041e+003
1.165233e+003, 2.000130e+003
1.165715e+003, 1.998400e+003
1.166197e+003, 2.000541e+003
1.166679e+003, 2.003269e+003
1.167161e+003, 2.002388e+003
1.167644e+003, 1.999169e+003
1.168126e+003, 1.999299e+003
1.168608e+003, 2.002945e+003
1.169090e+003, 2.004535e+003
1.169572e+003, 2.003783e+003
1.170054e+003, 2.002858e+003
1.170536e+003, 2.002358e+003
1.171018e+003, 2.001144e+003
1.171500e+003, 1.998287e+003
1.171983e+003, 1.995336e+003
1.172465e+003, 1.994974e+003
1.172947e+003, 1.996475e+003
1.173429e+003, 1.997799e+003
1.173911e+003, 1.998801e+003
1.174393e+003, 1.998643e+003
1.174875e+003, 1.997500e+003
1.175357e+003, 1.996636e+003
1.175840e+003, 1.996539e+003
1.176322e+003, 1.997011e+003
1.176804e+003, 1.998242e+003
1.177286e+003, 1.999158e+003
1.177768e+003, 1.998024e+003
1.178250e+003, 1.996019e+003
1.178732e+003, 1.994586e+003
1.179214e+003, 1.993763e+003
1.179697e+003, 1.993468e+003
1.180179e+003, 1.993582e+003
1.180661e+003, 1.993942e+003
1.181143e+003, 1.994568e+003
1.181625e+003, 1.994636e+003
1.182107e+003, 1.993168e+003
1.182589e+003, 1.991541e+003
1.183071e+003, 1.990683e+003
1.183553e+003, 1.990065e+003
1.184036e+003, 1.989172e+003
1.184518e+003, 1.988113e+003
1.185000e+003, 1.987071e+003
1.185482e+003, 1.986106e+003
1.185964e+003, 1.985542e+003
1.186446e+003, 1.985765e+003
1.186928e+003, 1.985908e+003
1.187410e+003, 1.986287e+003
1.187892e+003, 1.986013e+003
1.188375e+003, 1.983871e+003
1.188857e+003, 1.981678e+003
1.189339e+003, 1.981101e+003
1.189821e+003, 1.981799e+003
1.190303e+003, 1.982883e+003
1.190785e+003, 1.984511e+003
1.191267e+003, 1.985736e+003
1.191749e+003, 1.987070e+003
1.192232e+003, 1.986208e+003
1.192714e+003, 1.981690e+003
1.193196e+003, 1.978198e+003
1.193678e+003, 1.978235e+003
1.194160e+003, 1.979908e+003
1.194642e+003, 1.981001e+003
1.195124e+003, 1.981676e+003
1.195606e+003, 1.982691e+003
1.196089e+003, 1.984004e+003
1.196571e+003, 1.984737e+003
1.197053e+003, 1.984836e+003
1.197535e+003, 1.983387e+003
1.198017e+003, 1.980420e+003
1.198499e+003, 1.981493e+003
1.198981e+003, 1.990409e+003
1.199463e+003, 1.999841e+003
1.199945e+003, 1.998023e+003
1.200427e+003, 1.991445e+003
1.200910e+003, 1.996258e+003
1.201392e+003, 2.005197e+003
1.201874e+003, 1.999560e+003
1.202356e+003, 1.983102e+003
1.202838e+003, 1.972512e+003
1.203320e+003, 1.971893e+003
1.203802e+003, 1.973445e+003
1.204284e+003, 1.973234e+003
1.204767e+003, 1.971986e+003
1.205249e+003, 1.968609e+003
1.205731e+003, 1.966183e+003
1.206213e+003, 1.969036e+003
1.206695e+003, 1.973031e+003
1.207177e+003, 1.972392e+003
1.207659e+003, 1.968630e+003
1.208141e+003, 1.967344e+003
1.208624e+003, 1.969844e+003
1.209106e+003, 1.970910e+003
1.209588e+003, 1.967583e+003
1.210070e+003, 1.965281e+003
1.210552e+003, 1.965504e+003
1.211034e+003, 1.966542e+003
1.211516e+003, 1.966889e+003
1.211998e+003, 1.968300e+003
1.212480e+003, 1.974545e+003
1.212963e+003, 1.982935e+003
1.213445e+003, 1.982448e+003
1.213927e+003, 1.970277e+003
1.214409e+003, 1.963589e+003
1.214891e+003, 1.963882e+003
1.215373e+003, 1.963633e+003
1.215855e+003, 1.961326e+003
1.216337e+003, 1.959061e+003
1.216819e+003, 1.958102e+003
1.217302e+003, 1.956820e+003
1.217784e+003, 1.952704e+003
1.218266e+003, 1.947596e+003
1.218748e+003, 1.948314e+003
1.219230e+003, 1.953303e+003
1.219712e+003, 1.954370e+003
1.220194e+003, 1.951789e+003
1.220676e+003, 1.948986e+003
1.221159e+003, 1.946985e+003
1.221641e+003, 1.946459e+003
1.222123e+003, 1.947829e+003
1.222605e+003, 1.949215e+003
1.223087e+003, 1.948170e+003
1.223569e+003, 1.946667e+003
1.224051e+003, 1.947096e+003
1.224533e+003, 1.948306e+003
1.225016e+003, 1.949161e+003
1.225498e+003, 1.949387e+003
1.225980e+003, 1.948142e+003
1.226462e+003, 1.945820e+003
1.226944e+003, 1.945318e+003
1.227426e+003, 1.948367e+003
1.227908e+003, 1.951081e+003
1.228390e+003, 1.952510e+003
1.228872e+003, 1.952791e+003
1.229354e+003, 1.951434e+003
1.229837e+003, 1.949484e+003
1.230319e+003, 1.946929e+003
1.230801e+003, 1.944778e+003
1.231283e+003, 1.945235e+003
1.231765e+003, 1.948178e+003
1.232247e+003, 1.948853e+003
1.232729e+003, 1.946243e+003
1.233211e+003, 1.944535e+003
1.233694e+003, 1.943982e+003
1.234176e+003, 1.944361e+003
1.234658e+003, 1.946023e+003
1.235140e+003, 1.946690e+003
1.235622e+003, 1.944587e+003
1.236104e+003, 1.941029e+003
1.236586e+003, 1.937829e+003
1.237068e+003, 1.935326e+003
1.237551e+003, 1.935543e+003
1.238033e+003, 1.937729e+003
1.238515e+003, 1.938532e+003
1.238997e+003, 1.937842e+003
1.239479e+003, 1.936942e+003
1.239961e+003, 1.936272e+003
1.240443e+003, 1.935904e+003
1.240925e+003, 1.936000e+003
1.241407e+003, 1.935810e+003
1.241890e+003, 1.933909e+003
1.242372e+003, 1.932124e+003
1.242854e+003, 1.932407e+003
1.243336e+003, 1.933745e+003
1.243818e+003, 1.935418e+003
1.244300e+003, 1.936859e+003
1.244782e+003, 1.937003e+003
1.245264e+003, 1.935812e+003
1.245746e+003, 1.935049e+003
1.246229e+003, 1.935865e+003
1.246711e+003, 1.935850e+003
1.247193e+003, 1.934039e+003
1.247675e+003, 1.932068e+003
1.248157e+003, 1.930113e+003
1.248639e+003, 1.928597e+003
1.249121e+003, 1.927643e+003
1.249603e+003, 1.927504e+003
1.250085e+003, 1.928877e+003
1.250568e+003, 1.931611e+003
1.251050e+003, 1.933285e+003
1.251532e+003, 1.933877e+003
1.252014e+003, 1.933211e+003
1.252496e+003, 1.931198e+003
1.252978e+003, 1.930088e+003
1.253460e+003, 1.930545e+003
1.253942e+003, 1.930626e+003
1.254425e+003, 1.928904e+003
1.254907e+003, 1.927119e+003
1.255389e+003, 1.927763e+003
1.255871e+003, 1.929972e+003
1.256353e+003, 1.933164e+003
1.256835e+003, 1.936130e+003
1.257317e+003, 1.935893e+003
1.257799e+003, 1.933586e+003
1.258281e+003, 1.932577e+003
1.258764e+003, 1.933322e+003
1.259246e+003, 1.933637e+003
1.259728e+003, 1.932731e+003
1.260210e+003, 1.930820e+003
1.260692e+003, 1.925983e+003
1.261174e+003, 1.922839e+003
1.261656e+003, 1.925130e+003
1.262138e+003, 1.928365e+003
1.262620e+003, 1.929104e+003
1.263103e+003, 1.928479e+003
1.263585e+003, 1.928379e+003
1.264067e+003, 1.928776e+003
1.264549e+003, 1.929418e+003
1.265031e+003, 1.930509e+003
1.265513e+003, 1.931141e+003
1.265995e+003, 1.931378e+003
1.266477e+003, 1.930580e+003
1.266960e+003, 1.928412e+003
1.267442e+003, 1.926350e+003
1.267924e+003, 1.925160e+003
1.268406e+003, 1.924983e+003
1.268888e+003, 1.926229e+003
1.269370e+003, 1.928166e+003
1.269852e+003, 1.929152e+003
1.270334e+003, 1.929475e+003
1.270817e+003, 1.930046e+003
1.271299e+003, 1.930543e+003
1.271781e+003, 1.929820e+003
1.272263e+003, 1.927971e+003
1.272745e+003, 1.925810e+003
1.273227e+003, 1.923654e+003
1.273709e+003, 1.922813e+003
1.274191e+003, 1.926296e+003
1.274673e+003, 1.928201e+003
1.275156e+003, 1.922792e+003
1.275638e+003, 1.917975e+003
1.276120e+003, 1.920213e+003
1.276602e+003, 1.924931e+003
1.277084e+003, 1.927028e+003
1.277566e+003, 1.926916e+003
1.278048e+003, 1.926690e+003
1.278530e+003, 1.926310e+003
1.279012e+003, 1.926344e+003
1.279495e+003, 1.926788e+003
1.279977e+003, 1.927499e+003
1.280459e+003, 1.928828e+003
1.280941e+003, 1.928656e+003
1.281423e+003, 1.925975e+003
1.281905e+003, 1.923742e+003
1.282387e+003, 1.924431e+003
1.282869e+003, 1.926187e+003
1.283352e+003, 1.925449e+003
1.283834e+003, 1.923425e+003
1.284316e+003, 1.922561e+003
1.284798e+003, 1.922948e+003
##END=



