##NAMES=Potassic-fluoro-pargasite
##RRUFFID=R110065
##IDEAL CHEMISTRY=KCa_2_(Mg_4_Al)Si_6_Al_2_O_22_F_2_
##LOCALITY=Tranomaro, Fort Dauphine area, Madagascar
##OWNER=RRUFF
##SOURCE=Renato & Adriana Pagano
##DESCRIPTION=Black blocky euhedral single-crystal, from the original find
##STATUS=The identification of this mineral has been confirmed by single-crystal X-ray diffraction.
##URL=rruff.info/R110065
181.1301, 330.9357
181.6122, 333.8263
182.0944, 337.6268
182.5765, 341.2132
183.0586, 343.7944
183.5407, 345.8829
184.0228, 348.6828
184.5049, 352.2103
184.9871, 356.2929
185.4692, 361.1489
185.9513, 366.5869
186.4334, 371.2925
186.9155, 374.3435
187.3976, 376.1747
187.8798, 378.5330
188.3619, 381.7124
188.8440, 384.5160
189.3261, 385.0490
189.8082, 383.4405
190.2903, 381.1987
190.7725, 379.2030
191.2546, 377.2702
191.7367, 374.3132
192.2188, 370.0379
192.7009, 365.3574
193.1830, 362.0018
193.6652, 359.9854
194.1473, 357.9534
194.6294, 354.9286
195.1115, 351.0345
195.5936, 347.9919
196.0757, 346.0576
196.5579, 344.7184
197.0400, 342.9424
197.5221, 340.6726
198.0042, 338.5753
198.4863, 336.9014
198.9684, 335.6546
199.4506, 335.2111
199.9327, 335.9724
200.4148, 337.0837
200.8969, 336.2762
201.3790, 333.1227
201.8611, 330.3197
202.3433, 329.9442
202.8254, 332.3187
203.3075, 333.0442
203.7896, 331.2154
204.2717, 328.0646
204.7538, 326.8846
205.2360, 328.0673
205.7181, 329.7234
206.2002, 330.5988
206.6823, 330.4560
207.1644, 331.0588
207.6465, 332.6474
208.1287, 334.9975
208.6108, 337.5869
209.0929, 340.5073
209.5750, 343.4150
210.0571, 345.9522
210.5392, 347.9458
211.0214, 350.4653
211.5035, 353.7276
211.9856, 357.5311
212.4677, 361.3001
212.9498, 365.0447
213.4319, 368.7767
213.9140, 372.6074
214.3962, 376.6730
214.8783, 380.2594
215.3604, 382.7072
215.8425, 384.7103
216.3246, 389.2509
216.8067, 397.5042
217.2889, 406.0929
217.7710, 412.8686
218.2531, 417.0577
218.7352, 421.7618
219.2173, 427.3056
219.6994, 433.6260
220.1816, 440.1962
220.6637, 447.3433
221.1458, 454.3350
221.6279, 460.3944
222.1100, 464.7100
222.5921, 470.4794
223.0743, 478.7277
223.5564, 488.6611
224.0385, 496.7381
224.5206, 501.6293
225.0027, 506.5034
225.4848, 513.5414
225.9670, 524.0892
226.4491, 533.4221
226.9312, 541.0139
227.4133, 547.1182
227.8954, 553.3275
228.3775, 559.7604
228.8597, 565.9621
229.3418, 571.8843
229.8239, 578.6373
230.3060, 582.3641
230.7881, 581.6076
231.2702, 577.4411
231.7524, 575.1825
232.2345, 576.2467
232.7166, 577.2189
233.1987, 576.0915
233.6808, 572.2224
234.1629, 567.6043
234.6451, 561.9300
235.1272, 555.5402
235.6093, 549.8505
236.0914, 545.0896
236.5735, 540.7159
237.0556, 536.3610
237.5378, 531.6144
238.0199, 527.8933
238.5020, 525.9256
238.9841, 525.0620
239.4662, 522.7252
239.9483, 518.5427
240.4305, 513.4318
240.9126, 507.7376
241.3947, 501.1019
241.8768, 494.6606
242.3589, 488.2800
242.8410, 482.1611
243.3232, 476.9777
243.8053, 473.3037
244.2874, 469.7999
244.7695, 465.8314
245.2516, 461.1794
245.7337, 456.4663
246.2159, 451.6907
246.6980, 446.8321
247.1801, 441.8242
247.6622, 436.0276
248.1443, 430.9525
248.6264, 427.5468
249.1086, 426.7954
249.5907, 425.2669
250.0728, 422.6495
250.5549, 419.3022
251.0370, 416.1620
251.5191, 413.2856
252.0013, 410.5353
252.4834, 407.7690
252.9655, 404.8136
253.4476, 402.4129
253.9297, 400.7586
254.4118, 399.5840
254.8940, 398.3705
255.3761, 397.4992
255.8582, 395.8964
256.3403, 392.8333
256.8224, 387.4818
257.3046, 383.4414
257.7867, 381.0114
258.2688, 379.7198
258.7509, 378.8786
259.2330, 379.0008
259.7151, 378.5177
260.1973, 376.4390
260.6794, 372.0635
261.1615, 369.5811
261.6436, 369.9205
262.1257, 371.3779
262.6078, 370.8678
263.0900, 367.4419
263.5721, 364.3581
264.0542, 362.9351
264.5363, 363.4964
265.0184, 363.4392
265.5005, 362.4763
265.9827, 361.2479
266.4648, 360.5556
266.9469, 360.3188
267.4290, 360.9193
267.9111, 362.9003
268.3932, 366.4213
268.8754, 368.4131
269.3575, 368.5985
269.8396, 367.6726
270.3217, 366.2829
270.8038, 364.2029
271.2859, 362.4839
271.7681, 361.2334
272.2502, 360.4721
272.7323, 361.3920
273.2144, 364.6674
273.6965, 368.2166
274.1786, 369.5567
274.6608, 368.2507
275.1429, 367.1808
275.6250, 367.1298
276.1071, 367.9413
276.5892, 368.4243
277.0714, 368.5102
277.5535, 368.4433
278.0356, 368.3689
278.5177, 368.2596
278.9998, 368.4605
279.4819, 369.2583
279.9641, 370.3771
280.4462, 370.4450
280.9283, 369.2696
281.4104, 367.8625
281.8925, 367.0324
282.3746, 366.7879
282.8568, 366.6037
283.3389, 366.3969
283.8210, 366.2079
284.3031, 366.2883
284.7852, 366.7151
285.2673, 366.8386
285.7495, 365.8142
286.2316, 363.7899
286.7137, 362.7099
287.1958, 362.9659
287.6779, 364.0709
288.1600, 365.4852
288.6422, 367.2294
289.1243, 368.0260
289.6064, 366.4388
290.0885, 362.9713
290.5706, 360.1162
291.0527, 357.9141
291.5349, 356.8231
292.0170, 358.4374
292.4991, 362.4623
292.9812, 365.8142
293.4633, 366.2983
293.9454, 364.7233
294.4276, 363.5952
294.9097, 363.0918
295.3918, 362.8929
295.8739, 362.7670
296.3560, 362.6649
296.8381, 362.3390
297.3203, 361.3750
297.8024, 360.1670
298.2845, 359.5555
298.7666, 359.5867
299.2487, 359.9076
299.7308, 360.2612
300.2130, 360.6323
300.6951, 360.9681
301.1772, 361.1481
301.6593, 361.3273
302.1414, 362.0253
302.6235, 363.2109
303.1057, 363.8496
303.5878, 362.4991
304.0699, 360.0391
304.5520, 358.1194
305.0341, 357.4298
305.5162, 357.3716
305.9984, 357.3740
306.4805, 357.4547
306.9626, 357.7341
307.4447, 358.7462
307.9268, 359.8666
308.4089, 360.2313
308.8911, 359.3697
309.3732, 358.0844
309.8553, 356.7877
310.3374, 355.5487
310.8195, 354.5753
311.3016, 353.6767
311.7838, 353.2685
312.2659, 353.9677
312.7480, 356.5313
313.2301, 358.6606
313.7122, 358.8683
314.1943, 357.6632
314.6765, 356.1063
315.1586, 353.3211
315.6407, 351.2845
316.1228, 351.7207
316.6049, 355.5500
317.0870, 358.8300
317.5692, 359.5591
318.0513, 358.7277
318.5334, 357.7068
319.0155, 356.2819
319.4976, 355.3264
319.9797, 355.2532
320.4619, 356.1166
320.9440, 357.5096
321.4261, 359.9296
321.9082, 362.5412
322.3903, 364.5421
322.8724, 365.2617
323.3546, 365.8502
323.8367, 366.9373
324.3188, 368.4685
324.8009, 368.8566
325.2830, 366.3102
325.7651, 363.4914
326.2473, 362.1306
326.7294, 363.8647
327.2115, 365.3698
327.6936, 366.3871
328.1757, 366.9525
328.6578, 367.2723
329.1400, 366.9808
329.6221, 366.7702
330.1042, 366.9632
330.5863, 368.0662
331.0684, 368.7311
331.5505, 368.6778
332.0327, 368.2286
332.5148, 368.1142
332.9969, 368.5963
333.4790, 369.0339
333.9611, 369.1434
334.4432, 368.7390
334.9254, 368.7433
335.4075, 369.4222
335.8896, 370.2650
336.3717, 370.5237
336.8538, 369.9505
337.3359, 369.3905
337.8180, 369.2118
338.3001, 369.4027
338.7823, 368.6898
339.2644, 366.6717
339.7465, 364.5753
340.2286, 363.8087
340.7107, 364.6865
341.1928, 365.0677
341.6750, 364.4004
342.1571, 362.9908
342.6392, 362.0273
343.1213, 361.5388
343.6034, 361.3149
344.0855, 361.2993
344.5677, 361.4801
345.0498, 361.4918
345.5319, 361.2185
346.0140, 360.8777
346.4961, 360.9178
346.9782, 361.3256
347.4604, 361.8036
347.9425, 362.2163
348.4246, 362.5673
348.9067, 362.8100
349.3888, 362.9113
349.8709, 363.0583
350.3531, 363.4516
350.8352, 364.0754
351.3173, 364.8691
351.7994, 365.7988
352.2815, 366.8878
352.7636, 368.1724
353.2458, 369.6491
353.7279, 371.3267
354.2100, 373.8652
354.6921, 376.5097
355.1742, 377.8381
355.6563, 376.3315
356.1385, 374.5012
356.6206, 374.7981
357.1027, 376.9386
357.5848, 379.4832
358.0669, 382.0254
358.5490, 384.3552
359.0312, 386.1941
359.5133, 387.2919
359.9954, 388.4029
360.4775, 389.9981
360.9596, 391.9391
361.4417, 393.8994
361.9239, 395.7442
362.4060, 397.6016
362.8881, 399.6678
363.3702, 402.0892
363.8523, 404.0435
364.3344, 404.7383
364.8166, 405.0095
365.2987, 405.8179
365.7808, 407.6183
366.2629, 409.7269
366.7450, 412.2576
367.2271, 415.1920
367.7093, 417.4279
368.1914, 418.2750
368.6735, 418.7321
369.1556, 419.4560
369.6377, 421.3677
370.1198, 422.3811
370.6020, 421.9448
371.0841, 420.4807
371.5662, 419.5277
372.0483, 419.3993
372.5304, 419.4010
373.0125, 419.1620
373.4947, 418.3178
373.9768, 418.3907
374.4589, 420.0010
374.9410, 422.0319
375.4231, 422.5567
375.9052, 421.0553
376.3874, 419.5717
376.8695, 418.9630
377.3516, 419.1777
377.8337, 417.9191
378.3158, 414.7579
378.7979, 411.3062
379.2801, 409.1480
379.7622, 408.3041
380.2443, 408.1154
380.7264, 408.8730
381.2085, 409.8522
381.6906, 408.7274
382.1728, 405.4598
382.6549, 402.2031
383.1370, 400.6985
383.6191, 400.4803
384.1012, 399.8257
384.5833, 398.5388
385.0655, 396.7897
385.5476, 394.5242
386.0297, 391.9008
386.5118, 389.6341
386.9939, 388.4020
387.4760, 387.5739
387.9582, 386.3108
388.4403, 384.5861
388.9224, 382.4386
389.4045, 379.4179
389.8866, 376.1500
390.3687, 373.5534
390.8509, 372.7654
391.3330, 371.8903
391.8151, 369.2559
392.2972, 365.2719
392.7793, 361.5610
393.2614, 358.9727
393.7436, 356.9443
394.2257, 355.1040
394.7078, 353.5869
395.1899, 351.7904
395.6720, 349.0101
396.1541, 345.8944
396.6363, 343.4886
397.1184, 342.5946
397.6005, 341.9340
398.0826, 341.1277
398.5647, 340.1450
399.0468, 339.0851
399.5290, 337.8557
400.0111, 336.6097
400.4932, 335.4624
400.9753, 334.2799
401.4574, 333.3999
401.9395, 333.1826
402.4217, 333.3672
402.9038, 332.6274
403.3859, 330.3052
403.8680, 328.0270
404.3501, 326.5958
404.8322, 326.2472
405.3144, 326.0226
405.7965, 326.0617
406.2786, 326.0623
406.7607, 325.4117
407.2428, 323.9518
407.7249, 322.6878
408.2071, 321.9240
408.6892, 321.6348
409.1713, 321.7822
409.6534, 322.4170
410.1355, 323.1934
410.6176, 324.0550
411.0998, 324.8875
411.5819, 324.8625
412.0640, 323.5186
412.5461, 321.7504
413.0282, 320.9130
413.5103, 320.9382
413.9925, 321.3875
414.4746, 322.8068
414.9567, 324.2274
415.4388, 323.6782
415.9209, 320.7697
416.4030, 318.0397
416.8852, 317.6215
417.3673, 318.7874
417.8494, 320.3316
418.3315, 322.9057
418.8136, 324.8011
419.2957, 324.4013
419.7779, 322.0643
420.2600, 320.1156
420.7421, 319.8781
421.2242, 320.2857
421.7063, 320.5660
422.1884, 320.4012
422.6706, 320.4497
423.1527, 321.1718
423.6348, 322.1833
424.1169, 322.7652
424.5990, 322.2808
425.0811, 321.8636
425.5633, 321.8464
426.0454, 322.2639
426.5275, 322.8057
427.0096, 323.3293
427.4917, 324.0861
427.9738, 325.4224
428.4560, 328.1222
428.9381, 329.6871
429.4202, 329.4615
429.9023, 327.9744
430.3844, 326.9973
430.8665, 326.6240
431.3487, 326.5150
431.8308, 326.6735
432.3129, 327.1422
432.7950, 327.0050
433.2771, 326.1673
433.7592, 324.9568
434.2414, 323.6340
434.7235, 322.2291
435.2056, 321.1007
435.6877, 320.4715
436.1698, 320.1213
436.6519, 319.6447
437.1341, 319.0372
437.6162, 318.2296
438.0983, 317.0664
438.5804, 315.6879
439.0625, 314.3547
439.5446, 313.1446
440.0268, 311.8665
440.5089, 310.1088
440.9910, 308.1567
441.4731, 306.6208
441.9552, 305.8001
442.4373, 305.4409
442.9195, 305.6846
443.4016, 306.4885
443.8837, 306.7390
444.3658, 305.6597
444.8479, 304.0065
445.3300, 302.3754
445.8122, 300.7911
446.2943, 299.3316
446.7764, 297.7728
447.2585, 296.3272
447.7406, 295.5456
448.2227, 296.1757
448.7049, 296.7669
449.1870, 296.8430
449.6691, 296.2682
450.1512, 296.0039
450.6333, 296.1117
451.1154, 296.4713
451.5976, 297.1403
452.0797, 298.4633
452.5618, 298.8600
453.0439, 297.7386
453.5260, 295.7245
454.0081, 294.9053
454.4903, 295.5084
454.9724, 295.8127
455.4545, 294.4037
455.9366, 291.6396
456.4187, 290.0336
456.9008, 289.7422
457.3830, 290.2282
457.8651, 290.9901
458.3472, 292.0343
458.8293, 293.4416
459.3114, 295.8225
459.7935, 297.9796
460.2757, 297.9391
460.7578, 296.1115
461.2399, 294.6001
461.7220, 295.5290
462.2041, 296.9365
462.6862, 296.6706
463.1684, 293.9857
463.6505, 291.6428
464.1326, 291.6676
464.6147, 292.7094
465.0968, 293.0189
465.5789, 290.8130
466.0611, 289.0941
466.5432, 289.1721
467.0253, 290.8619
467.5074, 291.8459
467.9895, 291.3977
468.4716, 290.5580
468.9538, 289.7228
469.4359, 288.4849
469.9180, 288.2308
470.4001, 289.6080
470.8822, 291.5148
471.3643, 292.2047
471.8465, 291.2200
472.3286, 290.3377
472.8107, 290.0417
473.2928, 290.2265
473.7749, 290.3907
474.2570, 290.6032
474.7392, 290.4071
475.2213, 288.7740
475.7034, 286.1146
476.1855, 285.5782
476.6676, 287.8962
477.1497, 291.0106
477.6319, 292.3058
478.1140, 292.1054
478.5961, 291.4121
479.0782, 289.9420
479.5603, 288.6523
480.0424, 288.9765
480.5246, 290.7305
481.0067, 292.3965
481.4888, 292.8895
481.9709, 292.9407
482.4530, 293.2487
482.9352, 294.1752
483.4173, 294.7857
483.8994, 294.3145
484.3815, 293.3776
484.8636, 292.9194
485.3457, 293.5587
485.8279, 294.2773
486.3100, 294.8476
486.7921, 295.2639
487.2742, 295.5859
487.7563, 295.4975
488.2384, 295.6489
488.7206, 296.5446
489.2027, 298.8325
489.6848, 300.0501
490.1669, 299.8117
490.6490, 298.8876
491.1311, 298.5136
491.6133, 298.7804
492.0954, 298.9608
492.5775, 298.6381
493.0596, 298.1091
493.5417, 298.7151
494.0238, 300.4680
494.5060, 302.1607
494.9881, 302.4800
495.4702, 302.0611
495.9523, 302.6886
496.4344, 304.7840
496.9165, 307.0115
497.3987, 307.7701
497.8808, 307.7340
498.3629, 308.1615
498.8450, 310.2759
499.3271, 312.4371
499.8092, 313.4118
500.2914, 313.4117
500.7735, 313.5386
501.2556, 313.8495
501.7377, 314.7091
502.2198, 316.5396
502.7019, 320.1266
503.1841, 322.7989
503.6662, 322.9843
504.1483, 322.6182
504.6304, 323.9923
505.1125, 328.3669
505.5946, 332.4126
506.0768, 335.6715
506.5589, 338.2201
507.0410, 340.4378
507.5231, 342.1772
508.0052, 343.9804
508.4873, 346.1349
508.9695, 348.6134
509.4516, 351.2879
509.9337, 354.1185
510.4158, 357.2916
510.8979, 361.8405
511.3800, 367.1949
511.8622, 370.4354
512.3443, 370.0937
512.8264, 368.3179
513.3085, 367.7675
513.7906, 368.2129
514.2728, 368.8275
514.7549, 369.0444
515.2370, 369.3004
515.7191, 370.1890
516.2012, 371.8102
516.6833, 372.9529
517.1655, 372.9181
517.6476, 372.2518
518.1297, 371.4081
518.6118, 369.8557
519.0939, 368.9167
519.5760, 369.7948
520.0582, 371.3697
520.5403, 370.9747
521.0224, 367.2626
521.5045, 363.4419
521.9866, 360.1826
522.4688, 357.4742
522.9509, 355.7167
523.4330, 355.1260
523.9151, 354.9424
524.3972, 354.6798
524.8793, 354.3380
525.3615, 353.8068
525.8436, 353.0821
526.3257, 352.1287
526.8078, 350.5092
527.2899, 348.4735
527.7720, 347.3204
528.2542, 348.4664
528.7363, 350.0714
529.2184, 349.1836
529.7005, 346.2706
530.1826, 343.8405
530.6647, 343.6715
531.1469, 344.5202
531.6290, 345.4753
532.1111, 346.5042
532.5932, 347.1624
533.0753, 347.0172
533.5574, 346.5338
534.0396, 346.1973
534.5217, 346.2516
535.0038, 346.2758
535.4859, 346.2084
535.9680, 346.0719
536.4501, 345.8588
536.9323, 345.1472
537.4144, 345.1003
537.8965, 346.4609
538.3786, 349.2792
538.8607, 350.9247
539.3428, 351.2175
539.8250, 350.8365
540.3071, 350.1125
540.7892, 349.1290
541.2713, 348.7702
541.7534, 349.3678
542.2355, 350.0805
542.7177, 349.3424
543.1998, 347.6590
543.6819, 346.6636
544.1640, 347.9655
544.6461, 349.7039
545.1282, 350.1561
545.6104, 349.4498
546.0925, 348.4296
546.5746, 347.5270
547.0567, 346.4735
547.5388, 344.8177
548.0209, 341.9733
548.5031, 340.3653
548.9852, 341.7976
549.4673, 344.0793
549.9494, 344.9055
550.4315, 343.7126
550.9136, 341.7975
551.3958, 338.6076
551.8779, 334.9359
552.3600, 333.5914
552.8421, 335.4179
553.3242, 336.5647
553.8063, 335.0913
554.2885, 331.3882
554.7706, 328.4835
555.2527, 326.4035
555.7348, 324.8529
556.2169, 323.6419
556.6990, 322.7664
557.1812, 322.4266
557.6633, 322.9312
558.1454, 322.8991
558.6275, 320.1354
559.1096, 316.0363
559.5917, 313.0006
560.0739, 313.3344
560.5560, 313.7430
561.0381, 311.9941
561.5202, 308.7379
562.0023, 306.8098
562.4844, 308.5709
562.9666, 310.3972
563.4487, 310.4383
563.9308, 308.1254
564.4129, 306.8490
564.8950, 307.5132
565.3771, 308.2188
565.8593, 307.1427
566.3414, 303.6410
566.8235, 301.1320
567.3056, 300.0863
567.7877, 299.9175
568.2698, 299.7736
568.7520, 299.6317
569.2341, 299.0723
569.7162, 297.5365
570.1983, 295.7565
570.6804, 295.1943
571.1625, 295.7165
571.6447, 296.3431
572.1268, 296.7755
572.6089, 296.8126
573.0910, 296.1281
573.5731, 294.5984
574.0552, 293.0399
574.5374, 291.5482
575.0195, 290.3250
575.5016, 289.5499
575.9837, 290.1649
576.4658, 290.0877
576.9479, 288.4444
577.4301, 286.1373
577.9122, 284.9948
578.3943, 285.6046
578.8764, 286.1924
579.3585, 286.3843
579.8406, 286.1599
580.3228, 285.1969
580.8049, 283.3567
581.2870, 281.6761
581.7691, 280.9595
582.2512, 281.0004
582.7333, 280.9980
583.2155, 280.9230
583.6975, 280.6903
584.1796, 279.9528
584.6617, 279.0678
585.1439, 278.6933
585.6260, 279.3942
586.1081, 279.9539
586.5902, 279.6512
587.0723, 278.6776
587.5544, 277.4161
588.0366, 275.2173
588.5187, 273.4870
589.0008, 272.7995
589.4829, 273.1216
589.9650, 273.4989
590.4471, 274.1425
590.9293, 274.5480
591.4114, 274.3864
591.8935, 273.5363
592.3756, 273.0443
592.8577, 273.0696
593.3398, 273.0140
593.8220, 271.9902
594.3041, 270.1747
594.7862, 269.0043
595.2683, 268.8631
595.7504, 269.1263
596.2325, 269.0785
596.7147, 268.7872
597.1968, 268.4262
597.6789, 267.6510
598.1610, 267.1876
598.6431, 267.8154
599.1252, 269.3058
599.6074, 270.5885
600.0895, 271.6942
600.5716, 272.1637
601.0537, 271.4772
601.5358, 269.1714
602.0179, 267.8780
602.5001, 268.3653
602.9822, 269.1334
603.4643, 268.9108
603.9464, 267.1864
604.4285, 266.5673
604.9106, 267.4459
605.3928, 269.0296
605.8749, 270.3914
606.3570, 271.4977
606.8391, 271.7261
607.3212, 270.2491
607.8033, 268.6130
608.2855, 269.6967
608.7676, 272.8101
609.2497, 275.4555
609.7318, 275.8697
610.2139, 275.5220
610.6960, 275.1116
611.1782, 274.7331
611.6603, 275.4582
612.1424, 279.3912
612.6245, 283.2974
613.1066, 285.0565
613.5887, 283.4109
614.0709, 282.1577
614.5530, 281.0903
615.0351, 280.5998
615.5172, 281.3116
615.9993, 283.6410
616.4814, 285.2576
616.9636, 285.6285
617.4457, 285.4330
617.9278, 286.0284
618.4099, 287.3412
618.8920, 288.5959
619.3741, 289.2897
619.8563, 289.8781
620.3384, 291.0648
620.8205, 292.7621
621.3026, 294.5448
621.7847, 296.1289
622.2668, 297.7383
622.7490, 299.4240
623.2311, 301.1747
623.7132, 303.3289
624.1953, 306.7526
624.6774, 310.0863
625.1595, 312.3556
625.6417, 312.9180
626.1238, 313.6664
626.6059, 314.5804
627.0880, 315.7038
627.5701, 317.0555
628.0522, 318.6210
628.5344, 320.6305
629.0165, 323.2540
629.4986, 326.1661
629.9807, 328.6446
630.4628, 330.8023
630.9449, 333.1778
631.4271, 336.0515
631.9092, 339.2880
632.3913, 342.9383
632.8734, 346.9201
633.3555, 350.6414
633.8376, 352.8114
634.3198, 355.4377
634.8019, 360.2712
635.2840, 368.2284
635.7661, 374.4038
636.2482, 376.4072
636.7303, 378.1054
637.2125, 382.3605
637.6946, 390.5986
638.1767, 397.1967
638.6588, 401.5068
639.1409, 404.8958
639.6230, 408.9853
640.1052, 413.7881
640.5873, 419.4594
641.0694, 426.4270
641.5515, 433.5242
642.0336, 438.7089
642.5157, 442.4247
642.9979, 446.0599
643.4800, 450.1841
643.9621, 454.5127
644.4442, 458.8206
644.9263, 463.1259
645.4084, 467.4872
645.8906, 471.4771
646.3727, 475.8792
646.8548, 481.4533
647.3369, 488.5183
647.8190, 493.9984
648.3011, 497.0446
648.7833, 499.7142
649.2654, 503.7503
649.7475, 509.4122
650.2296, 513.6120
650.7117, 515.9664
651.1938, 517.7341
651.6760, 520.7108
652.1581, 524.3874
652.6402, 527.0221
653.1223, 527.8690
653.6044, 528.1555
654.0865, 528.5895
654.5687, 529.3250
655.0508, 530.6516
655.5329, 534.2114
656.0150, 536.8212
656.4971, 536.6705
656.9792, 534.3337
657.4614, 532.9269
657.9435, 533.2349
658.4256, 533.5623
658.9077, 533.3639
659.3898, 532.6592
659.8719, 531.9169
660.3541, 531.1127
660.8362, 530.3833
661.3183, 530.1375
661.8004, 530.0853
662.2825, 528.7131
662.7646, 525.8509
663.2468, 523.2538
663.7289, 523.5756
664.2110, 524.6667
664.6931, 523.4374
665.1752, 518.2057
665.6573, 513.3023
666.1395, 511.2541
666.6216, 510.3262
667.1037, 508.3819
667.5858, 504.4772
668.0679, 500.3027
668.5500, 495.9155
669.0322, 491.3750
669.5143, 486.8461
669.9964, 482.2252
670.4785, 478.0383
670.9606, 474.6445
671.4427, 471.6341
671.9249, 467.8960
672.4070, 463.4845
672.8891, 458.9482
673.3712, 454.4163
673.8533, 450.0805
674.3354, 446.3150
674.8176, 443.0730
675.2997, 439.9527
675.7818, 437.0351
676.2639, 434.0046
676.7460, 430.3866
677.2281, 425.7038
677.7103, 422.5397
678.1924, 421.7911
678.6745, 421.7374
679.1566, 421.1091
679.6387, 419.7368
680.1208, 418.6593
680.6030, 418.0527
681.0851, 417.3807
681.5672, 415.2466
682.0493, 412.2661
682.5314, 411.3448
683.0135, 414.0117
683.4957, 416.9971
683.9778, 416.4293
684.4599, 413.7412
684.9420, 411.6595
685.4241, 410.9688
685.9063, 411.2862
686.3884, 413.4867
686.8705, 416.7270
687.3526, 418.0634
687.8347, 415.9995
688.3168, 414.0327
688.7990, 413.0102
689.2811, 412.8594
689.7632, 413.3925
690.2453, 414.7411
690.7274, 415.8716
691.2095, 415.8698
691.6917, 415.2000
692.1738, 415.6320
692.6559, 417.0958
693.1380, 417.8192
693.6201, 416.2098
694.1022, 413.4009
694.5844, 410.3271
695.0665, 407.0786
695.5486, 403.8764
696.0307, 401.1679
696.5128, 398.2914
696.9949, 394.6527
697.4771, 389.8188
697.9592, 385.1578
698.4413, 380.7133
698.9234, 376.4429
699.4055, 372.3968
699.8876, 368.5894
700.3698, 364.4497
700.8519, 359.8253
701.3340, 355.1229
701.8161, 351.2999
702.2982, 347.8795
702.7803, 343.5597
703.2625, 336.3843
703.7446, 329.9450
704.2267, 327.4954
704.7088, 327.5370
705.1909, 326.8042
705.6730, 323.7298
706.1552, 320.5804
706.6373, 317.7690
707.1194, 315.2975
707.6015, 313.2806
708.0836, 311.9484
708.5657, 310.3574
709.0479, 307.8186
709.5300, 304.7274
710.0121, 302.9896
710.4942, 302.5473
710.9763, 302.1680
711.4584, 301.0038
711.9406, 299.4211
712.4227, 297.6617
712.9048, 295.7655
713.3869, 294.4137
713.8690, 294.8242
714.3511, 295.2475
714.8333, 294.4079
715.3154, 291.6268
715.7975, 289.3590
716.2796, 287.6141
716.7617, 286.3773
717.2438, 285.6475
717.7260, 285.4483
718.2081, 285.7426
718.6902, 286.6667
719.1723, 287.5188
719.6544, 287.2899
720.1365, 286.3442
720.6187, 285.6377
721.1008, 285.4791
721.5829, 285.2720
722.0650, 284.5770
722.5471, 283.5491
723.0292, 282.3791
723.5114, 279.9224
723.9935, 278.8437
724.4756, 280.6671
724.9577, 283.6855
725.4398, 284.9869
725.9219, 283.9975
726.4041, 282.9857
726.8862, 282.4234
727.3683, 282.1411
727.8504, 281.7485
728.3325, 281.2721
728.8146, 280.8870
729.2968, 280.5300
729.7789, 280.4326
730.2610, 281.2284
730.7431, 282.5734
731.2252, 283.3282
731.7073, 282.3376
732.1895, 281.2969
732.6716, 280.9834
733.1537, 281.3766
733.6358, 281.7191
734.1179, 282.4249
734.6000, 282.3312
735.0822, 280.4836
735.5643, 277.1996
736.0464, 275.9822
736.5285, 276.9225
737.0106, 278.1415
737.4927, 278.3802
737.9749, 277.9829
738.4570, 277.4294
738.9391, 276.7603
739.4212, 276.1577
739.9033, 275.9454
740.3854, 275.6849
740.8676, 274.8486
741.3497, 272.9537
741.8318, 272.3108
742.3139, 274.0969
742.7960, 275.9550
743.2781, 276.1042
743.7603, 274.1896
744.2424, 273.1632
744.7245, 273.2216
745.2066, 273.6647
745.6887, 273.8654
746.1708, 273.8706
746.6530, 273.8136
747.1351, 273.7374
747.6172, 273.5100
748.0993, 272.9153
748.5814, 272.1693
749.0635, 271.4884
749.5457, 270.4827
750.0278, 270.2726
750.5099, 271.8567
750.9920, 273.7277
751.4741, 273.9680
751.9562, 272.0669
752.4384, 270.6776
752.9205, 270.2314
753.4026, 270.2682
753.8847, 270.0504
754.3668, 269.6801
754.8489, 269.5851
755.3311, 269.9738
755.8132, 270.5286
756.2953, 271.2745
756.7774, 271.9357
757.2595, 272.0137
757.7416, 270.1892
758.2238, 269.1464
758.7059, 270.2008
759.1880, 272.2694
759.6701, 273.0661
760.1522, 272.2640
760.6343, 271.1989
761.1165, 269.9226
761.5986, 268.8762
762.0807, 269.5755
762.5628, 271.6887
763.0449, 273.2588
763.5270, 272.8339
764.0092, 271.9436
764.4913, 272.2157
764.9734, 273.2378
765.4555, 273.7324
765.9376, 272.4892
766.4197, 271.4244
766.9019, 271.4134
767.3840, 272.1814
767.8661, 272.4550
768.3482, 272.1171
768.8303, 271.5797
769.3124, 270.7284
769.7946, 269.8985
770.2767, 270.6430
770.7588, 272.7742
771.2409, 274.5401
771.7230, 274.4635
772.2051, 273.8016
772.6873, 273.9976
773.1694, 274.8986
773.6515, 275.1351
774.1336, 273.0554
774.6157, 271.3544
775.0978, 271.3883
775.5800, 273.0815
776.0621, 274.4076
776.5442, 275.3036
777.0263, 276.0154
777.5084, 276.5712
777.9905, 277.0379
778.4727, 277.8933
778.9548, 279.0963
779.4369, 279.9422
779.9190, 279.4326
780.4011, 278.6403
780.8832, 278.9588
781.3654, 280.4402
781.8475, 280.9818
782.3296, 278.4757
782.8117, 276.1739
783.2938, 275.8622
783.7759, 277.7849
784.2581, 278.8730
784.7402, 278.9539
785.2223, 278.7302
785.7044, 278.5734
786.1865, 278.5112
786.6686, 278.7292
787.1508, 279.2301
787.6329, 279.6264
788.1150, 279.2182
788.5971, 278.8308
789.0792, 279.4919
789.5613, 281.4837
790.0435, 282.8500
790.5256, 282.6378
791.0077, 282.0900
791.4898, 281.7911
791.9719, 281.7408
792.4540, 281.9130
792.9362, 282.2897
793.4183, 282.9279
793.9004, 284.4583
794.3825, 286.2387
794.8646, 285.7627
795.3467, 282.8133
795.8289, 280.8333
796.3110, 283.9877
796.7931, 288.1073
797.2752, 289.3672
797.7573, 286.4378
798.2394, 284.6012
798.7216, 285.1517
799.2037, 286.1783
799.6858, 286.3698
800.1679, 285.4950
800.6500, 285.8925
801.1321, 287.7939
801.6143, 289.5557
802.0964, 289.3022
802.5785, 287.9588
803.0606, 287.2847
803.5427, 287.5030
804.0248, 287.9966
804.5070, 288.7816
804.9891, 289.4257
805.4712, 289.4487
805.9533, 288.3258
806.4354, 288.2123
806.9175, 289.6126
807.3997, 291.2933
807.8818, 292.2915
808.3639, 292.6188
808.8460, 293.3477
809.3281, 294.5563
809.8102, 295.6367
810.2924, 296.1923
810.7745, 296.2173
811.2566, 295.2857
811.7387, 293.1534
812.2208, 292.1769
812.7029, 294.9991
813.1851, 298.0677
813.6672, 298.6837
814.1493, 296.0087
814.6314, 294.5277
815.1135, 294.5379
815.5956, 295.0308
816.0778, 295.5010
816.5599, 295.8154
817.0420, 294.8991
817.5241, 292.6539
818.0062, 291.1290
818.4883, 292.5457
818.9705, 295.0624
819.4526, 297.0835
819.9347, 298.4364
820.4168, 298.9622
820.8989, 297.4796
821.3810, 296.2218
821.8632, 296.5959
822.3453, 298.9096
822.8274, 299.6962
823.3095, 298.7818
823.7916, 297.3677
824.2737, 296.1859
824.7559, 295.2633
825.2380, 294.6817
825.7201, 294.4496
826.2022, 294.4577
826.6843, 294.9920
827.1664, 295.4749
827.6486, 295.4399
828.1307, 294.7420
828.6128, 294.3709
829.0949, 294.8537
829.5770, 294.7263
830.0591, 292.5443
830.5413, 288.6734
831.0234, 287.7183
831.5055, 289.6355
831.9876, 291.2875
832.4697, 289.7872
832.9518, 287.2555
833.4340, 286.0114
833.9161, 286.1210
834.3982, 286.2891
834.8803, 286.0094
835.3624, 285.7586
835.8445, 285.8416
836.3267, 286.2277
836.8088, 286.1915
837.2909, 285.7470
837.7730, 284.7951
838.2551, 282.5879
838.7372, 280.0467
839.2194, 280.0229
839.7015, 282.0855
840.1836, 283.7353
840.6657, 283.2603
841.1478, 282.1657
841.6299, 281.2978
842.1121, 280.6504
842.5942, 279.8073
843.0763, 278.4081
843.5584, 277.3892
844.0405, 277.0936
844.5226, 277.3822
845.0048, 277.8197
845.4869, 278.3883
845.9690, 278.8478
846.4511, 279.3005
846.9332, 279.3914
847.4153, 278.4064
847.8975, 276.7196
848.3796, 275.3864
848.8617, 274.7643
849.3438, 274.5869
849.8259, 274.9870
850.3080, 275.7158
850.7902, 276.0562
851.2723, 275.8894
851.7544, 276.1444
852.2365, 277.3853
852.7186, 278.7168
853.2007, 278.2210
853.6829, 276.4909
854.1650, 275.1451
854.6471, 274.9036
855.1292, 275.0622
855.6113, 275.5282
856.0934, 276.1074
856.5756, 276.4475
857.0577, 276.4429
857.5398, 276.4069
858.0219, 276.4266
858.5040, 276.3430
858.9861, 275.7229
859.4683, 274.7075
859.9504, 274.0798
860.4325, 274.0471
860.9146, 274.3804
861.3967, 275.2511
861.8788, 276.2023
862.3610, 276.6473
862.8431, 275.9757
863.3252, 275.6533
863.8073, 276.1010
864.2894, 276.6337
864.7715, 276.5076
865.2537, 275.6840
865.7358, 275.0890
866.2179, 274.8106
866.7000, 274.6299
867.1821, 274.2679
867.6642, 273.8888
868.1464, 273.7725
868.6285, 274.0009
869.1106, 274.2147
869.5927, 273.9771
870.0748, 273.9390
870.5569, 274.6893
871.0391, 276.4851
871.5212, 277.1073
872.0033, 276.3156
872.4854, 275.2415
872.9675, 274.5838
873.4496, 274.3063
873.9318, 274.5181
874.4139, 275.1641
874.8960, 275.6718
875.3781, 275.3437
875.8602, 275.0807
876.3423, 275.7852
876.8245, 277.4404
877.3066, 277.6729
877.7887, 275.6031
878.2708, 274.1992
878.7529, 275.1158
879.2350, 277.4132
879.7172, 277.5496
880.1993, 275.8866
880.6814, 274.7461
881.1635, 276.0979
881.6456, 277.8063
882.1277, 278.2766
882.6099, 277.8107
883.0920, 277.3448
883.5741, 277.1112
884.0562, 276.7611
884.5383, 276.1074
885.0204, 275.3910
885.5026, 275.1799
885.9847, 275.4435
886.4668, 275.7728
886.9489, 275.9706
887.4310, 276.3687
887.9131, 277.7176
888.3953, 279.3837
888.8774, 280.4241
889.3595, 280.4059
889.8416, 279.9616
890.3237, 278.5312
890.8058, 277.2828
891.2880, 277.7039
891.7701, 279.9861
892.2522, 281.4550
892.7343, 281.8489
893.2164, 281.7067
893.6985, 281.3058
894.1807, 280.8466
894.6628, 280.7075
895.1449, 281.0257
895.6270, 281.0602
896.1091, 279.4330
896.5912, 278.4562
897.0734, 279.9117
897.5555, 284.1525
898.0376, 286.0389
898.5197, 285.2149
899.0018, 284.1399
899.4839, 284.8141
899.9661, 286.2997
900.4482, 286.7204
900.9303, 286.2151
901.4124, 285.8875
901.8945, 285.9261
902.3766, 286.6099
902.8588, 288.6936
903.3409, 291.6550
903.8230, 293.1260
904.3051, 292.7477
904.7872, 292.3053
905.2693, 292.4005
905.7515, 292.1984
906.2336, 292.6823
906.7157, 292.3776
907.1978, 292.3638
907.6799, 292.8098
908.1620, 293.6520
908.6442, 295.4247
909.1263, 297.3918
909.6084, 298.2869
910.0905, 297.5307
910.5726, 297.3229
911.0547, 298.0655
911.5369, 298.9208
912.0190, 298.2271
912.5011, 296.7753
912.9832, 297.1300
913.4653, 300.0252
913.9474, 302.7307
914.4296, 303.2076
914.9117, 302.9483
915.3938, 303.2073
915.8759, 304.2037
916.3580, 305.1761
916.8401, 306.1748
917.3223, 307.0102
917.8044, 307.4584
918.2865, 307.6332
918.7686, 307.8802
919.2507, 308.2296
919.7328, 308.8946
920.2150, 310.9035
920.6971, 312.4668
921.1792, 311.8731
921.6613, 309.5205
922.1434, 308.7855
922.6255, 310.5855
923.1077, 311.9892
923.5898, 312.0368
924.0719, 311.3013
924.5540, 310.9234
925.0361, 310.9118
925.5182, 311.3653
926.0004, 312.7273
926.4825, 313.8774
926.9646, 313.8048
927.4467, 313.1830
927.9288, 313.0853
928.4109, 314.2845
928.8931, 314.4958
929.3752, 313.3840
929.8573, 311.7370
930.3394, 310.0527
930.8215, 308.5623
931.3036, 308.2982
931.7858, 309.4666
932.2679, 310.5443
932.7500, 310.4385
933.2321, 309.8567
933.7142, 309.4294
934.1964, 309.3082
934.6785, 308.3282
935.1606, 306.1105
935.6427, 303.9893
936.1248, 302.6801
936.6069, 302.0050
937.0891, 301.3687
937.5712, 300.8327
938.0533, 300.7632
938.5354, 302.1989
939.0175, 303.3072
939.4996, 302.5306
939.9818, 300.6114
940.4639, 299.8397
940.9460, 301.0049
941.4281, 301.3100
941.9102, 299.9974
942.3923, 298.1244
942.8745, 297.3652
943.3566, 297.4585
943.8387, 297.6264
944.3208, 297.5831
944.8029, 297.9643
945.2850, 300.2049
945.7672, 302.3638
946.2493, 302.2623
946.7314, 298.8578
947.2135, 297.6199
947.6956, 299.0456
948.1777, 300.9526
948.6599, 302.0123
949.1420, 302.1883
949.6241, 300.6724
950.1062, 297.7825
950.5883, 296.0186
951.0704, 297.9953
951.5526, 300.1898
952.0347, 300.3390
952.5168, 299.1578
952.9989, 299.5827
953.4810, 302.0234
953.9631, 304.1412
954.4453, 305.2784
954.9274, 305.7349
955.4095, 305.6007
955.8916, 305.2252
956.3737, 305.4341
956.8558, 307.1028
957.3380, 308.2270
957.8201, 307.5480
958.3022, 306.4076
958.7843, 306.0317
959.2664, 306.5296
959.7485, 307.3379
960.2307, 308.5125
960.7128, 309.4434
961.1949, 309.0815
961.6770, 308.3957
962.1591, 309.2004
962.6412, 311.4693
963.1234, 312.6641
963.6055, 310.3234
964.0876, 308.5477
964.5697, 309.1895
965.0518, 311.4879
965.5339, 311.7412
966.0161, 309.9481
966.4982, 308.9799
966.9803, 310.3905
967.4624, 312.3551
967.9445, 312.7125
968.4266, 312.2234
968.9088, 312.1376
969.3909, 313.9841
969.8730, 314.4418
970.3551, 312.6602
970.8372, 310.3129
971.3193, 308.8998
971.8015, 308.4245
972.2836, 309.2018
972.7657, 311.3066
973.2478, 312.9066
973.7299, 311.6005
974.2120, 309.9303
974.6942, 310.3506
975.1763, 313.0547
975.6584, 314.6859
976.1405, 314.7159
976.6226, 314.5246
977.1047, 314.5804
977.5869, 314.7820
978.0690, 314.8185
978.5511, 314.7469
979.0332, 314.7925
979.5153, 315.1107
979.9974, 315.4685
980.4796, 315.7332
980.9617, 315.9651
981.4438, 316.2733
981.9259, 316.7703
982.4080, 317.0317
982.8901, 317.0490
983.3723, 316.8078
983.8544, 315.7026
984.3365, 314.5410
984.8186, 315.2025
985.3007, 317.7875
985.7828, 320.0421
986.2650, 321.1357
986.7471, 321.4932
987.2292, 321.1586
987.7113, 320.2876
988.1934, 319.6493
988.6755, 319.2400
989.1577, 319.0970
989.6398, 319.3105
990.1219, 319.6632
990.6040, 319.9618
991.0861, 320.1947
991.5682, 320.3504
992.0504, 320.6620
992.5325, 320.4517
993.0146, 319.2394
993.4967, 318.0860
993.9788, 318.0844
994.4609, 319.1051
994.9431, 320.0910
995.4252, 320.9897
995.9073, 321.6710
996.3894, 321.8812
996.8715, 321.9849
997.3536, 322.4184
997.8358, 323.1067
998.3179, 323.0387
998.8000, 321.7408
999.2821, 320.8707
999.7642, 320.8592
1000.246, 321.6194
1000.728, 323.6166
1001.211, 326.2014
1001.693, 327.5367
1002.175, 326.5049
1002.657, 325.4123
1003.139, 324.9388
1003.621, 325.1003
1004.103, 326.0882
1004.585, 328.2473
1005.068, 329.0411
1005.550, 328.3517
1006.032, 327.4773
1006.514, 326.8507
1006.996, 326.9541
1007.478, 329.1332
1007.960, 332.8839
1008.442, 335.3079
1008.924, 334.6602
1009.407, 333.7487
1009.889, 332.8692
1010.371, 332.2677
1010.853, 332.6061
1011.335, 333.7599
1011.817, 334.9413
1012.299, 336.0700
1012.781, 336.8131
1013.263, 336.1910
1013.746, 335.5477
1014.228, 336.5243
1014.710, 339.8021
1015.192, 341.2848
1015.674, 340.4699
1016.156, 339.4889
1016.638, 339.5299
1017.120, 340.3496
1017.603, 341.9291
1018.085, 343.9070
1018.567, 344.9658
1019.049, 344.0095
1019.531, 342.6089
1020.013, 340.8121
1020.495, 339.0931
1020.977, 338.0799
1021.459, 337.7670
1021.942, 338.4631
1022.424, 340.3646
1022.906, 342.0289
1023.388, 342.0905
1023.870, 341.2845
1024.352, 340.2713
1024.834, 339.1259
1025.316, 337.8009
1025.799, 336.0580
1026.281, 334.6948
1026.763, 334.2420
1027.245, 334.2155
1027.727, 332.9038
1028.209, 330.8412
1028.691, 329.9106
1029.173, 332.1479
1029.656, 333.5789
1030.138, 331.3207
1030.620, 327.9663
1031.102, 326.3434
1031.584, 326.8502
1032.066, 326.7060
1032.548, 325.7696
1033.030, 324.9302
1033.512, 325.3383
1033.995, 325.9819
1034.477, 325.7094
1034.959, 324.5372
1035.441, 322.9194
1035.923, 320.2477
1036.405, 318.2333
1036.887, 317.4012
1037.369, 317.1631
1037.851, 316.5058
1038.334, 315.4462
1038.816, 313.9111
1039.298, 311.7689
1039.780, 309.6818
1040.262, 307.7055
1040.744, 306.2184
1041.226, 305.8124
1041.708, 306.5987
1042.191, 305.7645
1042.673, 303.0716
1043.155, 300.7497
1043.637, 300.2529
1044.119, 300.5756
1044.601, 300.5694
1045.083, 300.2557
1045.565, 299.6854
1046.047, 298.3232
1046.530, 297.6129
1047.012, 298.2542
1047.494, 298.7179
1047.976, 296.5632
1048.458, 292.5851
1048.940, 291.1953
1049.422, 292.6395
1049.904, 293.7970
1050.386, 291.8830
1050.869, 289.8501
1051.351, 289.9214
1051.833, 291.4591
1052.315, 291.7099
1052.797, 290.4959
1053.279, 289.3188
1053.761, 288.5928
1054.243, 287.9887
1054.726, 287.0487
1055.208, 285.9775
1055.690, 285.0371
1056.172, 284.2371
1056.654, 283.7415
1057.136, 283.6031
1057.618, 283.6631
1058.100, 284.0673
1058.583, 284.5534
1059.065, 283.9093
1059.547, 282.3363
1060.029, 280.7521
1060.511, 279.2125
1060.993, 278.2821
1061.475, 278.8661
1061.957, 279.8710
1062.439, 279.7035
1062.922, 278.1886
1063.404, 277.1473
1063.886, 276.7770
1064.368, 276.4000
1064.850, 275.3225
1065.332, 273.9957
1065.814, 272.7128
1066.296, 271.5472
1066.778, 270.9880
1067.261, 271.5135
1067.743, 271.5167
1068.225, 270.3009
1068.707, 268.8304
1069.189, 269.2269
1069.671, 270.7387
1070.153, 271.5330
1070.635, 270.9288
1071.118, 270.4588
1071.600, 271.2590
1072.082, 271.8566
1072.564, 271.1927
1073.046, 269.4428
1073.528, 268.9655
1074.010, 269.6598
1074.492, 269.9655
1074.974, 268.8311
1075.457, 267.2646
1075.939, 265.3527
1076.421, 263.7472
1076.903, 263.7064
1077.385, 266.0686
1077.867, 267.4509
1078.349, 267.6162
1078.831, 267.1419
1079.313, 266.0050
1079.796, 264.8654
1080.278, 265.0105
1080.760, 266.2680
1081.242, 267.0759
1081.724, 266.8328
1082.206, 266.1436
1082.688, 264.8708
1083.170, 263.5351
1083.652, 263.2587
1084.135, 263.7729
1084.617, 264.0042
1085.099, 263.6895
1085.581, 263.5788
1086.063, 264.6017
1086.545, 265.5105
1087.027, 265.4568
1087.509, 264.5462
1087.992, 263.9911
1088.474, 263.8029
1088.956, 262.9279
1089.438, 260.2359
1089.920, 257.9116
1090.402, 258.3053
1090.884, 260.2876
1091.366, 262.4530
1091.849, 265.1429
1092.331, 266.5025
1092.813, 266.3700
1093.295, 265.4526
1093.777, 263.7574
1094.259, 261.8769
1094.741, 260.9510
1095.223, 260.8088
1095.705, 260.8115
1096.188, 260.9202
1096.670, 260.8342
1097.152, 260.2251
1097.634, 259.7693
1098.116, 260.8305
1098.598, 262.8932
1099.080, 263.2390
1099.562, 261.6498
1100.044, 260.1952
1100.527, 260.8271
1101.009, 261.2308
1101.491, 259.5538
1101.973, 256.7624
1102.455, 256.2110
1102.937, 257.9241
1103.419, 259.2375
1103.901, 259.4757
1104.384, 259.2037
1104.866, 258.8590
1105.348, 258.3463
1105.830, 257.3733
1106.312, 255.7867
1106.794, 255.2540
1107.276, 256.0604
1107.758, 256.7571
1108.240, 256.5063
1108.723, 255.9879
1109.205, 256.6059
1109.687, 257.6971
1110.169, 257.9578
1110.651, 256.3178
1111.133, 255.1658
1111.615, 254.9400
1112.097, 254.7202
1112.579, 253.3509
1113.062, 253.5528
1113.544, 251.5768
1114.026, 253.3353
1114.508, 254.7041
1114.990, 254.9790
1115.472, 254.2976
1115.954, 251.8893
1116.436, 249.2727
1116.919, 248.5663
1117.401, 249.6313
1117.883, 250.8361
1118.365, 252.0419
1118.847, 252.3876
1119.329, 250.1616
1119.811, 247.8951
1120.293, 247.7493
1120.776, 248.9561
1121.258, 248.6456
1121.740, 246.6172
1122.222, 244.9203
1122.704, 243.8854
1123.186, 243.6911
1123.668, 245.5488
1124.150, 247.6581
1124.632, 247.7878
1125.115, 245.4247
1125.597, 244.3449
1126.079, 244.8683
1126.561, 245.8468
1127.043, 247.2379
1127.525, 248.2353
1128.007, 246.8557
1128.489, 244.3605
1128.971, 242.9869
1129.454, 243.8054
1129.936, 244.3660
1130.418, 244.4164
1130.900, 244.2115
1131.382, 243.8315
1131.864, 243.3462
1132.346, 242.9173
1132.828, 242.5530
1133.311, 242.2813
1133.793, 242.1929
1134.275, 242.0703
1134.757, 241.6129
1135.239, 241.3535
1135.721, 242.0959
1136.203, 243.6201
1136.685, 243.9205
1137.167, 243.0512
1137.650, 242.2447
1138.132, 242.0726
1138.614, 242.3288
1139.096, 243.3508
1139.578, 244.5425
1140.060, 244.9003
1140.542, 244.4131
1141.024, 243.8354
1141.506, 243.2299
1141.989, 242.9248
1142.471, 243.6172
1142.953, 244.3309
1143.435, 244.2381
1143.917, 243.4780
1144.399, 242.8252
1144.881, 242.2393
1145.363, 242.1814
1145.846, 242.8918
1146.328, 243.5481
1146.810, 242.9753
1147.292, 242.0327
1147.774, 241.5620
1148.256, 241.7021
1148.738, 242.3896
1149.220, 243.9777
1149.703, 244.6955
1150.185, 243.5423
1150.667, 241.9751
1151.149, 242.4419
1151.631, 243.8612
1152.113, 244.4863
1152.595, 243.7097
1153.077, 242.9543
1153.559, 242.3179
1154.042, 241.7382
1154.524, 241.1569
1155.006, 240.6354
1155.488, 240.2228
1155.970, 239.9867
1156.452, 240.1463
1156.934, 241.4449
1157.416, 241.8232
1157.898, 240.5957
1158.381, 239.2214
1158.863, 238.7391
1159.345, 239.0225
1159.827, 239.9686
1160.309, 241.3022
1160.791, 241.8900
1161.273, 240.2726
1161.755, 239.0877
1162.238, 239.1751
1162.720, 239.7348
1163.202, 239.8906
1163.684, 239.7459
1164.166, 239.9640
1164.648, 240.5647
1165.130, 241.4409
1165.612, 242.9281
1166.094, 244.2362
1166.577, 245.3906
1167.059, 245.9206
1167.541, 244.4771
1168.023, 241.3077
1168.505, 239.9036
1168.987, 240.6255
1169.469, 241.6014
1169.951, 242.0155
1170.433, 241.8035
1170.916, 240.1397
1171.398, 238.0190
1171.880, 238.3459
1172.362, 241.0740
1172.844, 242.4448
1173.326, 241.5789
1173.808, 240.6118
1174.290, 241.7011
1174.773, 243.0717
1175.255, 243.1184
1175.737, 242.1309
1176.219, 241.7926
1176.701, 242.1384
1177.183, 242.3860
1177.665, 242.3693
1178.147, 242.0337
1178.630, 240.9375
1179.112, 239.7767
1179.594, 239.1806
1180.076, 239.1803
1180.558, 240.0506
1181.040, 241.9915
1181.522, 242.7883
1182.004, 241.0480
1182.486, 239.0106
1182.969, 238.9715
1183.451, 240.0974
1183.933, 241.6717
1184.415, 243.8762
1184.897, 244.4974
1185.379, 243.3330
1185.861, 241.8274
1186.343, 240.4234
1186.825, 239.4608
1187.308, 239.4056
1187.790, 240.0487
1188.272, 241.2646
1188.754, 243.8707
1189.236, 244.0390
1189.718, 241.2141
1190.200, 238.8311
1190.682, 239.9354
1191.165, 242.0532
1191.647, 241.6612
1192.129, 239.9299
1192.611, 239.3018
1193.093, 241.2930
1193.575, 241.7450
1194.057, 240.2336
1194.539, 238.6936
1195.021, 238.6740
1195.504, 239.4980
1195.986, 240.6396
1196.468, 241.8363
1196.950, 242.3119
1197.432, 241.3733
1197.914, 241.1040
1198.396, 241.8279
1198.878, 242.4955
1199.360, 241.7661
1199.843, 240.5748
1200.325, 240.4050
1200.807, 241.0332
1201.289, 241.3135
1201.771, 240.8153
1202.253, 240.5513
1202.735, 240.7212
1203.217, 240.8729
1203.700, 240.3488
1204.182, 239.5857
1204.664, 239.1835
1205.146, 239.1522
1205.628, 239.2513
1206.110, 239.3776
1206.592, 239.7379
1207.074, 240.3715
1207.557, 241.2228
1208.039, 242.5783
1208.521, 243.9043
1209.003, 244.4139
1209.485, 244.0617
1209.967, 243.3078
1210.449, 241.9345
1210.931, 240.9062
1211.413, 240.4509
1211.896, 240.3181
1212.378, 240.0345
1212.860, 239.9127
1213.342, 240.5967
1213.824, 242.1589
1214.306, 243.2971
1214.788, 243.9589
1215.270, 244.0237
1215.752, 243.3425
1216.235, 242.3630
1216.717, 241.3333
1217.199, 240.6118
1217.681, 241.1271
1218.163, 243.1628
1218.645, 243.3576
1219.127, 240.7405
1219.609, 238.6412
1220.092, 238.0796
1220.574, 238.5670
1221.056, 239.8810
1221.538, 241.5105
1222.020, 242.8067
1222.502, 243.6517
1222.984, 243.7985
1223.466, 242.9979
1223.948, 242.3554
1224.431, 242.3427
1224.913, 242.5340
1225.395, 241.9662
1225.877, 241.3743
1226.359, 242.0902
1226.841, 244.8907
1227.323, 245.6322
1227.805, 243.8327
1228.287, 241.7859
1228.770, 240.2187
1229.252, 239.2981
1229.734, 239.5517
1230.216, 240.4575
1230.698, 241.4667
1231.180, 242.6824
1231.662, 242.6466
1232.144, 241.0423
1232.627, 240.0928
1233.109, 241.2856
1233.591, 242.8224
1234.073, 242.5221
1234.555, 241.2552
1235.037, 240.0695
1235.519, 238.9780
1236.001, 238.7614
1236.484, 239.5306
1236.966, 240.2098
1237.448, 240.0972
1237.930, 239.9063
1238.412, 240.4879
1238.894, 241.3684
1239.376, 241.8566
1239.858, 241.8467
1240.340, 242.2038
1240.823, 242.9603
1241.305, 243.0783
1241.787, 241.4363
1242.269, 239.7324
1242.751, 239.1524
1243.233, 239.5479
1243.715, 240.9847
1244.197, 243.6783
1244.679, 244.6059
1245.162, 243.8027
1245.644, 242.6033
1246.126, 241.2715
1246.608, 240.3878
1247.090, 240.5501
1247.572, 241.2658
1248.054, 241.9711
1248.536, 242.6861
1249.019, 243.2077
1249.501, 243.5454
1249.983, 243.7710
1250.465, 243.6402
1250.947, 243.7621
1251.429, 245.2092
1251.911, 246.4307
1252.393, 245.5038
1252.875, 242.6366
1253.358, 242.3966
1253.840, 244.3659
1254.322, 245.7620
1254.804, 244.5348
1255.286, 243.2382
1255.768, 242.5191
1256.250, 242.3146
1256.732, 242.9189
1257.214, 244.0865
1257.697, 244.3284
1258.179, 243.7237
1258.661, 242.6681
1259.143, 239.7423
1259.625, 238.8762
1260.107, 241.7695
1260.589, 245.1435
1261.071, 246.2584
1261.554, 245.6319
1262.036, 244.2637
1262.518, 242.5711
1263.000, 241.8641
1263.482, 243.7977
1263.964, 244.9401
1264.446, 244.8551
1264.928, 244.2848
1265.411, 243.7446
1265.893, 243.2030
1266.375, 242.3015
1266.857, 241.3601
1267.339, 241.2671
1267.821, 243.3612
1268.303, 244.2040
1268.785, 243.5051
1269.267, 242.4085
1269.750, 241.3615
1270.232, 240.8038
1270.714, 241.8968
1271.196, 243.8211
1271.678, 244.5683
1272.160, 243.5480
1272.642, 242.7447
1273.124, 242.1860
1273.606, 241.9994
1274.089, 242.5522
1274.571, 243.2444
1275.053, 243.6947
1275.535, 243.8253
1276.017, 243.4745
1276.499, 242.5076
1276.981, 242.0003
1277.463, 241.9735
1277.946, 242.2913
1278.428, 243.3651
1278.910, 244.2065
1279.392, 244.0957
1279.874, 243.4618
1280.356, 242.6766
1280.838, 241.7673
1281.320, 241.3720
1281.802, 241.4814
1282.285, 241.8901
1282.767, 242.5609
1283.249, 243.4507
1283.731, 245.2258
1284.213, 246.4642
1284.695, 245.2645
1285.177, 242.3877
1285.659, 241.7646
1286.141, 242.9103
1286.624, 243.7407
1287.106, 243.1278
1287.588, 242.3604
1288.070, 241.2314
1288.552, 240.7867
1289.034, 242.7499
1289.516, 245.6427
1289.998, 245.7105
1290.481, 243.9441
1290.963, 242.9289
1291.445, 244.4250
1291.927, 244.7046
1292.409, 243.4063
1292.891, 242.2639
1293.373, 242.9873
1293.855, 244.1938
1294.338, 243.8638
1294.820, 242.8046
1295.302, 242.6476
1295.784, 243.8373
1296.266, 244.3888
1296.748, 244.2638
1297.230, 244.1881
1297.712, 244.8714
1298.194, 245.4590
1298.677, 245.0595
1299.159, 244.2973
1299.641, 243.9087
1300.123, 243.8927
1300.605, 244.2572
1301.087, 244.9160
1301.569, 245.0784
1302.051, 243.8223
1302.533, 242.7600
1303.016, 242.4221
##END=



