##NAMES=Potassic-fluoro-richterite
##RRUFFID=R060034
##IDEAL CHEMISTRY=K(NaCa)Mg_5_Si_8_O_22_F_2_
##LOCALITY=Walgidee, Western Australia, Australia
##OWNER=RRUFF
##SOURCE=University of Arizona Mineral Museum
##DESCRIPTION=Transparent brown water worn crystal fragment
##STATUS=The identification of this mineral has been confirmed by X-ray diffraction and chemical analysis
##URL=rruff.info/R060034
##MEASURED CHEMISTRY=(K_0.98_Na_0.02_)_Σ=1_(Ca_1.10_Na_0.90_)_Σ=2_(Mg_4.69_Fe^2+^_0.30_Mn_0.01_)_Σ=5_(Si_7.50_Ti_0.40_Al_0.10_)_Σ=8_O_22_((F_0.74_(OH)_0.26_)_2_
8.930109e+001, 0.000000e+000
8.978320e+001, 1.426539e+003
9.026532e+001, 1.417472e+003
9.074744e+001, 1.417347e+003
9.122955e+001, 1.429079e+003
9.171167e+001, 1.447365e+003
9.219379e+001, 1.467479e+003
9.267590e+001, 1.489437e+003
9.315802e+001, 1.506729e+003
9.364014e+001, 1.510770e+003
9.412225e+001, 1.506124e+003
9.460437e+001, 1.505191e+003
9.508649e+001, 1.512994e+003
9.556860e+001, 1.524814e+003
9.605072e+001, 1.531166e+003
9.653284e+001, 1.533157e+003
9.701495e+001, 1.533357e+003
9.749707e+001, 1.532942e+003
9.797919e+001, 1.531860e+003
9.846130e+001, 1.532539e+003
9.894342e+001, 1.535245e+003
9.942554e+001, 1.539998e+003
9.990765e+001, 1.548731e+003
1.003898e+002, 1.562642e+003
1.008719e+002, 1.578038e+003
1.013540e+002, 1.589572e+003
1.018361e+002, 1.596786e+003
1.023182e+002, 1.602682e+003
1.028004e+002, 1.607818e+003
1.032825e+002, 1.611156e+003
1.037646e+002, 1.618185e+003
1.042467e+002, 1.629830e+003
1.047288e+002, 1.644567e+003
1.052109e+002, 1.658479e+003
1.056931e+002, 1.669646e+003
1.061752e+002, 1.683026e+003
1.066573e+002, 1.701311e+003
1.071394e+002, 1.728688e+003
1.076215e+002, 1.753791e+003
1.081036e+002, 1.777768e+003
1.085858e+002, 1.800011e+003
1.090679e+002, 1.816145e+003
1.095500e+002, 1.821681e+003
1.100321e+002, 1.824813e+003
1.105142e+002, 1.829873e+003
1.109963e+002, 1.837227e+003
1.114785e+002, 1.846101e+003
1.119606e+002, 1.857246e+003
1.124427e+002, 1.870549e+003
1.129248e+002, 1.882652e+003
1.134069e+002, 1.892896e+003
1.138890e+002, 1.901907e+003
1.143712e+002, 1.910307e+003
1.148533e+002, 1.916657e+003
1.153354e+002, 1.923780e+003
1.158175e+002, 1.933685e+003
1.162996e+002, 1.947005e+003
1.167817e+002, 1.957682e+003
1.172639e+002, 1.961929e+003
1.177460e+002, 1.962875e+003
1.182281e+002, 1.964476e+003
1.187102e+002, 1.970974e+003
1.191923e+002, 1.976617e+003
1.196744e+002, 1.977134e+003
1.201566e+002, 1.971085e+003
1.206387e+002, 1.964454e+003
1.211208e+002, 1.959846e+003
1.216029e+002, 1.957256e+003
1.220850e+002, 1.956798e+003
1.225671e+002, 1.958194e+003
1.230493e+002, 1.961798e+003
1.235314e+002, 1.969108e+003
1.240135e+002, 1.982273e+003
1.244956e+002, 1.994243e+003
1.249777e+002, 1.997057e+003
1.254598e+002, 1.992336e+003
1.259420e+002, 1.986214e+003
1.264241e+002, 1.981428e+003
1.269062e+002, 1.978051e+003
1.273883e+002, 1.976338e+003
1.278704e+002, 1.976596e+003
1.283525e+002, 1.978159e+003
1.288347e+002, 1.980373e+003
1.293168e+002, 1.983209e+003
1.297989e+002, 1.986043e+003
1.302810e+002, 1.988764e+003
1.307631e+002, 1.991186e+003
1.312452e+002, 1.992639e+003
1.317274e+002, 1.992861e+003
1.322095e+002, 1.992073e+003
1.326916e+002, 1.990410e+003
1.331737e+002, 1.987695e+003
1.336558e+002, 1.985439e+003
1.341379e+002, 1.985675e+003
1.346201e+002, 1.988369e+003
1.351022e+002, 1.990167e+003
1.355843e+002, 1.989237e+003
1.360664e+002, 1.986250e+003
1.365485e+002, 1.986740e+003
1.370306e+002, 1.991555e+003
1.375128e+002, 1.997875e+003
1.379949e+002, 2.001902e+003
1.384770e+002, 2.002881e+003
1.389591e+002, 2.005422e+003
1.394412e+002, 2.011977e+003
1.399233e+002, 2.022983e+003
1.404055e+002, 2.030796e+003
1.408876e+002, 2.034786e+003
1.413697e+002, 2.036144e+003
1.418518e+002, 2.036518e+003
1.423339e+002, 2.035183e+003
1.428160e+002, 2.034426e+003
1.432982e+002, 2.035298e+003
1.437803e+002, 2.038560e+003
1.442624e+002, 2.040912e+003
1.447445e+002, 2.041844e+003
1.452266e+002, 2.042036e+003
1.457087e+002, 2.042920e+003
1.461909e+002, 2.044293e+003
1.466730e+002, 2.046664e+003
1.471551e+002, 2.050421e+003
1.476372e+002, 2.057043e+003
1.481193e+002, 2.062579e+003
1.486014e+002, 2.067183e+003
1.490836e+002, 2.070757e+003
1.495657e+002, 2.073037e+003
1.500478e+002, 2.072499e+003
1.505299e+002, 2.071856e+003
1.510120e+002, 2.072287e+003
1.514941e+002, 2.073726e+003
1.519763e+002, 2.076250e+003
1.524584e+002, 2.081054e+003
1.529405e+002, 2.087395e+003
1.534226e+002, 2.091703e+003
1.539047e+002, 2.091514e+003
1.543868e+002, 2.090622e+003
1.548690e+002, 2.091089e+003
1.553511e+002, 2.097288e+003
1.558332e+002, 2.100434e+003
1.563153e+002, 2.097638e+003
1.567974e+002, 2.089643e+003
1.572795e+002, 2.082506e+003
1.577617e+002, 2.078148e+003
1.582438e+002, 2.074825e+003
1.587259e+002, 2.071282e+003
1.592080e+002, 2.067308e+003
1.596901e+002, 2.063064e+003
1.601722e+002, 2.058413e+003
1.606544e+002, 2.053407e+003
1.611365e+002, 2.048720e+003
1.616186e+002, 2.044227e+003
1.621007e+002, 2.040337e+003
1.625828e+002, 2.037313e+003
1.630649e+002, 2.036343e+003
1.635471e+002, 2.035356e+003
1.640292e+002, 2.033031e+003
1.645113e+002, 2.029305e+003
1.649934e+002, 2.026118e+003
1.654755e+002, 2.024753e+003
1.659576e+002, 2.024361e+003
1.664398e+002, 2.023913e+003
1.669219e+002, 2.022520e+003
1.674040e+002, 2.021245e+003
1.678861e+002, 2.020756e+003
1.683682e+002, 2.021085e+003
1.688503e+002, 2.022048e+003
1.693325e+002, 2.024486e+003
1.698146e+002, 2.027400e+003
1.702967e+002, 2.029147e+003
1.707788e+002, 2.027662e+003
1.712609e+002, 2.025498e+003
1.717430e+002, 2.025098e+003
1.722252e+002, 2.026748e+003
1.727073e+002, 2.028986e+003
1.731894e+002, 2.031071e+003
1.736715e+002, 2.032908e+003
1.741536e+002, 2.034230e+003
1.746357e+002, 2.034885e+003
1.751179e+002, 2.035001e+003
1.756000e+002, 2.034485e+003
1.760821e+002, 2.033187e+003
1.765642e+002, 2.032082e+003
1.770463e+002, 2.032705e+003
1.775284e+002, 2.034448e+003
1.780106e+002, 2.035440e+003
1.784927e+002, 2.033995e+003
1.789748e+002, 2.031313e+003
1.794569e+002, 2.029323e+003
1.799390e+002, 2.028156e+003
1.804211e+002, 2.027862e+003
1.809033e+002, 2.028705e+003
1.813854e+002, 2.030574e+003
1.818675e+002, 2.032859e+003
1.823496e+002, 2.035857e+003
1.828317e+002, 2.038995e+003
1.833138e+002, 2.040810e+003
1.837960e+002, 2.040826e+003
1.842781e+002, 2.040337e+003
1.847602e+002, 2.040584e+003
1.852423e+002, 2.041662e+003
1.857244e+002, 2.044389e+003
1.862065e+002, 2.051118e+003
1.866887e+002, 2.060290e+003
1.871708e+002, 2.065766e+003
1.876529e+002, 2.066125e+003
1.881350e+002, 2.064114e+003
1.886171e+002, 2.064476e+003
1.890992e+002, 2.067144e+003
1.895814e+002, 2.069734e+003
1.900635e+002, 2.070222e+003
1.905456e+002, 2.069033e+003
1.910277e+002, 2.068994e+003
1.915098e+002, 2.070474e+003
1.919919e+002, 2.073172e+003
1.924741e+002, 2.077048e+003
1.929562e+002, 2.082180e+003
1.934383e+002, 2.086590e+003
1.939204e+002, 2.087895e+003
1.944025e+002, 2.086383e+003
1.948846e+002, 2.087525e+003
1.953668e+002, 2.092916e+003
1.958489e+002, 2.100221e+003
1.963310e+002, 2.103290e+003
1.968131e+002, 2.101589e+003
1.972952e+002, 2.099631e+003
1.977773e+002, 2.100751e+003
1.982595e+002, 2.105049e+003
1.987416e+002, 2.108795e+003
1.992237e+002, 2.111360e+003
1.997058e+002, 2.113244e+003
2.001879e+002, 2.115922e+003
2.006700e+002, 2.119639e+003
2.011522e+002, 2.123233e+003
2.016343e+002, 2.125516e+003
2.021164e+002, 2.126245e+003
2.025985e+002, 2.128525e+003
2.030806e+002, 2.133366e+003
2.035627e+002, 2.139634e+003
2.040449e+002, 2.143185e+003
2.045270e+002, 2.143201e+003
2.050091e+002, 2.143145e+003
2.054912e+002, 2.145997e+003
2.059733e+002, 2.152556e+003
2.064554e+002, 2.156948e+003
2.069376e+002, 2.157749e+003
2.074197e+002, 2.156110e+003
2.079018e+002, 2.156511e+003
2.083839e+002, 2.159409e+003
2.088660e+002, 2.163237e+003
2.093481e+002, 2.166948e+003
2.098303e+002, 2.170509e+003
2.103124e+002, 2.174319e+003
2.107945e+002, 2.178513e+003
2.112766e+002, 2.183002e+003
2.117587e+002, 2.187412e+003
2.122408e+002, 2.191520e+003
2.127230e+002, 2.196077e+003
2.132051e+002, 2.201800e+003
2.136872e+002, 2.209123e+003
2.141693e+002, 2.216066e+003
2.146514e+002, 2.222308e+003
2.151335e+002, 2.227944e+003
2.156157e+002, 2.233191e+003
2.160978e+002, 2.237958e+003
2.165799e+002, 2.242457e+003
2.170620e+002, 2.246664e+003
2.175441e+002, 2.250089e+003
2.180262e+002, 2.254659e+003
2.185084e+002, 2.260932e+003
2.189905e+002, 2.268582e+003
2.194726e+002, 2.275602e+003
2.199547e+002, 2.281899e+003
2.204368e+002, 2.287974e+003
2.209189e+002, 2.294032e+003
2.214011e+002, 2.300034e+003
2.218832e+002, 2.306394e+003
2.223653e+002, 2.313311e+003
2.228474e+002, 2.320662e+003
2.233295e+002, 2.328249e+003
2.238116e+002, 2.336232e+003
2.242938e+002, 2.343972e+003
2.247759e+002, 2.350867e+003
2.252580e+002, 2.356038e+003
2.257401e+002, 2.362425e+003
2.262222e+002, 2.370906e+003
2.267043e+002, 2.380733e+003
2.271865e+002, 2.389303e+003
2.276686e+002, 2.396556e+003
2.281507e+002, 2.402351e+003
2.286328e+002, 2.406336e+003
2.291149e+002, 2.407718e+003
2.295970e+002, 2.409172e+003
2.300792e+002, 2.411178e+003
2.305613e+002, 2.413387e+003
2.310434e+002, 2.414377e+003
2.315255e+002, 2.414249e+003
2.320076e+002, 2.412848e+003
2.324897e+002, 2.410065e+003
2.329719e+002, 2.405727e+003
2.334540e+002, 2.400517e+003
2.339361e+002, 2.394332e+003
2.344182e+002, 2.387309e+003
2.349003e+002, 2.379760e+003
2.353824e+002, 2.371513e+003
2.358646e+002, 2.362987e+003
2.363467e+002, 2.354339e+003
2.368288e+002, 2.345450e+003
2.373109e+002, 2.336618e+003
2.377930e+002, 2.327815e+003
2.382751e+002, 2.318989e+003
2.387573e+002, 2.310235e+003
2.392394e+002, 2.301115e+003
2.397215e+002, 2.292579e+003
2.402036e+002, 2.285047e+003
2.406857e+002, 2.278980e+003
2.411678e+002, 2.272794e+003
2.416500e+002, 2.266513e+003
2.421321e+002, 2.260105e+003
2.426142e+002, 2.253231e+003
2.430963e+002, 2.245101e+003
2.435784e+002, 2.237729e+003
2.440605e+002, 2.232230e+003
2.445427e+002, 2.229590e+003
2.450248e+002, 2.226203e+003
2.455069e+002, 2.221754e+003
2.459890e+002, 2.216700e+003
2.464711e+002, 2.212189e+003
2.469532e+002, 2.208767e+003
2.474354e+002, 2.204966e+003
2.479175e+002, 2.199965e+003
2.483996e+002, 2.192769e+003
2.488817e+002, 2.187786e+003
2.493638e+002, 2.186195e+003
2.498459e+002, 2.186204e+003
2.503281e+002, 2.184237e+003
2.508102e+002, 2.178608e+003
2.512923e+002, 2.174013e+003
2.517744e+002, 2.172372e+003
2.522565e+002, 2.174671e+003
2.527386e+002, 2.175882e+003
2.532208e+002, 2.175730e+003
2.537029e+002, 2.174696e+003
2.541850e+002, 2.173369e+003
2.546671e+002, 2.171268e+003
2.551492e+002, 2.169752e+003
2.556313e+002, 2.169298e+003
2.561135e+002, 2.170011e+003
2.565956e+002, 2.170873e+003
2.570777e+002, 2.171918e+003
2.575598e+002, 2.172987e+003
2.580419e+002, 2.173988e+003
2.585240e+002, 2.175229e+003
2.590062e+002, 2.175530e+003
2.594883e+002, 2.173956e+003
2.599704e+002, 2.170254e+003
2.604525e+002, 2.169073e+003
2.609346e+002, 2.171511e+003
2.614167e+002, 2.175132e+003
2.618989e+002, 2.177118e+003
2.623810e+002, 2.176967e+003
2.628631e+002, 2.176552e+003
2.633452e+002, 2.176238e+003
2.638273e+002, 2.176052e+003
2.643094e+002, 2.176141e+003
2.647916e+002, 2.176521e+003
2.652737e+002, 2.177247e+003
2.657558e+002, 2.178560e+003
2.662379e+002, 2.180813e+003
2.667200e+002, 2.182500e+003
2.672021e+002, 2.183139e+003
2.676843e+002, 2.182873e+003
2.681664e+002, 2.183244e+003
2.686485e+002, 2.184522e+003
2.691306e+002, 2.185829e+003
2.696127e+002, 2.186109e+003
2.700948e+002, 2.184854e+003
2.705770e+002, 2.184718e+003
2.710591e+002, 2.186323e+003
2.715412e+002, 2.189306e+003
2.720233e+002, 2.192292e+003
2.725054e+002, 2.195393e+003
2.729875e+002, 2.197949e+003
2.734697e+002, 2.199385e+003
2.739518e+002, 2.199579e+003
2.744339e+002, 2.199301e+003
2.749160e+002, 2.198275e+003
2.753981e+002, 2.197058e+003
2.758802e+002, 2.197646e+003
2.763624e+002, 2.200473e+003
2.768445e+002, 2.203439e+003
2.773266e+002, 2.205044e+003
2.778087e+002, 2.205172e+003
2.782908e+002, 2.205840e+003
2.787729e+002, 2.207222e+003
2.792551e+002, 2.209250e+003
2.797372e+002, 2.212333e+003
2.802193e+002, 2.216868e+003
2.807014e+002, 2.219981e+003
2.811835e+002, 2.219141e+003
2.816656e+002, 2.214438e+003
2.821478e+002, 2.212048e+003
2.826299e+002, 2.212574e+003
2.831120e+002, 2.214773e+003
2.835941e+002, 2.216750e+003
2.840762e+002, 2.218500e+003
2.845583e+002, 2.220213e+003
2.850405e+002, 2.221811e+003
2.855226e+002, 2.223363e+003
2.860047e+002, 2.225676e+003
2.864868e+002, 2.228932e+003
2.869689e+002, 2.232337e+003
2.874510e+002, 2.234728e+003
2.879332e+002, 2.236142e+003
2.884153e+002, 2.237489e+003
2.888974e+002, 2.238970e+003
2.893795e+002, 2.240628e+003
2.898616e+002, 2.242672e+003
2.903438e+002, 2.245132e+003
2.908259e+002, 2.247743e+003
2.913080e+002, 2.250294e+003
2.917901e+002, 2.252755e+003
2.922722e+002, 2.255139e+003
2.927543e+002, 2.257664e+003
2.932365e+002, 2.259990e+003
2.937186e+002, 2.260703e+003
2.942007e+002, 2.259763e+003
2.946828e+002, 2.259419e+003
2.951649e+002, 2.262524e+003
2.956470e+002, 2.268012e+003
2.961292e+002, 2.272474e+003
2.966113e+002, 2.274920e+003
2.970934e+002, 2.275971e+003
2.975755e+002, 2.276145e+003
2.980576e+002, 2.275553e+003
2.985397e+002, 2.275294e+003
2.990219e+002, 2.276238e+003
2.995040e+002, 2.278120e+003
2.999861e+002, 2.280503e+003
3.004682e+002, 2.283616e+003
3.009503e+002, 2.286606e+003
3.014324e+002, 2.288005e+003
3.019146e+002, 2.288231e+003
3.023967e+002, 2.289044e+003
3.028788e+002, 2.291746e+003
3.033609e+002, 2.295658e+003
3.038430e+002, 2.299987e+003
3.043251e+002, 2.304842e+003
3.048073e+002, 2.309267e+003
3.052894e+002, 2.312057e+003
3.057715e+002, 2.313685e+003
3.062536e+002, 2.315401e+003
3.067357e+002, 2.318060e+003
3.072178e+002, 2.320937e+003
3.077000e+002, 2.323305e+003
3.081821e+002, 2.325074e+003
3.086642e+002, 2.326305e+003
3.091463e+002, 2.326194e+003
3.096284e+002, 2.325667e+003
3.101105e+002, 2.326187e+003
3.105927e+002, 2.329551e+003
3.110748e+002, 2.333304e+003
3.115569e+002, 2.336127e+003
3.120390e+002, 2.337949e+003
3.125211e+002, 2.338307e+003
3.130032e+002, 2.335625e+003
3.134854e+002, 2.331888e+003
3.139675e+002, 2.329239e+003
3.144496e+002, 2.329837e+003
3.149317e+002, 2.330448e+003
3.154138e+002, 2.328824e+003
3.158959e+002, 2.325509e+003
3.163781e+002, 2.323662e+003
3.168602e+002, 2.327196e+003
3.173423e+002, 2.331315e+003
3.178244e+002, 2.332322e+003
3.183065e+002, 2.326750e+003
3.187886e+002, 2.321788e+003
3.192708e+002, 2.319972e+003
3.197529e+002, 2.320597e+003
3.202350e+002, 2.321695e+003
3.207171e+002, 2.323326e+003
3.211992e+002, 2.324755e+003
3.216813e+002, 2.325506e+003
3.221635e+002, 2.325063e+003
3.226456e+002, 2.324894e+003
3.231277e+002, 2.325552e+003
3.236098e+002, 2.326579e+003
3.240919e+002, 2.327225e+003
3.245740e+002, 2.325866e+003
3.250562e+002, 2.325452e+003
3.255383e+002, 2.327371e+003
3.260204e+002, 2.332585e+003
3.265025e+002, 2.336442e+003
3.269846e+002, 2.337791e+003
3.274667e+002, 2.338021e+003
3.279489e+002, 2.338634e+003
3.284310e+002, 2.340747e+003
3.289131e+002, 2.342086e+003
3.293952e+002, 2.341966e+003
3.298773e+002, 2.340352e+003
3.303594e+002, 2.339542e+003
3.308416e+002, 2.339695e+003
3.313237e+002, 2.340541e+003
3.318058e+002, 2.341958e+003
3.322879e+002, 2.344499e+003
3.327700e+002, 2.346618e+003
3.332521e+002, 2.347850e+003
3.337343e+002, 2.348502e+003
3.342164e+002, 2.350261e+003
3.346985e+002, 2.353896e+003
3.351806e+002, 2.357354e+003
3.356627e+002, 2.359307e+003
3.361448e+002, 2.358860e+003
3.366270e+002, 2.359698e+003
3.371091e+002, 2.362554e+003
3.375912e+002, 2.366243e+003
3.380733e+002, 2.368157e+003
3.385554e+002, 2.367690e+003
3.390375e+002, 2.367395e+003
3.395197e+002, 2.368415e+003
3.400018e+002, 2.370833e+003
3.404839e+002, 2.373037e+003
3.409660e+002, 2.374927e+003
3.414481e+002, 2.376727e+003
3.419302e+002, 2.379027e+003
3.424124e+002, 2.381963e+003
3.428945e+002, 2.383509e+003
3.433766e+002, 2.382232e+003
3.438587e+002, 2.379105e+003
3.443408e+002, 2.379009e+003
3.448229e+002, 2.382295e+003
3.453051e+002, 2.386203e+003
3.457872e+002, 2.388194e+003
3.462693e+002, 2.388511e+003
3.467514e+002, 2.388786e+003
3.472335e+002, 2.389309e+003
3.477156e+002, 2.390042e+003
3.481978e+002, 2.390762e+003
3.486799e+002, 2.391526e+003
3.491620e+002, 2.392805e+003
3.496441e+002, 2.395557e+003
3.501262e+002, 2.399054e+003
3.506083e+002, 2.401387e+003
3.510905e+002, 2.402172e+003
3.515726e+002, 2.402496e+003
3.520547e+002, 2.403789e+003
3.525368e+002, 2.405700e+003
3.530189e+002, 2.407179e+003
3.535010e+002, 2.405926e+003
3.539832e+002, 2.404764e+003
3.544653e+002, 2.408322e+003
3.549474e+002, 2.417011e+003
3.554295e+002, 2.424813e+003
3.559116e+002, 2.424657e+003
3.563937e+002, 2.421050e+003
3.568759e+002, 2.420774e+003
3.573580e+002, 2.430386e+003
3.578401e+002, 2.440746e+003
3.583222e+002, 2.444784e+003
3.588043e+002, 2.443509e+003
3.592864e+002, 2.442688e+003
3.597686e+002, 2.446195e+003
3.602507e+002, 2.451075e+003
3.607328e+002, 2.454615e+003
3.612149e+002, 2.454969e+003
3.616970e+002, 2.456037e+003
3.621791e+002, 2.460844e+003
3.626613e+002, 2.467521e+003
3.631434e+002, 2.471787e+003
3.636255e+002, 2.470207e+003
3.641076e+002, 2.467523e+003
3.645897e+002, 2.465674e+003
3.650718e+002, 2.464804e+003
3.655540e+002, 2.465120e+003
3.660361e+002, 2.468193e+003
3.665182e+002, 2.471966e+003
3.670003e+002, 2.473978e+003
3.674824e+002, 2.472054e+003
3.679645e+002, 2.470352e+003
3.684467e+002, 2.469719e+003
3.689288e+002, 2.470236e+003
3.694109e+002, 2.471320e+003
3.698930e+002, 2.474774e+003
3.703751e+002, 2.477490e+003
3.708572e+002, 2.477100e+003
3.713394e+002, 2.470045e+003
3.718215e+002, 2.466046e+003
3.723036e+002, 2.466926e+003
3.727857e+002, 2.471329e+003
3.732678e+002, 2.474375e+003
3.737499e+002, 2.475402e+003
3.742321e+002, 2.476222e+003
3.747142e+002, 2.477689e+003
3.751963e+002, 2.480012e+003
3.756784e+002, 2.482053e+003
3.761605e+002, 2.483808e+003
3.766426e+002, 2.485211e+003
3.771248e+002, 2.485994e+003
3.776069e+002, 2.486041e+003
3.780890e+002, 2.486166e+003
3.785711e+002, 2.486733e+003
3.790532e+002, 2.487642e+003
3.795353e+002, 2.488020e+003
3.800175e+002, 2.487786e+003
3.804996e+002, 2.487496e+003
3.809817e+002, 2.487823e+003
3.814638e+002, 2.488669e+003
3.819459e+002, 2.489161e+003
3.824280e+002, 2.488996e+003
3.829102e+002, 2.488522e+003
3.833923e+002, 2.488328e+003
3.838744e+002, 2.488392e+003
3.843565e+002, 2.488665e+003
3.848386e+002, 2.489306e+003
3.853207e+002, 2.490086e+003
3.858029e+002, 2.490284e+003
3.862850e+002, 2.489641e+003
3.867671e+002, 2.489402e+003
3.872492e+002, 2.491592e+003
3.877313e+002, 2.495199e+003
3.882134e+002, 2.497882e+003
3.886956e+002, 2.497900e+003
3.891777e+002, 2.496966e+003
3.896598e+002, 2.496496e+003
3.901419e+002, 2.496530e+003
3.906240e+002, 2.496832e+003
3.911061e+002, 2.497719e+003
3.915883e+002, 2.498659e+003
3.920704e+002, 2.499117e+003
3.925525e+002, 2.499025e+003
3.930346e+002, 2.498376e+003
3.935167e+002, 2.496627e+003
3.939988e+002, 2.494261e+003
3.944810e+002, 2.492602e+003
3.949631e+002, 2.490606e+003
3.954452e+002, 2.490596e+003
3.959273e+002, 2.494770e+003
3.964094e+002, 2.505723e+003
3.968915e+002, 2.513297e+003
3.973737e+002, 2.512700e+003
3.978558e+002, 2.508659e+003
3.983379e+002, 2.507000e+003
3.988200e+002, 2.510189e+003
3.993021e+002, 2.513726e+003
3.997842e+002, 2.517028e+003
4.002664e+002, 2.520063e+003
4.007485e+002, 2.522311e+003
4.012306e+002, 2.523329e+003
4.017127e+002, 2.523897e+003
4.021948e+002, 2.524399e+003
4.026769e+002, 2.524447e+003
4.031591e+002, 2.525364e+003
4.036412e+002, 2.528043e+003
4.041233e+002, 2.531245e+003
4.046054e+002, 2.531503e+003
4.050875e+002, 2.527676e+003
4.055696e+002, 2.524298e+003
4.060518e+002, 2.523480e+003
4.065339e+002, 2.525330e+003
4.070160e+002, 2.526763e+003
4.074981e+002, 2.527791e+003
4.079802e+002, 2.528474e+003
4.084623e+002, 2.529201e+003
4.089445e+002, 2.529970e+003
4.094266e+002, 2.529145e+003
4.099087e+002, 2.525424e+003
4.103908e+002, 2.520634e+003
4.108729e+002, 2.519777e+003
4.113550e+002, 2.522750e+003
4.118372e+002, 2.525667e+003
4.123193e+002, 2.525317e+003
4.128014e+002, 2.522894e+003
4.132835e+002, 2.521059e+003
4.137656e+002, 2.520080e+003
4.142477e+002, 2.519920e+003
4.147299e+002, 2.520685e+003
4.152120e+002, 2.522210e+003
4.156941e+002, 2.524122e+003
4.161762e+002, 2.526579e+003
4.166583e+002, 2.529053e+003
4.171404e+002, 2.531036e+003
4.176226e+002, 2.532504e+003
4.181047e+002, 2.533707e+003
4.185868e+002, 2.534440e+003
4.190689e+002, 2.535096e+003
4.195510e+002, 2.536100e+003
4.200331e+002, 2.537993e+003
4.205153e+002, 2.539639e+003
4.209974e+002, 2.540749e+003
4.214795e+002, 2.541317e+003
4.219616e+002, 2.541250e+003
4.224437e+002, 2.540208e+003
4.229258e+002, 2.538878e+003
4.234080e+002, 2.537441e+003
4.238901e+002, 2.535750e+003
4.243722e+002, 2.534715e+003
4.248543e+002, 2.534582e+003
4.253364e+002, 2.535142e+003
4.258185e+002, 2.536219e+003
4.263007e+002, 2.538380e+003
4.267828e+002, 2.540286e+003
4.272649e+002, 2.541590e+003
4.277470e+002, 2.542422e+003
4.282291e+002, 2.543829e+003
4.287112e+002, 2.546337e+003
4.291934e+002, 2.548431e+003
4.296755e+002, 2.549232e+003
4.301576e+002, 2.548510e+003
4.306397e+002, 2.547420e+003
4.311218e+002, 2.545893e+003
4.316039e+002, 2.544122e+003
4.320861e+002, 2.542235e+003
4.325682e+002, 2.540195e+003
4.330503e+002, 2.538670e+003
4.335324e+002, 2.538001e+003
4.340145e+002, 2.538009e+003
4.344966e+002, 2.538101e+003
4.349788e+002, 2.538301e+003
4.354609e+002, 2.538584e+003
4.359430e+002, 2.538485e+003
4.364251e+002, 2.538466e+003
4.369072e+002, 2.540134e+003
4.373893e+002, 2.544462e+003
4.378715e+002, 2.548838e+003
4.383536e+002, 2.549748e+003
4.388357e+002, 2.548188e+003
4.393178e+002, 2.546937e+003
4.397999e+002, 2.547800e+003
4.402820e+002, 2.549338e+003
4.407642e+002, 2.550167e+003
4.412463e+002, 2.550184e+003
4.417284e+002, 2.550243e+003
4.422105e+002, 2.550971e+003
4.426926e+002, 2.551837e+003
4.431747e+002, 2.552346e+003
4.436569e+002, 2.552594e+003
4.441390e+002, 2.552122e+003
4.446211e+002, 2.549899e+003
4.451032e+002, 2.546719e+003
4.455853e+002, 2.544969e+003
4.460674e+002, 2.546710e+003
4.465496e+002, 2.548562e+003
4.470317e+002, 2.549060e+003
4.475138e+002, 2.547398e+003
4.479959e+002, 2.547179e+003
4.484780e+002, 2.549660e+003
4.489601e+002, 2.552824e+003
4.494423e+002, 2.554648e+003
4.499244e+002, 2.554287e+003
4.504065e+002, 2.554485e+003
4.508886e+002, 2.555970e+003
4.513707e+002, 2.558310e+003
4.518528e+002, 2.559555e+003
4.523350e+002, 2.559333e+003
4.528171e+002, 2.559066e+003
4.532992e+002, 2.559210e+003
4.537813e+002, 2.559724e+003
4.542634e+002, 2.561788e+003
4.547455e+002, 2.565703e+003
4.552277e+002, 2.570121e+003
4.557098e+002, 2.573946e+003
4.561919e+002, 2.576975e+003
4.566740e+002, 2.578023e+003
4.571561e+002, 2.575332e+003
4.576382e+002, 2.571569e+003
4.581204e+002, 2.571774e+003
4.586025e+002, 2.575552e+003
4.590846e+002, 2.579944e+003
4.595667e+002, 2.583926e+003
4.600488e+002, 2.587031e+003
4.605309e+002, 2.588321e+003
4.610131e+002, 2.587309e+003
4.614952e+002, 2.586295e+003
4.619773e+002, 2.586810e+003
4.624594e+002, 2.588377e+003
4.629415e+002, 2.590308e+003
4.634236e+002, 2.592652e+003
4.639058e+002, 2.594987e+003
4.643879e+002, 2.597246e+003
4.648700e+002, 2.599364e+003
4.653521e+002, 2.601146e+003
4.658342e+002, 2.602033e+003
4.663163e+002, 2.602931e+003
4.667985e+002, 2.604399e+003
4.672806e+002, 2.607090e+003
4.677627e+002, 2.609203e+003
4.682448e+002, 2.610891e+003
4.687269e+002, 2.611878e+003
4.692090e+002, 2.611535e+003
4.696912e+002, 2.608184e+003
4.701733e+002, 2.606654e+003
4.706554e+002, 2.608823e+003
4.711375e+002, 2.614123e+003
4.716196e+002, 2.616825e+003
4.721017e+002, 2.616222e+003
4.725839e+002, 2.614983e+003
4.730660e+002, 2.614827e+003
4.735481e+002, 2.615769e+003
4.740302e+002, 2.616955e+003
4.745123e+002, 2.618274e+003
4.749944e+002, 2.620029e+003
4.754766e+002, 2.623589e+003
4.759587e+002, 2.628481e+003
4.764408e+002, 2.631454e+003
4.769229e+002, 2.630189e+003
4.774050e+002, 2.626885e+003
4.778871e+002, 2.624978e+003
4.783693e+002, 2.624399e+003
4.788514e+002, 2.624301e+003
4.793335e+002, 2.622466e+003
4.798156e+002, 2.621483e+003
4.802977e+002, 2.625464e+003
4.807798e+002, 2.636907e+003
4.812620e+002, 2.647035e+003
4.817441e+002, 2.649283e+003
4.822262e+002, 2.647237e+003
4.827083e+002, 2.646196e+003
4.831904e+002, 2.648633e+003
4.836725e+002, 2.651587e+003
4.841547e+002, 2.654278e+003
4.846368e+002, 2.656604e+003
4.851189e+002, 2.658136e+003
4.856010e+002, 2.657429e+003
4.860831e+002, 2.656965e+003
4.865652e+002, 2.658012e+003
4.870474e+002, 2.661280e+003
4.875295e+002, 2.664598e+003
4.880116e+002, 2.668348e+003
4.884937e+002, 2.671823e+003
4.889758e+002, 2.673862e+003
4.894579e+002, 2.673897e+003
4.899401e+002, 2.674285e+003
4.904222e+002, 2.675793e+003
4.909043e+002, 2.678069e+003
4.913864e+002, 2.679671e+003
4.918685e+002, 2.680636e+003
4.923506e+002, 2.680686e+003
4.928328e+002, 2.678696e+003
4.933149e+002, 2.675409e+003
4.937970e+002, 2.674542e+003
4.942791e+002, 2.676696e+003
4.947612e+002, 2.679711e+003
4.952433e+002, 2.681482e+003
4.957255e+002, 2.682227e+003
4.962076e+002, 2.682467e+003
4.966897e+002, 2.681976e+003
4.971718e+002, 2.681515e+003
4.976539e+002, 2.682015e+003
4.981360e+002, 2.683249e+003
4.986182e+002, 2.684315e+003
4.991003e+002, 2.683426e+003
4.995824e+002, 2.683114e+003
5.000645e+002, 2.685699e+003
5.005466e+002, 2.692331e+003
5.010287e+002, 2.697802e+003
5.015109e+002, 2.699396e+003
5.019930e+002, 2.699618e+003
5.024751e+002, 2.700949e+003
5.029572e+002, 2.705802e+003
5.034393e+002, 2.709160e+003
5.039214e+002, 2.708969e+003
5.044036e+002, 2.706757e+003
5.048857e+002, 2.708199e+003
5.053678e+002, 2.715591e+003
5.058499e+002, 2.722719e+003
5.063320e+002, 2.727035e+003
5.068141e+002, 2.728379e+003
5.072963e+002, 2.729291e+003
5.077784e+002, 2.729547e+003
5.082605e+002, 2.730040e+003
5.087426e+002, 2.731887e+003
5.092247e+002, 2.734995e+003
5.097068e+002, 2.737926e+003
5.101890e+002, 2.740310e+003
5.106711e+002, 2.742558e+003
5.111532e+002, 2.745555e+003
5.116353e+002, 2.749088e+003
5.121174e+002, 2.752116e+003
5.125995e+002, 2.753022e+003
5.130817e+002, 2.753712e+003
5.135638e+002, 2.757222e+003
5.140459e+002, 2.763434e+003
5.145280e+002, 2.768748e+003
5.150101e+002, 2.770083e+003
5.154922e+002, 2.769894e+003
5.159744e+002, 2.770515e+003
5.164565e+002, 2.773021e+003
5.169386e+002, 2.775294e+003
5.174207e+002, 2.777053e+003
5.179028e+002, 2.778098e+003
5.183849e+002, 2.778083e+003
5.188671e+002, 2.773663e+003
5.193492e+002, 2.771781e+003
5.198313e+002, 2.774917e+003
5.203134e+002, 2.782618e+003
5.207955e+002, 2.788832e+003
5.212776e+002, 2.793910e+003
5.217598e+002, 2.796925e+003
5.222419e+002, 2.796707e+003
5.227240e+002, 2.792335e+003
5.232061e+002, 2.789598e+003
5.236882e+002, 2.788825e+003
5.241703e+002, 2.789132e+003
5.246525e+002, 2.789471e+003
5.251346e+002, 2.789863e+003
5.256167e+002, 2.790573e+003
5.260988e+002, 2.792106e+003
5.265809e+002, 2.793541e+003
5.270630e+002, 2.792476e+003
5.275452e+002, 2.789428e+003
5.280273e+002, 2.787213e+003
5.285094e+002, 2.788586e+003
5.289915e+002, 2.791132e+003
5.294736e+002, 2.791628e+003
5.299557e+002, 2.789743e+003
5.304379e+002, 2.788735e+003
5.309200e+002, 2.792496e+003
5.314021e+002, 2.797113e+003
5.318842e+002, 2.798585e+003
5.323663e+002, 2.793016e+003
5.328484e+002, 2.788361e+003
5.333306e+002, 2.786853e+003
5.338127e+002, 2.787544e+003
5.342948e+002, 2.788532e+003
5.347769e+002, 2.790539e+003
5.352590e+002, 2.791791e+003
5.357411e+002, 2.791440e+003
5.362233e+002, 2.789591e+003
5.367054e+002, 2.789452e+003
5.371875e+002, 2.791850e+003
5.376696e+002, 2.794474e+003
5.381517e+002, 2.795566e+003
5.386339e+002, 2.794944e+003
5.391160e+002, 2.796129e+003
5.395981e+002, 2.800132e+003
5.400802e+002, 2.803682e+003
5.405623e+002, 2.800729e+003
5.410444e+002, 2.792712e+003
5.415266e+002, 2.787865e+003
5.420087e+002, 2.789758e+003
5.424908e+002, 2.794895e+003
5.429729e+002, 2.799206e+003
5.434550e+002, 2.802608e+003
5.439371e+002, 2.804980e+003
5.444193e+002, 2.805270e+003
5.449014e+002, 2.805139e+003
5.453835e+002, 2.806280e+003
5.458656e+002, 2.808915e+003
5.463477e+002, 2.810775e+003
5.468298e+002, 2.809557e+003
5.473120e+002, 2.807932e+003
5.477941e+002, 2.808128e+003
5.482762e+002, 2.812276e+003
5.487583e+002, 2.815778e+003
5.492404e+002, 2.818084e+003
5.497225e+002, 2.819588e+003
5.502047e+002, 2.820940e+003
5.506868e+002, 2.822141e+003
5.511689e+002, 2.823198e+003
5.516510e+002, 2.824200e+003
5.521331e+002, 2.825093e+003
5.526152e+002, 2.825384e+003
5.530974e+002, 2.825045e+003
5.535795e+002, 2.824428e+003
5.540616e+002, 2.823493e+003
5.545437e+002, 2.822440e+003
5.550258e+002, 2.822408e+003
5.555079e+002, 2.823594e+003
5.559901e+002, 2.825147e+003
5.564722e+002, 2.826019e+003
5.569543e+002, 2.826643e+003
5.574364e+002, 2.827926e+003
5.579185e+002, 2.830364e+003
5.584006e+002, 2.833147e+003
5.588828e+002, 2.835344e+003
5.593649e+002, 2.837346e+003
5.598470e+002, 2.840150e+003
5.603291e+002, 2.845597e+003
5.608112e+002, 2.850489e+003
5.612933e+002, 2.852853e+003
5.617755e+002, 2.852553e+003
5.622576e+002, 2.853201e+003
5.627397e+002, 2.856663e+003
5.632218e+002, 2.859978e+003
5.637039e+002, 2.861664e+003
5.641860e+002, 2.861076e+003
5.646682e+002, 2.860522e+003
5.651503e+002, 2.859967e+003
5.656324e+002, 2.859568e+003
5.661145e+002, 2.859689e+003
5.665966e+002, 2.860473e+003
5.670787e+002, 2.860792e+003
5.675609e+002, 2.860130e+003
5.680430e+002, 2.859339e+003
5.685251e+002, 2.860526e+003
5.690072e+002, 2.863501e+003
5.694893e+002, 2.866465e+003
5.699714e+002, 2.868590e+003
5.704536e+002, 2.870075e+003
5.709357e+002, 2.870621e+003
5.714178e+002, 2.870352e+003
5.718999e+002, 2.871226e+003
5.723820e+002, 2.875965e+003
5.728641e+002, 2.881542e+003
5.733463e+002, 2.885171e+003
5.738284e+002, 2.885900e+003
5.743105e+002, 2.885917e+003
5.747926e+002, 2.884452e+003
5.752747e+002, 2.883112e+003
5.757568e+002, 2.883989e+003
5.762390e+002, 2.890930e+003
5.767211e+002, 2.895004e+003
5.772032e+002, 2.893399e+003
5.776853e+002, 2.888364e+003
5.781674e+002, 2.888111e+003
5.786495e+002, 2.894282e+003
5.791317e+002, 2.900469e+003
5.796138e+002, 2.904030e+003
5.800959e+002, 2.905253e+003
5.805780e+002, 2.906337e+003
5.810601e+002, 2.907288e+003
5.815422e+002, 2.908315e+003
5.820244e+002, 2.910542e+003
5.825065e+002, 2.912934e+003
5.829886e+002, 2.912141e+003
5.834707e+002, 2.907066e+003
5.839528e+002, 2.902440e+003
5.844349e+002, 2.902551e+003
5.849171e+002, 2.905826e+003
5.853992e+002, 2.909970e+003
5.858813e+002, 2.916800e+003
5.863634e+002, 2.921470e+003
5.868455e+002, 2.920205e+003
5.873276e+002, 2.915054e+003
5.878098e+002, 2.911684e+003
5.882919e+002, 2.912441e+003
5.887740e+002, 2.913800e+003
5.892561e+002, 2.914635e+003
5.897382e+002, 2.914914e+003
5.902203e+002, 2.916106e+003
5.907025e+002, 2.918828e+003
5.911846e+002, 2.921318e+003
5.916667e+002, 2.922534e+003
5.921488e+002, 2.922464e+003
5.926309e+002, 2.920749e+003
5.931130e+002, 2.916761e+003
5.935952e+002, 2.913495e+003
5.940773e+002, 2.916133e+003
5.945594e+002, 2.922981e+003
5.950415e+002, 2.927138e+003
5.955236e+002, 2.926076e+003
5.960057e+002, 2.923307e+003
5.964879e+002, 2.921938e+003
5.969700e+002, 2.921901e+003
5.974521e+002, 2.923042e+003
5.979342e+002, 2.926265e+003
5.984163e+002, 2.929795e+003
5.988984e+002, 2.932505e+003
5.993806e+002, 2.934500e+003
5.998627e+002, 2.936917e+003
6.003448e+002, 2.941315e+003
6.008269e+002, 2.945020e+003
6.013090e+002, 2.946226e+003
6.017911e+002, 2.943432e+003
6.022733e+002, 2.944512e+003
6.027554e+002, 2.952028e+003
6.032375e+002, 2.959792e+003
6.037196e+002, 2.960919e+003
6.042017e+002, 2.954511e+003
6.046838e+002, 2.950864e+003
6.051660e+002, 2.951281e+003
6.056481e+002, 2.954644e+003
6.061302e+002, 2.960817e+003
6.066123e+002, 2.968884e+003
6.070944e+002, 2.974368e+003
6.075765e+002, 2.973807e+003
6.080587e+002, 2.971697e+003
6.085408e+002, 2.974087e+003
6.090229e+002, 2.979614e+003
6.095050e+002, 2.983517e+003
6.099871e+002, 2.980536e+003
6.104692e+002, 2.977347e+003
6.109514e+002, 2.978658e+003
6.114335e+002, 2.985052e+003
6.119156e+002, 2.990052e+003
6.123977e+002, 2.990751e+003
6.128798e+002, 2.990866e+003
6.133619e+002, 2.992740e+003
6.138441e+002, 2.998062e+003
6.143262e+002, 3.000976e+003
6.148083e+002, 3.000574e+003
6.152904e+002, 2.999086e+003
6.157725e+002, 2.999477e+003
6.162546e+002, 3.001910e+003
6.167368e+002, 3.003743e+003
6.172189e+002, 3.004222e+003
6.177010e+002, 3.004386e+003
6.181831e+002, 3.006621e+003
6.186652e+002, 3.010337e+003
6.191473e+002, 3.013158e+003
6.196295e+002, 3.012590e+003
6.201116e+002, 3.011451e+003
6.205937e+002, 3.012853e+003
6.210758e+002, 3.016352e+003
6.215579e+002, 3.019792e+003
6.220400e+002, 3.021902e+003
6.225222e+002, 3.023722e+003
6.230043e+002, 3.025859e+003
6.234864e+002, 3.028449e+003
6.239685e+002, 3.030848e+003
6.244506e+002, 3.032935e+003
6.249327e+002, 3.034849e+003
6.254149e+002, 3.036754e+003
6.258970e+002, 3.038875e+003
6.263791e+002, 3.040110e+003
6.268612e+002, 3.040098e+003
6.273433e+002, 3.039734e+003
6.278254e+002, 3.040378e+003
6.283076e+002, 3.041978e+003
6.287897e+002, 3.043327e+003
6.292718e+002, 3.043869e+003
6.297539e+002, 3.044454e+003
6.302360e+002, 3.046737e+003
6.307181e+002, 3.050262e+003
6.312003e+002, 3.053541e+003
6.316824e+002, 3.055095e+003
6.321645e+002, 3.056726e+003
6.326466e+002, 3.060874e+003
6.331287e+002, 3.066913e+003
6.336108e+002, 3.070448e+003
6.340930e+002, 3.066382e+003
6.345751e+002, 3.062489e+003
6.350572e+002, 3.063095e+003
6.355393e+002, 3.069391e+003
6.360214e+002, 3.074793e+003
6.365035e+002, 3.079135e+003
6.369857e+002, 3.082768e+003
6.374678e+002, 3.086122e+003
6.379499e+002, 3.089380e+003
6.384320e+002, 3.090408e+003
6.389141e+002, 3.088362e+003
6.393962e+002, 3.086022e+003
6.398784e+002, 3.087395e+003
6.403605e+002, 3.091802e+003
6.408426e+002, 3.096500e+003
6.413247e+002, 3.101019e+003
6.418068e+002, 3.104952e+003
6.422889e+002, 3.107386e+003
6.427711e+002, 3.108934e+003
6.432532e+002, 3.111040e+003
6.437353e+002, 3.114325e+003
6.442174e+002, 3.118316e+003
6.446995e+002, 3.123683e+003
6.451816e+002, 3.129962e+003
6.456638e+002, 3.134316e+003
6.461459e+002, 3.133902e+003
6.466280e+002, 3.133966e+003
6.471101e+002, 3.136605e+003
6.475922e+002, 3.142000e+003
6.480743e+002, 3.145622e+003
6.485565e+002, 3.146395e+003
6.490386e+002, 3.148027e+003
6.495207e+002, 3.154218e+003
6.500028e+002, 3.164274e+003
6.504849e+002, 3.172474e+003
6.509670e+002, 3.178268e+003
6.514492e+002, 3.182585e+003
6.519313e+002, 3.185216e+003
6.524134e+002, 3.187225e+003
6.528955e+002, 3.190910e+003
6.533776e+002, 3.198130e+003
6.538597e+002, 3.204418e+003
6.543419e+002, 3.205439e+003
6.548240e+002, 3.204144e+003
6.553061e+002, 3.205028e+003
6.557882e+002, 3.210323e+003
6.562703e+002, 3.216857e+003
6.567524e+002, 3.225175e+003
6.572346e+002, 3.234308e+003
6.577167e+002, 3.240891e+003
6.581988e+002, 3.243109e+003
6.586809e+002, 3.247137e+003
6.591630e+002, 3.256006e+003
6.596451e+002, 3.268493e+003
6.601273e+002, 3.276252e+003
6.606094e+002, 3.279027e+003
6.610915e+002, 3.283463e+003
6.615736e+002, 3.296035e+003
6.620557e+002, 3.312832e+003
6.625378e+002, 3.325502e+003
6.630200e+002, 3.333620e+003
6.635021e+002, 3.342536e+003
6.639842e+002, 3.356610e+003
6.644663e+002, 3.372957e+003
6.649484e+002, 3.388664e+003
6.654305e+002, 3.402855e+003
6.659127e+002, 3.417806e+003
6.663948e+002, 3.434234e+003
6.668769e+002, 3.451661e+003
6.673590e+002, 3.469485e+003
6.678411e+002, 3.486387e+003
6.683232e+002, 3.506532e+003
6.688054e+002, 3.531300e+003
6.692875e+002, 3.558017e+003
6.697696e+002, 3.581250e+003
6.702517e+002, 3.600897e+003
6.707338e+002, 3.622160e+003
6.712159e+002, 3.646477e+003
6.716981e+002, 3.672917e+003
6.721802e+002, 3.700056e+003
6.726623e+002, 3.727719e+003
6.731444e+002, 3.756327e+003
6.736265e+002, 3.785340e+003
6.741086e+002, 3.815561e+003
6.745908e+002, 3.848497e+003
6.750729e+002, 3.883413e+003
6.755550e+002, 3.917313e+003
6.760371e+002, 3.948902e+003
6.765192e+002, 3.979583e+003
6.770013e+002, 4.010638e+003
6.774835e+002, 4.042350e+003
6.779656e+002, 4.073258e+003
6.784477e+002, 4.104539e+003
6.789298e+002, 4.133397e+003
6.794119e+002, 4.157626e+003
6.798940e+002, 4.177459e+003
6.803762e+002, 4.194454e+003
6.808583e+002, 4.209210e+003
6.813404e+002, 4.218946e+003
6.818225e+002, 4.222129e+003
6.823046e+002, 4.218069e+003
6.827867e+002, 4.204899e+003
6.832689e+002, 4.181522e+003
6.837510e+002, 4.151633e+003
6.842331e+002, 4.116662e+003
6.847152e+002, 4.077631e+003
6.851973e+002, 4.036658e+003
6.856794e+002, 3.991477e+003
6.861616e+002, 3.947196e+003
6.866437e+002, 3.904616e+003
6.871258e+002, 3.863365e+003
6.876079e+002, 3.823414e+003
6.880900e+002, 3.785127e+003
6.885721e+002, 3.748244e+003
6.890543e+002, 3.712348e+003
6.895364e+002, 3.678538e+003
6.900185e+002, 3.649581e+003
6.905006e+002, 3.625540e+003
6.909827e+002, 3.605020e+003
6.914648e+002, 3.589519e+003
6.919470e+002, 3.575766e+003
6.924291e+002, 3.557236e+003
6.929112e+002, 3.534923e+003
6.933933e+002, 3.514430e+003
6.938754e+002, 3.498372e+003
6.943575e+002, 3.485345e+003
6.948397e+002, 3.474723e+003
6.953218e+002, 3.466509e+003
6.958039e+002, 3.459776e+003
6.962860e+002, 3.455564e+003
6.967681e+002, 3.451700e+003
6.972502e+002, 3.447089e+003
6.977324e+002, 3.441638e+003
6.982145e+002, 3.435950e+003
6.986966e+002, 3.429654e+003
6.991787e+002, 3.424225e+003
6.996608e+002, 3.421498e+003
7.001429e+002, 3.421018e+003
7.006251e+002, 3.420286e+003
7.011072e+002, 3.418809e+003
7.015893e+002, 3.417875e+003
7.020714e+002, 3.419534e+003
7.025535e+002, 3.422278e+003
7.030356e+002, 3.423805e+003
7.035178e+002, 3.422474e+003
7.039999e+002, 3.421453e+003
7.044820e+002, 3.422115e+003
7.049641e+002, 3.423750e+003
7.054462e+002, 3.425290e+003
7.059283e+002, 3.426623e+003
7.064105e+002, 3.427906e+003
7.068926e+002, 3.429059e+003
7.073747e+002, 3.430262e+003
7.078568e+002, 3.432190e+003
7.083389e+002, 3.434981e+003
7.088210e+002, 3.436881e+003
7.093032e+002, 3.436622e+003
7.097853e+002, 3.435795e+003
7.102674e+002, 3.438223e+003
7.107495e+002, 3.443172e+003
7.112316e+002, 3.447427e+003
7.117137e+002, 3.448760e+003
7.121959e+002, 3.449137e+003
7.126780e+002, 3.449473e+003
7.131601e+002, 3.449935e+003
7.136422e+002, 3.451357e+003
7.141243e+002, 3.454148e+003
7.146064e+002, 3.457823e+003
7.150886e+002, 3.462380e+003
7.155707e+002, 3.467887e+003
7.160528e+002, 3.472925e+003
7.165349e+002, 3.477534e+003
7.170170e+002, 3.481705e+003
7.174991e+002, 3.486066e+003
7.179813e+002, 3.490276e+003
7.184634e+002, 3.490735e+003
7.189455e+002, 3.487154e+003
7.194276e+002, 3.484570e+003
7.199097e+002, 3.488997e+003
7.203918e+002, 3.496329e+003
7.208740e+002, 3.500439e+003
7.213561e+002, 3.499758e+003
7.218382e+002, 3.500294e+003
7.223203e+002, 3.507098e+003
7.228024e+002, 3.515074e+003
7.232845e+002, 3.519612e+003
7.237667e+002, 3.516577e+003
7.242488e+002, 3.516801e+003
7.247309e+002, 3.522043e+003
7.252130e+002, 3.528630e+003
7.256951e+002, 3.532063e+003
7.261772e+002, 3.532095e+003
7.266594e+002, 3.532540e+003
7.271415e+002, 3.533891e+003
7.276236e+002, 3.536059e+003
7.281057e+002, 3.540402e+003
7.285878e+002, 3.545501e+003
7.290699e+002, 3.547417e+003
7.295521e+002, 3.542724e+003
7.300342e+002, 3.537949e+003
7.305163e+002, 3.537863e+003
7.309984e+002, 3.540696e+003
7.314805e+002, 3.543278e+003
7.319626e+002, 3.545252e+003
7.324448e+002, 3.546387e+003
7.329269e+002, 3.546270e+003
7.334090e+002, 3.545417e+003
7.338911e+002, 3.545316e+003
7.343732e+002, 3.546205e+003
7.348553e+002, 3.546882e+003
7.353375e+002, 3.546897e+003
7.358196e+002, 3.546514e+003
7.363017e+002, 3.545812e+003
7.367838e+002, 3.545065e+003
7.372659e+002, 3.545932e+003
7.377480e+002, 3.551112e+003
7.382302e+002, 3.556976e+003
7.387123e+002, 3.560425e+003
7.391944e+002, 3.561596e+003
7.396765e+002, 3.561505e+003
7.401586e+002, 3.558539e+003
7.406407e+002, 3.556235e+003
7.411229e+002, 3.556923e+003
7.416050e+002, 3.560396e+003
7.420871e+002, 3.561284e+003
7.425692e+002, 3.557987e+003
7.430513e+002, 3.555928e+003
7.435334e+002, 3.558917e+003
7.440156e+002, 3.566130e+003
7.444977e+002, 3.570294e+003
7.449798e+002, 3.571444e+003
7.454619e+002, 3.571620e+003
7.459440e+002, 3.571738e+003
7.464261e+002, 3.572120e+003
7.469083e+002, 3.573302e+003
7.473904e+002, 3.575326e+003
7.478725e+002, 3.577392e+003
7.483546e+002, 3.579134e+003
7.488367e+002, 3.580696e+003
7.493188e+002, 3.581941e+003
7.498010e+002, 3.582328e+003
7.502831e+002, 3.584290e+003
7.507652e+002, 3.588644e+003
7.512473e+002, 3.593242e+003
7.517294e+002, 3.596429e+003
7.522115e+002, 3.598195e+003
7.526937e+002, 3.599898e+003
7.531758e+002, 3.601750e+003
7.536579e+002, 3.602802e+003
7.541400e+002, 3.602224e+003
7.546221e+002, 3.600224e+003
7.551042e+002, 3.596386e+003
7.555864e+002, 3.589756e+003
7.560685e+002, 3.585328e+003
7.565506e+002, 3.587420e+003
7.570327e+002, 3.592307e+003
7.575148e+002, 3.596218e+003
7.579969e+002, 3.598149e+003
7.584791e+002, 3.600135e+003
7.589612e+002, 3.602870e+003
7.594433e+002, 3.604867e+003
7.599254e+002, 3.602777e+003
7.604075e+002, 3.596157e+003
7.608896e+002, 3.595591e+003
7.613718e+002, 3.603966e+003
7.618539e+002, 3.614579e+003
7.623360e+002, 3.619714e+003
7.628181e+002, 3.620308e+003
7.633002e+002, 3.617917e+003
7.637823e+002, 3.610834e+003
7.642645e+002, 3.604865e+003
7.647466e+002, 3.603090e+003
7.652287e+002, 3.604504e+003
7.657108e+002, 3.607598e+003
7.661929e+002, 3.615450e+003
7.666750e+002, 3.620336e+003
7.671572e+002, 3.620969e+003
7.676393e+002, 3.618853e+003
7.681214e+002, 3.616379e+003
7.686035e+002, 3.613497e+003
7.690856e+002, 3.610903e+003
7.695677e+002, 3.608263e+003
7.700499e+002, 3.606854e+003
7.705320e+002, 3.609949e+003
7.710141e+002, 3.615883e+003
7.714962e+002, 3.620422e+003
7.719783e+002, 3.620573e+003
7.724604e+002, 3.620056e+003
7.729426e+002, 3.621098e+003
7.734247e+002, 3.622855e+003
7.739068e+002, 3.623350e+003
7.743889e+002, 3.621630e+003
7.748710e+002, 3.619633e+003
7.753531e+002, 3.617540e+003
7.758353e+002, 3.615475e+003
7.763174e+002, 3.613815e+003
7.767995e+002, 3.612617e+003
7.772816e+002, 3.611515e+003
7.777637e+002, 3.610232e+003
7.782458e+002, 3.609202e+003
7.787280e+002, 3.609969e+003
7.792101e+002, 3.611752e+003
7.796922e+002, 3.611996e+003
7.801743e+002, 3.606589e+003
7.806564e+002, 3.602171e+003
7.811385e+002, 3.603549e+003
7.816207e+002, 3.609156e+003
7.821028e+002, 3.611797e+003
7.825849e+002, 3.609206e+003
7.830670e+002, 3.606461e+003
7.835491e+002, 3.604486e+003
7.840313e+002, 3.603394e+003
7.845134e+002, 3.604569e+003
7.849955e+002, 3.608049e+003
7.854776e+002, 3.609445e+003
7.859597e+002, 3.605034e+003
7.864418e+002, 3.598466e+003
7.869240e+002, 3.595573e+003
7.874061e+002, 3.595626e+003
7.878882e+002, 3.596046e+003
7.883703e+002, 3.596206e+003
7.888524e+002, 3.595794e+003
7.893345e+002, 3.594405e+003
7.898167e+002, 3.592190e+003
7.902988e+002, 3.590271e+003
7.907809e+002, 3.588276e+003
7.912630e+002, 3.587486e+003
7.917451e+002, 3.589101e+003
7.922272e+002, 3.592160e+003
7.927094e+002, 3.591577e+003
7.931915e+002, 3.587548e+003
7.936736e+002, 3.584599e+003
7.941557e+002, 3.587386e+003
7.946378e+002, 3.591453e+003
7.951199e+002, 3.590226e+003
7.956021e+002, 3.584856e+003
7.960842e+002, 3.580667e+003
7.965663e+002, 3.580640e+003
7.970484e+002, 3.581666e+003
7.975305e+002, 3.582405e+003
7.980126e+002, 3.582914e+003
7.984948e+002, 3.584356e+003
7.989769e+002, 3.587290e+003
7.994590e+002, 3.589763e+003
7.999411e+002, 3.590690e+003
8.004232e+002, 3.590603e+003
8.009053e+002, 3.591407e+003
8.013875e+002, 3.593072e+003
8.018696e+002, 3.595180e+003
8.023517e+002, 3.598372e+003
8.028338e+002, 3.601277e+003
8.033159e+002, 3.601429e+003
8.037980e+002, 3.599563e+003
8.042802e+002, 3.600094e+003
8.047623e+002, 3.608433e+003
8.052444e+002, 3.615097e+003
8.057265e+002, 3.615627e+003
8.062086e+002, 3.610925e+003
8.066907e+002, 3.609644e+003
8.071729e+002, 3.612637e+003
8.076550e+002, 3.615100e+003
8.081371e+002, 3.613922e+003
8.086192e+002, 3.610884e+003
8.091013e+002, 3.611088e+003
8.095834e+002, 3.614066e+003
8.100656e+002, 3.617105e+003
8.105477e+002, 3.619015e+003
8.110298e+002, 3.620137e+003
8.115119e+002, 3.620136e+003
8.119940e+002, 3.619341e+003
8.124761e+002, 3.619904e+003
8.129583e+002, 3.623534e+003
8.134404e+002, 3.626932e+003
8.139225e+002, 3.629137e+003
8.144046e+002, 3.630317e+003
8.148867e+002, 3.631253e+003
8.153688e+002, 3.631905e+003
8.158510e+002, 3.633050e+003
8.163331e+002, 3.634716e+003
8.168152e+002, 3.637299e+003
8.172973e+002, 3.642245e+003
8.177794e+002, 3.648859e+003
8.182615e+002, 3.654429e+003
8.187437e+002, 3.656817e+003
8.192258e+002, 3.658439e+003
8.197079e+002, 3.660371e+003
8.201900e+002, 3.662514e+003
8.206721e+002, 3.663957e+003
8.211542e+002, 3.664070e+003
8.216364e+002, 3.664902e+003
8.221185e+002, 3.667700e+003
8.226006e+002, 3.671418e+003
8.230827e+002, 3.672228e+003
8.235648e+002, 3.670508e+003
8.240469e+002, 3.669218e+003
8.245291e+002, 3.670725e+003
8.250112e+002, 3.672816e+003
8.254933e+002, 3.673749e+003
8.259754e+002, 3.673595e+003
8.264575e+002, 3.672534e+003
8.269396e+002, 3.667436e+003
8.274218e+002, 3.665334e+003
8.279039e+002, 3.669383e+003
8.283860e+002, 3.677535e+003
8.288681e+002, 3.682721e+003
8.293502e+002, 3.684574e+003
8.298323e+002, 3.685677e+003
8.303145e+002, 3.686288e+003
8.307966e+002, 3.687367e+003
8.312787e+002, 3.692056e+003
8.317608e+002, 3.698953e+003
8.322429e+002, 3.703596e+003
8.327250e+002, 3.701658e+003
8.332072e+002, 3.699241e+003
8.336893e+002, 3.699546e+003
8.341714e+002, 3.701846e+003
8.346535e+002, 3.704304e+003
8.351356e+002, 3.707704e+003
8.356177e+002, 3.709466e+003
8.360999e+002, 3.708386e+003
8.365820e+002, 3.706160e+003
8.370641e+002, 3.706531e+003
8.375462e+002, 3.709376e+003
8.380283e+002, 3.713239e+003
8.385104e+002, 3.717592e+003
8.389926e+002, 3.722867e+003
8.394747e+002, 3.732137e+003
8.399568e+002, 3.742092e+003
8.404389e+002, 3.747062e+003
8.409210e+002, 3.739398e+003
8.414031e+002, 3.733332e+003
8.418853e+002, 3.732500e+003
8.423674e+002, 3.734647e+003
8.428495e+002, 3.737065e+003
8.433316e+002, 3.739868e+003
8.438137e+002, 3.742108e+003
8.442958e+002, 3.743455e+003
8.447780e+002, 3.744585e+003
8.452601e+002, 3.746524e+003
8.457422e+002, 3.749022e+003
8.462243e+002, 3.751616e+003
8.467064e+002, 3.754452e+003
8.471885e+002, 3.756679e+003
8.476707e+002, 3.758219e+003
8.481528e+002, 3.758724e+003
8.486349e+002, 3.757625e+003
8.491170e+002, 3.752866e+003
8.495991e+002, 3.750626e+003
8.500812e+002, 3.752048e+003
8.505634e+002, 3.754511e+003
8.510455e+002, 3.755476e+003
8.515276e+002, 3.754981e+003
8.520097e+002, 3.752206e+003
8.524918e+002, 3.746560e+003
8.529739e+002, 3.742362e+003
8.534561e+002, 3.745376e+003
8.539382e+002, 3.751069e+003
8.544203e+002, 3.754182e+003
8.549024e+002, 3.752838e+003
8.553845e+002, 3.752007e+003
8.558666e+002, 3.752418e+003
8.563488e+002, 3.753768e+003
8.568309e+002, 3.756025e+003
8.573130e+002, 3.759324e+003
8.577951e+002, 3.762391e+003
8.582772e+002, 3.765293e+003
8.587593e+002, 3.766819e+003
8.592415e+002, 3.764957e+003
8.597236e+002, 3.761319e+003
8.602057e+002, 3.758055e+003
8.606878e+002, 3.755395e+003
8.611699e+002, 3.754659e+003
8.616520e+002, 3.758674e+003
8.621342e+002, 3.763005e+003
8.626163e+002, 3.764877e+003
8.630984e+002, 3.764241e+003
8.635805e+002, 3.763564e+003
8.640626e+002, 3.763189e+003
8.645447e+002, 3.762023e+003
8.650269e+002, 3.759409e+003
8.655090e+002, 3.755607e+003
8.659911e+002, 3.750373e+003
8.664732e+002, 3.744251e+003
8.669553e+002, 3.740658e+003
8.674374e+002, 3.742995e+003
8.679196e+002, 3.747567e+003
8.684017e+002, 3.753292e+003
8.688838e+002, 3.759481e+003
8.693659e+002, 3.761813e+003
8.698480e+002, 3.757043e+003
8.703301e+002, 3.753243e+003
8.708123e+002, 3.752599e+003
8.712944e+002, 3.754532e+003
8.717765e+002, 3.757809e+003
8.722586e+002, 3.762170e+003
8.727407e+002, 3.765791e+003
8.732228e+002, 3.768171e+003
8.737050e+002, 3.768979e+003
8.741871e+002, 3.766195e+003
8.746692e+002, 3.761757e+003
8.751513e+002, 3.759852e+003
8.756334e+002, 3.764421e+003
8.761155e+002, 3.768561e+003
8.765977e+002, 3.771136e+003
8.770798e+002, 3.772647e+003
8.775619e+002, 3.773963e+003
8.780440e+002, 3.775134e+003
8.785261e+002, 3.775434e+003
8.790082e+002, 3.774155e+003
8.794904e+002, 3.773600e+003
8.799725e+002, 3.778082e+003
8.804546e+002, 3.785063e+003
8.809367e+002, 3.789978e+003
8.814188e+002, 3.790662e+003
8.819009e+002, 3.791140e+003
8.823831e+002, 3.793282e+003
8.828652e+002, 3.795550e+003
8.833473e+002, 3.796112e+003
8.838294e+002, 3.794015e+003
8.843115e+002, 3.794004e+003
8.847936e+002, 3.796382e+003
8.852758e+002, 3.800461e+003
8.857579e+002, 3.806076e+003
8.862400e+002, 3.812796e+003
8.867221e+002, 3.820034e+003
8.872042e+002, 3.827790e+003
8.876863e+002, 3.834390e+003
8.881685e+002, 3.838972e+003
8.886506e+002, 3.842040e+003
8.891327e+002, 3.843032e+003
8.896148e+002, 3.841266e+003
8.900969e+002, 3.843555e+003
8.905790e+002, 3.851537e+003
8.910612e+002, 3.859177e+003
8.915433e+002, 3.862540e+003
8.920254e+002, 3.862594e+003
8.925075e+002, 3.862196e+003
8.929896e+002, 3.861521e+003
8.934717e+002, 3.862284e+003
8.939539e+002, 3.867196e+003
8.944360e+002, 3.872420e+003
8.949181e+002, 3.875478e+003
8.954002e+002, 3.876547e+003
8.958823e+002, 3.877204e+003
8.963644e+002, 3.878003e+003
8.968466e+002, 3.877779e+003
8.973287e+002, 3.875949e+003
8.978108e+002, 3.873260e+003
8.982929e+002, 3.871593e+003
8.987750e+002, 3.870868e+003
8.992571e+002, 3.870224e+003
8.997393e+002, 3.869132e+003
9.002214e+002, 3.868350e+003
9.007035e+002, 3.868616e+003
9.011856e+002, 3.869583e+003
9.016677e+002, 3.870658e+003
9.021498e+002, 3.872758e+003
9.026320e+002, 3.873191e+003
9.031141e+002, 3.870976e+003
9.035962e+002, 3.867907e+003
9.040783e+002, 3.866827e+003
9.045604e+002, 3.867469e+003
9.050425e+002, 3.866355e+003
9.055247e+002, 3.862647e+003
9.060068e+002, 3.859255e+003
9.064889e+002, 3.860293e+003
9.069710e+002, 3.862488e+003
9.074531e+002, 3.861830e+003
9.079352e+002, 3.856585e+003
9.084174e+002, 3.852904e+003
9.088995e+002, 3.852921e+003
9.093816e+002, 3.853279e+003
9.098637e+002, 3.851660e+003
9.103458e+002, 3.848059e+003
9.108279e+002, 3.846297e+003
9.113101e+002, 3.846384e+003
9.117922e+002, 3.847082e+003
9.122743e+002, 3.848056e+003
9.127564e+002, 3.848736e+003
9.132385e+002, 3.847552e+003
9.137206e+002, 3.844980e+003
9.142028e+002, 3.844696e+003
9.146849e+002, 3.850485e+003
9.151670e+002, 3.855678e+003
9.156491e+002, 3.858459e+003
9.161312e+002, 3.859171e+003
9.166133e+002, 3.858617e+003
9.170955e+002, 3.856802e+003
9.175776e+002, 3.855629e+003
9.180597e+002, 3.855927e+003
9.185418e+002, 3.857071e+003
9.190239e+002, 3.858629e+003
9.195060e+002, 3.860403e+003
9.199882e+002, 3.861966e+003
9.204703e+002, 3.863322e+003
9.209524e+002, 3.864151e+003
9.214345e+002, 3.863486e+003
9.219166e+002, 3.862895e+003
9.223987e+002, 3.864398e+003
9.228809e+002, 3.868054e+003
9.233630e+002, 3.872629e+003
9.238451e+002, 3.878276e+003
9.243272e+002, 3.882960e+003
9.248093e+002, 3.883890e+003
9.252914e+002, 3.882800e+003
9.257736e+002, 3.881435e+003
9.262557e+002, 3.879728e+003
9.267378e+002, 3.880230e+003
9.272199e+002, 3.886991e+003
9.277020e+002, 3.893112e+003
9.281841e+002, 3.894990e+003
9.286663e+002, 3.892647e+003
9.291484e+002, 3.889478e+003
9.296305e+002, 3.885357e+003
9.301126e+002, 3.882969e+003
9.305947e+002, 3.885777e+003
9.310768e+002, 3.890113e+003
9.315590e+002, 3.890521e+003
9.320411e+002, 3.888038e+003
9.325232e+002, 3.887236e+003
9.330053e+002, 3.893726e+003
9.334874e+002, 3.896911e+003
9.339695e+002, 3.892639e+003
9.344517e+002, 3.884197e+003
9.349338e+002, 3.879313e+003
9.354159e+002, 3.878076e+003
9.358980e+002, 3.878674e+003
9.363801e+002, 3.880957e+003
9.368622e+002, 3.884106e+003
9.373444e+002, 3.888208e+003
9.378265e+002, 3.892141e+003
9.383086e+002, 3.894176e+003
9.387907e+002, 3.892909e+003
9.392728e+002, 3.891499e+003
9.397549e+002, 3.890261e+003
9.402371e+002, 3.889223e+003
9.407192e+002, 3.887976e+003
9.412013e+002, 3.886429e+003
9.416834e+002, 3.888030e+003
9.421655e+002, 3.893063e+003
9.426476e+002, 3.897118e+003
9.431298e+002, 3.894208e+003
9.436119e+002, 3.889767e+003
9.440940e+002, 3.890573e+003
9.445761e+002, 3.896772e+003
9.450582e+002, 3.900735e+003
9.455403e+002, 3.898657e+003
9.460225e+002, 3.896547e+003
9.465046e+002, 3.896430e+003
9.469867e+002, 3.897705e+003
9.474688e+002, 3.897650e+003
9.479509e+002, 3.896384e+003
9.484330e+002, 3.895653e+003
9.489152e+002, 3.896533e+003
9.493973e+002, 3.897783e+003
9.498794e+002, 3.898323e+003
9.503615e+002, 3.898352e+003
9.508436e+002, 3.898227e+003
9.513257e+002, 3.897499e+003
9.518079e+002, 3.897604e+003
9.522900e+002, 3.899603e+003
9.527721e+002, 3.901160e+003
9.532542e+002, 3.898507e+003
9.537363e+002, 3.892403e+003
9.542184e+002, 3.888963e+003
9.547006e+002, 3.889086e+003
9.551827e+002, 3.889292e+003
9.556648e+002, 3.886787e+003
9.561469e+002, 3.883095e+003
9.566290e+002, 3.879320e+003
9.571111e+002, 3.875514e+003
9.575933e+002, 3.872499e+003
9.580754e+002, 3.869765e+003
9.585575e+002, 3.869028e+003
9.590396e+002, 3.872416e+003
9.595217e+002, 3.877957e+003
9.600038e+002, 3.877665e+003
9.604860e+002, 3.872712e+003
9.609681e+002, 3.869207e+003
9.614502e+002, 3.871319e+003
9.619323e+002, 3.874900e+003
9.624144e+002, 3.877822e+003
9.628965e+002, 3.880387e+003
9.633787e+002, 3.883421e+003
9.638608e+002, 3.887859e+003
9.643429e+002, 3.890129e+003
9.648250e+002, 3.889257e+003
9.653071e+002, 3.887393e+003
9.657892e+002, 3.887078e+003
9.662714e+002, 3.888156e+003
9.667535e+002, 3.890613e+003
9.672356e+002, 3.894654e+003
9.677177e+002, 3.898309e+003
9.681998e+002, 3.900624e+003
9.686819e+002, 3.901993e+003
9.691641e+002, 3.902489e+003
9.696462e+002, 3.902073e+003
9.701283e+002, 3.901844e+003
9.706104e+002, 3.901716e+003
9.710925e+002, 3.902190e+003
9.715746e+002, 3.903702e+003
9.720568e+002, 3.905908e+003
9.725389e+002, 3.909030e+003
9.730210e+002, 3.912426e+003
9.735031e+002, 3.913917e+003
9.739852e+002, 3.910273e+003
9.744673e+002, 3.907363e+003
9.749495e+002, 3.906910e+003
9.754316e+002, 3.908170e+003
9.759137e+002, 3.910359e+003
9.763958e+002, 3.913607e+003
9.768779e+002, 3.915793e+003
9.773600e+002, 3.916446e+003
9.778422e+002, 3.916620e+003
9.783243e+002, 3.917922e+003
9.788064e+002, 3.919245e+003
9.792885e+002, 3.918874e+003
9.797706e+002, 3.916035e+003
9.802527e+002, 3.914094e+003
9.807349e+002, 3.913032e+003
9.812170e+002, 3.913661e+003
9.816991e+002, 3.916845e+003
9.821812e+002, 3.922189e+003
9.826633e+002, 3.927402e+003
9.831454e+002, 3.932300e+003
9.836276e+002, 3.935254e+003
9.841097e+002, 3.932454e+003
9.845918e+002, 3.929867e+003
9.850739e+002, 3.934121e+003
9.855560e+002, 3.942040e+003
9.860381e+002, 3.944536e+003
9.865203e+002, 3.936540e+003
9.870024e+002, 3.933182e+003
9.874845e+002, 3.938066e+003
9.879666e+002, 3.944985e+003
9.884487e+002, 3.943834e+003
9.889308e+002, 3.937403e+003
9.894130e+002, 3.933623e+003
9.898951e+002, 3.933943e+003
9.903772e+002, 3.936406e+003
9.908593e+002, 3.942344e+003
9.913414e+002, 3.948080e+003
9.918235e+002, 3.950585e+003
9.923057e+002, 3.949717e+003
9.927878e+002, 3.949710e+003
9.932699e+002, 3.950781e+003
9.937520e+002, 3.951304e+003
9.942341e+002, 3.949204e+003
9.947162e+002, 3.946889e+003
9.951984e+002, 3.949861e+003
9.956805e+002, 3.956112e+003
9.961626e+002, 3.960099e+003
9.966447e+002, 3.957173e+003
9.971268e+002, 3.955051e+003
9.976089e+002, 3.955621e+003
9.980911e+002, 3.957610e+003
9.985732e+002, 3.959218e+003
9.990553e+002, 3.960453e+003
9.995374e+002, 3.962474e+003
1.000020e+003, 3.965422e+003
1.000502e+003, 3.968771e+003
1.000984e+003, 3.973553e+003
1.001466e+003, 3.977417e+003
1.001948e+003, 3.977421e+003
1.002430e+003, 3.972849e+003
1.002912e+003, 3.969146e+003
1.003394e+003, 3.966134e+003
1.003876e+003, 3.965188e+003
1.004359e+003, 3.967290e+003
1.004841e+003, 3.971634e+003
1.005323e+003, 3.976887e+003
1.005805e+003, 3.982422e+003
1.006287e+003, 3.985341e+003
1.006769e+003, 3.982500e+003
1.007251e+003, 3.979313e+003
1.007733e+003, 3.977603e+003
1.008216e+003, 3.977780e+003
1.008698e+003, 3.980737e+003
1.009180e+003, 3.988116e+003
1.009662e+003, 3.991589e+003
1.010144e+003, 3.990146e+003
1.010626e+003, 3.987615e+003
1.011108e+003, 3.987413e+003
1.011590e+003, 3.988730e+003
1.012072e+003, 3.990200e+003
1.012555e+003, 3.991782e+003
1.013037e+003, 3.994739e+003
1.013519e+003, 4.002103e+003
1.014001e+003, 4.007702e+003
1.014483e+003, 4.008722e+003
1.014965e+003, 4.006891e+003
1.015447e+003, 4.008835e+003
1.015929e+003, 4.014063e+003
1.016411e+003, 4.016967e+003
1.016894e+003, 4.014805e+003
1.017376e+003, 4.011921e+003
1.017858e+003, 4.012711e+003
1.018340e+003, 4.014745e+003
1.018822e+003, 4.014792e+003
1.019304e+003, 4.010789e+003
1.019786e+003, 4.009291e+003
1.020268e+003, 4.010922e+003
1.020751e+003, 4.013528e+003
1.021233e+003, 4.015566e+003
1.021715e+003, 4.017322e+003
1.022197e+003, 4.019662e+003
1.022679e+003, 4.022466e+003
1.023161e+003, 4.024857e+003
1.023643e+003, 4.026342e+003
1.024125e+003, 4.027313e+003
1.024607e+003, 4.026642e+003
1.025090e+003, 4.025988e+003
1.025572e+003, 4.029677e+003
1.026054e+003, 4.038126e+003
1.026536e+003, 4.044802e+003
1.027018e+003, 4.048642e+003
1.027500e+003, 4.049930e+003
1.027982e+003, 4.047082e+003
1.028464e+003, 4.042882e+003
1.028947e+003, 4.040520e+003
1.029429e+003, 4.040739e+003
1.029911e+003, 4.042081e+003
1.030393e+003, 4.045413e+003
1.030875e+003, 4.047999e+003
1.031357e+003, 4.048125e+003
1.031839e+003, 4.046672e+003
1.032321e+003, 4.045363e+003
1.032803e+003, 4.044845e+003
1.033286e+003, 4.047675e+003
1.033768e+003, 4.060096e+003
1.034250e+003, 4.070462e+003
1.034732e+003, 4.071653e+003
1.035214e+003, 4.068654e+003
1.035696e+003, 4.068607e+003
1.036178e+003, 4.071906e+003
1.036660e+003, 4.075784e+003
1.037143e+003, 4.080086e+003
1.037625e+003, 4.084614e+003
1.038107e+003, 4.090504e+003
1.038589e+003, 4.095772e+003
1.039071e+003, 4.096864e+003
1.039553e+003, 4.093898e+003
1.040035e+003, 4.092913e+003
1.040517e+003, 4.096150e+003
1.041000e+003, 4.100088e+003
1.041482e+003, 4.104146e+003
1.041964e+003, 4.107933e+003
1.042446e+003, 4.110467e+003
1.042928e+003, 4.111827e+003
1.043410e+003, 4.111735e+003
1.043892e+003, 4.109132e+003
1.044374e+003, 4.108127e+003
1.044856e+003, 4.114036e+003
1.045339e+003, 4.120717e+003
1.045821e+003, 4.122088e+003
1.046303e+003, 4.116974e+003
1.046785e+003, 4.115150e+003
1.047267e+003, 4.116763e+003
1.047749e+003, 4.120386e+003
1.048231e+003, 4.127038e+003
1.048713e+003, 4.133713e+003
1.049195e+003, 4.135648e+003
1.049677e+003, 4.134301e+003
1.050160e+003, 4.133897e+003
1.050642e+003, 4.135369e+003
1.051124e+003, 4.138527e+003
1.051606e+003, 4.144393e+003
1.052088e+003, 4.150315e+003
1.052570e+003, 4.152029e+003
1.053052e+003, 4.150639e+003
1.053534e+003, 4.150253e+003
1.054017e+003, 4.151350e+003
1.054499e+003, 4.153353e+003
1.054981e+003, 4.157011e+003
1.055463e+003, 4.160473e+003
1.055945e+003, 4.162742e+003
1.056427e+003, 4.163864e+003
1.056909e+003, 4.163032e+003
1.057391e+003, 4.159917e+003
1.057874e+003, 4.159321e+003
1.058356e+003, 4.163819e+003
1.058838e+003, 4.169660e+003
1.059320e+003, 4.172104e+003
1.059802e+003, 4.173016e+003
1.060284e+003, 4.175221e+003
1.060766e+003, 4.180298e+003
1.061248e+003, 4.184351e+003
1.061730e+003, 4.186756e+003
1.062213e+003, 4.189116e+003
1.062695e+003, 4.193193e+003
1.063177e+003, 4.198064e+003
1.063659e+003, 4.199607e+003
1.064141e+003, 4.198621e+003
1.064623e+003, 4.199022e+003
1.065105e+003, 4.202991e+003
1.065587e+003, 4.208401e+003
1.066070e+003, 4.216626e+003
1.066552e+003, 4.224608e+003
1.067034e+003, 4.226381e+003
1.067516e+003, 4.221583e+003
1.067998e+003, 4.222337e+003
1.068480e+003, 4.230688e+003
1.068962e+003, 4.237968e+003
1.069444e+003, 4.234962e+003
1.069927e+003, 4.228272e+003
1.070409e+003, 4.223950e+003
1.070891e+003, 4.222569e+003
1.071373e+003, 4.219573e+003
1.071855e+003, 4.213995e+003
1.072337e+003, 4.209250e+003
1.072819e+003, 4.206288e+003
1.073301e+003, 4.204916e+003
1.073783e+003, 4.205617e+003
1.074266e+003, 4.207425e+003
1.074748e+003, 4.208161e+003
1.075230e+003, 4.206639e+003
1.075712e+003, 4.205765e+003
1.076194e+003, 4.207913e+003
1.076676e+003, 4.209043e+003
1.077158e+003, 4.205487e+003
1.077640e+003, 4.198127e+003
1.078122e+003, 4.196915e+003
1.078604e+003, 4.201185e+003
1.079087e+003, 4.205347e+003
1.079569e+003, 4.206671e+003
1.080051e+003, 4.206458e+003
1.080533e+003, 4.204974e+003
1.081015e+003, 4.202532e+003
1.081497e+003, 4.199514e+003
1.081979e+003, 4.195483e+003
1.082461e+003, 4.193104e+003
1.082944e+003, 4.192651e+003
1.083426e+003, 4.193305e+003
1.083908e+003, 4.195313e+003
1.084390e+003, 4.197356e+003
1.084872e+003, 4.197803e+003
1.085354e+003, 4.196648e+003
1.085836e+003, 4.194939e+003
1.086318e+003, 4.192118e+003
1.086801e+003, 4.190342e+003
1.087283e+003, 4.190696e+003
1.087765e+003, 4.191489e+003
1.088247e+003, 4.189070e+003
1.088729e+003, 4.184615e+003
1.089211e+003, 4.180866e+003
1.089693e+003, 4.178075e+003
1.090175e+003, 4.177567e+003
1.090657e+003, 4.182883e+003
1.091140e+003, 4.187629e+003
1.091622e+003, 4.187868e+003
1.092104e+003, 4.184308e+003
1.092586e+003, 4.183099e+003
1.093068e+003, 4.184013e+003
1.093550e+003, 4.184433e+003
1.094032e+003, 4.183156e+003
1.094514e+003, 4.181062e+003
1.094997e+003, 4.177354e+003
1.095479e+003, 4.173937e+003
1.095961e+003, 4.173660e+003
1.096443e+003, 4.178184e+003
1.096925e+003, 4.180013e+003
1.097407e+003, 4.178829e+003
1.097889e+003, 4.176905e+003
1.098371e+003, 4.174511e+003
1.098854e+003, 4.173438e+003
1.099336e+003, 4.177533e+003
1.099818e+003, 4.185239e+003
1.100300e+003, 4.190358e+003
1.100782e+003, 4.190359e+003
1.101264e+003, 4.189543e+003
1.101746e+003, 4.188159e+003
1.102228e+003, 4.186666e+003
1.102710e+003, 4.185417e+003
1.103193e+003, 4.184632e+003
1.103675e+003, 4.184721e+003
1.104157e+003, 4.185763e+003
1.104639e+003, 4.187935e+003
1.105121e+003, 4.194188e+003
1.105603e+003, 4.198159e+003
1.106085e+003, 4.196477e+003
1.106567e+003, 4.191438e+003
1.107049e+003, 4.190427e+003
1.107531e+003, 4.192896e+003
1.108014e+003, 4.194543e+003
1.108496e+003, 4.193824e+003
1.108978e+003, 4.193302e+003
1.109460e+003, 4.194417e+003
1.109942e+003, 4.196752e+003
1.110424e+003, 4.200655e+003
1.110906e+003, 4.206268e+003
1.111388e+003, 4.207238e+003
1.111871e+003, 4.203170e+003
1.112353e+003, 4.200126e+003
1.112835e+003, 4.202159e+003
1.113317e+003, 4.205450e+003
1.113799e+003, 4.205592e+003
1.114281e+003, 4.204233e+003
1.114763e+003, 4.204180e+003
1.115245e+003, 4.207316e+003
1.115728e+003, 4.208731e+003
1.116210e+003, 4.207963e+003
1.116692e+003, 4.207205e+003
1.117174e+003, 4.208595e+003
1.117656e+003, 4.211097e+003
1.118138e+003, 4.212787e+003
1.118620e+003, 4.213812e+003
1.119102e+003, 4.215008e+003
1.119584e+003, 4.216995e+003
1.120067e+003, 4.218459e+003
1.120549e+003, 4.218758e+003
1.121031e+003, 4.218961e+003
1.121513e+003, 4.221180e+003
1.121995e+003, 4.224477e+003
1.122477e+003, 4.225410e+003
1.122959e+003, 4.223686e+003
1.123441e+003, 4.221713e+003
1.123924e+003, 4.221542e+003
1.124406e+003, 4.220369e+003
1.124888e+003, 4.215932e+003
1.125370e+003, 4.210263e+003
1.125852e+003, 4.209241e+003
1.126334e+003, 4.212604e+003
1.126816e+003, 4.217450e+003
1.127298e+003, 4.223859e+003
1.127781e+003, 4.228071e+003
1.128263e+003, 4.224616e+003
1.128745e+003, 4.219950e+003
1.129227e+003, 4.219900e+003
1.129709e+003, 4.224291e+003
1.130191e+003, 4.226782e+003
1.130673e+003, 4.227269e+003
1.131155e+003, 4.227840e+003
1.131637e+003, 4.229614e+003
1.132120e+003, 4.231301e+003
1.132602e+003, 4.230824e+003
1.133084e+003, 4.229655e+003
1.133566e+003, 4.229944e+003
1.134048e+003, 4.232279e+003
1.134530e+003, 4.234667e+003
1.135012e+003, 4.237084e+003
1.135494e+003, 4.239526e+003
1.135976e+003, 4.241738e+003
1.136458e+003, 4.244178e+003
1.136941e+003, 4.248761e+003
1.137423e+003, 4.254076e+003
1.137905e+003, 4.256666e+003
1.138387e+003, 4.253865e+003
1.138869e+003, 4.250193e+003
1.139351e+003, 4.244376e+003
1.139833e+003, 4.240996e+003
1.140315e+003, 4.246846e+003
1.140798e+003, 4.257910e+003
1.141280e+003, 4.265005e+003
1.141762e+003, 4.268083e+003
1.142244e+003, 4.269401e+003
1.142726e+003, 4.268460e+003
1.143208e+003, 4.267667e+003
1.143690e+003, 4.267461e+003
1.144172e+003, 4.267773e+003
1.144655e+003, 4.268845e+003
1.145137e+003, 4.270391e+003
1.145619e+003, 4.271013e+003
1.146101e+003, 4.270557e+003
1.146583e+003, 4.270712e+003
1.147065e+003, 4.273413e+003
1.147547e+003, 4.276001e+003
1.148029e+003, 4.277630e+003
1.148511e+003, 4.278185e+003
1.148994e+003, 4.276073e+003
1.149476e+003, 4.271902e+003
1.149958e+003, 4.271244e+003
1.150440e+003, 4.275703e+003
1.150922e+003, 4.282109e+003
1.151404e+003, 4.290197e+003
1.151886e+003, 4.297526e+003
1.152368e+003, 4.301959e+003
1.152851e+003, 4.303760e+003
1.153333e+003, 4.305512e+003
1.153815e+003, 4.307160e+003
1.154297e+003, 4.308064e+003
1.154779e+003, 4.307414e+003
1.155261e+003, 4.307067e+003
1.155743e+003, 4.309602e+003
1.156225e+003, 4.312846e+003
1.156708e+003, 4.314009e+003
1.157190e+003, 4.312632e+003
1.157672e+003, 4.312294e+003
1.158154e+003, 4.313147e+003
1.158636e+003, 4.313963e+003
1.159118e+003, 4.313770e+003
1.159600e+003, 4.313632e+003
1.160082e+003, 4.315481e+003
1.160564e+003, 4.318082e+003
1.161047e+003, 4.319087e+003
1.161529e+003, 4.316877e+003
1.162011e+003, 4.316724e+003
1.162493e+003, 4.319151e+003
1.162975e+003, 4.321731e+003
1.163457e+003, 4.322295e+003
1.163939e+003, 4.322072e+003
1.164421e+003, 4.322709e+003
1.164903e+003, 4.323983e+003
1.165385e+003, 4.325194e+003
1.165868e+003, 4.326134e+003
1.166350e+003, 4.326671e+003
1.166832e+003, 4.326274e+003
1.167314e+003, 4.326692e+003
1.167796e+003, 4.331717e+003
1.168278e+003, 4.337854e+003
1.168760e+003, 4.337116e+003
1.169242e+003, 4.330599e+003
1.169725e+003, 4.327908e+003
1.170207e+003, 4.335384e+003
1.170689e+003, 4.342199e+003
1.171171e+003, 4.347115e+003
1.171653e+003, 4.350115e+003
1.172135e+003, 4.350424e+003
1.172617e+003, 4.348967e+003
1.173099e+003, 4.347379e+003
1.173582e+003, 4.345896e+003
1.174064e+003, 4.345690e+003
1.174546e+003, 4.346318e+003
1.175028e+003, 4.350052e+003
1.175510e+003, 4.359477e+003
1.175992e+003, 4.369750e+003
1.176474e+003, 4.368957e+003
1.176956e+003, 4.360987e+003
1.177438e+003, 4.357291e+003
1.177921e+003, 4.360369e+003
1.178403e+003, 4.364329e+003
1.178885e+003, 4.367210e+003
1.179367e+003, 4.370142e+003
1.179849e+003, 4.374086e+003
1.180331e+003, 4.378114e+003
1.180813e+003, 4.378371e+003
1.181295e+003, 4.375985e+003
1.181778e+003, 4.375445e+003
1.182260e+003, 4.378755e+003
1.182742e+003, 4.381198e+003
1.183224e+003, 4.379415e+003
1.183706e+003, 4.377334e+003
1.184188e+003, 4.376627e+003
1.184670e+003, 4.377474e+003
1.185152e+003, 4.382305e+003
1.185635e+003, 4.390042e+003
1.186117e+003, 4.395196e+003
1.186599e+003, 4.394013e+003
1.187081e+003, 4.393286e+003
1.187563e+003, 4.398626e+003
1.188045e+003, 4.403587e+003
1.188527e+003, 4.402248e+003
1.189009e+003, 4.395449e+003
1.189491e+003, 4.394428e+003
1.189974e+003, 4.398614e+003
1.190456e+003, 4.403837e+003
1.190938e+003, 4.409067e+003
1.191420e+003, 4.413422e+003
1.191902e+003, 4.417214e+003
1.192384e+003, 4.419318e+003
1.192866e+003, 4.417619e+003
1.193348e+003, 4.411943e+003
1.193830e+003, 4.412319e+003
1.194313e+003, 4.418274e+003
1.194795e+003, 4.423874e+003
1.195277e+003, 4.426337e+003
1.195759e+003, 4.426600e+003
1.196241e+003, 4.423321e+003
1.196723e+003, 4.419175e+003
1.197205e+003, 4.417723e+003
1.197687e+003, 4.419064e+003
1.198169e+003, 4.419706e+003
1.198652e+003, 4.419580e+003
1.199134e+003, 4.420389e+003
1.199616e+003, 4.424936e+003
1.200098e+003, 4.429069e+003
1.200580e+003, 4.430089e+003
1.201062e+003, 4.429161e+003
1.201544e+003, 4.427517e+003
1.202026e+003, 4.425071e+003
1.202509e+003, 4.426603e+003
1.202991e+003, 4.432563e+003
1.203473e+003, 4.438256e+003
1.203955e+003, 4.439453e+003
1.204437e+003, 4.440039e+003
1.204919e+003, 4.442374e+003
1.205401e+003, 4.445964e+003
1.205883e+003, 4.450395e+003
1.206365e+003, 4.455736e+003
1.206848e+003, 4.456415e+003
1.207330e+003, 4.451342e+003
1.207812e+003, 4.447376e+003
1.208294e+003, 4.450986e+003
1.208776e+003, 4.456422e+003
1.209258e+003, 4.460790e+003
1.209740e+003, 4.463596e+003
1.210222e+003, 4.462508e+003
1.210705e+003, 4.457487e+003
1.211187e+003, 4.455480e+003
1.211669e+003, 4.457987e+003
1.212151e+003, 4.461481e+003
1.212633e+003, 4.463708e+003
1.213115e+003, 4.465430e+003
1.213597e+003, 4.467159e+003
1.214079e+003, 4.468896e+003
1.214562e+003, 4.470461e+003
1.215044e+003, 4.471869e+003
1.215526e+003, 4.472990e+003
1.216008e+003, 4.473729e+003
1.216490e+003, 4.474523e+003
1.216972e+003, 4.476111e+003
1.217454e+003, 4.477439e+003
1.217936e+003, 4.477054e+003
1.218418e+003, 4.475551e+003
1.218901e+003, 4.476294e+003
1.219383e+003, 4.479171e+003
1.219865e+003, 4.483095e+003
1.220347e+003, 4.488280e+003
1.220829e+003, 4.492138e+003
1.221311e+003, 4.491617e+003
1.221793e+003, 4.489911e+003
1.222275e+003, 4.489166e+003
1.222757e+003, 4.489450e+003
1.223240e+003, 4.491663e+003
1.223722e+003, 4.495583e+003
1.224204e+003, 4.497623e+003
1.224686e+003, 4.496133e+003
1.225168e+003, 4.494083e+003
1.225650e+003, 4.492763e+003
1.226132e+003, 4.492476e+003
1.226614e+003, 4.493596e+003
1.227096e+003, 4.495954e+003
1.227579e+003, 4.497799e+003
1.228061e+003, 4.499180e+003
1.228543e+003, 4.500292e+003
1.229025e+003, 4.500459e+003
1.229507e+003, 4.502036e+003
1.229989e+003, 4.508272e+003
1.230471e+003, 4.514741e+003
1.230953e+003, 4.517823e+003
1.231436e+003, 4.517880e+003
1.231918e+003, 4.518019e+003
1.232400e+003, 4.518367e+003
1.232882e+003, 4.520232e+003
1.233364e+003, 4.526360e+003
1.233846e+003, 4.529921e+003
1.234328e+003, 4.523113e+003
1.234810e+003, 4.516704e+003
1.235292e+003, 4.519486e+003
1.235775e+003, 4.530033e+003
1.236257e+003, 4.537572e+003
1.236739e+003, 4.542131e+003
1.237221e+003, 4.543837e+003
1.237703e+003, 4.540904e+003
1.238185e+003, 4.538172e+003
1.238667e+003, 4.536486e+003
1.239149e+003, 4.536739e+003
1.239632e+003, 4.540955e+003
1.240114e+003, 4.547892e+003
1.240596e+003, 4.550014e+003
1.241078e+003, 4.548221e+003
1.241560e+003, 4.546411e+003
1.242042e+003, 4.544666e+003
1.242524e+003, 4.545803e+003
1.243006e+003, 4.552784e+003
1.243489e+003, 4.559608e+003
1.243971e+003, 4.560428e+003
1.244453e+003, 4.557179e+003
1.244935e+003, 4.557689e+003
1.245417e+003, 4.561381e+003
1.245899e+003, 4.566042e+003
1.246381e+003, 4.574532e+003
1.246863e+003, 4.577787e+003
1.247345e+003, 4.572247e+003
1.247828e+003, 4.566162e+003
1.248310e+003, 4.567297e+003
1.248792e+003, 4.573125e+003
1.249274e+003, 4.577493e+003
1.249756e+003, 4.580559e+003
1.250238e+003, 4.583174e+003
1.250720e+003, 4.584897e+003
1.251202e+003, 4.587615e+003
1.251684e+003, 4.592183e+003
1.252167e+003, 4.595969e+003
1.252649e+003, 4.595380e+003
1.253131e+003, 4.593024e+003
1.253613e+003, 4.594609e+003
1.254095e+003, 4.598909e+003
1.254577e+003, 4.601687e+003
1.255059e+003, 4.599552e+003
1.255541e+003, 4.600567e+003
1.256023e+003, 4.606034e+003
1.256506e+003, 4.611455e+003
1.256988e+003, 4.612151e+003
1.257470e+003, 4.610948e+003
1.257952e+003, 4.612359e+003
1.258434e+003, 4.615294e+003
1.258916e+003, 4.615898e+003
1.259398e+003, 4.612533e+003
1.259880e+003, 4.610729e+003
1.260363e+003, 4.610888e+003
1.260845e+003, 4.612367e+003
1.261327e+003, 4.616607e+003
1.261809e+003, 4.620231e+003
1.262291e+003, 4.617792e+003
1.262773e+003, 4.612239e+003
1.263255e+003, 4.612080e+003
1.263737e+003, 4.619529e+003
1.264219e+003, 4.621678e+003
1.264702e+003, 4.617210e+003
1.265184e+003, 4.614048e+003
1.265666e+003, 4.620749e+003
1.266148e+003, 4.628807e+003
1.266630e+003, 4.630993e+003
1.267112e+003, 4.629977e+003
1.267594e+003, 4.632052e+003
1.268076e+003, 4.637602e+003
1.268559e+003, 4.640485e+003
1.269041e+003, 4.640329e+003
1.269523e+003, 4.639779e+003
1.270005e+003, 4.641116e+003
1.270487e+003, 4.642095e+003
1.270969e+003, 4.639842e+003
1.271451e+003, 4.637352e+003
1.271933e+003, 4.639554e+003
1.272416e+003, 4.645913e+003
1.272898e+003, 4.649305e+003
1.273380e+003, 4.649542e+003
1.273862e+003, 4.650450e+003
1.274344e+003, 4.656898e+003
1.274826e+003, 4.660774e+003
1.275308e+003, 4.657487e+003
1.275790e+003, 4.652560e+003
1.276272e+003, 4.653316e+003
1.276755e+003, 4.658347e+003
1.277237e+003, 4.663146e+003
1.277719e+003, 4.667179e+003
1.278201e+003, 4.669240e+003
1.278683e+003, 4.666218e+003
1.279165e+003, 4.664948e+003
1.279647e+003, 4.667286e+003
1.280129e+003, 4.670513e+003
1.280611e+003, 4.670987e+003
1.281094e+003, 4.670370e+003
1.281576e+003, 4.672685e+003
1.282058e+003, 4.677437e+003
1.282540e+003, 4.681167e+003
1.283022e+003, 4.682396e+003
1.283504e+003, 4.683577e+003
1.283986e+003, 4.684971e+003
1.284468e+003, 4.686144e+003
1.284950e+003, 4.685654e+003
1.285433e+003, 4.685384e+003
1.285915e+003, 4.688540e+003
1.286397e+003, 4.694215e+003
1.286879e+003, 4.698753e+003
1.287361e+003, 4.702210e+003
1.287843e+003, 4.702796e+003
1.288325e+003, 4.699952e+003
1.288807e+003, 4.697730e+003
1.289290e+003, 4.700861e+003
1.289772e+003, 4.705013e+003
1.290254e+003, 4.706113e+003
1.290736e+003, 4.705393e+003
1.291218e+003, 4.706037e+003
1.291700e+003, 4.708086e+003
1.292182e+003, 4.710834e+003
1.292664e+003, 4.714190e+003
1.293146e+003, 4.717913e+003
1.293629e+003, 4.725288e+003
1.294111e+003, 4.729111e+003
1.294593e+003, 4.720921e+003
1.295075e+003, 4.709573e+003
1.295557e+003, 4.705833e+003
1.296039e+003, 4.709011e+003
1.296521e+003, 4.714747e+003
1.297003e+003, 4.722224e+003
1.297486e+003, 4.727673e+003
1.297968e+003, 4.729534e+003
1.298450e+003, 4.728916e+003
1.298932e+003, 4.725425e+003
1.299414e+003, 4.721548e+003
1.299896e+003, 4.719490e+003
1.300378e+003, 4.719497e+003
1.300860e+003, 4.723767e+003
1.301343e+003, 4.731234e+003
1.301825e+003, 4.736925e+003
##END=



