##NAMES=Prosopite
##RRUFFID=R100181
##IDEAL CHEMISTRY=CaAl_2_F_4_(OH)_4_
##LOCALITY=Carlota mine, Pinto Creek, Gila, Arizona, USA
##OWNER=RRUFF
##SOURCE=Joe Ruiz
##DESCRIPTION=Colorless granular crystals,  associated with blue azurite, green elongated szenicsite (R100179) and pale green thick tabular powellite (R100180)
##STATUS=The identification of this mineral has been confirmed by single-crystal X-ray diffraction.
##URL=rruff.info/R100181
91.03516, 119.0135
91.51727, 126.4895
91.99939, 120.4267
92.48151, 104.8969
92.96362, 91.42828
93.44574, 85.70966
93.92786, 86.18362
94.40997, 90.53019
94.89210, 99.48369
95.37421, 109.6294
95.85633, 116.8540
96.33845, 121.1704
96.82056, 121.7260
97.30268, 114.4319
97.78480, 100.6059
98.26691, 94.61897
98.74903, 100.8969
99.23115, 114.1053
99.71326, 117.8998
100.1954, 110.2535
100.6775, 100.8431
101.1596, 98.16379
101.6417, 104.0555
102.1239, 107.5727
102.6060, 105.8513
103.0881, 99.33284
103.5702, 95.66736
104.0523, 94.75083
104.5344, 96.76092
105.0166, 103.3194
105.4987, 121.0076
105.9808, 131.1369
106.4629, 126.4512
106.9450, 101.2484
107.4271, 87.32628
107.9093, 92.09799
108.3914, 105.4526
108.8735, 112.2800
109.3556, 105.1363
109.8377, 98.28492
110.3198, 96.02832
110.8020, 102.3610
111.2841, 105.6046
111.7662, 102.8325
112.2483, 96.67816
112.7304, 92.96574
113.2125, 95.06580
113.6947, 97.85371
114.1768, 98.89072
114.6589, 96.59930
115.1410, 94.20454
115.6231, 91.44231
116.1052, 88.86193
116.5874, 88.52165
117.0695, 94.00923
117.5516, 100.6255
118.0337, 104.7150
118.5158, 101.8024
118.9980, 99.26379
119.4801, 101.9245
119.9622, 109.1941
120.4443, 114.3371
120.9264, 112.1377
121.4085, 106.0307
121.8907, 100.2217
122.3728, 97.25476
122.8549, 94.74443
123.3370, 89.45571
123.8191, 81.09036
124.3012, 75.18598
124.7834, 79.62520
125.2655, 90.02448
125.7476, 97.01208
126.2297, 91.50865
126.7118, 81.30313
127.1939, 78.25815
127.6761, 83.89489
128.1582, 92.70363
128.6403, 99.62332
129.1224, 104.6664
129.6045, 107.8940
130.0867, 106.2135
130.5688, 102.3019
131.0509, 106.4862
131.5330, 122.2769
132.0151, 140.9809
132.4972, 144.7495
132.9794, 133.5510
133.4615, 124.4930
133.9436, 131.8319
134.4257, 154.2578
134.9078, 172.3759
135.3899, 182.1413
135.8721, 187.2307
136.3542, 198.8053
136.8363, 217.8105
137.3184, 239.1922
137.8005, 257.1703
138.2826, 270.5497
138.7648, 290.8879
139.2469, 320.8445
139.7290, 359.7993
140.2111, 401.2859
140.6932, 446.0166
141.1753, 492.6418
141.6575, 539.0565
142.1396, 584.8367
142.6217, 632.9677
143.1038, 684.5438
143.5859, 740.2505
144.0681, 795.2137
144.5502, 853.5700
145.0323, 907.9543
145.5144, 949.8054
145.9965, 970.2804
146.4786, 991.3963
146.9608, 1018.173
147.4429, 1052.481
147.9250, 1085.949
148.4071, 1115.278
148.8892, 1145.078
149.3713, 1181.482
149.8535, 1227.839
150.3356, 1278.008
150.8177, 1330.056
151.2998, 1381.718
151.7819, 1440.103
152.2640, 1509.029
152.7462, 1584.544
153.2283, 1658.254
153.7104, 1725.467
154.1925, 1794.292
154.6746, 1868.510
155.1567, 1955.835
155.6389, 2033.743
156.1210, 2094.831
156.6031, 2144.532
157.0852, 2196.961
157.5673, 2260.834
158.0495, 2323.732
158.5316, 2380.014
159.0137, 2425.326
159.4958, 2468.099
159.9779, 2513.000
160.4600, 2557.904
160.9422, 2595.875
161.4243, 2619.155
161.9064, 2637.832
162.3885, 2658.454
162.8706, 2682.594
163.3527, 2709.279
163.8349, 2739.081
164.3170, 2771.604
164.7991, 2804.942
165.2812, 2833.325
165.7633, 2864.218
166.2454, 2904.495
166.7276, 2962.178
167.2097, 3024.433
167.6918, 3086.097
168.1739, 3146.569
168.6560, 3205.494
169.1381, 3256.925
169.6203, 3306.995
170.1024, 3342.062
170.5845, 3384.989
171.0666, 3432.417
171.5487, 3475.009
172.0309, 3512.664
172.5130, 3542.185
172.9951, 3561.433
173.4772, 3571.378
173.9593, 3573.343
174.4414, 3566.378
174.9236, 3552.701
175.4057, 3534.918
175.8878, 3512.960
176.3699, 3485.885
176.8520, 3446.389
177.3341, 3400.676
177.8163, 3362.266
178.2984, 3338.533
178.7805, 3324.892
179.2626, 3316.070
179.7447, 3312.274
180.2268, 3310.592
180.7090, 3308.334
181.1911, 3305.879
181.6732, 3304.479
182.1553, 3303.351
182.6374, 3303.827
183.1195, 3309.600
183.6017, 3321.380
184.0838, 3335.109
184.5659, 3344.723
185.0480, 3351.503
185.5301, 3362.617
186.0123, 3382.652
186.4944, 3409.727
186.9765, 3437.025
187.4586, 3464.076
187.9407, 3492.958
188.4228, 3528.832
188.9050, 3570.733
189.3871, 3610.640
189.8692, 3649.326
190.3513, 3683.977
190.8334, 3699.542
191.3155, 3693.850
191.7977, 3672.872
192.2798, 3645.198
192.7619, 3610.923
193.2440, 3568.652
193.7261, 3513.004
194.2082, 3445.751
194.6904, 3383.089
195.1725, 3324.291
195.6546, 3273.113
196.1367, 3239.897
196.6188, 3225.050
197.1009, 3218.589
197.5831, 3218.391
198.0652, 3224.400
198.5473, 3224.479
199.0294, 3215.906
199.5115, 3203.943
199.9937, 3200.420
200.4758, 3206.593
200.9579, 3213.050
201.4400, 3215.036
201.9221, 3212.421
202.4042, 3206.881
202.8864, 3198.178
203.3685, 3186.901
203.8506, 3173.446
204.3327, 3157.001
204.8148, 3142.070
205.2969, 3132.325
205.7791, 3128.938
206.2612, 3121.785
206.7433, 3109.057
207.2254, 3093.180
207.7075, 3080.330
208.1896, 3070.963
208.6718, 3063.200
209.1539, 3056.677
209.6360, 3052.260
210.1181, 3044.504
210.6002, 3030.995
211.0823, 3015.193
211.5645, 3007.349
212.0466, 3009.563
212.5287, 3014.880
213.0108, 3020.456
213.4929, 3027.316
213.9750, 3030.321
214.4572, 3027.253
214.9393, 3020.966
215.4214, 3020.105
215.9035, 3026.282
216.3856, 3034.579
216.8678, 3042.902
217.3499, 3052.436
217.8320, 3057.827
218.3141, 3056.494
218.7962, 3051.384
219.2783, 3051.562
219.7605, 3056.980
220.2426, 3067.547
220.7247, 3084.574
221.2068, 3112.019
221.6889, 3134.465
222.1710, 3151.109
222.6532, 3162.334
223.1353, 3168.117
223.6174, 3165.908
224.0995, 3162.729
224.5816, 3161.836
225.0637, 3163.154
225.5459, 3167.276
226.0280, 3175.405
226.5101, 3186.135
226.9922, 3194.716
227.4743, 3199.893
227.9564, 3205.018
228.4386, 3212.030
228.9207, 3222.156
229.4028, 3230.711
229.8849, 3236.903
230.3670, 3241.621
230.8492, 3247.416
231.3313, 3253.684
231.8134, 3261.806
232.2955, 3272.826
232.7776, 3287.977
233.2597, 3302.709
233.7419, 3316.012
234.2240, 3329.271
234.7061, 3346.212
235.1882, 3370.077
235.6703, 3392.770
236.1524, 3412.014
236.6346, 3431.003
237.1167, 3438.273
237.5988, 3428.841
238.0809, 3409.619
238.5630, 3396.719
239.0451, 3393.816
239.5273, 3391.779
240.0094, 3387.099
240.4915, 3379.387
240.9736, 3369.407
241.4557, 3355.028
241.9378, 3339.145
242.4200, 3328.382
242.9021, 3326.396
243.3842, 3323.536
243.8663, 3315.486
244.3484, 3299.212
244.8306, 3287.159
245.3127, 3282.466
245.7948, 3280.447
246.2769, 3272.080
246.7590, 3254.151
247.2411, 3235.524
247.7233, 3218.685
248.2054, 3203.032
248.6875, 3191.861
249.1696, 3187.680
249.6517, 3186.448
250.1338, 3181.118
250.6160, 3168.163
251.0981, 3157.464
251.5802, 3152.289
252.0623, 3153.294
252.5444, 3156.383
253.0265, 3162.105
253.5087, 3169.476
253.9908, 3176.772
254.4729, 3183.014
254.9550, 3191.315
255.4371, 3202.894
255.9192, 3217.997
256.4014, 3233.530
256.8835, 3249.528
257.3656, 3266.499
257.8477, 3283.878
258.3298, 3301.983
258.8120, 3320.611
259.2941, 3339.622
259.7762, 3359.340
260.2583, 3374.659
260.7404, 3385.720
261.2225, 3392.290
261.7047, 3395.401
262.1868, 3397.665
262.6689, 3388.859
263.1510, 3363.481
263.6331, 3322.310
264.1152, 3286.667
264.5974, 3258.284
265.0795, 3233.104
265.5616, 3207.682
266.0437, 3180.460
266.5258, 3157.091
267.0079, 3139.360
267.4901, 3126.605
267.9722, 3114.587
268.4543, 3104.127
268.9364, 3092.694
269.4185, 3076.186
269.9006, 3051.551
270.3828, 3036.010
270.8649, 3035.021
271.3470, 3044.770
271.8291, 3046.106
272.3112, 3035.954
272.7933, 3025.270
273.2755, 3023.084
273.7576, 3030.919
274.2397, 3036.168
274.7218, 3037.344
275.2039, 3034.893
275.6860, 3028.935
276.1682, 3017.991
276.6503, 3008.912
277.1324, 3007.946
277.6145, 3016.133
278.0966, 3018.664
278.5787, 3012.824
279.0609, 3002.826
279.5430, 2997.451
280.0251, 2997.094
280.5072, 2999.684
280.9893, 3006.142
281.4715, 3016.412
281.9536, 3021.186
282.4357, 3018.933
282.9178, 3013.267
283.3999, 3009.328
283.8820, 3006.995
284.3642, 3007.558
284.8463, 3013.147
285.3284, 3023.109
285.8105, 3029.687
286.2926, 3032.087
286.7747, 3033.323
287.2569, 3037.547
287.7390, 3044.635
288.2211, 3052.365
288.7032, 3061.018
289.1853, 3069.744
289.6674, 3074.776
290.1496, 3075.981
290.6317, 3074.833
291.1138, 3070.435
291.5959, 3063.871
292.0780, 3062.844
292.5602, 3073.125
293.0423, 3089.490
293.5244, 3098.296
294.0065, 3099.312
294.4886, 3097.556
294.9707, 3095.822
295.4529, 3094.721
295.9350, 3096.526
296.4171, 3102.344
296.8992, 3110.909
297.3813, 3121.893
297.8634, 3134.816
298.3456, 3144.641
298.8277, 3144.590
299.3098, 3138.657
299.7919, 3135.359
300.2740, 3136.250
300.7561, 3140.893
301.2383, 3149.924
301.7204, 3162.748
302.2025, 3176.060
302.6846, 3188.966
303.1667, 3200.796
303.6488, 3210.749
304.1310, 3218.505
304.6131, 3224.672
305.0952, 3231.113
305.5773, 3236.563
306.0594, 3237.608
306.5415, 3231.801
307.0237, 3221.015
307.5058, 3205.617
307.9879, 3184.923
308.4700, 3165.216
308.9521, 3150.359
309.4343, 3139.795
309.9164, 3132.127
310.3985, 3129.226
310.8806, 3127.218
311.3627, 3122.308
311.8448, 3114.241
312.3270, 3107.835
312.8091, 3107.232
313.2912, 3109.504
313.7733, 3111.190
314.2554, 3109.973
314.7375, 3108.817
315.2197, 3108.955
315.7018, 3110.408
316.1839, 3113.197
316.6660, 3119.068
317.1481, 3125.403
317.6302, 3129.901
318.1124, 3129.816
318.5945, 3130.598
319.0766, 3136.326
319.5587, 3144.931
320.0408, 3149.348
320.5229, 3143.658
321.0051, 3135.764
321.4872, 3130.198
321.9693, 3129.614
322.4514, 3127.801
322.9335, 3122.138
323.4156, 3114.522
323.8978, 3108.607
324.3799, 3106.542
324.8620, 3104.964
325.3441, 3101.984
325.8262, 3095.723
326.3083, 3093.708
326.7905, 3099.712
327.2726, 3109.249
327.7547, 3116.713
328.2368, 3118.776
328.7189, 3122.102
329.2010, 3129.929
329.6832, 3143.266
330.1653, 3149.131
330.6474, 3142.250
331.1295, 3131.702
331.6116, 3124.756
332.0938, 3123.472
332.5759, 3122.544
333.0580, 3121.616
333.5401, 3120.602
334.0222, 3118.951
334.5043, 3116.465
334.9865, 3113.577
335.4686, 3110.242
335.9507, 3105.604
336.4328, 3102.928
336.9149, 3102.968
337.3970, 3104.766
337.8792, 3106.056
338.3613, 3107.226
338.8434, 3106.911
339.3255, 3103.962
339.8076, 3097.879
340.2898, 3092.923
340.7719, 3088.754
341.2540, 3086.301
341.7361, 3088.347
342.2182, 3095.644
342.7003, 3100.000
343.1825, 3096.673
343.6646, 3087.388
344.1467, 3085.003
344.6288, 3090.644
345.1109, 3097.325
345.5930, 3095.908
346.0752, 3087.558
346.5573, 3084.711
347.0394, 3092.945
347.5215, 3106.178
348.0036, 3109.768
348.4857, 3103.889
348.9679, 3097.695
349.4500, 3098.461
349.9321, 3104.269
350.4142, 3110.093
350.8963, 3115.906
351.3784, 3119.680
351.8606, 3115.825
352.3427, 3106.709
352.8248, 3101.019
353.3069, 3106.480
353.7890, 3117.264
354.2711, 3125.687
354.7533, 3131.021
355.2354, 3135.224
355.7175, 3140.535
356.1996, 3145.745
356.6817, 3148.734
357.1638, 3145.723
357.6460, 3142.238
358.1281, 3143.537
358.6102, 3149.196
359.0923, 3153.463
359.5744, 3152.468
360.0565, 3148.729
360.5387, 3144.562
361.0208, 3139.173
361.5029, 3135.262
361.9850, 3134.644
362.4671, 3136.589
362.9492, 3138.879
363.4314, 3140.003
363.9135, 3141.818
364.3956, 3145.773
364.8777, 3153.691
365.3598, 3159.918
365.8419, 3164.641
366.3241, 3166.706
366.8062, 3164.307
367.2883, 3147.100
367.7704, 3135.121
368.2526, 3135.673
368.7347, 3151.611
369.2168, 3164.328
369.6989, 3171.695
370.1810, 3176.889
370.6631, 3182.784
371.1453, 3192.934
371.6274, 3198.296
372.1095, 3195.485
372.5916, 3186.195
373.0737, 3182.110
373.5558, 3185.934
374.0380, 3190.872
374.5201, 3192.607
375.0022, 3188.928
375.4843, 3189.813
375.9664, 3197.630
376.4485, 3208.357
376.9307, 3213.816
377.4128, 3212.917
377.8949, 3211.189
378.3770, 3211.397
378.8591, 3213.299
379.3412, 3211.448
379.8234, 3205.288
380.3055, 3197.372
380.7876, 3189.758
381.2697, 3182.499
381.7518, 3177.405
382.2339, 3174.479
382.7161, 3174.392
383.1982, 3181.575
383.6803, 3195.637
384.1624, 3206.556
384.6445, 3204.499
385.1266, 3193.593
385.6088, 3183.853
386.0909, 3176.802
386.5730, 3171.215
387.0551, 3164.783
387.5372, 3158.585
388.0193, 3155.637
388.5015, 3159.545
388.9836, 3166.464
389.4657, 3172.666
389.9478, 3177.942
390.4299, 3182.459
390.9120, 3186.490
391.3942, 3189.779
391.8763, 3191.930
392.3584, 3190.894
392.8405, 3190.526
393.3226, 3194.418
393.8047, 3201.292
394.2869, 3205.272
394.7690, 3199.213
395.2511, 3192.879
395.7332, 3193.043
396.2154, 3205.277
396.6975, 3214.576
397.1796, 3214.719
397.6617, 3210.513
398.1438, 3210.194
398.6259, 3219.860
399.1081, 3228.619
399.5902, 3233.436
400.0723, 3233.886
400.5544, 3232.990
401.0365, 3228.679
401.5186, 3224.480
402.0008, 3223.449
402.4829, 3227.375
402.9650, 3231.011
403.4471, 3234.078
403.9292, 3236.396
404.4113, 3237.027
404.8935, 3235.375
405.3756, 3233.428
405.8577, 3232.231
406.3398, 3231.929
406.8219, 3231.178
407.3040, 3229.252
407.7862, 3228.356
408.2683, 3232.668
408.7504, 3242.408
409.2325, 3251.432
409.7146, 3257.325
410.1967, 3261.045
410.6789, 3265.882
411.1610, 3271.878
411.6431, 3278.853
412.1252, 3288.216
412.6073, 3298.526
413.0894, 3304.913
413.5716, 3304.990
414.0537, 3303.732
414.5358, 3306.841
415.0179, 3313.581
415.5000, 3321.725
415.9821, 3329.829
416.4643, 3338.651
416.9464, 3350.639
417.4285, 3366.271
417.9106, 3378.033
418.3927, 3377.332
418.8748, 3371.193
419.3570, 3367.985
419.8391, 3373.405
420.3212, 3379.474
420.8033, 3384.821
421.2854, 3388.691
421.7675, 3387.738
422.2497, 3378.173
422.7318, 3365.689
423.2139, 3353.004
423.6960, 3339.589
424.1781, 3328.046
424.6602, 3319.458
425.1424, 3312.820
425.6245, 3306.743
426.1066, 3301.038
426.5887, 3296.281
427.0709, 3293.646
427.5530, 3293.107
428.0351, 3288.104
428.5172, 3274.845
428.9993, 3262.157
429.4814, 3256.844
429.9636, 3260.815
430.4457, 3264.895
430.9278, 3268.752
431.4099, 3271.875
431.8920, 3273.290
432.3741, 3273.027
432.8563, 3270.785
433.3384, 3264.764
433.8205, 3256.002
434.3026, 3252.574
434.7847, 3254.975
435.2668, 3258.530
435.7490, 3257.735
436.2311, 3253.948
436.7132, 3252.057
437.1953, 3253.666
437.6774, 3257.306
438.1595, 3261.292
438.6417, 3265.671
439.1238, 3270.624
439.6059, 3277.955
440.0880, 3285.075
440.5701, 3289.546
441.0522, 3291.195
441.5344, 3289.645
442.0165, 3279.947
442.4986, 3268.461
442.9807, 3263.042
443.4628, 3272.884
443.9449, 3282.805
444.4271, 3287.247
444.9092, 3286.704
445.3913, 3284.523
445.8734, 3276.031
446.3555, 3270.304
446.8376, 3272.859
447.3198, 3291.547
447.8019, 3303.570
448.2840, 3304.597
448.7661, 3300.284
449.2482, 3298.348
449.7303, 3300.034
450.2125, 3302.023
450.6946, 3303.487
451.1767, 3304.550
451.6588, 3307.213
452.1409, 3312.578
452.6230, 3317.080
453.1052, 3317.953
453.5873, 3314.994
454.0694, 3311.033
454.5515, 3305.996
455.0337, 3300.650
455.5158, 3295.887
455.9979, 3291.730
456.4800, 3289.394
456.9621, 3290.898
457.4442, 3294.109
457.9264, 3293.395
458.4085, 3288.912
458.8906, 3284.363
459.3727, 3283.628
459.8548, 3284.658
460.3369, 3283.669
460.8191, 3278.472
461.3012, 3274.452
461.7833, 3276.846
462.2654, 3283.614
462.7475, 3290.453
463.2296, 3297.790
463.7118, 3302.883
464.1939, 3302.855
464.6760, 3297.458
465.1581, 3293.714
465.6402, 3297.052
466.1223, 3300.827
466.6045, 3300.294
467.0866, 3287.310
467.5687, 3279.194
468.0508, 3278.891
468.5329, 3283.778
469.0150, 3288.262
469.4972, 3292.482
469.9793, 3296.049
470.4614, 3299.192
470.9435, 3302.038
471.4256, 3301.670
471.9077, 3296.762
472.3899, 3291.398
472.8720, 3289.197
473.3541, 3290.348
473.8362, 3292.749
474.3183, 3296.428
474.8004, 3300.739
475.2826, 3304.883
475.7647, 3308.773
476.2468, 3311.270
476.7289, 3311.444
477.2110, 3309.837
477.6931, 3306.576
478.1753, 3301.656
478.6574, 3298.728
479.1395, 3302.615
479.6216, 3309.897
480.1037, 3315.707
480.5858, 3319.077
481.0680, 3320.219
481.5501, 3318.227
482.0322, 3314.210
482.5143, 3310.463
482.9964, 3305.088
483.4786, 3302.671
483.9607, 3307.826
484.4428, 3321.590
484.9249, 3330.053
485.4070, 3324.299
485.8892, 3316.198
486.3713, 3314.386
486.8534, 3328.189
487.3355, 3334.570
487.8176, 3329.534
488.2997, 3317.902
488.7819, 3309.206
489.2640, 3302.616
489.7461, 3301.065
490.2282, 3307.516
490.7103, 3321.214
491.1924, 3327.742
491.6746, 3325.820
492.1567, 3322.049
492.6388, 3322.688
493.1209, 3327.061
493.6030, 3328.970
494.0851, 3327.017
494.5673, 3323.936
495.0494, 3324.317
495.5315, 3327.128
496.0136, 3328.654
496.4957, 3325.786
496.9778, 3321.577
497.4600, 3319.071
497.9421, 3318.277
498.4242, 3318.716
498.9063, 3322.204
499.3884, 3325.633
499.8705, 3325.441
500.3527, 3317.982
500.8348, 3314.318
501.3169, 3322.315
501.7990, 3335.435
502.2811, 3344.540
502.7632, 3345.331
503.2454, 3344.761
503.7275, 3343.450
504.2096, 3341.641
504.6917, 3342.099
505.1738, 3347.704
505.6559, 3351.753
506.1381, 3349.593
506.6202, 3338.362
507.1023, 3332.945
507.5844, 3334.294
508.0665, 3339.794
508.5486, 3347.375
509.0308, 3357.170
509.5129, 3363.603
509.9950, 3363.711
510.4771, 3361.061
510.9592, 3364.237
511.4413, 3372.579
511.9235, 3380.364
512.4056, 3383.294
512.8877, 3383.549
513.3698, 3383.797
513.8519, 3384.098
514.3340, 3386.161
514.8162, 3392.482
515.2983, 3400.830
515.7804, 3408.637
516.2625, 3416.392
516.7446, 3421.981
517.2267, 3422.938
517.7089, 3421.099
518.1910, 3420.892
518.6731, 3424.370
519.1552, 3428.708
519.6373, 3432.980
520.1194, 3437.148
520.6016, 3441.798
521.0837, 3447.168
521.5658, 3452.632
522.0479, 3457.669
522.5300, 3461.990
523.0121, 3466.829
523.4943, 3472.795
523.9764, 3478.548
524.4585, 3481.006
524.9406, 3480.036
525.4227, 3479.997
525.9048, 3482.630
526.3870, 3487.192
526.8691, 3492.301
527.3513, 3497.933
527.8334, 3503.208
528.3155, 3508.830
528.7976, 3513.295
529.2797, 3513.184
529.7618, 3507.121
530.2440, 3502.630
530.7261, 3506.672
531.2082, 3514.927
531.6903, 3521.787
532.1724, 3521.771
532.6545, 3523.984
533.1367, 3532.786
533.6188, 3546.441
534.1009, 3559.034
534.5830, 3569.559
535.0651, 3578.893
535.5472, 3586.444
536.0294, 3591.581
536.5115, 3600.735
536.9936, 3617.060
537.4757, 3633.043
537.9578, 3641.391
538.4399, 3640.567
538.9221, 3642.396
539.4042, 3648.444
539.8863, 3657.041
540.3684, 3665.020
540.8505, 3672.561
541.3326, 3681.982
541.8148, 3695.296
542.2969, 3710.362
542.7790, 3723.777
543.2611, 3735.589
543.7432, 3746.636
544.2253, 3755.685
544.7075, 3765.219
545.1896, 3779.405
545.6717, 3800.345
546.1538, 3817.133
546.6359, 3818.393
547.1180, 3815.285
547.6002, 3819.648
548.0823, 3842.588
548.5644, 3863.597
549.0465, 3878.842
549.5286, 3889.575
550.0107, 3899.273
550.4929, 3906.593
550.9750, 3914.848
551.4571, 3925.300
551.9392, 3937.989
552.4213, 3950.695
552.9034, 3964.085
553.3856, 3975.602
553.8677, 3981.910
554.3498, 3983.571
554.8319, 3988.264
555.3140, 3997.691
555.7961, 4006.773
556.2783, 4007.104
556.7604, 4001.521
557.2425, 3998.014
557.7246, 4000.279
558.2067, 4005.188
558.6888, 4010.605
559.1710, 4016.333
559.6531, 4021.552
560.1352, 4022.716
560.6173, 4025.763
561.0994, 4036.364
561.5815, 4056.491
562.0637, 4070.659
562.5458, 4070.057
563.0279, 4066.122
563.5100, 4067.225
563.9921, 4076.061
564.4742, 4085.435
564.9564, 4096.048
565.4385, 4106.327
565.9206, 4112.479
566.4027, 4112.950
566.8848, 4116.781
567.3669, 4127.458
567.8491, 4142.773
568.3312, 4155.521
568.8133, 4165.725
569.2954, 4175.509
569.7775, 4186.737
570.2596, 4198.277
570.7418, 4207.956
571.2239, 4215.753
571.7060, 4221.766
572.1881, 4228.273
572.6702, 4232.136
573.1523, 4229.636
573.6345, 4217.967
574.1166, 4203.292
574.5987, 4185.992
575.0808, 4167.682
575.5629, 4150.716
576.0450, 4136.702
576.5272, 4123.256
577.0093, 4112.293
577.4914, 4102.517
577.9735, 4083.265
578.4556, 4049.134
578.9377, 4017.123
579.4199, 3997.472
579.9020, 3990.806
580.3841, 3974.891
580.8662, 3948.228
581.3483, 3920.918
581.8304, 3904.298
582.3126, 3895.838
582.7947, 3886.137
583.2768, 3872.432
583.7589, 3860.192
584.2410, 3858.018
584.7231, 3861.318
585.2053, 3861.018
585.6874, 3848.803
586.1696, 3835.997
586.6517, 3828.260
587.1338, 3824.935
587.6159, 3823.007
588.0980, 3823.295
588.5801, 3823.251
589.0623, 3821.045
589.5444, 3815.833
590.0265, 3814.229
590.5086, 3819.223
590.9907, 3824.053
591.4728, 3823.385
591.9550, 3816.679
592.4371, 3807.871
592.9192, 3796.441
593.4013, 3785.367
593.8834, 3780.052
594.3655, 3779.644
594.8477, 3778.750
595.3298, 3777.079
595.8119, 3772.391
596.2940, 3756.929
596.7761, 3734.864
597.2582, 3719.686
597.7404, 3728.552
598.2225, 3739.079
598.7046, 3732.598
599.1867, 3708.307
599.6688, 3689.224
600.1509, 3687.454
600.6331, 3688.964
601.1152, 3684.665
601.5973, 3669.790
602.0794, 3659.748
602.5615, 3657.856
603.0436, 3657.693
603.5258, 3651.573
604.0079, 3638.284
604.4900, 3625.359
604.9721, 3612.988
605.4542, 3603.371
605.9363, 3603.702
606.4185, 3612.750
606.9006, 3619.145
607.3827, 3614.249
607.8648, 3605.854
608.3469, 3607.005
608.8290, 3615.956
609.3112, 3622.799
609.7933, 3620.857
610.2754, 3615.134
610.7575, 3607.870
611.2396, 3598.733
611.7217, 3593.848
612.2039, 3597.452
612.6860, 3604.352
613.1681, 3610.772
613.6502, 3617.281
614.1323, 3621.976
614.6144, 3625.219
615.0966, 3626.196
615.5787, 3622.958
616.0608, 3614.725
616.5429, 3607.265
617.0250, 3601.526
617.5071, 3597.873
617.9893, 3599.489
618.4714, 3605.401
618.9535, 3607.771
619.4356, 3597.991
619.9177, 3584.921
620.3998, 3580.858
620.8820, 3585.052
621.3641, 3589.282
621.8462, 3587.562
622.3283, 3585.106
622.8104, 3586.112
623.2925, 3592.159
623.7747, 3597.192
624.2568, 3598.344
624.7389, 3599.091
625.2210, 3602.498
625.7031, 3611.075
626.1852, 3616.665
626.6674, 3618.460
627.1495, 3617.434
627.6316, 3613.888
628.1137, 3607.597
628.5958, 3604.477
629.0779, 3606.967
629.5601, 3612.813
630.0422, 3618.926
630.5243, 3624.877
631.0064, 3628.742
631.4885, 3626.784
631.9706, 3624.110
632.4528, 3626.275
632.9349, 3632.997
633.4170, 3639.150
633.8991, 3641.873
634.3812, 3643.839
634.8633, 3646.740
635.3455, 3651.119
635.8276, 3655.070
636.3097, 3657.120
636.7918, 3660.005
637.2739, 3666.616
637.7560, 3678.288
638.2382, 3687.944
638.7203, 3694.918
639.2024, 3699.567
639.6845, 3702.908
640.1666, 3704.664
640.6487, 3702.714
641.1309, 3695.199
641.6130, 3685.221
642.0951, 3676.374
642.5772, 3668.568
643.0594, 3662.014
643.5415, 3657.825
644.0236, 3653.941
644.5057, 3648.018
644.9879, 3640.559
645.4700, 3636.425
645.9521, 3639.461
646.4342, 3643.789
646.9163, 3647.636
647.3984, 3651.666
647.8806, 3650.831
648.3627, 3642.775
648.8448, 3634.495
649.3269, 3631.249
649.8090, 3633.120
650.2911, 3640.279
650.7733, 3654.792
651.2554, 3665.968
651.7375, 3655.733
652.2196, 3632.449
652.7017, 3616.509
653.1838, 3614.448
653.6660, 3619.523
654.1481, 3630.208
654.6302, 3643.716
655.1123, 3655.306
655.5944, 3663.828
656.0765, 3669.466
656.5587, 3671.552
657.0408, 3670.450
657.5229, 3667.760
658.0050, 3660.453
658.4871, 3656.742
658.9692, 3660.253
659.4514, 3670.309
659.9335, 3680.516
660.4156, 3691.186
660.8977, 3699.242
661.3798, 3700.341
661.8619, 3697.244
662.3441, 3698.802
662.8262, 3705.728
663.3083, 3710.141
663.7904, 3703.080
664.2725, 3691.475
664.7546, 3682.561
665.2368, 3677.482
665.7189, 3676.212
666.2010, 3681.925
666.6831, 3690.066
667.1652, 3695.491
667.6473, 3698.686
668.1295, 3697.856
668.6116, 3690.522
669.0937, 3680.882
669.5758, 3679.085
670.0579, 3686.522
670.5400, 3687.510
671.0222, 3674.221
671.5043, 3655.087
671.9864, 3648.012
672.4685, 3651.165
672.9506, 3655.667
673.4327, 3658.635
673.9149, 3659.124
674.3970, 3653.717
674.8791, 3643.656
675.3612, 3638.050
675.8433, 3647.201
676.3254, 3656.048
676.8076, 3655.498
677.2897, 3643.054
677.7718, 3634.878
678.2539, 3633.010
678.7360, 3632.842
679.2181, 3630.525
679.7003, 3625.423
680.1824, 3627.419
680.6645, 3638.645
681.1466, 3649.306
681.6287, 3645.897
682.1108, 3633.300
682.5930, 3624.898
683.0751, 3623.300
683.5572, 3626.093
684.0393, 3636.198
684.5214, 3647.836
685.0035, 3652.841
685.4857, 3639.598
685.9678, 3629.718
686.4499, 3630.682
686.9320, 3638.451
687.4141, 3644.190
687.8962, 3648.372
688.3784, 3649.225
688.8605, 3644.850
689.3426, 3637.542
689.8247, 3635.928
690.3068, 3640.257
690.7889, 3644.254
691.2711, 3644.879
691.7532, 3643.154
692.2353, 3639.615
692.7174, 3634.906
693.1995, 3632.848
693.6816, 3640.612
694.1638, 3648.343
694.6459, 3646.007
695.1280, 3632.318
695.6101, 3624.999
696.0922, 3634.938
696.5743, 3647.095
697.0565, 3653.490
697.5386, 3653.040
698.0207, 3651.169
698.5028, 3646.675
698.9849, 3643.402
699.4670, 3646.468
699.9492, 3655.031
700.4313, 3659.712
700.9135, 3658.900
701.3956, 3656.865
701.8777, 3657.710
702.3598, 3660.531
702.8419, 3663.830
703.3240, 3667.100
703.8062, 3670.770
704.2883, 3676.178
704.7704, 3681.714
705.2525, 3684.958
705.7346, 3683.128
706.2167, 3681.987
706.6989, 3681.703
707.1810, 3682.671
707.6631, 3686.534
708.1452, 3694.077
708.6273, 3699.658
709.1094, 3700.755
709.5916, 3699.760
710.0737, 3702.706
710.5558, 3708.814
711.0379, 3714.056
711.5200, 3714.996
712.0021, 3715.026
712.4843, 3717.473
712.9664, 3721.857
713.4485, 3725.605
713.9306, 3726.872
714.4127, 3727.956
714.8948, 3730.069
715.3770, 3733.257
715.8591, 3735.411
716.3412, 3735.956
716.8233, 3736.615
717.3054, 3739.598
717.7875, 3744.649
718.2697, 3742.125
718.7518, 3731.338
719.2339, 3722.427
719.7160, 3728.198
720.1981, 3740.103
720.6802, 3743.297
721.1624, 3735.210
721.6445, 3727.436
722.1266, 3728.853
722.6087, 3732.428
723.0908, 3731.578
723.5729, 3720.214
724.0551, 3715.191
724.5372, 3721.200
725.0193, 3730.099
725.5014, 3733.596
725.9835, 3730.906
726.4656, 3727.270
726.9478, 3722.665
727.4299, 3718.651
727.9120, 3717.231
728.3941, 3718.206
728.8762, 3721.344
729.3583, 3727.411
729.8405, 3733.768
730.3226, 3737.991
730.8047, 3741.075
731.2868, 3744.532
731.7689, 3751.165
732.2510, 3755.503
732.7332, 3753.530
733.2153, 3749.042
733.6974, 3749.964
734.1795, 3758.217
734.6616, 3766.812
735.1437, 3774.197
735.6259, 3780.603
736.1080, 3786.694
736.5901, 3792.376
737.0722, 3796.865
737.5543, 3799.878
738.0364, 3801.391
738.5186, 3797.959
739.0007, 3792.260
739.4828, 3793.775
739.9649, 3818.467
740.4470, 3839.903
740.9291, 3842.067
741.4113, 3826.445
741.8934, 3822.682
742.3755, 3838.236
742.8576, 3852.132
743.3397, 3853.849
743.8218, 3845.790
744.3040, 3849.470
744.7861, 3865.175
745.2682, 3880.751
745.7503, 3885.030
746.2324, 3885.113
746.7145, 3894.339
747.1967, 3912.396
747.6788, 3926.716
748.1609, 3924.297
748.6430, 3920.390
749.1251, 3926.400
749.6072, 3946.376
750.0894, 3960.231
750.5715, 3964.322
751.0536, 3966.184
751.5357, 3970.759
752.0178, 3978.532
752.4999, 3984.076
752.9821, 3987.602
753.4642, 3987.843
753.9463, 3980.471
754.4284, 3969.656
754.9105, 3964.764
755.3926, 3967.516
755.8748, 3969.873
756.3569, 3967.313
756.8390, 3961.532
757.3211, 3953.598
757.8032, 3941.796
758.2853, 3932.208
758.7675, 3926.653
759.2496, 3921.868
759.7318, 3914.579
760.2139, 3904.409
760.6960, 3895.227
761.1781, 3887.464
761.6602, 3880.625
762.1423, 3873.878
762.6245, 3867.642
763.1066, 3863.656
763.5887, 3863.652
764.0708, 3861.434
764.5529, 3848.275
765.0350, 3832.313
765.5172, 3823.184
765.9993, 3833.725
766.4814, 3836.187
766.9635, 3822.742
767.4456, 3805.385
767.9277, 3800.552
768.4099, 3810.059
768.8920, 3820.065
769.3741, 3829.209
769.8562, 3835.973
770.3383, 3837.538
770.8204, 3835.022
771.3026, 3831.278
771.7847, 3826.573
772.2668, 3822.141
772.7489, 3817.538
773.2310, 3814.167
773.7131, 3814.246
774.1953, 3825.649
774.6774, 3830.697
775.1595, 3823.970
775.6416, 3812.220
776.1237, 3808.249
776.6058, 3813.057
777.0880, 3818.104
777.5701, 3821.577
778.0522, 3823.775
778.5343, 3825.380
779.0164, 3826.074
779.4985, 3824.822
779.9807, 3817.974
780.4628, 3812.922
780.9449, 3816.075
781.4270, 3824.048
781.9091, 3829.883
782.3912, 3831.956
782.8734, 3831.673
783.3555, 3827.212
783.8376, 3821.474
784.3197, 3822.381
784.8018, 3830.519
785.2839, 3839.208
785.7661, 3847.726
786.2482, 3853.749
786.7303, 3850.542
787.2124, 3841.290
787.6945, 3834.968
788.1766, 3838.585
788.6588, 3843.337
789.1409, 3844.333
789.6230, 3842.951
790.1051, 3843.229
790.5872, 3845.398
791.0693, 3849.696
791.5515, 3857.480
792.0336, 3866.754
792.5157, 3870.465
792.9978, 3868.593
793.4799, 3868.627
793.9620, 3874.448
794.4442, 3882.405
794.9263, 3887.701
795.4084, 3890.755
795.8905, 3892.821
796.3726, 3893.151
796.8547, 3893.913
797.3369, 3895.146
797.8190, 3897.473
798.3011, 3903.050
798.7832, 3914.557
799.2653, 3923.993
799.7474, 3929.591
800.2296, 3931.666
800.7117, 3929.735
801.1938, 3924.259
801.6759, 3920.353
802.1580, 3920.498
802.6401, 3922.962
803.1223, 3926.607
803.6044, 3931.076
804.0865, 3935.320
804.5686, 3939.919
805.0507, 3943.348
805.5328, 3943.572
806.0150, 3942.484
806.4971, 3945.486
806.9792, 3954.390
807.4613, 3961.451
807.9434, 3963.584
808.4255, 3963.613
808.9077, 3969.359
809.3898, 3979.270
809.8719, 3986.487
810.3540, 3986.980
810.8361, 3984.547
811.3182, 3979.643
811.8004, 3974.163
812.2825, 3972.525
812.7646, 3978.213
813.2467, 3985.260
813.7288, 3994.490
814.2109, 4003.616
814.6931, 4004.973
815.1752, 3997.295
815.6573, 3994.450
816.1394, 4001.894
816.6215, 4013.894
817.1037, 4021.825
817.5858, 4026.485
818.0679, 4030.154
818.5500, 4034.065
819.0322, 4036.872
819.5143, 4035.906
819.9964, 4033.546
820.4785, 4035.311
820.9606, 4046.228
821.4427, 4051.702
821.9249, 4047.607
822.4070, 4038.844
822.8891, 4035.756
823.3712, 4037.841
823.8533, 4039.463
824.3354, 4038.639
824.8176, 4037.669
825.2997, 4039.079
825.7818, 4042.257
826.2639, 4046.073
826.7460, 4056.033
827.2281, 4059.598
827.7103, 4045.634
828.1924, 4027.631
828.6745, 4025.118
829.1566, 4043.642
829.6387, 4054.886
830.1208, 4053.316
830.6030, 4046.177
831.0851, 4042.092
831.5672, 4041.434
832.0493, 4047.152
832.5314, 4064.291
833.0135, 4076.288
833.4957, 4063.079
833.9778, 4041.982
834.4599, 4033.171
834.9420, 4056.904
835.4241, 4069.619
835.9063, 4066.812
836.3884, 4058.387
836.8705, 4055.370
837.3526, 4057.693
837.8347, 4062.338
838.3168, 4069.417
838.7990, 4076.512
839.2811, 4081.774
839.7632, 4085.252
840.2453, 4086.358
840.7274, 4083.680
841.2095, 4083.104
841.6917, 4088.889
842.1738, 4095.878
842.6559, 4100.484
843.1380, 4103.136
843.6201, 4100.253
844.1022, 4089.686
844.5844, 4080.994
845.0665, 4087.208
845.5486, 4102.045
846.0307, 4107.271
846.5128, 4101.162
846.9949, 4093.104
847.4771, 4088.365
847.9592, 4084.977
848.4413, 4082.286
848.9234, 4081.045
849.4055, 4074.463
849.8876, 4056.747
850.3698, 4042.889
850.8519, 4043.620
851.3340, 4057.516
851.8161, 4068.440
852.2982, 4076.336
852.7803, 4078.413
853.2625, 4066.938
853.7446, 4052.283
854.2267, 4046.051
854.7088, 4048.075
855.1909, 4049.641
855.6730, 4046.476
856.1552, 4043.948
856.6373, 4044.426
857.1194, 4047.517
857.6015, 4050.393
858.0836, 4053.472
858.5657, 4053.581
859.0479, 4047.690
859.5300, 4038.976
860.0121, 4032.924
860.4942, 4029.335
860.9763, 4027.573
861.4584, 4029.277
861.9406, 4030.809
862.4227, 4029.860
862.9048, 4027.312
863.3869, 4026.181
863.8690, 4025.995
864.3511, 4028.665
864.8333, 4035.863
865.3154, 4044.568
865.7975, 4049.303
866.2796, 4050.194
866.7617, 4047.588
867.2438, 4038.998
867.7260, 4031.305
868.2081, 4031.439
868.6902, 4035.305
869.1723, 4036.496
869.6544, 4031.064
870.1365, 4026.266
870.6187, 4021.266
871.1008, 4018.445
871.5829, 4023.256
872.0650, 4035.129
872.5471, 4041.667
873.0292, 4040.682
873.5114, 4035.920
873.9935, 4027.572
874.4756, 4019.431
874.9577, 4017.221
875.4399, 4024.630
875.9220, 4029.572
876.4041, 4025.795
876.8862, 4021.289
877.3683, 4021.372
877.8505, 4026.853
878.3326, 4031.434
878.8147, 4035.094
879.2968, 4037.622
879.7789, 4037.720
880.2610, 4036.962
880.7432, 4038.409
881.2253, 4042.142
881.7074, 4045.140
882.1895, 4045.455
882.6716, 4045.170
883.1537, 4046.247
883.6359, 4048.491
884.1180, 4045.339
884.6001, 4034.628
885.0822, 4027.753
885.5643, 4031.710
886.0464, 4042.450
886.5286, 4051.575
887.0107, 4059.045
887.4928, 4064.676
887.9749, 4066.963
888.4570, 4068.630
888.9391, 4070.826
889.4213, 4073.455
889.9034, 4076.306
890.3855, 4080.070
890.8676, 4082.127
891.3497, 4081.377
891.8318, 4079.455
892.3140, 4077.583
892.7961, 4076.887
893.2782, 4083.070
893.7603, 4101.646
894.2424, 4118.358
894.7245, 4120.339
895.2067, 4115.169
895.6888, 4112.110
896.1709, 4114.888
896.6530, 4115.886
897.1351, 4113.204
897.6172, 4111.725
898.0994, 4118.897
898.5815, 4132.927
899.0636, 4139.006
899.5457, 4135.243
900.0278, 4131.933
900.5099, 4139.940
900.9921, 4150.719
901.4742, 4155.777
901.9563, 4153.130
902.4384, 4152.831
902.9205, 4156.629
903.4026, 4162.017
903.8848, 4169.000
904.3669, 4176.858
904.8490, 4179.323
905.3311, 4176.516
905.8132, 4172.776
906.2953, 4169.497
906.7775, 4167.458
907.2596, 4168.614
907.7417, 4171.808
908.2238, 4173.075
908.7059, 4166.924
909.1880, 4164.626
909.6702, 4171.282
910.1523, 4181.460
910.6344, 4180.121
911.1165, 4167.608
911.5986, 4160.213
912.0807, 4163.875
912.5629, 4170.664
913.0450, 4172.398
913.5271, 4171.023
914.0092, 4169.199
914.4913, 4165.729
914.9734, 4165.660
915.4556, 4173.728
915.9377, 4181.618
916.4198, 4180.172
916.9019, 4168.502
917.3840, 4165.300
917.8661, 4172.655
918.3483, 4177.569
918.8304, 4161.896
919.3125, 4140.574
919.7946, 4134.005
920.2767, 4144.440
920.7589, 4151.903
921.2410, 4148.310
921.7231, 4142.480
922.2052, 4136.790
922.6873, 4131.610
923.1694, 4130.978
923.6516, 4134.988
924.1337, 4139.599
924.6158, 4143.953
925.0979, 4146.717
925.5800, 4145.032
926.0621, 4140.333
926.5443, 4136.225
927.0264, 4133.247
927.5085, 4131.962
927.9906, 4132.924
928.4727, 4135.202
928.9548, 4138.124
929.4370, 4141.861
929.9191, 4141.091
930.4012, 4133.790
930.8833, 4126.755
931.3654, 4129.249
931.8475, 4136.065
932.3297, 4139.625
932.8118, 4136.888
933.2939, 4136.569
933.7761, 4144.481
934.2582, 4151.460
934.7403, 4151.484
935.2224, 4144.323
935.7045, 4138.572
936.1866, 4134.183
936.6688, 4130.767
937.1509, 4127.862
937.6330, 4125.937
938.1151, 4126.761
938.5972, 4129.528
939.0793, 4129.993
939.5615, 4124.396
940.0436, 4119.497
940.5257, 4117.069
941.0078, 4116.526
941.4899, 4117.848
941.9720, 4120.806
942.4542, 4117.458
942.9363, 4101.991
943.4184, 4087.978
943.9005, 4092.495
944.3826, 4106.756
944.8647, 4118.817
945.3469, 4125.609
945.8290, 4129.887
946.3111, 4130.970
946.7932, 4130.967
947.2753, 4131.224
947.7574, 4131.811
948.2396, 4134.495
948.7217, 4139.378
949.2038, 4144.155
949.6859, 4149.247
950.1680, 4151.850
950.6501, 4148.083
951.1323, 4138.251
951.6144, 4130.135
952.0965, 4124.580
952.5786, 4120.907
953.0607, 4118.232
953.5428, 4117.756
954.0250, 4126.040
954.5071, 4141.036
954.9892, 4150.473
955.4713, 4146.764
955.9534, 4140.617
956.4355, 4139.862
956.9177, 4141.736
957.3998, 4142.163
957.8819, 4138.832
958.3640, 4137.581
958.8461, 4139.049
959.3282, 4141.648
959.8104, 4144.001
960.2925, 4146.099
960.7746, 4146.960
961.2567, 4146.567
961.7388, 4148.531
962.2209, 4159.813
962.7031, 4170.374
963.1852, 4171.368
963.6673, 4163.239
964.1494, 4161.134
964.6315, 4166.874
965.1136, 4172.218
965.5958, 4173.866
966.0779, 4173.360
966.5600, 4172.743
967.0421, 4172.644
967.5242, 4175.042
968.0063, 4186.079
968.4885, 4192.362
968.9706, 4183.530
969.4527, 4170.206
969.9348, 4165.899
970.4169, 4173.305
970.8990, 4175.753
971.3812, 4171.257
971.8633, 4167.617
972.3454, 4175.513
972.8275, 4187.789
973.3096, 4193.130
973.7917, 4190.545
974.2739, 4189.036
974.7560, 4194.892
975.2381, 4198.754
975.7202, 4195.430
976.2023, 4187.267
976.6844, 4187.088
977.1666, 4194.806
977.6487, 4201.758
978.1308, 4204.347
978.6129, 4204.804
979.0950, 4204.061
979.5771, 4203.244
980.0593, 4204.157
980.5414, 4207.557
981.0235, 4212.826
981.5056, 4222.031
981.9877, 4230.070
982.4698, 4230.167
982.9520, 4223.965
983.4341, 4222.248
983.9162, 4225.641
984.3983, 4230.240
984.8804, 4235.114
985.3625, 4238.551
985.8447, 4238.563
986.3268, 4235.279
986.8089, 4232.765
987.2910, 4230.072
987.7731, 4231.662
988.2552, 4241.409
988.7374, 4253.080
989.2195, 4249.625
989.7016, 4237.765
990.1837, 4235.917
990.6658, 4257.557
991.1479, 4275.588
991.6301, 4274.064
992.1122, 4266.558
992.5944, 4266.781
993.0765, 4276.777
993.5586, 4282.542
994.0407, 4283.397
994.5228, 4284.155
995.0049, 4289.338
995.4871, 4296.380
995.9692, 4301.457
996.4513, 4304.924
996.9334, 4310.202
997.4155, 4322.403
997.8976, 4331.087
998.3798, 4331.551
998.8619, 4328.520
999.3440, 4335.653
999.8261, 4351.471
1000.308, 4361.022
1000.790, 4358.994
1001.272, 4354.562
1001.755, 4354.377
1002.237, 4356.450
1002.719, 4358.748
1003.201, 4361.018
1003.683, 4363.773
1004.165, 4367.657
1004.647, 4370.572
1005.129, 4369.855
1005.612, 4367.476
1006.094, 4369.375
1006.576, 4374.987
1007.058, 4381.591
1007.540, 4390.689
1008.022, 4397.286
1008.504, 4398.471
1008.986, 4396.227
1009.468, 4392.401
1009.951, 4386.073
1010.433, 4387.568
1010.915, 4400.331
1011.397, 4412.181
1011.879, 4406.188
1012.361, 4392.857
1012.843, 4384.343
1013.325, 4382.513
1013.807, 4385.439
1014.290, 4396.772
1014.772, 4406.649
1015.254, 4410.995
1015.736, 4410.385
1016.218, 4405.493
1016.700, 4397.296
1017.182, 4391.351
1017.664, 4389.797
1018.147, 4391.747
1018.629, 4400.532
1019.111, 4410.937
1019.593, 4414.507
1020.075, 4407.352
1020.557, 4405.962
1021.039, 4412.906
1021.521, 4418.167
1022.003, 4408.362
1022.486, 4391.890
1022.968, 4384.152
1023.450, 4385.413
1023.932, 4387.699
1024.414, 4388.627
1024.896, 4389.156
1025.378, 4388.665
1025.860, 4388.458
1026.343, 4393.796
1026.825, 4404.003
1027.307, 4410.600
1027.789, 4410.458
1028.271, 4408.682
1028.753, 4410.905
1029.235, 4413.398
1029.717, 4411.378
1030.199, 4401.993
1030.682, 4396.596
1031.164, 4396.847
1031.646, 4396.292
1032.128, 4388.999
1032.610, 4378.605
1033.092, 4375.471
1033.574, 4377.835
1034.056, 4379.326
1034.539, 4371.908
1035.021, 4369.583
1035.503, 4382.518
1035.985, 4399.070
1036.467, 4403.067
1036.949, 4394.144
1037.431, 4385.306
1037.913, 4377.905
1038.396, 4371.747
1038.878, 4365.287
1039.360, 4360.906
1039.842, 4362.976
1040.324, 4371.628
1040.806, 4372.998
1041.288, 4362.503
1041.770, 4354.143
1042.252, 4352.667
1042.734, 4355.382
1043.217, 4357.205
1043.699, 4358.607
1044.181, 4361.186
1044.663, 4367.069
1045.145, 4370.298
1045.627, 4365.975
1046.109, 4360.180
1046.591, 4356.770
1047.074, 4355.684
1047.556, 4360.542
1048.038, 4371.416
1048.520, 4379.489
1049.002, 4376.311
1049.484, 4370.054
1049.966, 4367.530
1050.448, 4367.663
1050.931, 4366.839
1051.413, 4362.284
1051.895, 4362.406
1052.377, 4369.329
1052.859, 4378.198
1053.341, 4384.604
1053.823, 4388.200
1054.305, 4386.657
1054.787, 4379.695
1055.270, 4375.611
1055.752, 4381.995
1056.234, 4387.770
1056.716, 4387.659
1057.198, 4383.393
1057.680, 4381.710
1058.162, 4382.448
1058.644, 4383.107
1059.126, 4382.283
1059.609, 4382.602
1060.091, 4386.943
1060.573, 4393.358
1061.055, 4400.357
1061.537, 4409.324
1062.019, 4412.055
1062.501, 4407.204
1062.983, 4401.265
1063.466, 4397.880
1063.948, 4396.740
1064.430, 4398.047
1064.912, 4401.140
1065.394, 4403.963
1065.876, 4403.664
1066.358, 4406.209
1066.840, 4414.776
1067.323, 4423.882
1067.805, 4424.669
1068.287, 4418.987
1068.769, 4421.528
1069.251, 4433.371
1069.733, 4444.671
1070.215, 4448.764
1070.697, 4449.583
1071.179, 4448.693
1071.661, 4446.491
1072.144, 4444.107
1072.626, 4441.515
1073.108, 4438.322
1073.590, 4433.354
1074.072, 4431.231
1074.554, 4442.000
1075.036, 4457.243
1075.518, 4464.695
1076.001, 4459.403
1076.483, 4461.061
1076.965, 4477.142
1077.447, 4487.792
1077.929, 4479.694
1078.411, 4460.604
1078.893, 4450.944
1079.375, 4449.601
1079.858, 4453.158
1080.340, 4463.560
1080.822, 4473.694
1081.304, 4480.797
1081.786, 4486.603
1082.268, 4492.659
1082.750, 4498.913
1083.232, 4503.606
1083.714, 4506.722
1084.197, 4508.224
1084.679, 4504.411
1085.161, 4502.462
1085.643, 4512.638
1086.125, 4508.484
1086.607, 4531.765
1087.089, 4513.759
1087.571, 4506.568
1088.054, 4516.942
1088.536, 4531.085
1089.018, 4534.071
1089.500, 4529.726
1089.982, 4520.107
1090.464, 4505.328
1090.946, 4501.978
1091.428, 4522.404
1091.911, 4539.228
1092.393, 4542.822
1092.875, 4538.686
1093.357, 4540.578
1093.839, 4545.964
1094.321, 4545.925
1094.803, 4535.228
1095.285, 4527.952
1095.767, 4534.824
1096.250, 4543.942
1096.732, 4547.297
1097.214, 4545.222
1097.696, 4543.993
1098.178, 4543.639
1098.660, 4544.419
1099.142, 4546.679
1099.624, 4549.896
1100.106, 4555.260
1100.589, 4560.708
1101.071, 4562.610
1101.553, 4558.938
1102.035, 4558.610
1102.517, 4562.216
1102.999, 4566.789
1103.481, 4569.722
1103.963, 4572.177
1104.446, 4575.476
1104.928, 4579.572
1105.410, 4584.400
1105.892, 4593.977
1106.374, 4596.058
1106.856, 4585.591
1107.338, 4573.540
1107.820, 4575.668
1108.302, 4587.559
1108.785, 4600.536
1109.267, 4613.472
1109.749, 4621.322
1110.231, 4615.693
1110.713, 4612.099
1111.195, 4617.489
1111.677, 4628.080
1112.159, 4634.179
1112.641, 4636.006
1113.124, 4633.778
1113.606, 4626.212
1114.088, 4620.604
1114.570, 4624.456
1115.052, 4630.236
1115.534, 4632.071
1116.016, 4630.058
1116.498, 4627.535
1116.981, 4624.503
1117.463, 4619.959
1117.945, 4612.318
1118.427, 4604.737
1118.909, 4599.741
1119.391, 4597.026
1119.873, 4596.305
1120.355, 4597.528
1120.838, 4601.267
1121.320, 4608.782
1121.802, 4613.155
1122.284, 4606.079
1122.766, 4595.106
1123.248, 4592.287
1123.730, 4595.077
1124.212, 4596.397
1124.694, 4591.810
1125.177, 4589.533
1125.659, 4591.010
1126.141, 4593.319
1126.623, 4591.812
1127.105, 4589.072
1127.587, 4592.741
1128.069, 4602.440
1128.551, 4612.283
1129.033, 4623.481
1129.516, 4628.837
1129.998, 4623.242
1130.480, 4614.425
1130.962, 4618.314
1131.444, 4631.398
1131.926, 4634.141
1132.408, 4623.374
1132.890, 4612.808
1133.373, 4611.178
1133.855, 4612.257
1134.337, 4612.439
1134.819, 4612.439
1135.301, 4615.846
1135.783, 4622.499
1136.265, 4627.022
1136.747, 4627.893
1137.229, 4626.960
1137.712, 4622.471
1138.194, 4619.323
1138.676, 4624.622
1139.158, 4638.286
1139.640, 4640.576
1140.122, 4630.238
1140.604, 4620.270
1141.086, 4614.635
1141.569, 4613.969
1142.051, 4622.579
1142.533, 4634.739
1143.015, 4642.886
1143.497, 4645.285
1143.979, 4644.578
1144.461, 4639.486
1144.943, 4636.318
1145.426, 4640.398
1145.908, 4647.482
1146.390, 4651.875
1146.872, 4653.749
1147.354, 4653.554
1147.836, 4647.621
1148.318, 4645.688
1148.800, 4648.917
1149.282, 4653.935
1149.765, 4660.150
1150.247, 4665.279
1150.729, 4661.191
1151.211, 4650.661
1151.693, 4645.352
1152.175, 4654.343
1152.657, 4663.173
1153.139, 4670.666
1153.621, 4675.392
1154.104, 4674.495
1154.586, 4669.499
1155.068, 4664.108
1155.550, 4658.956
1156.032, 4657.983
1156.514, 4669.274
1156.996, 4676.984
1157.478, 4673.736
1157.961, 4666.623
1158.443, 4668.837
1158.925, 4678.861
1159.407, 4688.629
1159.889, 4696.968
1160.371, 4704.637
1160.853, 4714.175
1161.335, 4720.712
1161.818, 4721.214
1162.300, 4717.253
1162.782, 4712.717
1163.264, 4707.636
1163.746, 4702.380
1164.228, 4696.897
1164.710, 4691.852
1165.192, 4686.337
1165.674, 4682.770
1166.156, 4683.884
1166.639, 4688.739
1167.121, 4691.854
1167.603, 4693.259
1168.085, 4694.344
1168.567, 4695.896
1169.049, 4696.399
1169.531, 4691.791
1170.013, 4687.394
1170.496, 4689.940
1170.978, 4699.563
1171.460, 4703.587
1171.942, 4701.612
1172.424, 4700.902
1172.906, 4704.918
1173.388, 4710.992
1173.870, 4717.827
1174.353, 4724.368
1174.835, 4729.070
1175.317, 4731.759
1175.799, 4733.975
1176.281, 4735.776
1176.763, 4737.097
1177.245, 4737.821
1177.727, 4738.242
1178.209, 4738.575
1178.692, 4738.908
1179.174, 4739.353
1179.656, 4739.655
1180.138, 4740.713
1180.620, 4742.536
1181.102, 4744.905
1181.584, 4747.697
1182.066, 4750.866
1182.548, 4753.272
1183.031, 4756.125
1183.513, 4762.904
1183.995, 4778.967
1184.477, 4786.352
1184.959, 4782.201
1185.441, 4777.996
1185.923, 4788.474
1186.405, 4801.992
1186.888, 4798.768
1187.370, 4783.927
1187.852, 4777.275
1188.334, 4787.345
1188.816, 4795.449
1189.298, 4800.095
1189.780, 4801.832
1190.262, 4801.159
1190.745, 4797.905
1191.227, 4787.652
1191.709, 4773.240
1192.191, 4771.029
1192.673, 4796.739
1193.155, 4808.969
1193.637, 4799.259
1194.119, 4782.747
1194.601, 4776.810
1195.084, 4776.468
1195.566, 4773.007
1196.048, 4766.395
1196.530, 4763.962
1197.012, 4767.421
1197.494, 4775.201
1197.976, 4789.279
1198.458, 4802.132
1198.941, 4800.034
1199.423, 4790.654
1199.905, 4786.576
1200.387, 4789.083
1200.869, 4794.489
1201.351, 4805.962
1201.833, 4811.810
1202.315, 4807.769
1202.797, 4799.720
1203.280, 4795.185
1203.762, 4794.200
1204.244, 4798.428
1204.726, 4808.515
1205.208, 4814.000
1205.690, 4809.800
1206.172, 4808.038
1206.654, 4812.805
1207.136, 4821.043
1207.619, 4830.880
1208.101, 4838.995
1208.583, 4837.937
1209.065, 4824.727
1209.547, 4815.229
1210.029, 4808.955
1210.511, 4812.667
1210.993, 4833.701
1211.476, 4858.167
1211.958, 4856.426
1212.440, 4841.454
1212.922, 4837.387
1213.404, 4851.509
1213.886, 4863.107
1214.368, 4870.517
1214.850, 4873.424
1215.333, 4869.723
1215.815, 4864.488
1216.297, 4867.094
1216.779, 4874.949
1217.261, 4884.057
1217.743, 4894.963
1218.225, 4901.301
1218.707, 4901.617
1219.189, 4900.237
1219.672, 4898.555
1220.154, 4897.108
1220.636, 4896.593
1221.118, 4897.120
1221.600, 4899.021
1222.082, 4902.853
1222.564, 4906.343
1223.046, 4908.728
1223.528, 4912.821
1224.011, 4922.083
1224.493, 4931.508
1224.975, 4930.305
1225.457, 4923.847
1225.939, 4921.632
1226.421, 4927.740
1226.903, 4933.352
1227.385, 4938.640
1227.868, 4942.579
1228.350, 4944.788
1228.832, 4945.065
1229.314, 4940.455
1229.796, 4934.581
1230.278, 4934.188
1230.760, 4943.786
1231.242, 4949.198
1231.724, 4949.640
1232.207, 4949.813
1232.689, 4953.898
1233.171, 4957.741
1233.653, 4954.948
1234.135, 4948.573
1234.617, 4943.589
1235.099, 4940.426
1235.581, 4939.540
1236.063, 4941.071
1236.546, 4944.560
1237.028, 4953.775
1237.510, 4960.607
1237.992, 4950.077
1238.474, 4933.815
1238.956, 4932.799
1239.438, 4952.924
1239.920, 4965.483
1240.403, 4969.819
1240.885, 4972.728
1241.367, 4979.696
1241.849, 4985.597
1242.331, 4982.582
1242.813, 4977.098
1243.295, 4978.994
1243.777, 4989.767
1244.260, 5001.779
1244.742, 5015.153
1245.224, 5022.585
1245.706, 5014.962
1246.188, 5005.006
1246.670, 5000.409
1247.152, 4999.348
1247.634, 4998.906
1248.116, 4999.049
1248.599, 5001.808
1249.081, 5006.987
1249.563, 5011.119
1250.045, 5011.900
1250.527, 5011.317
1251.009, 5008.988
1251.491, 5006.848
1251.973, 5007.099
1252.455, 5009.585
1252.938, 5011.323
1253.420, 5012.367
1253.902, 5013.667
1254.384, 5017.390
1254.866, 5019.320
1255.348, 5017.362
1255.830, 5013.623
1256.313, 5007.849
1256.795, 5001.496
1257.277, 5004.886
1257.759, 5016.672
1258.241, 5029.324
1258.723, 5045.599
1259.205, 5052.872
1259.687, 5045.755
1260.169, 5034.753
1260.651, 5026.568
1261.134, 5022.288
1261.616, 5028.837
1262.098, 5042.769
1262.580, 5052.380
1263.062, 5050.617
1263.544, 5048.186
1264.026, 5047.286
1264.508, 5043.218
1264.991, 5026.750
1265.473, 5007.406
1265.955, 5005.183
1266.437, 5015.319
1266.919, 5024.932
1267.401, 5032.121
1267.883, 5036.050
1268.365, 5036.494
1268.848, 5034.915
1269.330, 5030.261
1269.812, 5025.990
1270.294, 5027.350
1270.776, 5032.321
1271.258, 5036.667
1271.740, 5040.933
1272.222, 5040.835
1272.704, 5035.847
1273.187, 5030.104
1273.669, 5022.833
1274.151, 5019.543
1274.633, 5031.844
1275.115, 5048.105
1275.597, 5048.884
1276.079, 5030.622
1276.561, 5019.683
1277.043, 5016.240
1277.526, 5019.089
1278.008, 5036.171
1278.490, 5049.555
1278.972, 5043.743
1279.454, 5032.393
1279.936, 5029.674
1280.418, 5035.307
1280.900, 5039.381
1281.383, 5042.107
1281.865, 5045.079
1282.347, 5048.428
1282.829, 5053.109
1283.311, 5062.684
1283.793, 5069.585
1284.275, 5064.966
1284.757, 5053.116
1285.240, 5052.806
1285.722, 5061.275
1286.204, 5069.611
1286.686, 5073.632
1287.168, 5079.512
1287.650, 5089.998
1288.132, 5097.792
1288.614, 5096.741
1289.096, 5090.391
1289.578, 5083.546
1290.061, 5077.550
1290.543, 5075.386
1291.025, 5080.357
1291.507, 5082.354
1291.989, 5080.213
1292.471, 5080.379
1292.953, 5089.010
1293.435, 5098.603
1293.918, 5098.399
1294.400, 5104.112
1294.882, 5095.368
1295.364, 5103.791
1295.846, 5103.444
1296.328, 5094.186
1296.810, 5091.827
1297.292, 5109.428
1297.775, 5125.284
1298.257, 5121.517
1298.739, 5109.665
1299.221, 5099.229
1299.703, 5090.695
1300.185, 5092.706
1300.667, 5103.277
1301.149, 5109.672
1301.631, 5104.437
1302.114, 5099.231
1302.596, 5103.425
##END=



