##NAMES=Proto-ferro-suenoite
##RRUFFID=R061000
##IDEAL CHEMISTRY=[box]Mn^2+^_2_Fe^2+^_5_Si_8_O_22_(OH)_2_
##LOCALITY=Yokoneyama, Tochigi, Japan
##OWNER=RRUFF
##SOURCE=Michael Scott
##DESCRIPTION=Gray prismatic to fibrous associated with pyroxmangite R060999
##STATUS=The identification of this mineral has been made only by X-ray diffraction.
##URL=rruff.info/R061000
135.0214, 2486.354
135.5035, 2498.805
135.9856, 2522.485
136.4677, 2558.715
136.9499, 2601.714
137.4320, 2646.026
137.9141, 2691.843
138.3962, 2736.866
138.8783, 2782.043
139.3604, 2827.597
139.8426, 2864.774
140.3247, 2888.136
140.8068, 2908.190
141.2889, 2948.141
141.7710, 3017.846
142.2531, 3086.300
142.7353, 3139.211
143.2174, 3169.230
143.6995, 3201.680
144.1816, 3241.543
144.6637, 3284.930
145.1458, 3312.223
145.6280, 3321.116
146.1101, 3316.229
146.5922, 3299.866
147.0743, 3266.121
147.5564, 3229.422
148.0385, 3188.285
148.5207, 3142.260
149.0028, 3106.483
149.4849, 3091.105
149.9670, 3081.386
150.4491, 3063.694
150.9312, 3030.842
151.4134, 2997.420
151.8955, 2963.048
152.3776, 2922.790
152.8597, 2899.947
153.3418, 2910.516
153.8239, 2936.932
154.3061, 2952.818
154.7882, 2945.019
155.2703, 2934.445
155.7524, 2927.648
156.2345, 2921.604
156.7166, 2925.812
157.1988, 2950.011
157.6809, 2986.955
158.1630, 3016.583
158.6451, 3023.677
159.1272, 3027.309
159.6093, 3038.541
160.0915, 3062.035
160.5736, 3090.793
161.0557, 3123.723
161.5378, 3160.458
162.0199, 3198.896
162.5020, 3239.273
162.9841, 3280.333
163.4663, 3321.413
163.9484, 3359.923
164.4305, 3400.277
164.9126, 3444.841
165.3947, 3493.820
165.8768, 3545.433
166.3590, 3604.270
166.8411, 3664.197
167.3232, 3717.367
167.8053, 3751.838
168.2874, 3783.684
168.7695, 3826.246
169.2517, 3882.859
169.7338, 3941.314
170.2159, 3997.933
170.6980, 4049.795
171.1801, 4092.771
171.6622, 4125.053
172.1444, 4146.934
172.6265, 4157.646
173.1086, 4154.685
173.5907, 4145.359
174.0728, 4139.473
174.5549, 4134.442
175.0371, 4119.131
175.5192, 4076.195
176.0013, 4019.912
176.4834, 3974.081
176.9655, 3951.935
177.4476, 3935.891
177.9298, 3900.424
178.4119, 3846.332
178.8940, 3794.886
179.3761, 3767.688
179.8582, 3756.128
180.3403, 3738.005
180.8225, 3699.943
181.3046, 3652.958
181.7867, 3615.743
182.2688, 3588.890
182.7509, 3568.345
183.2330, 3551.925
183.7152, 3539.183
184.1973, 3526.814
184.6794, 3513.659
185.1615, 3499.824
185.6436, 3486.044
186.1257, 3472.151
186.6079, 3458.368
187.0900, 3444.890
187.5721, 3431.722
188.0542, 3418.912
188.5363, 3405.517
189.0184, 3392.216
189.5006, 3381.730
189.9827, 3374.516
190.4648, 3369.972
190.9469, 3367.114
191.4290, 3366.012
191.9111, 3366.554
192.3932, 3370.333
192.8754, 3376.869
193.3575, 3379.739
193.8396, 3377.465
194.3217, 3371.759
194.8038, 3366.880
195.2859, 3362.934
195.7681, 3359.359
196.2502, 3353.825
196.7323, 3346.256
197.2144, 3345.669
197.6965, 3355.998
198.1786, 3374.142
198.6608, 3387.193
199.1429, 3394.224
199.6250, 3399.027
200.1071, 3404.849
200.5892, 3411.655
201.0714, 3419.334
201.5535, 3427.442
202.0356, 3436.083
202.5177, 3446.917
202.9998, 3459.514
203.4819, 3474.858
203.9641, 3495.313
204.4462, 3522.521
204.9283, 3546.605
205.4104, 3563.603
205.8925, 3573.173
206.3746, 3583.967
206.8568, 3597.161
207.3389, 3610.147
207.8210, 3617.381
208.3031, 3616.491
208.7852, 3618.619
209.2673, 3629.303
209.7495, 3650.655
210.2316, 3669.984
210.7137, 3688.957
211.1958, 3704.815
211.6779, 3710.926
212.1600, 3704.271
212.6422, 3695.960
213.1243, 3690.922
213.6064, 3689.974
214.0885, 3689.684
214.5706, 3691.571
215.0527, 3693.205
215.5349, 3687.121
216.0170, 3670.458
216.4991, 3651.469
216.9812, 3634.742
217.4633, 3621.794
217.9454, 3605.902
218.4276, 3582.736
218.9097, 3556.387
219.3918, 3545.645
219.8739, 3559.931
220.3560, 3575.207
220.8381, 3575.366
221.3203, 3554.872
221.8024, 3533.475
222.2845, 3512.963
222.7666, 3493.356
223.2487, 3475.128
223.7308, 3459.224
224.2129, 3443.803
224.6951, 3427.536
225.1772, 3410.031
225.6593, 3391.947
226.1414, 3371.493
226.6235, 3349.050
227.1056, 3334.552
227.5878, 3332.702
228.0699, 3333.314
228.5520, 3326.626
229.0341, 3307.812
229.5162, 3291.276
229.9983, 3280.546
230.4805, 3276.133
230.9626, 3268.424
231.4447, 3256.411
231.9268, 3242.034
232.4089, 3227.504
232.8910, 3212.526
233.3732, 3197.370
233.8553, 3180.504
234.3374, 3160.418
234.8195, 3150.349
235.3016, 3154.981
235.7837, 3166.064
236.2659, 3173.845
236.7480, 3179.597
237.2301, 3179.813
237.7122, 3171.976
238.1943, 3153.778
238.6764, 3139.649
239.1586, 3128.163
239.6407, 3121.594
240.1228, 3125.131
240.6049, 3149.417
241.0870, 3166.035
241.5691, 3163.134
242.0513, 3131.764
242.5334, 3114.873
243.0155, 3117.320
243.4976, 3131.464
243.9797, 3145.002
244.4618, 3159.001
244.9440, 3170.063
245.4261, 3175.847
245.9082, 3172.862
246.3903, 3175.599
246.8724, 3188.282
247.3545, 3204.691
247.8367, 3212.387
248.3188, 3209.232
248.8009, 3200.820
249.2830, 3187.761
249.7651, 3165.862
250.2472, 3151.837
250.7294, 3146.929
251.2115, 3149.621
251.6936, 3157.963
252.1757, 3179.052
252.6578, 3194.847
253.1399, 3196.826
253.6220, 3177.864
254.1042, 3163.209
254.5863, 3153.566
255.0684, 3148.116
255.5505, 3146.338
256.0326, 3153.707
256.5147, 3155.465
256.9969, 3142.340
257.4790, 3104.045
257.9611, 3078.374
258.4432, 3069.395
258.9253, 3072.357
259.4074, 3074.027
259.8896, 3074.750
260.3717, 3073.351
260.8538, 3068.573
261.3359, 3058.519
261.8180, 3050.846
262.3001, 3047.471
262.7823, 3046.112
263.2644, 3038.537
263.7465, 3021.042
264.2286, 3004.813
264.7107, 2996.920
265.1928, 2999.590
265.6750, 3002.157
266.1571, 3003.558
266.6392, 3004.694
267.1213, 3009.569
267.6034, 3021.112
268.0855, 3029.789
268.5677, 3027.742
269.0498, 3010.834
269.5319, 3002.752
270.0140, 3007.904
270.4961, 3021.854
270.9782, 3031.010
271.4604, 3035.201
271.9425, 3035.432
272.4246, 3030.744
272.9067, 3019.692
273.3888, 3012.574
273.8709, 3010.845
274.3531, 3013.234
274.8352, 3016.636
275.3173, 3021.504
275.7994, 3025.594
276.2815, 3027.284
276.7636, 3026.351
277.2458, 3024.191
277.7279, 3019.221
278.2100, 3014.318
278.6921, 3020.487
279.1742, 3040.610
279.6563, 3057.461
280.1385, 3054.746
280.6206, 3031.800
281.1027, 3023.450
281.5848, 3039.206
282.0669, 3066.331
282.5490, 3069.582
283.0312, 3045.902
283.5133, 3022.301
283.9954, 3019.055
284.4775, 3035.340
284.9596, 3047.557
285.4417, 3052.657
285.9239, 3052.951
286.4060, 3051.768
286.8881, 3048.929
287.3702, 3048.936
287.8523, 3055.376
288.3344, 3067.726
288.8166, 3082.693
289.2987, 3101.818
289.7808, 3120.292
290.2629, 3129.089
290.7450, 3128.233
291.2271, 3121.741
291.7093, 3106.188
292.1914, 3085.548
292.6735, 3077.905
293.1556, 3088.197
293.6377, 3107.042
294.1198, 3121.647
294.6020, 3132.227
295.0841, 3139.770
295.5662, 3142.548
296.0483, 3142.885
296.5304, 3148.324
297.0125, 3161.811
297.4947, 3175.510
297.9768, 3173.313
298.4589, 3159.144
298.9410, 3152.753
299.4231, 3177.232
299.9052, 3216.047
300.3873, 3234.453
300.8694, 3223.572
301.3516, 3206.070
301.8337, 3206.269
302.3158, 3220.796
302.7979, 3237.721
303.2800, 3255.055
303.7621, 3269.050
304.2443, 3272.150
304.7264, 3260.283
305.2085, 3249.403
305.6906, 3256.579
306.1727, 3276.288
306.6548, 3295.043
307.1370, 3310.044
307.6191, 3318.538
308.1012, 3313.992
308.5833, 3292.986
309.0654, 3274.453
309.5475, 3277.519
310.0297, 3292.845
310.5118, 3303.084
310.9939, 3293.451
311.4760, 3279.836
311.9581, 3274.517
312.4402, 3279.661
312.9224, 3286.847
313.4045, 3293.914
313.8866, 3299.576
314.3687, 3301.787
314.8508, 3300.165
315.3329, 3294.577
315.8151, 3282.825
316.2972, 3263.692
316.7793, 3248.068
317.2614, 3240.127
317.7435, 3238.244
318.2256, 3240.485
318.7078, 3256.203
319.1899, 3267.165
319.6720, 3262.373
320.1541, 3240.154
320.6362, 3223.664
321.1183, 3217.081
321.6005, 3220.460
322.0826, 3233.965
322.5647, 3280.054
323.0468, 3314.039
323.5289, 3316.125
324.0110, 3284.875
324.4932, 3267.103
324.9753, 3285.486
325.4574, 3311.811
325.9395, 3324.561
326.4216, 3299.113
326.9037, 3284.860
327.3859, 3290.691
327.8680, 3316.157
328.3501, 3344.374
328.8322, 3382.278
329.3143, 3417.546
329.7964, 3442.223
330.2786, 3441.931
330.7607, 3451.960
331.2428, 3483.236
331.7249, 3529.908
332.2070, 3556.418
332.6891, 3549.217
333.1713, 3537.376
333.6534, 3536.840
334.1355, 3550.358
334.6176, 3570.030
335.0997, 3600.847
335.5818, 3636.495
336.0640, 3654.549
336.5461, 3644.509
337.0282, 3637.016
337.5103, 3650.309
337.9924, 3690.936
338.4745, 3723.145
338.9567, 3746.217
339.4388, 3759.579
339.9209, 3760.877
340.4030, 3748.292
340.8851, 3731.374
341.3672, 3710.973
341.8494, 3686.380
342.3315, 3678.865
342.8136, 3693.977
343.2957, 3715.426
343.7778, 3715.986
344.2599, 3695.277
344.7421, 3673.631
345.2242, 3659.391
345.7063, 3651.739
346.1884, 3647.233
346.6705, 3645.720
347.1526, 3647.770
347.6348, 3658.936
348.1169, 3676.354
348.5990, 3684.703
349.0811, 3669.963
349.5632, 3644.301
350.0453, 3633.573
350.5275, 3638.083
351.0096, 3648.377
351.4917, 3662.051
351.9738, 3675.193
352.4559, 3678.005
352.9380, 3658.678
353.4202, 3634.939
353.9023, 3629.617
354.3844, 3641.204
354.8665, 3655.926
355.3486, 3662.350
355.8307, 3666.852
356.3129, 3679.021
356.7950, 3709.320
357.2771, 3736.809
357.7592, 3739.191
358.2413, 3723.650
358.7234, 3716.579
359.2056, 3735.792
359.6877, 3766.754
360.1698, 3798.276
360.6519, 3827.971
361.1340, 3858.418
361.6161, 3890.739
362.0982, 3924.730
362.5804, 3960.017
363.0625, 3998.534
363.5446, 4036.650
364.0267, 4072.377
364.5088, 4104.868
364.9909, 4137.205
365.4731, 4170.148
365.9552, 4203.611
366.4373, 4237.453
366.9194, 4270.557
367.4015, 4305.230
367.8836, 4344.214
368.3658, 4390.036
368.8479, 4428.456
369.3300, 4453.503
369.8121, 4474.022
370.2942, 4498.140
370.7763, 4529.635
371.2585, 4559.646
371.7406, 4588.100
372.2227, 4614.550
372.7048, 4633.885
373.1869, 4645.511
373.6690, 4650.206
374.1512, 4646.567
374.6333, 4629.221
375.1154, 4620.303
375.5975, 4628.714
376.0796, 4645.974
376.5617, 4637.367
377.0439, 4598.501
377.5260, 4548.893
378.0081, 4501.798
378.4902, 4457.536
378.9723, 4403.115
379.4544, 4335.295
379.9366, 4260.195
380.4187, 4181.043
380.9008, 4097.922
381.3829, 4031.967
381.8650, 4008.619
382.3471, 4014.580
382.8293, 3989.915
383.3114, 3928.057
383.7935, 3856.903
384.2756, 3805.159
384.7577, 3770.775
385.2398, 3745.663
385.7220, 3729.603
386.2041, 3718.745
386.6862, 3709.428
387.1683, 3701.406
387.6504, 3688.647
388.1325, 3660.288
388.6147, 3624.865
389.0968, 3596.621
389.5789, 3578.571
390.0610, 3570.448
390.5431, 3581.622
391.0252, 3606.752
391.5074, 3619.980
391.9895, 3597.217
392.4716, 3562.659
392.9537, 3536.950
393.4358, 3527.564
393.9179, 3521.253
394.4001, 3510.433
394.8822, 3498.959
395.3643, 3495.380
395.8464, 3510.855
396.3285, 3527.670
396.8106, 3539.774
397.2928, 3549.640
397.7749, 3545.451
398.2570, 3507.495
398.7391, 3460.168
399.2212, 3435.749
399.7033, 3461.010
400.1855, 3480.149
400.6676, 3479.691
401.1497, 3458.129
401.6318, 3443.721
402.1139, 3437.871
402.5960, 3437.843
403.0782, 3443.208
403.5603, 3459.859
404.0424, 3466.599
404.5245, 3456.604
405.0066, 3434.962
405.4887, 3425.021
405.9709, 3431.082
406.4530, 3435.922
406.9351, 3425.213
407.4172, 3397.756
407.8993, 3383.150
408.3814, 3387.549
408.8636, 3398.585
409.3457, 3389.514
409.8278, 3361.305
410.3099, 3341.451
410.7920, 3351.863
411.2741, 3381.573
411.7563, 3395.598
412.2384, 3392.137
412.7205, 3381.897
413.2026, 3370.003
413.6847, 3359.438
414.1668, 3358.451
414.6490, 3379.375
415.1311, 3404.146
415.6132, 3410.310
416.0953, 3399.737
416.5774, 3389.085
417.0595, 3392.437
417.5417, 3399.652
418.0238, 3399.242
418.5059, 3383.026
418.9880, 3367.981
419.4701, 3360.264
419.9522, 3360.389
420.4344, 3369.857
420.9165, 3410.066
421.3986, 3443.364
421.8807, 3446.107
422.3628, 3402.795
422.8449, 3372.842
423.3270, 3377.135
423.8091, 3397.734
424.2913, 3412.204
424.7734, 3421.112
425.2555, 3420.470
425.7376, 3404.082
426.2197, 3371.328
426.7018, 3352.258
427.1840, 3352.228
427.6661, 3359.978
428.1482, 3368.073
428.6303, 3377.737
429.1124, 3384.907
429.5945, 3390.242
430.0767, 3392.389
430.5588, 3384.762
431.0409, 3363.992
431.5230, 3346.556
432.0051, 3345.572
432.4872, 3360.537
432.9694, 3359.839
433.4515, 3338.293
433.9336, 3314.406
434.4157, 3320.110
434.8978, 3350.747
435.3799, 3371.312
435.8621, 3362.414
436.3442, 3336.476
436.8263, 3315.381
437.3084, 3299.118
437.7905, 3291.140
438.2726, 3301.962
438.7548, 3321.121
439.2369, 3331.552
439.7190, 3325.122
440.2011, 3314.485
440.6832, 3306.055
441.1653, 3300.964
441.6475, 3302.690
442.1296, 3323.890
442.6117, 3344.832
443.0938, 3349.678
443.5759, 3330.549
444.0580, 3317.827
444.5402, 3328.758
445.0223, 3349.518
445.5044, 3363.189
445.9865, 3362.119
446.4686, 3358.513
446.9507, 3356.076
447.4329, 3354.960
447.9150, 3348.036
448.3971, 3329.589
448.8792, 3310.434
449.3613, 3295.904
449.8434, 3282.497
450.3256, 3282.366
450.8077, 3301.546
451.2898, 3331.772
451.7719, 3352.326
452.2540, 3362.030
452.7361, 3365.322
453.2183, 3363.087
453.7004, 3355.405
454.1825, 3345.605
454.6646, 3333.186
455.1467, 3320.854
455.6288, 3311.165
456.1110, 3304.230
456.5931, 3301.320
457.0752, 3304.422
457.5573, 3310.538
458.0394, 3314.249
458.5215, 3315.898
459.0037, 3317.919
459.4858, 3320.810
459.9679, 3325.589
460.4500, 3335.000
460.9321, 3352.232
461.4142, 3366.057
461.8964, 3362.594
462.3785, 3350.711
462.8606, 3347.047
463.3427, 3371.904
463.8248, 3395.258
464.3069, 3396.654
464.7891, 3373.668
465.2712, 3361.323
465.7533, 3382.568
466.2354, 3410.042
466.7175, 3422.568
467.1996, 3398.658
467.6818, 3382.728
468.1639, 3380.365
468.6460, 3388.256
469.1281, 3395.326
469.6102, 3401.925
470.0923, 3406.946
470.5745, 3408.729
471.0566, 3405.428
471.5387, 3410.090
472.0208, 3427.051
472.5029, 3444.622
472.9850, 3446.544
473.4672, 3431.957
473.9493, 3417.137
474.4314, 3404.766
474.9135, 3396.329
475.3956, 3398.785
475.8777, 3412.107
476.3599, 3424.771
476.8420, 3424.912
477.3241, 3418.520
477.8062, 3419.995
478.2883, 3433.697
478.7704, 3447.567
479.2526, 3445.201
479.7347, 3434.262
480.2168, 3431.111
480.6989, 3448.680
481.1810, 3471.966
481.6631, 3494.081
482.1453, 3514.389
482.6274, 3526.751
483.1095, 3516.405
483.5916, 3503.613
484.0737, 3504.270
484.5558, 3542.554
485.0379, 3567.583
485.5201, 3561.588
486.0022, 3537.069
486.4843, 3527.846
486.9664, 3547.280
487.4485, 3566.008
487.9306, 3574.741
488.4128, 3572.117
488.8949, 3569.699
489.3770, 3566.489
489.8591, 3565.367
490.3412, 3569.576
490.8233, 3579.578
491.3055, 3591.714
491.7876, 3605.563
492.2697, 3620.752
492.7518, 3637.698
493.2339, 3656.138
493.7160, 3672.566
494.1982, 3686.986
494.6803, 3697.366
495.1624, 3693.563
495.6445, 3672.297
496.1266, 3657.467
496.6087, 3680.596
497.0909, 3723.559
497.5730, 3755.662
498.0551, 3756.697
498.5372, 3750.776
499.0193, 3753.149
499.5014, 3762.024
499.9836, 3768.871
500.4657, 3762.162
500.9478, 3758.438
501.4299, 3768.046
501.9120, 3797.687
502.3941, 3827.642
502.8763, 3857.709
503.3584, 3885.643
503.8405, 3908.247
504.3226, 3920.605
504.8047, 3934.905
505.2868, 3953.958
505.7690, 3976.975
506.2511, 3998.796
506.7332, 4019.551
507.2153, 4038.441
507.6974, 4057.317
508.1795, 4076.281
508.6617, 4081.232
509.1438, 4067.673
509.6259, 4049.286
510.1080, 4046.558
510.5901, 4057.513
511.0722, 4070.709
511.5544, 4088.878
512.0365, 4102.149
512.5186, 4085.190
513.0007, 4042.207
513.4828, 4011.776
513.9650, 4033.390
514.4471, 4075.025
514.9292, 4103.104
515.4113, 4108.354
515.8934, 4106.536
516.3755, 4101.387
516.8576, 4094.752
517.3397, 4089.515
517.8218, 4094.424
518.3040, 4092.795
518.7861, 4077.379
519.2682, 4047.462
519.7503, 4019.528
520.2324, 3988.818
520.7145, 3964.817
521.1967, 3955.552
521.6788, 3970.012
522.1609, 3972.969
522.6430, 3961.391
523.1251, 3940.099
523.6072, 3915.044
524.0894, 3885.564
524.5715, 3861.664
525.0536, 3848.916
525.5357, 3843.805
526.0178, 3833.956
526.4999, 3819.344
526.9821, 3806.415
527.4642, 3802.014
527.9463, 3802.289
528.4284, 3801.213
528.9105, 3798.514
529.3926, 3791.732
529.8748, 3775.207
530.3569, 3753.723
530.8390, 3735.804
531.3211, 3726.144
531.8032, 3719.638
532.2853, 3714.374
532.7675, 3710.316
533.2496, 3707.708
533.7317, 3711.079
534.2138, 3712.627
534.6959, 3707.357
535.1780, 3688.218
535.6602, 3676.865
536.1423, 3678.046
536.6244, 3683.410
537.1065, 3678.748
537.5886, 3659.217
538.0707, 3646.924
538.5529, 3649.954
539.0350, 3664.048
539.5171, 3668.440
539.9992, 3662.131
540.4813, 3659.545
540.9634, 3678.736
541.4456, 3709.765
541.9277, 3720.680
542.4098, 3705.915
542.8919, 3685.167
543.3740, 3677.674
543.8561, 3678.433
544.3383, 3678.699
544.8204, 3670.297
545.3025, 3664.837
545.7846, 3673.579
546.2667, 3692.578
546.7488, 3705.218
547.2310, 3701.999
547.7131, 3694.123
548.1952, 3686.102
548.6773, 3677.252
549.1594, 3671.773
549.6415, 3669.975
550.1237, 3671.395
550.6058, 3676.368
551.0879, 3687.409
551.5700, 3695.106
552.0521, 3697.051
552.5342, 3695.375
553.0164, 3696.538
553.4985, 3700.846
553.9806, 3704.974
554.4627, 3710.680
554.9448, 3715.228
555.4269, 3702.776
555.9091, 3672.092
556.3912, 3645.935
556.8733, 3652.048
557.3554, 3675.425
557.8375, 3691.334
558.3196, 3691.659
558.8018, 3686.567
559.2839, 3680.454
559.7660, 3674.145
560.2481, 3669.232
560.7302, 3668.056
561.2123, 3666.682
561.6945, 3661.950
562.1766, 3653.351
562.6587, 3650.426
563.1408, 3660.315
563.6229, 3669.877
564.1050, 3671.188
564.5872, 3659.899
565.0693, 3651.921
565.5514, 3649.300
566.0335, 3647.942
566.5156, 3637.436
566.9977, 3616.640
567.4799, 3609.660
567.9620, 3634.133
568.4441, 3671.018
568.9262, 3666.292
569.4083, 3623.550
569.8904, 3582.193
570.3726, 3572.097
570.8547, 3577.623
571.3368, 3576.883
571.8189, 3566.435
572.3010, 3559.321
572.7831, 3566.991
573.2653, 3581.214
573.7474, 3592.703
574.2295, 3606.270
574.7116, 3608.784
575.1937, 3587.640
575.6758, 3551.971
576.1580, 3532.222
576.6401, 3538.440
577.1222, 3548.497
577.6043, 3557.141
578.0864, 3564.650
578.5685, 3566.511
579.0507, 3561.434
579.5328, 3554.289
580.0149, 3547.172
580.4970, 3540.430
580.9791, 3540.253
581.4612, 3548.042
581.9434, 3560.389
582.4255, 3575.878
582.9076, 3592.288
583.3897, 3602.823
583.8718, 3601.107
584.3539, 3594.867
584.8361, 3590.176
585.3182, 3586.765
585.8003, 3583.243
586.2824, 3576.020
586.7645, 3570.749
587.2466, 3572.154
587.7288, 3583.871
588.2109, 3591.053
588.6930, 3586.636
589.1751, 3580.248
589.6572, 3580.291
590.1393, 3590.034
590.6215, 3599.579
591.1036, 3609.660
591.5857, 3617.864
592.0678, 3616.856
592.5499, 3605.812
593.0320, 3594.318
593.5142, 3585.184
593.9963, 3578.936
594.4784, 3579.251
594.9605, 3585.888
595.4426, 3591.375
595.9247, 3586.073
596.4069, 3577.817
596.8890, 3578.170
597.3711, 3591.200
597.8532, 3604.282
598.3353, 3610.748
598.8174, 3613.185
599.2996, 3614.807
599.7817, 3617.450
600.2638, 3618.118
600.7459, 3609.013
601.2280, 3596.206
601.7101, 3603.901
602.1923, 3646.047
602.6744, 3685.486
603.1565, 3708.907
603.6386, 3716.465
604.1207, 3713.078
604.6028, 3696.167
605.0850, 3679.205
605.5671, 3673.055
606.0492, 3677.007
606.5313, 3691.303
607.0134, 3719.835
607.4955, 3744.239
607.9777, 3735.166
608.4598, 3708.296
608.9419, 3694.144
609.4240, 3718.298
609.9061, 3746.685
610.3882, 3761.940
610.8704, 3766.051
611.3525, 3766.207
611.8346, 3755.390
612.3167, 3749.236
612.7988, 3757.941
613.2809, 3785.784
613.7631, 3799.307
614.2452, 3791.143
614.7273, 3779.380
615.2094, 3778.023
615.6915, 3787.812
616.1736, 3802.983
616.6558, 3825.195
617.1379, 3847.517
617.6200, 3857.034
618.1021, 3856.293
618.5842, 3857.954
619.0663, 3867.915
619.5485, 3881.115
620.0306, 3891.007
620.5127, 3898.750
620.9948, 3909.276
621.4769, 3933.728
621.9590, 3954.806
622.4412, 3955.448
622.9233, 3930.264
623.4054, 3924.240
623.8875, 3965.486
624.3696, 4015.105
624.8517, 4047.085
625.3339, 4052.529
625.8160, 4059.825
626.2981, 4070.590
626.7802, 4082.078
627.2623, 4090.302
627.7444, 4095.235
628.2266, 4097.484
628.7087, 4094.534
629.1908, 4092.052
629.6729, 4103.667
630.1550, 4127.106
630.6371, 4150.861
631.1193, 4168.315
631.6014, 4182.704
632.0835, 4196.061
632.5656, 4208.652
633.0477, 4222.780
633.5298, 4239.051
634.0120, 4257.696
634.4941, 4278.405
634.9762, 4299.415
635.4583, 4326.757
635.9404, 4368.346
636.4225, 4410.559
636.9047, 4434.640
637.3868, 4430.840
637.8689, 4443.989
638.3510, 4484.914
638.8331, 4542.842
639.3152, 4591.032
639.7973, 4630.314
640.2794, 4678.639
640.7615, 4746.719
641.2437, 4827.649
641.7258, 4915.125
642.2079, 5007.725
642.6900, 5099.337
643.1721, 5174.991
643.6542, 5255.429
644.1364, 5362.996
644.6185, 5506.771
645.1006, 5642.498
645.5827, 5747.287
646.0648, 5845.977
646.5469, 5958.461
647.0291, 6089.544
647.5112, 6225.797
647.9933, 6361.880
648.4754, 6507.290
648.9575, 6680.099
649.4396, 6884.250
649.9218, 7079.330
650.4039, 7246.218
650.8860, 7401.853
651.3681, 7577.170
651.8502, 7770.357
652.3323, 7971.083
652.8145, 8189.570
653.2966, 8401.238
653.7787, 8585.939
654.2608, 8741.520
654.7429, 8881.127
655.2250, 9008.741
655.7072, 9123.478
656.1893, 9225.551
656.6714, 9327.036
657.1535, 9387.804
657.6356, 9406.335
658.1177, 9385.490
658.5999, 9327.366
659.0820, 9231.089
659.5641, 9102.773
660.0462, 8943.486
660.5283, 8752.375
661.0104, 8511.726
661.4926, 8229.700
661.9747, 7948.736
662.4568, 7690.602
662.9389, 7441.535
663.4210, 7185.178
663.9031, 6927.012
664.3853, 6681.328
664.8674, 6463.364
665.3495, 6256.474
665.8316, 6047.633
666.3137, 5830.610
666.7958, 5644.459
667.2780, 5504.793
667.7601, 5380.462
668.2422, 5251.339
668.7243, 5111.542
669.2064, 4987.192
669.6885, 4878.431
670.1707, 4786.229
670.6528, 4715.660
671.1349, 4663.641
671.6170, 4611.685
672.0991, 4555.875
672.5812, 4498.474
673.0634, 4438.054
673.5455, 4377.847
674.0276, 4324.909
674.5097, 4282.784
674.9918, 4249.355
675.4739, 4228.773
675.9561, 4218.889
676.4382, 4201.906
676.9203, 4163.646
677.4024, 4130.885
677.8845, 4116.501
678.3666, 4122.384
678.8488, 4106.235
679.3309, 4060.385
679.8130, 4014.339
680.2951, 3991.314
680.7772, 3988.012
681.2593, 3988.156
681.7415, 3991.490
682.2236, 3989.888
682.7057, 3968.425
683.1878, 3938.506
683.6699, 3918.321
684.1520, 3918.627
684.6342, 3918.881
685.1163, 3909.411
685.5984, 3893.971
686.0805, 3878.710
686.5626, 3861.716
687.0447, 3849.168
687.5269, 3844.080
688.0090, 3843.962
688.4911, 3840.762
688.9732, 3835.138
689.4553, 3822.377
689.9374, 3791.514
690.4196, 3753.232
690.9017, 3755.363
691.3838, 3795.258
691.8659, 3830.749
692.3480, 3829.158
692.8301, 3808.896
693.3123, 3789.873
693.7944, 3774.207
694.2765, 3757.546
694.7586, 3735.061
695.2407, 3712.483
695.7228, 3693.584
696.2050, 3674.278
696.6871, 3668.800
697.1692, 3688.224
697.6513, 3710.878
698.1334, 3705.797
698.6155, 3667.947
699.0977, 3647.964
699.5798, 3659.638
700.0619, 3681.454
700.5440, 3673.834
701.0261, 3644.154
701.5082, 3619.314
701.9904, 3613.933
702.4725, 3615.188
702.9546, 3612.336
703.4367, 3607.256
703.9188, 3606.006
704.4009, 3618.882
704.8831, 3628.055
705.3652, 3623.380
705.8473, 3605.414
706.3294, 3594.061
706.8115, 3591.166
707.2936, 3591.785
707.7758, 3595.214
708.2579, 3601.308
708.7400, 3601.406
709.2221, 3595.337
709.7042, 3585.347
710.1863, 3565.551
710.6685, 3545.333
711.1506, 3544.782
711.6327, 3569.816
712.1148, 3597.891
712.5969, 3622.060
713.0790, 3637.980
713.5612, 3640.778
714.0433, 3615.991
714.5254, 3595.668
715.0075, 3583.483
715.4896, 3576.080
715.9717, 3566.842
716.4539, 3552.724
716.9360, 3550.393
717.4181, 3567.931
717.9002, 3593.798
718.3823, 3601.335
718.8644, 3593.068
719.3466, 3583.731
719.8287, 3580.101
720.3108, 3579.088
720.7929, 3576.876
721.2750, 3574.330
721.7571, 3574.854
722.2393, 3579.896
722.7214, 3588.357
723.2035, 3602.918
723.6856, 3624.009
724.1677, 3633.876
724.6498, 3627.592
725.1320, 3617.788
725.6141, 3611.016
726.0962, 3607.418
726.5783, 3601.030
727.0604, 3590.958
727.5425, 3585.080
728.0247, 3591.297
728.5068, 3606.561
728.9889, 3629.719
729.4710, 3663.655
729.9531, 3685.374
730.4352, 3664.006
730.9174, 3630.954
731.3995, 3618.202
731.8816, 3659.784
732.3637, 3681.227
732.8458, 3665.454
733.3279, 3635.609
733.8101, 3622.172
734.2922, 3627.298
734.7743, 3638.250
735.2564, 3654.462
735.7385, 3672.543
736.2206, 3686.456
736.7028, 3696.572
737.1849, 3704.031
737.6670, 3706.115
738.1491, 3709.370
738.6312, 3723.987
739.1133, 3744.977
739.5955, 3758.002
740.0776, 3750.621
740.5597, 3742.144
741.0418, 3739.746
741.5239, 3742.452
742.0060, 3743.556
742.4882, 3742.568
742.9703, 3740.536
743.4524, 3735.521
743.9345, 3729.166
744.4166, 3734.948
744.8987, 3752.767
745.3809, 3770.374
745.8630, 3778.333
746.3451, 3781.024
746.8272, 3783.024
747.3093, 3784.728
747.7914, 3787.622
748.2736, 3795.153
748.7557, 3802.480
749.2378, 3807.428
749.7199, 3813.838
750.2020, 3764.082
750.6841, 3796.716
751.1663, 3814.947
751.6484, 3819.551
752.1305, 3769.709
752.6126, 3790.172
753.0947, 3782.460
753.5768, 3773.592
754.0590, 3803.950
754.5411, 3762.027
755.0232, 3791.763
755.5053, 3801.304
755.9874, 3791.618
756.4695, 3773.433
756.9517, 3755.292
757.4338, 3749.308
757.9159, 3778.191
758.3980, 3789.537
758.8801, 3769.056
759.3622, 3801.838
759.8444, 3820.219
760.3265, 3824.971
760.8086, 3775.277
761.2907, 3795.889
761.7728, 3788.325
762.2549, 3779.606
762.7370, 3810.113
763.2191, 3768.339
763.7012, 3798.224
764.1833, 3799.503
764.6655, 3813.875
765.1476, 3779.023
765.6297, 3786.093
766.1118, 3796.666
766.5939, 3804.811
767.0760, 3807.706
767.5582, 3806.323
768.0403, 3810.462
768.5224, 3821.558
769.0045, 3826.285
769.4866, 3809.460
769.9688, 3782.540
770.4509, 3776.759
770.9330, 3789.796
771.4151, 3801.056
771.8972, 3790.861
772.3793, 3779.054
772.8615, 3782.400
773.3436, 3803.712
773.8257, 3818.497
774.3078, 3819.061
774.7899, 3816.978
775.2720, 3817.097
775.7542, 3819.365
776.2363, 3827.316
776.7184, 3842.917
777.2005, 3854.477
777.6826, 3846.533
778.1647, 3827.641
778.6469, 3819.901
779.1290, 3826.145
779.6111, 3832.067
780.0932, 3825.518
780.5753, 3815.208
781.0574, 3809.277
781.5396, 3810.992
782.0217, 3811.672
782.5038, 3807.764
782.9859, 3805.125
783.4680, 3811.336
783.9501, 3829.193
784.4323, 3833.821
784.9144, 3821.021
785.3965, 3803.760
785.8786, 3797.248
786.3607, 3798.547
786.8428, 3800.751
787.3250, 3802.564
787.8071, 3804.301
788.2892, 3805.161
788.7713, 3806.445
789.2534, 3809.751
789.7355, 3814.695
790.2177, 3823.156
790.6998, 3840.116
791.1819, 3856.378
791.6640, 3856.923
792.1461, 3840.268
792.6282, 3825.239
793.1104, 3813.905
793.5925, 3809.148
794.0746, 3821.644
794.5567, 3843.458
795.0388, 3856.468
795.5209, 3845.622
796.0031, 3835.743
796.4852, 3846.343
796.9673, 3865.293
797.4494, 3868.056
797.9315, 3834.137
798.4136, 3813.720
798.8958, 3819.915
799.3779, 3839.463
799.8600, 3838.061
800.3421, 3816.146
800.8242, 3803.361
801.3063, 3813.035
801.7885, 3832.543
802.2706, 3847.817
802.7527, 3858.501
803.2348, 3863.729
803.7169, 3858.353
804.1990, 3852.270
804.6812, 3849.393
805.1633, 3849.023
805.6454, 3847.367
806.1275, 3839.547
806.6096, 3842.158
807.0917, 3865.259
807.5739, 3898.040
808.0560, 3902.810
808.5381, 3882.621
809.0202, 3868.507
809.5023, 3884.192
809.9844, 3906.622
810.4666, 3909.582
810.9487, 3898.274
811.4308, 3890.098
811.9129, 3893.371
812.3950, 3898.884
812.8771, 3905.974
813.3593, 3913.058
813.8414, 3910.679
814.3235, 3894.637
814.8056, 3885.296
815.2877, 3895.957
815.7698, 3916.308
816.2520, 3913.145
816.7341, 3890.667
817.2162, 3871.671
817.6983, 3863.986
818.1804, 3869.446
818.6625, 3901.318
819.1447, 3952.469
819.6268, 3982.101
820.1089, 3966.635
820.5910, 3944.139
821.0731, 3920.354
821.5552, 3897.705
822.0374, 3891.493
822.5195, 3903.035
823.0016, 3916.893
823.4837, 3926.402
823.9658, 3932.151
824.4479, 3931.772
824.9301, 3927.210
825.4122, 3928.554
825.8943, 3948.556
826.3764, 3968.662
826.8585, 3978.232
827.3406, 3977.262
827.8228, 3979.933
828.3049, 3990.921
828.7870, 3996.056
829.2691, 3986.080
829.7512, 3966.021
830.2333, 3963.242
830.7155, 3976.465
831.1976, 3986.205
831.6797, 3976.917
832.1618, 3960.887
832.6439, 3947.468
833.1260, 3937.856
833.6082, 3936.725
834.0903, 3955.408
834.5724, 3972.845
835.0545, 3981.688
835.5366, 3982.446
836.0187, 3978.811
836.5009, 3969.636
836.9830, 3961.107
837.4651, 3955.733
837.9472, 3953.289
838.4293, 3953.510
838.9114, 3956.290
839.3936, 3960.944
839.8757, 3970.930
840.3578, 3979.238
840.8399, 3980.807
841.3220, 3976.154
841.8041, 3971.676
842.2863, 3966.849
842.7684, 3963.748
843.2505, 3963.382
843.7326, 3965.195
844.2147, 3968.602
844.6968, 3973.244
845.1790, 3972.296
845.6611, 3954.305
846.1432, 3933.954
846.6253, 3930.755
847.1074, 3940.644
847.5895, 3946.920
848.0717, 3936.614
848.5538, 3929.063
849.0359, 3935.276
849.5180, 3950.214
850.0001, 3947.463
850.4822, 3921.778
850.9644, 3905.344
851.4465, 3916.466
851.9286, 3940.654
852.4107, 3945.682
852.8928, 3935.046
853.3749, 3920.722
853.8571, 3903.403
854.3392, 3889.311
854.8213, 3880.143
855.3034, 3876.869
855.7855, 3884.868
856.2676, 3917.443
856.7498, 3934.422
857.2319, 3919.572
857.7140, 3887.250
858.1961, 3877.260
858.6782, 3888.023
859.1603, 3904.127
859.6425, 3924.749
860.1246, 3941.402
860.6067, 3937.906
861.0888, 3924.301
861.5709, 3922.947
862.0530, 3960.592
862.5352, 3986.395
863.0173, 3987.454
863.4994, 3972.750
863.9815, 3957.848
864.4636, 3941.745
864.9457, 3939.521
865.4279, 3961.802
865.9100, 3986.296
866.3921, 3971.508
866.8742, 3933.613
867.3563, 3906.839
867.8384, 3909.649
868.3206, 3918.442
868.8027, 3927.467
869.2848, 3935.913
869.7669, 3942.683
870.2490, 3947.458
870.7311, 3950.857
871.2133, 3951.682
871.6954, 3953.714
872.1775, 3964.623
872.6596, 3981.728
873.1417, 3996.767
873.6238, 4009.407
874.1060, 4014.542
874.5881, 3998.933
875.0702, 3977.919
875.5523, 3969.128
876.0344, 3988.049
876.5165, 4000.639
876.9987, 4005.938
877.4808, 4006.147
877.9629, 4000.211
878.4450, 3989.416
878.9271, 3989.624
879.4092, 4003.516
879.8914, 4021.412
880.3735, 4041.142
880.8556, 4056.315
881.3377, 4056.493
881.8198, 4033.370
882.3019, 4020.544
882.7841, 4031.162
883.2662, 4047.661
883.7483, 4059.733
884.2304, 4066.866
884.7125, 4075.088
885.1946, 4085.058
885.6768, 4090.688
886.1588, 4081.268
886.6409, 4066.763
887.1230, 4060.614
887.6052, 4063.990
888.0873, 4075.062
888.5694, 4109.425
889.0515, 4136.260
889.5336, 4135.416
890.0157, 4106.650
890.4979, 4087.142
890.9800, 4075.881
891.4621, 4079.017
891.9442, 4112.525
892.4263, 4159.262
892.9084, 4178.356
893.3906, 4172.904
893.8727, 4162.299
894.3548, 4150.061
894.8369, 4141.710
895.3190, 4140.266
895.8011, 4145.699
896.2833, 4158.240
896.7654, 4187.119
897.2475, 4197.274
897.7296, 4169.055
898.2117, 4122.844
898.6938, 4111.055
899.1760, 4127.494
899.6581, 4146.893
900.1402, 4160.681
900.6223, 4171.120
901.1044, 4178.530
901.5865, 4183.799
902.0687, 4188.211
902.5508, 4189.371
903.0329, 4195.064
903.5150, 4208.666
903.9971, 4223.758
904.4792, 4225.646
904.9614, 4217.536
905.4435, 4219.332
905.9256, 4239.824
906.4077, 4258.380
906.8898, 4254.794
907.3719, 4240.698
907.8541, 4229.871
908.3362, 4222.906
908.8183, 4224.118
909.3004, 4236.070
909.7825, 4252.652
910.2646, 4272.845
910.7468, 4295.012
911.2289, 4296.313
911.7110, 4273.552
912.1931, 4246.508
912.6752, 4228.146
913.1573, 4216.393
913.6395, 4208.629
914.1216, 4203.995
914.6037, 4208.717
915.0858, 4239.924
915.5679, 4259.685
916.0500, 4241.079
916.5322, 4188.863
917.0143, 4171.484
917.4964, 4188.724
917.9785, 4207.740
918.4606, 4204.903
918.9427, 4194.223
919.4249, 4186.824
919.9070, 4184.086
920.3891, 4190.164
920.8712, 4218.130
921.3533, 4241.148
921.8354, 4252.821
922.3176, 4253.991
922.7997, 4243.097
923.2818, 4219.966
923.7639, 4208.444
924.2460, 4222.652
924.7281, 4243.563
925.2103, 4250.950
925.6924, 4248.284
926.1745, 4242.069
926.6566, 4234.817
927.1387, 4222.887
927.6208, 4196.338
928.1030, 4173.026
928.5851, 4181.608
929.0672, 4223.838
929.5493, 4254.878
930.0314, 4269.027
930.5135, 4271.273
930.9957, 4260.533
931.4778, 4244.076
931.9599, 4231.916
932.4420, 4227.191
932.9241, 4220.575
933.4063, 4201.373
933.8884, 4187.851
934.3705, 4195.765
934.8526, 4227.140
935.3347, 4230.517
935.8168, 4204.456
936.2990, 4182.738
936.7811, 4200.508
937.2632, 4230.405
937.7453, 4238.925
938.2274, 4226.948
938.7095, 4214.945
939.1917, 4206.196
939.6738, 4202.275
940.1559, 4205.748
940.6380, 4214.004
941.1201, 4215.100
941.6022, 4209.018
942.0844, 4206.648
942.5665, 4212.928
943.0486, 4223.876
943.5307, 4237.299
944.0128, 4251.567
944.4949, 4263.519
944.9771, 4272.424
945.4592, 4278.214
945.9413, 4277.732
946.4234, 4277.317
946.9055, 4288.471
947.3876, 4310.714
947.8698, 4322.371
948.3519, 4319.938
948.8340, 4310.970
949.3161, 4295.984
949.7982, 4282.350
950.2803, 4280.113
950.7625, 4294.595
951.2446, 4302.776
951.7267, 4294.615
952.2088, 4288.974
952.6909, 4298.426
953.1730, 4321.511
953.6552, 4339.773
954.1373, 4353.056
954.6194, 4360.902
955.1015, 4357.013
955.5836, 4352.287
956.0657, 4354.910
956.5479, 4364.943
957.0300, 4381.750
957.5121, 4416.991
957.9942, 4438.666
958.4763, 4434.083
958.9584, 4416.792
959.4406, 4417.057
959.9227, 4433.369
960.4048, 4459.699
960.8869, 4502.747
961.3690, 4535.553
961.8511, 4516.793
962.3333, 4484.197
962.8154, 4487.789
963.2975, 4568.550
963.7796, 4623.370
964.2617, 4646.742
964.7438, 4656.322
965.2260, 4669.390
965.7081, 4683.056
966.1902, 4679.995
966.6723, 4659.322
967.1544, 4651.797
967.6365, 4694.211
968.1187, 4743.750
968.6008, 4767.978
969.0829, 4766.474
969.5650, 4773.572
970.0471, 4794.975
970.5292, 4806.202
971.0114, 4792.485
971.4935, 4766.103
971.9756, 4752.079
972.4577, 4748.789
972.9398, 4750.255
973.4219, 4760.888
973.9041, 4767.708
974.3862, 4762.922
974.8683, 4752.307
975.3504, 4744.461
975.8325, 4739.103
976.3146, 4738.546
976.7968, 4744.526
977.2789, 4748.868
977.7610, 4741.514
978.2431, 4726.356
978.7252, 4707.545
979.2073, 4684.411
979.6895, 4668.222
980.1716, 4666.003
980.6537, 4669.904
981.1358, 4677.951
981.6179, 4689.773
982.1000, 4694.109
982.5822, 4690.910
983.0643, 4688.368
983.5464, 4695.931
984.0285, 4703.289
984.5106, 4692.139
984.9927, 4671.224
985.4749, 4666.169
985.9570, 4705.831
986.4391, 4731.491
986.9212, 4728.884
987.4033, 4715.154
987.8854, 4722.270
988.3676, 4746.430
988.8497, 4762.740
989.3318, 4765.573
989.8139, 4762.689
990.2960, 4752.296
990.7781, 4744.189
991.2603, 4751.056
991.7424, 4781.174
992.2245, 4796.220
992.7066, 4791.798
993.1887, 4783.389
993.6708, 4781.600
994.1530, 4783.689
994.6351, 4777.287
995.1172, 4765.197
995.5993, 4762.465
996.0814, 4792.212
996.5635, 4817.292
997.0457, 4817.444
997.5278, 4800.278
998.0099, 4781.843
998.4920, 4759.400
998.9741, 4751.764
999.4562, 4765.610
999.9384, 4786.818
1000.420, 4795.751
1000.903, 4799.708
1001.385, 4813.504
1001.867, 4848.315
1002.349, 4865.984
1002.831, 4836.720
1003.313, 4809.764
1003.795, 4818.948
1004.277, 4863.046
1004.760, 4892.599
1005.242, 4908.110
1005.724, 4916.983
1006.206, 4911.051
1006.688, 4912.204
1007.170, 4944.813
1007.652, 5001.893
1008.134, 5052.877
1008.616, 5094.379
1009.099, 5130.266
1009.581, 5158.509
1010.063, 5186.545
1010.545, 5230.492
1011.027, 5285.730
1011.509, 5336.354
1011.991, 5377.440
1012.473, 5418.598
1012.955, 5459.273
1013.438, 5507.438
1013.920, 5573.282
1014.402, 5660.465
1014.884, 5730.409
1015.366, 5782.027
1015.848, 5828.210
1016.330, 5875.443
1016.812, 5924.118
1017.294, 5975.542
1017.777, 6028.754
1018.259, 6079.325
1018.741, 6120.021
1019.223, 6167.549
1019.705, 6233.184
1020.187, 6300.044
1020.669, 6335.076
1021.151, 6341.002
1021.634, 6344.782
1022.116, 6350.798
1022.598, 6358.507
1023.080, 6379.724
1023.562, 6394.190
1024.044, 6379.414
1024.526, 6326.067
1025.008, 6280.055
1025.490, 6244.827
1025.973, 6204.415
1026.455, 6147.198
1026.937, 6080.149
1027.419, 6024.580
1027.901, 5974.184
1028.383, 5909.134
1028.865, 5797.090
1029.347, 5696.748
1029.830, 5634.591
1030.312, 5589.508
1030.794, 5531.038
1031.276, 5458.219
1031.758, 5397.791
1032.240, 5355.387
1032.722, 5315.603
1033.204, 5261.743
1033.687, 5204.811
1034.169, 5154.701
1034.651, 5112.558
1035.133, 5077.028
1035.615, 5052.214
1036.097, 5022.580
1036.579, 4976.215
1037.061, 4923.717
1037.543, 4899.131
1038.026, 4895.584
1038.508, 4890.320
1038.990, 4875.864
1039.472, 4854.891
1039.954, 4818.855
1040.436, 4782.733
1040.918, 4765.942
1041.400, 4773.837
1041.882, 4765.872
1042.365, 4738.931
1042.847, 4708.607
1043.329, 4688.358
1043.811, 4672.446
1044.293, 4653.480
1044.775, 4631.570
1045.257, 4615.173
1045.739, 4608.854
1046.222, 4602.671
1046.704, 4594.731
1047.186, 4584.636
1047.668, 4566.098
1048.150, 4543.893
1048.632, 4536.801
1049.114, 4554.644
1049.596, 4575.648
1050.078, 4595.915
1050.561, 4607.920
1051.043, 4603.340
1051.525, 4578.672
1052.007, 4566.571
1052.489, 4567.932
1052.971, 4571.195
1053.453, 4569.668
1053.935, 4564.724
1054.417, 4553.565
1054.900, 4539.984
1055.382, 4536.130
1055.864, 4557.314
1056.346, 4568.285
1056.828, 4559.401
1057.310, 4546.739
1057.792, 4559.740
1058.274, 4588.842
1058.757, 4603.005
1059.239, 4597.097
1059.721, 4583.033
1060.203, 4560.402
1060.685, 4538.417
1061.167, 4521.252
1061.649, 4509.200
1062.131, 4508.821
1062.614, 4520.548
1063.096, 4531.634
1063.578, 4541.199
1064.060, 4540.759
1064.542, 4509.702
1065.024, 4465.424
1065.506, 4436.515
1065.988, 4438.075
1066.470, 4441.910
1066.953, 4450.107
1067.435, 4456.048
1067.917, 4450.614
1068.399, 4438.694
1068.881, 4432.837
1069.363, 4433.509
1069.845, 4440.006
1070.327, 4462.522
1070.809, 4478.134
1071.292, 4472.301
1071.774, 4456.539
1072.256, 4460.540
1072.738, 4483.649
1073.220, 4494.814
1073.702, 4486.354
1074.184, 4470.226
1074.666, 4450.684
1075.148, 4433.375
1075.631, 4425.170
1076.113, 4428.456
1076.595, 4431.479
1077.077, 4435.766
1077.559, 4434.572
1078.041, 4419.899
1078.523, 4402.100
1079.005, 4397.488
1079.488, 4405.359
1079.970, 4423.743
1080.452, 4478.012
1080.934, 4504.303
1081.416, 4482.303
1081.898, 4446.877
1082.380, 4431.981
1082.862, 4435.597
1083.344, 4447.415
1083.827, 4465.961
1084.309, 4479.018
1084.791, 4467.418
1085.273, 4458.287
1085.755, 4475.117
1086.237, 4507.298
1086.719, 4519.091
1087.201, 4507.599
1087.683, 4501.511
1088.166, 4509.519
1088.648, 4516.943
1089.130, 4497.165
1089.612, 4472.626
1090.094, 4473.218
1090.576, 4509.881
1091.058, 4537.775
1091.540, 4553.743
1092.023, 4561.949
1092.505, 4561.579
1092.987, 4556.726
1093.469, 4555.958
1093.951, 4559.271
1094.433, 4566.843
1094.915, 4581.701
1095.397, 4596.480
1095.880, 4611.663
1096.362, 4623.835
1096.844, 4626.614
1097.326, 4621.133
1097.808, 4634.222
1098.290, 4665.504
1098.772, 4680.647
1099.254, 4635.975
1099.736, 4587.927
1100.219, 4576.535
1100.701, 4590.958
1101.183, 4592.815
1101.665, 4579.436
1102.147, 4570.967
1102.629, 4573.024
1103.111, 4571.900
1103.593, 4544.434
1104.075, 4509.621
1104.558, 4490.384
1105.040, 4491.315
1105.522, 4492.344
1106.004, 4491.370
1106.486, 4491.564
1106.968, 4495.110
1107.450, 4499.514
1107.932, 4499.290
1108.415, 4495.769
1108.897, 4492.274
1109.379, 4491.810
1109.861, 4487.345
1110.343, 4470.370
1110.825, 4456.673
1111.307, 4461.983
1111.789, 4483.149
1112.271, 4486.730
1112.754, 4473.237
1113.236, 4449.005
1113.718, 4392.813
1114.200, 4353.124
1114.682, 4368.102
1115.164, 4411.526
1115.646, 4441.219
1116.128, 4456.529
1116.610, 4462.797
1117.093, 4460.227
1117.575, 4451.580
1118.057, 4429.166
1118.539, 4409.749
1119.021, 4415.502
1119.503, 4443.783
1119.985, 4451.948
1120.467, 4429.369
1120.950, 4418.435
1121.432, 4432.917
1121.914, 4455.472
1122.396, 4462.268
1122.878, 4459.674
1123.360, 4456.892
1123.842, 4455.085
1124.324, 4456.202
1124.807, 4460.642
1125.289, 4467.702
1125.771, 4481.320
1126.253, 4494.402
1126.735, 4473.114
1127.217, 4432.596
1127.699, 4422.080
1128.181, 4486.974
1128.663, 4540.092
1129.146, 4550.092
1129.628, 4541.652
1130.110, 4528.920
1130.592, 4512.505
1131.074, 4505.613
1131.556, 4507.841
1132.038, 4511.852
1132.520, 4517.377
1133.002, 4519.226
1133.485, 4514.823
1133.967, 4504.731
1134.449, 4486.609
1134.931, 4458.147
1135.413, 4451.714
1135.895, 4472.899
1136.377, 4494.094
1136.859, 4491.834
1137.342, 4478.304
1137.824, 4458.984
1138.306, 4436.444
1138.788, 4427.822
1139.270, 4437.470
1139.752, 4441.772
1140.234, 4433.369
1140.716, 4422.114
1141.198, 4421.796
1141.681, 4426.231
1142.163, 4427.117
1142.645, 4422.586
1143.127, 4419.236
1143.609, 4420.501
1144.091, 4415.645
1144.573, 4395.989
1145.055, 4372.630
1145.537, 4370.368
1146.020, 4382.445
1146.502, 4393.996
1146.984, 4401.840
1147.466, 4406.275
1147.948, 4406.153
1148.430, 4404.807
1148.912, 4405.531
1149.394, 4406.692
1149.877, 4397.655
1150.359, 4381.792
1150.841, 4373.380
1151.323, 4394.499
1151.805, 4403.941
1152.287, 4376.394
1152.769, 4343.447
1153.251, 4339.228
1153.734, 4361.862
1154.216, 4393.675
1154.698, 4432.603
1155.180, 4459.100
1155.662, 4446.546
1156.144, 4433.288
1156.626, 4446.882
1157.108, 4471.380
1157.590, 4475.530
1158.073, 4459.244
1158.555, 4447.649
1159.037, 4444.818
1159.519, 4441.000
1160.001, 4419.453
1160.483, 4400.926
1160.965, 4411.028
1161.447, 4441.405
1161.929, 4436.565
1162.412, 4391.531
1162.894, 4366.290
1163.376, 4381.607
1163.858, 4406.042
1164.340, 4409.985
1164.822, 4403.029
1165.304, 4393.288
1165.786, 4380.999
1166.269, 4376.407
1166.751, 4379.740
1167.233, 4391.319
1167.715, 4416.509
1168.197, 4441.661
1168.679, 4447.002
1169.161, 4440.023
1169.643, 4431.396
1170.125, 4420.730
1170.608, 4414.917
1171.090, 4414.936
1171.572, 4415.759
1172.054, 4410.516
1172.536, 4406.465
1173.018, 4423.975
1173.500, 4451.830
1173.982, 4464.013
1174.464, 4428.590
1174.947, 4418.007
1175.429, 4446.405
1175.911, 4472.745
1176.393, 4446.363
1176.875, 4397.555
1177.357, 4397.543
1177.839, 4437.054
1178.321, 4467.139
1178.804, 4463.907
1179.286, 4457.809
1179.768, 4452.052
1180.250, 4447.000
1180.732, 4443.283
1181.214, 4440.510
1181.696, 4435.267
1182.178, 4428.154
1182.661, 4429.557
1183.143, 4463.307
1183.625, 4478.263
1184.107, 4453.755
1184.589, 4414.925
1185.071, 4410.103
1185.553, 4427.707
1186.035, 4426.990
1186.517, 4400.059
1187.000, 4388.267
1187.482, 4430.930
1187.964, 4467.689
1188.446, 4475.100
1188.928, 4462.068
1189.410, 4448.062
1189.892, 4433.738
1190.374, 4422.426
1190.856, 4415.778
1191.339, 4407.496
1191.821, 4386.209
1192.303, 4371.750
1192.785, 4375.378
1193.267, 4393.324
1193.749, 4412.106
1194.231, 4430.743
1194.713, 4446.098
1195.195, 4459.369
1195.678, 4463.299
1196.160, 4437.902
1196.642, 4417.550
1197.124, 4432.335
1197.606, 4475.608
1198.088, 4480.123
1198.570, 4452.387
1199.052, 4431.875
1199.535, 4443.826
1200.017, 4455.777
1200.499, 4448.997
1200.981, 4437.802
1201.463, 4435.464
1201.945, 4441.755
1202.427, 4442.272
1202.909, 4437.557
1203.391, 4432.354
1203.874, 4427.405
1204.356, 4424.944
1204.838, 4423.745
1205.320, 4427.468
1205.802, 4444.234
1206.284, 4473.415
1206.766, 4485.630
1207.248, 4480.705
1207.730, 4473.596
1208.213, 4479.849
1208.695, 4479.771
1209.177, 4447.781
1209.659, 4411.653
1210.141, 4416.034
1210.623, 4459.268
1211.105, 4484.835
1211.587, 4488.365
1212.070, 4491.850
1212.552, 4524.784
1213.034, 4546.535
1213.516, 4515.906
1213.998, 4467.340
1214.480, 4470.846
1214.962, 4522.796
1215.444, 4545.768
1215.927, 4529.300
1216.409, 4507.555
1216.891, 4506.233
1217.373, 4504.666
1217.855, 4485.453
1218.337, 4459.278
1218.819, 4456.464
1219.301, 4474.594
1219.783, 4477.984
1220.266, 4458.316
1220.748, 4446.969
1221.230, 4478.884
1221.712, 4512.306
1222.194, 4520.295
1222.676, 4510.685
1223.158, 4510.526
1223.640, 4518.095
1224.122, 4515.914
1224.605, 4496.771
1225.087, 4485.229
1225.569, 4511.083
1226.051, 4535.624
1226.533, 4532.129
1227.015, 4508.732
1227.497, 4500.234
1227.979, 4504.560
1228.462, 4507.902
1228.944, 4505.969
1229.426, 4503.940
1229.908, 4507.246
1230.390, 4508.782
1230.872, 4502.792
1231.354, 4491.799
1231.836, 4486.896
1232.318, 4488.231
1232.801, 4498.169
1233.283, 4523.035
1233.765, 4541.335
1234.247, 4537.104
1234.729, 4527.362
1235.211, 4521.537
1235.693, 4518.995
1236.175, 4515.392
1236.657, 4512.125
1237.140, 4516.005
1237.622, 4534.796
1238.104, 4550.072
1238.586, 4553.350
1239.068, 4553.111
1239.550, 4554.387
1240.032, 4556.521
1240.514, 4556.318
1240.997, 4553.939
1241.479, 4549.409
1241.961, 4539.184
1242.443, 4533.174
1242.925, 4533.145
1243.407, 4538.510
1243.889, 4550.521
1244.371, 4567.396
1244.854, 4584.636
1245.336, 4600.230
1245.818, 4608.009
1246.300, 4597.324
1246.782, 4590.577
1247.264, 4592.458
1247.746, 4595.055
1248.228, 4591.625
1248.710, 4584.239
1249.193, 4576.482
1249.675, 4569.834
1250.157, 4568.777
1250.639, 4583.272
1251.121, 4590.913
1251.603, 4589.776
1252.085, 4583.156
1252.567, 4567.409
1253.049, 4551.645
1253.532, 4560.014
1254.014, 4583.318
1254.496, 4591.353
1254.978, 4554.622
1255.460, 4544.653
1255.942, 4571.386
1256.424, 4601.373
1256.906, 4604.481
1257.389, 4592.867
1257.871, 4576.654
1258.353, 4560.430
1258.835, 4558.531
1259.317, 4579.574
1259.799, 4594.755
1260.281, 4602.462
1260.763, 4604.395
1261.245, 4594.002
1261.728, 4585.479
1262.210, 4606.009
1262.692, 4639.956
1263.174, 4636.692
1263.656, 4583.606
1264.138, 4551.725
1264.620, 4547.385
1265.102, 4554.979
1265.584, 4566.009
1266.067, 4579.595
1266.549, 4599.728
1267.031, 4620.022
1267.513, 4624.099
1267.995, 4609.570
1268.477, 4609.300
1268.959, 4626.042
1269.441, 4644.483
1269.924, 4653.057
1270.406, 4659.626
1270.888, 4674.546
1271.370, 4687.779
1271.852, 4675.810
1272.334, 4641.639
1272.816, 4635.860
1273.298, 4661.559
1273.781, 4682.610
1274.263, 4670.988
1274.745, 4656.085
1275.227, 4647.835
1275.709, 4645.233
1276.191, 4649.166
1276.673, 4657.741
1277.155, 4663.236
1277.637, 4664.953
1278.120, 4662.416
1278.602, 4649.724
1279.084, 4640.854
1279.566, 4640.183
1280.048, 4642.419
1280.530, 4634.629
1281.012, 4625.897
1281.494, 4645.519
1281.976, 4690.223
##END=



