##NAMES=Pseudobrookite
##RRUFFID=R140974
##IDEAL CHEMISTRY=(Fe^3+^_2_Ti^4+^)O_5_
##LOCALITY=Emmelberg, Üdersdorf, Daun, Eifel, Rhineland-Palatinate, Germany
##OWNER=RRUFF
##SOURCE=Ch. and H. Schäfer
##DESCRIPTION=Dark brown tabular or elongated crystals. Associated with sanidine and mullite (supposedly).
##STATUS=The identification of this mineral has been confirmed by single-crystal X-ray diffraction.
##URL=rruff.info/R140974
8.930109e+001, 0.000000e+000
8.978320e+001, 1.363981e+002
9.026532e+001, 1.359508e+002
9.074744e+001, 1.359649e+002
9.122955e+001, 1.364918e+002
9.171167e+001, 1.375948e+002
9.219379e+001, 1.396326e+002
9.267590e+001, 1.424977e+002
9.315802e+001, 1.448729e+002
9.364014e+001, 1.460728e+002
9.412225e+001, 1.461098e+002
9.460437e+001, 1.446582e+002
9.508649e+001, 1.407640e+002
9.556860e+001, 1.358410e+002
9.605072e+001, 1.337273e+002
9.653284e+001, 1.347528e+002
9.701495e+001, 1.361562e+002
9.749707e+001, 1.348844e+002
9.797919e+001, 1.310245e+002
9.846130e+001, 1.274536e+002
9.894342e+001, 1.249186e+002
9.942554e+001, 1.233566e+002
9.990765e+001, 1.224945e+002
1.003898e+002, 1.224154e+002
1.008719e+002, 1.227762e+002
1.013540e+002, 1.232638e+002
1.018361e+002, 1.240924e+002
1.023182e+002, 1.243410e+002
1.028004e+002, 1.235289e+002
1.032825e+002, 1.213491e+002
1.037646e+002, 1.195498e+002
1.042467e+002, 1.180592e+002
1.047288e+002, 1.169627e+002
1.052109e+002, 1.164794e+002
1.056931e+002, 1.165968e+002
1.061752e+002, 1.172697e+002
1.066573e+002, 1.184678e+002
1.071394e+002, 1.200554e+002
1.076215e+002, 1.223494e+002
1.081036e+002, 1.259755e+002
1.085858e+002, 1.305331e+002
1.090679e+002, 1.337906e+002
1.095500e+002, 1.359605e+002
1.100321e+002, 1.368106e+002
1.105142e+002, 1.362249e+002
1.109963e+002, 1.323794e+002
1.114785e+002, 1.291916e+002
1.119606e+002, 1.271957e+002
1.124427e+002, 1.263506e+002
1.129248e+002, 1.258029e+002
1.134069e+002, 1.253805e+002
1.138890e+002, 1.252177e+002
1.143712e+002, 1.254199e+002
1.148533e+002, 1.259766e+002
1.153354e+002, 1.269169e+002
1.158175e+002, 1.283538e+002
1.162996e+002, 1.303448e+002
1.167817e+002, 1.323400e+002
1.172639e+002, 1.344779e+002
1.177460e+002, 1.364513e+002
1.182281e+002, 1.378680e+002
1.187102e+002, 1.383591e+002
1.191923e+002, 1.384197e+002
1.196744e+002, 1.383254e+002
1.201566e+002, 1.381163e+002
1.206387e+002, 1.377006e+002
1.211208e+002, 1.367106e+002
1.216029e+002, 1.354593e+002
1.220850e+002, 1.345936e+002
1.225671e+002, 1.344458e+002
1.230493e+002, 1.348367e+002
1.235314e+002, 1.355754e+002
1.240135e+002, 1.366008e+002
1.244956e+002, 1.380384e+002
1.249777e+002, 1.408577e+002
1.254598e+002, 1.445023e+002
1.259420e+002, 1.468095e+002
1.264241e+002, 1.453149e+002
1.269062e+002, 1.416383e+002
1.273883e+002, 1.387344e+002
1.278704e+002, 1.373045e+002
1.283525e+002, 1.367889e+002
1.288347e+002, 1.363652e+002
1.293168e+002, 1.360501e+002
1.297989e+002, 1.361452e+002
1.302810e+002, 1.373418e+002
1.307631e+002, 1.392877e+002
1.312452e+002, 1.405256e+002
1.317274e+002, 1.403954e+002
1.322095e+002, 1.394601e+002
1.326916e+002, 1.394037e+002
1.331737e+002, 1.403604e+002
1.336558e+002, 1.412693e+002
1.341379e+002, 1.409144e+002
1.346201e+002, 1.393175e+002
1.351022e+002, 1.378385e+002
1.355843e+002, 1.368534e+002
1.360664e+002, 1.363265e+002
1.365485e+002, 1.360658e+002
1.370306e+002, 1.361064e+002
1.375128e+002, 1.363319e+002
1.379949e+002, 1.365791e+002
1.384770e+002, 1.368152e+002
1.389591e+002, 1.372352e+002
1.394412e+002, 1.378544e+002
1.399233e+002, 1.386466e+002
1.404055e+002, 1.400624e+002
1.408876e+002, 1.425854e+002
1.413697e+002, 1.452330e+002
1.418518e+002, 1.463033e+002
1.423339e+002, 1.452801e+002
1.428160e+002, 1.438374e+002
1.432982e+002, 1.424891e+002
1.437803e+002, 1.411911e+002
1.442624e+002, 1.401695e+002
1.447445e+002, 1.394549e+002
1.452266e+002, 1.390117e+002
1.457087e+002, 1.387914e+002
1.461909e+002, 1.388684e+002
1.466730e+002, 1.390696e+002
1.471551e+002, 1.393229e+002
1.476372e+002, 1.395367e+002
1.481193e+002, 1.399728e+002
1.486014e+002, 1.409594e+002
1.490836e+002, 1.422165e+002
1.495657e+002, 1.427917e+002
1.500478e+002, 1.419874e+002
1.505299e+002, 1.410529e+002
1.510120e+002, 1.405264e+002
1.514941e+002, 1.406772e+002
1.519763e+002, 1.409176e+002
1.524584e+002, 1.412880e+002
1.529405e+002, 1.417576e+002
1.534226e+002, 1.421829e+002
1.539047e+002, 1.425985e+002
1.543868e+002, 1.429361e+002
1.548690e+002, 1.431580e+002
1.553511e+002, 1.427712e+002
1.558332e+002, 1.427878e+002
1.563153e+002, 1.437932e+002
1.567974e+002, 1.455990e+002
1.572795e+002, 1.466800e+002
1.577617e+002, 1.462515e+002
1.582438e+002, 1.452243e+002
1.587259e+002, 1.442567e+002
1.592080e+002, 1.432906e+002
1.596901e+002, 1.426032e+002
1.601722e+002, 1.423730e+002
1.606544e+002, 1.425815e+002
1.611365e+002, 1.428302e+002
1.616186e+002, 1.429334e+002
1.621007e+002, 1.430295e+002
1.625828e+002, 1.432486e+002
1.630649e+002, 1.437041e+002
1.635471e+002, 1.442282e+002
1.640292e+002, 1.448227e+002
1.645113e+002, 1.454857e+002
1.649934e+002, 1.459622e+002
1.654755e+002, 1.460186e+002
1.659576e+002, 1.458405e+002
1.664398e+002, 1.456587e+002
1.669219e+002, 1.456164e+002
1.674040e+002, 1.455574e+002
1.678861e+002, 1.452973e+002
1.683682e+002, 1.448074e+002
1.688503e+002, 1.444726e+002
1.693325e+002, 1.446243e+002
1.698146e+002, 1.450876e+002
1.702967e+002, 1.455751e+002
1.707788e+002, 1.459575e+002
1.712609e+002, 1.463179e+002
1.717430e+002, 1.468148e+002
1.722252e+002, 1.474999e+002
1.727073e+002, 1.479773e+002
1.731894e+002, 1.477127e+002
1.736715e+002, 1.469839e+002
1.741536e+002, 1.464243e+002
1.746357e+002, 1.464988e+002
1.751179e+002, 1.468343e+002
1.756000e+002, 1.469880e+002
1.760821e+002, 1.469114e+002
1.765642e+002, 1.467183e+002
1.770463e+002, 1.464375e+002
1.775284e+002, 1.461102e+002
1.780106e+002, 1.458673e+002
1.784927e+002, 1.457728e+002
1.789748e+002, 1.458084e+002
1.794569e+002, 1.459793e+002
1.799390e+002, 1.463187e+002
1.804211e+002, 1.466783e+002
1.809033e+002, 1.469116e+002
1.813854e+002, 1.470254e+002
1.818675e+002, 1.470461e+002
1.823496e+002, 1.468853e+002
1.828317e+002, 1.466481e+002
1.833138e+002, 1.465742e+002
1.837960e+002, 1.466935e+002
1.842781e+002, 1.469681e+002
1.847602e+002, 1.474434e+002
1.852423e+002, 1.480899e+002
1.857244e+002, 1.486264e+002
1.862065e+002, 1.487360e+002
1.866887e+002, 1.485660e+002
1.871708e+002, 1.487313e+002
1.876529e+002, 1.493881e+002
1.881350e+002, 1.502068e+002
1.886171e+002, 1.506172e+002
1.890992e+002, 1.506287e+002
1.895814e+002, 1.504882e+002
1.900635e+002, 1.502581e+002
1.905456e+002, 1.499698e+002
1.910277e+002, 1.498539e+002
1.915098e+002, 1.499386e+002
1.919919e+002, 1.502005e+002
1.924741e+002, 1.507293e+002
1.929562e+002, 1.515455e+002
1.934383e+002, 1.521577e+002
1.939204e+002, 1.520489e+002
1.944025e+002, 1.512747e+002
1.948846e+002, 1.508285e+002
1.953668e+002, 1.508907e+002
1.958489e+002, 1.512692e+002
1.963310e+002, 1.515229e+002
1.968131e+002, 1.516404e+002
1.972952e+002, 1.517146e+002
1.977773e+002, 1.518335e+002
1.982595e+002, 1.520005e+002
1.987416e+002, 1.520392e+002
1.992237e+002, 1.518941e+002
1.997058e+002, 1.516373e+002
2.001879e+002, 1.514810e+002
2.006700e+002, 1.514469e+002
2.011522e+002, 1.514137e+002
2.016343e+002, 1.512709e+002
2.021164e+002, 1.510002e+002
2.025985e+002, 1.508248e+002
2.030806e+002, 1.507968e+002
2.035627e+002, 1.508690e+002
2.040449e+002, 1.509228e+002
2.045270e+002, 1.509864e+002
2.050091e+002, 1.509356e+002
2.054912e+002, 1.506261e+002
2.059733e+002, 1.499947e+002
2.064554e+002, 1.494883e+002
2.069376e+002, 1.491875e+002
2.074197e+002, 1.490407e+002
2.079018e+002, 1.488349e+002
2.083839e+002, 1.485454e+002
2.088660e+002, 1.482606e+002
2.093481e+002, 1.480666e+002
2.098303e+002, 1.480020e+002
2.103124e+002, 1.478423e+002
2.107945e+002, 1.474997e+002
2.112766e+002, 1.470577e+002
2.117587e+002, 1.468614e+002
2.122408e+002, 1.469827e+002
2.127230e+002, 1.472011e+002
2.132051e+002, 1.473633e+002
2.136872e+002, 1.474283e+002
2.141693e+002, 1.475837e+002
2.146514e+002, 1.478846e+002
2.151335e+002, 1.482870e+002
2.156157e+002, 1.485802e+002
2.160978e+002, 1.487442e+002
2.165799e+002, 1.488314e+002
2.170620e+002, 1.488505e+002
2.175441e+002, 1.487412e+002
2.180262e+002, 1.487372e+002
2.185084e+002, 1.488751e+002
2.189905e+002, 1.491376e+002
2.194726e+002, 1.494337e+002
2.199547e+002, 1.497851e+002
2.204368e+002, 1.501438e+002
2.209189e+002, 1.504842e+002
2.214011e+002, 1.508279e+002
2.218832e+002, 1.511105e+002
2.223653e+002, 1.513227e+002
2.228474e+002, 1.514732e+002
2.233295e+002, 1.515918e+002
2.238116e+002, 1.516357e+002
2.242938e+002, 1.517131e+002
2.247759e+002, 1.519158e+002
2.252580e+002, 1.523541e+002
2.257401e+002, 1.526319e+002
2.262222e+002, 1.526464e+002
2.267043e+002, 1.524772e+002
2.271865e+002, 1.524833e+002
2.276686e+002, 1.527853e+002
2.281507e+002, 1.530798e+002
2.286328e+002, 1.531951e+002
2.291149e+002, 1.531008e+002
2.295970e+002, 1.528907e+002
2.300792e+002, 1.525204e+002
2.305613e+002, 1.520389e+002
2.310434e+002, 1.516438e+002
2.315255e+002, 1.513441e+002
2.320076e+002, 1.511288e+002
2.324897e+002, 1.510198e+002
2.329719e+002, 1.511222e+002
2.334540e+002, 1.510854e+002
2.339361e+002, 1.507807e+002
2.344182e+002, 1.503372e+002
2.349003e+002, 1.502281e+002
2.353824e+002, 1.506650e+002
2.358646e+002, 1.511335e+002
2.363467e+002, 1.513745e+002
2.368288e+002, 1.512844e+002
2.373109e+002, 1.511883e+002
2.377930e+002, 1.510785e+002
2.382751e+002, 1.509665e+002
2.387573e+002, 1.508967e+002
2.392394e+002, 1.508869e+002
2.397215e+002, 1.508867e+002
2.402036e+002, 1.508690e+002
2.406857e+002, 1.508099e+002
2.411678e+002, 1.507831e+002
2.416500e+002, 1.508026e+002
2.421321e+002, 1.508485e+002
2.426142e+002, 1.508573e+002
2.430963e+002, 1.507445e+002
2.435784e+002, 1.507214e+002
2.440605e+002, 1.509310e+002
2.445427e+002, 1.516119e+002
2.450248e+002, 1.518962e+002
2.455069e+002, 1.516019e+002
2.459890e+002, 1.509851e+002
2.464711e+002, 1.506098e+002
2.469532e+002, 1.505557e+002
2.474354e+002, 1.506113e+002
2.479175e+002, 1.507238e+002
2.483996e+002, 1.509480e+002
2.488817e+002, 1.510449e+002
2.493638e+002, 1.509090e+002
2.498459e+002, 1.507090e+002
2.503281e+002, 1.507815e+002
2.508102e+002, 1.513027e+002
2.512923e+002, 1.517956e+002
2.517744e+002, 1.520926e+002
2.522565e+002, 1.521414e+002
2.527386e+002, 1.522028e+002
2.532208e+002, 1.522539e+002
2.537029e+002, 1.523347e+002
2.541850e+002, 1.525339e+002
2.546671e+002, 1.529590e+002
2.551492e+002, 1.532836e+002
2.556313e+002, 1.533410e+002
2.561135e+002, 1.530482e+002
2.565956e+002, 1.530543e+002
2.570777e+002, 1.534993e+002
2.575598e+002, 1.541015e+002
2.580419e+002, 1.544798e+002
2.585240e+002, 1.545560e+002
2.590062e+002, 1.545637e+002
2.594883e+002, 1.545110e+002
2.599704e+002, 1.543785e+002
2.604525e+002, 1.544940e+002
2.609346e+002, 1.549256e+002
2.614167e+002, 1.555189e+002
2.618989e+002, 1.561224e+002
2.623810e+002, 1.567628e+002
2.628631e+002, 1.573414e+002
2.633452e+002, 1.578685e+002
2.638273e+002, 1.583507e+002
2.643094e+002, 1.585248e+002
2.647916e+002, 1.582468e+002
2.652737e+002, 1.579043e+002
2.657558e+002, 1.579165e+002
2.662379e+002, 1.584267e+002
2.667200e+002, 1.588102e+002
2.672021e+002, 1.588628e+002
2.676843e+002, 1.586459e+002
2.681664e+002, 1.588203e+002
2.686485e+002, 1.595350e+002
2.691306e+002, 1.603266e+002
2.696127e+002, 1.607587e+002
2.700948e+002, 1.607287e+002
2.705770e+002, 1.607839e+002
2.710591e+002, 1.610253e+002
2.715412e+002, 1.614135e+002
2.720233e+002, 1.617687e+002
2.725054e+002, 1.620600e+002
2.729875e+002, 1.623798e+002
2.734697e+002, 1.628257e+002
2.739518e+002, 1.634361e+002
2.744339e+002, 1.639322e+002
2.749160e+002, 1.642536e+002
2.753981e+002, 1.644556e+002
2.758802e+002, 1.646948e+002
2.763624e+002, 1.649603e+002
2.768445e+002, 1.652984e+002
2.773266e+002, 1.657931e+002
2.778087e+002, 1.664654e+002
2.782908e+002, 1.669847e+002
2.787729e+002, 1.672997e+002
2.792551e+002, 1.674792e+002
2.797372e+002, 1.676500e+002
2.802193e+002, 1.678086e+002
2.807014e+002, 1.679905e+002
2.811835e+002, 1.682338e+002
2.816656e+002, 1.685375e+002
2.821478e+002, 1.687788e+002
2.826299e+002, 1.689164e+002
2.831120e+002, 1.690637e+002
2.835941e+002, 1.694409e+002
2.840762e+002, 1.700603e+002
2.845583e+002, 1.707010e+002
2.850405e+002, 1.712749e+002
2.855226e+002, 1.717866e+002
2.860047e+002, 1.722874e+002
2.864868e+002, 1.727864e+002
2.869689e+002, 1.732433e+002
2.874510e+002, 1.735026e+002
2.879332e+002, 1.735831e+002
2.884153e+002, 1.738961e+002
2.888974e+002, 1.747888e+002
2.893795e+002, 1.760479e+002
2.898616e+002, 1.767667e+002
2.903438e+002, 1.768869e+002
2.908259e+002, 1.768685e+002
2.913080e+002, 1.771948e+002
2.917901e+002, 1.778252e+002
2.922722e+002, 1.785505e+002
2.927543e+002, 1.793764e+002
2.932365e+002, 1.802121e+002
2.937186e+002, 1.807700e+002
2.942007e+002, 1.810406e+002
2.946828e+002, 1.813247e+002
2.951649e+002, 1.820548e+002
2.956470e+002, 1.830436e+002
2.961292e+002, 1.836441e+002
2.966113e+002, 1.834636e+002
2.970934e+002, 1.830539e+002
2.975755e+002, 1.834141e+002
2.980576e+002, 1.844791e+002
2.985397e+002, 1.855232e+002
2.990219e+002, 1.858984e+002
2.995040e+002, 1.858828e+002
2.999861e+002, 1.860754e+002
3.004682e+002, 1.866283e+002
3.009503e+002, 1.873528e+002
3.014324e+002, 1.881125e+002
3.019146e+002, 1.888791e+002
3.023967e+002, 1.895615e+002
3.028788e+002, 1.899424e+002
3.033609e+002, 1.902496e+002
3.038430e+002, 1.908303e+002
3.043251e+002, 1.917731e+002
3.048073e+002, 1.928295e+002
3.052894e+002, 1.938536e+002
3.057715e+002, 1.948195e+002
3.062536e+002, 1.956949e+002
3.067357e+002, 1.963834e+002
3.072178e+002, 1.970008e+002
3.077000e+002, 1.976214e+002
3.081821e+002, 1.982387e+002
3.086642e+002, 1.989535e+002
3.091463e+002, 1.999908e+002
3.096284e+002, 2.011436e+002
3.101105e+002, 2.021053e+002
3.105927e+002, 2.025895e+002
3.110748e+002, 2.029324e+002
3.115569e+002, 2.032779e+002
3.120390e+002, 2.036391e+002
3.125211e+002, 2.042459e+002
3.130032e+002, 2.054271e+002
3.134854e+002, 2.068566e+002
3.139675e+002, 2.081731e+002
3.144496e+002, 2.093225e+002
3.149317e+002, 2.102747e+002
3.154138e+002, 2.109076e+002
3.158959e+002, 2.112806e+002
3.163781e+002, 2.117644e+002
3.168602e+002, 2.126889e+002
3.173423e+002, 2.136864e+002
3.178244e+002, 2.144662e+002
3.183065e+002, 2.147066e+002
3.187886e+002, 2.150913e+002
3.192708e+002, 2.160012e+002
3.197529e+002, 2.172455e+002
3.202350e+002, 2.182925e+002
3.207171e+002, 2.187019e+002
3.211992e+002, 2.190724e+002
3.216813e+002, 2.197445e+002
3.221635e+002, 2.209944e+002
3.226456e+002, 2.220029e+002
3.231277e+002, 2.223825e+002
3.236098e+002, 2.224558e+002
3.240919e+002, 2.227649e+002
3.245740e+002, 2.237498e+002
3.250562e+002, 2.246507e+002
3.255383e+002, 2.252021e+002
3.260204e+002, 2.253004e+002
3.265025e+002, 2.254258e+002
3.269846e+002, 2.255643e+002
3.274667e+002, 2.257656e+002
3.279489e+002, 2.260865e+002
3.284310e+002, 2.267772e+002
3.289131e+002, 2.273156e+002
3.293952e+002, 2.276242e+002
3.298773e+002, 2.277025e+002
3.303594e+002, 2.276441e+002
3.308416e+002, 2.272728e+002
3.313237e+002, 2.269164e+002
3.318058e+002, 2.268270e+002
3.322879e+002, 2.272554e+002
3.327700e+002, 2.275223e+002
3.332521e+002, 2.275547e+002
3.337343e+002, 2.273788e+002
3.342164e+002, 2.271037e+002
3.346985e+002, 2.266558e+002
3.351806e+002, 2.262230e+002
3.356627e+002, 2.258933e+002
3.361448e+002, 2.256616e+002
3.366270e+002, 2.255903e+002
3.371091e+002, 2.258222e+002
3.375912e+002, 2.261094e+002
3.380733e+002, 2.258853e+002
3.385554e+002, 2.250103e+002
3.390375e+002, 2.240889e+002
3.395197e+002, 2.233799e+002
3.400018e+002, 2.229069e+002
3.404839e+002, 2.223003e+002
3.409660e+002, 2.215156e+002
3.414481e+002, 2.207190e+002
3.419302e+002, 2.202174e+002
3.424124e+002, 2.200395e+002
3.428945e+002, 2.196770e+002
3.433766e+002, 2.188859e+002
3.438587e+002, 2.177909e+002
3.443408e+002, 2.169701e+002
3.448229e+002, 2.164635e+002
3.453051e+002, 2.159831e+002
3.457872e+002, 2.152593e+002
3.462693e+002, 2.143240e+002
3.467514e+002, 2.133310e+002
3.472335e+002, 2.122562e+002
3.477156e+002, 2.112280e+002
3.481978e+002, 2.106021e+002
3.486799e+002, 2.103497e+002
3.491620e+002, 2.100864e+002
3.496441e+002, 2.095922e+002
3.501262e+002, 2.088973e+002
3.506083e+002, 2.080298e+002
3.510905e+002, 2.069443e+002
3.515726e+002, 2.058415e+002
3.520547e+002, 2.049390e+002
3.525368e+002, 2.042053e+002
3.530189e+002, 2.035455e+002
3.535010e+002, 2.029275e+002
3.539832e+002, 2.023481e+002
3.544653e+002, 2.018362e+002
3.549474e+002, 2.013920e+002
3.554295e+002, 2.008996e+002
3.559116e+002, 2.003094e+002
3.563937e+002, 1.995987e+002
3.568759e+002, 1.987420e+002
3.573580e+002, 1.974420e+002
3.578401e+002, 1.962233e+002
3.583222e+002, 1.955048e+002
3.588043e+002, 1.952194e+002
3.592864e+002, 1.950075e+002
3.597686e+002, 1.948493e+002
3.602507e+002, 1.945899e+002
3.607328e+002, 1.940767e+002
3.612149e+002, 1.931144e+002
3.616970e+002, 1.921615e+002
3.621791e+002, 1.912934e+002
3.626613e+002, 1.905627e+002
3.631434e+002, 1.900923e+002
3.636255e+002, 1.902932e+002
3.641076e+002, 1.904626e+002
3.645897e+002, 1.902396e+002
3.650718e+002, 1.894779e+002
3.655540e+002, 1.887077e+002
3.660361e+002, 1.879334e+002
3.665182e+002, 1.872299e+002
3.670003e+002, 1.866874e+002
3.674824e+002, 1.866001e+002
3.679645e+002, 1.863866e+002
3.684467e+002, 1.858705e+002
3.689288e+002, 1.850456e+002
3.694109e+002, 1.842854e+002
3.698930e+002, 1.834912e+002
3.703751e+002, 1.828433e+002
3.708572e+002, 1.824768e+002
3.713394e+002, 1.825829e+002
3.718215e+002, 1.826672e+002
3.723036e+002, 1.827556e+002
3.727857e+002, 1.827957e+002
3.732678e+002, 1.825710e+002
3.737499e+002, 1.819194e+002
3.742321e+002, 1.812805e+002
3.747142e+002, 1.808486e+002
3.751963e+002, 1.806308e+002
3.756784e+002, 1.805956e+002
3.761605e+002, 1.808156e+002
3.766426e+002, 1.811223e+002
3.771248e+002, 1.812818e+002
3.776069e+002, 1.813050e+002
3.780890e+002, 1.811170e+002
3.785711e+002, 1.805927e+002
3.790532e+002, 1.798041e+002
3.795353e+002, 1.793278e+002
3.800175e+002, 1.791907e+002
3.804996e+002, 1.792133e+002
3.809817e+002, 1.793080e+002
3.814638e+002, 1.794511e+002
3.819459e+002, 1.794174e+002
3.824280e+002, 1.791016e+002
3.829102e+002, 1.786638e+002
3.833923e+002, 1.784323e+002
3.838744e+002, 1.783864e+002
3.843565e+002, 1.783451e+002
3.848386e+002, 1.780554e+002
3.853207e+002, 1.777065e+002
3.858029e+002, 1.777829e+002
3.862850e+002, 1.784044e+002
3.867671e+002, 1.790627e+002
3.872492e+002, 1.792023e+002
3.877313e+002, 1.789801e+002
3.882134e+002, 1.787492e+002
3.886956e+002, 1.786975e+002
3.891777e+002, 1.786963e+002
3.896598e+002, 1.785802e+002
3.901419e+002, 1.783630e+002
3.906240e+002, 1.782669e+002
3.911061e+002, 1.785529e+002
3.915883e+002, 1.789807e+002
3.920704e+002, 1.793035e+002
3.925525e+002, 1.794595e+002
3.930346e+002, 1.794952e+002
3.935167e+002, 1.792947e+002
3.939988e+002, 1.789757e+002
3.944810e+002, 1.788638e+002
3.949631e+002, 1.792630e+002
3.954452e+002, 1.797493e+002
3.959273e+002, 1.801304e+002
3.964094e+002, 1.803926e+002
3.968915e+002, 1.805206e+002
3.973737e+002, 1.803364e+002
3.978558e+002, 1.800714e+002
3.983379e+002, 1.800108e+002
3.988200e+002, 1.803091e+002
3.993021e+002, 1.806757e+002
3.997842e+002, 1.810895e+002
4.002664e+002, 1.815479e+002
4.007485e+002, 1.819383e+002
4.012306e+002, 1.822481e+002
4.017127e+002, 1.824931e+002
4.021948e+002, 1.826781e+002
4.026769e+002, 1.827861e+002
4.031591e+002, 1.828629e+002
4.036412e+002, 1.828928e+002
4.041233e+002, 1.828998e+002
4.046054e+002, 1.829501e+002
4.050875e+002, 1.830576e+002
4.055696e+002, 1.831673e+002
4.060518e+002, 1.832594e+002
4.065339e+002, 1.833353e+002
4.070160e+002, 1.833931e+002
4.074981e+002, 1.834190e+002
4.079802e+002, 1.834745e+002
4.084623e+002, 1.836378e+002
4.089445e+002, 1.839107e+002
4.094266e+002, 1.842410e+002
4.099087e+002, 1.846757e+002
4.103908e+002, 1.851143e+002
4.108729e+002, 1.852185e+002
4.113550e+002, 1.850034e+002
4.118372e+002, 1.848753e+002
4.123193e+002, 1.852528e+002
4.128014e+002, 1.859235e+002
4.132835e+002, 1.863912e+002
4.137656e+002, 1.865814e+002
4.142477e+002, 1.866097e+002
4.147299e+002, 1.864990e+002
4.152120e+002, 1.863118e+002
4.156941e+002, 1.862043e+002
4.161762e+002, 1.862725e+002
4.166583e+002, 1.864301e+002
4.171404e+002, 1.865929e+002
4.176226e+002, 1.867592e+002
4.181047e+002, 1.869810e+002
4.185868e+002, 1.873300e+002
4.190689e+002, 1.877265e+002
4.195510e+002, 1.881069e+002
4.200331e+002, 1.885164e+002
4.205153e+002, 1.888171e+002
4.209974e+002, 1.888813e+002
4.214795e+002, 1.887907e+002
4.219616e+002, 1.887478e+002
4.224437e+002, 1.888230e+002
4.229258e+002, 1.889465e+002
4.234080e+002, 1.891145e+002
4.238901e+002, 1.893698e+002
4.243722e+002, 1.895315e+002
4.248543e+002, 1.895191e+002
4.253364e+002, 1.894449e+002
4.258185e+002, 1.894131e+002
4.263007e+002, 1.893900e+002
4.267828e+002, 1.894663e+002
4.272649e+002, 1.897045e+002
4.277470e+002, 1.900682e+002
4.282291e+002, 1.903304e+002
4.287112e+002, 1.904854e+002
4.291934e+002, 1.905403e+002
4.296755e+002, 1.904781e+002
4.301576e+002, 1.902693e+002
4.306397e+002, 1.900773e+002
4.311218e+002, 1.898981e+002
4.316039e+002, 1.897469e+002
4.320861e+002, 1.896432e+002
4.325682e+002, 1.895873e+002
4.330503e+002, 1.895864e+002
4.335324e+002, 1.896559e+002
4.340145e+002, 1.897811e+002
4.344966e+002, 1.899123e+002
4.349788e+002, 1.900511e+002
4.354609e+002, 1.902017e+002
4.359430e+002, 1.904670e+002
4.364251e+002, 1.907539e+002
4.369072e+002, 1.907478e+002
4.373893e+002, 1.902916e+002
4.378715e+002, 1.897922e+002
4.383536e+002, 1.897669e+002
4.388357e+002, 1.900842e+002
4.393178e+002, 1.903777e+002
4.397999e+002, 1.904874e+002
4.402820e+002, 1.904663e+002
4.407642e+002, 1.903552e+002
4.412463e+002, 1.901531e+002
4.417284e+002, 1.898627e+002
4.422105e+002, 1.892851e+002
4.426926e+002, 1.887056e+002
4.431747e+002, 1.884041e+002
4.436569e+002, 1.886692e+002
4.441390e+002, 1.889611e+002
4.446211e+002, 1.891096e+002
4.451032e+002, 1.891572e+002
4.455853e+002, 1.892234e+002
4.460674e+002, 1.895364e+002
4.465496e+002, 1.896958e+002
4.470317e+002, 1.895307e+002
4.475138e+002, 1.889486e+002
4.479959e+002, 1.883246e+002
4.484780e+002, 1.875186e+002
4.489601e+002, 1.867719e+002
4.494423e+002, 1.863436e+002
4.499244e+002, 1.864610e+002
4.504065e+002, 1.864248e+002
4.508886e+002, 1.860377e+002
4.513707e+002, 1.854270e+002
4.518528e+002, 1.851883e+002
4.523350e+002, 1.854680e+002
4.528171e+002, 1.856639e+002
4.532992e+002, 1.853104e+002
4.537813e+002, 1.843912e+002
4.542634e+002, 1.840227e+002
4.547455e+002, 1.843685e+002
4.552277e+002, 1.847880e+002
4.557098e+002, 1.842444e+002
4.561919e+002, 1.829085e+002
4.566740e+002, 1.819574e+002
4.571561e+002, 1.820172e+002
4.576382e+002, 1.824982e+002
4.581204e+002, 1.823670e+002
4.586025e+002, 1.816881e+002
4.590846e+002, 1.809343e+002
4.595667e+002, 1.803830e+002
4.600488e+002, 1.799600e+002
4.605309e+002, 1.795788e+002
4.610131e+002, 1.792392e+002
4.614952e+002, 1.788958e+002
4.619773e+002, 1.784774e+002
4.624594e+002, 1.780492e+002
4.629415e+002, 1.777013e+002
4.634236e+002, 1.775857e+002
4.639058e+002, 1.774519e+002
4.643879e+002, 1.771695e+002
4.648700e+002, 1.767539e+002
4.653521e+002, 1.763470e+002
4.658342e+002, 1.759565e+002
4.663163e+002, 1.755978e+002
4.667985e+002, 1.752869e+002
4.672806e+002, 1.751026e+002
4.677627e+002, 1.748162e+002
4.682448e+002, 1.742481e+002
4.687269e+002, 1.736538e+002
4.692090e+002, 1.734267e+002
4.696912e+002, 1.738781e+002
4.701733e+002, 1.741186e+002
4.706554e+002, 1.738940e+002
4.711375e+002, 1.732560e+002
4.716196e+002, 1.727159e+002
4.721017e+002, 1.723088e+002
4.725839e+002, 1.718977e+002
4.730660e+002, 1.713440e+002
4.735481e+002, 1.706483e+002
4.740302e+002, 1.700589e+002
4.745123e+002, 1.695947e+002
4.749944e+002, 1.692471e+002
4.754766e+002, 1.690466e+002
4.759587e+002, 1.689743e+002
4.764408e+002, 1.688998e+002
4.769229e+002, 1.687646e+002
4.774050e+002, 1.686049e+002
4.778871e+002, 1.684789e+002
4.783693e+002, 1.683861e+002
4.788514e+002, 1.683099e+002
4.793335e+002, 1.681532e+002
4.798156e+002, 1.680436e+002
4.802977e+002, 1.681821e+002
4.807798e+002, 1.686880e+002
4.812620e+002, 1.691443e+002
4.817441e+002, 1.692444e+002
4.822262e+002, 1.691516e+002
4.827083e+002, 1.691076e+002
4.831904e+002, 1.689308e+002
4.836725e+002, 1.690654e+002
4.841547e+002, 1.700116e+002
4.846368e+002, 1.716597e+002
4.851189e+002, 1.725923e+002
4.856010e+002, 1.725344e+002
4.860831e+002, 1.717508e+002
4.865652e+002, 1.703014e+002
4.870474e+002, 1.675548e+002
4.875295e+002, 1.654824e+002
4.880116e+002, 1.642828e+002
4.884937e+002, 1.636331e+002
4.889758e+002, 1.631214e+002
4.894579e+002, 1.628037e+002
4.899401e+002, 1.624371e+002
4.904222e+002, 1.618968e+002
4.909043e+002, 1.612698e+002
4.913864e+002, 1.609786e+002
4.918685e+002, 1.610596e+002
4.923506e+002, 1.612256e+002
4.928328e+002, 1.614068e+002
4.933149e+002, 1.615386e+002
4.937970e+002, 1.612133e+002
4.942791e+002, 1.603174e+002
4.947612e+002, 1.593915e+002
4.952433e+002, 1.591198e+002
4.957255e+002, 1.593020e+002
4.962076e+002, 1.594203e+002
4.966897e+002, 1.592367e+002
4.971718e+002, 1.589598e+002
4.976539e+002, 1.587637e+002
4.981360e+002, 1.586414e+002
4.986182e+002, 1.585601e+002
4.991003e+002, 1.585204e+002
4.995824e+002, 1.585052e+002
5.000645e+002, 1.585293e+002
5.005466e+002, 1.586249e+002
5.010287e+002, 1.586136e+002
5.015109e+002, 1.582698e+002
5.019930e+002, 1.578696e+002
5.024751e+002, 1.576934e+002
5.029572e+002, 1.581884e+002
5.034393e+002, 1.584068e+002
5.039214e+002, 1.580427e+002
5.044036e+002, 1.573147e+002
5.048857e+002, 1.570037e+002
5.053678e+002, 1.573343e+002
5.058499e+002, 1.576914e+002
5.063320e+002, 1.578312e+002
5.068141e+002, 1.577415e+002
5.072963e+002, 1.575917e+002
5.077784e+002, 1.573291e+002
5.082605e+002, 1.571460e+002
5.087426e+002, 1.573436e+002
5.092247e+002, 1.578846e+002
5.097068e+002, 1.581720e+002
5.101890e+002, 1.580338e+002
5.106711e+002, 1.577079e+002
5.111532e+002, 1.575864e+002
5.116353e+002, 1.576330e+002
5.121174e+002, 1.576781e+002
5.125995e+002, 1.576508e+002
5.130817e+002, 1.575632e+002
5.135638e+002, 1.573623e+002
5.140459e+002, 1.570604e+002
5.145280e+002, 1.568934e+002
5.150101e+002, 1.571990e+002
5.154922e+002, 1.576144e+002
5.159744e+002, 1.577923e+002
5.164565e+002, 1.575859e+002
5.169386e+002, 1.572925e+002
5.174207e+002, 1.568449e+002
5.179028e+002, 1.564055e+002
5.183849e+002, 1.562399e+002
5.188671e+002, 1.566810e+002
5.193492e+002, 1.570909e+002
5.198313e+002, 1.573534e+002
5.203134e+002, 1.574688e+002
5.207955e+002, 1.574474e+002
5.212776e+002, 1.571267e+002
5.217598e+002, 1.569062e+002
5.222419e+002, 1.570946e+002
5.227240e+002, 1.578359e+002
5.232061e+002, 1.581728e+002
5.236882e+002, 1.579905e+002
5.241703e+002, 1.576172e+002
5.246525e+002, 1.574927e+002
5.251346e+002, 1.576005e+002
5.256167e+002, 1.576814e+002
5.260988e+002, 1.576632e+002
5.265809e+002, 1.575839e+002
5.270630e+002, 1.575037e+002
5.275452e+002, 1.574227e+002
5.280273e+002, 1.573337e+002
5.285094e+002, 1.571591e+002
5.289915e+002, 1.570131e+002
5.294736e+002, 1.570685e+002
5.299557e+002, 1.573454e+002
5.304379e+002, 1.575882e+002
5.309200e+002, 1.576422e+002
5.314021e+002, 1.575867e+002
5.318842e+002, 1.574948e+002
5.323663e+002, 1.573200e+002
5.328484e+002, 1.571980e+002
5.333306e+002, 1.571835e+002
5.338127e+002, 1.572415e+002
5.342948e+002, 1.573011e+002
5.347769e+002, 1.573372e+002
5.352590e+002, 1.573962e+002
5.357411e+002, 1.574801e+002
5.362233e+002, 1.575903e+002
5.367054e+002, 1.577896e+002
5.371875e+002, 1.581433e+002
5.376696e+002, 1.584628e+002
5.381517e+002, 1.586033e+002
5.386339e+002, 1.585478e+002
5.391160e+002, 1.585688e+002
5.395981e+002, 1.587103e+002
5.400802e+002, 1.588497e+002
5.405623e+002, 1.587682e+002
5.410444e+002, 1.585150e+002
5.415266e+002, 1.583817e+002
5.420087e+002, 1.585397e+002
5.424908e+002, 1.587667e+002
5.429729e+002, 1.586126e+002
5.434550e+002, 1.582042e+002
5.439371e+002, 1.580446e+002
5.444193e+002, 1.586866e+002
5.449014e+002, 1.595174e+002
5.453835e+002, 1.600119e+002
5.458656e+002, 1.601105e+002
5.463477e+002, 1.601751e+002
5.468298e+002, 1.603545e+002
5.473120e+002, 1.605633e+002
5.477941e+002, 1.607307e+002
5.482762e+002, 1.608445e+002
5.487583e+002, 1.609162e+002
5.492404e+002, 1.609131e+002
5.497225e+002, 1.608776e+002
5.502047e+002, 1.608792e+002
5.506868e+002, 1.609122e+002
5.511689e+002, 1.609953e+002
5.516510e+002, 1.611444e+002
5.521331e+002, 1.613502e+002
5.526152e+002, 1.615471e+002
5.530974e+002, 1.617339e+002
5.535795e+002, 1.619289e+002
5.540616e+002, 1.621994e+002
5.545437e+002, 1.625112e+002
5.550258e+002, 1.626138e+002
5.555079e+002, 1.624715e+002
5.559901e+002, 1.622978e+002
5.564722e+002, 1.622613e+002
5.569543e+002, 1.623643e+002
5.574364e+002, 1.626421e+002
5.579185e+002, 1.632579e+002
5.584006e+002, 1.638009e+002
5.588828e+002, 1.637862e+002
5.593649e+002, 1.634476e+002
5.598470e+002, 1.633285e+002
5.603291e+002, 1.638616e+002
5.608112e+002, 1.644605e+002
5.612933e+002, 1.648486e+002
5.617755e+002, 1.650088e+002
5.622576e+002, 1.652206e+002
5.627397e+002, 1.657031e+002
5.632218e+002, 1.660884e+002
5.637039e+002, 1.661657e+002
5.641860e+002, 1.657386e+002
5.646682e+002, 1.655222e+002
5.651503e+002, 1.655739e+002
5.656324e+002, 1.657665e+002
5.661145e+002, 1.659460e+002
5.665966e+002, 1.661143e+002
5.670787e+002, 1.662944e+002
5.675609e+002, 1.664887e+002
5.680430e+002, 1.667084e+002
5.685251e+002, 1.670138e+002
5.690072e+002, 1.673895e+002
5.694893e+002, 1.676804e+002
5.699714e+002, 1.677280e+002
5.704536e+002, 1.676775e+002
5.709357e+002, 1.677430e+002
5.714178e+002, 1.679215e+002
5.718999e+002, 1.681136e+002
5.723820e+002, 1.682919e+002
5.728641e+002, 1.684298e+002
5.733463e+002, 1.684732e+002
5.738284e+002, 1.683343e+002
5.743105e+002, 1.683133e+002
5.747926e+002, 1.686232e+002
5.752747e+002, 1.690537e+002
5.757568e+002, 1.693382e+002
5.762390e+002, 1.693406e+002
5.767211e+002, 1.693443e+002
5.772032e+002, 1.693263e+002
5.776853e+002, 1.693366e+002
5.781674e+002, 1.695966e+002
5.786495e+002, 1.702301e+002
5.791317e+002, 1.707495e+002
5.796138e+002, 1.708996e+002
5.800959e+002, 1.707363e+002
5.805780e+002, 1.707353e+002
5.810601e+002, 1.709112e+002
5.815422e+002, 1.711015e+002
5.820244e+002, 1.711069e+002
5.825065e+002, 1.710281e+002
5.829886e+002, 1.711537e+002
5.834707e+002, 1.715625e+002
5.839528e+002, 1.719650e+002
5.844349e+002, 1.720397e+002
5.849171e+002, 1.719569e+002
5.853992e+002, 1.719699e+002
5.858813e+002, 1.722453e+002
5.863634e+002, 1.725484e+002
5.868455e+002, 1.727654e+002
5.873276e+002, 1.729322e+002
5.878098e+002, 1.731413e+002
5.882919e+002, 1.735617e+002
5.887740e+002, 1.738661e+002
5.892561e+002, 1.739267e+002
5.897382e+002, 1.737377e+002
5.902203e+002, 1.735891e+002
5.907025e+002, 1.734837e+002
5.911846e+002, 1.734142e+002
5.916667e+002, 1.733557e+002
5.921488e+002, 1.733002e+002
5.926309e+002, 1.734179e+002
5.931130e+002, 1.737554e+002
5.935952e+002, 1.741216e+002
5.940773e+002, 1.742983e+002
5.945594e+002, 1.743100e+002
5.950415e+002, 1.742240e+002
5.955236e+002, 1.739993e+002
5.960057e+002, 1.738017e+002
5.964879e+002, 1.737953e+002
5.969700e+002, 1.739603e+002
5.974521e+002, 1.742522e+002
5.979342e+002, 1.748815e+002
5.984163e+002, 1.754283e+002
5.988984e+002, 1.756205e+002
5.993806e+002, 1.754860e+002
5.998627e+002, 1.753281e+002
6.003448e+002, 1.751042e+002
6.008269e+002, 1.749663e+002
6.013090e+002, 1.749866e+002
6.017911e+002, 1.751908e+002
6.022733e+002, 1.754697e+002
6.027554e+002, 1.759053e+002
6.032375e+002, 1.762986e+002
6.037196e+002, 1.764294e+002
6.042017e+002, 1.762715e+002
6.046838e+002, 1.761215e+002
6.051660e+002, 1.759964e+002
6.056481e+002, 1.759328e+002
6.061302e+002, 1.760194e+002
6.066123e+002, 1.762307e+002
6.070944e+002, 1.764494e+002
6.075765e+002, 1.766640e+002
6.080587e+002, 1.768330e+002
6.085408e+002, 1.768178e+002
6.090229e+002, 1.766938e+002
6.095050e+002, 1.767327e+002
6.099871e+002, 1.772968e+002
6.104692e+002, 1.778860e+002
6.109514e+002, 1.782030e+002
6.114335e+002, 1.782197e+002
6.119156e+002, 1.781229e+002
6.123977e+002, 1.777600e+002
6.128798e+002, 1.774389e+002
6.133619e+002, 1.773602e+002
6.138441e+002, 1.776889e+002
6.143262e+002, 1.778544e+002
6.148083e+002, 1.777986e+002
6.152904e+002, 1.776634e+002
6.157725e+002, 1.776431e+002
6.162546e+002, 1.777497e+002
6.167368e+002, 1.777807e+002
6.172189e+002, 1.776699e+002
6.177010e+002, 1.775162e+002
6.181831e+002, 1.775042e+002
6.186652e+002, 1.776086e+002
6.191473e+002, 1.777277e+002
6.196295e+002, 1.777455e+002
6.201116e+002, 1.777995e+002
6.205937e+002, 1.781164e+002
6.210758e+002, 1.786288e+002
6.215579e+002, 1.790102e+002
6.220400e+002, 1.790133e+002
6.225222e+002, 1.788973e+002
6.230043e+002, 1.788018e+002
6.234864e+002, 1.787474e+002
6.239685e+002, 1.786648e+002
6.244506e+002, 1.784437e+002
6.249327e+002, 1.782771e+002
6.254149e+002, 1.782997e+002
6.258970e+002, 1.785627e+002
6.263791e+002, 1.788913e+002
6.268612e+002, 1.793558e+002
6.273433e+002, 1.797558e+002
6.278254e+002, 1.797046e+002
6.283076e+002, 1.792298e+002
6.287897e+002, 1.789367e+002
6.292718e+002, 1.789996e+002
6.297539e+002, 1.792787e+002
6.302360e+002, 1.796710e+002
6.307181e+002, 1.801130e+002
6.312003e+002, 1.803951e+002
6.316824e+002, 1.802933e+002
6.321645e+002, 1.800857e+002
6.326466e+002, 1.799442e+002
6.331287e+002, 1.798758e+002
6.336108e+002, 1.798971e+002
6.340930e+002, 1.801742e+002
6.345751e+002, 1.804075e+002
6.350572e+002, 1.803900e+002
6.355393e+002, 1.800246e+002
6.360214e+002, 1.798899e+002
6.365035e+002, 1.800989e+002
6.369857e+002, 1.804002e+002
6.374678e+002, 1.806031e+002
6.379499e+002, 1.806908e+002
6.384320e+002, 1.807820e+002
6.389141e+002, 1.808709e+002
6.393962e+002, 1.809963e+002
6.398784e+002, 1.812870e+002
6.403605e+002, 1.816797e+002
6.408426e+002, 1.818906e+002
6.413247e+002, 1.817650e+002
6.418068e+002, 1.815657e+002
6.422889e+002, 1.815833e+002
6.427711e+002, 1.817477e+002
6.432532e+002, 1.818981e+002
6.437353e+002, 1.818818e+002
6.442174e+002, 1.819135e+002
6.446995e+002, 1.820992e+002
6.451816e+002, 1.824285e+002
6.456638e+002, 1.828140e+002
6.461459e+002, 1.834664e+002
6.466280e+002, 1.839380e+002
6.471101e+002, 1.840334e+002
6.475922e+002, 1.837256e+002
6.480743e+002, 1.834689e+002
6.485565e+002, 1.832362e+002
6.490386e+002, 1.831253e+002
6.495207e+002, 1.832877e+002
6.500028e+002, 1.836794e+002
6.504849e+002, 1.838910e+002
6.509670e+002, 1.838631e+002
6.514492e+002, 1.838450e+002
6.519313e+002, 1.842072e+002
6.524134e+002, 1.847501e+002
6.528955e+002, 1.850804e+002
6.533776e+002, 1.850413e+002
6.538597e+002, 1.849196e+002
6.543419e+002, 1.848551e+002
6.548240e+002, 1.848376e+002
6.553061e+002, 1.848530e+002
6.557882e+002, 1.849649e+002
6.562703e+002, 1.850375e+002
6.567524e+002, 1.849580e+002
6.572346e+002, 1.848212e+002
6.577167e+002, 1.849436e+002
6.581988e+002, 1.854901e+002
6.586809e+002, 1.859181e+002
6.591630e+002, 1.859801e+002
6.596451e+002, 1.857654e+002
6.601273e+002, 1.858232e+002
6.606094e+002, 1.861647e+002
6.610915e+002, 1.865532e+002
6.615736e+002, 1.868705e+002
6.620557e+002, 1.871118e+002
6.625378e+002, 1.872434e+002
6.630200e+002, 1.872627e+002
6.635021e+002, 1.872736e+002
6.639842e+002, 1.872962e+002
6.644663e+002, 1.873734e+002
6.649484e+002, 1.875739e+002
6.654305e+002, 1.879893e+002
6.659127e+002, 1.882936e+002
6.663948e+002, 1.883023e+002
6.668769e+002, 1.882205e+002
6.673590e+002, 1.882630e+002
6.678411e+002, 1.885164e+002
6.683232e+002, 1.887115e+002
6.688054e+002, 1.887977e+002
6.692875e+002, 1.888506e+002
6.697696e+002, 1.890230e+002
6.702517e+002, 1.893176e+002
6.707338e+002, 1.895666e+002
6.712159e+002, 1.897187e+002
6.716981e+002, 1.897944e+002
6.721802e+002, 1.897842e+002
6.726623e+002, 1.897165e+002
6.731444e+002, 1.896942e+002
6.736265e+002, 1.897877e+002
6.741086e+002, 1.899334e+002
6.745908e+002, 1.901002e+002
6.750729e+002, 1.902835e+002
6.755550e+002, 1.904665e+002
6.760371e+002, 1.906815e+002
6.765192e+002, 1.908645e+002
6.770013e+002, 1.909934e+002
6.774835e+002, 1.910699e+002
6.779656e+002, 1.910753e+002
6.784477e+002, 1.909129e+002
6.789298e+002, 1.908554e+002
6.794119e+002, 1.911774e+002
6.798940e+002, 1.918862e+002
6.803762e+002, 1.923038e+002
6.808583e+002, 1.923797e+002
6.813404e+002, 1.923701e+002
6.818225e+002, 1.925746e+002
6.823046e+002, 1.928841e+002
6.827867e+002, 1.930603e+002
6.832689e+002, 1.930172e+002
6.837510e+002, 1.929561e+002
6.842331e+002, 1.929188e+002
6.847152e+002, 1.929864e+002
6.851973e+002, 1.932634e+002
6.856794e+002, 1.942018e+002
6.861616e+002, 1.948497e+002
6.866437e+002, 1.948149e+002
6.871258e+002, 1.944453e+002
6.876079e+002, 1.943486e+002
6.880900e+002, 1.945949e+002
6.885721e+002, 1.949509e+002
6.890543e+002, 1.954382e+002
6.895364e+002, 1.959422e+002
6.900185e+002, 1.960238e+002
6.905006e+002, 1.956998e+002
6.909827e+002, 1.955175e+002
6.914648e+002, 1.958600e+002
6.919470e+002, 1.964567e+002
6.924291e+002, 1.969853e+002
6.929112e+002, 1.974242e+002
6.933933e+002, 1.976563e+002
6.938754e+002, 1.972904e+002
6.943575e+002, 1.969591e+002
6.948397e+002, 1.971971e+002
6.953218e+002, 1.981086e+002
6.958039e+002, 1.986907e+002
6.962860e+002, 1.984463e+002
6.967681e+002, 1.981985e+002
6.972502e+002, 1.984416e+002
6.977324e+002, 1.993793e+002
6.982145e+002, 1.996909e+002
6.986966e+002, 1.991604e+002
6.991787e+002, 1.986168e+002
6.996608e+002, 1.990704e+002
7.001429e+002, 2.002773e+002
7.006251e+002, 2.009902e+002
7.011072e+002, 2.009817e+002
7.015893e+002, 2.008311e+002
7.020714e+002, 2.011217e+002
7.025535e+002, 2.016346e+002
7.030356e+002, 2.020482e+002
7.035178e+002, 2.022094e+002
7.039999e+002, 2.023534e+002
7.044820e+002, 2.024679e+002
7.049641e+002, 2.026459e+002
7.054462e+002, 2.030532e+002
7.059283e+002, 2.039516e+002
7.064105e+002, 2.046656e+002
7.068926e+002, 2.050897e+002
7.073747e+002, 2.052959e+002
7.078568e+002, 2.054321e+002
7.083389e+002, 2.054941e+002
7.088210e+002, 2.055678e+002
7.093032e+002, 2.056956e+002
7.097853e+002, 2.058427e+002
7.102674e+002, 2.059616e+002
7.107495e+002, 2.060436e+002
7.112316e+002, 2.060453e+002
7.117137e+002, 2.056975e+002
7.121959e+002, 2.054619e+002
7.126780e+002, 2.057496e+002
7.131601e+002, 2.065061e+002
7.136422e+002, 2.072615e+002
7.141243e+002, 2.078929e+002
7.146064e+002, 2.084950e+002
7.150886e+002, 2.090838e+002
7.155707e+002, 2.096612e+002
7.160528e+002, 2.103567e+002
7.165349e+002, 2.112385e+002
7.170170e+002, 2.120811e+002
7.174991e+002, 2.128848e+002
7.179813e+002, 2.135831e+002
7.184634e+002, 2.135107e+002
7.189455e+002, 2.126161e+002
7.194276e+002, 2.117526e+002
7.199097e+002, 2.117074e+002
7.203918e+002, 2.121138e+002
7.208740e+002, 2.124524e+002
7.213561e+002, 2.126046e+002
7.218382e+002, 2.129721e+002
7.223203e+002, 2.141233e+002
7.228024e+002, 2.153557e+002
7.232845e+002, 2.160315e+002
7.237667e+002, 2.155044e+002
7.242488e+002, 2.154888e+002
7.247309e+002, 2.162456e+002
7.252130e+002, 2.172346e+002
7.256951e+002, 2.178385e+002
7.261772e+002, 2.180380e+002
7.266594e+002, 2.180942e+002
7.271415e+002, 2.179919e+002
7.276236e+002, 2.179101e+002
7.281057e+002, 2.181442e+002
7.285878e+002, 2.185983e+002
7.290699e+002, 2.190271e+002
7.295521e+002, 2.193556e+002
7.300342e+002, 2.196292e+002
7.305163e+002, 2.197733e+002
7.309984e+002, 2.199035e+002
7.314805e+002, 2.202256e+002
7.319626e+002, 2.212170e+002
7.324448e+002, 2.218742e+002
7.329269e+002, 2.217791e+002
7.334090e+002, 2.212930e+002
7.338911e+002, 2.214948e+002
7.343732e+002, 2.226005e+002
7.348553e+002, 2.234775e+002
7.353375e+002, 2.236570e+002
7.358196e+002, 2.234659e+002
7.363017e+002, 2.237733e+002
7.367838e+002, 2.245143e+002
7.372659e+002, 2.252923e+002
7.377480e+002, 2.258870e+002
7.382302e+002, 2.264211e+002
7.387123e+002, 2.271454e+002
7.391944e+002, 2.279644e+002
7.396765e+002, 2.284136e+002
7.401586e+002, 2.278436e+002
7.406407e+002, 2.273181e+002
7.411229e+002, 2.273288e+002
7.416050e+002, 2.278541e+002
7.420871e+002, 2.284605e+002
7.425692e+002, 2.291976e+002
7.430513e+002, 2.299105e+002
7.435334e+002, 2.305267e+002
7.440156e+002, 2.310521e+002
7.444977e+002, 2.315046e+002
7.449798e+002, 2.318868e+002
7.454619e+002, 2.322149e+002
7.459440e+002, 2.323911e+002
7.464261e+002, 2.325726e+002
7.469083e+002, 2.329628e+002
7.473904e+002, 2.335804e+002
7.478725e+002, 2.343133e+002
7.483546e+002, 2.353554e+002
7.488367e+002, 2.363020e+002
7.493188e+002, 2.367978e+002
7.498010e+002, 2.365910e+002
7.502831e+002, 2.368015e+002
7.507652e+002, 2.377119e+002
7.512473e+002, 2.385994e+002
7.517294e+002, 2.387807e+002
7.522115e+002, 2.382673e+002
7.526937e+002, 2.380993e+002
7.531758e+002, 2.383628e+002
7.536579e+002, 2.388085e+002
7.541400e+002, 2.392637e+002
7.546221e+002, 2.397040e+002
7.551042e+002, 2.400892e+002
7.555864e+002, 2.404018e+002
7.560685e+002, 2.406993e+002
7.565506e+002, 2.410464e+002
7.570327e+002, 2.413787e+002
7.575148e+002, 2.416182e+002
7.579969e+002, 2.415121e+002
7.584791e+002, 2.417219e+002
7.589612e+002, 2.423852e+002
7.594433e+002, 2.432092e+002
7.599254e+002, 2.438631e+002
7.604075e+002, 2.443501e+002
7.608896e+002, 2.446127e+002
7.613718e+002, 2.445781e+002
7.618539e+002, 2.445150e+002
7.623360e+002, 2.448593e+002
7.628181e+002, 2.454298e+002
7.633002e+002, 2.458417e+002
7.637823e+002, 2.459217e+002
7.642645e+002, 2.459340e+002
7.647466e+002, 2.458965e+002
7.652287e+002, 2.459229e+002
7.657108e+002, 2.461893e+002
7.661929e+002, 2.469928e+002
7.666750e+002, 2.476811e+002
7.671572e+002, 2.482797e+002
7.676393e+002, 2.486794e+002
7.681214e+002, 2.485025e+002
7.686035e+002, 2.476814e+002
7.690856e+002, 2.473600e+002
7.695677e+002, 2.479933e+002
7.700499e+002, 2.489388e+002
7.705320e+002, 2.490912e+002
7.710141e+002, 2.487451e+002
7.714962e+002, 2.486596e+002
7.719783e+002, 2.494176e+002
7.724604e+002, 2.502451e+002
7.729426e+002, 2.508241e+002
7.734247e+002, 2.511674e+002
7.739068e+002, 2.512864e+002
7.743889e+002, 2.510248e+002
7.748710e+002, 2.507630e+002
7.753531e+002, 2.505214e+002
7.758353e+002, 2.503423e+002
7.763174e+002, 2.503640e+002
7.767995e+002, 2.505944e+002
7.772816e+002, 2.509057e+002
7.777637e+002, 2.513006e+002
7.782458e+002, 2.517003e+002
7.787280e+002, 2.520051e+002
7.792101e+002, 2.522084e+002
7.796922e+002, 2.522828e+002
7.801743e+002, 2.519679e+002
7.806564e+002, 2.517665e+002
7.811385e+002, 2.521272e+002
7.816207e+002, 2.528694e+002
7.821028e+002, 2.531593e+002
7.825849e+002, 2.526362e+002
7.830670e+002, 2.521605e+002
7.835491e+002, 2.519448e+002
7.840313e+002, 2.519443e+002
7.845134e+002, 2.520066e+002
7.849955e+002, 2.521305e+002
7.854776e+002, 2.522472e+002
7.859597e+002, 2.521947e+002
7.864418e+002, 2.522070e+002
7.869240e+002, 2.529304e+002
7.874061e+002, 2.541096e+002
7.878882e+002, 2.547945e+002
7.883703e+002, 2.540154e+002
7.888524e+002, 2.530834e+002
7.893345e+002, 2.526824e+002
7.898167e+002, 2.527507e+002
7.902988e+002, 2.526134e+002
7.907809e+002, 2.521470e+002
7.912630e+002, 2.516812e+002
7.917451e+002, 2.513015e+002
7.922272e+002, 2.510180e+002
7.927094e+002, 2.508779e+002
7.931915e+002, 2.508770e+002
7.936736e+002, 2.508588e+002
7.941557e+002, 2.507307e+002
7.946378e+002, 2.505375e+002
7.951199e+002, 2.502622e+002
7.956021e+002, 2.499522e+002
7.960842e+002, 2.498027e+002
7.965663e+002, 2.501253e+002
7.970484e+002, 2.504104e+002
7.975305e+002, 2.503256e+002
7.980126e+002, 2.499369e+002
7.984948e+002, 2.498896e+002
7.989769e+002, 2.503764e+002
7.994590e+002, 2.507261e+002
7.999411e+002, 2.505928e+002
8.004232e+002, 2.501204e+002
8.009053e+002, 2.498684e+002
8.013875e+002, 2.498200e+002
8.018696e+002, 2.498029e+002
8.023517e+002, 2.497411e+002
8.028338e+002, 2.496392e+002
8.033159e+002, 2.494454e+002
8.037980e+002, 2.491915e+002
8.042802e+002, 2.490617e+002
8.047623e+002, 2.492484e+002
8.052444e+002, 2.494265e+002
8.057265e+002, 2.494572e+002
8.062086e+002, 2.493608e+002
8.066907e+002, 2.493713e+002
8.071729e+002, 2.495427e+002
8.076550e+002, 2.495593e+002
8.081371e+002, 2.491029e+002
8.086192e+002, 2.484508e+002
8.091013e+002, 2.485182e+002
8.095834e+002, 2.491621e+002
8.100656e+002, 2.495624e+002
8.105477e+002, 2.489864e+002
8.110298e+002, 2.482142e+002
8.115119e+002, 2.478154e+002
8.119940e+002, 2.477482e+002
8.124761e+002, 2.475148e+002
8.129583e+002, 2.467989e+002
8.134404e+002, 2.462236e+002
8.139225e+002, 2.459969e+002
8.144046e+002, 2.460742e+002
8.148867e+002, 2.462454e+002
8.153688e+002, 2.465233e+002
8.158510e+002, 2.466136e+002
8.163331e+002, 2.461989e+002
8.168152e+002, 2.455924e+002
8.172973e+002, 2.453398e+002
8.177794e+002, 2.453674e+002
8.182615e+002, 2.453965e+002
8.187437e+002, 2.451422e+002
8.192258e+002, 2.449935e+002
8.197079e+002, 2.453788e+002
8.201900e+002, 2.461319e+002
8.206721e+002, 2.460810e+002
8.211542e+002, 2.448322e+002
8.216364e+002, 2.436313e+002
8.221185e+002, 2.428469e+002
8.226006e+002, 2.424326e+002
8.230827e+002, 2.422992e+002
8.235648e+002, 2.424095e+002
8.240469e+002, 2.424394e+002
8.245291e+002, 2.421390e+002
8.250112e+002, 2.417503e+002
8.254933e+002, 2.414794e+002
8.259754e+002, 2.413124e+002
8.264575e+002, 2.411925e+002
8.269396e+002, 2.413346e+002
8.274218e+002, 2.412430e+002
8.279039e+002, 2.406360e+002
8.283860e+002, 2.397276e+002
8.288681e+002, 2.393249e+002
8.293502e+002, 2.395368e+002
8.298323e+002, 2.395716e+002
8.303145e+002, 2.390675e+002
8.307966e+002, 2.383453e+002
8.312787e+002, 2.380311e+002
8.317608e+002, 2.380212e+002
8.322429e+002, 2.380065e+002
8.327250e+002, 2.377673e+002
8.332072e+002, 2.375591e+002
8.336893e+002, 2.376394e+002
8.341714e+002, 2.378524e+002
8.346535e+002, 2.377724e+002
8.351356e+002, 2.373046e+002
8.356177e+002, 2.366662e+002
8.360999e+002, 2.357623e+002
8.365820e+002, 2.348249e+002
8.370641e+002, 2.344106e+002
8.375462e+002, 2.344844e+002
8.380283e+002, 2.346661e+002
8.385104e+002, 2.348953e+002
8.389926e+002, 2.350678e+002
8.394747e+002, 2.350310e+002
8.399568e+002, 2.348622e+002
8.404389e+002, 2.346960e+002
8.409210e+002, 2.347942e+002
8.414031e+002, 2.346244e+002
8.418853e+002, 2.337531e+002
8.423674e+002, 2.327063e+002
8.428495e+002, 2.322759e+002
8.433316e+002, 2.325950e+002
8.438137e+002, 2.328779e+002
8.442958e+002, 2.330310e+002
8.447780e+002, 2.330226e+002
8.452601e+002, 2.327066e+002
8.457422e+002, 2.322009e+002
8.462243e+002, 2.318157e+002
8.467064e+002, 2.317420e+002
8.471885e+002, 2.315300e+002
8.476707e+002, 2.306336e+002
8.481528e+002, 2.295906e+002
8.486349e+002, 2.290541e+002
8.491170e+002, 2.294752e+002
8.495991e+002, 2.297072e+002
8.500812e+002, 2.297444e+002
8.505634e+002, 2.295787e+002
8.510455e+002, 2.291370e+002
8.515276e+002, 2.284571e+002
8.520097e+002, 2.277608e+002
8.524918e+002, 2.270472e+002
8.529739e+002, 2.265327e+002
8.534561e+002, 2.266129e+002
8.539382e+002, 2.268957e+002
8.544203e+002, 2.269411e+002
8.549024e+002, 2.266199e+002
8.553845e+002, 2.262200e+002
8.558666e+002, 2.257154e+002
8.563488e+002, 2.252112e+002
8.568309e+002, 2.247531e+002
8.573130e+002, 2.243094e+002
8.577951e+002, 2.241548e+002
8.582772e+002, 2.243368e+002
8.587593e+002, 2.244668e+002
8.592415e+002, 2.241559e+002
8.597236e+002, 2.235815e+002
8.602057e+002, 2.229967e+002
8.606878e+002, 2.224277e+002
8.611699e+002, 2.219302e+002
8.616520e+002, 2.215876e+002
8.621342e+002, 2.212754e+002
8.626163e+002, 2.209311e+002
8.630984e+002, 2.205609e+002
8.635805e+002, 2.200896e+002
8.640626e+002, 2.194685e+002
8.645447e+002, 2.189137e+002
8.650269e+002, 2.186415e+002
8.655090e+002, 2.185243e+002
8.659911e+002, 2.180532e+002
8.664732e+002, 2.172847e+002
8.669553e+002, 2.165794e+002
8.674374e+002, 2.162317e+002
8.679196e+002, 2.159698e+002
8.684017e+002, 2.156579e+002
8.688838e+002, 2.152815e+002
8.693659e+002, 2.147776e+002
8.698480e+002, 2.139981e+002
8.703301e+002, 2.133358e+002
8.708123e+002, 2.129096e+002
8.712944e+002, 2.126683e+002
8.717765e+002, 2.124888e+002
8.722586e+002, 2.123572e+002
8.727407e+002, 2.121131e+002
8.732228e+002, 2.115937e+002
8.737050e+002, 2.110356e+002
8.741871e+002, 2.107416e+002
8.746692e+002, 2.105930e+002
8.751513e+002, 2.103259e+002
8.756334e+002, 2.097504e+002
8.761155e+002, 2.091910e+002
8.765977e+002, 2.087247e+002
8.770798e+002, 2.082983e+002
8.775619e+002, 2.077926e+002
8.780440e+002, 2.071970e+002
8.785261e+002, 2.066974e+002
8.790082e+002, 2.063354e+002
8.794904e+002, 2.060572e+002
8.799725e+002, 2.058160e+002
8.804546e+002, 2.055939e+002
8.809367e+002, 2.053823e+002
8.814188e+002, 2.052776e+002
8.819009e+002, 2.049605e+002
8.823831e+002, 2.039570e+002
8.828652e+002, 2.029068e+002
8.833473e+002, 2.025325e+002
8.838294e+002, 2.031198e+002
8.843115e+002, 2.031915e+002
8.847936e+002, 2.025891e+002
8.852758e+002, 2.018863e+002
8.857579e+002, 2.017301e+002
8.862400e+002, 2.019082e+002
8.867221e+002, 2.019312e+002
8.872042e+002, 2.017343e+002
8.876863e+002, 2.015273e+002
8.881685e+002, 2.015617e+002
8.886506e+002, 2.015269e+002
8.891327e+002, 2.011136e+002
8.896148e+002, 2.002226e+002
8.900969e+002, 1.996888e+002
8.905790e+002, 1.996367e+002
8.910612e+002, 1.995949e+002
8.915433e+002, 1.992065e+002
8.920254e+002, 1.985996e+002
8.925075e+002, 1.982719e+002
8.929896e+002, 1.981990e+002
8.934717e+002, 1.982093e+002
8.939539e+002, 1.982789e+002
8.944360e+002, 1.983207e+002
8.949181e+002, 1.982661e+002
8.954002e+002, 1.981268e+002
8.958823e+002, 1.979989e+002
8.963644e+002, 1.979822e+002
8.968466e+002, 1.977902e+002
8.973287e+002, 1.972451e+002
8.978108e+002, 1.965641e+002
8.982929e+002, 1.963917e+002
8.987750e+002, 1.966493e+002
8.992571e+002, 1.968166e+002
8.997393e+002, 1.967132e+002
9.002214e+002, 1.964211e+002
9.007035e+002, 1.958907e+002
9.011856e+002, 1.952450e+002
9.016677e+002, 1.947016e+002
9.021498e+002, 1.944609e+002
9.026320e+002, 1.940562e+002
9.031141e+002, 1.932405e+002
9.035962e+002, 1.925004e+002
9.040783e+002, 1.927104e+002
9.045604e+002, 1.937714e+002
9.050425e+002, 1.943274e+002
9.055247e+002, 1.941472e+002
9.060068e+002, 1.936660e+002
9.064889e+002, 1.929607e+002
9.069710e+002, 1.923651e+002
9.074531e+002, 1.923564e+002
9.079352e+002, 1.932579e+002
9.084174e+002, 1.937956e+002
9.088995e+002, 1.937313e+002
9.093816e+002, 1.933406e+002
9.098637e+002, 1.926620e+002
9.103458e+002, 1.916891e+002
9.108279e+002, 1.912246e+002
9.113101e+002, 1.912764e+002
9.117922e+002, 1.913836e+002
9.122743e+002, 1.912532e+002
9.127564e+002, 1.909704e+002
9.132385e+002, 1.905172e+002
9.137206e+002, 1.899469e+002
9.142028e+002, 1.896077e+002
9.146849e+002, 1.897418e+002
9.151670e+002, 1.899818e+002
9.156491e+002, 1.902944e+002
9.161312e+002, 1.906161e+002
9.166133e+002, 1.906846e+002
9.170955e+002, 1.904987e+002
9.175776e+002, 1.901931e+002
9.180597e+002, 1.897442e+002
9.185418e+002, 1.893134e+002
9.190239e+002, 1.891468e+002
9.195060e+002, 1.891389e+002
9.199882e+002, 1.890861e+002
9.204703e+002, 1.888416e+002
9.209524e+002, 1.886425e+002
9.214345e+002, 1.884491e+002
9.219166e+002, 1.883731e+002
9.223987e+002, 1.886454e+002
9.228809e+002, 1.893021e+002
9.233630e+002, 1.896645e+002
9.238451e+002, 1.896341e+002
9.243272e+002, 1.894344e+002
9.248093e+002, 1.892045e+002
9.252914e+002, 1.889977e+002
9.257736e+002, 1.888839e+002
9.262557e+002, 1.888729e+002
9.267378e+002, 1.889619e+002
9.272199e+002, 1.893720e+002
9.277020e+002, 1.896693e+002
9.281841e+002, 1.895695e+002
9.286663e+002, 1.890753e+002
9.291484e+002, 1.888739e+002
9.296305e+002, 1.889779e+002
9.301126e+002, 1.890791e+002
9.305947e+002, 1.890545e+002
9.310768e+002, 1.888666e+002
9.315590e+002, 1.882661e+002
9.320411e+002, 1.874063e+002
9.325232e+002, 1.869448e+002
9.330053e+002, 1.874907e+002
9.334874e+002, 1.879852e+002
9.339695e+002, 1.881428e+002
9.344517e+002, 1.880783e+002
9.349338e+002, 1.880991e+002
9.354159e+002, 1.882102e+002
9.358980e+002, 1.881594e+002
9.363801e+002, 1.878322e+002
9.368622e+002, 1.874496e+002
9.373444e+002, 1.872397e+002
9.378265e+002, 1.871649e+002
9.383086e+002, 1.871734e+002
9.387907e+002, 1.872940e+002
9.392728e+002, 1.874187e+002
9.397549e+002, 1.875679e+002
9.402371e+002, 1.876729e+002
9.407192e+002, 1.876443e+002
9.412013e+002, 1.874740e+002
9.416834e+002, 1.874661e+002
9.421655e+002, 1.876420e+002
9.426476e+002, 1.877295e+002
9.431298e+002, 1.872405e+002
9.436119e+002, 1.867094e+002
9.440940e+002, 1.867963e+002
9.445761e+002, 1.875164e+002
9.450582e+002, 1.881421e+002
9.455403e+002, 1.886509e+002
9.460225e+002, 1.888339e+002
9.465046e+002, 1.885053e+002
9.469867e+002, 1.878264e+002
9.474688e+002, 1.874252e+002
9.479509e+002, 1.873003e+002
9.484330e+002, 1.873529e+002
9.489152e+002, 1.876554e+002
9.493973e+002, 1.879625e+002
9.498794e+002, 1.880097e+002
9.503615e+002, 1.878995e+002
9.508436e+002, 1.878138e+002
9.513257e+002, 1.878168e+002
9.518079e+002, 1.878249e+002
9.522900e+002, 1.878513e+002
9.527721e+002, 1.878587e+002
9.532542e+002, 1.877527e+002
9.537363e+002, 1.875651e+002
9.542184e+002, 1.875698e+002
9.547006e+002, 1.878146e+002
9.551827e+002, 1.880527e+002
9.556648e+002, 1.881960e+002
9.561469e+002, 1.881691e+002
9.566290e+002, 1.878022e+002
9.571111e+002, 1.870125e+002
9.575933e+002, 1.865969e+002
9.580754e+002, 1.867105e+002
9.585575e+002, 1.869420e+002
9.590396e+002, 1.871266e+002
9.595217e+002, 1.872682e+002
9.600038e+002, 1.873471e+002
9.604860e+002, 1.873847e+002
9.609681e+002, 1.874930e+002
9.614502e+002, 1.879136e+002
9.619323e+002, 1.882339e+002
9.624144e+002, 1.881251e+002
9.628965e+002, 1.877488e+002
9.633787e+002, 1.874554e+002
9.638608e+002, 1.872069e+002
9.643429e+002, 1.872000e+002
9.648250e+002, 1.875343e+002
9.653071e+002, 1.879297e+002
9.657892e+002, 1.879029e+002
9.662714e+002, 1.876461e+002
9.667535e+002, 1.876874e+002
9.672356e+002, 1.881622e+002
9.677177e+002, 1.885849e+002
9.681998e+002, 1.886040e+002
9.686819e+002, 1.885394e+002
9.691641e+002, 1.886714e+002
9.696462e+002, 1.890405e+002
9.701283e+002, 1.890033e+002
9.706104e+002, 1.884774e+002
9.710925e+002, 1.880007e+002
9.715746e+002, 1.878895e+002
9.720568e+002, 1.880251e+002
9.725389e+002, 1.882807e+002
9.730210e+002, 1.886064e+002
9.735031e+002, 1.888310e+002
9.739852e+002, 1.886300e+002
9.744673e+002, 1.886377e+002
9.749495e+002, 1.893681e+002
9.754316e+002, 1.902302e+002
9.759137e+002, 1.899987e+002
9.763958e+002, 1.885838e+002
9.768779e+002, 1.878504e+002
9.773600e+002, 1.882306e+002
9.778422e+002, 1.888629e+002
9.783243e+002, 1.887589e+002
9.788064e+002, 1.883873e+002
9.792885e+002, 1.883975e+002
9.797706e+002, 1.890212e+002
9.802527e+002, 1.893861e+002
9.807349e+002, 1.892043e+002
9.812170e+002, 1.889420e+002
9.816991e+002, 1.888211e+002
9.821812e+002, 1.888299e+002
9.826633e+002, 1.889335e+002
9.831454e+002, 1.891184e+002
9.836276e+002, 1.892530e+002
9.841097e+002, 1.892175e+002
9.845918e+002, 1.891362e+002
9.850739e+002, 1.890595e+002
9.855560e+002, 1.890107e+002
9.860381e+002, 1.890694e+002
9.865203e+002, 1.893484e+002
9.870024e+002, 1.894971e+002
9.874845e+002, 1.894599e+002
9.879666e+002, 1.893032e+002
9.884487e+002, 1.890409e+002
9.889308e+002, 1.887441e+002
9.894130e+002, 1.886256e+002
9.898951e+002, 1.887371e+002
9.903772e+002, 1.889164e+002
9.908593e+002, 1.892084e+002
9.913414e+002, 1.894226e+002
9.918235e+002, 1.893626e+002
9.923057e+002, 1.890113e+002
9.927878e+002, 1.888341e+002
9.932699e+002, 1.888277e+002
9.937520e+002, 1.890038e+002
9.942341e+002, 1.895545e+002
9.947162e+002, 1.901521e+002
9.951984e+002, 1.900677e+002
9.956805e+002, 1.895536e+002
9.961626e+002, 1.893023e+002
9.966447e+002, 1.899968e+002
9.971268e+002, 1.904329e+002
9.976089e+002, 1.902607e+002
9.980911e+002, 1.897911e+002
9.985732e+002, 1.893825e+002
9.990553e+002, 1.890340e+002
9.995374e+002, 1.889930e+002
1.000020e+003, 1.893212e+002
1.000502e+003, 1.896770e+002
1.000984e+003, 1.896593e+002
1.001466e+003, 1.895683e+002
1.001948e+003, 1.897482e+002
1.002430e+003, 1.902692e+002
1.002912e+003, 1.905845e+002
1.003394e+003, 1.905382e+002
1.003876e+003, 1.905126e+002
1.004359e+003, 1.906222e+002
1.004841e+003, 1.908947e+002
1.005323e+003, 1.916958e+002
1.005805e+003, 1.928020e+002
1.006287e+003, 1.932536e+002
1.006769e+003, 1.920937e+002
1.007251e+003, 1.908874e+002
1.007733e+003, 1.903847e+002
1.008216e+003, 1.903631e+002
1.008698e+003, 1.905316e+002
1.009180e+003, 1.909901e+002
1.009662e+003, 1.912283e+002
1.010144e+003, 1.911920e+002
1.010626e+003, 1.910697e+002
1.011108e+003, 1.910359e+002
1.011590e+003, 1.910409e+002
1.012072e+003, 1.909828e+002
1.012555e+003, 1.908622e+002
1.013037e+003, 1.908346e+002
1.013519e+003, 1.910233e+002
1.014001e+003, 1.912359e+002
1.014483e+003, 1.914247e+002
1.014965e+003, 1.915865e+002
1.015447e+003, 1.917012e+002
1.015929e+003, 1.917737e+002
1.016411e+003, 1.918631e+002
1.016894e+003, 1.920319e+002
1.017376e+003, 1.921232e+002
1.017858e+003, 1.918932e+002
1.018340e+003, 1.915536e+002
1.018822e+003, 1.913708e+002
1.019304e+003, 1.914112e+002
1.019786e+003, 1.915518e+002
1.020268e+003, 1.918468e+002
1.020751e+003, 1.921042e+002
1.021233e+003, 1.921806e+002
1.021715e+003, 1.921064e+002
1.022197e+003, 1.918038e+002
1.022679e+003, 1.913608e+002
1.023161e+003, 1.912850e+002
1.023643e+003, 1.923197e+002
1.024125e+003, 1.932256e+002
1.024607e+003, 1.935188e+002
1.025090e+003, 1.933437e+002
1.025572e+003, 1.928418e+002
1.026054e+003, 1.919624e+002
1.026536e+003, 1.914884e+002
1.027018e+003, 1.916034e+002
1.027500e+003, 1.919366e+002
1.027982e+003, 1.920916e+002
1.028464e+003, 1.922421e+002
1.028947e+003, 1.926901e+002
1.029429e+003, 1.936230e+002
1.029911e+003, 1.940067e+002
1.030393e+003, 1.935393e+002
1.030875e+003, 1.929984e+002
1.031357e+003, 1.927290e+002
1.031839e+003, 1.927097e+002
1.032321e+003, 1.929609e+002
1.032803e+003, 1.934223e+002
1.033286e+003, 1.938416e+002
1.033768e+003, 1.941705e+002
1.034250e+003, 1.943395e+002
1.034732e+003, 1.941688e+002
1.035214e+003, 1.938891e+002
1.035696e+003, 1.938331e+002
1.036178e+003, 1.940325e+002
1.036660e+003, 1.942782e+002
1.037143e+003, 1.945631e+002
1.037625e+003, 1.948455e+002
1.038107e+003, 1.951452e+002
1.038589e+003, 1.953895e+002
1.039071e+003, 1.954669e+002
1.039553e+003, 1.953769e+002
1.040035e+003, 1.952469e+002
1.040517e+003, 1.949545e+002
1.041000e+003, 1.948710e+002
1.041482e+003, 1.951824e+002
1.041964e+003, 1.956876e+002
1.042446e+003, 1.959164e+002
1.042928e+003, 1.959095e+002
1.043410e+003, 1.958056e+002
1.043892e+003, 1.956145e+002
1.044374e+003, 1.954328e+002
1.044856e+003, 1.953016e+002
1.045339e+003, 1.952278e+002
1.045821e+003, 1.952045e+002
1.046303e+003, 1.952206e+002
1.046785e+003, 1.954360e+002
1.047267e+003, 1.958906e+002
1.047749e+003, 1.961930e+002
1.048231e+003, 1.959123e+002
1.048713e+003, 1.954447e+002
1.049195e+003, 1.952504e+002
1.049677e+003, 1.952920e+002
1.050160e+003, 1.954580e+002
1.050642e+003, 1.960199e+002
1.051124e+003, 1.962397e+002
1.051606e+003, 1.959111e+002
1.052088e+003, 1.954005e+002
1.052570e+003, 1.951424e+002
1.053052e+003, 1.951214e+002
1.053534e+003, 1.953713e+002
1.054017e+003, 1.959047e+002
1.054499e+003, 1.963682e+002
1.054981e+003, 1.965711e+002
1.055463e+003, 1.966046e+002
1.055945e+003, 1.964751e+002
1.056427e+003, 1.962201e+002
1.056909e+003, 1.959965e+002
1.057391e+003, 1.958031e+002
1.057874e+003, 1.956837e+002
1.058356e+003, 1.956722e+002
1.058838e+003, 1.957070e+002
1.059320e+003, 1.957909e+002
1.059802e+003, 1.958426e+002
1.060284e+003, 1.957215e+002
1.060766e+003, 1.952161e+002
1.061248e+003, 1.950002e+002
1.061730e+003, 1.952022e+002
1.062213e+003, 1.954827e+002
1.062695e+003, 1.955903e+002
1.063177e+003, 1.955800e+002
1.063659e+003, 1.956371e+002
1.064141e+003, 1.957580e+002
1.064623e+003, 1.959308e+002
1.065105e+003, 1.963591e+002
1.065587e+003, 1.965907e+002
1.066070e+003, 1.962632e+002
1.066552e+003, 1.957249e+002
1.067034e+003, 1.955022e+002
1.067516e+003, 1.956055e+002
1.067998e+003, 1.956582e+002
1.068480e+003, 1.956104e+002
1.068962e+003, 1.955685e+002
1.069444e+003, 1.955972e+002
1.069927e+003, 1.957013e+002
1.070409e+003, 1.960058e+002
1.070891e+003, 1.964931e+002
1.071373e+003, 1.964778e+002
1.071855e+003, 1.956962e+002
1.072337e+003, 1.951314e+002
1.072819e+003, 1.951496e+002
1.073301e+003, 1.954489e+002
1.073783e+003, 1.954660e+002
1.074266e+003, 1.953509e+002
1.074748e+003, 1.954630e+002
1.075230e+003, 1.960725e+002
1.075712e+003, 1.964137e+002
1.076194e+003, 1.960432e+002
1.076676e+003, 1.956198e+002
1.077158e+003, 1.955225e+002
1.077640e+003, 1.957276e+002
1.078122e+003, 1.961004e+002
1.078604e+003, 1.965952e+002
1.079087e+003, 1.968269e+002
1.079569e+003, 1.962455e+002
1.080051e+003, 1.956865e+002
1.080533e+003, 1.957305e+002
1.081015e+003, 1.961047e+002
1.081497e+003, 1.962932e+002
1.081979e+003, 1.962498e+002
1.082461e+003, 1.961881e+002
1.082944e+003, 1.961107e+002
1.083426e+003, 1.961009e+002
1.083908e+003, 1.963188e+002
1.084390e+003, 1.965992e+002
1.084872e+003, 1.967236e+002
1.085354e+003, 1.966963e+002
1.085836e+003, 1.967320e+002
1.086318e+003, 1.969638e+002
1.086801e+003, 1.970584e+002
1.087283e+003, 1.968820e+002
1.087765e+003, 1.966185e+002
1.088247e+003, 1.966176e+002
1.088729e+003, 1.968030e+002
1.089211e+003, 1.969667e+002
1.089693e+003, 1.970493e+002
1.090175e+003, 1.971926e+002
1.090657e+003, 1.976908e+002
1.091140e+003, 1.980166e+002
1.091622e+003, 1.978016e+002
1.092104e+003, 1.971408e+002
1.092586e+003, 1.967758e+002
1.093068e+003, 1.966999e+002
1.093550e+003, 1.968589e+002
1.094032e+003, 1.974467e+002
1.094514e+003, 1.979350e+002
1.094997e+003, 1.977834e+002
1.095479e+003, 1.973747e+002
1.095961e+003, 1.972424e+002
1.096443e+003, 1.975158e+002
1.096925e+003, 1.976528e+002
1.097407e+003, 1.976223e+002
1.097889e+003, 1.976480e+002
1.098371e+003, 1.980438e+002
1.098854e+003, 1.984997e+002
1.099336e+003, 1.985526e+002
1.099818e+003, 1.983024e+002
1.100300e+003, 1.981747e+002
1.100782e+003, 1.984084e+002
1.101264e+003, 1.985075e+002
1.101746e+003, 1.983698e+002
1.102228e+003, 1.981628e+002
1.102710e+003, 1.981646e+002
1.103193e+003, 1.982637e+002
1.103675e+003, 1.981124e+002
1.104157e+003, 1.976731e+002
1.104639e+003, 1.974029e+002
1.105121e+003, 1.975480e+002
1.105603e+003, 1.978791e+002
1.106085e+003, 1.984370e+002
1.106567e+003, 1.990421e+002
1.107049e+003, 1.989902e+002
1.107531e+003, 1.983867e+002
1.108014e+003, 1.980959e+002
1.108496e+003, 1.984203e+002
1.108978e+003, 1.988391e+002
1.109460e+003, 1.989126e+002
1.109942e+003, 1.989718e+002
1.110424e+003, 1.994470e+002
1.110906e+003, 2.003880e+002
1.111388e+003, 2.003343e+002
1.111871e+003, 1.992027e+002
1.112353e+003, 1.982680e+002
1.112835e+003, 1.982470e+002
1.113317e+003, 1.986336e+002
1.113799e+003, 1.991425e+002
1.114281e+003, 1.995969e+002
1.114763e+003, 1.996661e+002
1.115245e+003, 1.987684e+002
1.115728e+003, 1.987467e+002
1.116210e+003, 1.999004e+002
1.116692e+003, 2.009497e+002
1.117174e+003, 2.005257e+002
1.117656e+003, 1.994188e+002
1.118138e+003, 1.990580e+002
1.118620e+003, 1.993328e+002
1.119102e+003, 1.996299e+002
1.119584e+003, 1.998098e+002
1.120067e+003, 1.998714e+002
1.120549e+003, 1.997423e+002
1.121031e+003, 1.996008e+002
1.121513e+003, 1.997473e+002
1.121995e+003, 2.000810e+002
1.122477e+003, 2.002266e+002
1.122959e+003, 2.001534e+002
1.123441e+003, 2.001195e+002
1.123924e+003, 2.003716e+002
1.124406e+003, 2.005672e+002
1.124888e+003, 2.005662e+002
1.125370e+003, 2.004092e+002
1.125852e+003, 2.001037e+002
1.126334e+003, 1.996883e+002
1.126816e+003, 1.996526e+002
1.127298e+003, 2.001935e+002
1.127781e+003, 2.007169e+002
1.128263e+003, 2.006725e+002
1.128745e+003, 2.005155e+002
1.129227e+003, 2.006897e+002
1.129709e+003, 2.011777e+002
1.130191e+003, 2.012868e+002
1.130673e+003, 2.009922e+002
1.131155e+003, 2.007153e+002
1.131637e+003, 2.006071e+002
1.132120e+003, 2.006203e+002
1.132602e+003, 2.007445e+002
1.133084e+003, 2.009399e+002
1.133566e+003, 2.011514e+002
1.134048e+003, 2.013746e+002
1.134530e+003, 2.016355e+002
1.135012e+003, 2.019868e+002
1.135494e+003, 2.021524e+002
1.135976e+003, 2.017567e+002
1.136458e+003, 2.011950e+002
1.136941e+003, 2.011265e+002
1.137423e+003, 2.014095e+002
1.137905e+003, 2.016976e+002
1.138387e+003, 2.019426e+002
1.138869e+003, 2.020959e+002
1.139351e+003, 2.020919e+002
1.139833e+003, 2.021298e+002
1.140315e+003, 2.025265e+002
1.140798e+003, 2.030758e+002
1.141280e+003, 2.032918e+002
1.141762e+003, 2.031795e+002
1.142244e+003, 2.029098e+002
1.142726e+003, 2.021658e+002
1.143208e+003, 2.018183e+002
1.143690e+003, 2.022235e+002
1.144172e+003, 2.028844e+002
1.144655e+003, 2.030247e+002
1.145137e+003, 2.027590e+002
1.145619e+003, 2.025191e+002
1.146101e+003, 2.023599e+002
1.146583e+003, 2.023197e+002
1.147065e+003, 2.024620e+002
1.147547e+003, 2.026983e+002
1.148029e+003, 2.030414e+002
1.148511e+003, 2.034174e+002
1.148994e+003, 2.035581e+002
1.149476e+003, 2.035002e+002
1.149958e+003, 2.036297e+002
1.150440e+003, 2.041117e+002
1.150922e+003, 2.044023e+002
1.151404e+003, 2.038576e+002
1.151886e+003, 2.031747e+002
1.152368e+003, 2.028327e+002
1.152851e+003, 2.028241e+002
1.153333e+003, 2.031914e+002
1.153815e+003, 2.039347e+002
1.154297e+003, 2.044436e+002
1.154779e+003, 2.044030e+002
1.155261e+003, 2.042349e+002
1.155743e+003, 2.042379e+002
1.156225e+003, 2.043741e+002
1.156708e+003, 2.046514e+002
1.157190e+003, 2.051075e+002
1.157672e+003, 2.053255e+002
1.158154e+003, 2.052752e+002
1.158636e+003, 2.052653e+002
1.159118e+003, 2.055854e+002
1.159600e+003, 2.059081e+002
1.160082e+003, 2.057773e+002
1.160564e+003, 2.054226e+002
1.161047e+003, 2.052510e+002
1.161529e+003, 2.054217e+002
1.162011e+003, 2.055303e+002
1.162493e+003, 2.055639e+002
1.162975e+003, 2.055979e+002
1.163457e+003, 2.057043e+002
1.163939e+003, 2.058367e+002
1.164421e+003, 2.059403e+002
1.164903e+003, 2.060125e+002
1.165385e+003, 2.060453e+002
1.165868e+003, 2.059177e+002
1.166350e+003, 2.059842e+002
1.166832e+003, 2.063135e+002
1.167314e+003, 2.067101e+002
1.167796e+003, 2.069762e+002
1.168278e+003, 2.071602e+002
1.168760e+003, 2.073853e+002
1.169242e+003, 2.076292e+002
1.169725e+003, 2.077094e+002
1.170207e+003, 2.074089e+002
1.170689e+003, 2.071859e+002
1.171171e+003, 2.071338e+002
1.171653e+003, 2.071440e+002
1.172135e+003, 2.070534e+002
1.172617e+003, 2.069110e+002
1.173099e+003, 2.067847e+002
1.173582e+003, 2.066876e+002
1.174064e+003, 2.067610e+002
1.174546e+003, 2.072006e+002
1.175028e+003, 2.076480e+002
1.175510e+003, 2.080426e+002
1.175992e+003, 2.083499e+002
1.176474e+003, 2.084854e+002
1.176956e+003, 2.084712e+002
1.177438e+003, 2.083414e+002
1.177921e+003, 2.080857e+002
1.178403e+003, 2.078670e+002
1.178885e+003, 2.076051e+002
1.179367e+003, 2.076011e+002
1.179849e+003, 2.081128e+002
1.180331e+003, 2.088721e+002
1.180813e+003, 2.089703e+002
1.181295e+003, 2.085662e+002
1.181778e+003, 2.082146e+002
1.182260e+003, 2.080102e+002
1.182742e+003, 2.080923e+002
1.183224e+003, 2.089838e+002
1.183706e+003, 2.096964e+002
1.184188e+003, 2.095438e+002
1.184670e+003, 2.087619e+002
1.185152e+003, 2.087111e+002
1.185635e+003, 2.092636e+002
1.186117e+003, 2.097720e+002
1.186599e+003, 2.099907e+002
1.187081e+003, 2.101158e+002
1.187563e+003, 2.102126e+002
1.188045e+003, 2.102695e+002
1.188527e+003, 2.102646e+002
1.189009e+003, 2.102063e+002
1.189491e+003, 2.101618e+002
1.189974e+003, 2.101464e+002
1.190456e+003, 2.102727e+002
1.190938e+003, 2.107586e+002
1.191420e+003, 2.111802e+002
1.191902e+003, 2.112200e+002
1.192384e+003, 2.111757e+002
1.192866e+003, 2.114031e+002
1.193348e+003, 2.119146e+002
1.193830e+003, 2.119669e+002
1.194313e+003, 2.116053e+002
1.194795e+003, 2.114030e+002
1.195277e+003, 2.120811e+002
1.195759e+003, 2.125862e+002
1.196241e+003, 2.120542e+002
1.196723e+003, 2.111860e+002
1.197205e+003, 2.108717e+002
1.197687e+003, 2.111254e+002
1.198169e+003, 2.114909e+002
1.198652e+003, 2.119392e+002
1.199134e+003, 2.122597e+002
1.199616e+003, 2.122547e+002
1.200098e+003, 2.121353e+002
1.200580e+003, 2.119205e+002
1.201062e+003, 2.117243e+002
1.201544e+003, 2.117470e+002
1.202026e+003, 2.119954e+002
1.202509e+003, 2.121892e+002
1.202991e+003, 2.123018e+002
1.203473e+003, 2.125193e+002
1.203955e+003, 2.131547e+002
1.204437e+003, 2.137618e+002
1.204919e+003, 2.140320e+002
1.205401e+003, 2.140632e+002
1.205883e+003, 2.140647e+002
1.206365e+003, 2.140348e+002
1.206848e+003, 2.139245e+002
1.207330e+003, 2.137209e+002
1.207812e+003, 2.135244e+002
1.208294e+003, 2.133239e+002
1.208776e+003, 2.132367e+002
1.209258e+003, 2.133994e+002
1.209740e+003, 2.137374e+002
1.210222e+003, 2.140922e+002
1.210705e+003, 2.144703e+002
1.211187e+003, 2.147295e+002
1.211669e+003, 2.148401e+002
1.212151e+003, 2.149103e+002
1.212633e+003, 2.151126e+002
1.213115e+003, 2.152319e+002
1.213597e+003, 2.149698e+002
1.214079e+003, 2.144960e+002
1.214562e+003, 2.145298e+002
1.215044e+003, 2.150533e+002
1.215526e+003, 2.151577e+002
1.216008e+003, 2.145387e+002
1.216490e+003, 2.140019e+002
1.216972e+003, 2.141588e+002
1.217454e+003, 2.146738e+002
1.217936e+003, 2.154169e+002
1.218418e+003, 2.162873e+002
1.218901e+003, 2.168318e+002
1.219383e+003, 2.170590e+002
1.219865e+003, 2.170949e+002
1.220347e+003, 2.169232e+002
1.220829e+003, 2.167732e+002
1.221311e+003, 2.168023e+002
1.221793e+003, 2.169389e+002
1.222275e+003, 2.171992e+002
1.222757e+003, 2.175301e+002
1.223240e+003, 2.174543e+002
1.223722e+003, 2.170179e+002
1.224204e+003, 2.168085e+002
1.224686e+003, 2.170903e+002
1.225168e+003, 2.174546e+002
1.225650e+003, 2.177460e+002
1.226132e+003, 2.179080e+002
1.226614e+003, 2.179250e+002
1.227096e+003, 2.177963e+002
1.227579e+003, 2.173730e+002
1.228061e+003, 2.167148e+002
1.228543e+003, 2.163677e+002
1.229025e+003, 2.166706e+002
1.229507e+003, 2.170220e+002
1.229989e+003, 2.170258e+002
1.230471e+003, 2.169736e+002
1.230953e+003, 2.170748e+002
1.231436e+003, 2.173201e+002
1.231918e+003, 2.177071e+002
1.232400e+003, 2.182015e+002
1.232882e+003, 2.185603e+002
1.233364e+003, 2.186079e+002
1.233846e+003, 2.186489e+002
1.234328e+003, 2.190171e+002
1.234810e+003, 2.192511e+002
1.235292e+003, 2.188453e+002
1.235775e+003, 2.179612e+002
1.236257e+003, 2.180688e+002
1.236739e+003, 2.189750e+002
1.237221e+003, 2.196328e+002
1.237703e+003, 2.193010e+002
1.238185e+003, 2.191136e+002
1.238667e+003, 2.197740e+002
1.239149e+003, 2.204549e+002
1.239632e+003, 2.204671e+002
1.240114e+003, 2.199694e+002
1.240596e+003, 2.199245e+002
1.241078e+003, 2.202567e+002
1.241560e+003, 2.206501e+002
1.242042e+003, 2.211301e+002
1.242524e+003, 2.213794e+002
1.243006e+003, 2.211061e+002
1.243489e+003, 2.208723e+002
1.243971e+003, 2.212988e+002
1.244453e+003, 2.221285e+002
1.244935e+003, 2.221516e+002
1.245417e+003, 2.215769e+002
1.245899e+003, 2.211870e+002
1.246381e+003, 2.214293e+002
1.246863e+003, 2.217198e+002
1.247345e+003, 2.219759e+002
1.247828e+003, 2.222296e+002
1.248310e+003, 2.225693e+002
1.248792e+003, 2.229056e+002
1.249274e+003, 2.229490e+002
1.249756e+003, 2.227713e+002
1.250238e+003, 2.226259e+002
1.250720e+003, 2.225312e+002
1.251202e+003, 2.226237e+002
1.251684e+003, 2.229910e+002
1.252167e+003, 2.233464e+002
1.252649e+003, 2.233762e+002
1.253131e+003, 2.232512e+002
1.253613e+003, 2.232839e+002
1.254095e+003, 2.234546e+002
1.254577e+003, 2.236808e+002
1.255059e+003, 2.239334e+002
1.255541e+003, 2.242813e+002
1.256023e+003, 2.247772e+002
1.256506e+003, 2.251869e+002
1.256988e+003, 2.252858e+002
1.257470e+003, 2.251891e+002
1.257952e+003, 2.249935e+002
1.258434e+003, 2.247452e+002
1.258916e+003, 2.245641e+002
1.259398e+003, 2.244500e+002
1.259880e+003, 2.244339e+002
1.260363e+003, 2.245147e+002
1.260845e+003, 2.247249e+002
1.261327e+003, 2.253024e+002
1.261809e+003, 2.258460e+002
1.262291e+003, 2.258214e+002
1.262773e+003, 2.254472e+002
1.263255e+003, 2.253532e+002
1.263737e+003, 2.256533e+002
1.264219e+003, 2.257624e+002
1.264702e+003, 2.256292e+002
1.265184e+003, 2.254814e+002
1.265666e+003, 2.255466e+002
1.266148e+003, 2.256167e+002
1.266630e+003, 2.253754e+002
1.267112e+003, 2.250858e+002
1.267594e+003, 2.253423e+002
1.268076e+003, 2.262017e+002
1.268559e+003, 2.267560e+002
1.269041e+003, 2.269454e+002
1.269523e+003, 2.269307e+002
1.270005e+003, 2.265782e+002
1.270487e+003, 2.263191e+002
1.270969e+003, 2.264669e+002
1.271451e+003, 2.268298e+002
1.271933e+003, 2.272246e+002
1.272416e+003, 2.276325e+002
1.272898e+003, 2.278131e+002
1.273380e+003, 2.277660e+002
1.273862e+003, 2.276918e+002
1.274344e+003, 2.277392e+002
1.274826e+003, 2.277222e+002
1.275308e+003, 2.274430e+002
1.275790e+003, 2.272210e+002
1.276272e+003, 2.276442e+002
1.276755e+003, 2.284631e+002
1.277237e+003, 2.286299e+002
1.277719e+003, 2.281849e+002
1.278201e+003, 2.278550e+002
1.278683e+003, 2.280848e+002
1.279165e+003, 2.282922e+002
1.279647e+003, 2.283511e+002
1.280129e+003, 2.283889e+002
1.280611e+003, 2.285710e+002
1.281094e+003, 2.288308e+002
1.281576e+003, 2.290325e+002
1.282058e+003, 2.291780e+002
1.282540e+003, 2.293103e+002
1.283022e+003, 2.294692e+002
1.283504e+003, 2.295262e+002
1.283986e+003, 2.294174e+002
1.284468e+003, 2.293784e+002
1.284950e+003, 2.297813e+002
1.285433e+003, 2.302996e+002
1.285915e+003, 2.304986e+002
1.286397e+003, 2.304221e+002
1.286879e+003, 2.302909e+002
1.287361e+003, 2.300776e+002
1.287843e+003, 2.299884e+002
1.288325e+003, 2.300310e+002
1.288807e+003, 2.303026e+002
1.289290e+003, 2.312466e+002
1.289772e+003, 2.321258e+002
1.290254e+003, 2.322046e+002
1.290736e+003, 2.317291e+002
1.291218e+003, 2.313004e+002
1.291700e+003, 2.308892e+002
1.292182e+003, 2.310367e+002
1.292664e+003, 2.317731e+002
1.293146e+003, 2.324053e+002
1.293629e+003, 2.323162e+002
1.294111e+003, 2.321270e+002
1.294593e+003, 2.322145e+002
1.295075e+003, 2.323869e+002
1.295557e+003, 2.323428e+002
1.296039e+003, 2.321380e+002
1.296521e+003, 2.323233e+002
1.297003e+003, 2.328657e+002
1.297486e+003, 2.332663e+002
1.297968e+003, 2.330778e+002
1.298450e+003, 2.330058e+002
1.298932e+003, 2.332808e+002
1.299414e+003, 2.336613e+002
1.299896e+003, 2.339332e+002
1.300378e+003, 2.340909e+002
1.300860e+003, 2.340363e+002
1.301343e+003, 2.338427e+002
1.301825e+003, 2.338074e+002
##END=



