##NAMES=Pseudolaueite
##RRUFFID=R170035
##IDEAL CHEMISTRY=Mn^2+^Fe^3+^_2_(PO_4_)_2_(OH)_2_&#183;8H_2_O
##LOCALITY=Crooker Quarry, Newry, Maine, USA
##OWNER=RRUFF
##SOURCE=Van King
##DESCRIPTION=Pale yellow-orange prismatic to thick tabular pseudohexagonal crystals, associated with albite
##STATUS=The identification of this mineral has been confirmed only by single crystal X-ray diffraction.
##URL=rruff.info/R170035
8.758203e+001, 7.590059e+002
8.806415e+001, 7.530999e+002
8.854626e+001, 7.520937e+002
8.902838e+001, 7.574996e+002
8.951050e+001, 7.650032e+002
8.999261e+001, 7.736467e+002
9.047473e+001, 7.831088e+002
9.095685e+001, 7.924534e+002
9.143896e+001, 8.006973e+002
9.192108e+001, 8.078450e+002
9.240320e+001, 8.154673e+002
9.288531e+001, 8.145887e+002
9.336743e+001, 7.994404e+002
9.384955e+001, 7.733295e+002
9.433167e+001, 7.481293e+002
9.481378e+001, 7.223942e+002
9.529590e+001, 6.997522e+002
9.577802e+001, 6.799992e+002
9.626013e+001, 6.632633e+002
9.674225e+001, 6.499539e+002
9.722437e+001, 6.395639e+002
9.770648e+001, 6.296445e+002
9.818860e+001, 6.196008e+002
9.867072e+001, 6.098527e+002
9.915283e+001, 6.003622e+002
9.963495e+001, 5.911063e+002
1.001171e+002, 5.824349e+002
1.005992e+002, 5.748691e+002
1.010813e+002, 5.682783e+002
1.015634e+002, 5.627452e+002
1.020455e+002, 5.583121e+002
1.025277e+002, 5.542617e+002
1.030098e+002, 5.499477e+002
1.034919e+002, 5.450901e+002
1.039740e+002, 5.399584e+002
1.044561e+002, 5.355405e+002
1.049382e+002, 5.337538e+002
1.054204e+002, 5.303901e+002
1.059025e+002, 5.243619e+002
1.063846e+002, 5.164477e+002
1.068667e+002, 5.078615e+002
1.073488e+002, 4.991393e+002
1.078309e+002, 4.904344e+002
1.083131e+002, 4.828444e+002
1.087952e+002, 4.766207e+002
1.092773e+002, 4.710239e+002
1.097594e+002, 4.656015e+002
1.102415e+002, 4.603429e+002
1.107236e+002, 4.557496e+002
1.112058e+002, 4.525782e+002
1.116879e+002, 4.504486e+002
1.121700e+002, 4.481467e+002
1.126521e+002, 4.453099e+002
1.131342e+002, 4.422105e+002
1.136163e+002, 4.393491e+002
1.140985e+002, 4.369170e+002
1.145806e+002, 4.343911e+002
1.150627e+002, 4.311984e+002
1.155448e+002, 4.276276e+002
1.160269e+002, 4.243396e+002
1.165090e+002, 4.219379e+002
1.169912e+002, 4.204047e+002
1.174733e+002, 4.186469e+002
1.179554e+002, 4.161510e+002
1.184375e+002, 4.138308e+002
1.189196e+002, 4.119598e+002
1.194017e+002, 4.105843e+002
1.198839e+002, 4.096816e+002
1.203660e+002, 4.093603e+002
1.208481e+002, 4.101125e+002
1.213302e+002, 4.101653e+002
1.218123e+002, 4.095259e+002
1.222944e+002, 4.083488e+002
1.227766e+002, 4.064225e+002
1.232587e+002, 4.037893e+002
1.237408e+002, 4.010105e+002
1.242229e+002, 3.991770e+002
1.247050e+002, 3.994872e+002
1.251871e+002, 3.992018e+002
1.256693e+002, 3.978615e+002
1.261514e+002, 3.960099e+002
1.266335e+002, 3.943525e+002
1.271156e+002, 3.932028e+002
1.275977e+002, 3.923791e+002
1.280798e+002, 3.913409e+002
1.285620e+002, 3.901190e+002
1.290441e+002, 3.887199e+002
1.295262e+002, 3.870652e+002
1.300083e+002, 3.852050e+002
1.304904e+002, 3.833638e+002
1.309725e+002, 3.816422e+002
1.314547e+002, 3.800340e+002
1.319368e+002, 3.784872e+002
1.324189e+002, 3.769276e+002
1.329010e+002, 3.755218e+002
1.333831e+002, 3.745301e+002
1.338652e+002, 3.740437e+002
1.343474e+002, 3.734976e+002
1.348295e+002, 3.723076e+002
1.353116e+002, 3.709825e+002
1.357937e+002, 3.701126e+002
1.362758e+002, 3.700409e+002
1.367579e+002, 3.704807e+002
1.372401e+002, 3.707283e+002
1.377222e+002, 3.709040e+002
1.382043e+002, 3.706250e+002
1.386864e+002, 3.695370e+002
1.391685e+002, 3.680167e+002
1.396507e+002, 3.666444e+002
1.401328e+002, 3.658875e+002
1.406149e+002, 3.657067e+002
1.410970e+002, 3.649932e+002
1.415791e+002, 3.628715e+002
1.420612e+002, 3.610149e+002
1.425434e+002, 3.601288e+002
1.430255e+002, 3.599483e+002
1.435076e+002, 3.597161e+002
1.439897e+002, 3.587277e+002
1.444718e+002, 3.568370e+002
1.449539e+002, 3.549504e+002
1.454361e+002, 3.531371e+002
1.459182e+002, 3.512671e+002
1.464003e+002, 3.492383e+002
1.468824e+002, 3.470530e+002
1.473645e+002, 3.448027e+002
1.478466e+002, 3.425542e+002
1.483288e+002, 3.402233e+002
1.488109e+002, 3.382761e+002
1.492930e+002, 3.370888e+002
1.497751e+002, 3.361118e+002
1.502572e+002, 3.346983e+002
1.507393e+002, 3.326532e+002
1.512215e+002, 3.304661e+002
1.517036e+002, 3.288592e+002
1.521857e+002, 3.277873e+002
1.526678e+002, 3.268261e+002
1.531499e+002, 3.259943e+002
1.536320e+002, 3.251849e+002
1.541142e+002, 3.240946e+002
1.545963e+002, 3.225239e+002
1.550784e+002, 3.208364e+002
1.555605e+002, 3.194273e+002
1.560426e+002, 3.183006e+002
1.565247e+002, 3.172067e+002
1.570069e+002, 3.159098e+002
1.574890e+002, 3.144184e+002
1.579711e+002, 3.131375e+002
1.584532e+002, 3.122806e+002
1.589353e+002, 3.115909e+002
1.594174e+002, 3.109811e+002
1.598996e+002, 3.104292e+002
1.603817e+002, 3.098101e+002
1.608638e+002, 3.088403e+002
1.613459e+002, 3.072572e+002
1.618280e+002, 3.062375e+002
1.623102e+002, 3.065508e+002
1.627923e+002, 3.070590e+002
1.632744e+002, 3.070067e+002
1.637565e+002, 3.061762e+002
1.642386e+002, 3.048929e+002
1.647207e+002, 3.037141e+002
1.652029e+002, 3.025368e+002
1.656850e+002, 3.016964e+002
1.661671e+002, 3.013404e+002
1.666492e+002, 3.012281e+002
1.671313e+002, 3.011407e+002
1.676134e+002, 3.009860e+002
1.680956e+002, 3.008214e+002
1.685777e+002, 3.008167e+002
1.690598e+002, 3.013171e+002
1.695419e+002, 3.015841e+002
1.700240e+002, 3.014092e+002
1.705061e+002, 3.010019e+002
1.709883e+002, 3.006932e+002
1.714704e+002, 3.006727e+002
1.719525e+002, 3.008127e+002
1.724346e+002, 3.005387e+002
1.729167e+002, 2.993590e+002
1.733988e+002, 2.984014e+002
1.738810e+002, 2.981480e+002
1.743631e+002, 2.983995e+002
1.748452e+002, 2.986223e+002
1.753273e+002, 2.984856e+002
1.758094e+002, 2.981413e+002
1.762915e+002, 2.981269e+002
1.767737e+002, 2.986178e+002
1.772558e+002, 2.992119e+002
1.777379e+002, 2.996770e+002
1.782200e+002, 3.000218e+002
1.787021e+002, 3.003589e+002
1.791842e+002, 3.007152e+002
1.796664e+002, 3.011214e+002
1.801485e+002, 3.016328e+002
1.806306e+002, 3.023104e+002
1.811127e+002, 3.030328e+002
1.815948e+002, 3.036541e+002
1.820769e+002, 3.041559e+002
1.825591e+002, 3.046489e+002
1.830412e+002, 3.052950e+002
1.835233e+002, 3.059290e+002
1.840054e+002, 3.063284e+002
1.844875e+002, 3.063116e+002
1.849696e+002, 3.061416e+002
1.854518e+002, 3.064058e+002
1.859339e+002, 3.074598e+002
1.864160e+002, 3.081163e+002
1.868981e+002, 3.078457e+002
1.873802e+002, 3.070281e+002
1.878623e+002, 3.060371e+002
1.883445e+002, 3.050186e+002
1.888266e+002, 3.039987e+002
1.893087e+002, 3.030709e+002
1.897908e+002, 3.021550e+002
1.902729e+002, 3.014704e+002
1.907550e+002, 3.012525e+002
1.912372e+002, 3.012324e+002
1.917193e+002, 3.010621e+002
1.922014e+002, 3.005311e+002
1.926835e+002, 2.996849e+002
1.931656e+002, 2.988274e+002
1.936477e+002, 2.982163e+002
1.941299e+002, 2.973144e+002
1.946120e+002, 2.957108e+002
1.950941e+002, 2.937794e+002
1.955762e+002, 2.921472e+002
1.960583e+002, 2.912555e+002
1.965404e+002, 2.910556e+002
1.970226e+002, 2.906851e+002
1.975047e+002, 2.899512e+002
1.979868e+002, 2.892609e+002
1.984689e+002, 2.885791e+002
1.989510e+002, 2.880179e+002
1.994331e+002, 2.879069e+002
1.999153e+002, 2.886034e+002
2.003974e+002, 2.900474e+002
2.008795e+002, 2.901874e+002
2.013616e+002, 2.879073e+002
2.018437e+002, 2.857007e+002
2.023258e+002, 2.846567e+002
2.028080e+002, 2.846469e+002
2.032901e+002, 2.850180e+002
2.037722e+002, 2.854680e+002
2.042543e+002, 2.858997e+002
2.047364e+002, 2.855918e+002
2.052185e+002, 2.840984e+002
2.057007e+002, 2.823101e+002
2.061828e+002, 2.808163e+002
2.066649e+002, 2.795953e+002
2.071470e+002, 2.781895e+002
2.076291e+002, 2.760430e+002
2.081112e+002, 2.734482e+002
2.085934e+002, 2.716935e+002
2.090755e+002, 2.714445e+002
2.095576e+002, 2.716606e+002
2.100397e+002, 2.714389e+002
2.105218e+002, 2.707545e+002
2.110039e+002, 2.700809e+002
2.114861e+002, 2.698504e+002
2.119682e+002, 2.698314e+002
2.124503e+002, 2.695328e+002
2.129324e+002, 2.686889e+002
2.134145e+002, 2.676484e+002
2.138967e+002, 2.667934e+002
2.143788e+002, 2.661197e+002
2.148609e+002, 2.656432e+002
2.153430e+002, 2.656127e+002
2.158251e+002, 2.657288e+002
2.163072e+002, 2.655858e+002
2.167894e+002, 2.649009e+002
2.172715e+002, 2.640301e+002
2.177536e+002, 2.636467e+002
2.182357e+002, 2.639480e+002
2.187178e+002, 2.641883e+002
2.191999e+002, 2.640066e+002
2.196821e+002, 2.636024e+002
2.201642e+002, 2.631610e+002
2.206463e+002, 2.627142e+002
2.211284e+002, 2.623365e+002
2.216105e+002, 2.622558e+002
2.220926e+002, 2.627407e+002
2.225748e+002, 2.629781e+002
2.230569e+002, 2.624550e+002
2.235390e+002, 2.616887e+002
2.240211e+002, 2.612928e+002
2.245032e+002, 2.615994e+002
2.249853e+002, 2.623232e+002
2.254675e+002, 2.626521e+002
2.259496e+002, 2.622890e+002
2.264317e+002, 2.619852e+002
2.269138e+002, 2.618297e+002
2.273959e+002, 2.618333e+002
2.278780e+002, 2.620535e+002
2.283602e+002, 2.625340e+002
2.288423e+002, 2.631554e+002
2.293244e+002, 2.635300e+002
2.298065e+002, 2.634609e+002
2.302886e+002, 2.633838e+002
2.307707e+002, 2.632934e+002
2.312529e+002, 2.632437e+002
2.317350e+002, 2.632848e+002
2.322171e+002, 2.634396e+002
2.326992e+002, 2.637018e+002
2.331813e+002, 2.640568e+002
2.336634e+002, 2.646195e+002
2.341456e+002, 2.651418e+002
2.346277e+002, 2.656559e+002
2.351098e+002, 2.661039e+002
2.355919e+002, 2.664011e+002
2.360740e+002, 2.665086e+002
2.365561e+002, 2.664886e+002
2.370383e+002, 2.665239e+002
2.375204e+002, 2.666903e+002
2.380025e+002, 2.668323e+002
2.384846e+002, 2.668322e+002
2.389667e+002, 2.668433e+002
2.394488e+002, 2.670928e+002
2.399310e+002, 2.676841e+002
2.404131e+002, 2.684649e+002
2.408952e+002, 2.690468e+002
2.413773e+002, 2.693207e+002
2.418594e+002, 2.695538e+002
2.423415e+002, 2.695511e+002
2.428237e+002, 2.695865e+002
2.433058e+002, 2.701208e+002
2.437879e+002, 2.713604e+002
2.442700e+002, 2.728853e+002
2.447521e+002, 2.737624e+002
2.452342e+002, 2.735571e+002
2.457164e+002, 2.736111e+002
2.461985e+002, 2.745418e+002
2.466806e+002, 2.757205e+002
2.471627e+002, 2.761958e+002
2.476448e+002, 2.756040e+002
2.481269e+002, 2.745275e+002
2.486091e+002, 2.739767e+002
2.490912e+002, 2.740435e+002
2.495733e+002, 2.741789e+002
2.500554e+002, 2.742462e+002
2.505375e+002, 2.743278e+002
2.510196e+002, 2.746104e+002
2.515018e+002, 2.751862e+002
2.519839e+002, 2.757779e+002
2.524660e+002, 2.758656e+002
2.529481e+002, 2.754105e+002
2.534302e+002, 2.751943e+002
2.539123e+002, 2.755102e+002
2.543945e+002, 2.761576e+002
2.548766e+002, 2.768630e+002
2.553587e+002, 2.775899e+002
2.558408e+002, 2.783134e+002
2.563229e+002, 2.791073e+002
2.568051e+002, 2.799582e+002
2.572872e+002, 2.804733e+002
2.577693e+002, 2.804124e+002
2.582514e+002, 2.799818e+002
2.587335e+002, 2.794886e+002
2.592156e+002, 2.789627e+002
2.596978e+002, 2.784084e+002
2.601799e+002, 2.778797e+002
2.606620e+002, 2.773405e+002
2.611441e+002, 2.766320e+002
2.616262e+002, 2.755440e+002
2.621083e+002, 2.743010e+002
2.625905e+002, 2.732674e+002
2.630726e+002, 2.725057e+002
2.635547e+002, 2.718208e+002
2.640368e+002, 2.711463e+002
2.645189e+002, 2.704465e+002
2.650010e+002, 2.696281e+002
2.654832e+002, 2.685060e+002
2.659653e+002, 2.673111e+002
2.664474e+002, 2.664775e+002
2.669295e+002, 2.661207e+002
2.674116e+002, 2.657171e+002
2.678937e+002, 2.648506e+002
2.683759e+002, 2.637532e+002
2.688580e+002, 2.627260e+002
2.693401e+002, 2.619139e+002
2.698222e+002, 2.611744e+002
2.703043e+002, 2.602678e+002
2.707864e+002, 2.591436e+002
2.712686e+002, 2.580746e+002
2.717507e+002, 2.573068e+002
2.722328e+002, 2.566203e+002
2.727149e+002, 2.557800e+002
2.731970e+002, 2.546961e+002
2.736791e+002, 2.534836e+002
2.741613e+002, 2.522644e+002
2.746434e+002, 2.510049e+002
2.751255e+002, 2.498549e+002
2.756076e+002, 2.489588e+002
2.760897e+002, 2.481523e+002
2.765718e+002, 2.473418e+002
2.770540e+002, 2.465200e+002
2.775361e+002, 2.456018e+002
2.780182e+002, 2.444965e+002
2.785003e+002, 2.432090e+002
2.789824e+002, 2.417105e+002
2.794645e+002, 2.395535e+002
2.799467e+002, 2.374701e+002
2.804288e+002, 2.361172e+002
2.809109e+002, 2.355770e+002
2.813930e+002, 2.351123e+002
2.818751e+002, 2.337786e+002
2.823572e+002, 2.314603e+002
2.828394e+002, 2.297377e+002
2.833215e+002, 2.294624e+002
2.838036e+002, 2.293917e+002
2.842857e+002, 2.288275e+002
2.847678e+002, 2.277608e+002
2.852499e+002, 2.265674e+002
2.857321e+002, 2.256092e+002
2.862142e+002, 2.248977e+002
2.866963e+002, 2.240152e+002
2.871784e+002, 2.226821e+002
2.876605e+002, 2.214382e+002
2.881426e+002, 2.205447e+002
2.886248e+002, 2.199591e+002
2.891069e+002, 2.195203e+002
2.895890e+002, 2.192215e+002
2.900711e+002, 2.190235e+002
2.905532e+002, 2.184172e+002
2.910353e+002, 2.169424e+002
2.915175e+002, 2.156126e+002
2.919996e+002, 2.148672e+002
2.924817e+002, 2.145358e+002
2.929638e+002, 2.142980e+002
2.934459e+002, 2.139807e+002
2.939280e+002, 2.135960e+002
2.944102e+002, 2.132134e+002
2.948923e+002, 2.128934e+002
2.953744e+002, 2.124754e+002
2.958565e+002, 2.119516e+002
2.963386e+002, 2.113113e+002
2.968207e+002, 2.104996e+002
2.973029e+002, 2.094562e+002
2.977850e+002, 2.083355e+002
2.982671e+002, 2.075534e+002
2.987492e+002, 2.073056e+002
2.992313e+002, 2.070182e+002
2.997134e+002, 2.065423e+002
3.001956e+002, 2.059843e+002
3.006777e+002, 2.054249e+002
3.011598e+002, 2.048888e+002
3.016419e+002, 2.043943e+002
3.021240e+002, 2.039785e+002
3.026061e+002, 2.036553e+002
3.030883e+002, 2.033711e+002
3.035704e+002, 2.031511e+002
3.040525e+002, 2.029364e+002
3.045346e+002, 2.026817e+002
3.050167e+002, 2.023797e+002
3.054988e+002, 2.020644e+002
3.059810e+002, 2.017599e+002
3.064631e+002, 2.014476e+002
3.069452e+002, 2.012265e+002
3.074273e+002, 2.012179e+002
3.079094e+002, 2.012079e+002
3.083915e+002, 2.010822e+002
3.088737e+002, 2.008505e+002
3.093558e+002, 2.005968e+002
3.098379e+002, 2.003472e+002
3.103200e+002, 2.000874e+002
3.108021e+002, 2.001080e+002
3.112842e+002, 2.007814e+002
3.117664e+002, 2.013694e+002
3.122485e+002, 2.016357e+002
3.127306e+002, 2.016128e+002
3.132127e+002, 2.014049e+002
3.136948e+002, 2.010509e+002
3.141769e+002, 2.005766e+002
3.146591e+002, 2.001142e+002
3.151412e+002, 1.995229e+002
3.156233e+002, 1.991651e+002
3.161054e+002, 1.991974e+002
3.165875e+002, 1.994827e+002
3.170696e+002, 1.998484e+002
3.175518e+002, 2.002162e+002
3.180339e+002, 2.006054e+002
3.185160e+002, 2.010752e+002
3.189981e+002, 2.017026e+002
3.194802e+002, 2.022561e+002
3.199623e+002, 2.027102e+002
3.204445e+002, 2.030743e+002
3.209266e+002, 2.033040e+002
3.214087e+002, 2.033906e+002
3.218908e+002, 2.034711e+002
3.223729e+002, 2.037782e+002
3.228550e+002, 2.043966e+002
3.233372e+002, 2.049438e+002
3.238193e+002, 2.053572e+002
3.243014e+002, 2.056931e+002
3.247835e+002, 2.059458e+002
3.252656e+002, 2.061297e+002
3.257477e+002, 2.063193e+002
3.262299e+002, 2.066446e+002
3.267120e+002, 2.071359e+002
3.271941e+002, 2.073960e+002
3.276762e+002, 2.070276e+002
3.281583e+002, 2.067903e+002
3.286404e+002, 2.070701e+002
3.291226e+002, 2.077629e+002
3.296047e+002, 2.085377e+002
3.300868e+002, 2.091914e+002
3.305689e+002, 2.097296e+002
3.310510e+002, 2.101845e+002
3.315331e+002, 2.105070e+002
3.320153e+002, 2.108165e+002
3.324974e+002, 2.111747e+002
3.329795e+002, 2.115495e+002
3.334616e+002, 2.119143e+002
3.339437e+002, 2.122877e+002
3.344258e+002, 2.125952e+002
3.349080e+002, 2.126077e+002
3.353901e+002, 2.121610e+002
3.358722e+002, 2.118623e+002
3.363543e+002, 2.119772e+002
3.368365e+002, 2.122678e+002
3.373186e+002, 2.125897e+002
3.378007e+002, 2.129120e+002
3.382828e+002, 2.131303e+002
3.387649e+002, 2.130615e+002
3.392470e+002, 2.126589e+002
3.397292e+002, 2.123194e+002
3.402113e+002, 2.121171e+002
3.406934e+002, 2.120060e+002
3.411755e+002, 2.119745e+002
3.416576e+002, 2.120136e+002
3.421397e+002, 2.120837e+002
3.426219e+002, 2.122099e+002
3.431040e+002, 2.123697e+002
3.435861e+002, 2.123342e+002
3.440682e+002, 2.119691e+002
3.445503e+002, 2.115531e+002
3.450324e+002, 2.112859e+002
3.455146e+002, 2.111031e+002
3.459967e+002, 2.108418e+002
3.464788e+002, 2.103751e+002
3.469609e+002, 2.097863e+002
3.474430e+002, 2.092657e+002
3.479251e+002, 2.088056e+002
3.484073e+002, 2.084403e+002
3.488894e+002, 2.083842e+002
3.493715e+002, 2.083705e+002
3.498536e+002, 2.080456e+002
3.503357e+002, 2.072537e+002
3.508178e+002, 2.062468e+002
3.513000e+002, 2.052311e+002
3.517821e+002, 2.041960e+002
3.522642e+002, 2.034180e+002
3.527463e+002, 2.032236e+002
3.532284e+002, 2.031596e+002
3.537105e+002, 2.027175e+002
3.541927e+002, 2.018351e+002
3.546748e+002, 2.009298e+002
3.551569e+002, 2.002536e+002
3.556390e+002, 1.997857e+002
3.561211e+002, 1.994464e+002
3.566032e+002, 1.992768e+002
3.570854e+002, 1.991407e+002
3.575675e+002, 1.990345e+002
3.580496e+002, 1.989097e+002
3.585317e+002, 1.984400e+002
3.590138e+002, 1.970384e+002
3.594959e+002, 1.953751e+002
3.599781e+002, 1.946187e+002
3.604602e+002, 1.949404e+002
3.609423e+002, 1.954603e+002
3.614244e+002, 1.956450e+002
3.619065e+002, 1.955638e+002
3.623886e+002, 1.953903e+002
3.628708e+002, 1.951041e+002
3.633529e+002, 1.947730e+002
3.638350e+002, 1.945523e+002
3.643171e+002, 1.943914e+002
3.647992e+002, 1.938728e+002
3.652813e+002, 1.926091e+002
3.657635e+002, 1.910865e+002
3.662456e+002, 1.903231e+002
3.667277e+002, 1.905977e+002
3.672098e+002, 1.907183e+002
3.676919e+002, 1.900666e+002
3.681740e+002, 1.889544e+002
3.686562e+002, 1.879489e+002
3.691383e+002, 1.871860e+002
3.696204e+002, 1.865661e+002
3.701025e+002, 1.859825e+002
3.705846e+002, 1.854353e+002
3.710667e+002, 1.849458e+002
3.715489e+002, 1.845257e+002
3.720310e+002, 1.841590e+002
3.725131e+002, 1.839836e+002
3.729952e+002, 1.839495e+002
3.734773e+002, 1.835818e+002
3.739594e+002, 1.824512e+002
3.744416e+002, 1.806304e+002
3.749237e+002, 1.791184e+002
3.754058e+002, 1.778810e+002
3.758879e+002, 1.769462e+002
3.763700e+002, 1.766228e+002
3.768521e+002, 1.765930e+002
3.773343e+002, 1.761645e+002
3.778164e+002, 1.749962e+002
3.782985e+002, 1.734024e+002
3.787806e+002, 1.721106e+002
3.792627e+002, 1.712394e+002
3.797448e+002, 1.704778e+002
3.802270e+002, 1.698109e+002
3.807091e+002, 1.692465e+002
3.811912e+002, 1.688353e+002
3.816733e+002, 1.685667e+002
3.821554e+002, 1.683125e+002
3.826375e+002, 1.679234e+002
3.831197e+002, 1.673731e+002
3.836018e+002, 1.668084e+002
3.840839e+002, 1.661116e+002
3.845660e+002, 1.655152e+002
3.850481e+002, 1.651867e+002
3.855302e+002, 1.650494e+002
3.860124e+002, 1.649316e+002
3.864945e+002, 1.647343e+002
3.869766e+002, 1.644413e+002
3.874587e+002, 1.639521e+002
3.879408e+002, 1.627372e+002
3.884229e+002, 1.619843e+002
3.889051e+002, 1.622125e+002
3.893872e+002, 1.627662e+002
3.898693e+002, 1.629182e+002
3.903514e+002, 1.624467e+002
3.908335e+002, 1.617496e+002
3.913156e+002, 1.614911e+002
3.917978e+002, 1.618935e+002
3.922799e+002, 1.621287e+002
3.927620e+002, 1.620187e+002
3.932441e+002, 1.618975e+002
3.937262e+002, 1.619458e+002
3.942083e+002, 1.621465e+002
3.946905e+002, 1.623727e+002
3.951726e+002, 1.625326e+002
3.956547e+002, 1.626288e+002
3.961368e+002, 1.626684e+002
3.966189e+002, 1.624816e+002
3.971010e+002, 1.624984e+002
3.975832e+002, 1.630565e+002
3.980653e+002, 1.638020e+002
3.985474e+002, 1.642466e+002
3.990295e+002, 1.641703e+002
3.995116e+002, 1.638640e+002
3.999937e+002, 1.638015e+002
4.004759e+002, 1.640293e+002
4.009580e+002, 1.642626e+002
4.014401e+002, 1.645294e+002
4.019222e+002, 1.647037e+002
4.024043e+002, 1.646632e+002
4.028864e+002, 1.644115e+002
4.033686e+002, 1.641068e+002
4.038507e+002, 1.638396e+002
4.043328e+002, 1.636099e+002
4.048149e+002, 1.634037e+002
4.052970e+002, 1.631839e+002
4.057791e+002, 1.630686e+002
4.062613e+002, 1.631891e+002
4.067434e+002, 1.634644e+002
4.072255e+002, 1.637529e+002
4.077076e+002, 1.641054e+002
4.081897e+002, 1.643642e+002
4.086718e+002, 1.642789e+002
4.091540e+002, 1.638627e+002
4.096361e+002, 1.634764e+002
4.101182e+002, 1.632339e+002
4.106003e+002, 1.631492e+002
4.110824e+002, 1.632890e+002
4.115645e+002, 1.637688e+002
4.120467e+002, 1.640220e+002
4.125288e+002, 1.635826e+002
4.130109e+002, 1.628066e+002
4.134930e+002, 1.623094e+002
4.139751e+002, 1.622162e+002
4.144572e+002, 1.623797e+002
4.149394e+002, 1.627457e+002
4.154215e+002, 1.633222e+002
4.159036e+002, 1.636334e+002
4.163857e+002, 1.635019e+002
4.168678e+002, 1.632365e+002
4.173499e+002, 1.629833e+002
4.178321e+002, 1.627614e+002
4.183142e+002, 1.625744e+002
4.187963e+002, 1.624147e+002
4.192784e+002, 1.623118e+002
4.197605e+002, 1.623791e+002
4.202426e+002, 1.629730e+002
4.207248e+002, 1.632491e+002
4.212069e+002, 1.627471e+002
4.216890e+002, 1.620762e+002
4.221711e+002, 1.619535e+002
4.226532e+002, 1.625017e+002
4.231353e+002, 1.632000e+002
4.236175e+002, 1.634196e+002
4.240996e+002, 1.630537e+002
4.245817e+002, 1.627502e+002
4.250638e+002, 1.623403e+002
4.255459e+002, 1.621515e+002
4.260280e+002, 1.624597e+002
4.265102e+002, 1.630783e+002
4.269923e+002, 1.636529e+002
4.274744e+002, 1.639810e+002
4.279565e+002, 1.641011e+002
4.284386e+002, 1.641319e+002
4.289207e+002, 1.640675e+002
4.294029e+002, 1.639128e+002
4.298850e+002, 1.633580e+002
4.303671e+002, 1.629288e+002
4.308492e+002, 1.632010e+002
4.313313e+002, 1.641983e+002
4.318134e+002, 1.652679e+002
4.322956e+002, 1.656356e+002
4.327777e+002, 1.652783e+002
4.332598e+002, 1.652331e+002
4.337419e+002, 1.657957e+002
4.342241e+002, 1.663114e+002
4.347062e+002, 1.663803e+002
4.351883e+002, 1.661991e+002
4.356704e+002, 1.661448e+002
4.361525e+002, 1.663958e+002
4.366346e+002, 1.668345e+002
4.371168e+002, 1.673300e+002
4.375989e+002, 1.678981e+002
4.380810e+002, 1.683389e+002
4.385631e+002, 1.684312e+002
4.390452e+002, 1.684806e+002
4.395273e+002, 1.688761e+002
4.400095e+002, 1.696612e+002
4.404916e+002, 1.704099e+002
4.409737e+002, 1.709785e+002
4.414558e+002, 1.713378e+002
4.419379e+002, 1.713097e+002
4.424200e+002, 1.708006e+002
4.429022e+002, 1.703779e+002
4.433843e+002, 1.705925e+002
4.438664e+002, 1.713345e+002
4.443485e+002, 1.718537e+002
4.448306e+002, 1.719361e+002
4.453127e+002, 1.719585e+002
4.457949e+002, 1.722005e+002
4.462770e+002, 1.725573e+002
4.467591e+002, 1.727330e+002
4.472412e+002, 1.725937e+002
4.477233e+002, 1.722724e+002
4.482054e+002, 1.720031e+002
4.486876e+002, 1.717433e+002
4.491697e+002, 1.716491e+002
4.496518e+002, 1.718380e+002
4.501339e+002, 1.721158e+002
4.506160e+002, 1.723468e+002
4.510981e+002, 1.725204e+002
4.515803e+002, 1.727175e+002
4.520624e+002, 1.730370e+002
4.525445e+002, 1.734422e+002
4.530266e+002, 1.734302e+002
4.535087e+002, 1.722247e+002
4.539908e+002, 1.714906e+002
4.544730e+002, 1.719103e+002
4.549551e+002, 1.727207e+002
4.554372e+002, 1.730092e+002
4.559193e+002, 1.725122e+002
4.564014e+002, 1.717477e+002
4.568835e+002, 1.714673e+002
4.573657e+002, 1.717961e+002
4.578478e+002, 1.720377e+002
4.583299e+002, 1.721050e+002
4.588120e+002, 1.721419e+002
4.592941e+002, 1.722493e+002
4.597762e+002, 1.723724e+002
4.602584e+002, 1.723675e+002
4.607405e+002, 1.721104e+002
4.612226e+002, 1.717300e+002
4.617047e+002, 1.715139e+002
4.621868e+002, 1.715011e+002
4.626689e+002, 1.714675e+002
4.631511e+002, 1.714014e+002
4.636332e+002, 1.712296e+002
4.641153e+002, 1.708493e+002
4.645974e+002, 1.702408e+002
4.650795e+002, 1.696114e+002
4.655616e+002, 1.689564e+002
4.660438e+002, 1.683879e+002
4.665259e+002, 1.682628e+002
4.670080e+002, 1.687042e+002
4.674901e+002, 1.690906e+002
4.679722e+002, 1.688830e+002
4.684543e+002, 1.681909e+002
4.689365e+002, 1.676340e+002
4.694186e+002, 1.675042e+002
4.699007e+002, 1.672428e+002
4.703828e+002, 1.664402e+002
4.708649e+002, 1.653031e+002
4.713470e+002, 1.642449e+002
4.718292e+002, 1.634017e+002
4.723113e+002, 1.627614e+002
4.727934e+002, 1.622816e+002
4.732755e+002, 1.618952e+002
4.737576e+002, 1.619657e+002
4.742397e+002, 1.634166e+002
4.747219e+002, 1.644962e+002
4.752040e+002, 1.638074e+002
4.756861e+002, 1.617939e+002
4.761682e+002, 1.598766e+002
4.766503e+002, 1.589796e+002
4.771324e+002, 1.588357e+002
4.776146e+002, 1.584226e+002
4.780967e+002, 1.575270e+002
4.785788e+002, 1.566890e+002
4.790609e+002, 1.560582e+002
4.795430e+002, 1.554326e+002
4.800251e+002, 1.545778e+002
4.805073e+002, 1.535117e+002
4.809894e+002, 1.525143e+002
4.814715e+002, 1.519029e+002
4.819536e+002, 1.516448e+002
4.824357e+002, 1.512753e+002
4.829178e+002, 1.507080e+002
4.834000e+002, 1.501779e+002
4.838821e+002, 1.498163e+002
4.843642e+002, 1.495383e+002
4.848463e+002, 1.492527e+002
4.853284e+002, 1.489518e+002
4.858105e+002, 1.485697e+002
4.862927e+002, 1.479232e+002
4.867748e+002, 1.470848e+002
4.872569e+002, 1.465510e+002
4.877390e+002, 1.465158e+002
4.882211e+002, 1.466214e+002
4.887032e+002, 1.464803e+002
4.891854e+002, 1.461375e+002
4.896675e+002, 1.458329e+002
4.901496e+002, 1.457281e+002
4.906317e+002, 1.455848e+002
4.911138e+002, 1.451175e+002
4.915959e+002, 1.444244e+002
4.920781e+002, 1.438997e+002
4.925602e+002, 1.437548e+002
4.930423e+002, 1.438227e+002
4.935244e+002, 1.437337e+002
4.940065e+002, 1.433743e+002
4.944886e+002, 1.430730e+002
4.949708e+002, 1.428890e+002
4.954529e+002, 1.427287e+002
4.959350e+002, 1.425435e+002
4.964171e+002, 1.423160e+002
4.968992e+002, 1.419999e+002
4.973813e+002, 1.415270e+002
4.978635e+002, 1.409631e+002
4.983456e+002, 1.407268e+002
4.988277e+002, 1.410078e+002
4.993098e+002, 1.413501e+002
4.997919e+002, 1.417743e+002
5.002740e+002, 1.421668e+002
5.007562e+002, 1.424798e+002
5.012383e+002, 1.426842e+002
5.017204e+002, 1.426877e+002
5.022025e+002, 1.422976e+002
5.026846e+002, 1.415603e+002
5.031667e+002, 1.410090e+002
5.036489e+002, 1.407205e+002
5.041310e+002, 1.404976e+002
5.046131e+002, 1.401895e+002
5.050952e+002, 1.398947e+002
5.055773e+002, 1.397782e+002
5.060594e+002, 1.399212e+002
5.065416e+002, 1.401401e+002
5.070237e+002, 1.402650e+002
5.075058e+002, 1.403387e+002
5.079879e+002, 1.405690e+002
5.084700e+002, 1.410679e+002
5.089521e+002, 1.414861e+002
5.094343e+002, 1.413644e+002
5.099164e+002, 1.407021e+002
5.103985e+002, 1.402740e+002
5.108806e+002, 1.402968e+002
5.113627e+002, 1.403970e+002
5.118448e+002, 1.403479e+002
5.123270e+002, 1.402151e+002
5.128091e+002, 1.401851e+002
5.132912e+002, 1.403425e+002
5.137733e+002, 1.405703e+002
5.142554e+002, 1.406519e+002
5.147375e+002, 1.405181e+002
5.152197e+002, 1.403955e+002
5.157018e+002, 1.402164e+002
5.161839e+002, 1.401103e+002
5.166660e+002, 1.401980e+002
5.171481e+002, 1.404129e+002
5.176302e+002, 1.405991e+002
5.181124e+002, 1.406656e+002
5.185945e+002, 1.406321e+002
5.190766e+002, 1.405178e+002
5.195587e+002, 1.402524e+002
5.200408e+002, 1.401261e+002
5.205229e+002, 1.404275e+002
5.210051e+002, 1.407132e+002
5.214872e+002, 1.406567e+002
5.219693e+002, 1.402808e+002
5.224514e+002, 1.398637e+002
5.229335e+002, 1.395403e+002
5.234156e+002, 1.392936e+002
5.238978e+002, 1.391084e+002
5.243799e+002, 1.389877e+002
5.248620e+002, 1.388764e+002
5.253441e+002, 1.387126e+002
5.258262e+002, 1.385761e+002
5.263083e+002, 1.386980e+002
5.267905e+002, 1.392708e+002
5.272726e+002, 1.394772e+002
5.277547e+002, 1.387712e+002
5.282368e+002, 1.377597e+002
5.287189e+002, 1.370714e+002
5.292010e+002, 1.367726e+002
5.296832e+002, 1.366718e+002
5.301653e+002, 1.366428e+002
5.306474e+002, 1.366769e+002
5.311295e+002, 1.367159e+002
5.316116e+002, 1.368595e+002
5.320938e+002, 1.368724e+002
5.325759e+002, 1.364644e+002
5.330580e+002, 1.360830e+002
5.335401e+002, 1.362369e+002
5.340222e+002, 1.369247e+002
5.345043e+002, 1.376425e+002
5.349865e+002, 1.379290e+002
5.354686e+002, 1.378073e+002
5.359507e+002, 1.375117e+002
5.364328e+002, 1.368422e+002
5.369149e+002, 1.363792e+002
5.373970e+002, 1.364881e+002
5.378792e+002, 1.368235e+002
5.383613e+002, 1.370549e+002
5.388434e+002, 1.371203e+002
5.393255e+002, 1.370790e+002
5.398076e+002, 1.368251e+002
5.402897e+002, 1.365105e+002
5.407719e+002, 1.366577e+002
5.412540e+002, 1.374140e+002
5.417361e+002, 1.380504e+002
5.422182e+002, 1.379668e+002
5.427003e+002, 1.373121e+002
5.431824e+002, 1.368900e+002
5.436646e+002, 1.366799e+002
5.441467e+002, 1.367236e+002
5.446288e+002, 1.373014e+002
5.451109e+002, 1.380275e+002
5.455930e+002, 1.383581e+002
5.460751e+002, 1.381917e+002
5.465573e+002, 1.378188e+002
5.470394e+002, 1.374974e+002
5.475215e+002, 1.372225e+002
5.480036e+002, 1.372047e+002
5.484857e+002, 1.377107e+002
5.489678e+002, 1.381799e+002
5.494500e+002, 1.385043e+002
5.499321e+002, 1.387445e+002
5.504142e+002, 1.389951e+002
5.508963e+002, 1.392735e+002
5.513784e+002, 1.394765e+002
5.518605e+002, 1.394637e+002
5.523427e+002, 1.392491e+002
5.528248e+002, 1.390330e+002
5.533069e+002, 1.387879e+002
5.537890e+002, 1.386111e+002
5.542711e+002, 1.386247e+002
5.547532e+002, 1.387240e+002
5.552354e+002, 1.387565e+002
5.557175e+002, 1.386770e+002
5.561996e+002, 1.385843e+002
5.566817e+002, 1.386398e+002
5.571638e+002, 1.387075e+002
5.576459e+002, 1.384380e+002
5.581281e+002, 1.377633e+002
5.586102e+002, 1.370602e+002
5.590923e+002, 1.366373e+002
5.595744e+002, 1.364885e+002
5.600565e+002, 1.364681e+002
5.605386e+002, 1.368788e+002
5.610208e+002, 1.370253e+002
5.615029e+002, 1.365030e+002
5.619850e+002, 1.357547e+002
5.624671e+002, 1.353157e+002
5.629492e+002, 1.352784e+002
5.634313e+002, 1.353169e+002
5.639135e+002, 1.350598e+002
5.643956e+002, 1.345161e+002
5.648777e+002, 1.342468e+002
5.653598e+002, 1.345685e+002
5.658419e+002, 1.346560e+002
5.663240e+002, 1.341059e+002
5.668062e+002, 1.333015e+002
5.672883e+002, 1.326136e+002
5.677704e+002, 1.321221e+002
5.682525e+002, 1.317690e+002
5.687346e+002, 1.315950e+002
5.692167e+002, 1.315201e+002
5.696989e+002, 1.313189e+002
5.701810e+002, 1.309634e+002
5.706631e+002, 1.305435e+002
5.711452e+002, 1.300814e+002
5.716273e+002, 1.296076e+002
5.721094e+002, 1.292337e+002
5.725916e+002, 1.290076e+002
5.730737e+002, 1.287875e+002
5.735558e+002, 1.285361e+002
5.740379e+002, 1.282705e+002
5.745200e+002, 1.279752e+002
5.750021e+002, 1.276710e+002
5.754843e+002, 1.274676e+002
5.759664e+002, 1.274737e+002
5.764485e+002, 1.276377e+002
5.769306e+002, 1.276432e+002
5.774127e+002, 1.274670e+002
5.778948e+002, 1.271508e+002
5.783770e+002, 1.264960e+002
5.788591e+002, 1.258708e+002
5.793412e+002, 1.256583e+002
5.798233e+002, 1.258135e+002
5.803054e+002, 1.258619e+002
5.807875e+002, 1.253407e+002
5.812697e+002, 1.245128e+002
5.817518e+002, 1.240751e+002
5.822339e+002, 1.240650e+002
5.827161e+002, 1.241018e+002
5.831982e+002, 1.241025e+002
5.836803e+002, 1.240111e+002
5.841624e+002, 1.237165e+002
5.846445e+002, 1.231949e+002
5.851266e+002, 1.227186e+002
5.856088e+002, 1.223876e+002
5.860909e+002, 1.221110e+002
5.865730e+002, 1.218065e+002
5.870551e+002, 1.214852e+002
5.875372e+002, 1.212104e+002
5.880193e+002, 1.210228e+002
5.885015e+002, 1.208701e+002
5.889836e+002, 1.206365e+002
5.894657e+002, 1.203029e+002
5.899478e+002, 1.199286e+002
5.904299e+002, 1.193811e+002
5.909120e+002, 1.189245e+002
5.913942e+002, 1.187655e+002
5.918763e+002, 1.187881e+002
5.923584e+002, 1.187455e+002
5.928405e+002, 1.185168e+002
5.933226e+002, 1.181822e+002
5.938047e+002, 1.178158e+002
5.942869e+002, 1.174179e+002
5.947690e+002, 1.171865e+002
5.952511e+002, 1.172757e+002
5.957332e+002, 1.173201e+002
5.962153e+002, 1.168339e+002
5.966974e+002, 1.160048e+002
5.971796e+002, 1.154999e+002
5.976617e+002, 1.157328e+002
5.981438e+002, 1.159670e+002
5.986259e+002, 1.157231e+002
5.991080e+002, 1.152323e+002
5.995901e+002, 1.149504e+002
6.000723e+002, 1.149765e+002
6.005544e+002, 1.149517e+002
6.010365e+002, 1.144348e+002
6.015186e+002, 1.134044e+002
6.020007e+002, 1.128656e+002
6.024828e+002, 1.133619e+002
6.029650e+002, 1.137048e+002
6.034471e+002, 1.137216e+002
6.039292e+002, 1.134815e+002
6.044113e+002, 1.129593e+002
6.048934e+002, 1.122011e+002
6.053755e+002, 1.114994e+002
6.058577e+002, 1.111163e+002
6.063398e+002, 1.109978e+002
6.068219e+002, 1.109198e+002
6.073040e+002, 1.108559e+002
6.077861e+002, 1.110146e+002
6.082682e+002, 1.117376e+002
6.087504e+002, 1.125533e+002
6.092325e+002, 1.125777e+002
6.097146e+002, 1.116384e+002
6.101967e+002, 1.108919e+002
6.106788e+002, 1.107507e+002
6.111609e+002, 1.108418e+002
6.116431e+002, 1.109210e+002
6.121252e+002, 1.109390e+002
6.126073e+002, 1.108427e+002
6.130894e+002, 1.106024e+002
6.135715e+002, 1.102494e+002
6.140536e+002, 1.098007e+002
6.145358e+002, 1.090362e+002
6.150179e+002, 1.087327e+002
6.155000e+002, 1.094784e+002
6.159821e+002, 1.101004e+002
6.164642e+002, 1.100126e+002
6.169464e+002, 1.094610e+002
6.174285e+002, 1.089151e+002
6.179106e+002, 1.085134e+002
6.183927e+002, 1.083420e+002
6.188748e+002, 1.087187e+002
6.193569e+002, 1.094806e+002
6.198391e+002, 1.096838e+002
6.203212e+002, 1.090729e+002
6.208033e+002, 1.083291e+002
6.212854e+002, 1.079848e+002
6.217675e+002, 1.079796e+002
6.222496e+002, 1.079021e+002
6.227318e+002, 1.075858e+002
6.232139e+002, 1.074130e+002
6.236960e+002, 1.076414e+002
6.241781e+002, 1.079739e+002
6.246602e+002, 1.081183e+002
6.251423e+002, 1.080292e+002
6.256245e+002, 1.077690e+002
6.261066e+002, 1.073588e+002
6.265887e+002, 1.068531e+002
6.270708e+002, 1.065097e+002
6.275529e+002, 1.064210e+002
6.280350e+002, 1.062737e+002
6.285172e+002, 1.058487e+002
6.289993e+002, 1.054655e+002
6.294814e+002, 1.053659e+002
6.299635e+002, 1.055158e+002
6.304456e+002, 1.056872e+002
6.309277e+002, 1.058499e+002
6.314099e+002, 1.059265e+002
6.318920e+002, 1.057635e+002
6.323741e+002, 1.054251e+002
6.328562e+002, 1.051967e+002
6.333383e+002, 1.051842e+002
6.338204e+002, 1.051918e+002
6.343026e+002, 1.049520e+002
6.347847e+002, 1.044100e+002
6.352668e+002, 1.041467e+002
6.357489e+002, 1.044417e+002
6.362310e+002, 1.046377e+002
6.367131e+002, 1.044790e+002
6.371953e+002, 1.041512e+002
6.376774e+002, 1.038535e+002
6.381595e+002, 1.036399e+002
6.386416e+002, 1.034797e+002
6.391237e+002, 1.033670e+002
6.396058e+002, 1.032845e+002
6.400880e+002, 1.031032e+002
6.405701e+002, 1.027615e+002
6.410522e+002, 1.025901e+002
6.415343e+002, 1.029392e+002
6.420164e+002, 1.033473e+002
6.424985e+002, 1.031241e+002
6.429807e+002, 1.022168e+002
6.434628e+002, 1.014865e+002
6.439449e+002, 1.011192e+002
6.444270e+002, 1.010657e+002
6.449091e+002, 1.015302e+002
6.453912e+002, 1.022666e+002
6.458734e+002, 1.026523e+002
6.463555e+002, 1.024331e+002
6.468376e+002, 1.018738e+002
6.473197e+002, 1.013524e+002
6.478018e+002, 1.008512e+002
6.482839e+002, 1.004778e+002
6.487661e+002, 1.002667e+002
6.492482e+002, 1.001479e+002
6.497303e+002, 1.001532e+002
6.502124e+002, 1.002098e+002
6.506945e+002, 1.002271e+002
6.511766e+002, 1.001839e+002
6.516588e+002, 1.001355e+002
6.521409e+002, 1.001342e+002
6.526230e+002, 1.001540e+002
6.531051e+002, 1.001760e+002
6.535872e+002, 1.001948e+002
6.540693e+002, 1.000639e+002
6.545515e+002, 9.966024e+001
6.550336e+002, 9.913826e+001
6.555157e+002, 9.882164e+001
6.559978e+002, 9.881142e+001
6.564799e+002, 9.878425e+001
6.569620e+002, 9.872959e+001
6.574442e+002, 9.866833e+001
6.579263e+002, 9.867148e+001
6.584084e+002, 9.866105e+001
6.588905e+002, 9.847837e+001
6.593726e+002, 9.806109e+001
6.598547e+002, 9.755840e+001
6.603369e+002, 9.710243e+001
6.608190e+002, 9.670638e+001
6.613011e+002, 9.660469e+001
6.617832e+002, 9.691174e+001
6.622653e+002, 9.722983e+001
6.627474e+002, 9.736754e+001
6.632296e+002, 9.735918e+001
6.637117e+002, 9.728162e+001
6.641938e+002, 9.712944e+001
6.646759e+002, 9.692980e+001
6.651580e+002, 9.657618e+001
6.656401e+002, 9.626501e+001
6.661223e+002, 9.622912e+001
6.666044e+002, 9.640593e+001
6.670865e+002, 9.658769e+001
6.675686e+002, 9.667236e+001
6.680507e+002, 9.663848e+001
6.685328e+002, 9.642473e+001
6.690150e+002, 9.598725e+001
6.694971e+002, 9.554605e+001
6.699792e+002, 9.493993e+001
6.704613e+002, 9.455173e+001
6.709434e+002, 9.475887e+001
6.714255e+002, 9.519148e+001
6.719077e+002, 9.524227e+001
6.723898e+002, 9.471050e+001
6.728719e+002, 9.418937e+001
6.733540e+002, 9.404898e+001
6.738361e+002, 9.415999e+001
6.743182e+002, 9.441988e+001
6.748004e+002, 9.477735e+001
6.752825e+002, 9.496467e+001
6.757646e+002, 9.481140e+001
6.762467e+002, 9.444930e+001
6.767288e+002, 9.417664e+001
6.772109e+002, 9.402218e+001
6.776931e+002, 9.388976e+001
6.781752e+002, 9.363013e+001
6.786573e+002, 9.354517e+001
6.791394e+002, 9.400448e+001
6.796215e+002, 9.465177e+001
6.801036e+002, 9.488198e+001
6.805858e+002, 9.447581e+001
6.810679e+002, 9.386520e+001
6.815500e+002, 9.334170e+001
6.820321e+002, 9.295116e+001
6.825142e+002, 9.288842e+001
6.829963e+002, 9.318445e+001
6.834785e+002, 9.349095e+001
6.839606e+002, 9.364278e+001
6.844427e+002, 9.365147e+001
6.849248e+002, 9.352448e+001
6.854069e+002, 9.314146e+001
6.858890e+002, 9.291103e+001
6.863712e+002, 9.303493e+001
6.868533e+002, 9.312351e+001
6.873354e+002, 9.285639e+001
6.878175e+002, 9.243312e+001
6.882996e+002, 9.224932e+001
6.887817e+002, 9.245177e+001
6.892639e+002, 9.277572e+001
6.897460e+002, 9.291396e+001
6.902281e+002, 9.289087e+001
6.907102e+002, 9.286765e+001
6.911923e+002, 9.286412e+001
6.916744e+002, 9.279663e+001
6.921566e+002, 9.258188e+001
6.926387e+002, 9.230727e+001
6.931208e+002, 9.216210e+001
6.936029e+002, 9.218226e+001
6.940850e+002, 9.214863e+001
6.945671e+002, 9.198046e+001
6.950493e+002, 9.179002e+001
6.955314e+002, 9.159179e+001
6.960135e+002, 9.143800e+001
6.964956e+002, 9.145321e+001
6.969777e+002, 9.167113e+001
6.974598e+002, 9.191194e+001
6.979420e+002, 9.191749e+001
6.984241e+002, 9.169975e+001
6.989062e+002, 9.156992e+001
6.993883e+002, 9.152148e+001
6.998704e+002, 9.158792e+001
7.003525e+002, 9.191933e+001
7.008347e+002, 9.228037e+001
7.013168e+002, 9.229639e+001
7.017989e+002, 9.192477e+001
7.022810e+002, 9.172571e+001
7.027631e+002, 9.214819e+001
7.032452e+002, 9.251443e+001
7.037274e+002, 9.218741e+001
7.042095e+002, 9.147111e+001
7.046916e+002, 9.099897e+001
7.051737e+002, 9.097168e+001
7.056558e+002, 9.113551e+001
7.061379e+002, 9.121059e+001
7.066201e+002, 9.120128e+001
7.071022e+002, 9.119261e+001
7.075843e+002, 9.118116e+001
7.080664e+002, 9.117892e+001
7.085485e+002, 9.126405e+001
7.090306e+002, 9.130166e+001
7.095128e+002, 9.110713e+001
7.099949e+002, 9.070058e+001
7.104770e+002, 9.041066e+001
7.109591e+002, 9.033683e+001
7.114412e+002, 9.042106e+001
7.119233e+002, 9.077258e+001
7.124055e+002, 9.121406e+001
7.128876e+002, 9.135960e+001
7.133697e+002, 9.113676e+001
7.138518e+002, 9.085615e+001
7.143339e+002, 9.082272e+001
7.148160e+002, 9.100095e+001
7.152982e+002, 9.115260e+001
7.157803e+002, 9.136327e+001
7.162624e+002, 9.134194e+001
7.167445e+002, 9.071176e+001
7.172266e+002, 9.010543e+001
7.177087e+002, 9.002579e+001
7.181909e+002, 9.036668e+001
7.186730e+002, 9.064198e+001
7.191551e+002, 9.062688e+001
7.196372e+002, 9.060172e+001
7.201193e+002, 9.084678e+001
7.206014e+002, 9.117673e+001
7.210836e+002, 9.124670e+001
7.215657e+002, 9.102229e+001
7.220478e+002, 9.073460e+001
7.225299e+002, 9.055201e+001
7.230120e+002, 9.045159e+001
7.234941e+002, 9.035632e+001
7.239763e+002, 9.025959e+001
7.244584e+002, 9.018803e+001
7.249405e+002, 9.020798e+001
7.254226e+002, 9.018533e+001
7.259047e+002, 8.993581e+001
7.263868e+002, 8.961286e+001
7.268690e+002, 8.957195e+001
7.273511e+002, 9.000378e+001
7.278332e+002, 9.041541e+001
7.283153e+002, 9.055436e+001
7.287974e+002, 9.047745e+001
7.292795e+002, 9.016258e+001
7.297617e+002, 8.967753e+001
7.302438e+002, 8.929914e+001
7.307259e+002, 8.918143e+001
7.312080e+002, 8.921967e+001
7.316901e+002, 8.919949e+001
7.321722e+002, 8.909331e+001
7.326544e+002, 8.904928e+001
7.331365e+002, 8.915200e+001
7.336186e+002, 8.919753e+001
7.341007e+002, 8.893336e+001
7.345828e+002, 8.865011e+001
7.350649e+002, 8.883260e+001
7.355471e+002, 8.959915e+001
7.360292e+002, 9.010178e+001
7.365113e+002, 8.967171e+001
7.369934e+002, 8.900944e+001
7.374755e+002, 8.879387e+001
7.379576e+002, 8.894225e+001
7.384398e+002, 8.917776e+001
7.389219e+002, 8.939497e+001
7.394040e+002, 8.949245e+001
7.398861e+002, 8.929894e+001
7.403682e+002, 8.882224e+001
7.408503e+002, 8.861759e+001
7.413325e+002, 8.879733e+001
7.418146e+002, 8.901244e+001
7.422967e+002, 8.921134e+001
7.427788e+002, 8.936984e+001
7.432609e+002, 8.943088e+001
7.437430e+002, 8.941251e+001
7.442252e+002, 8.945985e+001
7.447073e+002, 8.986936e+001
7.451894e+002, 9.009161e+001
7.456715e+002, 8.947442e+001
7.461536e+002, 8.855639e+001
7.466357e+002, 8.829762e+001
7.471179e+002, 8.877956e+001
7.476000e+002, 8.927429e+001
7.480821e+002, 8.920594e+001
7.485642e+002, 8.875671e+001
7.490463e+002, 8.854086e+001
7.495284e+002, 8.863451e+001
7.500106e+002, 8.860437e+001
7.504927e+002, 8.827444e+001
7.509748e+002, 8.797550e+001
7.514569e+002, 8.800574e+001
7.519390e+002, 8.821981e+001
7.524211e+002, 8.830312e+001
7.529033e+002, 8.817101e+001
7.533854e+002, 8.802645e+001
7.538675e+002, 8.793551e+001
7.543496e+002, 8.786909e+001
7.548317e+002, 8.779224e+001
7.553138e+002, 8.771488e+001
7.557960e+002, 8.765346e+001
7.562781e+002, 8.761526e+001
7.567602e+002, 8.765602e+001
7.572423e+002, 8.794904e+001
7.577244e+002, 8.847617e+001
7.582065e+002, 8.863192e+001
7.586887e+002, 8.829842e+001
7.591708e+002, 8.795745e+001
7.596529e+002, 8.776812e+001
7.601350e+002, 8.771899e+001
7.606171e+002, 8.785540e+001
7.610992e+002, 8.820145e+001
7.615814e+002, 8.838761e+001
7.620635e+002, 8.831961e+001
7.625456e+002, 8.813989e+001
7.630277e+002, 8.777471e+001
7.635098e+002, 8.740783e+001
7.639919e+002, 8.727573e+001
7.644741e+002, 8.740646e+001
7.649562e+002, 8.767625e+001
7.654383e+002, 8.807066e+001
7.659204e+002, 8.843186e+001
7.664025e+002, 8.831386e+001
7.668846e+002, 8.773628e+001
7.673668e+002, 8.724609e+001
7.678489e+002, 8.692293e+001
7.683310e+002, 8.684865e+001
7.688131e+002, 8.719990e+001
7.692952e+002, 8.786174e+001
7.697773e+002, 8.817741e+001
7.702595e+002, 8.784915e+001
7.707416e+002, 8.762687e+001
7.712237e+002, 8.764565e+001
7.717058e+002, 8.769554e+001
7.721879e+002, 8.762666e+001
7.726700e+002, 8.748923e+001
7.731522e+002, 8.741251e+001
7.736343e+002, 8.744837e+001
7.741164e+002, 8.750220e+001
7.745985e+002, 8.747105e+001
7.750806e+002, 8.739561e+001
7.755627e+002, 8.737303e+001
7.760449e+002, 8.740486e+001
7.765270e+002, 8.744408e+001
7.770091e+002, 8.747667e+001
7.774912e+002, 8.747705e+001
7.779733e+002, 8.739039e+001
7.784554e+002, 8.719085e+001
7.789376e+002, 8.712232e+001
7.794197e+002, 8.730371e+001
7.799019e+002, 8.745626e+001
7.803840e+002, 8.750375e+001
7.808661e+002, 8.751283e+001
7.813482e+002, 8.719369e+001
7.818303e+002, 8.676644e+001
7.823124e+002, 8.743696e+001
7.827946e+002, 9.106557e+001
7.832767e+002, 9.430800e+001
7.837588e+002, 9.395592e+001
7.842409e+002, 9.150081e+001
7.847230e+002, 8.930814e+001
7.852051e+002, 8.786037e+001
7.856873e+002, 8.707820e+001
7.861694e+002, 8.696259e+001
7.866515e+002, 8.728854e+001
7.871336e+002, 8.750296e+001
7.876157e+002, 8.759407e+001
7.880978e+002, 8.763860e+001
7.885800e+002, 8.764838e+001
7.890621e+002, 8.760085e+001
7.895442e+002, 8.740833e+001
7.900263e+002, 8.718436e+001
7.905084e+002, 8.712008e+001
7.909905e+002, 8.725441e+001
7.914727e+002, 8.739217e+001
7.919548e+002, 8.751475e+001
7.924369e+002, 8.759689e+001
7.929190e+002, 8.757446e+001
7.934011e+002, 8.751882e+001
7.938832e+002, 8.760007e+001
7.943654e+002, 8.782647e+001
7.948475e+002, 8.793602e+001
7.953296e+002, 8.760723e+001
7.958117e+002, 8.705942e+001
7.962938e+002, 8.692996e+001
7.967759e+002, 8.720891e+001
7.972581e+002, 8.743733e+001
7.977402e+002, 8.751453e+001
7.982223e+002, 8.748035e+001
7.987044e+002, 8.732600e+001
7.991865e+002, 8.708910e+001
7.996686e+002, 8.699709e+001
8.001508e+002, 8.708793e+001
8.006329e+002, 8.727589e+001
8.011150e+002, 8.778909e+001
8.015971e+002, 8.817383e+001
8.020792e+002, 8.804313e+001
8.025613e+002, 8.763969e+001
8.030435e+002, 8.744292e+001
8.035256e+002, 8.760960e+001
8.040077e+002, 8.779025e+001
8.044898e+002, 8.770589e+001
8.049719e+002, 8.749511e+001
8.054540e+002, 8.735298e+001
8.059362e+002, 8.727042e+001
8.064183e+002, 8.714927e+001
8.069004e+002, 8.695550e+001
8.073825e+002, 8.678971e+001
8.078646e+002, 8.678105e+001
8.083467e+002, 8.691366e+001
8.088289e+002, 8.697773e+001
8.093110e+002, 8.694682e+001
8.097931e+002, 8.691941e+001
8.102752e+002, 8.692290e+001
8.107573e+002, 8.692798e+001
8.112394e+002, 8.679883e+001
8.117216e+002, 8.664190e+001
8.122037e+002, 8.686073e+001
8.126858e+002, 8.792420e+001
8.131679e+002, 8.860429e+001
8.136500e+002, 8.816586e+001
8.141321e+002, 8.743991e+001
8.146143e+002, 8.713112e+001
8.150964e+002, 8.715222e+001
8.155785e+002, 8.708697e+001
8.160606e+002, 8.677060e+001
8.165427e+002, 8.651035e+001
8.170248e+002, 8.676619e+001
8.175070e+002, 8.736160e+001
8.179891e+002, 8.769933e+001
8.184712e+002, 8.776974e+001
8.189533e+002, 8.758485e+001
8.194354e+002, 8.707897e+001
8.199175e+002, 8.659024e+001
8.203997e+002, 8.654777e+001
8.208818e+002, 8.694118e+001
8.213639e+002, 8.714319e+001
8.218460e+002, 8.696849e+001
8.223281e+002, 8.687728e+001
8.228102e+002, 8.706502e+001
8.232924e+002, 8.721458e+001
8.237745e+002, 8.702907e+001
8.242566e+002, 8.664700e+001
8.247387e+002, 8.646162e+001
8.252208e+002, 8.665410e+001
8.257029e+002, 8.682378e+001
8.261851e+002, 8.670011e+001
8.266672e+002, 8.644277e+001
8.271493e+002, 8.617249e+001
8.276314e+002, 8.593811e+001
8.281135e+002, 8.584531e+001
8.285956e+002, 8.593052e+001
8.290778e+002, 8.609743e+001
8.295599e+002, 8.626015e+001
8.300420e+002, 8.640186e+001
8.305241e+002, 8.636495e+001
8.310062e+002, 8.610336e+001
8.314883e+002, 8.598117e+001
8.319705e+002, 8.615125e+001
8.324526e+002, 8.638359e+001
8.329347e+002, 8.647534e+001
8.334168e+002, 8.643448e+001
8.338989e+002, 8.634162e+001
8.343810e+002, 8.593644e+001
8.348632e+002, 8.586064e+001
8.353453e+002, 8.653634e+001
8.358274e+002, 8.720484e+001
8.363095e+002, 8.736267e+001
8.367916e+002, 8.716924e+001
8.372737e+002, 8.697701e+001
8.377559e+002, 8.688895e+001
8.382380e+002, 8.682410e+001
8.387201e+002, 8.668132e+001
8.392022e+002, 8.655491e+001
8.396843e+002, 8.663575e+001
8.401664e+002, 8.684705e+001
8.406486e+002, 8.694081e+001
8.411307e+002, 8.684209e+001
8.416128e+002, 8.661626e+001
8.420949e+002, 8.629173e+001
8.425770e+002, 8.593164e+001
8.430591e+002, 8.586237e+001
8.435413e+002, 8.614574e+001
8.440234e+002, 8.642178e+001
8.445055e+002, 8.670751e+001
8.449876e+002, 8.683456e+001
8.454697e+002, 8.659065e+001
8.459518e+002, 8.612266e+001
8.464340e+002, 8.586224e+001
8.469161e+002, 8.588220e+001
8.473982e+002, 8.590571e+001
8.478803e+002, 8.581532e+001
8.483624e+002, 8.581874e+001
8.488445e+002, 8.619860e+001
8.493267e+002, 8.664642e+001
8.498088e+002, 8.671718e+001
8.502909e+002, 8.635839e+001
8.507730e+002, 8.591162e+001
8.512551e+002, 8.549332e+001
8.517372e+002, 8.520699e+001
8.522194e+002, 8.524733e+001
8.527015e+002, 8.550367e+001
8.531836e+002, 8.577291e+001
8.536657e+002, 8.599034e+001
8.541478e+002, 8.595210e+001
8.546299e+002, 8.548508e+001
8.551121e+002, 8.483884e+001
8.555942e+002, 8.459802e+001
8.560763e+002, 8.481867e+001
8.565584e+002, 8.499635e+001
8.570405e+002, 8.512428e+001
8.575226e+002, 8.517899e+001
8.580048e+002, 8.509339e+001
8.584869e+002, 8.497807e+001
8.589690e+002, 8.498815e+001
8.594511e+002, 8.512605e+001
8.599332e+002, 8.532816e+001
8.604153e+002, 8.585506e+001
8.608975e+002, 8.610580e+001
8.613796e+002, 8.575623e+001
8.618617e+002, 8.519160e+001
8.623438e+002, 8.462345e+001
8.628259e+002, 8.414807e+001
8.633080e+002, 8.391594e+001
8.637902e+002, 8.401622e+001
8.642723e+002, 8.426053e+001
8.647544e+002, 8.460527e+001
8.652365e+002, 8.493208e+001
8.657186e+002, 8.503638e+001
8.662007e+002, 8.494481e+001
8.666829e+002, 8.480798e+001
8.671650e+002, 8.468349e+001
8.676471e+002, 8.450771e+001
8.681292e+002, 8.416166e+001
8.686113e+002, 8.371160e+001
8.690934e+002, 8.359822e+001
8.695756e+002, 8.387621e+001
8.700577e+002, 8.410977e+001
8.705398e+002, 8.424452e+001
8.710219e+002, 8.420937e+001
8.715040e+002, 8.384066e+001
8.719861e+002, 8.328319e+001
8.724683e+002, 8.308043e+001
8.729504e+002, 8.350935e+001
8.734325e+002, 8.378081e+001
8.739146e+002, 8.382497e+001
8.743967e+002, 8.378585e+001
8.748788e+002, 8.368751e+001
8.753610e+002, 8.356084e+001
8.758431e+002, 8.343244e+001
8.763252e+002, 8.330815e+001
8.768073e+002, 8.320214e+001
8.772894e+002, 8.323450e+001
8.777715e+002, 8.316911e+001
8.782537e+002, 8.259351e+001
8.787358e+002, 8.191662e+001
8.792179e+002, 8.186843e+001
8.797000e+002, 8.239917e+001
8.801821e+002, 8.285742e+001
8.806642e+002, 8.287186e+001
8.811464e+002, 8.265618e+001
8.816285e+002, 8.250539e+001
8.821106e+002, 8.240928e+001
8.825927e+002, 8.233781e+001
8.830748e+002, 8.229374e+001
8.835569e+002, 8.209631e+001
8.840391e+002, 8.162283e+001
8.845212e+002, 8.118932e+001
8.850033e+002, 8.121689e+001
8.854854e+002, 8.166844e+001
8.859675e+002, 8.177415e+001
8.864496e+002, 8.120803e+001
8.869318e+002, 8.094521e+001
8.874139e+002, 8.137591e+001
8.878960e+002, 8.185793e+001
8.883781e+002, 8.209730e+001
8.888602e+002, 8.211824e+001
8.893423e+002, 8.193035e+001
8.898245e+002, 8.145914e+001
8.903066e+002, 8.111903e+001
8.907887e+002, 8.110226e+001
8.912708e+002, 8.116519e+001
8.917529e+002, 8.118055e+001
8.922350e+002, 8.117844e+001
8.927172e+002, 8.124242e+001
8.931993e+002, 8.135748e+001
8.936814e+002, 8.137448e+001
8.941635e+002, 8.114591e+001
8.946456e+002, 8.089847e+001
8.951277e+002, 8.098313e+001
8.956099e+002, 8.123491e+001
8.960920e+002, 8.119851e+001
8.965741e+002, 8.089787e+001
8.970562e+002, 8.083870e+001
8.975383e+002, 8.127242e+001
8.980204e+002, 8.181370e+001
8.985026e+002, 8.187124e+001
8.989847e+002, 8.149149e+001
8.994668e+002, 8.129272e+001
8.999489e+002, 8.129893e+001
9.004310e+002, 8.135469e+001
9.009131e+002, 8.145346e+001
9.013953e+002, 8.151241e+001
9.018774e+002, 8.142168e+001
9.023595e+002, 8.123856e+001
9.028416e+002, 8.123069e+001
9.033237e+002, 8.161923e+001
9.038058e+002, 8.178236e+001
9.042880e+002, 8.152340e+001
9.047701e+002, 8.127800e+001
9.052522e+002, 8.116673e+001
9.057343e+002, 8.119688e+001
9.062164e+002, 8.139139e+001
9.066985e+002, 8.174458e+001
9.071807e+002, 8.215170e+001
9.076628e+002, 8.271827e+001
9.081449e+002, 8.316150e+001
9.086270e+002, 8.318618e+001
9.091091e+002, 8.310072e+001
9.095912e+002, 8.331679e+001
9.100734e+002, 8.375125e+001
9.105555e+002, 8.399117e+001
9.110376e+002, 8.384501e+001
9.115197e+002, 8.366947e+001
9.120018e+002, 8.384648e+001
9.124839e+002, 8.426279e+001
9.129661e+002, 8.471233e+001
9.134482e+002, 8.518575e+001
9.139303e+002, 8.570835e+001
9.144124e+002, 8.628453e+001
9.148945e+002, 8.674136e+001
9.153766e+002, 8.691042e+001
9.158588e+002, 8.688185e+001
9.163409e+002, 8.691943e+001
9.168230e+002, 8.701853e+001
9.173051e+002, 8.726729e+001
9.177872e+002, 8.775042e+001
9.182693e+002, 8.812556e+001
9.187515e+002, 8.821643e+001
9.192336e+002, 8.811510e+001
9.197157e+002, 8.792629e+001
9.201978e+002, 8.762481e+001
9.206799e+002, 8.747790e+001
9.211620e+002, 8.752488e+001
9.216442e+002, 8.767520e+001
9.221263e+002, 8.806660e+001
9.226084e+002, 8.841772e+001
9.230905e+002, 8.848720e+001
9.235726e+002, 8.837996e+001
9.240547e+002, 8.813660e+001
9.245369e+002, 8.738760e+001
9.250190e+002, 8.809789e+001
9.255011e+002, 9.358228e+001
9.259832e+002, 9.801768e+001
9.264653e+002, 9.639576e+001
9.269474e+002, 9.189379e+001
9.274296e+002, 8.893909e+001
9.279117e+002, 8.824777e+001
9.283938e+002, 8.835619e+001
9.288759e+002, 8.860799e+001
9.293580e+002, 8.885847e+001
9.298401e+002, 8.895567e+001
9.303223e+002, 8.893298e+001
9.308044e+002, 8.881590e+001
9.312865e+002, 8.863509e+001
9.317686e+002, 8.842995e+001
9.322507e+002, 8.822550e+001
9.327328e+002, 8.823922e+001
9.332150e+002, 8.880108e+001
9.336971e+002, 8.973302e+001
9.341792e+002, 9.035465e+001
9.346613e+002, 9.066459e+001
9.351434e+002, 9.085659e+001
9.356255e+002, 9.094028e+001
9.361077e+002, 9.107677e+001
9.365898e+002, 9.137865e+001
9.370719e+002, 9.179240e+001
9.375540e+002, 9.220803e+001
9.380361e+002, 9.262496e+001
9.385182e+002, 9.304452e+001
9.390004e+002, 9.351078e+001
9.394825e+002, 9.388655e+001
9.399646e+002, 9.399242e+001
9.404467e+002, 9.413502e+001
9.409288e+002, 9.466044e+001
9.414109e+002, 9.547854e+001
9.418931e+002, 9.618717e+001
9.423752e+002, 9.675127e+001
9.428573e+002, 9.724594e+001
9.433394e+002, 9.752341e+001
9.438215e+002, 9.790598e+001
9.443036e+002, 9.865100e+001
9.447858e+002, 9.954519e+001
9.452679e+002, 1.003362e+002
9.457500e+002, 1.009825e+002
9.462321e+002, 1.015140e+002
9.467142e+002, 1.018926e+002
9.471964e+002, 1.022268e+002
9.476785e+002, 1.025174e+002
9.481606e+002, 1.028486e+002
9.486427e+002, 1.033572e+002
9.491248e+002, 1.039851e+002
9.496069e+002, 1.045766e+002
9.500891e+002, 1.050715e+002
9.505712e+002, 1.055142e+002
9.510533e+002, 1.059426e+002
9.515354e+002, 1.063455e+002
9.520175e+002, 1.066630e+002
9.524996e+002, 1.069456e+002
9.529818e+002, 1.073534e+002
9.534639e+002, 1.079043e+002
9.539460e+002, 1.084872e+002
9.544281e+002, 1.090365e+002
9.549102e+002, 1.095529e+002
9.553923e+002, 1.100333e+002
9.558745e+002, 1.104808e+002
9.563566e+002, 1.108834e+002
9.568387e+002, 1.112392e+002
9.573208e+002, 1.116423e+002
9.578029e+002, 1.121400e+002
9.582850e+002, 1.125815e+002
9.587672e+002, 1.127816e+002
9.592493e+002, 1.128581e+002
9.597314e+002, 1.133440e+002
9.602135e+002, 1.144445e+002
9.606956e+002, 1.151858e+002
9.611777e+002, 1.153540e+002
9.616599e+002, 1.155074e+002
9.621420e+002, 1.157433e+002
9.626241e+002, 1.162115e+002
9.631062e+002, 1.172857e+002
9.635883e+002, 1.189590e+002
9.640704e+002, 1.199556e+002
9.645526e+002, 1.194802e+002
9.650347e+002, 1.195349e+002
9.655168e+002, 1.208176e+002
9.659989e+002, 1.221124e+002
9.664810e+002, 1.225476e+002
9.669631e+002, 1.226680e+002
9.674453e+002, 1.234396e+002
9.679274e+002, 1.250043e+002
9.684095e+002, 1.263779e+002
9.688916e+002, 1.271932e+002
9.693737e+002, 1.278804e+002
9.698558e+002, 1.284338e+002
9.703380e+002, 1.291117e+002
9.708201e+002, 1.302877e+002
9.713022e+002, 1.317697e+002
9.717843e+002, 1.330514e+002
9.722664e+002, 1.339539e+002
9.727485e+002, 1.347984e+002
9.732307e+002, 1.359054e+002
9.737128e+002, 1.369531e+002
9.741949e+002, 1.373962e+002
9.746770e+002, 1.376557e+002
9.751591e+002, 1.386221e+002
9.756412e+002, 1.402331e+002
9.761234e+002, 1.415736e+002
9.766055e+002, 1.421422e+002
9.770876e+002, 1.422798e+002
9.775698e+002, 1.424273e+002
9.780519e+002, 1.424310e+002
9.785340e+002, 1.417822e+002
9.790161e+002, 1.406518e+002
9.794982e+002, 1.398391e+002
9.799803e+002, 1.395288e+002
9.804625e+002, 1.392560e+002
9.809446e+002, 1.386492e+002
9.814267e+002, 1.378363e+002
9.819088e+002, 1.371740e+002
9.823909e+002, 1.366096e+002
9.828730e+002, 1.354806e+002
9.833552e+002, 1.337326e+002
9.838373e+002, 1.322745e+002
9.843194e+002, 1.314780e+002
9.848015e+002, 1.308302e+002
9.852836e+002, 1.297561e+002
9.857657e+002, 1.283900e+002
9.862479e+002, 1.274510e+002
9.867300e+002, 1.270746e+002
9.872121e+002, 1.263363e+002
9.876942e+002, 1.249397e+002
9.881763e+002, 1.238466e+002
9.886584e+002, 1.236207e+002
9.891406e+002, 1.237407e+002
9.896227e+002, 1.234940e+002
9.901048e+002, 1.228839e+002
9.905869e+002, 1.224892e+002
9.910690e+002, 1.223074e+002
9.915511e+002, 1.223526e+002
9.920333e+002, 1.228418e+002
9.925154e+002, 1.232953e+002
9.929975e+002, 1.235817e+002
9.934796e+002, 1.236172e+002
9.939617e+002, 1.231057e+002
9.944438e+002, 1.219438e+002
9.949260e+002, 1.213763e+002
9.954081e+002, 1.206895e+002
9.958902e+002, 1.217058e+002
9.963723e+002, 1.267501e+002
9.968544e+002, 1.317294e+002
9.973365e+002, 1.345363e+002
9.978187e+002, 1.350436e+002
9.983008e+002, 1.326364e+002
9.987829e+002, 1.268401e+002
9.992650e+002, 1.225863e+002
9.997471e+002, 1.223268e+002
1.000229e+003, 1.227360e+002
1.000711e+003, 1.226001e+002
1.001193e+003, 1.221407e+002
1.001676e+003, 1.214939e+002
1.002158e+003, 1.207710e+002
1.002640e+003, 1.201227e+002
1.003122e+003, 1.195809e+002
1.003604e+003, 1.192652e+002
1.004086e+003, 1.194810e+002
1.004568e+003, 1.197012e+002
1.005050e+003, 1.195676e+002
1.005533e+003, 1.191327e+002
1.006015e+003, 1.184065e+002
1.006497e+003, 1.174687e+002
1.006979e+003, 1.164696e+002
1.007461e+003, 1.154528e+002
1.007943e+003, 1.146303e+002
1.008425e+003, 1.143537e+002
1.008907e+003, 1.142533e+002
1.009389e+003, 1.138861e+002
1.009872e+003, 1.133114e+002
1.010354e+003, 1.126471e+002
1.010836e+003, 1.119444e+002
1.011318e+003, 1.112841e+002
1.011800e+003, 1.107143e+002
1.012282e+003, 1.102119e+002
1.012764e+003, 1.098215e+002
1.013246e+003, 1.094421e+002
1.013729e+003, 1.087591e+002
1.014211e+003, 1.078786e+002
1.014693e+003, 1.072313e+002
1.015175e+003, 1.069068e+002
1.015657e+003, 1.067499e+002
1.016139e+003, 1.066814e+002
1.016621e+003, 1.065478e+002
1.017103e+003, 1.059883e+002
1.017585e+003, 1.051290e+002
1.018068e+003, 1.045325e+002
1.018550e+003, 1.042049e+002
1.019032e+003, 1.040225e+002
1.019514e+003, 1.039519e+002
1.019996e+003, 1.037724e+002
1.020478e+003, 1.032570e+002
1.020960e+003, 1.026902e+002
1.021442e+003, 1.029036e+002
1.021924e+003, 1.038462e+002
1.022407e+003, 1.040965e+002
1.022889e+003, 1.035665e+002
1.023371e+003, 1.030357e+002
1.023853e+003, 1.027118e+002
1.024335e+003, 1.027074e+002
1.024817e+003, 1.031976e+002
1.025299e+003, 1.039496e+002
1.025781e+003, 1.041986e+002
1.026264e+003, 1.038724e+002
1.026746e+003, 1.036269e+002
1.027228e+003, 1.034572e+002
1.027710e+003, 1.035008e+002
1.028192e+003, 1.038740e+002
1.028674e+003, 1.042885e+002
1.029156e+003, 1.044923e+002
1.029638e+003, 1.044937e+002
1.030120e+003, 1.042690e+002
1.030603e+003, 1.036402e+002
1.031085e+003, 1.034773e+002
1.031567e+003, 1.039435e+002
1.032049e+003, 1.045199e+002
1.032531e+003, 1.050781e+002
1.033013e+003, 1.056136e+002
1.033495e+003, 1.061705e+002
1.033977e+003, 1.066936e+002
1.034459e+003, 1.068761e+002
1.034942e+003, 1.064311e+002
1.035424e+003, 1.063395e+002
1.035906e+003, 1.068396e+002
1.036388e+003, 1.072909e+002
1.036870e+003, 1.074418e+002
1.037352e+003, 1.074875e+002
1.037834e+003, 1.076150e+002
1.038316e+003, 1.078088e+002
1.038799e+003, 1.079796e+002
1.039281e+003, 1.081857e+002
1.039763e+003, 1.082545e+002
1.040245e+003, 1.078881e+002
1.040727e+003, 1.077682e+002
1.041209e+003, 1.083647e+002
1.041691e+003, 1.091062e+002
1.042173e+003, 1.095672e+002
1.042656e+003, 1.097243e+002
1.043138e+003, 1.094239e+002
1.043620e+003, 1.082269e+002
1.044102e+003, 1.074444e+002
1.044584e+003, 1.075887e+002
1.045066e+003, 1.076180e+002
1.045548e+003, 1.070711e+002
1.046030e+003, 1.063010e+002
1.046512e+003, 1.056023e+002
1.046995e+003, 1.049899e+002
1.047477e+003, 1.044615e+002
1.047959e+003, 1.040902e+002
1.048441e+003, 1.036344e+002
1.048923e+003, 1.028607e+002
1.049405e+003, 1.022426e+002
1.049887e+003, 1.021806e+002
1.050369e+003, 1.022101e+002
1.050851e+003, 1.018106e+002
1.051334e+003, 1.010712e+002
1.051816e+003, 1.004628e+002
1.052298e+003, 1.000737e+002
1.052780e+003, 9.978274e+001
1.053262e+003, 9.966269e+001
1.053744e+003, 9.951025e+001
1.054226e+003, 9.911882e+001
1.054708e+003, 9.873467e+001
1.055191e+003, 9.872397e+001
1.055673e+003, 9.894936e+001
1.056155e+003, 9.885816e+001
1.056637e+003, 9.822215e+001
1.057119e+003, 9.765035e+001
1.057601e+003, 9.730499e+001
1.058083e+003, 9.708949e+001
1.058565e+003, 9.707898e+001
1.059047e+003, 9.707875e+001
1.059530e+003, 9.685052e+001
1.060012e+003, 9.646402e+001
1.060494e+003, 9.617326e+001
1.060976e+003, 9.604768e+001
1.061458e+003, 9.598299e+001
1.061940e+003, 9.615768e+001
1.062422e+003, 9.612431e+001
1.062904e+003, 9.540765e+001
1.063386e+003, 9.456150e+001
1.063869e+003, 9.419207e+001
1.064351e+003, 9.416867e+001
1.064833e+003, 9.393267e+001
1.065315e+003, 9.327592e+001
1.065797e+003, 9.294611e+001
1.066279e+003, 9.360255e+001
1.066761e+003, 9.423135e+001
1.067243e+003, 9.430087e+001
1.067726e+003, 9.407646e+001
1.068208e+003, 9.373922e+001
1.068690e+003, 9.336532e+001
1.069172e+003, 9.301585e+001
1.069654e+003, 9.270242e+001
1.070136e+003, 9.253136e+001
1.070618e+003, 9.269723e+001
1.071100e+003, 9.283454e+001
1.071583e+003, 9.271437e+001
1.072065e+003, 9.250571e+001
1.072547e+003, 9.235810e+001
1.073029e+003, 9.225556e+001
1.073511e+003, 9.207799e+001
1.073993e+003, 9.180276e+001
1.074475e+003, 9.174126e+001
1.074957e+003, 9.226031e+001
1.075439e+003, 9.272980e+001
1.075922e+003, 9.279018e+001
1.076404e+003, 9.269881e+001
1.076886e+003, 9.260085e+001
1.077368e+003, 9.256065e+001
1.077850e+003, 9.266782e+001
1.078332e+003, 9.292989e+001
1.078814e+003, 9.321435e+001
1.079296e+003, 9.354919e+001
1.079779e+003, 9.377420e+001
1.080261e+003, 9.360764e+001
1.080743e+003, 9.349790e+001
1.081225e+003, 9.390298e+001
1.081707e+003, 9.457345e+001
1.082189e+003, 9.511655e+001
1.082671e+003, 9.546642e+001
1.083153e+003, 9.573223e+001
1.083635e+003, 9.590877e+001
1.084118e+003, 9.609416e+001
1.084600e+003, 9.636436e+001
1.085082e+003, 9.662729e+001
1.085564e+003, 9.678638e+001
1.086046e+003, 9.691306e+001
1.086528e+003, 9.708048e+001
1.087010e+003, 9.731405e+001
1.087492e+003, 9.768076e+001
1.087974e+003, 9.831508e+001
1.088457e+003, 9.879140e+001
1.088939e+003, 9.883651e+001
1.089421e+003, 9.878041e+001
1.089903e+003, 9.886804e+001
1.090385e+003, 9.894353e+001
1.090867e+003, 9.880932e+001
1.091349e+003, 9.848088e+001
1.091831e+003, 9.807004e+001
1.092314e+003, 9.756728e+001
1.092796e+003, 9.714900e+001
1.093278e+003, 9.699018e+001
1.093760e+003, 9.679826e+001
1.094242e+003, 9.629141e+001
1.094724e+003, 9.578788e+001
1.095206e+003, 9.566689e+001
1.095688e+003, 9.579667e+001
1.096171e+003, 9.581789e+001
1.096653e+003, 9.567398e+001
1.097135e+003, 9.529434e+001
1.097617e+003, 9.438541e+001
1.098099e+003, 9.359228e+001
1.098581e+003, 9.328916e+001
1.099063e+003, 9.308244e+001
1.099545e+003, 9.273640e+001
1.100027e+003, 9.222369e+001
1.100510e+003, 9.146560e+001
1.100992e+003, 9.044267e+001
1.101474e+003, 8.965606e+001
1.101956e+003, 8.938953e+001
1.102438e+003, 8.913206e+001
1.102920e+003, 8.870181e+001
1.103402e+003, 8.829497e+001
1.103884e+003, 8.809682e+001
1.104366e+003, 8.796268e+001
1.104849e+003, 8.765932e+001
1.105331e+003, 8.718644e+001
1.105813e+003, 8.678049e+001
1.106295e+003, 8.654848e+001
1.106777e+003, 8.626975e+001
1.107259e+003, 8.589812e+001
1.107741e+003, 8.549189e+001
1.108223e+003, 8.503185e+001
1.108706e+003, 8.458273e+001
1.109188e+003, 8.421860e+001
1.109670e+003, 8.392501e+001
1.110152e+003, 8.362415e+001
1.110634e+003, 8.325471e+001
1.111116e+003, 8.300245e+001
1.111598e+003, 8.309598e+001
1.112080e+003, 8.301720e+001
1.112563e+003, 8.248479e+001
1.113045e+003, 8.184448e+001
1.113527e+003, 8.079380e+001
1.114009e+003, 7.996516e+001
1.114491e+003, 8.154607e+001
1.114973e+003, 8.692428e+001
1.115455e+003, 8.863825e+001
1.115937e+003, 8.376922e+001
1.116419e+003, 8.037009e+001
1.116901e+003, 8.082344e+001
1.117384e+003, 8.168254e+001
1.117866e+003, 8.076585e+001
1.118348e+003, 7.908920e+001
1.118830e+003, 7.839415e+001
1.119312e+003, 7.871211e+001
1.119794e+003, 7.880534e+001
1.120276e+003, 7.861745e+001
1.120758e+003, 7.832373e+001
1.121241e+003, 7.782956e+001
1.121723e+003, 7.748420e+001
1.122205e+003, 7.750669e+001
1.122687e+003, 7.764761e+001
1.123169e+003, 7.764644e+001
1.123651e+003, 7.749319e+001
1.124133e+003, 7.707814e+001
1.124615e+003, 7.628710e+001
1.125098e+003, 7.582125e+001
1.125580e+003, 7.578547e+001
1.126062e+003, 7.576215e+001
1.126544e+003, 7.564177e+001
1.127026e+003, 7.537901e+001
1.127508e+003, 7.485220e+001
1.127990e+003, 7.432504e+001
1.128472e+003, 7.459354e+001
1.128954e+003, 7.569673e+001
1.129437e+003, 7.602731e+001
1.129919e+003, 7.552837e+001
1.130401e+003, 7.517489e+001
1.130883e+003, 7.517688e+001
1.131365e+003, 7.521963e+001
1.131847e+003, 7.511654e+001
1.132329e+003, 7.493215e+001
1.132811e+003, 7.472729e+001
1.133293e+003, 7.454202e+001
1.133776e+003, 7.466914e+001
1.134258e+003, 7.504662e+001
1.134740e+003, 7.503767e+001
1.135222e+003, 7.460336e+001
1.135704e+003, 7.427246e+001
1.136186e+003, 7.426089e+001
1.136668e+003, 7.441920e+001
1.137150e+003, 7.466024e+001
1.137633e+003, 7.482957e+001
1.138115e+003, 7.450050e+001
1.138597e+003, 7.386470e+001
1.139079e+003, 7.353697e+001
1.139561e+003, 7.347303e+001
1.140043e+003, 7.334708e+001
1.140525e+003, 7.307114e+001
1.141007e+003, 7.267498e+001
1.141490e+003, 7.216386e+001
1.141972e+003, 7.165601e+001
1.142454e+003, 7.117065e+001
1.142936e+003, 7.086531e+001
1.143418e+003, 7.125441e+001
1.143900e+003, 7.191907e+001
1.144382e+003, 7.193404e+001
1.144864e+003, 7.133464e+001
1.145346e+003, 7.074381e+001
1.145828e+003, 7.040983e+001
1.146311e+003, 7.016551e+001
1.146793e+003, 6.990666e+001
1.147275e+003, 6.965354e+001
1.147757e+003, 6.936143e+001
1.148239e+003, 6.913918e+001
1.148721e+003, 6.919259e+001
1.149203e+003, 6.938981e+001
1.149685e+003, 6.949026e+001
1.150168e+003, 6.943382e+001
1.150650e+003, 6.923251e+001
1.151132e+003, 6.880737e+001
1.151614e+003, 6.843303e+001
1.152096e+003, 6.830139e+001
1.152578e+003, 6.820997e+001
1.153060e+003, 6.802410e+001
1.153542e+003, 6.779542e+001
1.154025e+003, 6.754539e+001
1.154507e+003, 6.731741e+001
1.154989e+003, 6.726124e+001
1.155471e+003, 6.748308e+001
1.155953e+003, 6.748280e+001
1.156435e+003, 6.689251e+001
1.156917e+003, 6.640807e+001
1.157399e+003, 6.623810e+001
1.157881e+003, 6.626202e+001
1.158364e+003, 6.655391e+001
1.158846e+003, 6.690443e+001
1.159328e+003, 6.694712e+001
1.159810e+003, 6.666299e+001
1.160292e+003, 6.643300e+001
1.160774e+003, 6.634240e+001
1.161256e+003, 6.615785e+001
1.161738e+003, 6.581255e+001
1.162220e+003, 6.546297e+001
1.162703e+003, 6.513880e+001
1.163185e+003, 6.486583e+001
1.163667e+003, 6.463268e+001
1.164149e+003, 6.449143e+001
1.164631e+003, 6.466140e+001
1.165113e+003, 6.524741e+001
1.165595e+003, 6.547775e+001
1.166077e+003, 6.527995e+001
1.166560e+003, 6.501546e+001
1.167042e+003, 6.471725e+001
1.167524e+003, 6.457442e+001
1.168006e+003, 6.473193e+001
1.168488e+003, 6.497674e+001
1.168970e+003, 6.499523e+001
1.169452e+003, 6.481887e+001
1.169934e+003, 6.461430e+001
1.170417e+003, 6.437573e+001
1.170899e+003, 6.391274e+001
1.171381e+003, 6.324882e+001
1.171863e+003, 6.300591e+001
1.172345e+003, 6.339035e+001
1.172827e+003, 6.415051e+001
1.173309e+003, 6.511620e+001
1.173791e+003, 6.619409e+001
1.174273e+003, 6.732954e+001
1.174755e+003, 6.841515e+001
1.175238e+003, 6.956993e+001
1.175720e+003, 7.038644e+001
1.176202e+003, 6.929736e+001
1.176684e+003, 6.656619e+001
1.177166e+003, 6.432170e+001
1.177648e+003, 6.347399e+001
1.178130e+003, 6.340269e+001
1.178612e+003, 6.365201e+001
1.179095e+003, 6.432977e+001
1.179577e+003, 6.644960e+001
1.180059e+003, 6.834354e+001
1.180541e+003, 6.739346e+001
1.181023e+003, 6.482932e+001
1.181505e+003, 6.322838e+001
1.181987e+003, 6.298569e+001
1.182469e+003, 6.297998e+001
1.182952e+003, 6.281676e+001
1.183434e+003, 6.270639e+001
1.183916e+003, 6.284984e+001
1.184398e+003, 6.293982e+001
1.184880e+003, 6.267201e+001
1.185362e+003, 6.238322e+001
1.185844e+003, 6.243568e+001
1.186326e+003, 6.272330e+001
1.186808e+003, 6.298765e+001
1.187291e+003, 6.322726e+001
1.187773e+003, 6.321626e+001
1.188255e+003, 6.256993e+001
1.188737e+003, 6.224558e+001
1.189219e+003, 6.264156e+001
1.189701e+003, 6.295199e+001
1.190183e+003, 6.276951e+001
1.190665e+003, 6.242296e+001
1.191147e+003, 6.227568e+001
1.191630e+003, 6.226137e+001
1.192112e+003, 6.205996e+001
1.192594e+003, 6.155798e+001
1.193076e+003, 6.150365e+001
1.193558e+003, 6.202081e+001
1.194040e+003, 6.233703e+001
1.194522e+003, 6.225805e+001
1.195004e+003, 6.206792e+001
1.195487e+003, 6.191951e+001
1.195969e+003, 6.184055e+001
1.196451e+003, 6.189600e+001
1.196933e+003, 6.202685e+001
1.197415e+003, 6.199056e+001
1.197897e+003, 6.181834e+001
1.198379e+003, 6.171323e+001
1.198861e+003, 6.166462e+001
1.199344e+003, 6.144352e+001
1.199826e+003, 6.101551e+001
1.200308e+003, 6.072895e+001
1.200790e+003, 6.083659e+001
1.201272e+003, 6.107513e+001
1.201754e+003, 6.118353e+001
1.202236e+003, 6.118036e+001
1.202718e+003, 6.096884e+001
1.203200e+003, 6.073487e+001
1.203682e+003, 6.087390e+001
1.204165e+003, 6.126862e+001
1.204647e+003, 6.148252e+001
1.205129e+003, 6.139906e+001
1.205611e+003, 6.126320e+001
1.206093e+003, 6.108270e+001
1.206575e+003, 6.108081e+001
1.207057e+003, 6.168712e+001
1.207539e+003, 6.216254e+001
1.208022e+003, 6.183739e+001
1.208504e+003, 6.121727e+001
1.208986e+003, 6.085458e+001
1.209468e+003, 6.076442e+001
1.209950e+003, 6.083418e+001
1.210432e+003, 6.111069e+001
1.210914e+003, 6.129681e+001
1.211396e+003, 6.133509e+001
1.211879e+003, 6.134157e+001
1.212361e+003, 6.139942e+001
1.212843e+003, 6.130360e+001
1.213325e+003, 6.079350e+001
1.213807e+003, 6.031094e+001
1.214289e+003, 6.046261e+001
1.214771e+003, 6.107030e+001
1.215253e+003, 6.123656e+001
1.215735e+003, 6.089344e+001
1.216218e+003, 6.054396e+001
1.216700e+003, 6.011657e+001
1.217182e+003, 6.117101e+001
1.217664e+003, 6.415961e+001
1.218146e+003, 6.653356e+001
1.218628e+003, 6.679503e+001
1.219110e+003, 6.571354e+001
1.219592e+003, 6.394304e+001
1.220074e+003, 6.199501e+001
1.220557e+003, 6.119871e+001
1.221039e+003, 6.118727e+001
1.221521e+003, 6.105096e+001
1.222003e+003, 6.076888e+001
1.222485e+003, 6.059462e+001
1.222967e+003, 6.057161e+001
1.223449e+003, 6.054544e+001
1.223931e+003, 6.043259e+001
1.224414e+003, 6.030516e+001
1.224896e+003, 6.021167e+001
1.225378e+003, 6.013574e+001
1.225860e+003, 6.002965e+001
1.226342e+003, 5.996458e+001
1.226824e+003, 6.007692e+001
1.227306e+003, 6.026423e+001
1.227788e+003, 6.029641e+001
1.228271e+003, 6.015755e+001
1.228753e+003, 6.010192e+001
1.229235e+003, 6.037425e+001
1.229717e+003, 6.038777e+001
1.230199e+003, 5.973296e+001
1.230681e+003, 5.926845e+001
1.231163e+003, 5.941615e+001
1.231645e+003, 5.964242e+001
1.232127e+003, 5.954232e+001
1.232609e+003, 5.926997e+001
1.233092e+003, 5.910114e+001
1.233574e+003, 5.903666e+001
1.234056e+003, 5.919228e+001
1.234538e+003, 5.961023e+001
1.235020e+003, 5.987434e+001
1.235502e+003, 5.993626e+001
1.235984e+003, 5.999414e+001
1.236466e+003, 6.011809e+001
1.236949e+003, 6.010379e+001
1.237431e+003, 5.976351e+001
1.237913e+003, 5.937828e+001
1.238395e+003, 5.946780e+001
1.238877e+003, 5.982347e+001
1.239359e+003, 5.996456e+001
1.239841e+003, 5.995683e+001
1.240323e+003, 5.997299e+001
1.240806e+003, 6.000428e+001
1.241288e+003, 5.989073e+001
1.241770e+003, 5.962626e+001
1.242252e+003, 5.954632e+001
1.242734e+003, 5.995662e+001
1.243216e+003, 6.027696e+001
1.243698e+003, 6.002571e+001
1.244180e+003, 5.967669e+001
1.244662e+003, 5.945282e+001
1.245145e+003, 5.938784e+001
1.245627e+003, 5.965839e+001
1.246109e+003, 6.004913e+001
1.246591e+003, 6.004245e+001
1.247073e+003, 5.956080e+001
1.247555e+003, 5.926096e+001
1.248037e+003, 5.922218e+001
1.248519e+003, 5.929821e+001
1.249001e+003, 5.960808e+001
1.249484e+003, 5.976049e+001
1.249966e+003, 5.956597e+001
1.250448e+003, 5.932236e+001
1.250930e+003, 5.925341e+001
1.251412e+003, 5.931020e+001
1.251894e+003, 5.940557e+001
1.252376e+003, 5.953837e+001
1.252858e+003, 5.975175e+001
1.253341e+003, 6.001272e+001
1.253823e+003, 5.995837e+001
1.254305e+003, 5.961383e+001
1.254787e+003, 5.944019e+001
1.255269e+003, 5.956181e+001
1.255751e+003, 5.970851e+001
1.256233e+003, 5.971231e+001
1.256715e+003, 5.960030e+001
1.257198e+003, 5.928756e+001
1.257680e+003, 5.898811e+001
1.258162e+003, 5.895242e+001
1.258644e+003, 5.907030e+001
1.259126e+003, 5.929055e+001
1.259608e+003, 5.950551e+001
1.260090e+003, 5.946850e+001
1.260572e+003, 5.919049e+001
1.261054e+003, 5.913249e+001
1.261536e+003, 5.959224e+001
1.262019e+003, 5.988496e+001
1.262501e+003, 5.971350e+001
1.262983e+003, 5.958626e+001
1.263465e+003, 5.972009e+001
1.263947e+003, 5.986139e+001
1.264429e+003, 5.985590e+001
1.264911e+003, 5.975499e+001
1.265393e+003, 5.959683e+001
1.265876e+003, 5.942181e+001
1.266358e+003, 5.956965e+001
1.266840e+003, 6.006972e+001
1.267322e+003, 6.033648e+001
1.267804e+003, 6.034530e+001
1.268286e+003, 6.008416e+001
1.268768e+003, 5.957930e+001
1.269250e+003, 5.936968e+001
1.269733e+003, 5.975898e+001
1.270215e+003, 6.018840e+001
1.270697e+003, 5.999074e+001
1.271179e+003, 5.958071e+001
1.271661e+003, 5.950810e+001
1.272143e+003, 5.963697e+001
1.272625e+003, 5.993887e+001
1.273107e+003, 6.020607e+001
1.273589e+003, 5.995323e+001
1.274072e+003, 5.932758e+001
1.274554e+003, 5.911731e+001
1.275036e+003, 5.960554e+001
1.275518e+003, 5.995321e+001
1.276000e+003, 5.975805e+001
1.276482e+003, 5.959169e+001
1.276964e+003, 5.968764e+001
1.277446e+003, 5.975286e+001
1.277929e+003, 5.958953e+001
1.278411e+003, 5.937526e+001
1.278893e+003, 5.925734e+001
1.279375e+003, 5.924080e+001
1.279857e+003, 5.937140e+001
1.280339e+003, 5.965533e+001
1.280821e+003, 5.966501e+001
1.281303e+003, 5.940160e+001
1.281786e+003, 5.928297e+001
1.282268e+003, 5.936277e+001
##END=



