##NAMES=Pseudobrookite
##RRUFFID=R140974
##IDEAL CHEMISTRY=(Fe^3+^_2_Ti^4+^)O_5_
##LOCALITY=Emmelberg, Üdersdorf, Daun, Eifel, Rhineland-Palatinate, Germany
##OWNER=RRUFF
##SOURCE=Ch. and H. Schäfer
##DESCRIPTION=Dark brown tabular or elongated crystals. Associated with sanidine and mullite (supposedly).
##STATUS=The identification of this mineral has been confirmed by single-crystal X-ray diffraction.
##URL=rruff.info/R140974
9.059570e+001, 2.420139e+002
9.107782e+001, 2.402515e+002
9.155994e+001, 2.396366e+002
9.204205e+001, 2.407914e+002
9.252417e+001, 2.426833e+002
9.300629e+001, 2.451466e+002
9.348840e+001, 2.467471e+002
9.397052e+001, 2.456675e+002
9.445264e+001, 2.410130e+002
9.493475e+001, 2.359525e+002
9.541687e+001, 2.309283e+002
9.589898e+001, 2.258634e+002
9.638110e+001, 2.211075e+002
9.686321e+001, 2.169856e+002
9.734533e+001, 2.134707e+002
9.782745e+001, 2.100273e+002
9.830956e+001, 2.069491e+002
9.879168e+001, 2.042241e+002
9.927380e+001, 2.018052e+002
9.975591e+001, 1.996697e+002
1.002380e+002, 1.977609e+002
1.007201e+002, 1.960134e+002
1.012023e+002, 1.943600e+002
1.016844e+002, 1.928478e+002
1.021665e+002, 1.915564e+002
1.026486e+002, 1.906859e+002
1.031307e+002, 1.898649e+002
1.036128e+002, 1.886374e+002
1.040950e+002, 1.868740e+002
1.045771e+002, 1.852926e+002
1.050592e+002, 1.844729e+002
1.055413e+002, 1.840771e+002
1.060234e+002, 1.836581e+002
1.065055e+002, 1.829480e+002
1.069877e+002, 1.820380e+002
1.074698e+002, 1.813411e+002
1.079519e+002, 1.810767e+002
1.084340e+002, 1.807368e+002
1.089161e+002, 1.801636e+002
1.093982e+002, 1.793525e+002
1.098804e+002, 1.783188e+002
1.103625e+002, 1.769707e+002
1.108446e+002, 1.751660e+002
1.113267e+002, 1.738226e+002
1.118088e+002, 1.730968e+002
1.122909e+002, 1.726456e+002
1.127731e+002, 1.724014e+002
1.132552e+002, 1.723124e+002
1.137373e+002, 1.722889e+002
1.142194e+002, 1.722035e+002
1.147015e+002, 1.720003e+002
1.151836e+002, 1.718276e+002
1.156658e+002, 1.717572e+002
1.161479e+002, 1.716834e+002
1.166300e+002, 1.715043e+002
1.171121e+002, 1.711823e+002
1.175942e+002, 1.707473e+002
1.180763e+002, 1.702382e+002
1.185584e+002, 1.695607e+002
1.190406e+002, 1.690050e+002
1.195227e+002, 1.687415e+002
1.200048e+002, 1.686789e+002
1.204869e+002, 1.685301e+002
1.209690e+002, 1.680550e+002
1.214511e+002, 1.675254e+002
1.219333e+002, 1.674565e+002
1.224154e+002, 1.680292e+002
1.228975e+002, 1.687469e+002
1.233796e+002, 1.692146e+002
1.238617e+002, 1.694217e+002
1.243438e+002, 1.694742e+002
1.248260e+002, 1.693133e+002
1.253081e+002, 1.690550e+002
1.257902e+002, 1.687939e+002
1.262723e+002, 1.685725e+002
1.267544e+002, 1.683554e+002
1.272365e+002, 1.680361e+002
1.277187e+002, 1.674505e+002
1.282008e+002, 1.670535e+002
1.286829e+002, 1.670324e+002
1.291650e+002, 1.672362e+002
1.296471e+002, 1.674639e+002
1.301292e+002, 1.675836e+002
1.306114e+002, 1.676093e+002
1.310935e+002, 1.677392e+002
1.315756e+002, 1.681387e+002
1.320577e+002, 1.684929e+002
1.325398e+002, 1.687648e+002
1.330219e+002, 1.689319e+002
1.335041e+002, 1.689414e+002
1.339862e+002, 1.687089e+002
1.344683e+002, 1.681420e+002
1.349504e+002, 1.680010e+002
1.354325e+002, 1.685589e+002
1.359146e+002, 1.692338e+002
1.363968e+002, 1.696761e+002
1.368789e+002, 1.698596e+002
1.373610e+002, 1.699977e+002
1.378431e+002, 1.703210e+002
1.383252e+002, 1.708648e+002
1.388073e+002, 1.714828e+002
1.392895e+002, 1.721585e+002
1.397716e+002, 1.729089e+002
1.402537e+002, 1.738617e+002
1.407358e+002, 1.751205e+002
1.412179e+002, 1.762662e+002
1.417000e+002, 1.766378e+002
1.421821e+002, 1.763176e+002
1.426643e+002, 1.759135e+002
1.431464e+002, 1.755771e+002
1.436285e+002, 1.753325e+002
1.441106e+002, 1.752710e+002
1.445927e+002, 1.754527e+002
1.450748e+002, 1.758038e+002
1.455570e+002, 1.762634e+002
1.460391e+002, 1.768274e+002
1.465212e+002, 1.774030e+002
1.470033e+002, 1.779043e+002
1.474854e+002, 1.783234e+002
1.479675e+002, 1.787539e+002
1.484497e+002, 1.794524e+002
1.489318e+002, 1.800123e+002
1.494139e+002, 1.800696e+002
1.498960e+002, 1.795773e+002
1.503781e+002, 1.789593e+002
1.508602e+002, 1.788871e+002
1.513424e+002, 1.796825e+002
1.518245e+002, 1.803403e+002
1.523066e+002, 1.807104e+002
1.527887e+002, 1.809653e+002
1.532708e+002, 1.812374e+002
1.537529e+002, 1.815756e+002
1.542351e+002, 1.819473e+002
1.547172e+002, 1.822679e+002
1.551993e+002, 1.824202e+002
1.556814e+002, 1.826640e+002
1.561635e+002, 1.831755e+002
1.566456e+002, 1.837371e+002
1.571278e+002, 1.840361e+002
1.576099e+002, 1.838997e+002
1.580920e+002, 1.834733e+002
1.585741e+002, 1.833880e+002
1.590562e+002, 1.837752e+002
1.595383e+002, 1.842926e+002
1.600205e+002, 1.849548e+002
1.605026e+002, 1.856953e+002
1.609847e+002, 1.863428e+002
1.614668e+002, 1.867470e+002
1.619489e+002, 1.870143e+002
1.624310e+002, 1.875863e+002
1.629131e+002, 1.887948e+002
1.633953e+002, 1.899654e+002
1.638774e+002, 1.906642e+002
1.643595e+002, 1.909299e+002
1.648416e+002, 1.911111e+002
1.653237e+002, 1.913325e+002
1.658058e+002, 1.916482e+002
1.662880e+002, 1.921609e+002
1.667701e+002, 1.929990e+002
1.672522e+002, 1.939498e+002
1.677343e+002, 1.947940e+002
1.682164e+002, 1.955289e+002
1.686985e+002, 1.961631e+002
1.691807e+002, 1.965115e+002
1.696628e+002, 1.967991e+002
1.701449e+002, 1.973354e+002
1.706270e+002, 1.983096e+002
1.711091e+002, 1.995575e+002
1.715912e+002, 2.007147e+002
1.720734e+002, 2.017772e+002
1.725555e+002, 2.027421e+002
1.730376e+002, 2.035405e+002
1.735197e+002, 2.042786e+002
1.740018e+002, 2.051223e+002
1.744839e+002, 2.061917e+002
1.749661e+002, 2.074413e+002
1.754482e+002, 2.085693e+002
1.759303e+002, 2.093441e+002
1.764124e+002, 2.102674e+002
1.768945e+002, 2.114873e+002
1.773766e+002, 2.129444e+002
1.778588e+002, 2.145268e+002
1.783409e+002, 2.161822e+002
1.788230e+002, 2.179155e+002
1.793051e+002, 2.195105e+002
1.797872e+002, 2.206987e+002
1.802693e+002, 2.220127e+002
1.807515e+002, 2.236321e+002
1.812336e+002, 2.255188e+002
1.817157e+002, 2.275303e+002
1.821978e+002, 2.295608e+002
1.826799e+002, 2.316160e+002
1.831620e+002, 2.336073e+002
1.836441e+002, 2.354994e+002
1.841263e+002, 2.373721e+002
1.846084e+002, 2.391674e+002
1.850905e+002, 2.409332e+002
1.855726e+002, 2.428772e+002
1.860547e+002, 2.452358e+002
1.865368e+002, 2.480930e+002
1.870190e+002, 2.506024e+002
1.875011e+002, 2.524303e+002
1.879832e+002, 2.541424e+002
1.884653e+002, 2.561854e+002
1.889474e+002, 2.585916e+002
1.894296e+002, 2.610619e+002
1.899117e+002, 2.632798e+002
1.903938e+002, 2.652491e+002
1.908759e+002, 2.673570e+002
1.913580e+002, 2.695926e+002
1.918401e+002, 2.720001e+002
1.923223e+002, 2.747696e+002
1.928044e+002, 2.780120e+002
1.932865e+002, 2.811695e+002
1.937686e+002, 2.835078e+002
1.942507e+002, 2.852735e+002
1.947328e+002, 2.871706e+002
1.952150e+002, 2.895916e+002
1.956971e+002, 2.922649e+002
1.961792e+002, 2.947247e+002
1.966613e+002, 2.970193e+002
1.971434e+002, 2.988760e+002
1.976255e+002, 2.999466e+002
1.981077e+002, 3.004526e+002
1.985898e+002, 3.008995e+002
1.990719e+002, 3.018257e+002
1.995540e+002, 3.029818e+002
2.000361e+002, 3.032341e+002
2.005182e+002, 3.021314e+002
2.010004e+002, 3.006410e+002
2.014825e+002, 2.994684e+002
2.019646e+002, 2.984058e+002
2.024467e+002, 2.969368e+002
2.029288e+002, 2.946160e+002
2.034109e+002, 2.914862e+002
2.038930e+002, 2.883115e+002
2.043752e+002, 2.851088e+002
2.048573e+002, 2.818525e+002
2.053394e+002, 2.785498e+002
2.058215e+002, 2.752079e+002
2.063036e+002, 2.718046e+002
2.067857e+002, 2.682947e+002
2.072679e+002, 2.646609e+002
2.077500e+002, 2.612708e+002
2.082321e+002, 2.580453e+002
2.087142e+002, 2.551546e+002
2.091963e+002, 2.527267e+002
2.096784e+002, 2.507122e+002
2.101606e+002, 2.489780e+002
2.106427e+002, 2.474114e+002
2.111248e+002, 2.460194e+002
2.116069e+002, 2.448206e+002
2.120890e+002, 2.437342e+002
2.125711e+002, 2.428898e+002
2.130533e+002, 2.423257e+002
2.135354e+002, 2.420506e+002
2.140175e+002, 2.420637e+002
2.144996e+002, 2.423773e+002
2.149817e+002, 2.430181e+002
2.154638e+002, 2.438281e+002
2.159460e+002, 2.448567e+002
2.164281e+002, 2.459697e+002
2.169102e+002, 2.470696e+002
2.173923e+002, 2.481761e+002
2.178744e+002, 2.494190e+002
2.183565e+002, 2.509202e+002
2.188387e+002, 2.527142e+002
2.193208e+002, 2.545436e+002
2.198029e+002, 2.566182e+002
2.202850e+002, 2.585655e+002
2.207671e+002, 2.601610e+002
2.212492e+002, 2.614007e+002
2.217314e+002, 2.624278e+002
2.222135e+002, 2.634029e+002
2.226956e+002, 2.642958e+002
2.231777e+002, 2.647012e+002
2.236598e+002, 2.644768e+002
2.241419e+002, 2.638828e+002
2.246240e+002, 2.631198e+002
2.251062e+002, 2.621956e+002
2.255883e+002, 2.610039e+002
2.260704e+002, 2.595108e+002
2.265525e+002, 2.576474e+002
2.270346e+002, 2.552163e+002
2.275167e+002, 2.519436e+002
2.279989e+002, 2.482622e+002
2.284810e+002, 2.445822e+002
2.289631e+002, 2.409334e+002
2.294452e+002, 2.371596e+002
2.299273e+002, 2.331128e+002
2.304094e+002, 2.288676e+002
2.308916e+002, 2.246068e+002
2.313737e+002, 2.203166e+002
2.318558e+002, 2.160613e+002
2.323379e+002, 2.119021e+002
2.328200e+002, 2.078369e+002
2.333021e+002, 2.038845e+002
2.337843e+002, 1.999328e+002
2.342664e+002, 1.961167e+002
2.347485e+002, 1.926959e+002
2.352306e+002, 1.898732e+002
2.357127e+002, 1.873593e+002
2.361948e+002, 1.847544e+002
2.366770e+002, 1.820149e+002
2.371591e+002, 1.793027e+002
2.376412e+002, 1.765245e+002
2.381233e+002, 1.738628e+002
2.386054e+002, 1.715561e+002
2.390875e+002, 1.697442e+002
2.395697e+002, 1.682219e+002
2.400518e+002, 1.667091e+002
2.405339e+002, 1.652166e+002
2.410160e+002, 1.636762e+002
2.414981e+002, 1.618570e+002
2.419802e+002, 1.600613e+002
2.424624e+002, 1.586587e+002
2.429445e+002, 1.578515e+002
2.434266e+002, 1.572592e+002
2.439087e+002, 1.561077e+002
2.443908e+002, 1.540181e+002
2.448729e+002, 1.524267e+002
2.453550e+002, 1.520871e+002
2.458372e+002, 1.521876e+002
2.463193e+002, 1.520533e+002
2.468014e+002, 1.514494e+002
2.472835e+002, 1.506245e+002
2.477656e+002, 1.500275e+002
2.482477e+002, 1.498272e+002
2.487299e+002, 1.494461e+002
2.492120e+002, 1.486401e+002
2.496941e+002, 1.477246e+002
2.501762e+002, 1.469310e+002
2.506583e+002, 1.463299e+002
2.511404e+002, 1.458513e+002
2.516226e+002, 1.453696e+002
2.521047e+002, 1.448530e+002
2.525868e+002, 1.444196e+002
2.530689e+002, 1.439822e+002
2.535510e+002, 1.436763e+002
2.540331e+002, 1.436912e+002
2.545153e+002, 1.440396e+002
2.549974e+002, 1.444598e+002
2.554795e+002, 1.445287e+002
2.559616e+002, 1.440279e+002
2.564437e+002, 1.436383e+002
2.569258e+002, 1.432420e+002
2.574080e+002, 1.430269e+002
2.578901e+002, 1.432202e+002
2.583722e+002, 1.438107e+002
2.588543e+002, 1.445021e+002
2.593364e+002, 1.448813e+002
2.598185e+002, 1.447823e+002
2.603007e+002, 1.447805e+002
2.607828e+002, 1.449220e+002
2.612649e+002, 1.451028e+002
2.617470e+002, 1.453091e+002
2.622291e+002, 1.455116e+002
2.627112e+002, 1.456213e+002
2.631934e+002, 1.455069e+002
2.636755e+002, 1.450360e+002
2.641576e+002, 1.448358e+002
2.646397e+002, 1.448767e+002
2.651218e+002, 1.451488e+002
2.656039e+002, 1.458481e+002
2.660861e+002, 1.468514e+002
2.665682e+002, 1.476981e+002
2.670503e+002, 1.478817e+002
2.675324e+002, 1.472285e+002
2.680145e+002, 1.470363e+002
2.684966e+002, 1.474747e+002
2.689788e+002, 1.481127e+002
2.694609e+002, 1.489327e+002
2.699430e+002, 1.498097e+002
2.704251e+002, 1.504169e+002
2.709072e+002, 1.504317e+002
2.713893e+002, 1.498207e+002
2.718715e+002, 1.496092e+002
2.723536e+002, 1.499807e+002
2.728357e+002, 1.504760e+002
2.733178e+002, 1.509812e+002
2.737999e+002, 1.514588e+002
2.742820e+002, 1.518321e+002
2.747642e+002, 1.520184e+002
2.752463e+002, 1.520517e+002
2.757284e+002, 1.523664e+002
2.762105e+002, 1.531101e+002
2.766926e+002, 1.539004e+002
2.771747e+002, 1.546764e+002
2.776568e+002, 1.554064e+002
2.781389e+002, 1.560203e+002
2.786211e+002, 1.564675e+002
2.791032e+002, 1.567880e+002
2.795853e+002, 1.571557e+002
2.800674e+002, 1.575777e+002
2.805495e+002, 1.580286e+002
2.810316e+002, 1.584550e+002
2.815138e+002, 1.589122e+002
2.819959e+002, 1.595528e+002
2.824780e+002, 1.604777e+002
2.829601e+002, 1.615091e+002
2.834422e+002, 1.621303e+002
2.839243e+002, 1.620814e+002
2.844065e+002, 1.621869e+002
2.848886e+002, 1.627829e+002
2.853707e+002, 1.635895e+002
2.858528e+002, 1.641184e+002
2.863349e+002, 1.641736e+002
2.868170e+002, 1.641416e+002
2.872992e+002, 1.647522e+002
2.877813e+002, 1.662203e+002
2.882634e+002, 1.675233e+002
2.887455e+002, 1.684529e+002
2.892276e+002, 1.691492e+002
2.897097e+002, 1.697519e+002
2.901919e+002, 1.702906e+002
2.906740e+002, 1.707702e+002
2.911561e+002, 1.711517e+002
2.916382e+002, 1.713959e+002
2.921203e+002, 1.718691e+002
2.926024e+002, 1.727868e+002
2.930846e+002, 1.738487e+002
2.935667e+002, 1.747835e+002
2.940488e+002, 1.755582e+002
2.945309e+002, 1.762243e+002
2.950130e+002, 1.767724e+002
2.954951e+002, 1.772105e+002
2.959773e+002, 1.778521e+002
2.964594e+002, 1.788496e+002
2.969415e+002, 1.799514e+002
2.974236e+002, 1.810097e+002
2.979057e+002, 1.820041e+002
2.983878e+002, 1.828961e+002
2.988700e+002, 1.836208e+002
2.993521e+002, 1.842085e+002
2.998342e+002, 1.848890e+002
3.003163e+002, 1.856859e+002
3.007984e+002, 1.865440e+002
3.012805e+002, 1.874836e+002
3.017627e+002, 1.884778e+002
3.022448e+002, 1.894077e+002
3.027269e+002, 1.901778e+002
3.032090e+002, 1.908731e+002
3.036911e+002, 1.917540e+002
3.041732e+002, 1.929313e+002
3.046554e+002, 1.941016e+002
3.051375e+002, 1.951462e+002
3.056196e+002, 1.960842e+002
3.061017e+002, 1.969400e+002
3.065838e+002, 1.976895e+002
3.070659e+002, 1.984240e+002
3.075481e+002, 1.993222e+002
3.080302e+002, 2.003959e+002
3.085123e+002, 2.015246e+002
3.089944e+002, 2.026969e+002
3.094765e+002, 2.038923e+002
3.099586e+002, 2.050705e+002
3.104408e+002, 2.062201e+002
3.109229e+002, 2.073343e+002
3.114050e+002, 2.083603e+002
3.118871e+002, 2.092928e+002
3.123692e+002, 2.103032e+002
3.128513e+002, 2.114093e+002
3.133335e+002, 2.126159e+002
3.138156e+002, 2.140330e+002
3.142977e+002, 2.156856e+002
3.147798e+002, 2.172180e+002
3.152619e+002, 2.182307e+002
3.157440e+002, 2.187577e+002
3.162262e+002, 2.194193e+002
3.167083e+002, 2.203193e+002
3.171904e+002, 2.213325e+002
3.176725e+002, 2.223960e+002
3.181546e+002, 2.235012e+002
3.186367e+002, 2.245570e+002
3.191188e+002, 2.254653e+002
3.196010e+002, 2.262789e+002
3.200831e+002, 2.272572e+002
3.205652e+002, 2.286106e+002
3.210473e+002, 2.299205e+002
3.215294e+002, 2.309215e+002
3.220115e+002, 2.316772e+002
3.224937e+002, 2.324473e+002
3.229758e+002, 2.333834e+002
3.234579e+002, 2.343599e+002
3.239400e+002, 2.350164e+002
3.244221e+002, 2.352172e+002
3.249042e+002, 2.354623e+002
3.253864e+002, 2.359983e+002
3.258685e+002, 2.366904e+002
3.263506e+002, 2.373173e+002
3.268327e+002, 2.378297e+002
3.273148e+002, 2.381865e+002
3.277969e+002, 2.382413e+002
3.282791e+002, 2.379214e+002
3.287612e+002, 2.377755e+002
3.292433e+002, 2.380299e+002
3.297254e+002, 2.384530e+002
3.302075e+002, 2.388073e+002
3.306896e+002, 2.390521e+002
3.311718e+002, 2.391922e+002
3.316539e+002, 2.392113e+002
3.321360e+002, 2.390969e+002
3.326181e+002, 2.389972e+002
3.331002e+002, 2.390505e+002
3.335823e+002, 2.390192e+002
3.340645e+002, 2.386110e+002
3.345466e+002, 2.378826e+002
3.350287e+002, 2.372814e+002
3.355108e+002, 2.371802e+002
3.359929e+002, 2.374776e+002
3.364750e+002, 2.374185e+002
3.369572e+002, 2.367315e+002
3.374393e+002, 2.360158e+002
3.379214e+002, 2.355600e+002
3.384035e+002, 2.352670e+002
3.388856e+002, 2.349206e+002
3.393677e+002, 2.344330e+002
3.398499e+002, 2.338040e+002
3.403320e+002, 2.330096e+002
3.408141e+002, 2.319865e+002
3.412962e+002, 2.309449e+002
3.417783e+002, 2.298985e+002
3.422604e+002, 2.288629e+002
3.427426e+002, 2.278681e+002
3.432247e+002, 2.269268e+002
3.437068e+002, 2.260175e+002
3.441889e+002, 2.251248e+002
3.446710e+002, 2.242853e+002
3.451531e+002, 2.233350e+002
3.456353e+002, 2.222013e+002
3.461174e+002, 2.210149e+002
3.465995e+002, 2.199069e+002
3.470816e+002, 2.188771e+002
3.475637e+002, 2.177618e+002
3.480458e+002, 2.163864e+002
3.485280e+002, 2.147225e+002
3.490101e+002, 2.134207e+002
3.494922e+002, 2.128692e+002
3.499743e+002, 2.122279e+002
3.504564e+002, 2.110926e+002
3.509385e+002, 2.095914e+002
3.514207e+002, 2.080238e+002
3.519028e+002, 2.065535e+002
3.523849e+002, 2.051932e+002
3.528670e+002, 2.039907e+002
3.533491e+002, 2.031565e+002
3.538312e+002, 2.022226e+002
3.543134e+002, 2.010656e+002
3.547955e+002, 1.998086e+002
3.552776e+002, 1.985922e+002
3.557597e+002, 1.974664e+002
3.562418e+002, 1.963767e+002
3.567239e+002, 1.952213e+002
3.572061e+002, 1.939665e+002
3.576882e+002, 1.927074e+002
3.581703e+002, 1.913516e+002
3.586524e+002, 1.900566e+002
3.591345e+002, 1.889872e+002
3.596166e+002, 1.881175e+002
3.600987e+002, 1.872708e+002
3.605808e+002, 1.862662e+002
3.610630e+002, 1.850854e+002
3.615451e+002, 1.839137e+002
3.620272e+002, 1.828003e+002
3.625093e+002, 1.816469e+002
3.629914e+002, 1.803159e+002
3.634735e+002, 1.789240e+002
3.639557e+002, 1.777292e+002
3.644378e+002, 1.769001e+002
3.649199e+002, 1.763403e+002
3.654020e+002, 1.756333e+002
3.658841e+002, 1.746007e+002
3.663662e+002, 1.736655e+002
3.668484e+002, 1.729944e+002
3.673305e+002, 1.723840e+002
3.678126e+002, 1.715979e+002
3.682947e+002, 1.705751e+002
3.687768e+002, 1.694899e+002
3.692589e+002, 1.686306e+002
3.697411e+002, 1.681147e+002
3.702232e+002, 1.675092e+002
3.707053e+002, 1.667909e+002
3.711874e+002, 1.659921e+002
3.716695e+002, 1.650632e+002
3.721516e+002, 1.640462e+002
3.726338e+002, 1.630532e+002
3.731159e+002, 1.621698e+002
3.735980e+002, 1.613978e+002
3.740801e+002, 1.607854e+002
3.745622e+002, 1.605734e+002
3.750443e+002, 1.602176e+002
3.755265e+002, 1.593798e+002
3.760086e+002, 1.583240e+002
3.764907e+002, 1.574974e+002
3.769728e+002, 1.571600e+002
3.774549e+002, 1.570567e+002
3.779370e+002, 1.565426e+002
3.784192e+002, 1.553715e+002
3.789013e+002, 1.544942e+002
3.793834e+002, 1.545059e+002
3.798655e+002, 1.547070e+002
3.803476e+002, 1.545412e+002
3.808297e+002, 1.539008e+002
3.813119e+002, 1.531198e+002
3.817940e+002, 1.525418e+002
3.822761e+002, 1.521610e+002
3.827582e+002, 1.517095e+002
3.832403e+002, 1.510772e+002
3.837224e+002, 1.504600e+002
3.842046e+002, 1.500151e+002
3.846867e+002, 1.497017e+002
3.851688e+002, 1.493564e+002
3.856509e+002, 1.487824e+002
3.861330e+002, 1.481380e+002
3.866151e+002, 1.478494e+002
3.870973e+002, 1.480314e+002
3.875794e+002, 1.481548e+002
3.880615e+002, 1.477985e+002
3.885436e+002, 1.472228e+002
3.890257e+002, 1.467901e+002
3.895078e+002, 1.465953e+002
3.899900e+002, 1.465051e+002
3.904721e+002, 1.464528e+002
3.909542e+002, 1.464245e+002
3.914363e+002, 1.463154e+002
3.919184e+002, 1.460851e+002
3.924005e+002, 1.457618e+002
3.928827e+002, 1.453664e+002
3.933648e+002, 1.448914e+002
3.938469e+002, 1.444538e+002
3.943290e+002, 1.440767e+002
3.948111e+002, 1.437746e+002
3.952932e+002, 1.436098e+002
3.957754e+002, 1.436032e+002
3.962575e+002, 1.436010e+002
3.967396e+002, 1.434861e+002
3.972217e+002, 1.432524e+002
3.977038e+002, 1.429254e+002
3.981859e+002, 1.422995e+002
3.986681e+002, 1.417588e+002
3.991501e+002, 1.416338e+002
3.996323e+002, 1.418279e+002
4.001144e+002, 1.419758e+002
4.005965e+002, 1.418858e+002
4.010786e+002, 1.416455e+002
4.015607e+002, 1.415071e+002
4.020428e+002, 1.414934e+002
4.025250e+002, 1.415193e+002
4.030071e+002, 1.416468e+002
4.034892e+002, 1.417706e+002
4.039713e+002, 1.417619e+002
4.044534e+002, 1.415938e+002
4.049355e+002, 1.413321e+002
4.054177e+002, 1.410348e+002
4.058998e+002, 1.406716e+002
4.063819e+002, 1.404517e+002
4.068640e+002, 1.405651e+002
4.073461e+002, 1.406240e+002
4.078282e+002, 1.403191e+002
4.083104e+002, 1.397953e+002
4.087925e+002, 1.394492e+002
4.092746e+002, 1.395437e+002
4.097567e+002, 1.399678e+002
4.102388e+002, 1.402094e+002
4.107209e+002, 1.401315e+002
4.112031e+002, 1.400331e+002
4.116852e+002, 1.398990e+002
4.121673e+002, 1.397776e+002
4.126494e+002, 1.397677e+002
4.131315e+002, 1.398718e+002
4.136136e+002, 1.399212e+002
4.140958e+002, 1.396273e+002
4.145779e+002, 1.388249e+002
4.150600e+002, 1.383405e+002
4.155421e+002, 1.384072e+002
4.160242e+002, 1.385880e+002
4.165063e+002, 1.388175e+002
4.169885e+002, 1.390307e+002
4.174706e+002, 1.391116e+002
4.179527e+002, 1.389552e+002
4.184348e+002, 1.386428e+002
4.189169e+002, 1.384685e+002
4.193990e+002, 1.385285e+002
4.198812e+002, 1.385148e+002
4.203633e+002, 1.382742e+002
4.208454e+002, 1.379539e+002
4.213275e+002, 1.376811e+002
4.218096e+002, 1.374861e+002
4.222917e+002, 1.373313e+002
4.227739e+002, 1.372030e+002
4.232560e+002, 1.370970e+002
4.237381e+002, 1.369256e+002
4.242202e+002, 1.366346e+002
4.247023e+002, 1.363295e+002
4.251844e+002, 1.360817e+002
4.256666e+002, 1.358842e+002
4.261487e+002, 1.357128e+002
4.266308e+002, 1.356073e+002
4.271129e+002, 1.354988e+002
4.275950e+002, 1.352446e+002
4.280771e+002, 1.348305e+002
4.285593e+002, 1.344888e+002
4.290414e+002, 1.343685e+002
4.295235e+002, 1.343946e+002
4.300056e+002, 1.344104e+002
4.304877e+002, 1.344979e+002
4.309698e+002, 1.343894e+002
4.314520e+002, 1.338086e+002
4.319341e+002, 1.329619e+002
4.324162e+002, 1.322369e+002
4.328983e+002, 1.317276e+002
4.333804e+002, 1.313904e+002
4.338625e+002, 1.312198e+002
4.343447e+002, 1.312477e+002
4.348268e+002, 1.311786e+002
4.353089e+002, 1.310116e+002
4.357910e+002, 1.307369e+002
4.362731e+002, 1.302840e+002
4.367552e+002, 1.297056e+002
4.372374e+002, 1.291621e+002
4.377195e+002, 1.287477e+002
4.382016e+002, 1.284359e+002
4.386837e+002, 1.281336e+002
4.391658e+002, 1.279618e+002
4.396479e+002, 1.276407e+002
4.401301e+002, 1.269435e+002
4.406122e+002, 1.262083e+002
4.410943e+002, 1.258059e+002
4.415764e+002, 1.257847e+002
4.420585e+002, 1.258754e+002
4.425406e+002, 1.257939e+002
4.430227e+002, 1.255433e+002
4.435049e+002, 1.250981e+002
4.439870e+002, 1.242049e+002
4.444691e+002, 1.233802e+002
4.449512e+002, 1.228185e+002
4.454333e+002, 1.224302e+002
4.459154e+002, 1.220565e+002
4.463976e+002, 1.216247e+002
4.468797e+002, 1.211422e+002
4.473618e+002, 1.206081e+002
4.478439e+002, 1.199834e+002
4.483260e+002, 1.194246e+002
4.488081e+002, 1.189352e+002
4.492903e+002, 1.185371e+002
4.497724e+002, 1.183403e+002
4.502545e+002, 1.183052e+002
4.507366e+002, 1.181532e+002
4.512187e+002, 1.176056e+002
4.517008e+002, 1.167510e+002
4.521830e+002, 1.159607e+002
4.526651e+002, 1.152243e+002
4.531472e+002, 1.146038e+002
4.536293e+002, 1.142791e+002
4.541114e+002, 1.140594e+002
4.545935e+002, 1.136522e+002
4.550757e+002, 1.129243e+002
4.555578e+002, 1.121401e+002
4.560399e+002, 1.114845e+002
4.565220e+002, 1.109508e+002
4.570041e+002, 1.105122e+002
4.574862e+002, 1.101848e+002
4.579684e+002, 1.099003e+002
4.584505e+002, 1.096224e+002
4.589326e+002, 1.093637e+002
4.594147e+002, 1.088924e+002
4.598968e+002, 1.079343e+002
4.603789e+002, 1.069168e+002
4.608611e+002, 1.062552e+002
4.613432e+002, 1.059146e+002
4.618253e+002, 1.055668e+002
4.623074e+002, 1.049971e+002
4.627895e+002, 1.042776e+002
4.632716e+002, 1.036942e+002
4.637538e+002, 1.033377e+002
4.642359e+002, 1.029883e+002
4.647180e+002, 1.026047e+002
4.652001e+002, 1.022218e+002
4.656822e+002, 1.019114e+002
4.661643e+002, 1.016680e+002
4.666465e+002, 1.013677e+002
4.671286e+002, 1.008397e+002
4.676107e+002, 1.000254e+002
4.680928e+002, 9.950831e+001
4.685749e+002, 9.962714e+001
4.690570e+002, 9.968362e+001
4.695392e+002, 9.951716e+001
4.700213e+002, 9.916267e+001
4.705034e+002, 9.864114e+001
4.709855e+002, 9.795138e+001
4.714676e+002, 9.725238e+001
4.719497e+002, 9.689644e+001
4.724319e+002, 9.701973e+001
4.729140e+002, 9.688500e+001
4.733961e+002, 9.604026e+001
4.738782e+002, 9.520732e+001
4.743603e+002, 9.487433e+001
4.748424e+002, 9.495172e+001
4.753246e+002, 9.497530e+001
4.758067e+002, 9.460665e+001
4.762888e+002, 9.402383e+001
4.767709e+002, 9.362891e+001
4.772530e+002, 9.345538e+001
4.777351e+002, 9.326950e+001
4.782173e+002, 9.295090e+001
4.786994e+002, 9.256045e+001
4.791815e+002, 9.219370e+001
4.796636e+002, 9.185305e+001
4.801457e+002, 9.154234e+001
4.806278e+002, 9.126137e+001
4.811100e+002, 9.101210e+001
4.815920e+002, 9.080671e+001
4.820742e+002, 9.064875e+001
4.825563e+002, 9.050035e+001
4.830384e+002, 9.033263e+001
4.835205e+002, 9.014360e+001
4.840026e+002, 8.992379e+001
4.844847e+002, 8.969688e+001
4.849669e+002, 8.941633e+001
4.854490e+002, 8.893189e+001
4.859311e+002, 8.840688e+001
4.864132e+002, 8.818848e+001
4.868953e+002, 8.840134e+001
4.873774e+002, 8.874234e+001
4.878596e+002, 8.869540e+001
4.883417e+002, 8.805859e+001
4.888238e+002, 8.758010e+001
4.893059e+002, 8.731255e+001
4.897880e+002, 8.712537e+001
4.902701e+002, 8.703571e+001
4.907523e+002, 8.697372e+001
4.912344e+002, 8.679165e+001
4.917165e+002, 8.638062e+001
4.921986e+002, 8.585094e+001
4.926807e+002, 8.552670e+001
4.931628e+002, 8.550436e+001
4.936450e+002, 8.542345e+001
4.941271e+002, 8.508474e+001
4.946092e+002, 8.475397e+001
4.950913e+002, 8.467352e+001
4.955734e+002, 8.482359e+001
4.960555e+002, 8.490126e+001
4.965377e+002, 8.462408e+001
4.970198e+002, 8.412178e+001
4.975019e+002, 8.376507e+001
4.979840e+002, 8.359211e+001
4.984661e+002, 8.341355e+001
4.989482e+002, 8.308273e+001
4.994304e+002, 8.269504e+001
4.999125e+002, 8.244528e+001
5.003946e+002, 8.240388e+001
5.008767e+002, 8.234960e+001
5.013588e+002, 8.216468e+001
5.018409e+002, 8.189459e+001
5.023231e+002, 8.158927e+001
5.028052e+002, 8.125824e+001
5.032873e+002, 8.098772e+001
5.037694e+002, 8.088777e+001
5.042515e+002, 8.096584e+001
5.047336e+002, 8.089336e+001
5.052158e+002, 8.053107e+001
5.056979e+002, 8.019206e+001
5.061800e+002, 8.003960e+001
5.066621e+002, 7.996605e+001
5.071442e+002, 7.978568e+001
5.076263e+002, 7.943596e+001
5.081085e+002, 7.903482e+001
5.085906e+002, 7.876936e+001
5.090727e+002, 7.867850e+001
5.095548e+002, 7.858070e+001
5.100369e+002, 7.844054e+001
5.105190e+002, 7.832861e+001
5.110012e+002, 7.835649e+001
5.114833e+002, 7.842024e+001
5.119654e+002, 7.828593e+001
5.124475e+002, 7.778768e+001
5.129296e+002, 7.719940e+001
5.134117e+002, 7.711931e+001
5.138939e+002, 7.765338e+001
5.143760e+002, 7.785901e+001
5.148581e+002, 7.729810e+001
5.153402e+002, 7.657224e+001
5.158223e+002, 7.618887e+001
5.163044e+002, 7.611032e+001
5.167866e+002, 7.604604e+001
5.172687e+002, 7.585075e+001
5.177508e+002, 7.561670e+001
5.182329e+002, 7.549077e+001
5.187150e+002, 7.546257e+001
5.191971e+002, 7.537064e+001
5.196793e+002, 7.513657e+001
5.201614e+002, 7.479555e+001
5.206435e+002, 7.440886e+001
5.211256e+002, 7.393113e+001
5.216077e+002, 7.354016e+001
5.220898e+002, 7.329218e+001
5.225720e+002, 7.312540e+001
5.230541e+002, 7.302833e+001
5.235362e+002, 7.297375e+001
5.240183e+002, 7.286326e+001
5.245004e+002, 7.260800e+001
5.249825e+002, 7.226440e+001
5.254647e+002, 7.213436e+001
5.259468e+002, 7.254286e+001
5.264289e+002, 7.269671e+001
5.269110e+002, 7.232612e+001
5.273931e+002, 7.182841e+001
5.278752e+002, 7.153902e+001
5.283574e+002, 7.148452e+001
5.288395e+002, 7.145701e+001
5.293216e+002, 7.124358e+001
5.298037e+002, 7.089364e+001
5.302858e+002, 7.072715e+001
5.307679e+002, 7.082430e+001
5.312501e+002, 7.092042e+001
5.317322e+002, 7.098180e+001
5.322143e+002, 7.094456e+001
5.326964e+002, 7.069206e+001
5.331785e+002, 7.017722e+001
5.336606e+002, 6.965554e+001
5.341428e+002, 6.928635e+001
5.346249e+002, 6.902944e+001
5.351070e+002, 6.878086e+001
5.355891e+002, 6.852203e+001
5.360712e+002, 6.835225e+001
5.365533e+002, 6.838326e+001
5.370355e+002, 6.857310e+001
5.375176e+002, 6.865046e+001
5.379997e+002, 6.848589e+001
5.384818e+002, 6.837788e+001
5.389639e+002, 6.854958e+001
5.394460e+002, 6.876048e+001
5.399282e+002, 6.863701e+001
5.404103e+002, 6.813908e+001
5.408924e+002, 6.762263e+001
5.413745e+002, 6.748547e+001
5.418566e+002, 6.774349e+001
5.423387e+002, 6.782596e+001
5.428209e+002, 6.749991e+001
5.433029e+002, 6.727231e+001
5.437850e+002, 6.730035e+001
5.442672e+002, 6.745183e+001
5.447493e+002, 6.761709e+001
5.452314e+002, 6.775722e+001
5.457135e+002, 6.779465e+001
5.461956e+002, 6.755733e+001
5.466777e+002, 6.708199e+001
5.471599e+002, 6.682616e+001
5.476420e+002, 6.686270e+001
5.481241e+002, 6.701518e+001
5.486062e+002, 6.730484e+001
5.490883e+002, 6.761097e+001
5.495704e+002, 6.770893e+001
5.500526e+002, 6.747514e+001
5.505347e+002, 6.721382e+001
5.510168e+002, 6.709148e+001
5.514989e+002, 6.708267e+001
5.519810e+002, 6.717792e+001
5.524631e+002, 6.737949e+001
5.529453e+002, 6.752306e+001
5.534274e+002, 6.742922e+001
5.539095e+002, 6.709604e+001
5.543916e+002, 6.689721e+001
5.548737e+002, 6.684605e+001
5.553558e+002, 6.688992e+001
5.558380e+002, 6.711420e+001
5.563201e+002, 6.738023e+001
5.568022e+002, 6.749079e+001
5.572843e+002, 6.741011e+001
5.577664e+002, 6.729840e+001
5.582485e+002, 6.735368e+001
5.587307e+002, 6.758389e+001
5.592128e+002, 6.774443e+001
5.596949e+002, 6.781579e+001
5.601770e+002, 6.783825e+001
5.606591e+002, 6.783887e+001
5.611412e+002, 6.779994e+001
5.616234e+002, 6.765136e+001
5.621055e+002, 6.735725e+001
5.625876e+002, 6.716273e+001
5.630697e+002, 6.734828e+001
5.635518e+002, 6.781026e+001
5.640339e+002, 6.823714e+001
5.645161e+002, 6.861799e+001
5.649982e+002, 6.883244e+001
5.654803e+002, 6.870625e+001
5.659624e+002, 6.833831e+001
5.664445e+002, 6.818781e+001
5.669266e+002, 6.847789e+001
5.674088e+002, 6.866657e+001
5.678909e+002, 6.844361e+001
5.683730e+002, 6.807681e+001
5.688551e+002, 6.789294e+001
5.693372e+002, 6.795081e+001
5.698193e+002, 6.814172e+001
5.703015e+002, 6.838702e+001
5.707836e+002, 6.867809e+001
5.712657e+002, 6.882931e+001
5.717478e+002, 6.869042e+001
5.722299e+002, 6.861044e+001
5.727120e+002, 6.867368e+001
5.731942e+002, 6.879747e+001
5.736763e+002, 6.891163e+001
5.741584e+002, 6.900220e+001
5.746405e+002, 6.908539e+001
5.751226e+002, 6.916634e+001
5.756047e+002, 6.925041e+001
5.760869e+002, 6.938438e+001
5.765690e+002, 6.959998e+001
5.770511e+002, 6.972807e+001
5.775332e+002, 6.964488e+001
5.780153e+002, 6.944701e+001
5.784974e+002, 6.926535e+001
5.789796e+002, 6.907173e+001
5.794617e+002, 6.903262e+001
5.799438e+002, 6.933879e+001
5.804259e+002, 6.975655e+001
5.809080e+002, 7.003136e+001
5.813901e+002, 7.014778e+001
5.818723e+002, 7.019444e+001
5.823544e+002, 7.022176e+001
5.828365e+002, 7.023079e+001
5.833186e+002, 7.022363e+001
5.838007e+002, 7.016786e+001
5.842828e+002, 7.014742e+001
5.847650e+002, 7.020660e+001
5.852471e+002, 7.026390e+001
5.857292e+002, 7.023257e+001
5.862113e+002, 7.014705e+001
5.866934e+002, 7.012848e+001
5.871755e+002, 7.026846e+001
5.876577e+002, 7.049237e+001
5.881398e+002, 7.061584e+001
5.886219e+002, 7.061839e+001
5.891040e+002, 7.066438e+001
5.895861e+002, 7.082165e+001
5.900682e+002, 7.100462e+001
5.905504e+002, 7.113694e+001
5.910325e+002, 7.122340e+001
5.915146e+002, 7.129176e+001
5.919967e+002, 7.132242e+001
5.924788e+002, 7.136127e+001
5.929609e+002, 7.144507e+001
5.934431e+002, 7.156861e+001
5.939252e+002, 7.172198e+001
5.944073e+002, 7.190311e+001
5.948894e+002, 7.209254e+001
5.953715e+002, 7.226170e+001
5.958536e+002, 7.240115e+001
5.963358e+002, 7.256564e+001
5.968179e+002, 7.283210e+001
5.973000e+002, 7.303514e+001
5.977821e+002, 7.308683e+001
5.982642e+002, 7.305005e+001
5.987463e+002, 7.299356e+001
5.992285e+002, 7.294485e+001
5.997106e+002, 7.295052e+001
6.001927e+002, 7.308479e+001
6.006748e+002, 7.334342e+001
6.011569e+002, 7.360124e+001
6.016390e+002, 7.385581e+001
6.021212e+002, 7.410144e+001
6.026033e+002, 7.436423e+001
6.030854e+002, 7.460544e+001
6.035675e+002, 7.474751e+001
6.040496e+002, 7.475492e+001
6.045317e+002, 7.474411e+001
6.050139e+002, 7.473257e+001
6.054960e+002, 7.475742e+001
6.059781e+002, 7.487736e+001
6.064602e+002, 7.509604e+001
6.069423e+002, 7.538612e+001
6.074244e+002, 7.574142e+001
6.079066e+002, 7.613617e+001
6.083887e+002, 7.645863e+001
6.088708e+002, 7.676234e+001
6.093529e+002, 7.690296e+001
6.098350e+002, 7.666350e+001
6.103171e+002, 7.643742e+001
6.107993e+002, 7.652050e+001
6.112814e+002, 7.688003e+001
6.117635e+002, 7.731452e+001
6.122456e+002, 7.773111e+001
6.127277e+002, 7.808838e+001
6.132098e+002, 7.827439e+001
6.136920e+002, 7.827388e+001
6.141741e+002, 7.827605e+001
6.146562e+002, 7.826391e+001
6.151383e+002, 7.835336e+001
6.156204e+002, 7.876223e+001
6.161025e+002, 7.942208e+001
6.165847e+002, 7.989697e+001
6.170668e+002, 7.993359e+001
6.175489e+002, 7.992233e+001
6.180310e+002, 8.007710e+001
6.185131e+002, 8.037149e+001
6.189952e+002, 8.079026e+001
6.194774e+002, 8.132042e+001
6.199595e+002, 8.180895e+001
6.204416e+002, 8.203893e+001
6.209237e+002, 8.197601e+001
6.214058e+002, 8.219949e+001
6.218879e+002, 8.303965e+001
6.223701e+002, 8.376814e+001
6.228522e+002, 8.418082e+001
6.233343e+002, 8.444041e+001
6.238164e+002, 8.468932e+001
6.242985e+002, 8.496230e+001
6.247806e+002, 8.526513e+001
6.252628e+002, 8.557182e+001
6.257448e+002, 8.591460e+001
6.262269e+002, 8.641425e+001
6.267090e+002, 8.708966e+001
6.271912e+002, 8.772537e+001
6.276733e+002, 8.819982e+001
6.281554e+002, 8.860345e+001
6.286375e+002, 8.915141e+001
6.291196e+002, 8.990965e+001
6.296017e+002, 9.047980e+001
6.300839e+002, 9.052026e+001
6.305660e+002, 9.060813e+001
6.310481e+002, 9.127076e+001
6.315302e+002, 9.230061e+001
6.320123e+002, 9.314208e+001
6.324944e+002, 9.353644e+001
6.329766e+002, 9.373514e+001
6.334587e+002, 9.416496e+001
6.339408e+002, 9.487671e+001
6.344229e+002, 9.557034e+001
6.349050e+002, 9.623196e+001
6.353871e+002, 9.688278e+001
6.358693e+002, 9.753304e+001
6.363514e+002, 9.817843e+001
6.368335e+002, 9.880845e+001
6.373156e+002, 9.941187e+001
6.377977e+002, 1.000288e+002
6.382798e+002, 1.006924e+002
6.387620e+002, 1.013826e+002
6.392441e+002, 1.020608e+002
6.397262e+002, 1.027221e+002
6.402083e+002, 1.034337e+002
6.406904e+002, 1.042654e+002
6.411725e+002, 1.051491e+002
6.416547e+002, 1.058614e+002
6.421368e+002, 1.062134e+002
6.426189e+002, 1.066641e+002
6.431010e+002, 1.073020e+002
6.435831e+002, 1.079576e+002
6.440652e+002, 1.085124e+002
6.445474e+002, 1.089953e+002
6.450295e+002, 1.095237e+002
6.455116e+002, 1.101715e+002
6.459937e+002, 1.108205e+002
6.464758e+002, 1.112205e+002
6.469579e+002, 1.113747e+002
6.474401e+002, 1.117191e+002
6.479222e+002, 1.124226e+002
6.484043e+002, 1.131004e+002
6.488864e+002, 1.134044e+002
6.493685e+002, 1.134460e+002
6.498506e+002, 1.135639e+002
6.503328e+002, 1.138325e+002
6.508149e+002, 1.141056e+002
6.512970e+002, 1.144370e+002
6.517791e+002, 1.146818e+002
6.522612e+002, 1.145746e+002
6.527433e+002, 1.141513e+002
6.532255e+002, 1.137821e+002
6.537076e+002, 1.137652e+002
6.541897e+002, 1.139623e+002
6.546718e+002, 1.138289e+002
6.551539e+002, 1.131913e+002
6.556360e+002, 1.126428e+002
6.561182e+002, 1.123117e+002
6.566003e+002, 1.120489e+002
6.570824e+002, 1.118723e+002
6.575645e+002, 1.117028e+002
6.580466e+002, 1.113208e+002
6.585287e+002, 1.105669e+002
6.590109e+002, 1.096902e+002
6.594930e+002, 1.088709e+002
6.599751e+002, 1.081197e+002
6.604572e+002, 1.075266e+002
6.609393e+002, 1.071214e+002
6.614214e+002, 1.065780e+002
6.619036e+002, 1.055531e+002
6.623857e+002, 1.041112e+002
6.628678e+002, 1.029698e+002
6.633499e+002, 1.025329e+002
6.638320e+002, 1.018652e+002
6.643141e+002, 1.006843e+002
6.647963e+002, 9.939656e+001
6.652784e+002, 9.830928e+001
6.657605e+002, 9.742614e+001
6.662426e+002, 9.658733e+001
6.667247e+002, 9.567014e+001
6.672068e+002, 9.477233e+001
6.676890e+002, 9.414935e+001
6.681711e+002, 9.378697e+001
6.686532e+002, 9.313548e+001
6.691353e+002, 9.197379e+001
6.696174e+002, 9.074146e+001
6.700995e+002, 8.986583e+001
6.705817e+002, 8.931661e+001
6.710638e+002, 8.874104e+001
6.715459e+002, 8.816205e+001
6.720280e+002, 8.752071e+001
6.725101e+002, 8.674229e+001
6.729922e+002, 8.593093e+001
6.734744e+002, 8.517805e+001
6.739565e+002, 8.450652e+001
6.744386e+002, 8.392442e+001
6.749207e+002, 8.345692e+001
6.754028e+002, 8.304468e+001
6.758849e+002, 8.239707e+001
6.763671e+002, 8.135345e+001
6.768492e+002, 8.082140e+001
6.773313e+002, 8.136081e+001
6.778134e+002, 8.203408e+001
6.782955e+002, 8.215650e+001
6.787776e+002, 8.180360e+001
6.792598e+002, 8.122004e+001
6.797419e+002, 8.035580e+001
6.802240e+002, 7.940976e+001
6.807061e+002, 7.839024e+001
6.811882e+002, 7.740714e+001
6.816703e+002, 7.662746e+001
6.821525e+002, 7.607983e+001
6.826346e+002, 7.569759e+001
6.831167e+002, 7.544682e+001
6.835988e+002, 7.529336e+001
6.840809e+002, 7.505650e+001
6.845630e+002, 7.466572e+001
6.850452e+002, 7.434737e+001
6.855273e+002, 7.425746e+001
6.860094e+002, 7.413834e+001
6.864915e+002, 7.380387e+001
6.869736e+002, 7.331333e+001
6.874557e+002, 7.285465e+001
6.879379e+002, 7.249334e+001
6.884200e+002, 7.219592e+001
6.889021e+002, 7.190401e+001
6.893842e+002, 7.165841e+001
6.898663e+002, 7.161459e+001
6.903484e+002, 7.179257e+001
6.908306e+002, 7.192432e+001
6.913127e+002, 7.179406e+001
6.917948e+002, 7.144798e+001
6.922769e+002, 7.110729e+001
6.927590e+002, 7.064200e+001
6.932411e+002, 7.040121e+001
6.937233e+002, 7.061546e+001
6.942054e+002, 7.084901e+001
6.946875e+002, 7.082886e+001
6.951696e+002, 7.060972e+001
6.956517e+002, 7.037437e+001
6.961339e+002, 7.019083e+001
6.966160e+002, 7.005727e+001
6.970981e+002, 7.001760e+001
6.975802e+002, 7.002927e+001
6.980623e+002, 6.990694e+001
6.985444e+002, 6.961217e+001
6.990266e+002, 6.934767e+001
6.995087e+002, 6.925084e+001
6.999908e+002, 6.929635e+001
7.004729e+002, 6.939357e+001
7.009550e+002, 6.967342e+001
7.014371e+002, 6.979844e+001
7.019193e+002, 6.966227e+001
7.024014e+002, 6.946419e+001
7.028835e+002, 6.928967e+001
7.033656e+002, 6.915561e+001
7.038477e+002, 6.906355e+001
7.043298e+002, 6.901411e+001
7.048120e+002, 6.901438e+001
7.052941e+002, 6.910969e+001
7.057762e+002, 6.927147e+001
7.062583e+002, 6.935213e+001
7.067404e+002, 6.933031e+001
7.072225e+002, 6.928599e+001
7.077046e+002, 6.928016e+001
7.081867e+002, 6.927160e+001
7.086688e+002, 6.912968e+001
7.091509e+002, 6.872129e+001
7.096331e+002, 6.852488e+001
7.101152e+002, 6.869440e+001
7.105973e+002, 6.896342e+001
7.110794e+002, 6.920540e+001
7.115615e+002, 6.942417e+001
7.120436e+002, 6.965084e+001
7.125258e+002, 6.989794e+001
7.130079e+002, 7.015279e+001
7.134900e+002, 7.049738e+001
7.139721e+002, 7.086284e+001
7.144542e+002, 7.077686e+001
7.149363e+002, 7.013493e+001
7.154185e+002, 6.962736e+001
7.159006e+002, 6.959134e+001
7.163827e+002, 6.984145e+001
7.168648e+002, 7.008499e+001
7.173469e+002, 7.031207e+001
7.178290e+002, 7.058688e+001
7.183112e+002, 7.107801e+001
7.187933e+002, 7.144284e+001
7.192754e+002, 7.141301e+001
7.197575e+002, 7.119026e+001
7.202396e+002, 7.098473e+001
7.207217e+002, 7.089154e+001
7.212039e+002, 7.108555e+001
7.216860e+002, 7.197521e+001
7.221681e+002, 7.323978e+001
7.226502e+002, 7.344834e+001
7.231323e+002, 7.245123e+001
7.236144e+002, 7.166170e+001
7.240966e+002, 7.157165e+001
7.245787e+002, 7.179845e+001
7.250608e+002, 7.189674e+001
7.255429e+002, 7.187385e+001
7.260250e+002, 7.204597e+001
7.265071e+002, 7.270561e+001
7.269893e+002, 7.323436e+001
7.274714e+002, 7.330281e+001
7.279535e+002, 7.318764e+001
7.284356e+002, 7.319315e+001
7.289177e+002, 7.335595e+001
7.293998e+002, 7.353984e+001
7.298820e+002, 7.364336e+001
7.303641e+002, 7.370580e+001
7.308462e+002, 7.379147e+001
7.313283e+002, 7.389651e+001
7.318104e+002, 7.416010e+001
7.322925e+002, 7.468179e+001
7.327747e+002, 7.519473e+001
7.332568e+002, 7.544704e+001
7.337389e+002, 7.549663e+001
7.342210e+002, 7.567153e+001
7.347031e+002, 7.613160e+001
7.351852e+002, 7.646611e+001
7.356674e+002, 7.648789e+001
7.361495e+002, 7.643647e+001
7.366316e+002, 7.650843e+001
7.371137e+002, 7.668533e+001
7.375958e+002, 7.684653e+001
7.380779e+002, 7.693018e+001
7.385601e+002, 7.700751e+001
7.390422e+002, 7.721973e+001
7.395243e+002, 7.754356e+001
7.400064e+002, 7.771625e+001
7.404885e+002, 7.766300e+001
7.409706e+002, 7.771935e+001
7.414528e+002, 7.815045e+001
7.419349e+002, 7.875337e+001
7.424170e+002, 7.904180e+001
7.428991e+002, 7.888052e+001
7.433812e+002, 7.890299e+001
7.438633e+002, 7.931338e+001
7.443455e+002, 7.976035e+001
7.448276e+002, 8.002199e+001
7.453097e+002, 8.021261e+001
7.457918e+002, 8.054743e+001
7.462739e+002, 8.107434e+001
7.467560e+002, 8.162121e+001
7.472382e+002, 8.209128e+001
7.477203e+002, 8.243844e+001
7.482024e+002, 8.240189e+001
7.486845e+002, 8.196719e+001
7.491666e+002, 8.179459e+001
7.496487e+002, 8.216843e+001
7.501309e+002, 8.272478e+001
7.506130e+002, 8.301615e+001
7.510951e+002, 8.301487e+001
7.515772e+002, 8.326867e+001
7.520593e+002, 8.407921e+001
7.525414e+002, 8.472889e+001
7.530236e+002, 8.496219e+001
7.535057e+002, 8.503969e+001
7.539878e+002, 8.518714e+001
7.544699e+002, 8.541506e+001
7.549520e+002, 8.561404e+001
7.554341e+002, 8.569598e+001
7.559163e+002, 8.577624e+001
7.563984e+002, 8.609498e+001
7.568805e+002, 8.656783e+001
7.573626e+002, 8.676443e+001
7.578447e+002, 8.659702e+001
7.583268e+002, 8.645071e+001
7.588090e+002, 8.658994e+001
7.592911e+002, 8.696440e+001
7.597732e+002, 8.741477e+001
7.602553e+002, 8.810362e+001
7.607374e+002, 8.857330e+001
7.612195e+002, 8.870640e+001
7.617017e+002, 8.876260e+001
7.621838e+002, 8.885527e+001
7.626659e+002, 8.895708e+001
7.631480e+002, 8.899436e+001
7.636301e+002, 8.894335e+001
7.641122e+002, 8.892194e+001
7.645944e+002, 8.903242e+001
7.650765e+002, 8.921963e+001
7.655586e+002, 8.940729e+001
7.660407e+002, 8.959142e+001
7.665228e+002, 8.980399e+001
7.670049e+002, 9.006774e+001
7.674871e+002, 9.022151e+001
7.679692e+002, 8.999911e+001
7.684513e+002, 8.936870e+001
7.689334e+002, 8.913406e+001
7.694155e+002, 8.953720e+001
7.698976e+002, 8.994238e+001
7.703798e+002, 9.032018e+001
7.708619e+002, 9.056166e+001
7.713440e+002, 9.049551e+001
7.718261e+002, 9.018371e+001
7.723082e+002, 8.994258e+001
7.727903e+002, 8.986317e+001
7.732725e+002, 8.991218e+001
7.737546e+002, 9.018240e+001
7.742367e+002, 9.051673e+001
7.747188e+002, 9.066141e+001
7.752009e+002, 9.059726e+001
7.756830e+002, 9.045839e+001
7.761652e+002, 9.032973e+001
7.766473e+002, 9.019766e+001
7.771294e+002, 8.999521e+001
7.776115e+002, 8.968227e+001
7.780936e+002, 8.958893e+001
7.785757e+002, 8.986575e+001
7.790579e+002, 9.012762e+001
7.795400e+002, 9.022614e+001
7.800221e+002, 9.015015e+001
7.805042e+002, 8.981892e+001
7.809863e+002, 8.913317e+001
7.814684e+002, 8.866782e+001
7.819506e+002, 8.872824e+001
7.824327e+002, 8.888382e+001
7.829148e+002, 8.889724e+001
7.833969e+002, 8.879935e+001
7.838790e+002, 8.862833e+001
7.843611e+002, 8.841621e+001
7.848433e+002, 8.828181e+001
7.853254e+002, 8.838809e+001
7.858075e+002, 8.862224e+001
7.862896e+002, 8.862755e+001
7.867717e+002, 8.840087e+001
7.872538e+002, 8.815640e+001
7.877360e+002, 8.794650e+001
7.882181e+002, 8.773278e+001
7.887002e+002, 8.747593e+001
7.891823e+002, 8.718303e+001
7.896644e+002, 8.692333e+001
7.901465e+002, 8.675533e+001
7.906286e+002, 8.653368e+001
7.911107e+002, 8.607648e+001
7.915928e+002, 8.572137e+001
7.920750e+002, 8.581020e+001
7.925571e+002, 8.614729e+001
7.930392e+002, 8.629095e+001
7.935213e+002, 8.606902e+001
7.940034e+002, 8.575365e+001
7.944855e+002, 8.558710e+001
7.949677e+002, 8.548787e+001
7.954498e+002, 8.531882e+001
7.959319e+002, 8.507076e+001
7.964140e+002, 8.473206e+001
7.968961e+002, 8.428658e+001
7.973782e+002, 8.385588e+001
7.978604e+002, 8.362252e+001
7.983425e+002, 8.359621e+001
7.988246e+002, 8.348650e+001
7.993067e+002, 8.320686e+001
7.997888e+002, 8.299843e+001
8.002709e+002, 8.297307e+001
8.007531e+002, 8.299966e+001
8.012352e+002, 8.306393e+001
8.017173e+002, 8.311548e+001
8.021994e+002, 8.293275e+001
8.026815e+002, 8.227563e+001
8.031636e+002, 8.164044e+001
8.036458e+002, 8.126382e+001
8.041279e+002, 8.106807e+001
8.046100e+002, 8.105844e+001
8.050921e+002, 8.115044e+001
8.055742e+002, 8.108051e+001
8.060563e+002, 8.069518e+001
8.065385e+002, 8.024207e+001
8.070206e+002, 8.019949e+001
8.075027e+002, 8.052065e+001
8.079848e+002, 8.052141e+001
8.084669e+002, 8.012454e+001
8.089490e+002, 7.964601e+001
8.094312e+002, 7.917007e+001
8.099133e+002, 7.876295e+001
8.103954e+002, 7.856556e+001
8.108775e+002, 7.863727e+001
8.113596e+002, 7.851823e+001
8.118417e+002, 7.807086e+001
8.123239e+002, 7.761272e+001
8.128060e+002, 7.715364e+001
8.132881e+002, 7.677783e+001
8.137702e+002, 7.663219e+001
8.142523e+002, 7.666161e+001
8.147344e+002, 7.662543e+001
8.152166e+002, 7.641690e+001
8.156987e+002, 7.607069e+001
8.161808e+002, 7.549660e+001
8.166629e+002, 7.484606e+001
8.171450e+002, 7.446784e+001
8.176271e+002, 7.438889e+001
8.181093e+002, 7.446845e+001
8.185914e+002, 7.464847e+001
8.190735e+002, 7.480693e+001
8.195556e+002, 7.469049e+001
8.200377e+002, 7.425397e+001
8.205198e+002, 7.380522e+001
8.210020e+002, 7.326863e+001
8.214841e+002, 7.285874e+001
8.219662e+002, 7.281902e+001
8.224483e+002, 7.283073e+001
8.229304e+002, 7.245824e+001
8.234125e+002, 7.171918e+001
8.238947e+002, 7.123595e+001
8.243768e+002, 7.139285e+001
8.248589e+002, 7.151852e+001
8.253410e+002, 7.127610e+001
8.258231e+002, 7.087942e+001
8.263052e+002, 7.056465e+001
8.267874e+002, 7.034256e+001
8.272695e+002, 7.009727e+001
8.277516e+002, 6.975621e+001
8.282337e+002, 6.939519e+001
8.287158e+002, 6.913825e+001
8.291979e+002, 6.895513e+001
8.296801e+002, 6.871032e+001
8.301622e+002, 6.839293e+001
8.306443e+002, 6.808875e+001
8.311264e+002, 6.785488e+001
8.316085e+002, 6.761208e+001
8.320906e+002, 6.720662e+001
8.325728e+002, 6.659735e+001
8.330549e+002, 6.613767e+001
8.335370e+002, 6.592417e+001
8.340191e+002, 6.572736e+001
8.345012e+002, 6.550908e+001
8.349833e+002, 6.527768e+001
8.354655e+002, 6.501471e+001
8.359476e+002, 6.473799e+001
8.364297e+002, 6.452644e+001
8.369118e+002, 6.447442e+001
8.373939e+002, 6.438071e+001
8.378760e+002, 6.410658e+001
8.383582e+002, 6.375098e+001
8.388403e+002, 6.338473e+001
8.393224e+002, 6.304573e+001
8.398045e+002, 6.281389e+001
8.402866e+002, 6.272800e+001
8.407687e+002, 6.268601e+001
8.412509e+002, 6.254696e+001
8.417330e+002, 6.232814e+001
8.422151e+002, 6.213744e+001
8.426972e+002, 6.198129e+001
8.431793e+002, 6.179554e+001
8.436614e+002, 6.156728e+001
8.441436e+002, 6.127068e+001
8.446257e+002, 6.084885e+001
8.451078e+002, 6.030656e+001
8.455899e+002, 5.990692e+001
8.460720e+002, 5.977477e+001
8.465541e+002, 5.960552e+001
8.470363e+002, 5.930703e+001
8.475184e+002, 5.902531e+001
8.480005e+002, 5.892449e+001
8.484826e+002, 5.889713e+001
8.489647e+002, 5.867223e+001
8.494468e+002, 5.813109e+001
8.499290e+002, 5.761678e+001
8.504111e+002, 5.734858e+001
8.508932e+002, 5.716842e+001
8.513753e+002, 5.692662e+001
8.518574e+002, 5.663479e+001
8.523395e+002, 5.633910e+001
8.528217e+002, 5.605833e+001
8.533038e+002, 5.580081e+001
8.537859e+002, 5.560546e+001
8.542680e+002, 5.541802e+001
8.547501e+002, 5.503640e+001
8.552322e+002, 5.446040e+001
8.557144e+002, 5.391879e+001
8.561965e+002, 5.343165e+001
8.566786e+002, 5.312214e+001
8.571607e+002, 5.315655e+001
8.576428e+002, 5.338711e+001
8.581249e+002, 5.333092e+001
8.586071e+002, 5.284277e+001
8.590892e+002, 5.237974e+001
8.595713e+002, 5.194331e+001
8.600534e+002, 5.152887e+001
8.605355e+002, 5.111980e+001
8.610176e+002, 5.073812e+001
8.614998e+002, 5.042069e+001
8.619819e+002, 5.016710e+001
8.624640e+002, 4.991331e+001
8.629461e+002, 4.959739e+001
8.634282e+002, 4.930790e+001
8.639103e+002, 4.913746e+001
8.643925e+002, 4.901467e+001
8.648746e+002, 4.887080e+001
8.653567e+002, 4.867583e+001
8.658388e+002, 4.838316e+001
8.663209e+002, 4.796251e+001
8.668030e+002, 4.746074e+001
8.672852e+002, 4.688490e+001
8.677673e+002, 4.628109e+001
8.682494e+002, 4.595082e+001
8.687315e+002, 4.592260e+001
8.692136e+002, 4.577631e+001
8.696957e+002, 4.529597e+001
8.701779e+002, 4.477042e+001
8.706600e+002, 4.461177e+001
8.711421e+002, 4.482391e+001
8.716242e+002, 4.488547e+001
8.721063e+002, 4.477776e+001
8.725884e+002, 4.455177e+001
8.730705e+002, 4.407846e+001
8.735526e+002, 4.361697e+001
8.740347e+002, 4.334250e+001
8.745168e+002, 4.319828e+001
8.749990e+002, 4.303169e+001
8.754811e+002, 4.280934e+001
8.759632e+002, 4.259678e+001
8.764453e+002, 4.244221e+001
8.769274e+002, 4.228257e+001
8.774095e+002, 4.204208e+001
8.778917e+002, 4.177472e+001
8.783738e+002, 4.159557e+001
8.788559e+002, 4.151674e+001
8.793380e+002, 4.141067e+001
8.798201e+002, 4.116510e+001
8.803022e+002, 4.085046e+001
8.807844e+002, 4.055421e+001
8.812665e+002, 4.028696e+001
8.817486e+002, 4.010915e+001
8.822307e+002, 4.002449e+001
8.827128e+002, 3.993016e+001
8.831949e+002, 3.975669e+001
8.836771e+002, 3.955615e+001
8.841592e+002, 3.944830e+001
8.846413e+002, 3.945178e+001
8.851234e+002, 3.940283e+001
8.856055e+002, 3.928562e+001
8.860876e+002, 3.915381e+001
8.865698e+002, 3.902599e+001
8.870519e+002, 3.889081e+001
8.875340e+002, 3.873181e+001
8.880161e+002, 3.855037e+001
8.884982e+002, 3.836387e+001
8.889803e+002, 3.817694e+001
8.894625e+002, 3.797941e+001
8.899446e+002, 3.770801e+001
8.904267e+002, 3.748247e+001
8.909088e+002, 3.744017e+001
8.913909e+002, 3.749159e+001
8.918730e+002, 3.745426e+001
8.923552e+002, 3.727578e+001
8.928373e+002, 3.706425e+001
8.933194e+002, 3.685994e+001
8.938015e+002, 3.668093e+001
8.942836e+002, 3.654776e+001
8.947657e+002, 3.645522e+001
8.952479e+002, 3.642429e+001
8.957300e+002, 3.643913e+001
8.962121e+002, 3.638002e+001
8.966942e+002, 3.614019e+001
8.971763e+002, 3.583553e+001
8.976584e+002, 3.572626e+001
8.981406e+002, 3.578823e+001
8.986227e+002, 3.576463e+001
8.991048e+002, 3.562503e+001
8.995869e+002, 3.548804e+001
9.000690e+002, 3.540435e+001
9.005511e+002, 3.536599e+001
9.010333e+002, 3.537044e+001
9.015154e+002, 3.542175e+001
9.019975e+002, 3.542528e+001
9.024796e+002, 3.539637e+001
9.029617e+002, 3.528933e+001
9.034438e+002, 3.500512e+001
9.039260e+002, 3.472879e+001
9.044081e+002, 3.459290e+001
9.048902e+002, 3.456062e+001
9.053723e+002, 3.454878e+001
9.058544e+002, 3.457845e+001
9.063365e+002, 3.454385e+001
9.068187e+002, 3.437353e+001
9.073008e+002, 3.418032e+001
9.077829e+002, 3.400377e+001
9.082650e+002, 3.386211e+001
9.087471e+002, 3.380418e+001
9.092292e+002, 3.381498e+001
9.097114e+002, 3.376281e+001
9.101935e+002, 3.350882e+001
9.106756e+002, 3.325779e+001
9.111577e+002, 3.330711e+001
9.116398e+002, 3.347118e+001
9.121219e+002, 3.334011e+001
9.126041e+002, 3.295260e+001
9.130862e+002, 3.271066e+001
9.135683e+002, 3.280506e+001
9.140504e+002, 3.299668e+001
9.145325e+002, 3.294308e+001
9.150146e+002, 3.270138e+001
9.154968e+002, 3.261976e+001
9.159789e+002, 3.270509e+001
9.164610e+002, 3.274354e+001
9.169431e+002, 3.266795e+001
9.174252e+002, 3.260664e+001
9.179073e+002, 3.269019e+001
9.183895e+002, 3.285051e+001
9.188716e+002, 3.282719e+001
9.193537e+002, 3.251173e+001
9.198358e+002, 3.228935e+001
9.203179e+002, 3.221944e+001
9.208000e+002, 3.215815e+001
9.212822e+002, 3.202428e+001
9.217643e+002, 3.188643e+001
9.222464e+002, 3.184693e+001
9.227285e+002, 3.189905e+001
9.232106e+002, 3.186986e+001
9.236927e+002, 3.158895e+001
9.241749e+002, 3.142213e+001
9.246570e+002, 3.164187e+001
9.251391e+002, 3.186230e+001
9.256212e+002, 3.172445e+001
9.261033e+002, 3.136154e+001
9.265854e+002, 3.108142e+001
9.270676e+002, 3.097414e+001
9.275497e+002, 3.095214e+001
9.280318e+002, 3.100879e+001
9.285139e+002, 3.107865e+001
9.289960e+002, 3.111812e+001
9.294781e+002, 3.111317e+001
9.299603e+002, 3.100042e+001
9.304424e+002, 3.080247e+001
9.309245e+002, 3.068054e+001
9.314066e+002, 3.074576e+001
9.318887e+002, 3.088818e+001
9.323708e+002, 3.093145e+001
9.328530e+002, 3.090179e+001
9.333351e+002, 3.092950e+001
9.338172e+002, 3.101385e+001
9.342993e+002, 3.100901e+001
9.347814e+002, 3.085425e+001
9.352635e+002, 3.065772e+001
9.357457e+002, 3.052669e+001
9.362278e+002, 3.046373e+001
9.367099e+002, 3.050950e+001
9.371920e+002, 3.071428e+001
9.376741e+002, 3.079998e+001
9.381563e+002, 3.069774e+001
9.386384e+002, 3.055383e+001
9.391205e+002, 3.042218e+001
9.396026e+002, 3.031824e+001
9.400847e+002, 3.027892e+001
9.405668e+002, 3.032231e+001
9.410490e+002, 3.032395e+001
9.415311e+002, 3.024999e+001
9.420132e+002, 3.018270e+001
9.424953e+002, 3.017105e+001
9.429774e+002, 3.014138e+001
9.434595e+002, 2.999062e+001
9.439417e+002, 2.978453e+001
9.444238e+002, 2.970347e+001
9.449059e+002, 2.981247e+001
9.453880e+002, 2.993027e+001
9.458701e+002, 3.003923e+001
9.463522e+002, 3.008765e+001
9.468344e+002, 3.000775e+001
9.473165e+002, 2.986418e+001
9.477986e+002, 2.971576e+001
9.482807e+002, 2.959093e+001
9.487628e+002, 2.954799e+001
9.492449e+002, 2.965637e+001
9.497271e+002, 2.975775e+001
9.502092e+002, 2.967204e+001
9.506913e+002, 2.949835e+001
9.511734e+002, 2.938172e+001
9.516555e+002, 2.932100e+001
9.521376e+002, 2.925626e+001
9.526198e+002, 2.917089e+001
9.531019e+002, 2.912437e+001
9.535840e+002, 2.918866e+001
9.540661e+002, 2.931338e+001
9.545482e+002, 2.939148e+001
9.550303e+002, 2.942089e+001
9.555124e+002, 2.936223e+001
9.559945e+002, 2.921036e+001
9.564766e+002, 2.911204e+001
9.569587e+002, 2.915620e+001
9.574409e+002, 2.923442e+001
9.579230e+002, 2.915052e+001
9.584051e+002, 2.890968e+001
9.588872e+002, 2.887499e+001
9.593693e+002, 2.912292e+001
9.598514e+002, 2.924045e+001
9.603336e+002, 2.910429e+001
9.608157e+002, 2.889316e+001
9.612978e+002, 2.870753e+001
9.617799e+002, 2.856678e+001
9.622620e+002, 2.853785e+001
9.627441e+002, 2.868907e+001
9.632263e+002, 2.873958e+001
9.637084e+002, 2.858002e+001
9.641905e+002, 2.846820e+001
9.646726e+002, 2.854437e+001
9.651547e+002, 2.863661e+001
9.656368e+002, 2.857300e+001
9.661190e+002, 2.838957e+001
9.666011e+002, 2.826506e+001
9.670832e+002, 2.822994e+001
9.675653e+002, 2.823631e+001
9.680474e+002, 2.833850e+001
9.685295e+002, 2.840983e+001
9.690117e+002, 2.836597e+001
9.694938e+002, 2.825383e+001
9.699759e+002, 2.809964e+001
9.704580e+002, 2.793100e+001
9.709401e+002, 2.787174e+001
9.714222e+002, 2.805340e+001
9.719044e+002, 2.823319e+001
9.723865e+002, 2.823979e+001
9.728686e+002, 2.818167e+001
9.733507e+002, 2.815908e+001
9.738328e+002, 2.817324e+001
9.743149e+002, 2.822231e+001
9.747971e+002, 2.829532e+001
9.752792e+002, 2.830297e+001
9.757613e+002, 2.812996e+001
9.762434e+002, 2.790226e+001
9.767255e+002, 2.778095e+001
9.772076e+002, 2.773631e+001
9.776898e+002, 2.770231e+001
9.781719e+002, 2.767544e+001
9.786540e+002, 2.770932e+001
9.791361e+002, 2.782893e+001
9.796182e+002, 2.792197e+001
9.801003e+002, 2.780800e+001
9.805825e+002, 2.756964e+001
9.810646e+002, 2.750714e+001
9.815467e+002, 2.759692e+001
9.820288e+002, 2.765023e+001
9.825109e+002, 2.762969e+001
9.829930e+002, 2.756138e+001
9.834752e+002, 2.745066e+001
9.839573e+002, 2.735879e+001
9.844394e+002, 2.743691e+001
9.849215e+002, 2.768727e+001
9.854036e+002, 2.774560e+001
9.858857e+002, 2.757099e+001
9.863679e+002, 2.745522e+001
9.868500e+002, 2.749731e+001
9.873321e+002, 2.753611e+001
9.878142e+002, 2.742011e+001
9.882963e+002, 2.721987e+001
9.887784e+002, 2.716824e+001
9.892606e+002, 2.732845e+001
9.897427e+002, 2.741262e+001
9.902248e+002, 2.739535e+001
9.907069e+002, 2.734997e+001
9.911890e+002, 2.729393e+001
9.916711e+002, 2.722375e+001
9.921533e+002, 2.712515e+001
9.926354e+002, 2.700660e+001
9.931175e+002, 2.691836e+001
9.935996e+002, 2.683390e+001
9.940817e+002, 2.682767e+001
9.945638e+002, 2.702000e+001
9.950460e+002, 2.714804e+001
9.955281e+002, 2.702839e+001
9.960102e+002, 2.685115e+001
9.964923e+002, 2.684208e+001
9.969744e+002, 2.698443e+001
9.974565e+002, 2.707208e+001
9.979387e+002, 2.702982e+001
9.984208e+002, 2.699138e+001
9.989029e+002, 2.699609e+001
9.993850e+002, 2.700837e+001
9.998671e+002, 2.702057e+001
1.000349e+003, 2.701846e+001
1.000831e+003, 2.697156e+001
1.001313e+003, 2.688387e+001
1.001796e+003, 2.682102e+001
1.002278e+003, 2.683300e+001
1.002760e+003, 2.684120e+001
1.003242e+003, 2.680452e+001
1.003724e+003, 2.674340e+001
1.004206e+003, 2.663527e+001
1.004688e+003, 2.653159e+001
1.005170e+003, 2.656754e+001
1.005653e+003, 2.675122e+001
1.006135e+003, 2.683842e+001
1.006617e+003, 2.659995e+001
1.007099e+003, 2.630208e+001
1.007581e+003, 2.614435e+001
1.008063e+003, 2.611586e+001
1.008545e+003, 2.627000e+001
1.009027e+003, 2.653368e+001
1.009509e+003, 2.672863e+001
1.009992e+003, 2.678965e+001
1.010474e+003, 2.675678e+001
1.010956e+003, 2.662871e+001
1.011438e+003, 2.646699e+001
1.011920e+003, 2.633641e+001
1.012402e+003, 2.625347e+001
1.012884e+003, 2.629886e+001
1.013366e+003, 2.644195e+001
1.013849e+003, 2.650044e+001
1.014331e+003, 2.639696e+001
1.014813e+003, 2.626575e+001
1.015295e+003, 2.626942e+001
1.015777e+003, 2.634735e+001
1.016259e+003, 2.634931e+001
1.016741e+003, 2.628719e+001
1.017223e+003, 2.619960e+001
1.017705e+003, 2.609911e+001
1.018188e+003, 2.604876e+001
1.018670e+003, 2.608317e+001
1.019152e+003, 2.614332e+001
1.019634e+003, 2.613961e+001
1.020116e+003, 2.609371e+001
1.020598e+003, 2.613524e+001
1.021080e+003, 2.625812e+001
1.021562e+003, 2.629280e+001
1.022044e+003, 2.620650e+001
1.022527e+003, 2.609031e+001
1.023009e+003, 2.599173e+001
1.023491e+003, 2.591498e+001
1.023973e+003, 2.586087e+001
1.024455e+003, 2.583224e+001
1.024937e+003, 2.590354e+001
1.025419e+003, 2.609934e+001
1.025901e+003, 2.616439e+001
1.026384e+003, 2.601777e+001
1.026866e+003, 2.589544e+001
1.027348e+003, 2.595764e+001
1.027830e+003, 2.610314e+001
1.028312e+003, 2.613355e+001
1.028794e+003, 2.604042e+001
1.029276e+003, 2.607677e+001
1.029758e+003, 2.632125e+001
1.030240e+003, 2.640722e+001
1.030723e+003, 2.621439e+001
1.031205e+003, 2.597065e+001
1.031687e+003, 2.581082e+001
1.032169e+003, 2.571039e+001
1.032651e+003, 2.561092e+001
1.033133e+003, 2.549875e+001
1.033615e+003, 2.551040e+001
1.034097e+003, 2.572505e+001
1.034579e+003, 2.588886e+001
1.035062e+003, 2.593097e+001
1.035544e+003, 2.594897e+001
1.036026e+003, 2.603170e+001
1.036508e+003, 2.611735e+001
1.036990e+003, 2.605048e+001
1.037472e+003, 2.577496e+001
1.037954e+003, 2.566414e+001
1.038436e+003, 2.583751e+001
1.038919e+003, 2.598633e+001
1.039401e+003, 2.610105e+001
1.039883e+003, 2.612900e+001
1.040365e+003, 2.596777e+001
1.040847e+003, 2.571672e+001
1.041329e+003, 2.558597e+001
1.041811e+003, 2.559179e+001
1.042293e+003, 2.562911e+001
1.042776e+003, 2.578060e+001
1.043258e+003, 2.584491e+001
1.043740e+003, 2.566752e+001
1.044222e+003, 2.550949e+001
1.044704e+003, 2.559891e+001
1.045186e+003, 2.580734e+001
1.045668e+003, 2.586687e+001
1.046150e+003, 2.573367e+001
1.046632e+003, 2.564596e+001
1.047115e+003, 2.565731e+001
1.047597e+003, 2.567761e+001
1.048079e+003, 2.571043e+001
1.048561e+003, 2.572018e+001
1.049043e+003, 2.566069e+001
1.049525e+003, 2.556914e+001
1.050007e+003, 2.552183e+001
1.050489e+003, 2.553323e+001
1.050971e+003, 2.551649e+001
1.051454e+003, 2.543692e+001
1.051936e+003, 2.535178e+001
1.052418e+003, 2.522621e+001
1.052900e+003, 2.515096e+001
1.053382e+003, 2.522976e+001
1.053864e+003, 2.539054e+001
1.054346e+003, 2.550999e+001
1.054828e+003, 2.557127e+001
1.055311e+003, 2.558055e+001
1.055793e+003, 2.552086e+001
1.056275e+003, 2.543487e+001
1.056757e+003, 2.528864e+001
1.057239e+003, 2.516846e+001
1.057721e+003, 2.514947e+001
1.058203e+003, 2.519848e+001
1.058685e+003, 2.526369e+001
1.059167e+003, 2.533518e+001
1.059650e+003, 2.538113e+001
1.060132e+003, 2.535339e+001
1.060614e+003, 2.534942e+001
1.061096e+003, 2.545150e+001
1.061578e+003, 2.554700e+001
1.062060e+003, 2.553058e+001
1.062542e+003, 2.545645e+001
1.063024e+003, 2.543962e+001
1.063506e+003, 2.548906e+001
1.063989e+003, 2.546962e+001
1.064471e+003, 2.526761e+001
1.064953e+003, 2.507924e+001
1.065435e+003, 2.494691e+001
1.065917e+003, 2.489616e+001
1.066399e+003, 2.500034e+001
1.066881e+003, 2.517212e+001
1.067363e+003, 2.530231e+001
1.067846e+003, 2.536482e+001
1.068328e+003, 2.533553e+001
1.068810e+003, 2.514782e+001
1.069292e+003, 2.496801e+001
1.069774e+003, 2.483628e+001
1.070256e+003, 2.477529e+001
1.070738e+003, 2.486060e+001
1.071220e+003, 2.499372e+001
1.071703e+003, 2.504622e+001
1.072185e+003, 2.500238e+001
1.072667e+003, 2.490516e+001
1.073149e+003, 2.473379e+001
1.073631e+003, 2.459574e+001
1.074113e+003, 2.449949e+001
1.074595e+003, 2.449816e+001
1.075077e+003, 2.471669e+001
1.075559e+003, 2.499909e+001
1.076042e+003, 2.516585e+001
1.076524e+003, 2.519337e+001
1.077006e+003, 2.511010e+001
1.077488e+003, 2.488450e+001
1.077970e+003, 2.468379e+001
1.078452e+003, 2.455660e+001
1.078934e+003, 2.451186e+001
1.079416e+003, 2.463951e+001
1.079898e+003, 2.479368e+001
1.080380e+003, 2.475918e+001
1.080863e+003, 2.458791e+001
1.081345e+003, 2.453233e+001
1.081827e+003, 2.469447e+001
1.082309e+003, 2.485100e+001
1.082791e+003, 2.491037e+001
1.083273e+003, 2.492405e+001
1.083755e+003, 2.492704e+001
1.084237e+003, 2.489721e+001
1.084720e+003, 2.477584e+001
1.085202e+003, 2.460509e+001
1.085684e+003, 2.448831e+001
1.086166e+003, 2.445087e+001
1.086648e+003, 2.448674e+001
1.087130e+003, 2.470016e+001
1.087612e+003, 2.485327e+001
1.088094e+003, 2.474739e+001
1.088577e+003, 2.459063e+001
1.089059e+003, 2.461512e+001
1.089541e+003, 2.473474e+001
1.090023e+003, 2.470748e+001
1.090505e+003, 2.448284e+001
1.090987e+003, 2.434854e+001
1.091469e+003, 2.453749e+001
1.091951e+003, 2.467149e+001
1.092433e+003, 2.448742e+001
1.092916e+003, 2.428451e+001
1.093398e+003, 2.437625e+001
1.093880e+003, 2.458194e+001
1.094362e+003, 2.452794e+001
1.094844e+003, 2.418854e+001
1.095326e+003, 2.398750e+001
1.095808e+003, 2.416164e+001
1.096290e+003, 2.434087e+001
1.096772e+003, 2.445063e+001
1.097255e+003, 2.447824e+001
1.097737e+003, 2.431638e+001
1.098219e+003, 2.412901e+001
1.098701e+003, 2.415471e+001
1.099183e+003, 2.438244e+001
1.099665e+003, 2.458330e+001
1.100147e+003, 2.472228e+001
1.100629e+003, 2.479411e+001
1.101112e+003, 2.480266e+001
1.101594e+003, 2.473642e+001
1.102076e+003, 2.449612e+001
1.102558e+003, 2.424906e+001
1.103040e+003, 2.417913e+001
1.103522e+003, 2.426064e+001
1.104004e+003, 2.436719e+001
1.104486e+003, 2.452577e+001
1.104969e+003, 2.456360e+001
1.105451e+003, 2.429834e+001
1.105933e+003, 2.410516e+001
1.106415e+003, 2.417434e+001
1.106897e+003, 2.431079e+001
1.107379e+003, 2.437774e+001
1.107861e+003, 2.438236e+001
1.108343e+003, 2.435519e+001
1.108825e+003, 2.429283e+001
1.109307e+003, 2.423214e+001
1.109790e+003, 2.417508e+001
1.110272e+003, 2.412156e+001
1.110754e+003, 2.404429e+001
1.111236e+003, 2.399966e+001
1.111718e+003, 2.405103e+001
1.112200e+003, 2.414283e+001
1.112682e+003, 2.419003e+001
1.113164e+003, 2.419130e+001
1.113647e+003, 2.415327e+001
1.114129e+003, 2.398153e+001
1.114611e+003, 2.393135e+001
1.115093e+003, 2.415320e+001
1.115575e+003, 2.431449e+001
1.116057e+003, 2.419962e+001
1.116539e+003, 2.402521e+001
1.117021e+003, 2.407133e+001
1.117504e+003, 2.429475e+001
1.117986e+003, 2.436836e+001
1.118468e+003, 2.420220e+001
1.118950e+003, 2.410196e+001
1.119432e+003, 2.410496e+001
1.119914e+003, 2.410014e+001
1.120396e+003, 2.402699e+001
1.120878e+003, 2.397887e+001
1.121360e+003, 2.405136e+001
1.121843e+003, 2.419991e+001
1.122325e+003, 2.430098e+001
1.122807e+003, 2.436325e+001
1.123289e+003, 2.430289e+001
1.123771e+003, 2.404800e+001
1.124253e+003, 2.393409e+001
1.124735e+003, 2.408691e+001
1.125217e+003, 2.422069e+001
1.125699e+003, 2.413634e+001
1.126182e+003, 2.396532e+001
1.126664e+003, 2.394163e+001
1.127146e+003, 2.405401e+001
1.127628e+003, 2.409240e+001
1.128110e+003, 2.404907e+001
1.128592e+003, 2.399206e+001
1.129074e+003, 2.392441e+001
1.129556e+003, 2.388731e+001
1.130039e+003, 2.389994e+001
1.130521e+003, 2.395462e+001
1.131003e+003, 2.405929e+001
1.131485e+003, 2.417340e+001
1.131967e+003, 2.411435e+001
1.132449e+003, 2.389865e+001
1.132931e+003, 2.385873e+001
1.133413e+003, 2.400631e+001
1.133896e+003, 2.403955e+001
1.134378e+003, 2.386645e+001
1.134860e+003, 2.368007e+001
1.135342e+003, 2.362621e+001
1.135824e+003, 2.366907e+001
1.136306e+003, 2.378209e+001
1.136788e+003, 2.393192e+001
1.137270e+003, 2.397218e+001
1.137752e+003, 2.392522e+001
1.138234e+003, 2.390359e+001
1.138717e+003, 2.392784e+001
1.139199e+003, 2.398424e+001
1.139681e+003, 2.406628e+001
1.140163e+003, 2.411298e+001
1.140645e+003, 2.400859e+001
1.141127e+003, 2.386882e+001
1.141609e+003, 2.395592e+001
1.142091e+003, 2.415257e+001
1.142574e+003, 2.419735e+001
1.143056e+003, 2.409806e+001
1.143538e+003, 2.396559e+001
1.144020e+003, 2.384685e+001
1.144502e+003, 2.379478e+001
1.144984e+003, 2.387521e+001
1.145466e+003, 2.396845e+001
1.145948e+003, 2.392015e+001
1.146431e+003, 2.383571e+001
1.146913e+003, 2.390247e+001
1.147395e+003, 2.401040e+001
1.147877e+003, 2.387545e+001
1.148359e+003, 2.354087e+001
1.148841e+003, 2.339172e+001
1.149323e+003, 2.361437e+001
1.149805e+003, 2.388374e+001
1.150287e+003, 2.406514e+001
1.150770e+003, 2.414013e+001
1.151252e+003, 2.403163e+001
1.151734e+003, 2.386210e+001
1.152216e+003, 2.371033e+001
1.152698e+003, 2.362280e+001
1.153180e+003, 2.369399e+001
1.153662e+003, 2.394231e+001
1.154144e+003, 2.414647e+001
1.154626e+003, 2.421725e+001
1.155109e+003, 2.425505e+001
1.155591e+003, 2.432065e+001
1.156073e+003, 2.433334e+001
1.156555e+003, 2.421807e+001
1.157037e+003, 2.403632e+001
1.157519e+003, 2.380067e+001
1.158001e+003, 2.355333e+001
1.158483e+003, 2.355263e+001
1.158966e+003, 2.404449e+001
1.159448e+003, 2.430581e+001
1.159930e+003, 2.408549e+001
1.160412e+003, 2.391340e+001
1.160894e+003, 2.394245e+001
1.161376e+003, 2.405627e+001
1.161858e+003, 2.426071e+001
1.162340e+003, 2.443575e+001
1.162822e+003, 2.427105e+001
1.163305e+003, 2.370820e+001
1.163787e+003, 2.344339e+001
1.164269e+003, 2.357690e+001
1.164751e+003, 2.372339e+001
1.165233e+003, 2.384025e+001
1.165715e+003, 2.394439e+001
1.166197e+003, 2.404399e+001
1.166679e+003, 2.413596e+001
1.167161e+003, 2.422065e+001
1.167644e+003, 2.429095e+001
1.168126e+003, 2.430293e+001
1.168608e+003, 2.425239e+001
1.169090e+003, 2.429706e+001
1.169572e+003, 2.444806e+001
1.170054e+003, 2.449281e+001
1.170536e+003, 2.437004e+001
1.171018e+003, 2.429689e+001
1.171500e+003, 2.443638e+001
1.171983e+003, 2.460985e+001
1.172465e+003, 2.447021e+001
1.172947e+003, 2.415291e+001
1.173429e+003, 2.415237e+001
1.173911e+003, 2.437734e+001
1.174393e+003, 2.447909e+001
1.174875e+003, 2.443481e+001
1.175357e+003, 2.438610e+001
1.175840e+003, 2.438964e+001
1.176322e+003, 2.444104e+001
1.176804e+003, 2.456609e+001
1.177286e+003, 2.466997e+001
1.177768e+003, 2.458924e+001
1.178250e+003, 2.444575e+001
1.178732e+003, 2.445197e+001
1.179214e+003, 2.452125e+001
1.179697e+003, 2.440310e+001
1.180179e+003, 2.413343e+001
1.180661e+003, 2.404703e+001
1.181143e+003, 2.430357e+001
1.181625e+003, 2.457381e+001
1.182107e+003, 2.467876e+001
1.182589e+003, 2.470520e+001
1.183071e+003, 2.464655e+001
1.183553e+003, 2.459193e+001
1.184036e+003, 2.465552e+001
1.184518e+003, 2.477252e+001
1.185000e+003, 2.480885e+001
1.185482e+003, 2.474900e+001
1.185964e+003, 2.469171e+001
1.186446e+003, 2.463755e+001
1.186928e+003, 2.462272e+001
1.187410e+003, 2.463412e+001
1.187892e+003, 2.471023e+001
1.188375e+003, 2.496536e+001
1.188857e+003, 2.520615e+001
1.189339e+003, 2.523838e+001
1.189821e+003, 2.512233e+001
1.190303e+003, 2.502872e+001
1.190785e+003, 2.496482e+001
1.191267e+003, 2.487533e+001
1.191749e+003, 2.472647e+001
1.192232e+003, 2.465349e+001
1.192714e+003, 2.469878e+001
1.193196e+003, 2.475394e+001
1.193678e+003, 2.475057e+001
1.194160e+003, 2.477795e+001
1.194642e+003, 2.496262e+001
1.195124e+003, 2.524767e+001
1.195606e+003, 2.540710e+001
1.196089e+003, 2.544443e+001
1.196571e+003, 2.543056e+001
1.197053e+003, 2.537344e+001
1.197535e+003, 2.536929e+001
1.198017e+003, 2.543936e+001
1.198499e+003, 2.551860e+001
1.198981e+003, 2.556885e+001
1.199463e+003, 2.557688e+001
1.199945e+003, 2.549409e+001
1.200427e+003, 2.538083e+001
1.200910e+003, 2.536793e+001
1.201392e+003, 2.541475e+001
1.201874e+003, 2.541773e+001
1.202356e+003, 2.539584e+001
1.202838e+003, 2.545870e+001
1.203320e+003, 2.561899e+001
1.203802e+003, 2.573362e+001
1.204284e+003, 2.569473e+001
1.204767e+003, 2.566147e+001
1.205249e+003, 2.580541e+001
1.205731e+003, 2.594989e+001
1.206213e+003, 2.585907e+001
1.206695e+003, 2.574933e+001
1.207177e+003, 2.598700e+001
1.207659e+003, 2.641633e+001
1.208141e+003, 2.654590e+001
1.208624e+003, 2.626051e+001
1.209106e+003, 2.602121e+001
1.209588e+003, 2.585224e+001
1.210070e+003, 2.586919e+001
1.210552e+003, 2.631474e+001
1.211034e+003, 2.669173e+001
1.211516e+003, 2.673920e+001
1.211998e+003, 2.660713e+001
1.212480e+003, 2.636951e+001
1.212963e+003, 2.609005e+001
1.213445e+003, 2.603214e+001
1.213927e+003, 2.626090e+001
1.214409e+003, 2.636092e+001
1.214891e+003, 2.626274e+001
1.215373e+003, 2.634233e+001
1.215855e+003, 2.672193e+001
1.216337e+003, 2.701925e+001
1.216819e+003, 2.701575e+001
1.217302e+003, 2.692299e+001
1.217784e+003, 2.700762e+001
1.218266e+003, 2.719427e+001
1.218748e+003, 2.725019e+001
1.219230e+003, 2.719535e+001
1.219712e+003, 2.709174e+001
1.220194e+003, 2.696896e+001
1.220676e+003, 2.697728e+001
1.221159e+003, 2.712385e+001
1.221641e+003, 2.720121e+001
1.222123e+003, 2.709278e+001
1.222605e+003, 2.700904e+001
1.223087e+003, 2.724342e+001
1.223569e+003, 2.753159e+001
1.224051e+003, 2.751216e+001
1.224533e+003, 2.740664e+001
1.225016e+003, 2.754868e+001
1.225498e+003, 2.781982e+001
1.225980e+003, 2.792544e+001
1.226462e+003, 2.784190e+001
1.226944e+003, 2.778765e+001
1.227426e+003, 2.783941e+001
1.227908e+003, 2.792042e+001
1.228390e+003, 2.803749e+001
1.228872e+003, 2.813436e+001
1.229354e+003, 2.815095e+001
1.229837e+003, 2.817397e+001
1.230319e+003, 2.830902e+001
1.230801e+003, 2.847762e+001
1.231283e+003, 2.851381e+001
1.231765e+003, 2.842522e+001
1.232247e+003, 2.847507e+001
1.232729e+003, 2.873265e+001
1.233211e+003, 2.891947e+001
1.233694e+003, 2.902236e+001
1.234176e+003, 2.905029e+001
1.234658e+003, 2.898640e+001
1.235140e+003, 2.893729e+001
1.235622e+003, 2.898191e+001
1.236104e+003, 2.907812e+001
1.236586e+003, 2.914930e+001
1.237068e+003, 2.921235e+001
1.237551e+003, 2.933541e+001
1.238033e+003, 2.951571e+001
1.238515e+003, 2.979963e+001
1.238997e+003, 3.014107e+001
1.239479e+003, 3.028930e+001
1.239961e+003, 3.020200e+001
1.240443e+003, 3.015242e+001
1.240925e+003, 3.032795e+001
1.241407e+003, 3.052129e+001
1.241890e+003, 3.045199e+001
1.242372e+003, 3.038906e+001
1.242854e+003, 3.070910e+001
1.243336e+003, 3.110496e+001
1.243818e+003, 3.113960e+001
1.244300e+003, 3.095568e+001
1.244782e+003, 3.093202e+001
1.245264e+003, 3.112268e+001
1.245746e+003, 3.130659e+001
1.246229e+003, 3.141352e+001
1.246711e+003, 3.153370e+001
1.247193e+003, 3.169238e+001
1.247675e+003, 3.185255e+001
1.248157e+003, 3.195409e+001
1.248639e+003, 3.211380e+001
1.249121e+003, 3.245555e+001
1.249603e+003, 3.286841e+001
1.250085e+003, 3.315538e+001
1.250568e+003, 3.332085e+001
1.251050e+003, 3.344180e+001
1.251532e+003, 3.350963e+001
1.252014e+003, 3.363840e+001
1.252496e+003, 3.384060e+001
1.252978e+003, 3.398899e+001
1.253460e+003, 3.404579e+001
1.253942e+003, 3.410885e+001
1.254425e+003, 3.424538e+001
1.254907e+003, 3.441604e+001
1.255389e+003, 3.456220e+001
1.255871e+003, 3.470580e+001
1.256353e+003, 3.489320e+001
1.256835e+003, 3.510456e+001
1.257317e+003, 3.527791e+001
1.257799e+003, 3.544592e+001
1.258281e+003, 3.573022e+001
1.258764e+003, 3.612239e+001
1.259246e+003, 3.643384e+001
1.259728e+003, 3.656664e+001
1.260210e+003, 3.667642e+001
1.260692e+003, 3.683632e+001
1.261174e+003, 3.698912e+001
1.261656e+003, 3.699955e+001
1.262138e+003, 3.710342e+001
1.262620e+003, 3.760637e+001
1.263103e+003, 3.824969e+001
1.263585e+003, 3.859057e+001
1.264067e+003, 3.867017e+001
1.264549e+003, 3.882641e+001
1.265031e+003, 3.904992e+001
1.265513e+003, 3.939193e+001
1.265995e+003, 3.987420e+001
1.266477e+003, 4.041852e+001
1.266960e+003, 4.105343e+001
1.267442e+003, 4.137112e+001
1.267924e+003, 4.110738e+001
1.268406e+003, 4.077153e+001
1.268888e+003, 4.101346e+001
1.269370e+003, 4.153957e+001
1.269852e+003, 4.162366e+001
1.270334e+003, 4.146926e+001
1.270817e+003, 4.159828e+001
1.271299e+003, 4.194439e+001
1.271781e+003, 4.226273e+001
1.272263e+003, 4.251228e+001
1.272745e+003, 4.273929e+001
1.273227e+003, 4.296111e+001
1.273709e+003, 4.322670e+001
1.274191e+003, 4.364406e+001
1.274673e+003, 4.400502e+001
1.275156e+003, 4.406314e+001
1.275638e+003, 4.419529e+001
1.276120e+003, 4.478479e+001
1.276602e+003, 4.548241e+001
1.277084e+003, 4.587801e+001
1.277566e+003, 4.603773e+001
1.278048e+003, 4.621952e+001
1.278530e+003, 4.642180e+001
1.279012e+003, 4.667355e+001
1.279495e+003, 4.698301e+001
1.279977e+003, 4.731024e+001
1.280459e+003, 4.766357e+001
1.280941e+003, 4.796088e+001
1.281423e+003, 4.816145e+001
1.281905e+003, 4.840448e+001
1.282387e+003, 4.880980e+001
1.282869e+003, 4.928519e+001
1.283352e+003, 4.968948e+001
1.283834e+003, 5.003098e+001
1.284316e+003, 5.032207e+001
1.284798e+003, 5.056540e+001
##END=



