##NAMES=Pseudoboleite
##RRUFFID=R050162
##IDEAL CHEMISTRY=Pb^2+^_31_Cu^2+^_24_Cl_62_(OH)_48_
##LOCALITY=Margarita mine, Sierra Gorda, Antofagasta, Chile
##OWNER=RRUFF
##SOURCE=Jim McGlasson
##DESCRIPTION=Blue crust, associated with yellow penfieldite, R050163
##STATUS=The identification of this mineral has been confirmed by single-crystal X-ray diffraction.
##URL=rruff.info/R050162
93.46680, 49.98640
93.94891, 49.25168
94.43103, 49.41105
94.91315, 50.17553
95.39526, 50.73135
95.87738, 50.79799
96.35950, 50.52023
96.84161, 50.21586
97.32373, 50.05270
97.80585, 49.92649
98.28796, 49.77012
98.77008, 49.58786
99.25220, 49.38698
99.73431, 49.17469
100.2164, 48.96029
100.6985, 48.60290
101.1807, 48.20815
101.6628, 47.80822
102.1449, 47.39896
102.6270, 46.95444
103.1091, 46.49233
103.5912, 46.17997
104.0734, 46.17839
104.5555, 46.16536
105.0376, 46.09065
105.5197, 45.95378
106.0018, 45.76918
106.4839, 45.54455
106.9661, 45.26632
107.4482, 45.01452
107.9303, 44.74828
108.4124, 44.51733
108.8945, 44.36515
109.3766, 44.29250
109.8588, 44.24846
110.3409, 44.17699
110.8230, 44.07513
111.3051, 43.95587
111.7872, 43.84100
112.2693, 43.70490
112.7515, 43.47733
113.2336, 43.09199
113.7157, 42.71894
114.1978, 42.60603
114.6799, 42.75201
115.1620, 42.85628
115.6442, 42.67949
116.1263, 42.23577
116.6084, 41.87331
117.0905, 41.79642
117.5726, 41.74793
118.0547, 41.53268
118.5369, 41.11569
119.0190, 40.63653
119.5011, 40.28535
119.9832, 40.10674
120.4653, 39.96217
120.9474, 39.81932
121.4296, 39.69676
121.9117, 39.62222
122.3938, 39.60785
122.8759, 39.62634
123.3580, 39.58846
123.8401, 39.45663
124.3223, 39.29802
124.8044, 39.05746
125.2865, 38.80058
125.7686, 38.63574
126.2507, 38.63890
126.7328, 38.79344
127.2150, 38.85327
127.6971, 38.73067
128.1792, 38.62212
128.6613, 38.65272
129.1434, 38.79708
129.6255, 38.89300
130.1077, 38.77178
130.5898, 38.46718
131.0719, 38.33181
131.5540, 38.51315
132.0361, 38.80094
132.5182, 38.97903
133.0004, 39.02270
133.4825, 39.00664
133.9646, 38.98838
134.4467, 38.95970
134.9288, 38.89166
135.4109, 38.74235
135.8931, 38.53916
136.3752, 38.37197
136.8573, 38.23419
137.3394, 38.15604
137.8215, 38.18605
138.3036, 38.29129
138.7858, 38.37505
139.2679, 38.33570
139.7500, 38.15032
140.2321, 38.02782
140.7142, 38.04902
141.1963, 38.07071
141.6785, 38.03038
142.1606, 37.92665
142.6427, 37.79893
143.1248, 37.69439
143.6069, 37.61586
144.0890, 37.55881
144.5712, 37.56721
145.0533, 37.56554
145.5354, 37.49901
146.0175, 37.35343
146.4996, 37.15507
146.9817, 36.94814
147.4639, 36.71711
147.9460, 36.50315
148.4281, 36.31319
148.9102, 36.13882
149.3923, 35.97354
149.8744, 35.81713
150.3566, 35.66016
150.8387, 35.48327
151.3208, 35.30855
151.8029, 35.07759
152.2850, 34.71627
152.7671, 34.26851
153.2493, 33.88615
153.7314, 33.64702
154.2135, 33.49800
154.6956, 33.32738
155.1777, 33.13065
155.6598, 32.92422
156.1420, 32.73656
156.6241, 32.57175
157.1062, 32.35912
157.5883, 32.02537
158.0704, 31.64855
158.5525, 31.29546
159.0347, 30.98559
159.5168, 30.69505
159.9989, 30.38532
160.4810, 30.05103
160.9631, 29.71184
161.4452, 29.35751
161.9274, 29.00852
162.4095, 28.68838
162.8916, 28.41257
163.3737, 28.16200
163.8558, 27.87559
164.3379, 27.51547
164.8201, 27.16633
165.3022, 26.85468
165.7843, 26.55902
166.2664, 26.24740
166.7485, 25.89570
167.2306, 25.51520
167.7128, 25.19158
168.1949, 24.97336
168.6770, 24.75946
169.1591, 24.55833
169.6412, 24.34505
170.1233, 24.06166
170.6055, 23.65434
171.0876, 23.12706
171.5697, 22.74430
172.0518, 22.62679
172.5339, 22.50949
173.0160, 22.25950
173.4982, 21.89061
173.9803, 21.49446
174.4624, 21.12486
174.9445, 20.79447
175.4266, 20.53672
175.9087, 20.41812
176.3909, 20.32555
176.8730, 20.16406
177.3551, 19.92636
177.8372, 19.66853
178.3193, 19.43734
178.8014, 19.22079
179.2836, 18.99060
179.7657, 18.72108
180.2478, 18.44063
180.7299, 18.19245
181.2120, 17.98739
181.6941, 17.79001
182.1763, 17.58345
182.6584, 17.36738
183.1405, 17.14029
183.6226, 16.88852
184.1047, 16.62494
184.5868, 16.39410
185.0690, 16.22272
185.5511, 16.04565
186.0332, 15.82928
186.5153, 15.58657
186.9974, 15.33784
187.4795, 15.08196
187.9617, 14.82390
188.4438, 14.64393
188.9259, 14.62201
189.4080, 14.60182
189.8901, 14.55292
190.3722, 14.46768
190.8544, 14.33392
191.3365, 14.12464
191.8186, 13.82648
192.3007, 13.64150
192.7828, 13.71399
193.2649, 13.76222
193.7471, 13.67644
194.2292, 13.47660
194.7113, 13.24554
195.1934, 13.05906
195.6755, 12.92331
196.1576, 12.79115
196.6398, 12.62444
197.1219, 12.49193
197.6040, 12.37367
198.0861, 12.30033
198.5682, 12.32045
199.0503, 12.35154
199.5325, 12.33846
200.0146, 12.28361
200.4967, 12.06183
200.9788, 12.05560
201.4609, 11.96299
201.9430, 11.86684
202.4252, 11.89094
202.9073, 11.69343
203.3894, 11.71564
203.8715, 11.55905
204.3536, 11.48408
204.8357, 11.43352
205.3179, 11.35604
205.8000, 11.24320
206.2821, 11.13860
206.7642, 11.08974
207.2463, 11.08914
207.7284, 11.09550
208.2106, 11.12972
208.6927, 11.15618
209.1748, 11.11098
209.6569, 10.97007
210.1390, 10.82429
210.6211, 10.75571
211.1033, 10.74230
211.5854, 10.73915
212.0675, 10.72464
212.5496, 10.70958
213.0317, 10.72398
213.5138, 10.78513
213.9960, 10.84155
214.4781, 10.87570
214.9602, 10.88317
215.4423, 10.84863
215.9244, 10.73772
216.4065, 10.57551
216.8886, 10.46249
217.3708, 10.41843
217.8529, 10.39784
218.3350, 10.37226
218.8171, 10.35097
219.2992, 10.35594
219.7813, 10.42161
220.2635, 10.52958
220.7456, 10.54857
221.2277, 10.40989
221.7098, 10.25712
222.1919, 10.13469
222.6740, 10.03314
223.1562, 9.928501
223.6383, 9.799547
224.1204, 9.651496
224.6025, 9.549418
225.0846, 9.540659
225.5667, 9.533911
226.0489, 9.444067
226.5310, 9.265173
227.0131, 9.326514
227.4952, 9.343700
227.9773, 9.319102
228.4594, 9.127574
228.9416, 9.151592
229.4237, 9.089234
229.9058, 9.023335
230.3879, 9.077702
230.8700, 8.910453
231.3521, 8.962912
231.8343, 8.927659
232.3164, 8.932554
232.7985, 8.755508
233.2806, 8.670343
233.7627, 8.622583
234.2448, 8.596908
234.7270, 8.566438
235.2091, 8.514108
235.6912, 8.441903
236.1733, 8.367795
236.6554, 8.279826
237.1375, 8.202376
237.6197, 8.142378
238.1018, 8.098807
238.5839, 8.071545
239.0660, 8.064634
239.5481, 8.070924
240.0302, 8.049730
240.5124, 7.994336
240.9945, 7.925722
241.4766, 7.831994
241.9587, 7.728535
242.4408, 7.661743
242.9229, 7.668243
243.4051, 7.715817
243.8872, 7.693538
244.3693, 7.551108
244.8514, 7.421960
245.3335, 7.376819
245.8156, 7.393502
246.2978, 7.404554
246.7799, 7.380085
247.2620, 7.333014
247.7441, 7.294317
248.2262, 7.270484
248.7083, 7.240212
249.1905, 7.185267
249.6726, 7.113220
250.1547, 7.050547
250.6368, 7.006177
251.1189, 6.977152
251.6010, 6.963469
252.0832, 6.972700
252.5653, 6.962685
253.0474, 6.893010
253.5295, 6.778604
254.0116, 6.686376
254.4937, 6.645441
254.9759, 6.621716
255.4580, 6.574600
255.9401, 6.503496
256.4222, 6.429228
256.9043, 6.358345
257.3864, 6.293043
257.8686, 6.250800
258.3507, 6.262939
258.8328, 6.261378
259.3149, 6.172613
259.7970, 6.007557
260.2791, 5.859199
260.7613, 5.802217
261.2434, 5.819390
261.7255, 5.812539
262.2076, 5.765282
262.6897, 5.697894
263.1718, 5.618630
263.6540, 5.531533
264.1361, 5.450346
264.6182, 5.387770
265.1003, 5.340514
265.5824, 5.284803
266.0645, 5.206763
266.5467, 5.140882
267.0288, 5.113783
267.5109, 5.110489
267.9930, 5.098231
268.4751, 5.053463
268.9572, 4.983793
269.4394, 4.923719
269.9215, 4.879367
270.4036, 4.835876
270.8857, 4.778462
271.3678, 4.719300
271.8499, 4.678848
272.3321, 4.672078
272.8142, 4.688492
273.2963, 4.692377
273.7784, 4.680093
274.2605, 4.659894
274.7426, 4.629133
275.2248, 4.594893
275.7069, 4.567226
276.1890, 4.551626
276.6711, 4.541633
277.1532, 4.519855
277.6353, 4.478286
278.1175, 4.439342
278.5996, 4.402978
279.0817, 4.372847
279.5638, 4.358609
280.0459, 4.363821
280.5280, 4.370233
281.0102, 4.334764
281.4923, 4.216189
281.9744, 4.145112
282.4565, 4.155287
282.9386, 4.197915
283.4207, 4.248622
283.9029, 4.297012
284.3850, 4.328901
284.8671, 4.316548
285.3492, 4.232722
285.8313, 4.171806
286.3134, 4.151300
286.7956, 4.140501
287.2777, 4.115900
287.7598, 4.077625
288.2419, 4.047152
288.7240, 4.053707
289.2061, 4.111722
289.6883, 4.153881
290.1704, 4.180519
290.6525, 4.192636
291.1346, 4.185554
291.6167, 4.162520
292.0988, 4.132472
292.5810, 4.101730
293.0631, 4.068953
293.5452, 4.050692
294.0273, 4.068186
294.5094, 4.078993
294.9915, 4.056614
295.4737, 4.015535
295.9558, 3.990837
296.4379, 4.010859
296.9200, 4.071637
297.4021, 4.107739
297.8842, 4.110510
298.3664, 4.095868
298.8485, 4.055548
299.3306, 4.001579
299.8127, 3.944884
300.2948, 3.889861
300.7769, 3.845892
301.2591, 3.853740
301.7412, 4.014828
302.2233, 4.104818
302.7054, 4.067016
303.1875, 3.962842
303.6696, 3.847435
304.1518, 3.744834
304.6339, 3.665131
305.1160, 3.632668
305.5981, 3.703149
306.0802, 3.738848
306.5623, 3.713484
307.0445, 3.669439
307.5266, 3.640477
308.0087, 3.635039
308.4908, 3.639819
308.9729, 3.636136
309.4550, 3.621069
309.9372, 3.604083
310.4193, 3.587769
310.9014, 3.567846
311.3835, 3.535601
311.8656, 3.494437
312.3477, 3.461242
312.8299, 3.456790
313.3120, 3.490080
313.7941, 3.490561
314.2762, 3.424457
314.7583, 3.363340
315.2404, 3.341018
315.7226, 3.348436
316.2047, 3.357925
316.6868, 3.349594
317.1689, 3.324197
317.6510, 3.293409
318.1331, 3.231797
318.6153, 3.192767
319.0974, 3.207931
319.5795, 3.249233
320.0616, 3.271181
320.5437, 3.249132
321.0258, 3.199540
321.5080, 3.177139
321.9901, 3.210692
322.4722, 3.237702
322.9543, 3.257887
323.4364, 3.268598
323.9185, 3.263050
324.4007, 3.240182
324.8828, 3.212064
325.3649, 3.201884
325.8470, 3.232935
326.3291, 3.156386
326.8112, 3.255720
327.2934, 3.310898
327.7755, 3.324292
328.2576, 3.170756
328.7397, 3.232775
329.2218, 3.208410
329.7039, 3.180503
330.1861, 3.272861
330.6682, 3.143604
331.1503, 3.234055
331.6324, 3.236803
332.1145, 3.279691
332.5966, 3.235660
333.0788, 3.218475
333.5609, 3.288236
334.0430, 3.309855
334.5251, 3.255819
335.0072, 3.301258
335.4893, 3.168965
335.9715, 3.192634
336.4536, 3.283594
336.9357, 3.233928
337.4178, 3.280956
337.8999, 3.207478
338.3820, 3.304680
338.8642, 3.361768
339.3463, 3.338989
339.8284, 3.291857
340.3105, 3.270105
340.7926, 3.287227
341.2747, 3.321866
341.7568, 3.341712
342.2390, 3.339869
342.7211, 3.339922
343.2032, 3.339242
343.6853, 3.342266
344.1674, 3.354855
344.6495, 3.374818
345.1317, 3.393399
345.6138, 3.402794
346.0959, 3.402829
346.5780, 3.396785
347.0601, 3.362209
347.5422, 3.344044
348.0244, 3.365964
348.5065, 3.412143
348.9886, 3.455073
349.4707, 3.478630
349.9528, 3.485064
350.4349, 3.480657
350.9171, 3.446286
351.3992, 3.431957
351.8813, 3.458310
352.3634, 3.501223
352.8455, 3.541913
353.3276, 3.573605
353.8098, 3.589348
354.2919, 3.565280
354.7740, 3.470576
355.2561, 3.431713
355.7382, 3.527636
356.2203, 3.631831
356.7025, 3.666376
357.1846, 3.628796
357.6667, 3.571651
358.1488, 3.546587
358.6309, 3.555424
359.1130, 3.549035
359.5952, 3.505982
360.0773, 3.471667
360.5594, 3.479936
361.0415, 3.510088
361.5236, 3.515602
362.0057, 3.455178
362.4879, 3.361216
362.9700, 3.344253
363.4521, 3.454071
363.9342, 3.530466
364.4163, 3.496622
364.8984, 3.413265
365.3806, 3.335103
365.8627, 3.276039
366.3448, 3.237762
366.8269, 3.227713
367.3090, 3.248925
367.7911, 3.270729
368.2733, 3.299675
368.7554, 3.314761
369.2375, 3.294218
369.7196, 3.239676
370.2017, 3.182690
370.6838, 3.146869
371.1660, 3.128247
371.6481, 3.106146
372.1302, 3.071073
372.6123, 3.047751
373.0944, 3.070524
373.5765, 3.116780
374.0587, 3.134447
374.5408, 3.086452
375.0229, 3.010884
375.5050, 2.963070
375.9871, 2.945413
376.4692, 2.936507
376.9514, 2.927660
377.4335, 2.921463
377.9156, 2.924211
378.3977, 2.942615
378.8798, 2.953373
379.3619, 2.938675
379.8441, 2.901736
380.3262, 2.851954
380.8083, 2.781055
381.2904, 2.716270
381.7725, 2.705199
382.2546, 2.746075
382.7368, 2.760209
383.2189, 2.690115
383.7010, 2.591947
384.1831, 2.547698
384.6652, 2.567754
385.1473, 2.608848
385.6295, 2.646805
386.1116, 2.678029
386.5937, 2.689518
387.0758, 2.666178
387.5579, 2.636306
388.0400, 2.617724
388.5222, 2.607149
389.0043, 2.588778
389.4864, 2.550317
389.9685, 2.508187
390.4506, 2.509532
390.9327, 2.577239
391.4149, 2.628354
391.8970, 2.644700
392.3791, 2.636139
392.8612, 2.605730
393.3433, 2.555817
393.8254, 2.508291
394.3076, 2.490082
394.7897, 2.508766
395.2718, 2.518158
395.7539, 2.507372
396.2360, 2.498053
396.7181, 2.514170
397.2003, 2.543617
397.6824, 2.547578
398.1645, 2.497955
398.6466, 2.409073
399.1287, 2.352362
399.6108, 2.343488
400.0930, 2.349838
400.5751, 2.381595
401.0572, 2.420835
401.5393, 2.453243
402.0214, 2.473021
402.5035, 2.475644
402.9857, 2.449217
403.4678, 2.371020
403.9499, 2.330745
404.4320, 2.349804
404.9141, 2.381488
405.3962, 2.410664
405.8784, 2.432979
406.3605, 2.445728
406.8426, 2.446165
407.3247, 2.435499
407.8068, 2.420038
408.2889, 2.377388
408.7711, 2.364739
409.2532, 2.433621
409.7353, 2.518368
410.2174, 2.536451
410.6995, 2.458870
411.1816, 2.354016
411.6638, 2.330023
412.1459, 2.407144
412.6280, 2.455214
413.1101, 2.429345
413.5922, 2.392567
414.0743, 2.382209
414.5565, 2.393879
415.0386, 2.398920
415.5207, 2.366323
416.0028, 2.311250
416.4849, 2.293593
416.9670, 2.328606
417.4492, 2.363002
417.9313, 2.361423
418.4134, 2.345026
418.8955, 2.343620
419.3776, 2.373159
419.8597, 2.398415
420.3419, 2.371003
420.8240, 2.298863
421.3061, 2.260985
421.7882, 2.296932
422.2703, 2.352293
422.7524, 2.355473
423.2346, 2.308376
423.7167, 2.272183
424.1988, 2.275361
424.6809, 2.299031
425.1630, 2.320313
425.6451, 2.337002
426.1273, 2.349151
426.6094, 2.353420
427.0915, 2.353024
427.5736, 2.364300
428.0557, 2.397589
428.5378, 2.431042
429.0200, 2.458122
429.5021, 2.478173
429.9842, 2.487571
430.4663, 2.484260
430.9484, 2.476271
431.4305, 2.478175
431.9127, 2.501067
432.3948, 2.504873
432.8769, 2.473889
433.3590, 2.435528
433.8411, 2.405205
434.3232, 2.385612
434.8054, 2.374965
435.2875, 2.371387
435.7696, 2.375660
436.2517, 2.396902
436.7338, 2.456645
437.2159, 2.508637
437.6981, 2.545405
438.1802, 2.571301
438.6623, 2.593273
439.1444, 2.613058
439.6265, 2.624599
440.1086, 2.610409
440.5908, 2.548313
441.0729, 2.534060
441.5550, 2.635159
442.0371, 2.722522
442.5192, 2.717255
443.0013, 2.650527
443.4835, 2.611391
443.9656, 2.667292
444.4477, 2.781462
444.9298, 2.830195
445.4119, 2.784153
445.8940, 2.747966
446.3762, 2.763462
446.8583, 2.799462
447.3404, 2.833489
447.8225, 2.861408
448.3046, 2.883320
448.7867, 2.900712
449.2689, 2.912573
449.7510, 2.908911
450.2331, 2.876719
450.7152, 2.852649
451.1973, 2.887515
451.6794, 2.955618
452.1616, 2.986945
452.6437, 2.920096
453.1258, 2.842850
453.6079, 2.849290
454.0900, 2.927463
454.5721, 3.002097
455.0543, 3.045722
455.5364, 3.062205
456.0185, 3.051952
456.5006, 3.006762
456.9827, 2.972947
457.4648, 2.971793
457.9470, 2.981088
458.4291, 2.976335
458.9112, 2.955223
459.3933, 2.931772
459.8754, 2.918780
460.3575, 2.915572
460.8397, 2.897761
461.3218, 2.843886
461.8039, 2.802974
462.2860, 2.806837
462.7681, 2.824568
463.2502, 2.809393
463.7324, 2.746210
464.2145, 2.664988
464.6966, 2.611911
465.1787, 2.592221
465.6608, 2.586723
466.1429, 2.619528
466.6251, 2.642631
467.1072, 2.630729
467.5893, 2.591588
468.0714, 2.543589
468.5535, 2.493616
469.0356, 2.450242
469.5178, 2.444710
469.9999, 2.498172
470.4820, 2.532994
470.9641, 2.507900
471.4462, 2.470534
471.9283, 2.460444
472.4105, 2.480947
472.8926, 2.497349
473.3747, 2.474806
473.8568, 2.425561
474.3389, 2.396505
474.8210, 2.394397
475.3032, 2.401100
475.7853, 2.408779
476.2674, 2.416342
476.7495, 2.420625
477.2316, 2.415762
477.7137, 2.415771
478.1959, 2.440643
478.6780, 2.478771
479.1601, 2.493850
479.6422, 2.471828
480.1243, 2.436209
480.6064, 2.417525
481.0886, 2.418789
481.5707, 2.417179
482.0528, 2.404007
482.5349, 2.394132
483.0170, 2.405010
483.4991, 2.428524
483.9813, 2.439645
484.4634, 2.423878
484.9455, 2.388714
485.4276, 2.355888
485.9097, 2.317876
486.3918, 2.294477
486.8740, 2.293417
487.3561, 2.300611
487.8382, 2.306170
488.3203, 2.309316
488.8024, 2.315920
489.2845, 2.334641
489.7667, 2.362054
490.2488, 2.360430
490.7309, 2.299491
491.2130, 2.259409
491.6951, 2.275793
492.1772, 2.313507
492.6594, 2.340895
493.1415, 2.349953
493.6236, 2.339535
494.1057, 2.294369
494.5878, 2.221030
495.0699, 2.180063
495.5521, 2.188398
496.0342, 2.209260
496.5163, 2.216981
496.9984, 2.216639
497.4805, 2.219704
497.9626, 2.236313
498.4448, 2.248601
498.9269, 2.237172
499.4090, 2.208133
499.8911, 2.182716
500.3732, 2.167762
500.8553, 2.160348
501.3375, 2.157196
501.8196, 2.159133
502.3017, 2.161203
502.7838, 2.161825
503.2659, 2.163601
503.7480, 2.169763
504.2302, 2.178748
504.7123, 2.186952
505.1944, 2.192755
505.6765, 2.194454
506.1586, 2.185974
506.6407, 2.149558
507.1228, 2.132377
507.6049, 2.147535
508.0871, 2.170941
508.5692, 2.191752
509.0513, 2.205840
509.5334, 2.207853
510.0155, 2.190179
510.4977, 2.158348
510.9798, 2.142788
511.4619, 2.156165
511.9440, 2.156899
512.4261, 2.102980
512.9083, 2.047426
513.3904, 2.045115
513.8725, 2.104995
514.3546, 2.171441
514.8367, 2.215276
515.3188, 2.233903
515.8010, 2.210934
516.2831, 2.135965
516.7652, 2.063489
517.2473, 2.032476
517.7294, 2.033280
518.2115, 2.030320
518.6937, 2.023769
519.1758, 2.011611
519.6579, 1.979585
520.1400, 1.945292
520.6221, 1.948439
521.1042, 1.997103
521.5864, 2.040112
522.0685, 2.014268
522.5506, 1.907039
523.0327, 1.866048
523.5148, 1.957210
523.9969, 2.028616
524.4791, 2.012541
524.9612, 1.954443
525.4433, 1.922972
525.9254, 1.941907
526.4075, 1.976970
526.8896, 1.970702
527.3718, 1.908882
527.8539, 1.881203
528.3360, 1.922605
528.8181, 1.962018
529.3002, 1.970446
529.7823, 1.955877
530.2645, 1.856733
530.7466, 1.951569
531.2287, 2.002247
531.7108, 2.011142
532.1929, 1.853108
532.6750, 1.910628
533.1572, 1.881762
533.6393, 1.849356
534.1214, 1.937215
534.6035, 1.803460
535.0856, 1.889412
535.5677, 1.887661
536.0499, 1.926047
536.5320, 1.877518
537.0141, 1.855834
537.4962, 1.921097
537.9783, 1.938217
538.4604, 1.879681
538.9426, 1.850063
539.4247, 1.937828
539.9068, 1.977510
540.3889, 1.942067
540.8710, 1.888199
541.3531, 1.827639
541.8353, 1.774020
542.3174, 1.751085
542.7995, 1.773487
543.2816, 1.821512
543.7637, 1.851158
544.2458, 1.857755
544.7280, 1.861914
545.2101, 1.867599
545.6922, 1.870060
546.1743, 1.864083
546.6564, 1.852086
547.1385, 1.842649
547.6207, 1.841481
548.1028, 1.843865
548.5849, 1.842279
549.0670, 1.836924
549.5491, 1.832921
550.0313, 1.831650
550.5134, 1.833129
550.9955, 1.839603
551.4776, 1.851685
551.9597, 1.858003
552.4418, 1.849602
552.9240, 1.840195
553.4061, 1.842916
553.8882, 1.854397
554.3703, 1.862190
554.8524, 1.859877
555.3345, 1.850847
555.8167, 1.842381
556.2988, 1.831459
556.7809, 1.827433
557.2630, 1.838326
557.7451, 1.847728
558.2272, 1.844918
558.7094, 1.833070
559.1915, 1.821544
559.6736, 1.815405
560.1557, 1.813105
560.6378, 1.812469
561.1199, 1.814232
561.6021, 1.812751
562.0842, 1.804459
562.5663, 1.794992
563.0484, 1.787407
563.5305, 1.782222
564.0126, 1.781856
564.4948, 1.798265
564.9769, 1.811715
565.4590, 1.790686
565.9411, 1.745063
566.4232, 1.723791
566.9053, 1.748975
567.3875, 1.794665
567.8696, 1.823549
568.3517, 1.834794
568.8338, 1.825894
569.3159, 1.760820
569.7980, 1.710997
570.2802, 1.728760
570.7623, 1.787976
571.2444, 1.834743
571.7265, 1.844076
572.2086, 1.830278
572.6907, 1.818116
573.1729, 1.808752
573.6550, 1.795327
574.1371, 1.762750
574.6192, 1.742451
575.1013, 1.757635
575.5834, 1.793850
576.0656, 1.821410
576.5477, 1.827656
577.0298, 1.825134
577.5119, 1.832939
577.9940, 1.846063
578.4761, 1.831800
578.9583, 1.774341
579.4404, 1.716474
579.9225, 1.704181
580.4046, 1.735233
580.8867, 1.751657
581.3688, 1.731422
581.8510, 1.718982
582.3331, 1.744507
582.8152, 1.786129
583.2973, 1.811238
583.7794, 1.810704
584.2615, 1.796600
584.7437, 1.781356
585.2258, 1.764542
585.7079, 1.754246
586.1900, 1.752970
586.6721, 1.755464
587.1542, 1.752407
587.6363, 1.756329
588.1184, 1.791613
588.6005, 1.862058
589.0826, 1.920160
589.5648, 1.906864
590.0469, 1.844722
590.5290, 1.822714
591.0111, 1.853589
591.4932, 1.884005
591.9753, 1.883445
592.4575, 1.861613
592.9396, 1.844802
593.4217, 1.837091
593.9038, 1.823390
594.3859, 1.783275
594.8680, 1.744747
595.3502, 1.746090
595.8323, 1.782649
596.3144, 1.814620
596.7965, 1.813707
597.2786, 1.789682
597.7607, 1.778357
598.2429, 1.786960
598.7250, 1.795482
599.2071, 1.810489
599.6892, 1.818324
600.1713, 1.804292
600.6534, 1.774743
601.1356, 1.749649
601.6177, 1.738865
602.0998, 1.741499
602.5819, 1.764094
603.0640, 1.806666
603.5461, 1.827426
604.0283, 1.803907
604.5104, 1.773028
604.9925, 1.785552
605.4746, 1.834894
605.9567, 1.859297
606.4388, 1.828516
606.9210, 1.792577
607.4031, 1.779065
607.8852, 1.781729
608.3673, 1.788180
608.8494, 1.794274
609.3315, 1.801214
609.8137, 1.810944
610.2958, 1.824085
610.7779, 1.833419
611.2600, 1.833611
611.7421, 1.836487
612.2242, 1.848983
612.7064, 1.863478
613.1885, 1.875357
613.6706, 1.882782
614.1527, 1.874776
614.6348, 1.823955
615.1169, 1.750921
615.5991, 1.723882
616.0812, 1.750688
616.5633, 1.784742
617.0454, 1.806261
617.5275, 1.816881
618.0096, 1.818928
618.4918, 1.808298
618.9739, 1.803522
619.4560, 1.817116
619.9381, 1.831056
620.4202, 1.830411
620.9023, 1.816602
621.3845, 1.796419
621.8666, 1.773069
622.3487, 1.750781
622.8308, 1.740018
623.3129, 1.744584
623.7950, 1.748584
624.2772, 1.745746
624.7593, 1.748082
625.2414, 1.769430
625.7235, 1.798425
626.2056, 1.810713
626.6877, 1.793055
627.1699, 1.770621
627.6520, 1.768077
628.1341, 1.780545
628.6162, 1.797690
629.0983, 1.819955
629.5804, 1.823794
630.0626, 1.778631
630.5447, 1.696232
631.0268, 1.668850
631.5089, 1.739614
631.9910, 1.798648
632.4731, 1.831213
632.9553, 1.843214
633.4374, 1.829502
633.9195, 1.798328
634.4016, 1.776291
634.8837, 1.784094
635.3658, 1.812602
635.8480, 1.834296
636.3301, 1.847239
636.8122, 1.862049
637.2943, 1.885466
637.7764, 1.906473
638.2585, 1.918300
638.7407, 1.920838
639.2228, 1.913991
639.7049, 1.887504
640.1870, 1.861671
640.6691, 1.850379
641.1512, 1.851913
641.6334, 1.867781
642.1155, 1.897962
642.5976, 1.923179
643.0797, 1.921110
643.5618, 1.891788
644.0439, 1.871786
644.5261, 1.865470
645.0082, 1.863692
645.4903, 1.868717
645.9724, 1.875465
646.4545, 1.880936
646.9366, 1.883940
647.4188, 1.881929
647.9009, 1.866247
648.3830, 1.848019
648.8651, 1.856360
649.3472, 1.891902
649.8293, 1.926412
650.3115, 1.954907
650.7936, 1.971218
651.2757, 1.959137
651.7578, 1.916798
652.2399, 1.896209
652.7220, 1.932162
653.2042, 1.957927
653.6863, 1.920747
654.1684, 1.858556
654.6505, 1.834507
655.1326, 1.863896
655.6147, 1.910309
656.0969, 1.934750
656.5790, 1.938250
657.0611, 1.938410
657.5432, 1.933056
658.0253, 1.928989
658.5074, 1.931546
658.9896, 1.934532
659.4717, 1.927242
659.9538, 1.909976
660.4359, 1.908218
660.9180, 1.958201
661.4001, 2.010435
661.8823, 2.002527
662.3644, 1.949733
662.8465, 1.906943
663.3286, 1.894070
663.8107, 1.907856
664.2928, 1.948299
664.7750, 2.023276
665.2571, 2.072434
665.7392, 2.091782
666.2213, 2.089377
666.7034, 2.044853
667.1855, 1.991473
667.6677, 1.963028
668.1498, 1.966166
668.6319, 1.988932
669.1140, 2.037429
669.5961, 2.094434
670.0782, 2.118090
670.5604, 2.108053
671.0425, 2.086241
671.5246, 2.053274
672.0067, 2.028085
672.4888, 2.047470
672.9709, 2.127940
673.4531, 2.164539
673.9352, 2.119813
674.4173, 2.069468
674.8994, 2.043686
675.3815, 2.034740
675.8636, 2.030506
676.3458, 2.027066
676.8279, 2.024727
677.3100, 2.020817
677.7921, 2.017699
678.2742, 2.034734
678.7563, 2.079199
679.2385, 2.116955
679.7206, 2.135670
680.2027, 2.141085
680.6848, 2.055154
681.1669, 2.156665
681.6490, 2.214020
682.1312, 2.229591
682.6133, 2.078232
683.0954, 2.142429
683.5775, 2.120241
684.0596, 2.094511
684.5417, 2.189046
685.0239, 2.061967
685.5060, 2.154595
685.9881, 2.159520
686.4702, 2.204584
686.9523, 2.162730
687.4344, 2.147722
687.9166, 2.219661
688.3987, 2.243457
688.8808, 2.191597
689.3629, 2.239213
689.8450, 2.109098
690.3271, 2.134944
690.8093, 2.228081
691.2914, 2.180592
691.7735, 2.229797
692.2556, 2.242175
692.7377, 2.087192
693.2198, 2.223268
693.7020, 2.233470
694.1841, 2.114428
694.6662, 2.240530
695.1483, 2.139306
695.6304, 2.119223
696.1125, 2.160205
696.5947, 2.137530
697.0768, 2.215218
697.5589, 2.196218
698.0410, 2.168580
698.5231, 2.184335
699.0052, 2.201045
699.4874, 2.202056
699.9695, 2.190901
700.4516, 2.184067
700.9337, 2.186526
701.4158, 2.183789
701.8979, 2.157045
702.3801, 2.109444
702.8622, 2.094236
703.3443, 2.133151
703.8264, 2.176853
704.3085, 2.246709
704.7906, 2.299367
705.2728, 2.288023
705.7549, 2.227041
706.2370, 2.173829
706.7191, 2.161959
707.2012, 2.169194
707.6833, 2.164390
708.1655, 2.150547
708.6476, 2.147058
709.1297, 2.159798
709.6118, 2.167592
710.0939, 2.146164
710.5760, 2.106289
711.0582, 2.107735
711.5403, 2.197495
712.0224, 2.259369
712.5045, 2.273525
712.9866, 2.267192
713.4688, 2.254847
713.9509, 2.238688
714.4330, 2.215027
714.9151, 2.180070
715.3972, 2.149777
715.8793, 2.151775
716.3615, 2.179845
716.8436, 2.194458
717.3257, 2.189610
717.8078, 2.180752
718.2899, 2.174875
718.7720, 2.173021
719.2542, 2.179588
719.7363, 2.201406
720.2184, 2.214095
720.7005, 2.214395
721.1826, 2.206213
721.6647, 2.184949
722.1469, 2.158672
722.6290, 2.140021
723.1111, 2.133659
723.5932, 2.136690
724.0753, 2.149619
724.5574, 2.169968
725.0396, 2.186648
725.5217, 2.200847
726.0038, 2.197907
726.4859, 2.158717
726.9680, 2.114376
727.4501, 2.124433
727.9323, 2.202921
728.4144, 2.244681
728.8965, 2.214385
729.3786, 2.179719
729.8607, 2.175330
730.3428, 2.182322
730.8250, 2.172159
731.3071, 2.140312
731.7892, 2.105078
732.2713, 2.078835
732.7534, 2.063538
733.2355, 2.064881
733.7177, 2.082956
734.1998, 2.121067
734.6819, 2.194344
735.1640, 2.258494
735.6461, 2.257242
736.1282, 2.193532
736.6104, 2.166470
737.0925, 2.214536
737.5746, 2.248943
738.0567, 2.229136
738.5388, 2.199320
739.0209, 2.207996
739.5031, 2.248783
739.9852, 2.277120
740.4673, 2.264769
740.9494, 2.231934
741.4315, 2.208265
741.9136, 2.193870
742.3958, 2.194698
742.8779, 2.216597
743.3600, 2.231996
743.8421, 2.217299
744.3242, 2.183820
744.8063, 2.171173
745.2885, 2.192555
745.7706, 2.205446
746.2527, 2.205246
746.7348, 2.196867
747.2169, 2.168146
747.6990, 2.137516
748.1812, 2.144843
748.6633, 2.203261
749.1454, 2.261797
749.6275, 2.253631
750.1096, 2.201872
750.5917, 2.191175
751.0739, 2.225754
751.5560, 2.246531
752.0381, 2.225496
752.5202, 2.186829
753.0023, 2.164834
753.4844, 2.162187
753.9666, 2.160566
754.4487, 2.157012
754.9308, 2.158010
755.4129, 2.168095
755.8950, 2.181829
756.3771, 2.199321
756.8593, 2.216595
757.3414, 2.217478
757.8235, 2.180333
758.3056, 2.135445
758.7877, 2.134252
759.2698, 2.167050
759.7520, 2.188548
760.2341, 2.188753
760.7162, 2.183128
761.1983, 2.184986
761.6804, 2.191085
762.1625, 2.184888
762.6447, 2.151312
763.1268, 2.130245
763.6089, 2.126642
764.0910, 2.131016
764.5731, 2.142807
765.0552, 2.157791
765.5374, 2.171191
766.0195, 2.182821
766.5016, 2.183344
766.9837, 2.150839
767.4658, 2.109552
767.9479, 2.105762
768.4301, 2.135684
768.9122, 2.159775
769.3943, 2.160486
769.8764, 2.151541
770.3585, 2.154780
770.8406, 2.172604
771.3228, 2.176690
771.8049, 2.156388
772.2870, 2.139163
772.7691, 2.132227
773.2512, 2.131397
773.7333, 2.133768
774.2155, 2.139062
774.6976, 2.147323
775.1797, 2.161775
775.6618, 2.175851
776.1439, 2.187439
776.6260, 2.194583
777.1082, 2.195440
777.5903, 2.188928
778.0724, 2.168796
778.5545, 2.127424
779.0366, 2.080117
779.5187, 2.074679
780.0009, 2.121704
780.4830, 2.140170
780.9651, 2.101144
781.4472, 2.071410
781.9293, 2.108528
782.4114, 2.175352
782.8936, 2.196876
783.3757, 2.156163
783.8578, 2.125747
784.3399, 2.131096
784.8220, 2.144496
785.3041, 2.155580
785.7863, 2.158684
786.2684, 2.137171
786.7505, 2.090883
787.2326, 2.059413
787.7147, 2.095985
788.1968, 2.171427
788.6790, 2.183125
789.1611, 2.129691
789.6432, 2.090544
790.1253, 2.086658
790.6074, 2.106893
791.0895, 2.150345
791.5717, 2.212376
792.0538, 2.236516
792.5359, 2.180631
793.0180, 2.148635
793.5001, 2.170126
793.9822, 2.199671
794.4644, 2.209245
794.9465, 2.201840
795.4286, 2.188289
795.9107, 2.170702
796.3928, 2.160917
796.8749, 2.183234
797.3571, 2.215128
797.8392, 2.199870
798.3213, 2.144212
798.8034, 2.121173
799.2855, 2.164165
799.7676, 2.229159
800.2498, 2.254175
800.7319, 2.237744
801.2140, 2.206498
801.6961, 2.137933
802.1782, 2.094917
802.6603, 2.114331
803.1425, 2.149761
803.6246, 2.161291
804.1067, 2.155513
804.5888, 2.172619
805.0709, 2.254519
805.5530, 2.317194
806.0352, 2.303847
806.5173, 2.255435
806.9994, 2.212046
807.4815, 2.180840
807.9636, 2.161503
808.4457, 2.154516
808.9279, 2.151855
809.4100, 2.136777
809.8921, 2.111138
810.3742, 2.106630
810.8563, 2.128953
811.3384, 2.148718
811.8206, 2.150661
812.3027, 2.146709
812.7848, 2.155133
813.2669, 2.178269
813.7490, 2.197387
814.2311, 2.217160
814.7133, 2.226998
815.1954, 2.220068
815.6775, 2.204725
816.1596, 2.185045
816.6417, 2.164096
817.1238, 2.147336
817.6060, 2.135730
818.0881, 2.133554
818.5702, 2.153716
819.0523, 2.184416
819.5344, 2.197616
820.0165, 2.191993
820.4987, 2.185313
820.9808, 2.187200
821.4629, 2.194698
821.9450, 2.205002
822.4271, 2.221157
822.9092, 2.213789
823.3914, 2.156088
823.8735, 2.126924
824.3556, 2.177041
824.8377, 2.251519
825.3198, 2.302021
825.8019, 2.327114
826.2841, 2.321743
826.7662, 2.250691
827.2483, 2.190658
827.7304, 2.177392
828.2125, 2.189288
828.6946, 2.213983
829.1768, 2.241258
829.6589, 2.248893
830.1410, 2.222374
830.6231, 2.189344
831.1052, 2.190197
831.5873, 2.216920
832.0695, 2.237729
832.5516, 2.250350
833.0337, 2.261667
833.5158, 2.276734
833.9979, 2.285393
834.4800, 2.270573
834.9622, 2.229345
835.4443, 2.195985
835.9264, 2.168283
836.4085, 2.152371
836.8906, 2.150481
837.3727, 2.159009
837.8549, 2.179273
838.3370, 2.207963
838.8191, 2.235915
839.3012, 2.268788
839.7833, 2.284107
840.2654, 2.257454
840.7476, 2.215473
841.2297, 2.183964
841.7118, 2.164484
842.1939, 2.152066
842.6760, 2.144534
843.1581, 2.142658
843.6403, 2.156185
844.1224, 2.177370
844.6045, 2.154740
845.0866, 2.084351
845.5687, 2.040960
846.0508, 2.052551
846.5330, 2.083085
847.0151, 2.096345
847.4972, 2.094696
847.9793, 2.104445
848.4614, 2.137927
848.9435, 2.164003
849.4257, 2.194495
849.9078, 2.204431
850.3899, 2.158385
850.8720, 2.088532
851.3541, 2.057064
851.8362, 2.081818
852.3184, 2.108150
852.8005, 2.099650
853.2826, 2.085096
853.7647, 2.093658
854.2468, 2.117721
854.7289, 2.145349
855.2111, 2.169904
855.6932, 2.173757
856.1753, 2.136951
856.6574, 2.076602
857.1395, 2.036786
857.6216, 2.017406
858.1038, 2.006122
858.5859, 2.000774
859.0680, 2.006832
859.5501, 2.034555
860.0322, 2.068892
860.5143, 2.071752
860.9965, 2.025425
861.4786, 2.002145
861.9607, 2.025919
862.4428, 2.042279
862.9249, 2.014348
863.4070, 1.985990
863.8892, 2.020283
864.3713, 2.107692
864.8534, 2.152283
865.3355, 2.088148
865.8176, 2.011460
866.2997, 1.977731
866.7819, 1.972274
867.2640, 1.983162
867.7461, 2.004669
868.2282, 2.032523
868.7103, 2.064954
869.1924, 2.083204
869.6746, 2.048409
870.1567, 1.974889
870.6388, 1.939343
871.1209, 1.943652
871.6030, 1.948847
872.0851, 1.940997
872.5673, 1.935855
873.0494, 1.954979
873.5315, 1.993019
874.0136, 1.994797
874.4957, 1.919687
874.9778, 1.883362
875.4600, 1.930672
875.9421, 1.982727
876.4242, 2.010303
876.9063, 2.014854
877.3884, 1.994446
877.8705, 1.943856
878.3527, 1.905224
878.8348, 1.892299
879.3169, 1.896888
879.7990, 1.931927
880.2811, 1.972042
880.7632, 1.978704
881.2454, 1.950166
881.7275, 1.913900
882.2096, 1.885118
882.6917, 1.865583
883.1738, 1.864098
883.6559, 1.873765
884.1381, 1.862923
884.6202, 1.831468
885.1023, 1.832962
885.5844, 1.898954
886.0665, 1.975133
886.5486, 1.970856
887.0308, 1.883648
887.5129, 1.847462
887.9950, 1.885291
888.4771, 1.912199
888.9592, 1.907085
889.4413, 1.885663
889.9235, 1.848842
890.4056, 1.805483
890.8877, 1.792063
891.3698, 1.832518
891.8519, 1.857426
892.3340, 1.841686
892.8162, 1.823580
893.2983, 1.829105
893.7804, 1.844106
894.2625, 1.845415
894.7446, 1.829358
895.2267, 1.811054
895.7089, 1.800331
896.1910, 1.790544
896.6731, 1.776284
897.1552, 1.758028
897.6373, 1.727692
898.1194, 1.691413
898.6016, 1.682658
899.0837, 1.722019
899.5658, 1.778726
900.0479, 1.793975
900.5300, 1.776700
901.0121, 1.818254
901.4943, 1.928152
901.9764, 1.984287
902.4585, 1.936922
902.9406, 1.848936
903.4227, 1.779188
903.9048, 1.728517
904.3870, 1.709531
904.8691, 1.754647
905.3512, 1.765247
905.8333, 1.690776
906.3154, 1.629869
906.7975, 1.640666
907.2797, 1.689626
907.7618, 1.730653
908.2439, 1.760620
908.7260, 1.772842
909.2081, 1.762871
909.6902, 1.737756
910.1724, 1.673111
910.6545, 1.614424
911.1366, 1.626367
911.6187, 1.692930
912.1008, 1.733903
912.5829, 1.706489
913.0651, 1.671120
913.5472, 1.695878
914.0293, 1.743347
914.5114, 1.747298
914.9935, 1.715441
915.4756, 1.686589
915.9578, 1.674257
916.4398, 1.678050
916.9219, 1.703580
917.4041, 1.736962
917.8862, 1.728593
918.3683, 1.678014
918.8504, 1.627958
919.3325, 1.580360
919.8146, 1.557073
920.2968, 1.577909
920.7789, 1.617822
921.2610, 1.628197
921.7431, 1.602104
922.2252, 1.590546
922.7073, 1.604492
923.1895, 1.615170
923.6716, 1.611365
924.1537, 1.606153
924.6358, 1.613890
925.1179, 1.628168
925.6000, 1.626032
926.0822, 1.593924
926.5643, 1.571356
927.0464, 1.568870
927.5285, 1.577922
928.0106, 1.602250
928.4927, 1.630210
928.9749, 1.646971
929.4570, 1.650174
929.9391, 1.645492
930.4212, 1.634329
930.9033, 1.619255
931.3854, 1.587621
931.8676, 1.561389
932.3497, 1.590555
932.8318, 1.661418
933.3139, 1.707436
933.7960, 1.699921
934.2781, 1.671673
934.7603, 1.661187
935.2424, 1.661266
935.7245, 1.646298
936.2066, 1.617586
936.6887, 1.589740
937.1708, 1.565754
937.6530, 1.546787
938.1351, 1.532985
938.6172, 1.526394
939.0993, 1.535984
939.5814, 1.569058
940.0635, 1.574363
940.5457, 1.534584
941.0278, 1.511098
941.5099, 1.534070
941.9920, 1.569784
942.4741, 1.585778
942.9562, 1.583307
943.4384, 1.574253
943.9205, 1.548731
944.4026, 1.532086
944.8847, 1.527319
945.3668, 1.529633
945.8489, 1.547373
946.3311, 1.565224
946.8132, 1.557139
947.2953, 1.521747
947.7774, 1.497830
948.2595, 1.511550
948.7416, 1.524363
949.2238, 1.505645
949.7059, 1.484850
950.1880, 1.502300
950.6701, 1.543030
951.1522, 1.558104
951.6343, 1.529793
952.1165, 1.499904
952.5986, 1.512425
953.0807, 1.536339
953.5628, 1.519027
954.0449, 1.481066
954.5270, 1.477407
955.0092, 1.513116
955.4913, 1.552405
955.9734, 1.573731
956.4555, 1.576555
956.9376, 1.551284
957.4197, 1.505334
957.9019, 1.475192
958.3840, 1.462187
958.8661, 1.472731
959.3482, 1.512003
959.8303, 1.543081
960.3124, 1.527335
960.7946, 1.479861
961.2767, 1.463269
961.7588, 1.486218
962.2409, 1.492339
962.7230, 1.465873
963.2051, 1.457971
963.6873, 1.505679
964.1694, 1.563805
964.6515, 1.568757
965.1336, 1.520631
965.6157, 1.494298
966.0978, 1.501464
966.5800, 1.512262
967.0621, 1.534426
967.5442, 1.548871
968.0263, 1.543597
968.5084, 1.525290
968.9905, 1.499133
969.4727, 1.463828
969.9548, 1.450136
970.4369, 1.487564
970.9190, 1.518618
971.4011, 1.514852
971.8832, 1.501093
972.3654, 1.500266
972.8475, 1.508053
973.3296, 1.508563
973.8117, 1.496728
974.2938, 1.482126
974.7759, 1.460771
975.2581, 1.448295
975.7402, 1.468491
976.2223, 1.501087
976.7044, 1.514071
977.1865, 1.506594
977.6686, 1.499793
978.1508, 1.505801
978.6329, 1.506654
979.1150, 1.469829
979.5971, 1.421493
980.0792, 1.410885
980.5613, 1.431662
981.0435, 1.464702
981.5256, 1.501072
982.0077, 1.512721
982.4898, 1.473675
982.9719, 1.416694
983.4540, 1.411107
983.9362, 1.446754
984.4183, 1.459769
984.9004, 1.447488
985.3825, 1.453150
985.8646, 1.494249
986.3467, 1.531311
986.8289, 1.521302
987.3110, 1.479040
987.7931, 1.466295
988.2752, 1.487300
988.7573, 1.506511
989.2394, 1.524892
989.7216, 1.525083
990.2037, 1.490253
990.6858, 1.452653
991.1679, 1.458317
991.6500, 1.503635
992.1321, 1.517851
992.6143, 1.481916
993.0964, 1.458482
993.5785, 1.460310
994.0606, 1.464994
994.5427, 1.463741
995.0248, 1.457182
995.5070, 1.442080
995.9891, 1.416758
996.4712, 1.408743
996.9533, 1.440117
997.4354, 1.457925
997.9175, 1.440385
998.3997, 1.421239
998.8818, 1.417308
999.3639, 1.426934
999.8460, 1.455650
1000.328, 1.507107
1000.810, 1.519724
1001.292, 1.435965
1001.774, 1.365273
1002.257, 1.356117
1002.739, 1.373072
1003.221, 1.395590
1003.703, 1.416270
1004.185, 1.424639
1004.667, 1.417379
1005.149, 1.412682
1005.631, 1.418818
1006.114, 1.431562
1006.596, 1.457746
1007.078, 1.482270
1007.560, 1.484389
1008.042, 1.468120
1008.524, 1.447691
1009.006, 1.427895
1009.488, 1.422325
1009.970, 1.456844
1010.453, 1.497914
1010.935, 1.508179
1011.417, 1.497236
1011.899, 1.481938
1012.381, 1.465661
1012.863, 1.444471
1013.345, 1.415788
1013.827, 1.392476
1014.310, 1.393984
1014.792, 1.407675
1015.274, 1.412390
1015.756, 1.408243
1016.238, 1.387758
1016.720, 1.355694
1017.202, 1.353575
1017.684, 1.409280
1018.166, 1.476384
1018.649, 1.476848
1019.131, 1.432605
1019.613, 1.429660
1020.095, 1.461573
1020.577, 1.472539
1021.059, 1.450229
1021.541, 1.422345
1022.023, 1.406952
1022.505, 1.403602
1022.988, 1.417083
1023.470, 1.444867
1023.952, 1.453237
1024.434, 1.441724
1024.916, 1.422683
1025.398, 1.396806
1025.880, 1.391372
1026.362, 1.433261
1026.845, 1.492459
1027.327, 1.489310
1027.809, 1.416892
1028.291, 1.387385
1028.773, 1.408442
1029.255, 1.429215
1029.737, 1.435721
1030.219, 1.440144
1030.702, 1.454786
1031.184, 1.471227
1031.666, 1.462991
1032.148, 1.422167
1032.630, 1.400664
1033.112, 1.403592
1033.594, 1.412089
1034.076, 1.424466
1034.558, 1.434562
1035.041, 1.438766
1035.523, 1.435785
1036.005, 1.418515
1036.487, 1.373167
1036.969, 1.365684
1037.451, 1.424420
1037.933, 1.466371
1038.415, 1.458229
1038.897, 1.440465
1039.380, 1.445946
1039.862, 1.467818
1040.344, 1.484176
1040.826, 1.495387
1041.308, 1.499811
1041.790, 1.496216
1042.272, 1.487570
1042.754, 1.471201
1043.237, 1.453195
1043.719, 1.430695
1044.201, 1.410918
1044.683, 1.418875
1045.165, 1.471273
1045.647, 1.501593
1046.129, 1.499768
1046.611, 1.485488
1047.094, 1.446629
1047.576, 1.412611
1048.058, 1.417873
1048.540, 1.444596
1049.022, 1.438792
1049.504, 1.380433
1049.986, 1.352595
1050.468, 1.405599
1050.950, 1.438701
1051.432, 1.391028
1051.915, 1.253748
1052.397, 1.355659
1052.879, 1.413413
1053.361, 1.429383
1053.843, 1.278423
1054.325, 1.343019
1054.807, 1.321231
1055.289, 1.295899
1055.772, 1.390836
1056.254, 1.264156
1056.736, 1.357183
1057.218, 1.362507
1057.700, 1.407971
1058.182, 1.366516
1058.664, 1.351908
1059.146, 1.424246
1059.629, 1.448443
1060.111, 1.396983
1060.593, 1.444998
1061.075, 1.315282
1061.557, 1.386534
1062.039, 1.392746
1062.521, 1.366201
1063.003, 1.342110
1063.485, 1.338458
1063.968, 1.331644
1064.450, 1.298315
1064.932, 1.269966
1065.414, 1.274599
1065.896, 1.303253
1066.378, 1.344740
1066.860, 1.395189
1067.342, 1.419262
1067.824, 1.381780
1068.307, 1.343914
1068.789, 1.326980
1069.271, 1.325414
1069.753, 1.350564
1070.235, 1.380388
1070.717, 1.370764
1071.199, 1.319708
1071.681, 1.290340
1072.164, 1.325269
1072.646, 1.359964
1073.128, 1.361192
1073.610, 1.354755
1074.092, 1.357605
1074.574, 1.368540
1075.056, 1.390501
1075.538, 1.418804
1076.021, 1.424433
1076.503, 1.378612
1076.985, 1.344158
1077.467, 1.373208
1077.949, 1.401754
1078.431, 1.368034
1078.913, 1.311519
1079.395, 1.290211
1079.877, 1.306347
1080.359, 1.328756
1080.842, 1.352265
1081.324, 1.363904
1081.806, 1.347563
1082.288, 1.328343
1082.770, 1.326607
1083.252, 1.329534
1083.734, 1.311998
1084.216, 1.282669
1084.698, 1.284229
1085.181, 1.340333
1085.663, 1.377597
1086.145, 1.348903
1086.627, 1.307461
1087.109, 1.269549
1087.591, 1.248043
1088.073, 1.272961
1088.555, 1.322288
1089.038, 1.330077
1089.520, 1.273610
1090.002, 1.236621
1090.484, 1.267611
1090.966, 1.309508
1091.448, 1.342854
1091.930, 1.364995
1092.412, 1.375763
1092.895, 1.373493
1093.377, 1.347128
1093.859, 1.205941
1094.341, 1.304293
1094.823, 1.358488
1095.305, 1.370899
1095.787, 1.216381
1096.269, 1.277417
1096.751, 1.252070
1097.234, 1.223174
1097.716, 1.314550
1098.198, 1.184311
1098.680, 1.273779
1099.162, 1.275544
1099.644, 1.317448
1100.126, 1.272435
1100.608, 1.254267
1101.090, 1.323046
1101.573, 1.343677
1102.055, 1.288657
1102.537, 1.333114
1103.019, 1.199838
1103.501, 1.222525
1103.983, 1.312502
1104.465, 1.261853
1104.947, 1.307898
1105.430, 1.317112
1105.912, 1.220906
1106.394, 1.256010
1106.876, 1.319040
1107.358, 1.340840
1107.840, 1.297379
1108.322, 1.271500
1108.804, 1.281987
1109.286, 1.303470
1109.769, 1.349619
1110.251, 1.383792
1110.733, 1.366637
1111.215, 1.321982
1111.697, 1.300484
1112.179, 1.308869
1112.661, 1.309587
1113.143, 1.293500
1113.625, 1.279266
1114.108, 1.269092
1114.590, 1.261782
1115.072, 1.249918
1115.554, 1.244511
1116.036, 1.269030
1116.518, 1.321972
1117.000, 1.346323
1117.482, 1.325980
1117.965, 1.305866
1118.447, 1.286200
1118.929, 1.268224
1119.411, 1.248413
1119.893, 1.234967
1120.375, 1.238991
1120.857, 1.256028
1121.339, 1.266214
1121.822, 1.265102
1122.304, 1.271816
1122.786, 1.291589
1123.268, 1.307514
1123.750, 1.315995
1124.232, 1.317116
1124.714, 1.306284
1125.196, 1.293524
1125.678, 1.302924
1126.161, 1.336919
1126.643, 1.356998
1127.125, 1.363430
1127.607, 1.350946
1128.089, 1.310326
1128.571, 1.281599
1129.053, 1.287961
1129.535, 1.312245
1130.017, 1.333611
1130.500, 1.350489
1130.982, 1.350425
1131.464, 1.331996
1131.946, 1.316458
1132.428, 1.305383
1132.910, 1.302367
1133.392, 1.310373
1133.874, 1.309764
1134.357, 1.276920
1134.839, 1.237826
1135.321, 1.270305
1135.803, 1.363415
1136.285, 1.405413
1136.767, 1.396197
1137.249, 1.370920
1137.731, 1.338554
1138.214, 1.311412
1138.696, 1.297471
1139.178, 1.286102
1139.660, 1.252141
1140.142, 1.213410
1140.624, 1.236004
1141.106, 1.300404
1141.588, 1.337041
1142.070, 1.339822
1142.552, 1.327767
1143.035, 1.310005
1143.517, 1.302290
1143.999, 1.324149
1144.481, 1.353122
1144.963, 1.355948
1145.445, 1.341882
1145.927, 1.322130
1146.409, 1.301903
1146.892, 1.291264
1147.374, 1.291092
1147.856, 1.291708
1148.338, 1.286914
1148.820, 1.285703
1149.302, 1.306752
1149.784, 1.325147
1150.266, 1.303625
1150.749, 1.269158
1151.231, 1.262773
1151.713, 1.281528
1152.195, 1.302043
1152.677, 1.317119
1153.159, 1.329857
1153.641, 1.346803
1154.123, 1.355669
1154.605, 1.339345
1155.088, 1.321600
1155.570, 1.317081
1156.052, 1.328313
1156.534, 1.371224
1157.016, 1.437914
1157.498, 1.461019
1157.980, 1.393009
1158.462, 1.343736
1158.944, 1.353908
1159.427, 1.370541
1159.909, 1.372156
1160.391, 1.367427
1160.873, 1.374093
1161.355, 1.380630
1161.837, 1.345690
1162.319, 1.248091
1162.801, 1.194685
1163.284, 1.199247
1163.766, 1.227895
1164.248, 1.303110
1164.730, 1.360336
1165.212, 1.358298
1165.694, 1.327792
1166.176, 1.305015
1166.658, 1.291813
1167.141, 1.310683
1167.623, 1.377408
1168.105, 1.407557
1168.587, 1.388174
1169.069, 1.369990
1169.551, 1.370477
1170.033, 1.369312
1170.515, 1.348172
1170.997, 1.320051
1171.479, 1.313205
1171.962, 1.326055
1172.444, 1.336981
1172.926, 1.346514
1173.408, 1.372523
1173.890, 1.416188
1174.372, 1.434700
1174.854, 1.408211
1175.336, 1.372851
1175.819, 1.366874
1176.301, 1.377803
1176.783, 1.384938
1177.265, 1.386957
1177.747, 1.378766
1178.229, 1.362290
1178.711, 1.339026
1179.193, 1.313725
1179.676, 1.310114
1180.158, 1.344796
1180.640, 1.376625
1181.122, 1.352273
1181.604, 1.318361
1182.086, 1.328155
1182.568, 1.359790
1183.050, 1.391014
1183.532, 1.412832
1184.015, 1.414254
1184.497, 1.393217
1184.979, 1.360511
1185.461, 1.305812
1185.943, 1.266149
1186.425, 1.264058
1186.907, 1.276255
1187.389, 1.291900
1187.871, 1.310015
1188.354, 1.338890
1188.836, 1.370190
1189.318, 1.370909
1189.800, 1.322837
1190.282, 1.298182
1190.764, 1.319338
1191.246, 1.342324
1191.728, 1.363956
1192.211, 1.379103
1192.693, 1.383729
1193.175, 1.381653
1193.657, 1.379741
1194.139, 1.376375
1194.621, 1.351876
1195.103, 1.291614
1195.585, 1.278203
1196.068, 1.325991
1196.550, 1.366988
1197.032, 1.381322
1197.514, 1.384507
1197.996, 1.388318
1198.478, 1.385589
1198.960, 1.359408
1199.442, 1.316368
1199.924, 1.284003
1200.406, 1.265318
1200.889, 1.290487
1201.371, 1.354107
1201.853, 1.394446
1202.335, 1.390703
1202.817, 1.380868
1203.299, 1.396069
1203.781, 1.416428
1204.263, 1.417394
1204.746, 1.405274
1205.228, 1.381805
1205.710, 1.356417
1206.192, 1.340797
1206.674, 1.339845
1207.156, 1.369666
1207.638, 1.435398
1208.120, 1.474476
1208.603, 1.426487
1209.085, 1.375193
1209.567, 1.367549
1210.049, 1.371251
1210.531, 1.364674
1211.013, 1.351939
1211.495, 1.336801
1211.977, 1.322397
1212.459, 1.320658
1212.942, 1.339523
1213.424, 1.352270
1213.906, 1.345426
1214.388, 1.350862
1214.870, 1.397255
1215.352, 1.421216
1215.834, 1.368254
1216.316, 1.296878
1216.798, 1.293964
1217.281, 1.348130
1217.763, 1.375182
1218.245, 1.372506
1218.727, 1.363108
1219.209, 1.346914
1219.691, 1.341690
1220.173, 1.353131
1220.655, 1.354988
1221.138, 1.327795
1221.620, 1.301042
1222.102, 1.323026
1222.584, 1.373421
1223.066, 1.404438
1223.548, 1.417340
1224.030, 1.408271
1224.512, 1.384921
1224.995, 1.370928
1225.477, 1.371855
1225.959, 1.376715
1226.441, 1.379707
1226.923, 1.382790
1227.405, 1.389089
1227.887, 1.394405
1228.369, 1.397577
1228.851, 1.395881
1229.333, 1.384408
1229.816, 1.366506
1230.298, 1.345632
1230.780, 1.323329
1231.262, 1.315858
1231.744, 1.337849
1232.226, 1.357540
1232.708, 1.379496
1233.190, 1.386035
1233.673, 1.354646
1234.155, 1.326885
1234.637, 1.341035
1235.119, 1.375814
1235.601, 1.385330
1236.083, 1.369620
1236.565, 1.361199
1237.047, 1.359913
1237.530, 1.372274
1238.012, 1.401271
1238.494, 1.407041
1238.976, 1.374582
1239.458, 1.335292
1239.940, 1.313037
1240.422, 1.305410
1240.904, 1.312909
1241.386, 1.329549
1241.869, 1.338891
1242.351, 1.345857
1242.833, 1.376061
1243.315, 1.414974
1243.797, 1.396664
1244.279, 1.312092
1244.761, 1.257213
1245.243, 1.295309
1245.725, 1.351255
1246.208, 1.395884
1246.690, 1.418789
1247.172, 1.396821
1247.654, 1.362803
1248.136, 1.348036
1248.618, 1.349071
1249.100, 1.355130
1249.582, 1.365986
1250.065, 1.362998
1250.547, 1.315616
1251.029, 1.313436
1251.511, 1.395638
1251.993, 1.442575
1252.475, 1.385656
1252.957, 1.365308
1253.439, 1.518268
1253.922, 1.710424
1254.404, 1.666838
1254.886, 1.432943
1255.368, 1.329038
1255.850, 1.341361
1256.332, 1.354390
1256.814, 1.355639
1257.296, 1.347051
1257.778, 1.331807
1258.260, 1.332760
1258.743, 1.368096
1259.225, 1.397522
1259.707, 1.366219
1260.189, 1.318670
1260.671, 1.296884
1261.153, 1.294043
1261.635, 1.309030
1262.117, 1.331179
1262.600, 1.338894
1263.082, 1.332595
1263.564, 1.342777
1264.046, 1.393425
1264.528, 1.419596
1265.010, 1.388419
1265.492, 1.359618
1265.974, 1.349159
1266.457, 1.347286
1266.939, 1.351851
1267.421, 1.357253
1267.903, 1.353287
1268.385, 1.344192
1268.867, 1.358279
1269.349, 1.397844
1269.831, 1.413617
1270.313, 1.404327
1270.796, 1.382707
1271.278, 1.352508
1271.760, 1.323549
1272.242, 1.300953
1272.724, 1.301265
1273.206, 1.356316
1273.688, 1.414819
1274.170, 1.388922
1274.652, 1.335713
1275.135, 1.338736
1275.617, 1.369413
1276.099, 1.366533
1276.581, 1.335948
1277.063, 1.327602
1277.545, 1.355759
1278.027, 1.375241
1278.509, 1.364486
1278.992, 1.355291
1279.474, 1.359425
1279.956, 1.360466
1280.438, 1.345002
1280.920, 1.331960
1281.402, 1.338535
1281.884, 1.357652
1282.366, 1.375088
1282.849, 1.390573
1283.331, 1.400230
1283.813, 1.404176
1284.295, 1.382920
1284.777, 1.336943
1285.259, 1.309475
1285.741, 1.312793
1286.223, 1.324781
1286.705, 1.331871
1287.188, 1.334103
##END=



