##NAMES=Pseudomalachite
##RRUFFID=R050264
##IDEAL CHEMISTRY=Cu^2+^_5_(P^5+^O_4_)_2_(OH)_4_
##LOCALITY=Cerro Morita, 27 km southwest of Agua Prieta, Sonora, Mexico
##OWNER=RRUFF
##SOURCE=Marcus Origlieri
##DESCRIPTION=Blue powdery crust
##STATUS=The identification of this mineral has been confirmed by X-ray diffraction and chemical analysis
##URL=rruff.info/R050264
##MEASURED CHEMISTRY=(Cu_4.91_Al_0.04_[box]_0.03_Ca_0.02_)_Σ=5_((P_1.98_S_0.02_)_Σ=1_O_4_)_2_(OH)_4_ ; = light phase
8.975323e+001, 0.000000e+000
9.023535e+001, 1.391424e+002
9.071747e+001, 1.377417e+002
9.119958e+001, 1.367105e+002
9.168170e+001, 1.388005e+002
9.216382e+001, 1.405339e+002
9.264594e+001, 1.413224e+002
9.312805e+001, 1.415602e+002
9.361017e+001, 1.416892e+002
9.409229e+001, 1.416193e+002
9.457440e+001, 1.414410e+002
9.505651e+001, 1.408761e+002
9.553863e+001, 1.398149e+002
9.602074e+001, 1.386253e+002
9.650286e+001, 1.376470e+002
9.698498e+001, 1.369348e+002
9.746709e+001, 1.361427e+002
9.794921e+001, 1.353194e+002
9.843133e+001, 1.344523e+002
9.891344e+001, 1.336193e+002
9.939556e+001, 1.327520e+002
9.987768e+001, 1.318784e+002
1.003598e+002, 1.311269e+002
1.008419e+002, 1.305654e+002
1.013240e+002, 1.301944e+002
1.018061e+002, 1.299076e+002
1.022883e+002, 1.297518e+002
1.027704e+002, 1.296282e+002
1.032525e+002, 1.293934e+002
1.037346e+002, 1.289935e+002
1.042167e+002, 1.287160e+002
1.046988e+002, 1.287564e+002
1.051810e+002, 1.290033e+002
1.056631e+002, 1.293380e+002
1.061452e+002, 1.297951e+002
1.066273e+002, 1.303105e+002
1.071094e+002, 1.306333e+002
1.075915e+002, 1.307411e+002
1.080737e+002, 1.306361e+002
1.085558e+002, 1.302948e+002
1.090379e+002, 1.297570e+002
1.095200e+002, 1.291105e+002
1.100021e+002, 1.283934e+002
1.104842e+002, 1.275649e+002
1.109664e+002, 1.268988e+002
1.114485e+002, 1.263518e+002
1.119306e+002, 1.259779e+002
1.124127e+002, 1.259439e+002
1.128948e+002, 1.262028e+002
1.133769e+002, 1.264677e+002
1.138591e+002, 1.263106e+002
1.143412e+002, 1.253428e+002
1.148233e+002, 1.246216e+002
1.153054e+002, 1.242374e+002
1.157875e+002, 1.240386e+002
1.162696e+002, 1.238953e+002
1.167517e+002, 1.237628e+002
1.172339e+002, 1.236410e+002
1.177160e+002, 1.235446e+002
1.181981e+002, 1.235263e+002
1.186802e+002, 1.234230e+002
1.191623e+002, 1.231008e+002
1.196444e+002, 1.226409e+002
1.201266e+002, 1.222880e+002
1.206087e+002, 1.222259e+002
1.210908e+002, 1.222736e+002
1.215729e+002, 1.220379e+002
1.220550e+002, 1.213362e+002
1.225371e+002, 1.206609e+002
1.230193e+002, 1.205101e+002
1.235014e+002, 1.209432e+002
1.239835e+002, 1.213856e+002
1.244656e+002, 1.216762e+002
1.249477e+002, 1.217934e+002
1.254298e+002, 1.216241e+002
1.259120e+002, 1.210159e+002
1.263941e+002, 1.202424e+002
1.268762e+002, 1.199746e+002
1.273583e+002, 1.205866e+002
1.278404e+002, 1.210960e+002
1.283225e+002, 1.211804e+002
1.288047e+002, 1.210078e+002
1.292868e+002, 1.208022e+002
1.297689e+002, 1.207089e+002
1.302510e+002, 1.207150e+002
1.307331e+002, 1.206249e+002
1.312152e+002, 1.203437e+002
1.316974e+002, 1.200509e+002
1.321795e+002, 1.197963e+002
1.326616e+002, 1.195674e+002
1.331437e+002, 1.193171e+002
1.336258e+002, 1.189909e+002
1.341079e+002, 1.185556e+002
1.345901e+002, 1.182802e+002
1.350722e+002, 1.183292e+002
1.355543e+002, 1.183751e+002
1.360364e+002, 1.182049e+002
1.365185e+002, 1.178100e+002
1.370006e+002, 1.173499e+002
1.374828e+002, 1.170062e+002
1.379649e+002, 1.168036e+002
1.384470e+002, 1.166083e+002
1.389291e+002, 1.163691e+002
1.394112e+002, 1.161506e+002
1.398933e+002, 1.160508e+002
1.403755e+002, 1.161117e+002
1.408576e+002, 1.162152e+002
1.413397e+002, 1.162212e+002
1.418218e+002, 1.161425e+002
1.423039e+002, 1.160028e+002
1.427860e+002, 1.157730e+002
1.432681e+002, 1.154802e+002
1.437503e+002, 1.152215e+002
1.442324e+002, 1.150260e+002
1.447145e+002, 1.148649e+002
1.451966e+002, 1.146986e+002
1.456787e+002, 1.145272e+002
1.461608e+002, 1.143824e+002
1.466430e+002, 1.143001e+002
1.471251e+002, 1.142860e+002
1.476072e+002, 1.142744e+002
1.480893e+002, 1.142191e+002
1.485714e+002, 1.141851e+002
1.490535e+002, 1.142123e+002
1.495357e+002, 1.143085e+002
1.500178e+002, 1.144519e+002
1.504999e+002, 1.146493e+002
1.509820e+002, 1.150514e+002
1.514641e+002, 1.151551e+002
1.519462e+002, 1.146823e+002
1.524284e+002, 1.140859e+002
1.529105e+002, 1.137340e+002
1.533926e+002, 1.137634e+002
1.538747e+002, 1.140273e+002
1.543568e+002, 1.141621e+002
1.548389e+002, 1.140536e+002
1.553211e+002, 1.139345e+002
1.558032e+002, 1.137318e+002
1.562853e+002, 1.135483e+002
1.567674e+002, 1.135563e+002
1.572495e+002, 1.138572e+002
1.577316e+002, 1.143337e+002
1.582138e+002, 1.144689e+002
1.586959e+002, 1.140354e+002
1.591780e+002, 1.135731e+002
1.596601e+002, 1.131587e+002
1.601422e+002, 1.128068e+002
1.606243e+002, 1.125511e+002
1.611065e+002, 1.124255e+002
1.615886e+002, 1.124093e+002
1.620707e+002, 1.123892e+002
1.625528e+002, 1.123722e+002
1.630349e+002, 1.123458e+002
1.635170e+002, 1.122899e+002
1.639991e+002, 1.122090e+002
1.644813e+002, 1.121415e+002
1.649634e+002, 1.120810e+002
1.654455e+002, 1.120654e+002
1.659276e+002, 1.121756e+002
1.664097e+002, 1.125497e+002
1.668918e+002, 1.129515e+002
1.673740e+002, 1.130927e+002
1.678561e+002, 1.129307e+002
1.683382e+002, 1.127078e+002
1.688203e+002, 1.124702e+002
1.693024e+002, 1.122769e+002
1.697845e+002, 1.122439e+002
1.702667e+002, 1.125425e+002
1.707488e+002, 1.129537e+002
1.712309e+002, 1.129003e+002
1.717130e+002, 1.120324e+002
1.721951e+002, 1.113452e+002
1.726772e+002, 1.112985e+002
1.731594e+002, 1.116274e+002
1.736415e+002, 1.119747e+002
1.741236e+002, 1.121553e+002
1.746057e+002, 1.121807e+002
1.750878e+002, 1.121016e+002
1.755699e+002, 1.117371e+002
1.760521e+002, 1.114746e+002
1.765342e+002, 1.115024e+002
1.770163e+002, 1.116995e+002
1.774984e+002, 1.118502e+002
1.779805e+002, 1.117922e+002
1.784626e+002, 1.115234e+002
1.789448e+002, 1.112774e+002
1.794269e+002, 1.109298e+002
1.799090e+002, 1.107240e+002
1.803911e+002, 1.108897e+002
1.808732e+002, 1.112880e+002
1.813553e+002, 1.115555e+002
1.818375e+002, 1.113433e+002
1.823196e+002, 1.105624e+002
1.828017e+002, 1.101997e+002
1.832838e+002, 1.105398e+002
1.837659e+002, 1.109420e+002
1.842480e+002, 1.111223e+002
1.847301e+002, 1.110659e+002
1.852123e+002, 1.108809e+002
1.856944e+002, 1.106426e+002
1.861765e+002, 1.103377e+002
1.866586e+002, 1.101400e+002
1.871407e+002, 1.101122e+002
1.876228e+002, 1.101429e+002
1.881050e+002, 1.101516e+002
1.885871e+002, 1.101300e+002
1.890692e+002, 1.101255e+002
1.895513e+002, 1.102357e+002
1.900334e+002, 1.104474e+002
1.905155e+002, 1.104515e+002
1.909977e+002, 1.100159e+002
1.914798e+002, 1.094484e+002
1.919619e+002, 1.091067e+002
1.924440e+002, 1.090549e+002
1.929261e+002, 1.091031e+002
1.934082e+002, 1.090824e+002
1.938904e+002, 1.090156e+002
1.943725e+002, 1.089733e+002
1.948546e+002, 1.089949e+002
1.953367e+002, 1.090527e+002
1.958188e+002, 1.090974e+002
1.963009e+002, 1.091319e+002
1.967831e+002, 1.091362e+002
1.972652e+002, 1.091047e+002
1.977473e+002, 1.090374e+002
1.982294e+002, 1.089265e+002
1.987115e+002, 1.087180e+002
1.991936e+002, 1.084490e+002
1.996758e+002, 1.082837e+002
2.001579e+002, 1.082538e+002
2.006400e+002, 1.083009e+002
2.011221e+002, 1.084077e+002
2.016042e+002, 1.085571e+002
2.020863e+002, 1.087089e+002
2.025685e+002, 1.088357e+002
2.030506e+002, 1.089390e+002
2.035327e+002, 1.090410e+002
2.040148e+002, 1.091472e+002
2.044969e+002, 1.092446e+002
2.049790e+002, 1.093488e+002
2.054612e+002, 1.094426e+002
2.059433e+002, 1.094933e+002
2.064254e+002, 1.094900e+002
2.069075e+002, 1.094377e+002
2.073896e+002, 1.092302e+002
2.078717e+002, 1.085740e+002
2.083539e+002, 1.080240e+002
2.088360e+002, 1.077725e+002
2.093181e+002, 1.077880e+002
2.098002e+002, 1.079501e+002
2.102823e+002, 1.081821e+002
2.107644e+002, 1.085115e+002
2.112466e+002, 1.086509e+002
2.117287e+002, 1.084919e+002
2.122108e+002, 1.082668e+002
2.126929e+002, 1.079896e+002
2.131750e+002, 1.077115e+002
2.136571e+002, 1.075462e+002
2.141393e+002, 1.076296e+002
2.146214e+002, 1.080375e+002
2.151035e+002, 1.081379e+002
2.155856e+002, 1.077539e+002
2.160677e+002, 1.072957e+002
2.165498e+002, 1.068120e+002
2.170320e+002, 1.063922e+002
2.175141e+002, 1.062766e+002
2.179962e+002, 1.067411e+002
2.184783e+002, 1.078834e+002
2.189604e+002, 1.087480e+002
2.194425e+002, 1.094566e+002
2.199247e+002, 1.098381e+002
2.204068e+002, 1.096435e+002
2.208889e+002, 1.089315e+002
2.213710e+002, 1.081213e+002
2.218531e+002, 1.075428e+002
2.223352e+002, 1.072253e+002
2.228174e+002, 1.070223e+002
2.232995e+002, 1.070603e+002
2.237816e+002, 1.071183e+002
2.242637e+002, 1.070026e+002
2.247458e+002, 1.067107e+002
2.252279e+002, 1.064186e+002
2.257100e+002, 1.062604e+002
2.261922e+002, 1.062353e+002
2.266743e+002, 1.062553e+002
2.271564e+002, 1.064028e+002
2.276385e+002, 1.065394e+002
2.281206e+002, 1.064524e+002
2.286027e+002, 1.061212e+002
2.290849e+002, 1.059300e+002
2.295670e+002, 1.063562e+002
2.300491e+002, 1.071404e+002
2.305312e+002, 1.075570e+002
2.310133e+002, 1.072250e+002
2.314954e+002, 1.066171e+002
2.319776e+002, 1.062447e+002
2.324597e+002, 1.061273e+002
2.329418e+002, 1.061121e+002
2.334239e+002, 1.062530e+002
2.339060e+002, 1.064064e+002
2.343881e+002, 1.063028e+002
2.348703e+002, 1.056238e+002
2.353524e+002, 1.048710e+002
2.358345e+002, 1.048153e+002
2.363166e+002, 1.056221e+002
2.367987e+002, 1.064421e+002
2.372808e+002, 1.069176e+002
2.377630e+002, 1.071390e+002
2.382451e+002, 1.071516e+002
2.387272e+002, 1.069202e+002
2.392093e+002, 1.065556e+002
2.396914e+002, 1.062006e+002
2.401735e+002, 1.058185e+002
2.406557e+002, 1.055657e+002
2.411378e+002, 1.056328e+002
2.416199e+002, 1.057983e+002
2.421020e+002, 1.058144e+002
2.425841e+002, 1.055531e+002
2.430662e+002, 1.052491e+002
2.435484e+002, 1.053826e+002
2.440305e+002, 1.061953e+002
2.445126e+002, 1.067802e+002
2.449947e+002, 1.067599e+002
2.454768e+002, 1.064923e+002
2.459589e+002, 1.062477e+002
2.464410e+002, 1.061144e+002
2.469232e+002, 1.060597e+002
2.474053e+002, 1.060461e+002
2.478874e+002, 1.061271e+002
2.483695e+002, 1.061150e+002
2.488516e+002, 1.059958e+002
2.493337e+002, 1.057752e+002
2.498159e+002, 1.053884e+002
2.502980e+002, 1.048257e+002
2.507801e+002, 1.042591e+002
2.512622e+002, 1.040047e+002
2.517443e+002, 1.042508e+002
2.522264e+002, 1.043900e+002
2.527086e+002, 1.043046e+002
2.531907e+002, 1.041513e+002
2.536728e+002, 1.040319e+002
2.541549e+002, 1.039748e+002
2.546370e+002, 1.039526e+002
2.551191e+002, 1.039248e+002
2.556013e+002, 1.038902e+002
2.560834e+002, 1.038529e+002
2.565655e+002, 1.038583e+002
2.570476e+002, 1.038316e+002
2.575297e+002, 1.036617e+002
2.580118e+002, 1.033599e+002
2.584940e+002, 1.030931e+002
2.589761e+002, 1.031164e+002
2.594582e+002, 1.036339e+002
2.599403e+002, 1.039227e+002
2.604224e+002, 1.039396e+002
2.609045e+002, 1.038184e+002
2.613867e+002, 1.035534e+002
2.618688e+002, 1.031933e+002
2.623509e+002, 1.028993e+002
2.628330e+002, 1.028814e+002
2.633151e+002, 1.032755e+002
2.637972e+002, 1.034444e+002
2.642794e+002, 1.031864e+002
2.647615e+002, 1.029176e+002
2.652436e+002, 1.029025e+002
2.657257e+002, 1.031229e+002
2.662078e+002, 1.033635e+002
2.666899e+002, 1.033990e+002
2.671721e+002, 1.031714e+002
2.676542e+002, 1.031199e+002
2.681363e+002, 1.034815e+002
2.686184e+002, 1.037688e+002
2.691005e+002, 1.036952e+002
2.695826e+002, 1.033107e+002
2.700648e+002, 1.028472e+002
2.705469e+002, 1.024700e+002
2.710290e+002, 1.021785e+002
2.715111e+002, 1.020997e+002
2.719932e+002, 1.024217e+002
2.724753e+002, 1.027230e+002
2.729575e+002, 1.027957e+002
2.734396e+002, 1.026937e+002
2.739217e+002, 1.025945e+002
2.744038e+002, 1.026218e+002
2.748859e+002, 1.027613e+002
2.753680e+002, 1.028316e+002
2.758501e+002, 1.028310e+002
2.763322e+002, 1.027835e+002
2.768144e+002, 1.026285e+002
2.772965e+002, 1.024307e+002
2.777786e+002, 1.023516e+002
2.782607e+002, 1.025023e+002
2.787428e+002, 1.028043e+002
2.792249e+002, 1.029116e+002
2.797071e+002, 1.027635e+002
2.801892e+002, 1.025395e+002
2.806713e+002, 1.021481e+002
2.811534e+002, 1.017260e+002
2.816355e+002, 1.015608e+002
2.821176e+002, 1.018080e+002
2.825998e+002, 1.022785e+002
2.830819e+002, 1.024732e+002
2.835640e+002, 1.022783e+002
2.840461e+002, 1.020786e+002
2.845282e+002, 1.019707e+002
2.850103e+002, 1.018997e+002
2.854925e+002, 1.017511e+002
2.859746e+002, 1.014720e+002
2.864567e+002, 1.012017e+002
2.869388e+002, 1.012174e+002
2.874209e+002, 1.016332e+002
2.879030e+002, 1.019202e+002
2.883852e+002, 1.019058e+002
2.888673e+002, 1.017546e+002
2.893494e+002, 1.016676e+002
2.898315e+002, 1.016913e+002
2.903136e+002, 1.017424e+002
2.907957e+002, 1.017178e+002
2.912779e+002, 1.016076e+002
2.917600e+002, 1.014918e+002
2.922421e+002, 1.013426e+002
2.927242e+002, 1.012106e+002
2.932063e+002, 1.012059e+002
2.936884e+002, 1.013366e+002
2.941706e+002, 1.013665e+002
2.946527e+002, 1.009767e+002
2.951348e+002, 1.001749e+002
2.956169e+002, 9.978927e+001
2.960990e+002, 1.001879e+002
2.965811e+002, 1.007671e+002
2.970633e+002, 1.010929e+002
2.975454e+002, 1.011497e+002
2.980275e+002, 1.010803e+002
2.985096e+002, 1.009495e+002
2.989917e+002, 1.007702e+002
2.994738e+002, 1.006300e+002
2.999560e+002, 1.005010e+002
3.004381e+002, 1.004353e+002
3.009202e+002, 1.005207e+002
3.014023e+002, 1.007176e+002
3.018844e+002, 1.008483e+002
3.023665e+002, 1.008166e+002
3.028487e+002, 1.006529e+002
3.033308e+002, 1.004443e+002
3.038129e+002, 1.000271e+002
3.042950e+002, 9.981865e+001
3.047771e+002, 1.001964e+002
3.052592e+002, 1.009385e+002
3.057414e+002, 1.014791e+002
3.062235e+002, 1.016083e+002
3.067056e+002, 1.014300e+002
3.071877e+002, 1.010779e+002
3.076698e+002, 1.004857e+002
3.081519e+002, 1.000061e+002
3.086341e+002, 9.979250e+001
3.091162e+002, 9.975777e+001
3.095983e+002, 9.978062e+001
3.100804e+002, 9.984451e+001
3.105625e+002, 9.990027e+001
3.110446e+002, 9.986284e+001
3.115268e+002, 9.972861e+001
3.120089e+002, 9.962829e+001
3.124910e+002, 9.952443e+001
3.129731e+002, 9.949662e+001
3.134552e+002, 9.972502e+001
3.139373e+002, 1.002477e+002
3.144195e+002, 1.007106e+002
3.149016e+002, 1.007434e+002
3.153837e+002, 1.003685e+002
3.158658e+002, 1.000607e+002
3.163479e+002, 9.991063e+001
3.168300e+002, 9.980328e+001
3.173121e+002, 9.958149e+001
3.177943e+002, 9.926102e+001
3.182764e+002, 9.911699e+001
3.187585e+002, 9.944128e+001
3.192406e+002, 1.000829e+002
3.197227e+002, 1.003243e+002
3.202048e+002, 9.981879e+001
3.206870e+002, 9.927386e+001
3.211691e+002, 9.912234e+001
3.216512e+002, 9.926700e+001
3.221333e+002, 9.935719e+001
3.226154e+002, 9.922056e+001
3.230975e+002, 9.894196e+001
3.235797e+002, 9.873613e+001
3.240618e+002, 9.860229e+001
3.245439e+002, 9.852104e+001
3.250260e+002, 9.848250e+001
3.255081e+002, 9.849190e+001
3.259902e+002, 9.857359e+001
3.264724e+002, 9.874710e+001
3.269545e+002, 9.895252e+001
3.274366e+002, 9.910845e+001
3.279187e+002, 9.922524e+001
3.284008e+002, 9.926197e+001
3.288829e+002, 9.921811e+001
3.293651e+002, 9.908553e+001
3.298472e+002, 9.876550e+001
3.303293e+002, 9.824048e+001
3.308114e+002, 9.782771e+001
3.312935e+002, 9.793591e+001
3.317756e+002, 9.861471e+001
3.322578e+002, 9.891797e+001
3.327399e+002, 9.841580e+001
3.332220e+002, 9.783101e+001
3.337041e+002, 9.773606e+001
3.341862e+002, 9.810546e+001
3.346683e+002, 9.852739e+001
3.351505e+002, 9.873970e+001
3.356326e+002, 9.875310e+001
3.361147e+002, 9.870206e+001
3.365968e+002, 9.856682e+001
3.370789e+002, 9.839729e+001
3.375610e+002, 9.817589e+001
3.380432e+002, 9.793472e+001
3.385253e+002, 9.775727e+001
3.390074e+002, 9.768948e+001
3.394895e+002, 9.769179e+001
3.399716e+002, 9.765425e+001
3.404537e+002, 9.751507e+001
3.409359e+002, 9.745230e+001
3.414180e+002, 9.757063e+001
3.419001e+002, 9.775861e+001
3.423822e+002, 9.789054e+001
3.428643e+002, 9.793045e+001
3.433464e+002, 9.786864e+001
3.438286e+002, 9.766497e+001
3.443107e+002, 9.721152e+001
3.447928e+002, 9.695225e+001
3.452749e+002, 9.707504e+001
3.457570e+002, 9.726601e+001
3.462391e+002, 9.724760e+001
3.467213e+002, 9.702085e+001
3.472034e+002, 9.682046e+001
3.476855e+002, 9.688586e+001
3.481676e+002, 9.723935e+001
3.486497e+002, 9.733052e+001
3.491318e+002, 9.685654e+001
3.496140e+002, 9.647061e+001
3.500961e+002, 9.656172e+001
3.505782e+002, 9.696608e+001
3.510603e+002, 9.725987e+001
3.515424e+002, 9.717831e+001
3.520245e+002, 9.683597e+001
3.525067e+002, 9.672784e+001
3.529888e+002, 9.706348e+001
3.534709e+002, 9.737205e+001
3.539530e+002, 9.759859e+001
3.544351e+002, 9.776792e+001
3.549172e+002, 9.792745e+001
3.553994e+002, 9.809045e+001
3.558815e+002, 9.820316e+001
3.563636e+002, 9.816628e+001
3.568457e+002, 9.786344e+001
3.573278e+002, 9.764191e+001
3.578099e+002, 9.752475e+001
3.582920e+002, 9.746178e+001
3.587741e+002, 9.747279e+001
3.592563e+002, 9.752583e+001
3.597384e+002, 9.749867e+001
3.602205e+002, 9.724087e+001
3.607026e+002, 9.670286e+001
3.611847e+002, 9.642162e+001
3.616668e+002, 9.655606e+001
3.621490e+002, 9.676318e+001
3.626311e+002, 9.702993e+001
3.631132e+002, 9.727879e+001
3.635953e+002, 9.735790e+001
3.640774e+002, 9.715661e+001
3.645595e+002, 9.677351e+001
3.650417e+002, 9.664465e+001
3.655238e+002, 9.713431e+001
3.660059e+002, 9.737394e+001
3.664880e+002, 9.701742e+001
3.669701e+002, 9.649999e+001
3.674522e+002, 9.629862e+001
3.679344e+002, 9.655034e+001
3.684165e+002, 9.695013e+001
3.688986e+002, 9.699798e+001
3.693807e+002, 9.651843e+001
3.698628e+002, 9.616287e+001
3.703449e+002, 9.602157e+001
3.708271e+002, 9.594274e+001
3.713092e+002, 9.585623e+001
3.717913e+002, 9.575748e+001
3.722734e+002, 9.567661e+001
3.727555e+002, 9.566597e+001
3.732376e+002, 9.572033e+001
3.737198e+002, 9.562849e+001
3.742019e+002, 9.515203e+001
3.746840e+002, 9.483057e+001
3.751661e+002, 9.493675e+001
3.756482e+002, 9.528168e+001
3.761303e+002, 9.557636e+001
3.766125e+002, 9.568120e+001
3.770946e+002, 9.565871e+001
3.775767e+002, 9.567045e+001
3.780588e+002, 9.578378e+001
3.785409e+002, 9.573428e+001
3.790230e+002, 9.512977e+001
3.795052e+002, 9.452759e+001
3.799873e+002, 9.446239e+001
3.804694e+002, 9.503230e+001
3.809515e+002, 9.568639e+001
3.814336e+002, 9.585258e+001
3.819157e+002, 9.554052e+001
3.823979e+002, 9.520045e+001
3.828800e+002, 9.478392e+001
3.833621e+002, 9.448538e+001
3.838442e+002, 9.450981e+001
3.843263e+002, 9.476759e+001
3.848084e+002, 9.493477e+001
3.852906e+002, 9.472253e+001
3.857727e+002, 9.431823e+001
3.862548e+002, 9.416673e+001
3.867369e+002, 9.432273e+001
3.872190e+002, 9.453684e+001
3.877011e+002, 9.469787e+001
3.881833e+002, 9.482159e+001
3.886654e+002, 9.492725e+001
3.891475e+002, 9.502053e+001
3.896296e+002, 9.509313e+001
3.901117e+002, 9.518279e+001
3.905938e+002, 9.527089e+001
3.910760e+002, 9.517500e+001
3.915581e+002, 9.472826e+001
3.920402e+002, 9.420654e+001
3.925223e+002, 9.402495e+001
3.930044e+002, 9.420628e+001
3.934865e+002, 9.435021e+001
3.939687e+002, 9.424755e+001
3.944508e+002, 9.402821e+001
3.949329e+002, 9.391442e+001
3.954150e+002, 9.394596e+001
3.958971e+002, 9.397991e+001
3.963792e+002, 9.386369e+001
3.968614e+002, 9.361716e+001
3.973435e+002, 9.348008e+001
3.978256e+002, 9.350148e+001
3.983077e+002, 9.359892e+001
3.987898e+002, 9.377721e+001
3.992719e+002, 9.399836e+001
3.997540e+002, 9.413335e+001
4.002361e+002, 9.410951e+001
4.007183e+002, 9.397035e+001
4.012004e+002, 9.383268e+001
4.016825e+002, 9.365705e+001
4.021646e+002, 9.354844e+001
4.026467e+002, 9.358746e+001
4.031288e+002, 9.367464e+001
4.036110e+002, 9.370066e+001
4.040931e+002, 9.363998e+001
4.045752e+002, 9.352026e+001
4.050573e+002, 9.335578e+001
4.055394e+002, 9.311225e+001
4.060215e+002, 9.302321e+001
4.065037e+002, 9.326829e+001
4.069858e+002, 9.347781e+001
4.074679e+002, 9.340288e+001
4.079500e+002, 9.313798e+001
4.084321e+002, 9.296113e+001
4.089142e+002, 9.305836e+001
4.093964e+002, 9.334669e+001
4.098785e+002, 9.344233e+001
4.103606e+002, 9.314716e+001
4.108427e+002, 9.290421e+001
4.113248e+002, 9.271360e+001
4.118069e+002, 9.260874e+001
4.122891e+002, 9.266258e+001
4.127712e+002, 9.287516e+001
4.132533e+002, 9.311508e+001
4.137354e+002, 9.318719e+001
4.142175e+002, 9.302428e+001
4.146996e+002, 9.296461e+001
4.151818e+002, 9.309488e+001
4.156639e+002, 9.325133e+001
4.161460e+002, 9.343965e+001
4.166281e+002, 9.360583e+001
4.171102e+002, 9.362473e+001
4.175923e+002, 9.336911e+001
4.180745e+002, 9.295311e+001
4.185566e+002, 9.280048e+001
4.190387e+002, 9.307834e+001
4.195208e+002, 9.324936e+001
4.200029e+002, 9.303074e+001
4.204850e+002, 9.270077e+001
4.209672e+002, 9.252248e+001
4.214493e+002, 9.256130e+001
4.219314e+002, 9.266351e+001
4.224135e+002, 9.270653e+001
4.228956e+002, 9.268835e+001
4.233777e+002, 9.253667e+001
4.238599e+002, 9.206400e+001
4.243420e+002, 9.170884e+001
4.248241e+002, 9.191673e+001
4.253062e+002, 9.253555e+001
4.257883e+002, 9.301283e+001
4.262704e+002, 9.304717e+001
4.267526e+002, 9.284005e+001
4.272347e+002, 9.265872e+001
4.277168e+002, 9.250292e+001
4.281989e+002, 9.239807e+001
4.286810e+002, 9.239883e+001
4.291631e+002, 9.243951e+001
4.296453e+002, 9.235730e+001
4.301274e+002, 9.205448e+001
4.306095e+002, 9.184936e+001
4.310916e+002, 9.199315e+001
4.315737e+002, 9.233156e+001
4.320558e+002, 9.256445e+001
4.325380e+002, 9.261614e+001
4.330201e+002, 9.254931e+001
4.335022e+002, 9.238927e+001
4.339843e+002, 9.210881e+001
4.344664e+002, 9.201145e+001
4.349485e+002, 9.244938e+001
4.354307e+002, 9.278169e+001
4.359128e+002, 9.239106e+001
4.363949e+002, 9.148158e+001
4.368770e+002, 9.079508e+001
4.373591e+002, 9.077903e+001
4.378412e+002, 9.127587e+001
4.383234e+002, 9.168957e+001
4.388055e+002, 9.198558e+001
4.392876e+002, 9.224170e+001
4.397697e+002, 9.249563e+001
4.402518e+002, 9.269321e+001
4.407339e+002, 9.276530e+001
4.412160e+002, 9.270686e+001
4.416982e+002, 9.258556e+001
4.421803e+002, 9.248193e+001
4.426624e+002, 9.240799e+001
4.431445e+002, 9.226365e+001
4.436266e+002, 9.184746e+001
4.441087e+002, 9.157180e+001
4.445909e+002, 9.169393e+001
4.450730e+002, 9.201933e+001
4.455551e+002, 9.221577e+001
4.460372e+002, 9.210263e+001
4.465193e+002, 9.181873e+001
4.470014e+002, 9.166543e+001
4.474836e+002, 9.166865e+001
4.479657e+002, 9.172651e+001
4.484478e+002, 9.197308e+001
4.489299e+002, 9.215617e+001
4.494120e+002, 9.204372e+001
4.498941e+002, 9.165864e+001
4.503763e+002, 9.129691e+001
4.508584e+002, 9.119884e+001
4.513405e+002, 9.131419e+001
4.518226e+002, 9.145872e+001
4.523047e+002, 9.167076e+001
4.527868e+002, 9.180462e+001
4.532690e+002, 9.168930e+001
4.537511e+002, 9.146044e+001
4.542332e+002, 9.131673e+001
4.547153e+002, 9.134401e+001
4.551974e+002, 9.137794e+001
4.556795e+002, 9.120671e+001
4.561617e+002, 9.090339e+001
4.566438e+002, 9.082596e+001
4.571259e+002, 9.115231e+001
4.576080e+002, 9.157542e+001
4.580901e+002, 9.169549e+001
4.585722e+002, 9.152677e+001
4.590544e+002, 9.126083e+001
4.595365e+002, 9.070592e+001
4.600186e+002, 9.023084e+001
4.605007e+002, 9.025949e+001
4.609828e+002, 9.072324e+001
4.614649e+002, 9.116434e+001
4.619471e+002, 9.131078e+001
4.624292e+002, 9.121416e+001
4.629113e+002, 9.108543e+001
4.633934e+002, 9.089742e+001
4.638755e+002, 9.071530e+001
4.643576e+002, 9.053352e+001
4.648398e+002, 9.036586e+001
4.653219e+002, 9.020826e+001
4.658040e+002, 9.006813e+001
4.662861e+002, 8.999045e+001
4.667682e+002, 9.002689e+001
4.672503e+002, 9.018513e+001
4.677325e+002, 9.038528e+001
4.682146e+002, 9.082829e+001
4.686967e+002, 9.109408e+001
4.691788e+002, 9.089170e+001
4.696609e+002, 9.048621e+001
4.701430e+002, 9.029012e+001
4.706252e+002, 9.049075e+001
4.711073e+002, 9.087454e+001
4.715894e+002, 9.105238e+001
4.720715e+002, 9.096481e+001
4.725536e+002, 9.093547e+001
4.730357e+002, 9.111839e+001
4.735179e+002, 9.127776e+001
4.740000e+002, 9.127808e+001
4.744821e+002, 9.113255e+001
4.749642e+002, 9.092619e+001
4.754463e+002, 9.066402e+001
4.759284e+002, 9.039165e+001
4.764106e+002, 9.021298e+001
4.768927e+002, 9.013881e+001
4.773748e+002, 9.009592e+001
4.778569e+002, 9.006408e+001
4.783390e+002, 9.003703e+001
4.788211e+002, 8.999629e+001
4.793033e+002, 8.992641e+001
4.797854e+002, 8.989587e+001
4.802675e+002, 9.000420e+001
4.807496e+002, 9.015831e+001
4.812317e+002, 9.016191e+001
4.817138e+002, 8.997473e+001
4.821959e+002, 8.977280e+001
4.826780e+002, 8.973857e+001
4.831602e+002, 8.986359e+001
4.836423e+002, 8.981330e+001
4.841244e+002, 8.940335e+001
4.846065e+002, 8.902950e+001
4.850886e+002, 8.889365e+001
4.855707e+002, 8.889344e+001
4.860529e+002, 8.883934e+001
4.865350e+002, 8.866067e+001
4.870171e+002, 8.843331e+001
4.874992e+002, 8.829089e+001
4.879813e+002, 8.830007e+001
4.884634e+002, 8.820596e+001
4.889456e+002, 8.785050e+001
4.894277e+002, 8.756023e+001
4.899098e+002, 8.753316e+001
4.903919e+002, 8.769976e+001
4.908740e+002, 8.788937e+001
4.913561e+002, 8.800648e+001
4.918383e+002, 8.805819e+001
4.923204e+002, 8.806270e+001
4.928025e+002, 8.802050e+001
4.932846e+002, 8.793028e+001
4.937667e+002, 8.770192e+001
4.942488e+002, 8.749114e+001
4.947310e+002, 8.746331e+001
4.952131e+002, 8.759728e+001
4.956952e+002, 8.764536e+001
4.961773e+002, 8.730592e+001
4.966594e+002, 8.676108e+001
4.971415e+002, 8.654783e+001
4.976237e+002, 8.673689e+001
4.981058e+002, 8.697697e+001
4.985879e+002, 8.713723e+001
4.990700e+002, 8.719964e+001
4.995521e+002, 8.711761e+001
5.000342e+002, 8.680420e+001
5.005164e+002, 8.655370e+001
5.009985e+002, 8.653762e+001
5.014806e+002, 8.667466e+001
5.019627e+002, 8.685437e+001
5.024448e+002, 8.705573e+001
5.029269e+002, 8.719138e+001
5.034091e+002, 8.714471e+001
5.038912e+002, 8.690678e+001
5.043733e+002, 8.686298e+001
5.048554e+002, 8.739992e+001
5.053375e+002, 8.767925e+001
5.058196e+002, 8.711625e+001
5.063018e+002, 8.618992e+001
5.067839e+002, 8.567086e+001
5.072660e+002, 8.582596e+001
5.077481e+002, 8.627442e+001
5.082302e+002, 8.641955e+001
5.087123e+002, 8.613966e+001
5.091945e+002, 8.599706e+001
5.096766e+002, 8.612344e+001
5.101587e+002, 8.625596e+001
5.106408e+002, 8.634780e+001
5.111229e+002, 8.636523e+001
5.116050e+002, 8.621932e+001
5.120872e+002, 8.581703e+001
5.125693e+002, 8.539189e+001
5.130514e+002, 8.546368e+001
5.135335e+002, 8.613069e+001
5.140156e+002, 8.652809e+001
5.144977e+002, 8.630177e+001
5.149799e+002, 8.590708e+001
5.154620e+002, 8.572771e+001
5.159441e+002, 8.573775e+001
5.164262e+002, 8.573390e+001
5.169083e+002, 8.561541e+001
5.173904e+002, 8.544512e+001
5.178726e+002, 8.528767e+001
5.183547e+002, 8.514613e+001
5.188368e+002, 8.503643e+001
5.193189e+002, 8.495611e+001
5.198010e+002, 8.492373e+001
5.202831e+002, 8.501572e+001
5.207653e+002, 8.531734e+001
5.212474e+002, 8.547424e+001
5.217295e+002, 8.525072e+001
5.222116e+002, 8.498100e+001
5.226937e+002, 8.502363e+001
5.231758e+002, 8.534094e+001
5.236580e+002, 8.559436e+001
5.241401e+002, 8.552583e+001
5.246222e+002, 8.521055e+001
5.251043e+002, 8.504240e+001
5.255864e+002, 8.525252e+001
5.260685e+002, 8.527696e+001
5.265507e+002, 8.488627e+001
5.270328e+002, 8.442635e+001
5.275149e+002, 8.416249e+001
5.279970e+002, 8.413167e+001
5.284791e+002, 8.423911e+001
5.289612e+002, 8.449935e+001
5.294434e+002, 8.484175e+001
5.299255e+002, 8.475877e+001
5.304076e+002, 8.400219e+001
5.308897e+002, 8.339924e+001
5.313718e+002, 8.345022e+001
5.318539e+002, 8.377005e+001
5.323361e+002, 8.398148e+001
5.328182e+002, 8.401761e+001
5.333003e+002, 8.402892e+001
5.337824e+002, 8.414635e+001
5.342645e+002, 8.430349e+001
5.347466e+002, 8.434370e+001
5.352288e+002, 8.424072e+001
5.357109e+002, 8.410589e+001
5.361930e+002, 8.401534e+001
5.366751e+002, 8.396451e+001
5.371572e+002, 8.391992e+001
5.376393e+002, 8.390750e+001
5.381215e+002, 8.386882e+001
5.386036e+002, 8.375136e+001
5.390857e+002, 8.361458e+001
5.395678e+002, 8.353020e+001
5.400499e+002, 8.351347e+001
5.405320e+002, 8.354514e+001
5.410142e+002, 8.362225e+001
5.414963e+002, 8.374978e+001
5.419784e+002, 8.374166e+001
5.424604e+002, 8.345383e+001
5.429426e+002, 8.319613e+001
5.434247e+002, 8.306890e+001
5.439068e+002, 8.298511e+001
5.443889e+002, 8.281935e+001
5.448710e+002, 8.254443e+001
5.453531e+002, 8.229440e+001
5.458353e+002, 8.223063e+001
5.463174e+002, 8.233945e+001
5.467995e+002, 8.248367e+001
5.472816e+002, 8.271272e+001
5.477637e+002, 8.285620e+001
5.482458e+002, 8.268430e+001
5.487280e+002, 8.238193e+001
5.492101e+002, 8.225239e+001
5.496922e+002, 8.238477e+001
5.501743e+002, 8.261298e+001
5.506564e+002, 8.301342e+001
5.511385e+002, 8.340385e+001
5.516207e+002, 8.329724e+001
5.521028e+002, 8.258049e+001
5.525849e+002, 8.181578e+001
5.530670e+002, 8.153374e+001
5.535491e+002, 8.173754e+001
5.540313e+002, 8.191149e+001
5.545134e+002, 8.205330e+001
5.549955e+002, 8.217391e+001
5.554776e+002, 8.225884e+001
5.559597e+002, 8.233333e+001
5.564418e+002, 8.245296e+001
5.569240e+002, 8.262017e+001
5.574061e+002, 8.274029e+001
5.578882e+002, 8.268315e+001
5.583703e+002, 8.244009e+001
5.588524e+002, 8.227106e+001
5.593345e+002, 8.223030e+001
5.598167e+002, 8.218837e+001
5.602988e+002, 8.206975e+001
5.607809e+002, 8.193835e+001
5.612630e+002, 8.189179e+001
5.617451e+002, 8.196379e+001
5.622272e+002, 8.201638e+001
5.627094e+002, 8.190472e+001
5.631915e+002, 8.167468e+001
5.636736e+002, 8.145138e+001
5.641557e+002, 8.122633e+001
5.646378e+002, 8.113058e+001
5.651199e+002, 8.132908e+001
5.656021e+002, 8.173795e+001
5.660842e+002, 8.197300e+001
5.665663e+002, 8.198432e+001
5.670484e+002, 8.189745e+001
5.675305e+002, 8.167851e+001
5.680126e+002, 8.142217e+001
5.684948e+002, 8.124241e+001
5.689769e+002, 8.116076e+001
5.694590e+002, 8.113816e+001
5.699411e+002, 8.114532e+001
5.704232e+002, 8.118044e+001
5.709053e+002, 8.120805e+001
5.713875e+002, 8.132260e+001
5.718696e+002, 8.129391e+001
5.723517e+002, 8.098249e+001
5.728338e+002, 8.058414e+001
5.733159e+002, 8.023063e+001
5.737980e+002, 7.996438e+001
5.742802e+002, 7.984428e+001
5.747623e+002, 7.997183e+001
5.752444e+002, 8.029400e+001
5.757265e+002, 8.061243e+001
5.762086e+002, 8.094543e+001
5.766907e+002, 8.119938e+001
5.771729e+002, 8.134850e+001
5.776550e+002, 8.137045e+001
5.781371e+002, 8.120683e+001
5.786192e+002, 8.079520e+001
5.791013e+002, 8.047720e+001
5.795834e+002, 8.038913e+001
5.800656e+002, 8.045765e+001
5.805477e+002, 8.069615e+001
5.810298e+002, 8.104861e+001
5.815119e+002, 8.123551e+001
5.819940e+002, 8.105333e+001
5.824761e+002, 8.062528e+001
5.829583e+002, 8.037302e+001
5.834404e+002, 8.044505e+001
5.839225e+002, 8.047203e+001
5.844046e+002, 8.033712e+001
5.848867e+002, 8.024929e+001
5.853688e+002, 8.046731e+001
5.858510e+002, 8.087029e+001
5.863331e+002, 8.104581e+001
5.868152e+002, 8.066820e+001
5.872973e+002, 8.002970e+001
5.877794e+002, 7.984509e+001
5.882615e+002, 8.018940e+001
5.887437e+002, 8.048179e+001
5.892258e+002, 8.063266e+001
5.897079e+002, 8.062625e+001
5.901900e+002, 8.036343e+001
5.906721e+002, 7.989968e+001
5.911542e+002, 7.960445e+001
5.916364e+002, 7.965401e+001
5.921185e+002, 7.986303e+001
5.926006e+002, 8.016734e+001
5.930827e+002, 8.050748e+001
5.935648e+002, 8.068803e+001
5.940469e+002, 8.062688e+001
5.945291e+002, 8.050819e+001
5.950112e+002, 8.062833e+001
5.954933e+002, 8.113216e+001
5.959754e+002, 8.120248e+001
5.964575e+002, 8.048695e+001
5.969396e+002, 7.979890e+001
5.974218e+002, 7.941286e+001
5.979039e+002, 7.923569e+001
5.983860e+002, 7.909651e+001
5.988681e+002, 7.893896e+001
5.993502e+002, 7.886152e+001
5.998323e+002, 7.904966e+001
6.003145e+002, 7.948893e+001
6.007966e+002, 7.975694e+001
6.012787e+002, 7.979734e+001
6.017608e+002, 7.974467e+001
6.022429e+002, 7.959535e+001
6.027250e+002, 7.942377e+001
6.032072e+002, 7.935413e+001
6.036893e+002, 7.942274e+001
6.041714e+002, 7.952575e+001
6.046535e+002, 7.969753e+001
6.051356e+002, 7.983322e+001
6.056177e+002, 7.971550e+001
6.060999e+002, 7.934970e+001
6.065820e+002, 7.901736e+001
6.070641e+002, 7.892828e+001
6.075462e+002, 7.902907e+001
6.080283e+002, 7.907751e+001
6.085104e+002, 7.902572e+001
6.089926e+002, 7.898846e+001
6.094747e+002, 7.896336e+001
6.099568e+002, 7.895979e+001
6.104389e+002, 7.900701e+001
6.109210e+002, 7.908523e+001
6.114031e+002, 7.913004e+001
6.118853e+002, 7.909084e+001
6.123674e+002, 7.901034e+001
6.128495e+002, 7.896407e+001
6.133316e+002, 7.894907e+001
6.138137e+002, 7.903625e+001
6.142958e+002, 7.940073e+001
6.147780e+002, 7.966354e+001
6.152601e+002, 7.925209e+001
6.157422e+002, 7.831131e+001
6.162243e+002, 7.776113e+001
6.167064e+002, 7.810423e+001
6.171885e+002, 7.857860e+001
6.176707e+002, 7.877295e+001
6.181528e+002, 7.873079e+001
6.186349e+002, 7.849528e+001
6.191170e+002, 7.809075e+001
6.195991e+002, 7.770547e+001
6.200812e+002, 7.756920e+001
6.205634e+002, 7.769752e+001
6.210455e+002, 7.783131e+001
6.215276e+002, 7.805905e+001
6.220097e+002, 7.817776e+001
6.224918e+002, 7.807805e+001
6.229739e+002, 7.788906e+001
6.234561e+002, 7.774583e+001
6.239382e+002, 7.767294e+001
6.244203e+002, 7.759413e+001
6.249023e+002, 7.736332e+001
6.253845e+002, 7.709160e+001
6.258666e+002, 7.716383e+001
6.263487e+002, 7.762731e+001
6.268308e+002, 7.793877e+001
6.273129e+002, 7.778638e+001
6.277950e+002, 7.740168e+001
6.282772e+002, 7.721798e+001
6.287593e+002, 7.725623e+001
6.292414e+002, 7.733521e+001
6.297235e+002, 7.738361e+001
6.302056e+002, 7.750384e+001
6.306877e+002, 7.795958e+001
6.311699e+002, 7.853062e+001
6.316520e+002, 7.862247e+001
6.321341e+002, 7.796097e+001
6.326162e+002, 7.706423e+001
6.330983e+002, 7.688728e+001
6.335804e+002, 7.763118e+001
6.340626e+002, 7.805899e+001
6.345447e+002, 7.804255e+001
6.350268e+002, 7.783806e+001
6.355089e+002, 7.740575e+001
6.359910e+002, 7.692793e+001
6.364731e+002, 7.671848e+001
6.369553e+002, 7.690737e+001
6.374374e+002, 7.711485e+001
6.379195e+002, 7.700595e+001
6.384016e+002, 7.674911e+001
6.388837e+002, 7.669262e+001
6.393658e+002, 7.686887e+001
6.398480e+002, 7.704088e+001
6.403301e+002, 7.706562e+001
6.408122e+002, 7.695963e+001
6.412943e+002, 7.677407e+001
6.417764e+002, 7.629369e+001
6.422585e+002, 7.606104e+001
6.427407e+002, 7.633300e+001
6.432228e+002, 7.662295e+001
6.437049e+002, 7.656578e+001
6.441870e+002, 7.626675e+001
6.446691e+002, 7.606178e+001
6.451512e+002, 7.613717e+001
6.456334e+002, 7.634037e+001
6.461155e+002, 7.642025e+001
6.465976e+002, 7.637840e+001
6.470797e+002, 7.637715e+001
6.475618e+002, 7.644530e+001
6.480439e+002, 7.654997e+001
6.485261e+002, 7.672641e+001
6.490082e+002, 7.692007e+001
6.494903e+002, 7.694767e+001
6.499724e+002, 7.668979e+001
6.504545e+002, 7.642847e+001
6.509366e+002, 7.626158e+001
6.514188e+002, 7.615788e+001
6.519009e+002, 7.610282e+001
6.523830e+002, 7.608065e+001
6.528651e+002, 7.603800e+001
6.533472e+002, 7.592763e+001
6.538293e+002, 7.578251e+001
6.543115e+002, 7.574694e+001
6.547936e+002, 7.592124e+001
6.552757e+002, 7.595988e+001
6.557578e+002, 7.561928e+001
6.562399e+002, 7.529896e+001
6.567220e+002, 7.526112e+001
6.572042e+002, 7.543098e+001
6.576863e+002, 7.555218e+001
6.581684e+002, 7.550362e+001
6.586505e+002, 7.541129e+001
6.591326e+002, 7.541198e+001
6.596147e+002, 7.546374e+001
6.600969e+002, 7.542292e+001
6.605790e+002, 7.525541e+001
6.610611e+002, 7.512218e+001
6.615432e+002, 7.519768e+001
6.620253e+002, 7.544444e+001
6.625074e+002, 7.545598e+001
6.629896e+002, 7.487081e+001
6.634717e+002, 7.453072e+001
6.639538e+002, 7.466508e+001
6.644359e+002, 7.494944e+001
6.649180e+002, 7.522002e+001
6.654001e+002, 7.540610e+001
6.658823e+002, 7.538657e+001
6.663644e+002, 7.500890e+001
6.668465e+002, 7.451480e+001
6.673286e+002, 7.440254e+001
6.678107e+002, 7.465755e+001
6.682928e+002, 7.474276e+001
6.687750e+002, 7.447667e+001
6.692571e+002, 7.416189e+001
6.697392e+002, 7.407236e+001
6.702213e+002, 7.419766e+001
6.707034e+002, 7.436169e+001
6.711855e+002, 7.477139e+001
6.716677e+002, 7.496043e+001
6.721498e+002, 7.452095e+001
6.726319e+002, 7.393826e+001
6.731140e+002, 7.376796e+001
6.735961e+002, 7.404215e+001
6.740782e+002, 7.443449e+001
6.745604e+002, 7.473139e+001
6.750425e+002, 7.490528e+001
6.755246e+002, 7.482382e+001
6.760067e+002, 7.441016e+001
6.764888e+002, 7.408241e+001
6.769709e+002, 7.392668e+001
6.774531e+002, 7.387746e+001
6.779352e+002, 7.392324e+001
6.784173e+002, 7.403231e+001
6.788994e+002, 7.409054e+001
6.793815e+002, 7.409814e+001
6.798636e+002, 7.401634e+001
6.803458e+002, 7.369933e+001
6.808279e+002, 7.332564e+001
6.813100e+002, 7.321461e+001
6.817921e+002, 7.339748e+001
6.822742e+002, 7.362904e+001
6.827563e+002, 7.371483e+001
6.832385e+002, 7.367533e+001
6.837206e+002, 7.359473e+001
6.842027e+002, 7.338359e+001
6.846848e+002, 7.332646e+001
6.851669e+002, 7.369912e+001
6.856490e+002, 7.402522e+001
6.861312e+002, 7.398101e+001
6.866133e+002, 7.365640e+001
6.870954e+002, 7.334875e+001
6.875775e+002, 7.315770e+001
6.880596e+002, 7.303992e+001
6.885417e+002, 7.293114e+001
6.890239e+002, 7.287090e+001
6.895060e+002, 7.301218e+001
6.899881e+002, 7.337556e+001
6.904702e+002, 7.368845e+001
6.909523e+002, 7.373772e+001
6.914344e+002, 7.356123e+001
6.919166e+002, 7.333587e+001
6.923987e+002, 7.283581e+001
6.928808e+002, 7.266126e+001
6.933629e+002, 7.319608e+001
6.938450e+002, 7.371712e+001
6.943271e+002, 7.373708e+001
6.948093e+002, 7.338155e+001
6.952914e+002, 7.303320e+001
6.957735e+002, 7.283851e+001
6.962556e+002, 7.277329e+001
6.967377e+002, 7.284276e+001
6.972198e+002, 7.302076e+001
6.977020e+002, 7.326580e+001
6.981841e+002, 7.358422e+001
6.986662e+002, 7.375532e+001
6.991483e+002, 7.359055e+001
6.996304e+002, 7.317934e+001
7.001125e+002, 7.286160e+001
7.005947e+002, 7.260934e+001
7.010768e+002, 7.250472e+001
7.015589e+002, 7.264441e+001
7.020410e+002, 7.284429e+001
7.025231e+002, 7.304277e+001
7.030052e+002, 7.320485e+001
7.034874e+002, 7.327259e+001
7.039695e+002, 7.321286e+001
7.044516e+002, 7.312659e+001
7.049337e+002, 7.319002e+001
7.054158e+002, 7.334775e+001
7.058979e+002, 7.329086e+001
7.063801e+002, 7.295979e+001
7.068622e+002, 7.263412e+001
7.073442e+002, 7.248901e+001
7.078264e+002, 7.244595e+001
7.083085e+002, 7.227700e+001
7.087906e+002, 7.181292e+001
7.092727e+002, 7.165766e+001
7.097548e+002, 7.219544e+001
7.102369e+002, 7.271544e+001
7.107191e+002, 7.278409e+001
7.112012e+002, 7.253627e+001
7.116833e+002, 7.220782e+001
7.121654e+002, 7.189024e+001
7.126475e+002, 7.168735e+001
7.131296e+002, 7.181335e+001
7.136118e+002, 7.218339e+001
7.140939e+002, 7.229503e+001
7.145760e+002, 7.209431e+001
7.150581e+002, 7.188186e+001
7.155402e+002, 7.175966e+001
7.160223e+002, 7.173745e+001
7.165045e+002, 7.186787e+001
7.169866e+002, 7.218692e+001
7.174687e+002, 7.242476e+001
7.179508e+002, 7.259102e+001
7.184329e+002, 7.263622e+001
7.189150e+002, 7.243889e+001
7.193972e+002, 7.214520e+001
7.198793e+002, 7.195560e+001
7.203614e+002, 7.192223e+001
7.208435e+002, 7.196828e+001
7.213256e+002, 7.207043e+001
7.218077e+002, 7.217976e+001
7.222899e+002, 7.205715e+001
7.227720e+002, 7.166293e+001
7.232541e+002, 7.136359e+001
7.237362e+002, 7.130583e+001
7.242183e+002, 7.134272e+001
7.247004e+002, 7.127532e+001
7.251826e+002, 7.110864e+001
7.256647e+002, 7.111710e+001
7.261468e+002, 7.146404e+001
7.266289e+002, 7.181097e+001
7.271110e+002, 7.206834e+001
7.275931e+002, 7.224349e+001
7.280753e+002, 7.233617e+001
7.285574e+002, 7.235384e+001
7.290395e+002, 7.231772e+001
7.295216e+002, 7.223979e+001
7.300037e+002, 7.212492e+001
7.304858e+002, 7.195321e+001
7.309680e+002, 7.171965e+001
7.314501e+002, 7.161922e+001
7.319322e+002, 7.177271e+001
7.324143e+002, 7.186085e+001
7.328964e+002, 7.148032e+001
7.333785e+002, 7.079227e+001
7.338607e+002, 7.063548e+001
7.343428e+002, 7.154710e+001
7.348249e+002, 7.215537e+001
7.353070e+002, 7.202654e+001
7.357891e+002, 7.161601e+001
7.362712e+002, 7.113170e+001
7.367534e+002, 7.070787e+001
7.372355e+002, 7.057758e+001
7.377176e+002, 7.087239e+001
7.381997e+002, 7.134171e+001
7.386818e+002, 7.165449e+001
7.391639e+002, 7.181461e+001
7.396461e+002, 7.185532e+001
7.401282e+002, 7.177187e+001
7.406103e+002, 7.158216e+001
7.410924e+002, 7.119691e+001
7.415745e+002, 7.078254e+001
7.420566e+002, 7.075590e+001
7.425388e+002, 7.126061e+001
7.430209e+002, 7.162006e+001
7.435030e+002, 7.182712e+001
7.439851e+002, 7.182809e+001
7.444672e+002, 7.139046e+001
7.449493e+002, 7.080621e+001
7.454315e+002, 7.054607e+001
7.459136e+002, 7.072392e+001
7.463957e+002, 7.099629e+001
7.468778e+002, 7.096582e+001
7.473599e+002, 7.078242e+001
7.478420e+002, 7.100526e+001
7.483242e+002, 7.164964e+001
7.488063e+002, 7.205869e+001
7.492884e+002, 7.198603e+001
7.497705e+002, 7.165869e+001
7.502526e+002, 7.128845e+001
7.507347e+002, 7.086818e+001
7.512169e+002, 7.059901e+001
7.516990e+002, 7.060837e+001
7.521811e+002, 7.059033e+001
7.526632e+002, 7.041336e+001
7.531453e+002, 7.022725e+001
7.536274e+002, 7.015196e+001
7.541096e+002, 7.020123e+001
7.545917e+002, 7.036407e+001
7.550738e+002, 7.069511e+001
7.555559e+002, 7.100933e+001
7.560380e+002, 7.101505e+001
7.565201e+002, 7.077154e+001
7.570023e+002, 7.051099e+001
7.574844e+002, 7.026474e+001
7.579665e+002, 7.009972e+001
7.584486e+002, 7.008434e+001
7.589307e+002, 7.016566e+001
7.594128e+002, 7.016295e+001
7.598950e+002, 6.999271e+001
7.603771e+002, 6.988970e+001
7.608592e+002, 6.986932e+001
7.613413e+002, 6.989458e+001
7.618234e+002, 6.995601e+001
7.623055e+002, 7.004826e+001
7.627877e+002, 7.019106e+001
7.632698e+002, 7.039410e+001
7.637519e+002, 7.053297e+001
7.642340e+002, 7.051435e+001
7.647161e+002, 7.037402e+001
7.651982e+002, 7.005470e+001
7.656804e+002, 6.962917e+001
7.661625e+002, 6.952245e+001
7.666446e+002, 6.991520e+001
7.671267e+002, 7.045874e+001
7.676088e+002, 7.070879e+001
7.680909e+002, 7.066070e+001
7.685731e+002, 7.044812e+001
7.690552e+002, 6.982104e+001
7.695373e+002, 6.944046e+001
7.700194e+002, 6.967896e+001
7.705015e+002, 7.002504e+001
7.709836e+002, 7.008961e+001
7.714658e+002, 6.989095e+001
7.719479e+002, 6.965052e+001
7.724300e+002, 6.938403e+001
7.729121e+002, 6.918073e+001
7.733942e+002, 6.914451e+001
7.738763e+002, 6.919499e+001
7.743585e+002, 6.920794e+001
7.748406e+002, 6.917054e+001
7.753227e+002, 6.913052e+001
7.758048e+002, 6.911552e+001
7.762869e+002, 6.913729e+001
7.767690e+002, 6.926881e+001
7.772512e+002, 6.956282e+001
7.777333e+002, 6.958593e+001
7.782154e+002, 6.912533e+001
7.786975e+002, 6.873427e+001
7.791796e+002, 6.873352e+001
7.796617e+002, 6.898462e+001
7.801439e+002, 6.929652e+001
7.806260e+002, 6.971016e+001
7.811081e+002, 6.996178e+001
7.815902e+002, 6.994955e+001
7.820723e+002, 6.979359e+001
7.825544e+002, 6.948189e+001
7.830366e+002, 6.911060e+001
7.835187e+002, 6.880717e+001
7.840008e+002, 6.861240e+001
7.844829e+002, 6.852898e+001
7.849650e+002, 6.860963e+001
7.854471e+002, 6.877234e+001
7.859293e+002, 6.872792e+001
7.864114e+002, 6.847198e+001
7.868935e+002, 6.831851e+001
7.873756e+002, 6.834429e+001
7.878577e+002, 6.849880e+001
7.883398e+002, 6.876024e+001
7.888220e+002, 6.911621e+001
7.893040e+002, 6.945065e+001
7.897861e+002, 6.991092e+001
7.902682e+002, 7.014188e+001
7.907504e+002, 6.998499e+001
7.912325e+002, 6.971390e+001
7.917146e+002, 6.943640e+001
7.921967e+002, 6.919821e+001
7.926788e+002, 6.906925e+001
7.931609e+002, 6.908773e+001
7.936431e+002, 6.910707e+001
7.941252e+002, 6.894418e+001
7.946073e+002, 6.871674e+001
7.950894e+002, 6.866114e+001
7.955715e+002, 6.876937e+001
7.960536e+002, 6.890108e+001
7.965358e+002, 6.900035e+001
7.970179e+002, 6.908132e+001
7.975000e+002, 6.917862e+001
7.979821e+002, 6.929944e+001
7.984642e+002, 6.923279e+001
7.989464e+002, 6.876579e+001
7.994285e+002, 6.849633e+001
7.999106e+002, 6.882535e+001
8.003927e+002, 6.920573e+001
8.008748e+002, 6.918262e+001
8.013569e+002, 6.882944e+001
8.018391e+002, 6.856252e+001
8.023212e+002, 6.850311e+001
8.028033e+002, 6.853388e+001
8.032854e+002, 6.861989e+001
8.037675e+002, 6.874875e+001
8.042496e+002, 6.898812e+001
8.047318e+002, 6.926550e+001
8.052139e+002, 6.931348e+001
8.056960e+002, 6.897321e+001
8.061781e+002, 6.852071e+001
8.066602e+002, 6.842860e+001
8.071423e+002, 6.866611e+001
8.076245e+002, 6.881532e+001
8.081066e+002, 6.885514e+001
8.085887e+002, 6.882345e+001
8.090708e+002, 6.871348e+001
8.095529e+002, 6.857334e+001
8.100350e+002, 6.849174e+001
8.105172e+002, 6.849478e+001
8.109993e+002, 6.837143e+001
8.114814e+002, 6.794148e+001
8.119635e+002, 6.761680e+001
8.124456e+002, 6.753641e+001
8.129277e+002, 6.759231e+001
8.134099e+002, 6.776381e+001
8.138920e+002, 6.798428e+001
8.143741e+002, 6.804659e+001
8.148562e+002, 6.775873e+001
8.153383e+002, 6.746355e+001
8.158204e+002, 6.759518e+001
8.163026e+002, 6.797141e+001
8.167847e+002, 6.816763e+001
8.172668e+002, 6.815300e+001
8.177489e+002, 6.816028e+001
8.182310e+002, 6.832172e+001
8.187131e+002, 6.858493e+001
8.191953e+002, 6.889602e+001
8.196774e+002, 6.931523e+001
8.201595e+002, 6.935902e+001
8.206416e+002, 6.875935e+001
8.211237e+002, 6.829119e+001
8.216058e+002, 6.834875e+001
8.220880e+002, 6.860818e+001
8.225701e+002, 6.873160e+001
8.230522e+002, 6.871760e+001
8.235343e+002, 6.867393e+001
8.240164e+002, 6.867776e+001
8.244985e+002, 6.858898e+001
8.249807e+002, 6.817471e+001
8.254628e+002, 6.774744e+001
8.259449e+002, 6.777939e+001
8.264270e+002, 6.816804e+001
8.269091e+002, 6.833092e+001
8.273912e+002, 6.789979e+001
8.278734e+002, 6.730504e+001
8.283555e+002, 6.718800e+001
8.288376e+002, 6.743727e+001
8.293197e+002, 6.760174e+001
8.298018e+002, 6.764119e+001
8.302839e+002, 6.762081e+001
8.307661e+002, 6.757418e+001
8.312482e+002, 6.747089e+001
8.317303e+002, 6.721549e+001
8.322124e+002, 6.673501e+001
8.326945e+002, 6.665263e+001
8.331766e+002, 6.738377e+001
8.336588e+002, 6.791396e+001
8.341409e+002, 6.789963e+001
8.346230e+002, 6.770091e+001
8.351051e+002, 6.762783e+001
8.355872e+002, 6.764948e+001
8.360693e+002, 6.750887e+001
8.365515e+002, 6.689607e+001
8.370336e+002, 6.647732e+001
8.375157e+002, 6.684991e+001
8.379978e+002, 6.745493e+001
8.384799e+002, 6.764592e+001
8.389620e+002, 6.744543e+001
8.394442e+002, 6.714699e+001
8.399263e+002, 6.688795e+001
8.404084e+002, 6.672106e+001
8.408905e+002, 6.674657e+001
8.413726e+002, 6.693669e+001
8.418547e+002, 6.714709e+001
8.423369e+002, 6.737754e+001
8.428190e+002, 6.759708e+001
8.433011e+002, 6.782556e+001
8.437832e+002, 6.794205e+001
8.442653e+002, 6.777638e+001
8.447474e+002, 6.733636e+001
8.452296e+002, 6.697384e+001
8.457117e+002, 6.677543e+001
8.461938e+002, 6.652915e+001
8.466759e+002, 6.599361e+001
8.471580e+002, 6.561514e+001
8.476401e+002, 6.579063e+001
8.481223e+002, 6.631686e+001
8.486044e+002, 6.672871e+001
8.490865e+002, 6.690696e+001
8.495686e+002, 6.697239e+001
8.500507e+002, 6.694914e+001
8.505328e+002, 6.687851e+001
8.510150e+002, 6.676674e+001
8.514971e+002, 6.664928e+001
8.519792e+002, 6.662299e+001
8.524613e+002, 6.670464e+001
8.529434e+002, 6.676201e+001
8.534255e+002, 6.664276e+001
8.539077e+002, 6.641927e+001
8.543898e+002, 6.632736e+001
8.548719e+002, 6.636662e+001
8.553540e+002, 6.640044e+001
8.558361e+002, 6.638950e+001
8.563182e+002, 6.643023e+001
8.568004e+002, 6.662430e+001
8.572825e+002, 6.690234e+001
8.577646e+002, 6.704399e+001
8.582467e+002, 6.702517e+001
8.587288e+002, 6.691734e+001
8.592109e+002, 6.655954e+001
8.596931e+002, 6.630273e+001
8.601752e+002, 6.633698e+001
8.606573e+002, 6.650111e+001
8.611394e+002, 6.662348e+001
8.616215e+002, 6.667931e+001
8.621036e+002, 6.666735e+001
8.625858e+002, 6.653257e+001
8.630679e+002, 6.638940e+001
8.635500e+002, 6.636234e+001
8.640321e+002, 6.635159e+001
8.645142e+002, 6.616438e+001
8.649963e+002, 6.583267e+001
8.654785e+002, 6.559174e+001
8.659606e+002, 6.558019e+001
8.664427e+002, 6.570506e+001
8.669248e+002, 6.589082e+001
8.674069e+002, 6.609996e+001
8.678890e+002, 6.608672e+001
8.683712e+002, 6.582870e+001
8.688533e+002, 6.562497e+001
8.693354e+002, 6.559788e+001
8.698175e+002, 6.568608e+001
8.702996e+002, 6.583144e+001
8.707817e+002, 6.603571e+001
8.712639e+002, 6.610645e+001
8.717459e+002, 6.598516e+001
8.722280e+002, 6.583298e+001
8.727101e+002, 6.547720e+001
8.731923e+002, 6.528608e+001
8.736744e+002, 6.569560e+001
8.741565e+002, 6.641503e+001
8.746386e+002, 6.670589e+001
8.751207e+002, 6.630527e+001
8.756028e+002, 6.591546e+001
8.760850e+002, 6.589288e+001
8.765671e+002, 6.586146e+001
8.770492e+002, 6.540206e+001
8.775313e+002, 6.479028e+001
8.780134e+002, 6.452214e+001
8.784955e+002, 6.469617e+001
8.789777e+002, 6.503215e+001
8.794598e+002, 6.537681e+001
8.799419e+002, 6.568244e+001
8.804240e+002, 6.587897e+001
8.809061e+002, 6.597007e+001
8.813882e+002, 6.596262e+001
8.818704e+002, 6.585978e+001
8.823525e+002, 6.564384e+001
8.828346e+002, 6.527257e+001
8.833167e+002, 6.491929e+001
8.837988e+002, 6.502485e+001
8.842809e+002, 6.570415e+001
8.847631e+002, 6.592959e+001
8.852452e+002, 6.546408e+001
8.857273e+002, 6.514049e+001
8.862094e+002, 6.537483e+001
8.866915e+002, 6.574163e+001
8.871736e+002, 6.569169e+001
8.876558e+002, 6.526708e+001
8.881379e+002, 6.513122e+001
8.886200e+002, 6.561249e+001
8.891021e+002, 6.594502e+001
8.895842e+002, 6.590252e+001
8.900663e+002, 6.576089e+001
8.905485e+002, 6.573995e+001
8.910306e+002, 6.575632e+001
8.915127e+002, 6.555626e+001
8.919948e+002, 6.505379e+001
8.924769e+002, 6.470820e+001
8.929590e+002, 6.503088e+001
8.934412e+002, 6.547309e+001
8.939233e+002, 6.537936e+001
8.944054e+002, 6.496767e+001
8.948875e+002, 6.472826e+001
8.953696e+002, 6.475358e+001
8.958517e+002, 6.481566e+001
8.963339e+002, 6.473482e+001
8.968160e+002, 6.462492e+001
8.972981e+002, 6.478065e+001
8.977802e+002, 6.515868e+001
8.982623e+002, 6.530634e+001
8.987444e+002, 6.516795e+001
8.992266e+002, 6.496573e+001
8.997087e+002, 6.478071e+001
9.001908e+002, 6.465160e+001
9.006729e+002, 6.465377e+001
9.011550e+002, 6.479726e+001
9.016371e+002, 6.483517e+001
9.021193e+002, 6.469857e+001
9.026014e+002, 6.458453e+001
9.030835e+002, 6.457735e+001
9.035656e+002, 6.455579e+001
9.040477e+002, 6.433948e+001
9.045298e+002, 6.405637e+001
9.050120e+002, 6.408162e+001
9.054941e+002, 6.463451e+001
9.059762e+002, 6.497965e+001
9.064583e+002, 6.482272e+001
9.069404e+002, 6.453173e+001
9.074225e+002, 6.421902e+001
9.079047e+002, 6.396596e+001
9.083868e+002, 6.390667e+001
9.088689e+002, 6.402608e+001
9.093510e+002, 6.409431e+001
9.098331e+002, 6.390822e+001
9.103152e+002, 6.372307e+001
9.107974e+002, 6.386305e+001
9.112795e+002, 6.416311e+001
9.117616e+002, 6.432604e+001
9.122437e+002, 6.433393e+001
9.127258e+002, 6.430204e+001
9.132079e+002, 6.428458e+001
9.136901e+002, 6.423289e+001
9.141722e+002, 6.404117e+001
9.146543e+002, 6.375407e+001
9.151364e+002, 6.362018e+001
9.156185e+002, 6.364052e+001
9.161006e+002, 6.380439e+001
9.165828e+002, 6.413677e+001
9.170649e+002, 6.450479e+001
9.175470e+002, 6.484016e+001
9.180291e+002, 6.509202e+001
9.185112e+002, 6.504745e+001
9.189933e+002, 6.449618e+001
9.194755e+002, 6.419377e+001
9.199576e+002, 6.433561e+001
9.204397e+002, 6.444918e+001
9.209218e+002, 6.428196e+001
9.214039e+002, 6.403826e+001
9.218860e+002, 6.394323e+001
9.223682e+002, 6.399510e+001
9.228503e+002, 6.404804e+001
9.233324e+002, 6.413386e+001
9.238145e+002, 6.414869e+001
9.242966e+002, 6.403358e+001
9.247787e+002, 6.386273e+001
9.252609e+002, 6.359849e+001
9.257430e+002, 6.335011e+001
9.262251e+002, 6.337859e+001
9.267072e+002, 6.376982e+001
9.271893e+002, 6.408221e+001
9.276714e+002, 6.386906e+001
9.281536e+002, 6.357339e+001
9.286357e+002, 6.374128e+001
9.291178e+002, 6.413084e+001
9.295999e+002, 6.419830e+001
9.300820e+002, 6.391793e+001
9.305641e+002, 6.374652e+001
9.310463e+002, 6.399483e+001
9.315284e+002, 6.438364e+001
9.320105e+002, 6.447881e+001
9.324926e+002, 6.433406e+001
9.329747e+002, 6.412667e+001
9.334568e+002, 6.387688e+001
9.339390e+002, 6.374950e+001
9.344211e+002, 6.381805e+001
9.349032e+002, 6.391609e+001
9.353853e+002, 6.387242e+001
9.358674e+002, 6.369355e+001
9.363495e+002, 6.334712e+001
9.368317e+002, 6.269701e+001
9.373138e+002, 6.251313e+001
9.377959e+002, 6.305504e+001
9.382780e+002, 6.370292e+001
9.387601e+002, 6.424985e+001
9.392422e+002, 6.458688e+001
9.397244e+002, 6.441286e+001
9.402065e+002, 6.354102e+001
9.406886e+002, 6.326032e+001
9.411707e+002, 6.420767e+001
9.416528e+002, 6.485091e+001
9.421349e+002, 6.473928e+001
9.426171e+002, 6.437418e+001
9.430992e+002, 6.399936e+001
9.435813e+002, 6.368671e+001
9.440634e+002, 6.356327e+001
9.445455e+002, 6.367850e+001
9.450276e+002, 6.388790e+001
9.455098e+002, 6.441730e+001
9.459919e+002, 6.473335e+001
9.464740e+002, 6.414123e+001
9.469561e+002, 6.330632e+001
9.474382e+002, 6.328131e+001
9.479203e+002, 6.403802e+001
9.484025e+002, 6.456400e+001
9.488846e+002, 6.423085e+001
9.493667e+002, 6.371209e+001
9.498488e+002, 6.368089e+001
9.503309e+002, 6.386231e+001
9.508130e+002, 6.379144e+001
9.512952e+002, 6.353200e+001
9.517773e+002, 6.343325e+001
9.522594e+002, 6.360183e+001
9.527415e+002, 6.380016e+001
9.532236e+002, 6.377879e+001
9.537057e+002, 6.365328e+001
9.541878e+002, 6.376220e+001
9.546699e+002, 6.404934e+001
9.551520e+002, 6.409370e+001
9.556342e+002, 6.383761e+001
9.561163e+002, 6.366207e+001
9.565984e+002, 6.379009e+001
9.570805e+002, 6.400027e+001
9.575626e+002, 6.390739e+001
9.580447e+002, 6.352031e+001
9.585269e+002, 6.340104e+001
9.590090e+002, 6.364762e+001
9.594911e+002, 6.371313e+001
9.599732e+002, 6.337703e+001
9.604553e+002, 6.308130e+001
9.609374e+002, 6.321815e+001
9.614196e+002, 6.360360e+001
9.619017e+002, 6.371007e+001
9.623838e+002, 6.342593e+001
9.628659e+002, 6.320342e+001
9.633480e+002, 6.297533e+001
9.638301e+002, 6.290257e+001
9.643123e+002, 6.319851e+001
9.647944e+002, 6.352254e+001
9.652765e+002, 6.352617e+001
9.657586e+002, 6.328720e+001
9.662407e+002, 6.319251e+001
9.667228e+002, 6.334297e+001
9.672050e+002, 6.352973e+001
9.676871e+002, 6.386431e+001
9.681692e+002, 6.405562e+001
9.686513e+002, 6.377906e+001
9.691334e+002, 6.334782e+001
9.696155e+002, 6.319542e+001
9.700977e+002, 6.335048e+001
9.705798e+002, 6.351841e+001
9.710619e+002, 6.361800e+001
9.715440e+002, 6.362151e+001
9.720261e+002, 6.344963e+001
9.725082e+002, 6.322181e+001
9.729904e+002, 6.301654e+001
9.734725e+002, 6.287557e+001
9.739546e+002, 6.286870e+001
9.744367e+002, 6.300954e+001
9.749188e+002, 6.322110e+001
9.754009e+002, 6.354276e+001
9.758831e+002, 6.378890e+001
9.763652e+002, 6.358912e+001
9.768473e+002, 6.316335e+001
9.773294e+002, 6.300758e+001
9.778115e+002, 6.313304e+001
9.782936e+002, 6.322963e+001
9.787758e+002, 6.315051e+001
9.792579e+002, 6.308757e+001
9.797400e+002, 6.335778e+001
9.802221e+002, 6.380921e+001
9.807042e+002, 6.389324e+001
9.811863e+002, 6.365139e+001
9.816685e+002, 6.338498e+001
9.821506e+002, 6.315532e+001
9.826327e+002, 6.303871e+001
9.831148e+002, 6.310104e+001
9.835969e+002, 6.323462e+001
9.840790e+002, 6.322628e+001
9.845612e+002, 6.307521e+001
9.850433e+002, 6.295760e+001
9.855254e+002, 6.287666e+001
9.860075e+002, 6.281545e+001
9.864896e+002, 6.277770e+001
9.869717e+002, 6.273463e+001
9.874539e+002, 6.267508e+001
9.879360e+002, 6.257924e+001
9.884181e+002, 6.235109e+001
9.889002e+002, 6.185334e+001
9.893823e+002, 6.173897e+001
9.898644e+002, 6.226023e+001
9.903466e+002, 6.267069e+001
9.908287e+002, 6.262456e+001
9.913108e+002, 6.250605e+001
9.917929e+002, 6.276822e+001
9.922750e+002, 6.330658e+001
9.927571e+002, 6.348476e+001
9.932393e+002, 6.298262e+001
9.937214e+002, 6.269932e+001
9.942035e+002, 6.282439e+001
9.946856e+002, 6.295781e+001
9.951677e+002, 6.299239e+001
9.956498e+002, 6.292736e+001
9.961320e+002, 6.264869e+001
9.966141e+002, 6.222517e+001
9.970962e+002, 6.214114e+001
9.975783e+002, 6.281483e+001
9.980604e+002, 6.328703e+001
9.985425e+002, 6.314653e+001
9.990247e+002, 6.290896e+001
9.995068e+002, 6.291026e+001
9.999889e+002, 6.301112e+001
1.000471e+003, 6.299195e+001
1.000953e+003, 6.282596e+001
1.001435e+003, 6.261082e+001
1.001917e+003, 6.226451e+001
1.002399e+003, 6.206512e+001
1.002882e+003, 6.237189e+001
1.003364e+003, 6.271390e+001
1.003846e+003, 6.254423e+001
1.004328e+003, 6.209949e+001
1.004810e+003, 6.194505e+001
1.005292e+003, 6.218911e+001
1.005774e+003, 6.237958e+001
1.006256e+003, 6.212341e+001
1.006739e+003, 6.184247e+001
1.007221e+003, 6.202851e+001
1.007703e+003, 6.237872e+001
1.008185e+003, 6.248043e+001
1.008667e+003, 6.234428e+001
1.009149e+003, 6.209566e+001
1.009631e+003, 6.179778e+001
1.010113e+003, 6.160265e+001
1.010595e+003, 6.173450e+001
1.011078e+003, 6.194770e+001
1.011560e+003, 6.174620e+001
1.012042e+003, 6.137225e+001
1.012524e+003, 6.151390e+001
1.013006e+003, 6.210732e+001
1.013488e+003, 6.243798e+001
1.013970e+003, 6.219911e+001
1.014452e+003, 6.180571e+001
1.014935e+003, 6.168489e+001
1.015417e+003, 6.178466e+001
1.015899e+003, 6.211334e+001
1.016381e+003, 6.256515e+001
1.016863e+003, 6.253664e+001
1.017345e+003, 6.199014e+001
1.017827e+003, 6.154486e+001
1.018309e+003, 6.152087e+001
1.018791e+003, 6.172132e+001
1.019274e+003, 6.195150e+001
1.019756e+003, 6.214983e+001
1.020238e+003, 6.187120e+001
1.020720e+003, 6.114964e+001
1.021202e+003, 6.097114e+001
1.021684e+003, 6.153865e+001
1.022166e+003, 6.201910e+001
1.022648e+003, 6.191253e+001
1.023130e+003, 6.155701e+001
1.023613e+003, 6.150684e+001
1.024095e+003, 6.173728e+001
1.024577e+003, 6.181443e+001
1.025059e+003, 6.170972e+001
1.025541e+003, 6.169774e+001
1.026023e+003, 6.184848e+001
1.026505e+003, 6.201264e+001
1.026987e+003, 6.210924e+001
1.027469e+003, 6.213464e+001
1.027952e+003, 6.207239e+001
1.028434e+003, 6.191712e+001
1.028916e+003, 6.178885e+001
1.029398e+003, 6.168809e+001
1.029880e+003, 6.161634e+001
1.030362e+003, 6.159280e+001
1.030844e+003, 6.155745e+001
1.031326e+003, 6.148564e+001
1.031809e+003, 6.135579e+001
1.032291e+003, 6.107519e+001
1.032773e+003, 6.057747e+001
1.033255e+003, 6.052962e+001
1.033737e+003, 6.124277e+001
1.034219e+003, 6.171908e+001
1.034701e+003, 6.166167e+001
1.035183e+003, 6.149340e+001
1.035666e+003, 6.146321e+001
1.036148e+003, 6.152717e+001
1.036630e+003, 6.159359e+001
1.037112e+003, 6.165483e+001
1.037594e+003, 6.176164e+001
1.038076e+003, 6.200396e+001
1.038558e+003, 6.214388e+001
1.039040e+003, 6.210322e+001
1.039522e+003, 6.198722e+001
1.040005e+003, 6.180655e+001
1.040487e+003, 6.161394e+001
1.040969e+003, 6.155443e+001
1.041451e+003, 6.168670e+001
1.041933e+003, 6.163835e+001
1.042415e+003, 6.105243e+001
1.042897e+003, 6.077702e+001
1.043379e+003, 6.137897e+001
1.043861e+003, 6.192887e+001
1.044344e+003, 6.163306e+001
1.044826e+003, 6.092571e+001
1.045308e+003, 6.072949e+001
1.045790e+003, 6.121027e+001
1.046272e+003, 6.142839e+001
1.046754e+003, 6.100372e+001
1.047236e+003, 6.069534e+001
1.047718e+003, 6.077679e+001
1.048201e+003, 6.094824e+001
1.048683e+003, 6.101348e+001
1.049165e+003, 6.101417e+001
1.049647e+003, 6.102854e+001
1.050129e+003, 6.105738e+001
1.050611e+003, 6.119175e+001
1.051093e+003, 6.165135e+001
1.051575e+003, 6.194072e+001
1.052057e+003, 6.173029e+001
1.052540e+003, 6.147373e+001
1.053022e+003, 6.159785e+001
1.053504e+003, 6.187561e+001
1.053986e+003, 6.179829e+001
1.054468e+003, 6.128172e+001
1.054950e+003, 6.097732e+001
1.055432e+003, 6.115260e+001
1.055914e+003, 6.143684e+001
1.056396e+003, 6.192363e+001
1.056879e+003, 6.226078e+001
1.057361e+003, 6.201198e+001
1.057843e+003, 6.150023e+001
1.058325e+003, 6.133130e+001
1.058807e+003, 6.159119e+001
1.059289e+003, 6.177551e+001
1.059771e+003, 6.165739e+001
1.060253e+003, 6.152155e+001
1.060736e+003, 6.148951e+001
1.061218e+003, 6.146713e+001
1.061700e+003, 6.133008e+001
1.062182e+003, 6.117534e+001
1.062664e+003, 6.120188e+001
1.063146e+003, 6.142292e+001
1.063628e+003, 6.158288e+001
1.064110e+003, 6.159004e+001
1.064593e+003, 6.151897e+001
1.065075e+003, 6.128630e+001
1.065557e+003, 6.109991e+001
1.066039e+003, 6.119991e+001
1.066521e+003, 6.141301e+001
1.067003e+003, 6.145587e+001
1.067485e+003, 6.129919e+001
1.067967e+003, 6.112036e+001
1.068449e+003, 6.094109e+001
1.068932e+003, 6.082877e+001
1.069414e+003, 6.087987e+001
1.069896e+003, 6.094190e+001
1.070378e+003, 6.086364e+001
1.070860e+003, 6.074297e+001
1.071342e+003, 6.076072e+001
1.071824e+003, 6.090554e+001
1.072306e+003, 6.095472e+001
1.072788e+003, 6.077012e+001
1.073271e+003, 6.060851e+001
1.073753e+003, 6.057420e+001
1.074235e+003, 6.062162e+001
1.074717e+003, 6.079767e+001
1.075199e+003, 6.098494e+001
1.075681e+003, 6.104647e+001
1.076163e+003, 6.097081e+001
1.076645e+003, 6.078057e+001
1.077127e+003, 6.039038e+001
1.077610e+003, 6.018772e+001
1.078092e+003, 6.050589e+001
1.078574e+003, 6.090428e+001
1.079056e+003, 6.110136e+001
1.079538e+003, 6.119810e+001
1.080020e+003, 6.136243e+001
1.080502e+003, 6.156150e+001
1.080984e+003, 6.163263e+001
1.081467e+003, 6.152791e+001
1.081949e+003, 6.128195e+001
1.082431e+003, 6.068711e+001
1.082913e+003, 6.021363e+001
1.083395e+003, 6.019632e+001
1.083877e+003, 6.041483e+001
1.084359e+003, 6.067403e+001
1.084841e+003, 6.094230e+001
1.085323e+003, 6.126383e+001
1.085806e+003, 6.167312e+001
1.086288e+003, 6.188679e+001
1.086770e+003, 6.164155e+001
1.087252e+003, 6.134859e+001
1.087734e+003, 6.124275e+001
1.088216e+003, 6.116702e+001
1.088698e+003, 6.090295e+001
1.089180e+003, 6.056859e+001
1.089662e+003, 6.045703e+001
1.090145e+003, 6.062832e+001
1.090627e+003, 6.079125e+001
1.091109e+003, 6.081812e+001
1.091591e+003, 6.084008e+001
1.092073e+003, 6.100822e+001
1.092555e+003, 6.110193e+001
1.093037e+003, 6.081379e+001
1.093519e+003, 6.038885e+001
1.094002e+003, 6.028008e+001
1.094484e+003, 6.052887e+001
1.094966e+003, 6.072620e+001
1.095448e+003, 6.082460e+001
1.095930e+003, 6.073219e+001
1.096412e+003, 6.020714e+001
1.096894e+003, 5.970987e+001
1.097376e+003, 5.950240e+001
1.097859e+003, 5.951689e+001
1.098341e+003, 5.973610e+001
1.098823e+003, 6.009346e+001
1.099305e+003, 6.025977e+001
1.099787e+003, 6.008136e+001
1.100269e+003, 5.987160e+001
1.100751e+003, 5.960740e+001
1.101233e+003, 5.945351e+001
1.101715e+003, 5.956004e+001
1.102198e+003, 5.976427e+001
1.102680e+003, 5.993437e+001
1.103162e+003, 6.004750e+001
1.103644e+003, 6.006063e+001
1.104126e+003, 5.991450e+001
1.104608e+003, 5.984058e+001
1.105090e+003, 5.989292e+001
1.105572e+003, 6.000700e+001
1.106054e+003, 6.027742e+001
1.106537e+003, 6.049420e+001
1.107019e+003, 6.040663e+001
1.107501e+003, 6.015356e+001
1.107983e+003, 6.011820e+001
1.108465e+003, 6.040047e+001
1.108947e+003, 6.047965e+001
1.109429e+003, 6.004778e+001
1.109911e+003, 5.978281e+001
1.110394e+003, 5.998389e+001
1.110876e+003, 6.021584e+001
1.111358e+003, 6.019218e+001
1.111840e+003, 6.004244e+001
1.112322e+003, 6.001027e+001
1.112804e+003, 6.011103e+001
1.113286e+003, 6.004697e+001
1.113768e+003, 5.955803e+001
1.114250e+003, 5.934046e+001
1.114733e+003, 5.962370e+001
1.115215e+003, 5.994054e+001
1.115697e+003, 6.018122e+001
1.116179e+003, 6.027382e+001
1.116661e+003, 6.004700e+001
1.117143e+003, 5.957232e+001
1.117625e+003, 5.938494e+001
1.118107e+003, 5.959591e+001
1.118589e+003, 5.984672e+001
1.119072e+003, 6.023875e+001
1.119554e+003, 6.044940e+001
1.120036e+003, 6.028612e+001
1.120518e+003, 6.006727e+001
1.121000e+003, 6.011256e+001
1.121482e+003, 6.027565e+001
1.121964e+003, 6.009298e+001
1.122446e+003, 5.946968e+001
1.122929e+003, 5.906633e+001
1.123411e+003, 5.888208e+001
1.123893e+003, 5.896263e+001
1.124375e+003, 5.944128e+001
1.124857e+003, 5.979910e+001
1.125339e+003, 5.967166e+001
1.125821e+003, 5.929498e+001
1.126303e+003, 5.903526e+001
1.126786e+003, 5.890154e+001
1.127268e+003, 5.913546e+001
1.127750e+003, 5.980254e+001
1.128232e+003, 6.024970e+001
1.128714e+003, 6.039484e+001
1.129196e+003, 6.021623e+001
1.129678e+003, 5.963848e+001
1.130160e+003, 5.913606e+001
1.130642e+003, 5.930752e+001
1.131125e+003, 5.990350e+001
1.131607e+003, 5.996576e+001
1.132089e+003, 5.954121e+001
1.132571e+003, 5.953118e+001
1.133053e+003, 5.997292e+001
1.133535e+003, 6.023661e+001
1.134017e+003, 6.013017e+001
1.134499e+003, 5.991212e+001
1.134981e+003, 5.976900e+001
1.135464e+003, 5.970660e+001
1.135946e+003, 5.977422e+001
1.136428e+003, 5.992701e+001
1.136910e+003, 5.998231e+001
1.137392e+003, 5.995800e+001
1.137874e+003, 5.997961e+001
1.138356e+003, 6.005108e+001
1.138838e+003, 5.998538e+001
1.139321e+003, 5.968500e+001
1.139803e+003, 5.944060e+001
1.140285e+003, 5.969322e+001
1.140767e+003, 6.010773e+001
1.141249e+003, 5.998768e+001
1.141731e+003, 5.958409e+001
1.142213e+003, 5.945324e+001
1.142695e+003, 5.958116e+001
1.143177e+003, 5.969762e+001
1.143660e+003, 5.971593e+001
1.144142e+003, 5.972461e+001
1.144624e+003, 5.982794e+001
1.145106e+003, 5.984776e+001
1.145588e+003, 5.946875e+001
1.146070e+003, 5.900334e+001
1.146552e+003, 5.883303e+001
1.147034e+003, 5.888511e+001
1.147516e+003, 5.905212e+001
1.147999e+003, 5.925726e+001
1.148481e+003, 5.931920e+001
1.148963e+003, 5.913646e+001
1.149445e+003, 5.896139e+001
1.149927e+003, 5.895922e+001
1.150409e+003, 5.901379e+001
1.150891e+003, 5.897313e+001
1.151373e+003, 5.899837e+001
1.151856e+003, 5.937505e+001
1.152338e+003, 5.993375e+001
1.152820e+003, 6.029172e+001
1.153302e+003, 6.036775e+001
1.153784e+003, 6.025352e+001
1.154266e+003, 5.978305e+001
1.154748e+003, 5.940671e+001
1.155230e+003, 5.920327e+001
1.155713e+003, 5.921521e+001
1.156195e+003, 5.972976e+001
1.156677e+003, 6.030536e+001
1.157159e+003, 6.025549e+001
1.157641e+003, 5.967402e+001
1.158123e+003, 5.947419e+001
1.158605e+003, 6.008549e+001
1.159087e+003, 6.033887e+001
1.159569e+003, 5.976497e+001
1.160052e+003, 5.937572e+001
1.160534e+003, 5.961417e+001
1.161016e+003, 5.992610e+001
1.161498e+003, 5.987799e+001
1.161980e+003, 5.963224e+001
1.162462e+003, 5.955999e+001
1.162944e+003, 5.969242e+001
1.163426e+003, 5.963762e+001
1.163908e+003, 5.927018e+001
1.164391e+003, 5.909554e+001
1.164873e+003, 5.923580e+001
1.165355e+003, 5.941130e+001
1.165837e+003, 5.949712e+001
1.166319e+003, 5.954242e+001
1.166801e+003, 5.960201e+001
1.167283e+003, 5.967342e+001
1.167765e+003, 5.975205e+001
1.168247e+003, 5.983879e+001
1.168730e+003, 5.986385e+001
1.169212e+003, 5.981751e+001
1.169694e+003, 6.006395e+001
1.170176e+003, 6.071442e+001
1.170658e+003, 6.104187e+001
1.171140e+003, 6.049461e+001
1.171622e+003, 5.970861e+001
1.172104e+003, 5.978517e+001
1.172587e+003, 6.042670e+001
1.173069e+003, 6.064966e+001
1.173551e+003, 6.054716e+001
1.174033e+003, 6.047197e+001
1.174515e+003, 6.045201e+001
1.174997e+003, 6.033752e+001
1.175479e+003, 6.007824e+001
1.175961e+003, 5.979012e+001
1.176443e+003, 5.950518e+001
1.176926e+003, 5.937980e+001
1.177408e+003, 5.983139e+001
1.177890e+003, 6.040206e+001
1.178372e+003, 6.028349e+001
1.178854e+003, 5.981506e+001
1.179336e+003, 5.977107e+001
1.179818e+003, 6.018248e+001
1.180300e+003, 6.058204e+001
1.180782e+003, 6.080444e+001
1.181265e+003, 6.077451e+001
1.181747e+003, 6.021967e+001
1.182229e+003, 5.967101e+001
1.182711e+003, 5.946346e+001
1.183193e+003, 5.944051e+001
1.183675e+003, 5.950592e+001
1.184157e+003, 5.960921e+001
1.184639e+003, 5.969942e+001
1.185122e+003, 5.976738e+001
1.185604e+003, 5.980149e+001
1.186086e+003, 5.976180e+001
1.186568e+003, 5.974898e+001
1.187050e+003, 5.987393e+001
1.187532e+003, 5.991125e+001
1.188014e+003, 5.961580e+001
1.188496e+003, 5.932409e+001
1.188979e+003, 5.943058e+001
1.189461e+003, 5.976068e+001
1.189943e+003, 5.977108e+001
1.190425e+003, 5.935240e+001
1.190907e+003, 5.928550e+001
1.191389e+003, 5.975219e+001
1.191871e+003, 6.005459e+001
1.192353e+003, 6.005096e+001
1.192835e+003, 5.994948e+001
1.193318e+003, 5.981821e+001
1.193800e+003, 5.975250e+001
1.194282e+003, 5.990331e+001
1.194764e+003, 6.017631e+001
1.195246e+003, 6.015039e+001
1.195728e+003, 5.984275e+001
1.196210e+003, 5.972096e+001
1.196692e+003, 5.980081e+001
1.197174e+003, 5.995559e+001
1.197657e+003, 6.014668e+001
1.198139e+003, 6.031559e+001
1.198621e+003, 6.043201e+001
1.199103e+003, 6.041524e+001
1.199585e+003, 6.003390e+001
1.200067e+003, 5.954038e+001
1.200549e+003, 5.946679e+001
1.201031e+003, 5.966457e+001
1.201514e+003, 5.988210e+001
1.201996e+003, 6.004552e+001
1.202478e+003, 6.003387e+001
1.202960e+003, 5.984019e+001
1.203442e+003, 5.964518e+001
1.203924e+003, 5.953695e+001
1.204406e+003, 5.951107e+001
1.204888e+003, 5.967353e+001
1.205370e+003, 5.980104e+001
1.205853e+003, 5.963757e+001
1.206335e+003, 5.938366e+001
1.206817e+003, 5.931292e+001
1.207299e+003, 5.936431e+001
1.207781e+003, 5.928467e+001
1.208263e+003, 5.901168e+001
1.208745e+003, 5.885121e+001
1.209227e+003, 5.888599e+001
1.209709e+003, 5.902589e+001
1.210192e+003, 5.944173e+001
1.210674e+003, 5.973321e+001
1.211156e+003, 5.962270e+001
1.211638e+003, 5.935447e+001
1.212120e+003, 5.909737e+001
1.212602e+003, 5.889842e+001
1.213084e+003, 5.896417e+001
1.213566e+003, 5.937221e+001
1.214049e+003, 5.966076e+001
1.214531e+003, 5.983178e+001
1.215013e+003, 5.985472e+001
1.215495e+003, 5.969352e+001
1.215977e+003, 5.952260e+001
1.216459e+003, 5.942702e+001
1.216941e+003, 5.941449e+001
1.217423e+003, 5.952311e+001
1.217906e+003, 5.967528e+001
1.218388e+003, 5.958154e+001
1.218870e+003, 5.930865e+001
1.219352e+003, 5.921485e+001
1.219834e+003, 5.927946e+001
1.220316e+003, 5.929584e+001
1.220798e+003, 5.921654e+001
1.221280e+003, 5.906057e+001
1.221762e+003, 5.883100e+001
1.222245e+003, 5.869946e+001
1.222727e+003, 5.890318e+001
1.223209e+003, 5.922975e+001
1.223691e+003, 5.956433e+001
1.224173e+003, 5.977525e+001
1.224655e+003, 5.956114e+001
1.225137e+003, 5.913900e+001
1.225619e+003, 5.894635e+001
1.226101e+003, 5.903321e+001
1.226584e+003, 5.914174e+001
1.227066e+003, 5.917061e+001
1.227548e+003, 5.925461e+001
1.228030e+003, 5.957925e+001
1.228512e+003, 5.978515e+001
1.228994e+003, 5.964886e+001
1.229476e+003, 5.940749e+001
1.229958e+003, 5.915751e+001
1.230441e+003, 5.897858e+001
1.230923e+003, 5.904633e+001
1.231405e+003, 5.934833e+001
1.231887e+003, 5.943712e+001
1.232369e+003, 5.922905e+001
1.232851e+003, 5.904340e+001
1.233333e+003, 5.884998e+001
1.233815e+003, 5.888044e+001
1.234297e+003, 5.928546e+001
1.234780e+003, 5.953300e+001
1.235262e+003, 5.919286e+001
1.235744e+003, 5.865913e+001
1.236226e+003, 5.864490e+001
1.236708e+003, 5.899789e+001
1.237190e+003, 5.905501e+001
1.237672e+003, 5.889331e+001
1.238154e+003, 5.884986e+001
1.238636e+003, 5.894408e+001
1.239119e+003, 5.911048e+001
1.239601e+003, 5.930470e+001
1.240083e+003, 5.938619e+001
1.240565e+003, 5.925238e+001
1.241047e+003, 5.904857e+001
1.241529e+003, 5.880844e+001
1.242011e+003, 5.867731e+001
1.242493e+003, 5.893666e+001
1.242975e+003, 5.927902e+001
1.243458e+003, 5.928231e+001
1.243940e+003, 5.907520e+001
1.244422e+003, 5.903045e+001
1.244904e+003, 5.919160e+001
1.245386e+003, 5.922974e+001
1.245868e+003, 5.885529e+001
1.246350e+003, 5.873259e+001
1.246832e+003, 5.937959e+001
1.247315e+003, 5.973586e+001
1.247797e+003, 5.906842e+001
1.248279e+003, 5.845481e+001
1.248761e+003, 5.873359e+001
1.249243e+003, 5.947944e+001
1.249725e+003, 5.998043e+001
1.250207e+003, 6.022825e+001
1.250689e+003, 6.001691e+001
1.251172e+003, 5.926605e+001
1.251654e+003, 5.899053e+001
1.252136e+003, 5.928533e+001
1.252618e+003, 5.948890e+001
1.253100e+003, 5.940254e+001
1.253582e+003, 5.920137e+001
1.254064e+003, 5.899618e+001
1.254546e+003, 5.884894e+001
1.255028e+003, 5.886069e+001
1.255510e+003, 5.898220e+001
1.255993e+003, 5.918097e+001
1.256475e+003, 5.938738e+001
1.256957e+003, 5.940618e+001
1.257439e+003, 5.933274e+001
1.257921e+003, 5.948746e+001
1.258403e+003, 5.987058e+001
1.258885e+003, 6.007534e+001
1.259367e+003, 5.989600e+001
1.259850e+003, 5.964823e+001
1.260332e+003, 5.935633e+001
1.260814e+003, 5.919191e+001
1.261296e+003, 5.939925e+001
1.261778e+003, 5.959833e+001
1.262260e+003, 5.938432e+001
1.262742e+003, 5.903685e+001
1.263224e+003, 5.903514e+001
1.263707e+003, 5.933805e+001
1.264189e+003, 5.958649e+001
1.264671e+003, 5.977546e+001
1.265153e+003, 5.990473e+001
1.265635e+003, 5.992372e+001
1.266117e+003, 6.018294e+001
1.266599e+003, 6.083778e+001
1.267081e+003, 6.116444e+001
1.267563e+003, 6.073438e+001
1.268046e+003, 6.000514e+001
1.268528e+003, 5.945954e+001
1.269010e+003, 5.911956e+001
1.269492e+003, 5.910041e+001
1.269974e+003, 5.929288e+001
1.270456e+003, 5.948187e+001
1.270938e+003, 5.962105e+001
1.271420e+003, 5.955854e+001
1.271902e+003, 5.936470e+001
1.272385e+003, 5.941896e+001
1.272867e+003, 5.986740e+001
1.273349e+003, 6.023248e+001
1.273831e+003, 6.012886e+001
1.274313e+003, 6.001198e+001
1.274795e+003, 6.016430e+001
1.275277e+003, 6.031892e+001
1.275759e+003, 6.023808e+001
1.276242e+003, 6.011055e+001
1.276724e+003, 6.024282e+001
1.277206e+003, 6.050330e+001
1.277688e+003, 6.042222e+001
1.278170e+003, 5.994706e+001
1.278652e+003, 5.959510e+001
1.279134e+003, 5.933659e+001
1.279616e+003, 5.933573e+001
1.280099e+003, 5.965216e+001
1.280581e+003, 6.005107e+001
1.281063e+003, 6.048032e+001
1.281545e+003, 6.063253e+001
1.282027e+003, 6.022466e+001
1.282509e+003, 5.963003e+001
1.282991e+003, 5.948703e+001
1.283473e+003, 5.963136e+001
1.283955e+003, 5.972534e+001
##END=



